%OpenBCI Raw EEG Data
%Number of channels = 8
%Sample Rate = 250 Hz
%Board = OpenBCI_GUI$BoardCytonSerial
Sample Index, EXG Channel 0, EXG Channel 1, EXG Channel 2, EXG Channel 3, EXG Channel 4, EXG Channel 5, EXG Channel 6, EXG Channel 7, Accel Channel 0, Accel Channel 1, Accel Channel 2, Other, Other, Other, Other, Other, Other, Other, Analog Channel 0, Analog Channel 1, Analog Channel 2, Timestamp, Other, Timestamp (Formatted)
238.0, -131773.41303508438, -157789.5024763945, -32338.615636660536, -140495.93543957896, 69667.68290611303, -114241.75521633092, 58939.82904432167, -109903.10280360018, 0.0, 0.0, 0.0, 192.0, 0.0, 0.0, 0.0, 0.0, 0.0, 0.0, 0.0, 0.0, 0.0, 1.6664048644140897E9, 0.0, 2022-10-21 19:14:24.414
239.0, -131775.6482095299, -157789.61423511675, -32343.108337296053, -140518.84597764563, 69656.61879260764, -114270.09722830025, 58920.718302812376, -109914.45748978347, 0.0, 0.0, 0.0, 192.0, 0.0, 0.0, 0.0, 0.0, 0.0, 0.0, 0.0, 0.0, 0.0, 1.6664048644141295E9, 0.0, 2022-10-21 19:14:24.414
240.0, -131771.04375017213, -157786.239121704, -32337.07336629312, -140519.20360555692, 69661.24560370989, -114296.13701059068, 58905.31795088267, -109915.32920781722, 0.0, 0.0, 0.0, 192.0, 0.0, 0.0, 0.0, 0.0, 0.0, 0.0, 0.0, 0.0, 0.0, 1.666404864414162E9, 0.0, 2022-10-21 19:14:24.414
241.0, -131770.17203213836, -157787.08848799331, -32334.72643312531, -140505.43493097246, 69667.68290611303, -114278.70264991555, 58917.70081731091, -109912.40112929359, 0.016, 0.9540000000000001, -0.048, 192.0, 0.0, 128.0, 29.0, 208.0, 254.0, 128.0, 0.0, 0.0, 0.0, 1.666404864414192E9, 0.0, 2022-10-21 19:14:24.414
242.0, -131772.67542751736, -157791.98352002903, -32339.621465161024, -140500.9645820814, 69664.19603397799, -114244.25861170991, 58942.801826334224, -109915.17274560605, 0.016, 0.9540000000000001, -0.048, 192.0, 0.0, 0.0, 0.0, 0.0, 0.0, 0.0, 0.0, 0.0, 0.0, 1.66640486441422E9, 0.0, 2022-10-21 19:14:24.414
243.0, -131768.02626467065, -157788.31783393834, -32336.20164825936, -140509.4135414855, 69660.70916184297, -114268.0185160659, 58932.07298899567, -109906.61202747966, 0.016, 0.9540000000000001, -0.048, 192.0, 0.0, 0.0, 0.0, 0.0, 0.0, 0.0, 0.0, 0.0, 0.0, 1.6664048644142444E9, 0.0, 2022-10-21 19:14:24.414
244.0, -131770.48495656074, -157789.03308976092, -32340.895514594977, -140519.49417823483, 69656.14940597408, -114300.04856587035, 58908.1566224285, -109905.62855072363, 0.016, 0.9540000000000001, -0.048, 192.0, 0.0, 0.0, 0.0, 0.0, 0.0, 0.0, 0.0, 0.0, 0.0, 1.6664048644142692E9, 0.0, 2022-10-21 19:14:24.414
245.0, -131769.36736933797, -157789.5024763945, -32342.97422682932, -140510.59818394162, 69657.51286238586, -114297.81339142483, 58907.217849161374, -109908.8472019252, 0.016, 0.9540000000000001, -0.048, 192.0, 0.0, 0.0, 0.0, 0.0, 0.0, 0.0, 0.0, 0.0, 0.0, 1.6664048644142935E9, 0.0, 2022-10-21 19:14:24.414
246.0, -131766.30518034758, -157789.27895894993, -32342.057805306653, -140498.5058901913, 69661.62558336563, -114267.45972245453, 58931.89417504003, -109902.09697509969, 0.016, 0.9540000000000001, -0.048, 192.0, 0.0, 0.0, 0.0, 0.0, 0.0, 0.0, 0.0, 0.0, 0.0, 1.6664048644143178E9, 0.0, 2022-10-21 19:14:24.414
247.0, -131765.99225592523, -157789.25660720546, -32341.29784599517, -140505.0549513167, 69660.61975486514, -114273.15941729062, 58928.89904128302, -109911.06002462626, 0.016, 0.9540000000000001, -0.048, 192.0, 0.0, 0.0, 0.0, 0.0, 0.0, 0.0, 0.0, 0.0, 0.0, 1.666404864414342E9, 0.0, 2022-10-21 19:14:24.414
248.0, -131765.45581405828, -157786.5520461264, -32336.559276170647, -140505.79255888375, 69668.15229274658, -114285.22935929649, 58918.192555688925, -109909.87538217014, 0.016, 0.9540000000000001, -0.048, 192.0, 0.0, 0.0, 0.0, 0.0, 0.0, 0.0, 0.0, 0.0, 0.0, 1.6664048644143662E9, 0.0, 2022-10-21 19:14:24.414
249.0, -131756.6492267429, -157777.253720433, -32326.813915588133, -140492.87325058857, 69678.7023161295, -114274.83579812477, 58925.121596470075, -109901.71699544395, 0.016, 0.9540000000000001, -0.048, 192.0, 0.0, 0.0, 0.0, 0.0, 0.0, 0.0, 0.0, 0.0, 0.0, 1.6664048644143898E9, 0.0, 2022-10-21 19:14:24.414
250.0, -131763.51121229067, -157785.92619728163, -32335.128764525507, -140501.18809952596, 69669.00165903589, -114267.52677768789, 58929.74840757232, -109912.93757116051, 0.016, 0.9540000000000001, -0.048, 192.0, 0.0, 0.0, 0.0, 0.0, 0.0, 0.0, 0.0, 0.0, 0.0, 1.6664048644144137E9, 0.0, 2022-10-21 19:14:24.414
251.0, -131768.54035479313, -157791.96116828456, -32340.046148305675, -140502.73036989337, 69665.8947665566, -114267.90675734363, 58929.0108000053, -109918.5478590188, 0.01, 0.9580000000000001, -0.048, 192.0, 0.0, 80.0, 29.0, 240.0, 254.0, 128.0, 0.0, 0.0, 0.0, 1.666404864414441E9, 0.0, 2022-10-21 19:14:24.414
252.0, -131774.86589847397, -157796.0962410088, -32344.918828596932, -140513.2580415318, 69660.12801648713, -114280.55784470533, 58914.45981436489, -109921.43123405353, 0.01, 0.9580000000000001, -0.048, 192.0, 0.0, 0.0, 0.0, 0.0, 0.0, 0.0, 0.0, 0.0, 0.0, 1.6664048644144762E9, 0.0, 2022-10-21 19:14:24.414
253.0, -131769.83675597154, -157790.77652582843, -32339.465002949837, -140512.38632349807, 69661.4914728989, -114300.49560075947, 58905.0050264603, -109910.1436031036, 0.01, 0.9580000000000001, -0.048, 192.0, 0.0, 0.0, 0.0, 0.0, 0.0, 0.0, 0.0, 0.0, 0.0, 1.6664048644146924E9, 0.0, 2022-10-21 19:14:24.414
254.0, -131769.27796236015, -157790.66476710615, -32337.699215137865, -140497.38830296855, 69666.81118807927, -114284.51410347392, 58923.53462261375, -109906.94730364649, 0.01, 0.9580000000000001, -0.048, 192.0, 0.0, 0.0, 0.0, 0.0, 0.0, 0.0, 0.0, 0.0, 0.0, 1.6664048644147043E9, 0.0, 2022-10-21 19:14:24.414
255.0, -131773.12246240646, -157793.01170027396, -32342.39308147348, -140503.08799780466, 69658.51869088634, -114278.970870849, 58926.48505288185, -109916.93853341801, 0.01, 0.9580000000000001, -0.048, 192.0, 0.0, 0.0, 0.0, 0.0, 0.0, 0.0, 0.0, 0.0, 0.0, 1.6664048644147155E9, 0.0, 2022-10-21 19:14:24.414
0.0, -131767.37806408145, -157787.37906067123, -32335.307578481148, -140504.78673038326, 69665.26891771184, -114288.58212096478, 58921.478262123856, -109910.27771357034, 0.01, 0.9580000000000001, -0.048, 192.0, 0.0, 0.0, 0.0, 0.0, 0.0, 0.0, 0.0, 0.0, 0.0, 1.666404864414727E9, 0.0, 2022-10-21 19:14:24.414
1.0, -131768.38389258194, -157789.7483455835, -32333.452383691358, -140498.0588553022, 69671.37094394815, -114297.41106002463, 58913.36457888658, -109903.25926581136, 0.01, 0.9580000000000001, -0.048, 192.0, 0.0, 0.0, 0.0, 0.0, 0.0, 0.0, 0.0, 0.0, 0.0, 1.6664048644147382E9, 0.0, 2022-10-21 19:14:24.414
2.0, -131775.06706417407, -157796.45386892007, -32339.219133760827, -140495.04136980075, 69662.29613569929, -114285.89991163016, 58919.28779116724, -109915.82094619525, 0.01, 0.9580000000000001, -0.048, 192.0, 0.0, 0.0, 0.0, 0.0, 0.0, 0.0, 0.0, 0.0, 0.0, 1.6664048644147496E9, 0.0, 2022-10-21 19:14:24.414
3.0, -131775.13411940745, -157797.48204916503, -32336.916904081932, -140496.13660527905, 69663.05609501078, -114275.28283301389, 58927.781454060256, -109916.08916712871, 0.01, 0.9580000000000001, -0.048, 192.0, 0.0, 0.0, 0.0, 0.0, 0.0, 0.0, 0.0, 0.0, 0.0, 1.6664048644147613E9, 0.0, 2022-10-21 19:14:24.414
4.0, -131765.81344196957, -157785.68032809263, -32328.043261533174, -140488.73817786435, 69675.1483887611, -114274.61228068022, 58928.31789592718, -109903.05810011126, 0.012, 0.9580000000000001, -0.054, 192.0, 0.0, 96.0, 29.0, 240.0, 254.0, 80.0, 0.0, 0.0, 0.0, 1.6664048644147768E9, 0.0, 2022-10-21 19:14:24.414
5.0, -131766.7969187256, -157786.12736298173, -32331.820706346123, -140495.37664596757, 69672.57793814874, -114282.65890868413, 58918.66194232249, -109904.77918443433, 0.012, 0.9580000000000001, -0.054, 192.0, 0.0, 0.0, 0.0, 0.0, 0.0, 0.0, 0.0, 0.0, 0.0, 1.666404864414789E9, 0.0, 2022-10-21 19:14:24.414
6.0, -131769.97086643826, -157790.24008396151, -32329.25025573376, -140502.66331466, 69667.68290611303, -114276.33336500327, 58922.528794113256, -109905.96382689045, 0.012, 0.9580000000000001, -0.054, 192.0, 0.0, 0.0, 0.0, 0.0, 0.0, 0.0, 0.0, 0.0, 0.0, 1.6664048644148002E9, 0.0, 2022-10-21 19:14:24.414
7.0, -131771.26726761667, -157789.92715953913, -32330.747822612266, -140505.92666935048, 69660.32918218723, -114255.88151882667, 58937.16918673149, -109910.00949263686, 0.012, 0.9580000000000001, -0.054, 192.0, 0.0, 0.0, 0.0, 0.0, 0.0, 0.0, 0.0, 0.0, 0.0, 1.6664048644148111E9, 0.0, 2022-10-21 19:14:24.414
8.0, -131764.2488198577, -157783.0875257358, -32327.685633621888, -140514.24151828786, 69662.81022582177, -114264.15166427514, 58933.88348029656, -109909.76362344786, 0.012, 0.9580000000000001, -0.054, 192.0, 0.0, 0.0, 0.0, 0.0, 0.0, 0.0, 0.0, 0.0, 0.0, 1.6664048644148223E9, 0.0, 2022-10-21 19:14:24.414
9.0, -131756.29159883162, -157774.3926971427, -32319.571950384612, -140508.92180310749, 69671.81797883725, -114292.82895241129, 58915.01860797627, -109905.7403094459, 0.012, 0.9580000000000001, -0.054, 192.0, 0.0, 0.0, 0.0, 0.0, 0.0, 0.0, 0.0, 0.0, 0.0, 1.6664048644148335E9, 0.0, 2022-10-21 19:14:24.414
10.0, -131762.50538379018, -157780.22650244553, -32324.176409742406, -140502.2609832598, 69669.8957288141, -114301.21085658204, 58909.743596284825, -109911.30589381527, 0.012, 0.9580000000000001, -0.054, 192.0, 0.0, 0.0, 0.0, 0.0, 0.0, 0.0, 0.0, 0.0, 0.0, 1.6664048644148448E9, 0.0, 2022-10-21 19:14:24.414
11.0, -131761.36544482296, -157778.97480475603, -32322.92471205291, -140496.06955004568, 69673.76258060486, -114271.43833296756, 58935.00106751932, -109904.9356466455, 0.012, 0.9580000000000001, -0.054, 192.0, 0.0, 0.0, 0.0, 0.0, 0.0, 0.0, 0.0, 0.0, 0.0, 1.666404864414856E9, 0.0, 2022-10-21 19:14:24.414
12.0, -131759.04086339963, -157778.32660416682, -32327.01508128823, -140506.8654426176, 69671.16977824805, -114274.67933591359, 58929.882518039056, -109911.93174266002, 0.012, 0.9580000000000001, -0.054, 192.0, 0.0, 0.0, 0.0, 0.0, 0.0, 0.0, 0.0, 0.0, 0.0, 1.6664048644148672E9, 0.0, 2022-10-21 19:14:24.414
13.0, -131761.36544482296, -157781.43349664612, -32329.652587133958, -140520.83528290218, 69668.62167938014, -114305.234170584, 58905.29559913822, -109914.68100722802, 0.012, 0.9580000000000001, -0.054, 192.0, 0.0, 0.0, 0.0, 0.0, 0.0, 0.0, 0.0, 0.0, 0.0, 1.666404864414918E9, 0.0, 2022-10-21 19:14:24.414
14.0, -131756.53746802063, -157774.77267679843, -32324.332871953593, -140508.07243681818, 69673.65082188259, -114304.74243220598, 58907.016683461276, -109904.84623966769, 0.012, 0.9560000000000001, -0.052000000000000005, 192.0, 0.0, 96.0, 29.0, 224.0, 254.0, 96.0, 0.0, 0.0, 0.0, 1.6664048644149292E9, 0.0, 2022-10-21 19:14:24.414
15.0, -131752.76002320767, -157772.31398490834, -32320.60013062956, -140489.11815752008, 69681.98802256442, -114270.70072540054, 58933.369390174084, -109899.16889657604, 0.012, 0.9560000000000001, -0.052000000000000005, 192.0, 0.0, 0.0, 0.0, 0.0, 0.0, 0.0, 0.0, 0.0, 0.0, 1.6664048644149413E9, 0.0, 2022-10-21 19:14:24.414
16.0, -131754.52581101964, -157772.0904674638, -32322.902360308453, -140494.661390145, 69679.7528481189, -114257.87082408319, 58941.684239111455, -109905.18151583453, 0.012, 0.9560000000000001, -0.052000000000000005, 192.0, 0.0, 0.0, 0.0, 0.0, 0.0, 0.0, 0.0, 0.0, 0.0, 1.6664048644149525E9, 0.0, 2022-10-21 19:14:24.414
17.0, -131755.62104649795, -157770.4364383741, -32326.34452895457, -140511.49225371986, 69670.52157765884, -114278.36737374871, 58923.71343656939, -109908.8919054141, 0.012, 0.9560000000000001, -0.052000000000000005, 192.0, 0.0, 0.0, 0.0, 0.0, 0.0, 0.0, 0.0, 0.0, 0.0, 1.6664048644149637E9, 0.0, 2022-10-21 19:14:24.414
18.0, -131756.29159883162, -157772.15752269718, -32328.19972374436, -140513.10157932062, 69670.63333638113, -114293.43244951159, 58914.92920099846, -109905.40503327908, 0.012, 0.9560000000000001, -0.052000000000000005, 192.0, 0.0, 0.0, 0.0, 0.0, 0.0, 0.0, 0.0, 0.0, 0.0, 1.666404864414975E9, 0.0, 2022-10-21 19:14:24.414
19.0, -131751.597732496, -157767.66482206163, -32324.645796375968, -140504.25028851634, 69674.65665038308, -114282.25657728393, 58929.14491047203, -109908.37781529163, 0.012, 0.9560000000000001, -0.052000000000000005, 192.0, 0.0, 0.0, 0.0, 0.0, 0.0, 0.0, 0.0, 0.0, 0.0, 1.6664048644149864E9, 0.0, 2022-10-21 19:14:24.414
20.0, -131753.65409298587, -157768.35772613977, -32315.191008471375, -140497.38830296855, 69683.26207199837, -114270.18663527806, 58945.81931183569, -109896.6878529415, 0.012, 0.9560000000000001, -0.052000000000000005, 192.0, 0.0, 0.0, 0.0, 0.0, 0.0, 0.0, 0.0, 0.0, 0.0, 1.6664048644149976E9, 0.0, 2022-10-21 19:14:24.414
21.0, -131758.21384885476, -157770.05645871838, -32316.643871860968, -140502.97623908237, 69686.3466127332, -114278.45678072653, 58938.0632565097, -109891.41284125006, 0.012, 0.9560000000000001, -0.052000000000000005, 192.0, 0.0, 0.0, 0.0, 0.0, 0.0, 0.0, 0.0, 0.0, 0.0, 1.6664048644150395E9, 0.0, 2022-10-21 19:14:24.415
22.0, -131753.47527903024, -157764.7814470269, -32319.482543406793, -140508.74298915185, 69679.7975516078, -114289.23032155399, 58925.23335519235, -109902.11932684414, 0.012, 0.9560000000000001, -0.052000000000000005, 192.0, 0.0, 0.0, 0.0, 0.0, 0.0, 0.0, 0.0, 0.0, 0.0, 1.6664048644150827E9, 0.0, 2022-10-21 19:14:24.415
23.0, -131743.104069603, -157755.14784516668, -32316.710927094333, -140495.28723898975, 69681.94331907551, -114288.17978956459, 58929.48018663886, -109901.7840506773, 0.012, 0.9560000000000001, -0.052000000000000005, 192.0, 0.0, 0.0, 0.0, 0.0, 0.0, 0.0, 0.0, 0.0, 0.0, 1.666404864415125E9, 0.0, 2022-10-21 19:14:24.415
24.0, -131743.46169751426, -157755.61723180025, -32319.97428178481, -140487.79940459723, 69683.3514789762, -114274.67933591359, 58939.89609955503, -109906.92495190204, 0.01, 0.9500000000000001, -0.05, 192.0, 0.0, 80.0, 29.0, 176.0, 254.0, 112.0, 0.0, 0.0, 0.0, 1.6664048644151683E9, 0.0, 2022-10-21 19:14:24.415
25.0, -131750.41309003986, -157761.20516791407, -32321.427145174403, -140495.19783201194, 69682.99385106491, -114264.8222166088, 58941.50542515581, -109910.61298973716, 0.01, 0.9500000000000001, -0.05, 192.0, 0.0, 0.0, 0.0, 0.0, 0.0, 0.0, 0.0, 0.0, 0.0, 1.6664048644152095E9, 0.0, 2022-10-21 19:14:24.415
26.0, -131751.50832551817, -157763.3956388707, -32321.337738196584, -140503.19975652694, 69679.17170276305, -114273.89702485765, 58930.59777386162, -109905.96382689045, 0.01, 0.9500000000000001, -0.05, 192.0, 0.0, 0.0, 0.0, 0.0, 0.0, 0.0, 0.0, 0.0, 0.0, 1.6664048644152453E9, 0.0, 2022-10-21 19:14:24.415
27.0, -131748.26732257215, -157759.1935109131, -32321.091869007574, -140499.39995996954, 69679.50697892989, -114278.59089119326, 58930.73188432836, -109901.67229195504, 0.01, 0.9500000000000001, -0.05, 192.0, 0.0, 0.0, 0.0, 0.0, 0.0, 0.0, 0.0, 0.0, 0.0, 1.6664048644152875E9, 0.0, 2022-10-21 19:14:24.415
28.0, -131753.67644473034, -157762.56862432582, -32324.86931382052, -140496.04719830124, 69675.66247888356, -114268.80082712184, 58940.43254142196, -109911.73057695992, 0.01, 0.9500000000000001, -0.05, 192.0, 0.0, 0.0, 0.0, 0.0, 0.0, 0.0, 0.0, 0.0, 0.0, 1.6664048644154592E9, 0.0, 2022-10-21 19:14:24.415
29.0, -131752.06711912956, -157759.484083591, -32322.321214952615, -140505.0549513167, 69674.50018817189, -114285.51993197441, 58931.80476806221, -109912.73640546041, 0.01, 0.9500000000000001, -0.05, 192.0, 0.0, 0.0, 0.0, 0.0, 0.0, 0.0, 0.0, 0.0, 0.0, 1.666404864415475E9, 0.0, 2022-10-21 19:14:24.415
30.0, -131757.87857268794, -157765.67551680512, -32329.809049345145, -140515.94025086646, 69668.15229274658, -114298.9309786476, 58917.656113822, -109918.32434157425, 0.01, 0.9500000000000001, -0.05, 192.0, 0.0, 0.0, 0.0, 0.0, 0.0, 0.0, 0.0, 0.0, 0.0, 1.6664048644154904E9, 0.0, 2022-10-21 19:14:24.415
31.0, -131746.63564522692, -157754.231423644, -32319.080212006596, -140499.914050092, 69676.78006610634, -114289.92322563211, 58927.490881382335, -109904.8909431566, 0.01, 0.9500000000000001, -0.05, 192.0, 0.0, 0.0, 0.0, 0.0, 0.0, 0.0, 0.0, 0.0, 0.0, 1.6664048644155066E9, 0.0, 2022-10-21 19:14:24.415
32.0, -131745.38394753743, -157751.21393814255, -32316.01802301622, -140489.56519240918, 69682.85974059817, -114263.3693532192, 58947.42863743647, -109904.55566698978, 0.01, 0.9500000000000001, -0.05, 192.0, 0.0, 0.0, 0.0, 0.0, 0.0, 0.0, 0.0, 0.0, 0.0, 1.666404864415522E9, 0.0, 2022-10-21 19:14:24.415
33.0, -131744.22165682574, -157747.81647298535, -32314.96749102682, -140501.32220999268, 69677.96470856246, -114262.5199869299, 58943.1147507566, -109909.51775425885, 0.01, 0.96, -0.056, 192.0, 0.0, 80.0, 30.0, 0.0, 254.0, 64.0, 0.0, 0.0, 0.0, 1.6664048644155376E9, 0.0, 2022-10-21 19:14:24.415
34.0, -131736.7561741777, -157739.81454847034, -32303.5233978657, -140492.09093953265, 69690.63814766862, -114289.18561806508, 58929.68135233896, -109890.22819879392, 0.01, 0.96, -0.056, 192.0, 0.0, 0.0, 0.0, 0.0, 0.0, 0.0, 0.0, 0.0, 0.0, 1.6664048644155543E9, 0.0, 2022-10-21 19:14:24.415
35.0, -131750.86012492896, -157755.1254934222, -32317.649700361457, -140503.6020879271, 69677.07063878425, -114292.35956577773, 58925.61333484809, -109906.25439956838, 0.01, 0.96, -0.056, 192.0, 0.0, 0.0, 0.0, 0.0, 0.0, 0.0, 0.0, 0.0, 0.0, 1.6664048644155695E9, 0.0, 2022-10-21 19:14:24.415
36.0, -131751.5530290071, -157755.17019691115, -32316.24154046077, -140495.62251515657, 69678.88113008514, -114278.56853944881, 58940.18667223295, -109905.62855072363, 0.01, 0.96, -0.056, 192.0, 0.0, 0.0, 0.0, 0.0, 0.0, 0.0, 0.0, 0.0, 0.0, 1.666404864415586E9, 0.0, 2022-10-21 19:14:24.415
37.0, -131753.51998251915, -157756.8912812342, -32315.86156080503, -140494.661390145, 69684.8043423658, -114264.39753346414, 58949.88732932656, -109901.26996055484, 0.01, 0.96, -0.056, 192.0, 0.0, 0.0, 0.0, 0.0, 0.0, 0.0, 0.0, 0.0, 0.0, 1.6664048644156013E9, 0.0, 2022-10-21 19:14:24.415
38.0, -131757.16331686536, -157761.3392783808, -32321.40479342995, -140504.78673038326, 69681.13865627511, -114262.38587646317, 58942.98064028986, -109903.10280360018, 0.01, 0.96, -0.056, 192.0, 0.0, 0.0, 0.0, 0.0, 0.0, 0.0, 0.0, 0.0, 0.0, 1.6664048644156168E9, 0.0, 2022-10-21 19:14:24.415
39.0, -131761.56661052306, -157763.7309150375, -32326.657453376945, -140509.6147071856, 69672.26501372636, -114265.2692514979, 58936.6103931201, -109908.690739714, 0.01, 0.96, -0.056, 192.0, 0.0, 0.0, 0.0, 0.0, 0.0, 0.0, 0.0, 0.0, 0.0, 1.666404864415632E9, 0.0, 2022-10-21 19:14:24.415
40.0, -131759.33143607754, -157761.7863132699, -32327.462116177336, -140504.3173437497, 69667.74996134639, -114260.30716422883, 58946.66867812499, -109910.23301008141, 0.01, 0.96, -0.056, 192.0, 0.0, 0.0, 0.0, 0.0, 0.0, 0.0, 0.0, 0.0, 0.0, 1.6664048644156473E9, 0.0, 2022-10-21 19:14:24.415
41.0, -131757.14096512093, -157758.9252899796, -32322.768249841723, -140502.52920419327, 69673.44965618249, -114258.49667292794, 58951.04962003823, -109907.41669028005, 0.01, 0.96, -0.056, 192.0, 0.0, 0.0, 0.0, 0.0, 0.0, 0.0, 0.0, 0.0, 0.0, 1.6664048644156632E9, 0.0, 2022-10-21 19:14:24.415
42.0, -131760.31491283356, -157760.86989174722, -32324.176409742406, -140511.42519848648, 69673.47200792695, -114275.50635045844, 58936.63274486455, -109909.00366413638, 0.01, 0.96, -0.056, 192.0, 0.0, 0.0, 0.0, 0.0, 0.0, 0.0, 0.0, 0.0, 0.0, 1.6664048644156785E9, 0.0, 2022-10-21 19:14:24.415
43.0, -131758.86204944397, -157757.4277231011, -32325.696328365368, -140499.53407043626, 69678.9481853185, -114288.58212096478, 58931.46949189538, -109897.85014365318, 0.01, 0.962, -0.056, 192.0, 0.0, 80.0, 30.0, 16.0, 254.0, 64.0, 0.0, 0.0, 0.0, 1.66640486441571E9, 0.0, 2022-10-21 19:14:24.415
44.0, -131760.76194772267, -157759.61819405772, -32326.009252787742, -140490.68277963196, 69673.98609804941, -114271.08070505629, 58947.42863743647, -109898.76656517584, 0.01, 0.962, -0.056, 192.0, 0.0, 0.0, 0.0, 0.0, 0.0, 0.0, 0.0, 0.0, 0.0, 1.6664048644157264E9, 0.0, 2022-10-21 19:14:24.415
45.0, -131756.47041278725, -157757.6735922901, -32318.856694562044, -140488.93934356445, 69678.67996438504, -114257.66965838309, 58961.24201550985, -109899.6382832096, 0.01, 0.962, -0.056, 192.0, 0.0, 0.0, 0.0, 0.0, 0.0, 0.0, 0.0, 0.0, 0.0, 1.6664048644157417E9, 0.0, 2022-10-21 19:14:24.415
46.0, -131759.95728492227, -157759.26056614646, -32323.997595786765, -140508.92180310749, 69672.71204861546, -114270.09722830025, 58949.21677699289, -109904.2427425674, 0.01, 0.962, -0.056, 192.0, 0.0, 0.0, 0.0, 0.0, 0.0, 0.0, 0.0, 0.0, 0.0, 1.6664048644157596E9, 0.0, 2022-10-21 19:14:24.415
47.0, -131755.01754939766, -157754.00790619946, -32318.432011417393, -140502.7527216378, 69680.8033801083, -114280.60254819425, 58942.734771100855, -109896.17376281903, 0.01, 0.962, -0.056, 192.0, 0.0, 0.0, 0.0, 0.0, 0.0, 0.0, 0.0, 0.0, 0.0, 1.6664048644157765E9, 0.0, 2022-10-21 19:14:24.415
48.0, -131753.60938949697, -157753.3820573547, -32317.426182916905, -140487.95586680842, 69686.79364762231, -114267.28090849888, 58952.77070436129, -109889.82586739372, 0.01, 0.962, -0.056, 192.0, 0.0, 0.0, 0.0, 0.0, 0.0, 0.0, 0.0, 0.0, 0.0, 1.6664048644157927E9, 0.0, 2022-10-21 19:14:24.415
49.0, -131753.47527903024, -157753.56087131036, -32316.7779823277, -140486.34654120763, 69687.66536565607, -114252.14877750263, 58963.633652166565, -109887.43423073701, 0.01, 0.962, -0.056, 192.0, 0.0, 0.0, 0.0, 0.0, 0.0, 0.0, 0.0, 0.0, 0.0, 1.6664048644158087E9, 0.0, 2022-10-21 19:14:24.415
50.0, -131752.62591274094, -157752.3315253653, -32315.43687766038, -140496.27071574578, 69688.38062147863, -114265.35865847573, 58950.33436421566, -109890.33995751619, 0.01, 0.962, -0.056, 192.0, 0.0, 0.0, 0.0, 0.0, 0.0, 0.0, 0.0, 0.0, 0.0, 1.6664048644158244E9, 0.0, 2022-10-21 19:14:24.415
51.0, -131756.42570929835, -157754.20907189956, -32319.59430212907, -140507.69245716245, 69684.08908654322, -114286.23518779698, 58932.36356167359, -109894.92206512953, 0.01, 0.962, -0.056, 192.0, 0.0, 0.0, 0.0, 0.0, 0.0, 0.0, 0.0, 0.0, 0.0, 1.6664048644158404E9, 0.0, 2022-10-21 19:14:24.415
52.0, -131750.9495319068, -157749.20228114157, -32313.11229623703, -140492.42621569947, 69686.52542668885, -114288.04567909786, 58938.37618093207, -109887.65774818156, 0.01, 0.962, -0.056, 192.0, 0.0, 0.0, 0.0, 0.0, 0.0, 0.0, 0.0, 0.0, 0.0, 1.6664048644158561E9, 0.0, 2022-10-21 19:14:24.415
53.0, -131751.68713947383, -157750.65514453116, -32313.49227589277, -140482.52439290576, 69688.13475228962, -114267.48207419898, 58954.201216006426, -109891.90457962807, 0.012, 0.9580000000000001, -0.048, 192.0, 0.0, 96.0, 29.0, 240.0, 254.0, 128.0, 0.0, 0.0, 0.0, 1.6664048644158723E9, 0.0, 2022-10-21 19:14:24.415
54.0, -131752.93883716332, -157750.72219976454, -32315.950967782854, -140493.70026513343, 69681.96567081996, -114271.1701120341, 58946.780436847264, -109898.94537913149, 0.012, 0.9580000000000001, -0.048, 192.0, 0.0, 0.0, 0.0, 0.0, 0.0, 0.0, 0.0, 0.0, 0.0, 1.6664048644158893E9, 0.0, 2022-10-21 19:14:24.415
55.0, -131750.83777318452, -157751.19158639808, -32315.168656726917, -140504.74202689435, 69680.08812428571, -114283.50827497343, 58937.81738732069, -109894.45267849597, 0.012, 0.9580000000000001, -0.048, 192.0, 0.0, 0.0, 0.0, 0.0, 0.0, 0.0, 0.0, 0.0, 0.0, 1.6664048644159052E9, 0.0, 2022-10-21 19:14:24.415
56.0, -131744.86985741495, -157744.91074620615, -32306.742049067267, -140492.09093953265, 69687.46419995597, -114291.44314425507, 58939.62787862157, -109892.28455928381, 0.012, 0.9580000000000001, -0.048, 192.0, 0.0, 0.0, 0.0, 0.0, 0.0, 0.0, 0.0, 0.0, 0.0, 1.6664048644159212E9, 0.0, 2022-10-21 19:14:24.415
57.0, -131750.41309003986, -157750.96806895355, -32312.82172355911, -140482.43498592795, 69686.23485401092, -114270.74542888945, 58953.016573550296, -109903.79570767829, 0.012, 0.9580000000000001, -0.048, 192.0, 0.0, 0.0, 0.0, 0.0, 0.0, 0.0, 0.0, 0.0, 0.0, 1.6664048644159372E9, 0.0, 2022-10-21 19:14:24.415
58.0, -131755.19636335332, -157755.61723180025, -32318.432011417393, -140491.48744243235, 69681.54098767531, -114267.99616432145, 58947.830968836664, -109906.72378620194, 0.012, 0.9580000000000001, -0.048, 192.0, 0.0, 0.0, 0.0, 0.0, 0.0, 0.0, 0.0, 0.0, 0.0, 1.6664048644159696E9, 0.0, 2022-10-21 19:14:24.415
59.0, -131757.58800001003, -157755.99721145598, -32321.427145174403, -140501.50102394834, 69678.88113008514, -114273.49469345745, 58938.107959998604, -109906.5449722463, 0.012, 0.9580000000000001, -0.048, 192.0, 0.0, 0.0, 0.0, 0.0, 0.0, 0.0, 0.0, 0.0, 0.0, 1.6664048644159856E9, 0.0, 2022-10-21 19:14:24.415
60.0, -131759.30908433307, -157757.15950216766, -32322.097697508063, -140500.18227102546, 69678.16587426256, -114273.82996962429, 58937.54916638722, -109908.2437048249, 0.012, 0.9580000000000001, -0.048, 192.0, 0.0, 0.0, 0.0, 0.0, 0.0, 0.0, 0.0, 0.0, 0.0, 1.6664048644160016E9, 0.0, 2022-10-21 19:14:24.416
61.0, -131764.4499855578, -157762.54627258138, -32323.416450430926, -140500.53989893675, 69674.00844979388, -114281.2731005279, 58937.504462898316, -109913.4963647719, 0.012, 0.9580000000000001, -0.048, 192.0, 0.0, 0.0, 0.0, 0.0, 0.0, 0.0, 0.0, 0.0, 0.0, 1.6664048644160173E9, 0.0, 2022-10-21 19:14:24.416
62.0, -131754.45875578627, -157750.36457185325, -32310.184217713384, -140490.97335230987, 69688.80530462328, -114281.36250750572, 58946.13223625806, -109901.67229195504, 0.012, 0.9580000000000001, -0.048, 192.0, 0.0, 0.0, 0.0, 0.0, 0.0, 0.0, 0.0, 0.0, 0.0, 1.666404864416033E9, 0.0, 2022-10-21 19:14:24.416
63.0, -131754.07877613054, -157749.26933637494, -32308.418429901416, -140489.63224764256, 69694.43794422603, -114265.58217592028, 58955.05058229573, -109891.92693137252, 0.016, 0.9580000000000001, -0.05, 192.0, 0.0, 128.0, 29.0, 240.0, 254.0, 112.0, 0.0, 0.0, 0.0, 1.6664048644160488E9, 0.0, 2022-10-21 19:14:24.416
64.0, -131754.27994183064, -157749.93988870858, -32310.273624691206, -140494.03554130025, 69689.29704300131, -114266.78917012086, 58951.966041560896, -109893.98329186242, 0.016, 0.9580000000000001, -0.05, 192.0, 0.0, 0.0, 0.0, 0.0, 0.0, 0.0, 0.0, 0.0, 0.0, 1.6664048644160662E9, 0.0, 2022-10-21 19:14:24.416
65.0, -131748.75906095016, -157745.5812985398, -32303.38928739897, -140478.29991320372, 69692.71685990297, -114260.59773690674, 58961.733753887864, -109879.1417335441, 0.016, 0.9580000000000001, -0.05, 192.0, 0.0, 0.0, 0.0, 0.0, 0.0, 0.0, 0.0, 0.0, 0.0, 1.6664048644160821E9, 0.0, 2022-10-21 19:14:24.416
66.0, -131752.58120925204, -157749.51520556395, -32308.86546479052, -140482.23382022785, 69688.67119415656, -114254.65217288163, 58961.8678643546, -109888.97650110442, 0.016, 0.9580000000000001, -0.05, 192.0, 0.0, 0.0, 0.0, 0.0, 0.0, 0.0, 0.0, 0.0, 0.0, 1.666404864416098E9, 0.0, 2022-10-21 19:14:24.416
0.0, 0.0, 0.0, 0.0, 0.0, 0.0, 0.0, 0.0, 0.0, 0.034, 0.9520000000000001, 0.02, 192.0, 1.0, 16.0, 29.0, 192.0, 0.0, 160.0, 0.0, 0.0, 0.0, 1.6664048644984696E9, 0.0, 2022-10-21 19:14:24.498
1.0, -133599.5952605719, -159666.3337548177, -15802.549219435361, -98616.92471705971, 64672.023316862986, -75082.50475913343, 52211.68574234078, -114938.83907065858, 0.034, 0.9520000000000001, 0.02, 192.0, 0.0, 0.0, 0.0, 0.0, 0.0, 0.0, 0.0, 0.0, 0.0, 1.666404864977518E9, 0.0, 2022-10-21 19:14:24.977
2.0, -133601.3834001283, -159670.42412405304, -15814.239181785488, -98642.5845196944, 64657.94171785614, -75100.81083784233, 52196.978294489185, -114968.27631810622, 0.034, 0.9520000000000001, 0.02, 192.0, 0.0, 0.0, 0.0, 0.0, 0.0, 0.0, 0.0, 0.0, 0.0, 1.6664048649776895E9, 0.0, 2022-10-21 19:14:24.977
3.0, -133600.26581290553, -159674.35803107716, -15823.559859223351, -98665.96444439465, 64651.16913928618, -75120.10039330726, 52179.007491947115, -114981.82147524614, 0.034, 0.9520000000000001, 0.02, 192.0, 0.0, 0.0, 0.0, 0.0, 0.0, 0.0, 0.0, 0.0, 0.0, 1.6664048649777408E9, 0.0, 2022-10-21 19:14:24.977
4.0, -133601.83043501741, -159674.40273456607, -15826.443234258084, -98666.03149962802, 64646.430569461656, -75128.50464922245, 52174.0677564225, -114974.84773097608, 0.034, 0.9520000000000001, 0.02, 192.0, 0.0, 0.0, 0.0, 0.0, 0.0, 0.0, 0.0, 0.0, 0.0, 1.666404864977764E9, 0.0, 2022-10-21 19:14:24.977
5.0, -133603.8420920184, -159675.29680434428, -15821.972885367024, -98646.02668834051, 64647.59286017333, -75115.20536127155, 52192.507945598125, -114963.20247211486, 0.034, 0.9520000000000001, 0.02, 192.0, 0.0, 0.0, 0.0, 0.0, 0.0, 0.0, 0.0, 0.0, 0.0, 1.6664048649777884E9, 0.0, 2022-10-21 19:14:24.977
6.0, -133593.11325467983, -159662.80217919376, -15811.445213728573, -98642.09278131639, 64660.3110027684, -75099.78265759739, 52209.31645742851, -114949.05381787465, 0.034, 0.9520000000000001, 0.02, 192.0, 0.0, 0.0, 0.0, 0.0, 0.0, 0.0, 0.0, 0.0, 0.0, 1.666404864977893E9, 0.0, 2022-10-21 19:14:24.977
7.0, -133586.8324144879, -159654.15205408956, -15811.288751517386, -98661.15881933676, 64663.619060947785, -75108.94687282406, 52201.40393989134, -114949.54555625268, 0.046, 0.9480000000000001, 0.04, 192.0, 1.0, 112.0, 29.0, 160.0, 1.0, 64.0, 0.0, 0.0, 0.0, 1.6664048649779165E9, 0.0, 2022-10-21 19:14:24.977
8.0, -133578.2716963615, -159646.86538539713, -15808.338321249286, -98652.24047329908, 64668.156465072214, -75109.01392805742, 52203.057968981026, -114937.09563459107, 0.046, 0.9480000000000001, 0.04, 192.0, 0.0, 0.0, 0.0, 0.0, 0.0, 0.0, 0.0, 0.0, 0.0, 1.6664048649779422E9, 0.0, 2022-10-21 19:14:24.977
9.0, -133569.44275730167, -159641.72448417242, -15805.298484003364, -98630.60398466635, 64670.72691568457, -75101.727259365, 52213.65269585284, -114931.21712579932, 0.046, 0.9480000000000001, 0.04, 192.0, 0.0, 0.0, 0.0, 0.0, 0.0, 0.0, 0.0, 0.0, 0.0, 1.666404864977965E9, 0.0, 2022-10-21 19:14:24.977
10.0, -133552.03074837098, -159624.91597234202, -15795.039033298379, -98625.75365611954, 64679.13117159977, -75087.98093652498, 52224.873271569406, -114936.15686132395, 0.046, 0.9480000000000001, 0.04, 192.0, 0.0, 0.0, 0.0, 0.0, 0.0, 0.0, 0.0, 0.0, 0.0, 1.666404864977988E9, 0.0, 2022-10-21 19:14:24.977
11.0, -133536.74215516355, -159606.3193209552, -15795.486068187485, -98654.29683378898, 64675.24196806455, -75106.01879430041, 52210.612858606924, -114937.67677994691, 0.046, 0.9480000000000001, 0.04, 192.0, 0.0, 0.0, 0.0, 0.0, 0.0, 0.0, 0.0, 0.0, 0.0, 1.6664048649780107E9, 0.0, 2022-10-21 19:14:24.978
12.0, -133536.22806504107, -159607.63807387807, -15804.896152603169, -98671.77589795303, 64659.79691264593, -75121.37444274122, 52190.94332348625, -114963.71656223734, 0.046, 0.9480000000000001, 0.04, 192.0, 0.0, 0.0, 0.0, 0.0, 0.0, 0.0, 0.0, 0.0, 0.0, 1.6664048649780335E9, 0.0, 2022-10-21 19:14:24.978
13.0, -133514.43511419717, -159589.8684370361, -15796.089565287777, -98649.58061570891, 64662.90380512522, -75101.7719628539, 52209.80819580653, -114952.33952430959, 0.046, 0.9480000000000001, 0.04, 192.0, 0.0, 0.0, 0.0, 0.0, 0.0, 0.0, 0.0, 0.0, 0.0, 1.666404864978056E9, 0.0, 2022-10-21 19:14:24.978
14.0, -133496.9113465442, -159573.6187188171, -15798.794126366869, -98655.63793845629, 64653.04668582043, -75107.65047164565, 52207.99770450565, -114951.35604755355, 0.046, 0.9480000000000001, 0.04, 192.0, 0.0, 0.0, 0.0, 0.0, 0.0, 0.0, 0.0, 0.0, 0.0, 1.6664048649780793E9, 0.0, 2022-10-21 19:14:24.978
15.0, -133502.92396580268, -159579.5642828422, -15818.016626598434, -98691.11015690687, 64632.930115810654, -75145.3355127973, 52173.30779711101, -114973.32781235312, 0.046, 0.9480000000000001, 0.04, 192.0, 0.0, 0.0, 0.0, 0.0, 0.0, 0.0, 0.0, 0.0, 0.0, 1.6664048649781013E9, 0.0, 2022-10-21 19:14:24.978
16.0, -133470.26806715346, -159551.7587127398, -15800.828135112302, -98683.33174983642, 64643.30132523792, -75148.33064655431, 52172.994872688636, -114955.04408538868, 0.046, 0.9480000000000001, 0.04, 192.0, 0.0, 0.0, 0.0, 0.0, 0.0, 0.0, 0.0, 0.0, 0.0, 1.6664048649781237E9, 0.0, 2022-10-21 19:14:24.978
17.0, -133435.0417178919, -159517.38172976754, -15780.868027313714, -98646.92075811872, 64664.89311038174, -75117.97697758401, 52201.00160849114, -114937.52031773572, 0.054, 0.9560000000000001, 0.056, 192.0, 1.0, 176.0, 29.0, 224.0, 1.0, 192.0, 0.0, 0.0, 0.0, 1.666404864978146E9, 0.0, 2022-10-21 19:14:24.978
18.0, -133432.3371568128, -159510.07270933065, -15786.947701805557, -98644.9314528622, 64660.08748532385, -75110.84677110276, 52205.94134401576, -114942.75062593826, 0.054, 0.9560000000000001, 0.056, 192.0, 0.0, 0.0, 0.0, 0.0, 0.0, 0.0, 0.0, 0.0, 0.0, 1.66640486497817E9, 0.0, 2022-10-21 19:14:24.978
19.0, -133408.48784547902, -159482.42360143943, -15780.242178468965, -98655.70499368967, 64667.64237494974, -75117.32877699481, 52204.466128881715, -114938.90612589195, 0.054, 0.9560000000000001, 0.056, 192.0, 0.0, 0.0, 0.0, 0.0, 0.0, 0.0, 0.0, 0.0, 0.0, 1.6664048649781923E9, 0.0, 2022-10-21 19:14:24.978
20.0, -133386.24785974598, -159456.71909531584, -15774.430724910586, -98649.22298779762, 64680.09229661135, -75108.00809955694, 52210.881079540384, -114933.58641071158, 0.054, 0.9560000000000001, 0.056, 192.0, 0.0, 0.0, 0.0, 0.0, 0.0, 0.0, 0.0, 0.0, 0.0, 1.6664048649782147E9, 0.0, 2022-10-21 19:14:24.978
21.0, -133363.49378389047, -159434.00972294924, -15763.321907916297, -98636.21427252464, 64679.60055823333, -75114.51245719343, 52213.540937130565, -114923.66223617343, 0.054, 0.9560000000000001, 0.056, 192.0, 0.0, 0.0, 0.0, 0.0, 0.0, 0.0, 0.0, 0.0, 0.0, 1.6664048649782612E9, 0.0, 2022-10-21 19:14:24.978
22.0, -133353.18962969657, -159424.95726644484, -15762.919576516102, -98622.69146712917, 64682.707450712616, -75106.71169837854, 52223.21924247972, -114919.7283291493, 0.054, 0.9560000000000001, 0.056, 192.0, 0.0, 0.0, 0.0, 0.0, 0.0, 0.0, 0.0, 0.0, 0.0, 1.666404864978293E9, 0.0, 2022-10-21 19:14:24.978
23.0, -133343.6230830697, -159423.0350164217, -15775.682422600083, -98646.3843162518, 64669.497569739535, -75115.76415488293, 52208.28827718357, -114954.39588479948, 0.054, 0.9560000000000001, 0.056, 192.0, 0.0, 0.0, 0.0, 0.0, 0.0, 0.0, 0.0, 0.0, 0.0, 1.666404864978315E9, 0.0, 2022-10-21 19:14:24.978
24.0, -133334.61533005422, -159415.4354233069, -15785.003100037946, -98676.78268871101, 64656.064171321894, -75152.28690532291, 52181.06385243701, -114966.2870128497, 0.054, 0.9560000000000001, 0.056, 192.0, 0.0, 0.0, 0.0, 0.0, 0.0, 0.0, 0.0, 0.0, 0.0, 1.666404864978338E9, 0.0, 2022-10-21 19:14:24.978
25.0, -133295.67859121307, -159373.5706059421, -15759.857387525724, -98649.89354013128, 64677.32068029889, -75133.35497776925, 52208.936477772775, -114919.10248030454, 0.054, 0.9560000000000001, 0.056, 192.0, 0.0, 0.0, 0.0, 0.0, 0.0, 0.0, 0.0, 0.0, 0.0, 1.6664048649783602E9, 0.0, 2022-10-21 19:14:24.978
26.0, -133275.96435260348, -159351.867062076, -15760.796160792848, -98632.61564166733, 64674.526712241975, -75106.1305530227, 52227.06374252603, -114928.46786123131, 0.054, 0.9560000000000001, 0.056, 192.0, 0.0, 0.0, 0.0, 0.0, 0.0, 0.0, 0.0, 0.0, 0.0, 1.666404864978382E9, 0.0, 2022-10-21 19:14:24.978
27.0, -133240.7603550864, -159316.99834072572, -15746.558099574817, -98634.15791203475, 64682.774505945985, -75099.51443666393, 52231.98112630619, -114932.6252857, 0.054, 0.964, 0.064, 192.0, 1.0, 176.0, 30.0, 32.0, 2.0, 0.0, 0.0, 0.0, 0.0, 1.6664048649784043E9, 0.0, 2022-10-21 19:14:24.978
28.0, -133207.36684887015, -159286.53291303312, -15738.422064593085, -98650.40763025376, 64684.76381120251, -75124.03430033139, 52219.93353604479, -114920.51064020523, 0.054, 0.964, 0.064, 192.0, 0.0, 0.0, 0.0, 0.0, 0.0, 0.0, 0.0, 0.0, 0.0, 1.6664048649784284E9, 0.0, 2022-10-21 19:14:24.978
29.0, -133189.93248819502, -159272.4513140263, -15739.092616926744, -98642.00337433856, 64685.65788098072, -75116.54646593887, 52227.7789983486, -114913.00045406824, 0.054, 0.964, 0.064, 192.0, 0.0, 0.0, 0.0, 0.0, 0.0, 0.0, 0.0, 0.0, 0.0, 1.6664048649784694E9, 0.0, 2022-10-21 19:14:24.978
30.0, -133174.4874327764, -159259.91198538686, -15743.428855351074, -98636.54954869146, 64678.63943322175, -75107.24814024546, 52234.68568738529, -114932.80409965565, 0.054, 0.964, 0.064, 192.0, 0.0, 0.0, 0.0, 0.0, 0.0, 0.0, 0.0, 0.0, 0.0, 1.6664048649784913E9, 0.0, 2022-10-21 19:14:24.978
31.0, -133143.8208393837, -159230.1394617724, -15731.20245113402, -98628.63703115429, 64692.85514269533, -75096.69811686255, 52243.536978189586, -114934.94986712336, 0.054, 0.964, 0.064, 192.0, 0.0, 0.0, 0.0, 0.0, 0.0, 0.0, 0.0, 0.0, 0.0, 1.666404864978514E9, 0.0, 2022-10-21 19:14:24.978
32.0, -133113.5789291357, -159195.09192646647, -15715.77974745986, -98637.60008068086, 64704.90273295674, -75105.4823524335, 52245.61569042393, -114907.23370399878, 0.054, 0.964, 0.064, 192.0, 0.0, 0.0, 0.0, 0.0, 0.0, 0.0, 0.0, 0.0, 0.0, 1.6664048649785361E9, 0.0, 2022-10-21 19:14:24.978
33.0, -133094.1105597151, -159172.60607154443, -15713.835145692248, -98630.40281896625, 64708.65782602523, -75114.73597463798, 52240.92182408832, -114899.94703530635, 0.054, 0.964, 0.064, 192.0, 0.0, 0.0, 0.0, 0.0, 0.0, 0.0, 0.0, 0.0, 0.0, 1.6664048649785583E9, 0.0, 2022-10-21 19:14:24.978
34.0, -133086.17569043348, -159169.74504825415, -15723.267581852388, -98621.95385956214, 64693.391584562254, -75106.39877395616, 52244.96748983473, -114904.86441908652, 0.054, 0.964, 0.064, 192.0, 0.0, 0.0, 0.0, 0.0, 0.0, 0.0, 0.0, 0.0, 0.0, 1.6664048649785805E9, 0.0, 2022-10-21 19:14:24.978
35.0, -133079.7607397748, -159161.49725455014, -15731.269506367387, -98636.70601090265, 64676.493665754046, -75117.30642525035, 52240.810065366044, -114919.124832049, 0.054, 0.964, 0.064, 192.0, 0.0, 0.0, 0.0, 0.0, 0.0, 0.0, 0.0, 0.0, 0.0, 1.6664048649786024E9, 0.0, 2022-10-21 19:14:24.978
36.0, -133056.33611158564, -159136.19507982672, -15723.267581852388, -98661.7846681815, 64675.018450619995, -75149.58234424381, 52223.04042852407, -114923.05873907314, 0.05, 0.96, 0.068, 192.0, 1.0, 144.0, 30.0, 0.0, 2.0, 32.0, 0.0, 0.0, 0.0, 1.6664048649787319E9, 0.0, 2022-10-21 19:14:24.978
37.0, -133062.70635875541, -159138.89964090582, -15738.958506460012, -98671.70884271966, 64665.11662782629, -75167.08376015232, 52203.86263178142, -114937.96735262482, 0.05, 0.96, 0.068, 192.0, 0.0, 0.0, 0.0, 0.0, 0.0, 0.0, 0.0, 0.0, 0.0, 1.666404864978756E9, 0.0, 2022-10-21 19:14:24.978
38.0, -133058.14660288653, -159136.9103356493, -15744.97112571849, -98665.07037461644, 64652.46554046459, -75160.80291996038, 52207.1706899608, -114940.00136137026, 0.05, 0.96, 0.068, 192.0, 0.0, 0.0, 0.0, 0.0, 0.0, 0.0, 0.0, 0.0, 0.0, 1.66640486497878E9, 0.0, 2022-10-21 19:14:24.978
39.0, -133022.02618384676, -159103.15920152178, -15721.367683573686, -98638.51650220354, 64672.06802035189, -75135.61250395924, 52234.08219028499, -114919.30364600464, 0.05, 0.96, 0.068, 192.0, 0.0, 0.0, 0.0, 0.0, 0.0, 0.0, 0.0, 0.0, 0.0, 1.6664048649788024E9, 0.0, 2022-10-21 19:14:24.978
40.0, -133006.33525923913, -159083.1096867454, -15710.191811346032, -98648.79830465297, 64684.47323852459, -75138.94291388309, 52235.646812396866, -114902.36102370752, 0.05, 0.96, 0.068, 192.0, 0.0, 0.0, 0.0, 0.0, 0.0, 0.0, 0.0, 0.0, 0.0, 1.666404864978825E9, 0.0, 2022-10-21 19:14:24.978
41.0, -133011.25264301928, -159091.17866649374, -15722.842898707737, -98662.07524085943, 64679.220578577595, -75164.04392290639, 52212.95979177473, -114907.52427667669, 0.05, 0.96, 0.068, 192.0, 0.0, 0.0, 0.0, 0.0, 0.0, 0.0, 0.0, 0.0, 0.0, 1.6664048649788473E9, 0.0, 2022-10-21 19:14:24.978
42.0, -133012.30317500868, -159101.92985557675, -15730.68836101155, -98647.3901447523, 64674.459657008614, -75160.2888298379, 52216.33490518748, -114916.71084364783, 0.05, 0.96, 0.068, 192.0, 0.0, 0.0, 0.0, 0.0, 0.0, 0.0, 0.0, 0.0, 0.0, 1.6664048649788692E9, 0.0, 2022-10-21 19:14:24.978
43.0, -133007.38579122853, -159095.62666364035, -15722.105291140711, -98636.77306613601, 64675.80076167593, -75151.6387047337, 52231.578794905996, -114904.81971559761, 0.05, 0.96, 0.068, 192.0, 0.0, 0.0, 0.0, 0.0, 0.0, 0.0, 0.0, 0.0, 0.0, 1.6664048649788942E9, 0.0, 2022-10-21 19:14:24.978
44.0, -133007.27403250625, -159092.6091781389, -15724.273410352876, -98657.60489196837, 64675.33137504237, -75163.06044615037, 52227.108446014936, -114903.99270105276, 0.05, 0.96, 0.068, 192.0, 0.0, 0.0, 0.0, 0.0, 0.0, 0.0, 0.0, 0.0, 0.0, 1.6664048649789164E9, 0.0, 2022-10-21 19:14:24.978
45.0, -133012.8843203645, -159095.17962875124, -15731.247154622932, -98676.13448812181, 64672.649165707735, -75174.37042884475, 52215.86551855392, -114909.91591333342, 0.05, 0.96, 0.068, 192.0, 0.0, 0.0, 0.0, 0.0, 0.0, 0.0, 0.0, 0.0, 0.0, 1.6664048649789388E9, 0.0, 2022-10-21 19:14:24.978
46.0, -133017.06409657767, -159096.83365784094, -15734.152881402122, -98666.12090660584, 64669.94460462864, -75165.25091710698, 52223.822739580006, -114916.04029131417, 0.046, 0.9560000000000001, 0.074, 192.0, 1.0, 112.0, 29.0, 224.0, 2.0, 80.0, 0.0, 0.0, 0.0, 1.6664048649789531E9, 0.0, 2022-10-21 19:14:24.978
47.0, -132991.62781138753, -159073.72195407416, -15714.192773603532, -98633.24149051208, 64688.04951763744, -75135.8360214038, 52254.28816727259, -114907.94895982134, 0.046, 0.9560000000000001, 0.074, 192.0, 0.0, 0.0, 0.0, 0.0, 0.0, 0.0, 0.0, 0.0, 0.0, 1.6664048649789689E9, 0.0, 2022-10-21 19:14:24.978
48.0, -133005.59765167208, -159090.23989322662, -15732.856480223714, -98657.26961580153, 64673.63264246377, -75157.67367573663, 52233.255175740145, -114938.05675960265, 0.046, 0.9560000000000001, 0.074, 192.0, 0.0, 0.0, 0.0, 0.0, 0.0, 0.0, 0.0, 0.0, 0.0, 1.6664048649789832E9, 0.0, 2022-10-21 19:14:24.978
49.0, -133010.17975928544, -159097.43715494123, -15740.098445427233, -98677.7438137226, 64668.75996217251, -75185.38983886121, 52210.00936150663, -114942.19183232688, 0.046, 0.9560000000000001, 0.074, 192.0, 0.0, 0.0, 0.0, 0.0, 0.0, 0.0, 0.0, 0.0, 0.0, 1.6664048649789977E9, 0.0, 2022-10-21 19:14:24.978
50.0, -133012.7502098978, -159104.85793410038, -15741.953640217023, -98672.8934851758, 64662.83674989185, -75195.17990293264, 52207.1706899608, -114946.66218121794, 0.046, 0.9560000000000001, 0.074, 192.0, 0.0, 0.0, 0.0, 0.0, 0.0, 0.0, 0.0, 0.0, 0.0, 1.666404864979012E9, 0.0, 2022-10-21 19:14:24.979
51.0, -133001.79785511468, -159093.4585444282, -15727.559116787806, -98649.15593256426, 64669.363459272805, -75183.31112662687, 52226.840225081476, -114935.95569562385, 0.046, 0.9560000000000001, 0.074, 192.0, 0.0, 0.0, 0.0, 0.0, 0.0, 0.0, 0.0, 0.0, 0.0, 1.666404864979042E9, 0.0, 2022-10-21 19:14:24.979
52.0, -132998.8921283355, -159090.19518973771, -15725.659218509105, -98657.56018847946, 64675.018450619995, -75181.65709753717, 52231.310573972536, -114924.53395420719, 0.046, 0.9560000000000001, 0.074, 192.0, 0.0, 0.0, 0.0, 0.0, 0.0, 0.0, 0.0, 0.0, 0.0, 1.6664048649790564E9, 0.0, 2022-10-21 19:14:24.979
53.0, -132985.7940060847, -159072.98434650712, -15713.879849181158, -98661.22587457013, 64692.206942106124, -75173.36460034426, 52236.78675136409, -114901.64576788495, 0.046, 0.9560000000000001, 0.074, 192.0, 0.0, 0.0, 0.0, 0.0, 0.0, 0.0, 0.0, 0.0, 0.0, 1.666404864979071E9, 0.0, 2022-10-21 19:14:24.979
54.0, -132980.42958741542, -159069.51982611656, -15708.448375278518, -98656.21908381213, 64690.66467173871, -75178.61726029126, 52233.21047225124, -114904.39503245296, 0.046, 0.9560000000000001, 0.074, 192.0, 0.0, 0.0, 0.0, 0.0, 0.0, 0.0, 0.0, 0.0, 0.0, 1.6664048649790852E9, 0.0, 2022-10-21 19:14:24.979
55.0, -132992.32071546564, -159089.97167229315, -15724.139299886145, -98660.46591525864, 64672.98444187456, -75185.16632141666, 52226.57200414801, -114925.38332049649, 0.046, 0.9560000000000001, 0.074, 192.0, 0.0, 0.0, 0.0, 0.0, 0.0, 0.0, 0.0, 0.0, 0.0, 1.6664048649790995E9, 0.0, 2022-10-21 19:14:24.979
56.0, -132985.07875026212, -159085.63543386883, -15719.467785294984, -98671.35121480838, 64671.48687499606, -75195.11284769927, 52226.549652403555, -114919.79538438265, 0.048, 0.962, 0.074, 192.0, 1.0, 128.0, 30.0, 16.0, 2.0, 80.0, 0.0, 0.0, 0.0, 1.6664048649791136E9, 0.0, 2022-10-21 19:14:24.979
57.0, -132999.38386671353, -159093.547951406, -15730.0625121668, -98696.25105813159, 64665.63071794876, -75212.27898744095, 52211.015190007114, -114926.2773902747, 0.048, 0.962, 0.074, 192.0, 0.0, 0.0, 0.0, 0.0, 0.0, 0.0, 0.0, 0.0, 0.0, 1.666404864979129E9, 0.0, 2022-10-21 19:14:24.979
58.0, -132991.89603232098, -159085.38956467982, -15725.368645831186, -98692.85359297438, 64673.52088374149, -75212.9495397746, 52213.20566096374, -114913.96157907983, 0.048, 0.962, 0.074, 192.0, 0.0, 0.0, 0.0, 0.0, 0.0, 0.0, 0.0, 0.0, 0.0, 1.6664048649791436E9, 0.0, 2022-10-21 19:14:24.979
59.0, -132976.20510771335, -159070.57035810596, -15714.148070114623, -98660.51061874755, 64688.09422112635, -75189.83783600782, 52235.222129252215, -114909.06654704412, 0.048, 0.962, 0.074, 192.0, 0.0, 0.0, 0.0, 0.0, 0.0, 0.0, 0.0, 0.0, 0.0, 1.6664048649791577E9, 0.0, 2022-10-21 19:14:24.979
60.0, -132977.7473780808, -159074.794837808, -15719.423081806075, -98658.45425825767, 64685.52377051399, -75177.81259749086, 52243.24640551167, -114925.2268582853, 0.048, 0.962, 0.074, 192.0, 0.0, 0.0, 0.0, 0.0, 0.0, 0.0, 0.0, 0.0, 0.0, 1.6664048649791718E9, 0.0, 2022-10-21 19:14:24.979
61.0, -132975.1322239795, -159073.3419744184, -15716.495003282429, -98671.46297353065, 64688.585959504366, -75196.56571108887, 52231.86936758392, -114920.06360531613, 0.048, 0.962, 0.074, 192.0, 0.0, 0.0, 0.0, 0.0, 0.0, 0.0, 0.0, 0.0, 0.0, 1.6664048649791863E9, 0.0, 2022-10-21 19:14:24.979
62.0, -132986.1963374849, -159084.07081175694, -15726.754453987414, -98684.20346787017, 64680.09229661135, -75222.38197593475, 52207.394207405356, -114929.98777985427, 0.048, 0.962, 0.074, 192.0, 0.0, 0.0, 0.0, 0.0, 0.0, 0.0, 0.0, 0.0, 0.0, 1.6664048649792025E9, 0.0, 2022-10-21 19:14:24.979
63.0, -133019.16516055647, -159118.31368426248, -15761.757285804426, -98707.6951512927, 64641.5578891704, -75246.63361866875, 52181.443832092744, -114960.65437324696, 0.048, 0.962, 0.074, 192.0, 0.0, 0.0, 0.0, 0.0, 0.0, 0.0, 0.0, 0.0, 0.0, 1.6664048649792173E9, 0.0, 2022-10-21 19:14:24.979
64.0, -132993.17008175494, -159096.29721597402, -15739.02556169338, -98678.28025558952, 64665.83188364886, -75224.93007480266, 52209.33880917297, -114937.67677994691, 0.048, 0.962, 0.074, 192.0, 0.0, 0.0, 0.0, 0.0, 0.0, 0.0, 0.0, 0.0, 0.0, 1.6664048649792316E9, 0.0, 2022-10-21 19:14:24.979
65.0, -132993.41595094395, -159098.48768693063, -15745.842843752247, -98695.49109882012, 64663.909633625706, -75228.12637425977, 52203.08032072548, -114946.12573935102, 0.048, 0.962, 0.074, 192.0, 0.0, 0.0, 0.0, 0.0, 0.0, 0.0, 0.0, 0.0, 0.0, 1.6664048649792519E9, 0.0, 2022-10-21 19:14:24.979
66.0, -132977.0991774916, -159087.13300074733, -15734.555212802317, -98703.4930233351, 64673.29736629694, -75245.60543842381, 52194.251381665636, -114936.40273051296, 0.058, 0.9580000000000001, 0.07200000000000001, 192.0, 1.0, 208.0, 29.0, 240.0, 2.0, 64.0, 0.0, 0.0, 0.0, 1.6664048649792664E9, 0.0, 2022-10-21 19:14:24.979
67.0, -132969.00784599874, -159075.4877418861, -15721.837070207248, -98669.11604036285, 64690.70937522762, -75218.00103402151, 52220.2241087227, -114918.1190035485, 0.058, 0.9580000000000001, 0.07200000000000001, 192.0, 0.0, 0.0, 0.0, 0.0, 0.0, 0.0, 0.0, 0.0, 0.0, 1.6664048649792955E9, 0.0, 2022-10-21 19:14:24.979
68.0, -132970.01367449923, -159072.35849766238, -15724.854555708715, -98659.46008675816, 64689.502381027036, -75200.61137683528, 52232.96460306223, -114921.31530300563, 0.058, 0.9580000000000001, 0.07200000000000001, 192.0, 0.0, 0.0, 0.0, 0.0, 0.0, 0.0, 0.0, 0.0, 0.0, 1.66640486497931E9, 0.0, 2022-10-21 19:14:24.979
69.0, -132969.5889913546, -159065.3847533923, -15725.63686676465, -98684.91872369275, 64681.99219489005, -75220.63853986723, 52218.77124533311, -114913.4698407018, 0.058, 0.9580000000000001, 0.07200000000000001, 192.0, 0.0, 0.0, 0.0, 0.0, 0.0, 0.0, 0.0, 0.0, 0.0, 1.6664048649793243E9, 0.0, 2022-10-21 19:14:24.979
70.0, -132998.91448007995, -159098.39827995282, -15757.21988168, -98713.9983432291, 64662.2109010471, -75242.47619420006, 52190.5186403416, -114950.0819981196, 0.058, 0.9580000000000001, 0.07200000000000001, 192.0, 0.0, 0.0, 0.0, 0.0, 0.0, 0.0, 0.0, 0.0, 0.0, 1.666404864979339E9, 0.0, 2022-10-21 19:14:24.979
71.0, -133000.36734346955, -159104.79087886703, -15760.21501543701, -98708.16453792626, 64657.09235156684, -75246.43245296866, 52189.915143241305, -114949.38909404149, 0.058, 0.9580000000000001, 0.07200000000000001, 192.0, 0.0, 0.0, 0.0, 0.0, 0.0, 0.0, 0.0, 0.0, 0.0, 1.6664048649793537E9, 0.0, 2022-10-21 19:14:24.979
72.0, -132968.65021808748, -159074.37015466337, -15724.429872564064, -98667.75258395108, 64688.25068333754, -75219.72211834457, 52229.92476581631, -114922.58935243958, 0.058, 0.9580000000000001, 0.07200000000000001, 192.0, 0.0, 0.0, 0.0, 0.0, 0.0, 0.0, 0.0, 0.0, 0.0, 1.6664048649793684E9, 0.0, 2022-10-21 19:14:24.979
73.0, -132968.381997154, -159079.801628566, -15722.529974285362, -98680.35896782386, 64688.80947694892, -75230.62976963875, 52225.38736169188, -114939.26375380323, 0.058, 0.9580000000000001, 0.07200000000000001, 192.0, 0.0, 0.0, 0.0, 0.0, 0.0, 0.0, 0.0, 0.0, 0.0, 1.6664048649793828E9, 0.0, 2022-10-21 19:14:24.979
74.0, -132958.81545052712, -159069.83275053892, -15717.612590505194, -98673.25111308708, 64702.10876489983, -75220.19150497812, 52230.10357977195, -114928.33375076459, 0.058, 0.9580000000000001, 0.07200000000000001, 192.0, 0.0, 0.0, 0.0, 0.0, 0.0, 0.0, 0.0, 0.0, 0.0, 1.6664048649793975E9, 0.0, 2022-10-21 19:14:24.979
75.0, -132970.57246811062, -159077.40999190928, -15735.02459943588, -98690.03727317302, 64679.2652820665, -75240.1069092878, 52212.31159118553, -114938.4814427473, 0.06, 0.962, 0.07, 192.0, 1.0, 224.0, 30.0, 16.0, 2.0, 48.0, 0.0, 0.0, 0.0, 1.666404864979412E9, 0.0, 2022-10-21 19:14:24.979
76.0, -132982.0389130162, -159089.07760251494, -15748.279183897876, -98695.69226452021, 64664.69194468164, -75236.9553133196, 52214.47971039769, -114936.55919272413, 0.06, 0.962, 0.07, 192.0, 0.0, 0.0, 0.0, 0.0, 0.0, 0.0, 0.0, 0.0, 0.0, 1.6664048649794276E9, 0.0, 2022-10-21 19:14:24.979
77.0, -132974.4393199014, -159081.8579890559, -15738.533823315362, -98690.48430806212, 64680.27111056699, -75223.23134222405, 52228.784826849085, -114914.7215383913, 0.06, 0.962, 0.07, 192.0, 0.0, 0.0, 0.0, 0.0, 0.0, 0.0, 0.0, 0.0, 0.0, 1.6664048649794464E9, 0.0, 2022-10-21 19:14:24.979
78.0, -132977.9932472698, -159085.81424782448, -15744.25586989592, -98711.74081703911, 64678.32650879938, -75239.10108078731, 52212.356294674435, -114936.00039911276, 0.06, 0.962, 0.07, 192.0, 0.0, 0.0, 0.0, 0.0, 0.0, 0.0, 0.0, 0.0, 0.0, 1.6664048649794607E9, 0.0, 2022-10-21 19:14:24.979
79.0, -132971.95827626684, -159079.53340763252, -15736.611573292206, -98706.62226755885, 64681.1204768563, -75244.77842387896, 52210.9257830293, -114940.98483812629, 0.06, 0.962, 0.07, 192.0, 0.0, 0.0, 0.0, 0.0, 0.0, 0.0, 0.0, 0.0, 0.0, 1.6664048649794815E9, 0.0, 2022-10-21 19:14:24.979
80.0, -132973.81347105664, -159078.57228262094, -15736.343352358743, -98687.28800860501, 64681.99219489005, -75237.13412727525, 52223.91214655783, -114920.68945416088, 0.06, 0.962, 0.07, 192.0, 0.0, 0.0, 0.0, 0.0, 0.0, 0.0, 0.0, 0.0, 0.0, 1.6664048649794955E9, 0.0, 2022-10-21 19:14:24.979
81.0, -132984.87758456203, -159091.26807347155, -15752.883643255669, -98696.2957616205, 64666.65889819371, -75242.23032501106, 52218.435969166276, -114931.23947754377, 0.06, 0.962, 0.07, 192.0, 0.0, 0.0, 0.0, 0.0, 0.0, 0.0, 0.0, 0.0, 0.0, 1.666404864979511E9, 0.0, 2022-10-21 19:14:24.979
82.0, -132976.65214260246, -159085.6577856133, -15745.328753629776, -98710.82439551645, 64673.94556688614, -75263.88916538825, 52208.19887020575, -114930.18894555437, 0.06, 0.962, 0.07, 192.0, 0.0, 0.0, 0.0, 0.0, 0.0, 0.0, 0.0, 0.0, 0.0, 1.6664048649795384E9, 0.0, 2022-10-21 19:14:24.979
83.0, -132972.3829594115, -159084.67430885724, -15742.378323361674, -98696.9439622097, 64682.215712334604, -75256.42368274018, 52212.08807374097, -114931.9770851108, 0.06, 0.962, 0.07, 192.0, 0.0, 0.0, 0.0, 0.0, 0.0, 0.0, 0.0, 0.0, 0.0, 1.6664048649795525E9, 0.0, 2022-10-21 19:14:24.979
84.0, -132981.68128510492, -159093.59265489492, -15753.598899078239, -98677.18502011121, 64679.44409602215, -75241.51506918849, 52220.29116395607, -114941.25305905976, 0.06, 0.962, 0.07, 192.0, 0.0, 0.0, 0.0, 0.0, 0.0, 0.0, 0.0, 0.0, 0.0, 1.666404864979567E9, 0.0, 2022-10-21 19:14:24.979
85.0, -132988.36445669705, -159099.3594049644, -15764.104218972234, -98686.41629057126, 64665.11662782629, -75244.59960992332, 52219.352390688946, -114932.80409965565, 0.058, 0.964, 0.078, 192.0, 1.0, 208.0, 30.0, 32.0, 2.0, 112.0, 0.0, 0.0, 0.0, 1.6664048649795814E9, 0.0, 2022-10-21 19:14:24.979
86.0, -132974.30520943465, -159085.0095850241, -15753.330678144775, -98697.70392152118, 64670.72691568457, -75263.55388922142, 52214.05502725304, -114908.01601505472, 0.058, 0.964, 0.078, 192.0, 0.0, 0.0, 0.0, 0.0, 0.0, 0.0, 0.0, 0.0, 0.0, 1.6664048649795983E9, 0.0, 2022-10-21 19:14:24.979
87.0, -132971.8912210335, -159084.11551524588, -15755.655259568128, -98703.4930233351, 64676.001927376026, -75265.02910435548, 52209.18234696178, -114929.51839322071, 0.058, 0.964, 0.078, 192.0, 0.0, 0.0, 0.0, 0.0, 0.0, 0.0, 0.0, 0.0, 0.0, 1.6664048649796126E9, 0.0, 2022-10-21 19:14:24.979
88.0, -132976.2498112023, -159085.79189608002, -15760.393829392653, -98689.18790688372, 64676.65012796523, -75256.02135133998, 52215.95492553174, -114940.22487881481, 0.058, 0.964, 0.078, 192.0, 0.0, 0.0, 0.0, 0.0, 0.0, 0.0, 0.0, 0.0, 0.0, 1.666404864979627E9, 0.0, 2022-10-21 19:14:24.979
89.0, -132984.81052932865, -159095.71607061816, -15766.965242262513, -98689.3443690949, 64666.43538074916, -75253.20503153862, 52223.80038783555, -114936.3803787685, 0.058, 0.964, 0.078, 192.0, 0.0, 0.0, 0.0, 0.0, 0.0, 0.0, 0.0, 0.0, 0.0, 1.6664048649796412E9, 0.0, 2022-10-21 19:14:24.979
90.0, -132956.80379352617, -159068.15636970478, -15742.199509406033, -98688.85263071688, 64688.3177385709, -75260.71521767559, 52230.61766989442, -114918.23076227079, 0.058, 0.964, 0.078, 192.0, 0.0, 0.0, 0.0, 0.0, 0.0, 0.0, 0.0, 0.0, 0.0, 1.6664048649796553E9, 0.0, 2022-10-21 19:14:24.979
91.0, -132972.1370902225, -159089.6140443819, -15763.478370127485, -98708.32100013745, 64678.48297101057, -75274.6180027268, 52212.40099816334, -114938.41438751393, 0.058, 0.964, 0.078, 192.0, 0.0, 0.0, 0.0, 0.0, 0.0, 0.0, 0.0, 0.0, 0.0, 1.6664048649796696E9, 0.0, 2022-10-21 19:14:24.979
92.0, -132971.2430204443, -159089.83756182643, -15763.143093960654, -98693.39003484132, 64682.930968157176, -75262.14572932073, 52223.10748375744, -114921.69528266136, 0.058, 0.964, 0.078, 192.0, 0.0, 0.0, 0.0, 0.0, 0.0, 0.0, 0.0, 0.0, 0.0, 1.6664048649796839E9, 0.0, 2022-10-21 19:14:24.979
93.0, -132993.08067477713, -159114.29037026054, -15788.624082639704, -98692.36185459637, 64670.10106683982, -75241.6044761663, 52226.259079725634, -114936.08980609057, 0.058, 0.964, 0.078, 192.0, 0.0, 0.0, 0.0, 0.0, 0.0, 0.0, 0.0, 0.0, 0.0, 1.6664048649796982E9, 0.0, 2022-10-21 19:14:24.979
94.0, -132972.2935524337, -159100.32052997596, -15776.151809233645, -98706.48815709211, 64670.99513661804, -75248.42175822517, 52227.7789983486, -114923.25990477324, 0.058, 0.964, 0.078, 192.0, 0.0, 0.0, 0.0, 0.0, 0.0, 0.0, 0.0, 0.0, 0.0, 1.6664048649797125E9, 0.0, 2022-10-21 19:14:24.979
95.0, -132963.62107558502, -159090.08343101543, -15771.435591153575, -98709.68445654924, 64677.70065995463, -75269.3653427798, 52216.11138774292, -114921.13648904998, 0.058, 0.9560000000000001, 0.08, 192.0, 1.0, 208.0, 29.0, 224.0, 2.0, 128.0, 0.0, 0.0, 0.0, 1.6664048649797268E9, 0.0, 2022-10-21 19:14:24.979
96.0, -132967.55498260917, -159090.88809381583, -15771.703812087038, -98698.21801164365, 64674.861988408804, -75270.72879919158, 52216.33490518748, -114928.35610250905, 0.058, 0.9560000000000001, 0.08, 192.0, 0.0, 0.0, 0.0, 0.0, 0.0, 0.0, 0.0, 0.0, 0.0, 1.666404864979742E9, 0.0, 2022-10-21 19:14:24.979
97.0, -132971.91357277794, -159095.8501810849, -15775.436553411075, -98700.40848260028, 64666.81536040489, -75283.6257557423, 52212.02101850761, -114946.17044283992, 0.058, 0.9560000000000001, 0.08, 192.0, 0.0, 0.0, 0.0, 0.0, 0.0, 0.0, 0.0, 0.0, 0.0, 1.666404864979771E9, 0.0, 2022-10-21 19:14:24.979
98.0, -132973.52289837872, -159096.78895435203, -15775.41420166662, -98702.21897390115, 64672.13507558526, -75290.21952035661, 52210.411692906826, -114943.95762013884, 0.058, 0.9560000000000001, 0.08, 192.0, 0.0, 0.0, 0.0, 0.0, 0.0, 0.0, 0.0, 0.0, 0.0, 1.6664048649797857E9, 0.0, 2022-10-21 19:14:24.979
99.0, -132964.67160757442, -159088.63056762583, -15767.16640796261, -98706.91284023676, 64683.93679665766, -75290.71125873462, 52208.8247190505, -114931.82062289961, 0.058, 0.9560000000000001, 0.08, 192.0, 0.0, 0.0, 0.0, 0.0, 0.0, 0.0, 0.0, 0.0, 0.0, 1.6664048649798005E9, 0.0, 2022-10-21 19:14:24.979
100.0, -132960.11185170553, -159088.4517536702, -15759.320945658797, -98704.23063090214, 64685.74728795854, -75297.84146521587, 52206.9248207718, -114923.63988442897, 0.058, 0.9560000000000001, 0.08, 192.0, 0.0, 0.0, 0.0, 0.0, 0.0, 0.0, 0.0, 0.0, 0.0, 1.6664048649798145E9, 0.0, 2022-10-21 19:14:24.979
101.0, -132965.96800875282, -159099.33705321993, -15775.1236289887, -98689.45612781718, 64676.94070064315, -75281.70350571912, 52213.02684700809, -114940.78367242619, 0.058, 0.9560000000000001, 0.08, 192.0, 0.0, 0.0, 0.0, 0.0, 0.0, 0.0, 0.0, 0.0, 0.0, 1.666404864979829E9, 0.0, 2022-10-21 19:14:24.979
102.0, -132978.12735773652, -159110.08824230294, -15785.36072794923, -98693.3453313524, 64668.581148216865, -75272.94162189265, 52214.882041797886, -114959.5367860242, 0.058, 0.9560000000000001, 0.08, 192.0, 0.0, 0.0, 0.0, 0.0, 0.0, 0.0, 0.0, 0.0, 0.0, 1.6664048649798436E9, 0.0, 2022-10-21 19:14:24.979
103.0, -132977.45680540285, -159103.33801547743, -15782.589111636773, -98719.80979678748, 64660.668630679684, -75300.1213431503, 52197.22416367819, -114961.74960872527, 0.058, 0.9560000000000001, 0.08, 192.0, 0.0, 0.0, 0.0, 0.0, 0.0, 0.0, 0.0, 0.0, 0.0, 1.6664048649798615E9, 0.0, 2022-10-21 19:14:24.979
104.0, -132978.90966879245, -159108.45656495768, -15780.510399402428, -98712.81370077297, 64666.30127028243, -75312.88418923429, 52193.759643287616, -114955.22289934433, 0.054, 0.9520000000000001, 0.08600000000000001, 192.0, 1.0, 176.0, 29.0, 192.0, 2.0, 176.0, 0.0, 0.0, 0.0, 1.666404864979876E9, 0.0, 2022-10-21 19:14:24.979
105.0, -132990.10789276456, -159123.16401280928, -15793.742632119971, -98701.9954564566, 64660.065133579395, -75309.33026186589, 52200.28635266857, -114956.72046622283, 0.054, 0.9520000000000001, 0.08600000000000001, 192.0, 0.0, 0.0, 0.0, 0.0, 0.0, 0.0, 0.0, 0.0, 0.0, 1.6664048649798913E9, 0.0, 2022-10-21 19:14:24.979
106.0, -132960.11185170553, -159093.1009165169, -15766.227634695488, -98687.10919464937, 64683.78033444648, -75291.27005234601, 52225.499120414155, -114927.126756564, 0.054, 0.9520000000000001, 0.08600000000000001, 192.0, 0.0, 0.0, 0.0, 0.0, 0.0, 0.0, 0.0, 0.0, 0.0, 1.6664048649799056E9, 0.0, 2022-10-21 19:14:24.979
107.0, -132960.20125868337, -159093.77146885055, -15766.495855628951, -98710.75734028309, 64681.27693906748, -75319.83558175988, 52205.98604750467, -114940.15782358144, 0.054, 0.9520000000000001, 0.08600000000000001, 192.0, 0.0, 0.0, 0.0, 0.0, 0.0, 0.0, 0.0, 0.0, 0.0, 1.6664048649799223E9, 0.0, 2022-10-21 19:14:24.979
108.0, -132969.9466192659, -159104.81323061147, -15779.526922646395, -98720.59210784342, 64671.21865406259, -75333.67131157772, 52188.90931474082, -114959.7379517243, 0.054, 0.9520000000000001, 0.08600000000000001, 192.0, 0.0, 0.0, 0.0, 0.0, 0.0, 0.0, 0.0, 0.0, 0.0, 1.6664048649799366E9, 0.0, 2022-10-21 19:14:24.979
109.0, -132969.56663961013, -159105.43907945624, -15780.823323824803, -98698.66504653277, 64671.19630231814, -75313.93472122369, 52204.51083237062, -114955.20054759986, 0.054, 0.9520000000000001, 0.08600000000000001, 192.0, 0.0, 0.0, 0.0, 0.0, 0.0, 0.0, 0.0, 0.0, 0.0, 1.666404864979951E9, 0.0, 2022-10-21 19:14:24.979
110.0, -132969.5889913546, -159107.18251552375, -15783.639643626171, -98699.11208142187, 64668.26822379449, -75305.8210379864, 52213.02684700809, -114953.72533246581, 0.054, 0.9520000000000001, 0.08600000000000001, 192.0, 0.0, 0.0, 0.0, 0.0, 0.0, 0.0, 0.0, 0.0, 0.0, 1.6664048649799652E9, 0.0, 2022-10-21 19:14:24.979
111.0, -132975.26633444623, -159112.21165802618, -15790.814553596325, -98722.4025991443, 64662.724991169576, -75313.91236947922, 52203.1697277033, -114969.81858847363, 0.054, 0.9520000000000001, 0.08600000000000001, 192.0, 0.0, 0.0, 0.0, 0.0, 0.0, 0.0, 0.0, 0.0, 0.0, 1.6664048649799795E9, 0.0, 2022-10-21 19:14:24.979
112.0, -132969.90191577698, -159105.05909980048, -15786.902998316647, -98721.97791599965, 64670.257529051014, -75332.79959354397, 52195.771300288594, -114960.1849866134, 0.054, 0.9520000000000001, 0.08600000000000001, 192.0, 0.0, 0.0, 0.0, 0.0, 0.0, 0.0, 0.0, 0.0, 0.0, 1.6664048649800067E9, 0.0, 2022-10-21 19:14:24.980
113.0, -132988.02918053023, -159119.38656799635, -15801.789260123882, -98705.16940416925, 64666.72595342708, -75326.98813998558, 52199.057006723524, -114963.44834130387, 0.054, 0.9520000000000001, 0.08600000000000001, 192.0, 0.0, 0.0, 0.0, 0.0, 0.0, 0.0, 0.0, 0.0, 0.0, 1.6664048649800208E9, 0.0, 2022-10-21 19:14:24.980
114.0, -133001.23906150332, -159135.39041702636, -15813.278056773908, -98704.87883149134, 64653.42666547617, -75324.97648298461, 52197.76060554512, -114977.86521647754, 0.06, 0.9520000000000001, 0.084, 192.0, 1.0, 224.0, 29.0, 192.0, 2.0, 160.0, 0.0, 0.0, 0.0, 1.6664048649800353E9, 0.0, 2022-10-21 19:14:24.980
115.0, -132981.50247114926, -159120.23593428565, -15803.219771769021, -98709.90797399379, 64664.7142964261, -75328.73157605309, 52198.05117822304, -114982.87200723554, 0.06, 0.9520000000000001, 0.084, 192.0, 0.0, 0.0, 0.0, 0.0, 0.0, 0.0, 0.0, 0.0, 0.0, 1.6664048649800508E9, 0.0, 2022-10-21 19:14:24.980
116.0, -132981.10013974906, -159119.36421625188, -15807.846582871269, -98733.3996574163, 64662.65793593621, -75348.31170419595, 52184.77424201659, -114970.80206522967, 0.06, 0.9520000000000001, 0.084, 192.0, 0.0, 0.0, 0.0, 0.0, 0.0, 0.0, 0.0, 0.0, 0.0, 1.6664048649800649E9, 0.0, 2022-10-21 19:14:24.980
117.0, -132974.7969478127, -159112.92691384876, -15799.218809511522, -98708.63392455984, 64675.443133764646, -75329.22331443112, 52200.264000924115, -114964.29770759317, 0.06, 0.9520000000000001, 0.084, 192.0, 0.0, 0.0, 0.0, 0.0, 0.0, 0.0, 0.0, 0.0, 0.0, 1.6664048649800792E9, 0.0, 2022-10-21 19:14:24.980
118.0, -132971.9359245224, -159104.29914048902, -15794.256722242442, -98699.02267444404, 64674.32554654188, -75328.19513418617, 52205.62841959339, -114971.27145186323, 0.06, 0.9520000000000001, 0.084, 192.0, 0.0, 0.0, 0.0, 0.0, 0.0, 0.0, 0.0, 0.0, 0.0, 1.6664048649800935E9, 0.0, 2022-10-21 19:14:24.980
119.0, -132974.6404856015, -159102.64511139932, -15794.435536198085, -98712.79134902851, 64669.85519765082, -75338.09695697988, 52201.22512593569, -114969.55036754017, 0.06, 0.9520000000000001, 0.084, 192.0, 0.0, 0.0, 0.0, 0.0, 0.0, 0.0, 0.0, 0.0, 0.0, 1.6664048649801087E9, 0.0, 2022-10-21 19:14:24.980
120.0, -132988.45386367486, -159119.81125114099, -15813.83685038529, -98741.31217495349, 64655.6618399217, -75363.57794565892, 52174.246570378134, -114989.19755091639, 0.06, 0.9520000000000001, 0.084, 192.0, 0.0, 0.0, 0.0, 0.0, 0.0, 0.0, 0.0, 0.0, 0.0, 1.666404864980124E9, 0.0, 2022-10-21 19:14:24.980
121.0, -132981.5471746382, -159115.05032957203, -15814.507402718951, -98731.34329692642, 64657.7629039005, -75356.38068394431, 52177.889904724354, -114990.62806256153, 0.06, 0.9520000000000001, 0.084, 192.0, 0.0, 0.0, 0.0, 0.0, 0.0, 0.0, 0.0, 0.0, 0.0, 1.6664048654568665E9, 0.0, 2022-10-21 19:14:25.456
122.0, -132968.1808314539, -159101.9075038323, -15797.676539144104, -98698.48623257712, 64673.476180252575, -75339.59452385838, 52198.87819276789, -114976.03237343222, 0.06, 0.9520000000000001, 0.084, 192.0, 0.0, 0.0, 0.0, 0.0, 0.0, 0.0, 0.0, 0.0, 0.0, 1.6664048654570405E9, 0.0, 2022-10-21 19:14:25.457
123.0, -132975.3333896796, -159107.49543994613, -15803.018606068923, -98706.10817743638, 64667.93294762766, -75338.16401221324, 52195.771300288594, -114992.86323700706, 0.06, 0.9520000000000001, 0.084, 192.0, 0.0, 0.0, 0.0, 0.0, 0.0, 0.0, 0.0, 0.0, 0.0, 1.6664048654570746E9, 0.0, 2022-10-21 19:14:25.457
124.0, -132980.9883810268, -159112.81515512647, -15818.195440554076, -98743.0109075321, 64653.069037564885, -75379.15711154426, 52167.116363896894, -115003.1003359676, 0.06, 0.9520000000000001, 0.082, 192.0, 1.0, 224.0, 29.0, 192.0, 2.0, 144.0, 0.0, 0.0, 0.0, 1.6664048654571307E9, 0.0, 2022-10-21 19:14:25.457
125.0, -133009.79977962968, -159142.34180955193, -15849.107903135766, -98757.58424491696, 64631.678418121155, -75396.88204489733, 52145.92691015326, -115029.9000775695, 0.06, 0.9520000000000001, 0.082, 192.0, 0.0, 0.0, 0.0, 0.0, 0.0, 0.0, 0.0, 0.0, 0.0, 1.6664048654571617E9, 0.0, 2022-10-21 19:14:25.457
126.0, -132991.33723870962, -159125.84622214394, -15828.65605695916, -98715.33944789642, 64654.85717712131, -75352.91616355375, 52184.55072457204, -114998.71939405435, 0.06, 0.9520000000000001, 0.082, 192.0, 0.0, 0.0, 0.0, 0.0, 0.0, 0.0, 0.0, 0.0, 0.0, 1.666404865457188E9, 0.0, 2022-10-21 19:14:25.457
127.0, -132970.4830611328, -159107.36132947938, -15809.858239872246, -98703.58243031293, 64672.06802035189, -75340.01920700303, 52203.30383817004, -114967.96339368385, 0.06, 0.9520000000000001, 0.082, 192.0, 0.0, 0.0, 0.0, 0.0, 0.0, 0.0, 0.0, 0.0, 0.0, 1.6664048654572985E9, 0.0, 2022-10-21 19:14:25.457
128.0, -132984.36349443955, -159121.1076523194, -15826.46558600254, -98730.38217191484, 64661.20507254662, -75368.51768118354, 52177.28640762406, -114994.58432133011, 0.06, 0.9520000000000001, 0.082, 192.0, 0.0, 0.0, 0.0, 0.0, 0.0, 0.0, 0.0, 0.0, 0.0, 1.6664048654573252E9, 0.0, 2022-10-21 19:14:25.457
129.0, -132990.66668637595, -159127.63436170036, -15830.980638382513, -98736.66301210679, 64662.635584191754, -75370.90931784025, 52175.63237853436, -114991.72329803984, 0.06, 0.9520000000000001, 0.082, 192.0, 0.0, 0.0, 0.0, 0.0, 0.0, 0.0, 0.0, 0.0, 0.0, 1.6664048654573607E9, 0.0, 2022-10-21 19:14:25.457
130.0, -132986.75513109626, -159127.8578791449, -15829.550126737373, -98719.76509329857, 64665.094276081836, -75354.01139903205, 52189.51281184111, -114987.11883868204, 0.06, 0.9520000000000001, 0.082, 192.0, 0.0, 0.0, 0.0, 0.0, 0.0, 0.0, 0.0, 0.0, 0.0, 1.6664048654573865E9, 0.0, 2022-10-21 19:14:25.457
131.0, -132991.67251487644, -159131.4565100022, -15837.641458230193, -98713.28308740654, 64662.65793593621, -75349.47399490762, 52193.826698520985, -115003.41326038996, 0.06, 0.9520000000000001, 0.082, 192.0, 0.0, 0.0, 0.0, 0.0, 0.0, 0.0, 0.0, 0.0, 0.0, 1.6664048654574132E9, 0.0, 2022-10-21 19:14:25.457
132.0, -133000.07677079164, -159135.0104373706, -15849.890214191702, -98740.21693947518, 64653.29255500944, -75364.85199509287, 52179.32041636949, -115014.0973942396, 0.06, 0.9520000000000001, 0.082, 192.0, 0.0, 0.0, 0.0, 0.0, 0.0, 0.0, 0.0, 0.0, 0.0, 1.6664048654574397E9, 0.0, 2022-10-21 19:14:25.457
133.0, -132989.43734043092, -159123.07460583147, -15842.715304221549, -98743.34618369892, 64660.199244046125, -75387.74018141511, 52170.46912556519, -115001.37925164452, 0.052000000000000005, 0.9560000000000001, 0.084, 192.0, 1.0, 160.0, 29.0, 224.0, 2.0, 160.0, 0.0, 0.0, 0.0, 1.6664048654574656E9, 0.0, 2022-10-21 19:14:25.457
134.0, -132983.84940431706, -159123.0075505981, -15840.36837105374, -98714.69124730722, 64669.87754939527, -75368.18240501672, 52186.24945715064, -114995.41133587496, 0.052000000000000005, 0.9560000000000001, 0.084, 192.0, 0.0, 0.0, 0.0, 0.0, 0.0, 0.0, 0.0, 0.0, 0.0, 1.6664048654574945E9, 0.0, 2022-10-21 19:14:25.457
135.0, -133001.86491034806, -159142.54297525203, -15863.524778309438, -98724.83893928993, 64650.6103456748, -75366.88600383831, 52182.27084663759, -115011.83986804962, 0.052000000000000005, 0.9560000000000001, 0.084, 192.0, 0.0, 0.0, 0.0, 0.0, 0.0, 0.0, 0.0, 0.0, 0.0, 1.6664048654575207E9, 0.0, 2022-10-21 19:14:25.457
136.0, -132978.9990757703, -159115.87734411686, -15838.647286730682, -98733.37730567185, 64668.938776128154, -75378.37480048834, 52187.72467228469, -114994.96430098586, 0.052000000000000005, 0.9560000000000001, 0.084, 192.0, 0.0, 0.0, 0.0, 0.0, 0.0, 0.0, 0.0, 0.0, 0.0, 1.6664048654575472E9, 0.0, 2022-10-21 19:14:25.457
137.0, -132974.32756117912, -159105.99787306762, -15835.808615184858, -98727.45409339119, 64683.71327921311, -75384.9909168471, 52184.528372827575, -114990.0916206946, 0.052000000000000005, 0.9560000000000001, 0.084, 192.0, 0.0, 0.0, 0.0, 0.0, 0.0, 0.0, 0.0, 0.0, 0.0, 1.6664048654575727E9, 0.0, 2022-10-21 19:14:25.457
138.0, -132979.133186237, -159114.08920456044, -15848.035019401912, -98713.57366008445, 64675.89016865375, -75368.83060560592, 52192.28442815357, -114992.01387071775, 0.052000000000000005, 0.9560000000000001, 0.084, 192.0, 0.0, 0.0, 0.0, 0.0, 0.0, 0.0, 0.0, 0.0, 0.0, 1.6664048654575984E9, 0.0, 2022-10-21 19:14:25.457
139.0, -132979.2896484482, -159117.5090214621, -15851.1419118812, -98707.2481164036, 64670.615156962296, -75361.05219853547, 52203.48265212568, -114998.96526324336, 0.052000000000000005, 0.9560000000000001, 0.084, 192.0, 0.0, 0.0, 0.0, 0.0, 0.0, 0.0, 0.0, 0.0, 0.0, 1.6664048654576242E9, 0.0, 2022-10-21 19:14:25.457
140.0, -132971.80181405568, -159105.55083817852, -15846.47039729004, -98719.20629968718, 64674.16908433069, -75372.89862309679, 52200.129890457385, -114983.96724271384, 0.052000000000000005, 0.9560000000000001, 0.084, 192.0, 0.0, 0.0, 0.0, 0.0, 0.0, 0.0, 0.0, 0.0, 0.0, 1.66640486545765E9, 0.0, 2022-10-21 19:14:25.457
141.0, -132975.0875204906, -159107.24957075712, -15849.934917680612, -98740.12753249735, 64672.93973838565, -75402.26881531105, 52179.94626521424, -114990.20337941688, 0.052000000000000005, 0.9560000000000001, 0.084, 192.0, 0.0, 0.0, 0.0, 0.0, 0.0, 0.0, 0.0, 0.0, 0.0, 1.6664048654576757E9, 0.0, 2022-10-21 19:14:25.457
142.0, -133006.22350051685, -159139.39137928383, -15881.0485459624, -98753.38211695936, 64646.47527295056, -75418.4514782967, 52156.4098783028, -115038.21492650687, 0.052000000000000005, 0.9560000000000001, 0.084, 192.0, 0.0, 0.0, 0.0, 0.0, 0.0, 0.0, 0.0, 0.0, 0.0, 1.6664048654577277E9, 0.0, 2022-10-21 19:14:25.457
143.0, -132995.56171841166, -159124.57217270997, -15867.034002188922, -98729.3539916699, 64655.08069456586, -75389.48361748262, 52186.495326339646, -115014.18680121742, 0.054, 0.9540000000000001, 0.08600000000000001, 192.0, 1.0, 176.0, 29.0, 208.0, 2.0, 176.0, 0.0, 0.0, 0.0, 1.6664048654577537E9, 0.0, 2022-10-21 19:14:25.457
144.0, -132983.40236942796, -159107.96482657967, -15854.04763866039, -98729.53280562554, 64668.022354605484, -75392.88108263983, 52193.826698520985, -115000.23931267731, 0.054, 0.9540000000000001, 0.08600000000000001, 192.0, 0.0, 0.0, 0.0, 0.0, 0.0, 0.0, 0.0, 0.0, 0.0, 1.6664048654577813E9, 0.0, 2022-10-21 19:14:25.457
145.0, -132975.1992792129, -159099.87349508685, -15846.47039729004, -98726.73883756863, 64682.349822801334, -75397.86552165337, 52192.642056064855, -114986.87296949304, 0.054, 0.9540000000000001, 0.08600000000000001, 192.0, 0.0, 0.0, 0.0, 0.0, 0.0, 0.0, 0.0, 0.0, 0.0, 1.666404865457807E9, 0.0, 2022-10-21 19:14:25.457
146.0, -132986.86688981854, -159115.38560573885, -15861.33430735282, -98735.72423883966, 64664.89311038174, -75408.7508212031, 52180.08037568097, -114995.85837076406, 0.054, 0.9540000000000001, 0.08600000000000001, 192.0, 0.0, 0.0, 0.0, 0.0, 0.0, 0.0, 0.0, 0.0, 0.0, 1.6664048654578333E9, 0.0, 2022-10-21 19:14:25.457
147.0, -132994.0417997887, -159128.1484518228, -15873.247787147498, -98733.3549539274, 64651.12443579727, -75412.37180380485, 52179.11925066939, -115013.47154539484, 0.054, 0.9540000000000001, 0.08600000000000001, 192.0, 0.0, 0.0, 0.0, 0.0, 0.0, 0.0, 0.0, 0.0, 0.0, 1.6664048654578583E9, 0.0, 2022-10-21 19:14:25.457
148.0, -132996.92517482344, -159131.43415825776, -15879.483923850528, -98742.22859647615, 64649.20218577411, -75412.26004508258, 52183.29902688254, -115014.38796691752, 0.054, 0.9540000000000001, 0.08600000000000001, 192.0, 0.0, 0.0, 0.0, 0.0, 0.0, 0.0, 0.0, 0.0, 0.0, 1.6664048654578838E9, 0.0, 2022-10-21 19:14:25.457
149.0, -132986.15163399596, -159117.26315227308, -15870.275005134941, -98749.49291342412, 64660.98155510206, -75417.78092596304, 52182.85199199343, -115002.34037665611, 0.054, 0.9540000000000001, 0.08600000000000001, 192.0, 0.0, 0.0, 0.0, 0.0, 0.0, 0.0, 0.0, 0.0, 0.0, 1.6664048654579089E9, 0.0, 2022-10-21 19:14:25.457
150.0, -132983.98351478382, -159114.93857084974, -15870.789095257414, -98747.0118697896, 64664.244909792535, -75422.56419927647, 52179.45452683622, -115002.76505980076, 0.054, 0.9540000000000001, 0.08600000000000001, 192.0, 0.0, 0.0, 0.0, 0.0, 0.0, 0.0, 0.0, 0.0, 0.0, 1.6664048654579375E9, 0.0, 2022-10-21 19:14:25.457
151.0, -133009.21863427386, -159141.8724229184, -15896.918284525667, -98747.79418084552, 64645.245927005526, -75422.43008880975, 52174.98417794516, -115032.89521132651, 0.054, 0.9540000000000001, 0.08600000000000001, 192.0, 0.0, 0.0, 0.0, 0.0, 0.0, 0.0, 0.0, 0.0, 0.0, 1.6664048654579628E9, 0.0, 2022-10-21 19:14:25.457
152.0, -132998.62390740204, -159133.04348385852, -15889.38574664423, -98742.98855578764, 64649.31394449639, -75414.42816429475, 52187.054119951026, -115022.45694666589, 0.054, 0.9540000000000001, 0.08600000000000001, 192.0, 0.0, 0.0, 0.0, 0.0, 0.0, 0.0, 0.0, 0.0, 0.0, 1.6664048654579885E9, 0.0, 2022-10-21 19:14:25.457
153.0, -132982.46359616084, -159115.78793713904, -15877.941653483113, -98754.05266929301, 64655.68419166615, -75430.09673715792, 52180.99679720364, -115008.26358893677, 0.054, 0.9500000000000001, 0.078, 192.0, 1.0, 176.0, 29.0, 176.0, 2.0, 112.0, 0.0, 0.0, 0.0, 1.6664048654580145E9, 0.0, 2022-10-21 19:14:25.458
154.0, -132977.00977051375, -159108.07658530195, -15874.52183658145, -98750.0070035466, 64663.552005714424, -75435.12587966037, 52178.582808802465, -115011.88457153853, 0.054, 0.9500000000000001, 0.078, 192.0, 0.0, 0.0, 0.0, 0.0, 0.0, 0.0, 0.0, 0.0, 0.0, 1.6664048654580417E9, 0.0, 2022-10-21 19:14:25.458
155.0, -132978.73085483682, -159110.49057370314, -15875.013574959466, -98722.6037648444, 64669.18464531716, -75420.53019053105, 52191.94915198674, -115011.50459188278, 0.054, 0.9500000000000001, 0.078, 192.0, 0.0, 0.0, 0.0, 0.0, 0.0, 0.0, 0.0, 0.0, 0.0, 1.6664048654580677E9, 0.0, 2022-10-21 19:14:25.458
156.0, -132992.52188116574, -159124.43806224325, -15888.424621632652, -98727.49879688011, 64658.76873240099, -75423.63708301033, 52190.049253708035, -115014.81265006217, 0.054, 0.9500000000000001, 0.078, 192.0, 0.0, 0.0, 0.0, 0.0, 0.0, 0.0, 0.0, 0.0, 0.0, 1.6664048654580932E9, 0.0, 2022-10-21 19:14:25.458
157.0, -132992.81245384365, -159125.68975993275, -15888.804601288391, -98747.12362851186, 64663.4625987366, -75430.74493774712, 52183.74606177164, -115002.4968388673, 0.054, 0.9500000000000001, 0.078, 192.0, 0.0, 0.0, 0.0, 0.0, 0.0, 0.0, 0.0, 0.0, 0.0, 1.6664048654581184E9, 0.0, 2022-10-21 19:14:25.458
158.0, -132995.38290445603, -159128.64019020085, -15895.465421136072, -98757.27132049458, 64663.350840014326, -75440.26678088508, 52173.03957617755, -114997.0430132202, 0.054, 0.9500000000000001, 0.078, 192.0, 0.0, 0.0, 0.0, 0.0, 0.0, 0.0, 0.0, 0.0, 0.0, 1.666404865458259E9, 0.0, 2022-10-21 19:14:25.458
159.0, -133016.81822738866, -159148.24267008813, -15912.564505644383, -98757.89716933933, 64645.245927005526, -75449.49805134512, 52163.60714001741, -115018.99242627532, 0.054, 0.9500000000000001, 0.078, 192.0, 0.0, 0.0, 0.0, 0.0, 0.0, 0.0, 0.0, 0.0, 0.0, 1.6664048654582736E9, 0.0, 2022-10-21 19:14:25.458
160.0, -132993.97474455534, -159123.94632386524, -15887.597607087804, -98718.28987816452, 64670.615156962296, -75404.66045196778, 52205.40490214883, -115007.05659473618, 0.054, 0.9500000000000001, 0.078, 192.0, 0.0, 0.0, 0.0, 0.0, 0.0, 0.0, 0.0, 0.0, 0.0, 1.666404865458288E9, 0.0, 2022-10-21 19:14:25.458
161.0, -132985.65989561795, -159120.5041552191, -15890.928017011645, -98738.83113131895, 64670.23517730656, -75406.09096361292, 52201.76156780262, -115006.31898716916, 0.054, 0.9500000000000001, 0.078, 192.0, 0.0, 0.0, 0.0, 0.0, 0.0, 0.0, 0.0, 0.0, 0.0, 1.6664048654583015E9, 0.0, 2022-10-21 19:14:25.458
162.0, -132994.93586956692, -159130.07070184598, -15904.450822407107, -98763.23923626414, 64663.686116181154, -75433.69536801522, 52182.13673617086, -115019.64062686452, 0.054, 0.9500000000000001, 0.078, 192.0, 0.0, 0.0, 0.0, 0.0, 0.0, 0.0, 0.0, 0.0, 0.0, 1.6664048654583156E9, 0.0, 2022-10-21 19:14:25.458
163.0, -132987.11275900755, -159122.806384898, -15896.851229292302, -98740.06047726399, 64675.644299464744, -75430.4543650692, 52193.29025665406, -115012.51042038327, 0.052000000000000005, 0.9480000000000001, 0.076, 192.0, 1.0, 160.0, 29.0, 160.0, 2.0, 96.0, 0.0, 0.0, 0.0, 1.6664048654583297E9, 0.0, 2022-10-21 19:14:25.458
164.0, -132988.63267763052, -159127.92493437827, -15903.355586928796, -98725.68830557923, 64674.19143607515, -75405.4427630237, 52208.154166716835, -115018.52303964175, 0.052000000000000005, 0.9480000000000001, 0.076, 192.0, 0.0, 0.0, 0.0, 0.0, 0.0, 0.0, 0.0, 0.0, 0.0, 1.6664048654583447E9, 0.0, 2022-10-21 19:14:25.458
165.0, -133001.06024754766, -159140.93364965127, -15918.48771792504, -98764.35682348692, 64653.27020326498, -75434.12005115987, 52185.6683117948, -115025.98852228983, 0.052000000000000005, 0.9480000000000001, 0.076, 192.0, 0.0, 0.0, 0.0, 0.0, 0.0, 0.0, 0.0, 0.0, 0.0, 1.6664048654583585E9, 0.0, 2022-10-21 19:14:25.458
166.0, -133004.97180282735, -159145.29223982003, -15923.62861914976, -98782.05940509551, 64651.817339875386, -75450.9062112458, 52169.23977962015, -115026.16733624546, 0.052000000000000005, 0.9480000000000001, 0.076, 192.0, 0.0, 0.0, 0.0, 0.0, 0.0, 0.0, 0.0, 0.0, 0.0, 1.6664048654583735E9, 0.0, 2022-10-21 19:14:25.458
167.0, -133010.6938494079, -159150.90252767832, -15923.874488338768, -98766.03320432105, 64651.41500847519, -75428.42035632377, 52177.6663872798, -115029.47539442485, 0.052000000000000005, 0.9480000000000001, 0.076, 192.0, 0.0, 0.0, 0.0, 0.0, 0.0, 0.0, 0.0, 0.0, 0.0, 1.6664048654583876E9, 0.0, 2022-10-21 19:14:25.458
168.0, -132982.8435758166, -159123.4098819983, -15893.967854257568, -98733.51141613859, 64674.19143607515, -75407.40971653578, 52209.830547550984, -115008.88943778152, 0.052000000000000005, 0.9480000000000001, 0.076, 192.0, 0.0, 0.0, 0.0, 0.0, 0.0, 0.0, 0.0, 0.0, 0.0, 1.6664048654584017E9, 0.0, 2022-10-21 19:14:25.458
169.0, -132976.20510771335, -159114.44683247173, -15889.855133277792, -98738.04882026301, 64683.02037513499, -75405.24159732362, 52219.1735767333, -115001.40160338898, 0.052000000000000005, 0.9480000000000001, 0.076, 192.0, 0.0, 0.0, 0.0, 0.0, 0.0, 0.0, 0.0, 0.0, 0.0, 1.6664048654584155E9, 0.0, 2022-10-21 19:14:25.458
170.0, -132976.5403838802, -159113.32924524895, -15893.364357157274, -98754.2091315042, 64682.46158152361, -75421.46896379816, 52205.60606784893, -115004.32968191263, 0.052000000000000005, 0.9480000000000001, 0.076, 192.0, 0.0, 0.0, 0.0, 0.0, 0.0, 0.0, 0.0, 0.0, 0.0, 1.666404865458429E9, 0.0, 2022-10-21 19:14:25.458
171.0, -132980.02725601522, -159115.83264062795, -15895.130144969244, -98753.9632623152, 64679.44409602215, -75429.73910924663, 52197.49238461166, -115002.8991702675, 0.052000000000000005, 0.9480000000000001, 0.076, 192.0, 0.0, 0.0, 0.0, 0.0, 0.0, 0.0, 0.0, 0.0, 0.0, 1.666404865458445E9, 0.0, 2022-10-21 19:14:25.458
172.0, -132979.2449449593, -159114.71505340518, -15897.052394992399, -98741.26747146458, 64674.951395386626, -75427.48158305664, 52203.30383817004, -115000.70869931087, 0.054, 0.9460000000000001, 0.084, 192.0, 1.0, 176.0, 29.0, 144.0, 2.0, 160.0, 0.0, 0.0, 0.0, 1.666404865458459E9, 0.0, 2022-10-21 19:14:25.458
173.0, -132975.80277631315, -159112.92691384876, -15893.923150768656, -98735.41131441729, 64680.44992452263, -75424.53115278855, 52212.75862607463, -114992.93029224043, 0.054, 0.9460000000000001, 0.084, 192.0, 0.0, 0.0, 0.0, 0.0, 0.0, 0.0, 0.0, 0.0, 0.0, 1.666404865458488E9, 0.0, 2022-10-21 19:14:25.458
174.0, -132996.41108470096, -159132.2164693137, -15910.329331198853, -98769.810649134, 64666.4130290047, -75445.76531002109, 52188.95401822973, -115016.51138264078, 0.054, 0.9460000000000001, 0.084, 192.0, 0.0, 0.0, 0.0, 0.0, 0.0, 0.0, 0.0, 0.0, 0.0, 1.666404865458502E9, 0.0, 2022-10-21 19:14:25.458
175.0, -133004.94945108288, -159138.0055711276, -15920.857002837301, -98780.00304460562, 64656.019467832986, -75459.24341192763, 52177.42051809079, -115023.66394086648, 0.054, 0.9460000000000001, 0.084, 192.0, 0.0, 0.0, 0.0, 0.0, 0.0, 0.0, 0.0, 0.0, 0.0, 1.666404865458516E9, 0.0, 2022-10-21 19:14:25.458
176.0, -132977.65797110295, -159115.02797782756, -15899.95812177159, -98743.055611021, 64674.03497386396, -75438.36688260638, 52203.79557654805, -115001.53571385572, 0.054, 0.9460000000000001, 0.084, 192.0, 0.0, 0.0, 0.0, 0.0, 0.0, 0.0, 0.0, 0.0, 0.0, 1.66640486545853E9, 0.0, 2022-10-21 19:14:25.458
177.0, -132990.37611369803, -159128.41667275628, -15912.408043433195, -98741.46863716468, 64669.94460462864, -75423.59237952142, 52209.2717539396, -115013.0468622502, 0.054, 0.9460000000000001, 0.084, 192.0, 0.0, 0.0, 0.0, 0.0, 0.0, 0.0, 0.0, 0.0, 0.0, 1.666404865458544E9, 0.0, 2022-10-21 19:14:25.458
178.0, -132985.6375438735, -159123.58869595395, -15907.445956164118, -98759.57355017347, 64676.29250005395, -75432.60013253691, 52204.13085271488, -114999.85933302157, 0.054, 0.9460000000000001, 0.084, 192.0, 0.0, 0.0, 0.0, 0.0, 0.0, 0.0, 0.0, 0.0, 0.0, 1.666404865458558E9, 0.0, 2022-10-21 19:14:25.458
179.0, -132980.76486358224, -159117.01728308407, -15901.343929927818, -98762.12164904138, 64683.400354790734, -75450.14625193432, 52196.486556111166, -114990.11397243905, 0.054, 0.9460000000000001, 0.084, 192.0, 0.0, 0.0, 0.0, 0.0, 0.0, 0.0, 0.0, 0.0, 0.0, 1.6664048654585717E9, 0.0, 2022-10-21 19:14:25.458
180.0, -132983.78234908372, -159120.1018238189, -15905.590761374327, -98744.35201219941, 64682.95331990163, -75440.33383611844, 52205.60606784893, -115002.83211503412, 0.054, 0.9460000000000001, 0.084, 192.0, 0.0, 0.0, 0.0, 0.0, 0.0, 0.0, 0.0, 0.0, 0.0, 1.6664048654585862E9, 0.0, 2022-10-21 19:14:25.458
181.0, -133002.62486965954, -159140.7548356956, -15924.254467994508, -98747.8612360789, 64668.22352030558, -75437.78573725054, 52203.259134681124, -115031.93408631494, 0.054, 0.9460000000000001, 0.084, 192.0, 0.0, 0.0, 0.0, 0.0, 0.0, 0.0, 0.0, 0.0, 0.0, 1.6664048654586003E9, 0.0, 2022-10-21 19:14:25.458
182.0, -133004.32360223815, -159144.24170783063, -15929.350665730319, -98777.54435271554, 64658.522863211976, -75469.07817948797, 52186.7188437842, -115028.29075196871, 0.064, 0.9540000000000001, 0.082, 192.0, 2.0, 0.0, 29.0, 208.0, 2.0, 144.0, 0.0, 0.0, 0.0, 1.666404865458614E9, 0.0, 2022-10-21 19:14:25.458
183.0, -132982.73181709432, -159123.8569168874, -15907.267142208475, -98769.31891075599, 64680.58403498936, -75471.64863010033, 52197.85001252294, -114995.18781843041, 0.064, 0.9540000000000001, 0.082, 192.0, 0.0, 0.0, 0.0, 0.0, 0.0, 0.0, 0.0, 0.0, 0.0, 1.666404865458629E9, 0.0, 2022-10-21 19:14:25.458
184.0, -132978.149709481, -159121.84525988644, -15904.517877640472, -98746.92246281177, 64686.70841297012, -75457.67878981576, 52212.80332956354, -114992.32679514014, 0.064, 0.9540000000000001, 0.082, 192.0, 0.0, 0.0, 0.0, 0.0, 0.0, 0.0, 0.0, 0.0, 0.0, 1.6664048654586427E9, 0.0, 2022-10-21 19:14:25.458
185.0, -132984.385846184, -159129.8471844014, -15914.710273112092, -98747.4589046787, 64675.309023297916, -75460.1598334503, 52210.79167256256, -115017.62896986354, 0.064, 0.9540000000000001, 0.082, 192.0, 0.0, 0.0, 0.0, 0.0, 0.0, 0.0, 0.0, 0.0, 0.0, 1.666404865458657E9, 0.0, 2022-10-21 19:14:25.458
186.0, -132988.09623576357, -159133.9599053812, -15918.800642347414, -98753.02448904807, 64681.20988383411, -75455.4659671147, 52209.94230627326, -115031.50940317029, 0.064, 0.9540000000000001, 0.082, 192.0, 0.0, 0.0, 0.0, 0.0, 0.0, 0.0, 0.0, 0.0, 0.0, 1.6664048654586709E9, 0.0, 2022-10-21 19:14:25.458
187.0, -132980.47429090433, -159122.04642558654, -15911.24575272152, -98758.97005307318, 64686.619005992296, -75451.7108740462, 52210.16582371781, -115021.62993212104, 0.064, 0.9540000000000001, 0.082, 192.0, 0.0, 0.0, 0.0, 0.0, 0.0, 0.0, 0.0, 0.0, 0.0, 1.6664048654586844E9, 0.0, 2022-10-21 19:14:25.458
188.0, -132979.62492461503, -159123.43223374276, -15908.608246875794, -98749.42585819076, 64686.88722692576, -75458.34934214942, 52213.20566096374, -115004.77671680173, 0.064, 0.9540000000000001, 0.082, 192.0, 0.0, 0.0, 0.0, 0.0, 0.0, 0.0, 0.0, 0.0, 0.0, 1.666404865458711E9, 0.0, 2022-10-21 19:14:25.458
189.0, -132995.20409050037, -159143.9734868972, -15925.908497084201, -98749.78348610205, 64675.04080236445, -75455.57772583696, 52216.46901565421, -115017.91954254145, 0.064, 0.9540000000000001, 0.082, 192.0, 0.0, 0.0, 0.0, 0.0, 0.0, 0.0, 0.0, 0.0, 0.0, 1.6664048654587247E9, 0.0, 2022-10-21 19:14:25.458
190.0, -132993.43830268842, -159142.3194578075, -15928.613058163293, -98762.43457346375, 64675.62194772029, -75460.65157182832, 52217.49719589916, -115012.04103374972, 0.064, 0.9540000000000001, 0.082, 192.0, 0.0, 0.0, 0.0, 0.0, 0.0, 0.0, 0.0, 0.0, 0.0, 1.6664048654587383E9, 0.0, 2022-10-21 19:14:25.458
191.0, -132985.9951717848, -159134.4069402703, -15921.840479593335, -98776.5161724706, 64683.80268619093, -75465.12192071938, 52215.48553889818, -114997.08771670911, 0.064, 0.9540000000000001, 0.082, 192.0, 0.0, 0.0, 0.0, 0.0, 0.0, 0.0, 0.0, 0.0, 0.0, 1.6664048654587522E9, 0.0, 2022-10-21 19:14:25.458
192.0, -132997.59572715708, -159143.9734868972, -15929.954162830612, -98771.95641660171, 64678.4159157772, -75474.21908071269, 52206.03075099358, -115020.93702804293, 0.058, 0.9520000000000001, 0.088, 192.0, 1.0, 208.0, 29.0, 192.0, 2.0, 192.0, 0.0, 0.0, 0.0, 1.666404865458766E9, 0.0, 2022-10-21 19:14:25.458
193.0, -132996.36638121205, -159143.12412060788, -15929.86475585279, -98747.63771863435, 64678.37121228829, -75451.77792927956, 52223.35335294645, -115021.27230420975, 0.058, 0.9520000000000001, 0.088, 192.0, 0.0, 0.0, 0.0, 0.0, 0.0, 0.0, 0.0, 0.0, 0.0, 1.666404865458783E9, 0.0, 2022-10-21 19:14:25.458
194.0, -132987.62684913003, -159131.7023791912, -15925.886145339746, -98757.58424491696, 64675.08550585336, -75467.33474342046, 52216.31255344302, -115021.56287688768, 0.058, 0.9520000000000001, 0.088, 192.0, 0.0, 0.0, 0.0, 0.0, 0.0, 0.0, 0.0, 0.0, 0.0, 1.6664048654587967E9, 0.0, 2022-10-21 19:14:25.458
195.0, -132993.50535792176, -159136.7538734381, -15932.301095998419, -98781.34414927295, 64669.18464531716, -75488.21127274171, 52198.47586136769, -115025.18385948944, 0.058, 0.9520000000000001, 0.088, 192.0, 0.0, 0.0, 0.0, 0.0, 0.0, 0.0, 0.0, 0.0, 0.0, 1.6664048654588103E9, 0.0, 2022-10-21 19:14:25.458
196.0, -132980.72016009333, -159125.801518655, -15922.063997037889, -98766.8602188659, 64682.46158152361, -75479.38233368186, 52207.327152171994, -115006.96718775836, 0.058, 0.9520000000000001, 0.088, 192.0, 0.0, 0.0, 0.0, 0.0, 0.0, 0.0, 0.0, 0.0, 0.0, 1.6664048654588242E9, 0.0, 2022-10-21 19:14:25.458
197.0, -132992.29836372117, -159137.62559147188, -15933.373979732274, -98753.60563440391, 64676.828941920874, -75468.27351668758, 52212.40099816334, -115010.05172849318, 0.058, 0.9520000000000001, 0.088, 192.0, 0.0, 0.0, 0.0, 0.0, 0.0, 0.0, 0.0, 0.0, 0.0, 1.666404865458838E9, 0.0, 2022-10-21 19:14:25.458
198.0, -132994.01944804424, -159140.28544906207, -15935.363284988796, -98755.08084953796, 64672.492703496544, -75465.81482479749, 52219.01711452212, -115011.63870234952, 0.058, 0.9520000000000001, 0.088, 192.0, 0.0, 0.0, 0.0, 0.0, 0.0, 0.0, 0.0, 0.0, 0.0, 1.6664048654588516E9, 0.0, 2022-10-21 19:14:25.458
199.0, -133006.78229412824, -159153.38357131285, -15950.562471218405, -98781.45590799522, 64657.51703471149, -75493.77685711108, 52198.453509623236, -115032.09054852612, 0.058, 0.9520000000000001, 0.088, 192.0, 0.0, 0.0, 0.0, 0.0, 0.0, 0.0, 0.0, 0.0, 0.0, 1.6664048654588656E9, 0.0, 2022-10-21 19:14:25.458
200.0, -133010.7385528968, -159156.98220217015, -15954.898709642734, -98789.88251565487, 64655.63948817724, -75508.64076717387, 52186.42827110628, -115037.67848463995, 0.058, 0.9520000000000001, 0.088, 192.0, 0.0, 0.0, 0.0, 0.0, 0.0, 0.0, 0.0, 0.0, 0.0, 1.6664048654588792E9, 0.0, 2022-10-21 19:14:25.458
201.0, -132999.60738415807, -159144.59933574192, -15943.25345078152, -98764.84856186493, 64665.11662782629, -75481.43869417175, 52207.50596612763, -115024.35684494459, 0.064, 0.9500000000000001, 0.084, 192.0, 2.0, 0.0, 29.0, 176.0, 2.0, 160.0, 0.0, 0.0, 0.0, 1.6664048654588933E9, 0.0, 2022-10-21 19:14:25.458
202.0, -132987.96212529685, -159132.6635042028, -15934.424511721672, -98756.75723037211, 64673.78910467495, -75480.65638311581, 52216.11138774292, -115021.42876642094, 0.064, 0.9500000000000001, 0.084, 192.0, 0.0, 0.0, 0.0, 0.0, 0.0, 0.0, 0.0, 0.0, 0.0, 1.6664048654589076E9, 0.0, 2022-10-21 19:14:25.458
203.0, -132975.0428170017, -159116.65965517279, -15922.9580668161, -98756.60076816092, 64690.2176368496, -75483.87503431739, 52218.7265418442, -115007.19070520291, 0.064, 0.9500000000000001, 0.084, 192.0, 0.0, 0.0, 0.0, 0.0, 0.0, 0.0, 0.0, 0.0, 0.0, 1.6664048654589343E9, 0.0, 2022-10-21 19:14:25.458
204.0, -132990.10789276456, -159128.61783845638, -15940.526537957972, -98777.4102422488, 64677.41008727671, -75498.53777868007, 52202.85680328093, -115018.99242627532, 0.064, 0.9500000000000001, 0.084, 192.0, 0.0, 0.0, 0.0, 0.0, 0.0, 0.0, 0.0, 0.0, 0.0, 1.6664048654589484E9, 0.0, 2022-10-21 19:14:25.458
205.0, -132995.60642190056, -159136.6644664603, -15942.180567047664, -98764.24506476463, 64675.48783725355, -75479.5164441486, 52212.065721996514, -115017.65132160799, 0.064, 0.9500000000000001, 0.084, 192.0, 0.0, 0.0, 0.0, 0.0, 0.0, 0.0, 0.0, 0.0, 0.0, 1.6664048654589624E9, 0.0, 2022-10-21 19:14:25.458
206.0, -133010.4926837078, -159153.29416433504, -15956.351573032329, -98768.64835842233, 64660.758037657506, -75483.85268257294, 52204.39907364835, -115022.21107747688, 0.064, 0.9500000000000001, 0.084, 192.0, 0.0, 0.0, 0.0, 0.0, 0.0, 0.0, 0.0, 0.0, 0.0, 1.6664048654589765E9, 0.0, 2022-10-21 19:14:25.458
207.0, -133003.83186386013, -159144.57698399748, -15952.73059043057, -98780.67359693929, 64663.75317141452, -75494.4697611892, 52199.95107650174, -115021.16054548748, 0.064, 0.9500000000000001, 0.084, 192.0, 0.0, 0.0, 0.0, 0.0, 0.0, 0.0, 0.0, 0.0, 0.0, 1.6664048654589906E9, 0.0, 2022-10-21 19:14:25.458
208.0, -132996.03110504523, -159137.44677751622, -15948.126131072777, -98796.85625992493, 64663.28378478096, -75521.89535163586, 52183.29902688254, -115027.41903393496, 0.064, 0.9500000000000001, 0.084, 192.0, 0.0, 0.0, 0.0, 0.0, 0.0, 0.0, 0.0, 0.0, 0.0, 1.6664048654590044E9, 0.0, 2022-10-21 19:14:25.459
209.0, -133005.28472724973, -159149.2261468442, -15953.19997706413, -98780.18185856126, 64660.42276149068, -75518.83316264549, 52183.74606177164, -115037.43261545095, 0.064, 0.9500000000000001, 0.084, 192.0, 0.0, 0.0, 0.0, 0.0, 0.0, 0.0, 0.0, 0.0, 0.0, 1.666404865459018E9, 0.0, 2022-10-21 19:14:25.459
210.0, -132995.91934632295, -159139.10080660591, -15946.20388104962, -98758.47831469517, 64666.52478772698, -75491.13935126536, 52208.33298067248, -115025.02739727825, 0.064, 0.9500000000000001, 0.084, 192.0, 0.0, 0.0, 0.0, 0.0, 0.0, 0.0, 0.0, 0.0, 0.0, 1.666404865459032E9, 0.0, 2022-10-21 19:14:25.459
211.0, -132995.29349747818, -159137.4020740273, -15948.72962817307, -98778.8631056384, 64663.39554350323, -75501.33174673698, 52202.90150676984, -115025.34032170061, 0.062, 0.9580000000000001, 0.084, 192.0, 1.0, 240.0, 29.0, 240.0, 2.0, 160.0, 0.0, 0.0, 0.0, 1.6664048654590456E9, 0.0, 2022-10-21 19:14:25.459
212.0, -132989.92907880893, -159131.8588414024, -15939.319543757385, -98784.45104175223, 64677.253625065525, -75505.77974388358, 52200.35340790194, -115000.52988535522, 0.062, 0.9580000000000001, 0.084, 192.0, 0.0, 0.0, 0.0, 0.0, 0.0, 0.0, 0.0, 0.0, 0.0, 1.666404865459061E9, 0.0, 2022-10-21 19:14:25.459
213.0, -132983.13414849452, -159126.53912622205, -15939.498357713028, -98766.92727409927, 64679.33233729987, -75491.40757219882, 52207.34950391645, -114993.0420509627, 0.062, 0.9580000000000001, 0.084, 192.0, 0.0, 0.0, 0.0, 0.0, 0.0, 0.0, 0.0, 0.0, 0.0, 1.6664048654590745E9, 0.0, 2022-10-21 19:14:25.459
214.0, -132989.1914712419, -159133.49051874765, -15945.86860488279, -98754.29853848202, 64673.92321514169, -75474.01791501259, 52220.469977911715, -115001.6921760669, 0.062, 0.9580000000000001, 0.084, 192.0, 0.0, 0.0, 0.0, 0.0, 0.0, 0.0, 0.0, 0.0, 0.0, 1.66640486545909E9, 0.0, 2022-10-21 19:14:25.459
215.0, -132987.76095959675, -159131.7023791912, -15942.024104836477, -98764.17800953127, 64673.967918630595, -75482.31041220551, 52215.932573787286, -115012.75628957228, 0.062, 0.9580000000000001, 0.084, 192.0, 0.0, 0.0, 0.0, 0.0, 0.0, 0.0, 0.0, 0.0, 0.0, 1.6664048654591036E9, 0.0, 2022-10-21 19:14:25.459
216.0, -132997.66278239046, -159142.99001014113, -15951.68005844117, -98785.54627723055, 64669.98930811755, -75511.79236314206, 52192.99968397614, -115021.38406293203, 0.062, 0.9580000000000001, 0.084, 192.0, 0.0, 0.0, 0.0, 0.0, 0.0, 0.0, 0.0, 0.0, 0.0, 1.6664048654591174E9, 0.0, 2022-10-21 19:14:25.459
217.0, -133015.47712272135, -159161.83253071696, -15973.003622651533, -98803.20415535023, 64648.12930204026, -75524.75637492615, 52175.922951212284, -115039.31016198518, 0.062, 0.9580000000000001, 0.084, 192.0, 0.0, 0.0, 0.0, 0.0, 0.0, 0.0, 0.0, 0.0, 0.0, 1.666404865459133E9, 0.0, 2022-10-21 19:14:25.459
218.0, -132991.24783173177, -159136.6197629714, -15952.171796819186, -98772.78343114656, 64663.30613652541, -75499.67771764728, 52203.52735561459, -115018.5453913862, 0.062, 0.9580000000000001, 0.084, 192.0, 0.0, 0.0, 0.0, 0.0, 0.0, 0.0, 0.0, 0.0, 0.0, 1.6664048654591608E9, 0.0, 2022-10-21 19:14:25.459
219.0, -132991.96308755435, -159137.6032397274, -15953.267032297497, -98778.23725679365, 64664.110799325805, -75500.08004904748, 52208.19887020575, -115013.22567620584, 0.062, 0.9580000000000001, 0.084, 192.0, 0.0, 0.0, 0.0, 0.0, 0.0, 0.0, 0.0, 0.0, 0.0, 1.666404865459174E9, 0.0, 2022-10-21 19:14:25.459
220.0, -132986.55396539616, -159130.67419894628, -15951.568299718894, -98794.41991977929, 64666.72595342708, -75505.53387469458, 52202.25330618064, -115004.82142029065, 0.062, 0.9580000000000001, 0.084, 192.0, 0.0, 0.0, 0.0, 0.0, 0.0, 0.0, 0.0, 0.0, 0.0, 1.6664048654591868E9, 0.0, 2022-10-21 19:14:25.459
221.0, -132991.80662534316, -159135.79274842652, -15950.696581685137, -98793.83877442346, 64669.296404039436, -75508.05962181803, 52200.956905002226, -115002.76505980076, 0.058, 0.9560000000000001, 0.076, 192.0, 1.0, 208.0, 29.0, 224.0, 2.0, 96.0, 0.0, 0.0, 0.0, 1.6664048654591997E9, 0.0, 2022-10-21 19:14:25.459
222.0, -132990.97961079833, -159135.83745191546, -15944.192224048642, -98775.8679718814, 64672.80562791892, -75496.14614202335, 52216.64782960986, -114998.98761498781, 0.058, 0.9560000000000001, 0.076, 192.0, 0.0, 0.0, 0.0, 0.0, 0.0, 0.0, 0.0, 0.0, 0.0, 1.6664048654592135E9, 0.0, 2022-10-21 19:14:25.459
223.0, -132988.63267763052, -159134.54105073705, -15945.086293826855, -98772.62696893538, 64670.21282556211, -75492.99454605515, 52223.576870391, -114994.91959749695, 0.058, 0.9560000000000001, 0.076, 192.0, 0.0, 0.0, 0.0, 0.0, 0.0, 0.0, 0.0, 0.0, 0.0, 1.6664048654592264E9, 0.0, 2022-10-21 19:14:25.459
224.0, -132999.18270101343, -159145.9627921537, -15958.005602122023, -98795.22458257969, 64660.534520212954, -75513.33463350948, 52203.63911433687, -115012.30925468318, 0.058, 0.9560000000000001, 0.076, 192.0, 0.0, 0.0, 0.0, 0.0, 0.0, 0.0, 0.0, 0.0, 0.0, 1.6664048654592392E9, 0.0, 2022-10-21 19:14:25.459
225.0, -133009.10687555157, -159158.54682428204, -15970.790799950457, -98811.56370777651, 64646.45292120611, -75530.59018022897, 52186.38356761737, -115036.404435206, 0.058, 0.9560000000000001, 0.076, 192.0, 0.0, 0.0, 0.0, 0.0, 0.0, 0.0, 0.0, 0.0, 0.0, 1.6664048654592538E9, 0.0, 2022-10-21 19:14:25.459
226.0, -133012.48198896434, -159159.4185423158, -15967.728610960081, -98794.12934710138, 64645.760017128, -75518.7214039232, 52197.82766077849, -115034.57159216066, 0.058, 0.9560000000000001, 0.076, 192.0, 0.0, 0.0, 0.0, 0.0, 0.0, 0.0, 0.0, 0.0, 0.0, 1.6664048654592671E9, 0.0, 2022-10-21 19:14:25.459
227.0, -132988.92325030843, -159136.1056728489, -15943.96870660409, -98766.03320432105, 64671.08454359586, -75490.82642684298, 52225.38736169188, -115011.77281281624, 0.058, 0.9560000000000001, 0.076, 192.0, 0.0, 0.0, 0.0, 0.0, 0.0, 0.0, 0.0, 0.0, 0.0, 1.66640486545928E9, 0.0, 2022-10-21 19:14:25.459
228.0, -132984.85523281756, -159133.6022774699, -15942.1135118143, -98775.4656404812, 64678.75119194403, -75496.50376993463, 52220.06764651152, -115000.30636791067, 0.058, 0.9560000000000001, 0.076, 192.0, 0.0, 0.0, 0.0, 0.0, 0.0, 0.0, 0.0, 0.0, 0.0, 1.666404865459293E9, 0.0, 2022-10-21 19:14:25.459
229.0, -132987.64920087447, -159135.43512051526, -15946.583860705361, -98785.72509118618, 64678.12534309928, -75508.93133985178, 52209.31645742851, -115000.23931267731, 0.058, 0.9560000000000001, 0.076, 192.0, 0.0, 0.0, 0.0, 0.0, 0.0, 0.0, 0.0, 0.0, 0.0, 1.6664048654593055E9, 0.0, 2022-10-21 19:14:25.459
230.0, -132987.60449738556, -159134.74221643712, -15947.433226994663, -98774.92919861426, 64675.39843027573, -75507.27731076209, 52212.31159118553, -115011.63870234952, 0.058, 0.9560000000000001, 0.076, 192.0, 0.0, 0.0, 0.0, 0.0, 0.0, 0.0, 0.0, 0.0, 0.0, 1.6664048654593186E9, 0.0, 2022-10-21 19:14:25.459
231.0, -133007.31873599516, -159155.64109750284, -15963.325317302386, -98772.20228579073, 64662.635584191754, -75494.53681642257, 52215.217317964714, -115028.6036763911, 0.052000000000000005, 0.9560000000000001, 0.082, 192.0, 1.0, 160.0, 29.0, 224.0, 2.0, 144.0, 0.0, 0.0, 0.0, 1.6664048654593315E9, 0.0, 2022-10-21 19:14:25.459
232.0, -133002.87073884855, -159150.94723116723, -15956.038648609954, -98785.90390514182, 64664.401372003726, -75502.22581651519, 52215.12791098689, -115013.65035935049, 0.052000000000000005, 0.9560000000000001, 0.082, 192.0, 0.0, 0.0, 0.0, 0.0, 0.0, 0.0, 0.0, 0.0, 0.0, 1.6664048654593453E9, 0.0, 2022-10-21 19:14:25.459
233.0, -132996.61225040106, -159144.39817004182, -15948.260241539509, -98799.09143437046, 64668.64820345023, -75512.64172943136, 52213.92091678631, -114993.86906550755, 0.052000000000000005, 0.9560000000000001, 0.082, 192.0, 0.0, 0.0, 0.0, 0.0, 0.0, 0.0, 0.0, 0.0, 0.0, 1.66640486545937E9, 0.0, 2022-10-21 19:14:25.459
234.0, -132994.08650327762, -159142.49827176312, -15945.533328715961, -98797.8173849365, 64660.73568591305, -75531.64071221837, 52208.89177428386, -114990.4939520948, 0.052000000000000005, 0.9560000000000001, 0.082, 192.0, 0.0, 0.0, 0.0, 0.0, 0.0, 0.0, 0.0, 0.0, 0.0, 1.6664048654593828E9, 0.0, 2022-10-21 19:14:25.459
235.0, -132996.85811959006, -159143.95113515272, -15947.612040950304, -98784.56280047451, 64656.1088748108, -75534.38997678638, 52212.065721996514, -115010.65522559348, 0.052000000000000005, 0.9560000000000001, 0.082, 192.0, 0.0, 0.0, 0.0, 0.0, 0.0, 0.0, 0.0, 0.0, 0.0, 1.666404865459397E9, 0.0, 2022-10-21 19:14:25.459
236.0, -133002.51311093726, -159148.4214840438, -15956.172759076688, -98793.07881511198, 64652.66670616469, -75526.2315900602, 52216.31255344302, -115014.41031866198, 0.052000000000000005, 0.9560000000000001, 0.082, 192.0, 0.0, 0.0, 0.0, 0.0, 0.0, 0.0, 0.0, 0.0, 0.0, 1.66640486545941E9, 0.0, 2022-10-21 19:14:25.459
237.0, -132993.12537826604, -159133.557573981, -15958.318526544397, -98812.41307406581, 64647.16817702868, -75534.94877039776, 52205.00257074864, -115006.4978011248, 0.052000000000000005, 0.9560000000000001, 0.082, 192.0, 0.0, 0.0, 0.0, 0.0, 0.0, 0.0, 0.0, 0.0, 0.0, 1.6664048654594228E9, 0.0, 2022-10-21 19:14:25.459
238.0, -132983.91645955044, -159122.7616814091, -15951.009506107512, -98799.82904193748, 64650.56564218589, -75533.85353491946, 52209.91995452881, -115007.50362962528, 0.052000000000000005, 0.9560000000000001, 0.082, 192.0, 0.0, 0.0, 0.0, 0.0, 0.0, 0.0, 0.0, 0.0, 0.0, 1.6664048654594355E9, 0.0, 2022-10-21 19:14:25.459
239.0, -132996.41108470096, -159143.14647235232, -15939.185433290653, -98771.28586426805, 64663.775523158976, -75519.79428765706, 52229.56713790502, -114995.29957715269, 0.052000000000000005, 0.9560000000000001, 0.082, 192.0, 0.0, 0.0, 0.0, 0.0, 0.0, 0.0, 0.0, 0.0, 0.0, 1.6664048654594483E9, 0.0, 2022-10-21 19:14:25.459
240.0, -132997.39456145698, -159149.8072922, -15937.799625134425, -98767.4637159662, 64670.816322662395, -75510.65242417484, 52236.65264089735, -114987.92350148244, 0.032, 0.9580000000000001, 0.08600000000000001, 192.0, 1.0, 0.0, 29.0, 240.0, 2.0, 176.0, 0.0, 0.0, 0.0, 1.666404865459461E9, 0.0, 2022-10-21 19:14:25.459
241.0, -132994.26531723325, -159144.35346655292, -15945.667439182693, -98795.55985874652, 64661.540348713446, -75524.68931969277, 52220.96171628973, -114989.93515848341, 0.032, 0.9580000000000001, 0.08600000000000001, 192.0, 0.0, 0.0, 0.0, 0.0, 0.0, 0.0, 0.0, 0.0, 0.0, 1.6664048659371614E9, 0.0, 2022-10-21 19:14:25.937
242.0, -133004.21184351586, -159154.65762074682, -15961.470122512595, -98804.63466699538, 64648.7104473961, -75534.76995644212, 52206.9248207718, -115003.65912957897, 0.032, 0.9580000000000001, 0.08600000000000001, 192.0, 0.0, 0.0, 0.0, 0.0, 0.0, 0.0, 0.0, 0.0, 0.0, 1.66640486593738E9, 0.0, 2022-10-21 19:14:25.937
243.0, -133016.25943377728, -159170.1697313988, -15969.82967493888, -98798.77850994808, 64635.63467688974, -75526.34334878247, 52211.12694872939, -115019.37240593105, 0.032, 0.9580000000000001, 0.08600000000000001, 192.0, 0.0, 0.0, 0.0, 0.0, 0.0, 0.0, 0.0, 0.0, 0.0, 1.666404865937409E9, 0.0, 2022-10-21 19:14:25.937
244.0, -133007.00581157277, -159166.03465867456, -15956.373924776784, -98792.40826277832, 64647.03406656195, -75509.31131950753, 52230.41650419433, -115001.98274874482, 0.032, 0.9580000000000001, 0.08600000000000001, 192.0, 0.0, 0.0, 0.0, 0.0, 0.0, 0.0, 0.0, 0.0, 0.0, 1.6664048659374316E9, 0.0, 2022-10-21 19:14:25.937
245.0, -133000.07677079164, -159158.9268039378, -15952.462369497105, -98804.07587338399, 64652.59965093132, -75523.83995340347, 52221.520509901115, -114996.48421960881, 0.032, 0.9580000000000001, 0.08600000000000001, 192.0, 0.0, 0.0, 0.0, 0.0, 0.0, 0.0, 0.0, 0.0, 0.0, 1.66640486593745E9, 0.0, 2022-10-21 19:14:25.937
246.0, -132990.01848578674, -159144.9569636532, -15947.67909618367, -98790.32955054397, 64661.942680113636, -75533.29474130807, 52225.29795471406, -114973.21605363084, 0.032, 0.9580000000000001, 0.08600000000000001, 192.0, 0.0, 0.0, 0.0, 0.0, 0.0, 0.0, 0.0, 0.0, 0.0, 1.6664048659374683E9, 0.0, 2022-10-21 19:14:25.937
247.0, -133006.4917214503, -159161.34079233895, -15969.852026683335, -98798.97967564818, 64639.76974961397, -75536.44633727627, 52221.8781378124, -114984.16840841394, 0.032, 0.9580000000000001, 0.08600000000000001, 192.0, 0.0, 0.0, 0.0, 0.0, 0.0, 0.0, 0.0, 0.0, 0.0, 1.6664048659374874E9, 0.0, 2022-10-21 19:14:25.937
248.0, -133000.76967486975, -159158.3233068375, -15972.35542206233, -98804.38879780637, 64638.69686588012, -75529.98668312868, 52227.39901869286, -114993.55614108517, 0.032, 0.9580000000000001, 0.08600000000000001, 192.0, 0.0, 0.0, 0.0, 0.0, 0.0, 0.0, 0.0, 0.0, 0.0, 1.6664048659375868E9, 0.0, 2022-10-21 19:14:25.937
249.0, -132987.87271831903, -159145.33694330894, -15963.817055680402, -98811.34019033196, 64650.58799393034, -75529.36083428393, 52226.30378321455, -114998.87585626554, 0.032, 0.9580000000000001, 0.08600000000000001, 192.0, 0.0, 0.0, 0.0, 0.0, 0.0, 0.0, 0.0, 0.0, 0.0, 1.6664048659376056E9, 0.0, 2022-10-21 19:14:25.937
250.0, -132991.42664568743, -159150.8131207005, -15968.130942360276, -98823.00780093763, 64647.74932238452, -75539.7767472001, 52216.08903599847, -115009.06825173716, 0.028, 0.9560000000000001, 0.084, 192.0, 0.0, 224.0, 29.0, 224.0, 2.0, 160.0, 0.0, 0.0, 0.0, 1.6664048659376235E9, 0.0, 2022-10-21 19:14:25.937
251.0, -132993.66182013295, -159156.13283588085, -15970.142599361254, -98805.97577166269, 64646.899956095214, -75525.82925866, 52227.24255648167, -115004.68730982392, 0.028, 0.9560000000000001, 0.084, 192.0, 0.0, 0.0, 0.0, 0.0, 0.0, 0.0, 0.0, 0.0, 0.0, 1.6664048659376447E9, 0.0, 2022-10-21 19:14:25.937
252.0, -132992.38777069902, -159155.79755971403, -15972.422477295695, -98800.34313205995, 64646.005886317005, -75517.6708719338, 52239.24544325417, -115010.27524593774, 0.028, 0.9560000000000001, 0.084, 192.0, 0.0, 0.0, 0.0, 0.0, 0.0, 0.0, 0.0, 0.0, 0.0, 1.6664048659376628E9, 0.0, 2022-10-21 19:14:25.937
253.0, -132998.22157600184, -159158.2115481152, -15980.647919255249, -98827.36639110642, 64642.34020022633, -75533.11592735242, 52229.72360011621, -115008.91178952597, 0.028, 0.9560000000000001, 0.084, 192.0, 0.0, 0.0, 0.0, 0.0, 0.0, 0.0, 0.0, 0.0, 0.0, 1.666404865937681E9, 0.0, 2022-10-21 19:14:25.937
254.0, -132993.93004106643, -159154.38939981334, -15980.44675355515, -98845.09132445948, 64642.586069415345, -75557.54638404207, 52216.08903599847, -115002.25096967828, 0.028, 0.9560000000000001, 0.084, 192.0, 0.0, 0.0, 0.0, 0.0, 0.0, 0.0, 0.0, 0.0, 0.0, 1.6664048659376988E9, 0.0, 2022-10-21 19:14:25.937
255.0, -132983.6929421059, -159143.32528630798, -15967.236872582063, -98819.56563229152, 64655.19245328814, -75550.7291019832, 52229.94711756076, -114990.80687651716, 0.028, 0.9560000000000001, 0.084, 192.0, 0.0, 0.0, 0.0, 0.0, 0.0, 0.0, 0.0, 0.0, 0.0, 1.6664048659377165E9, 0.0, 2022-10-21 19:14:25.937
0.0, -133013.51016920927, -159178.55163556954, -15998.953997964145, -98832.37318186442, 64626.31399945188, -75556.56290728605, 52216.67018135431, -115027.30727521269, 0.028, 0.9560000000000001, 0.084, 192.0, 0.0, 0.0, 0.0, 0.0, 0.0, 0.0, 0.0, 0.0, 0.0, 1.6664048659377348E9, 0.0, 2022-10-21 19:14:25.937
1.0, -132994.82411084464, -159158.3680103264, -15980.379698321785, -98835.03303945459, 64640.1050257808, -75554.97593342971, 52228.00251579315, -115000.50753361077, 0.028, 0.9560000000000001, 0.084, 192.0, 0.0, 0.0, 0.0, 0.0, 0.0, 0.0, 0.0, 0.0, 0.0, 1.6664048659377599E9, 0.0, 2022-10-21 19:14:25.937
2.0, -132975.51220363524, -159138.78788218356, -15960.196073078641, -98834.0272109541, 64659.17106380118, -75562.57552654452, 52231.04235303907, -114979.18396940042, 0.028, 0.9560000000000001, 0.084, 192.0, 0.0, 0.0, 0.0, 0.0, 0.0, 0.0, 0.0, 0.0, 0.0, 1.666404865937778E9, 0.0, 2022-10-21 19:14:25.937
3.0, -132979.71433159284, -159145.33694330894, -15963.638241724759, -98822.6278212819, 64661.763866158, -75555.87000320792, 52232.53991991758, -114983.85548399157, 0.028, 0.9560000000000001, 0.084, 192.0, 0.0, 0.0, 0.0, 0.0, 0.0, 0.0, 0.0, 0.0, 0.0, 1.666404865937796E9, 0.0, 2022-10-21 19:14:25.937
4.0, -132979.75903508175, -159147.1250828654, -15963.861759169313, -98806.04282689605, 64662.68028768066, -75531.26073256263, 52249.415486981336, -114983.07317293563, 0.03, 0.96, 0.088, 192.0, 0.0, 240.0, 30.0, 0.0, 2.0, 192.0, 0.0, 0.0, 0.0, 1.666404865937814E9, 0.0, 2022-10-21 19:14:25.937
5.0, -132984.07292176163, -159149.8072922, -15969.807323194424, -98819.4762253137, 64658.656973678706, -75541.90016292335, 52240.07245779902, -114993.2432166628, 0.03, 0.96, 0.088, 192.0, 0.0, 0.0, 0.0, 0.0, 0.0, 0.0, 0.0, 0.0, 0.0, 1.6664048659378333E9, 0.0, 2022-10-21 19:14:25.937
6.0, -132983.0894450056, -159150.5225480226, -15974.814113952412, -98848.95817625025, 64653.94075559864, -75562.17319514432, 52222.54869014605, -114994.98665273031, 0.03, 0.96, 0.088, 192.0, 0.0, 0.0, 0.0, 0.0, 0.0, 0.0, 0.0, 0.0, 0.0, 1.6664048659378526E9, 0.0, 2022-10-21 19:14:25.937
7.0, -132981.94950603836, -159153.38357131285, -15974.769410463503, -98848.15351344986, 64655.863005621795, -75565.01186669015, 52221.587565134476, -114998.58528358761, 0.03, 0.96, 0.088, 192.0, 0.0, 0.0, 0.0, 0.0, 0.0, 0.0, 0.0, 0.0, 0.0, 1.6664048659378705E9, 0.0, 2022-10-21 19:14:25.937
8.0, -132998.22157600184, -159168.0239639311, -15989.543913548461, -98835.94946097725, 64645.3576857278, -75559.82626197652, 52223.263945968625, -115014.7455948288, 0.03, 0.96, 0.088, 192.0, 0.0, 0.0, 0.0, 0.0, 0.0, 0.0, 0.0, 0.0, 0.0, 1.666404865937914E9, 0.0, 2022-10-21 19:14:25.937
9.0, -132994.48883467782, -159161.18433012775, -15988.672195514704, -98839.99512672368, 64644.37420897177, -75570.39863710388, 52222.88396631288, -115004.82142029065, 0.03, 0.96, 0.088, 192.0, 0.0, 0.0, 0.0, 0.0, 0.0, 0.0, 0.0, 0.0, 0.0, 1.6664048659379325E9, 0.0, 2022-10-21 19:14:25.937
10.0, -132970.21484019933, -159140.4642630177, -15970.522579016993, -98845.53835934859, 64664.379020259265, -75582.06624770955, 52224.448588424755, -114984.68249853642, 0.03, 0.96, 0.088, 192.0, 0.0, 0.0, 0.0, 0.0, 0.0, 0.0, 0.0, 0.0, 0.0, 1.6664048659379508E9, 0.0, 2022-10-21 19:14:25.937
11.0, -132986.2410409738, -159154.09882713543, -15987.152276891742, -98864.33617643549, 64650.14095904124, -75594.27030018215, 52207.43891089427, -115007.54833311419, 0.03, 0.96, 0.088, 192.0, 0.0, 0.0, 0.0, 0.0, 0.0, 0.0, 0.0, 0.0, 0.0, 1.6664048659379704E9, 0.0, 2022-10-21 19:14:25.937
12.0, -132996.83576784562, -159162.05604816152, -15997.83641074138, -98852.64621408537, 64641.5578891704, -75579.31698314154, 52215.97727727619, -115024.28978971123, 0.03, 0.96, 0.088, 192.0, 0.0, 0.0, 0.0, 0.0, 0.0, 0.0, 0.0, 0.0, 0.0, 1.6664048659379892E9, 0.0, 2022-10-21 19:14:25.937
13.0, -132980.1837182264, -159145.24753633112, -15978.68096574318, -98839.88336800139, 64656.84648237783, -75563.46959632273, 52236.831454852996, -115006.74367031381, 0.048, 0.9580000000000001, 0.084, 192.0, 1.0, 128.0, 29.0, 240.0, 2.0, 160.0, 0.0, 0.0, 0.0, 1.666404865938007E9, 0.0, 2022-10-21 19:14:25.938
14.0, -132983.02238977223, -159149.2708503331, -15979.887959943768, -98864.87261830243, 64658.880491123266, -75587.76594254565, 52220.24646046716, -114997.75826904277, 0.048, 0.9580000000000001, 0.084, 192.0, 0.0, 0.0, 0.0, 0.0, 0.0, 0.0, 0.0, 0.0, 0.0, 1.6664048659380264E9, 0.0, 2022-10-21 19:14:25.938
15.0, -132970.66187508844, -159138.34084729443, -15970.790799950457, -98857.20596995426, 64671.173950573684, -75598.85240779548, 52213.09390224146, -114991.388021873, 0.048, 0.9580000000000001, 0.084, 192.0, 0.0, 0.0, 0.0, 0.0, 0.0, 0.0, 0.0, 0.0, 0.0, 1.6664048659380445E9, 0.0, 2022-10-21 19:14:25.938
16.0, -132969.9466192659, -159139.54784149502, -15975.819942452901, -98840.46451335723, 64667.03887784945, -75584.07790471053, 52222.90631805734, -114998.78644928771, 0.048, 0.9580000000000001, 0.084, 192.0, 0.0, 0.0, 0.0, 0.0, 0.0, 0.0, 0.0, 0.0, 0.0, 1.6664048659380627E9, 0.0, 2022-10-21 19:14:25.938
17.0, -132983.13414849452, -159153.80825445752, -15993.142544405764, -98859.37408916642, 64653.22549977607, -75592.52686411462, 52215.26202145362, -115023.32866469964, 0.048, 0.9580000000000001, 0.084, 192.0, 0.0, 0.0, 0.0, 0.0, 0.0, 0.0, 0.0, 0.0, 0.0, 1.6664048659380805E9, 0.0, 2022-10-21 19:14:25.938
18.0, -133010.62679417455, -159179.89274023686, -16020.702245319158, -98901.30596176458, 64633.623019888764, -75619.28190222764, 52187.09882343994, -115044.62987716556, 0.048, 0.9580000000000001, 0.084, 192.0, 0.0, 0.0, 0.0, 0.0, 0.0, 0.0, 0.0, 0.0, 0.0, 1.666404865938099E9, 0.0, 2022-10-21 19:14:25.938
19.0, -132972.6958838339, -159141.64890547382, -15977.87630294279, -98875.82497308553, 64669.27405229498, -75611.41408817937, 52206.94717251625, -115000.1499056995, 0.048, 0.9580000000000001, 0.084, 192.0, 0.0, 0.0, 0.0, 0.0, 0.0, 0.0, 0.0, 0.0, 0.0, 1.6664048659381163E9, 0.0, 2022-10-21 19:14:25.938
20.0, -132963.8445930296, -159135.3010100485, -15970.857855183824, -98851.10394371796, 64680.60638673382, -75591.45398038077, 52226.43789368128, -114981.93323396842, 0.048, 0.9580000000000001, 0.084, 192.0, 0.0, 0.0, 0.0, 0.0, 0.0, 0.0, 0.0, 0.0, 0.0, 1.6664048659381344E9, 0.0, 2022-10-21 19:14:25.938
21.0, -132973.16527046743, -159144.2193560862, -15981.58669252237, -98851.0368884846, 64673.073848852386, -75594.73968681571, 52225.208547736234, -115006.07311798015, 0.048, 0.9580000000000001, 0.084, 192.0, 0.0, 0.0, 0.0, 0.0, 0.0, 0.0, 0.0, 0.0, 0.0, 1.6664048659381526E9, 0.0, 2022-10-21 19:14:25.938
22.0, -132976.7415495803, -159147.03567588757, -15988.403974581239, -98870.97464453873, 64670.10106683982, -75615.77267834815, 52211.171652218305, -115020.4452896649, 0.048, 0.9580000000000001, 0.084, 192.0, 0.0, 0.0, 0.0, 0.0, 0.0, 0.0, 0.0, 0.0, 0.0, 1.6664048659381728E9, 0.0, 2022-10-21 19:14:25.938
23.0, -132965.11864246352, -159137.42442577178, -15971.93073891768, -98873.27687421763, 64688.42949729318, -75614.52098065865, 52216.759588332134, -115002.65330107848, 0.076, 0.9540000000000001, 0.08600000000000001, 192.0, 2.0, 96.0, 29.0, 208.0, 2.0, 176.0, 0.0, 0.0, 0.0, 1.6664048659382071E9, 0.0, 2022-10-21 19:14:25.938
24.0, -132972.2935524337, -159144.0181903861, -15979.64209075476, -98865.14083923589, 64686.686061225664, -75601.55696887457, 52218.90535579984, -115005.06728947966, 0.076, 0.9540000000000001, 0.08600000000000001, 192.0, 0.0, 0.0, 0.0, 0.0, 0.0, 0.0, 0.0, 0.0, 0.0, 1.666404865938226E9, 0.0, 2022-10-21 19:14:25.938
25.0, -132975.2886861907, -159149.13673986634, -15987.107573402833, -98862.59274036798, 64676.58307273187, -75603.81449506457, 52218.5253761441, -115014.49972563979, 0.076, 0.9540000000000001, 0.08600000000000001, 192.0, 0.0, 0.0, 0.0, 0.0, 0.0, 0.0, 0.0, 0.0, 0.0, 1.6664048659382439E9, 0.0, 2022-10-21 19:14:25.938
26.0, -132965.07393897462, -159139.3690275394, -15983.933625690179, -98874.55092365158, 64679.10881985532, -75624.8027831081, 52206.94717251625, -115020.93702804293, 0.076, 0.9540000000000001, 0.08600000000000001, 192.0, 0.0, 0.0, 0.0, 0.0, 0.0, 0.0, 0.0, 0.0, 0.0, 1.6664048659382615E9, 0.0, 2022-10-21 19:14:25.938
27.0, -132970.10308147708, -159142.0065333851, -15988.225160625598, -98889.57129592555, 64677.65595646572, -75639.73374840424, 52190.00455021913, -115034.83981309412, 0.076, 0.9540000000000001, 0.08600000000000001, 192.0, 0.0, 0.0, 0.0, 0.0, 0.0, 0.0, 0.0, 0.0, 0.0, 1.6664048659382796E9, 0.0, 2022-10-21 19:14:25.938
28.0, -132974.1487472235, -159147.28154507658, -15987.129925147286, -98887.51493543565, 64674.83963666435, -75637.83385012553, 52191.50211709763, -115034.57159216066, 0.076, 0.9540000000000001, 0.08600000000000001, 192.0, 0.0, 0.0, 0.0, 0.0, 0.0, 0.0, 0.0, 0.0, 0.0, 1.6664048659382987E9, 0.0, 2022-10-21 19:14:25.938
29.0, -132971.17596521092, -159145.3592950534, -15979.530332032482, -98863.19623746828, 64686.75311645903, -75615.41505043686, 52211.66339059632, -115020.55704838719, 0.076, 0.9540000000000001, 0.08600000000000001, 192.0, 0.0, 0.0, 0.0, 0.0, 0.0, 0.0, 0.0, 0.0, 0.0, 1.6664048659383163E9, 0.0, 2022-10-21 19:14:25.938
30.0, -132973.45584314535, -159147.59446949893, -15985.766468735514, -98870.12527824943, 64686.79781994794, -75603.18864621982, 52213.33977143047, -115027.77666184625, 0.076, 0.9540000000000001, 0.08600000000000001, 192.0, 0.0, 0.0, 0.0, 0.0, 0.0, 0.0, 0.0, 0.0, 0.0, 1.6664048659383345E9, 0.0, 2022-10-21 19:14:25.938
31.0, -132979.17788972592, -159151.88600443435, -15997.523486319005, -98902.87058387644, 64674.727877942074, -75646.48397522974, 52179.18630590276, -115044.89809809902, 0.076, 0.9540000000000001, 0.08600000000000001, 192.0, 0.0, 0.0, 0.0, 0.0, 0.0, 0.0, 0.0, 0.0, 0.0, 1.666404865938352E9, 0.0, 2022-10-21 19:14:25.938
32.0, -132977.5462123807, -159149.38260905538, -16000.49626833156, -98890.35360698147, 64675.55489248692, -75657.9057166464, 52174.268922122596, -115036.91852532847, 0.076, 0.9540000000000001, 0.08600000000000001, 192.0, 0.0, 0.0, 0.0, 0.0, 0.0, 0.0, 0.0, 0.0, 0.0, 1.6664048659383695E9, 0.0, 2022-10-21 19:14:25.938
33.0, -132967.10794772004, -159135.79274842652, -15986.057041413433, -98859.82112405552, 64685.81434319191, -75636.26922801367, 52201.11336721342, -115014.76794657327, 0.096, 0.96, 0.09, 192.0, 3.0, 0.0, 30.0, 0.0, 2.0, 208.0, 0.0, 0.0, 0.0, 1.6664048659383876E9, 0.0, 2022-10-21 19:14:25.938
34.0, -132964.1798691964, -159132.52939373607, -15984.53712279047, -98861.69867058977, 64689.39062230476, -75630.5024779442, 52209.38351266188, -115015.90788554048, 0.096, 0.96, 0.09, 192.0, 0.0, 0.0, 0.0, 0.0, 0.0, 0.0, 0.0, 0.0, 0.0, 1.6664048659384065E9, 0.0, 2022-10-21 19:14:25.938
35.0, -132965.4315668859, -159131.14358557985, -15988.918064703712, -98882.8434208445, 64692.363404317315, -75638.68321641484, 52201.180422446785, -115018.97007453085, 0.096, 0.96, 0.09, 192.0, 0.0, 0.0, 0.0, 0.0, 0.0, 0.0, 0.0, 0.0, 0.0, 1.6664048659384267E9, 0.0, 2022-10-21 19:14:25.938
36.0, -132957.0720144596, -159122.8510883869, -15986.459372813628, -98876.04849053008, 64700.29827359895, -75638.16912629237, 52200.35340790194, -115017.02547276324, 0.096, 0.96, 0.09, 192.0, 0.0, 0.0, 0.0, 0.0, 0.0, 0.0, 0.0, 0.0, 0.0, 1.666404865938449E9, 0.0, 2022-10-21 19:14:25.938
37.0, -132965.36451165253, -159133.66933270328, -15995.824753740402, -98860.17875196681, 64695.96203517462, -75619.103088272, 52206.29897192705, -115043.44523470942, 0.096, 0.96, 0.09, 192.0, 0.0, 0.0, 0.0, 0.0, 0.0, 0.0, 0.0, 0.0, 0.0, 1.6664048659384665E9, 0.0, 2022-10-21 19:14:25.938
38.0, -132977.0991774916, -159147.9073939213, -16013.12500394881, -98879.35654870946, 64679.645261722246, -75622.52290517365, 52200.17459394629, -115060.67842968446, 0.096, 0.96, 0.09, 192.0, 0.0, 0.0, 0.0, 0.0, 0.0, 0.0, 0.0, 0.0, 0.0, 1.6664048659385035E9, 0.0, 2022-10-21 19:14:25.938
39.0, -132979.17788972592, -159149.3602573109, -16011.739195792581, -98898.60140068548, 64680.7181454561, -75647.91448687488, 52188.171707173795, -115061.5054442293, 0.096, 0.96, 0.09, 192.0, 0.0, 0.0, 0.0, 0.0, 0.0, 0.0, 0.0, 0.0, 0.0, 1.6664048659385211E9, 0.0, 2022-10-21 19:14:25.938
40.0, -132965.65508433047, -159134.5634024815, -15998.194038652664, -98893.68401690532, 64693.43628805117, -75656.78812942364, 52192.73146304268, -115040.2042317634, 0.096, 0.96, 0.09, 192.0, 0.0, 0.0, 0.0, 0.0, 0.0, 0.0, 0.0, 0.0, 0.0, 1.6664048659385388E9, 0.0, 2022-10-21 19:14:25.938
41.0, -132956.0214824702, -159124.37100700988, -15990.616797282315, -98857.94357752128, 64706.4226515797, -75625.47333544175, 52219.79942557805, -115026.61437113456, 0.096, 0.96, 0.09, 192.0, 0.0, 0.0, 0.0, 0.0, 0.0, 0.0, 0.0, 0.0, 0.0, 1.6664048659385564E9, 0.0, 2022-10-21 19:14:25.938
42.0, -132962.7940610402, -159129.98129486816, -15998.30579737494, -98858.21179845475, 64697.03491890847, -75614.25275972519, 52227.82370183751, -115034.39277820502, 0.096, 0.96, 0.09, 192.0, 0.0, 0.0, 0.0, 0.0, 0.0, 0.0, 0.0, 0.0, 0.0, 1.666404865938574E9, 0.0, 2022-10-21 19:14:25.938
43.0, -132954.14393593598, -159121.26411453058, -15993.16489615022, -98876.83080158601, 64697.54900903095, -75628.42376570986, 52220.33586744498, -115031.151775259, 0.10200000000000001, 0.964, 0.092, 192.0, 3.0, 48.0, 30.0, 32.0, 2.0, 224.0, 0.0, 0.0, 0.0, 1.6664048659385939E9, 0.0, 2022-10-21 19:14:25.938
44.0, -132948.9359794779, -159113.17278303776, -15987.688718758669, -98876.65198763038, 64707.71905275811, -75640.62781818245, 52213.51858538611, -115013.62800760604, 0.10200000000000001, 0.964, 0.092, 192.0, 0.0, 0.0, 0.0, 0.0, 0.0, 0.0, 0.0, 0.0, 0.0, 1.6664048659386127E9, 0.0, 2022-10-21 19:14:25.938
45.0, -132955.4850406033, -159121.5546872085, -15995.73534676258, -98859.01646125513, 64705.349767845844, -75631.62006516696, 52221.4758064122, -115018.61244661958, 0.10200000000000001, 0.964, 0.092, 192.0, 0.0, 0.0, 0.0, 0.0, 0.0, 0.0, 0.0, 0.0, 0.0, 1.66640486593863E9, 0.0, 2022-10-21 19:14:25.938
46.0, -132971.17596521092, -159137.8044054275, -16014.935495249689, -98860.67049034483, 64689.52473277149, -75626.97090232026, 52219.64296336687, -115052.98942959183, 0.10200000000000001, 0.964, 0.092, 192.0, 0.0, 0.0, 0.0, 0.0, 0.0, 0.0, 0.0, 0.0, 0.0, 1.6664048659386475E9, 0.0, 2022-10-21 19:14:25.938
47.0, -132969.72310182132, -159142.07358861848, -16016.947152250666, -98879.42360394284, 64684.29442456894, -75641.72305366077, 52207.03657949407, -115055.91750811548, 0.10200000000000001, 0.964, 0.092, 192.0, 0.0, 0.0, 0.0, 0.0, 0.0, 0.0, 0.0, 0.0, 0.0, 1.6664048659386656E9, 0.0, 2022-10-21 19:14:25.938
48.0, -132971.51124137774, -159146.18630959827, -16019.897582518768, -98898.35553149648, 64677.9688808881, -75676.61412675549, 52182.13673617086, -115058.77853140575, 0.10200000000000001, 0.964, 0.092, 192.0, 0.0, 0.0, 0.0, 0.0, 0.0, 0.0, 0.0, 0.0, 0.0, 1.6664048659386828E9, 0.0, 2022-10-21 19:14:25.938
49.0, -132989.66085787545, -159165.00647842963, -16038.963620539143, -98895.51685995066, 64664.55783421491, -75682.3585250805, 52175.18534364526, -115074.87178741358, 0.10200000000000001, 0.964, 0.092, 192.0, 0.0, 0.0, 0.0, 0.0, 0.0, 0.0, 0.0, 0.0, 0.0, 1.6664048659387004E9, 0.0, 2022-10-21 19:14:25.938
