%OpenBCI Raw EEG Data
%Number of channels = 8
%Sample Rate = 250 Hz
%Board = OpenBCI_GUI$BoardCytonSerial
Sample Index, EXG Channel 0, EXG Channel 1, EXG Channel 2, EXG Channel 3, EXG Channel 4, EXG Channel 5, EXG Channel 6, EXG Channel 7, Accel Channel 0, Accel Channel 1, Accel Channel 2, Other, Other, Other, Other, Other, Other, Other, Analog Channel 0, Analog Channel 1, Analog Channel 2, Timestamp, Other, Timestamp (Formatted)
223.0, -132006.42997103094, -158180.1886177288, -32630.015329124373, -140587.71170231243, 69415.26465597923, -113680.2793956136, 58132.32757238479, -110121.5911056508, 0.0, 0.0, 0.0, 192.0, 0.0, 0.0, 0.0, 0.0, 0.0, 0.0, 0.0, 0.0, 0.0, 1.6664045836576083E9, 0.0, 2022-10-21 19:09:43.657
224.0, -132010.1180088661, -158185.86596082043, -32631.624654725154, -140586.79528078978, 69410.97312104382, -113670.33286933099, 58138.20608117653, -110125.86028884177, 0.0, 0.0, 0.0, 192.0, 0.0, 0.0, 0.0, 0.0, 0.0, 0.0, 0.0, 0.0, 0.0, 1.6664045836576333E9, 0.0, 2022-10-21 19:09:43.657
225.0, -132012.44259028943, -158189.62105388893, -32634.46332627098, -140591.1315192141, 69408.84970532056, -113668.74589547467, 58140.865938766714, -110124.9438673191, 0.0, 0.0, 0.0, 192.0, 0.0, 0.0, 0.0, 0.0, 0.0, 0.0, 0.0, 0.0, 0.0, 1.6664045836576502E9, 0.0, 2022-10-21 19:09:43.657
226.0, -132000.7079244504, -158177.6852223498, -32627.377823278646, -140590.77389130282, 69419.53383917021, -113676.85957871194, 58137.06614220931, -110115.71259685906, 0.0, 0.0, 0.0, 192.0, 0.0, 0.0, 0.0, 0.0, 0.0, 0.0, 0.0, 0.0, 0.0, 1.666404583657663E9, 0.0, 2022-10-21 19:09:43.657
227.0, -132000.37264828358, -158177.55111188308, -32625.88025640014, -140582.3249318987, 69425.68056889542, -113678.71477350174, 58132.93106948508, -110115.91376255915, 0.0, 0.0, 0.0, 192.0, 0.0, 0.0, 0.0, 0.0, 0.0, 0.0, 0.0, 0.0, 0.0, 1.6664045836576765E9, 0.0, 2022-10-21 19:09:43.657
228.0, -132003.2113198294, -158180.32272819552, -32629.054204112796, -140576.40171961806, 69424.69709213938, -113660.2298808372, 58144.21870043501, -110116.22668698154, 0.024, 0.962, -0.05, 192.0, 0.0, 192.0, 30.0, 16.0, 254.0, 112.0, 0.0, 0.0, 0.0, 1.6664045836576896E9, 0.0, 2022-10-21 19:09:43.657
229.0, -132005.7594186973, -158182.75906834117, -32633.479849514944, -140591.2879814253, 69413.632978634, -113654.44077902327, 58147.81733129232, -110118.48421317151, 0.024, 0.962, -0.05, 192.0, 0.0, 0.0, 0.0, 0.0, 0.0, 0.0, 0.0, 0.0, 0.0, 1.666404583657706E9, 0.0, 2022-10-21 19:09:43.657
230.0, -131998.38334302703, -158175.91943453782, -32628.27189305686, -140595.691275083, 69416.27048447973, -113674.89262519988, 58132.1711101736, -110118.26069572696, 0.024, 0.962, -0.05, 192.0, 0.0, 0.0, 0.0, 0.0, 0.0, 0.0, 0.0, 0.0, 0.0, 1.66640458365772E9, 0.0, 2022-10-21 19:09:43.657
231.0, -131999.9479651389, -158175.71826883772, -32627.93661689003, -140592.1820512035, 69420.00322580377, -113676.0325641671, 58132.52873808488, -110119.80296609437, 0.024, 0.962, -0.05, 192.0, 0.0, 0.0, 0.0, 0.0, 0.0, 0.0, 0.0, 0.0, 0.0, 1.6664045836577337E9, 0.0, 2022-10-21 19:09:43.657
232.0, -131997.86925290458, -158174.86890254842, -32626.08142210024, -140586.1247284561, 69417.38807170249, -113671.51751178713, 58141.60354633374, -110119.98178005002, 0.024, 0.962, -0.05, 192.0, 0.0, 0.0, 0.0, 0.0, 0.0, 0.0, 0.0, 0.0, 0.0, 1.6664045836577473E9, 0.0, 2022-10-21 19:09:43.657
233.0, -131999.2550610608, -158176.61233861596, -32625.992015122418, -140581.9896557319, 69419.28796998119, -113661.66039248233, 58152.64530809466, -110116.18198349261, 0.024, 0.962, -0.05, 192.0, 0.0, 0.0, 0.0, 0.0, 0.0, 0.0, 0.0, 0.0, 0.0, 1.6664045836577606E9, 0.0, 2022-10-21 19:09:43.657
234.0, -132001.89256690652, -158179.67452760632, -32628.674224457056, -140590.55037385828, 69417.92451356942, -113667.22597685171, 58147.75027605895, -110111.84574506829, 0.024, 0.962, -0.05, 192.0, 0.0, 0.0, 0.0, 0.0, 0.0, 0.0, 0.0, 0.0, 0.0, 1.666404583657774E9, 0.0, 2022-10-21 19:09:43.657
235.0, -132008.9557181544, -158187.4976381657, -32638.151364106106, -140598.440539651, 69408.87205706502, -113689.89064572939, 58126.02438044839, -110119.244172483, 0.024, 0.962, -0.05, 192.0, 0.0, 0.0, 0.0, 0.0, 0.0, 0.0, 0.0, 0.0, 0.0, 1.6664045836577876E9, 0.0, 2022-10-21 19:09:43.657
236.0, -132010.5203402663, -158190.91745506733, -32640.69946297401, -140590.930353514, 69409.05087102066, -113682.06753517003, 58129.35479037223, -110120.85349808377, 0.024, 0.962, -0.05, 192.0, 0.0, 0.0, 0.0, 0.0, 0.0, 0.0, 0.0, 0.0, 0.0, 1.666404583657801E9, 0.0, 2022-10-21 19:09:43.657
237.0, -132010.654450733, -158191.87858007892, -32637.100832116706, -140582.1237661986, 69411.97894954431, -113671.56221527603, 58138.004915476435, -110121.50169867298, 0.024, 0.962, -0.05, 192.0, 0.0, 0.0, 0.0, 0.0, 0.0, 0.0, 0.0, 0.0, 0.0, 1.666404583657814E9, 0.0, 2022-10-21 19:09:43.657
238.0, -132010.8109129442, -158192.5938359015, -32639.514820517878, -140590.25980118033, 69409.76612684323, -113671.38340132039, 58135.702685797536, -110127.40255920918, 0.026000000000000002, 0.9580000000000001, -0.048, 192.0, 0.0, 208.0, 29.0, 240.0, 254.0, 128.0, 0.0, 0.0, 0.0, 1.666404583657935E9, 0.0, 2022-10-21 19:09:43.657
239.0, -132009.42510478798, -158190.26925447813, -32640.8559251852, -140601.189804219, 69405.87692330801, -113691.36586086344, 58117.731883255474, -110125.32384697483, 0.026000000000000002, 0.9580000000000001, -0.048, 192.0, 0.0, 0.0, 0.0, 0.0, 0.0, 0.0, 0.0, 0.0, 0.0, 1.6664045836579516E9, 0.0, 2022-10-21 19:09:43.657
240.0, -132004.73123845234, -158184.10017300848, -32635.715023960478, -140585.4765278669, 69413.81179258965, -113684.21330263774, 58122.85043273574, -110124.60859115227, 0.026000000000000002, 0.9580000000000001, -0.048, 192.0, 0.0, 0.0, 0.0, 0.0, 0.0, 0.0, 0.0, 0.0, 0.0, 1.6664045836579657E9, 0.0, 2022-10-21 19:09:43.657
241.0, -132004.88770066353, -158183.5413793971, -32638.93367516204, -140578.50278359686, 69412.71655711133, -113663.09090412747, 58139.52483409939, -110122.37341670675, 0.026000000000000002, 0.9580000000000001, -0.048, 192.0, 0.0, 0.0, 0.0, 0.0, 0.0, 0.0, 0.0, 0.0, 0.0, 1.6664045836579788E9, 0.0, 2022-10-21 19:09:43.657
242.0, -132003.12191285158, -158182.91553055233, -32636.206762338494, -140584.51540285532, 69414.0353100342, -113661.10159887096, 58142.94465100106, -110124.45212894108, 0.026000000000000002, 0.9580000000000001, -0.048, 192.0, 0.0, 0.0, 0.0, 0.0, 0.0, 0.0, 0.0, 0.0, 0.0, 1.666404583657992E9, 0.0, 2022-10-21 19:09:43.657
243.0, -132003.27837506277, -158186.7823823431, -32632.518724503367, -140589.20926919096, 69415.33171121261, -113681.21816888073, 58126.829043248785, -110127.06728304236, 0.026000000000000002, 0.9580000000000001, -0.048, 192.0, 0.0, 0.0, 0.0, 0.0, 0.0, 0.0, 0.0, 0.0, 0.0, 1.6664045836580052E9, 0.0, 2022-10-21 19:09:43.658
244.0, -132011.99555540032, -158194.2925684801, -32639.067785628773, -140591.6903128255, 69409.65436812096, -113689.9353492183, 58121.2187553905, -110130.66591389966, 0.026000000000000002, 0.9580000000000001, -0.048, 192.0, 0.0, 0.0, 0.0, 0.0, 0.0, 0.0, 0.0, 0.0, 0.0, 1.6664045836580184E9, 0.0, 2022-10-21 19:09:43.658
245.0, -132016.33179382465, -158196.05835629205, -32638.330178061748, -140581.9896557319, 69411.7330803553, -113668.52237803012, 58141.96117424502, -110127.53666967592, 0.026000000000000002, 0.9580000000000001, -0.048, 192.0, 0.0, 0.0, 0.0, 0.0, 0.0, 0.0, 0.0, 0.0, 0.0, 1.6664045836580343E9, 0.0, 2022-10-21 19:09:43.658
246.0, -132013.3590118121, -158190.31395796704, -32634.485678015433, -140584.91773425552, 69410.79430708817, -113673.64092751038, 58141.67060156711, -110125.86028884177, 0.026000000000000002, 0.9580000000000001, -0.048, 192.0, 0.0, 0.0, 0.0, 0.0, 0.0, 0.0, 0.0, 0.0, 0.0, 1.6664045836580472E9, 0.0, 2022-10-21 19:09:43.658
247.0, -132008.151055354, -158186.46945792073, -32630.618826224665, -140588.11403371263, 69416.38224320201, -113701.55825633506, 58124.01272344741, -110119.80296609437, 0.028, 0.9580000000000001, -0.044, 192.0, 0.0, 224.0, 29.0, 240.0, 254.0, 160.0, 0.0, 0.0, 0.0, 1.6664045836580696E9, 0.0, 2022-10-21 19:09:43.658
248.0, -132014.67776473495, -158194.71725162474, -32641.749994963408, -140595.02072274932, 69408.22385647582, -113702.47467785772, 58117.798938488835, -110129.48127144352, 0.028, 0.9580000000000001, -0.044, 192.0, 0.0, 0.0, 0.0, 0.0, 0.0, 0.0, 0.0, 0.0, 0.0, 1.6664045836580842E9, 0.0, 2022-10-21 19:09:43.658
249.0, -132015.4600757909, -158194.56078941355, -32643.89576243112, -140593.05376923727, 69406.70393785286, -113692.37168936392, 58128.52777582739, -110130.86707959976, 0.028, 0.9580000000000001, -0.044, 192.0, 0.0, 0.0, 0.0, 0.0, 0.0, 0.0, 0.0, 0.0, 0.0, 1.6664045836580973E9, 0.0, 2022-10-21 19:09:43.658
250.0, -132004.4630175189, -158184.1448764974, -32635.804430938297, -140591.10916746964, 69413.96825480083, -113684.97326194923, 58139.547185843854, -110121.9487335621, 0.028, 0.9580000000000001, -0.044, 192.0, 0.0, 0.0, 0.0, 0.0, 0.0, 0.0, 0.0, 0.0, 0.0, 1.6664045836581104E9, 0.0, 2022-10-21 19:09:43.658
251.0, -132003.99363088532, -158185.95536779828, -32634.664491971078, -140597.85939429514, 69416.00226354627, -113703.94989299178, 58124.45975833652, -110123.87098358525, 0.028, 0.9580000000000001, -0.044, 192.0, 0.0, 0.0, 0.0, 0.0, 0.0, 0.0, 0.0, 0.0, 0.0, 1.6664045836581235E9, 0.0, 2022-10-21 19:09:43.658
252.0, -132006.69819196442, -158189.084612022, -32634.910361160084, -140595.9818477609, 69416.20342924636, -113723.35120717899, 58105.32666508278, -110126.30732373087, 0.028, 0.9580000000000001, -0.044, 192.0, 0.0, 0.0, 0.0, 0.0, 0.0, 0.0, 0.0, 0.0, 0.0, 1.6664045836581368E9, 0.0, 2022-10-21 19:09:43.658
253.0, -132010.49798852182, -158193.51025742415, -32636.36322454968, -140581.65437956507, 69418.10332752507, -113711.4377273843, 58116.43548207706, -110126.15086151968, 0.028, 0.9580000000000001, -0.044, 192.0, 0.0, 0.0, 0.0, 0.0, 0.0, 0.0, 0.0, 0.0, 0.0, 1.6664045836583936E9, 0.0, 2022-10-21 19:09:43.658
254.0, -132001.8031599287, -158185.7989055871, -32630.93175064704, -140572.423109105, 69422.81954560513, -113684.81679973804, 58139.10015095474, -110123.26748648495, 0.028, 0.9580000000000001, -0.044, 192.0, 0.0, 0.0, 0.0, 0.0, 0.0, 0.0, 0.0, 0.0, 0.0, 1.6664045836584387E9, 0.0, 2022-10-21 19:09:43.658
255.0, -132005.24532857482, -158186.7823823431, -32635.759727449386, -140599.3793129181, 69410.0343477767, -113698.76428827815, 58125.13031067018, -110131.26941099996, 0.028, 0.9580000000000001, -0.044, 192.0, 0.0, 0.0, 0.0, 0.0, 0.0, 0.0, 0.0, 0.0, 0.0, 1.6664045836584768E9, 0.0, 2022-10-21 19:09:43.658
0.0, -132004.664183219, -158185.62009163143, -32633.03281462584, -140601.25685945235, 69408.82735357611, -113715.55044836408, 58111.98748493046, -110131.35881797777, 0.028, 0.9580000000000001, -0.044, 192.0, 0.0, 0.0, 0.0, 0.0, 0.0, 0.0, 0.0, 0.0, 0.0, 1.6664045836584969E9, 0.0, 2022-10-21 19:09:43.658
1.0, -132006.69819196442, -158186.7376788542, -32633.345739048214, -140584.7836237888, 69413.99060654528, -113705.87214301493, 58121.151700157134, -110127.40255920918, 0.028, 0.9580000000000001, -0.046, 192.0, 0.0, 224.0, 29.0, 240.0, 254.0, 144.0, 0.0, 0.0, 0.0, 1.6664045836585162E9, 0.0, 2022-10-21 19:09:43.658
2.0, -132009.69332572143, -158188.6822806218, -32633.345739048214, -140578.81570801922, 69418.01392054724, -113678.60301477945, 58140.44125562206, -110124.27331498545, 0.028, 0.9580000000000001, -0.046, 192.0, 0.0, 0.0, 0.0, 0.0, 0.0, 0.0, 0.0, 0.0, 0.0, 1.6664045836585376E9, 0.0, 2022-10-21 19:09:43.658
3.0, -132010.87796817755, -158190.5821789005, -32637.100832116706, -140591.91383027003, 69413.52121991172, -113686.85080848346, 58130.0700461948, -110128.76601562096, 0.028, 0.9580000000000001, -0.046, 192.0, 0.0, 0.0, 0.0, 0.0, 0.0, 0.0, 0.0, 0.0, 0.0, 1.6664045836585572E9, 0.0, 2022-10-21 19:09:43.658
4.0, -132005.84882567512, -158186.1788852428, -32633.725718703954, -140593.12082447062, 69416.65046413547, -113706.43093662632, 58116.01079893241, -110120.98760855051, 0.028, 0.9580000000000001, -0.046, 192.0, 0.0, 0.0, 0.0, 0.0, 0.0, 0.0, 0.0, 0.0, 0.0, 1.6664045836585767E9, 0.0, 2022-10-21 19:09:43.658
5.0, -132006.13939835303, -158186.2459404762, -32636.050300127306, -140587.2423156789, 69411.46485942183, -113698.04903245557, 58122.09047342426, -110117.07605327084, 0.028, 0.9580000000000001, -0.046, 192.0, 0.0, 0.0, 0.0, 0.0, 0.0, 0.0, 0.0, 0.0, 0.0, 1.6664045836585965E9, 0.0, 2022-10-21 19:09:43.658
6.0, -132000.93144189497, -158182.4461439188, -32632.518724503367, -140577.40754811856, 69412.35892920005, -113681.01700318063, 58139.16720618811, -110117.29957071539, 0.028, 0.9580000000000001, -0.046, 192.0, 0.0, 0.0, 0.0, 0.0, 0.0, 0.0, 0.0, 0.0, 0.0, 1.6664045836586156E9, 0.0, 2022-10-21 19:09:43.658
7.0, -132000.1044273501, -158183.47432416372, -32630.41766052457, -140583.64368482158, 69411.82248733312, -113688.0801544285, 58137.98256373198, -110121.83697483981, 0.028, 0.9580000000000001, -0.046, 192.0, 0.0, 0.0, 0.0, 0.0, 0.0, 0.0, 0.0, 0.0, 0.0, 1.666404583658635E9, 0.0, 2022-10-21 19:09:43.658
8.0, -131998.6068604716, -158186.4471061763, -32624.472096499456, -140583.5766295882, 69416.49400192428, -113719.17143096584, 58120.21292689001, -110119.15476550517, 0.028, 0.9580000000000001, -0.046, 192.0, 0.0, 0.0, 0.0, 0.0, 0.0, 0.0, 0.0, 0.0, 0.0, 1.6664045836586545E9, 0.0, 2022-10-21 19:09:43.658
9.0, -132003.54659599622, -158191.2974347231, -32630.79764018031, -140577.69812079647, 69414.83997283458, -113719.93139027731, 58116.50253731043, -110122.9992655515, 0.028, 0.9580000000000001, -0.046, 192.0, 0.0, 0.0, 0.0, 0.0, 0.0, 0.0, 0.0, 0.0, 0.0, 1.666404583658674E9, 0.0, 2022-10-21 19:09:43.658
10.0, -132004.0606861187, -158192.28091147912, -32637.816087939274, -140575.66411205105, 69408.9838157873, -113703.32404414703, 58126.806691504324, -110129.36951272126, 0.028, 0.9580000000000001, -0.046, 192.0, 0.0, 0.0, 0.0, 0.0, 0.0, 0.0, 0.0, 0.0, 0.0, 1.6664045836586957E9, 0.0, 2022-10-21 19:09:43.658
11.0, -131995.63407845906, -158181.8426468185, -32634.060994870782, -140576.71464404045, 69414.61645539003, -113706.83326802652, 58123.87861298068, -110124.02744579643, 0.026000000000000002, 0.9580000000000001, -0.042, 192.0, 0.0, 208.0, 29.0, 240.0, 254.0, 176.0, 0.0, 0.0, 0.0, 1.6664045836587155E9, 0.0, 2022-10-21 19:09:43.658
12.0, -131997.26575580428, -158181.41796367383, -32638.039605383827, -140588.24814417938, 69413.70003386737, -113710.16367795035, 58116.5695925438, -110123.96039056306, 0.026000000000000002, 0.9580000000000001, -0.042, 192.0, 0.0, 0.0, 0.0, 0.0, 0.0, 0.0, 0.0, 0.0, 0.0, 1.6664045836587808E9, 0.0, 2022-10-21 19:09:43.658
13.0, -132005.13356985254, -158190.62688238942, -32639.581875751246, -140582.8837255101, 69414.19177224538, -113707.81674478254, 58117.48601406646, -110123.4910039295, 0.026000000000000002, 0.9580000000000001, -0.042, 192.0, 0.0, 0.0, 0.0, 0.0, 0.0, 0.0, 0.0, 0.0, 0.0, 1.666404583658796E9, 0.0, 2022-10-21 19:09:43.658
14.0, -132014.8565786906, -158204.50731569616, -32646.868544443674, -140580.3803301311, 69408.64853962047, -113698.42901211132, 58131.38879911767, -110126.3967307087, 0.026000000000000002, 0.9580000000000001, -0.042, 192.0, 0.0, 0.0, 0.0, 0.0, 0.0, 0.0, 0.0, 0.0, 0.0, 1.6664045836588104E9, 0.0, 2022-10-21 19:09:43.658
15.0, -132014.3201368237, -158201.98156857272, -32647.6061520107, -140585.11889995562, 69408.04504252017, -113688.30367187306, 58140.62006957771, -110126.24026849751, 0.026000000000000002, 0.9580000000000001, -0.042, 192.0, 0.0, 0.0, 0.0, 0.0, 0.0, 0.0, 0.0, 0.0, 0.0, 1.6664045836588247E9, 0.0, 2022-10-21 19:09:43.658
16.0, -132002.898395407, -158190.02338528913, -32637.838439683732, -140590.14804245808, 69414.52704841222, -113713.20351519628, 58124.370351358695, -110125.45795744157, 0.026000000000000002, 0.9580000000000001, -0.042, 192.0, 0.0, 0.0, 0.0, 0.0, 0.0, 0.0, 0.0, 0.0, 0.0, 1.6664045836588395E9, 0.0, 2022-10-21 19:09:43.658
17.0, -132001.2667180618, -158188.2799492216, -32632.384614036637, -140580.7826615313, 69421.03140604871, -113723.48531764571, 58120.01176118991, -110117.12075675974, 0.026000000000000002, 0.9580000000000001, -0.042, 192.0, 0.0, 0.0, 0.0, 0.0, 0.0, 0.0, 0.0, 0.0, 0.0, 1.666404583658854E9, 0.0, 2022-10-21 19:09:43.658
18.0, -132003.12191285158, -158189.084612022, -32636.07265187176, -140573.2277719054, 69420.5843711596, -113707.72733780472, 58132.349924129245, -110115.55613464786, 0.026000000000000002, 0.9580000000000001, -0.042, 192.0, 0.0, 0.0, 0.0, 0.0, 0.0, 0.0, 0.0, 0.0, 0.0, 1.6664045836588683E9, 0.0, 2022-10-21 19:09:43.658
19.0, -132001.22201457288, -158187.85526607698, -32638.084308872738, -140576.6699405515, 69418.17038275843, -113699.65835805636, 58135.45681660853, -110123.4910039295, 0.026000000000000002, 0.9580000000000001, -0.042, 192.0, 0.0, 0.0, 0.0, 0.0, 0.0, 0.0, 0.0, 0.0, 0.0, 1.6664045836588836E9, 0.0, 2022-10-21 19:09:43.658
20.0, -131999.23270931633, -158186.55886489854, -32639.85009668471, -140575.2170771619, 69421.00905430426, -113695.76915452113, 58132.59579331825, -110122.03814053991, 0.026000000000000002, 0.9580000000000001, -0.042, 192.0, 0.0, 0.0, 0.0, 0.0, 0.0, 0.0, 0.0, 0.0, 0.0, 1.666404583658898E9, 0.0, 2022-10-21 19:09:43.658
21.0, -132004.7088867079, -158191.47624867872, -32645.92977117655, -140589.41043489103, 69410.28021696571, -113720.95957052226, 58113.70856925352, -110123.96039056306, 0.02, 0.9540000000000001, -0.042, 192.0, 0.0, 160.0, 29.0, 208.0, 254.0, 176.0, 0.0, 0.0, 0.0, 1.6664045836589127E9, 0.0, 2022-10-21 19:09:43.658
22.0, -132007.659316976, -158194.8960655804, -32640.185372851538, -140573.16071667205, 69416.136374013, -113723.30650369007, 58121.68814202406, -110118.01482653795, 0.02, 0.9540000000000001, -0.042, 192.0, 0.0, 0.0, 0.0, 0.0, 0.0, 0.0, 0.0, 0.0, 0.0, 1.6664045836589284E9, 0.0, 2022-10-21 19:09:43.658
23.0, -132012.0626106337, -158199.76874587164, -32643.69459673102, -140570.59026605968, 69416.85162983557, -113695.36682312094, 58140.30714515533, -110116.80783233736, 0.02, 0.9540000000000001, -0.042, 192.0, 0.0, 0.0, 0.0, 0.0, 0.0, 0.0, 0.0, 0.0, 0.0, 1.6664045836589434E9, 0.0, 2022-10-21 19:09:43.658
24.0, -132007.6146134871, -158193.51025742415, -32645.97447466546, -140582.16846968752, 69415.48817342379, -113699.54659933408, 58133.89219449666, -110123.02161729595, 0.02, 0.9540000000000001, -0.042, 192.0, 0.0, 0.0, 0.0, 0.0, 0.0, 0.0, 0.0, 0.0, 0.0, 1.666404583658958E9, 0.0, 2022-10-21 19:09:43.658
25.0, -132006.98876464233, -158193.97964405772, -32644.812183953785, -140581.00617897586, 69419.51148742574, -113700.61948306793, 58131.03117120638, -110121.12171901725, 0.02, 0.9540000000000001, -0.042, 192.0, 0.0, 0.0, 0.0, 0.0, 0.0, 0.0, 0.0, 0.0, 0.0, 1.6664045836589725E9, 0.0, 2022-10-21 19:09:43.658
26.0, -132010.94502341092, -158200.88633309442, -32643.51578277538, -140577.2287341629, 69415.30935946816, -113709.89545701689, 58125.286772881365, -110119.91472481666, 0.02, 0.9540000000000001, -0.042, 192.0, 0.0, 0.0, 0.0, 0.0, 0.0, 0.0, 0.0, 0.0, 0.0, 1.6664045836589873E9, 0.0, 2022-10-21 19:09:43.658
27.0, -132006.07234311968, -158197.01948130364, -32639.55952400679, -140573.1830684165, 69418.37154845853, -113700.75359353467, 58137.33436314278, -110118.48421317151, 0.02, 0.9540000000000001, -0.042, 192.0, 0.0, 0.0, 0.0, 0.0, 0.0, 0.0, 0.0, 0.0, 0.0, 1.6664045836590152E9, 0.0, 2022-10-21 19:09:43.659
28.0, -132008.1063518651, -158199.81344936055, -32646.488564787935, -140592.56203085923, 69408.60383613156, -113696.6408725549, 58136.753217786936, -110124.11685277426, 0.02, 0.9540000000000001, -0.042, 192.0, 0.0, 0.0, 0.0, 0.0, 0.0, 0.0, 0.0, 0.0, 0.0, 1.66640458365903E9, 0.0, 2022-10-21 19:09:43.659
29.0, -132002.22784307337, -158192.21385624574, -32642.532306019344, -140589.1422139576, 69414.43764143439, -113709.11314596095, 58125.912621726115, -110119.19946899409, 0.02, 0.9540000000000001, -0.042, 192.0, 0.0, 0.0, 0.0, 0.0, 0.0, 0.0, 0.0, 0.0, 0.0, 1.6664045836590447E9, 0.0, 2022-10-21 19:09:43.659
30.0, -132001.37847678407, -158191.342138212, -32642.822878697265, -140581.34145514268, 69410.74960359927, -113709.44842212778, 58125.89026998166, -110120.71938761705, 0.018000000000000002, 0.9520000000000001, -0.046, 192.0, 0.0, 144.0, 29.0, 192.0, 254.0, 144.0, 0.0, 0.0, 0.0, 1.6664045836590593E9, 0.0, 2022-10-21 19:09:43.659
31.0, -132010.74385771083, -158204.32850174053, -32646.84619269922, -140577.921638241, 69406.79334483067, -113703.65932031386, 58135.345057886254, -110122.48517542901, 0.018000000000000002, 0.9520000000000001, -0.046, 192.0, 0.0, 0.0, 0.0, 0.0, 0.0, 0.0, 0.0, 0.0, 0.0, 1.6664045836590757E9, 0.0, 2022-10-21 19:09:43.659
32.0, -132014.27543333475, -158204.90964709636, -32642.018215896875, -140585.90121101157, 69409.72142335432, -113703.52520984712, 58139.79305503286, -110113.7903468359, 0.018000000000000002, 0.9520000000000001, -0.046, 192.0, 0.0, 0.0, 0.0, 0.0, 0.0, 0.0, 0.0, 0.0, 0.0, 1.6664045836590905E9, 0.0, 2022-10-21 19:09:43.659
33.0, -132007.413447787, -158194.7843068581, -32638.017253639373, -140595.445405894, 69411.46485942183, -113726.65926535836, 58123.56568855831, -110120.45116668358, 0.018000000000000002, 0.9520000000000001, -0.046, 192.0, 0.0, 0.0, 0.0, 0.0, 0.0, 0.0, 0.0, 0.0, 0.0, 1.6664045836591048E9, 0.0, 2022-10-21 19:09:43.659
34.0, -131998.42804651597, -158186.6929753653, -32635.64796872711, -140581.56497258722, 69417.54453391368, -113729.83321307102, 58121.48697632396, -110118.32775096032, 0.018000000000000002, 0.9520000000000001, -0.046, 192.0, 0.0, 0.0, 0.0, 0.0, 0.0, 0.0, 0.0, 0.0, 0.0, 1.666404583659119E9, 0.0, 2022-10-21 19:09:43.659
35.0, -132005.69236346392, -158195.4995626807, -32638.665454228576, -140568.06451893624, 69419.22091474783, -113697.19966616627, 58143.950479501545, -110116.45020442609, 0.018000000000000002, 0.9520000000000001, -0.046, 192.0, 0.0, 0.0, 0.0, 0.0, 0.0, 0.0, 0.0, 0.0, 0.0, 1.6664045836591332E9, 0.0, 2022-10-21 19:09:43.659
36.0, -132011.95085191142, -158200.88633309442, -32645.147460120617, -140575.06061495075, 69415.48817342379, -113684.8838549714, 58146.76679930292, -110117.90306781567, 0.018000000000000002, 0.9520000000000001, -0.046, 192.0, 0.0, 0.0, 0.0, 0.0, 0.0, 0.0, 0.0, 0.0, 0.0, 1.6664045836591475E9, 0.0, 2022-10-21 19:09:43.659
37.0, -132001.89256690652, -158188.77168759963, -32640.475945529455, -140572.49016433838, 69423.35598747207, -113685.04031718259, 58143.101113212244, -110115.95846604806, 0.018000000000000002, 0.9520000000000001, -0.046, 192.0, 0.0, 0.0, 0.0, 0.0, 0.0, 0.0, 0.0, 0.0, 0.0, 1.666404583659162E9, 0.0, 2022-10-21 19:09:43.659
38.0, -131995.4105610145, -158182.55790264107, -32634.50802975989, -140566.20932414645, 69427.15578402947, -113693.95866322026, 58140.08362771078, -110107.06247175485, 0.018000000000000002, 0.9520000000000001, -0.046, 192.0, 0.0, 0.0, 0.0, 0.0, 0.0, 0.0, 0.0, 0.0, 0.0, 1.6664045836591873E9, 0.0, 2022-10-21 19:09:43.659
39.0, -131999.79150292772, -158189.10696376648, -32638.017253639373, -140563.03537643378, 69425.05472005067, -113684.34741310448, 58152.91352902813, -110110.41523342315, 0.018000000000000002, 0.9520000000000001, -0.046, 192.0, 0.0, 0.0, 0.0, 0.0, 0.0, 0.0, 0.0, 0.0, 0.0, 1.6664045836592016E9, 0.0, 2022-10-21 19:09:43.659
40.0, -132003.0995611071, -158195.96894931424, -32643.26991358637, -140576.1334986846, 69415.19760074587, -113690.89647422987, 58149.8736917822, -110114.28208521391, 0.018000000000000002, 0.9540000000000001, -0.05, 192.0, 0.0, 144.0, 29.0, 208.0, 254.0, 112.0, 0.0, 0.0, 0.0, 1.6664045836592164E9, 0.0, 2022-10-21 19:09:43.659
41.0, -132002.898395407, -158196.30422548106, -32648.03083515535, -140584.2248301774, 69412.96242630035, -113707.72733780472, 58134.0710084523, -110116.51725965945, 0.018000000000000002, 0.9540000000000001, -0.05, 192.0, 0.0, 0.0, 0.0, 0.0, 0.0, 0.0, 0.0, 0.0, 0.0, 1.6664045836592317E9, 0.0, 2022-10-21 19:09:43.659
42.0, -132003.63600297403, -158197.71238538175, -32646.98030316595, -140588.65047557958, 69411.0848797661, -113722.1889164673, 58122.98454320247, -110117.90306781567, 0.018000000000000002, 0.9540000000000001, -0.05, 192.0, 0.0, 0.0, 0.0, 0.0, 0.0, 0.0, 0.0, 0.0, 0.0, 1.666404583659259E9, 0.0, 2022-10-21 19:09:43.659
43.0, -132007.43579953143, -158200.77457437213, -32651.025968912363, -140585.923562756, 69405.16166748544, -113710.47660237273, 58130.517081083904, -110126.24026849751, 0.018000000000000002, 0.9540000000000001, -0.05, 192.0, 0.0, 0.0, 0.0, 0.0, 0.0, 0.0, 0.0, 0.0, 0.0, 1.666404583659274E9, 0.0, 2022-10-21 19:09:43.659
44.0, -132001.44553201742, -158192.72794636822, -32649.08136714475, -140581.36380688712, 69405.94397854137, -113689.39890735137, 58145.626860335695, -110124.2956667299, 0.018000000000000002, 0.9540000000000001, -0.05, 192.0, 0.0, 0.0, 0.0, 0.0, 0.0, 0.0, 0.0, 0.0, 0.0, 1.6664045836592891E9, 0.0, 2022-10-21 19:09:43.659
45.0, -131996.19287207042, -158189.2410742332, -32647.315579332782, -140580.64855106457, 69412.18011524441, -113689.51066607365, 58144.241052179466, -110120.0935387723, 0.018000000000000002, 0.9540000000000001, -0.05, 192.0, 0.0, 0.0, 0.0, 0.0, 0.0, 0.0, 0.0, 0.0, 0.0, 1.6664045836593032E9, 0.0, 2022-10-21 19:09:43.659
46.0, -132000.7079244504, -158195.00782430265, -32648.120242133173, -140582.8837255101, 69410.19080998788, -113701.53590459061, 58132.03699970687, -110119.26652422745, 0.018000000000000002, 0.9540000000000001, -0.05, 192.0, 0.0, 0.0, 0.0, 0.0, 0.0, 0.0, 0.0, 0.0, 0.0, 1.666404583659317E9, 0.0, 2022-10-21 19:09:43.659
47.0, -131996.52814823727, -158194.9854725582, -32644.14163162013, -140568.19862940296, 69416.71751936883, -113690.71766027424, 58144.017534734914, -110113.41036718016, 0.018000000000000002, 0.9540000000000001, -0.05, 192.0, 0.0, 0.0, 0.0, 0.0, 0.0, 0.0, 0.0, 0.0, 0.0, 1.6664045836593316E9, 0.0, 2022-10-21 19:09:43.659
48.0, -132000.2161860724, -158195.56661791404, -32650.17660262306, -140568.0198154473, 69410.16845824342, -113683.05101192606, 58148.08555222578, -110119.42298643864, 0.018000000000000002, 0.9540000000000001, -0.05, 192.0, 0.0, 0.0, 0.0, 0.0, 0.0, 0.0, 0.0, 0.0, 0.0, 1.6664045836593459E9, 0.0, 2022-10-21 19:09:43.659
49.0, -131999.657392461, -158195.0525277916, -32653.708178246998, -140582.10141445417, 69404.3793564295, -113693.6904422868, 58140.32949689979, -110120.9429050616, 0.018000000000000002, 0.9540000000000001, -0.05, 192.0, 0.0, 0.0, 0.0, 0.0, 0.0, 0.0, 0.0, 0.0, 0.0, 1.66640458365936E9, 0.0, 2022-10-21 19:09:43.659
50.0, -132001.66904946198, -158200.93103658332, -32663.45353882951, -140582.39198713208, 69400.80307731665, -113706.14036394839, 58127.946630471546, -110127.6931318871, 0.016, 0.9540000000000001, -0.046, 192.0, 0.0, 128.0, 29.0, 208.0, 254.0, 144.0, 0.0, 0.0, 0.0, 1.666404583659374E9, 0.0, 2022-10-21 19:09:43.659
51.0, -131996.97518312637, -158194.7843068581, -32654.289323602836, -140565.33760611268, 69408.60383613156, -113720.2890181886, 58124.92914497008, -110122.06049228436, 0.016, 0.9540000000000001, -0.046, 192.0, 0.0, 0.0, 0.0, 0.0, 0.0, 0.0, 0.0, 0.0, 0.0, 1.6664045836593893E9, 0.0, 2022-10-21 19:09:43.659
52.0, -131999.27741280527, -158194.40432720238, -32644.007521153395, -140556.19574263046, 69410.28021696571, -113706.94502674878, 58141.715305056015, -110120.65233238367, 0.016, 0.9540000000000001, -0.046, 192.0, 0.0, 0.0, 0.0, 0.0, 0.0, 0.0, 0.0, 0.0, 0.0, 1.6664045836594036E9, 0.0, 2022-10-21 19:09:43.659
53.0, -132005.87117741958, -158199.96991157174, -32654.266971858382, -140578.8827632526, 69398.56790287113, -113696.86438999945, 58141.69295331156, -110131.82820461133, 0.016, 0.9540000000000001, -0.046, 192.0, 0.0, 0.0, 0.0, 0.0, 0.0, 0.0, 0.0, 0.0, 0.0, 1.6664045836594193E9, 0.0, 2022-10-21 19:09:43.659
54.0, -131995.63407845906, -158189.2857777221, -32649.349588078214, -140585.0294929778, 69406.70393785286, -113710.25308492818, 58130.98646771747, -110122.95456206257, 0.016, 0.9540000000000001, -0.046, 192.0, 0.0, 0.0, 0.0, 0.0, 0.0, 0.0, 0.0, 0.0, 0.0, 1.6664045836594336E9, 0.0, 2022-10-21 19:09:43.659
55.0, -131996.84107265962, -158193.2420364907, -32648.947256678017, -140574.61358006165, 69411.7330803553, -113704.35222439197, 58136.820273020305, -110122.26165798446, 0.016, 0.9540000000000001, -0.046, 192.0, 0.0, 0.0, 0.0, 0.0, 0.0, 0.0, 0.0, 0.0, 0.0, 1.666404583659448E9, 0.0, 2022-10-21 19:09:43.659
56.0, -132009.38040129904, -158197.1982952593, -32644.208686853493, -140560.30846361024, 69416.11402226854, -113678.75947699064, 58159.48494189799, -110119.93707656111, 0.016, 0.9540000000000001, -0.046, 192.0, 0.0, 0.0, 0.0, 0.0, 0.0, 0.0, 0.0, 0.0, 0.0, 1.6664045836594622E9, 0.0, 2022-10-21 19:09:43.659
57.0, -132008.84395943212, -158196.30422548106, -32635.379747793646, -140559.30263510975, 69420.07028103713, -113682.00047993666, 58162.32361344381, -110113.67858811363, 0.016, 0.9540000000000001, -0.046, 192.0, 0.0, 0.0, 0.0, 0.0, 0.0, 0.0, 0.0, 0.0, 0.0, 1.666404583659489E9, 0.0, 2022-10-21 19:09:43.659
58.0, -131984.52526146476, -158186.80473408758, -32636.474983271957, -140566.41048984654, 69421.8360688491, -113704.86631451444, 58143.99518299046, -110118.08188177132, 0.016, 0.9540000000000001, -0.046, 192.0, 0.0, 0.0, 0.0, 0.0, 0.0, 0.0, 0.0, 0.0, 0.0, 1.666404583659505E9, 0.0, 2022-10-21 19:09:43.659
59.0, -131989.7555696673, -158184.86013231994, -32631.892875658617, -140566.924579969, 69423.46774619434, -113699.74776503418, 58146.23035743599, -110114.5950096363, 0.012, 0.9580000000000001, -0.046, 192.0, 0.0, 96.0, 29.0, 240.0, 254.0, 144.0, 0.0, 0.0, 0.0, 1.6664045836595192E9, 0.0, 2022-10-21 19:09:43.659
60.0, -131986.58162195465, -158183.47432416372, -32623.108640087685, -140558.07328916472, 69423.57950491662, -113680.32409910252, 58163.17297973311, -110109.11883224474, 0.012, 0.9580000000000001, -0.046, 192.0, 0.0, 0.0, 0.0, 0.0, 0.0, 0.0, 0.0, 0.0, 0.0, 1.6664045836595352E9, 0.0, 2022-10-21 19:09:43.659
61.0, -131999.34446803862, -158193.4432021908, -32632.45166927, -140563.1247834116, 69418.57271415862, -113683.74391600418, 58161.96598553252, -110111.19754447909, 0.012, 0.9580000000000001, -0.046, 192.0, 0.0, 0.0, 0.0, 0.0, 0.0, 0.0, 0.0, 0.0, 0.0, 1.6664045836595497E9, 0.0, 2022-10-21 19:09:43.659
62.0, -132009.84978793262, -158199.20995226025, -32645.594495009722, -140573.6301033056, 69412.91772281143, -113693.95866322026, 58151.974755761, -110119.19946899409, 0.012, 0.9580000000000001, -0.046, 192.0, 0.0, 0.0, 0.0, 0.0, 0.0, 0.0, 0.0, 0.0, 0.0, 1.666404583659564E9, 0.0, 2022-10-21 19:09:43.659
63.0, -132007.5699099982, -158203.43443196232, -32662.291248117835, -140582.50374585437, 69399.50667613825, -113710.36484365044, 58135.74738928645, -110125.63677139721, 0.012, 0.9580000000000001, -0.046, 192.0, 0.0, 0.0, 0.0, 0.0, 0.0, 0.0, 0.0, 0.0, 0.0, 1.6664045836595783E9, 0.0, 2022-10-21 19:09:43.659
64.0, -132003.39013378503, -158193.4879056797, -32646.37680606566, -140571.7749085158, 69404.08878375159, -113697.62434931092, 58149.49371212647, -110116.02552128144, 0.012, 0.9580000000000001, -0.046, 192.0, 0.0, 0.0, 0.0, 0.0, 0.0, 0.0, 0.0, 0.0, 0.0, 1.6664045836595929E9, 0.0, 2022-10-21 19:09:43.659
65.0, -131999.67974420547, -158191.43154518981, -32630.21649482447, -140564.64470203457, 69413.00712978926, -113684.66033752685, 58164.13410474469, -110106.59308512129, 0.012, 0.9580000000000001, -0.046, 192.0, 0.0, 0.0, 0.0, 0.0, 0.0, 0.0, 0.0, 0.0, 0.0, 1.666404583659608E9, 0.0, 2022-10-21 19:09:43.659
66.0, -131999.0985988496, -158193.2867399796, -32627.489582000922, -140576.0217399623, 69414.97408330132, -113690.22592189621, 58158.94850003106, -110108.15770723316, 0.012, 0.9580000000000001, -0.046, 192.0, 0.0, 0.0, 0.0, 0.0, 0.0, 0.0, 0.0, 0.0, 0.0, 1.666404583659622E9, 0.0, 2022-10-21 19:09:43.659
67.0, -131995.2540988033, -158188.592873644, -32629.680052957545, -140580.179164431, 69410.21316173235, -113707.03443372661, 58145.24688067995, -110114.34914044729, 0.012, 0.9580000000000001, -0.046, 192.0, 0.0, 0.0, 0.0, 0.0, 0.0, 0.0, 0.0, 0.0, 0.0, 1.6664045836596367E9, 0.0, 2022-10-21 19:09:43.659
68.0, -131989.1967760559, -158182.80377183008, -32630.12708784665, -140568.0198154473, 69412.87301932252, -113681.15111364736, 58161.31778494332, -110113.991512536, 0.012, 0.9580000000000001, -0.046, 192.0, 0.0, 0.0, 0.0, 0.0, 0.0, 0.0, 0.0, 0.0, 0.0, 1.6664045836596513E9, 0.0, 2022-10-21 19:09:43.659
69.0, -131985.1064068206, -158178.7357543392, -32629.07655585725, -140571.8196120047, 69409.1849814874, -113673.05978215454, 58169.543226902875, -110111.82339332384, 0.006, 0.96, -0.05, 192.0, 0.0, 48.0, 30.0, 0.0, 254.0, 112.0, 0.0, 0.0, 0.0, 1.6664045836596656E9, 0.0, 2022-10-21 19:09:43.659
70.0, -131988.01213359978, -158185.06129802004, -32637.57021875027, -140582.7272632989, 69407.95563554236, -113688.41543059534, 58155.79690406286, -110116.58431489281, 0.006, 0.96, -0.05, 192.0, 0.0, 0.0, 0.0, 0.0, 0.0, 0.0, 0.0, 0.0, 0.0, 1.6664045836596816E9, 0.0, 2022-10-21 19:09:43.659
71.0, -131990.0014388563, -158187.11765850993, -32646.242695598925, -140586.90703951207, 69402.6806238509, -113697.26672139965, 58142.98935448997, -110124.20625975207, 0.006, 0.96, -0.05, 192.0, 0.0, 0.0, 0.0, 0.0, 0.0, 0.0, 0.0, 0.0, 0.0, 1.666404583659696E9, 0.0, 2022-10-21 19:09:43.659
72.0, -131993.68947669142, -158193.37614695742, -32647.42733805506, -140583.01783597682, 69398.18792321539, -113684.97326194923, 58155.39457266266, -110115.46672767005, 0.006, 0.96, -0.05, 192.0, 0.0, 0.0, 0.0, 0.0, 0.0, 0.0, 0.0, 0.0, 0.0, 1.666404583659711E9, 0.0, 2022-10-21 19:09:43.659
73.0, -132012.64375598953, -158199.1428970269, -32648.589628766735, -140586.66117032303, 69393.73992606878, -113681.10641015845, 58162.88240705519, -110118.35010270479, 0.006, 0.96, -0.05, 192.0, 0.0, 0.0, 0.0, 0.0, 0.0, 0.0, 0.0, 0.0, 0.0, 1.6664045836597378E9, 0.0, 2022-10-21 19:09:43.659
74.0, -132017.33762232514, -158198.96408307125, -32652.74705323542, -140589.25397267987, 69398.12086798201, -113693.6904422868, 58153.382915661685, -110123.46865218505, 0.006, 0.96, -0.05, 192.0, 0.0, 0.0, 0.0, 0.0, 0.0, 0.0, 0.0, 0.0, 0.0, 1.6664045836597536E9, 0.0, 2022-10-21 19:09:43.659
75.0, -131996.72931393737, -158195.20899000275, -32651.674169501566, -140587.95757150147, 69401.92066453942, -113710.14132620589, 58143.45874112353, -110117.1431085042, 0.006, 0.96, -0.05, 192.0, 0.0, 0.0, 0.0, 0.0, 0.0, 0.0, 0.0, 0.0, 0.0, 1.666404583659768E9, 0.0, 2022-10-21 19:09:43.659
76.0, -131995.34350578111, -158191.87858007892, -32646.533268276846, -140577.54165858528, 69403.55234188466, -113731.30842820507, 58135.07683695279, -110115.57848639232, 0.006, 0.96, -0.05, 192.0, 0.0, 0.0, 0.0, 0.0, 0.0, 0.0, 0.0, 0.0, 0.0, 1.6664045836597826E9, 0.0, 2022-10-21 19:09:43.659
77.0, -131994.82941565866, -158193.8902370799, -32646.063881643284, -140564.13061191209, 69408.71559485383, -113714.54461986359, 58151.79594180536, -110112.85157356878, 0.006, 0.96, -0.05, 192.0, 0.0, 0.0, 0.0, 0.0, 0.0, 0.0, 0.0, 0.0, 0.0, 1.6664045836597967E9, 0.0, 2022-10-21 19:09:43.659
78.0, -132001.22201457288, -158201.4898301947, -32647.494393288423, -140577.3181411407, 69407.7321180978, -113704.30752090306, 58155.59573836276, -110113.49977415799, 0.006, 0.96, -0.05, 192.0, 0.0, 0.0, 0.0, 0.0, 0.0, 0.0, 0.0, 0.0, 0.0, 1.6664045836598108E9, 0.0, 2022-10-21 19:09:43.659
79.0, -131993.06362784668, -158189.5987021445, -32642.733471719443, -140576.11114694015, 69417.20925774686, -113708.57670409403, 58149.4266568931, -110103.55324787537, 0.012, 0.9560000000000001, -0.044, 192.0, 0.0, 96.0, 29.0, 224.0, 254.0, 160.0, 0.0, 0.0, 0.0, 1.666404583659825E9, 0.0, 2022-10-21 19:09:43.659
80.0, -131987.9450783664, -158190.47042017823, -32642.912285675084, -140578.25691440786, 69419.80206010367, -113712.4882593737, 58145.80567429134, -110098.68056758412, 0.012, 0.9560000000000001, -0.044, 192.0, 0.0, 0.0, 0.0, 0.0, 0.0, 0.0, 0.0, 0.0, 0.0, 1.66640458365984E9, 0.0, 2022-10-21 19:09:43.659
81.0, -131998.02571511577, -158202.5403621841, -32644.14163162013, -140570.9255422265, 69419.39972870347, -113683.20747413725, 58166.59279663477, -110106.6377886102, 0.012, 0.9560000000000001, -0.044, 192.0, 0.0, 0.0, 0.0, 0.0, 0.0, 0.0, 0.0, 0.0, 0.0, 1.6664045836598547E9, 0.0, 2022-10-21 19:09:43.659
82.0, -132005.44649427492, -158208.03889132012, -32651.674169501566, -140578.79335627478, 69414.99643504577, -113680.0335264246, 58166.05635476785, -110111.21989622354, 0.012, 0.9560000000000001, -0.044, 192.0, 0.0, 0.0, 0.0, 0.0, 0.0, 0.0, 0.0, 0.0, 0.0, 1.6664045836598687E9, 0.0, 2022-10-21 19:09:43.659
83.0, -132003.72540995188, -158206.7424901417, -32654.691655003033, -140594.61839134913, 69410.61549313253, -113708.17437269383, 58142.31880215631, -110111.82339332384, 0.012, 0.9560000000000001, -0.044, 192.0, 0.0, 0.0, 0.0, 0.0, 0.0, 0.0, 0.0, 0.0, 0.0, 1.6664045836598833E9, 0.0, 2022-10-21 19:09:43.659
84.0, -131987.36393301058, -158190.7833446006, -32634.70919545999, -140577.69812079647, 69423.49009793879, -113710.16367795035, 58148.39847664815, -110095.57367510482, 0.012, 0.9560000000000001, -0.044, 192.0, 0.0, 0.0, 0.0, 0.0, 0.0, 0.0, 0.0, 0.0, 0.0, 1.666404583659897E9, 0.0, 2022-10-21 19:09:43.659
85.0, -131984.92759286496, -158187.20706548778, -32631.669358214065, -140563.88474272308, 69426.06054855115, -113686.42612533881, 58168.26917746892, -110094.45608788206, 0.012, 0.9560000000000001, -0.044, 192.0, 0.0, 0.0, 0.0, 0.0, 0.0, 0.0, 0.0, 0.0, 0.0, 1.6664045836599119E9, 0.0, 2022-10-21 19:09:43.659
86.0, -131987.31922952167, -158193.4432021908, -32641.682939730043, -140577.74282428538, 69415.19760074587, -113685.01796543814, 58165.51991290092, -110107.71067234405, 0.012, 0.9560000000000001, -0.044, 192.0, 0.0, 0.0, 0.0, 0.0, 0.0, 0.0, 0.0, 0.0, 0.0, 1.666404583659926E9, 0.0, 2022-10-21 19:09:43.659
87.0, -131988.48152023336, -158196.3936324589, -32640.431242040548, -140585.49887961138, 69415.91285656844, -113708.50964886067, 58149.15843595963, -110111.59987587928, 0.012, 0.9560000000000001, -0.044, 192.0, 0.0, 0.0, 0.0, 0.0, 0.0, 0.0, 0.0, 0.0, 0.0, 1.6664045836599402E9, 0.0, 2022-10-21 19:09:43.659
88.0, -131991.23078480136, -158199.41111796035, -32639.98420715144, -140585.20830693346, 69417.45512693586, -113713.51643961864, 58144.97865974649, -110114.01386428045, 0.012, 0.9560000000000001, -0.044, 192.0, 0.0, 0.0, 0.0, 0.0, 0.0, 0.0, 0.0, 0.0, 0.0, 1.666404583659988E9, 0.0, 2022-10-21 19:09:43.659
89.0, -131982.31243876368, -158194.35962371345, -32632.429317525544, -140577.09462369618, 69420.45026069287, -113712.62236984044, 58153.06999123931, -110110.97402703454, 0.02, 0.9540000000000001, -0.048, 192.0, 0.0, 160.0, 29.0, 208.0, 254.0, 128.0, 0.0, 0.0, 0.0, 1.6664045836600034E9, 0.0, 2022-10-21 19:09:43.660
1.0, -132043.33270112667, -158228.4907374967, -32653.708178246998, -140587.3764261456, 69429.07803405263, -113798.25190284871, 58207.11650933224, -110105.25198045398, 0.02, 0.9540000000000001, -0.048, 192.0, 0.0, 0.0, 0.0, 0.0, 0.0, 0.0, 0.0, 0.0, 0.0, 1.6664045842274747E9, 0.0, 2022-10-21 19:09:44.227
2.0, -132040.85165749214, -158224.91445838386, -32653.08232940225, -140594.6854465825, 69429.74858638628, -113810.43360357686, 58199.04752958388, -110104.49202114249, 0.02, 0.9540000000000001, -0.048, 192.0, 0.0, 0.0, 0.0, 0.0, 0.0, 0.0, 0.0, 0.0, 0.0, 1.666404584227512E9, 0.0, 2022-10-21 19:09:44.227
3.0, -132034.14613415554, -158218.32069376955, -32650.735396234442, -140589.81276629123, 69435.9847230893, -113814.47926932327, 58194.24190452599, -110099.90991352916, 0.02, 0.9540000000000001, -0.048, 192.0, 0.0, 0.0, 0.0, 0.0, 0.0, 0.0, 0.0, 0.0, 0.0, 1.666404584227533E9, 0.0, 2022-10-21 19:09:44.227
4.0, -132030.59220678714, -158210.11760355445, -32644.186335109036, -140580.11210919765, 69435.89531611149, -113800.95646392781, 58203.11554707475, -110093.94199775958, 0.02, 0.9540000000000001, -0.048, 192.0, 0.0, 0.0, 0.0, 0.0, 0.0, 0.0, 0.0, 0.0, 0.0, 1.666404584227553E9, 0.0, 2022-10-21 19:09:44.227
5.0, -132034.03437543326, -158213.64917917838, -32640.520649018366, -140575.26178065085, 69434.82243237764, -113793.02159464617, 58210.73749193401, -110093.15968670366, 0.02, 0.9540000000000001, -0.048, 192.0, 0.0, 0.0, 0.0, 0.0, 0.0, 0.0, 0.0, 0.0, 0.0, 1.666404584227573E9, 0.0, 2022-10-21 19:09:44.227
6.0, -132042.79625925975, -158225.00386536168, -32649.371939822668, -140590.79624304728, 69422.6854351384, -113813.94282745634, 58192.23024752501, -110110.4375851676, 0.02, 0.9540000000000001, -0.048, 192.0, 0.0, 0.0, 0.0, 0.0, 0.0, 0.0, 0.0, 0.0, 0.0, 1.6664045842276027E9, 0.0, 2022-10-21 19:09:44.227
7.0, -132042.17041041498, -158225.51795548416, -32647.002654910408, -140594.86426053813, 69426.77580437373, -113823.2635048942, 58185.70353814406, -110113.32096020234, 0.02, 0.96, -0.044, 192.0, 0.0, 160.0, 30.0, 0.0, 254.0, 160.0, 0.0, 0.0, 0.0, 1.666404584227623E9, 0.0, 2022-10-21 19:09:44.227
8.0, -132040.91871272548, -158226.61319096247, -32643.94046592003, -140579.86624000862, 69434.33069399961, -113810.18773438784, 58194.845401626284, -110104.67083509814, 0.02, 0.96, -0.044, 192.0, 0.0, 0.0, 0.0, 0.0, 0.0, 0.0, 0.0, 0.0, 0.0, 1.666404584227646E9, 0.0, 2022-10-21 19:09:44.227
9.0, -132053.4580413649, -158236.7385312007, -32648.23200085545, -140581.6320278206, 69428.1839642744, -113789.46766727779, 58211.22923031202, -110097.38416640571, 0.02, 0.96, -0.044, 192.0, 0.0, 0.0, 0.0, 0.0, 0.0, 0.0, 0.0, 0.0, 0.0, 1.666404584227666E9, 0.0, 2022-10-21 19:09:44.227
10.0, -132055.7155675549, -158238.52667075716, -32649.88602994514, -140590.3939116471, 69427.15578402947, -113785.93609165384, 58215.07373035834, -110107.7330240885, 0.02, 0.96, -0.044, 192.0, 0.0, 0.0, 0.0, 0.0, 0.0, 0.0, 0.0, 0.0, 0.0, 1.666404584227686E9, 0.0, 2022-10-21 19:09:44.227
11.0, -132033.69909926644, -158216.06316757956, -32631.35643379169, -140574.85944925065, 69450.42395000743, -113791.70284172331, 58214.67139895814, -110090.36571864673, 0.02, 0.96, -0.044, 192.0, 0.0, 0.0, 0.0, 0.0, 0.0, 0.0, 0.0, 0.0, 0.0, 1.6664045842277057E9, 0.0, 2022-10-21 19:09:44.227
12.0, -132036.5154190678, -158218.61126644746, -32631.289378558326, -140578.94981848597, 69445.28304878272, -113793.08864987954, 58211.206878567566, -110098.36764316174, 0.02, 0.96, -0.044, 192.0, 0.0, 0.0, 0.0, 0.0, 0.0, 0.0, 0.0, 0.0, 0.0, 1.666404584227725E9, 0.0, 2022-10-21 19:09:44.227
13.0, -132041.34339587015, -158225.13797582843, -32641.392367052125, -140574.1218416836, 69436.3423510006, -113783.72326895277, 58216.81716642585, -110105.7884223209, 0.02, 0.96, -0.044, 192.0, 0.0, 0.0, 0.0, 0.0, 0.0, 0.0, 0.0, 0.0, 0.0, 1.666404584227744E9, 0.0, 2022-10-21 19:09:44.227
14.0, -132037.07421267917, -158219.77355715915, -32645.75095722091, -140575.418242862, 69436.25294402277, -113779.92347239537, 58220.05816937187, -110106.8389543103, 0.02, 0.96, -0.044, 192.0, 0.0, 0.0, 0.0, 0.0, 0.0, 0.0, 0.0, 0.0, 0.0, 1.6664045842279122E9, 0.0, 2022-10-21 19:09:44.227
15.0, -132031.95566319893, -158209.2458855207, -32634.664491971078, -140587.0411499788, 69437.68345566791, -113796.37435631447, 58208.52466923293, -110103.55324787537, 0.02, 0.96, -0.044, 192.0, 0.0, 0.0, 0.0, 0.0, 0.0, 0.0, 0.0, 0.0, 0.0, 1.6664045842279315E9, 0.0, 2022-10-21 19:09:44.227
16.0, -132035.73310801186, -158215.39261524592, -32637.190239094525, -140587.9799232459, 69437.57169694564, -113804.64450176293, 58201.975608107525, -110106.8389543103, 0.02, 0.96, -0.044, 192.0, 0.0, 0.0, 0.0, 0.0, 0.0, 0.0, 0.0, 0.0, 0.0, 1.6664045842279513E9, 0.0, 2022-10-21 19:09:44.227
17.0, -132044.09266043815, -158224.6462374504, -32640.431242040548, -140582.9731324879, 69435.5376882002, -113795.92732142536, 58213.509108246464, -110106.12369848773, 0.02, 0.968, -0.05, 192.0, 0.0, 160.0, 30.0, 64.0, 254.0, 112.0, 0.0, 0.0, 0.0, 1.6664045842279756E9, 0.0, 2022-10-21 19:09:44.227
18.0, -132049.0100442183, -158228.848365408, -32638.240771083925, -140584.1801266885, 69433.81660387715, -113803.68337675136, 58215.69957920308, -110101.80981180786, 0.02, 0.968, -0.05, 192.0, 0.0, 0.0, 0.0, 0.0, 0.0, 0.0, 0.0, 0.0, 0.0, 1.6664045842280202E9, 0.0, 2022-10-21 19:09:44.228
19.0, -132046.10431743914, -158224.35566477248, -32638.79956469531, -140591.71266456993, 69433.74954864378, -113819.84368799254, 58202.33323601881, -110105.49784964298, 0.02, 0.968, -0.05, 192.0, 0.0, 0.0, 0.0, 0.0, 0.0, 0.0, 0.0, 0.0, 0.0, 1.6664045842280624E9, 0.0, 2022-10-21 19:09:44.228
20.0, -132039.73407026936, -158216.89018212442, -32634.21745708197, -140579.75448128636, 69444.94777261588, -113820.62599904848, 58198.75695690596, -110093.38320414821, 0.02, 0.968, -0.05, 192.0, 0.0, 0.0, 0.0, 0.0, 0.0, 0.0, 0.0, 0.0, 0.0, 1.666404584228103E9, 0.0, 2022-10-21 19:09:44.228
21.0, -132041.6116168036, -158217.85130713598, -32630.88704715813, -140572.35605387166, 69447.78644416171, -113792.03811789014, 58221.063997872356, -110087.39293663418, 0.02, 0.968, -0.05, 192.0, 0.0, 0.0, 0.0, 0.0, 0.0, 0.0, 0.0, 0.0, 0.0, 1.6664045842281444E9, 0.0, 2022-10-21 19:09:44.228
22.0, -132037.05186093473, -158211.25754252166, -32635.849134427208, -140584.89538251108, 69437.97402834584, -113792.39574580142, 58223.790910695905, -110095.99835824948, 0.02, 0.968, -0.05, 192.0, 0.0, 0.0, 0.0, 0.0, 0.0, 0.0, 0.0, 0.0, 0.0, 1.6664045842281923E9, 0.0, 2022-10-21 19:09:44.228
23.0, -132040.7175470254, -158218.47715598074, -32638.441936784024, -140592.04794073678, 69435.58239168911, -113801.26938835018, 58216.41483502565, -110090.87980876921, 0.02, 0.968, -0.05, 192.0, 0.0, 0.0, 0.0, 0.0, 0.0, 0.0, 0.0, 0.0, 0.0, 1.6664045842283075E9, 0.0, 2022-10-21 19:09:44.228
24.0, -132041.67867203697, -158219.30417052557, -32638.330178061748, -140593.9925425044, 69436.56586844515, -113818.48023158078, 58205.194259309086, -110088.9352070016, 0.02, 0.968, -0.05, 192.0, 0.0, 0.0, 0.0, 0.0, 0.0, 0.0, 0.0, 0.0, 0.0, 1.66640458422835E9, 0.0, 2022-10-21 19:09:44.228
25.0, -132039.59995980264, -158213.04568207808, -32628.785983179332, -140574.79239401728, 69448.85932789557, -113802.20816161731, 58219.5440792494, -110087.14706744517, 0.02, 0.968, -0.05, 192.0, 0.0, 0.0, 0.0, 0.0, 0.0, 0.0, 0.0, 0.0, 0.0, 1.6664045842283916E9, 0.0, 2022-10-21 19:09:44.228
26.0, -132042.39392785955, -158215.30320826807, -32633.5022012594, -140569.6291410481, 69447.07118833915, -113776.43660026033, 58241.135864393225, -110083.05669820985, 0.02, 0.968, -0.05, 192.0, 0.0, 0.0, 0.0, 0.0, 0.0, 0.0, 0.0, 0.0, 0.0, 1.6664045842284324E9, 0.0, 2022-10-21 19:09:44.228
27.0, -132047.7136430399, -158218.92419086985, -32640.8559251852, -140591.66796108102, 69436.09648181159, -113775.22960605974, 58240.17473938164, -110092.80205879237, 0.022, 0.962, -0.052000000000000005, 192.0, 0.0, 176.0, 30.0, 16.0, 254.0, 96.0, 0.0, 0.0, 0.0, 1.6664045842284737E9, 0.0, 2022-10-21 19:09:44.228
28.0, -132045.9702069724, -158215.12439431244, -32640.721814718465, -140603.7826065758, 69433.50367945476, -113807.46082156431, 58217.979457137524, -110095.66308208264, 0.022, 0.962, -0.052000000000000005, 192.0, 0.0, 0.0, 0.0, 0.0, 0.0, 0.0, 0.0, 0.0, 0.0, 1.6664045842285275E9, 0.0, 2022-10-21 19:09:44.228
29.0, -132044.20441916044, -158213.62682743394, -32638.486640272935, -140592.89730702608, 69437.86226962355, -113811.10415591052, 58218.31473330435, -110097.16064896116, 0.022, 0.962, -0.052000000000000005, 192.0, 0.0, 0.0, 0.0, 0.0, 0.0, 0.0, 0.0, 0.0, 0.0, 1.6664045842286615E9, 0.0, 2022-10-21 19:09:44.228
30.0, -132038.39296560205, -158206.7424901417, -32630.41766052457, -140583.46487086592, 69440.96916210285, -113781.42103927388, 58243.12516964974, -110091.57271284732, 0.022, 0.962, -0.052000000000000005, 192.0, 0.0, 0.0, 0.0, 0.0, 0.0, 0.0, 0.0, 0.0, 0.0, 1.6664045842286773E9, 0.0, 2022-10-21 19:09:44.228
31.0, -132040.9634162144, -158204.30614999606, -32629.94827389101, -140589.8798215246, 69439.2927812687, -113777.37537352747, 58244.063942916866, -110091.6397680807, 0.022, 0.962, -0.052000000000000005, 192.0, 0.0, 0.0, 0.0, 0.0, 0.0, 0.0, 0.0, 0.0, 0.0, 1.6664045842286935E9, 0.0, 2022-10-21 19:09:44.228
32.0, -132034.19083764445, -158196.2371702477, -32625.61203546668, -140596.04890299428, 69438.51047021276, -113807.41611807539, 58222.20393683958, -110086.23064592251, 0.022, 0.962, -0.052000000000000005, 192.0, 0.0, 0.0, 0.0, 0.0, 0.0, 0.0, 0.0, 0.0, 0.0, 1.6664045842287087E9, 0.0, 2022-10-21 19:09:44.228
33.0, -132031.01688993178, -158196.1924667588, -32624.807372666288, -140586.59411508968, 69439.35983650206, -113820.60364730403, 58214.961971636054, -110083.4366778656, 0.022, 0.962, -0.052000000000000005, 192.0, 0.0, 0.0, 0.0, 0.0, 0.0, 0.0, 0.0, 0.0, 0.0, 1.666404584228724E9, 0.0, 2022-10-21 19:09:44.228
34.0, -132038.84000049115, -158206.02723431913, -32631.55759949179, -140578.18985917448, 69440.7903481472, -113802.85636220651, 58227.68011423113, -110084.82248602182, 0.022, 0.962, -0.052000000000000005, 192.0, 0.0, 0.0, 0.0, 0.0, 0.0, 0.0, 0.0, 0.0, 0.0, 1.6664045842287395E9, 0.0, 2022-10-21 19:09:44.228
35.0, -132043.73503252686, -158208.70944365376, -32642.308788574792, -140587.46583312342, 69433.41427247695, -113794.83208594706, 58229.84823344329, -110099.52993387342, 0.022, 0.962, -0.052000000000000005, 192.0, 0.0, 0.0, 0.0, 0.0, 0.0, 0.0, 0.0, 0.0, 0.0, 1.6664045842287545E9, 0.0, 2022-10-21 19:09:44.228
36.0, -132037.65535803503, -158204.70848139626, -32632.921055903564, -140594.90896402704, 69434.71067365535, -113807.48317330876, 58219.38761703821, -110093.07027972583, 0.022, 0.96, -0.066, 192.0, 0.0, 176.0, 30.0, 0.0, 253.0, 240.0, 0.0, 0.0, 0.0, 1.6664045842287695E9, 0.0, 2022-10-21 19:09:44.228
37.0, -132033.63204403306, -158203.00974881765, -32619.5994162082, -140580.71560629792, 69446.4900429833, -113805.58327503006, 58225.28847757441, -110077.62522430721, 0.022, 0.96, -0.066, 192.0, 0.0, 0.0, 0.0, 0.0, 0.0, 0.0, 0.0, 0.0, 0.0, 1.6664045842287858E9, 0.0, 2022-10-21 19:09:44.228
38.0, -132045.38906161656, -158216.04081583512, -32636.229114082947, -140583.8895540106, 69437.21406903435, -113787.7018794658, 58235.27970734593, -110089.89633201317, 0.022, 0.96, -0.066, 192.0, 0.0, 0.0, 0.0, 0.0, 0.0, 0.0, 0.0, 0.0, 0.0, 1.6664045842288008E9, 0.0, 2022-10-21 19:09:44.228
39.0, -132046.52900058377, -158220.62292344845, -32637.614922239176, -140591.5785541032, 69430.46384220885, -113788.9535771553, 58236.173777124146, -110092.51148611445, 0.022, 0.96, -0.066, 192.0, 0.0, 0.0, 0.0, 0.0, 0.0, 0.0, 0.0, 0.0, 0.0, 1.666404584228816E9, 0.0, 2022-10-21 19:09:44.228
40.0, -132041.6116168036, -158214.27502802314, -32638.821916439763, -140596.6971035835, 69432.11787129854, -113799.74946972722, 58224.059131629365, -110090.47747736902, 0.022, 0.96, -0.066, 192.0, 0.0, 0.0, 0.0, 0.0, 0.0, 0.0, 0.0, 0.0, 0.0, 1.6664045842288308E9, 0.0, 2022-10-21 19:09:44.228
41.0, -132044.58439881617, -158219.1924118033, -32643.426375797557, -140598.41818790653, 69429.01097881925, -113809.27131286518, 58213.73262569102, -110091.59506459178, 0.022, 0.96, -0.066, 192.0, 0.0, 0.0, 0.0, 0.0, 0.0, 0.0, 0.0, 0.0, 0.0, 1.666404584228846E9, 0.0, 2022-10-21 19:09:44.228
42.0, -132042.75155577084, -158217.98541760273, -32643.672244986567, -140592.71849307042, 69424.36181597254, -113796.24024584774, 58223.05330312888, -110095.35015766027, 0.022, 0.96, -0.066, 192.0, 0.0, 0.0, 0.0, 0.0, 0.0, 0.0, 0.0, 0.0, 0.0, 1.666404584228861E9, 0.0, 2022-10-21 19:09:44.228
43.0, -132036.42601208997, -158210.9446180993, -32635.26798907137, -140584.76127204436, 69428.34042648559, -113793.20040860181, 58232.08340788882, -110091.01391923595, 0.022, 0.96, -0.066, 192.0, 0.0, 0.0, 0.0, 0.0, 0.0, 0.0, 0.0, 0.0, 0.0, 1.6664045842288773E9, 0.0, 2022-10-21 19:09:44.228
44.0, -132040.9634162144, -158216.95723735777, -32630.50706750239, -140585.56593484472, 69436.83408937861, -113795.50263828071, 58230.60819275477, -110092.55618960336, 0.022, 0.96, -0.066, 192.0, 0.0, 0.0, 0.0, 0.0, 0.0, 0.0, 0.0, 0.0, 0.0, 1.666404584228927E9, 0.0, 2022-10-21 19:09:44.228
45.0, -132036.20249464543, -158211.95044659977, -32628.406003523593, -140583.6883883105, 69440.41036849146, -113809.11485065399, 58219.164099593654, -110089.91868375763, 0.022, 0.96, -0.066, 192.0, 0.0, 0.0, 0.0, 0.0, 0.0, 0.0, 0.0, 0.0, 0.0, 1.6664045842289417E9, 0.0, 2022-10-21 19:09:44.228
46.0, -132034.99550044484, -158211.90574311087, -32627.154305834094, -140573.20542016096, 69440.16449930245, -113804.15276338492, 58225.93667816361, -110077.93814872959, 0.016, 0.962, -0.058, 192.0, 0.0, 128.0, 30.0, 16.0, 254.0, 48.0, 0.0, 0.0, 0.0, 1.6664045842289567E9, 0.0, 2022-10-21 19:09:44.228
47.0, -132029.87695096456, -158206.11664129695, -32619.93469237503, -140566.0305101908, 69444.21016504886, -113790.54055101164, 58237.53723353592, -110074.11600042773, 0.016, 0.962, -0.058, 192.0, 0.0, 0.0, 0.0, 0.0, 0.0, 0.0, 0.0, 0.0, 0.0, 1.6664045842289722E9, 0.0, 2022-10-21 19:09:44.228
48.0, -132028.66995676397, -158207.74831864217, -32620.40407900859, -140578.05574870776, 69441.52795571422, -113796.01672840319, 58233.58097476733, -110082.09557319827, 0.016, 0.962, -0.058, 192.0, 0.0, 0.0, 0.0, 0.0, 0.0, 0.0, 0.0, 0.0, 0.0, 1.6664045842289867E9, 0.0, 2022-10-21 19:09:44.228
49.0, -132029.92165445347, -158210.98932158822, -32627.93661689003, -140585.29771391128, 69441.01386559175, -113808.71251925381, 58221.80160543938, -110090.5892360913, 0.016, 0.962, -0.058, 192.0, 0.0, 0.0, 0.0, 0.0, 0.0, 0.0, 0.0, 0.0, 0.0, 1.6664045842290034E9, 0.0, 2022-10-21 19:09:44.229
50.0, -132027.30650035222, -158211.16813554385, -32617.02896559584, -140569.8303067482, 69444.45603423787, -113793.64744349092, 58232.28457358892, -110088.06348896785, 0.016, 0.962, -0.058, 192.0, 0.0, 0.0, 0.0, 0.0, 0.0, 0.0, 0.0, 0.0, 0.0, 1.666404584229018E9, 0.0, 2022-10-21 19:09:44.229
51.0, -132029.63108177556, -158213.22449603374, -32620.538189475323, -140574.3230073837, 69438.06343532365, -113792.37339405697, 58239.83946321481, -110080.7321167865, 0.016, 0.962, -0.058, 192.0, 0.0, 0.0, 0.0, 0.0, 0.0, 0.0, 0.0, 0.0, 0.0, 1.666404584229032E9, 0.0, 2022-10-21 19:09:44.229
52.0, -132033.49793356634, -158215.54907745708, -32621.94634937601, -140586.34824590068, 69435.51533645575, -113802.6104930175, 58232.888070689216, -110085.18011393311, 0.016, 0.962, -0.058, 192.0, 0.0, 0.0, 0.0, 0.0, 0.0, 0.0, 0.0, 0.0, 0.0, 1.6664045842290463E9, 0.0, 2022-10-21 19:09:44.229
53.0, -132025.69717475143, -158207.56950468654, -32616.17959930654, -140583.46487086592, 69439.96333360235, -113804.37628082947, 58230.13880612121, -110079.94980573056, 0.016, 0.962, -0.058, 192.0, 0.0, 0.0, 0.0, 0.0, 0.0, 0.0, 0.0, 0.0, 0.0, 1.666404584229061E9, 0.0, 2022-10-21 19:09:44.229
54.0, -132032.49210506584, -158217.73954841372, -32624.762669177377, -140592.89730702608, 69428.8321648636, -113821.27419963769, 58217.53242224842, -110091.10332621376, 0.016, 0.962, -0.058, 192.0, 0.0, 0.0, 0.0, 0.0, 0.0, 0.0, 0.0, 0.0, 0.0, 1.6664045842290752E9, 0.0, 2022-10-21 19:09:44.229
55.0, -132026.56889278517, -158213.11273731146, -32618.057145840783, -140573.6301033056, 69443.24904003728, -113799.74946972722, 58238.65482075868, -110083.97311973252, 0.016, 0.962, -0.058, 192.0, 0.0, 0.0, 0.0, 0.0, 0.0, 0.0, 0.0, 0.0, 0.0, 1.6664045842290895E9, 0.0, 2022-10-21 19:09:44.229
56.0, -132020.33275608215, -158204.93199884082, -32613.11741031616, -140576.06644345121, 69447.67468543943, -113784.14795209742, 58248.93662320812, -110081.20150342006, 0.014, 0.96, -0.056, 192.0, 0.0, 112.0, 30.0, 0.0, 254.0, 64.0, 0.0, 0.0, 0.0, 1.666404584229104E9, 0.0, 2022-10-21 19:09:44.229
57.0, -132021.7632677273, -158206.72013839724, -32612.111581815672, -140588.71753081292, 69446.26652553875, -113811.21591463279, 58230.02704739894, -110079.70393654155, 0.014, 0.96, -0.056, 192.0, 0.0, 0.0, 0.0, 0.0, 0.0, 0.0, 0.0, 0.0, 0.0, 1.6664045842291188E9, 0.0, 2022-10-21 19:09:44.229
58.0, -132026.85946546312, -158208.86590586495, -32615.665509184066, -140582.21317317642, 69446.71356042786, -113815.12746991248, 58228.66359098716, -110077.1334859292, 0.014, 0.96, -0.056, 192.0, 0.0, 0.0, 0.0, 0.0, 0.0, 0.0, 0.0, 0.0, 0.0, 1.6664045842291334E9, 0.0, 2022-10-21 19:09:44.229
59.0, -132024.33371833965, -158211.50341171067, -32612.782134149333, -140571.19376315997, 69447.56292671716, -113813.31697861159, 58236.66551550216, -110067.76810500243, 0.014, 0.96, -0.056, 192.0, 0.0, 0.0, 0.0, 0.0, 0.0, 0.0, 0.0, 0.0, 0.0, 1.6664045842291949E9, 0.0, 2022-10-21 19:09:44.229
60.0, -132033.29676786624, -158214.96793210125, -32617.02896559584, -140570.61261780414, 69451.92151688594, -113807.23730411976, 58239.68300100363, -110072.2831573824, 0.014, 0.96, -0.056, 192.0, 0.0, 0.0, 0.0, 0.0, 0.0, 0.0, 0.0, 0.0, 0.0, 1.66640458422921E9, 0.0, 2022-10-21 19:09:44.229
61.0, -132043.08683193766, -158220.19824030378, -32615.397288250602, -140577.96634172992, 69454.38020877603, -113812.62407453348, 58231.52461427744, -110078.20636966305, 0.014, 0.96, -0.056, 192.0, 0.0, 0.0, 0.0, 0.0, 0.0, 0.0, 0.0, 0.0, 0.0, 1.6664045842292244E9, 0.0, 2022-10-21 19:09:44.229
62.0, -132053.1227651981, -158230.90472589788, -32623.17569532105, -140578.45808010796, 69451.00509536327, -113816.62503679098, 58223.38857929571, -110084.3307476438, 0.014, 0.96, -0.056, 192.0, 0.0, 0.0, 0.0, 0.0, 0.0, 0.0, 0.0, 0.0, 0.0, 1.6664045842292392E9, 0.0, 2022-10-21 19:09:44.229
63.0, -132065.14800371506, -158249.12139762897, -32626.282587800335, -140576.40171961806, 69446.40063600548, -113810.56771404359, 58228.50712877597, -110087.16941918962, 0.014, 0.96, -0.056, 192.0, 0.0, 0.0, 0.0, 0.0, 0.0, 0.0, 0.0, 0.0, 0.0, 1.6664045842292535E9, 0.0, 2022-10-21 19:09:44.229
64.0, -132076.0333032648, -158257.16802563288, -32630.283550057837, -140579.70977779746, 69445.394807505, -113799.92828368286, 58237.6489922582, -110090.54453260238, 0.014, 0.96, -0.056, 192.0, 0.0, 0.0, 0.0, 0.0, 0.0, 0.0, 0.0, 0.0, 0.0, 1.666404584229268E9, 0.0, 2022-10-21 19:09:44.229
65.0, -132080.19072773348, -158260.0514006676, -32623.287454043326, -140583.6213330771, 69450.75922617427, -113811.64059777744, 58232.172814866644, -110083.16845693214, 0.014, 0.96, -0.056, 192.0, 0.0, 0.0, 0.0, 0.0, 0.0, 0.0, 0.0, 0.0, 0.0, 1.6664045842292826E9, 0.0, 2022-10-21 19:09:44.229
66.0, -132087.7232656149, -158264.54410130312, -32625.36616627767, -140584.89538251108, 69451.47448199683, -113835.17698468888, 58217.979457137524, -110085.85066626676, 0.024, 0.9560000000000001, -0.056, 192.0, 0.0, 192.0, 29.0, 224.0, 254.0, 64.0, 0.0, 0.0, 0.0, 1.6664045842292967E9, 0.0, 2022-10-21 19:09:44.229
67.0, -132101.35782973265, -158275.47410434176, -32630.864695413675, -140585.90121101157, 69445.32775227162, -113823.53172582766, 58228.70829447607, -110087.79526803437, 0.024, 0.9560000000000001, -0.056, 192.0, 0.0, 0.0, 0.0, 0.0, 0.0, 0.0, 0.0, 0.0, 0.0, 1.666404584229312E9, 0.0, 2022-10-21 19:09:44.229
68.0, -132094.69700988496, -158273.0154124517, -32618.325366774247, -140575.50764983986, 69455.76601693226, -113821.98945546025, 58240.219442870555, -110064.48239856749, 0.024, 0.9560000000000001, -0.056, 192.0, 0.0, 0.0, 0.0, 0.0, 0.0, 0.0, 0.0, 0.0, 0.0, 1.6664045842293265E9, 0.0, 2022-10-21 19:09:44.229
69.0, -132098.6309169091, -158273.57420606306, -32620.135858075126, -140581.60967607616, 69456.97301113284, -113831.28778115366, 58232.3963323112, -110067.61164279123, 0.024, 0.9560000000000001, -0.056, 192.0, 0.0, 0.0, 0.0, 0.0, 0.0, 0.0, 0.0, 0.0, 0.0, 1.6664045842293408E9, 0.0, 2022-10-21 19:09:44.229
70.0, -132118.30045202977, -158289.89097951545, -32631.84817216971, -140592.60673434817, 69447.71938892835, -113844.02827549318, 58216.41483502565, -110079.480419097, 0.024, 0.9560000000000001, -0.056, 192.0, 0.0, 0.0, 0.0, 0.0, 0.0, 0.0, 0.0, 0.0, 0.0, 1.6664045842293603E9, 0.0, 2022-10-21 19:09:44.229
71.0, -132126.8388184117, -158297.1552964634, -32626.193180822516, -140583.1295946991, 69449.06049359567, -113838.01565623471, 58222.114529861756, -110078.89927374116, 0.024, 0.9560000000000001, -0.056, 192.0, 0.0, 0.0, 0.0, 0.0, 0.0, 0.0, 0.0, 0.0, 0.0, 1.666404584229375E9, 0.0, 2022-10-21 19:09:44.229
72.0, -132136.02538538282, -158307.10182274602, -32629.903570402097, -140580.8720685091, 69446.02065634975, -113822.77176651619, 58234.698561990095, -110078.92162548561, 0.024, 0.9560000000000001, -0.056, 192.0, 0.0, 0.0, 0.0, 0.0, 0.0, 0.0, 0.0, 0.0, 0.0, 1.6664045842293887E9, 0.0, 2022-10-21 19:09:44.229
73.0, -132136.0477371273, -158308.0629477576, -32631.93757914753, -140596.0936064832, 69443.02552259272, -113825.78925201765, 58229.8929369322, -110074.60773880575, 0.024, 0.9560000000000001, -0.056, 192.0, 0.0, 0.0, 0.0, 0.0, 0.0, 0.0, 0.0, 0.0, 0.0, 1.6664045842294035E9, 0.0, 2022-10-21 19:09:44.229
74.0, -132141.52391451882, -158312.24272397076, -32631.825820425252, -140594.41722564903, 69446.06535983866, -113831.91362999841, 58218.76176819346, -110073.89248298318, 0.024, 0.9560000000000001, -0.056, 192.0, 0.0, 0.0, 0.0, 0.0, 0.0, 0.0, 0.0, 0.0, 0.0, 1.6664045842294323E9, 0.0, 2022-10-21 19:09:44.229
75.0, -132152.9903594244, -158324.0220932987, -32634.195105337516, -140594.0819494822, 69442.75730165927, -113833.27708641018, 58216.861869914756, -110073.5795585608, 0.022, 0.96, -0.06, 192.0, 0.0, 176.0, 30.0, 0.0, 254.0, 32.0, 0.0, 0.0, 0.0, 1.6664045842294464E9, 0.0, 2022-10-21 19:09:44.229
76.0, -132160.76876649485, -158328.49244218974, -32637.145535605618, -140595.55716461624, 69439.9409818579, -113808.37724308697, 58235.43616955712, -110080.59800631976, 0.022, 0.96, -0.06, 192.0, 0.0, 0.0, 0.0, 0.0, 0.0, 0.0, 0.0, 0.0, 0.0, 1.6664045842294617E9, 0.0, 2022-10-21 19:09:44.229
77.0, -132160.27702811683, -158326.25726774422, -32625.254407555392, -140589.4774901244, 69450.51335698526, -113802.96812092878, 58241.18056788213, -110080.57565457531, 0.022, 0.96, -0.06, 192.0, 0.0, 0.0, 0.0, 0.0, 0.0, 0.0, 0.0, 0.0, 0.0, 1.666404584229476E9, 0.0, 2022-10-21 19:09:44.229
78.0, -132165.9990746974, -158331.7334451358, -32623.689785443523, -140589.32102791322, 69456.72714194383, -113822.861173494, 58225.84727118579, -110073.15487541615, 0.022, 0.96, -0.06, 192.0, 0.0, 0.0, 0.0, 0.0, 0.0, 0.0, 0.0, 0.0, 0.0, 1.6664045842294903E9, 0.0, 2022-10-21 19:09:44.229
79.0, -132162.22162988444, -158329.6770846459, -32626.573160478256, -140585.431824378, 69452.7932349197, -113836.94277250086, 58217.778291437426, -110070.87499748172, 0.022, 0.96, -0.06, 192.0, 0.0, 0.0, 0.0, 0.0, 0.0, 0.0, 0.0, 0.0, 0.0, 1.6664045842295046E9, 0.0, 2022-10-21 19:09:44.229
80.0, -132165.48498457493, -158331.6663899024, -32626.483753500434, -140575.10531843966, 69452.43560700842, -113823.57642931658, 58230.228213099035, -110069.1762649031, 0.022, 0.96, -0.06, 192.0, 0.0, 0.0, 0.0, 0.0, 0.0, 0.0, 0.0, 0.0, 0.0, 1.6664045842295187E9, 0.0, 2022-10-21 19:09:44.229
81.0, -132169.91062997706, -158333.9686195813, -32622.37103252066, -140572.3337021272, 69458.2917640557, -113803.25869360671, 58243.929832450136, -110058.76035198693, 0.022, 0.96, -0.06, 192.0, 0.0, 0.0, 0.0, 0.0, 0.0, 0.0, 0.0, 0.0, 0.0, 1.6664045842295332E9, 0.0, 2022-10-21 19:09:44.229
82.0, -132172.36932186715, -158332.85103235854, -32626.148477333605, -140594.2831151823, 69451.58624071912, -113826.5715630736, 58220.61696298325, -110069.01980269192, 0.022, 0.96, -0.06, 192.0, 0.0, 0.0, 0.0, 0.0, 0.0, 0.0, 0.0, 0.0, 0.0, 1.6664045842295475E9, 0.0, 2022-10-21 19:09:44.229
83.0, -132187.5908598412, -158352.09588433456, -32636.162058849583, -140590.17039420252, 69448.7922726622, -113805.62797851897, 58228.17185260914, -110079.79334351938, 0.022, 0.96, -0.06, 192.0, 0.0, 0.0, 0.0, 0.0, 0.0, 0.0, 0.0, 0.0, 0.0, 1.666404584229562E9, 0.0, 2022-10-21 19:09:44.229
84.0, -132206.03104901683, -158366.35629729705, -32652.07650090176, -140598.21702220643, 69425.92643808443, -113786.8525131765, 58235.90555619068, -110094.8360675378, 0.022, 0.96, -0.06, 192.0, 0.0, 0.0, 0.0, 0.0, 0.0, 0.0, 0.0, 0.0, 0.0, 1.666404584229576E9, 0.0, 2022-10-21 19:09:44.229
85.0, -132191.41300814308, -158350.55361396715, -32637.212590838983, -140591.82442329222, 69439.11396731305, -113804.89037095194, 58231.74813172199, -110080.86622725324, 0.018000000000000002, 0.9580000000000001, -0.054, 192.0, 0.0, 144.0, 29.0, 240.0, 254.0, 80.0, 0.0, 0.0, 0.0, 1.6664045842295904E9, 0.0, 2022-10-21 19:09:44.229
86.0, -132187.5014528634, -158347.20085229885, -32624.449744755002, -140582.95078074347, 69451.18390931892, -113810.18773438784, 58229.22238459854, -110076.44058185109, 0.018000000000000002, 0.9580000000000001, -0.054, 192.0, 0.0, 0.0, 0.0, 0.0, 0.0, 0.0, 0.0, 0.0, 0.0, 1.6664045842296054E9, 0.0, 2022-10-21 19:09:44.229
87.0, -132188.12730170815, -158348.05021858815, -32619.44295399701, -140578.7710045303, 69454.64842970949, -113819.95544671483, 58220.572259494336, -110075.05477369485, 0.018000000000000002, 0.9580000000000001, -0.054, 192.0, 0.0, 0.0, 0.0, 0.0, 0.0, 0.0, 0.0, 0.0, 0.0, 1.6664045842296195E9, 0.0, 2022-10-21 19:09:44.229
88.0, -132192.3070779213, -158350.15128256695, -32629.5012390019, -140580.1344609421, 69444.65719993797, -113809.91951345438, 58224.79673919639, -110080.84387550878, 0.018000000000000002, 0.9580000000000001, -0.054, 192.0, 0.0, 0.0, 0.0, 0.0, 0.0, 0.0, 0.0, 0.0, 0.0, 1.666404584229634E9, 0.0, 2022-10-21 19:09:44.229
89.0, -132201.7618658259, -158357.66146870394, -32633.904532659595, -140585.76710054482, 69440.7903481472, -113816.7144437688, 58222.69567521759, -110071.8808259822, 0.018000000000000002, 0.9580000000000001, -0.054, 192.0, 0.0, 0.0, 0.0, 0.0, 0.0, 0.0, 0.0, 0.0, 0.0, 1.6664045842296617E9, 0.0, 2022-10-21 19:09:44.229
90.0, -132205.29344144982, -158362.31063155064, -32623.510971487878, -140586.34824590068, 69451.63094420802, -113819.73192927027, 58221.28751531691, -110067.09755266877, 0.018000000000000002, 0.9580000000000001, -0.054, 192.0, 0.0, 0.0, 0.0, 0.0, 0.0, 0.0, 0.0, 0.0, 0.0, 1.666404584229676E9, 0.0, 2022-10-21 19:09:44.229
91.0, -132203.6617641046, -158358.89081464897, -32619.64411969711, -140581.9896557319, 69456.5930314771, -113822.77176651619, 58218.65000947118, -110063.16364564463, 0.018000000000000002, 0.9580000000000001, -0.054, 192.0, 0.0, 0.0, 0.0, 0.0, 0.0, 0.0, 0.0, 0.0, 0.0, 1.6664045842296913E9, 0.0, 2022-10-21 19:09:44.229
92.0, -132201.87362454817, -158356.29801229216, -32622.281625542837, -140574.83709750618, 69454.44726400939, -113812.86994372249, 58227.836576442314, -110060.30262235436, 0.018000000000000002, 0.9580000000000001, -0.054, 192.0, 0.0, 0.0, 0.0, 0.0, 0.0, 0.0, 0.0, 0.0, 0.0, 1.6664045842297072E9, 0.0, 2022-10-21 19:09:44.229
93.0, -132214.23413923194, -158375.20758810136, -32628.584817479234, -140575.79822251777, 69453.08380759762, -113788.61830098848, 58246.58969004032, -110063.72243925602, 0.018000000000000002, 0.9580000000000001, -0.054, 192.0, 0.0, 0.0, 0.0, 0.0, 0.0, 0.0, 0.0, 0.0, 0.0, 1.6664045842297215E9, 0.0, 2022-10-21 19:09:44.229
94.0, -132221.90078758012, -158371.2289775883, -32624.919131388564, -140581.8778970096, 69453.32967678663, -113804.30922559611, 58235.92790793513, -110066.44935207957, 0.018000000000000002, 0.9580000000000001, -0.054, 192.0, 0.0, 0.0, 0.0, 0.0, 0.0, 0.0, 0.0, 0.0, 0.0, 1.666404584229736E9, 0.0, 2022-10-21 19:09:44.229
95.0, -132223.711278881, -158368.63617523148, -32619.420602252558, -140579.66507430852, 69460.03520012322, -113815.50744956822, 58227.79187295341, -110062.98483168898, 0.014, 0.9560000000000001, -0.052000000000000005, 192.0, 0.0, 112.0, 29.0, 224.0, 254.0, 96.0, 0.0, 0.0, 0.0, 1.6664045842297504E9, 0.0, 2022-10-21 19:09:44.229
96.0, -132222.83956084723, -158373.8217799451, -32618.481828985434, -140572.73603352738, 69464.8408251811, -113797.26842609268, 58242.23109987153, -110058.40272407565, 0.014, 0.9560000000000001, -0.052000000000000005, 192.0, 0.0, 0.0, 0.0, 0.0, 0.0, 0.0, 0.0, 0.0, 0.0, 1.6664045842297652E9, 0.0, 2022-10-21 19:09:44.229
97.0, -132225.78999111534, -158373.620614245, -32620.73935517542, -140572.8701439941, 69462.8962234135, -113800.17415287187, 58245.69562026211, -110060.70495375455, 0.014, 0.9560000000000001, -0.052000000000000005, 192.0, 0.0, 0.0, 0.0, 0.0, 0.0, 0.0, 0.0, 0.0, 0.0, 1.6664045842297804E9, 0.0, 2022-10-21 19:09:44.229
98.0, -132229.32156673927, -158373.86648343402, -32624.31563428827, -140580.69325455348, 69459.69992395639, -113803.6610250069, 58240.73353299303, -110070.29385212588, 0.014, 0.9560000000000001, -0.052000000000000005, 192.0, 0.0, 0.0, 0.0, 0.0, 0.0, 0.0, 0.0, 0.0, 0.0, 1.6664045842297947E9, 0.0, 2022-10-21 19:09:44.229
99.0, -132228.47220044996, -158374.31351832315, -32618.83945689672, -140594.50663262687, 69460.88456641253, -113823.48702233876, 58226.160195608165, -110061.35315434376, 0.014, 0.9560000000000001, -0.052000000000000005, 192.0, 0.0, 0.0, 0.0, 0.0, 0.0, 0.0, 0.0, 0.0, 0.0, 1.666404584229809E9, 0.0, 2022-10-21 19:09:44.229
100.0, -132240.27392152237, -158382.0248701602, -32617.252483040393, -140587.5328883568, 69467.83595893813, -113821.1624409154, 58230.96582066606, -110053.68650599557, 0.014, 0.9560000000000001, -0.052000000000000005, 192.0, 0.0, 0.0, 0.0, 0.0, 0.0, 0.0, 0.0, 0.0, 0.0, 1.666404584229823E9, 0.0, 2022-10-21 19:09:44.229
101.0, -132249.28167453787, -158391.45730632037, -32627.22136106746, -140588.2257924349, 69460.72810420133, -113786.83016143205, 58254.21163489958, -110058.71564849802, 0.014, 0.9560000000000001, -0.052000000000000005, 192.0, 0.0, 0.0, 0.0, 0.0, 0.0, 0.0, 0.0, 0.0, 0.0, 1.6664045842298374E9, 0.0, 2022-10-21 19:09:44.229
102.0, -132245.68304368056, -158388.75274524128, -32628.87539015715, -140589.0304552353, 69462.82916818013, -113780.12463809547, 58259.28548089093, -110062.58250028879, 0.014, 0.9560000000000001, -0.052000000000000005, 192.0, 0.0, 0.0, 0.0, 0.0, 0.0, 0.0, 0.0, 0.0, 0.0, 1.6664045842298515E9, 0.0, 2022-10-21 19:09:44.229
103.0, -132248.83463964876, -158391.9937481873, -32634.485678015433, -140597.8817460396, 69461.53276700173, -113792.48515277925, 58244.93566095062, -110065.82350323482, 0.014, 0.9560000000000001, -0.052000000000000005, 192.0, 0.0, 0.0, 0.0, 0.0, 0.0, 0.0, 0.0, 0.0, 0.0, 1.666404584229866E9, 0.0, 2022-10-21 19:09:44.229
104.0, -132246.53240996986, -158383.8353614611, -32624.78502092183, -140596.27242043882, 69460.1916623344, -113812.15468789992, 58236.33023933533, -110057.91098569763, 0.016, 0.9540000000000001, -0.054, 192.0, 0.0, 128.0, 29.0, 208.0, 254.0, 80.0, 0.0, 0.0, 0.0, 1.6664045842298932E9, 0.0, 2022-10-21 19:09:44.229
105.0, -132248.1640873151, -158387.1434196405, -32617.319538273758, -140579.30744639726, 69468.21593859386, -113806.92437969738, 58248.95897495258, -110050.84783444976, 0.016, 0.9540000000000001, -0.054, 192.0, 0.0, 0.0, 0.0, 0.0, 0.0, 0.0, 0.0, 0.0, 0.0, 1.6664045842299087E9, 0.0, 2022-10-21 19:09:44.229
106.0, -132255.5178112409, -158391.70317550938, -32625.07559359975, -140585.11889995562, 69462.4938920133, -113790.76406845619, 58256.647975045205, -110058.11215139773, 0.016, 0.9540000000000001, -0.054, 192.0, 0.0, 0.0, 0.0, 0.0, 0.0, 0.0, 0.0, 0.0, 0.0, 1.666404584229923E9, 0.0, 2022-10-21 19:09:44.229
107.0, -132248.90169488214, -158384.8411899616, -32622.527494731847, -140593.85843203764, 69458.67174371144, -113807.90785645341, 58241.31467834886, -110063.05188692236, 0.016, 0.9540000000000001, -0.054, 192.0, 0.0, 0.0, 0.0, 0.0, 0.0, 0.0, 0.0, 0.0, 0.0, 1.6664045842299373E9, 0.0, 2022-10-21 19:09:44.229
108.0, -132249.37108151568, -158383.5894922721, -32617.431296996034, -140583.01783597682, 69463.11974085805, -113818.39082460295, 58237.559585280374, -110054.80409321835, 0.016, 0.9540000000000001, -0.054, 192.0, 0.0, 0.0, 0.0, 0.0, 0.0, 0.0, 0.0, 0.0, 0.0, 1.6664045842299514E9, 0.0, 2022-10-21 19:09:44.229
109.0, -132259.49642175395, -158391.65847202044, -32622.192218565015, -140570.85848699315, 69463.0973891136, -113801.29174009463, 58253.18345465463, -110052.09953213925, 0.016, 0.9540000000000001, -0.054, 192.0, 0.0, 0.0, 0.0, 0.0, 0.0, 0.0, 0.0, 0.0, 0.0, 1.666404584229967E9, 0.0, 2022-10-21 19:09:44.229
110.0, -132259.04938686485, -158389.2891871082, -32625.947311633507, -140574.45711785046, 69456.23540356582, -113787.9030451659, 58259.88897799123, -110059.69912525406, 0.016, 0.9540000000000001, -0.054, 192.0, 0.0, 0.0, 0.0, 0.0, 0.0, 0.0, 0.0, 0.0, 0.0, 1.6664045842299812E9, 0.0, 2022-10-21 19:09:44.229
111.0, -132264.7714334454, -158394.3406813551, -32629.098907601707, -140586.2811906673, 69449.86515639606, -113811.23826637724, 58240.59942252629, -110068.75158175845, 0.016, 0.9540000000000001, -0.054, 192.0, 0.0, 0.0, 0.0, 0.0, 0.0, 0.0, 0.0, 0.0, 0.0, 1.6664045842299955E9, 0.0, 2022-10-21 19:09:44.229
112.0, -132266.98425614648, -158398.1851814014, -32629.344776790713, -140586.14708020058, 69455.87777565453, -113820.62599904848, 58233.6927334896, -110068.99745094747, 0.016, 0.9540000000000001, -0.054, 192.0, 0.0, 0.0, 0.0, 0.0, 0.0, 0.0, 0.0, 0.0, 0.0, 1.6664045842300107E9, 0.0, 2022-10-21 19:09:44.230
113.0, -132276.6178580067, -158405.60596056056, -32635.46915477147, -140573.98773121688, 69459.02937162273, -113790.76406845619, 58252.4011435987, -110070.29385212588, 0.016, 0.9540000000000001, -0.054, 192.0, 0.0, 0.0, 0.0, 0.0, 0.0, 0.0, 0.0, 0.0, 0.0, 1.6664045842300267E9, 0.0, 2022-10-21 19:09:44.230
114.0, -132275.20969810602, -158400.1968384024, -32632.36226229218, -140577.56401032975, 69455.43074076543, -113782.38216428545, 58260.73834428053, -110065.93526195709, 0.016, 0.962, -0.054, 192.0, 0.0, 128.0, 30.0, 16.0, 254.0, 80.0, 0.0, 0.0, 0.0, 1.6664045842300413E9, 0.0, 2022-10-21 19:09:44.230
115.0, -132272.7286544715, -158398.1851814014, -32624.628558710643, -140582.95078074347, 69459.3422960451, -113805.51621979669, 58246.030896428936, -110063.83419797829, 0.016, 0.962, -0.054, 192.0, 0.0, 0.0, 0.0, 0.0, 0.0, 0.0, 0.0, 0.0, 0.0, 1.666404584230056E9, 0.0, 2022-10-21 19:09:44.230
116.0, -132272.0133986489, -158399.86156223554, -32623.510971487878, -140584.85067902217, 69456.77184543274, -113816.40151934643, 58235.5479282794, -110064.48239856749, 0.016, 0.962, -0.054, 192.0, 0.0, 0.0, 0.0, 0.0, 0.0, 0.0, 0.0, 0.0, 0.0, 1.66640458423007E9, 0.0, 2022-10-21 19:09:44.230
117.0, -132277.10959638472, -158405.80712626065, -32628.4507070125, -140572.24429514937, 69461.4433600239, -113794.2062371023, 58249.450713330596, -110072.10434342675, 0.016, 0.962, -0.054, 192.0, 0.0, 0.0, 0.0, 0.0, 0.0, 0.0, 0.0, 0.0, 0.0, 1.6664045842300847E9, 0.0, 2022-10-21 19:09:44.230
118.0, -132282.474015054, -158409.5398675847, -32626.371994778157, -140567.90805672505, 69461.97980189083, -113764.38900999892, 58269.27671066245, -110071.59025330428, 0.016, 0.962, -0.054, 192.0, 0.0, 0.0, 0.0, 0.0, 0.0, 0.0, 0.0, 0.0, 0.0, 1.666404584230099E9, 0.0, 2022-10-21 19:09:44.230
119.0, -132273.55566901632, -158400.66622503594, -32620.605244708688, -140570.14323117057, 69466.40544729299, -113781.68926020733, 58261.02891695844, -110062.64955552216, 0.016, 0.962, -0.054, 192.0, 0.0, 0.0, 0.0, 0.0, 0.0, 0.0, 0.0, 0.0, 0.0, 1.6664045842301257E9, 0.0, 2022-10-21 19:09:44.230
120.0, -132271.1640323596, -158399.1016029241, -32623.73448893243, -140583.8895540106, 69459.43170302293, -113801.5599610281, 58244.93566095062, -110067.09755266877, 0.016, 0.962, -0.054, 192.0, 0.0, 0.0, 0.0, 0.0, 0.0, 0.0, 0.0, 0.0, 0.0, 1.6664045842301383E9, 0.0, 2022-10-21 19:09:44.230
121.0, -132271.25343933742, -158396.8440767341, -32622.393384265113, -140577.56401032975, 69458.11295010007, -113801.35879532801, 58246.030896428936, -110063.16364564463, 0.016, 0.962, -0.054, 192.0, 0.0, 0.0, 0.0, 0.0, 0.0, 0.0, 0.0, 0.0, 0.0, 1.6664045847068567E9, 0.0, 2022-10-21 19:09:44.706
122.0, -132274.58384926128, -158401.9849779588, -32631.155268091592, -140580.64855106457, 69450.93804012991, -113783.76797244168, 58256.55856806738, -110067.81280849133, 0.016, 0.962, -0.054, 192.0, 0.0, 0.0, 0.0, 0.0, 0.0, 0.0, 0.0, 0.0, 0.0, 1.6664045847070835E9, 0.0, 2022-10-21 19:09:44.707
123.0, -132277.04254115137, -158402.85669599255, -32632.809297181288, -140593.679618082, 69452.99440061979, -113781.82337067407, 58255.48568433353, -110067.74575325797, 0.016, 0.962, -0.054, 192.0, 0.0, 0.0, 0.0, 0.0, 0.0, 0.0, 0.0, 0.0, 0.0, 1.6664045847072203E9, 0.0, 2022-10-21 19:09:44.707
124.0, -132270.15820385912, -158396.37469010052, -32624.852076155195, -140597.76998731733, 69455.81072042117, -113806.00795817471, 58238.90068994769, -110063.25305262246, 0.018000000000000002, 0.966, -0.056, 192.0, 0.0, 144.0, 30.0, 48.0, 254.0, 64.0, 0.0, 0.0, 0.0, 1.6664045847072473E9, 0.0, 2022-10-21 19:09:44.707
125.0, -132264.34675030076, -158393.60307378808, -32627.869561656662, -140596.87591753912, 69446.15476681647, -113813.27227512268, 58235.592631768304, -110068.39395384717, 0.018000000000000002, 0.966, -0.056, 192.0, 0.0, 0.0, 0.0, 0.0, 0.0, 0.0, 0.0, 0.0, 0.0, 1.6664045847072697E9, 0.0, 2022-10-21 19:09:44.707
126.0, -132254.62374146268, -158380.2367306038, -32623.086288343227, -140586.14708020058, 69450.40159826298, -113794.31799582459, 58254.77042851096, -110062.40368633316, 0.018000000000000002, 0.966, -0.056, 192.0, 0.0, 0.0, 0.0, 0.0, 0.0, 0.0, 0.0, 0.0, 0.0, 1.6664045847072897E9, 0.0, 2022-10-21 19:09:44.707
127.0, -132246.04067159185, -158377.44276254688, -32617.319538273758, -140582.10141445417, 69460.68340071243, -113779.83406541754, 58269.58963508483, -110057.95568918655, 0.018000000000000002, 0.966, -0.056, 192.0, 0.0, 0.0, 0.0, 0.0, 0.0, 0.0, 0.0, 0.0, 0.0, 1.666404584707309E9, 0.0, 2022-10-21 19:09:44.707
128.0, -132234.82009587527, -158368.2338438313, -32610.323442259247, -140591.15387095857, 69464.05851412518, -113793.1557051129, 58259.88897799123, -110058.40272407565, 0.018000000000000002, 0.966, -0.056, 192.0, 0.0, 0.0, 0.0, 0.0, 0.0, 0.0, 0.0, 0.0, 0.0, 1.666404584707328E9, 0.0, 2022-10-21 19:09:44.707
129.0, -132218.48097067844, -158355.87332914752, -32611.955119604485, -140589.5892488467, 69459.29759255619, -113800.48707729425, 58256.33505062283, -110059.43090432059, 0.018000000000000002, 0.966, -0.056, 192.0, 0.0, 0.0, 0.0, 0.0, 0.0, 0.0, 0.0, 0.0, 0.0, 1.666404584707347E9, 0.0, 2022-10-21 19:09:44.707
130.0, -132212.17777874204, -158349.97246861132, -32616.760744662377, -140578.0781004522, 69457.55415648868, -113792.08282137905, 58266.77331528346, -110055.76521822992, 0.018000000000000002, 0.966, -0.056, 192.0, 0.0, 0.0, 0.0, 0.0, 0.0, 0.0, 0.0, 0.0, 0.0, 1.6664045847073655E9, 0.0, 2022-10-21 19:09:44.707
131.0, -132212.62481363118, -158351.20181455635, -32617.878331885142, -140582.50374585437, 69452.18973781941, -113777.59889097202, 58272.18243744165, -110062.26957586642, 0.018000000000000002, 0.966, -0.056, 192.0, 0.0, 0.0, 0.0, 0.0, 0.0, 0.0, 0.0, 0.0, 0.0, 1.6664045847073853E9, 0.0, 2022-10-21 19:09:44.707
132.0, -132209.42851417407, -158344.76451215323, -32612.044526582307, -140588.80693779077, 69453.79906342019, -113803.07987965106, 58254.5022075775, -110062.73896249998, 0.018000000000000002, 0.966, -0.056, 192.0, 0.0, 0.0, 0.0, 0.0, 0.0, 0.0, 0.0, 0.0, 0.0, 1.6664045847074006E9, 0.0, 2022-10-21 19:09:44.707
133.0, -132200.5101681364, -158328.09011078955, -32615.12906731714, -140586.7729290453, 69456.77184543274, -113811.50648731072, 58245.941489451114, -110065.04119217888, 0.018000000000000002, 0.966, -0.056, 192.0, 0.0, 0.0, 0.0, 0.0, 0.0, 0.0, 0.0, 0.0, 0.0, 1.6664045847074146E9, 0.0, 2022-10-21 19:09:44.707
134.0, -132190.6530488316, -158309.2699419582, -32612.335099260225, -140573.49599283887, 69458.6940954559, -113794.8097342026, 58255.105704677786, -110066.6281660352, 0.016, 0.966, -0.06, 192.0, 0.0, 128.0, 30.0, 48.0, 254.0, 32.0, 0.0, 0.0, 0.0, 1.6664045847075064E9, 0.0, 2022-10-21 19:09:44.707
135.0, -132186.38386564064, -158300.5527616206, -32618.817105152266, -140572.4678125939, 69453.93317388692, -113779.52114099517, 58263.86758850427, -110071.14321841518, 0.016, 0.966, -0.06, 192.0, 0.0, 0.0, 0.0, 0.0, 0.0, 0.0, 0.0, 0.0, 0.0, 1.6664045847075217E9, 0.0, 2022-10-21 19:09:44.707
136.0, -132178.40429287008, -158297.08824123006, -32619.733526674932, -140588.85164127967, 69452.07797909713, -113795.12265862497, 58252.4011435987, -110076.64174755118, 0.016, 0.966, -0.06, 192.0, 0.0, 0.0, 0.0, 0.0, 0.0, 0.0, 0.0, 0.0, 0.0, 1.666404584707536E9, 0.0, 2022-10-21 19:09:44.707
137.0, -132167.96602820946, -158292.41672663888, -32618.615939452167, -140596.76415881683, 69451.56388897466, -113822.39178686045, 58232.50809103347, -110076.23941615099, 0.016, 0.966, -0.06, 192.0, 0.0, 0.0, 0.0, 0.0, 0.0, 0.0, 0.0, 0.0, 0.0, 1.6664045847075498E9, 0.0, 2022-10-21 19:09:44.707
138.0, -132157.3936530821, -158275.87643574196, -32615.30788127278, -140582.39198713208, 69457.26358381077, -113806.92437969738, 58246.45557957359, -110067.94691895807, 0.016, 0.966, -0.06, 192.0, 0.0, 0.0, 0.0, 0.0, 0.0, 0.0, 0.0, 0.0, 0.0, 1.6664045847075636E9, 0.0, 2022-10-21 19:09:44.707
139.0, -132145.16724886504, -158256.31865934358, -32615.285529528326, -140577.921638241, 69456.77184543274, -113806.63380701946, 58248.266070874466, -110073.1772271606, 0.016, 0.966, -0.06, 192.0, 0.0, 0.0, 0.0, 0.0, 0.0, 0.0, 0.0, 0.0, 0.0, 1.6664045847075782E9, 0.0, 2022-10-21 19:09:44.707
140.0, -132128.06816435675, -158241.27593532516, -32608.714116658466, -140573.1830684165, 69468.41710429396, -113816.37916760198, 58246.54498655141, -110065.17530264561, 0.016, 0.966, -0.06, 192.0, 0.0, 0.0, 0.0, 0.0, 0.0, 0.0, 0.0, 0.0, 0.0, 1.6664045847075922E9, 0.0, 2022-10-21 19:09:44.707
141.0, -132125.52006548885, -158234.45865326628, -32616.045488839805, -140573.76421377235, 69467.63479323803, -113815.4627460793, 58241.962878938066, -110067.41047709114, 0.016, 0.966, -0.06, 192.0, 0.0, 0.0, 0.0, 0.0, 0.0, 0.0, 0.0, 0.0, 0.0, 1.666404584707606E9, 0.0, 2022-10-21 19:09:44.707
142.0, -132118.30045202977, -158229.18364157484, -32618.772401663355, -140568.91388522554, 69464.1926245919, -113795.88261793646, 58254.01046919948, -110069.55624455884, 0.016, 0.966, -0.06, 192.0, 0.0, 0.0, 0.0, 0.0, 0.0, 0.0, 0.0, 0.0, 0.0, 1.6664045847076204E9, 0.0, 2022-10-21 19:09:44.707
143.0, -132106.09639955717, -158211.21283903276, -32610.368145748158, -140562.40952758904, 69468.05947638268, -113782.11394335199, 58268.449696117605, -110066.89638696867, 0.014, 0.964, -0.058, 192.0, 0.0, 112.0, 30.0, 32.0, 254.0, 48.0, 0.0, 0.0, 0.0, 1.6664045847076347E9, 0.0, 2022-10-21 19:09:44.707
144.0, -132086.1362917586, -158188.97285329973, -32606.814218379764, -140570.94789397097, 69468.26064208278, -113789.13239111095, 58263.19703617061, -110064.46004682303, 0.014, 0.964, -0.058, 192.0, 0.0, 0.0, 0.0, 0.0, 0.0, 0.0, 0.0, 0.0, 0.0, 1.6664045847076497E9, 0.0, 2022-10-21 19:09:44.707
145.0, -132070.8253468067, -158173.75131532567, -32607.238901524415, -140583.01783597682, 69469.2441188388, -113805.49386805223, 58252.468198832066, -110066.6281660352, 0.014, 0.964, -0.058, 192.0, 0.0, 0.0, 0.0, 0.0, 0.0, 0.0, 0.0, 0.0, 0.0, 1.6664045847076638E9, 0.0, 2022-10-21 19:09:44.707
146.0, -132062.75636705832, -158168.00691700066, -32607.574177691244, -140575.55235332876, 69471.9933834068, -113791.43462078985, 58261.677117547646, -110069.60094804775, 0.014, 0.964, -0.058, 192.0, 0.0, 0.0, 0.0, 0.0, 0.0, 0.0, 0.0, 0.0, 0.0, 1.6664045847076776E9, 0.0, 2022-10-21 19:09:44.707
147.0, -132041.34339587015, -158149.96905922523, -32602.098000299695, -140571.86431549364, 69470.71933397285, -113777.57653922756, 58274.596425842814, -110064.25888112294, 0.014, 0.964, -0.058, 192.0, 0.0, 0.0, 0.0, 0.0, 0.0, 0.0, 0.0, 0.0, 0.0, 1.6664045847076912E9, 0.0, 2022-10-21 19:09:44.707
148.0, -132025.3618985846, -158129.7854339821, -32597.27002349735, -140575.418242862, 69471.07696188414, -113792.03811789014, 58271.176608941154, -110062.71661075552, 0.014, 0.964, -0.058, 192.0, 0.0, 0.0, 0.0, 0.0, 0.0, 0.0, 0.0, 0.0, 0.0, 1.6664045847077053E9, 0.0, 2022-10-21 19:09:44.707
149.0, -132007.7040204649, -158108.43951802727, -32592.59850890619, -140574.90415273956, 69475.61436600857, -113811.41708033289, 58259.82192275786, -110062.44838982206, 0.014, 0.964, -0.058, 192.0, 0.0, 0.0, 0.0, 0.0, 0.0, 0.0, 0.0, 0.0, 0.0, 1.6664045847077353E9, 0.0, 2022-10-21 19:09:44.707
150.0, -131985.66520043198, -158083.24910202614, -32585.91533731405, -140566.41048984654, 69476.46373229787, -113808.95838844281, 58262.97351872606, -110063.27540436691, 0.014, 0.964, -0.058, 192.0, 0.0, 0.0, 0.0, 0.0, 0.0, 0.0, 0.0, 0.0, 0.0, 1.666404584707749E9, 0.0, 2022-10-21 19:09:44.707
151.0, -131966.46505194486, -158063.19958724972, -32588.26227048186, -140563.46005957844, 69466.40544729299, -113798.72128948227, 58269.96961474057, -110072.55137831585, 0.014, 0.964, -0.058, 192.0, 0.0, 0.0, 0.0, 0.0, 0.0, 0.0, 0.0, 0.0, 0.0, 1.6664045847077625E9, 0.0, 2022-10-21 19:09:44.707
152.0, -131942.05694699968, -158040.66902883878, -32581.176767489527, -140566.38813810208, 69470.31700257266, -113810.05362392112, 58264.71695479357, -110069.24332013648, 0.014, 0.964, -0.058, 192.0, 0.0, 0.0, 0.0, 0.0, 0.0, 0.0, 0.0, 0.0, 0.0, 1.6664045847077763E9, 0.0, 2022-10-21 19:09:44.707
153.0, -131917.04534495418, -158017.26675239406, -32575.365313931146, -140565.80699274625, 69479.7494387328, -113820.62599904848, 58257.765562267974, -110058.33566884228, 0.016, 0.96, -0.056, 192.0, 0.0, 128.0, 30.0, 0.0, 254.0, 64.0, 0.0, 0.0, 0.0, 1.6664045847077901E9, 0.0, 2022-10-21 19:09:44.707
154.0, -131895.11828364353, -157991.60694975936, -32573.890098797096, -140560.08494616568, 69484.48800855732, -113816.33446411305, 58261.96769022557, -110052.3230495838, 0.016, 0.96, -0.056, 192.0, 0.0, 0.0, 0.0, 0.0, 0.0, 0.0, 0.0, 0.0, 0.0, 1.666404584707805E9, 0.0, 2022-10-21 19:09:44.707
155.0, -131870.0843298536, -157965.52246398, -32567.743369071886, -140542.40471630153, 69489.42774408194, -113784.93026315335, 58287.1581062267, -110048.7244187265, 0.016, 0.96, -0.056, 192.0, 0.0, 0.0, 0.0, 0.0, 0.0, 0.0, 0.0, 0.0, 0.0, 1.6664045847078185E9, 0.0, 2022-10-21 19:09:44.707
156.0, -131858.84140239257, -157953.8325016299, -32565.39643590408, -140552.61946351762, 69484.82328472416, -113777.24126306073, 58293.03661501844, -110055.04996240736, 0.016, 0.96, -0.056, 192.0, 0.0, 0.0, 0.0, 0.0, 0.0, 0.0, 0.0, 0.0, 0.0, 1.6664045847078345E9, 0.0, 2022-10-21 19:09:44.707
157.0, -131845.63152141948, -157940.26499274553, -32566.424616149023, -140566.90222822456, 69481.02348816676, -113797.29077783714, 58274.52937060945, -110057.84393046427, 0.016, 0.96, -0.056, 192.0, 0.0, 0.0, 0.0, 0.0, 0.0, 0.0, 0.0, 0.0, 0.0, 1.666404584707848E9, 0.0, 2022-10-21 19:09:44.707
158.0, -131824.53147465366, -157918.09206224585, -32563.831813792207, -140557.13451589757, 69487.41608708097, -113803.83983896255, 58270.684870563135, -110048.56795651531, 0.016, 0.96, -0.056, 192.0, 0.0, 0.0, 0.0, 0.0, 0.0, 0.0, 0.0, 0.0, 0.0, 1.6664045847078617E9, 0.0, 2022-10-21 19:09:44.707
159.0, -131811.92509078086, -157904.94923650613, -32566.894002782585, -140554.20643737394, 69479.28005209925, -113801.69407149483, 58274.37290839826, -110055.98873567447, 0.016, 0.96, -0.056, 192.0, 0.0, 0.0, 0.0, 0.0, 0.0, 0.0, 0.0, 0.0, 0.0, 1.6664045847078753E9, 0.0, 2022-10-21 19:09:44.707
160.0, -131800.101017964, -157893.08046020038, -32563.697703325477, -140553.37942282908, 69478.8553689546, -113787.18778934334, 58286.554609126404, -110061.57667178831, 0.016, 0.96, -0.056, 192.0, 0.0, 0.0, 0.0, 0.0, 0.0, 0.0, 0.0, 0.0, 0.0, 1.666404584707889E9, 0.0, 2022-10-21 19:09:44.707
161.0, -131783.2030991558, -157876.49546581454, -32554.935819498998, -140555.97222518592, 69485.51618880227, -113798.4083650599, 58277.92683576666, -110054.02178216241, 0.016, 0.96, -0.056, 192.0, 0.0, 0.0, 0.0, 0.0, 0.0, 0.0, 0.0, 0.0, 0.0, 1.666404584707903E9, 0.0, 2022-10-21 19:09:44.707
162.0, -131767.8027472261, -157862.79384646344, -32552.81240377574, -140550.78662047227, 69490.76884874927, -113805.67268200788, 58270.79662928542, -110050.28904083837, 0.016, 0.96, -0.056, 192.0, 0.0, 0.0, 0.0, 0.0, 0.0, 0.0, 0.0, 0.0, 0.0, 1.6664045847079167E9, 0.0, 2022-10-21 19:09:44.707
163.0, -131762.37127332346, -157857.27296558296, -32560.72492131292, -140543.16467561302, 69484.91269170197, -113784.43852477534, 58282.799516057916, -110061.30845085483, 0.018000000000000002, 0.9580000000000001, -0.056, 192.0, 0.0, 144.0, 29.0, 240.0, 254.0, 64.0, 0.0, 0.0, 0.0, 1.6664045847079303E9, 0.0, 2022-10-21 19:09:44.707
164.0, -131752.8494301855, -157847.4605497671, -32557.796842789277, -140536.95089065444, 69486.90199695849, -113766.75829491118, 58297.95399879861, -110057.3298403418, 0.018000000000000002, 0.9580000000000001, -0.056, 192.0, 0.0, 0.0, 0.0, 0.0, 0.0, 0.0, 0.0, 0.0, 0.0, 1.666404584707958E9, 0.0, 2022-10-21 19:09:44.707
165.0, -131742.0535376136, -157838.11752058478, -32555.025226476817, -140543.99169015785, 69489.71831675987, -113787.0536788766, 58283.47006839157, -110056.63693626368, 0.018000000000000002, 0.9580000000000001, -0.056, 192.0, 0.0, 0.0, 0.0, 0.0, 0.0, 0.0, 0.0, 0.0, 0.0, 1.6664045847079718E9, 0.0, 2022-10-21 19:09:44.707
166.0, -131734.52099973214, -157834.0942065828, -32555.516964854836, -140543.38819305756, 69493.98749995083, -113806.70086225282, 58267.51092285049, -110054.08883739577, 0.018000000000000002, 0.9580000000000001, -0.056, 192.0, 0.0, 0.0, 0.0, 0.0, 0.0, 0.0, 0.0, 0.0, 0.0, 1.6664045847079856E9, 0.0, 2022-10-21 19:09:44.707
167.0, -131728.93306361831, -157827.8580698798, -32548.476165351414, -140530.7818091848, 69496.22267439635, -113786.49488526523, 58283.02303350247, -110051.85366295025, 0.018000000000000002, 0.9580000000000001, -0.056, 192.0, 0.0, 0.0, 0.0, 0.0, 0.0, 0.0, 0.0, 0.0, 0.0, 1.6664045847079992E9, 0.0, 2022-10-21 19:09:44.707
168.0, -131729.82713339652, -157829.91443036968, -32551.53835434179, -140532.2793760633, 69490.36651734907, -113772.9050246364, 58292.29900745142, -110045.99750590295, 0.018000000000000002, 0.9580000000000001, -0.056, 192.0, 0.0, 0.0, 0.0, 0.0, 0.0, 0.0, 0.0, 0.0, 0.0, 1.6664045847080128E9, 0.0, 2022-10-21 19:09:44.708
169.0, -131719.344165247, -157819.07383430886, -32553.192383431484, -140541.8235709457, 69490.65709002699, -113782.94095789683, 58283.22419920257, -110041.19188084506, 0.018000000000000002, 0.9580000000000001, -0.056, 192.0, 0.0, 0.0, 0.0, 0.0, 0.0, 0.0, 0.0, 0.0, 0.0, 1.6664045847080264E9, 0.0, 2022-10-21 19:09:44.708
170.0, -131708.2353482527, -157810.0437295489, -32548.76673802933, -140545.01987040282, 69491.48410457183, -113803.28104535116, 58264.06875420437, -110044.16466285761, 0.018000000000000002, 0.9580000000000001, -0.056, 192.0, 0.0, 0.0, 0.0, 0.0, 0.0, 0.0, 0.0, 0.0, 0.0, 1.66640458470804E9, 0.0, 2022-10-21 19:09:44.708
171.0, -131709.9787843202, -157813.01651156147, -32550.554877585757, -140536.86148367662, 69489.96418594888, -113799.48124879376, 58266.48274260554, -110047.15979661464, 0.018000000000000002, 0.9580000000000001, -0.056, 192.0, 0.0, 0.0, 0.0, 0.0, 0.0, 0.0, 0.0, 0.0, 0.0, 1.6664045847080534E9, 0.0, 2022-10-21 19:09:44.708
172.0, -131712.21395876576, -157817.86684010827, -32553.572363087223, -140534.2686813198, 69485.98557543583, -113778.98469912824, 58282.03955674644, -110047.38331405919, 0.016, 0.96, -0.056, 192.0, 0.0, 128.0, 30.0, 0.0, 254.0, 64.0, 0.0, 0.0, 0.0, 1.666404584708067E9, 0.0, 2022-10-21 19:09:44.708
173.0, -131717.95835709077, -157819.40911047568, -32555.71813055493, -140547.29974833725, 69478.63185151003, -113763.83021638755, 58290.19794347262, -110050.49020653847, 0.016, 0.96, -0.056, 192.0, 0.0, 0.0, 0.0, 0.0, 0.0, 0.0, 0.0, 0.0, 0.0, 1.6664045847080812E9, 0.0, 2022-10-21 19:09:44.708
174.0, -131716.37138323442, -157816.5480871854, -32554.66759856553, -140558.25210312035, 69474.0944473856, -113791.6581382344, 58267.71208855058, -110053.39593331766, 0.016, 0.96, -0.056, 192.0, 0.0, 0.0, 0.0, 0.0, 0.0, 0.0, 0.0, 0.0, 0.0, 1.666404584708095E9, 0.0, 2022-10-21 19:09:44.708
175.0, -131715.1867407783, -157816.83865986334, -32553.550011342766, -140551.68069025048, 69477.4472090539, -113807.43846981984, 58261.00656521399, -110050.28904083837, 0.016, 0.96, -0.056, 192.0, 0.0, 0.0, 0.0, 0.0, 0.0, 0.0, 0.0, 0.0, 0.0, 1.666404584708109E9, 0.0, 2022-10-21 19:09:44.708
176.0, -131725.6473571834, -157828.9533053581, -32555.896944510576, -140541.64475699005, 69475.9049386865, -113787.76893469918, 58278.463277633586, -110048.94793617105, 0.016, 0.96, -0.056, 192.0, 0.0, 0.0, 0.0, 0.0, 0.0, 0.0, 0.0, 0.0, 0.0, 1.6664045847081225E9, 0.0, 2022-10-21 19:09:44.708
177.0, -131723.92627286032, -157828.1039390688, -32556.813366033242, -140545.35514656964, 69473.0439153962, -113772.07801009156, 58288.163934727185, -110053.03830540637, 0.016, 0.96, -0.056, 192.0, 0.0, 0.0, 0.0, 0.0, 0.0, 0.0, 0.0, 0.0, 0.0, 1.6664045847081375E9, 0.0, 2022-10-21 19:09:44.708
178.0, -131716.61725242346, -157823.36536924427, -32555.11463345464, -140558.22975137588, 69472.7980462072, -113796.88844643695, 58268.78497228444, -110054.26765135142, 0.016, 0.96, -0.056, 192.0, 0.0, 0.0, 0.0, 0.0, 0.0, 0.0, 0.0, 0.0, 0.0, 1.6664045847081673E9, 0.0, 2022-10-21 19:09:44.708
179.0, -131710.40346746487, -157817.01747381897, -32542.59765655967, -140542.6282337461, 69489.09246791512, -113804.2645221072, 58268.38264088424, -110048.97028791551, 0.016, 0.96, -0.056, 192.0, 0.0, 0.0, 0.0, 0.0, 0.0, 0.0, 0.0, 0.0, 0.0, 1.6664045847081833E9, 0.0, 2022-10-21 19:09:44.708
180.0, -131710.24700525368, -157817.93389534164, -32540.16131641404, -140533.4193150305, 69490.43357258243, -113787.2101410878, 58281.14548696822, -110051.38427631669, 0.016, 0.96, -0.056, 192.0, 0.0, 0.0, 0.0, 0.0, 0.0, 0.0, 0.0, 0.0, 0.0, 1.6664045847081969E9, 0.0, 2022-10-21 19:09:44.708
181.0, -131710.3811157204, -157819.16324128667, -32540.362482114135, -140540.41541104502, 69486.45496206939, -113777.46478050528, 58288.27569344947, -110044.18701460208, 0.016, 0.96, -0.056, 192.0, 0.0, 0.0, 0.0, 0.0, 0.0, 0.0, 0.0, 0.0, 0.0, 1.6664045847082381E9, 0.0, 2022-10-21 19:09:44.708
182.0, -131708.21299650826, -157818.67150290866, -32544.229333904903, -140555.77105948582, 69482.49870330081, -113792.03811789014, 58275.46814387658, -110044.723456469, 0.018000000000000002, 0.962, -0.054, 192.0, 0.0, 144.0, 30.0, 16.0, 254.0, 80.0, 0.0, 0.0, 0.0, 1.666404584708252E9, 0.0, 2022-10-21 19:09:44.708
183.0, -131704.8825865844, -157815.27403775146, -32545.72690078341, -140561.09077466617, 69475.23438635282, -113814.34515885654, 58260.47012334706, -110056.10049439676, 0.018000000000000002, 0.962, -0.054, 192.0, 0.0, 0.0, 0.0, 0.0, 0.0, 0.0, 0.0, 0.0, 0.0, 1.6664045847082665E9, 0.0, 2022-10-21 19:09:44.708
184.0, -131702.04391503858, -157811.96597957207, -32538.641397791078, -140545.31044308073, 69477.69307824291, -113804.55509478512, 58274.77523979846, -110054.3794100737, 0.018000000000000002, 0.962, -0.054, 192.0, 0.0, 0.0, 0.0, 0.0, 0.0, 0.0, 0.0, 0.0, 0.0, 1.6664045847082815E9, 0.0, 2022-10-21 19:09:44.708
185.0, -131702.55800516106, -157813.8435261063, -32537.121479168116, -140542.09179187915, 69480.44234281091, -113805.18094362986, 58277.278635177456, -110055.45229380755, 0.018000000000000002, 0.962, -0.054, 192.0, 0.0, 0.0, 0.0, 0.0, 0.0, 0.0, 0.0, 0.0, 0.0, 1.666404584708295E9, 0.0, 2022-10-21 19:09:44.708
186.0, -131704.50260692867, -157816.01164531847, -32540.92127572552, -140548.99848091585, 69483.37042133456, -113815.99918794623, 58265.163989682675, -110057.44159906407, 0.018000000000000002, 0.962, -0.054, 192.0, 0.0, 0.0, 0.0, 0.0, 0.0, 0.0, 0.0, 0.0, 0.0, 1.6664045847083087E9, 0.0, 2022-10-21 19:09:44.708
187.0, -131707.56479591905, -157820.21377327607, -32544.743424027376, -140548.1267628821, 69485.38207833553, -113818.50258332523, 58260.64893730271, -110057.93333744208, 0.018000000000000002, 0.962, -0.054, 192.0, 0.0, 0.0, 0.0, 0.0, 0.0, 0.0, 0.0, 0.0, 0.0, 1.6664045847083223E9, 0.0, 2022-10-21 19:09:44.708
188.0, -131710.96226107626, -157824.3488460003, -32547.87266825112, -140535.1851028425, 69483.43747656792, -113812.82524023358, 58268.22617867305, -110051.98777341697, 0.018000000000000002, 0.962, -0.054, 192.0, 0.0, 0.0, 0.0, 0.0, 0.0, 0.0, 0.0, 0.0, 0.0, 1.666404584708336E9, 0.0, 2022-10-21 19:09:44.708
189.0, -131718.91948210236, -157830.33911351432, -32557.685084066998, -140551.32306233922, 69470.2946508282, -113802.02934766166, 58279.11147822279, -110057.68746825308, 0.018000000000000002, 0.962, -0.054, 192.0, 0.0, 0.0, 0.0, 0.0, 0.0, 0.0, 0.0, 0.0, 0.0, 1.6664045847083497E9, 0.0, 2022-10-21 19:09:44.708
190.0, -131702.62506039444, -157814.80465111788, -32545.43632810549, -140552.19478037296, 69481.24700561131, -113810.59006578804, 58279.93849276764, -110049.41732280461, 0.018000000000000002, 0.962, -0.054, 192.0, 0.0, 0.0, 0.0, 0.0, 0.0, 0.0, 0.0, 0.0, 0.0, 1.6664045847083633E9, 0.0, 2022-10-21 19:09:44.708
191.0, -131696.41127543585, -157811.07190979386, -32538.417880346526, -140551.16660012802, 69481.98461317833, -113816.78149900217, 58272.160085697185, -110042.04124713436, 0.018000000000000002, 0.962, -0.054, 192.0, 0.0, 0.0, 0.0, 0.0, 0.0, 0.0, 0.0, 0.0, 0.0, 1.666404584708377E9, 0.0, 2022-10-21 19:09:44.708
192.0, -131691.82916782252, -157808.7473283705, -32535.847429734164, -140547.90324543754, 69479.7047352439, -113814.72513851228, 58271.266015918976, -110048.7244187265, 0.018000000000000002, 0.9580000000000001, -0.056, 192.0, 0.0, 144.0, 29.0, 240.0, 254.0, 64.0, 0.0, 0.0, 0.0, 1.6664045847083905E9, 0.0, 2022-10-21 19:09:44.708
193.0, -131696.14305450238, -157814.8940580957, -32541.39066235908, -140542.8293994462, 69472.73099097384, -113808.19842913133, 58278.172704955665, -110061.9790031885, 0.018000000000000002, 0.9580000000000001, -0.056, 192.0, 0.0, 0.0, 0.0, 0.0, 0.0, 0.0, 0.0, 0.0, 0.0, 1.666404584708418E9, 0.0, 2022-10-21 19:09:44.708
194.0, -131696.18775799128, -157814.35761622878, -32544.028168204808, -140546.56214077023, 69468.68532522743, -113806.05266166362, 58280.58669335684, -110065.04119217888, 0.018000000000000002, 0.9580000000000001, -0.056, 192.0, 0.0, 0.0, 0.0, 0.0, 0.0, 0.0, 0.0, 0.0, 0.0, 1.6664045847084315E9, 0.0, 2022-10-21 19:09:44.708
195.0, -131691.80681607805, -157806.6462643917, -32537.032072190297, -140556.30750135274, 69464.01381063626, -113827.33152238507, 58263.688774548624, -110063.83419797829, 0.018000000000000002, 0.9580000000000001, -0.056, 192.0, 0.0, 0.0, 0.0, 0.0, 0.0, 0.0, 0.0, 0.0, 0.0, 1.6664045847084453E9, 0.0, 2022-10-21 19:09:44.708
196.0, -131685.57067937503, -157800.83481083333, -32531.220618631916, -140543.9246349245, 69472.9992119073, -113825.1634031729, 58264.49343734902, -110059.18503513158, 0.018000000000000002, 0.9580000000000001, -0.056, 192.0, 0.0, 0.0, 0.0, 0.0, 0.0, 0.0, 0.0, 0.0, 0.0, 1.6664045847084587E9, 0.0, 2022-10-21 19:09:44.708
197.0, -131694.5337289016, -157809.12730802625, -32542.620008304122, -140548.08205939317, 69465.53372925923, -113806.83497271956, 58274.84229503183, -110065.42117183462, 0.018000000000000002, 0.9580000000000001, -0.056, 192.0, 0.0, 0.0, 0.0, 0.0, 0.0, 0.0, 0.0, 0.0, 0.0, 1.6664045847084723E9, 0.0, 2022-10-21 19:09:44.708
198.0, -131700.21107199325, -157810.66957839366, -32546.5315635838, -140559.54850429876, 69462.58329899113, -113802.05169940612, 58277.16687645518, -110070.33855561478, 0.018000000000000002, 0.9580000000000001, -0.056, 192.0, 0.0, 0.0, 0.0, 0.0, 0.0, 0.0, 0.0, 0.0, 0.0, 1.6664045847084873E9, 0.0, 2022-10-21 19:09:44.708
199.0, -131690.04102826607, -157804.76871785746, -32536.741499512376, -140561.96249269994, 69470.56287176166, -113827.2644671517, 58265.655728060694, -110055.11701764072, 0.018000000000000002, 0.9580000000000001, -0.056, 192.0, 0.0, 0.0, 0.0, 0.0, 0.0, 0.0, 0.0, 0.0, 0.0, 1.6664045847085006E9, 0.0, 2022-10-21 19:09:44.708
200.0, -131694.26550796814, -157811.16131677167, -32541.14479317007, -140559.92848395449, 69468.1488833605, -113832.11479569851, 58262.97351872606, -110063.25305262246, 0.018000000000000002, 0.9580000000000001, -0.056, 192.0, 0.0, 0.0, 0.0, 0.0, 0.0, 0.0, 0.0, 0.0, 0.0, 1.6664045847085142E9, 0.0, 2022-10-21 19:09:44.708
201.0, -131699.51816791514, -157816.63749416324, -32541.927104226008, -140551.09954489465, 69468.70767697188, -113811.95352219982, 58281.92779802416, -110062.24722412197, 0.018000000000000002, 0.9580000000000001, -0.056, 192.0, 0.0, 0.0, 0.0, 0.0, 0.0, 0.0, 0.0, 0.0, 0.0, 1.6664045847085276E9, 0.0, 2022-10-21 19:09:44.708
202.0, -131698.9817260482, -157816.92806684115, -32540.049557691764, -140545.19868435845, 69475.39084856401, -113788.52889401065, 58300.77031859998, -110060.81671247682, 0.02, 0.962, -0.048, 192.0, 0.0, 160.0, 30.0, 16.0, 254.0, 128.0, 0.0, 0.0, 0.0, 1.6664045847085412E9, 0.0, 2022-10-21 19:09:44.708
203.0, -131696.65714462486, -157809.48493593754, -32540.049557691764, -140552.84298096216, 69475.23438635282, -113799.95063542732, 58290.39910917272, -110058.53683454238, 0.02, 0.962, -0.048, 192.0, 0.0, 0.0, 0.0, 0.0, 0.0, 0.0, 0.0, 0.0, 0.0, 1.6664045847085557E9, 0.0, 2022-10-21 19:09:44.708
204.0, -131696.90301381386, -157808.72497662605, -32536.562685556735, -140550.18312337197, 69476.7990084647, -113812.44526057784, 58283.58182711385, -110049.86435769372, 0.02, 0.962, -0.048, 192.0, 0.0, 0.0, 0.0, 0.0, 0.0, 0.0, 0.0, 0.0, 0.0, 1.6664045847085695E9, 0.0, 2022-10-21 19:09:44.708
205.0, -131697.2829934696, -157809.44023244863, -32539.379005358103, -140543.34348956865, 69473.78152296324, -113808.44429832033, 58292.32135919588, -110041.8177296898, 0.02, 0.962, -0.048, 192.0, 0.0, 0.0, 0.0, 0.0, 0.0, 0.0, 0.0, 0.0, 0.0, 1.666404584708583E9, 0.0, 2022-10-21 19:09:44.708
206.0, -131696.21010973575, -157809.17201151515, -32541.614179803633, -140544.7740012138, 69473.53565377422, -113801.29174009463, 58301.798498844924, -110042.15300585664, 0.02, 0.962, -0.048, 192.0, 0.0, 0.0, 0.0, 0.0, 0.0, 0.0, 0.0, 0.0, 0.0, 1.6664045847085967E9, 0.0, 2022-10-21 19:09:44.708
207.0, -131691.09156025547, -157800.23131373303, -32533.500496566357, -140552.32889083968, 69476.77665672025, -113809.87480996548, 58299.13864125474, -110043.4717587795, 0.02, 0.962, -0.048, 192.0, 0.0, 0.0, 0.0, 0.0, 0.0, 0.0, 0.0, 0.0, 0.0, 1.6664045847086103E9, 0.0, 2022-10-21 19:09:44.708
208.0, -131689.99632477717, -157799.31489221036, -32530.61712153162, -140552.15007688405, 69476.91076718697, -113833.21003117682, 58286.9569405266, -110036.43095927608, 0.02, 0.962, -0.048, 192.0, 0.0, 0.0, 0.0, 0.0, 0.0, 0.0, 0.0, 0.0, 0.0, 1.6664045847086363E9, 0.0, 2022-10-21 19:09:44.708
209.0, -131693.97493529023, -157806.35569171378, -32536.00389194535, -140550.69721349445, 69470.31700257266, -113817.49675482474, 58296.05410051991, -110044.1199593687, 0.02, 0.962, -0.048, 192.0, 0.0, 0.0, 0.0, 0.0, 0.0, 0.0, 0.0, 0.0, 0.0, 1.66640458470865E9, 0.0, 2022-10-21 19:09:44.708
210.0, -131693.72906610122, -157805.37221495775, -32536.070947178716, -140554.58641702967, 69468.28299382723, -113810.03127217667, 58305.508888424505, -110043.13648261268, 0.02, 0.962, -0.048, 192.0, 0.0, 0.0, 0.0, 0.0, 0.0, 0.0, 0.0, 0.0, 0.0, 1.6664045847086637E9, 0.0, 2022-10-21 19:09:44.708
211.0, -131696.00894403565, -157807.02624404745, -32536.02624368981, -140557.93917869797, 69469.98172640584, -113826.72802528478, 58292.991911529534, -110048.00916290394, 0.018000000000000002, 0.96, -0.048, 192.0, 0.0, 144.0, 30.0, 0.0, 254.0, 128.0, 0.0, 0.0, 0.0, 1.6664045847086775E9, 0.0, 2022-10-21 19:09:44.708
212.0, -131700.74751386017, -157809.55199117088, -32536.227409389903, -140559.70496650995, 69471.9933834068, -113824.93988572835, 58291.22612371756, -110051.51838678341, 0.018000000000000002, 0.96, -0.048, 192.0, 0.0, 0.0, 0.0, 0.0, 0.0, 0.0, 0.0, 0.0, 0.0, 1.666404584708692E9, 0.0, 2022-10-21 19:09:44.708
213.0, -131699.42876093733, -157809.61904640426, -32535.266284378326, -140554.34054784066, 69468.08182812713, -113804.44333606283, 58308.57107741488, -110049.41732280461, 0.018000000000000002, 0.96, -0.048, 192.0, 0.0, 0.0, 0.0, 0.0, 0.0, 0.0, 0.0, 0.0, 0.0, 1.6664045847087057E9, 0.0, 2022-10-21 19:09:44.708
214.0, -131701.66393538285, -157813.62000866176, -32537.948493712964, -140560.10729791014, 69458.51528150027, -113793.87096093547, 58320.23868802055, -110051.98777341697, 0.018000000000000002, 0.96, -0.048, 192.0, 0.0, 0.0, 0.0, 0.0, 0.0, 0.0, 0.0, 0.0, 0.0, 1.666404584708719E9, 0.0, 2022-10-21 19:09:44.708
215.0, -131700.56869990454, -157813.08356679484, -32536.6297407901, -140565.35995785714, 69462.80681643568, -113807.21495237529, 58310.605086160314, -110050.9819449165, 0.018000000000000002, 0.96, -0.048, 192.0, 0.0, 0.0, 0.0, 0.0, 0.0, 0.0, 0.0, 0.0, 0.0, 1.6664045847087328E9, 0.0, 2022-10-21 19:09:44.708
216.0, -131694.48902541268, -157805.50632542447, -32522.883417950085, -140557.20157113095, 69475.21203460837, -113814.61337979, 58304.05602503491, -110041.19188084506, 0.018000000000000002, 0.96, -0.048, 192.0, 0.0, 0.0, 0.0, 0.0, 0.0, 0.0, 0.0, 0.0, 0.0, 1.6664045847087464E9, 0.0, 2022-10-21 19:09:44.708
217.0, -131690.53276664412, -157802.84646783432, -32519.932987681987, -140545.24338784735, 69479.79414222171, -113811.61824603299, 58308.63813264825, -110041.34834305625, 0.018000000000000002, 0.96, -0.048, 192.0, 0.0, 0.0, 0.0, 0.0, 0.0, 0.0, 0.0, 0.0, 0.0, 1.6664045847087605E9, 0.0, 2022-10-21 19:09:44.708
218.0, -131694.75724634615, -157807.47327893655, -32525.275054606805, -140545.10927738063, 69476.7543049758, -113803.03517616216, 58317.69058915265, -110043.53881401286, 0.018000000000000002, 0.96, -0.048, 192.0, 0.0, 0.0, 0.0, 0.0, 0.0, 0.0, 0.0, 0.0, 0.0, 1.666404584708774E9, 0.0, 2022-10-21 19:09:44.708
219.0, -131694.57843239052, -157807.16035451417, -32521.743478982866, -140540.25894883383, 69483.70569750138, -113792.99924290171, 58325.67016192319, -110034.26284006392, 0.018000000000000002, 0.96, -0.048, 192.0, 0.0, 0.0, 0.0, 0.0, 0.0, 0.0, 0.0, 0.0, 0.0, 1.6664045847087877E9, 0.0, 2022-10-21 19:09:44.708
220.0, -131691.85151956696, -157803.29350272342, -32517.071964391707, -140548.64085300456, 69481.91755794497, -113816.46857457979, 58307.475841936575, -110029.52427023939, 0.018000000000000002, 0.96, -0.048, 192.0, 0.0, 0.0, 0.0, 0.0, 0.0, 0.0, 0.0, 0.0, 0.0, 1.6664045847088027E9, 0.0, 2022-10-21 19:09:44.708
221.0, -131700.34518245998, -157811.34013072733, -32526.14677264056, -140551.61363501713, 69471.88162468454, -113817.25088563573, 58302.5584581564, -110035.49218600897, 0.014, 0.96, -0.052000000000000005, 192.0, 0.0, 112.0, 30.0, 0.0, 254.0, 96.0, 0.0, 0.0, 0.0, 1.6664045847088163E9, 0.0, 2022-10-21 19:09:44.708
222.0, -131702.60270864997, -157814.31291273987, -32531.86881922112, -140543.45524829093, 69471.65810723999, -113790.2052748448, 58323.03265607747, -110032.89938365214, 0.014, 0.96, -0.052000000000000005, 192.0, 0.0, 0.0, 0.0, 0.0, 0.0, 0.0, 0.0, 0.0, 0.0, 1.6664045847088308E9, 0.0, 2022-10-21 19:09:44.708
223.0, -131699.74168535968, -157812.16714527216, -32528.24783661936, -140547.63502450407, 69468.64062173851, -113797.40253655941, 58321.937420599155, -110037.34738079875, 0.014, 0.96, -0.052000000000000005, 192.0, 0.0, 0.0, 0.0, 0.0, 0.0, 0.0, 0.0, 0.0, 0.0, 1.6664045847088568E9, 0.0, 2022-10-21 19:09:44.708
224.0, -131705.66489764035, -157818.55974418638, -32536.786203001288, -140559.99553918786, 69466.42779903744, -113820.55894381511, 58305.68770238015, -110049.95376467155, 0.014, 0.96, -0.052000000000000005, 192.0, 0.0, 0.0, 0.0, 0.0, 0.0, 0.0, 0.0, 0.0, 0.0, 1.6664045847088706E9, 0.0, 2022-10-21 19:09:44.708
225.0, -131700.21107199325, -157816.1457557852, -32529.901865709053, -140549.66903324952, 69475.05557239719, -113812.22174313328, 58311.655618149714, -110047.0256861479, 0.014, 0.96, -0.052000000000000005, 192.0, 0.0, 0.0, 0.0, 0.0, 0.0, 0.0, 0.0, 0.0, 0.0, 1.6664045847088852E9, 0.0, 2022-10-21 19:09:44.708
226.0, -131695.00311553516, -157812.05538654988, -32527.19730462996, -140538.6272714886, 69476.66489799797, -113802.54343778413, 58321.98212408807, -110046.28807858087, 0.014, 0.96, -0.052000000000000005, 192.0, 0.0, 0.0, 0.0, 0.0, 0.0, 0.0, 0.0, 0.0, 0.0, 1.6664045847088988E9, 0.0, 2022-10-21 19:09:44.708
227.0, -131694.89135681288, -157812.41301446117, -32531.779412243297, -140542.98586165736, 69472.70863922939, -113803.25869360671, 58322.3174002549, -110054.04413390686, 0.014, 0.96, -0.052000000000000005, 192.0, 0.0, 0.0, 0.0, 0.0, 0.0, 0.0, 0.0, 0.0, 0.0, 1.6664045847089128E9, 0.0, 2022-10-21 19:09:44.708
228.0, -131701.21690049375, -157821.08549130984, -32539.937798969484, -140554.94404494096, 69467.65714498248, -113808.98074018727, 58311.43210070516, -110060.63789852118, 0.014, 0.96, -0.052000000000000005, 192.0, 0.0, 0.0, 0.0, 0.0, 0.0, 0.0, 0.0, 0.0, 0.0, 1.666404584708926E9, 0.0, 2022-10-21 19:09:44.708
229.0, -131696.00894403565, -157818.8503168643, -32534.327511111205, -140549.75844022734, 69476.73195323133, -113811.77470824418, 58309.95688557111, -110049.64084024917, 0.014, 0.96, -0.052000000000000005, 192.0, 0.0, 0.0, 0.0, 0.0, 0.0, 0.0, 0.0, 0.0, 0.0, 1.66640458470894E9, 0.0, 2022-10-21 19:09:44.708
230.0, -131688.16348173184, -157810.60252316028, -32526.258531362837, -140531.00532662933, 69487.70665975889, -113800.35296682752, 58320.52926069847, -110036.83329067628, 0.014, 0.96, -0.052000000000000005, 192.0, 0.0, 0.0, 0.0, 0.0, 0.0, 0.0, 0.0, 0.0, 0.0, 1.6664045847089534E9, 0.0, 2022-10-21 19:09:44.708
231.0, -131692.52207190063, -157814.58113367335, -32529.43247907549, -140531.69823070744, 69484.06332541267, -113784.46087651979, 58331.48161548157, -110036.22979357599, 0.008, 0.9580000000000001, -0.052000000000000005, 192.0, 0.0, 64.0, 29.0, 240.0, 254.0, 96.0, 0.0, 0.0, 0.0, 1.6664045847089677E9, 0.0, 2022-10-21 19:09:44.708
232.0, -131692.67853411182, -157814.8493546068, -32533.05346167725, -140542.20355060144, 69479.86119745507, -113787.0536788766, 58326.273659023485, -110043.00237214594, 0.008, 0.9580000000000001, -0.052000000000000005, 192.0, 0.0, 0.0, 0.0, 0.0, 0.0, 0.0, 0.0, 0.0, 0.0, 1.6664045847089808E9, 0.0, 2022-10-21 19:09:44.708
233.0, -131683.51431888514, -157807.20505800308, -32537.85908673514, -140556.91099845304, 69468.43945603841, -113816.87090597999, 58304.883039579756, -110049.14910187115, 0.008, 0.9580000000000001, -0.052000000000000005, 192.0, 0.0, 0.0, 0.0, 0.0, 0.0, 0.0, 0.0, 0.0, 0.0, 1.6664045847089927E9, 0.0, 2022-10-21 19:09:44.708
234.0, -131677.70286532675, -157803.38290970123, -32541.94945597046, -140548.28322509327, 69465.66783972595, -113818.77080425869, 58306.40295820272, -110053.39593331766, 0.008, 0.9580000000000001, -0.052000000000000005, 192.0, 0.0, 0.0, 0.0, 0.0, 0.0, 0.0, 0.0, 0.0, 0.0, 1.666404584709005E9, 0.0, 2022-10-21 19:09:44.709
235.0, -131688.96814453223, -157812.27890399445, -32537.568514057224, -140548.3726320711, 69468.93119441644, -113804.33157734056, 58319.903411853724, -110050.31139258282, 0.008, 0.9580000000000001, -0.052000000000000005, 192.0, 0.0, 0.0, 0.0, 0.0, 0.0, 0.0, 0.0, 0.0, 0.0, 1.666404584709017E9, 0.0, 2022-10-21 19:09:44.709
236.0, -131691.20331897776, -157815.76577612947, -32517.228426602895, -140544.63989074706, 69486.25379636929, -113809.40542333192, 58320.126929298276, -110036.20744183153, 0.008, 0.9580000000000001, -0.052000000000000005, 192.0, 0.0, 0.0, 0.0, 0.0, 0.0, 0.0, 0.0, 0.0, 0.0, 1.666404584709029E9, 0.0, 2022-10-21 19:09:44.709
237.0, -131682.44143515127, -157805.34986321328, -32514.501513779345, -140542.8293994462, 69491.32764236064, -113826.3703973735, 58306.04533029143, -110033.52523249689, 0.008, 0.9580000000000001, -0.052000000000000005, 192.0, 0.0, 0.0, 0.0, 0.0, 0.0, 0.0, 0.0, 0.0, 0.0, 1.666404584709041E9, 0.0, 2022-10-21 19:09:44.709
238.0, -131676.27235368162, -157799.09137476582, -32515.01560390182, -140531.60882372962, 69489.00306093729, -113813.65225477843, 58312.32617048338, -110039.04611337735, 0.008, 0.9580000000000001, -0.052000000000000005, 192.0, 0.0, 0.0, 0.0, 0.0, 0.0, 0.0, 0.0, 0.0, 0.0, 1.6664045847090635E9, 0.0, 2022-10-21 19:09:44.709
239.0, -131677.99343800466, -157800.20896198857, -32521.274092349304, -140535.00628888683, 69482.36459283407, -113796.4637632923, 58326.273659023485, -110039.51550001092, 0.008, 0.9580000000000001, -0.052000000000000005, 192.0, 0.0, 0.0, 0.0, 0.0, 0.0, 0.0, 0.0, 0.0, 0.0, 1.6664045847090757E9, 0.0, 2022-10-21 19:09:44.709
240.0, -131671.51143211263, -157792.2964444514, -32519.754173726342, -140542.69528897945, 69485.53854054672, -113803.6610250069, 58325.78192064547, -110032.09472085175, 0.006, 0.9580000000000001, -0.05, 192.0, 0.0, 48.0, 29.0, 240.0, 254.0, 112.0, 0.0, 0.0, 0.0, 1.6664045847090888E9, 0.0, 2022-10-21 19:09:44.709
241.0, -131667.59987683294, -157788.2954821939, -32512.71337422292, -140544.66224249153, 69493.42870633944, -113814.99335944574, 58315.90244959622, -110024.98686611497, 0.006, 0.9580000000000001, -0.05, 192.0, 0.0, 0.0, 0.0, 0.0, 0.0, 0.0, 0.0, 0.0, 0.0, 1.666404585186132E9, 0.0, 2022-10-21 19:09:45.186
242.0, -131670.90793501234, -157791.29061595091, -32514.38975505707, -140542.672937235, 69492.73580226133, -113822.19062116035, 58308.861650092804, -110031.62533421819, 0.006, 0.9580000000000001, -0.05, 192.0, 0.0, 0.0, 0.0, 0.0, 0.0, 0.0, 0.0, 0.0, 0.0, 1.6664045851863253E9, 0.0, 2022-10-21 19:09:45.186
243.0, -131675.4900426257, -157798.59963638778, -32518.10014463665, -140534.00046038633, 69493.07107842817, -113796.2625975922, 58326.407769490215, -110034.03932261937, 0.006, 0.9580000000000001, -0.05, 192.0, 0.0, 0.0, 0.0, 0.0, 0.0, 0.0, 0.0, 0.0, 0.0, 1.666404585186365E9, 0.0, 2022-10-21 19:09:45.186
244.0, -131684.78836831907, -157809.35082547078, -32529.790106986777, -140548.26087334883, 69481.58228177813, -113788.84181843304, 58325.290182267454, -110048.38914255967, 0.006, 0.9580000000000001, -0.05, 192.0, 0.0, 0.0, 0.0, 0.0, 0.0, 0.0, 0.0, 0.0, 0.0, 1.6664045851863956E9, 0.0, 2022-10-21 19:09:45.186
245.0, -131682.41908340683, -157810.11078478227, -32530.550066298256, -140556.5757222862, 69479.97295617736, -113813.07110942258, 58309.24162974854, -110049.90906118264, 0.006, 0.9580000000000001, -0.05, 192.0, 0.0, 0.0, 0.0, 0.0, 0.0, 0.0, 0.0, 0.0, 0.0, 1.6664045851864257E9, 0.0, 2022-10-21 19:09:45.186
246.0, -131676.40646414834, -157800.72305211105, -32519.128324881596, -140543.83522794666, 69486.85729346958, -113818.99432170324, 58312.437929205655, -110037.66030522113, 0.006, 0.9580000000000001, -0.05, 192.0, 0.0, 0.0, 0.0, 0.0, 0.0, 0.0, 0.0, 0.0, 0.0, 1.6664045851864605E9, 0.0, 2022-10-21 19:09:45.186
247.0, -131675.3782839034, -157796.54327589792, -32512.467505033914, -140528.05489636122, 69496.96028196339, -113797.84957144852, 58335.95196437264, -110032.58645922977, 0.006, 0.9580000000000001, -0.05, 192.0, 0.0, 0.0, 0.0, 0.0, 0.0, 0.0, 0.0, 0.0, 0.0, 1.6664045851864908E9, 0.0, 2022-10-21 19:09:45.186
248.0, -131674.95360075874, -157799.15842999917, -32514.456810290434, -140536.0791726207, 69498.56960756418, -113797.64840574842, 58336.24253705055, -110034.4193022751, 0.006, 0.9580000000000001, -0.05, 192.0, 0.0, 0.0, 0.0, 0.0, 0.0, 0.0, 0.0, 0.0, 0.0, 1.6664045851865213E9, 0.0, 2022-10-21 19:09:45.186
249.0, -131675.24417343666, -157799.8960375662, -32515.23912134637, -140550.27253034982, 69495.97680520735, -113819.75428101473, 58317.73529264156, -110041.23658433398, 0.006, 0.9580000000000001, -0.05, 192.0, 0.0, 0.0, 0.0, 0.0, 0.0, 0.0, 0.0, 0.0, 0.0, 1.6664045851865516E9, 0.0, 2022-10-21 19:09:45.186
250.0, -131669.70094081174, -157794.1963427301, -32513.048650389752, -140541.39888780104, 69500.3577471206, -113825.74454852875, 58315.74598738504, -110030.17247082859, 0.012, 0.9580000000000001, -0.05, 192.0, 0.0, 96.0, 29.0, 240.0, 254.0, 112.0, 0.0, 0.0, 0.0, 1.6664045851865816E9, 0.0, 2022-10-21 19:09:45.186
251.0, -131672.4278536353, -157799.56076139936, -32514.836789946177, -140535.60978598712, 69497.2508546413, -113817.34029261355, 58328.084150324365, -110026.93146788258, 0.012, 0.9580000000000001, -0.05, 192.0, 0.0, 0.0, 0.0, 0.0, 0.0, 0.0, 0.0, 0.0, 0.0, 1.6664045851866148E9, 0.0, 2022-10-21 19:09:45.186
252.0, -131674.6853798253, -157801.03597653343, -32513.115705623117, -140536.45915227642, 69495.5521220627, -113809.47247856528, 58335.34846727234, -110035.53688949787, 0.012, 0.9580000000000001, -0.05, 192.0, 0.0, 0.0, 0.0, 0.0, 0.0, 0.0, 0.0, 0.0, 0.0, 1.6664045851866455E9, 0.0, 2022-10-21 19:09:45.186
253.0, -131672.3831501464, -157800.9465695556, -32510.321737566203, -140547.05387914824, 69496.13326741854, -113819.48606008125, 58324.48551946706, -110040.94601165605, 0.012, 0.9580000000000001, -0.05, 192.0, 0.0, 0.0, 0.0, 0.0, 0.0, 0.0, 0.0, 0.0, 0.0, 1.66640458518679E9, 0.0, 2022-10-21 19:09:45.186
254.0, -131676.831147293, -157804.76871785746, -32513.38392655658, -140551.65833850604, 69492.66874702797, -113838.97678124628, 58307.40878670321, -110043.89644192415, 0.012, 0.9580000000000001, -0.05, 192.0, 0.0, 0.0, 0.0, 0.0, 0.0, 0.0, 0.0, 0.0, 0.0, 1.6664045851868205E9, 0.0, 2022-10-21 19:09:45.186
255.0, -131673.70190306925, -157802.69000562312, -32513.33922306767, -140538.31434706622, 69496.91557847448, -113818.56963855859, 58321.84801362133, -110045.59517450276, 0.012, 0.9580000000000001, -0.05, 192.0, 0.0, 0.0, 0.0, 0.0, 0.0, 0.0, 0.0, 0.0, 0.0, 1.6664045851868513E9, 0.0, 2022-10-21 19:09:45.186
0.0, -131674.21599319173, -157805.05929053537, -32510.321737566203, -140539.56604475572, 69497.40731685249, -113801.17998137236, 58335.48257773907, -110049.90906118264, 0.012, 0.9580000000000001, -0.05, 192.0, 0.0, 0.0, 0.0, 0.0, 0.0, 0.0, 0.0, 0.0, 0.0, 1.6664045851868813E9, 0.0, 2022-10-21 19:09:45.186
1.0, -131675.89237402586, -157807.56268591437, -32513.652147490044, -140555.30167285225, 69492.22171213887, -113819.55311531463, 58321.89271711025, -110050.33374432729, 0.012, 0.9580000000000001, -0.05, 192.0, 0.0, 0.0, 0.0, 0.0, 0.0, 0.0, 0.0, 0.0, 0.0, 1.666404585186911E9, 0.0, 2022-10-21 19:09:45.186
2.0, -131662.66014130833, -157794.62102587475, -32504.8232084302, -140546.58449251467, 69499.68719478694, -113841.10019696954, 58307.900525081226, -110039.78372094438, 0.012, 0.9580000000000001, -0.05, 192.0, 0.0, 0.0, 0.0, 0.0, 0.0, 0.0, 0.0, 0.0, 0.0, 1.6664045851869416E9, 0.0, 2022-10-21 19:09:45.186
3.0, -131657.76510927262, -157790.1506769837, -32503.035068873774, -140530.6700504625, 69503.73286053335, -113835.4675573668, 58314.56134492891, -110030.30658129533, 0.012, 0.9580000000000001, -0.05, 192.0, 0.0, 0.0, 0.0, 0.0, 0.0, 0.0, 0.0, 0.0, 0.0, 1.6664045851869721E9, 0.0, 2022-10-21 19:09:45.186
4.0, -131670.61736233442, -157804.00875854597, -32512.15458061154, -140532.5699487412, 69494.74745926232, -113818.30141762513, 58326.94421135715, -110035.89451740915, 0.014, 0.962, -0.05, 192.0, 0.0, 112.0, 30.0, 16.0, 254.0, 112.0, 0.0, 0.0, 0.0, 1.6664045851870024E9, 0.0, 2022-10-21 19:09:45.187
5.0, -131673.21016469123, -157805.19340100212, -32514.81443820172, -140549.46786754942, 69485.60559578009, -113828.02442646319, 58318.18232753067, -110052.65832575064, 0.014, 0.962, -0.05, 192.0, 0.0, 0.0, 0.0, 0.0, 0.0, 0.0, 0.0, 0.0, 0.0, 1.6664045851870348E9, 0.0, 2022-10-21 19:09:45.187
6.0, -131669.70094081174, -157803.24879923448, -32514.747382968355, -140554.07232690722, 69484.84563646861, -113861.7308571018, 58299.45156567712, -110056.01108741893, 0.014, 0.962, -0.05, 192.0, 0.0, 0.0, 0.0, 0.0, 0.0, 0.0, 0.0, 0.0, 0.0, 1.6664045851870766E9, 0.0, 2022-10-21 19:09:45.187
7.0, -131671.46672862372, -157802.91352306766, -32513.898016679053, -140538.44845753294, 69493.02637493925, -113836.56279284511, 58318.18232753067, -110051.49603503896, 0.014, 0.962, -0.05, 192.0, 0.0, 0.0, 0.0, 0.0, 0.0, 0.0, 0.0, 0.0, 0.0, 1.6664045851871061E9, 0.0, 2022-10-21 19:09:45.187
8.0, -131666.9740279882, -157797.63851137622, -32510.500551521847, -140534.04516387524, 69492.89226447252, -113813.71931001179, 58334.9684876166, -110046.71276172552, 0.014, 0.962, -0.05, 192.0, 0.0, 0.0, 0.0, 0.0, 0.0, 0.0, 0.0, 0.0, 0.0, 1.666404585187136E9, 0.0, 2022-10-21 19:09:45.187
9.0, -131665.8787925099, -157795.91742705315, -32510.34408931066, -140538.09082962165, 69495.48506682934, -113807.61728377549, 58339.416484763206, -110050.02081990491, 0.014, 0.962, -0.05, 192.0, 0.0, 0.0, 0.0, 0.0, 0.0, 0.0, 0.0, 0.0, 0.0, 1.666404585187166E9, 0.0, 2022-10-21 19:09:45.187
10.0, -131667.7339872997, -157794.93395029713, -32505.739629952866, -140541.53299826776, 69498.07786918615, -113806.23147561926, 58336.6672201952, -110049.86435769372, 0.014, 0.962, -0.05, 192.0, 0.0, 0.0, 0.0, 0.0, 0.0, 0.0, 0.0, 0.0, 0.0, 1.6664045851871982E9, 0.0, 2022-10-21 19:09:45.187
11.0, -131670.840879779, -157797.92908405414, -32507.594824742657, -140542.60588200163, 69492.17700864995, -113823.24115314975, 58325.62545843428, -110045.10343612474, 0.014, 0.962, -0.05, 192.0, 0.0, 0.0, 0.0, 0.0, 0.0, 0.0, 0.0, 0.0, 0.0, 1.6664045851872315E9, 0.0, 2022-10-21 19:09:45.187
