%OpenBCI Raw EEG Data
%Number of channels = 8
%Sample Rate = 250 Hz
%Board = OpenBCI_GUI$BoardCytonSerial
Sample Index, EXG Channel 0, EXG Channel 1, EXG Channel 2, EXG Channel 3, EXG Channel 4, EXG Channel 5, EXG Channel 6, EXG Channel 7, Accel Channel 0, Accel Channel 1, Accel Channel 2, Other, Other, Other, Other, Other, Other, Other, Analog Channel 0, Analog Channel 1, Analog Channel 2, Timestamp, Other, Timestamp (Formatted)
118.0, -130612.95516645374, -157437.64131517903, -33689.71153375048, -140536.19093134295, 68419.47208875086, -108293.93366502925, 56163.45181029461, -110750.79271206769, 0.0, 0.0, 0.0, 192.0, 0.0, 0.0, 0.0, 0.0, 0.0, 0.0, 0.0, 0.0, 0.0, 1.6664045150918925E9, 0.0, 2022-10-21 19:08:35.091
119.0, -130603.76859948262, -157425.83959410663, -33682.536623780325, -140538.2249400884, 68425.23883882033, -108325.09199679995, 56143.849330407305, -110744.40011315348, 0.0, 0.0, 0.0, 192.0, 0.0, 0.0, 0.0, 0.0, 0.0, 0.0, 0.0, 0.0, 0.0, 1.6664045150919206E9, 0.0, 2022-10-21 19:08:35.091
120.0, -130603.94741343826, -157423.67147489448, -33680.07793189024, -140532.9275766525, 68426.82581267665, -108321.15808977582, 56143.87168215176, -110741.69555207438, 0.0, 0.0, 0.0, 192.0, 0.0, 0.0, 0.0, 0.0, 0.0, 0.0, 0.0, 0.0, 0.0, 1.6664045150919352E9, 0.0, 2022-10-21 19:08:35.091
121.0, -130608.44011407378, -157430.4664052089, -33685.688219748525, -140533.88870166405, 68418.1980393169, -108291.54202837254, 56162.445981794124, -110743.99778175328, 0.0, 0.0, 0.0, 192.0, 0.0, 0.0, 0.0, 0.0, 0.0, 0.0, 0.0, 0.0, 0.0, 1.6664045150919492E9, 0.0, 2022-10-21 19:08:35.091
122.0, -130616.10676242194, -157437.84248087913, -33699.34513561072, -140546.18216111447, 68408.83265839012, -108291.11734522789, 56158.26620558098, -110754.30193594718, 0.0, 0.0, 0.0, 192.0, 0.0, 0.0, 0.0, 0.0, 0.0, 0.0, 0.0, 0.0, 0.0, 1.6664045150919673E9, 0.0, 2022-10-21 19:08:35.091
123.0, -130620.15242816835, -157444.59270770464, -33707.41411535908, -140560.55433279925, 68404.63053043254, -108308.88698206986, 56140.854196650296, -110760.02398252774, 0.0, 0.0, 0.0, 192.0, 0.0, 0.0, 0.0, 0.0, 0.0, 0.0, 0.0, 0.0, 0.0, 1.666404515091988E9, 0.0, 2022-10-21 19:08:35.091
124.0, -130618.16312291184, -157444.8162251492, -33703.54726356832, -140556.84394321966, 68404.96580659936, -108337.00547659463, 56122.07873130783, -110755.66539235895, 0.0, 0.0, 0.0, 192.0, 0.0, 0.0, 0.0, 0.0, 0.0, 0.0, 0.0, 0.0, 0.0, 1.6664045150920088E9, 0.0, 2022-10-21 19:08:35.092
125.0, -130612.41872458682, -157440.9717251029, -33695.18771114203, -140536.4815040209, 68414.26413229277, -108320.0628542975, 56142.5529292289, -110744.8918515315, 0.02, 0.9540000000000001, -0.044, 192.0, 0.0, 160.0, 29.0, 208.0, 254.0, 160.0, 0.0, 0.0, 0.0, 1.6664045150920303E9, 0.0, 2022-10-21 19:08:35.092
126.0, -130618.09606767847, -157446.5596612167, -33707.16824617008, -140546.71860298142, 68403.51294320976, -108314.98900830615, 56148.744362443016, -110750.83741555661, 0.02, 0.9540000000000001, -0.044, 192.0, 0.0, 0.0, 0.0, 0.0, 0.0, 0.0, 0.0, 0.0, 0.0, 1.666404515092056E9, 0.0, 2022-10-21 19:08:35.092
127.0, -130615.70443102175, -157444.07861758216, -33706.54239732533, -140560.04024267677, 68401.3895274865, -108331.39518873635, 56137.903766382195, -110753.81019756917, 0.02, 0.9540000000000001, -0.044, 192.0, 0.0, 0.0, 0.0, 0.0, 0.0, 0.0, 0.0, 0.0, 0.0, 1.666404515092078E9, 0.0, 2022-10-21 19:08:35.092
128.0, -130613.11162866493, -157444.83857689364, -33697.087609420734, -140552.12772513958, 68411.38075725803, -108337.65367718383, 56134.260432035975, -110756.55946213717, 0.02, 0.9540000000000001, -0.044, 192.0, 0.0, 0.0, 0.0, 0.0, 0.0, 0.0, 0.0, 0.0, 0.0, 1.6664045150920992E9, 0.0, 2022-10-21 19:08:35.092
129.0, -130612.70929726474, -157443.65393443752, -33698.71928676597, -140542.2706058348, 68410.68785317992, -108322.83447060997, 56149.83959792133, -110753.92195629144, 0.02, 0.9540000000000001, -0.044, 192.0, 0.0, 0.0, 0.0, 0.0, 0.0, 0.0, 0.0, 0.0, 0.0, 1.6664045150921175E9, 0.0, 2022-10-21 19:08:35.092
130.0, -130614.60919554344, -157446.40319900552, -33700.21685364447, -140546.8750651926, 68409.36910025706, -108306.16006924631, 56166.78222021845, -110753.94430803589, 0.02, 0.9540000000000001, -0.044, 192.0, 0.0, 0.0, 0.0, 0.0, 0.0, 0.0, 0.0, 0.0, 0.0, 1.6664045150921342E9, 0.0, 2022-10-21 19:08:35.092
131.0, -130611.21173038623, -157442.7151611704, -33698.205196643496, -140553.60294027365, 68415.18055381543, -108316.28540948457, 56156.63452823574, -110753.00553476877, 0.02, 0.9540000000000001, -0.044, 192.0, 0.0, 0.0, 0.0, 0.0, 0.0, 0.0, 0.0, 0.0, 0.0, 1.6664045150921504E9, 0.0, 2022-10-21 19:08:35.092
132.0, -130606.18258788378, -157437.0154663343, -33693.466626818976, -140552.15007688405, 68420.47791725134, -108336.20081379425, 56140.898900139204, -110746.97056376583, 0.02, 0.9540000000000001, -0.044, 192.0, 0.0, 0.0, 0.0, 0.0, 0.0, 0.0, 0.0, 0.0, 0.0, 1.666404515092167E9, 0.0, 2022-10-21 19:08:35.092
133.0, -130610.94350945277, -157442.15636755902, -33697.71345826548, -140544.88575993606, 68417.70630093888, -108317.29123798505, 56154.332298556845, -110747.12702597702, 0.02, 0.9540000000000001, -0.044, 192.0, 0.0, 0.0, 0.0, 0.0, 0.0, 0.0, 0.0, 0.0, 0.0, 1.666404515092339E9, 0.0, 2022-10-21 19:08:35.092
134.0, -130614.25156763215, -157447.94546937293, -33701.78147575635, -140548.90907393803, 68411.15723981347, -108306.56240064651, 56162.42363004966, -110761.3874389395, 0.02, 0.9540000000000001, -0.044, 192.0, 0.0, 0.0, 0.0, 0.0, 0.0, 0.0, 0.0, 0.0, 0.0, 1.6664045150923586E9, 0.0, 2022-10-21 19:08:35.092
135.0, -130612.10580016444, -157443.27395478176, -33696.84174023172, -140552.44064956196, 68416.63341720503, -108309.02109253658, 56163.49651378352, -110756.26888945924, 0.024, 0.9520000000000001, -0.042, 192.0, 0.0, 192.0, 29.0, 192.0, 254.0, 176.0, 0.0, 0.0, 0.0, 1.6664045150923753E9, 0.0, 2022-10-21 19:08:35.092
136.0, -130607.70250650676, -157438.78125414625, -33694.51715880837, -140559.14617289856, 68415.8511061491, -108314.58667690596, 56157.5062462695, -110753.72079059134, 0.024, 0.9520000000000001, -0.042, 192.0, 0.0, 0.0, 0.0, 0.0, 0.0, 0.0, 0.0, 0.0, 0.0, 1.6664045150923934E9, 0.0, 2022-10-21 19:08:35.092
137.0, -130602.04751515956, -157432.4110069765, -33689.01862967237, -140550.74191698336, 68423.02601611924, -108327.77420613459, 56155.2040165906, -110745.24947944278, 0.024, 0.9520000000000001, -0.042, 192.0, 0.0, 0.0, 0.0, 0.0, 0.0, 0.0, 0.0, 0.0, 0.0, 1.6664045150924103E9, 0.0, 2022-10-21 19:08:35.092
138.0, -130601.95810818173, -157435.2720302668, -33688.705705249995, -140542.56117851273, 68427.2504958213, -108312.35150246043, 56170.40320282021, -110739.95211600687, 0.024, 0.9520000000000001, -0.042, 192.0, 0.0, 0.0, 0.0, 0.0, 0.0, 0.0, 0.0, 0.0, 0.0, 1.6664045150924273E9, 0.0, 2022-10-21 19:08:35.092
139.0, -130607.54604429557, -157440.70350416942, -33697.17701639856, -140549.75844022734, 68421.57315272966, -108308.14937450283, 56169.218560364076, -110746.88115678802, 0.024, 0.9520000000000001, -0.042, 192.0, 0.0, 0.0, 0.0, 0.0, 0.0, 0.0, 0.0, 0.0, 0.0, 1.6664045150924437E9, 0.0, 2022-10-21 19:08:35.092
140.0, -130613.02222168712, -157445.8667571386, -33704.17311241307, -140557.73801299787, 68417.41572826097, -108314.74313911714, 56156.94745265812, -110751.53031963472, 0.024, 0.9520000000000001, -0.042, 192.0, 0.0, 0.0, 0.0, 0.0, 0.0, 0.0, 0.0, 0.0, 0.0, 1.666404515092464E9, 0.0, 2022-10-21 19:08:35.092
141.0, -130613.78218099859, -157448.97364961787, -33706.78826651433, -140561.49310606637, 68409.43615549042, -108332.51277595911, 56142.64233620672, -110755.82185457014, 0.024, 0.9520000000000001, -0.042, 192.0, 0.0, 0.0, 0.0, 0.0, 0.0, 0.0, 0.0, 0.0, 0.0, 1.6664045150924804E9, 0.0, 2022-10-21 19:08:35.092
142.0, -130613.1786838983, -157447.7666554173, -33700.52977806685, -140551.50187629485, 68411.8948473805, -108327.03659856756, 56153.97467064556, -110757.02884877073, 0.024, 0.9520000000000001, -0.042, 192.0, 0.0, 0.0, 0.0, 0.0, 0.0, 0.0, 0.0, 0.0, 0.0, 1.6664045150924969E9, 0.0, 2022-10-21 19:08:35.092
143.0, -130610.34001235248, -157444.05626583772, -33693.71249600798, -140547.59032101516, 68420.43321376243, -108306.74121460215, 56170.202037120114, -110755.12895049203, 0.024, 0.9520000000000001, -0.042, 192.0, 0.0, 0.0, 0.0, 0.0, 0.0, 0.0, 0.0, 0.0, 0.0, 1.666404515092513E9, 0.0, 2022-10-21 19:08:35.092
144.0, -130610.34001235248, -157442.64810593703, -33694.71832450847, -140555.94987344145, 68423.89773415301, -108322.65565665433, 56157.461542780584, -110754.97248828084, 0.018000000000000002, 0.9540000000000001, -0.038, 192.0, 0.0, 144.0, 29.0, 208.0, 254.0, 208.0, 0.0, 0.0, 0.0, 1.6664045150925293E9, 0.0, 2022-10-21 19:08:35.092
145.0, -130608.84244547397, -157436.657838423, -33690.42678957305, -140549.6243297606, 68429.64213247802, -108320.0628542975, 56159.74142071503, -110745.80827305416, 0.018000000000000002, 0.9540000000000001, -0.038, 192.0, 0.0, 0.0, 0.0, 0.0, 0.0, 0.0, 0.0, 0.0, 0.0, 1.6664045150925467E9, 0.0, 2022-10-21 19:08:35.092
146.0, -130607.21076812873, -157436.0543413227, -33691.38791458463, -140540.01307964482, 68429.50802201129, -108310.13867975936, 56170.31379584239, -110743.70720907536, 0.018000000000000002, 0.9540000000000001, -0.038, 192.0, 0.0, 0.0, 0.0, 0.0, 0.0, 0.0, 0.0, 0.0, 0.0, 1.6664045150925634E9, 0.0, 2022-10-21 19:08:35.092
147.0, -130603.74624773816, -157434.44501572193, -33685.621164515156, -140537.59909124364, 68432.3466935571, -108299.1639732318, 56178.47218256858, -110737.7392933058, 0.018000000000000002, 0.9540000000000001, -0.038, 192.0, 0.0, 0.0, 0.0, 0.0, 0.0, 0.0, 0.0, 0.0, 0.0, 1.6664045150925798E9, 0.0, 2022-10-21 19:08:35.092
148.0, -130601.33225933698, -157432.4557104654, -33685.129426137144, -140545.2210361029, 68434.09012962463, -108314.81019435052, 56167.98921441904, -110734.25242117076, 0.018000000000000002, 0.9540000000000001, -0.038, 192.0, 0.0, 0.0, 0.0, 0.0, 0.0, 0.0, 0.0, 0.0, 0.0, 1.666404515092652E9, 0.0, 2022-10-21 19:08:35.092
149.0, -130601.1757971258, -157431.8522133651, -33686.13525463763, -140542.65058549054, 68436.92880117045, -108320.19696476424, 56161.55191201591, -110740.17563345142, 0.018000000000000002, 0.9540000000000001, -0.038, 192.0, 0.0, 0.0, 0.0, 0.0, 0.0, 0.0, 0.0, 0.0, 0.0, 1.66640451509267E9, 0.0, 2022-10-21 19:08:35.092
150.0, -130599.4323610583, -157430.08642555313, -33687.6998767495, -140534.33573655318, 68433.53133601324, -108306.54004890205, 56171.02905166496, -110740.42150264043, 0.018000000000000002, 0.9540000000000001, -0.038, 192.0, 0.0, 0.0, 0.0, 0.0, 0.0, 0.0, 0.0, 0.0, 0.0, 1.666404515092686E9, 0.0, 2022-10-21 19:08:35.092
151.0, -130599.29825059156, -157432.2098412764, -33685.75527498189, -140535.40862028702, 68433.1960598464, -108297.75581333111, 56180.08150816936, -110740.62266834053, 0.018000000000000002, 0.9540000000000001, -0.038, 192.0, 0.0, 0.0, 0.0, 0.0, 0.0, 0.0, 0.0, 0.0, 0.0, 1.666404515092703E9, 0.0, 2022-10-21 19:08:35.092
152.0, -130602.85217795995, -157434.2214982774, -33688.415132572074, -140547.34445182615, 68430.11151911158, -108318.34176997445, 56166.558702773895, -110744.42246489793, 0.018000000000000002, 0.9540000000000001, -0.038, 192.0, 0.0, 0.0, 0.0, 0.0, 0.0, 0.0, 0.0, 0.0, 0.0, 1.6664045150927217E9, 0.0, 2022-10-21 19:08:35.092
153.0, -130606.69667800626, -157436.63548667854, -33691.633783773636, -140554.6758240075, 68425.23883882033, -108326.65661891183, 56157.28272882495, -110750.97152602334, 0.018000000000000002, 0.9540000000000001, -0.038, 192.0, 0.0, 0.0, 0.0, 0.0, 0.0, 0.0, 0.0, 0.0, 0.0, 1.6664045150927382E9, 0.0, 2022-10-21 19:08:35.092
154.0, -130607.59074778447, -157438.9600681019, -33691.92435645156, -140550.42899256098, 68423.07071960816, -108326.92483984529, 56159.13792361473, -110747.4399503994, 0.022, 0.962, -0.04, 192.0, 0.0, 176.0, 30.0, 16.0, 254.0, 192.0, 0.0, 0.0, 0.0, 1.6664045150927596E9, 0.0, 2022-10-21 19:08:35.092
155.0, -130612.79870424257, -157442.4692919814, -33698.74163851042, -140544.68459423597, 68426.49053650982, -108304.32722620097, 56174.98531043355, -110745.49534863178, 0.022, 0.962, -0.04, 192.0, 0.0, 0.0, 0.0, 0.0, 0.0, 0.0, 0.0, 0.0, 0.0, 1.666404515092778E9, 0.0, 2022-10-21 19:08:35.092
156.0, -130611.88228271989, -157437.44014947893, -33701.31208912279, -140552.12772513958, 68423.47305100836, -108316.79949960703, 56164.122362628266, -110747.6411160995, 0.022, 0.962, -0.04, 192.0, 0.0, 0.0, 0.0, 0.0, 0.0, 0.0, 0.0, 0.0, 0.0, 1.666404515092794E9, 0.0, 2022-10-21 19:08:35.092
157.0, -130614.27391937662, -157443.13984431504, -33700.507426322394, -140558.81089673174, 68418.82388816166, -108342.50400573063, 56147.135036842235, -110756.47005515934, 0.022, 0.962, -0.04, 192.0, 0.0, 0.0, 0.0, 0.0, 0.0, 0.0, 0.0, 0.0, 0.0, 1.66640451509281E9, 0.0, 2022-10-21 19:08:35.092
158.0, -130608.97655594071, -157439.0718268242, -33692.14787389611, -140547.18798961496, 68425.41765277597, -108337.60897369492, 56157.059211380394, -110746.81410155466, 0.022, 0.962, -0.04, 192.0, 0.0, 0.0, 0.0, 0.0, 0.0, 0.0, 0.0, 0.0, 0.0, 1.6664045150928261E9, 0.0, 2022-10-21 19:08:35.092
159.0, -130612.79870424257, -157436.43432097844, -33690.158568639585, -140539.65545173353, 68428.0998621106, -108319.74992987514, 56174.605330777806, -110744.33305792011, 0.022, 0.962, -0.04, 192.0, 0.0, 0.0, 0.0, 0.0, 0.0, 0.0, 0.0, 0.0, 0.0, 1.6664045150928423E9, 0.0, 2022-10-21 19:08:35.092
160.0, -130614.00569844314, -157438.7589024018, -33697.73581000994, -140546.04805064775, 68425.46235626488, -108317.73827287415, 56171.2078656206, -110751.93265103492, 0.022, 0.962, -0.04, 192.0, 0.0, 0.0, 0.0, 0.0, 0.0, 0.0, 0.0, 0.0, 0.0, 1.6664045150928583E9, 0.0, 2022-10-21 19:08:35.092
161.0, -130603.96976518272, -157432.8133383767, -33693.243109374416, -140552.26183560633, 68427.80928943268, -108334.61383993791, 56160.143752115226, -110750.18921496741, 0.022, 0.962, -0.04, 192.0, 0.0, 0.0, 0.0, 0.0, 0.0, 0.0, 0.0, 0.0, 0.0, 1.666404515092877E9, 0.0, 2022-10-21 19:08:35.092
162.0, -130604.43915181627, -157432.09808255412, -33688.79511222781, -140548.79731521575, 68428.21162083288, -108336.04435158306, 56166.715164985086, -110746.52352887673, 0.022, 0.962, -0.04, 192.0, 0.0, 0.0, 0.0, 0.0, 0.0, 0.0, 0.0, 0.0, 0.0, 1.666404515092893E9, 0.0, 2022-10-21 19:08:35.092
163.0, -130603.79095122707, -157432.14278604303, -33688.88451920563, -140543.18702735746, 68427.31755105467, -108322.38743572086, 56177.64516802373, -110751.70913359037, 0.022, 0.962, -0.04, 192.0, 0.0, 0.0, 0.0, 0.0, 0.0, 0.0, 0.0, 0.0, 0.0, 1.666404515092971E9, 0.0, 2022-10-21 19:08:35.092
164.0, -130603.43332331578, -157426.82307086268, -33685.50940579288, -140544.75164946934, 68430.08916736713, -108322.83447060997, 56176.92991220116, -110749.80923531167, 0.022, 0.966, -0.044, 192.0, 0.0, 176.0, 30.0, 48.0, 254.0, 160.0, 0.0, 0.0, 0.0, 1.6664045150929952E9, 0.0, 2022-10-21 19:08:35.092
165.0, -130603.41097157133, -157427.8512511076, -33686.04584765981, -140551.7253937394, 68433.3525220576, -108343.42042725331, 56161.507208527, -110746.85880504356, 0.022, 0.966, -0.044, 192.0, 0.0, 0.0, 0.0, 0.0, 0.0, 0.0, 0.0, 0.0, 0.0, 1.666404515093021E9, 0.0, 2022-10-21 19:08:35.093
166.0, -130603.96976518272, -157428.27593425228, -33685.95644068199, -140544.48342853587, 68436.19119360343, -108342.10167433044, 56164.85997019529, -110745.67416258743, 0.022, 0.966, -0.044, 192.0, 0.0, 0.0, 0.0, 0.0, 0.0, 0.0, 0.0, 0.0, 0.0, 1.6664045150930443E9, 0.0, 2022-10-21 19:08:35.093
167.0, -130609.91532920783, -157432.9698005879, -33693.91366170808, -140540.81774244522, 68430.87147842305, -108325.44962471124, 56173.01835692148, -110755.48657840332, 0.022, 0.966, -0.044, 192.0, 0.0, 0.0, 0.0, 0.0, 0.0, 0.0, 0.0, 0.0, 0.0, 1.6664045150930672E9, 0.0, 2022-10-21 19:08:35.093
168.0, -130608.10483790694, -157434.98145758884, -33694.94184195302, -140545.35514656964, 68428.54689699972, -108324.51085144411, 56170.98434817605, -110756.51475864825, 0.022, 0.966, -0.044, 192.0, 0.0, 0.0, 0.0, 0.0, 0.0, 0.0, 0.0, 0.0, 0.0, 1.6664045150930889E9, 0.0, 2022-10-21 19:08:35.093
169.0, -130604.68502100528, -157430.37699823108, -33692.37139134066, -140547.63502450407, 68435.07360638065, -108343.84511039796, 56159.62966199275, -110749.16103472246, 0.022, 0.966, -0.044, 192.0, 0.0, 0.0, 0.0, 0.0, 0.0, 0.0, 0.0, 0.0, 0.0, 1.6664045150931053E9, 0.0, 2022-10-21 19:08:35.093
170.0, -130609.02125942962, -157434.3109052552, -33696.64057453162, -140550.09371639416, 68432.9054871685, -108350.43887501227, 56156.276900324454, -110753.67608710243, 0.022, 0.966, -0.044, 192.0, 0.0, 0.0, 0.0, 0.0, 0.0, 0.0, 0.0, 0.0, 0.0, 1.6664045150931215E9, 0.0, 2022-10-21 19:08:35.093
171.0, -130607.88132046239, -157436.34491400063, -33692.70666750749, -140543.83522794666, 68434.91714416948, -108347.44374125527, 56164.83761845084, -110754.72661909183, 0.022, 0.966, -0.044, 192.0, 0.0, 0.0, 0.0, 0.0, 0.0, 0.0, 0.0, 0.0, 0.0, 1.6664045150931373E9, 0.0, 2022-10-21 19:08:35.093
172.0, -130612.21755888672, -157440.34587625813, -33695.56769079777, -140538.4708092774, 68440.19215586092, -108327.8189096235, 56178.82981047986, -110757.29706970419, 0.022, 0.966, -0.044, 192.0, 0.0, 0.0, 0.0, 0.0, 0.0, 0.0, 0.0, 0.0, 0.0, 1.6664045150931537E9, 0.0, 2022-10-21 19:08:35.093
173.0, -130614.25156763215, -157440.14471055803, -33693.734847752436, -140550.38428907207, 68437.66640873748, -108347.15316857734, 56164.30117658391, -110756.22418597034, 0.022, 0.966, -0.044, 192.0, 0.0, 0.0, 0.0, 0.0, 0.0, 0.0, 0.0, 0.0, 0.0, 1.6664045150931697E9, 0.0, 2022-10-21 19:08:35.093
174.0, -130613.98334669869, -157439.98824834684, -33692.50550180739, -140546.56214077023, 68440.72859772785, -108353.74693319165, 56162.53538877194, -110745.83062479862, 0.022, 0.9580000000000001, -0.044, 192.0, 0.0, 176.0, 29.0, 240.0, 254.0, 160.0, 0.0, 0.0, 0.0, 1.666404515093186E9, 0.0, 2022-10-21 19:08:35.093
175.0, -130618.65486128985, -157444.88328038255, -33704.5530920688, -140541.44359128995, 68433.46428077988, -108343.97922086468, 56170.40320282021, -110740.06387472915, 0.022, 0.9580000000000001, -0.044, 192.0, 0.0, 0.0, 0.0, 0.0, 0.0, 0.0, 0.0, 0.0, 0.0, 1.6664045150932028E9, 0.0, 2022-10-21 19:08:35.093
176.0, -130621.40412585785, -157442.3128297702, -33700.48507457794, -140541.84592269015, 68436.41471104798, -108332.28925851456, 56182.54020005944, -110734.92297350444, 0.022, 0.9580000000000001, -0.044, 192.0, 0.0, 0.0, 0.0, 0.0, 0.0, 0.0, 0.0, 0.0, 0.0, 1.6664045150932188E9, 0.0, 2022-10-21 19:08:35.093
177.0, -130621.35942236894, -157444.50330072682, -33695.00889718639, -140548.46203904893, 68440.2592110943, -108338.10071207295, 56177.48870581254, -110742.52256661923, 0.022, 0.9580000000000001, -0.044, 192.0, 0.0, 0.0, 0.0, 0.0, 0.0, 0.0, 0.0, 0.0, 0.0, 1.6664045150932353E9, 0.0, 2022-10-21 19:08:35.093
178.0, -130622.6781752918, -157452.66168745302, -33704.68720253553, -140561.94014095547, 68431.63143773454, -108362.86644492942, 56154.756981701496, -110761.61095638406, 0.022, 0.9580000000000001, -0.044, 192.0, 0.0, 0.0, 0.0, 0.0, 0.0, 0.0, 0.0, 0.0, 0.0, 1.66640451509327E9, 0.0, 2022-10-21 19:08:35.093
179.0, -130635.41866963133, -157459.88130091206, -33711.77270552787, -140561.38134734408, 68425.86468766507, -108356.58560473748, 56159.11557187028, -110764.76255235226, 0.022, 0.9580000000000001, -0.044, 192.0, 0.0, 0.0, 0.0, 0.0, 0.0, 0.0, 0.0, 0.0, 0.0, 1.6664045150932865E9, 0.0, 2022-10-21 19:08:35.093
180.0, -130634.27873066411, -157455.03097236526, -33699.255728632896, -140548.3279285822, 68434.17953660245, -108339.06183708452, 56179.92504595817, -110749.85393880057, 0.022, 0.9580000000000001, -0.044, 192.0, 0.0, 0.0, 0.0, 0.0, 0.0, 0.0, 0.0, 0.0, 0.0, 1.6664045150933025E9, 0.0, 2022-10-21 19:08:35.093
181.0, -130642.90650402386, -157458.62960322257, -33696.79703674281, -140552.95473968444, 68438.87340293806, -108332.51277595911, 56185.28946462744, -110745.98708700981, 0.022, 0.9580000000000001, -0.044, 192.0, 0.0, 0.0, 0.0, 0.0, 0.0, 0.0, 0.0, 0.0, 0.0, 1.6664045150933187E9, 0.0, 2022-10-21 19:08:35.093
182.0, -130649.56732387154, -157466.5644725042, -33697.55699605429, -140557.31332985323, 68439.29808608271, -108346.03558135458, 56173.37598483277, -110746.27765968772, 0.022, 0.9580000000000001, -0.044, 192.0, 0.0, 0.0, 0.0, 0.0, 0.0, 0.0, 0.0, 0.0, 0.0, 1.666404515093338E9, 0.0, 2022-10-21 19:08:35.093
183.0, -130658.0386350201, -157478.5226557878, -33700.90975772259, -140549.60197801614, 68439.27573433825, -108349.79067442307, 56167.83275220785, -110750.92682253443, 0.022, 0.964, -0.044, 192.0, 0.0, 176.0, 30.0, 32.0, 254.0, 160.0, 0.0, 0.0, 0.0, 1.666404515093354E9, 0.0, 2022-10-21 19:08:35.093
184.0, -130674.62362940593, -157493.8783042286, -33706.92237698107, -140550.16077162753, 68433.44192903543, -108325.0696450555, 56182.62960703726, -110754.99484002529, 0.022, 0.964, -0.044, 192.0, 0.0, 0.0, 0.0, 0.0, 0.0, 0.0, 0.0, 0.0, 0.0, 1.6664045150933716E9, 0.0, 2022-10-21 19:08:35.093
185.0, -130695.7460279162, -157513.39137713806, -33716.13129569665, -140558.87795196509, 68428.47984176634, -108327.77420613459, 56178.96392094659, -110760.80629358368, 0.022, 0.964, -0.044, 192.0, 0.0, 0.0, 0.0, 0.0, 0.0, 0.0, 0.0, 0.0, 0.0, 1.6664045150933876E9, 0.0, 2022-10-21 19:08:35.093
186.0, -130702.09392334151, -157522.71205457594, -33711.683298550044, -140557.20157113095, 68434.58186800264, -108348.31545928902, 56167.00573766301, -110751.01622951224, 0.022, 0.964, -0.044, 192.0, 0.0, 0.0, 0.0, 0.0, 0.0, 0.0, 0.0, 0.0, 0.0, 1.6664045150934036E9, 0.0, 2022-10-21 19:08:35.093
187.0, -130710.14055134542, -157527.20475521145, -33713.24792066192, -140553.08885015117, 68431.63143773454, -108356.80912218204, 56160.18845560413, -110750.79271206769, 0.022, 0.964, -0.044, 192.0, 0.0, 0.0, 0.0, 0.0, 0.0, 0.0, 0.0, 0.0, 0.0, 1.66640451509342E9, 0.0, 2022-10-21 19:08:35.093
188.0, -130726.79260096463, -157542.51570016335, -33719.14878119812, -140549.26670184932, 68425.52941149824, -108345.43208425428, 56166.69281324063, -110756.04537201469, 0.022, 0.964, -0.044, 192.0, 0.0, 0.0, 0.0, 0.0, 0.0, 0.0, 0.0, 0.0, 0.0, 1.666404515093436E9, 0.0, 2022-10-21 19:08:35.093
189.0, -130737.45438306981, -157561.8499591172, -33730.503467381415, -140561.31429211074, 68413.90650438148, -108345.11915983191, 56160.38962130423, -110766.68480237541, 0.022, 0.964, -0.044, 192.0, 0.0, 0.0, 0.0, 0.0, 0.0, 0.0, 0.0, 0.0, 0.0, 1.6664045150934525E9, 0.0, 2022-10-21 19:08:35.093
190.0, -130755.00050246723, -157586.39217452912, -33736.69490059554, -140578.6368940636, 68409.45850723487, -108368.8790641879, 56136.786179159426, -110774.06087804567, 0.022, 0.964, -0.044, 192.0, 0.0, 0.0, 0.0, 0.0, 0.0, 0.0, 0.0, 0.0, 0.0, 1.6664045150934682E9, 0.0, 2022-10-21 19:08:35.093
191.0, -130771.9654765088, -157596.60692174517, -33736.91841804009, -140575.172373673, 68411.55957121367, -108378.69148000378, 56127.3984464882, -110773.32327047865, 0.022, 0.964, -0.044, 192.0, 0.0, 0.0, 0.0, 0.0, 0.0, 0.0, 0.0, 0.0, 0.0, 1.666404515093484E9, 0.0, 2022-10-21 19:08:35.093
192.0, -130781.04028475766, -157601.05491889178, -33722.03215623285, -140548.30557683774, 68428.39043478853, -108341.56523246352, 56156.94745265812, -110759.28637496072, 0.022, 0.964, -0.044, 192.0, 0.0, 0.0, 0.0, 0.0, 0.0, 0.0, 0.0, 0.0, 0.0, 1.6664045150935E9, 0.0, 2022-10-21 19:08:35.093
193.0, -130791.03151452918, -157615.42709057656, -33725.22845568996, -140548.5737977712, 68427.09403361012, -108324.35438923293, 56166.93868242964, -110761.5886046396, 0.022, 0.972, -0.04, 192.0, 0.0, 176.0, 30.0, 96.0, 254.0, 192.0, 0.0, 0.0, 0.0, 1.6664045150935335E9, 0.0, 2022-10-21 19:08:35.093
194.0, -130798.65345938844, -157626.1112244262, -33730.59287435924, -140562.63304503358, 68421.30493179618, -108360.51951176161, 56138.26139429348, -110761.9462325509, 0.022, 0.972, -0.04, 192.0, 0.0, 0.0, 0.0, 0.0, 0.0, 0.0, 0.0, 0.0, 0.0, 1.66640451509355E9, 0.0, 2022-10-21 19:08:35.093
195.0, -130817.58538694208, -157639.9693059885, -33729.56469411429, -140561.76132699984, 68419.00270211729, -108385.084078918, 56121.22936501853, -110764.51668316325, 0.022, 0.972, -0.04, 192.0, 0.0, 0.0, 0.0, 0.0, 0.0, 0.0, 0.0, 0.0, 0.0, 1.6664045150935655E9, 0.0, 2022-10-21 19:08:35.093
196.0, -130817.51833170872, -157660.64466960964, -33734.48207789446, -140555.34637634116, 68419.76266142877, -108370.01900315512, 56133.567527957865, -110774.30674723467, 0.022, 0.972, -0.04, 192.0, 0.0, 0.0, 0.0, 0.0, 0.0, 0.0, 0.0, 0.0, 0.0, 1.6664045150935807E9, 0.0, 2022-10-21 19:08:35.093
197.0, -130832.33753828259, -157669.78653309186, -33736.47138315098, -140556.12868739708, 68422.91425739697, -108345.00740110963, 56150.756019443994, -110773.9491193234, 0.022, 0.972, -0.04, 192.0, 0.0, 0.0, 0.0, 0.0, 0.0, 0.0, 0.0, 0.0, 0.0, 1.6664045150935955E9, 0.0, 2022-10-21 19:08:35.093
198.0, -130844.31807331063, -157680.98475706397, -33739.39946167463, -140563.43770783397, 68423.94243764192, -108340.04531384056, 56149.01258337648, -110763.57790989614, 0.022, 0.972, -0.04, 192.0, 0.0, 0.0, 0.0, 0.0, 0.0, 0.0, 0.0, 0.0, 0.0, 1.6664045150936103E9, 0.0, 2022-10-21 19:08:35.093
199.0, -130848.58725650159, -157689.1654955346, -33740.00295877492, -140566.7234142689, 68426.75875744328, -108361.01125013964, 56129.83478663383, -110762.32621220664, 0.022, 0.972, -0.04, 192.0, 0.0, 0.0, 0.0, 0.0, 0.0, 0.0, 0.0, 0.0, 0.0, 1.6664045150936248E9, 0.0, 2022-10-21 19:08:35.093
200.0, -130851.60474200307, -157694.1722862926, -33743.646293121135, -140562.16365840004, 68426.15526034299, -108364.65458448585, 56130.95237385659, -110758.21349122685, 0.022, 0.972, -0.04, 192.0, 0.0, 0.0, 0.0, 0.0, 0.0, 0.0, 0.0, 0.0, 0.0, 1.6664045150936403E9, 0.0, 2022-10-21 19:08:35.093
201.0, -130867.40742533296, -157709.4832312445, -33745.56854314429, -140560.08494616568, 68426.02114987627, -108344.06862784251, 56144.29636529641, -110765.7907325972, 0.022, 0.972, -0.04, 192.0, 0.0, 0.0, 0.0, 0.0, 0.0, 0.0, 0.0, 0.0, 0.0, 1.666404515093655E9, 0.0, 2022-10-21 19:08:35.093
202.0, -130875.7893295037, -157722.20137383955, -33747.11081351171, -140565.4717165794, 68429.17274584445, -108349.18717732278, 56138.663725693674, -110764.00259304079, 0.022, 0.972, -0.04, 192.0, 0.0, 0.0, 0.0, 0.0, 0.0, 0.0, 0.0, 0.0, 0.0, 1.66640451509367E9, 0.0, 2022-10-21 19:08:35.093
203.0, -130886.87579475353, -157735.41125481264, -33764.43341546457, -140573.69715853897, 68421.52844924074, -108367.80618045405, 56118.457748706074, -110773.9938228123, 0.024, 0.968, -0.038, 192.0, 0.0, 192.0, 30.0, 64.0, 254.0, 208.0, 0.0, 0.0, 0.0, 1.666404515093685E9, 0.0, 2022-10-21 19:08:35.093
204.0, -130894.83301577963, -157743.234365372, -33772.792967890855, -140574.34535912817, 68414.04061484821, -108360.78773269508, 56119.932963840125, -110785.28145376223, 0.024, 0.968, -0.038, 192.0, 0.0, 0.0, 0.0, 0.0, 0.0, 0.0, 0.0, 0.0, 0.0, 1.6664045150937033E9, 0.0, 2022-10-21 19:08:35.093
205.0, -130890.89910875549, -157739.25575485895, -33758.77842411738, -140568.64566429207, 68420.38851027352, -108350.95296513474, 56136.294440781414, -110776.83249435812, 0.024, 0.968, -0.038, 192.0, 0.0, 0.0, 0.0, 0.0, 0.0, 0.0, 0.0, 0.0, 0.0, 1.66640451509372E9, 0.0, 2022-10-21 19:08:35.093
206.0, -130896.4423413804, -157749.00111544147, -33769.14963354464, -140576.06644345121, 68419.22621956185, -108360.38540129489, 56129.231289533534, -110778.64298565901, 0.024, 0.968, -0.038, 192.0, 0.0, 0.0, 0.0, 0.0, 0.0, 0.0, 0.0, 0.0, 0.0, 1.6664045150937347E9, 0.0, 2022-10-21 19:08:35.093
207.0, -130904.75719031779, -157758.1429789237, -33773.32940975778, -140586.0800249672, 68416.76752767176, -108377.77505848111, 56114.25562074848, -110779.89468334851, 0.024, 0.968, -0.038, 192.0, 0.0, 0.0, 0.0, 0.0, 0.0, 0.0, 0.0, 0.0, 0.0, 1.6664045150937495E9, 0.0, 2022-10-21 19:08:35.093
208.0, -130906.56768161866, -157755.90780447816, -33770.89306961215, -140580.49208885338, 68420.38851027352, -108370.7789624666, 56118.94948708409, -110782.26396826077, 0.024, 0.968, -0.038, 192.0, 0.0, 0.0, 0.0, 0.0, 0.0, 0.0, 0.0, 0.0, 0.0, 1.6664045150937798E9, 0.0, 2022-10-21 19:08:35.093
209.0, -130910.00985026477, -157756.51130157846, -33767.04856956584, -140570.18793465948, 68427.54106849922, -108365.59335775296, 56129.32069651136, -110779.31353799267, 0.024, 0.968, -0.038, 192.0, 0.0, 0.0, 0.0, 0.0, 0.0, 0.0, 0.0, 0.0, 0.0, 1.6664045150937963E9, 0.0, 2022-10-21 19:08:35.093
210.0, -130907.23823395232, -157764.31206039336, -33767.406197477125, -140570.9255422265, 68431.47497552335, -108376.54571253607, 56122.68222840813, -110783.00157582779, 0.024, 0.968, -0.038, 192.0, 0.0, 0.0, 0.0, 0.0, 0.0, 0.0, 0.0, 0.0, 0.0, 1.6664045150938113E9, 0.0, 2022-10-21 19:08:35.093
211.0, -130919.66580386947, -157783.42280190263, -33777.10685457073, -140586.14708020058, 68418.91329513947, -108397.04226220159, 56104.37614969923, -110789.77415439775, 0.024, 0.968, -0.038, 192.0, 0.0, 0.0, 0.0, 0.0, 0.0, 0.0, 0.0, 0.0, 0.0, 1.666404515093826E9, 0.0, 2022-10-21 19:08:35.093
212.0, -130926.93012081744, -157790.8435810618, -33782.672438940106, -140587.75640580137, 68412.43128924743, -108394.9859017117, 56102.610361887266, -110793.9986340998, 0.026000000000000002, 0.9520000000000001, -0.034, 192.0, 0.0, 208.0, 29.0, 192.0, 254.0, 240.0, 0.0, 0.0, 0.0, 1.6664045150938413E9, 0.0, 2022-10-21 19:08:35.093
213.0, -130927.95830106239, -157788.67546184963, -33783.141825573664, -140578.0333969633, 68413.01243460327, -108378.15503813686, 56117.831899861325, -110794.06568933318, 0.026000000000000002, 0.9520000000000001, -0.034, 192.0, 0.0, 0.0, 0.0, 0.0, 0.0, 0.0, 0.0, 0.0, 0.0, 1.6664045150938575E9, 0.0, 2022-10-21 19:08:35.093
214.0, -130935.53554243274, -157794.26339796346, -33792.84248266727, -140579.9779987309, 68410.26317003526, -108386.73810800769, 56116.244926005, -110792.81399164368, 0.026000000000000002, 0.9520000000000001, -0.034, 192.0, 0.0, 0.0, 0.0, 0.0, 0.0, 0.0, 0.0, 0.0, 0.0, 1.6664045150938733E9, 0.0, 2022-10-21 19:08:35.093
215.0, -130937.81542036719, -157799.73957535502, -33793.87066291221, -140588.04697847928, 68410.5537427132, -108392.4825063327, 56106.70073112258, -110795.96558761188, 0.026000000000000002, 0.9520000000000001, -0.034, 192.0, 0.0, 0.0, 0.0, 0.0, 0.0, 0.0, 0.0, 0.0, 0.0, 1.6664045150938878E9, 0.0, 2022-10-21 19:08:35.093
216.0, -130939.73767039034, -157804.34403471282, -33791.41197102213, -140587.95757150147, 68410.57609445765, -108408.19578268478, 56098.92232405214, -110792.65752943249, 0.026000000000000002, 0.9520000000000001, -0.034, 192.0, 0.0, 0.0, 0.0, 0.0, 0.0, 0.0, 0.0, 0.0, 0.0, 1.6664045150939033E9, 0.0, 2022-10-21 19:08:35.093
217.0, -130945.95145534891, -157814.87170635126, -33802.789008949876, -140581.2743999093, 68404.51877171025, -108400.79735527007, 56105.35962645527, -110799.38540451354, 0.026000000000000002, 0.9520000000000001, -0.034, 192.0, 0.0, 0.0, 0.0, 0.0, 0.0, 0.0, 0.0, 0.0, 0.0, 1.666404515093918E9, 0.0, 2022-10-21 19:08:35.093
218.0, -130946.84552512712, -157814.82700286235, -33805.89590142917, -140579.19568767498, 68403.55764669868, -108390.336738865, 56111.46165269156, -110800.7041574364, 0.026000000000000002, 0.9520000000000001, -0.034, 192.0, 0.0, 0.0, 0.0, 0.0, 0.0, 0.0, 0.0, 0.0, 0.0, 1.6664045150939329E9, 0.0, 2022-10-21 19:08:35.093
219.0, -130952.65697868551, -157821.46547096557, -33803.25839558344, -140584.5824580887, 68402.9988530873, -108406.07236696153, 56099.302303707875, -110801.77704117025, 0.026000000000000002, 0.9520000000000001, -0.034, 192.0, 0.0, 0.0, 0.0, 0.0, 0.0, 0.0, 0.0, 0.0, 0.0, 1.6664045150939472E9, 0.0, 2022-10-21 19:08:35.093
220.0, -130963.63168521305, -157835.56942171688, -33805.47121828452, -140585.0741964667, 68400.60721643058, -108413.38138739842, 56094.76489958345, -110803.34166328212, 0.026000000000000002, 0.9520000000000001, -0.034, 192.0, 0.0, 0.0, 0.0, 0.0, 0.0, 0.0, 0.0, 0.0, 0.0, 1.666404515093962E9, 0.0, 2022-10-21 19:08:35.093
221.0, -130960.97182762288, -157830.27205828097, -33804.17481710611, -140577.20638241846, 68399.78020188573, -108395.8799714899, 56112.62394340324, -110799.4524597469, 0.026000000000000002, 0.9520000000000001, -0.034, 192.0, 0.0, 0.0, 0.0, 0.0, 0.0, 0.0, 0.0, 0.0, 0.0, 1.6664045150939767E9, 0.0, 2022-10-21 19:08:35.093
222.0, -130968.57142073769, -157832.86486063778, -33808.44400029707, -140582.928428999, 68395.28750125022, -108385.5311138071, 56119.73179814003, -110801.24059930333, 0.018000000000000002, 0.9500000000000001, -0.032, 192.0, 0.0, 144.0, 29.0, 176.0, 255.0, 0.0, 0.0, 0.0, 0.0, 1.666404515093992E9, 0.0, 2022-10-21 19:08:35.093
223.0, -130960.14481307803, -157831.993142604, -33808.667517741625, -140589.2763244243, 68395.39925997249, -108399.52330583612, 56104.82318458834, -110796.83730564563, 0.018000000000000002, 0.9500000000000001, -0.032, 192.0, 0.0, 0.0, 0.0, 0.0, 0.0, 0.0, 0.0, 0.0, 0.0, 1.6664045150940225E9, 0.0, 2022-10-21 19:08:35.094
224.0, -130957.0602723432, -157831.255535037, -33806.65586074065, -140586.14708020058, 68401.50128620879, -108417.42705314483, 56089.53459138091, -110793.05986083268, 0.018000000000000002, 0.9500000000000001, -0.032, 192.0, 0.0, 0.0, 0.0, 0.0, 0.0, 0.0, 0.0, 0.0, 0.0, 1.6664045150940373E9, 0.0, 2022-10-21 19:08:35.094
225.0, -130966.89503990354, -157837.06698859538, -33810.99209916498, -140577.54165858528, 68402.28359726473, -108399.50095409167, 56101.78334734242, -110793.32808176614, 0.018000000000000002, 0.9500000000000001, -0.032, 192.0, 0.0, 0.0, 0.0, 0.0, 0.0, 0.0, 0.0, 0.0, 0.0, 1.6664045150940542E9, 0.0, 2022-10-21 19:08:35.094
226.0, -130970.7618916943, -157840.33034328584, -33808.533407274896, -140575.35118762866, 68404.33995775461, -108373.03648865658, 56121.63169641873, -110791.09290732062, 0.018000000000000002, 0.9500000000000001, -0.032, 192.0, 0.0, 0.0, 0.0, 0.0, 0.0, 0.0, 0.0, 0.0, 0.0, 1.666404515094069E9, 0.0, 2022-10-21 19:08:35.094
227.0, -130978.16031910901, -157851.52856725795, -33813.02610791041, -140590.10333896917, 68401.36717574205, -108393.60009355546, 56101.80569908687, -110797.50785797929, 0.018000000000000002, 0.9500000000000001, -0.032, 192.0, 0.0, 0.0, 0.0, 0.0, 0.0, 0.0, 0.0, 0.0, 0.0, 1.666404515094084E9, 0.0, 2022-10-21 19:08:35.094
228.0, -130980.79782495473, -157853.9202039147, -33810.8803404427, -140595.35599891617, 68398.26028326277, -108412.93435250931, 56082.24792268848, -110801.33000628115, 0.018000000000000002, 0.9500000000000001, -0.032, 192.0, 0.0, 0.0, 0.0, 0.0, 0.0, 0.0, 0.0, 0.0, 0.0, 1.6664045150940988E9, 0.0, 2022-10-21 19:08:35.094
229.0, -130981.08839763266, -157849.74042770153, -33806.566453762825, -140590.70683606947, 68396.87447510654, -108403.30075064907, 56089.91457103665, -110800.92767488095, 0.018000000000000002, 0.9500000000000001, -0.032, 192.0, 0.0, 0.0, 0.0, 0.0, 0.0, 0.0, 0.0, 0.0, 0.0, 1.666404515094114E9, 0.0, 2022-10-21 19:08:35.094
230.0, -130975.79103419675, -157840.4644537526, -33801.02322113791, -140584.5824580887, 68402.35065249809, -108373.14824737886, 56116.021408560446, -110793.21632304387, 0.018000000000000002, 0.9500000000000001, -0.032, 192.0, 0.0, 0.0, 0.0, 0.0, 0.0, 0.0, 0.0, 0.0, 0.0, 1.6664045150941286E9, 0.0, 2022-10-21 19:08:35.094
231.0, -130984.19529011194, -157854.9707359041, -33807.54993051886, -140593.00906574834, 68398.52850419623, -108366.50977927564, 56118.122472539246, -110799.09483183561, 0.018000000000000002, 0.9500000000000001, -0.032, 192.0, 0.0, 0.0, 0.0, 0.0, 0.0, 0.0, 0.0, 0.0, 0.0, 1.6664045150941432E9, 0.0, 2022-10-21 19:08:35.094
232.0, -130993.53831929427, -157868.62765176626, -33811.50618928745, -140605.3472286877, 68390.3924692145, -108389.7332417647, 56098.609399629764, -110810.24835231881, 0.016, 0.9560000000000001, -0.036000000000000004, 192.0, 0.0, 128.0, 29.0, 224.0, 254.0, 224.0, 0.0, 0.0, 0.0, 1.666404515094158E9, 0.0, 2022-10-21 19:08:35.094
233.0, -130996.10876990663, -157872.51685530148, -33810.70152648706, -140599.80399606278, 68385.40803020097, -108402.1831634263, 56091.88152454871, -110809.7566139408, 0.016, 0.9560000000000001, -0.036000000000000004, 192.0, 0.0, 0.0, 0.0, 0.0, 0.0, 0.0, 0.0, 0.0, 0.0, 1.6664045150941737E9, 0.0, 2022-10-21 19:08:35.094
234.0, -130996.33228735118, -157872.58391053486, -33806.92408167411, -140589.96922850242, 68387.19616975739, -108391.96841621023, 56105.98547530002, -110806.06857610567, 0.016, 0.9560000000000001, -0.036000000000000004, 192.0, 0.0, 0.0, 0.0, 0.0, 0.0, 0.0, 0.0, 0.0, 0.0, 1.6664045150941887E9, 0.0, 2022-10-21 19:08:35.094
235.0, -131005.4741508334, -157883.08923042886, -33808.801628208355, -140591.66796108102, 68390.3924692145, -108390.40379409835, 56107.52774566743, -110810.49422150782, 0.016, 0.9560000000000001, -0.036000000000000004, 192.0, 0.0, 0.0, 0.0, 0.0, 0.0, 0.0, 0.0, 0.0, 0.0, 1.6664045150942037E9, 0.0, 2022-10-21 19:08:35.094
236.0, -131003.7754182548, -157881.14462866125, -33807.482875285496, -140594.01489424883, 68395.93570183942, -108389.95675920925, 56105.51608866645, -110807.4543842619, 0.016, 0.9560000000000001, -0.036000000000000004, 192.0, 0.0, 0.0, 0.0, 0.0, 0.0, 0.0, 0.0, 0.0, 0.0, 1.6664045150942183E9, 0.0, 2022-10-21 19:08:35.094
237.0, -131005.45179908894, -157882.79865775094, -33805.49357002897, -140590.50567036937, 68392.78410587122, -108399.85858200295, 56098.51999265194, -110802.402890015, 0.016, 0.9560000000000001, -0.036000000000000004, 192.0, 0.0, 0.0, 0.0, 0.0, 0.0, 0.0, 0.0, 0.0, 0.0, 1.6664045150942333E9, 0.0, 2022-10-21 19:08:35.094
238.0, -131014.43720035997, -157896.50027710205, -33815.64126201168, -140587.19761218998, 68382.27878597722, -108373.0811921455, 56115.37320797124, -110810.94125639692, 0.016, 0.9560000000000001, -0.036000000000000004, 192.0, 0.0, 0.0, 0.0, 0.0, 0.0, 0.0, 0.0, 0.0, 0.0, 1.666404515094298E9, 0.0, 2022-10-21 19:08:35.094
239.0, -131016.0241742163, -157900.09890795936, -33813.71901198853, -140589.85746978017, 68381.51882666575, -108373.23765435668, 56117.0942922943, -110802.46994524836, 0.016, 0.9560000000000001, -0.036000000000000004, 192.0, 0.0, 0.0, 0.0, 0.0, 0.0, 0.0, 0.0, 0.0, 0.0, 1.6664045150943131E9, 0.0, 2022-10-21 19:08:35.094
1.0, -130622.34289912498, -157475.79574296426, -33768.14380504415, -140578.65924580806, 68439.02986514925, -108534.1702144349, 56157.059211380394, -110754.1901772249, 0.024, 0.962, -0.048, 192.0, 0.0, 192.0, 30.0, 16.0, 254.0, 128.0, 0.0, 0.0, 0.0, 1.666404515663186E9, 0.0, 2022-10-21 19:08:35.663
2.0, -130627.97553872771, -157484.60233027965, -33781.15252031714, -140579.55331558626, 68433.24076333533, -108547.91653727491, 56142.172949573156, -110772.71977337835, 0.024, 0.962, -0.048, 192.0, 0.0, 0.0, 0.0, 0.0, 0.0, 0.0, 0.0, 0.0, 0.0, 1.666404515663289E9, 0.0, 2022-10-21 19:08:35.663
3.0, -130630.836562018, -157487.35159484766, -33782.31481102882, -140572.5348678273, 68435.20771684739, -108513.71836825828, 56164.97172891757, -110777.97243332535, 0.024, 0.962, -0.048, 192.0, 0.0, 0.0, 0.0, 0.0, 0.0, 0.0, 0.0, 0.0, 0.0, 1.6664045156633124E9, 0.0, 2022-10-21 19:08:35.663
4.0, -130629.9871957287, -157487.418650081, -33784.10295058524, -140579.10628069716, 68431.94436215692, -108503.95065593132, 56172.236045865546, -110776.0948867911, 0.024, 0.962, -0.048, 192.0, 0.0, 0.0, 0.0, 0.0, 0.0, 0.0, 0.0, 0.0, 0.0, 1.666404515663342E9, 0.0, 2022-10-21 19:08:35.663
5.0, -130624.66748054833, -157480.19903662195, -33781.35368601724, -140582.21317317642, 68433.64309473553, -108524.29074338565, 56157.59565324732, -110771.6021861556, 0.024, 0.962, -0.048, 192.0, 0.0, 0.0, 0.0, 0.0, 0.0, 0.0, 0.0, 0.0, 0.0, 1.6664045156633594E9, 0.0, 2022-10-21 19:08:35.663
6.0, -130629.00371897266, -157484.15529539052, -33788.55094773185, -140584.40364413307, 68428.21162083288, -108531.62211556699, 56147.58207173134, -110781.21343627137, 0.024, 0.962, -0.048, 192.0, 0.0, 0.0, 0.0, 0.0, 0.0, 0.0, 0.0, 0.0, 0.0, 1.666404515663376E9, 0.0, 2022-10-21 19:08:35.663
7.0, -130624.91334973734, -157480.19903662195, -33776.704523170534, -140573.78656551678, 68432.61491449058, -108544.42966513988, 56145.07867635235, -110776.54192168021, 0.02, 0.96, -0.046, 192.0, 0.0, 160.0, 30.0, 0.0, 254.0, 144.0, 0.0, 0.0, 0.0, 1.666404515663401E9, 0.0, 2022-10-21 19:08:35.663
8.0, -130627.17087592732, -157481.38367907808, -33780.280802283385, -140568.5786090587, 68435.11830986958, -108532.94086848985, 56159.45084803711, -110772.38449721152, 0.02, 0.96, -0.046, 192.0, 0.0, 0.0, 0.0, 0.0, 0.0, 0.0, 0.0, 0.0, 0.0, 1.6664045156634192E9, 0.0, 2022-10-21 19:08:35.663
9.0, -130629.00371897266, -157484.8258477242, -33790.94258438857, -140582.66020806556, 68426.66935046547, -108546.8213017966, 56149.90665315469, -110777.61480541406, 0.02, 0.96, -0.046, 192.0, 0.0, 0.0, 0.0, 0.0, 0.0, 0.0, 0.0, 0.0, 0.0, 1.666404515663436E9, 0.0, 2022-10-21 19:08:35.663
10.0, -130633.76464054165, -157489.676176271, -33795.47998851299, -140591.0421122363, 68424.59063823112, -108558.17598797989, 56139.49074023852, -110768.56234890966, 0.02, 0.96, -0.046, 192.0, 0.0, 0.0, 0.0, 0.0, 0.0, 0.0, 0.0, 0.0, 0.0, 1.6664045156634529E9, 0.0, 2022-10-21 19:08:35.663
11.0, -130625.1368671819, -157480.24374011086, -33786.49458724196, -140577.09462369618, 68439.0522168937, -108534.28197315717, 56160.36726955978, -110748.13285447752, 0.02, 0.96, -0.046, 192.0, 0.0, 0.0, 0.0, 0.0, 0.0, 0.0, 0.0, 0.0, 0.0, 1.6664045156634696E9, 0.0, 2022-10-21 19:08:35.663
12.0, -130621.24766364666, -157475.70633598644, -33787.25454655344, -140567.5280770693, 68443.79078671822, -108512.93605720236, 56177.60046453482, -110754.34663943609, 0.02, 0.96, -0.046, 192.0, 0.0, 0.0, 0.0, 0.0, 0.0, 0.0, 0.0, 0.0, 0.0, 1.6664045156634867E9, 0.0, 2022-10-21 19:08:35.663
13.0, -130617.11259092244, -157471.97359466238, -33780.54902321685, -140569.45032709246, 68447.14354838652, -108524.55896431912, 56173.755964488504, -110760.58277613913, 0.02, 0.96, -0.046, 192.0, 0.0, 0.0, 0.0, 0.0, 0.0, 0.0, 0.0, 0.0, 0.0, 1.6664045156635036E9, 0.0, 2022-10-21 19:08:35.663
14.0, -130621.20296015775, -157473.7617342188, -33783.96884011851, -140576.15585042906, 68443.4108070625, -108544.13909246196, 56156.34395555782, -110769.61288089906, 0.02, 0.96, -0.046, 192.0, 0.0, 0.0, 0.0, 0.0, 0.0, 0.0, 0.0, 0.0, 0.0, 1.6664045156635845E9, 0.0, 2022-10-21 19:08:35.663
15.0, -130623.30402413655, -157476.68981274246, -33784.84055815227, -140567.25985613585, 68442.53908902874, -108531.97974347828, 56160.23315909305, -110769.2999564767, 0.02, 0.96, -0.046, 192.0, 0.0, 0.0, 0.0, 0.0, 0.0, 0.0, 0.0, 0.0, 0.0, 1.6664045156636014E9, 0.0, 2022-10-21 19:08:35.663
16.0, -130631.66357656285, -157484.44586806846, -33793.80360767885, -140569.58443755918, 68433.33017031314, -108500.93317042985, 56175.991138934034, -110781.14638103801, 0.02, 0.96, -0.046, 192.0, 0.0, 0.0, 0.0, 0.0, 0.0, 0.0, 0.0, 0.0, 0.0, 1.6664045156636183E9, 0.0, 2022-10-21 19:08:35.663
17.0, -130629.8307335175, -157481.98717617837, -33790.71906694402, -140578.45808010796, 68437.53229827074, -108511.84082172405, 56170.31379584239, -110777.39128796951, 0.018000000000000002, 0.9560000000000001, -0.052000000000000005, 192.0, 0.0, 144.0, 29.0, 224.0, 254.0, 96.0, 0.0, 0.0, 0.0, 1.6664045156636355E9, 0.0, 2022-10-21 19:08:35.663
18.0, -130624.9804049707, -157477.0697923982, -33788.99798262095, -140585.34241740018, 68438.71694072688, -108522.25673464022, 56162.78125796095, -110773.61384315656, 0.018000000000000002, 0.9560000000000001, -0.052000000000000005, 192.0, 0.0, 0.0, 0.0, 0.0, 0.0, 0.0, 0.0, 0.0, 0.0, 1.666404515663654E9, 0.0, 2022-10-21 19:08:35.663
19.0, -130628.84725676147, -157478.3214900877, -33795.591747235274, -140581.85554526516, 68433.9560191579, -108533.9690487348, 56155.98632764654, -110777.45834320287, 0.018000000000000002, 0.9560000000000001, -0.052000000000000005, 192.0, 0.0, 0.0, 0.0, 0.0, 0.0, 0.0, 0.0, 0.0, 0.0, 1.6664045156636715E9, 0.0, 2022-10-21 19:08:35.663
20.0, -130635.01633823113, -157485.6752140135, -33803.146636861165, -140575.06061495075, 68429.88800166703, -108505.53762978765, 56178.44983082412, -110780.43112521543, 0.018000000000000002, 0.9560000000000001, -0.052000000000000005, 192.0, 0.0, 0.0, 0.0, 0.0, 0.0, 0.0, 0.0, 0.0, 0.0, 1.6664045156636882E9, 0.0, 2022-10-21 19:08:35.663
21.0, -130631.46241086275, -157484.669385513, -33804.398334550664, -140579.10628069716, 68428.34573129962, -108518.09931017153, 56180.95322620311, -110762.03563952871, 0.018000000000000002, 0.9560000000000001, -0.052000000000000005, 192.0, 0.0, 0.0, 0.0, 0.0, 0.0, 0.0, 0.0, 0.0, 0.0, 1.6664045156637056E9, 0.0, 2022-10-21 19:08:35.663
22.0, -130629.00371897266, -157479.1261528881, -33800.03974438187, -140584.60480983317, 68431.11734761207, -108543.69205757286, 56163.78708646144, -110764.0920000186, 0.018000000000000002, 0.9560000000000001, -0.052000000000000005, 192.0, 0.0, 0.0, 0.0, 0.0, 0.0, 0.0, 0.0, 0.0, 0.0, 1.666404515663725E9, 0.0, 2022-10-21 19:08:35.663
23.0, -130641.20777144526, -157488.64799602606, -33802.520788016416, -140585.74474880038, 68429.32920805564, -108535.4666156133, 56161.12722887126, -110774.50791293477, 0.018000000000000002, 0.9560000000000001, -0.052000000000000005, 192.0, 0.0, 0.0, 0.0, 0.0, 0.0, 0.0, 0.0, 0.0, 0.0, 1.6664045156637418E9, 0.0, 2022-10-21 19:08:35.663
24.0, -130644.31466392454, -157493.99006295088, -33808.06402064133, -140577.5863620742, 68426.35642604309, -108521.60853405102, 56171.87841795426, -110776.85484610258, 0.018000000000000002, 0.9560000000000001, -0.052000000000000005, 192.0, 0.0, 0.0, 0.0, 0.0, 0.0, 0.0, 0.0, 0.0, 0.0, 1.6664045156637588E9, 0.0, 2022-10-21 19:08:35.663
25.0, -130635.9327597538, -157484.73644074638, -33803.86189268374, -140574.2336004059, 68428.81511793318, -108518.34517936053, 56178.27101686848, -110774.64202340151, 0.018000000000000002, 0.9560000000000001, -0.052000000000000005, 192.0, 0.0, 0.0, 0.0, 0.0, 0.0, 0.0, 0.0, 0.0, 0.0, 1.666404515663776E9, 0.0, 2022-10-21 19:08:35.663
26.0, -130641.11836446743, -157487.6198157811, -33810.63447125369, -140579.95564698646, 68427.56342024368, -108525.85536549753, 56167.341013829835, -110773.39032571201, 0.018000000000000002, 0.9560000000000001, -0.052000000000000005, 192.0, 0.0, 0.0, 0.0, 0.0, 0.0, 0.0, 0.0, 0.0, 0.0, 1.6664045156637933E9, 0.0, 2022-10-21 19:08:35.663
27.0, -130639.03965223308, -157485.9657866914, -33808.06402064133, -140578.5251353413, 68428.92687665545, -108536.9641824918, 56157.72976371405, -110769.92580532144, 0.02, 0.9560000000000001, -0.054, 192.0, 0.0, 160.0, 29.0, 224.0, 254.0, 80.0, 0.0, 0.0, 0.0, 1.6664045156638105E9, 0.0, 2022-10-21 19:08:35.663
28.0, -130640.15723945586, -157488.80445823722, -33807.57228226332, -140571.931370727, 68430.4020917895, -108539.19935693734, 56158.91440617018, -110781.92869209393, 0.02, 0.9560000000000001, -0.054, 192.0, 0.0, 0.0, 0.0, 0.0, 0.0, 0.0, 0.0, 0.0, 0.0, 1.666404515663829E9, 0.0, 2022-10-21 19:08:35.663
29.0, -130649.47791689372, -157496.5828653077, -33814.09899164426, -140577.40754811856, 68424.36712078657, -108532.7173510453, 56165.32935682886, -110787.04724157421, 0.02, 0.9560000000000001, -0.054, 192.0, 0.0, 0.0, 0.0, 0.0, 0.0, 0.0, 0.0, 0.0, 0.0, 1.6664045156638663E9, 0.0, 2022-10-21 19:08:35.663
30.0, -130648.82971630452, -157495.59938855164, -33813.11551488823, -140588.47166162392, 68424.16595508647, -108538.75232204824, 56161.28369108245, -110787.18135204093, 0.02, 0.9560000000000001, -0.054, 192.0, 0.0, 0.0, 0.0, 0.0, 0.0, 0.0, 0.0, 0.0, 0.0, 1.6664045156638832E9, 0.0, 2022-10-21 19:08:35.663
31.0, -130643.73351856871, -157493.78889725078, -33807.326413074305, -140587.59994359018, 68425.79763243171, -108564.00979328273, 56147.38090603124, -110783.49331420581, 0.02, 0.9560000000000001, -0.054, 192.0, 0.0, 0.0, 0.0, 0.0, 0.0, 0.0, 0.0, 0.0, 0.0, 1.6664045156639E9, 0.0, 2022-10-21 19:08:35.663
32.0, -130637.31856791003, -157487.172780892, -33800.82205543781, -140575.5747050732, 68429.77624294475, -108569.41891544091, 56149.61608047677, -110775.06670654616, 0.02, 0.9560000000000001, -0.054, 192.0, 0.0, 0.0, 0.0, 0.0, 0.0, 0.0, 0.0, 0.0, 0.0, 1.6664045156639168E9, 0.0, 2022-10-21 19:08:35.663
33.0, -130637.47503012122, -157484.2670541128, -33792.663668711626, -140564.22001888993, 68437.66640873748, -108539.28876391516, 56174.58297903335, -110764.0920000186, 0.02, 0.9560000000000001, -0.054, 192.0, 0.0, 0.0, 0.0, 0.0, 0.0, 0.0, 0.0, 0.0, 0.0, 1.6664045156639338E9, 0.0, 2022-10-21 19:08:35.663
34.0, -130640.62662608942, -157487.64216752557, -33799.79387519287, -140579.75448128636, 68431.51967901227, -108533.5667173346, 56171.83371446535, -110772.2950902337, 0.02, 0.9560000000000001, -0.054, 192.0, 0.0, 0.0, 0.0, 0.0, 0.0, 0.0, 0.0, 0.0, 0.0, 1.6664045156639504E9, 0.0, 2022-10-21 19:08:35.663
35.0, -130639.39728014437, -157486.2116558804, -33799.503302514946, -140584.2248301774, 68432.83843193513, -108550.24111869826, 56157.752115458505, -110771.62453790005, 0.02, 0.9560000000000001, -0.054, 192.0, 0.0, 0.0, 0.0, 0.0, 0.0, 0.0, 0.0, 0.0, 0.0, 1.6664045156639671E9, 0.0, 2022-10-21 19:08:35.663
36.0, -130638.14558245488, -157485.5634552912, -33795.368229790714, -140575.35118762866, 68437.1076151261, -108537.05358946964, 56168.27978709696, -110763.93553780741, 0.02, 0.9560000000000001, -0.054, 192.0, 0.0, 0.0, 0.0, 0.0, 0.0, 0.0, 0.0, 0.0, 0.0, 1.666404515663984E9, 0.0, 2022-10-21 19:08:35.663
37.0, -130635.79864928707, -157485.4740483134, -33788.72976168749, -140563.25889387834, 68442.96377217339, -108523.4637288408, 56180.617950036285, -110766.21541574186, 0.016, 0.96, -0.056, 192.0, 0.0, 128.0, 30.0, 0.0, 254.0, 64.0, 0.0, 0.0, 0.0, 1.6664045156640007E9, 0.0, 2022-10-21 19:08:35.664
38.0, -130641.94537901228, -157487.28453961428, -33797.201072836055, -140577.20638241846, 68433.33017031314, -108537.99236273675, 56168.50330454151, -110778.64298565901, 0.016, 0.96, -0.056, 192.0, 0.0, 0.0, 0.0, 0.0, 0.0, 0.0, 0.0, 0.0, 0.0, 1.6664045156640184E9, 0.0, 2022-10-21 19:08:35.664
39.0, -130635.79864928707, -157483.0600599122, -33792.84248266727, -140573.04895794977, 68439.16397561599, -108556.38784842347, 56154.57816774585, -110774.70907863487, 0.016, 0.96, -0.056, 192.0, 0.0, 0.0, 0.0, 0.0, 0.0, 0.0, 0.0, 0.0, 0.0, 1.666404515664035E9, 0.0, 2022-10-21 19:08:35.664
40.0, -130644.00173950217, -157493.6771385285, -33797.44694202506, -140568.24333289187, 68435.6994552254, -108552.67745884389, 56154.42170553467, -110776.81014261367, 0.016, 0.96, -0.056, 192.0, 0.0, 0.0, 0.0, 0.0, 0.0, 0.0, 0.0, 0.0, 0.0, 1.666404515664052E9, 0.0, 2022-10-21 19:08:35.664
41.0, -130642.07948947902, -157491.64312978307, -33789.53442448788, -140567.25985613585, 68434.62657149155, -108550.84461579856, 56163.25064459451, -110768.87527333204, 0.016, 0.96, -0.056, 192.0, 0.0, 0.0, 0.0, 0.0, 0.0, 0.0, 0.0, 0.0, 0.0, 1.6664045156640687E9, 0.0, 2022-10-21 19:08:35.664
42.0, -130641.34188191198, -157489.3632518486, -33786.76280817542, -140565.04703343476, 68441.26503959479, -108540.18283369337, 56174.046537166425, -110767.28829947571, 0.016, 0.96, -0.056, 192.0, 0.0, 0.0, 0.0, 0.0, 0.0, 0.0, 0.0, 0.0, 0.0, 1.666404515664084E9, 0.0, 2022-10-21 19:08:35.664
43.0, -130644.06879473553, -157488.5138855593, -33790.428494266096, -140569.69619628147, 68443.7013797404, -108547.44715064135, 56165.06113589539, -110766.17071225295, 0.016, 0.96, -0.056, 192.0, 0.0, 0.0, 0.0, 0.0, 0.0, 0.0, 0.0, 0.0, 0.0, 1.6664045156640992E9, 0.0, 2022-10-21 19:08:35.664
44.0, -130637.69854756577, -157482.9259494455, -33784.08059884079, -140555.01110017434, 68451.18921413293, -108545.59195585156, 56164.256473095, -110757.07355225964, 0.016, 0.96, -0.056, 192.0, 0.0, 0.0, 0.0, 0.0, 0.0, 0.0, 0.0, 0.0, 0.0, 1.6664045156641288E9, 0.0, 2022-10-21 19:08:35.664
45.0, -130643.75587031317, -157488.96092044841, -33788.72976168749, -140555.79341123026, 68442.96377217339, -108525.69890328633, 56175.43234532265, -110759.6887063609, 0.016, 0.96, -0.056, 192.0, 0.0, 0.0, 0.0, 0.0, 0.0, 0.0, 0.0, 0.0, 0.0, 1.6664045156641445E9, 0.0, 2022-10-21 19:08:35.664
46.0, -130642.61593134594, -157487.91038845901, -33792.75307568945, -140567.63983579158, 68434.8500889361, -108530.68334229986, 56172.61602552128, -110761.65565987298, 0.02, 0.9580000000000001, -0.058, 192.0, 0.0, 160.0, 29.0, 240.0, 254.0, 48.0, 0.0, 0.0, 0.0, 1.6664045156641595E9, 0.0, 2022-10-21 19:08:35.664
47.0, -130646.39337615889, -157491.2184466384, -33799.704468215044, -140579.8215365197, 68430.49149876733, -108549.81643555361, 56153.12530435626, -110771.08809603311, 0.02, 0.9580000000000001, -0.058, 192.0, 0.0, 0.0, 0.0, 0.0, 0.0, 0.0, 0.0, 0.0, 0.0, 1.666404515664176E9, 0.0, 2022-10-21 19:08:35.664
48.0, -130648.27092269313, -157494.19122865098, -33798.0280873809, -140577.98869347438, 68431.13969935653, -108542.79798779465, 56155.42753403515, -110776.0501833022, 0.02, 0.9580000000000001, -0.058, 192.0, 0.0, 0.0, 0.0, 0.0, 0.0, 0.0, 0.0, 0.0, 0.0, 1.6664045156641915E9, 0.0, 2022-10-21 19:08:35.664
49.0, -130645.61106510294, -157490.74906000486, -33793.3789245342, -140567.66218753604, 68434.62657149155, -108529.9680864773, 56164.99408066203, -110775.37963096853, 0.02, 0.9580000000000001, -0.058, 192.0, 0.0, 0.0, 0.0, 0.0, 0.0, 0.0, 0.0, 0.0, 0.0, 1.6664045156642072E9, 0.0, 2022-10-21 19:08:35.664
50.0, -130638.54791385507, -157484.5129233018, -33787.94745063155, -140566.83517299118, 68436.81704244818, -108530.1692521774, 56165.3070050844, -110775.49138969081, 0.02, 0.9580000000000001, -0.058, 192.0, 0.0, 0.0, 0.0, 0.0, 0.0, 0.0, 0.0, 0.0, 0.0, 1.6664045156642244E9, 0.0, 2022-10-21 19:08:35.664
51.0, -130640.20194294477, -157484.13294364608, -33791.79195067787, -140574.01008296135, 68437.88992618203, -108537.67943831437, 56159.11557187028, -110778.73239263683, 0.02, 0.9580000000000001, -0.058, 192.0, 0.0, 0.0, 0.0, 0.0, 0.0, 0.0, 0.0, 0.0, 0.0, 1.66640451566424E9, 0.0, 2022-10-21 19:08:35.664
52.0, -130635.50807660916, -157480.15433313305, -33787.16513957562, -140572.28899863828, 68439.58865876064, -108543.17796745038, 56152.58886248933, -110775.02200305725, 0.02, 0.9580000000000001, -0.058, 192.0, 0.0, 0.0, 0.0, 0.0, 0.0, 0.0, 0.0, 0.0, 0.0, 1.6664045156642551E9, 0.0, 2022-10-21 19:08:35.664
53.0, -130635.12809695341, -157482.99300467886, -33787.723933187, -140562.56598980023, 68440.1027488831, -108526.25769689772, 56165.28465333994, -110772.98799431181, 0.02, 0.9580000000000001, -0.058, 192.0, 0.0, 0.0, 0.0, 0.0, 0.0, 0.0, 0.0, 0.0, 0.0, 1.6664045156642709E9, 0.0, 2022-10-21 19:08:35.664
54.0, -130641.63245458991, -157488.29036811477, -33795.591747235274, -140567.3716148581, 68431.83260343464, -108505.67174025437, 56179.299197113425, -110770.93163382192, 0.02, 0.9580000000000001, -0.058, 192.0, 0.0, 0.0, 0.0, 0.0, 0.0, 0.0, 0.0, 0.0, 0.0, 1.666404515664286E9, 0.0, 2022-10-21 19:08:35.664
55.0, -130644.51582962464, -157488.84916172616, -33794.85413966825, -140575.95468472896, 68434.22424009135, -108519.37335960548, 56173.1077638993, -110760.40396218348, 0.02, 0.9580000000000001, -0.058, 192.0, 0.0, 0.0, 0.0, 0.0, 0.0, 0.0, 0.0, 0.0, 0.0, 1.6664045156643012E9, 0.0, 2022-10-21 19:08:35.664
56.0, -130650.21552446074, -157495.0182431958, -33800.062096126334, -140586.14708020058, 68430.35738830059, -108548.52003437521, 56153.9523189011, -110773.65854664547, 0.02, 0.96, -0.056, 192.0, 0.0, 160.0, 30.0, 0.0, 254.0, 64.0, 0.0, 0.0, 0.0, 1.6664045156643167E9, 0.0, 2022-10-21 19:08:35.664
57.0, -130651.40016691688, -157494.6159117956, -33804.1301136172, -140583.66603656602, 68423.74127194182, -108552.09631348806, 56152.27593806696, -110783.76153513927, 0.02, 0.96, -0.056, 192.0, 0.0, 0.0, 0.0, 0.0, 0.0, 0.0, 0.0, 0.0, 0.0, 1.6664045156643329E9, 0.0, 2022-10-21 19:08:35.664
58.0, -130652.89773379538, -157494.63826354008, -33805.806494451346, -140579.03922546378, 68420.61202771807, -108526.79413876464, 56172.571322032374, -110785.57202644016, 0.02, 0.96, -0.056, 192.0, 0.0, 0.0, 0.0, 0.0, 0.0, 0.0, 0.0, 0.0, 0.0, 1.6664045156643484E9, 0.0, 2022-10-21 19:08:35.664
59.0, -130648.15916397085, -157491.4196123385, -33796.1281891022, -140583.9342574995, 68431.40792028999, -108540.3169441601, 56167.475124296565, -110776.16194202447, 0.02, 0.96, -0.056, 192.0, 0.0, 0.0, 0.0, 0.0, 0.0, 0.0, 0.0, 0.0, 0.0, 1.6664045156643772E9, 0.0, 2022-10-21 19:08:35.664
60.0, -130657.92687629783, -157499.46624034242, -33799.25743332594, -140587.689350568, 68432.9501906574, -108551.44811289884, 56156.142789857724, -110780.72169789336, 0.02, 0.96, -0.056, 192.0, 0.0, 0.0, 0.0, 0.0, 0.0, 0.0, 0.0, 0.0, 0.0, 1.6664045156643927E9, 0.0, 2022-10-21 19:08:35.664
61.0, -130644.89580928038, -157487.5751122922, -33786.427532008594, -140571.70785328245, 68445.5565745302, -108542.86504302801, 56167.27395859647, -110763.53320640723, 0.02, 0.96, -0.056, 192.0, 0.0, 0.0, 0.0, 0.0, 0.0, 0.0, 0.0, 0.0, 0.0, 1.666404515664408E9, 0.0, 2022-10-21 19:08:35.664
62.0, -130650.12611748293, -157494.34769086217, -33796.709334458035, -140573.60775156115, 68442.06970239517, -108523.28491488517, 56180.01445293599, -110769.1434942655, 0.02, 0.96, -0.056, 192.0, 0.0, 0.0, 0.0, 0.0, 0.0, 0.0, 0.0, 0.0, 0.0, 1.6664045156644237E9, 0.0, 2022-10-21 19:08:35.664
63.0, -130642.75004181267, -157483.9764814349, -33792.104875100245, -140573.85362075016, 68443.67902799595, -108525.3636271195, 56182.27197912598, -110766.37187795305, 0.02, 0.96, -0.056, 192.0, 0.0, 0.0, 0.0, 0.0, 0.0, 0.0, 0.0, 0.0, 0.0, 1.6664045156644387E9, 0.0, 2022-10-21 19:08:35.664
64.0, -130646.59454185898, -157487.6198157811, -33789.55677623234, -140578.70394929696, 68443.16493787347, -108537.21005168081, 56169.39737431972, -110767.51181692026, 0.02, 0.96, -0.056, 192.0, 0.0, 0.0, 0.0, 0.0, 0.0, 0.0, 0.0, 0.0, 0.0, 1.666404515664454E9, 0.0, 2022-10-21 19:08:35.664
65.0, -130649.05323374907, -157489.0279756818, -33791.00963962193, -140573.0713096942, 68442.6061442621, -108522.4131968514, 56174.38181333325, -110770.26108148826, 0.02, 0.96, -0.056, 192.0, 0.0, 0.0, 0.0, 0.0, 0.0, 0.0, 0.0, 0.0, 0.0, 1.6664045156644692E9, 0.0, 2022-10-21 19:08:35.664
66.0, -130660.00558853216, -157498.7286327754, -33805.47121828452, -140580.5814958312, 68424.70239695339, -108523.35197011853, 56171.49843829852, -110780.6993461489, 0.016, 0.9540000000000001, -0.056, 192.0, 0.0, 128.0, 29.0, 208.0, 254.0, 64.0, 0.0, 0.0, 0.0, 1.6664045156644847E9, 0.0, 2022-10-21 19:08:35.664
67.0, -130667.06873978005, -157503.69072004448, -33806.52175027392, -140592.91965877052, 68416.99104511632, -108539.31111565961, 56161.97659516056, -110782.55454093868, 0.016, 0.9540000000000001, -0.056, 192.0, 0.0, 0.0, 0.0, 0.0, 0.0, 0.0, 0.0, 0.0, 0.0, 1.6664045156645007E9, 0.0, 2022-10-21 19:08:35.664
68.0, -130647.01922500363, -157482.9706529344, -33786.94162213107, -140580.7826615313, 68438.98516166034, -108547.15657796343, 56160.277862581956, -110769.72463962134, 0.016, 0.9540000000000001, -0.056, 192.0, 0.0, 0.0, 0.0, 0.0, 0.0, 0.0, 0.0, 0.0, 0.0, 1.6664045156645162E9, 0.0, 2022-10-21 19:08:35.664
69.0, -130655.51288789665, -157492.3136821167, -33796.150540846655, -140583.71074005496, 68434.11248136908, -108552.20807221033, 56149.83959792133, -110775.17846526844, 0.016, 0.9540000000000001, -0.056, 192.0, 0.0, 0.0, 0.0, 0.0, 0.0, 0.0, 0.0, 0.0, 0.0, 1.6664045156645315E9, 0.0, 2022-10-21 19:08:35.664
70.0, -130656.20579197476, -157493.38656585058, -33796.10583735774, -140579.01687371932, 68433.06194937968, -108540.54046160466, 56160.36726955978, -110767.51181692026, 0.016, 0.9540000000000001, -0.056, 192.0, 0.0, 0.0, 0.0, 0.0, 0.0, 0.0, 0.0, 0.0, 0.0, 1.6664045156645467E9, 0.0, 2022-10-21 19:08:35.664
71.0, -130645.52165812513, -157479.64024301057, -33787.16513957562, -140564.51059156784, 68447.30001059771, -108521.60853405102, 56179.23214188006, -110754.48074990282, 0.016, 0.9540000000000001, -0.056, 192.0, 0.0, 0.0, 0.0, 0.0, 0.0, 0.0, 0.0, 0.0, 0.0, 1.666404515664564E9, 0.0, 2022-10-21 19:08:35.664
72.0, -130650.50609713867, -157485.74226924687, -33788.70740994304, -140571.84196374918, 68445.19894661891, -108543.11091221702, 56162.1554091162, -110763.71202036286, 0.016, 0.9540000000000001, -0.056, 192.0, 0.0, 0.0, 0.0, 0.0, 0.0, 0.0, 0.0, 0.0, 0.0, 1.6664045156645796E9, 0.0, 2022-10-21 19:08:35.664
73.0, -130657.70335885328, -157494.34769086217, -33795.9270234021, -140577.69812079647, 68440.46037679439, -108547.76007506372, 56153.92996715665, -110771.75864836677, 0.016, 0.9540000000000001, -0.056, 192.0, 0.0, 0.0, 0.0, 0.0, 0.0, 0.0, 0.0, 0.0, 0.0, 1.666404515664595E9, 0.0, 2022-10-21 19:08:35.664
74.0, -130662.4419286778, -157498.46041184192, -33798.11749435872, -140570.0314724483, 68439.87923143855, -108532.5161853452, 56169.509133042, -110771.35631696657, 0.016, 0.9540000000000001, -0.056, 192.0, 0.0, 0.0, 0.0, 0.0, 0.0, 0.0, 0.0, 0.0, 0.0, 1.666404515664624E9, 0.0, 2022-10-21 19:08:35.664
75.0, -130660.02794027663, -157498.86274324212, -33796.19524433556, -140572.44546084947, 68436.99585640381, -108520.53565031716, 56182.89782797073, -110775.96077632437, 0.02, 0.9540000000000001, -0.056, 192.0, 0.0, 160.0, 29.0, 208.0, 254.0, 64.0, 0.0, 0.0, 0.0, 1.6664045156646392E9, 0.0, 2022-10-21 19:08:35.664
76.0, -130654.2388384627, -157494.45944958442, -33793.64714546766, -140578.3239696412, 68437.28642908174, -108539.13230170397, 56171.4090313207, -110775.42433445745, 0.02, 0.9540000000000001, -0.056, 192.0, 0.0, 0.0, 0.0, 0.0, 0.0, 0.0, 0.0, 0.0, 0.0, 1.6664045156646552E9, 0.0, 2022-10-21 19:08:35.664
77.0, -130669.48272818122, -157502.7295950329, -33806.722915974016, -140591.82442329222, 68422.82485041916, -108560.88054905899, 56149.19139733212, -110786.22022702936, 0.02, 0.9540000000000001, -0.056, 192.0, 0.0, 0.0, 0.0, 0.0, 0.0, 0.0, 0.0, 0.0, 0.0, 1.6664045156646705E9, 0.0, 2022-10-21 19:08:35.664
78.0, -130671.58379216002, -157504.49538284485, -33808.48870378598, -140584.2248301774, 68419.96382712887, -108544.63083083997, 56158.959109659096, -110781.48165720483, 0.02, 0.9540000000000001, -0.056, 192.0, 0.0, 0.0, 0.0, 0.0, 0.0, 0.0, 0.0, 0.0, 0.0, 1.6664045156646857E9, 0.0, 2022-10-21 19:08:35.664
79.0, -130649.72378608273, -157484.28940585727, -33788.238023309474, -140564.06355667874, 68437.53229827074, -108528.82814751008, 56179.701528513615, -110767.55652040918, 0.02, 0.9540000000000001, -0.056, 192.0, 0.0, 0.0, 0.0, 0.0, 0.0, 0.0, 0.0, 0.0, 0.0, 1.6664045156647007E9, 0.0, 2022-10-21 19:08:35.664
80.0, -130661.8384315775, -157498.41570835302, -33800.59853799326, -140581.65437956507, 68428.36808304407, -108552.92332803289, 56162.513037027486, -110776.87719784705, 0.02, 0.9540000000000001, -0.056, 192.0, 0.0, 0.0, 0.0, 0.0, 0.0, 0.0, 0.0, 0.0, 0.0, 1.666404515664716E9, 0.0, 2022-10-21 19:08:35.664
81.0, -130661.88313506641, -157497.0746036857, -33804.823017695315, -140587.06350172323, 68427.98810338833, -108566.49083691726, 56149.571376987864, -110774.28439549022, 0.02, 0.9540000000000001, -0.056, 192.0, 0.0, 0.0, 0.0, 0.0, 0.0, 0.0, 0.0, 0.0, 0.0, 1.666404515664733E9, 0.0, 2022-10-21 19:08:35.664
82.0, -130658.95505654276, -157494.3253391177, -33800.88911067118, -140576.11114694015, 68433.30781856869, -108550.59874660954, 56159.18262710365, -110770.86457858856, 0.02, 0.9540000000000001, -0.056, 192.0, 0.0, 0.0, 0.0, 0.0, 0.0, 0.0, 0.0, 0.0, 0.0, 1.6664045156647503E9, 0.0, 2022-10-21 19:08:35.664
83.0, -130662.75485310017, -157498.9745019644, -33800.59853799326, -140570.54556257077, 68436.3029523257, -108520.82622299508, 56178.31572035739, -110777.3018809917, 0.02, 0.9540000000000001, -0.056, 192.0, 0.0, 0.0, 0.0, 0.0, 0.0, 0.0, 0.0, 0.0, 0.0, 1.6664045156647663E9, 0.0, 2022-10-21 19:08:35.664
84.0, -130654.06002450705, -157490.30202511573, -33790.40614252164, -140572.35605387166, 68442.42733030645, -108539.48992961526, 56167.83275220785, -110767.57887215364, 0.02, 0.9540000000000001, -0.056, 192.0, 0.0, 0.0, 0.0, 0.0, 0.0, 0.0, 0.0, 0.0, 0.0, 1.666404515664782E9, 0.0, 2022-10-21 19:08:35.664
85.0, -130654.70822509626, -157496.31464437422, -33792.41779952262, -140570.90319048206, 68449.42342632097, -108542.08273197207, 56161.61896724928, -110766.23776748631, 0.02, 0.9580000000000001, -0.054, 192.0, 0.0, 160.0, 29.0, 240.0, 254.0, 80.0, 0.0, 0.0, 0.0, 1.6664045156647975E9, 0.0, 2022-10-21 19:08:35.664
86.0, -130658.6868356093, -157499.8685717426, -33800.285613570886, -140569.09269918117, 68442.8520134511, -108536.00305748024, 56162.40127830521, -110775.17846526844, 0.02, 0.9580000000000001, -0.054, 192.0, 0.0, 0.0, 0.0, 0.0, 0.0, 0.0, 0.0, 0.0, 0.0, 1.6664045156648145E9, 0.0, 2022-10-21 19:08:35.664
87.0, -130652.69656809529, -157492.35838560562, -33792.68602045608, -140561.73897525537, 68443.81313846269, -108520.28978112814, 56177.39929883472, -110772.92093907845, 0.02, 0.9580000000000001, -0.054, 192.0, 0.0, 0.0, 0.0, 0.0, 0.0, 0.0, 0.0, 0.0, 0.0, 1.66640451566483E9, 0.0, 2022-10-21 19:08:35.664
88.0, -130650.57315237203, -157489.78793499328, -33787.969802376014, -140563.48241132288, 68447.09884489761, -108517.42875783787, 56179.857990724806, -110763.22028198485, 0.02, 0.9580000000000001, -0.054, 192.0, 0.0, 0.0, 0.0, 0.0, 0.0, 0.0, 0.0, 0.0, 0.0, 1.6664045156648457E9, 0.0, 2022-10-21 19:08:35.664
89.0, -130652.69656809529, -157492.49249607237, -33791.16610183312, -140574.0771381947, 68445.86949895257, -108538.14882494794, 56163.11653412778, -110766.34952620859, 0.02, 0.9580000000000001, -0.054, 192.0, 0.0, 0.0, 0.0, 0.0, 0.0, 0.0, 0.0, 0.0, 0.0, 1.6664045156648748E9, 0.0, 2022-10-21 19:08:35.664
90.0, -130651.75779482815, -157490.9278739605, -33791.523729744404, -140574.7253387839, 68442.74025472882, -108544.09438897306, 56157.43919103613, -110770.75281986629, 0.02, 0.9580000000000001, -0.054, 192.0, 0.0, 0.0, 0.0, 0.0, 0.0, 0.0, 0.0, 0.0, 0.0, 1.6664045156648903E9, 0.0, 2022-10-21 19:08:35.664
91.0, -130650.12611748293, -157488.13390590358, -33791.97076463351, -140569.8750102371, 68442.06970239517, -108540.7192755603, 56166.715164985086, -110769.36701171006, 0.02, 0.9580000000000001, -0.054, 192.0, 0.0, 0.0, 0.0, 0.0, 0.0, 0.0, 0.0, 0.0, 0.0, 1.666404515664906E9, 0.0, 2022-10-21 19:08:35.664
92.0, -130654.59646637399, -157494.95118796243, -33797.64810772516, -140576.64758880707, 68437.86757443757, -108538.88643251496, 56168.235083608044, -110777.41363971397, 0.02, 0.9580000000000001, -0.054, 192.0, 0.0, 0.0, 0.0, 0.0, 0.0, 0.0, 0.0, 0.0, 0.0, 1.6664045156649213E9, 0.0, 2022-10-21 19:08:35.664
93.0, -130660.22910597672, -157500.60617930963, -33803.75013396146, -140584.7836237888, 68434.06777788018, -108552.29747918814, 56152.365345044775, -110787.11429680757, 0.02, 0.9580000000000001, -0.054, 192.0, 0.0, 0.0, 0.0, 0.0, 0.0, 0.0, 0.0, 0.0, 0.0, 1.6664045156649387E9, 0.0, 2022-10-21 19:08:35.664
94.0, -130656.27284720814, -157497.78985950828, -33799.74917170396, -140571.68550153798, 68444.79661521871, -108547.13422621897, 56153.572339245366, -110779.51470369277, 0.02, 0.9580000000000001, -0.054, 192.0, 0.0, 0.0, 0.0, 0.0, 0.0, 0.0, 0.0, 0.0, 0.0, 1.666404515664954E9, 0.0, 2022-10-21 19:08:35.664
95.0, -130652.27188495063, -157493.6771385285, -33796.575223991305, -140558.05093742025, 68447.94821118691, -108517.07112992658, 56172.34780458782, -110780.40877347098, 0.022, 0.9540000000000001, -0.05, 192.0, 0.0, 176.0, 29.0, 208.0, 254.0, 112.0, 0.0, 0.0, 0.0, 1.66640451566497E9, 0.0, 2022-10-21 19:08:35.664
96.0, -130649.41086166035, -157489.0726791707, -33790.18262507708, -140559.54850429876, 68447.2106036199, -108511.10321415702, 56181.243798881034, -110776.22899725783, 0.022, 0.9540000000000001, -0.05, 192.0, 0.0, 0.0, 0.0, 0.0, 0.0, 0.0, 0.0, 0.0, 0.0, 1.6664045156649866E9, 0.0, 2022-10-21 19:08:35.664
97.0, -130646.68394883681, -157487.68687101448, -33785.22053780801, -140568.48920208088, 68447.61293502008, -108544.0720372286, 56160.59078700433, -110770.93163382192, 0.022, 0.9540000000000001, -0.05, 192.0, 0.0, 0.0, 0.0, 0.0, 0.0, 0.0, 0.0, 0.0, 0.0, 1.6664045156650023E9, 0.0, 2022-10-21 19:08:35.665
98.0, -130651.44487040579, -157493.20775189492, -33795.18941583508, -140572.95955097195, 68442.29321983972, -108575.34212772157, 56137.501434982, -110776.96660482486, 0.022, 0.9540000000000001, -0.05, 192.0, 0.0, 0.0, 0.0, 0.0, 0.0, 0.0, 0.0, 0.0, 0.0, 1.6664045156650195E9, 0.0, 2022-10-21 19:08:35.665
99.0, -130663.00072228919, -157505.14358343405, -33808.15342761915, -140563.23654213388, 68441.04152215022, -108558.24304321327, 56152.43240027814, -110783.40390722798, 0.022, 0.9540000000000001, -0.05, 192.0, 0.0, 0.0, 0.0, 0.0, 0.0, 0.0, 0.0, 0.0, 0.0, 1.6664045156650348E9, 0.0, 2022-10-21 19:08:35.665
100.0, -130654.01532101815, -157497.00754845233, -33792.30604080034, -140561.31429211074, 68445.69068499692, -108530.6609905554, 56177.06402266789, -110776.43016295793, 0.022, 0.9540000000000001, -0.05, 192.0, 0.0, 0.0, 0.0, 0.0, 0.0, 0.0, 0.0, 0.0, 0.0, 1.66640451566505E9, 0.0, 2022-10-21 19:08:35.665
101.0, -130653.90356229588, -157497.34282461918, -33795.815264679826, -140578.2345626634, 68437.08526338164, -108546.79895005215, 56160.56843525988, -110782.91216884997, 0.022, 0.9540000000000001, -0.05, 192.0, 0.0, 0.0, 0.0, 0.0, 0.0, 0.0, 0.0, 0.0, 0.0, 1.6664045156650655E9, 0.0, 2022-10-21 19:08:35.665
102.0, -130654.93174254081, -157499.3768333646, -33800.39737229316, -140581.56497258722, 68437.19702210391, -108567.9213485624, 56141.34593502831, -110786.22022702936, 0.022, 0.9540000000000001, -0.05, 192.0, 0.0, 0.0, 0.0, 0.0, 0.0, 0.0, 0.0, 0.0, 0.0, 1.6664045156650813E9, 0.0, 2022-10-21 19:08:35.665
103.0, -130662.21841123325, -157501.7684700213, -33807.79579970787, -140574.6359318061, 68433.21841159087, -108540.60751683802, 56159.294385825924, -110785.14734329551, 0.022, 0.9540000000000001, -0.05, 192.0, 0.0, 0.0, 0.0, 0.0, 0.0, 0.0, 0.0, 0.0, 0.0, 1.6664045156650972E9, 0.0, 2022-10-21 19:08:35.665
104.0, -130662.59839088899, -157499.9803304649, -33804.71125897304, -140575.50764983986, 68427.60812373259, -108527.28587714265, 56171.63254876525, -110782.93452059443, 0.022, 0.9540000000000001, -0.05, 192.0, 0.0, 0.0, 0.0, 0.0, 0.0, 0.0, 0.0, 0.0, 0.0, 1.6664045156651266E9, 0.0, 2022-10-21 19:08:35.665
105.0, -130654.50705939616, -157491.48666757188, -33796.50816875794, -140581.96730398742, 68431.0502923787, -108563.69686886035, 56153.52763575645, -110778.03948855872, 0.02, 0.9580000000000001, -0.048, 192.0, 0.0, 160.0, 29.0, 240.0, 254.0, 128.0, 0.0, 0.0, 0.0, 1.6664045156651428E9, 0.0, 2022-10-21 19:08:35.665
106.0, -130650.39433841639, -157488.5809407927, -33795.30117455735, -140578.45808010796, 68438.2028506044, -108580.90771209094, 56139.580147216344, -110776.72073563586, 0.02, 0.9580000000000001, -0.048, 192.0, 0.0, 0.0, 0.0, 0.0, 0.0, 0.0, 0.0, 0.0, 0.0, 1.6664045156651595E9, 0.0, 2022-10-21 19:08:35.665
107.0, -130653.30006519558, -157493.5653798062, -33799.39154379267, -140574.50182133936, 68436.41471104798, -108565.95439505034, 56148.20792057609, -110781.99574732731, 0.02, 0.9580000000000001, -0.048, 192.0, 0.0, 0.0, 0.0, 0.0, 0.0, 0.0, 0.0, 0.0, 0.0, 1.666404515665175E9, 0.0, 2022-10-21 19:08:35.665
108.0, -130656.16108848585, -157496.8287344967, -33803.481913027994, -140578.6368940636, 68427.54106849922, -108552.83392105508, 56158.71324047008, -110786.53315145173, 0.02, 0.9580000000000001, -0.048, 192.0, 0.0, 0.0, 0.0, 0.0, 0.0, 0.0, 0.0, 0.0, 0.0, 1.6664045156651907E9, 0.0, 2022-10-21 19:08:35.665
109.0, -130650.95313202777, -157488.69269951497, -33797.044610624864, -140578.74865278587, 68434.82773719165, -108553.48212164428, 56159.49555152602, -110778.1959507699, 0.02, 0.9580000000000001, -0.048, 192.0, 0.0, 0.0, 0.0, 0.0, 0.0, 0.0, 0.0, 0.0, 0.0, 1.6664045156652064E9, 0.0, 2022-10-21 19:08:35.665
110.0, -130654.14943148488, -157488.98327219288, -33801.514959515924, -140581.09558595368, 68437.82287094866, -108555.60553736753, 56154.24289157902, -110778.5982821701, 0.02, 0.9580000000000001, -0.048, 192.0, 0.0, 0.0, 0.0, 0.0, 0.0, 0.0, 0.0, 0.0, 0.0, 1.666404515665223E9, 0.0, 2022-10-21 19:08:35.665
111.0, -130656.29519895259, -157493.16304840602, -33806.141770618175, -140579.2850946528, 68436.39235930353, -108555.4714269008, 56154.10878111229, -110781.90634034948, 0.02, 0.9580000000000001, -0.048, 192.0, 0.0, 0.0, 0.0, 0.0, 0.0, 0.0, 0.0, 0.0, 0.0, 1.666404515665238E9, 0.0, 2022-10-21 19:08:35.665
112.0, -130661.77137634414, -157496.69462402997, -33807.482875285496, -140570.54556257077, 68436.57117325916, -108531.53270858916, 56171.654900509704, -110782.71100314987, 0.02, 0.9580000000000001, -0.048, 192.0, 0.0, 0.0, 0.0, 0.0, 0.0, 0.0, 0.0, 0.0, 0.0, 1.666404515665255E9, 0.0, 2022-10-21 19:08:35.665
113.0, -130658.01628327565, -157491.19609489397, -33803.30309907235, -140576.1782021735, 68434.31364706918, -108546.44132214086, 56164.41293530619, -110778.97826182583, 0.02, 0.9580000000000001, -0.048, 192.0, 0.0, 0.0, 0.0, 0.0, 0.0, 0.0, 0.0, 0.0, 0.0, 1.6664045156652703E9, 0.0, 2022-10-21 19:08:35.665
114.0, -130665.97350430174, -157499.5332955758, -33813.09316314378, -140587.84581277918, 68431.56438250118, -108567.16138925093, 56145.391600774725, -110781.88398860503, 0.022, 0.9560000000000001, -0.052000000000000005, 192.0, 0.0, 176.0, 29.0, 224.0, 254.0, 96.0, 0.0, 0.0, 0.0, 1.6664045156652875E9, 0.0, 2022-10-21 19:08:35.665
115.0, -130667.87340258044, -157499.0192054533, -33812.847293954765, -140589.3880831466, 68427.74223419932, -108572.90578757595, 56140.273051294454, -110777.3018809917, 0.022, 0.9560000000000001, -0.052000000000000005, 192.0, 0.0, 0.0, 0.0, 0.0, 0.0, 0.0, 0.0, 0.0, 0.0, 1.6664045156653037E9, 0.0, 2022-10-21 19:08:35.665
116.0, -130661.61491413295, -157493.8783042286, -33803.705430472546, -140572.60192306066, 68433.1513563575, -108565.73087760579, 56155.315775312876, -110768.11531402056, 0.022, 0.9560000000000001, -0.052000000000000005, 192.0, 0.0, 0.0, 0.0, 0.0, 0.0, 0.0, 0.0, 0.0, 0.0, 1.6664045156653197E9, 0.0, 2022-10-21 19:08:35.665
117.0, -130674.13189102792, -157503.95894097793, -33811.57324452081, -140588.8292895352, 68425.12708009804, -108561.68521185938, 56157.93092941415, -110782.19691302741, 0.022, 0.9560000000000001, -0.052000000000000005, 192.0, 0.0, 0.0, 0.0, 0.0, 0.0, 0.0, 0.0, 0.0, 0.0, 1.6664045156653352E9, 0.0, 2022-10-21 19:08:35.665
118.0, -130672.94724857179, -157500.80734500973, -33809.65099449766, -140597.97115301742, 68429.37391154455, -108563.18277873789, 56154.42170553467, -110779.51470369277, 0.022, 0.9560000000000001, -0.052000000000000005, 192.0, 0.0, 0.0, 0.0, 0.0, 0.0, 0.0, 0.0, 0.0, 0.0, 1.6664045156653504E9, 0.0, 2022-10-21 19:08:35.665
119.0, -130667.0910915245, -157494.6159117956, -33801.514959515924, -140589.25397267987, 68437.82287094866, -108569.21774974081, 56153.23706307854, -110767.4447616869, 0.022, 0.9560000000000001, -0.052000000000000005, 192.0, 0.0, 0.0, 0.0, 0.0, 0.0, 0.0, 0.0, 0.0, 0.0, 1.6664045156655085E9, 0.0, 2022-10-21 19:08:35.665
120.0, -130670.26503923716, -157498.46041184192, -33805.11359037323, -140583.66603656602, 68430.51385051178, -108560.88054905899, 56158.377964303254, -110780.52053219326, 0.022, 0.9560000000000001, -0.052000000000000005, 192.0, 0.0, 0.0, 0.0, 0.0, 0.0, 0.0, 0.0, 0.0, 0.0, 1.6664045156655252E9, 0.0, 2022-10-21 19:08:35.665
121.0, -130664.9453240568, -157494.5265048178, -33799.995040892965, -140578.3686731301, 68433.48663252433, -108548.43062739738, 56170.73847898704, -110783.04627931671, 0.022, 0.9560000000000001, -0.052000000000000005, 192.0, 0.0, 0.0, 0.0, 0.0, 0.0, 0.0, 0.0, 0.0, 0.0, 1.6664045161433566E9, 0.0, 2022-10-21 19:08:36.143
122.0, -130665.43706243481, -157497.36517636362, -33800.285613570886, -140585.2306586779, 68432.83843193513, -108555.13615073398, 56167.72099348557, -110784.09681130611, 0.022, 0.9560000000000001, -0.052000000000000005, 192.0, 0.0, 0.0, 0.0, 0.0, 0.0, 0.0, 0.0, 0.0, 0.0, 1.6664045161434815E9, 0.0, 2022-10-21 19:08:36.143
123.0, -130659.71501585425, -157490.54789430476, -33789.80264542135, -140582.10141445417, 68438.67223723796, -108573.86691258752, 56158.668536981175, -110780.02879381523, 0.022, 0.9560000000000001, -0.052000000000000005, 192.0, 0.0, 0.0, 0.0, 0.0, 0.0, 0.0, 0.0, 0.0, 0.0, 1.66640451614354E9, 0.0, 2022-10-21 19:08:36.143
124.0, -130666.26407697966, -157499.6227025536, -33795.234119323984, -140576.96051322945, 68433.62074299106, -108577.51024693373, 56159.786124203936, -110782.55454093868, 0.022, 0.9560000000000001, -0.052000000000000005, 192.0, 0.0, 176.0, 29.0, 224.0, 254.0, 96.0, 0.0, 0.0, 0.0, 1.6664045161436374E9, 0.0, 2022-10-21 19:08:36.143
125.0, -130675.16007127287, -157512.09497595966, -33803.12428511671, -140581.25204816487, 68429.39626328902, -108562.1769502374, 56170.336147586844, -110780.98991882682, 0.022, 0.9560000000000001, -0.052000000000000005, 192.0, 0.0, 0.0, 0.0, 0.0, 0.0, 0.0, 0.0, 0.0, 0.0, 1.6664045161436596E9, 0.0, 2022-10-21 19:08:36.143
126.0, -130660.9443617993, -157493.6771385285, -33788.84152040977, -140573.40658586106, 68443.0531791512, -108570.11181951904, 56168.369194074774, -110768.27177623175, 0.022, 0.9560000000000001, -0.052000000000000005, 192.0, 0.0, 0.0, 0.0, 0.0, 0.0, 0.0, 0.0, 0.0, 0.0, 1.6664045161436782E9, 0.0, 2022-10-21 19:08:36.143
127.0, -130663.67127462284, -157494.14652516207, -33789.95910763253, -140575.3288358842, 68443.07553089566, -108576.34795622206, 56160.009641648496, -110761.87917731753, 0.022, 0.9560000000000001, -0.052000000000000005, 192.0, 0.0, 0.0, 0.0, 0.0, 0.0, 0.0, 0.0, 0.0, 0.0, 1.6664045161436973E9, 0.0, 2022-10-21 19:08:36.143
128.0, -130667.78399560261, -157500.49442058738, -33789.35561053224, -140577.16167892955, 68437.5993535041, -108561.618156626, 56169.97851967556, -110757.9899737823, 0.022, 0.9560000000000001, -0.052000000000000005, 192.0, 0.0, 0.0, 0.0, 0.0, 0.0, 0.0, 0.0, 0.0, 0.0, 1.6664045161437154E9, 0.0, 2022-10-21 19:08:36.143
129.0, -130664.63239963441, -157495.0182431958, -33787.29925004235, -140570.8808387376, 68439.43219654945, -108553.23625245527, 56177.9133889572, -110764.15905525198, 0.022, 0.9560000000000001, -0.052000000000000005, 192.0, 0.0, 0.0, 0.0, 0.0, 0.0, 0.0, 0.0, 0.0, 0.0, 1.6664045161437342E9, 0.0, 2022-10-21 19:08:36.143
130.0, -130664.18536474531, -157495.04059494028, -33787.3216017868, -140571.26081839335, 68442.89671694001, -108546.64248784096, 56175.18647613365, -110772.63036640052, 0.022, 0.9560000000000001, -0.052000000000000005, 192.0, 0.0, 0.0, 0.0, 0.0, 0.0, 0.0, 0.0, 0.0, 0.0, 1.6664045161437528E9, 0.0, 2022-10-21 19:08:36.143
131.0, -130666.1970217463, -157495.7782025073, -33790.94258438857, -140579.30744639726, 68437.57700175965, -108549.83878729807, 56165.68698474014, -110774.12793327904, 0.022, 0.9560000000000001, -0.052000000000000005, 192.0, 0.0, 0.0, 0.0, 0.0, 0.0, 0.0, 0.0, 0.0, 0.0, 1.6664045161437743E9, 0.0, 2022-10-21 19:08:36.143
132.0, -130667.87340258044, -157497.1193071746, -33787.612174464724, -140574.680635295, 68436.88409768154, -108546.10604597403, 56172.303101098914, -110767.78003785374, 0.022, 0.9560000000000001, -0.052000000000000005, 192.0, 0.0, 0.0, 0.0, 0.0, 0.0, 0.0, 0.0, 0.0, 0.0, 1.6664045161437967E9, 0.0, 2022-10-21 19:08:36.143
133.0, -130667.56047815806, -157503.10957468863, -33786.96397387552, -140570.36674861514, 68438.1581471155, -108527.37528412048, 56187.52463907297, -110769.85875008807, 0.022, 0.9560000000000001, -0.052000000000000005, 192.0, 0.0, 0.0, 0.0, 0.0, 0.0, 0.0, 0.0, 0.0, 0.0, 1.666404516143815E9, 0.0, 2022-10-21 19:08:36.143
134.0, -130659.82677457653, -157497.18636240799, -33788.64035470967, -140577.3181411407, 68439.36514131608, -108524.46955734129, 56190.475069341075, -110769.88110183254, 0.024, 0.96, -0.054, 192.0, 0.0, 192.0, 30.0, 0.0, 254.0, 80.0, 0.0, 0.0, 0.0, 1.666404516143916E9, 0.0, 2022-10-21 19:08:36.143
135.0, -130660.51967865464, -157494.30298737323, -33789.33325878778, -140586.2811906673, 68441.3097430837, -108547.51420587472, 56172.34780458782, -110770.64106114401, 0.024, 0.96, -0.054, 192.0, 0.0, 0.0, 0.0, 0.0, 0.0, 0.0, 0.0, 0.0, 0.0, 1.6664045161439383E9, 0.0, 2022-10-21 19:08:36.143
136.0, -130672.18728926031, -157503.51190608882, -33785.33229653029, -140574.61358006165, 68449.1105018986, -108540.5181098602, 56178.78510699095, -110759.73340984982, 0.024, 0.96, -0.054, 192.0, 0.0, 0.0, 0.0, 0.0, 0.0, 0.0, 0.0, 0.0, 0.0, 1.6664045161439536E9, 0.0, 2022-10-21 19:08:36.143
137.0, -130674.46716719476, -157508.31753114672, -33785.73462793048, -140569.09269918117, 68445.3554088301, -108519.52982181667, 56197.71703454459, -110755.66539235895, 0.024, 0.96, -0.054, 192.0, 0.0, 0.0, 0.0, 0.0, 0.0, 0.0, 0.0, 0.0, 0.0, 1.6664045161439693E9, 0.0, 2022-10-21 19:08:36.143
138.0, -130662.6877978668, -157500.04738569824, -33782.8736046402, -140573.3842341166, 68442.91906868447, -108520.53565031716, 56203.03674972496, -110762.14739825099, 0.024, 0.96, -0.054, 192.0, 0.0, 0.0, 0.0, 0.0, 0.0, 0.0, 0.0, 0.0, 0.0, 1.666404516143984E9, 0.0, 2022-10-21 19:08:36.143
139.0, -130652.89773379538, -157489.34090010417, -33776.39159874816, -140574.85944925065, 68445.04248440772, -108549.59291810906, 56185.13300241626, -110759.80046508319, 0.024, 0.96, -0.054, 192.0, 0.0, 0.0, 0.0, 0.0, 0.0, 0.0, 0.0, 0.0, 0.0, 1.666404516143999E9, 0.0, 2022-10-21 19:08:36.143
140.0, -130646.30396918107, -157480.28844359977, -33771.049531823344, -140563.03537643378, 68452.64207752253, -108559.96412753632, 56179.63447328025, -110752.17852022393, 0.024, 0.96, -0.054, 192.0, 0.0, 0.0, 0.0, 0.0, 0.0, 0.0, 0.0, 0.0, 0.0, 1.666404516144014E9, 0.0, 2022-10-21 19:08:36.144
141.0, -130647.10863198146, -157481.5624930337, -33771.742435901455, -140553.40177457355, 68456.55363280221, -108549.39175240896, 56188.105784428815, -110745.27183118723, 0.024, 0.96, -0.054, 192.0, 0.0, 0.0, 0.0, 0.0, 0.0, 0.0, 0.0, 0.0, 0.0, 1.666404516144029E9, 0.0, 2022-10-21 19:08:36.144
142.0, -130660.51967865464, -157498.5274670753, -33782.40421800664, -140564.51059156784, 68447.79174897572, -108526.36945561999, 56195.54891533243, -110758.90639530498, 0.024, 0.96, -0.054, 192.0, 0.0, 0.0, 0.0, 0.0, 0.0, 0.0, 0.0, 0.0, 0.0, 1.666404516144044E9, 0.0, 2022-10-21 19:08:36.144
143.0, -130661.52550715514, -157502.84135375518, -33785.8240349083, -140579.21803941941, 68444.59544951862, -108529.14107193245, 56188.55281931792, -110764.44962792989, 0.022, 0.96, -0.048, 192.0, 0.0, 176.0, 30.0, 0.0, 254.0, 128.0, 0.0, 0.0, 0.0, 1.666404516144059E9, 0.0, 2022-10-21 19:08:36.144
144.0, -130656.04932976358, -157495.15235366253, -33783.18652906257, -140580.3803301311, 68446.2047751194, -108542.23919418326, 56179.45565932461, -110764.71784886335, 0.022, 0.96, -0.048, 192.0, 0.0, 0.0, 0.0, 0.0, 0.0, 0.0, 0.0, 0.0, 0.0, 1.666404516144075E9, 0.0, 2022-10-21 19:08:36.144
145.0, -130650.32728318303, -157488.9162169595, -33772.5694504463, -140564.13061191209, 68453.93847870093, -108544.0720372286, 56186.22823789457, -110754.391342925, 0.022, 0.96, -0.048, 192.0, 0.0, 0.0, 0.0, 0.0, 0.0, 0.0, 0.0, 0.0, 0.0, 1.66640451614409E9, 0.0, 2022-10-21 19:08:36.144
146.0, -130648.15916397085, -157491.39726059407, -33771.94360160155, -140558.87795196509, 68456.10659791311, -108533.23144116777, 56197.5158688445, -110752.20087196838, 0.022, 0.96, -0.048, 192.0, 0.0, 0.0, 0.0, 0.0, 0.0, 0.0, 0.0, 0.0, 0.0, 1.6664045161441052E9, 0.0, 2022-10-21 19:08:36.144
147.0, -130652.7412715842, -157494.3253391177, -33778.51501447141, -140571.6184463046, 68451.2562693663, -108545.92723201838, 56183.970711704584, -110762.1921017399, 0.022, 0.96, -0.048, 192.0, 0.0, 0.0, 0.0, 0.0, 0.0, 0.0, 0.0, 0.0, 0.0, 1.6664045161441205E9, 0.0, 2022-10-21 19:08:36.144
148.0, -130653.07654775103, -157495.91231297402, -33780.72783717249, -140575.23942890638, 68449.89281295452, -108550.41993265391, 56176.773449989974, -110760.06868601665, 0.022, 0.96, -0.048, 192.0, 0.0, 0.0, 0.0, 0.0, 0.0, 0.0, 0.0, 0.0, 0.0, 1.6664045161441357E9, 0.0, 2022-10-21 19:08:36.144
149.0, -130652.96478902875, -157498.4827635864, -33778.98440110498, -140569.2715131368, 68447.657638509, -108540.33929590456, 56186.138830916745, -110755.37481968103, 0.022, 0.96, -0.048, 192.0, 0.0, 0.0, 0.0, 0.0, 0.0, 0.0, 0.0, 0.0, 0.0, 1.6664045161441665E9, 0.0, 2022-10-21 19:08:36.144
150.0, -130648.00270175967, -157495.19705715147, -33773.50822371343, -140562.90126596706, 68451.12215889957, -108530.99626672224, 56202.03092122447, -110744.60127885357, 0.022, 0.96, -0.048, 192.0, 0.0, 0.0, 0.0, 0.0, 0.0, 0.0, 0.0, 0.0, 0.0, 1.6664045161441815E9, 0.0, 2022-10-21 19:08:36.144
151.0, -130651.0872424945, -157498.5274670753, -33781.66661043961, -140578.25691440786, 68445.37776057456, -108545.01081049572, 56191.726767030574, -110754.63721211402, 0.022, 0.96, -0.048, 192.0, 0.0, 0.0, 0.0, 0.0, 0.0, 0.0, 0.0, 0.0, 0.0, 1.6664045161441965E9, 0.0, 2022-10-21 19:08:36.144
152.0, -130649.27675119363, -157495.88996122958, -33777.71035167103, -140579.95564698646, 68446.94238268642, -108558.55596763564, 56177.1087261568, -110765.45545643038, 0.022, 0.96, -0.048, 192.0, 0.0, 0.0, 0.0, 0.0, 0.0, 0.0, 0.0, 0.0, 0.0, 1.6664045161442113E9, 0.0, 2022-10-21 19:08:36.144
153.0, -130644.11349822444, -157490.70435651593, -33770.89306961215, -140566.99163520237, 68452.91029845599, -108555.29261294517, 56179.67917676916, -110758.7946365827, 0.024, 0.9520000000000001, -0.048, 192.0, 0.0, 192.0, 29.0, 192.0, 254.0, 128.0, 0.0, 0.0, 0.0, 1.6664045161442263E9, 0.0, 2022-10-21 19:08:36.144
154.0, -130651.13194598342, -157497.25341764133, -33780.68313368358, -140577.76517602982, 68443.27669659576, -108547.42479889689, 56185.06594718289, -110764.4943314188, 0.024, 0.9520000000000001, -0.048, 192.0, 0.0, 0.0, 0.0, 0.0, 0.0, 0.0, 0.0, 0.0, 0.0, 1.666404516144242E9, 0.0, 2022-10-21 19:08:36.144
155.0, -130652.47305065073, -157499.2203711534, -33782.11364532872, -140587.46583312342, 68441.68972273944, -108555.35966817853, 56177.7122232571, -110766.21541574186, 0.024, 0.9520000000000001, -0.048, 192.0, 0.0, 0.0, 0.0, 0.0, 0.0, 0.0, 0.0, 0.0, 0.0, 1.6664045161442568E9, 0.0, 2022-10-21 19:08:36.144
156.0, -130643.73351856871, -157492.64895828356, -33772.68120916858, -140579.19568767498, 68454.98901069033, -108562.06519151512, 56174.806496477904, -110761.07451451714, 0.024, 0.9520000000000001, -0.048, 192.0, 0.0, 0.0, 0.0, 0.0, 0.0, 0.0, 0.0, 0.0, 0.0, 1.6664045161442716E9, 0.0, 2022-10-21 19:08:36.144
157.0, -130650.39433841639, -157497.6333972971, -33777.97857260449, -140569.8303067482, 68455.63721127954, -108560.14294149195, 56178.516886057485, -110766.77420935324, 0.024, 0.9520000000000001, -0.048, 192.0, 0.0, 0.0, 0.0, 0.0, 0.0, 0.0, 0.0, 0.0, 0.0, 1.6664045161442883E9, 0.0, 2022-10-21 19:08:36.144
158.0, -130647.30979768155, -157492.89482747257, -33770.33427600077, -140562.49893456686, 68460.12991191506, -108549.50351113123, 56193.64901705373, -110762.1921017399, 0.024, 0.9520000000000001, -0.048, 192.0, 0.0, 0.0, 0.0, 0.0, 0.0, 0.0, 0.0, 0.0, 0.0, 1.666404516144303E9, 0.0, 2022-10-21 19:08:36.144
159.0, -130647.68977733729, -157495.28646412928, -33768.5684881888, -140567.03633869128, 68463.81794975018, -108549.16823496441, 56196.33122638836, -110762.03563952871, 0.024, 0.9520000000000001, -0.048, 192.0, 0.0, 0.0, 0.0, 0.0, 0.0, 0.0, 0.0, 0.0, 0.0, 1.666404516144318E9, 0.0, 2022-10-21 19:08:36.144
160.0, -130648.42738490432, -157498.70628103093, -33774.4246452361, -140580.69325455348, 68459.43700783694, -108563.80862758264, 56184.35069136032, -110758.21349122685, 0.024, 0.9520000000000001, -0.048, 192.0, 0.0, 0.0, 0.0, 0.0, 0.0, 0.0, 0.0, 0.0, 0.0, 1.6664045161443331E9, 0.0, 2022-10-21 19:08:36.144
161.0, -130651.6907395948, -157501.0755659432, -33779.520842971906, -140582.81667027672, 68455.86072872409, -108576.70558413335, 56174.58297903335, -110760.76159009476, 0.024, 0.9520000000000001, -0.048, 192.0, 0.0, 0.0, 0.0, 0.0, 0.0, 0.0, 0.0, 0.0, 0.0, 1.6664045161443481E9, 0.0, 2022-10-21 19:08:36.144
162.0, -130649.47791689372, -157499.3768333646, -33776.95039235955, -140574.30065563926, 68460.35342935962, -108558.66772635792, 56191.19032516365, -110760.2922034612, 0.024, 0.9520000000000001, -0.048, 192.0, 0.0, 0.0, 0.0, 0.0, 0.0, 0.0, 0.0, 0.0, 0.0, 1.666404516144363E9, 0.0, 2022-10-21 19:08:36.144
163.0, -130648.22621920423, -157497.29812113024, -33778.00092434894, -140579.8885917531, 68458.98997294783, -108555.40437166744, 56193.04551995343, -110766.43893318641, 0.026000000000000002, 0.9560000000000001, -0.052000000000000005, 192.0, 0.0, 208.0, 29.0, 224.0, 254.0, 96.0, 0.0, 0.0, 0.0, 1.6664045161443777E9, 0.0, 2022-10-21 19:08:36.144
164.0, -130646.97452151473, -157495.39822285154, -33781.532499972884, -140588.5834203462, 68454.69843801242, -108579.36544172352, 56173.7112609996, -110769.92580532144, 0.026000000000000002, 0.9560000000000001, -0.052000000000000005, 192.0, 0.0, 0.0, 0.0, 0.0, 0.0, 0.0, 0.0, 0.0, 0.0, 1.6664045161444075E9, 0.0, 2022-10-21 19:08:36.144
165.0, -130643.84527729098, -157492.8277722392, -33776.972744104, -140583.3307603992, 68457.44770258042, -108577.71141263383, 56174.940606944634, -110759.15226449398, 0.026000000000000002, 0.9560000000000001, -0.052000000000000005, 192.0, 0.0, 0.0, 0.0, 0.0, 0.0, 0.0, 0.0, 0.0, 0.0, 1.6664045161444228E9, 0.0, 2022-10-21 19:08:36.144
166.0, -130643.17472495732, -157492.64895828356, -33774.4246452361, -140575.5747050732, 68457.64886828052, -108567.09433401756, 56186.67527278367, -110759.30872670517, 0.026000000000000002, 0.9560000000000001, -0.052000000000000005, 192.0, 0.0, 0.0, 0.0, 0.0, 0.0, 0.0, 0.0, 0.0, 0.0, 1.6664045161444383E9, 0.0, 2022-10-21 19:08:36.144
167.0, -130646.41572790334, -157496.0687751852, -33778.20209004904, -140577.54165858528, 68454.67608626797, -108563.9203863049, 56189.916275729694, -110765.23193898583, 0.026000000000000002, 0.9560000000000001, -0.052000000000000005, 192.0, 0.0, 0.0, 0.0, 0.0, 0.0, 0.0, 0.0, 0.0, 0.0, 1.6664045161444547E9, 0.0, 2022-10-21 19:08:36.144
168.0, -130650.52844888312, -157500.7179380319, -33781.398389506154, -140584.0907197107, 68456.19600489092, -108582.89701734747, 56174.538275544444, -110762.41561918445, 0.026000000000000002, 0.9560000000000001, -0.052000000000000005, 192.0, 0.0, 0.0, 0.0, 0.0, 0.0, 0.0, 0.0, 0.0, 0.0, 1.66640451614447E9, 0.0, 2022-10-21 19:08:36.144
169.0, -130649.67908259382, -157501.25437989883, -33781.51014822843, -140579.10628069716, 68457.53710955824, -108584.81926737062, 56168.50330454151, -110759.50989240527, 0.026000000000000002, 0.9560000000000001, -0.052000000000000005, 192.0, 0.0, 0.0, 0.0, 0.0, 0.0, 0.0, 0.0, 0.0, 0.0, 1.6664045161444864E9, 0.0, 2022-10-21 19:08:36.144
170.0, -130643.19707670178, -157493.74419376187, -33781.73366567298, -140576.55818182926, 68454.89960371252, -108571.96701430882, 56177.66751976818, -110767.8470930871, 0.026000000000000002, 0.9560000000000001, -0.052000000000000005, 192.0, 0.0, 0.0, 0.0, 0.0, 0.0, 0.0, 0.0, 0.0, 0.0, 1.6664045161445014E9, 0.0, 2022-10-21 19:08:36.144
171.0, -130649.25439944917, -157499.71210953142, -33780.19139530556, -140580.71560629792, 68450.63042052156, -108575.69975563286, 56176.773449989974, -110776.36310772457, 0.026000000000000002, 0.9560000000000001, -0.052000000000000005, 192.0, 0.0, 0.0, 0.0, 0.0, 0.0, 0.0, 0.0, 0.0, 0.0, 1.6664045161445165E9, 0.0, 2022-10-21 19:08:36.144
172.0, -130650.99783551668, -157500.74028977638, -33779.230270293985, -140584.26953366632, 68455.61485953508, -108576.5267701777, 56175.76762148948, -110772.71977337835, 0.026000000000000002, 0.9560000000000001, -0.052000000000000005, 192.0, 0.0, 0.0, 0.0, 0.0, 0.0, 0.0, 0.0, 0.0, 0.0, 1.6664045161445315E9, 0.0, 2022-10-21 19:08:36.144
173.0, -130647.44390814829, -157496.89578973007, -33779.90082262764, -140584.1801266885, 68458.54293805873, -108592.84354363008, 56165.88815044024, -110767.40005819799, 0.022, 0.9580000000000001, -0.046, 192.0, 0.0, 176.0, 29.0, 240.0, 254.0, 144.0, 0.0, 0.0, 0.0, 1.6664045161445467E9, 0.0, 2022-10-21 19:08:36.144
174.0, -130644.89580928038, -157494.43709783998, -33783.566508718315, -140575.70881553995, 68458.31942061418, -108590.00487208425, 56171.49843829852, -110761.52154940624, 0.022, 0.9580000000000001, -0.046, 192.0, 0.0, 0.0, 0.0, 0.0, 0.0, 0.0, 0.0, 0.0, 0.0, 1.666404516144588E9, 0.0, 2022-10-21 19:08:36.144
175.0, -130644.94051276929, -157493.0289379393, -33779.43143599408, -140569.0703474367, 68462.05216193822, -108579.76777312372, 56186.65292103922, -110755.33011619213, 0.022, 0.9580000000000001, -0.046, 192.0, 0.0, 0.0, 0.0, 0.0, 0.0, 0.0, 0.0, 0.0, 0.0, 1.6664045161446035E9, 0.0, 2022-10-21 19:08:36.144
176.0, -130648.02505350413, -157494.2806356288, -33777.93386911558, -140577.2287341629, 68463.77324626128, -108576.97380506681, 56184.97654020507, -110764.67314537444, 0.022, 0.9580000000000001, -0.046, 192.0, 0.0, 0.0, 0.0, 0.0, 0.0, 0.0, 0.0, 0.0, 0.0, 1.6664045161446185E9, 0.0, 2022-10-21 19:08:36.144
177.0, -130644.71699532474, -157492.0231094388, -33777.86681388221, -140581.11793769812, 68465.13670267304, -108601.22544780081, 56165.26230159549, -110772.38449721152, 0.022, 0.9580000000000001, -0.046, 192.0, 0.0, 0.0, 0.0, 0.0, 0.0, 0.0, 0.0, 0.0, 0.0, 1.6664045161446335E9, 0.0, 2022-10-21 19:08:36.144
178.0, -130647.33214942602, -157492.5148478168, -33776.54806095935, -140567.63983579158, 68465.06964743968, -108587.81440112763, 56176.54993254542, -110770.26108148826, 0.022, 0.9580000000000001, -0.046, 192.0, 0.0, 0.0, 0.0, 0.0, 0.0, 0.0, 0.0, 0.0, 0.0, 1.666404516144651E9, 0.0, 2022-10-21 19:08:36.144
179.0, -130649.70143433828, -157495.666443785, -33776.41395049261, -140564.10826016765, 68461.73923751584, -108572.50345617575, 56191.79382226394, -110774.32909897914, 0.022, 0.9580000000000001, -0.046, 192.0, 0.0, 0.0, 0.0, 0.0, 0.0, 0.0, 0.0, 0.0, 0.0, 1.66640451614468E9, 0.0, 2022-10-21 19:08:36.144
180.0, -130650.99783551668, -157500.15914442053, -33779.76671216091, -140572.3337021272, 68458.23001363636, -108577.15261902245, 56189.60335130732, -110776.31840423566, 0.022, 0.9580000000000001, -0.046, 192.0, 0.0, 0.0, 0.0, 0.0, 0.0, 0.0, 0.0, 0.0, 0.0, 1.666404516144695E9, 0.0, 2022-10-21 19:08:36.144
181.0, -130648.53914362659, -157497.09695543017, -33781.51014822843, -140579.86624000862, 68456.50892931329, -108602.96888386834, 56170.04557490892, -110774.12793327904, 0.022, 0.9580000000000001, -0.046, 192.0, 0.0, 0.0, 0.0, 0.0, 0.0, 0.0, 0.0, 0.0, 0.0, 1.6664045161447098E9, 0.0, 2022-10-21 19:08:36.144
182.0, -130652.71891983974, -157501.4331938545, -33783.74532267396, -140573.7195102834, 68454.4078653345, -108597.69387217688, 56170.64907200922, -110774.28439549022, 0.014, 0.9540000000000001, -0.046, 192.0, 0.0, 112.0, 29.0, 208.0, 254.0, 144.0, 0.0, 0.0, 0.0, 1.6664045161447248E9, 0.0, 2022-10-21 19:08:36.144
183.0, -130652.69656809529, -157501.74611827685, -33784.14765407415, -140564.35412935665, 68456.10659791311, -108561.90872930393, 56193.134926931256, -110767.02007854225, 0.014, 0.9540000000000001, -0.046, 192.0, 0.0, 0.0, 0.0, 0.0, 0.0, 0.0, 0.0, 0.0, 0.0, 1.6664045161447408E9, 0.0, 2022-10-21 19:08:36.144
184.0, -130653.68004485132, -157498.41570835302, -33784.41587500762, -140580.60384757566, 68453.40203683401, -108579.6783661459, 56181.377909347764, -110770.12697102154, 0.014, 0.9540000000000001, -0.046, 192.0, 0.0, 0.0, 0.0, 0.0, 0.0, 0.0, 0.0, 0.0, 0.0, 1.666404516144756E9, 0.0, 2022-10-21 19:08:36.144
185.0, -130646.75100407017, -157495.5770368072, -33776.88333712618, -140583.21900167692, 68462.27567938277, -108589.17785753941, 56177.511057557, -110758.7946365827, 0.014, 0.9540000000000001, -0.046, 192.0, 0.0, 0.0, 0.0, 0.0, 0.0, 0.0, 0.0, 0.0, 0.0, 1.6664045161447709E9, 0.0, 2022-10-21 19:08:36.144
186.0, -130644.47112613573, -157493.2748071283, -33774.51405221392, -140584.11307145513, 68460.28637412624, -108597.9844448548, 56172.12428714327, -110757.72175284884, 0.014, 0.9540000000000001, -0.046, 192.0, 0.0, 0.0, 0.0, 0.0, 0.0, 0.0, 0.0, 0.0, 0.0, 1.666404516144786E9, 0.0, 2022-10-21 19:08:36.144
187.0, -130646.97452151473, -157495.0182431958, -33779.386732505176, -140580.64855106457, 68456.77715024677, -108582.38292722499, 56187.72580477307, -110767.57887215364, 0.014, 0.9540000000000001, -0.046, 192.0, 0.0, 0.0, 0.0, 0.0, 0.0, 0.0, 0.0, 0.0, 0.0, 1.6664045161448007E9, 0.0, 2022-10-21 19:08:36.144
188.0, -130647.55566687057, -157495.10765017362, -33784.482930240985, -140585.0294929778, 68455.48074906836, -108579.96893882382, 56190.3633106188, -110772.80918035617, 0.014, 0.9540000000000001, -0.046, 192.0, 0.0, 0.0, 0.0, 0.0, 0.0, 0.0, 0.0, 0.0, 0.0, 1.6664045161448154E9, 0.0, 2022-10-21 19:08:36.144
189.0, -130648.04740524858, -157494.05711818422, -33782.76184591792, -140592.11499597013, 68460.17461540397, -108598.4314797439, 56176.54993254542, -110771.6468896445, 0.014, 0.9540000000000001, -0.046, 192.0, 0.0, 0.0, 0.0, 0.0, 0.0, 0.0, 0.0, 0.0, 0.0, 1.6664045161448305E9, 0.0, 2022-10-21 19:08:36.144
190.0, -130649.29910293808, -157495.28646412928, -33779.90082262764, -140590.2374494359, 68460.12991191506, -108603.2818082907, 56171.252569109514, -110770.81987509965, 0.014, 0.9540000000000001, -0.046, 192.0, 0.0, 0.0, 0.0, 0.0, 0.0, 0.0, 0.0, 0.0, 0.0, 1.6664045161448455E9, 0.0, 2022-10-21 19:08:36.144
191.0, -130645.74517556968, -157494.682967029, -33777.77740690439, -140578.41337661905, 68466.96954571838, -108594.74344190878, 56180.64030178074, -110770.21637799936, 0.014, 0.9540000000000001, -0.046, 192.0, 0.0, 0.0, 0.0, 0.0, 0.0, 0.0, 0.0, 0.0, 0.0, 1.6664045161448605E9, 0.0, 2022-10-21 19:08:36.144
192.0, -130647.19803895928, -157494.23593213988, -33778.91734587161, -140572.95955097195, 68470.03173470875, -108568.59190089606, 56201.91916250219, -110765.45545643038, 0.014, 0.9580000000000001, -0.048, 192.0, 0.0, 112.0, 29.0, 240.0, 254.0, 128.0, 0.0, 0.0, 0.0, 1.6664045161448755E9, 0.0, 2022-10-21 19:08:36.144
193.0, -130645.65576859187, -157489.78793499328, -33776.30219177034, -140580.9838272314, 68468.84709225263, -108579.879531846, 56193.626665309275, -110763.28733721821, 0.014, 0.9580000000000001, -0.048, 192.0, 0.0, 0.0, 0.0, 0.0, 0.0, 0.0, 0.0, 0.0, 0.0, 1.6664045161448915E9, 0.0, 2022-10-21 19:08:36.144
194.0, -130647.51096338165, -157493.9677112064, -33776.838633637264, -140581.20734467596, 68468.1094846856, -108595.70456692035, 56181.57907504786, -110766.7965610977, 0.014, 0.9580000000000001, -0.048, 192.0, 0.0, 0.0, 0.0, 0.0, 0.0, 0.0, 0.0, 0.0, 0.0, 1.66640451614492E9, 0.0, 2022-10-21 19:08:36.144
195.0, -130645.87928603642, -157494.43709783998, -33779.45378773854, -140574.5688765727, 68464.66731603949, -108596.86685763203, 56184.328339615866, -110767.6906308759, 0.014, 0.9580000000000001, -0.048, 192.0, 0.0, 0.0, 0.0, 0.0, 0.0, 0.0, 0.0, 0.0, 0.0, 1.666404516144935E9, 0.0, 2022-10-21 19:08:36.144
196.0, -130649.65673084937, -157501.16497292102, -33783.90178488514, -140574.926504484, 68462.38743810504, -108576.77263936671, 56198.07466245588, -110768.45059018739, 0.014, 0.9580000000000001, -0.048, 192.0, 0.0, 0.0, 0.0, 0.0, 0.0, 0.0, 0.0, 0.0, 0.0, 1.6664045161449497E9, 0.0, 2022-10-21 19:08:36.144
197.0, -130641.92302726783, -157489.2738448708, -33775.98926734796, -140580.8273650202, 68469.53999633074, -108590.45190697337, 56190.966807719095, -110763.46615117385, 0.014, 0.9580000000000001, -0.048, 192.0, 0.0, 0.0, 0.0, 0.0, 0.0, 0.0, 0.0, 0.0, 0.0, 1.6664045161449645E9, 0.0, 2022-10-21 19:08:36.144
198.0, -130643.19707670178, -157487.5304088033, -33776.011619092424, -140581.85554526516, 68472.62453706558, -108606.72397693682, 56177.93574070165, -110768.80821809867, 0.014, 0.9580000000000001, -0.048, 192.0, 0.0, 0.0, 0.0, 0.0, 0.0, 0.0, 0.0, 0.0, 0.0, 1.6664045161449792E9, 0.0, 2022-10-21 19:08:36.144
199.0, -130651.24370470569, -157496.5158100743, -33782.247755795455, -140576.96051322945, 68465.09199918414, -108603.99706411327, 56180.14856340273, -110767.51181692026, 0.014, 0.9580000000000001, -0.048, 192.0, 0.0, 0.0, 0.0, 0.0, 0.0, 0.0, 0.0, 0.0, 0.0, 1.666404516144997E9, 0.0, 2022-10-21 19:08:36.144
200.0, -130659.02211177614, -157501.0755659432, -33787.99215412047, -140580.31327489775, 68455.68191476846, -108603.25945654625, 56183.45662158211, -110771.11044777757, 0.014, 0.9580000000000001, -0.048, 192.0, 0.0, 0.0, 0.0, 0.0, 0.0, 0.0, 0.0, 0.0, 0.0, 1.666404516145012E9, 0.0, 2022-10-21 19:08:36.145
201.0, -130655.42348091883, -157495.8676094851, -33783.74532267396, -140579.2850946528, 68460.77811250427, -108608.84739266007, 56185.378871605266, -110764.13670350751, 0.014, 0.9580000000000001, -0.048, 192.0, 0.0, 0.0, 0.0, 0.0, 0.0, 0.0, 0.0, 0.0, 0.0, 1.666404516145027E9, 0.0, 2022-10-21 19:08:36.145
202.0, -130640.44781213377, -157480.19903662195, -33772.30122951284, -140572.3784056161, 68473.00451672131, -108616.33522705261, 56180.52854305846, -110752.69261034639, 0.016, 0.962, -0.05, 192.0, 0.0, 128.0, 30.0, 16.0, 254.0, 112.0, 0.0, 0.0, 0.0, 1.666404516145042E9, 0.0, 2022-10-21 19:08:36.145
203.0, -130652.40599541737, -157493.78889725078, -33782.56068021783, -140576.96051322945, 68461.8062927492, -108603.25945654625, 56182.853124481815, -110776.54192168021, 0.016, 0.962, -0.05, 192.0, 0.0, 0.0, 0.0, 0.0, 0.0, 0.0, 0.0, 0.0, 0.0, 1.6664045161450584E9, 0.0, 2022-10-21 19:08:36.145
204.0, -130653.70239659578, -157497.38752810808, -33783.03006685139, -140576.84875450717, 68456.12894965756, -108593.75996515274, 56192.97846472007, -110779.11237229257, 0.016, 0.962, -0.05, 192.0, 0.0, 0.0, 0.0, 0.0, 0.0, 0.0, 0.0, 0.0, 0.0, 1.6664045161450734E9, 0.0, 2022-10-21 19:08:36.145
205.0, -130656.49636465269, -157497.54399031927, -33782.42656975109, -140582.99548423238, 68453.08911241163, -108603.81825015764, 56187.07760418387, -110779.67116590396, 0.016, 0.962, -0.05, 192.0, 0.0, 0.0, 0.0, 0.0, 0.0, 0.0, 0.0, 0.0, 0.0, 1.6664045161450884E9, 0.0, 2022-10-21 19:08:36.145
206.0, -130648.67325409333, -157493.90065597303, -33777.419778993106, -140582.39198713208, 68460.12991191506, -108624.87359343453, 56172.63837726574, -110770.52930242174, 0.016, 0.962, -0.05, 192.0, 0.0, 0.0, 0.0, 0.0, 0.0, 0.0, 0.0, 0.0, 0.0, 1.6664045161451032E9, 0.0, 2022-10-21 19:08:36.145
207.0, -130646.70630058127, -157490.9278739605, -33776.503357470436, -140570.2773416373, 68467.72950502986, -108612.62483747302, 56180.774412247476, -110764.896662819, 0.016, 0.962, -0.05, 192.0, 0.0, 0.0, 0.0, 0.0, 0.0, 0.0, 0.0, 0.0, 0.0, 1.6664045161451178E9, 0.0, 2022-10-21 19:08:36.145
208.0, -130647.57801861502, -157489.81028673772, -33777.57624120429, -140565.29290262377, 68465.69549628443, -108593.29057851918, 56198.45464211162, -110759.37578193854, 0.016, 0.962, -0.05, 192.0, 0.0, 0.0, 0.0, 0.0, 0.0, 0.0, 0.0, 0.0, 0.0, 1.6664045161451328E9, 0.0, 2022-10-21 19:08:36.145
209.0, -130653.7918035736, -157496.24758914087, -33780.839595894766, -140574.3230073837, 68462.45449333842, -108589.40137498397, 56201.22625842408, -110760.98510753932, 0.016, 0.962, -0.05, 192.0, 0.0, 0.0, 0.0, 0.0, 0.0, 0.0, 0.0, 0.0, 0.0, 1.6664045161451616E9, 0.0, 2022-10-21 19:08:36.145
210.0, -130659.22327747624, -157501.3214351322, -33788.662706454124, -140588.60577209067, 68455.01136243479, -108610.03203511621, 56178.516886057485, -110781.52636069374, 0.016, 0.962, -0.05, 192.0, 0.0, 0.0, 0.0, 0.0, 0.0, 0.0, 0.0, 0.0, 0.0, 1.666404516145177E9, 0.0, 2022-10-21 19:08:36.145
211.0, -130654.41765241834, -157497.18636240799, -33782.381866262185, -140583.55427784377, 68457.11242641359, -108614.52473575172, 56174.85119996682, -110779.53705543722, 0.016, 0.964, -0.05, 192.0, 0.0, 128.0, 30.0, 32.0, 254.0, 112.0, 0.0, 0.0, 0.0, 1.666404516145192E9, 0.0, 2022-10-21 19:08:36.145
212.0, -130651.06489075004, -157494.1241734176, -33775.40812199213, -140570.85848699315, 68461.58277530465, -108605.36052052505, 56185.78120300546, -110772.38449721152, 0.016, 0.964, -0.05, 192.0, 0.0, 0.0, 0.0, 0.0, 0.0, 0.0, 0.0, 0.0, 0.0, 1.6664045161452076E9, 0.0, 2022-10-21 19:08:36.145
213.0, -130653.0318442621, -157496.20288565193, -33777.44213073756, -140572.7807370163, 68463.21445264989, -108595.32458726462, 56192.30791238641, -110773.83736060112, 0.016, 0.964, -0.05, 192.0, 0.0, 0.0, 0.0, 0.0, 0.0, 0.0, 0.0, 0.0, 0.0, 1.666404516145223E9, 0.0, 2022-10-21 19:08:36.145
214.0, -130654.19413497379, -157497.923969975, -33781.890127884166, -140582.2802284098, 68461.15809216, -108599.70552917785, 56182.20492389261, -110780.4981804488, 0.016, 0.964, -0.05, 192.0, 0.0, 0.0, 0.0, 0.0, 0.0, 0.0, 0.0, 0.0, 0.0, 1.6664045161452377E9, 0.0, 2022-10-21 19:08:36.145
215.0, -130655.22231521874, -157500.00268220934, -33780.75018891694, -140579.44155686398, 68464.98024046185, -108617.18459334191, 56170.40320282021, -110777.3465844806, 0.016, 0.964, -0.05, 192.0, 0.0, 0.0, 0.0, 0.0, 0.0, 0.0, 0.0, 0.0, 0.0, 1.6664045161452527E9, 0.0, 2022-10-21 19:08:36.145
216.0, -130657.1892687308, -157500.8296967542, -33783.41004650713, -140569.427975348, 68467.2601183963, -108598.78910765519, 56186.496458828035, -110772.74212512281, 0.016, 0.964, -0.05, 192.0, 0.0, 0.0, 0.0, 0.0, 0.0, 0.0, 0.0, 0.0, 0.0, 1.666404516145268E9, 0.0, 2022-10-21 19:08:36.145
217.0, -130660.29616121009, -157505.680025301, -33784.21470930752, -140572.8254405052, 68466.67897304046, -108581.24298825777, 56203.39437763624, -110771.02104079975, 0.016, 0.964, -0.05, 192.0, 0.0, 0.0, 0.0, 0.0, 0.0, 0.0, 0.0, 0.0, 0.0, 1.6664045161452832E9, 0.0, 2022-10-21 19:08:36.145
218.0, -130667.13579501341, -157511.0891474592, -33790.40614252164, -140585.4765278669, 68461.38160960455, -108591.52479070722, 56194.85601125431, -110770.05991578817, 0.016, 0.964, -0.05, 192.0, 0.0, 0.0, 0.0, 0.0, 0.0, 0.0, 0.0, 0.0, 0.0, 1.666404516145298E9, 0.0, 2022-10-21 19:08:36.145
219.0, -130664.92297231234, -157509.85980151413, -33790.74141868847, -140591.176222703, 68459.50406307032, -108625.1865178569, 56172.705432499104, -110766.32717446414, 0.016, 0.964, -0.05, 192.0, 0.0, 0.0, 0.0, 0.0, 0.0, 0.0, 0.0, 0.0, 0.0, 1.6664045161453128E9, 0.0, 2022-10-21 19:08:36.145
220.0, -130652.92008553984, -157495.8676094851, -33775.09519756975, -140566.41048984654, 68474.03269696626, -108615.55291599667, 56189.04455769594, -110756.04537201469, 0.016, 0.964, -0.05, 192.0, 0.0, 0.0, 0.0, 0.0, 0.0, 0.0, 0.0, 0.0, 0.0, 1.666404516145328E9, 0.0, 2022-10-21 19:08:36.145
221.0, -130648.44973664878, -157491.3302053607, -33775.318715014306, -140554.85463796314, 68478.43599062396, -108590.60836918454, 56209.80932829492, -110757.5429388932, 0.012, 0.966, -0.056, 192.0, 0.0, 96.0, 30.0, 48.0, 254.0, 64.0, 0.0, 0.0, 0.0, 1.666404516145345E9, 0.0, 2022-10-21 19:08:36.145
222.0, -130656.42930941933, -157497.2310658969, -33781.06311333932, -140571.66314979355, 68471.03756320925, -108599.90669487795, 56197.89584850024, -110768.58470065412, 0.012, 0.966, -0.056, 192.0, 0.0, 0.0, 0.0, 0.0, 0.0, 0.0, 0.0, 0.0, 0.0, 1.6664045161453607E9, 0.0, 2022-10-21 19:08:36.145
223.0, -130659.71501585425, -157498.8180397532, -33781.197223806055, -140575.172373673, 68474.23386266635, -108618.57040149813, 56184.73067101606, -110767.37770645354, 0.012, 0.966, -0.056, 192.0, 0.0, 0.0, 0.0, 0.0, 0.0, 0.0, 0.0, 0.0, 0.0, 1.6664045161453755E9, 0.0, 2022-10-21 19:08:36.145
224.0, -130659.2903327096, -157500.5838275652, -33785.377000019194, -140578.16750743001, 68464.9578887174, -108619.44211953189, 56182.74136575954, -110770.10461927709, 0.012, 0.966, -0.056, 192.0, 0.0, 0.0, 0.0, 0.0, 0.0, 0.0, 0.0, 0.0, 0.0, 1.6664045161454043E9, 0.0, 2022-10-21 19:08:36.145
225.0, -130657.85982106446, -157498.9745019644, -33783.36534301822, -140571.2831701378, 68465.3602201176, -108603.77354666872, 56195.235990910056, -110766.66245063096, 0.012, 0.966, -0.056, 192.0, 0.0, 0.0, 0.0, 0.0, 0.0, 0.0, 0.0, 0.0, 0.0, 1.6664045161454196E9, 0.0, 2022-10-21 19:08:36.145
226.0, -130664.07360602304, -157503.40014736654, -33788.72976168749, -140580.20151617547, 68460.66635378198, -108590.47425871782, 56199.95220899013, -110771.49042743331, 0.012, 0.966, -0.056, 192.0, 0.0, 0.0, 0.0, 0.0, 0.0, 0.0, 0.0, 0.0, 0.0, 1.6664045161454363E9, 0.0, 2022-10-21 19:08:36.145
227.0, -130661.72667285523, -157502.75194677734, -33785.309944785826, -140585.6329900781, 68463.54972881672, -108609.7861659272, 56188.12813617327, -110765.65662213048, 0.012, 0.966, -0.056, 192.0, 0.0, 0.0, 0.0, 0.0, 0.0, 0.0, 0.0, 0.0, 0.0, 1.6664045161454513E9, 0.0, 2022-10-21 19:08:36.145
228.0, -130666.08526302401, -157506.5293915903, -33787.88039539819, -140582.1237661986, 68461.42631309347, -108613.16127933995, 56185.40122334972, -110774.61967165706, 0.012, 0.966, -0.056, 192.0, 0.0, 0.0, 0.0, 0.0, 0.0, 0.0, 0.0, 0.0, 0.0, 1.6664045161454663E9, 0.0, 2022-10-21 19:08:36.145
229.0, -130666.71111186876, -157505.30004564524, -33789.04268610987, -140575.39589111757, 68460.86751948208, -108593.64820643047, 56199.52752584548, -110780.900511849, 0.012, 0.966, -0.056, 192.0, 0.0, 0.0, 0.0, 0.0, 0.0, 0.0, 0.0, 0.0, 0.0, 1.6664045161454816E9, 0.0, 2022-10-21 19:08:36.145
230.0, -130661.88313506641, -157500.24855139834, -33782.31481102882, -140569.56208581474, 68472.33396438765, -108575.49858993276, 56211.8209852959, -110774.28439549022, 0.012, 0.966, -0.056, 192.0, 0.0, 0.0, 0.0, 0.0, 0.0, 0.0, 0.0, 0.0, 0.0, 1.6664045161454964E9, 0.0, 2022-10-21 19:08:36.145
231.0, -130659.7373675987, -157500.4720688429, -33782.89595638466, -140577.89928649657, 68471.75281903181, -108586.78622088268, 56199.50517410102, -110772.16097976697, 0.012, 0.964, -0.064, 192.0, 0.0, 96.0, 30.0, 32.0, 254.0, 0.0, 0.0, 0.0, 0.0, 1.6664045161455116E9, 0.0, 2022-10-21 19:08:36.145
232.0, -130657.01045477515, -157497.00754845233, -33784.5723372188, -140572.668978294, 68473.38449637705, -108614.4353287739, 56180.55089480292, -110768.4952936763, 0.012, 0.964, -0.064, 192.0, 0.0, 0.0, 0.0, 0.0, 0.0, 0.0, 0.0, 0.0, 0.0, 1.6664045161455271E9, 0.0, 2022-10-21 19:08:36.145
233.0, -130664.36417870095, -157500.80734500973, -33788.70740994304, -140557.69330950896, 68479.28535691326, -108594.65403493095, 56194.319569387386, -110769.41171519896, 0.012, 0.964, -0.064, 192.0, 0.0, 0.0, 0.0, 0.0, 0.0, 0.0, 0.0, 0.0, 0.0, 1.6664045161455424E9, 0.0, 2022-10-21 19:08:36.145
234.0, -130673.23782124971, -157510.70916780343, -33792.864834411725, -140567.14809741356, 68468.914147486, -108583.90284584796, 56201.42742412417, -110773.65854664547, 0.012, 0.964, -0.064, 192.0, 0.0, 0.0, 0.0, 0.0, 0.0, 0.0, 0.0, 0.0, 0.0, 1.6664045161455605E9, 0.0, 2022-10-21 19:08:36.145
235.0, -130667.00168454667, -157501.38849036559, -33783.47710174049, -140567.75159451386, 68478.57010109069, -108606.94749438137, 56189.916275729694, -110756.2912412037, 0.012, 0.964, -0.064, 192.0, 0.0, 0.0, 0.0, 0.0, 0.0, 0.0, 0.0, 0.0, 0.0, 1.6664045161455753E9, 0.0, 2022-10-21 19:08:36.145
236.0, -130665.77233860164, -157499.19801940894, -33784.907613385636, -140565.35995785714, 68480.2688336693, -108591.21186628484, 56198.56640083389, -110758.95109879388, 0.012, 0.964, -0.064, 192.0, 0.0, 0.0, 0.0, 0.0, 0.0, 0.0, 0.0, 0.0, 0.0, 1.66640451614559E9, 0.0, 2022-10-21 19:08:36.145
237.0, -130668.23103049172, -157501.70141478794, -33785.44405525256, -140558.49797230936, 68479.2630051688, -108579.20897951233, 56209.1164242168, -110764.33786920761, 0.012, 0.964, -0.064, 192.0, 0.0, 0.0, 0.0, 0.0, 0.0, 0.0, 0.0, 0.0, 0.0, 1.6664045161456048E9, 0.0, 2022-10-21 19:08:36.145
238.0, -130667.0910915245, -157500.69558628745, -33784.34881977425, -140558.29680660926, 68474.83735976665, -108578.67253764541, 56213.43031089668, -110770.01521229926, 0.012, 0.964, -0.064, 192.0, 0.0, 0.0, 0.0, 0.0, 0.0, 0.0, 0.0, 0.0, 0.0, 1.6664045161456196E9, 0.0, 2022-10-21 19:08:36.145
239.0, -130666.77816710212, -157502.7742985218, -33790.11556984372, -140576.64758880707, 68467.77420851878, -108595.54810470917, 56199.72869154557, -110777.01130831377, 0.012, 0.964, -0.064, 192.0, 0.0, 0.0, 0.0, 0.0, 0.0, 0.0, 0.0, 0.0, 0.0, 1.66640451614565E9, 0.0, 2022-10-21 19:08:36.145
240.0, -130668.11927176945, -157504.56243807822, -33793.982421634486, -140581.54262084278, 68465.91901372898, -108607.4392327594, 56192.2632088975, -110773.39032571201, 0.018000000000000002, 0.962, -0.06, 192.0, 0.0, 144.0, 30.0, 16.0, 254.0, 32.0, 0.0, 0.0, 0.0, 1.666404516145666E9, 0.0, 2022-10-21 19:08:36.145
241.0, -130664.23006823422, -157497.45458334143, -33784.192357563064, -140571.10435618216, 68472.60218532111, -108604.42174725792, 56202.20973518011, -110760.35925869457, 0.018000000000000002, 0.962, -0.06, 192.0, 0.0, 0.0, 0.0, 0.0, 0.0, 0.0, 0.0, 0.0, 0.0, 1.6664045166229036E9, 0.0, 2022-10-21 19:08:36.622
242.0, -130667.87340258044, -157500.69558628745, -33788.170968076105, -140574.434766106, 68467.19306316294, -108583.14288653647, 56217.90065978774, -110767.02007854225, 0.018000000000000002, 0.962, -0.06, 192.0, 0.0, 0.0, 0.0, 0.0, 0.0, 0.0, 0.0, 0.0, 0.0, 1.666404516623008E9, 0.0, 2022-10-21 19:08:36.623
243.0, -130666.66640837985, -157498.50511533083, -33792.1272268447, -140586.30354241177, 68461.09103692663, -108601.44896524536, 56203.327322402874, -110773.90441583449, 0.018000000000000002, 0.962, -0.06, 192.0, 0.0, 0.0, 0.0, 0.0, 0.0, 0.0, 0.0, 0.0, 0.0, 1.666404516623063E9, 0.0, 2022-10-21 19:08:36.623
244.0, -130675.65180965088, -157508.31753114672, -33800.59853799326, -140589.70100756898, 68458.56528980318, -108619.97856139882, 56186.071775683384, -110785.10263980659, 0.018000000000000002, 0.962, -0.06, 192.0, 0.0, 0.0, 0.0, 0.0, 0.0, 0.0, 0.0, 0.0, 0.0, 1.6664045166230888E9, 0.0, 2022-10-21 19:08:36.623
245.0, -130667.71694036925, -157501.25437989883, -33794.340049545775, -140575.30648413976, 68465.27081313978, -108604.60056121356, 56200.42159562369, -110776.63132865803, 0.018000000000000002, 0.962, -0.06, 192.0, 0.0, 0.0, 0.0, 0.0, 0.0, 0.0, 0.0, 0.0, 0.0, 1.666404516623114E9, 0.0, 2022-10-21 19:08:36.623
246.0, -130662.30781821106, -157494.90648447353, -33787.0757325978, -140569.09269918117, 68468.93649923045, -108603.39356701299, 56210.748101562036, -110766.68480237541, 0.018000000000000002, 0.962, -0.06, 192.0, 0.0, 0.0, 0.0, 0.0, 0.0, 0.0, 0.0, 0.0, 0.0, 1.666404516623139E9, 0.0, 2022-10-21 19:08:36.623
247.0, -130668.83452759201, -157502.2825601438, -33794.0271251234, -140582.436690621, 68468.26594689679, -108602.54420072369, 56209.36229340581, -110770.81987509965, 0.018000000000000002, 0.962, -0.06, 192.0, 0.0, 0.0, 0.0, 0.0, 0.0, 0.0, 0.0, 0.0, 0.0, 1.6664045166231644E9, 0.0, 2022-10-21 19:08:36.623
248.0, -130673.1931177608, -157506.6411503126, -33799.79387519287, -140593.6349145931, 68465.58373756215, -108602.92418037941, 56200.823927023885, -110773.81500885666, 0.018000000000000002, 0.962, -0.06, 192.0, 0.0, 0.0, 0.0, 0.0, 0.0, 0.0, 0.0, 0.0, 0.0, 1.6664045166231909E9, 0.0, 2022-10-21 19:08:36.623
249.0, -130665.70528336827, -157500.04738569824, -33788.662706454124, -140574.45711785046, 68475.08322895566, -108601.02428210071, 56204.08728171436, -110756.15713073697, 0.018000000000000002, 0.962, -0.06, 192.0, 0.0, 0.0, 0.0, 0.0, 0.0, 0.0, 0.0, 0.0, 0.0, 1.6664045166232154E9, 0.0, 2022-10-21 19:08:36.623
250.0, -130661.61491413295, -157498.34865311964, -33789.44501751006, -140565.56112355724, 68476.64785106754, -108589.04374707268, 56212.40213065173, -110751.28445044572, 0.024, 0.96, -0.052000000000000005, 192.0, 0.0, 192.0, 30.0, 0.0, 254.0, 96.0, 0.0, 0.0, 0.0, 1.66640451662324E9, 0.0, 2022-10-21 19:08:36.623
251.0, -130664.2971234676, -157501.9249322325, -33792.440151267074, -140576.7369957849, 68471.95398473191, -108591.23421802929, 56207.79767129394, -110768.96468030986, 0.024, 0.96, -0.052000000000000005, 192.0, 0.0, 0.0, 0.0, 0.0, 0.0, 0.0, 0.0, 0.0, 0.0, 1.666404516623269E9, 0.0, 2022-10-21 19:08:36.623
252.0, -130661.72667285523, -157500.04738569824, -33785.309944785826, -140576.80405101826, 68475.44085686695, -108607.10395659256, 56195.75008103253, -110771.73629662232, 0.024, 0.96, -0.052000000000000005, 192.0, 0.0, 0.0, 0.0, 0.0, 0.0, 0.0, 0.0, 0.0, 0.0, 1.6664045166233041E9, 0.0, 2022-10-21 19:08:36.623
253.0, -130661.45845192176, -157494.8841327291, -33788.170968076105, -140573.49599283887, 68475.4632086114, -108606.47810774781, 56192.866705997796, -110773.85971234557, 0.024, 0.96, -0.052000000000000005, 192.0, 0.0, 0.0, 0.0, 0.0, 0.0, 0.0, 0.0, 0.0, 0.0, 1.6664045166233385E9, 0.0, 2022-10-21 19:08:36.623
254.0, -130666.4428909353, -157500.69558628745, -33794.00477337895, -140573.00425446086, 68468.914147486, -108608.60152347106, 56196.93472348866, -110773.43502920092, 0.024, 0.96, -0.052000000000000005, 192.0, 0.0, 0.0, 0.0, 0.0, 0.0, 0.0, 0.0, 0.0, 0.0, 1.666404516623456E9, 0.0, 2022-10-21 19:08:36.623
255.0, -130667.56047815806, -157502.55078107724, -33792.55190998935, -140574.85944925065, 68469.33883063064, -108604.17587806891, 56202.008569480015, -110768.80821809867, 0.024, 0.96, -0.052000000000000005, 192.0, 0.0, 0.0, 0.0, 0.0, 0.0, 0.0, 0.0, 0.0, 0.0, 1.6664045166234813E9, 0.0, 2022-10-21 19:08:36.623
0.0, -130661.07847226602, -157495.68879552948, -33786.919270386614, -140573.74186202788, 68473.8091795217, -108620.11267186556, 56187.815211750894, -110763.86848257405, 0.024, 0.96, -0.052000000000000005, 192.0, 0.0, 0.0, 0.0, 0.0, 0.0, 0.0, 0.0, 0.0, 0.0, 1.6664045166235058E9, 0.0, 2022-10-21 19:08:36.623
1.0, -130666.6440566354, -157502.10374618814, -33790.003811121445, -140574.3677108726, 68471.57400507618, -108635.75889298426, 56173.24187436603, -110766.95302330889, 0.024, 0.96, -0.052000000000000005, 192.0, 0.0, 0.0, 0.0, 0.0, 0.0, 0.0, 0.0, 0.0, 0.0, 1.6664045166235304E9, 0.0, 2022-10-21 19:08:36.623
2.0, -130673.23782124971, -157511.87145851512, -33798.49747401446, -140573.6748067945, 68464.80142650622, -108609.51794499374, 56191.100918185824, -110775.46903794636, 0.024, 0.96, -0.052000000000000005, 192.0, 0.0, 0.0, 0.0, 0.0, 0.0, 0.0, 0.0, 0.0, 0.0, 1.6664045166235547E9, 0.0, 2022-10-21 19:08:36.623
3.0, -130671.27086773765, -157506.8870195016, -33798.45277052555, -140578.65924580806, 68465.87431024008, -108595.34693900908, 56202.09797645784, -110778.75474438128, 0.024, 0.96, -0.052000000000000005, 192.0, 0.0, 0.0, 0.0, 0.0, 0.0, 0.0, 0.0, 0.0, 0.0, 1.6664045166235797E9, 0.0, 2022-10-21 19:08:36.623
4.0, -130665.41471069035, -157500.2261996539, -33783.96884011851, -140578.3239696412, 68474.27856615526, -108610.85904966106, 56193.492554842545, -110767.98120355383, 0.02, 0.96, -0.052000000000000005, 192.0, 0.0, 160.0, 30.0, 0.0, 254.0, 96.0, 0.0, 0.0, 0.0, 1.6664045166236045E9, 0.0, 2022-10-21 19:08:36.623
5.0, -130671.33792297101, -157502.84135375518, -33790.339087288274, -140579.5309638418, 68472.60218532111, -108617.16224159746, 56185.222409394075, -110770.7975233552, 0.02, 0.96, -0.052000000000000005, 192.0, 0.0, 0.0, 0.0, 0.0, 0.0, 0.0, 0.0, 0.0, 0.0, 1.6664045166236308E9, 0.0, 2022-10-21 19:08:36.623
6.0, -130675.74121662871, -157506.21646716792, -33792.976593134, -140582.2355249209, 68464.60026080612, -108614.30121830717, 56187.23406639505, -110776.00547981328, 0.02, 0.96, -0.052000000000000005, 192.0, 0.0, 0.0, 0.0, 0.0, 0.0, 0.0, 0.0, 0.0, 0.0, 1.666404516623655E9, 0.0, 2022-10-21 19:08:36.623
7.0, -130676.97056257374, -157508.76456603582, -33790.71906694402, -140581.49791735387, 68466.83543525165, -108602.92418037941, 56199.39341537874, -110773.68089838992, 0.02, 0.96, -0.052000000000000005, 192.0, 0.0, 0.0, 0.0, 0.0, 0.0, 0.0, 0.0, 0.0, 0.0, 1.6664045166236837E9, 0.0, 2022-10-21 19:08:36.623
8.0, -130676.83645210702, -157508.16106893553, -33793.40127627865, -140591.7350163144, 68466.92484222948, -108599.45965998885, 56196.08535719936, -110775.35727922407, 0.02, 0.96, -0.052000000000000005, 192.0, 0.0, 0.0, 0.0, 0.0, 0.0, 0.0, 0.0, 0.0, 0.0, 1.6664045166237075E9, 0.0, 2022-10-21 19:08:36.623
9.0, -130672.03082704912, -157502.59548456615, -33789.35561053224, -140591.82442329222, 68467.12600792958, -108626.72878822433, 56175.54410404493, -110769.45641868789, 0.02, 0.96, -0.052000000000000005, 192.0, 0.0, 0.0, 0.0, 0.0, 0.0, 0.0, 0.0, 0.0, 0.0, 1.6664045166237311E9, 0.0, 2022-10-21 19:08:36.623
10.0, -130675.27182999514, -157504.45067935594, -33794.51886350141, -140582.9731324879, 68461.24749913783, -108637.09999765159, 56169.35267083081, -110771.51277917776, 0.02, 0.96, -0.052000000000000005, 192.0, 0.0, 0.0, 0.0, 0.0, 0.0, 0.0, 0.0, 0.0, 0.0, 1.6664045166237516E9, 0.0, 2022-10-21 19:08:36.623
11.0, -130679.63042016393, -157509.2339526694, -33792.864834411725, -140569.8303067482, 68468.13183643005, -108605.71814843634, 56193.201982164624, -110774.3961542125, 0.02, 0.96, -0.052000000000000005, 192.0, 0.0, 0.0, 0.0, 0.0, 0.0, 0.0, 0.0, 0.0, 0.0, 1.666404516623767E9, 0.0, 2022-10-21 19:08:36.623
12.0, -130672.81313810506, -157501.50024908784, -33788.103912842744, -140576.0217399623, 68470.38936262004, -108606.36634902554, 56191.43619435265, -110772.92093907845, 0.02, 0.96, -0.052000000000000005, 192.0, 0.0, 0.0, 0.0, 0.0, 0.0, 0.0, 0.0, 0.0, 0.0, 1.6664045166237822E9, 0.0, 2022-10-21 19:08:36.623
