%OpenBCI Raw EEG Data
%Number of channels = 8
%Sample Rate = 250 Hz
%Board = OpenBCI_GUI$BoardCytonSerial
Sample Index, EXG Channel 0, EXG Channel 1, EXG Channel 2, EXG Channel 3, EXG Channel 4, EXG Channel 5, EXG Channel 6, EXG Channel 7, Accel Channel 0, Accel Channel 1, Accel Channel 2, Other, Other, Other, Other, Other, Other, Other, Analog Channel 0, Analog Channel 1, Analog Channel 2, Timestamp, Other, Timestamp (Formatted)
118.0, -130216.25640586096, -157275.74763008926, -33539.06077612171, -140337.81919930212, 68024.18148805875, -105914.45635729509, 56064.97002422452, -110959.17802562453, 0.0, 0.0, 0.0, 192.0, 0.0, 0.0, 0.0, 0.0, 0.0, 0.0, 0.0, 0.0, 0.0, 1.6664044924171715E9, 0.0, 2022-10-21 19:08:12.417
119.0, -130212.81423721484, -157271.54550213166, -33539.88779066656, -140343.92122553842, 68026.99780786011, -105936.4057703502, 56048.60854728324, -110961.74847623688, 0.0, 0.0, 0.0, 192.0, 0.0, 0.0, 0.0, 0.0, 0.0, 0.0, 0.0, 0.0, 0.0, 1.6664044924171941E9, 0.0, 2022-10-21 19:08:12.417
120.0, -130220.235016374, -157278.4298394239, -33548.78378495977, -140360.68503387988, 68016.67130192177, -105939.26679364048, 56037.11975063322, -110973.37138335365, 0.0, 0.0, 0.0, 192.0, 0.0, 0.0, 0.0, 0.0, 0.0, 0.0, 0.0, 0.0, 0.0, 1.6664044924172096E9, 0.0, 2022-10-21 19:08:12.417
121.0, -130224.45949607606, -157281.9167115589, -33549.789613460256, -140354.85122857706, 68015.64312167683, -105908.57784850334, 56056.56576830933, -110980.05455494577, 0.0, 0.0, 0.0, 192.0, 0.0, 0.0, 0.0, 0.0, 0.0, 0.0, 0.0, 0.0, 0.0, 1.6664044924172668E9, 0.0, 2022-10-21 19:08:12.417
122.0, -130215.47409480502, -157267.18691196287, -33541.72063371189, -140350.67145236392, 68020.11347056789, -105882.58276970182, 56077.86698077524, -110973.61725254265, 0.0, 0.0, 0.0, 192.0, 0.0, 0.0, 0.0, 0.0, 0.0, 0.0, 0.0, 0.0, 0.0, 1.666404492417308E9, 0.0, 2022-10-21 19:08:12.417
123.0, -130205.03583014439, -157254.37936238997, -33535.05981386421, -140360.17094375743, 68019.26410427858, -105917.18327011864, 56058.488018332486, -110965.48121756093, 0.0, 0.0, 0.0, 192.0, 0.0, 0.0, 0.0, 0.0, 0.0, 0.0, 0.0, 0.0, 0.0, 1.6664044924173489E9, 0.0, 2022-10-21 19:08:12.417
124.0, -130200.76664695343, -157247.80794952012, -33526.18617131546, -140351.61022563104, 68029.03181660555, -105915.57394451785, 56060.4326201001, -110960.96616518094, 0.0, 0.0, 0.0, 192.0, 0.0, 0.0, 0.0, 0.0, 0.0, 0.0, 0.0, 0.0, 0.0, 1.66640449241739E9, 0.0, 2022-10-21 19:08:12.417
125.0, -130191.1330450932, -157237.05676043712, -33517.558397955705, -140338.80267605814, 68031.3563980289, -105907.43790953612, 56069.95446323806, -110955.15471162257, 0.014, 0.962, -0.04, 192.0, 0.0, 112.0, 30.0, 16.0, 254.0, 192.0, 0.0, 0.0, 0.0, 1.6664044924174323E9, 0.0, 2022-10-21 19:08:12.417
126.0, -130189.8813474037, -157235.33567611405, -33518.83244738966, -140337.9756615133, 68033.34570328542, -105892.81986866235, 56085.42187040113, -110952.02546739882, 0.014, 0.962, -0.04, 192.0, 0.0, 0.0, 0.0, 0.0, 0.0, 0.0, 0.0, 0.0, 0.0, 1.666404492417477E9, 0.0, 2022-10-21 19:08:12.417
127.0, -130189.16609158112, -157233.5251848132, -33518.3630607561, -140352.16901924243, 68035.44676726422, -105891.97050237305, 56081.71148082155, -110951.690191232, 0.014, 0.962, -0.04, 192.0, 0.0, 0.0, 0.0, 0.0, 0.0, 0.0, 0.0, 0.0, 0.0, 1.6664044924174943E9, 0.0, 2022-10-21 19:08:12.417
128.0, -130176.09032107478, -157222.03638816313, -33506.47193270587, -140345.128219739, 68046.26501158059, -105895.502077997, 56076.302358663364, -110940.82724342671, 0.014, 0.962, -0.04, 192.0, 0.0, 0.0, 0.0, 0.0, 0.0, 0.0, 0.0, 0.0, 0.0, 1.6664044924175115E9, 0.0, 2022-10-21 19:08:12.417
129.0, -130166.74729189245, -157211.84399269152, -33502.113342537086, -140332.2759666772, 68046.44382553623, -105902.87815366723, 56076.883504019206, -110933.00413286735, 0.014, 0.962, -0.04, 192.0, 0.0, 0.0, 0.0, 0.0, 0.0, 0.0, 0.0, 0.0, 0.0, 1.6664044924175284E9, 0.0, 2022-10-21 19:08:12.417
130.0, -130163.84156511327, -157210.32407406857, -33497.46417969038, -140318.88727174848, 68052.0094099056, -105890.40588026117, 56090.24984720348, -110930.56779272173, 0.014, 0.962, -0.04, 192.0, 0.0, 0.0, 0.0, 0.0, 0.0, 0.0, 0.0, 0.0, 0.0, 1.6664044924175453E9, 0.0, 2022-10-21 19:08:12.417
131.0, -130166.85905061473, -157216.4037485604, -33504.46027570489, -140336.90277777944, 68045.63916273584, -105886.82960114833, 56083.924303522625, -110940.84959517117, 0.014, 0.962, -0.04, 192.0, 0.0, 0.0, 0.0, 0.0, 0.0, 0.0, 0.0, 0.0, 0.0, 1.6664044924175625E9, 0.0, 2022-10-21 19:08:12.417
132.0, -130167.64136167067, -157218.59421951702, -33511.34461299713, -140354.11362101004, 68038.55365974351, -105901.26882806646, 56068.076916703816, -110940.71548470444, 0.014, 0.962, -0.04, 192.0, 0.0, 0.0, 0.0, 0.0, 0.0, 0.0, 0.0, 0.0, 0.0, 1.6664044924175792E9, 0.0, 2022-10-21 19:08:12.417
133.0, -130164.82504186929, -157218.79538521712, -33509.55647344071, -140346.08934475057, 68042.04053187853, -105898.87719140973, 56070.87088476073, -110929.98664736589, 0.014, 0.962, -0.04, 192.0, 0.0, 0.0, 0.0, 0.0, 0.0, 0.0, 0.0, 0.0, 0.0, 1.666404492417596E9, 0.0, 2022-10-21 19:08:12.417
134.0, -130169.31774250482, -157225.54561204262, -33520.77704915727, -140351.99020528677, 68026.08138633745, -105897.26786580896, 56072.10023070577, -110944.9399644065, 0.014, 0.962, -0.04, 192.0, 0.0, 0.0, 0.0, 0.0, 0.0, 0.0, 0.0, 0.0, 0.0, 1.6664044924179025E9, 0.0, 2022-10-21 19:08:12.417
135.0, -130160.77937612288, -157216.24728634921, -33520.285310779254, -140358.4275076899, 68024.6061712034, -105924.1570143887, 56058.1303904212, -110948.89622317508, 0.014, 0.9560000000000001, -0.032, 192.0, 0.0, 112.0, 29.0, 224.0, 255.0, 0.0, 0.0, 0.0, 0.0, 1.666404492417946E9, 0.0, 2022-10-21 19:08:12.417
136.0, -130152.93391381907, -157208.58063800106, -33516.641976433035, -140351.09613550856, 68035.98320913115, -105930.12493015826, 56052.09541941827, -110944.71644696195, 0.014, 0.9560000000000001, -0.032, 192.0, 0.0, 0.0, 0.0, 0.0, 0.0, 0.0, 0.0, 0.0, 0.0, 1.6664044924179976E9, 0.0, 2022-10-21 19:08:12.417
137.0, -130148.48591667246, -157206.9489606558, -33514.138581054045, -140344.7258883388, 68041.0123516336, -105926.34748534531, 56056.00697469795, -110939.82141492623, 0.014, 0.9560000000000001, -0.032, 192.0, 0.0, 0.0, 0.0, 0.0, 0.0, 0.0, 0.0, 0.0, 0.0, 1.6664044924180293E9, 0.0, 2022-10-21 19:08:12.418
138.0, -130149.6705591286, -157209.63116999046, -33510.718764152385, -140329.5714055981, 68048.74605521513, -105899.03365362092, 56078.828105786815, -110937.54153699179, 0.014, 0.9560000000000001, -0.032, 192.0, 0.0, 0.0, 0.0, 0.0, 0.0, 0.0, 0.0, 0.0, 0.0, 1.6664044924180467E9, 0.0, 2022-10-21 19:08:12.418
139.0, -130155.19144000906, -157215.73319622676, -33515.8596653771, -140331.89598702145, 68044.27570632407, -105893.08808959581, 56083.231399444514, -110946.54929000727, 0.014, 0.9560000000000001, -0.032, 192.0, 0.0, 0.0, 0.0, 0.0, 0.0, 0.0, 0.0, 0.0, 0.0, 1.6664044924180624E9, 0.0, 2022-10-21 19:08:12.418
140.0, -130158.41009121062, -157221.83522246304, -33522.74400266934, -140348.72685059631, 68037.19020333173, -105933.23182263755, 56053.41417234113, -110954.99824941138, 0.014, 0.9560000000000001, -0.032, 192.0, 0.0, 0.0, 0.0, 0.0, 0.0, 0.0, 0.0, 0.0, 0.0, 1.6664044924180813E9, 0.0, 2022-10-21 19:08:12.418
141.0, -130156.73371037647, -157220.8070422181, -33516.48551422185, -140336.56750161262, 68044.47687202417, -105931.91306971468, 56059.22562589951, -110950.34908656467, 0.014, 0.9560000000000001, -0.032, 192.0, 0.0, 0.0, 0.0, 0.0, 0.0, 0.0, 0.0, 0.0, 0.0, 1.6664044924180968E9, 0.0, 2022-10-21 19:08:12.418
142.0, -130156.46548944301, -157220.3153038401, -33513.15510429801, -140323.44702761734, 68051.24945059413, -105902.78874668942, 56085.399518656675, -110946.61634524065, 0.014, 0.9560000000000001, -0.032, 192.0, 0.0, 0.0, 0.0, 0.0, 0.0, 0.0, 0.0, 0.0, 0.0, 1.6664044924181125E9, 0.0, 2022-10-21 19:08:12.418
143.0, -130160.39939646714, -157224.6068387755, -33517.15606655551, -140334.51114112273, 68048.65664823732, -105907.41555779167, 56086.1371262237, -110941.96718239394, 0.014, 0.9560000000000001, -0.032, 192.0, 0.0, 0.0, 0.0, 0.0, 0.0, 0.0, 0.0, 0.0, 0.0, 1.6664044924181275E9, 0.0, 2022-10-21 19:08:12.418
144.0, -130160.95819007853, -157223.355141086, -33518.94420611193, -140343.74241158276, 68047.7625784591, -105923.77703473295, 56073.19546618408, -110937.49683350288, 0.016, 0.9540000000000001, -0.032, 192.0, 0.0, 128.0, 29.0, 208.0, 255.0, 0.0, 0.0, 0.0, 0.0, 1.6664044924181428E9, 0.0, 2022-10-21 19:08:12.418
145.0, -130156.24197199846, -157218.32599858358, -33517.62545318907, -140341.17196097042, 68049.95304941572, -105941.83724425283, 56064.72415503552, -110931.03717935529, 0.016, 0.9540000000000001, -0.032, 192.0, 0.0, 0.0, 0.0, 0.0, 0.0, 0.0, 0.0, 0.0, 0.0, 1.6664044924181588E9, 0.0, 2022-10-21 19:08:12.418
146.0, -130160.91348658962, -157220.7176352403, -33519.100668323124, -140331.9853939993, 68051.29415408304, -105925.18519463364, 56078.71634706454, -110936.55806023575, 0.016, 0.9540000000000001, -0.032, 192.0, 0.0, 0.0, 0.0, 0.0, 0.0, 0.0, 0.0, 0.0, 0.0, 1.6664044924181745E9, 0.0, 2022-10-21 19:08:12.418
147.0, -130166.43436747008, -157222.43871956333, -33525.09093583714, -140340.14378072546, 68043.38163654586, -105912.48940378302, 56086.47240239053, -110945.36464755115, 0.016, 0.9540000000000001, -0.032, 192.0, 0.0, 0.0, 0.0, 0.0, 0.0, 0.0, 0.0, 0.0, 0.0, 1.6664044924181893E9, 0.0, 2022-10-21 19:08:12.418
148.0, -130160.89113484517, -157216.53785902713, -33516.75373515532, -140345.84347556156, 68046.55558425852, -105926.9509824456, 56077.95638775306, -110938.65912421455, 0.016, 0.9540000000000001, -0.032, 192.0, 0.0, 0.0, 0.0, 0.0, 0.0, 0.0, 0.0, 0.0, 0.0, 1.6664044924182596E9, 0.0, 2022-10-21 19:08:12.418
149.0, -130155.95139932053, -157208.5582862566, -33509.02003157378, -140343.85417030504, 68051.62943024987, -105947.31342164439, 56065.618224813734, -110935.8875079021, 0.016, 0.9540000000000001, -0.032, 192.0, 0.0, 0.0, 0.0, 0.0, 0.0, 0.0, 0.0, 0.0, 0.0, 1.6664044924182756E9, 0.0, 2022-10-21 19:08:12.418
150.0, -130161.22641101199, -157214.8167747041, -33515.814961888194, -140335.11463822302, 68050.42243604928, -105935.37759010526, 56075.92237900763, -110944.38117079511, 0.016, 0.9540000000000001, -0.032, 192.0, 0.0, 0.0, 0.0, 0.0, 0.0, 0.0, 0.0, 0.0, 0.0, 1.6664044924182916E9, 0.0, 2022-10-21 19:08:12.418
151.0, -130174.30218151835, -157228.02665567718, -33529.33776728365, -140347.63161511798, 68035.04443586402, -105919.88783119773, 56086.42769890162, -110950.70671447596, 0.016, 0.9540000000000001, -0.032, 192.0, 0.0, 0.0, 0.0, 0.0, 0.0, 0.0, 0.0, 0.0, 0.0, 1.666404492418307E9, 0.0, 2022-10-21 19:08:12.418
152.0, -130173.36340825123, -157223.69041725283, -33525.98500561536, -140354.49360066577, 68033.79273817452, -105946.70992454409, 56071.09440220528, -110948.56094700826, 0.016, 0.9540000000000001, -0.032, 192.0, 0.0, 0.0, 0.0, 0.0, 0.0, 0.0, 0.0, 0.0, 0.0, 1.6664044924183223E9, 0.0, 2022-10-21 19:08:12.418
153.0, -130167.41784422612, -157217.0072456607, -33517.80426714471, -140343.58594937157, 68044.05218887952, -105954.64479382573, 56066.51229459194, -110942.45892077195, 0.016, 0.9540000000000001, -0.032, 192.0, 0.0, 0.0, 0.0, 0.0, 0.0, 0.0, 0.0, 0.0, 0.0, 1.6664044924183383E9, 0.0, 2022-10-21 19:08:12.418
154.0, -130170.61414368323, -157219.17536487288, -33522.00639510231, -140346.20110347285, 68040.90059291132, -105955.91884325969, 56066.3334806363, -110946.61634524065, 0.018000000000000002, 0.9580000000000001, -0.04, 192.0, 0.0, 144.0, 29.0, 240.0, 254.0, 192.0, 0.0, 0.0, 0.0, 1.6664044924183536E9, 0.0, 2022-10-21 19:08:12.418
155.0, -130170.41297798313, -157217.610742761, -33522.67694743597, -140343.20596971584, 68040.63237197786, -105936.69634302812, 56081.44325988809, -110946.99632489638, 0.018000000000000002, 0.9580000000000001, -0.04, 192.0, 0.0, 0.0, 0.0, 0.0, 0.0, 0.0, 0.0, 0.0, 0.0, 1.66640449241837E9, 0.0, 2022-10-21 19:08:12.418
156.0, -130172.33522800628, -157220.11413814, -33523.41455500299, -140359.14276351247, 68034.95502888621, -105935.06466568288, 56077.4870011195, -110953.72419997743, 0.018000000000000002, 0.9580000000000001, -0.04, 192.0, 0.0, 0.0, 0.0, 0.0, 0.0, 0.0, 0.0, 0.0, 0.0, 1.6664044924183857E9, 0.0, 2022-10-21 19:08:12.418
157.0, -130171.66467567263, -157216.7166729828, -33521.961691613404, -140359.0757082791, 68036.13967134235, -105958.1093142163, 56060.14204742218, -110954.12653137762, 0.018000000000000002, 0.9580000000000001, -0.04, 192.0, 0.0, 0.0, 0.0, 0.0, 0.0, 0.0, 0.0, 0.0, 0.0, 1.666404492418402E9, 0.0, 2022-10-21 19:08:12.418
158.0, -130167.21667852602, -157211.62047524698, -33517.78191540026, -140349.26329246323, 68040.98999988913, -105955.94119500414, 56065.2829486469, -110949.81264469775, 0.018000000000000002, 0.9580000000000001, -0.04, 192.0, 0.0, 0.0, 0.0, 0.0, 0.0, 0.0, 0.0, 0.0, 0.0, 1.6664044924184177E9, 0.0, 2022-10-21 19:08:12.418
159.0, -130174.3692367517, -157221.3658358295, -33522.945168369435, -140349.24094071877, 68038.53130799906, -105938.41742735117, 56077.86698077524, -110952.29368833228, 0.018000000000000002, 0.9580000000000001, -0.04, 192.0, 0.0, 0.0, 0.0, 0.0, 0.0, 0.0, 0.0, 0.0, 0.0, 1.666404492418433E9, 0.0, 2022-10-21 19:08:12.418
160.0, -130169.31774250482, -157219.42123406188, -33520.352366012616, -140356.25938847775, 68039.85006092192, -105947.98397397804, 56073.933073751105, -110955.17706336702, 0.018000000000000002, 0.9580000000000001, -0.04, 192.0, 0.0, 0.0, 0.0, 0.0, 0.0, 0.0, 0.0, 0.0, 0.0, 1.6664044924184484E9, 0.0, 2022-10-21 19:08:12.418
161.0, -130170.61414368323, -157221.47759455178, -33520.553531712714, -140356.7287751113, 68045.66151448029, -105949.258023412, 56072.01082372795, -110947.59982199667, 0.018000000000000002, 0.9580000000000001, -0.04, 192.0, 0.0, 0.0, 0.0, 0.0, 0.0, 0.0, 0.0, 0.0, 0.0, 1.6664044924184656E9, 0.0, 2022-10-21 19:08:12.418
162.0, -130171.35175125024, -157225.4562050648, -33521.961691613404, -140354.04656577666, 68046.95791565871, -105945.86055825479, 56073.12841095071, -110940.38020853761, 0.018000000000000002, 0.9580000000000001, -0.04, 192.0, 0.0, 0.0, 0.0, 0.0, 0.0, 0.0, 0.0, 0.0, 0.0, 1.6664044924184806E9, 0.0, 2022-10-21 19:08:12.418
163.0, -130166.3226087478, -157224.53978354213, -33519.14537181203, -140342.28954819316, 68048.4107790483, -105936.22695639456, 56082.38203315521, -110943.2412318279, 0.018000000000000002, 0.9580000000000001, -0.04, 192.0, 0.0, 0.0, 0.0, 0.0, 0.0, 0.0, 0.0, 0.0, 0.0, 1.6664044924185383E9, 0.0, 2022-10-21 19:08:12.418
164.0, -130151.79397485185, -157210.92757116887, -33508.125961795566, -140325.43633287388, 68058.1114361419, -105930.1025784138, 56091.412137915155, -110941.25192657136, 0.018000000000000002, 0.9520000000000001, -0.038, 192.0, 0.0, 144.0, 29.0, 192.0, 254.0, 208.0, 0.0, 0.0, 0.0, 1.666404492418564E9, 0.0, 2022-10-21 19:08:12.418
165.0, -130160.73467263397, -157224.04804516412, -33525.49326723734, -140357.24286523377, 68041.25822082261, -105949.43683736764, 56070.021518471425, -110969.6386420296, 0.018000000000000002, 0.9520000000000001, -0.038, 192.0, 0.0, 0.0, 0.0, 0.0, 0.0, 0.0, 0.0, 0.0, 0.0, 1.66640449241861E9, 0.0, 2022-10-21 19:08:12.418
166.0, -130162.32164649031, -157227.57962078808, -33530.25418880632, -140365.73652812678, 68035.26795330858, -105962.266738685, 56057.996279954474, -110973.1478659091, 0.018000000000000002, 0.9520000000000001, -0.038, 192.0, 0.0, 0.0, 0.0, 0.0, 0.0, 0.0, 0.0, 0.0, 0.0, 1.6664044924186528E9, 0.0, 2022-10-21 19:08:12.418
167.0, -130164.75798663593, -157229.39011208893, -33534.07633710818, -140360.03683329068, 68030.01529336159, -105957.3046514159, 56063.36069862374, -110972.70083101999, 0.018000000000000002, 0.9520000000000001, -0.038, 192.0, 0.0, 0.0, 0.0, 0.0, 0.0, 0.0, 0.0, 0.0, 0.0, 1.6664044924186957E9, 0.0, 2022-10-21 19:08:12.418
168.0, -130166.21085002553, -157233.14520515743, -33536.87030516509, -140366.40708046046, 68028.65183694981, -105957.34935490481, 56069.395669626676, -110973.28197637582, 0.018000000000000002, 0.9520000000000001, -0.038, 192.0, 0.0, 0.0, 0.0, 0.0, 0.0, 0.0, 0.0, 0.0, 0.0, 1.666404492418738E9, 0.0, 2022-10-21 19:08:12.418
169.0, -130154.36442546421, -157219.62239976198, -33524.93447362596, -140359.8803710795, 68042.59932548992, -105969.15107597722, 56064.12065793522, -110967.31406060625, 0.018000000000000002, 0.9520000000000001, -0.038, 192.0, 0.0, 0.0, 0.0, 0.0, 0.0, 0.0, 0.0, 0.0, 0.0, 1.66640449241878E9, 0.0, 2022-10-21 19:08:12.418
170.0, -130155.99610280945, -157219.6000480175, -33524.621549203584, -140355.63353963298, 68045.95208715822, -105979.14230574874, 56055.02349794192, -110964.63185127162, 0.018000000000000002, 0.9520000000000001, -0.038, 192.0, 0.0, 0.0, 0.0, 0.0, 0.0, 0.0, 0.0, 0.0, 0.0, 1.666404492418822E9, 0.0, 2022-10-21 19:08:12.418
171.0, -130154.74440511996, -157219.2647718507, -33523.235741047356, -140343.63065286048, 68049.72953197117, -105953.1025234583, 56076.302358663364, -110959.22272911343, 0.018000000000000002, 0.9520000000000001, -0.038, 192.0, 0.0, 0.0, 0.0, 0.0, 0.0, 0.0, 0.0, 0.0, 0.0, 1.6664044924188435E9, 0.0, 2022-10-21 19:08:12.418
172.0, -130149.49174517296, -157213.78859445913, -33519.502999723314, -140345.128219739, 68047.24848833663, -105958.42223863867, 56077.017614485936, -110956.11583663414, 0.018000000000000002, 0.9520000000000001, -0.038, 192.0, 0.0, 0.0, 0.0, 0.0, 0.0, 0.0, 0.0, 0.0, 0.0, 1.6664044924188616E9, 0.0, 2022-10-21 19:08:12.418
173.0, -130153.80563185283, -157215.6661409934, -33524.487438736855, -140352.86192332054, 68046.68969472524, -105964.25604394151, 56068.92628299312, -110955.04295290029, 0.016, 0.9520000000000001, -0.038, 192.0, 0.0, 128.0, 29.0, 192.0, 254.0, 208.0, 0.0, 0.0, 0.0, 1.6664044924188788E9, 0.0, 2022-10-21 19:08:12.418
174.0, -130158.76771912191, -157221.6564085074, -33532.9140463965, -140358.96394955684, 68039.3583225439, -105974.35903243531, 56057.97392821001, -110962.57549078173, 0.016, 0.9520000000000001, -0.038, 192.0, 0.0, 0.0, 0.0, 0.0, 0.0, 0.0, 0.0, 0.0, 0.0, 1.666404492418898E9, 0.0, 2022-10-21 19:08:12.418
175.0, -130162.29929474584, -157225.612667276, -33532.2658458073, -140349.95619654134, 68041.88406966736, -105961.19385495114, 56069.596835326774, -110959.75917098037, 0.016, 0.9520000000000001, -0.038, 192.0, 0.0, 0.0, 0.0, 0.0, 0.0, 0.0, 0.0, 0.0, 0.0, 1.666404492418915E9, 0.0, 2022-10-21 19:08:12.418
176.0, -130157.65013189915, -157219.4659375508, -33524.24156954784, -140341.7307545818, 68049.01427614859, -105946.73227628855, 56086.07007099034, -110948.80681619726, 0.016, 0.9520000000000001, -0.038, 192.0, 0.0, 0.0, 0.0, 0.0, 0.0, 0.0, 0.0, 0.0, 0.0, 1.6664044924189322E9, 0.0, 2022-10-21 19:08:12.418
177.0, -130148.30710271682, -157208.67004497888, -33510.070563563175, -140325.23516717379, 68068.48264556917, -105942.28427914194, 56092.8426495603, -110936.0886736022, 0.016, 0.9520000000000001, -0.038, 192.0, 0.0, 0.0, 0.0, 0.0, 0.0, 0.0, 0.0, 0.0, 0.0, 1.6664044924189491E9, 0.0, 2022-10-21 19:08:12.418
178.0, -130160.64526565616, -157219.868268951, -33522.22991254686, -140339.31676618062, 68059.13961638685, -105953.4601513696, 56076.90585576366, -110946.72810396292, 0.016, 0.9520000000000001, -0.038, 192.0, 0.0, 0.0, 0.0, 0.0, 0.0, 0.0, 0.0, 0.0, 0.0, 1.6664044924189887E9, 0.0, 2022-10-21 19:08:12.418
179.0, -130171.93289660609, -157232.49700456823, -33535.84212492015, -140359.61215014604, 68038.19603183222, -105960.79152355094, 56069.14980043767, -110966.8446739727, 0.016, 0.9520000000000001, -0.038, 192.0, 0.0, 0.0, 0.0, 0.0, 0.0, 0.0, 0.0, 0.0, 0.0, 1.6664044924190056E9, 0.0, 2022-10-21 19:08:12.419
180.0, -130176.64911468615, -157236.49796682573, -33528.331938783165, -140346.20110347285, 68047.33789531444, -105941.88194774174, 56091.50154489298, -110958.50747329087, 0.016, 0.9520000000000001, -0.038, 192.0, 0.0, 0.0, 0.0, 0.0, 0.0, 0.0, 0.0, 0.0, 0.0, 1.666404492419022E9, 0.0, 2022-10-21 19:08:12.419
181.0, -130171.26234427243, -157228.7195597553, -33522.25226429132, -140347.0281180177, 68052.25527909462, -105948.72158154508, 56087.16530646865, -110952.22663309892, 0.016, 0.9520000000000001, -0.038, 192.0, 0.0, 0.0, 0.0, 0.0, 0.0, 0.0, 0.0, 0.0, 0.0, 1.6664044924190402E9, 0.0, 2022-10-21 19:08:12.419
182.0, -130165.76381513642, -157223.39984457492, -33523.861589892105, -140348.86096106304, 68053.6634389953, -105975.85659931382, 56065.14883818017, -110952.83013019922, 0.016, 0.9520000000000001, -0.038, 192.0, 0.0, 0.0, 0.0, 0.0, 0.0, 0.0, 0.0, 0.0, 0.0, 1.6664044924190593E9, 0.0, 2022-10-21 19:08:12.419
183.0, -130173.5198704624, -157229.8594987225, -33528.37664227207, -140345.15057148345, 68049.21544184869, -105978.49410515954, 56061.93018697861, -110953.43362729951, 0.018000000000000002, 0.9520000000000001, -0.034, 192.0, 0.0, 144.0, 29.0, 192.0, 254.0, 240.0, 0.0, 0.0, 0.0, 1.6664044924190764E9, 0.0, 2022-10-21 19:08:12.419
184.0, -130183.19817581156, -157237.2132226483, -33532.936398140955, -140343.11656273803, 68043.89572666833, -105959.27160492797, 56075.743565051984, -110959.35683958017, 0.018000000000000002, 0.9520000000000001, -0.034, 192.0, 0.0, 0.0, 0.0, 0.0, 0.0, 0.0, 0.0, 0.0, 0.0, 1.6664044924190946E9, 0.0, 2022-10-21 19:08:12.419
185.0, -130195.35752479524, -157248.34439138704, -33542.97233140139, -140357.84636233406, 68033.09983409641, -105957.99755549402, 56074.17894294011, -110971.58324379721, 0.018000000000000002, 0.9520000000000001, -0.034, 192.0, 0.0, 0.0, 0.0, 0.0, 0.0, 0.0, 0.0, 0.0, 0.0, 1.6664044924191115E9, 0.0, 2022-10-21 19:08:12.419
186.0, -130183.93578337859, -157233.92751621336, -33524.196866058934, -140350.73850759727, 68051.92000292779, -105976.59420688084, 56069.730945793504, -110951.0866941317, 0.018000000000000002, 0.9520000000000001, -0.034, 192.0, 0.0, 0.0, 0.0, 0.0, 0.0, 0.0, 0.0, 0.0, 0.0, 1.6664044924191284E9, 0.0, 2022-10-21 19:08:12.419
187.0, -130185.65686770165, -157235.15686215842, -33518.050136333724, -140334.5781963561, 68065.10753215641, -105970.15690447771, 56071.11675394973, -110947.6892289745, 0.018000000000000002, 0.9520000000000001, -0.034, 192.0, 0.0, 0.0, 0.0, 0.0, 0.0, 0.0, 0.0, 0.0, 0.0, 1.6664044924191456E9, 0.0, 2022-10-21 19:08:12.419
188.0, -130193.09999860526, -157237.6155540485, -33521.3134910242, -140328.632632331, 68062.20180537723, -105950.48736935704, 56086.00301575697, -110949.94675516448, 0.018000000000000002, 0.9520000000000001, -0.034, 192.0, 0.0, 0.0, 0.0, 0.0, 0.0, 0.0, 0.0, 0.0, 0.0, 1.6664044924191625E9, 0.0, 2022-10-21 19:08:12.419
189.0, -130197.19036784058, -157232.09467316803, -33523.14633406953, -140338.19917895785, 68058.62552626438, -105945.34646813232, 56091.50154489298, -110951.33256332071, 0.018000000000000002, 0.9520000000000001, -0.034, 192.0, 0.0, 0.0, 0.0, 0.0, 0.0, 0.0, 0.0, 0.0, 0.0, 1.6664044924191792E9, 0.0, 2022-10-21 19:08:12.419
190.0, -130192.94353639407, -157225.8138329761, -33510.227025774366, -140327.09036196355, 68072.72947701567, -105961.32796541786, 56083.3878616557, -110936.82628116921, 0.018000000000000002, 0.9520000000000001, -0.034, 192.0, 0.0, 0.0, 0.0, 0.0, 0.0, 0.0, 0.0, 0.0, 0.0, 1.6664044924191976E9, 0.0, 2022-10-21 19:08:12.419
191.0, -130207.3827633122, -157240.34246687204, -33517.983081100356, -140333.2817951777, 68068.63910778036, -105968.32406143237, 56072.614320828245, -110942.2354033274, 0.018000000000000002, 0.9520000000000001, -0.034, 192.0, 0.0, 0.0, 0.0, 0.0, 0.0, 0.0, 0.0, 0.0, 0.0, 1.6664044924192147E9, 0.0, 2022-10-21 19:08:12.419
192.0, -130222.71606000855, -157257.10627521353, -33529.13660158355, -140344.05533600514, 68055.1610058738, -105958.1093142163, 56079.610416842756, -110945.05172312877, 0.018000000000000002, 0.9520000000000001, -0.034, 192.0, 0.0, 0.0, 0.0, 0.0, 0.0, 0.0, 0.0, 0.0, 0.0, 1.6664044924192307E9, 0.0, 2022-10-21 19:08:12.419
193.0, -130226.60526354377, -157263.78944680566, -33528.13077308307, -140341.70840283734, 68054.53515702905, -105952.94606124713, 56085.71244307905, -110941.184871338, 0.016, 0.9500000000000001, -0.034, 192.0, 0.0, 128.0, 29.0, 176.0, 254.0, 240.0, 0.0, 0.0, 0.0, 1.6664044924192612E9, 0.0, 2022-10-21 19:08:12.419
194.0, -130243.10085095179, -157273.55715913262, -33536.0656423647, -140350.626748875, 68049.57306975998, -105966.13359047576, 56071.988471983495, -110959.24508085789, 0.016, 0.9500000000000001, -0.034, 192.0, 0.0, 0.0, 0.0, 0.0, 0.0, 0.0, 0.0, 0.0, 0.0, 1.6664044924192781E9, 0.0, 2022-10-21 19:08:12.419
195.0, -130251.52745861144, -157274.98767077777, -33539.03842437726, -140351.09613550856, 68049.70718022672, -105980.4163551827, 56060.25380614446, -110961.1896826255, 0.016, 0.9500000000000001, -0.034, 192.0, 0.0, 0.0, 0.0, 0.0, 0.0, 0.0, 0.0, 0.0, 0.0, 1.6664044924192936E9, 0.0, 2022-10-21 19:08:12.419
196.0, -130248.8452492768, -157279.10039175756, -33531.43883126245, -140336.14281846795, 68058.1114361419, -105958.86927352779, 56080.12450696522, -110958.39571456859, 0.016, 0.9500000000000001, -0.034, 192.0, 0.0, 0.0, 0.0, 0.0, 0.0, 0.0, 0.0, 0.0, 0.0, 1.6664044924193091E9, 0.0, 2022-10-21 19:08:12.419
197.0, -130251.23688593351, -157288.68929012888, -33529.091898094644, -140339.58498711407, 68055.42922680727, -105955.91884325969, 56086.07007099034, -110959.80387446927, 0.016, 0.9500000000000001, -0.034, 192.0, 0.0, 0.0, 0.0, 0.0, 0.0, 0.0, 0.0, 0.0, 0.0, 1.6664044924193249E9, 0.0, 2022-10-21 19:08:12.419
198.0, -130264.53617388442, -157297.76409837772, -33527.72844168287, -140341.64134760396, 68058.87139545339, -105967.05001199842, 56079.14103020919, -110955.13235987812, 0.016, 0.9500000000000001, -0.034, 192.0, 0.0, 0.0, 0.0, 0.0, 0.0, 0.0, 0.0, 0.0, 0.0, 1.6664044924193404E9, 0.0, 2022-10-21 19:08:12.419
199.0, -130254.83551679082, -157291.79618260817, -33526.18617131546, -140349.03977501867, 68053.79754946203, -105981.9139220612, 56063.11482943474, -110958.06043840176, 0.016, 0.9500000000000001, -0.034, 192.0, 0.0, 0.0, 0.0, 0.0, 0.0, 0.0, 0.0, 0.0, 0.0, 1.666404492419356E9, 0.0, 2022-10-21 19:08:12.419
200.0, -130248.57702834334, -157291.66207214142, -33524.286273036756, -140335.04758298965, 68060.6595350098, -105964.79248580844, 56075.22947492951, -110953.43362729951, 0.016, 0.9500000000000001, -0.034, 192.0, 0.0, 0.0, 0.0, 0.0, 0.0, 0.0, 0.0, 0.0, 0.0, 1.6664044924193716E9, 0.0, 2022-10-21 19:08:12.419
201.0, -130251.97449350054, -157295.39481346548, -33523.16868581399, -140331.40424864343, 68060.12309314289, -105947.64869781122, 56087.32176867983, -110950.05851388676, 0.016, 0.9500000000000001, -0.034, 192.0, 0.0, 0.0, 0.0, 0.0, 0.0, 0.0, 0.0, 0.0, 0.0, 1.6664044924193873E9, 0.0, 2022-10-21 19:08:12.419
202.0, -130252.48858362301, -157293.94195007588, -33522.56518871369, -140337.79684755765, 68061.48654955465, -105959.49512237254, 56078.828105786815, -110949.63383074211, 0.016, 0.9500000000000001, -0.034, 192.0, 0.0, 0.0, 0.0, 0.0, 0.0, 0.0, 0.0, 0.0, 0.0, 1.6664044924194036E9, 0.0, 2022-10-21 19:08:12.419
203.0, -130248.35351089879, -157289.7174703738, -33518.29600552273, -140328.7667427977, 68072.72947701567, -105968.99461376603, 56068.76982078193, -110945.11877836214, 0.016, 0.964, -0.028, 192.0, 0.0, 128.0, 30.0, 32.0, 255.0, 32.0, 0.0, 0.0, 0.0, 1.6664044924194193E9, 0.0, 2022-10-21 19:08:12.419
204.0, -130261.54104012741, -157303.8884763585, -33531.43883126245, -140344.63648136097, 68057.73145648616, -105965.15011371972, 56063.80773351285, -110950.81847319823, 0.016, 0.964, -0.028, 192.0, 0.0, 0.0, 0.0, 0.0, 0.0, 0.0, 0.0, 0.0, 0.0, 1.6664044924194376E9, 0.0, 2022-10-21 19:08:12.419
205.0, -130264.20089771759, -157307.62121768252, -33536.17740108698, -140348.48098140728, 68052.32233432798, -105941.97135471957, 56079.99039649849, -110959.0886186467, 0.016, 0.964, -0.028, 192.0, 0.0, 0.0, 0.0, 0.0, 0.0, 0.0, 0.0, 0.0, 0.0, 1.6664044924194536E9, 0.0, 2022-10-21 19:08:12.419
206.0, -130256.15426971368, -157303.30733100264, -33533.58459873016, -140355.25355997725, 68051.3612093164, -105953.12487520276, 56078.02344298643, -110961.32379309223, 0.016, 0.964, -0.028, 192.0, 0.0, 0.0, 0.0, 0.0, 0.0, 0.0, 0.0, 0.0, 0.0, 1.666404492419469E9, 0.0, 2022-10-21 19:08:12.419
207.0, -130250.61103708876, -157296.95943557733, -33529.04719460574, -140357.68990012287, 68057.2173663637, -105989.08883203135, 56055.87286423122, -110957.99338316839, 0.016, 0.964, -0.028, 192.0, 0.0, 0.0, 0.0, 0.0, 0.0, 0.0, 0.0, 0.0, 0.0, 1.666404492419485E9, 0.0, 2022-10-21 19:08:12.419
208.0, -130243.32436839634, -157290.0750982851, -33527.8625521496, -140349.62092037452, 68058.558471031, -105994.83323035637, 56051.983660695994, -110954.75238022237, 0.016, 0.964, -0.028, 192.0, 0.0, 0.0, 0.0, 0.0, 0.0, 0.0, 0.0, 0.0, 0.0, 1.6664044924195147E9, 0.0, 2022-10-21 19:08:12.419
209.0, -130248.33115915432, -157293.11493553102, -33534.52337199728, -140344.85999880554, 68056.18918611875, -105970.44747715563, 56069.41802137113, -110958.88745294661, 0.016, 0.964, -0.028, 192.0, 0.0, 0.0, 0.0, 0.0, 0.0, 0.0, 0.0, 0.0, 0.0, 1.666404492419532E9, 0.0, 2022-10-21 19:08:12.419
210.0, -130251.10277546679, -157294.65720589843, -33539.0160726328, -140352.79486808716, 68055.18335761825, -105965.15011371972, 56072.36845163923, -110960.74264773639, 0.016, 0.964, -0.028, 192.0, 0.0, 0.0, 0.0, 0.0, 0.0, 0.0, 0.0, 0.0, 0.0, 1.666404492419548E9, 0.0, 2022-10-21 19:08:12.419
211.0, -130252.95797025657, -157295.61833091002, -33543.39701454604, -140361.9814350583, 68053.6634389953, -105985.84782908534, 56053.54828280787, -110963.91659544905, 0.016, 0.964, -0.028, 192.0, 0.0, 0.0, 0.0, 0.0, 0.0, 0.0, 0.0, 0.0, 0.0, 1.666404492419564E9, 0.0, 2022-10-21 19:08:12.419
212.0, -130249.247580677, -157291.9302930749, -33541.00537788932, -140357.95812105635, 68053.75284597313, -106007.66313167372, 56039.71255299003, -110965.41416232755, 0.014, 0.964, -0.026000000000000002, 192.0, 0.0, 112.0, 30.0, 32.0, 255.0, 48.0, 0.0, 0.0, 0.0, 1.6664044924195802E9, 0.0, 2022-10-21 19:08:12.419
213.0, -130254.38848190171, -157298.90403734494, -33545.654540736025, -140352.86192332054, 68050.19891860473, -105976.32598594738, 56062.31016663434, -110972.81258974226, 0.014, 0.964, -0.026000000000000002, 192.0, 0.0, 0.0, 0.0, 0.0, 0.0, 0.0, 0.0, 0.0, 0.0, 1.6664044924195971E9, 0.0, 2022-10-21 19:08:12.419
214.0, -130246.5877230868, -157290.65624364093, -33538.43492727696, -140357.22051348933, 68052.63525875035, -105973.35320393482, 56071.80965802785, -110964.40833382707, 0.014, 0.964, -0.026000000000000002, 192.0, 0.0, 0.0, 0.0, 0.0, 0.0, 0.0, 0.0, 0.0, 0.0, 1.6664044924196131E9, 0.0, 2022-10-21 19:08:12.419
215.0, -130238.67520554963, -157278.69806035736, -33529.04719460574, -140351.65492911995, 68064.14640714484, -105979.41052668222, 56072.457858617054, -110955.64645000058, 0.014, 0.964, -0.026000000000000002, 192.0, 0.0, 0.0, 0.0, 0.0, 0.0, 0.0, 0.0, 0.0, 0.0, 1.666404492419629E9, 0.0, 2022-10-21 19:08:12.419
216.0, -130240.01631021695, -157278.876874313, -33526.92377888248, -140343.34008018256, 68070.49430257015, -105989.73703262056, 56063.76303002394, -110954.37240056663, 0.014, 0.964, -0.026000000000000002, 192.0, 0.0, 0.0, 0.0, 0.0, 0.0, 0.0, 0.0, 0.0, 0.0, 1.6664044924196453E9, 0.0, 2022-10-21 19:08:12.419
217.0, -130239.34575788329, -157279.70388885785, -33531.260017306806, -140342.40130691545, 68068.32618335797, -105985.37844245178, 56068.14397193718, -110953.85831044416, 0.014, 0.964, -0.026000000000000002, 192.0, 0.0, 0.0, 0.0, 0.0, 0.0, 0.0, 0.0, 0.0, 0.0, 1.6664044924196613E9, 0.0, 2022-10-21 19:08:12.419
218.0, -130246.40890913116, -157283.95072030436, -33544.69341572445, -140353.42071693193, 68055.83155820746, -105981.73510810557, 56068.65806205965, -110962.73195299292, 0.014, 0.964, -0.026000000000000002, 192.0, 0.0, 0.0, 0.0, 0.0, 0.0, 0.0, 0.0, 0.0, 0.0, 1.666404492419677E9, 0.0, 2022-10-21 19:08:12.419
219.0, -130252.08625222281, -157287.14701976147, -33548.537915770765, -140365.80358336016, 68052.99288666164, -105982.3609569503, 56061.25963464494, -110971.24796763039, 0.014, 0.964, -0.026000000000000002, 192.0, 0.0, 0.0, 0.0, 0.0, 0.0, 0.0, 0.0, 0.0, 0.0, 1.6664044924196928E9, 0.0, 2022-10-21 19:08:12.419
220.0, -130248.62173183225, -157283.79425809317, -33544.98398840237, -140364.2836647372, 68057.77615997508, -105985.93723606315, 56059.13621892169, -110966.39763908359, 0.014, 0.964, -0.026000000000000002, 192.0, 0.0, 0.0, 0.0, 0.0, 0.0, 0.0, 0.0, 0.0, 0.0, 1.6664044924197085E9, 0.0, 2022-10-21 19:08:12.419
221.0, -130248.62173183225, -157283.70485111533, -33547.08505238117, -140357.42167918943, 68058.53611928655, -105984.68553837365, 56062.62309105672, -110962.08375240372, 0.014, 0.964, -0.026000000000000002, 192.0, 0.0, 0.0, 0.0, 0.0, 0.0, 0.0, 0.0, 0.0, 0.0, 1.6664044924197247E9, 0.0, 2022-10-21 19:08:12.419
222.0, -130245.11250795276, -157281.78260109219, -33541.966502900905, -140349.28564420767, 68064.28051761157, -105968.43582015466, 56078.42577438662, -110956.45111280098, 0.024, 0.96, -0.02, 192.0, 0.0, 192.0, 30.0, 0.0, 255.0, 96.0, 0.0, 0.0, 0.0, 1.666404492419741E9, 0.0, 2022-10-21 19:08:12.419
223.0, -130243.21260967405, -157278.58630163508, -33541.00537788932, -140353.08544076508, 68066.2698228681, -105976.57185513638, 56075.56475109634, -110955.08765638921, 0.024, 0.96, -0.02, 192.0, 0.0, 0.0, 0.0, 0.0, 0.0, 0.0, 0.0, 0.0, 0.0, 1.666404492419772E9, 0.0, 2022-10-21 19:08:12.419
224.0, -130240.73156603953, -157277.49106615677, -33541.58652324516, -140360.66268213544, 68062.93941294425, -106005.58441943937, 56056.588120053784, -110950.46084528696, 0.024, 0.96, -0.02, 192.0, 0.0, 0.0, 0.0, 0.0, 0.0, 0.0, 0.0, 0.0, 0.0, 1.666404492419788E9, 0.0, 2022-10-21 19:08:12.419
225.0, -130239.01048171645, -157276.84286556757, -33538.85961042161, -140348.77155408522, 68067.5662240465, -106011.35116950884, 56055.91756772013, -110949.70088597547, 0.024, 0.96, -0.02, 192.0, 0.0, 0.0, 0.0, 0.0, 0.0, 0.0, 0.0, 0.0, 0.0, 1.666404492419806E9, 0.0, 2022-10-21 19:08:12.419
226.0, -130246.02892947543, -157283.2801679707, -33543.66523547951, -140345.41879241692, 68066.7168577572, -105988.37357620879, 56072.8378382728, -110956.40640931207, 0.024, 0.96, -0.02, 192.0, 0.0, 0.0, 0.0, 0.0, 0.0, 0.0, 0.0, 0.0, 0.0, 1.6664044924198215E9, 0.0, 2022-10-21 19:08:12.419
227.0, -130246.45361262008, -157285.5153424162, -33545.229857591374, -140353.91245530994, 68066.04630542354, -105986.13840176325, 56074.29070166239, -110958.77569422433, 0.024, 0.96, -0.02, 192.0, 0.0, 0.0, 0.0, 0.0, 0.0, 0.0, 0.0, 0.0, 0.0, 1.6664044924198377E9, 0.0, 2022-10-21 19:08:12.419
228.0, -130237.7364322825, -157275.3676504335, -33538.3678720436, -140345.79877207265, 68077.33393637347, -106000.2200007701, 56067.00403296996, -110949.47736853092, 0.024, 0.96, -0.02, 192.0, 0.0, 0.0, 0.0, 0.0, 0.0, 0.0, 0.0, 0.0, 0.0, 1.6664044924198537E9, 0.0, 2022-10-21 19:08:12.419
229.0, -130233.64606304718, -157270.04793525315, -33535.12686909758, -140329.0796672201, 68082.16191317582, -106000.8234978704, 56070.5356085939, -110939.57554573721, 0.024, 0.96, -0.02, 192.0, 0.0, 0.0, 0.0, 0.0, 0.0, 0.0, 0.0, 0.0, 0.0, 1.6664044924198697E9, 0.0, 2022-10-21 19:08:12.419
230.0, -130248.01823473195, -157282.90018831496, -33545.1180988691, -140338.1321237245, 68069.53317755857, -105995.32496873439, 56075.92237900763, -110944.5376330063, 0.024, 0.96, -0.02, 192.0, 0.0, 0.0, 0.0, 0.0, 0.0, 0.0, 0.0, 0.0, 0.0, 1.6664044924198856E9, 0.0, 2022-10-21 19:08:12.419
231.0, -130261.45163314958, -157293.0702320421, -33560.205526376434, -140357.3769757005, 68056.1668343743, -105984.79729709594, 56076.12354470773, -110960.47442680293, 0.024, 0.96, -0.02, 192.0, 0.0, 0.0, 0.0, 0.0, 0.0, 0.0, 0.0, 0.0, 0.0, 1.6664044924199016E9, 0.0, 2022-10-21 19:08:12.419
232.0, -130252.66739757865, -157285.11301101602, -33555.2210873629, -140360.10388852406, 68059.49724429814, -106010.88178287528, 56057.39278285418, -110955.62409825613, 0.02, 0.9480000000000001, -0.024, 192.0, 0.0, 160.0, 29.0, 160.0, 255.0, 64.0, 0.0, 0.0, 0.0, 1.6664044924199178E9, 0.0, 2022-10-21 19:08:12.419
233.0, -130247.3923858872, -157280.2179789803, -33550.52722102728, -140346.11169649503, 68066.89567171285, -106022.61644871431, 56049.547320550366, -110948.42683654152, 0.02, 0.9480000000000001, -0.024, 192.0, 0.0, 0.0, 0.0, 0.0, 0.0, 0.0, 0.0, 0.0, 0.0, 1.6664044924199345E9, 0.0, 2022-10-21 19:08:12.419
234.0, -130249.58285684382, -157283.45898192632, -33553.1200233841, -140337.5733301131, 68068.05796242451, -105993.82740185589, 56068.18867542609, -110953.12070287713, 0.02, 0.9480000000000001, -0.024, 192.0, 0.0, 0.0, 0.0, 0.0, 0.0, 0.0, 0.0, 0.0, 0.0, 1.6664044924199505E9, 0.0, 2022-10-21 19:08:12.419
235.0, -130246.31950215335, -157280.3297377026, -33548.604971004126, -140339.20500745834, 68070.60606129242, -105986.85365758583, 56074.26834991793, -110954.48415928891, 0.02, 0.9480000000000001, -0.024, 192.0, 0.0, 0.0, 0.0, 0.0, 0.0, 0.0, 0.0, 0.0, 0.0, 1.6664044924199665E9, 0.0, 2022-10-21 19:08:12.419
236.0, -130249.2922841659, -157280.2626824692, -33548.29204658175, -140345.21762671683, 68070.62841303687, -106003.23748627157, 56063.941843979585, -110954.32769707772, 0.02, 0.9480000000000001, -0.024, 192.0, 0.0, 0.0, 0.0, 0.0, 0.0, 0.0, 0.0, 0.0, 0.0, 1.666404492419983E9, 0.0, 2022-10-21 19:08:12.419
237.0, -130251.57216210035, -157286.00708079422, -33551.48834603886, -140345.41879241692, 68067.18624439076, -106007.66313167372, 56060.94671022257, -110956.56287152326, 0.02, 0.9480000000000001, -0.024, 192.0, 0.0, 0.0, 0.0, 0.0, 0.0, 0.0, 0.0, 0.0, 0.0, 1.6664044924199984E9, 0.0, 2022-10-21 19:08:12.419
238.0, -130255.28255167992, -157292.19851400834, -33555.71282574091, -140342.26719644872, 68062.13475014386, -105980.59516913834, 56077.934036008606, -110958.86510120214, 0.02, 0.9480000000000001, -0.024, 192.0, 0.0, 0.0, 0.0, 0.0, 0.0, 0.0, 0.0, 0.0, 0.0, 1.6664044924200656E9, 0.0, 2022-10-21 19:08:12.420
239.0, -130258.52355462595, -157291.0362232967, -33557.970351930904, -140345.50819939474, 68058.35730533091, -105983.05386102843, 56076.4364691301, -110964.43068557153, 0.02, 0.9480000000000001, -0.024, 192.0, 0.0, 0.0, 0.0, 0.0, 0.0, 0.0, 0.0, 0.0, 0.0, 1.6664044924200792E9, 0.0, 2022-10-21 19:08:12.420
2.0, -130333.24543634003, -157364.26053813228, -33628.69127138749, -140372.8890863525, 68049.6624767378, -106172.17197086477, 56038.080875644795, -110974.75719150987, 0.02, 0.9480000000000001, -0.024, 192.0, 0.0, 0.0, 0.0, 0.0, 0.0, 0.0, 0.0, 0.0, 0.0, 1.6664044930200007E9, 0.0, 2022-10-21 19:08:13.020
3.0, -130322.27072981247, -157355.8339304726, -33625.94200681949, -140365.75887987125, 68052.8587761949, -106153.21769156668, 56056.588120053784, -110970.75622925238, 0.02, 0.9480000000000001, -0.024, 192.0, 0.0, 0.0, 0.0, 0.0, 0.0, 0.0, 0.0, 0.0, 0.0, 1.666404493020168E9, 0.0, 2022-10-21 19:08:13.020
4.0, -130312.21244480759, -157348.70372399138, -33631.84286735569, -140379.39344398899, 68042.82284293447, -106146.37805776336, 56065.99820446947, -110978.4005258561, 0.02, 0.9480000000000001, -0.024, 192.0, 0.0, 0.0, 0.0, 0.0, 0.0, 0.0, 0.0, 0.0, 0.0, 1.666404493020206E9, 0.0, 2022-10-21 19:08:13.020
5.0, -130299.60606093479, -157338.377218053, -33631.239370255396, -140392.17864181742, 68039.51478475508, -106167.70162197371, 56054.95644270855, -110982.60265381368, 0.02, 0.9480000000000001, -0.024, 192.0, 0.0, 0.0, 0.0, 0.0, 0.0, 0.0, 0.0, 0.0, 0.0, 1.6664044930202377E9, 0.0, 2022-10-21 19:08:13.020
6.0, -130285.34564797231, -157325.59202022458, -33620.06349802775, -140389.02704584922, 68044.54392725753, -106186.58884603844, 56044.98756468148, -110973.97488045394, 0.02, 0.9480000000000001, -0.024, 192.0, 0.0, 0.0, 0.0, 0.0, 0.0, 0.0, 0.0, 0.0, 0.0, 1.6664044930202596E9, 0.0, 2022-10-21 19:08:13.020
7.0, -130278.32720021335, -157320.76404342224, -33624.667957385536, -140385.24960103628, 68044.58863074644, -106182.47612505867, 56044.07114315881, -110978.13230492262, 0.018000000000000002, 0.9580000000000001, -0.038, 192.0, 0.0, 144.0, 29.0, 240.0, 254.0, 208.0, 0.0, 0.0, 0.0, 1.6664044930202816E9, 0.0, 2022-10-21 19:08:13.020
8.0, -130275.55558390089, -157319.89232538847, -33629.473582443425, -140385.65193243648, 68040.87824116687, -106161.06315387049, 56060.70084103356, -110980.56864506826, 0.018000000000000002, 0.9580000000000001, -0.038, 192.0, 0.0, 0.0, 0.0, 0.0, 0.0, 0.0, 0.0, 0.0, 0.0, 1.6664044930203147E9, 0.0, 2022-10-21 19:08:13.020
9.0, -130267.84423206381, -157314.59496195256, -33628.11012603166, -140394.4361680074, 68039.47008126618, -106175.99411916663, 56054.06237293033, -110974.33250836522, 0.018000000000000002, 0.9580000000000001, -0.038, 192.0, 0.0, 0.0, 0.0, 0.0, 0.0, 0.0, 0.0, 0.0, 0.0, 1.666404493020338E9, 0.0, 2022-10-21 19:08:13.020
10.0, -130260.69167383811, -157308.24706652726, -33626.12082077513, -140395.15142383, 68042.97930514567, -106203.1738404243, 56033.34230582027, -110972.43261008651, 0.018000000000000002, 0.9580000000000001, -0.038, 192.0, 0.0, 0.0, 0.0, 0.0, 0.0, 0.0, 0.0, 0.0, 0.0, 1.6664044930203595E9, 0.0, 2022-10-21 19:08:13.020
11.0, -130258.00946450347, -157306.0789473151, -33628.87008534314, -140386.41189174794, 68041.88406966736, -106192.60146529693, 56040.159587879134, -110972.7455345089, 0.018000000000000002, 0.9580000000000001, -0.038, 192.0, 0.0, 0.0, 0.0, 0.0, 0.0, 0.0, 0.0, 0.0, 0.0, 1.6664044930203817E9, 0.0, 2022-10-21 19:08:13.020
12.0, -130258.32238892585, -157309.0293775832, -33636.60378892467, -140386.76951965922, 68033.14453758532, -106171.6131772534, 56056.252843886956, -110981.90974973557, 0.018000000000000002, 0.9580000000000001, -0.038, 192.0, 0.0, 0.0, 0.0, 0.0, 0.0, 0.0, 0.0, 0.0, 0.0, 1.6664044930204036E9, 0.0, 2022-10-21 19:08:13.020
13.0, -130257.16009821417, -157307.91179036043, -33632.71458538945, -140394.36911277403, 68031.73637768465, -106175.07769764397, 56057.929224721105, -110981.48506659092, 0.018000000000000002, 0.9580000000000001, -0.038, 192.0, 0.0, 0.0, 0.0, 0.0, 0.0, 0.0, 0.0, 0.0, 0.0, 1.666404493020426E9, 0.0, 2022-10-21 19:08:13.020
14.0, -130258.41179590367, -157307.50945896024, -33629.339471976695, -140401.16404308844, 68033.27864805206, -106192.98144495267, 56046.14985539316, -110979.92044447905, 0.018000000000000002, 0.9580000000000001, -0.038, 192.0, 0.0, 0.0, 0.0, 0.0, 0.0, 0.0, 0.0, 0.0, 0.0, 1.666404493020448E9, 0.0, 2022-10-21 19:08:13.020
15.0, -130261.09400523831, -157311.89040087347, -33630.97114932194, -140397.72187444233, 68031.64697070682, -106207.823003271, 56036.4268465551, -110983.98846196992, 0.018000000000000002, 0.9580000000000001, -0.038, 192.0, 0.0, 0.0, 0.0, 0.0, 0.0, 0.0, 0.0, 0.0, 0.0, 1.666404493020555E9, 0.0, 2022-10-21 19:08:13.020
16.0, -130251.25923767796, -157301.7427088908, -33621.65047188407, -140381.91919111242, 68041.16881384478, -106197.60825605491, 56052.6318612852, -110973.05845893126, 0.018000000000000002, 0.9580000000000001, -0.038, 192.0, 0.0, 0.0, 0.0, 0.0, 0.0, 0.0, 0.0, 0.0, 0.0, 1.6664044930205772E9, 0.0, 2022-10-21 19:08:13.020
17.0, -130248.57702834334, -157298.41229896693, -33617.60480613766, -140379.14757479998, 68047.40495054782, -106184.9124652043, 56062.66779454563, -110968.72222050694, 0.022, 0.962, -0.036000000000000004, 192.0, 0.0, 176.0, 30.0, 16.0, 254.0, 224.0, 0.0, 0.0, 0.0, 1.666404493020599E9, 0.0, 2022-10-21 19:08:13.020
18.0, -130258.32238892585, -157308.60469443855, -33625.87495158613, -140401.32050529963, 68041.30292431152, -106211.93572425077, 56036.06921864382, -110984.32373813675, 0.022, 0.962, -0.036000000000000004, 192.0, 0.0, 0.0, 0.0, 0.0, 0.0, 0.0, 0.0, 0.0, 0.0, 1.6664044930206227E9, 0.0, 2022-10-21 19:08:13.020
19.0, -130256.17662145814, -157309.0293775832, -33621.9857480509, -140389.87641213852, 68049.17073835978, -106208.58296258247, 56036.85152969975, -110988.74938353889, 0.022, 0.962, -0.036000000000000004, 192.0, 0.0, 0.0, 0.0, 0.0, 0.0, 0.0, 0.0, 0.0, 0.0, 1.666404493020645E9, 0.0, 2022-10-21 19:08:13.020
20.0, -130259.73054882653, -157316.65132244246, -33625.38321320811, -140384.40023474698, 68043.98513364616, -106196.35655836541, 56046.70864900454, -110990.87279926216, 0.022, 0.962, -0.036000000000000004, 192.0, 0.0, 0.0, 0.0, 0.0, 0.0, 0.0, 0.0, 0.0, 0.0, 1.6664044930206666E9, 0.0, 2022-10-21 19:08:13.020
21.0, -130259.68584533762, -157318.70768293235, -33626.76902136434, -140387.2836097817, 68042.95695340121, -106187.92995070577, 56054.59881479727, -110990.33635739522, 0.022, 0.962, -0.036000000000000004, 192.0, 0.0, 0.0, 0.0, 0.0, 0.0, 0.0, 0.0, 0.0, 0.0, 1.666404493020688E9, 0.0, 2022-10-21 19:08:13.020
22.0, -130248.8452492768, -157309.99050259477, -33618.99061429389, -140385.9872086033, 68050.40008430483, -106200.20105841174, 56047.69212576057, -110980.47923809043, 0.022, 0.962, -0.036000000000000004, 192.0, 0.0, 0.0, 0.0, 0.0, 0.0, 0.0, 0.0, 0.0, 0.0, 1.6664044930207098E9, 0.0, 2022-10-21 19:08:13.020
23.0, -130245.5371910974, -157309.4317089834, -33616.554274148264, -140382.05330157917, 68046.77910170307, -106213.50034636263, 56037.63384075568, -110976.90295897759, 0.022, 0.962, -0.036000000000000004, 192.0, 0.0, 0.0, 0.0, 0.0, 0.0, 0.0, 0.0, 0.0, 0.0, 1.6664044930207312E9, 0.0, 2022-10-21 19:08:13.020
24.0, -130249.20287718809, -157315.19845905286, -33624.22092249643, -140392.35745577305, 68032.38457827385, -106207.6218375709, 56042.059486157836, -110982.08856369121, 0.022, 0.962, -0.036000000000000004, 192.0, 0.0, 0.0, 0.0, 0.0, 0.0, 0.0, 0.0, 0.0, 0.0, 1.666404493020754E9, 0.0, 2022-10-21 19:08:13.020
25.0, -130251.46040337806, -157318.99825561026, -33623.8856463296, -140399.73353144331, 68027.1542700713, -106199.4187473558, 56052.90008221866, -110987.40827887158, 0.022, 0.962, -0.036000000000000004, 192.0, 0.0, 0.0, 0.0, 0.0, 0.0, 0.0, 0.0, 0.0, 0.0, 1.6664044930207753E9, 0.0, 2022-10-21 19:08:13.020
26.0, -130250.45457487757, -157315.51138347524, -33617.671861371025, -140401.9463541444, 68033.0551306075, -106215.84727953044, 56042.35005883576, -110989.50934285038, 0.022, 0.962, -0.036000000000000004, 192.0, 0.0, 0.0, 0.0, 0.0, 0.0, 0.0, 0.0, 0.0, 0.0, 1.6664044930207973E9, 0.0, 2022-10-21 19:08:13.020
27.0, -130248.17469694314, -157315.10905207504, -33620.51053291685, -140401.83459542211, 68031.82578466246, -106227.49253839166, 56031.59886975275, -110993.30913940778, 0.026000000000000002, 0.962, -0.036000000000000004, 192.0, 0.0, 208.0, 30.0, 16.0, 254.0, 224.0, 0.0, 0.0, 0.0, 1.6664044930208187E9, 0.0, 2022-10-21 19:08:13.020
28.0, -130248.2417521765, -157316.07017708663, -33623.192742251485, -140395.82197616363, 68030.17175557277, -106221.70343657774, 56039.131407634195, -110987.74355503841, 0.026000000000000002, 0.962, -0.036000000000000004, 192.0, 0.0, 0.0, 0.0, 0.0, 0.0, 0.0, 0.0, 0.0, 0.0, 1.6664044930208416E9, 0.0, 2022-10-21 19:08:13.020
29.0, -130250.90160976669, -157319.86997364403, -33627.663091142545, -140391.35162727258, 68029.56825847247, -106208.65001781583, 56048.988526938985, -110987.96707248296, 0.026000000000000002, 0.962, -0.036000000000000004, 192.0, 0.0, 0.0, 0.0, 0.0, 0.0, 0.0, 0.0, 0.0, 0.0, 1.6664044930208628E9, 0.0, 2022-10-21 19:08:13.020
30.0, -130249.62756033274, -157321.41224401144, -33630.65822489956, -140404.06976986764, 68027.44484274922, -106223.24570694515, 56037.097398888756, -110986.6483195601, 0.026000000000000002, 0.962, -0.036000000000000004, 192.0, 0.0, 0.0, 0.0, 0.0, 0.0, 0.0, 0.0, 0.0, 0.0, 1.6664044930209117E9, 0.0, 2022-10-21 19:08:13.020
31.0, -130250.9910167445, -157321.09931958906, -33632.60282666717, -140397.0960255976, 68029.76942417257, -106238.7801693416, 56024.915698160614, -110985.44132535951, 0.026000000000000002, 0.962, -0.036000000000000004, 192.0, 0.0, 0.0, 0.0, 0.0, 0.0, 0.0, 0.0, 0.0, 0.0, 1.6664044930209332E9, 0.0, 2022-10-21 19:08:13.020
32.0, -130253.78498480142, -157325.05557835766, -33640.31417850425, -140396.0454936082, 68018.548848456, -106226.53141338009, 56029.65426798514, -111001.2440086894, 0.026000000000000002, 0.962, -0.036000000000000004, 192.0, 0.0, 0.0, 0.0, 0.0, 0.0, 0.0, 0.0, 0.0, 0.0, 1.6664044930209546E9, 0.0, 2022-10-21 19:08:13.020
33.0, -130252.22036268955, -157325.54731673567, -33641.029434326825, -140406.55081350217, 68010.70338615219, -106220.89877377734, 56037.164454122125, -111011.19053497202, 0.026000000000000002, 0.962, -0.036000000000000004, 192.0, 0.0, 0.0, 0.0, 0.0, 0.0, 0.0, 0.0, 0.0, 0.0, 1.6664044930209768E9, 0.0, 2022-10-21 19:08:13.020
34.0, -130250.92396151114, -157320.56287772214, -33637.18493428051, -140414.26216533926, 68014.25731352059, -106225.79380581305, 56037.61148901123, -111002.87568603465, 0.026000000000000002, 0.962, -0.036000000000000004, 192.0, 0.0, 0.0, 0.0, 0.0, 0.0, 0.0, 0.0, 0.0, 0.0, 1.6664044930209982E9, 0.0, 2022-10-21 19:08:13.020
35.0, -130246.45361262008, -157316.24899104226, -33634.74859413488, -140418.57605201914, 68015.553714699, -106258.8743876069, 56013.963343377516, -111000.03701448883, 0.026000000000000002, 0.962, -0.036000000000000004, 192.0, 0.0, 0.0, 0.0, 0.0, 0.0, 0.0, 0.0, 0.0, 0.0, 1.6664044930210197E9, 0.0, 2022-10-21 19:08:13.021
36.0, -130241.13389743972, -157313.1868020519, -33630.814687110746, -140404.87443266803, 68022.39334850233, -106248.61493690193, 56019.01483762442, -110997.51126736538, 0.02, 0.9580000000000001, -0.036000000000000004, 192.0, 0.0, 160.0, 29.0, 240.0, 254.0, 224.0, 0.0, 0.0, 0.0, 1.6664044930210457E9, 0.0, 2022-10-21 19:08:13.021
37.0, -130242.25148466248, -157314.63966544147, -33629.58534116571, -140400.71700819934, 68022.92979036925, -106230.10769249294, 56032.828215697795, -110998.29357842132, 0.02, 0.9580000000000001, -0.036000000000000004, 192.0, 0.0, 0.0, 0.0, 0.0, 0.0, 0.0, 0.0, 0.0, 0.0, 1.6664044930210626E9, 0.0, 2022-10-21 19:08:13.021
38.0, -130239.41281311665, -157309.3870054945, -33628.95949232096, -140402.68396171142, 68023.13095606935, -106213.81327078502, 56043.177073380604, -110995.45490687549, 0.02, 0.9580000000000001, -0.036000000000000004, 192.0, 0.0, 0.0, 0.0, 0.0, 0.0, 0.0, 0.0, 0.0, 0.0, 1.666404493021077E9, 0.0, 2022-10-21 19:08:13.021
39.0, -130233.57900781382, -157301.07215655711, -33622.52218991783, -140410.35061005957, 68026.059034593, -106228.16309072533, 56033.36465756472, -110992.72799405194, 0.02, 0.9580000000000001, -0.036000000000000004, 192.0, 0.0, 0.0, 0.0, 0.0, 0.0, 0.0, 0.0, 0.0, 0.0, 1.666404493021092E9, 0.0, 2022-10-21 19:08:13.021
40.0, -130235.50125783698, -157302.94970309135, -33623.70683237396, -140417.72668572984, 68019.12999381185, -106251.54301542557, 56018.567802735306, -110997.42186038755, 0.02, 0.9580000000000001, -0.036000000000000004, 192.0, 0.0, 0.0, 0.0, 0.0, 0.0, 0.0, 0.0, 0.0, 0.0, 1.666404493021106E9, 0.0, 2022-10-21 19:08:13.021
41.0, -130236.99882471548, -157304.40256648095, -33625.159695763556, -140405.88026116852, 68019.84524963443, -106236.96967804071, 56031.95649766404, -110995.72312780895, 0.02, 0.9580000000000001, -0.036000000000000004, 192.0, 0.0, 0.0, 0.0, 0.0, 0.0, 0.0, 0.0, 0.0, 0.0, 1.66640449302112E9, 0.0, 2022-10-21 19:08:13.021
42.0, -130237.15528692667, -157301.80976412413, -33627.84190509819, -140404.85208092356, 68023.24271479163, -106220.69760807724, 56040.874843701706, -110996.95247375399, 0.02, 0.9580000000000001, -0.036000000000000004, 192.0, 0.0, 0.0, 0.0, 0.0, 0.0, 0.0, 0.0, 0.0, 0.0, 1.6664044930211344E9, 0.0, 2022-10-21 19:08:13.021
43.0, -130249.06876672135, -157312.91858111843, -33637.69902440298, -140422.68877299892, 68013.58676118693, -106224.9667912682, 56027.933183662084, -111007.27897969235, 0.02, 0.9580000000000001, -0.036000000000000004, 192.0, 0.0, 0.0, 0.0, 0.0, 0.0, 0.0, 0.0, 0.0, 0.0, 1.6664044930211504E9, 0.0, 2022-10-21 19:08:13.021
44.0, -130245.80541203088, -157311.21984853983, -33636.11205054665, -140422.35349683207, 68007.61884541737, -106243.92107056631, 56013.42690151059, -111005.98257851394, 0.02, 0.9580000000000001, -0.036000000000000004, 192.0, 0.0, 0.0, 0.0, 0.0, 0.0, 0.0, 0.0, 0.0, 0.0, 1.6664044930211656E9, 0.0, 2022-10-21 19:08:13.021
45.0, -130234.3389671253, -157301.31802574612, -33628.22188475393, -140394.86085115204, 68018.79471764503, -106229.30302969254, 56034.996334909956, -110993.91263650807, 0.02, 0.9580000000000001, -0.036000000000000004, 192.0, 0.0, 0.0, 0.0, 0.0, 0.0, 0.0, 0.0, 0.0, 0.0, 1.666404493021194E9, 0.0, 2022-10-21 19:08:13.021
46.0, -130238.00465321598, -157302.05563331314, -33627.461925442454, -140399.62177272103, 68018.1018135669, -106219.89294527686, 56045.50165480396, -110995.45490687549, 0.012, 0.96, -0.044, 192.0, 0.0, 96.0, 30.0, 0.0, 254.0, 160.0, 0.0, 0.0, 0.0, 1.666404493021209E9, 0.0, 2022-10-21 19:08:13.021
47.0, -130242.07267070684, -157305.140174048, -33627.238407997895, -140416.94437467388, 68018.01240658909, -106228.87834654789, 56037.52208203341, -110998.85237203269, 0.012, 0.96, -0.044, 192.0, 0.0, 0.0, 0.0, 0.0, 0.0, 0.0, 0.0, 0.0, 0.0, 1.666404493021226E9, 0.0, 2022-10-21 19:08:13.021
48.0, -130239.61397881675, -157300.8262873681, -33624.26562598534, -140412.58578450512, 68020.806374646, -106240.90358506485, 56029.36369530722, -110991.78922078482, 0.012, 0.96, -0.044, 192.0, 0.0, 0.0, 0.0, 0.0, 0.0, 0.0, 0.0, 0.0, 0.0, 1.6664044930212405E9, 0.0, 2022-10-21 19:08:13.021
49.0, -130239.56927532784, -157300.71452864583, -33626.32198647523, -140401.7451884443, 68021.0075403461, -106234.68980010627, 56037.6785442446, -110991.07396496224, 0.012, 0.96, -0.044, 192.0, 0.0, 0.0, 0.0, 0.0, 0.0, 0.0, 0.0, 0.0, 0.0, 1.6664044930212548E9, 0.0, 2022-10-21 19:08:13.021
50.0, -130236.73060378202, -157299.641644912, -33623.4386114405, -140398.57124073163, 68025.96962761518, -106223.75979706763, 56051.491922317975, -110991.27513066234, 0.012, 0.96, -0.044, 192.0, 0.0, 0.0, 0.0, 0.0, 0.0, 0.0, 0.0, 0.0, 0.0, 1.6664044930212696E9, 0.0, 2022-10-21 19:08:13.021
51.0, -130237.24469390449, -157298.76992687822, -33621.583416650705, -140404.80737743466, 68029.8588311504, -106228.43131165879, 56051.76014325144, -110983.0496887028, 0.012, 0.96, -0.044, 192.0, 0.0, 0.0, 0.0, 0.0, 0.0, 0.0, 0.0, 0.0, 0.0, 1.6664044930212874E9, 0.0, 2022-10-21 19:08:13.021
52.0, -130233.42254560263, -157294.4336884539, -33618.27535847132, -140403.15334834496, 68031.78108117355, -106245.50804442263, 56038.974945423004, -110976.90295897759, 0.012, 0.96, -0.044, 192.0, 0.0, 0.0, 0.0, 0.0, 0.0, 0.0, 0.0, 0.0, 0.0, 1.6664044930213017E9, 0.0, 2022-10-21 19:08:13.021
53.0, -130238.94342648309, -157303.62025542502, -33626.94783531998, -140404.58385999012, 68022.16983105778, -106243.07170427701, 56036.270384343916, -110987.60944457167, 0.012, 0.96, -0.044, 192.0, 0.0, 0.0, 0.0, 0.0, 0.0, 0.0, 0.0, 0.0, 0.0, 1.6664044930213163E9, 0.0, 2022-10-21 19:08:13.021
54.0, -130243.81610677435, -157307.64356942696, -33631.52994293332, -140405.56733674614, 68018.32533101145, -106227.6713523473, 56049.547320550366, -110989.84461901721, 0.012, 0.96, -0.044, 192.0, 0.0, 0.0, 0.0, 0.0, 0.0, 0.0, 0.0, 0.0, 0.0, 1.6664044930213315E9, 0.0, 2022-10-21 19:08:13.021
55.0, -130241.5362288399, -157304.15669729194, -33630.881742344114, -140419.49247354182, 68014.19025828723, -106244.6810298778, 56039.08670414528, -110994.33731965272, 0.012, 0.96, -0.044, 192.0, 0.0, 0.0, 0.0, 0.0, 0.0, 0.0, 0.0, 0.0, 0.0, 1.666404493021346E9, 0.0, 2022-10-21 19:08:13.021
56.0, -130235.34479562579, -157299.41812746742, -33615.771963092324, -140409.90357517047, 68028.8530026499, -106251.63242240339, 56036.404494810646, -110985.62013931516, 0.014, 0.9560000000000001, -0.044, 192.0, 0.0, 112.0, 29.0, 224.0, 254.0, 160.0, 0.0, 0.0, 0.0, 1.6664044930213606E9, 0.0, 2022-10-21 19:08:13.021
57.0, -130236.48473459302, -157299.1722582784, -33611.94981479047, -140395.50905174125, 68032.54104048504, -106237.14849199636, 56048.92147170562, -110980.7474590239, 0.014, 0.9560000000000001, -0.044, 192.0, 0.0, 0.0, 0.0, 0.0, 0.0, 0.0, 0.0, 0.0, 0.0, 1.666404493021376E9, 0.0, 2022-10-21 19:08:13.021
58.0, -130237.22234216004, -157300.26749375672, -33617.76126834885, -140391.57514471712, 68024.58381945895, -106218.10480572043, 56064.567692824334, -110978.51228457836, 0.014, 0.9560000000000001, -0.044, 192.0, 0.0, 0.0, 0.0, 0.0, 0.0, 0.0, 0.0, 0.0, 0.0, 1.6664044930213912E9, 0.0, 2022-10-21 19:08:13.021
59.0, -130232.64023454669, -157294.1207640315, -33618.61063463815, -140395.21847906333, 68026.43901424874, -106232.63343961639, 56056.118733420226, -110985.15075268158, 0.014, 0.9560000000000001, -0.044, 192.0, 0.0, 0.0, 0.0, 0.0, 0.0, 0.0, 0.0, 0.0, 0.0, 1.6664044930214057E9, 0.0, 2022-10-21 19:08:13.021
60.0, -130231.99203395749, -157293.3384529756, -33618.70004161597, -140402.28163031122, 68030.88701139535, -106251.23009100319, 56041.2771751019, -110990.73868879542, 0.014, 0.9560000000000001, -0.044, 192.0, 0.0, 0.0, 0.0, 0.0, 0.0, 0.0, 0.0, 0.0, 0.0, 1.666404493021433E9, 0.0, 2022-10-21 19:08:13.021
61.0, -130242.18442942911, -157306.34716824855, -33629.831210354714, -140408.45071178087, 68024.62852294785, -106240.70241936475, 56042.819445469315, -110996.50543886489, 0.014, 0.9560000000000001, -0.044, 192.0, 0.0, 0.0, 0.0, 0.0, 0.0, 0.0, 0.0, 0.0, 0.0, 1.6664044930214484E9, 0.0, 2022-10-21 19:08:13.021
62.0, -130241.96091198456, -157309.09643281656, -33630.881742344114, -140403.06394136715, 68021.67809267975, -106231.15822448234, 56049.815541483826, -110994.67259581955, 0.014, 0.9560000000000001, -0.044, 192.0, 0.0, 0.0, 0.0, 0.0, 0.0, 0.0, 0.0, 0.0, 0.0, 1.666404493021464E9, 0.0, 2022-10-21 19:08:13.021
63.0, -130247.50414460948, -157315.91371487544, -33636.2908645023, -140412.00463914927, 68018.68295892274, -106224.56445986802, 56053.81650374133, -111000.46169763348, 0.014, 0.9560000000000001, -0.044, 192.0, 0.0, 0.0, 0.0, 0.0, 0.0, 0.0, 0.0, 0.0, 0.0, 1.6664044930214777E9, 0.0, 2022-10-21 19:08:13.021
64.0, -130240.35158638378, -157310.2363717838, -33628.914788832044, -140415.96089791786, 68023.1533078138, -106244.23399498868, 56043.62410826971, -110991.65511031808, 0.014, 0.9560000000000001, -0.044, 192.0, 0.0, 0.0, 0.0, 0.0, 0.0, 0.0, 0.0, 0.0, 0.0, 1.6664044930214925E9, 0.0, 2022-10-21 19:08:13.021
65.0, -130238.29522589389, -157309.5881711946, -33629.205361509965, -140413.5916130056, 68020.87342987936, -106258.0250213176, 56032.67175348661, -110997.44421213202, 0.014, 0.9560000000000001, -0.044, 192.0, 0.0, 0.0, 0.0, 0.0, 0.0, 0.0, 0.0, 0.0, 0.0, 1.6664044930215073E9, 0.0, 2022-10-21 19:08:13.021
66.0, -130240.28453115042, -157313.94676136336, -33632.58047492272, -140404.2932873122, 68019.01823508958, -106242.579965899, 56042.618279769216, -111006.02728200285, 0.016, 0.9560000000000001, -0.038, 192.0, 0.0, 128.0, 29.0, 224.0, 254.0, 208.0, 0.0, 0.0, 0.0, 1.6664044930215213E9, 0.0, 2022-10-21 19:08:13.021
67.0, -130243.5925893298, -157315.7349009198, -33636.670844158034, -140402.8404239226, 68021.34281651293, -106238.1766722413, 56044.89815770366, -111005.75906106939, 0.016, 0.9560000000000001, -0.038, 192.0, 0.0, 0.0, 0.0, 0.0, 0.0, 0.0, 0.0, 0.0, 0.0, 1.6664044930215373E9, 0.0, 2022-10-21 19:08:13.021
68.0, -130240.59745557279, -157311.55512470665, -33631.574646422225, -140397.1407290865, 68031.17758407326, -106241.26121297613, 56043.06531465833, -110995.27609291984, 0.016, 0.9560000000000001, -0.038, 192.0, 0.0, 0.0, 0.0, 0.0, 0.0, 0.0, 0.0, 0.0, 0.0, 1.666404493021552E9, 0.0, 2022-10-21 19:08:13.021
69.0, -130235.41185085916, -157307.0847758156, -33623.684480629505, -140380.3322172561, 68041.8617179229, -106247.58675665698, 56039.15375937865, -110989.91167425057, 0.016, 0.9560000000000001, -0.038, 192.0, 0.0, 0.0, 0.0, 0.0, 0.0, 0.0, 0.0, 0.0, 0.0, 1.6664044930215669E9, 0.0, 2022-10-21 19:08:13.021
70.0, -130251.7956795449, -157321.54635447817, -33639.80008838178, -140393.67620869592, 68025.0085026036, -106237.081436763, 56039.9807739235, -111007.0554622478, 0.016, 0.9560000000000001, -0.038, 192.0, 0.0, 0.0, 0.0, 0.0, 0.0, 0.0, 0.0, 0.0, 0.0, 1.666404493021581E9, 0.0, 2022-10-21 19:08:13.021
71.0, -130248.77819404344, -157318.30535153215, -33633.02750981182, -140405.00854313475, 68024.6508746923, -106236.09796000695, 56047.647422271664, -110999.25470343289, 0.016, 0.9560000000000001, -0.038, 192.0, 0.0, 0.0, 0.0, 0.0, 0.0, 0.0, 0.0, 0.0, 0.0, 1.6664044930215957E9, 0.0, 2022-10-21 19:08:13.021
72.0, -130240.93273173962, -157310.50459271725, -33627.238407997895, -140415.87149094004, 68026.14844157081, -106245.39628570036, 56046.462779815534, -110991.27513066234, 0.016, 0.9560000000000001, -0.038, 192.0, 0.0, 0.0, 0.0, 0.0, 0.0, 0.0, 0.0, 0.0, 0.0, 1.666404493021612E9, 0.0, 2022-10-21 19:08:13.021
73.0, -130231.79086825739, -157300.04397631218, -33624.75736436336, -140414.30686882816, 68026.059034593, -106274.09592558097, 56030.07895112979, -110992.03508997383, 0.016, 0.9560000000000001, -0.038, 192.0, 0.0, 0.0, 0.0, 0.0, 0.0, 0.0, 0.0, 0.0, 0.0, 1.666404493021627E9, 0.0, 2022-10-21 19:08:13.021
74.0, -130237.02117645994, -157306.2354095263, -33629.004195809866, -140405.2991158127, 68023.19801130271, -106276.24169304868, 56032.38118080869, -110997.55597085429, 0.016, 0.9560000000000001, -0.038, 192.0, 0.0, 0.0, 0.0, 0.0, 0.0, 0.0, 0.0, 0.0, 0.0, 1.6664044930216413E9, 0.0, 2022-10-21 19:08:13.021
75.0, -130236.39532761519, -157304.4249182254, -33624.82441959673, -140399.2864965542, 68027.5118979826, -106250.96187006973, 56051.916605462626, -110987.52003759386, 0.016, 0.96, -0.04, 192.0, 0.0, 128.0, 30.0, 0.0, 254.0, 192.0, 0.0, 0.0, 0.0, 1.66640449302167E9, 0.0, 2022-10-21 19:08:13.021
76.0, -130235.61301655925, -157300.66982515692, -33624.444439940984, -140407.60134549157, 68027.28838053804, -106248.72669562421, 56050.75431475095, -110988.74938353889, 0.016, 0.96, -0.04, 192.0, 0.0, 0.0, 0.0, 0.0, 0.0, 0.0, 0.0, 0.0, 0.0, 1.666404493021686E9, 0.0, 2022-10-21 19:08:13.021
77.0, -130232.68493803561, -157295.01483380972, -33620.77875385031, -140403.645086723, 68031.91519164029, -106245.57509965601, 56049.18969263908, -110984.05551720328, 0.016, 0.96, -0.04, 192.0, 0.0, 0.0, 0.0, 0.0, 0.0, 0.0, 0.0, 0.0, 0.0, 1.6664044930217001E9, 0.0, 2022-10-21 19:08:13.021
78.0, -130232.48377233552, -157294.56779892062, -33620.17525675002, -140390.5469644722, 68034.44093876373, -106233.79573032806, 56058.622128799216, -110979.58516831222, 0.016, 0.96, -0.04, 192.0, 0.0, 0.0, 0.0, 0.0, 0.0, 0.0, 0.0, 0.0, 0.0, 1.6664044930217166E9, 0.0, 2022-10-21 19:08:13.021
79.0, -130230.58387405681, -157293.96430182032, -33621.1363817616, -140384.31082776914, 68034.64210446383, -106232.45462566074, 56063.04777420137, -110975.56185431026, 0.016, 0.96, -0.04, 192.0, 0.0, 0.0, 0.0, 0.0, 0.0, 0.0, 0.0, 0.0, 0.0, 1.6664044930217311E9, 0.0, 2022-10-21 19:08:13.021
80.0, -130234.16015316967, -157297.94291233338, -33623.528018418314, -140394.45851975185, 68031.19993581771, -106237.9308030523, 56056.56576830933, -110990.53752309532, 0.016, 0.96, -0.04, 192.0, 0.0, 0.0, 0.0, 0.0, 0.0, 0.0, 0.0, 0.0, 0.0, 1.6664044930217457E9, 0.0, 2022-10-21 19:08:13.021
81.0, -130246.0959847088, -157305.69896765935, -33638.302521503276, -140423.47108405485, 68010.99395883012, -106255.38751547188, 56034.66105874313, -111008.46362214848, 0.016, 0.96, -0.04, 192.0, 0.0, 0.0, 0.0, 0.0, 0.0, 0.0, 0.0, 0.0, 0.0, 1.6664044930217595E9, 0.0, 2022-10-21 19:08:13.021
82.0, -130245.9395224976, -157305.09547055906, -33637.40845172506, -140416.56439501815, 68013.92203735377, -106263.74706789816, 56030.92831741909, -111003.47918313494, 0.016, 0.96, -0.04, 192.0, 0.0, 0.0, 0.0, 0.0, 0.0, 0.0, 0.0, 0.0, 0.0, 1.666404493021774E9, 0.0, 2022-10-21 19:08:13.021
83.0, -130246.00657773098, -157305.45309847035, -33636.693195902495, -140402.2369268223, 68020.11347056789, -106243.49638742166, 56047.1780356381, -111000.86402903368, 0.016, 0.96, -0.04, 192.0, 0.0, 0.0, 0.0, 0.0, 0.0, 0.0, 0.0, 0.0, 0.0, 1.6664044930217886E9, 0.0, 2022-10-21 19:08:13.021
84.0, -130244.4419556191, -157303.7767176362, -33636.961416835955, -140407.26606932475, 68017.83359263344, -106261.62365217491, 56034.88457618768, -110998.2488749324, 0.016, 0.96, -0.04, 192.0, 0.0, 0.0, 0.0, 0.0, 0.0, 0.0, 0.0, 0.0, 0.0, 1.6664044930218115E9, 0.0, 2022-10-21 19:08:13.021
85.0, -130250.85690627777, -157309.49876421675, -33640.96237909346, -140413.07752288313, 68018.72766241165, -106270.76551565714, 56022.635820226176, -110994.78435454183, 0.014, 0.96, -0.04, 192.0, 0.0, 112.0, 30.0, 0.0, 254.0, 192.0, 0.0, 0.0, 0.0, 1.6664044930218308E9, 0.0, 2022-10-21 19:08:13.021
86.0, -130245.7383567975, -157303.66495891393, -33635.17327727953, -140402.88512741151, 68021.78985140203, -106253.68878289328, 56034.012858153925, -110990.15754343958, 0.014, 0.96, -0.04, 192.0, 0.0, 0.0, 0.0, 0.0, 0.0, 0.0, 0.0, 0.0, 0.0, 1.6664044930218456E9, 0.0, 2022-10-21 19:08:13.021
87.0, -130261.22811570503, -157320.04878759966, -33652.272361787844, -140406.48375826882, 68006.99299657262, -106240.79182634257, 56038.75142797845, -110999.27705517734, 0.014, 0.96, -0.04, 192.0, 0.0, 0.0, 0.0, 0.0, 0.0, 0.0, 0.0, 0.0, 0.0, 1.6664044930218596E9, 0.0, 2022-10-21 19:08:13.021
88.0, -130257.11539472526, -157316.5842672091, -33648.5396204638, -140411.62465949354, 68012.04449081952, -106249.71017238023, 56037.18680586658, -110985.75424978188, 0.014, 0.96, -0.04, 192.0, 0.0, 0.0, 0.0, 0.0, 0.0, 0.0, 0.0, 0.0, 0.0, 1.666404493021874E9, 0.0, 2022-10-21 19:08:13.021
89.0, -130245.31367365285, -157304.5366769477, -33639.46481221495, -140408.92009841444, 68023.08625258044, -106259.50023645165, 56033.677581987096, -110984.32373813675, 0.014, 0.96, -0.04, 192.0, 0.0, 0.0, 0.0, 0.0, 0.0, 0.0, 0.0, 0.0, 0.0, 1.6664044930218885E9, 0.0, 2022-10-21 19:08:13.021
90.0, -130240.53040033943, -157300.8262873681, -33639.42010872604, -140400.60524947706, 68023.93561886974, -106262.71888765323, 56028.782549951386, -110991.63275857363, 0.014, 0.96, -0.04, 192.0, 0.0, 0.0, 0.0, 0.0, 0.0, 0.0, 0.0, 0.0, 0.0, 1.6664044930219164E9, 0.0, 2022-10-21 19:08:13.021
91.0, -130237.78113577142, -157297.629987911, -33636.670844158034, -140389.898763883, 68025.76846191508, -106245.01630604462, 56044.89815770366, -110989.41993587256, 0.014, 0.96, -0.04, 192.0, 0.0, 0.0, 0.0, 0.0, 0.0, 0.0, 0.0, 0.0, 0.0, 1.6664044930219307E9, 0.0, 2022-10-21 19:08:13.021
92.0, -130241.75974628446, -157300.71452864583, -33635.17327727953, -140401.67813321092, 68020.96283685719, -106238.6237071304, 56053.05654442985, -110994.67259581955, 0.014, 0.96, -0.04, 192.0, 0.0, 0.0, 0.0, 0.0, 0.0, 0.0, 0.0, 0.0, 0.0, 1.6664044930219445E9, 0.0, 2022-10-21 19:08:13.021
93.0, -130237.75878402697, -157294.79131636518, -33629.831210354714, -140408.3389530586, 68021.07459557946, -106263.70236440926, 56038.59496576726, -110992.32566265174, 0.014, 0.96, -0.04, 192.0, 0.0, 0.0, 0.0, 0.0, 0.0, 0.0, 0.0, 0.0, 0.0, 1.6664044930219588E9, 0.0, 2022-10-21 19:08:13.021
94.0, -130235.1883334146, -157292.623197153, -33626.88078008661, -140394.41381626294, 68030.14940382831, -106262.74123939768, 56038.729076234, -110985.37427012615, 0.014, 0.96, -0.04, 192.0, 0.0, 0.0, 0.0, 0.0, 0.0, 0.0, 0.0, 0.0, 0.0, 1.6664044930219765E9, 0.0, 2022-10-21 19:08:13.021
95.0, -130249.47109812155, -157305.96718859283, -33640.33653024871, -140396.51488024174, 68018.77236590057, -106250.47013169172, 56045.903986204146, -110995.4996103644, 0.018000000000000002, 0.9560000000000001, -0.042, 192.0, 0.0, 144.0, 29.0, 224.0, 254.0, 176.0, 0.0, 0.0, 0.0, 1.6664044930219905E9, 0.0, 2022-10-21 19:08:13.021
96.0, -130258.3000371814, -157313.16445030743, -33648.919600119545, -140414.70920022836, 68003.93080758225, -106253.73348638219, 56041.83596871328, -111013.202191973, 0.018000000000000002, 0.9560000000000001, -0.042, 192.0, 0.0, 0.0, 0.0, 0.0, 0.0, 0.0, 0.0, 0.0, 0.0, 1.6664044930220056E9, 0.0, 2022-10-21 19:08:13.022
97.0, -130252.37682490074, -157308.3364735051, -33645.56683845125, -140422.46525555436, 68006.54596168351, -106253.9793555712, 56039.48903554548, -111010.78820357182, 0.018000000000000002, 0.9560000000000001, -0.042, 192.0, 0.0, 0.0, 0.0, 0.0, 0.0, 0.0, 0.0, 0.0, 0.0, 1.6664044930220196E9, 0.0, 2022-10-21 19:08:13.022
98.0, -130244.82193527484, -157301.9885780798, -33639.64362617059, -140422.35349683207, 68008.40115647331, -106273.17950405831, 56025.94387840556, -111000.81932554475, 0.018000000000000002, 0.9560000000000001, -0.042, 192.0, 0.0, 0.0, 0.0, 0.0, 0.0, 0.0, 0.0, 0.0, 0.0, 1.666404493022035E9, 0.0, 2022-10-21 19:08:13.022
99.0, -130244.15138294119, -157304.00023508075, -33639.57657093723, -140410.73058971533, 68008.17763902876, -106271.6819371798, 56031.3753523082, -110994.22556093044, 0.018000000000000002, 0.9560000000000001, -0.042, 192.0, 0.0, 0.0, 0.0, 0.0, 0.0, 0.0, 0.0, 0.0, 0.0, 1.6664044930220504E9, 0.0, 2022-10-21 19:08:13.022
100.0, -130250.36516789976, -157311.39866249546, -33646.88559137411, -140412.00463914927, 68002.34383372591, -106250.71600088073, 56043.84762571426, -111009.49180239342, 0.018000000000000002, 0.9560000000000001, -0.042, 192.0, 0.0, 0.0, 0.0, 0.0, 0.0, 0.0, 0.0, 0.0, 0.0, 1.6664044930220647E9, 0.0, 2022-10-21 19:08:13.022
101.0, -130243.65964456316, -157307.17418279342, -33641.61057968266, -140419.06779039715, 68004.1543250268, -106262.04833531956, 56039.19846286756, -111006.8542965477, 0.018000000000000002, 0.9560000000000001, -0.042, 192.0, 0.0, 0.0, 0.0, 0.0, 0.0, 0.0, 0.0, 0.0, 0.0, 1.666404493022079E9, 0.0, 2022-10-21 19:08:13.022
102.0, -130246.9453509981, -157309.94579910586, -33645.41037624006, -140415.71502872885, 68010.01048207408, -106274.96764361473, 56031.218890097014, -111001.73574706743, 0.018000000000000002, 0.9560000000000001, -0.042, 192.0, 0.0, 0.0, 0.0, 0.0, 0.0, 0.0, 0.0, 0.0, 0.0, 1.6664044930220933E9, 0.0, 2022-10-21 19:08:13.022
103.0, -130245.20191493059, -157306.66009267094, -33644.33749250621, -140405.7908541907, 68015.7548803991, -106272.7324691692, 56035.353962821246, -110992.45977311848, 0.018000000000000002, 0.9560000000000001, -0.042, 192.0, 0.0, 0.0, 0.0, 0.0, 0.0, 0.0, 0.0, 0.0, 0.0, 1.6664044930221076E9, 0.0, 2022-10-21 19:08:13.022
104.0, -130255.26019993547, -157316.33839802007, -33650.79714665379, -140411.4458455379, 68006.14363028332, -106260.03667831859, 56044.69699200356, -111000.03701448883, 0.02, 0.9560000000000001, -0.038, 192.0, 0.0, 160.0, 29.0, 224.0, 254.0, 208.0, 0.0, 0.0, 0.0, 1.666404493022122E9, 0.0, 2022-10-21 19:08:13.022
105.0, -130250.9910167445, -157312.11391831803, -33645.209210539964, -140414.57508976164, 68007.95412158419, -106273.29126278059, 56036.6280122552, -111005.66965409156, 0.02, 0.9560000000000001, -0.038, 192.0, 0.0, 0.0, 0.0, 0.0, 0.0, 0.0, 0.0, 0.0, 0.0, 1.666404493022154E9, 0.0, 2022-10-21 19:08:13.022
106.0, -130260.37874941573, -157320.60758121105, -33654.35107402218, -140428.16495039046, 68002.38853721482, -106298.54873401509, 56014.030398610885, -111014.23037221795, 0.02, 0.9560000000000001, -0.038, 192.0, 0.0, 0.0, 0.0, 0.0, 0.0, 0.0, 0.0, 0.0, 0.0, 1.6664044930221708E9, 0.0, 2022-10-21 19:08:13.022
107.0, -130257.11539472526, -157315.75725266425, -33648.226696041434, -140411.17762460443, 68009.16111578478, -106284.9365216418, 56021.69704695905, -110999.92525576655, 0.02, 0.9560000000000001, -0.038, 192.0, 0.0, 0.0, 0.0, 0.0, 0.0, 0.0, 0.0, 0.0, 0.0, 1.6664044930221863E9, 0.0, 2022-10-21 19:08:13.022
108.0, -130250.23105743302, -157311.130441562, -33639.30835000376, -140392.1339383285, 68019.5993804454, -106258.76262888464, 56043.62410826971, -110990.64928181759, 0.02, 0.9560000000000001, -0.038, 192.0, 0.0, 0.0, 0.0, 0.0, 0.0, 0.0, 0.0, 0.0, 0.0, 1.6664044930222018E9, 0.0, 2022-10-21 19:08:13.022
109.0, -130258.52355462595, -157321.45694750035, -33645.09745181769, -140403.80154893416, 68015.46430772118, -106246.62563164541, 56049.122637405715, -110996.41603188707, 0.02, 0.9560000000000001, -0.038, 192.0, 0.0, 0.0, 0.0, 0.0, 0.0, 0.0, 0.0, 0.0, 0.0, 1.6664044930222175E9, 0.0, 2022-10-21 19:08:13.022
110.0, -130257.18244995862, -157319.53469747718, -33645.27626577333, -140410.90940367096, 68015.39725248782, -106262.65183241986, 56034.90692793214, -110994.18085744153, 0.02, 0.9560000000000001, -0.038, 192.0, 0.0, 0.0, 0.0, 0.0, 0.0, 0.0, 0.0, 0.0, 0.0, 1.6664044930222335E9, 0.0, 2022-10-21 19:08:13.022
111.0, -130254.65670283517, -157316.69602593136, -33639.53186744831, -140404.91913615694, 68022.3039415245, -106273.76064941415, 56030.34717206326, -110990.44811611749, 0.02, 0.9560000000000001, -0.038, 192.0, 0.0, 0.0, 0.0, 0.0, 0.0, 0.0, 0.0, 0.0, 0.0, 1.666404493022249E9, 0.0, 2022-10-21 19:08:13.022
112.0, -130258.61296160377, -157317.83596489858, -33641.52117270484, -140395.30788604115, 68020.56050545699, -106252.32532648151, 56044.85345421475, -110995.0972789642, 0.02, 0.9560000000000001, -0.038, 192.0, 0.0, 0.0, 0.0, 0.0, 0.0, 0.0, 0.0, 0.0, 0.0, 1.6664044930222647E9, 0.0, 2022-10-21 19:08:13.022
113.0, -130258.25533369248, -157316.09252883107, -33645.87976287362, -140402.68396171142, 68013.72087165367, -106249.44195144677, 56046.97686993801, -110994.38202314163, 0.02, 0.9560000000000001, -0.038, 192.0, 0.0, 0.0, 0.0, 0.0, 0.0, 0.0, 0.0, 0.0, 0.0, 1.6664044930222816E9, 0.0, 2022-10-21 19:08:13.022
114.0, -130257.78594705892, -157313.96911310783, -33649.076062330736, -140424.36515383306, 68004.02021456006, -106268.9326726118, 56029.58721275177, -111005.26732269136, 0.014, 0.9580000000000001, -0.036000000000000004, 192.0, 0.0, 112.0, 29.0, 240.0, 254.0, 224.0, 0.0, 0.0, 0.0, 1.666404493022298E9, 0.0, 2022-10-21 19:08:13.022
115.0, -130253.15913595667, -157311.91275261794, -33646.43855648501, -140418.77721771924, 68003.59553141541, -106271.838399391, 56027.12852086169, -111004.03797674633, 0.014, 0.9580000000000001, -0.036000000000000004, 192.0, 0.0, 0.0, 0.0, 0.0, 0.0, 0.0, 0.0, 0.0, 0.0, 1.666404493022319E9, 0.0, 2022-10-21 19:08:13.022
116.0, -130250.00753998847, -157310.75046190625, -33646.17033555154, -140409.7918164482, 68005.36131922738, -106266.65279467736, 56036.80682621084, -110999.56762785527, 0.014, 0.9580000000000001, -0.036000000000000004, 192.0, 0.0, 0.0, 0.0, 0.0, 0.0, 0.0, 0.0, 0.0, 0.0, 1.666404493022335E9, 0.0, 2022-10-21 19:08:13.022
117.0, -130250.63338883322, -157313.05269158515, -33644.56100995076, -140413.25633683876, 68007.26121750608, -106268.21741678924, 56041.210119868534, -110993.3985463856, 0.014, 0.9580000000000001, -0.036000000000000004, 192.0, 0.0, 0.0, 0.0, 0.0, 0.0, 0.0, 0.0, 0.0, 0.0, 1.6664044930223515E9, 0.0, 2022-10-21 19:08:13.022
118.0, -130249.0911184658, -157311.10808981754, -33645.9915215959, -140416.47498804034, 68010.72573789666, -106273.5371319696, 56034.28107908739, -110987.11770619366, 0.014, 0.9580000000000001, -0.036000000000000004, 192.0, 0.0, 0.0, 0.0, 0.0, 0.0, 0.0, 0.0, 0.0, 0.0, 1.6664044930223677E9, 0.0, 2022-10-21 19:08:13.022
119.0, -130246.81124053136, -157306.0789473151, -33640.0906610597, -140409.47889202583, 68017.43126123324, -106265.89283536588, 56039.62314601221, -110982.35678462467, 0.014, 0.9580000000000001, -0.036000000000000004, 192.0, 0.0, 0.0, 0.0, 0.0, 0.0, 0.0, 0.0, 0.0, 0.0, 1.6664044930223837E9, 0.0, 2022-10-21 19:08:13.022
120.0, -130241.13389743972, -157299.1722582784, -33627.596035909184, -140384.80256614718, 68027.78011891605, -106254.96283232723, 56057.41513459863, -110980.47923809043, 0.014, 0.9580000000000001, -0.036000000000000004, 192.0, 0.0, 0.0, 0.0, 0.0, 0.0, 0.0, 0.0, 0.0, 0.0, 1.6664044930224977E9, 0.0, 2022-10-21 19:08:13.022
121.0, -130255.5507726134, -157311.4880694733, -33641.23060002692, -140408.18249084742, 68010.32340649646, -106253.91230033783, 56053.2800618744, -111003.25566569039, 0.014, 0.9580000000000001, -0.036000000000000004, 192.0, 0.0, 0.0, 0.0, 0.0, 0.0, 0.0, 0.0, 0.0, 0.0, 1.6664044930225143E9, 0.0, 2022-10-21 19:08:13.022
122.0, -130257.495374381, -157314.97494160832, -33642.214076782955, -140420.49830204228, 68008.51291519558, -106263.61295743144, 56041.56774777982, -111001.53458136733, 0.014, 0.9580000000000001, -0.036000000000000004, 192.0, 0.0, 0.0, 0.0, 0.0, 0.0, 0.0, 0.0, 0.0, 0.0, 1.6664044935004427E9, 0.0, 2022-10-21 19:08:13.500
123.0, -130253.6508743347, -157311.9798078513, -33642.214076782955, -140414.30686882816, 68009.94342684072, -106276.2863965376, 56031.442407541566, -110995.45490687549, 0.014, 0.9580000000000001, -0.036000000000000004, 192.0, 0.0, 0.0, 0.0, 0.0, 0.0, 0.0, 0.0, 0.0, 0.0, 1.6664044935005574E9, 0.0, 2022-10-21 19:08:13.500
124.0, -130245.82776377533, -157300.87099085702, -33631.19466676649, -140394.3914645185, 68016.93952285523, -106266.02694583261, 56042.23830011348, -110989.24112191692, 0.02, 0.96, -0.038, 192.0, 0.0, 160.0, 30.0, 0.0, 254.0, 208.0, 0.0, 0.0, 0.0, 1.6664044935006416E9, 0.0, 2022-10-21 19:08:13.500
125.0, -130261.42928140513, -157316.15958406444, -33643.823402383736, -140408.60717399206, 68003.48377269313, -106263.32238475351, 56041.210119868534, -111002.27218893435, 0.02, 0.96, -0.038, 192.0, 0.0, 0.0, 0.0, 0.0, 0.0, 0.0, 0.0, 0.0, 0.0, 1.6664044935006661E9, 0.0, 2022-10-21 19:08:13.500
126.0, -130262.47981339453, -157317.18776430938, -33647.75730940787, -140419.22425260834, 68001.2038947587, -106268.21741678924, 56034.88457618768, -111000.97578775595, 0.02, 0.96, -0.038, 192.0, 0.0, 0.0, 0.0, 0.0, 0.0, 0.0, 0.0, 0.0, 0.0, 1.6664044935006876E9, 0.0, 2022-10-21 19:08:13.500
127.0, -130254.03085399042, -157311.19749679536, -33642.25878027186, -140413.94924091687, 68012.64798791982, -106273.40302150286, 56030.54833776336, -110988.90584575008, 0.02, 0.96, -0.038, 192.0, 0.0, 0.0, 0.0, 0.0, 0.0, 0.0, 0.0, 0.0, 0.0, 1.6664044935007088E9, 0.0, 2022-10-21 19:08:13.500
128.0, -130255.26019993547, -157312.06921482913, -33643.15285005008, -140404.06976986764, 68013.96674084268, -106270.02790809011, 56033.76698896492, -110992.90680800758, 0.02, 0.96, -0.038, 192.0, 0.0, 0.0, 0.0, 0.0, 0.0, 0.0, 0.0, 0.0, 0.0, 1.6664044935007293E9, 0.0, 2022-10-21 19:08:13.500
129.0, -130255.90840052467, -157313.07504332962, -33643.44342272799, -140395.12907208552, 68013.07267106447, -106244.90454732235, 56052.274233373915, -110992.92915975204, 0.02, 0.96, -0.038, 192.0, 0.0, 0.0, 0.0, 0.0, 0.0, 0.0, 0.0, 0.0, 0.0, 1.6664044935007515E9, 0.0, 2022-10-21 19:08:13.500
130.0, -130264.06678725086, -157320.20524981085, -33651.37829200963, -140417.74903747428, 68001.78504011453, -106242.33409670998, 56050.10611416175, -110993.01856672986, 0.02, 0.96, -0.038, 192.0, 0.0, 0.0, 0.0, 0.0, 0.0, 0.0, 0.0, 0.0, 0.0, 1.6664044935007725E9, 0.0, 2022-10-21 19:08:13.500
131.0, -130259.52938312643, -157315.69019743087, -33646.8408878852, -140417.92785142994, 68006.52360993906, -106257.60033817295, 56039.131407634195, -110989.15171493909, 0.02, 0.96, -0.038, 192.0, 0.0, 0.0, 0.0, 0.0, 0.0, 0.0, 0.0, 0.0, 0.0, 1.6664044935007937E9, 0.0, 2022-10-21 19:08:13.500
132.0, -130256.4448423916, -157308.69410141636, -33640.0906610597, -140408.11543561405, 68011.48569720813, -106265.5799109435, 56036.80682621084, -110989.44228761701, 0.02, 0.96, -0.038, 192.0, 0.0, 0.0, 0.0, 0.0, 0.0, 0.0, 0.0, 0.0, 0.0, 1.666404493500815E9, 0.0, 2022-10-21 19:08:13.500
133.0, -130259.75290057098, -157309.8340403836, -33647.39968149659, -140402.90747915595, 68006.21068551668, -106261.55659694155, 56041.74656173546, -110996.28192142033, 0.02, 0.96, -0.038, 192.0, 0.0, 0.0, 0.0, 0.0, 0.0, 0.0, 0.0, 0.0, 0.0, 1.6664044935008368E9, 0.0, 2022-10-21 19:08:13.500
134.0, -130261.67515059414, -157312.15862180694, -33650.30540827577, -140407.0425518802, 68005.31661573847, -106253.01823055962, 56046.35102109326, -110996.50543886489, 0.024, 0.964, -0.036000000000000004, 192.0, 0.0, 192.0, 30.0, 32.0, 254.0, 224.0, 0.0, 0.0, 0.0, 1.666404493500858E9, 0.0, 2022-10-21 19:08:13.500
135.0, -130265.87727855174, -157315.42197649743, -33647.62319894114, -140414.70920022836, 68006.27774075005, -106270.07261157902, 56032.8729191867, -110996.57249409825, 0.024, 0.964, -0.036000000000000004, 192.0, 0.0, 0.0, 0.0, 0.0, 0.0, 0.0, 0.0, 0.0, 0.0, 1.6664044935009592E9, 0.0, 2022-10-21 19:08:13.500
136.0, -130253.87439177925, -157299.99927282325, -33633.89922784558, -140388.71412142683, 68027.89187763834, -106259.4331812183, 56043.51234954743, -110979.6969270345, 0.024, 0.964, -0.036000000000000004, 192.0, 0.0, 0.0, 0.0, 0.0, 0.0, 0.0, 0.0, 0.0, 0.0, 1.6664044935009933E9, 0.0, 2022-10-21 19:08:13.500
137.0, -130260.57991511583, -157305.25193277025, -33642.16937329404, -140397.67717095342, 68020.02406359006, -106237.7743408411, 56055.1799601531, -110992.19155218502, 0.024, 0.964, -0.036000000000000004, 192.0, 0.0, 0.0, 0.0, 0.0, 0.0, 0.0, 0.0, 0.0, 0.0, 1.6664044935010142E9, 0.0, 2022-10-21 19:08:13.501
138.0, -130260.57991511583, -157307.35299674905, -33645.65624542907, -140402.5498512447, 68017.34185425543, -106239.98716354217, 56054.39764909717, -110998.22652318794, 0.024, 0.964, -0.036000000000000004, 192.0, 0.0, 0.0, 0.0, 0.0, 0.0, 0.0, 0.0, 0.0, 0.0, 1.6664044935010371E9, 0.0, 2022-10-21 19:08:13.501
139.0, -130263.28447619492, -157312.1362700625, -33651.579457709726, -140416.47498804034, 68012.15624954179, -106267.72567841121, 56031.97884940849, -110999.12059296615, 0.024, 0.964, -0.036000000000000004, 192.0, 0.0, 0.0, 0.0, 0.0, 0.0, 0.0, 0.0, 0.0, 0.0, 1.666404493501058E9, 0.0, 2022-10-21 19:08:13.501
140.0, -130263.50799363948, -157312.3374357626, -33650.93125712052, -140413.43515079442, 68014.34672049842, -106286.36703328694, 56020.221831825, -110988.79408702781, 0.024, 0.964, -0.036000000000000004, 192.0, 0.0, 0.0, 0.0, 0.0, 0.0, 0.0, 0.0, 0.0, 0.0, 1.6664044935010805E9, 0.0, 2022-10-21 19:08:13.501
141.0, -130264.53617388442, -157312.96328460734, -33649.5901524532, -140407.8472146806, 68012.22330477517, -106263.74706789816, 56039.5784425233, -110987.11770619366, 0.024, 0.964, -0.036000000000000004, 192.0, 0.0, 0.0, 0.0, 0.0, 0.0, 0.0, 0.0, 0.0, 0.0, 1.6664044935011015E9, 0.0, 2022-10-21 19:08:13.501
142.0, -130262.92684828363, -157309.54346770566, -33649.43369024202, -140407.2884210692, 68010.30105475201, -106250.49248343617, 56049.65907927264, -110990.02343297284, 0.024, 0.964, -0.036000000000000004, 192.0, 0.0, 0.0, 0.0, 0.0, 0.0, 0.0, 0.0, 0.0, 0.0, 1.666404493501122E9, 0.0, 2022-10-21 19:08:13.501
143.0, -130256.89187728071, -157302.34620599105, -33643.666940172545, -140408.45071178087, 68017.20774378869, -106256.75097188365, 56046.30631760434, -110980.59099681271, 0.022, 0.964, -0.032, 192.0, 0.0, 176.0, 30.0, 32.0, 255.0, 0.0, 0.0, 0.0, 0.0, 1.6664044935011425E9, 0.0, 2022-10-21 19:08:13.501
144.0, -130263.99973201749, -157310.10226131705, -33650.104242575675, -140418.26312759676, 68012.64798791982, -106280.15324832837, 56027.84377668426, -110988.27999690533, 0.022, 0.964, -0.032, 192.0, 0.0, 0.0, 0.0, 0.0, 0.0, 0.0, 0.0, 0.0, 0.0, 1.6664044935011652E9, 0.0, 2022-10-21 19:08:13.501
145.0, -130265.38554017372, -157314.95258986385, -33651.37829200963, -140402.05811286665, 68015.30784550999, -106260.7295823967, 56045.56871003732, -110981.52977007983, 0.022, 0.964, -0.032, 192.0, 0.0, 0.0, 0.0, 0.0, 0.0, 0.0, 0.0, 0.0, 0.0, 1.666404493501186E9, 0.0, 2022-10-21 19:08:13.501
146.0, -130265.09496749581, -157314.63966544147, -33647.802012896784, -140398.1912610759, 68012.64798791982, -106242.7811315991, 56060.34321312228, -110985.21780791496, 0.022, 0.964, -0.032, 192.0, 0.0, 0.0, 0.0, 0.0, 0.0, 0.0, 0.0, 0.0, 0.0, 1.6664044935012066E9, 0.0, 2022-10-21 19:08:13.501
147.0, -130265.96668552957, -157317.47833698732, -33650.864201887154, -140417.43611305192, 68005.92011283876, -106263.14357079788, 56045.16637863712, -110996.46073537598, 0.022, 0.964, -0.032, 192.0, 0.0, 0.0, 0.0, 0.0, 0.0, 0.0, 0.0, 0.0, 0.0, 1.6664044935012274E9, 0.0, 2022-10-21 19:08:13.501
148.0, -130269.2970954534, -157320.31700853314, -33654.35107402218, -140430.82480798065, 67998.56638891296, -106288.98218738822, 56023.12755860419, -111005.35672966919, 0.022, 0.964, -0.032, 192.0, 0.0, 0.0, 0.0, 0.0, 0.0, 0.0, 0.0, 0.0, 0.0, 1.6664044935012488E9, 0.0, 2022-10-21 19:08:13.501
149.0, -130263.86562155077, -157315.86901138653, -33646.684425674015, -140413.47985428333, 68005.24956050511, -106279.05801285006, 56033.2752505869, -111000.28288367784, 0.022, 0.964, -0.032, 192.0, 0.0, 0.0, 0.0, 0.0, 0.0, 0.0, 0.0, 0.0, 0.0, 1.6664044935012696E9, 0.0, 2022-10-21 19:08:13.501
150.0, -130259.73054882653, -157313.52207821872, -33645.83505938471, -140402.7957204337, 68007.82001111747, -106260.03667831859, 56052.18482639609, -110986.33539513772, 0.022, 0.964, -0.032, 192.0, 0.0, 0.0, 0.0, 0.0, 0.0, 0.0, 0.0, 0.0, 0.0, 1.6664044935013196E9, 0.0, 2022-10-21 19:08:13.501
151.0, -130262.05513024988, -157313.65618868545, -33647.35497800767, -140409.27772632573, 68006.43420296123, -106266.6304429329, 56050.731963006496, -110991.16337194007, 0.022, 0.964, -0.032, 192.0, 0.0, 0.0, 0.0, 0.0, 0.0, 0.0, 0.0, 0.0, 0.0, 1.666404493501341E9, 0.0, 2022-10-21 19:08:13.501
152.0, -130260.87048779376, -157310.39283399496, -33647.22086754094, -140418.46429329686, 68006.43420296123, -106289.31746355504, 56034.795169209865, -110992.10214520719, 0.022, 0.964, -0.032, 192.0, 0.0, 0.0, 0.0, 0.0, 0.0, 0.0, 0.0, 0.0, 0.0, 1.666404493501362E9, 0.0, 2022-10-21 19:08:13.501
153.0, -130259.68584533762, -157309.47641247232, -33647.8914198746, -140408.16013910295, 68009.89872335181, -106271.16784705734, 56044.09349490327, -110990.04578471731, 0.02, 0.964, -0.034, 192.0, 0.0, 160.0, 30.0, 32.0, 254.0, 240.0, 0.0, 0.0, 0.0, 1.6664044935013833E9, 0.0, 2022-10-21 19:08:13.501
154.0, -130269.6994268536, -157320.27230504423, -33655.42395775604, -140411.11056937106, 68001.8520953479, -106255.81219861654, 56050.82136998432, -110997.66772957657, 0.02, 0.964, -0.034, 192.0, 0.0, 0.0, 0.0, 0.0, 0.0, 0.0, 0.0, 0.0, 0.0, 1.6664044935014057E9, 0.0, 2022-10-21 19:08:13.501
155.0, -130271.53226989893, -157322.70864518985, -33660.34134153621, -140421.41472356496, 67996.64413888981, -106258.00266957315, 56048.25091937196, -110997.8465435322, 0.02, 0.964, -0.034, 192.0, 0.0, 0.0, 0.0, 0.0, 0.0, 0.0, 0.0, 0.0, 0.0, 1.6664044935014272E9, 0.0, 2022-10-21 19:08:13.501
156.0, -130260.80343256038, -157313.49972647426, -33655.915696134056, -140413.54690951668, 68002.81322035947, -106277.49339073818, 56034.1246168762, -110985.06134570377, 0.02, 0.964, -0.034, 192.0, 0.0, 0.0, 0.0, 0.0, 0.0, 0.0, 0.0, 0.0, 0.0, 1.666404493501448E9, 0.0, 2022-10-21 19:08:13.501
157.0, -130258.90353428168, -157314.34909276356, -33649.970132108945, -140409.56829900364, 68008.55761868448, -106278.76744017213, 56036.58330876628, -110981.5968253132, 0.02, 0.964, -0.034, 192.0, 0.0, 0.0, 0.0, 0.0, 0.0, 0.0, 0.0, 0.0, 0.0, 1.6664044935014694E9, 0.0, 2022-10-21 19:08:13.501
158.0, -130266.19020297412, -157322.44042425638, -33655.26749554485, -140413.68101998343, 68001.89679883681, -106260.4837132077, 56051.201349640054, -110995.20903768648, 0.02, 0.964, -0.034, 192.0, 0.0, 0.0, 0.0, 0.0, 0.0, 0.0, 0.0, 0.0, 0.0, 1.6664044935014946E9, 0.0, 2022-10-21 19:08:13.501
159.0, -130269.40885417568, -157323.11097659005, -33656.85446940118, -140418.64310725252, 67997.53820866802, -106261.46718996373, 56051.357811851245, -111000.30523542229, 0.02, 0.964, -0.034, 192.0, 0.0, 0.0, 0.0, 0.0, 0.0, 0.0, 0.0, 0.0, 0.0, 1.6664044935015166E9, 0.0, 2022-10-21 19:08:13.501
160.0, -130265.72081634056, -157318.64062769897, -33654.149908322084, -140415.71502872885, 68003.19320001522, -106273.29126278059, 56043.668811758616, -110997.06423247627, 0.02, 0.964, -0.034, 192.0, 0.0, 0.0, 0.0, 0.0, 0.0, 0.0, 0.0, 0.0, 0.0, 1.6664044935015373E9, 0.0, 2022-10-21 19:08:13.501
161.0, -130259.12705172623, -157313.2315055408, -33650.48422223142, -140405.07559836813, 68009.63050241834, -106267.45745747775, 56045.56871003732, -110991.07396496224, 0.02, 0.964, -0.034, 192.0, 0.0, 0.0, 0.0, 0.0, 0.0, 0.0, 0.0, 0.0, 0.0, 1.666404493501558E9, 0.0, 2022-10-21 19:08:13.501
162.0, -130263.99973201749, -157316.60661895355, -33655.17808856703, -140406.68492396892, 68001.58387441443, -106267.6809749223, 56046.84275947127, -111000.41699414457, 0.02, 0.964, -0.034, 192.0, 0.0, 0.0, 0.0, 0.0, 0.0, 0.0, 0.0, 0.0, 0.0, 1.666404493501579E9, 0.0, 2022-10-21 19:08:13.501
163.0, -130267.95599078608, -157318.64062769897, -33661.70479794798, -140415.82678745114, 67995.5489034115, -106269.02207958962, 56048.40738158314, -111005.08850873573, 0.014, 0.9580000000000001, -0.038, 192.0, 0.0, 112.0, 29.0, 240.0, 254.0, 208.0, 0.0, 0.0, 0.0, 1.6664044935016003E9, 0.0, 2022-10-21 19:08:13.501
164.0, -130268.51478439747, -157318.0818340876, -33660.20723106948, -140418.97838341934, 68001.67328139226, -106263.92588185381, 56048.697954261064, -111003.99327325741, 0.014, 0.9580000000000001, -0.038, 192.0, 0.0, 0.0, 0.0, 0.0, 0.0, 0.0, 0.0, 0.0, 0.0, 1.6664044935016227E9, 0.0, 2022-10-21 19:08:13.501
165.0, -130263.61975236176, -157312.51624971823, -33650.4395187425, -140413.12222637204, 68007.37297622836, -106266.98807084419, 56048.16151239414, -110991.00690972888, 0.014, 0.9580000000000001, -0.038, 192.0, 0.0, 0.0, 0.0, 0.0, 0.0, 0.0, 0.0, 0.0, 0.0, 1.6664044935016625E9, 0.0, 2022-10-21 19:08:13.501
166.0, -130249.4487463771, -157299.59694142305, -33635.46384995745, -140389.2282115493, 68021.7004444242, -106265.22228303221, 56059.71736427753, -110969.66099377406, 0.014, 0.9580000000000001, -0.038, 192.0, 0.0, 0.0, 0.0, 0.0, 0.0, 0.0, 0.0, 0.0, 0.0, 1.666404493501681E9, 0.0, 2022-10-21 19:08:13.501
167.0, -130259.05999649287, -157307.17418279342, -33644.717472161945, -140398.884165154, 68011.57510418596, -106269.335004012, 56060.4326201001, -110978.4005258561, 0.014, 0.9580000000000001, -0.038, 192.0, 0.0, 0.0, 0.0, 0.0, 0.0, 0.0, 0.0, 0.0, 0.0, 1.666404493501696E9, 0.0, 2022-10-21 19:08:13.501
168.0, -130274.03566527793, -157322.50747948975, -33660.98954212541, -140421.23590960933, 67998.43227844624, -106259.56729168503, 56058.488018332486, -110998.85237203269, 0.014, 0.9580000000000001, -0.038, 192.0, 0.0, 0.0, 0.0, 0.0, 0.0, 0.0, 0.0, 0.0, 0.0, 1.6664044935017111E9, 0.0, 2022-10-21 19:08:13.501
169.0, -130262.07748199433, -157309.78933689467, -33643.71164366146, -140415.71502872885, 68007.82001111747, -106275.10175408146, 56052.58715779629, -110985.93306373752, 0.014, 0.9580000000000001, -0.038, 192.0, 0.0, 0.0, 0.0, 0.0, 0.0, 0.0, 0.0, 0.0, 0.0, 1.6664044935017262E9, 0.0, 2022-10-21 19:08:13.501
170.0, -130264.75969132897, -157310.57164795062, -33641.63293142711, -140407.57899374713, 68006.21068551668, -106269.22324528972, 56060.67848928911, -110982.06621194676, 0.014, 0.9580000000000001, -0.038, 192.0, 0.0, 0.0, 0.0, 0.0, 0.0, 0.0, 0.0, 0.0, 0.0, 1.666404493501741E9, 0.0, 2022-10-21 19:08:13.501
171.0, -130267.33014194133, -157311.68923517337, -33643.57753319473, -140407.86956642504, 68002.54499942601, -106250.26896599162, 56076.68233831911, -110984.39079337011, 0.014, 0.9580000000000001, -0.038, 192.0, 0.0, 0.0, 0.0, 0.0, 0.0, 0.0, 0.0, 0.0, 0.0, 1.666404493501756E9, 0.0, 2022-10-21 19:08:13.501
172.0, -130267.97834253054, -157310.14696480596, -33647.26557102985, -140423.22521486584, 67993.93957781071, -106272.64306219138, 56059.873826488714, -110991.47629636244, 0.018000000000000002, 0.966, -0.038, 192.0, 0.0, 144.0, 30.0, 48.0, 254.0, 208.0, 0.0, 0.0, 0.0, 1.666404493501796E9, 0.0, 2022-10-21 19:08:13.501
173.0, -130258.41179590367, -157298.94874083385, -33634.592131923695, -140405.1873570904, 68015.48665946563, -106288.11046935445, 56055.24701538647, -110980.45688634597, 0.018000000000000002, 0.966, -0.038, 192.0, 0.0, 0.0, 0.0, 0.0, 0.0, 0.0, 0.0, 0.0, 0.0, 1.6664044935018394E9, 0.0, 2022-10-21 19:08:13.501
174.0, -130257.07069123635, -157296.91473208842, -33630.47941094392, -140390.3457987721, 68018.83942113393, -106270.85492263496, 56069.37331788222, -110974.37721185414, 0.018000000000000002, 0.966, -0.038, 192.0, 0.0, 0.0, 0.0, 0.0, 0.0, 0.0, 0.0, 0.0, 0.0, 1.666404493501881E9, 0.0, 2022-10-21 19:08:13.501
175.0, -130268.55948788638, -157310.39283399496, -33638.07900405872, -140404.51680475674, 68006.32244423896, -106261.40013473036, 56073.731908051006, -110975.02541244334, 0.018000000000000002, 0.966, -0.038, 192.0, 0.0, 0.0, 0.0, 0.0, 0.0, 0.0, 0.0, 0.0, 0.0, 1.666404493501922E9, 0.0, 2022-10-21 19:08:13.501
176.0, -130274.21447923357, -157318.0818340876, -33646.058576829266, -140422.35349683207, 67999.21458950217, -106261.62365217491, 56068.76982078193, -110984.12257243665, 0.018000000000000002, 0.966, -0.038, 192.0, 0.0, 0.0, 0.0, 0.0, 0.0, 0.0, 0.0, 0.0, 0.0, 1.6664044935019639E9, 0.0, 2022-10-21 19:08:13.501
177.0, -130270.86171756528, -157312.49389797376, -33646.125632062634, -140423.8957671995, 68000.5556941695, -106277.47103899372, 56052.92243396312, -110987.22946491593, 0.018000000000000002, 0.966, -0.038, 192.0, 0.0, 0.0, 0.0, 0.0, 0.0, 0.0, 0.0, 0.0, 0.0, 1.6664044935019927E9, 0.0, 2022-10-21 19:08:13.501
178.0, -130268.67124660865, -157310.21402003933, -33643.55518145027, -140414.06099963916, 68003.93080758225, -106277.38163201591, 56053.63768978568, -110983.72024103646, 0.018000000000000002, 0.966, -0.038, 192.0, 0.0, 0.0, 0.0, 0.0, 0.0, 0.0, 0.0, 0.0, 0.0, 1.666404493502009E9, 0.0, 2022-10-21 19:08:13.502
179.0, -130272.82867107734, -157316.62897069802, -33645.11980356214, -140410.32825831513, 68004.82487736046, -106272.97833835821, 56056.72223052052, -110989.30817715028, 0.018000000000000002, 0.966, -0.038, 192.0, 0.0, 0.0, 0.0, 0.0, 0.0, 0.0, 0.0, 0.0, 0.0, 1.6664044935020263E9, 0.0, 2022-10-21 19:08:13.502
180.0, -130270.63820012072, -157317.50068873176, -33643.97986459492, -140410.46236878185, 68010.07753730746, -106280.73439368421, 56045.85928271524, -110992.86210451867, 0.018000000000000002, 0.966, -0.038, 192.0, 0.0, 0.0, 0.0, 0.0, 0.0, 0.0, 0.0, 0.0, 0.0, 1.666404493502058E9, 0.0, 2022-10-21 19:08:13.502
181.0, -130272.98513328853, -157320.76404342224, -33644.20338203948, -140412.78695020522, 68011.23982801913, -106296.24650433619, 56030.70479997454, -110996.68425282053, 0.018000000000000002, 0.966, -0.038, 192.0, 0.0, 0.0, 0.0, 0.0, 0.0, 0.0, 0.0, 0.0, 0.0, 1.6664044935020747E9, 0.0, 2022-10-21 19:08:13.502
182.0, -130271.26404896547, -157319.53469747718, -33640.91767560455, -140402.68396171142, 68014.99492108762, -106298.74989971519, 56031.151834863645, -110986.26833990436, 0.018000000000000002, 0.96, -0.036000000000000004, 192.0, 0.0, 144.0, 30.0, 0.0, 254.0, 224.0, 0.0, 0.0, 0.0, 1.6664044935020905E9, 0.0, 2022-10-21 19:08:13.502
183.0, -130270.3476274428, -157320.65228469996, -33642.54935294978, -140394.7937959187, 68016.2019152882, -106277.04635584907, 56049.50261706145, -110984.65901430357, 0.018000000000000002, 0.96, -0.036000000000000004, 192.0, 0.0, 0.0, 0.0, 0.0, 0.0, 0.0, 0.0, 0.0, 0.0, 1.6664044935021071E9, 0.0, 2022-10-21 19:08:13.502
184.0, -130267.77717683044, -157318.32770327662, -33638.97307383693, -140393.65385695148, 68019.37586300085, -106257.3768207284, 56066.892274247686, -110983.80964801427, 0.018000000000000002, 0.96, -0.036000000000000004, 192.0, 0.0, 0.0, 0.0, 0.0, 0.0, 0.0, 0.0, 0.0, 0.0, 1.666404493502123E9, 0.0, 2022-10-21 19:08:13.502
185.0, -130269.23004022003, -157321.52400273373, -33643.19755353899, -140404.82972917912, 68015.08432806544, -106273.55948371405, 56056.72223052052, -110986.78243002683, 0.018000000000000002, 0.96, -0.036000000000000004, 192.0, 0.0, 0.0, 0.0, 0.0, 0.0, 0.0, 0.0, 0.0, 0.0, 1.6664044935021393E9, 0.0, 2022-10-21 19:08:13.502
186.0, -130274.37094144475, -157326.37433128053, -33653.92639087753, -140414.48568278382, 68005.0036913161, -106294.30190256858, 56044.45112281456, -110988.27999690533, 0.018000000000000002, 0.96, -0.036000000000000004, 192.0, 0.0, 0.0, 0.0, 0.0, 0.0, 0.0, 0.0, 0.0, 0.0, 1.6664044935021558E9, 0.0, 2022-10-21 19:08:13.502
187.0, -130272.13576699923, -157324.45208125736, -33651.84767864319, -140407.31077281365, 68003.93080758225, -106289.96566414424, 56049.14498915017, -110987.56474108277, 0.018000000000000002, 0.96, -0.036000000000000004, 192.0, 0.0, 0.0, 0.0, 0.0, 0.0, 0.0, 0.0, 0.0, 0.0, 1.666404493502172E9, 0.0, 2022-10-21 19:08:13.502
188.0, -130271.30875245438, -157324.96617137984, -33649.23252454192, -140401.61107797755, 68006.03187156103, -106275.66054769285, 56060.20910265554, -110984.36844162566, 0.018000000000000002, 0.96, -0.036000000000000004, 192.0, 0.0, 0.0, 0.0, 0.0, 0.0, 0.0, 0.0, 0.0, 0.0, 1.6664044935021875E9, 0.0, 2022-10-21 19:08:13.502
189.0, -130280.98705780353, -157334.01862788424, -33659.31316129126, -140420.61006076456, 67998.61109240187, -106287.05993736506, 56049.0779339168, -110987.74355503841, 0.018000000000000002, 0.96, -0.036000000000000004, 192.0, 0.0, 0.0, 0.0, 0.0, 0.0, 0.0, 0.0, 0.0, 0.0, 1.666404493502205E9, 0.0, 2022-10-21 19:08:13.502
190.0, -130271.57697338784, -157323.96034287935, -33652.272361787844, -140414.68684848392, 68004.62371166036, -106295.2853793246, 56045.43459957059, -110984.45784860347, 0.018000000000000002, 0.96, -0.036000000000000004, 192.0, 0.0, 0.0, 0.0, 0.0, 0.0, 0.0, 0.0, 0.0, 0.0, 1.6664044935022213E9, 0.0, 2022-10-21 19:08:13.502
191.0, -130264.37971167323, -157318.59592421007, -33644.873934373136, -140409.90357517047, 68004.75782212708, -106296.090042125, 56049.748486250464, -110985.5977875707, 0.018000000000000002, 0.96, -0.036000000000000004, 192.0, 0.0, 0.0, 0.0, 0.0, 0.0, 0.0, 0.0, 0.0, 0.0, 1.666404493502237E9, 0.0, 2022-10-21 19:08:13.502
192.0, -130267.06192100787, -157321.56870622264, -33645.768004151345, -140412.56343276065, 68001.29330173651, -106289.47392576623, 56055.5822915533, -110996.23721793143, 0.02, 0.962, -0.04, 192.0, 0.0, 160.0, 30.0, 16.0, 254.0, 192.0, 0.0, 0.0, 0.0, 1.6664044935022533E9, 0.0, 2022-10-21 19:08:13.502
193.0, -130267.97834253054, -157323.96034287935, -33646.50561171837, -140420.5430055312, 67999.549865669, -106293.832515935, 56050.75431475095, -110995.83488653123, 0.02, 0.962, -0.04, 192.0, 0.0, 0.0, 0.0, 0.0, 0.0, 0.0, 0.0, 0.0, 0.0, 1.6664044935022702E9, 0.0, 2022-10-21 19:08:13.502
194.0, -130262.81508956137, -157314.86318288604, -33638.570742436736, -140419.15719737497, 68003.97551107116, -106314.21730687826, 56038.75142797845, -110984.41314511457, 0.02, 0.962, -0.04, 192.0, 0.0, 0.0, 0.0, 0.0, 0.0, 0.0, 0.0, 0.0, 0.0, 1.6664044935022867E9, 0.0, 2022-10-21 19:08:13.502
195.0, -130259.01529300396, -157309.96815085033, -33634.25685575687, -140407.71310421385, 68006.36714772787, -106307.46708005275, 56044.11584664773, -110987.25181666038, 0.02, 0.962, -0.04, 192.0, 0.0, 0.0, 0.0, 0.0, 0.0, 0.0, 0.0, 0.0, 0.0, 1.6664044935023174E9, 0.0, 2022-10-21 19:08:13.502
196.0, -130262.99390351701, -157315.77960440872, -33638.74955639238, -140403.71214195635, 68005.0036913161, -106285.56237048654, 56059.49384683298, -110988.30234864978, 0.02, 0.962, -0.04, 192.0, 0.0, 0.0, 0.0, 0.0, 0.0, 0.0, 0.0, 0.0, 0.0, 1.6664044935023334E9, 0.0, 2022-10-21 19:08:13.502
197.0, -130271.37580768774, -157322.37336902303, -33648.18199255252, -140423.2922700992, 67992.68788012122, -106292.7372804567, 56050.70961126204, -110993.80087778579, 0.02, 0.962, -0.04, 192.0, 0.0, 0.0, 0.0, 0.0, 0.0, 0.0, 0.0, 0.0, 0.0, 1.6664044935023499E9, 0.0, 2022-10-21 19:08:13.502
198.0, -130260.73637732702, -157312.85152588505, -33633.72041388994, -140412.78695020522, 68006.54596168351, -106313.30088535558, 56040.24899485696, -110981.3956596131, 0.02, 0.962, -0.04, 192.0, 0.0, 0.0, 0.0, 0.0, 0.0, 0.0, 0.0, 0.0, 0.0, 1.666404493502366E9, 0.0, 2022-10-21 19:08:13.502
199.0, -130265.96668552957, -157319.53469747718, -33641.9905593384, -140404.7403222013, 68005.74129888312, -106298.88401018191, 56045.76987573742, -110984.30138639228, 0.02, 0.962, -0.04, 192.0, 0.0, 0.0, 0.0, 0.0, 0.0, 0.0, 0.0, 0.0, 0.0, 1.6664044935023816E9, 0.0, 2022-10-21 19:08:13.502
200.0, -130266.65958960768, -157319.42293875493, -33646.058576829266, -140399.10768259855, 68001.6062261589, -106278.23099830521, 56059.80677125535, -110977.32764212224, 0.02, 0.962, -0.04, 192.0, 0.0, 0.0, 0.0, 0.0, 0.0, 0.0, 0.0, 0.0, 0.0, 1.6664044935023997E9, 0.0, 2022-10-21 19:08:13.502
201.0, -130271.53226989893, -157322.57453472313, -33654.77575716683, -140414.37392406154, 67993.4031359438, -106290.81503043354, 56050.441390328575, -110977.61821480015, 0.02, 0.962, -0.04, 192.0, 0.0, 0.0, 0.0, 0.0, 0.0, 0.0, 0.0, 0.0, 0.0, 1.666404493502416E9, 0.0, 2022-10-21 19:08:13.502
202.0, -130263.95502852858, -157313.81265089664, -33646.32679776273, -140413.63631649452, 67998.72285112416, -106308.7411294867, 56037.6785442446, -110975.7406682659, 0.024, 0.9580000000000001, -0.038, 192.0, 0.0, 192.0, 29.0, 240.0, 254.0, 208.0, 0.0, 0.0, 0.0, 1.6664044935024316E9, 0.0, 2022-10-21 19:08:13.502
203.0, -130267.01721751897, -157317.45598524285, -33647.77966115232, -140405.3438193016, 67999.88514183582, -106301.67797823883, 56042.21594836903, -110983.38496486962, 0.024, 0.9580000000000001, -0.038, 192.0, 0.0, 0.0, 0.0, 0.0, 0.0, 0.0, 0.0, 0.0, 0.0, 1.6664044935024483E9, 0.0, 2022-10-21 19:08:13.502
204.0, -130277.9025170687, -157325.52496499123, -33656.65330370108, -140410.90940367096, 67991.1009062649, -106294.32425431303, 56048.206215883045, -110990.73868879542, 0.024, 0.9580000000000001, -0.038, 192.0, 0.0, 0.0, 0.0, 0.0, 0.0, 0.0, 0.0, 0.0, 0.0, 1.6664044935024648E9, 0.0, 2022-10-21 19:08:13.502
205.0, -130280.74118861451, -157328.65420921496, -33655.08868158921, -140410.88705192652, 67994.16309525527, -106291.10560311147, 56051.33546010679, -110991.76686904037, 0.024, 0.9580000000000001, -0.038, 192.0, 0.0, 0.0, 0.0, 0.0, 0.0, 0.0, 0.0, 0.0, 0.0, 1.6664044935024805E9, 0.0, 2022-10-21 19:08:13.502
206.0, -130275.33206645634, -157323.35684577905, -33653.43465249952, -140415.53621477322, 67997.71702262366, -106299.12987937091, 56041.14306463517, -110993.06327021877, 0.024, 0.9580000000000001, -0.038, 192.0, 0.0, 0.0, 0.0, 0.0, 0.0, 0.0, 0.0, 0.0, 0.0, 1.6664044935024965E9, 0.0, 2022-10-21 19:08:13.502
207.0, -130268.38067393073, -157312.3821392515, -33648.31610301925, -140411.4905490268, 68000.17571451375, -106308.67407425334, 56032.71645697552, -110987.2965201493, 0.024, 0.9580000000000001, -0.038, 192.0, 0.0, 0.0, 0.0, 0.0, 0.0, 0.0, 0.0, 0.0, 0.0, 1.6664044935025125E9, 0.0, 2022-10-21 19:08:13.502
208.0, -130262.30099943888, -157308.55999094964, -33638.190762781, -140395.0843685966, 68007.70825239518, -106302.32617882804, 56047.08862866028, -110978.02054620035, 0.024, 0.9580000000000001, -0.038, 192.0, 0.0, 0.0, 0.0, 0.0, 0.0, 0.0, 0.0, 0.0, 0.0, 1.666404493502529E9, 0.0, 2022-10-21 19:08:13.502
209.0, -130276.00261879, -157322.66394170094, -33650.50657397587, -140407.53429025822, 67998.99107205762, -106289.04924262158, 56054.151779908156, -110988.59292132771, 0.024, 0.9580000000000001, -0.038, 192.0, 0.0, 0.0, 0.0, 0.0, 0.0, 0.0, 0.0, 0.0, 0.0, 1.6664044935025449E9, 0.0, 2022-10-21 19:08:13.502
210.0, -130277.32137171285, -157324.00504636826, -33650.61833269815, -140419.00073516378, 67997.51585692356, -106301.05212939408, 56040.383105323686, -110985.44132535951, 0.024, 0.9580000000000001, -0.038, 192.0, 0.0, 0.0, 0.0, 0.0, 0.0, 0.0, 0.0, 0.0, 0.0, 1.6664044935025747E9, 0.0, 2022-10-21 19:08:13.502
211.0, -130273.36511294427, -157319.57940096612, -33647.802012896784, -140420.78887472022, 67999.48281043564, -106314.97726618973, 56029.09547437376, -110984.45784860347, 0.026000000000000002, 0.964, -0.038, 192.0, 0.0, 208.0, 30.0, 32.0, 254.0, 208.0, 0.0, 0.0, 0.0, 1.666404493502591E9, 0.0, 2022-10-21 19:08:13.502
212.0, -130270.45938616508, -157317.83596489858, -33645.38802449561, -140404.6956187124, 68004.69076689372, -106302.70615848376, 56044.026439669906, -110987.58709282722, 0.026000000000000002, 0.964, -0.038, 192.0, 0.0, 0.0, 0.0, 0.0, 0.0, 0.0, 0.0, 0.0, 0.0, 1.6664044935026076E9, 0.0, 2022-10-21 19:08:13.502
213.0, -130263.35153142828, -157313.00798809624, -33641.23060002692, -140398.45948200935, 68006.41185121678, -106282.90251289637, 56061.30433813386, -110983.51907533636, 0.026000000000000002, 0.964, -0.038, 192.0, 0.0, 0.0, 0.0, 0.0, 0.0, 0.0, 0.0, 0.0, 0.0, 1.6664044935026233E9, 0.0, 2022-10-21 19:08:13.502
214.0, -130255.72958656902, -157302.16739203542, -33632.60282666717, -140397.92304014243, 68014.61494143188, -106287.70813795427, 56057.6833555321, -110976.21005489946, 0.026000000000000002, 0.964, -0.038, 192.0, 0.0, 0.0, 0.0, 0.0, 0.0, 0.0, 0.0, 0.0, 0.0, 1.6664044935026393E9, 0.0, 2022-10-21 19:08:13.502
215.0, -130262.92684828363, -157310.37048225052, -33639.15188779258, -140414.53038627273, 68003.5508279265, -106303.19789686179, 56043.51234954743, -110982.13326718012, 0.026000000000000002, 0.964, -0.038, 192.0, 0.0, 0.0, 0.0, 0.0, 0.0, 0.0, 0.0, 0.0, 0.0, 1.6664044935026553E9, 0.0, 2022-10-21 19:08:13.502
216.0, -130268.26891520846, -157317.99242710977, -33644.292789017294, -140412.87635718303, 67992.10673476539, -106307.0423969081, 56041.076009401804, -110982.51324683586, 0.026000000000000002, 0.964, -0.038, 192.0, 0.0, 0.0, 0.0, 0.0, 0.0, 0.0, 0.0, 0.0, 0.0, 1.6664044935026712E9, 0.0, 2022-10-21 19:08:13.502
217.0, -130264.31265643987, -157317.25481954275, -33643.62223668364, -140406.88608966902, 67994.2525022331, -106292.49141126769, 56055.068201430826, -110980.68040379052, 0.026000000000000002, 0.964, -0.038, 192.0, 0.0, 0.0, 0.0, 0.0, 0.0, 0.0, 0.0, 0.0, 0.0, 1.6664044935026872E9, 0.0, 2022-10-21 19:08:13.502
218.0, -130257.495374381, -157311.10808981754, -33639.42010872604, -140415.93854617342, 67996.97941505664, -106302.95202767279, 56048.988526938985, -110976.45592408847, 0.026000000000000002, 0.964, -0.038, 192.0, 0.0, 0.0, 0.0, 0.0, 0.0, 0.0, 0.0, 0.0, 0.0, 1.6664044935027032E9, 0.0, 2022-10-21 19:08:13.502
219.0, -130263.68680759512, -157314.95258986385, -33644.82923088422, -140419.78304621973, 67998.83460984642, -106306.08127189652, 56043.78057048089, -110978.78050551182, 0.026000000000000002, 0.964, -0.038, 192.0, 0.0, 0.0, 0.0, 0.0, 0.0, 0.0, 0.0, 0.0, 0.0, 1.6664044935027199E9, 0.0, 2022-10-21 19:08:13.502
220.0, -130276.06967402335, -157330.2858865602, -33655.28984728931, -140427.65086026798, 67986.11646725136, -106303.93550442881, 56045.18873038158, -110994.02439523034, 0.026000000000000002, 0.964, -0.038, 192.0, 0.0, 0.0, 0.0, 0.0, 0.0, 0.0, 0.0, 0.0, 0.0, 1.6664044935027356E9, 0.0, 2022-10-21 19:08:13.502
221.0, -130272.06871176587, -157330.4870522603, -33654.35107402218, -140422.73347648783, 67980.90851079328, -106286.94817864278, 56059.538550321886, -111002.67452033455, 0.024, 0.966, -0.044, 192.0, 0.0, 192.0, 30.0, 48.0, 254.0, 160.0, 0.0, 0.0, 0.0, 1.6664044935027516E9, 0.0, 2022-10-21 19:08:13.502
222.0, -130253.33794991231, -157313.65618868545, -33636.961416835955, -140406.1931855909, 67999.97454881365, -106285.80823967556, 56068.36748938173, -110983.0496887028, 0.024, 0.966, -0.044, 192.0, 0.0, 0.0, 0.0, 0.0, 0.0, 0.0, 0.0, 0.0, 0.0, 1.66640449350277E9, 0.0, 2022-10-21 19:08:13.502
223.0, -130253.40500514567, -157314.12557531902, -33635.26268425735, -140412.69754322738, 68001.29330173651, -106295.9335799138, 56057.0798584318, -110978.13230492262, 0.024, 0.966, -0.044, 192.0, 0.0, 0.0, 0.0, 0.0, 0.0, 0.0, 0.0, 0.0, 0.0, 1.666404493502786E9, 0.0, 2022-10-21 19:08:13.502
224.0, -130256.35543541377, -157316.85248814255, -33639.64362617059, -140409.9929821483, 67995.70536562269, -106311.2445248657, 56044.89815770366, -110981.7979910133, 0.024, 0.966, -0.044, 192.0, 0.0, 0.0, 0.0, 0.0, 0.0, 0.0, 0.0, 0.0, 0.0, 1.666404493502802E9, 0.0, 2022-10-21 19:08:13.502
225.0, -130260.06582499336, -157321.05461610015, -33647.578495452224, -140401.40991227745, 67994.76659235556, -106290.12212635543, 56061.14787592267, -110981.3509561242, 0.024, 0.966, -0.044, 192.0, 0.0, 0.0, 0.0, 0.0, 0.0, 0.0, 0.0, 0.0, 0.0, 1.6664044935028315E9, 0.0, 2022-10-21 19:08:13.502
226.0, -130262.21159246107, -157327.5813254811, -33651.713568176456, -140418.77721771924, 67989.29041496401, -106288.78102168812, 56060.298509633365, -110981.97680496894, 0.024, 0.966, -0.044, 192.0, 0.0, 0.0, 0.0, 0.0, 0.0, 0.0, 0.0, 0.0, 0.0, 1.6664044935028472E9, 0.0, 2022-10-21 19:08:13.502
227.0, -130265.92198204064, -157331.06819761614, -33653.65816994407, -140425.9968311783, 67990.72092660915, -106309.25521960917, 56044.00408792545, -110991.16337194007, 0.024, 0.966, -0.044, 192.0, 0.0, 0.0, 0.0, 0.0, 0.0, 0.0, 0.0, 0.0, 0.0, 1.6664044935028644E9, 0.0, 2022-10-21 19:08:13.502
228.0, -130260.8481360493, -157326.79901442517, -33649.411338497564, -140419.38071481953, 67995.1465720113, -106311.73626324371, 56044.54052979238, -110987.56474108277, 0.024, 0.966, -0.044, 192.0, 0.0, 0.0, 0.0, 0.0, 0.0, 0.0, 0.0, 0.0, 0.0, 1.66640449350288E9, 0.0, 2022-10-21 19:08:13.502
229.0, -130253.76263305696, -157319.28882828818, -33645.74565240689, -140407.4448832804, 67997.4488016902, -106306.66241725236, 56052.833026985296, -110983.92140673655, 0.024, 0.966, -0.044, 192.0, 0.0, 0.0, 0.0, 0.0, 0.0, 0.0, 0.0, 0.0, 0.0, 1.666404493502896E9, 0.0, 2022-10-21 19:08:13.502
230.0, -130249.38169114372, -157319.22177305483, -33638.32487324773, -140403.2427553228, 68003.21555175967, -106291.55263800058, 56065.21589341354, -110979.13813342311, 0.024, 0.966, -0.044, 192.0, 0.0, 0.0, 0.0, 0.0, 0.0, 0.0, 0.0, 0.0, 0.0, 1.6664044935029123E9, 0.0, 2022-10-21 19:08:13.502
231.0, -130249.13582195471, -157318.97590386582, -33639.08483255921, -140407.10960711355, 68004.86958084936, -106307.6905974973, 56051.849550229264, -110975.695964777, 0.014, 0.962, -0.046, 192.0, 0.0, 112.0, 30.0, 16.0, 254.0, 144.0, 0.0, 0.0, 0.0, 1.666404493502928E9, 0.0, 2022-10-21 19:08:13.502
232.0, -130257.33891216981, -157328.3859882815, -33653.814632155256, -140423.96282243286, 67989.15630449729, -106337.93250774534, 56025.2733260719, -110986.35774688217, 0.014, 0.962, -0.046, 192.0, 0.0, 0.0, 0.0, 0.0, 0.0, 0.0, 0.0, 0.0, 0.0, 1.6664044935029447E9, 0.0, 2022-10-21 19:08:13.502
233.0, -130244.30784515236, -157318.03713059868, -33636.402623224574, -140392.06688309513, 68012.35741524189, -106317.68182726883, 56048.85441647225, -110965.21299662745, 0.014, 0.962, -0.046, 192.0, 0.0, 0.0, 0.0, 0.0, 0.0, 0.0, 0.0, 0.0, 0.0, 1.6664044935029607E9, 0.0, 2022-10-21 19:08:13.502
234.0, -130250.7898510444, -157323.80388066816, -33642.638759927606, -140396.0007901193, 68006.30009249451, -106298.839306693, 56061.99724221197, -110974.80189499879, 0.014, 0.962, -0.046, 192.0, 0.0, 0.0, 0.0, 0.0, 0.0, 0.0, 0.0, 0.0, 0.0, 1.666404493502977E9, 0.0, 2022-10-21 19:08:13.502
235.0, -130258.43414764812, -157327.71543594784, -33650.97596060943, -140415.53621477322, 67998.87931333535, -106314.46317606726, 56047.40155308266, -110989.21877017246, 0.014, 0.962, -0.046, 192.0, 0.0, 0.0, 0.0, 0.0, 0.0, 0.0, 0.0, 0.0, 0.0, 1.666404493502993E9, 0.0, 2022-10-21 19:08:13.502
236.0, -130250.1416504552, -157319.17706956592, -33641.81174538276, -140407.26606932475, 68012.58093268644, -106311.13276614342, 56048.0274019274, -110982.0438602023, 0.014, 0.962, -0.046, 192.0, 0.0, 0.0, 0.0, 0.0, 0.0, 0.0, 0.0, 0.0, 0.0, 1.6664044935030088E9, 0.0, 2022-10-21 19:08:13.503
237.0, -130244.77723178593, -157316.02547359772, -33636.71554764695, -140390.5916679611, 68020.38169150134, -106297.25233283668, 56060.99141371148, -110972.20909264196, 0.014, 0.962, -0.046, 192.0, 0.0, 0.0, 0.0, 0.0, 0.0, 0.0, 0.0, 0.0, 0.0, 1.6664044935030243E9, 0.0, 2022-10-21 19:08:13.503
238.0, -130256.10956622477, -157328.16247083695, -33649.18782105301, -140411.22232809334, 68003.77434537106, -106309.97047543175, 56051.55897755134, -110985.53073233733, 0.014, 0.962, -0.046, 192.0, 0.0, 0.0, 0.0, 0.0, 0.0, 0.0, 0.0, 0.0, 0.0, 1.6664044935030422E9, 0.0, 2022-10-21 19:08:13.503
239.0, -130249.13582195471, -157319.06531084364, -33639.10718430366, -140413.7927787057, 68013.87733386485, -106326.4437110953, 56044.629936770194, -110979.40635435657, 0.014, 0.962, -0.046, 192.0, 0.0, 0.0, 0.0, 0.0, 0.0, 0.0, 0.0, 0.0, 0.0, 1.666404493503058E9, 0.0, 2022-10-21 19:08:13.503
240.0, -130250.3428161553, -157319.22177305483, -33638.23546626991, -140413.90453742797, 68014.88316236534, -106336.36788563346, 56036.44919829955, -110976.9476624665, 0.02, 0.9540000000000001, -0.042, 192.0, 0.0, 160.0, 29.0, 208.0, 254.0, 176.0, 0.0, 0.0, 0.0, 1.6664044935030885E9, 0.0, 2022-10-21 19:08:13.503
241.0, -130251.77332780045, -157320.74169167777, -33638.302521503276, -140402.81807217814, 68017.34185425543, -106330.0423419526, 56043.71351524753, -110975.13717116561, 0.02, 0.9540000000000001, -0.042, 192.0, 0.0, 0.0, 0.0, 0.0, 0.0, 0.0, 0.0, 0.0, 0.0, 1.6664044935031066E9, 0.0, 2022-10-21 19:08:13.503
242.0, -130248.46526962105, -157317.41128175394, -33634.6368354126, -140391.6869034394, 68024.91909562578, -106302.25912359466, 56065.43941085809, -110968.05166817328, 0.02, 0.9540000000000001, -0.042, 192.0, 0.0, 0.0, 0.0, 0.0, 0.0, 0.0, 0.0, 0.0, 0.0, 1.6664044935031223E9, 0.0, 2022-10-21 19:08:13.503
243.0, -130253.4944121235, -157322.52983123422, -33640.51534420435, -140412.67519148294, 68016.17956354374, -106304.47194629574, 56060.924358478114, -110979.6969270345, 0.02, 0.9540000000000001, -0.042, 192.0, 0.0, 0.0, 0.0, 0.0, 0.0, 0.0, 0.0, 0.0, 0.0, 1.6664044939798174E9, 0.0, 2022-10-21 19:08:13.979
244.0, -130249.9404847551, -157315.69019743087, -33632.46871620044, -140410.6411827375, 68019.68878742323, -106311.15511788787, 56056.6328235427, -110976.61238629966, 0.02, 0.9540000000000001, -0.042, 192.0, 0.0, 0.0, 0.0, 0.0, 0.0, 0.0, 0.0, 0.0, 0.0, 1.6664044939799228E9, 0.0, 2022-10-21 19:08:13.979
245.0, -130248.95700799907, -157315.9807701088, -33631.50759118886, -140408.20484259186, 68015.97839784365, -106314.15025164488, 56057.25867238745, -110979.78633401231, 0.02, 0.9540000000000001, -0.042, 192.0, 0.0, 0.0, 0.0, 0.0, 0.0, 0.0, 0.0, 0.0, 0.0, 1.6664044939800591E9, 0.0, 2022-10-21 19:08:13.980
246.0, -130246.47596436454, -157314.79612765266, -33631.015852810844, -140412.25050833827, 68013.2514850201, -106311.6468562659, 56063.49480909047, -110979.74163052341, 0.02, 0.9540000000000001, -0.042, 192.0, 0.0, 0.0, 0.0, 0.0, 0.0, 0.0, 0.0, 0.0, 0.0, 1.6664044939801168E9, 0.0, 2022-10-21 19:08:13.980
247.0, -130249.91813301065, -157316.02547359772, -33632.24519875589, -140416.89967118498, 68013.02796757554, -106317.63712377992, 56059.98558521099, -110984.30138639228, 0.02, 0.9540000000000001, -0.042, 192.0, 0.0, 0.0, 0.0, 0.0, 0.0, 0.0, 0.0, 0.0, 0.0, 1.6664044939801357E9, 0.0, 2022-10-21 19:08:13.980
248.0, -130252.17565920064, -157318.4841654878, -33634.32391099023, -140426.35445908958, 68010.16694428527, -106334.91502224386, 56046.08280015979, -110980.3451276237, 0.02, 0.9540000000000001, -0.042, 192.0, 0.0, 0.0, 0.0, 0.0, 0.0, 0.0, 0.0, 0.0, 0.0, 1.6664044939801536E9, 0.0, 2022-10-21 19:08:13.980
249.0, -130250.4992783665, -157317.45598524285, -33635.97794007992, -140417.95020317438, 68012.51387745308, -106339.11715020146, 56045.836930970785, -110970.75622925238, 0.02, 0.9540000000000001, -0.042, 192.0, 0.0, 0.0, 0.0, 0.0, 0.0, 0.0, 0.0, 0.0, 0.0, 1.6664044939801724E9, 0.0, 2022-10-21 19:08:13.980
250.0, -130248.8452492768, -157317.92537187642, -33637.07317555823, -140405.00854313475, 68010.92690359676, -106314.77610048963, 56061.66196604514, -110972.00792694186, 0.024, 0.9540000000000001, -0.042, 192.0, 0.0, 192.0, 29.0, 208.0, 254.0, 176.0, 0.0, 0.0, 0.0, 1.6664044939801905E9, 0.0, 2022-10-21 19:08:13.980
251.0, -130259.75290057098, -157327.53662199219, -33645.67859717352, -140412.98811590532, 68004.02021456006, -106301.32035032754, 56066.95932948105, -110981.90974973557, 0.024, 0.9540000000000001, -0.042, 192.0, 0.0, 0.0, 0.0, 0.0, 0.0, 0.0, 0.0, 0.0, 0.0, 1.6664044939802139E9, 0.0, 2022-10-21 19:08:13.980
252.0, -130268.60419137529, -157333.61629648405, -33650.79714665379, -140434.02110743776, 67994.43131618874, -106336.21142342227, 56041.14306463517, -110991.18572368452, 0.024, 0.9540000000000001, -0.042, 192.0, 0.0, 0.0, 0.0, 0.0, 0.0, 0.0, 0.0, 0.0, 0.0, 1.6664044939802275E9, 0.0, 2022-10-21 19:08:13.980
253.0, -130275.01914203395, -157332.1857848389, -33649.16546930855, -140429.9977934358, 67992.64317663231, -106355.61273760948, 56028.60373599574, -110993.15267719659, 0.024, 0.9540000000000001, -0.042, 192.0, 0.0, 0.0, 0.0, 0.0, 0.0, 0.0, 0.0, 0.0, 0.0, 1.6664044939802413E9, 0.0, 2022-10-21 19:08:13.980
254.0, -130255.9978075025, -157327.5813254811, -33647.06440532976, -140420.49830204228, 67994.2525022331, -106356.1044759875, 56034.772817465404, -110985.15075268158, 0.024, 0.9540000000000001, -0.042, 192.0, 0.0, 0.0, 0.0, 0.0, 0.0, 0.0, 0.0, 0.0, 0.0, 1.6664044939802551E9, 0.0, 2022-10-21 19:08:13.980
255.0, -130258.36709241476, -157329.81649992664, -33651.0430158428, -140423.91811894396, 67994.54307491101, -106365.11222900299, 56033.43171279809, -110982.91557823606, 0.024, 0.9540000000000001, -0.042, 192.0, 0.0, 0.0, 0.0, 0.0, 0.0, 0.0, 0.0, 0.0, 0.0, 1.6664044939803443E9, 0.0, 2022-10-21 19:08:13.980
0.0, -130252.242714434, -157317.54539222067, -33640.671806415536, -140414.46333103935, 68010.23399951863, -106360.3066039451, 56037.11975063322, -110975.33833686571, 0.024, 0.9540000000000001, -0.042, 192.0, 0.0, 0.0, 0.0, 0.0, 0.0, 0.0, 0.0, 0.0, 0.0, 1.6664044939803584E9, 0.0, 2022-10-21 19:08:13.980
1.0, -130252.68974932311, -157319.98173236632, -33640.42593722653, -140408.62952573653, 68012.13389779734, -106349.37660090646, 56042.08183790229, -110982.80381951378, 0.024, 0.9540000000000001, -0.042, 192.0, 0.0, 0.0, 0.0, 0.0, 0.0, 0.0, 0.0, 0.0, 0.0, 1.6664044939803717E9, 0.0, 2022-10-21 19:08:13.980
2.0, -130249.0464149769, -157320.71933993333, -33636.17910578002, -140394.52557498522, 68015.50901121009, -106319.55937380307, 56068.25573065945, -110973.23727288691, 0.024, 0.9540000000000001, -0.042, 192.0, 0.0, 0.0, 0.0, 0.0, 0.0, 0.0, 0.0, 0.0, 0.0, 1.666404493980386E9, 0.0, 2022-10-21 19:08:13.980
3.0, -130258.63531334822, -157326.12846209152, -33644.69512041749, -140414.642144995, 68001.62857790335, -106321.21340289277, 56066.735812036495, -110993.64441557461, 0.024, 0.9540000000000001, -0.042, 192.0, 0.0, 0.0, 0.0, 0.0, 0.0, 0.0, 0.0, 0.0, 0.0, 1.6664044939804003E9, 0.0, 2022-10-21 19:08:13.980
4.0, -130259.46232789307, -157327.53662199219, -33647.444384985494, -140422.06292415416, 68002.58970291492, -106324.81203375007, 56059.56090206634, -110998.74061331042, 0.02, 0.96, -0.038, 192.0, 0.0, 160.0, 30.0, 0.0, 254.0, 208.0, 0.0, 0.0, 0.0, 1.666404493980414E9, 0.0, 2022-10-21 19:08:13.980
5.0, -130257.16009821417, -157324.45208125736, -33642.482297716415, -140412.69754322738, 68012.91620885328, -106344.88390027093, 56044.47347455901, -110991.29748240681, 0.02, 0.96, -0.038, 192.0, 0.0, 0.0, 0.0, 0.0, 0.0, 0.0, 0.0, 0.0, 0.0, 1.66640449398043E9, 0.0, 2022-10-21 19:08:13.980
6.0, -130264.15619422868, -157333.01279938375, -33649.210172797466, -140405.3885227905, 68011.57510418596, -106332.65749605389, 56049.882596717194, -110994.94081675302, 0.02, 0.96, -0.038, 192.0, 0.0, 0.0, 0.0, 0.0, 0.0, 0.0, 0.0, 0.0, 0.0, 1.6664044939804437E9, 0.0, 2022-10-21 19:08:13.980
7.0, -130264.55852562888, -157333.66099997296, -33650.30540827577, -140403.82390067863, 68009.36228148488, -106317.36890284646, 56063.13718117919, -110992.83975277422, 0.02, 0.96, -0.038, 192.0, 0.0, 0.0, 0.0, 0.0, 0.0, 0.0, 0.0, 0.0, 0.0, 1.6664044939804575E9, 0.0, 2022-10-21 19:08:13.980
8.0, -130265.38554017372, -157334.06333137315, -33650.30540827577, -140411.91523217145, 68011.93273209724, -106321.70514127078, 56060.70084103356, -110983.36261312517, 0.02, 0.96, -0.038, 192.0, 0.0, 0.0, 0.0, 0.0, 0.0, 0.0, 0.0, 0.0, 0.0, 1.6664044939804778E9, 0.0, 2022-10-21 19:08:13.980
9.0, -130258.07651973683, -157327.15664233646, -33643.108146561164, -140416.36322931806, 68016.55954319949, -106335.2502984107, 56053.52593106341, -110974.8913019766, 0.02, 0.96, -0.038, 192.0, 0.0, 0.0, 0.0, 0.0, 0.0, 0.0, 0.0, 0.0, 0.0, 1.6664044939804916E9, 0.0, 2022-10-21 19:08:13.980
10.0, -130254.43318539062, -157326.03905511368, -33641.3423587492, -140406.93079315792, 68017.00657808859, -106338.49130135671, 56055.04584968637, -110977.3499938667, 0.02, 0.96, -0.038, 192.0, 0.0, 0.0, 0.0, 0.0, 0.0, 0.0, 0.0, 0.0, 0.0, 1.6664044939805048E9, 0.0, 2022-10-21 19:08:13.980
11.0, -130253.9414470126, -157326.59784872507, -33639.91184710406, -140391.10575808358, 68023.91326712529, -106318.82176623604, 56073.53074235091, -110981.68623229102, 0.02, 0.96, -0.038, 192.0, 0.0, 0.0, 0.0, 0.0, 0.0, 0.0, 0.0, 0.0, 0.0, 1.666404493980518E9, 0.0, 2022-10-21 19:08:13.980
12.0, -130263.3962349172, -157332.61046798356, -33651.020664098345, -140408.47306352534, 68014.14555479832, -106307.13180388592, 56075.81062028535, -110993.73382255243, 0.02, 0.96, -0.038, 192.0, 0.0, 0.0, 0.0, 0.0, 0.0, 0.0, 0.0, 0.0, 0.0, 1.6664044939805317E9, 0.0, 2022-10-21 19:08:13.980
