%OpenBCI Raw EEG Data
%Number of channels = 8
%Sample Rate = 250 Hz
%Board = OpenBCI_GUI$BoardCytonSerial
Sample Index, EXG Channel 0, EXG Channel 1, EXG Channel 2, EXG Channel 3, EXG Channel 4, EXG Channel 5, EXG Channel 6, EXG Channel 7, Accel Channel 0, Accel Channel 1, Accel Channel 2, Other, Other, Other, Other, Other, Other, Other, Analog Channel 0, Analog Channel 1, Analog Channel 2, Timestamp, Other, Timestamp (Formatted)
238.0, -129836.56732279866, -157134.86458478746, -33354.16714598741, -140243.1595615339, 67587.87543629116, -103354.91339622896, 55987.63298840916, -111226.23666837653, 0.0, 0.0, 0.0, 192.0, 0.0, 0.0, 0.0, 0.0, 0.0, 0.0, 0.0, 0.0, 0.0, 1.66640447058086E9, 0.0, 2022-10-21 19:07:50.580
239.0, -129831.0464419182, -157130.4389393853, -33349.60739011853, -140232.96716606227, 67593.41866891607, -103340.0941896551, 56001.781642649374, -111222.63803751922, 0.0, 0.0, 0.0, 192.0, 0.0, 0.0, 0.0, 0.0, 0.0, 0.0, 0.0, 0.0, 0.0, 1.6664044705808873E9, 0.0, 2022-10-21 19:07:50.580
240.0, -129822.10574413608, -157120.44770961377, -33348.579209873584, -140239.4044684654, 67591.54112238182, -103349.23605313731, 55994.874953612685, -111213.98791241503, 0.0, 0.0, 0.0, 192.0, 0.0, 0.0, 0.0, 0.0, 0.0, 0.0, 0.0, 0.0, 0.0, 1.6664044705809088E9, 0.0, 2022-10-21 19:07:50.580
241.0, -129821.30108133568, -157119.30777064656, -33343.013625504216, -140233.52595967366, 67600.86179981969, -103366.22337892334, 55984.77196511888, -111199.23576107452, 0.024, 0.968, -0.036000000000000004, 192.0, 0.0, 192.0, 30.0, 64.0, 254.0, 224.0, 0.0, 0.0, 0.0, 1.6664044705809293E9, 0.0, 2022-10-21 19:07:50.580
242.0, -129814.43909578791, -157110.76940426463, -33340.621988847495, -140224.5405584026, 67603.29813996532, -103341.27883211123, 56002.25102928293, -111198.18522908512, 0.024, 0.968, -0.036000000000000004, 192.0, 0.0, 0.0, 0.0, 0.0, 0.0, 0.0, 0.0, 0.0, 0.0, 1.6664044705809548E9, 0.0, 2022-10-21 19:07:50.580
243.0, -129816.27193883323, -157108.19895365226, -33338.945608013346, -140227.9380235598, 67601.19707598652, -103314.30027655367, 56022.546413248354, -111209.4505082906, 0.024, 0.968, -0.036000000000000004, 192.0, 0.0, 0.0, 0.0, 0.0, 0.0, 0.0, 0.0, 0.0, 0.0, 1.666404470580976E9, 0.0, 2022-10-21 19:07:50.580
244.0, -129803.75496193826, -157093.06682265602, -33324.79695377314, -140213.00705826367, 67618.89965759512, -103321.47518652382, 56021.98761963697, -111195.72653719503, 0.024, 0.968, -0.036000000000000004, 192.0, 0.0, 0.0, 0.0, 0.0, 0.0, 0.0, 0.0, 0.0, 0.0, 1.6664044705809972E9, 0.0, 2022-10-21 19:07:50.580
245.0, -129805.96778463935, -157092.46332555573, -33322.226503160775, -140210.41425590686, 67623.39235823065, -103324.49267202528, 56018.165471335116, -111193.53606623842, 0.024, 0.968, -0.036000000000000004, 192.0, 0.0, 0.0, 0.0, 0.0, 0.0, 0.0, 0.0, 0.0, 0.0, 1.666404470581018E9, 0.0, 2022-10-21 19:07:50.581
246.0, -129816.20488359987, -157102.56631404953, -33334.43055563338, -140233.21303525128, 67605.64507313313, -103341.72586700034, 56003.7709479059, -111203.9966826435, 0.024, 0.968, -0.036000000000000004, 192.0, 0.0, 0.0, 0.0, 0.0, 0.0, 0.0, 0.0, 0.0, 0.0, 1.6664044705810418E9, 0.0, 2022-10-21 19:07:50.581
247.0, -129809.87933991902, -157092.86565695592, -33329.89315150895, -140222.23832872373, 67611.6576923916, -103334.14862562998, 56018.03136086838, -111195.72653719503, 0.024, 0.968, -0.036000000000000004, 192.0, 0.0, 0.0, 0.0, 0.0, 0.0, 0.0, 0.0, 0.0, 0.0, 1.666404470581063E9, 0.0, 2022-10-21 19:07:50.581
248.0, -129802.4362090154, -157082.51679927311, -33320.79599151564, -140223.87000606896, 67617.960884328, -103331.55582327317, 56026.30150631684, -111184.03657484491, 0.024, 0.968, -0.036000000000000004, 192.0, 0.0, 0.0, 0.0, 0.0, 0.0, 0.0, 0.0, 0.0, 0.0, 1.6664044705810835E9, 0.0, 2022-10-21 19:07:50.581
249.0, -129791.10387457657, -157069.6198427224, -33308.68134602086, -140218.97497403325, 67630.72373041198, -103350.8453787381, 56013.739825932964, -111175.40880148516, 0.024, 0.968, -0.036000000000000004, 192.0, 0.0, 0.0, 0.0, 0.0, 0.0, 0.0, 0.0, 0.0, 0.0, 1.6664044705811045E9, 0.0, 2022-10-21 19:07:50.581
250.0, -129791.52855772122, -157067.94346188827, -33307.58611054255, -140213.54350013062, 67633.04831183533, -103346.8444164806, 56015.505613744936, -111173.0395165729, 0.024, 0.968, -0.036000000000000004, 192.0, 0.0, 0.0, 0.0, 0.0, 0.0, 0.0, 0.0, 0.0, 0.0, 1.6664044705811224E9, 0.0, 2022-10-21 19:07:50.581
251.0, -129794.61309845604, -157071.34092704547, -33309.32954661007, -140217.47740715474, 67626.54395419883, -103333.92510818543, 56025.22862258299, -111177.53221720841, 0.022, 0.96, -0.03, 192.0, 0.0, 176.0, 30.0, 0.0, 255.0, 16.0, 0.0, 0.0, 0.0, 1.6664044705811372E9, 0.0, 2022-10-21 19:07:50.581
252.0, -129803.53144449371, -157080.01340389412, -33316.97384321378, -140231.02256429466, 67617.58090467226, -103333.65688725197, 56024.580421993785, -111185.10945857877, 0.022, 0.96, -0.03, 192.0, 0.0, 0.0, 0.0, 0.0, 0.0, 0.0, 0.0, 0.0, 0.0, 1.6664044705811536E9, 0.0, 2022-10-21 19:07:50.581
253.0, -129795.55187172318, -157067.6752409548, -33308.79310474314, -140231.2907852281, 67628.98029434447, -103346.57619554714, 56019.64068646917, -111175.81113288536, 0.022, 0.96, -0.03, 192.0, 0.0, 0.0, 0.0, 0.0, 0.0, 0.0, 0.0, 0.0, 0.0, 1.6664044705813167E9, 0.0, 2022-10-21 19:07:50.581
254.0, -129790.85800538755, -157061.05912459604, -33303.696907007325, -140222.05951476807, 67634.99291360294, -103344.43042807943, 56026.815596439315, -111165.70814439157, 0.022, 0.96, -0.03, 192.0, 0.0, 0.0, 0.0, 0.0, 0.0, 0.0, 0.0, 0.0, 0.0, 1.6664044705813334E9, 0.0, 2022-10-21 19:07:50.581
255.0, -129795.37305776753, -157065.1271420869, -33308.83780823205, -140226.0381252811, 67626.23102977646, -103350.644213038, 56027.19557609506, -111170.84904561628, 0.022, 0.96, -0.03, 192.0, 0.0, 0.0, 0.0, 0.0, 0.0, 0.0, 0.0, 0.0, 0.0, 1.6664044705813487E9, 0.0, 2022-10-21 19:07:50.581
0.0, -129799.79870316968, -157069.64219446687, -33311.40825884441, -140224.07117176906, 67629.31557051129, -103341.65881176696, 56031.643573241665, -111182.98604285551, 0.022, 0.96, -0.03, 192.0, 0.0, 0.0, 0.0, 0.0, 0.0, 0.0, 0.0, 0.0, 0.0, 1.666404470581364E9, 0.0, 2022-10-21 19:07:50.581
1.0, -129800.44690375889, -157071.05035436756, -33309.083677421055, -140225.90401481438, 67632.08718682376, -103341.92703270043, 56024.06633187131, -111183.07544983334, 0.022, 0.96, -0.03, 192.0, 0.0, 0.0, 0.0, 0.0, 0.0, 0.0, 0.0, 0.0, 0.0, 1.6664044705813787E9, 0.0, 2022-10-21 19:07:50.581
2.0, -129802.81618867115, -157072.70438345725, -33311.810590244604, -140232.20720675078, 67628.75677689991, -103363.65292831098, 56007.48133748548, -111179.65563293167, 0.022, 0.96, -0.03, 192.0, 0.0, 0.0, 0.0, 0.0, 0.0, 0.0, 0.0, 0.0, 0.0, 1.6664044705813944E9, 0.0, 2022-10-21 19:07:50.581
3.0, -129803.06205786015, -157073.7325637022, -33313.62108154548, -140223.82530258005, 67629.40497748912, -103346.46443682486, 56022.546413248354, -111183.47778123354, 0.022, 0.96, -0.03, 192.0, 0.0, 0.0, 0.0, 0.0, 0.0, 0.0, 0.0, 0.0, 0.0, 1.6664044705814097E9, 0.0, 2022-10-21 19:07:50.581
4.0, -129800.20103456987, -157072.34675554596, -33316.75032576923, -140225.099352014, 67624.53229719786, -103329.99120116129, 56035.689238988074, -111182.98604285551, 0.022, 0.96, -0.03, 192.0, 0.0, 0.0, 0.0, 0.0, 0.0, 0.0, 0.0, 0.0, 0.0, 1.6664044705814288E9, 0.0, 2022-10-21 19:07:50.581
5.0, -129801.96682238184, -157074.44781952476, -33321.77946827167, -140233.72712537376, 67620.62074191817, -103357.48384684132, 56018.344285290754, -111187.16581906866, 0.026000000000000002, 0.964, -0.032, 192.0, 0.0, 208.0, 30.0, 32.0, 255.0, 0.0, 0.0, 0.0, 0.0, 1.666404470581444E9, 0.0, 2022-10-21 19:07:50.581
6.0, -129808.18060734042, -157080.75101146117, -33327.322700896584, -140242.33254698903, 67617.40209071661, -103378.13685871803, 56000.90992461562, -111196.1959238286, 0.026000000000000002, 0.964, -0.032, 192.0, 0.0, 0.0, 0.0, 0.0, 0.0, 0.0, 0.0, 0.0, 0.0, 1.6664044705814602E9, 0.0, 2022-10-21 19:07:50.581
7.0, -129796.62475545703, -157068.18933107727, -33316.97384321378, -140226.7980845926, 67627.16980304358, -103368.05622196868, 56012.4210730101, -111187.1434673242, 0.026000000000000002, 0.964, -0.032, 192.0, 0.0, 0.0, 0.0, 0.0, 0.0, 0.0, 0.0, 0.0, 0.0, 1.6664044705814753E9, 0.0, 2022-10-21 19:07:50.581
8.0, -129795.61892695654, -157068.7704764331, -33316.77267751368, -140225.9934217922, 67625.00168383142, -103346.91147171396, 56028.04494238436, -111184.75183066749, 0.026000000000000002, 0.964, -0.032, 192.0, 0.0, 0.0, 0.0, 0.0, 0.0, 0.0, 0.0, 0.0, 0.0, 1.66640447058149E9, 0.0, 2022-10-21 19:07:50.581
9.0, -129790.25450828727, -157064.00955486414, -33310.22361638828, -140228.6979828713, 67631.10371006772, -103353.32642237264, 56023.5745934933, -111181.57788295484, 0.026000000000000002, 0.964, -0.032, 192.0, 0.0, 0.0, 0.0, 0.0, 0.0, 0.0, 0.0, 0.0, 0.0, 1.666404470581505E9, 0.0, 2022-10-21 19:07:50.581
10.0, -129793.7860839112, -157068.03286886608, -33313.86695073449, -140232.76600036217, 67631.19311704554, -103370.82783828114, 56008.576572963786, -111195.61477847277, 0.026000000000000002, 0.964, -0.032, 192.0, 0.0, 0.0, 0.0, 0.0, 0.0, 0.0, 0.0, 0.0, 0.0, 1.66640447058152E9, 0.0, 2022-10-21 19:07:50.581
11.0, -129796.04361010119, -157070.3798020339, -33312.45879083381, -140227.6474508819, 67627.50507921042, -103373.46534412687, 56010.878802642685, -111189.57980746983, 0.026000000000000002, 0.964, -0.032, 192.0, 0.0, 0.0, 0.0, 0.0, 0.0, 0.0, 0.0, 0.0, 0.0, 1.666404470581535E9, 0.0, 2022-10-21 19:07:50.581
12.0, -129793.94254612239, -157069.2175113222, -33309.933043710356, -140215.33163968704, 67628.9132391111, -103358.28850964172, 56024.33455280478, -111187.05406034637, 0.026000000000000002, 0.964, -0.032, 192.0, 0.0, 0.0, 0.0, 0.0, 0.0, 0.0, 0.0, 0.0, 0.0, 1.6664044705815501E9, 0.0, 2022-10-21 19:07:50.581
13.0, -129788.66753443093, -157063.83074090848, -33305.82032273058, -140215.80102632058, 67631.28252402337, -103359.83078000913, 56022.9263929041, -111180.77322015444, 0.026000000000000002, 0.964, -0.032, 192.0, 0.0, 0.0, 0.0, 0.0, 0.0, 0.0, 0.0, 0.0, 0.0, 1.6664044705816119E9, 0.0, 2022-10-21 19:07:50.581
14.0, -129798.52465373573, -157075.34188930297, -33310.44713383283, -140236.38698296392, 67620.48663145145, -103374.8511522831, 56005.38027350668, -111190.36211852577, 0.028, 0.96, -0.032, 192.0, 0.0, 224.0, 30.0, 0.0, 255.0, 0.0, 0.0, 0.0, 0.0, 1.666404470581627E9, 0.0, 2022-10-21 19:07:50.581
15.0, -129797.27295604623, -157076.59358699247, -33307.72022100928, -140224.13822700243, 67624.68875940905, -103360.36722187606, 56014.723302688995, -111190.71974643705, 0.028, 0.96, -0.032, 192.0, 0.0, 0.0, 0.0, 0.0, 0.0, 0.0, 0.0, 0.0, 0.0, 1.666404470581643E9, 0.0, 2022-10-21 19:07:50.581
16.0, -129795.44011300089, -157077.15238060386, -33311.40825884441, -140228.8991485714, 67616.6644831496, -103352.92409097245, 56022.479358014985, -111196.06181336187, 0.028, 0.96, -0.032, 192.0, 0.0, 0.0, 0.0, 0.0, 0.0, 0.0, 0.0, 0.0, 0.0, 1.6664044705816581E9, 0.0, 2022-10-21 19:07:50.581
17.0, -129796.9823833683, -157081.44391553928, -33312.97288095628, -140236.4987416862, 67612.37294821418, -103360.23311140932, 56018.47839575749, -111200.50981050848, 0.028, 0.96, -0.032, 192.0, 0.0, 0.0, 0.0, 0.0, 0.0, 0.0, 0.0, 0.0, 0.0, 1.6664044705816734E9, 0.0, 2022-10-21 19:07:50.581
18.0, -129794.07665658912, -157078.13585735988, -33309.73187801026, -140240.67851789936, 67613.37877671466, -103371.56544584817, 56008.50951773042, -111193.60312147178, 0.028, 0.96, -0.032, 192.0, 0.0, 0.0, 0.0, 0.0, 0.0, 0.0, 0.0, 0.0, 0.0, 1.666404470581689E9, 0.0, 2022-10-21 19:07:50.581
19.0, -129789.85217688707, -157073.93372940228, -33305.462694819296, -140233.57066316257, 67615.34573022673, -103381.08728898613, 56003.61448569471, -111186.8975981352, 0.028, 0.96, -0.032, 192.0, 0.0, 0.0, 0.0, 0.0, 0.0, 0.0, 0.0, 0.0, 0.0, 1.666404470581704E9, 0.0, 2022-10-21 19:07:50.581
20.0, -129786.54411870768, -157067.65288921035, -33297.10314239301, -140218.32677344405, 67622.7665093859, -103371.72190805935, 56017.00318062344, -111186.56232196836, 0.028, 0.96, -0.032, 192.0, 0.0, 0.0, 0.0, 0.0, 0.0, 0.0, 0.0, 0.0, 0.0, 1.666404470581719E9, 0.0, 2022-10-21 19:07:50.581
21.0, -129784.97949659581, -157064.3224792865, -33293.571566769075, -140221.03133452314, 67621.7606808854, -103378.15921046249, 56015.79618642285, -111188.50692373597, 0.028, 0.96, -0.032, 192.0, 0.0, 0.0, 0.0, 0.0, 0.0, 0.0, 0.0, 0.0, 0.0, 1.666404470581734E9, 0.0, 2022-10-21 19:07:50.581
22.0, -129789.96393560934, -157066.9152816433, -33294.86796794748, -140231.7378201172, 67623.37000648618, -103383.12129773156, 56009.35888401972, -111186.56232196836, 0.028, 0.96, -0.032, 192.0, 0.0, 0.0, 0.0, 0.0, 0.0, 0.0, 0.0, 0.0, 0.0, 1.666404470581749E9, 0.0, 2022-10-21 19:07:50.581
23.0, -129792.48968273279, -157067.20585432125, -33293.236290602246, -140220.7407618452, 67631.93072461257, -103368.25738766878, 56015.95264863404, -111183.2989672779, 0.028, 0.96, -0.032, 192.0, 0.0, 0.0, 0.0, 0.0, 0.0, 0.0, 0.0, 0.0, 0.0, 1.6664044705817637E9, 0.0, 2022-10-21 19:07:50.581
24.0, -129793.87549088903, -157069.35162178896, -33297.483122048754, -140212.09063674102, 67626.74511989893, -103349.28075662622, 56025.56389874982, -111185.4447347456, 0.014, 0.96, -0.028, 192.0, 0.0, 112.0, 30.0, 0.0, 255.0, 32.0, 0.0, 0.0, 0.0, 1.666404470581779E9, 0.0, 2022-10-21 19:07:50.581
25.0, -129803.84436891609, -157080.66160448332, -33308.43547683185, -140234.5541399186, 67611.76945111388, -103354.42165785095, 56020.244183569455, -111199.90631340818, 0.014, 0.96, -0.028, 192.0, 0.0, 0.0, 0.0, 0.0, 0.0, 0.0, 0.0, 0.0, 0.0, 1.6664044705817966E9, 0.0, 2022-10-21 19:07:50.581
26.0, -129803.17381658244, -157080.59454924997, -33306.7590959977, -140234.50943642968, 67617.02211106087, -103379.2991494297, 56003.815651394805, -111193.42430751614, 0.014, 0.96, -0.028, 192.0, 0.0, 0.0, 0.0, 0.0, 0.0, 0.0, 0.0, 0.0, 0.0, 1.666404470581812E9, 0.0, 2022-10-21 19:07:50.581
27.0, -129805.31958405014, -157083.34381381798, -33306.155598897414, -140230.0390875386, 67619.03376806185, -103382.56250412019, 56000.14996530414, -111192.21731331556, 0.014, 0.96, -0.028, 192.0, 0.0, 0.0, 0.0, 0.0, 0.0, 0.0, 0.0, 0.0, 0.0, 1.666404470581827E9, 0.0, 2022-10-21 19:07:50.581
28.0, -129806.32541255062, -157085.0201946521, -33306.13324715295, -140226.06047702557, 67616.44096570504, -103372.9512540044, 56007.97307586349, -111194.16191508317, 0.014, 0.96, -0.028, 192.0, 0.0, 0.0, 0.0, 0.0, 0.0, 0.0, 0.0, 0.0, 0.0, 1.6664044705818577E9, 0.0, 2022-10-21 19:07:50.581
29.0, -129802.21269157085, -157078.582892249, -33303.33927909604, -140217.07507575455, 67620.28546575135, -103355.53924507371, 56026.97205865051, -111190.22800805903, 0.014, 0.96, -0.028, 192.0, 0.0, 0.0, 0.0, 0.0, 0.0, 0.0, 0.0, 0.0, 0.0, 1.6664044705818727E9, 0.0, 2022-10-21 19:07:50.581
30.0, -129803.643203216, -157079.36520330491, -33303.138113395944, -140229.05561078258, 67619.27963725086, -103367.87740801304, 56018.3219335463, -111192.06085110437, 0.014, 0.96, -0.028, 192.0, 0.0, 0.0, 0.0, 0.0, 0.0, 0.0, 0.0, 0.0, 0.0, 1.6664044705819E9, 0.0, 2022-10-21 19:07:50.581
31.0, -129805.52074975024, -157081.28745332808, -33301.886415706445, -140227.11100901497, 67625.49342220943, -103384.90943728799, 56003.79329965035, -111190.36211852577, 0.014, 0.96, -0.028, 192.0, 0.0, 0.0, 0.0, 0.0, 0.0, 0.0, 0.0, 0.0, 0.0, 1.6664044705819423E9, 0.0, 2022-10-21 19:07:50.581
32.0, -129808.22531082932, -157083.1873516068, -33308.70369776532, -140226.10518051448, 67618.34086398374, -103374.67233832745, 56009.202421808535, -111199.61574073027, 0.014, 0.96, -0.028, 192.0, 0.0, 0.0, 0.0, 0.0, 0.0, 0.0, 0.0, 0.0, 0.0, 1.6664044705819843E9, 0.0, 2022-10-21 19:07:50.581
33.0, -129809.36524979655, -157082.3826888064, -33317.622043802985, -140233.3918492069, 67607.50026792292, -103361.77538177674, 56015.79618642285, -111209.00347340149, 0.014, 0.96, -0.028, 192.0, 0.0, 0.0, 0.0, 0.0, 0.0, 0.0, 0.0, 0.0, 0.0, 1.666404470582027E9, 0.0, 2022-10-21 19:07:50.582
34.0, -129805.31958405014, -157074.80544743603, -33306.78144774216, -140228.56387240457, 67622.45358496351, -103380.93082677494, 56009.02360785289, -111193.51371449397, 0.016, 0.9580000000000001, -0.03, 192.0, 0.0, 128.0, 29.0, 240.0, 255.0, 16.0, 0.0, 0.0, 0.0, 1.6664044705820732E9, 0.0, 2022-10-21 19:07:50.582
35.0, -129813.27680507622, -157082.56150276202, -33304.59097678554, -140225.65814562538, 67630.07552982277, -103382.36133842009, 56007.07900608528, -111189.57980746983, 0.016, 0.9580000000000001, -0.03, 192.0, 0.0, 0.0, 0.0, 0.0, 0.0, 0.0, 0.0, 0.0, 0.0, 1.6664044705821183E9, 0.0, 2022-10-21 19:07:50.582
36.0, -129815.42257254393, -157084.79667720757, -33298.22072961578, -140218.50558739968, 67632.22129729048, -103388.150440234, 56007.727206674484, -111183.56718821135, 0.016, 0.9580000000000001, -0.03, 192.0, 0.0, 0.0, 0.0, 0.0, 0.0, 0.0, 0.0, 0.0, 0.0, 1.6664044705821466E9, 0.0, 2022-10-21 19:07:50.582
37.0, -129825.05617440418, -157096.30782560204, -33310.93887221085, -140226.2392909812, 67623.74998614192, -103367.34096614612, 56022.70287545954, -111194.13956333871, 0.016, 0.9580000000000001, -0.03, 192.0, 0.0, 0.0, 0.0, 0.0, 0.0, 0.0, 0.0, 0.0, 0.0, 1.6664044705821617E9, 0.0, 2022-10-21 19:07:50.582
38.0, -129818.64122374551, -157087.65770049783, -33317.04089844714, -140243.91952084537, 67614.2057912595, -103387.52459138926, 56008.73303517498, -111199.90631340818, 0.016, 0.9580000000000001, -0.03, 192.0, 0.0, 0.0, 0.0, 0.0, 0.0, 0.0, 0.0, 0.0, 0.0, 1.6664044705821764E9, 0.0, 2022-10-21 19:07:50.582
39.0, -129809.07467711862, -157078.0240986376, -33306.40146808642, -140242.57841617806, 67620.79955587382, -103416.20187952541, 55995.67961641307, -111188.10459233577, 0.016, 0.9580000000000001, -0.03, 192.0, 0.0, 0.0, 0.0, 0.0, 0.0, 0.0, 0.0, 0.0, 0.0, 1.6664044705822022E9, 0.0, 2022-10-21 19:07:50.582
40.0, -129814.14852310998, -157083.6343864959, -33303.33927909604, -140233.32479397356, 67627.28156176586, -103394.0065972813, 56016.243221311954, -111183.32131902235, 0.016, 0.9580000000000001, -0.03, 192.0, 0.0, 0.0, 0.0, 0.0, 0.0, 0.0, 0.0, 0.0, 0.0, 1.6664044705822437E9, 0.0, 2022-10-21 19:07:50.582
41.0, -129813.43326728742, -157082.29328182858, -33299.49477904973, -140227.66980262636, 67627.8627071217, -103385.28941694372, 56027.173224350605, -111183.36602251125, 0.016, 0.9580000000000001, -0.03, 192.0, 0.0, 0.0, 0.0, 0.0, 0.0, 0.0, 0.0, 0.0, 0.0, 1.6664044705822845E9, 0.0, 2022-10-21 19:07:50.582
42.0, -129815.84725568858, -157083.36616556242, -33300.81353197259, -140228.16154100437, 67629.06970132228, -103377.75687906229, 56031.576518008296, -111188.66338594716, 0.016, 0.9580000000000001, -0.03, 192.0, 0.0, 0.0, 0.0, 0.0, 0.0, 0.0, 0.0, 0.0, 0.0, 1.666404470582327E9, 0.0, 2022-10-21 19:07:50.582
43.0, -129822.15044762498, -157089.11056388743, -33308.16725589839, -140248.38986973642, 67618.67614015056, -103396.80056533821, 56012.778700921386, -111198.34169129631, 0.016, 0.9580000000000001, -0.03, 192.0, 0.0, 0.0, 0.0, 0.0, 0.0, 0.0, 0.0, 0.0, 0.0, 1.666404470582477E9, 0.0, 2022-10-21 19:07:50.582
44.0, -129824.87736044853, -157091.21162786623, -33313.62108154548, -140248.92631160337, 67615.0551575488, -103419.55464119371, 55996.37252049119, -111205.33778731083, 0.022, 0.96, -0.026000000000000002, 192.0, 0.0, 176.0, 30.0, 0.0, 255.0, 48.0, 0.0, 0.0, 0.0, 1.6664044705825186E9, 0.0, 2022-10-21 19:07:50.582
45.0, -129825.90554069348, -157091.7257179887, -33314.00106120123, -140238.8903783429, 67617.5138494389, -103386.29524544421, 56019.86420391372, -111204.46606927707, 0.022, 0.96, -0.026000000000000002, 192.0, 0.0, 0.0, 0.0, 0.0, 0.0, 0.0, 0.0, 0.0, 0.0, 1.666404470582564E9, 0.0, 2022-10-21 19:07:50.582
46.0, -129825.68202324893, -157087.90356968684, -33314.3139856236, -140245.7076604018, 67613.78110811485, -103379.27679768525, 56023.70870396003, -111205.09191812182, 0.022, 0.96, -0.026000000000000002, 192.0, 0.0, 0.0, 0.0, 0.0, 0.0, 0.0, 0.0, 0.0, 0.0, 1.6664044705825942E9, 0.0, 2022-10-21 19:07:50.582
47.0, -129811.86864517555, -157073.82197068, -33299.986517427744, -140236.36463121948, 67630.09788156723, -103405.22717299785, 56010.096491586744, -111183.47778123354, 0.022, 0.96, -0.026000000000000002, 192.0, 0.0, 0.0, 0.0, 0.0, 0.0, 0.0, 0.0, 0.0, 0.0, 1.6664044705826101E9, 0.0, 2022-10-21 19:07:50.582
48.0, -129810.28167131922, -157071.45268576776, -33299.04774416063, -140223.31121245757, 67635.4623002365, -103404.98130380885, 56011.07996834278, -111182.65076668869, 0.022, 0.96, -0.026000000000000002, 192.0, 0.0, 0.0, 0.0, 0.0, 0.0, 0.0, 0.0, 0.0, 0.0, 1.6664044705826254E9, 0.0, 2022-10-21 19:07:50.582
49.0, -129811.42161028643, -157074.40311603586, -33300.65706976141, -140219.31025020007, 67628.35444549972, -103396.50999266029, 56021.83115742578, -111184.90829287867, 0.022, 0.96, -0.026000000000000002, 192.0, 0.0, 0.0, 0.0, 0.0, 0.0, 0.0, 0.0, 0.0, 0.0, 1.6664044705826418E9, 0.0, 2022-10-21 19:07:50.582
50.0, -129817.50128477828, -157078.35937480442, -33304.14394189644, -140214.37051467545, 67631.79661414583, -103377.8462860401, 56035.44336979907, -111196.71001395107, 0.022, 0.96, -0.026000000000000002, 192.0, 0.0, 0.0, 0.0, 0.0, 0.0, 0.0, 0.0, 0.0, 0.0, 1.6664044705826569E9, 0.0, 2022-10-21 19:07:50.582
51.0, -129822.03868890271, -157081.64508123937, -33309.64247103244, -140235.2470439967, 67625.73929139845, -103386.0046727663, 56025.206270838535, -111196.68766220662, 0.022, 0.96, -0.026000000000000002, 192.0, 0.0, 0.0, 0.0, 0.0, 0.0, 0.0, 0.0, 0.0, 0.0, 1.666404470582672E9, 0.0, 2022-10-21 19:07:50.582
52.0, -129822.23985460281, -157081.06393588352, -33310.60359604402, -140240.18677952132, 67620.82190761827, -103400.98034155135, 56013.33749453277, -111196.39708952869, 0.022, 0.96, -0.026000000000000002, 192.0, 0.0, 0.0, 0.0, 0.0, 0.0, 0.0, 0.0, 0.0, 0.0, 1.6664044705826876E9, 0.0, 2022-10-21 19:07:50.582
53.0, -129823.2903865922, -157080.41573529431, -33311.72118326678, -140229.3014799716, 67617.5138494389, -103396.33117870466, 56019.28305855788, -111189.8927318922, 0.02, 0.9560000000000001, -0.03, 192.0, 0.0, 160.0, 29.0, 224.0, 255.0, 16.0, 0.0, 0.0, 0.0, 1.6664044705827029E9, 0.0, 2022-10-21 19:07:50.582
54.0, -129820.00468015728, -157078.7170027157, -33308.524883809674, -140226.37340144796, 67617.60325641671, -103387.68105360045, 56031.10713137474, -111186.60702545727, 0.02, 0.9560000000000001, -0.03, 192.0, 0.0, 0.0, 0.0, 0.0, 0.0, 0.0, 0.0, 0.0, 0.0, 1.666404470582719E9, 0.0, 2022-10-21 19:07:50.582
55.0, -129821.23402610232, -157082.85207543994, -33306.80379948662, -140232.02839279515, 67617.960884328, -103392.50903040278, 56028.31316331782, -111193.35725228277, 0.02, 0.9560000000000001, -0.03, 192.0, 0.0, 0.0, 0.0, 0.0, 0.0, 0.0, 0.0, 0.0, 0.0, 1.6664044705827343E9, 0.0, 2022-10-21 19:07:50.582
56.0, -129824.49738079279, -157083.94731091827, -33310.268319877185, -140230.6872881278, 67615.09986103771, -103415.39721672502, 56015.79618642285, -111195.12304009474, 0.02, 0.9560000000000001, -0.03, 192.0, 0.0, 0.0, 0.0, 0.0, 0.0, 0.0, 0.0, 0.0, 0.0, 1.6664044705827496E9, 0.0, 2022-10-21 19:07:50.582
57.0, -129826.46433430485, -157088.26119759813, -33311.78823850015, -140223.57943339105, 67617.42444246107, -103411.21744051189, 56027.06146562833, -111192.48553424902, 0.02, 0.9560000000000001, -0.03, 192.0, 0.0, 0.0, 0.0, 0.0, 0.0, 0.0, 0.0, 0.0, 0.0, 1.6664044705827663E9, 0.0, 2022-10-21 19:07:50.582
58.0, -129828.63245351703, -157091.90453194434, -33315.520979824185, -140222.23832872373, 67616.03863430484, -103398.92398106147, 56037.41032331113, -111201.42623203114, 0.02, 0.9560000000000001, -0.03, 192.0, 0.0, 0.0, 0.0, 0.0, 0.0, 0.0, 0.0, 0.0, 0.0, 1.666404470582825E9, 0.0, 2022-10-21 19:07:50.582
59.0, -129819.57999701262, -157080.21456959422, -33307.004965186716, -140215.93513678733, 67625.02403557587, -103395.28064671525, 56042.551224535855, -111186.20469405707, 0.02, 0.9560000000000001, -0.03, 192.0, 0.0, 0.0, 0.0, 0.0, 0.0, 0.0, 0.0, 0.0, 0.0, 1.66640447058284E9, 0.0, 2022-10-21 19:07:50.582
60.0, -129821.83752320262, -157082.11446787292, -33311.14003791095, -140234.08475328502, 67614.45166044851, -103417.72179814837, 56023.23931732647, -111186.38350801272, 0.02, 0.9560000000000001, -0.03, 192.0, 0.0, 0.0, 0.0, 0.0, 0.0, 0.0, 0.0, 0.0, 0.0, 1.6664044705828545E9, 0.0, 2022-10-21 19:07:50.582
61.0, -129826.30787209368, -157085.7801539636, -33316.45975309131, -140239.13624753192, 67607.455564434, -103411.84328935664, 56024.915698160614, -111193.82663891633, 0.02, 0.9560000000000001, -0.03, 192.0, 0.0, 0.0, 0.0, 0.0, 0.0, 0.0, 0.0, 0.0, 0.0, 1.6664044705828688E9, 0.0, 2022-10-21 19:07:50.582
62.0, -129830.39824132899, -157093.46915405622, -33320.95245372682, -140237.0575352976, 67603.92398881007, -103396.53234440474, 56035.89040468817, -111202.92379890964, 0.02, 0.9560000000000001, -0.03, 192.0, 0.0, 0.0, 0.0, 0.0, 0.0, 0.0, 0.0, 0.0, 0.0, 1.6664044705828834E9, 0.0, 2022-10-21 19:07:50.582
63.0, -129830.55470354018, -157092.575084278, -33321.73476478276, -140240.7008696438, 67604.88511382164, -103409.36224572209, 56027.75436970644, -111203.9966826435, 0.012, 0.96, -0.03, 192.0, 0.0, 96.0, 30.0, 0.0, 255.0, 16.0, 0.0, 0.0, 0.0, 1.666404470582898E9, 0.0, 2022-10-21 19:07:50.582
64.0, -129821.63635750252, -157082.4720957842, -33309.17308439888, -140232.5424829176, 67622.6100471747, -103416.06776905869, 56025.78741619438, -111191.81498191536, 0.012, 0.96, -0.03, 192.0, 0.0, 0.0, 0.0, 0.0, 0.0, 0.0, 0.0, 0.0, 0.0, 1.6664044705829132E9, 0.0, 2022-10-21 19:07:50.582
65.0, -129821.07756389113, -157083.36616556242, -33307.206130886814, -140222.77477059065, 67624.59935243122, -103409.02696955526, 56031.487111030474, -111191.47970574853, 0.012, 0.96, -0.03, 192.0, 0.0, 0.0, 0.0, 0.0, 0.0, 0.0, 0.0, 0.0, 0.0, 1.6664044705829277E9, 0.0, 2022-10-21 19:07:50.582
66.0, -129824.67619474843, -157087.79181096458, -33312.07881117807, -140218.88556705543, 67620.97836982946, -103399.84040258413, 56038.99729716746, -111197.33586279582, 0.012, 0.96, -0.03, 192.0, 0.0, 0.0, 0.0, 0.0, 0.0, 0.0, 0.0, 0.0, 0.0, 1.666404470582942E9, 0.0, 2022-10-21 19:07:50.582
67.0, -129826.0396511602, -157089.19997086524, -33314.045764690134, -140226.17223574786, 67622.5653436858, -103393.51485890328, 56042.551224535855, -111193.55841798287, 0.012, 0.96, -0.03, 192.0, 0.0, 0.0, 0.0, 0.0, 0.0, 0.0, 0.0, 0.0, 0.0, 1.6664044705829566E9, 0.0, 2022-10-21 19:07:50.582
68.0, -129831.33701459611, -157093.02211916712, -33318.87374149248, -140239.91855858787, 67615.8598203492, -103403.21551599688, 56028.96136390703, -111200.8450866753, 0.012, 0.96, -0.03, 192.0, 0.0, 0.0, 0.0, 0.0, 0.0, 0.0, 0.0, 0.0, 0.0, 1.6664044705829728E9, 0.0, 2022-10-21 19:07:50.582
69.0, -129823.53625578122, -157085.0201946521, -33311.54236931114, -140232.36366896197, 67620.84425936273, -103408.13289977705, 56027.106169117236, -111191.45735400407, 0.012, 0.96, -0.03, 192.0, 0.0, 0.0, 0.0, 0.0, 0.0, 0.0, 0.0, 0.0, 0.0, 1.6664044705829873E9, 0.0, 2022-10-21 19:07:50.582
70.0, -129815.33316556612, -157078.04645038207, -33302.69107850684, -140207.62028784995, 67629.91906761158, -103383.68009134295, 56049.63672752819, -111182.76252541096, 0.012, 0.96, -0.03, 192.0, 0.0, 0.0, 0.0, 0.0, 0.0, 0.0, 0.0, 0.0, 0.0, 1.6664044705830019E9, 0.0, 2022-10-21 19:07:50.583
71.0, -129816.40604929997, -157078.1805608488, -33308.63664253195, -140213.90112804188, 67623.97350358647, -103388.21749546737, 56048.697954261064, -111186.4505632461, 0.012, 0.96, -0.03, 192.0, 0.0, 0.0, 0.0, 0.0, 0.0, 0.0, 0.0, 0.0, 0.0, 1.666404470583016E9, 0.0, 2022-10-21 19:07:50.583
72.0, -129822.642186003, -157083.90260742934, -33316.415049602394, -140231.17902650585, 67620.19605877352, -103411.59742016763, 56031.19653835256, -111186.33880452381, 0.012, 0.96, -0.03, 192.0, 0.0, 0.0, 0.0, 0.0, 0.0, 0.0, 0.0, 0.0, 0.0, 1.6664044705830317E9, 0.0, 2022-10-21 19:07:50.583
73.0, -129827.85014246109, -157088.81999120952, -33321.13126768247, -140227.80391309308, 67620.28546575135, -103407.39529221003, 56029.85543368524, -111194.13956333871, 0.014, 0.96, -0.034, 192.0, 0.0, 112.0, 30.0, 0.0, 254.0, 240.0, 0.0, 0.0, 0.0, 1.666404470583062E9, 0.0, 2022-10-21 19:07:50.583
74.0, -129829.32535759514, -157090.8763516994, -33322.04768920514, -140225.81460783657, 67612.41765170309, -103406.47887068735, 56032.627049997696, -111199.23576107452, 0.014, 0.96, -0.034, 192.0, 0.0, 0.0, 0.0, 0.0, 0.0, 0.0, 0.0, 0.0, 0.0, 1.666404470583077E9, 0.0, 2022-10-21 19:07:50.583
75.0, -129834.8462384756, -157094.81025872353, -33319.87956999297, -140219.95845078927, 67615.21161976, -103398.18637349443, 56044.786398981385, -111202.9461506541, 0.014, 0.96, -0.034, 192.0, 0.0, 0.0, 0.0, 0.0, 0.0, 0.0, 0.0, 0.0, 0.0, 1.6664044705830915E9, 0.0, 2022-10-21 19:07:50.583
76.0, -129830.4429448179, -157087.9259214313, -33313.01758444519, -140222.05951476807, 67622.02890181886, -103415.73249289185, 56038.57261402281, -111196.48649650652, 0.014, 0.96, -0.034, 192.0, 0.0, 0.0, 0.0, 0.0, 0.0, 0.0, 0.0, 0.0, 0.0, 1.6664044705831056E9, 0.0, 2022-10-21 19:07:50.583
77.0, -129831.20290412939, -157086.74127897518, -33313.33050886756, -140224.92053805836, 67624.57700068677, -103426.19310929693, 56029.18488135158, -111195.99475812851, 0.014, 0.96, -0.034, 192.0, 0.0, 0.0, 0.0, 0.0, 0.0, 0.0, 0.0, 0.0, 0.0, 1.66640447058312E9, 0.0, 2022-10-21 19:07:50.583
78.0, -129835.18151464243, -157091.1222208884, -33312.34703211153, -140221.81364557907, 67626.67806466557, -103421.78981563925, 56034.795169209865, -111192.75375518248, 0.014, 0.96, -0.034, 192.0, 0.0, 0.0, 0.0, 0.0, 0.0, 0.0, 0.0, 0.0, 0.0, 1.6664044705831344E9, 0.0, 2022-10-21 19:07:50.583
79.0, -129838.10959316607, -157092.4409738113, -33314.58220655706, -140219.51141590017, 67627.08039606576, -103403.5060886748, 56047.580367038296, -111191.32324353735, 0.014, 0.96, -0.034, 192.0, 0.0, 0.0, 0.0, 0.0, 0.0, 0.0, 0.0, 0.0, 0.0, 1.6664044705831487E9, 0.0, 2022-10-21 19:07:50.583
80.0, -129838.75779375527, -157093.35739533394, -33316.25858739121, -140228.16154100437, 67626.27573326537, -103414.88312660255, 56036.6280122552, -111190.96561562606, 0.014, 0.96, -0.034, 192.0, 0.0, 0.0, 0.0, 0.0, 0.0, 0.0, 0.0, 0.0, 0.0, 1.6664044705831633E9, 0.0, 2022-10-21 19:07:50.583
81.0, -129847.29616013721, -157106.96960770723, -33319.34312812604, -140233.68242188485, 67620.3078174958, -103427.82478664217, 56023.55224174884, -111201.62739773124, 0.014, 0.96, -0.034, 192.0, 0.0, 0.0, 0.0, 0.0, 0.0, 0.0, 0.0, 0.0, 0.0, 1.6664044705831773E9, 0.0, 2022-10-21 19:07:50.583
82.0, -129853.57700032914, -157112.06580544304, -33316.146828668934, -140233.25773874018, 67618.13969828364, -103422.19214703944, 56027.53085226189, -111198.27463606294, 0.018000000000000002, 0.96, -0.03, 192.0, 0.0, 144.0, 30.0, 0.0, 255.0, 16.0, 0.0, 0.0, 0.0, 1.6664044705831916E9, 0.0, 2022-10-21 19:07:50.583
83.0, -129870.56432611519, -157128.7849102956, -33320.68423279336, -140232.36366896197, 67613.40112845911, -103406.12124277608, 56040.450160557055, -111200.12983085273, 0.018000000000000002, 0.96, -0.03, 192.0, 0.0, 0.0, 0.0, 0.0, 0.0, 0.0, 0.0, 0.0, 0.0, 1.666404470583207E9, 0.0, 2022-10-21 19:07:50.583
84.0, -129876.57694537366, -157134.70812257627, -33315.87860773547, -140228.40741019338, 67623.6158756752, -103405.8530218426, 56042.50652104694, -111195.95005463959, 0.018000000000000002, 0.96, -0.03, 192.0, 0.0, 0.0, 0.0, 0.0, 0.0, 0.0, 0.0, 0.0, 0.0, 1.6664044705832212E9, 0.0, 2022-10-21 19:07:50.583
85.0, -129894.4583409379, -157154.9364513083, -33321.15361942692, -140234.37532596296, 67622.25241926342, -103430.73051342137, 56021.719398703506, -111201.13565935323, 0.018000000000000002, 0.96, -0.03, 192.0, 0.0, 0.0, 0.0, 0.0, 0.0, 0.0, 0.0, 0.0, 0.0, 1.6664044705832353E9, 0.0, 2022-10-21 19:07:50.583
86.0, -129923.13562907407, -157187.41353600187, -33333.31296841061, -140232.87775908445, 67617.37973897216, -103435.17851056797, 56017.472567257, -111212.42329030315, 0.018000000000000002, 0.96, -0.03, 192.0, 0.0, 0.0, 0.0, 0.0, 0.0, 0.0, 0.0, 0.0, 0.0, 1.6664044705832493E9, 0.0, 2022-10-21 19:07:50.583
87.0, -129938.08894611466, -157204.1549925989, -33334.20703818882, -140227.06630552607, 67617.62560816116, -103397.31465546068, 56042.3277070913, -111213.13854612573, 0.018000000000000002, 0.96, -0.03, 192.0, 0.0, 0.0, 0.0, 0.0, 0.0, 0.0, 0.0, 0.0, 0.0, 1.6664044705832636E9, 0.0, 2022-10-21 19:07:50.583
88.0, -129951.00825440983, -157216.09082413802, -33335.88341902297, -140237.68338414232, 67614.5634191708, -103396.68880661593, 56043.55705303634, -111208.35527281229, 0.018000000000000002, 0.96, -0.03, 192.0, 0.0, 0.0, 0.0, 0.0, 0.0, 0.0, 0.0, 0.0, 0.0, 1.6664044705832913E9, 0.0, 2022-10-21 19:07:50.583
89.0, -129960.68655975898, -157225.92559169838, -33336.59867484554, -140244.8582941125, 67612.41765170309, -103426.17075755248, 56024.17809059359, -111212.87032519226, 0.018000000000000002, 0.96, -0.03, 192.0, 0.0, 0.0, 0.0, 0.0, 0.0, 0.0, 0.0, 0.0, 0.0, 1.6664044705833073E9, 0.0, 2022-10-21 19:07:50.583
90.0, -129967.43678658448, -157234.03927493564, -33336.777488801185, -140238.5551021761, 67615.52454418236, -103434.03857160074, 56020.46770101401, -111212.46799379206, 0.018000000000000002, 0.96, -0.03, 192.0, 0.0, 0.0, 0.0, 0.0, 0.0, 0.0, 0.0, 0.0, 0.0, 1.666404470583321E9, 0.0, 2022-10-21 19:07:50.583
91.0, -129979.35026637916, -157246.10921694152, -33341.78427955917, -140237.0575352976, 67612.86468659219, -103415.73249289185, 56037.56678552232, -111208.10940362328, 0.018000000000000002, 0.96, -0.03, 192.0, 0.0, 0.0, 0.0, 0.0, 0.0, 0.0, 0.0, 0.0, 0.0, 1.6664044705833356E9, 0.0, 2022-10-21 19:07:50.583
92.0, -129987.59806008317, -157254.60287983454, -33349.60739011853, -140248.3451662475, 67604.84041033273, -103410.09985328911, 56041.992430924474, -111209.8528396908, 0.02, 0.9520000000000001, -0.026000000000000002, 192.0, 0.0, 160.0, 29.0, 192.0, 255.0, 48.0, 0.0, 0.0, 0.0, 1.66640447058335E9, 0.0, 2022-10-21 19:07:50.583
93.0, -129985.92167924902, -157253.73116180077, -33349.60739011853, -140254.49189597272, 67604.25926497689, -103418.28059175976, 56034.437541298576, -111210.7022059801, 0.02, 0.9520000000000001, -0.026000000000000002, 192.0, 0.0, 0.0, 0.0, 0.0, 0.0, 0.0, 0.0, 0.0, 0.0, 1.6664044705833654E9, 0.0, 2022-10-21 19:07:50.583
94.0, -129976.3774843666, -157243.22584190677, -33329.37906138648, -140226.9992502927, 67624.15231754212, -103430.43994074344, 56034.169320365116, -111193.91604589416, 0.02, 0.9520000000000001, -0.026000000000000002, 192.0, 0.0, 0.0, 0.0, 0.0, 0.0, 0.0, 0.0, 0.0, 0.0, 1.6664044705833795E9, 0.0, 2022-10-21 19:07:50.583
95.0, -129984.35705713715, -157252.09948445554, -33335.12345971149, -140226.37340144796, 67620.710148896, -103422.8179958842, 56041.992430924474, -111200.12983085273, 0.02, 0.9520000000000001, -0.026000000000000002, 192.0, 0.0, 0.0, 0.0, 0.0, 0.0, 0.0, 0.0, 0.0, 0.0, 1.666404470583394E9, 0.0, 2022-10-21 19:07:50.583
96.0, -129993.6330310861, -157256.68159206887, -33349.02624476269, -140247.4510964693, 67607.12028826718, -103418.07942605966, 56043.89232920317, -111210.52339202445, 0.02, 0.9520000000000001, -0.026000000000000002, 192.0, 0.0, 0.0, 0.0, 0.0, 0.0, 0.0, 0.0, 0.0, 0.0, 1.666404470583408E9, 0.0, 2022-10-21 19:07:50.583
97.0, -129992.20251944097, -157253.35118214504, -33351.50728839723, -140257.9117128744, 67604.88511382164, -103416.93948709244, 56039.24316635647, -111216.29014209392, 0.02, 0.9520000000000001, -0.026000000000000002, 192.0, 0.0, 0.0, 0.0, 0.0, 0.0, 0.0, 0.0, 0.0, 0.0, 1.6664044705834224E9, 0.0, 2022-10-21 19:07:50.583
98.0, -129980.40079836856, -157240.18600466085, -33339.66086383592, -140250.7591546487, 67612.12707902516, -103433.79270241174, 56028.96136390703, -111206.03069138894, 0.02, 0.9520000000000001, -0.026000000000000002, 192.0, 0.0, 0.0, 0.0, 0.0, 0.0, 0.0, 0.0, 0.0, 0.0, 1.6664044705834365E9, 0.0, 2022-10-21 19:07:50.583
99.0, -129972.01889419781, -157231.53587955664, -33332.39654688794, -140235.55996841908, 67619.83843086225, -103421.78981563925, 56042.17124488011, -111191.47970574853, 0.02, 0.9520000000000001, -0.026000000000000002, 192.0, 0.0, 0.0, 0.0, 0.0, 0.0, 0.0, 0.0, 0.0, 0.0, 1.666404470583451E9, 0.0, 2022-10-21 19:07:50.583
100.0, -129961.46887081492, -157219.5553445286, -33327.23329391877, -140226.66397412587, 67622.00655007441, -103399.34866420612, 56059.62795729971, -111185.28827253441, 0.02, 0.9520000000000001, -0.026000000000000002, 192.0, 0.0, 0.0, 0.0, 0.0, 0.0, 0.0, 0.0, 0.0, 0.0, 1.666404470583465E9, 0.0, 2022-10-21 19:07:50.583
101.0, -129952.79639396626, -157207.9547891563, -33327.88149450797, -140239.33741323202, 67618.58673317275, -103418.48175745986, 56041.90302394665, -111198.47580176304, 0.02, 0.9520000000000001, -0.026000000000000002, 192.0, 0.0, 0.0, 0.0, 0.0, 0.0, 0.0, 0.0, 0.0, 0.0, 1.6664044705834796E9, 0.0, 2022-10-21 19:07:50.583
102.0, -129956.64089401257, -157212.46984153628, -33338.83384929107, -140254.0001575947, 67609.53427666835, -103441.6158129711, 56019.260706813424, -111215.82075546036, 0.024, 0.9560000000000001, -0.028, 192.0, 0.0, 192.0, 29.0, 224.0, 255.0, 32.0, 0.0, 0.0, 0.0, 1.666404470583494E9, 0.0, 2022-10-21 19:07:50.583
103.0, -129948.68367298647, -157205.63020773296, -33339.146773713444, -140245.77471563517, 67610.204829002, -103419.666399916, 56032.202366853046, -111210.21046760208, 0.024, 0.9560000000000001, -0.028, 192.0, 0.0, 0.0, 0.0, 0.0, 0.0, 0.0, 0.0, 0.0, 0.0, 1.6664044705835245E9, 0.0, 2022-10-21 19:07:50.583
104.0, -129937.0160623808, -157192.3532715265, -33334.542314355655, -140242.6007679225, 67610.6071604022, -103407.43999569894, 56045.680468759594, -111196.39708952869, 0.024, 0.9560000000000001, -0.028, 192.0, 0.0, 0.0, 0.0, 0.0, 0.0, 0.0, 0.0, 0.0, 0.0, 1.66640447058354E9, 0.0, 2022-10-21 19:07:50.583
1.0, -130471.26745835156, -157718.1780598376, -33464.40594964098, -140286.16431786589, 67574.77731404034, -103566.02562260933, 56073.21781792853, -111206.76829895595, 0.024, 0.9560000000000001, -0.028, 192.0, 0.0, 0.0, 0.0, 0.0, 0.0, 0.0, 0.0, 0.0, 0.0, 1.66640447114693E9, 0.0, 2022-10-21 19:07:51.146
2.0, -130460.11393786836, -157705.9293038761, -33458.32627514914, -140279.79407069614, 67584.99206125642, -103576.10625935868, 56065.260596902444, -111206.00833964448, 0.024, 0.9560000000000001, -0.028, 192.0, 0.0, 0.0, 0.0, 0.0, 0.0, 0.0, 0.0, 0.0, 0.0, 1.6664044711470065E9, 0.0, 2022-10-21 19:07:51.147
3.0, -130463.86903093685, -157708.36564402172, -33458.348626893596, -140273.82615492656, 67584.0532879893, -103585.94102691901, 56062.15370442316, -111204.35431055479, 0.024, 0.9560000000000001, -0.028, 192.0, 0.0, 0.0, 0.0, 0.0, 0.0, 0.0, 0.0, 0.0, 0.0, 1.6664044711470284E9, 0.0, 2022-10-21 19:07:51.147
4.0, -130455.75534769957, -157700.4307747401, -33450.86079250107, -140269.3111025466, 67584.74619206741, -103572.95466339048, 56080.12450696522, -111197.84995291829, 0.024, 0.9560000000000001, -0.028, 192.0, 0.0, 0.0, 0.0, 0.0, 0.0, 0.0, 0.0, 0.0, 0.0, 1.6664044711470466E9, 0.0, 2022-10-21 19:07:51.147
5.0, -130448.40162377378, -157691.3112630023, -33444.088213931114, -140267.32179729006, 67590.49059039242, -103571.36768953416, 56087.45587914657, -111189.22217955855, 0.024, 0.9560000000000001, -0.028, 192.0, 0.0, 0.0, 0.0, 0.0, 0.0, 0.0, 0.0, 0.0, 0.0, 1.6664044711470654E9, 0.0, 2022-10-21 19:07:51.147
6.0, -130444.15479232727, -157692.33944324727, -33442.18831565241, -140262.98555886574, 67596.86083756218, -103583.83996294021, 56076.101192963266, -111186.51761847945, 0.024, 0.9560000000000001, -0.028, 192.0, 0.0, 0.0, 0.0, 0.0, 0.0, 0.0, 0.0, 0.0, 0.0, 1.6664044711470942E9, 0.0, 2022-10-21 19:07:51.147
7.0, -130441.1373068258, -157686.7738588779, -33444.11056567557, -140262.8067449101, 67595.20680847249, -103589.38319556514, 56070.446201616076, -111192.50788599347, 0.028, 0.964, -0.03, 192.0, 0.0, 224.0, 30.0, 32.0, 255.0, 16.0, 0.0, 0.0, 0.0, 1.666404471147112E9, 0.0, 2022-10-21 19:07:51.147
8.0, -130438.29863527998, -157686.5726931778, -33450.21259191186, -140266.07009960056, 67589.79768631431, -103573.26758781286, 56082.29262617739, -111189.55745572537, 0.028, 0.964, -0.03, 192.0, 0.0, 0.0, 0.0, 0.0, 0.0, 0.0, 0.0, 0.0, 0.0, 1.6664044711471322E9, 0.0, 2022-10-21 19:07:51.147
9.0, -130433.40360324427, -157678.52606517388, -33444.222324397844, -140270.13811709144, 67589.90944503658, -103567.45613425448, 56085.690091334596, -111182.91898762215, 0.028, 0.964, -0.03, 192.0, 0.0, 0.0, 0.0, 0.0, 0.0, 0.0, 0.0, 0.0, 0.0, 1.6664044711471567E9, 0.0, 2022-10-21 19:07:51.147
10.0, -130434.45413523367, -157680.53772217486, -33438.74614700629, -140265.89128564493, 67600.97355854197, -103591.41720431056, 56070.60266382727, -111184.97534811204, 0.028, 0.964, -0.03, 192.0, 0.0, 0.0, 0.0, 0.0, 0.0, 0.0, 0.0, 0.0, 0.0, 1.666404471147179E9, 0.0, 2022-10-21 19:07:51.147
11.0, -130441.785507415, -157688.0702600563, -33451.218420412355, -140271.47922175875, 67597.62079687367, -103581.35891930568, 56069.97681498252, -111199.43692677462, 0.028, 0.964, -0.03, 192.0, 0.0, 0.0, 0.0, 0.0, 0.0, 0.0, 0.0, 0.0, 0.0, 1.6664044711472008E9, 0.0, 2022-10-21 19:07:51.147
12.0, -130439.17035331373, -157684.20340826554, -33450.659626800974, -140273.5132305042, 67591.27290144836, -103573.66991921305, 56075.29653016288, -111201.98502564253, 0.028, 0.964, -0.03, 192.0, 0.0, 0.0, 0.0, 0.0, 0.0, 0.0, 0.0, 0.0, 0.0, 1.6664044711472228E9, 0.0, 2022-10-21 19:07:51.147
13.0, -130439.39387075829, -157685.38805072167, -33449.0950046891, -140267.18768682334, 67598.96190154098, -103566.20443656498, 56084.72896632302, -111197.38056628473, 0.028, 0.964, -0.03, 192.0, 0.0, 0.0, 0.0, 0.0, 0.0, 0.0, 0.0, 0.0, 0.0, 1.6664044711472452E9, 0.0, 2022-10-21 19:07:51.147
14.0, -130425.71460315165, -157668.98187029146, -33437.96383595036, -140260.57157046456, 67611.88120983615, -103564.5951109642, 56087.34412042429, -111185.60119695679, 0.028, 0.964, -0.03, 192.0, 0.0, 0.0, 0.0, 0.0, 0.0, 0.0, 0.0, 0.0, 0.0, 1.6664044711473348E9, 0.0, 2022-10-21 19:07:51.147
15.0, -130430.49787646507, -157670.50178891444, -33440.35547260707, -140271.47922175875, 67609.19900050153, -103587.05861414179, 56069.21685567103, -111188.61868245825, 0.028, 0.964, -0.03, 192.0, 0.0, 0.0, 0.0, 0.0, 0.0, 0.0, 0.0, 0.0, 0.0, 1.6664044711473575E9, 0.0, 2022-10-21 19:07:51.147
16.0, -130435.59407420088, -157678.0119750514, -33442.478888330326, -140270.58515198054, 67602.98521554294, -103577.96145414848, 56076.749393552476, -111187.7916679134, 0.028, 0.964, -0.03, 192.0, 0.0, 0.0, 0.0, 0.0, 0.0, 0.0, 0.0, 0.0, 0.0, 1.6664044711473796E9, 0.0, 2022-10-21 19:07:51.147
17.0, -130433.87298987783, -157679.77776286338, -33442.1436121635, -140263.58905596603, 67603.52165740987, -103575.05572736928, 56083.25375118897, -111188.21635105806, 0.028, 0.962, -0.03, 192.0, 0.0, 224.0, 30.0, 16.0, 255.0, 16.0, 0.0, 0.0, 0.0, 1.6664044711474018E9, 0.0, 2022-10-21 19:07:51.147
18.0, -130435.01292884506, -157679.88952158566, -33442.92592321944, -140271.18864908084, 67608.77431735687, -103576.73210820343, 56080.12450696522, -111193.2454935605, 0.028, 0.962, -0.03, 192.0, 0.0, 0.0, 0.0, 0.0, 0.0, 0.0, 0.0, 0.0, 0.0, 1.6664044711474252E9, 0.0, 2022-10-21 19:07:51.147
19.0, -130424.8875886068, -157675.37446920568, -33438.29911211719, -140267.79118392363, 67615.16691627109, -103588.91380893157, 56071.42967837211, -111185.6906039346, 0.028, 0.962, -0.03, 192.0, 0.0, 0.0, 0.0, 0.0, 0.0, 0.0, 0.0, 0.0, 0.0, 1.666404471147447E9, 0.0, 2022-10-21 19:07:51.147
20.0, -130423.25591126156, -157671.64172788165, -33438.81320223966, -140263.2537797992, 67614.09403253724, -103589.96434092097, 56071.80965802785, -111179.7450399095, 0.028, 0.962, -0.03, 192.0, 0.0, 0.0, 0.0, 0.0, 0.0, 0.0, 0.0, 0.0, 0.0, 1.6664044711474688E9, 0.0, 2022-10-21 19:07:51.147
21.0, -130430.22965553161, -157675.39682095015, -33441.89774297449, -140257.82230589655, 67613.46818369249, -103583.68350072904, 56082.38203315521, -111177.4875137195, 0.028, 0.962, -0.03, 192.0, 0.0, 0.0, 0.0, 0.0, 0.0, 0.0, 0.0, 0.0, 0.0, 1.6664044711474907E9, 0.0, 2022-10-21 19:07:51.147
22.0, -130433.91769336673, -157682.19175126456, -33447.41862385495, -140265.62306471146, 67607.61202664519, -103593.78648922282, 56077.19642844158, -111184.77418241194, 0.028, 0.962, -0.03, 192.0, 0.0, 0.0, 0.0, 0.0, 0.0, 0.0, 0.0, 0.0, 0.0, 1.6664044711475127E9, 0.0, 2022-10-21 19:07:51.147
23.0, -130439.05859459146, -157684.7622018769, -33454.30296114719, -140284.33147482056, 67598.38075618514, -103602.12368990466, 56065.46176260254, -111193.13373483822, 0.028, 0.962, -0.03, 192.0, 0.0, 0.0, 0.0, 0.0, 0.0, 0.0, 0.0, 0.0, 0.0, 1.6664044711475341E9, 0.0, 2022-10-21 19:07:51.147
24.0, -130441.18201031472, -157682.54937917585, -33449.251466900285, -140278.11768986197, 67601.71116610899, -103613.72424527697, 56062.06429744534, -111182.85193238879, 0.028, 0.962, -0.03, 192.0, 0.0, 0.0, 0.0, 0.0, 0.0, 0.0, 0.0, 0.0, 0.0, 1.666404471147556E9, 0.0, 2022-10-21 19:07:51.147
25.0, -130442.3890045153, -157685.5668646773, -33447.306865132676, -140269.86989615796, 67607.0532330338, -103599.41912882557, 56078.42577438662, -111176.10170556328, 0.028, 0.962, -0.03, 192.0, 0.0, 0.0, 0.0, 0.0, 0.0, 0.0, 0.0, 0.0, 0.0, 1.6664044711475773E9, 0.0, 2022-10-21 19:07:51.147
26.0, -130433.64947243327, -157681.67766114208, -33445.60813255407, -140271.74744269223, 67610.22718074646, -103601.83311722674, 56078.761050553454, -111174.76060089596, 0.028, 0.962, -0.03, 192.0, 0.0, 0.0, 0.0, 0.0, 0.0, 0.0, 0.0, 0.0, 0.0, 1.666404471147599E9, 0.0, 2022-10-21 19:07:51.147
27.0, -130442.32194928193, -157683.33169023177, -33449.07265294465, -140281.82807944156, 67607.56732315628, -103604.60473353919, 56067.987509725994, -111189.37864176973, 0.026000000000000002, 0.9560000000000001, -0.024, 192.0, 0.0, 208.0, 29.0, 224.0, 255.0, 64.0, 0.0, 0.0, 0.0, 1.666404471147621E9, 0.0, 2022-10-21 19:07:51.147
28.0, -130449.69802495219, -157691.73594614698, -33453.63240881353, -140288.33243707806, 67600.14654399712, -103605.92348646207, 56062.15370442316, -111200.1968860861, 0.026000000000000002, 0.9560000000000001, -0.024, 192.0, 0.0, 0.0, 0.0, 0.0, 0.0, 0.0, 0.0, 0.0, 0.0, 1.6664044711476474E9, 0.0, 2022-10-21 19:07:51.147
29.0, -130451.77673718653, -157694.8204868818, -33447.08334768812, -140278.94470440684, 67602.26995972038, -103604.33651260573, 56071.94376849458, -111192.23966506001, 0.026000000000000002, 0.9560000000000001, -0.024, 192.0, 0.0, 0.0, 0.0, 0.0, 0.0, 0.0, 0.0, 0.0, 0.0, 1.6664044711476932E9, 0.0, 2022-10-21 19:07:51.147
30.0, -130451.62027497534, -157693.6134926812, -33442.38948135251, -140278.58707649555, 67605.1086312662, -103603.44244282752, 56079.945693009584, -111192.03849935991, 0.026000000000000002, 0.9560000000000001, -0.024, 192.0, 0.0, 0.0, 0.0, 0.0, 0.0, 0.0, 0.0, 0.0, 0.0, 1.666404471147715E9, 0.0, 2022-10-21 19:07:51.147
31.0, -130454.5930569879, -157701.30249277383, -33453.38653962452, -140293.85331795854, 67595.94441603952, -103626.4647396165, 56057.97392821001, -111206.56713325586, 0.026000000000000002, 0.9560000000000001, -0.024, 192.0, 0.0, 0.0, 0.0, 0.0, 0.0, 0.0, 0.0, 0.0, 0.0, 1.6664044711477375E9, 0.0, 2022-10-21 19:07:51.147
32.0, -130450.34622554139, -157698.1285450612, -33454.05709195818, -140291.6628470019, 67596.68202360654, -103629.52692860687, 56053.168303152124, -111207.26003733398, 0.026000000000000002, 0.9560000000000001, -0.024, 192.0, 0.0, 0.0, 0.0, 0.0, 0.0, 0.0, 0.0, 0.0, 0.0, 1.6664044711477597E9, 0.0, 2022-10-21 19:07:51.147
33.0, -130457.56583900045, -157706.84572539874, -33455.420548369955, -140278.11768986197, 67596.43615441753, -103613.07604468775, 56067.74164053699, -111207.61766524526, 0.026000000000000002, 0.9560000000000001, -0.024, 192.0, 0.0, 0.0, 0.0, 0.0, 0.0, 0.0, 0.0, 0.0, 0.0, 1.666404471147782E9, 0.0, 2022-10-21 19:07:51.147
34.0, -130464.78545245952, -157714.24415281345, -33453.83357451363, -140276.59777123903, 67598.58192188524, -103612.18197490954, 56075.20712318506, -111208.57879025684, 0.026000000000000002, 0.9560000000000001, -0.024, 192.0, 0.0, 0.0, 0.0, 0.0, 0.0, 0.0, 0.0, 0.0, 0.0, 1.666404471147804E9, 0.0, 2022-10-21 19:07:51.147
35.0, -130462.9973129031, -157712.16544057912, -33456.15815593698, -140291.75225397974, 67595.20680847249, -103639.89813803413, 56054.911739219635, -111209.98695015753, 0.026000000000000002, 0.9560000000000001, -0.024, 192.0, 0.0, 0.0, 0.0, 0.0, 0.0, 0.0, 0.0, 0.0, 0.0, 1.6664044711478271E9, 0.0, 2022-10-21 19:07:51.147
36.0, -130465.0983768819, -157714.11004234673, -33462.7966240402, -140294.14389063645, 67594.67036660557, -103648.36944918269, 56045.79222748187, -111212.6021042588, 0.026000000000000002, 0.9560000000000001, -0.024, 192.0, 0.0, 0.0, 0.0, 0.0, 0.0, 0.0, 0.0, 0.0, 0.0, 1.666404471147849E9, 0.0, 2022-10-21 19:07:51.147
37.0, -130459.46573727916, -157711.4278330121, -33453.56535358016, -140280.86695442998, 67601.91233180909, -103637.81942579978, 56058.488018332486, -111203.19201984312, 0.026000000000000002, 0.9540000000000001, -0.028, 192.0, 0.0, 208.0, 29.0, 208.0, 255.0, 32.0, 0.0, 0.0, 0.0, 1.6664044711478713E9, 0.0, 2022-10-21 19:07:51.147
38.0, -130455.77769944404, -157713.3277312908, -33449.63144655603, -140269.53461999114, 67608.93077956805, -103625.9059460051, 56073.441335373085, -111203.16966809865, 0.026000000000000002, 0.9540000000000001, -0.028, 192.0, 0.0, 0.0, 0.0, 0.0, 0.0, 0.0, 0.0, 0.0, 0.0, 1.666404471147895E9, 0.0, 2022-10-21 19:07:51.147
39.0, -130455.48712676611, -157714.84764991375, -33450.86079250107, -140279.36938755147, 67608.72961386795, -103628.7669692954, 56068.278082403915, -111195.74888893949, 0.026000000000000002, 0.9540000000000001, -0.028, 192.0, 0.0, 0.0, 0.0, 0.0, 0.0, 0.0, 0.0, 0.0, 0.0, 1.6664044711479175E9, 0.0, 2022-10-21 19:07:51.147
40.0, -130457.90111516729, -157714.95940863603, -33460.650856572494, -140289.1594516229, 67600.81709633078, -103646.64836485963, 56048.697954261064, -111202.85674367628, 0.026000000000000002, 0.9540000000000001, -0.028, 192.0, 0.0, 0.0, 0.0, 0.0, 0.0, 0.0, 0.0, 0.0, 0.0, 1.6664044711479402E9, 0.0, 2022-10-21 19:07:51.147
41.0, -130447.17227782874, -157709.59498996675, -33461.7460920508, -140279.83877418505, 67598.47016316297, -103632.2091379415, 56057.169265409626, -111205.06956637735, 0.026000000000000002, 0.9540000000000001, -0.028, 192.0, 0.0, 0.0, 0.0, 0.0, 0.0, 0.0, 0.0, 0.0, 0.0, 1.666404471147962E9, 0.0, 2022-10-21 19:07:51.147
42.0, -130443.97597837163, -157707.89625738814, -33459.93560074992, -140274.49670726023, 67595.81030557278, -103614.21598365498, 56071.87671326122, -111209.71872922406, 0.026000000000000002, 0.9540000000000001, -0.028, 192.0, 0.0, 0.0, 0.0, 0.0, 0.0, 0.0, 0.0, 0.0, 0.0, 1.666404471147984E9, 0.0, 2022-10-21 19:07:51.147
43.0, -130437.53867596849, -157701.43660324058, -33461.701388561894, -140287.41601555538, 67588.16600896907, -103617.56874532328, 56068.076916703816, -111215.73134848254, 0.026000000000000002, 0.9540000000000001, -0.028, 192.0, 0.0, 0.0, 0.0, 0.0, 0.0, 0.0, 0.0, 0.0, 0.0, 1.6664044711480079E9, 0.0, 2022-10-21 19:07:51.148
44.0, -130422.89828335027, -157680.85064659725, -33452.537173335215, -140285.44906204334, 67594.64801486112, -103640.50163513442, 56052.274233373915, -111206.76829895595, 0.026000000000000002, 0.9540000000000001, -0.028, 192.0, 0.0, 0.0, 0.0, 0.0, 0.0, 0.0, 0.0, 0.0, 0.0, 1.666404471148054E9, 0.0, 2022-10-21 19:07:51.148
45.0, -130412.86235008984, -157675.50857967243, -33455.66641755896, -140284.48793703175, 67589.57416886976, -103640.12165547868, 56051.87190197372, -111214.3455403263, 0.026000000000000002, 0.9540000000000001, -0.028, 192.0, 0.0, 0.0, 0.0, 0.0, 0.0, 0.0, 0.0, 0.0, 0.0, 1.666404471148076E9, 0.0, 2022-10-21 19:07:51.148
46.0, -130403.85459707434, -157665.00325977843, -33449.76555702276, -140276.15073634993, 67589.68592759203, -103624.18486168205, 56069.730945793504, -111214.0549676484, 0.02, 0.96, -0.026000000000000002, 192.0, 0.0, 160.0, 30.0, 0.0, 255.0, 48.0, 0.0, 0.0, 0.0, 1.6664044711480987E9, 0.0, 2022-10-21 19:07:51.148
47.0, -130398.19960572716, -157651.8157305498, -33442.5906470526, -140277.00010263923, 67591.67523284856, -103621.94968723651, 56073.486038862, -111206.00833964448, 0.02, 0.96, -0.026000000000000002, 192.0, 0.0, 0.0, 0.0, 0.0, 0.0, 0.0, 0.0, 0.0, 0.0, 1.6664044711481228E9, 0.0, 2022-10-21 19:07:51.148
48.0, -130390.75647482355, -157642.04801822282, -33443.8423447421, -140292.08753014656, 67584.72384032296, -103655.87963531967, 56048.74265774997, -111206.43302278913, 0.02, 0.96, -0.026000000000000002, 192.0, 0.0, 0.0, 0.0, 0.0, 0.0, 0.0, 0.0, 0.0, 0.0, 1.666404471148145E9, 0.0, 2022-10-21 19:07:51.148
49.0, -130383.6262683423, -157637.04122746483, -33452.09013844611, -140290.43350105686, 67580.40995364309, -103662.5181034229, 56042.77474198041, -111217.78770897242, 0.02, 0.96, -0.026000000000000002, 192.0, 0.0, 0.0, 0.0, 0.0, 0.0, 0.0, 0.0, 0.0, 0.0, 1.6664044711481695E9, 0.0, 2022-10-21 19:07:51.148
50.0, -130372.98683798157, -157630.91684948409, -33466.05997873068, -140298.27896336067, 67566.08248544723, -103646.3130886928, 56049.63672752819, -111236.22789814805, 0.02, 0.96, -0.026000000000000002, 192.0, 0.0, 0.0, 0.0, 0.0, 0.0, 0.0, 0.0, 0.0, 0.0, 1.666404471148192E9, 0.0, 2022-10-21 19:07:51.148
51.0, -130349.15987839221, -157609.25800910688, -33453.945333235904, -140288.9582859228, 67578.93473850904, -103645.15079798113, 56052.60950954074, -111222.41452007467, 0.02, 0.96, -0.026000000000000002, 192.0, 0.0, 0.0, 0.0, 0.0, 0.0, 0.0, 0.0, 0.0, 0.0, 1.6664044711482139E9, 0.0, 2022-10-21 19:07:51.148
52.0, -130330.63028223877, -157599.42324154655, -33446.122222676546, -140283.12448061997, 67590.44588690352, -103644.34613518073, 56051.71543976253, -111213.60793275929, 0.02, 0.96, -0.026000000000000002, 192.0, 0.0, 0.0, 0.0, 0.0, 0.0, 0.0, 0.0, 0.0, 0.0, 1.666404471148236E9, 0.0, 2022-10-21 19:07:51.148
53.0, -130307.8538546388, -157578.7031744365, -33443.95410346438, -140277.78241369515, 67592.30108169331, -103655.74552485294, 56045.12167514821, -111217.56419152787, 0.02, 0.96, -0.026000000000000002, 192.0, 0.0, 0.0, 0.0, 0.0, 0.0, 0.0, 0.0, 0.0, 0.0, 1.6664044711482575E9, 0.0, 2022-10-21 19:07:51.148
54.0, -130295.06865681037, -157562.96754633993, -33440.13195516252, -140269.57932348005, 67594.67036660557, -103648.32474569378, 56054.28589037489, -111217.60889501679, 0.02, 0.96, -0.026000000000000002, 192.0, 0.0, 0.0, 0.0, 0.0, 0.0, 0.0, 0.0, 0.0, 0.0, 1.6664044711482797E9, 0.0, 2022-10-21 19:07:51.148
55.0, -130298.86845336777, -157560.0394678163, -33440.40017609599, -140279.61525674048, 67591.78699157083, -103638.93701302256, 56060.49967533346, -111223.64386601972, 0.02, 0.96, -0.026000000000000002, 192.0, 0.0, 0.0, 0.0, 0.0, 0.0, 0.0, 0.0, 0.0, 0.0, 1.6664044711483016E9, 0.0, 2022-10-21 19:07:51.148
56.0, -130298.82374987887, -157546.7401798654, -33441.9424464634, -140295.9543819373, 67583.69566007801, -103664.46270519051, 56039.9807739235, -111236.51847082598, 0.016, 0.966, -0.026000000000000002, 192.0, 0.0, 128.0, 30.0, 48.0, 255.0, 48.0, 0.0, 0.0, 0.0, 1.6664044711483235E9, 0.0, 2022-10-21 19:07:51.148
57.0, -130286.66440089517, -157532.90445004756, -33434.499315559784, -140286.99133241075, 67591.36230842618, -103679.03604257538, 56032.202366853046, -111230.14822365622, 0.016, 0.966, -0.026000000000000002, 192.0, 0.0, 0.0, 0.0, 0.0, 0.0, 0.0, 0.0, 0.0, 0.0, 1.6664044711483412E9, 0.0, 2022-10-21 19:07:51.148
58.0, -130274.32623795584, -157524.05315924325, -33433.82876322613, -140270.51809674717, 67598.85014281872, -103657.0642777758, 56052.38599209619, -111219.93347644014, 0.016, 0.966, -0.026000000000000002, 192.0, 0.0, 0.0, 0.0, 0.0, 0.0, 0.0, 0.0, 0.0, 0.0, 1.6664044711483557E9, 0.0, 2022-10-21 19:07:51.148
59.0, -130265.67611285164, -157513.16785969352, -33436.33215860512, -140267.858239157, 67600.9065033086, -103630.86803327418, 56073.41898362863, -111217.78770897242, 0.016, 0.966, -0.026000000000000002, 192.0, 0.0, 0.0, 0.0, 0.0, 0.0, 0.0, 0.0, 0.0, 0.0, 1.6664044711483855E9, 0.0, 2022-10-21 19:07:51.148
60.0, -130263.86562155077, -157513.54783934925, -33441.00367319628, -140286.611352755, 67592.39048867112, -103634.69018157604, 56067.09343994778, -111228.11421491078, 0.016, 0.966, -0.026000000000000002, 192.0, 0.0, 0.0, 0.0, 0.0, 0.0, 0.0, 0.0, 0.0, 0.0, 1.6664044711484005E9, 0.0, 2022-10-21 19:07:51.148
61.0, -130240.12806893923, -157490.03380418228, -33425.9385974334, -140277.1118613615, 67604.61689288818, -103647.4083241711, 56063.22658815701, -111219.53114503995, 0.016, 0.966, -0.026000000000000002, 192.0, 0.0, 0.0, 0.0, 0.0, 0.0, 0.0, 0.0, 0.0, 0.0, 1.6664044711484156E9, 0.0, 2022-10-21 19:07:51.148
62.0, -130212.94834768157, -157467.97263240488, -33414.092172872086, -140245.57354993507, 67619.63726516215, -103635.5618996098, 56082.62790234422, -111203.37083379875, 0.016, 0.966, -0.026000000000000002, 192.0, 0.0, 0.0, 0.0, 0.0, 0.0, 0.0, 0.0, 0.0, 0.0, 1.6664044711484303E9, 0.0, 2022-10-21 19:07:51.148
63.0, -130204.94642316658, -157462.60821373563, -33423.03287065421, -140259.34222451953, 67606.31562546678, -103629.72809430696, 56087.925265780126, -111212.6468077477, 0.016, 0.966, -0.026000000000000002, 192.0, 0.0, 0.0, 0.0, 0.0, 0.0, 0.0, 0.0, 0.0, 0.0, 1.6664044711484454E9, 0.0, 2022-10-21 19:07:51.148
64.0, -130193.27881256091, -157445.0620943382, -33420.99886190878, -140277.00010263923, 67601.24177947543, -103647.85535906022, 56074.29070166239, -111212.93738042563, 0.016, 0.966, -0.026000000000000002, 192.0, 0.0, 0.0, 0.0, 0.0, 0.0, 0.0, 0.0, 0.0, 0.0, 1.6664044711484604E9, 0.0, 2022-10-21 19:07:51.148
65.0, -130168.13310004868, -157418.01648354728, -33421.37884156452, -140289.85235570103, 67592.07756424876, -103669.17892327058, 56057.57159680982, -111210.67985423564, 0.016, 0.966, -0.026000000000000002, 192.0, 0.0, 0.0, 0.0, 0.0, 0.0, 0.0, 0.0, 0.0, 0.0, 1.6664044711484752E9, 0.0, 2022-10-21 19:07:51.148
66.0, -130139.25464621243, -157391.12733496755, -33409.957100147854, -140271.09924210302, 67602.58288414274, -103667.43548720307, 56065.52881783591, -111208.57879025684, 0.02, 0.964, -0.03, 192.0, 0.0, 160.0, 30.0, 32.0, 255.0, 16.0, 0.0, 0.0, 0.0, 1.66640447114849E9, 0.0, 2022-10-21 19:07:51.148
67.0, -130121.48500937046, -157371.1895789134, -33409.7335827033, -140262.49382048773, 67605.01922428838, -103636.03128624336, 56090.87569604823, -111209.8528396908, 0.02, 0.964, -0.03, 192.0, 0.0, 0.0, 0.0, 0.0, 0.0, 0.0, 0.0, 0.0, 0.0, 1.6664044711485057E9, 0.0, 2022-10-21 19:07:51.148
68.0, -130102.7542475169, -157351.45298855938, -33407.76662919124, -140269.98165488025, 67604.08045102125, -103640.92631827907, 56089.6910535921, -111210.9480751691, 0.02, 0.964, -0.03, 192.0, 0.0, 0.0, 0.0, 0.0, 0.0, 0.0, 0.0, 0.0, 0.0, 1.6664044711485207E9, 0.0, 2022-10-21 19:07:51.148
69.0, -130086.32571534226, -157336.07498837414, -33410.538245503696, -140274.11672760447, 67603.61106438769, -103646.24603345944, 56084.90778027866, -111214.03261590394, 0.02, 0.964, -0.03, 192.0, 0.0, 0.0, 0.0, 0.0, 0.0, 0.0, 0.0, 0.0, 0.0, 1.6664044711485353E9, 0.0, 2022-10-21 19:07:51.148
70.0, -130064.08572960923, -157313.85735438555, -33407.81133268015, -140265.89128564493, 67606.29327372233, -103657.220739987, 56081.71148082155, -111206.63418848923, 0.02, 0.964, -0.03, 192.0, 0.0, 0.0, 0.0, 0.0, 0.0, 0.0, 0.0, 0.0, 0.0, 1.6664044711485524E9, 0.0, 2022-10-21 19:07:51.148
71.0, -130051.43464224752, -157303.84377286956, -33407.05137336867, -140264.48312574424, 67604.48278242144, -103658.2712719764, 56086.181829712616, -111205.76247045548, 0.02, 0.964, -0.03, 192.0, 0.0, 0.0, 0.0, 0.0, 0.0, 0.0, 0.0, 0.0, 0.0, 1.666404471148567E9, 0.0, 2022-10-21 19:07:51.148
72.0, -130031.38512747112, -157283.1237057595, -33401.82106516613, -140259.87866638644, 67610.31658772429, -103646.20132997053, 56094.67549260563, -111205.91893266665, 0.02, 0.964, -0.03, 192.0, 0.0, 0.0, 0.0, 0.0, 0.0, 0.0, 0.0, 0.0, 0.0, 1.6664044711485817E9, 0.0, 2022-10-21 19:07:51.148
73.0, -130014.688374363, -157263.90120552795, -33393.14858831747, -140259.63279719744, 67615.90452383811, -103656.48313241996, 56083.96900701154, -111204.93545591063, 0.02, 0.964, -0.03, 192.0, 0.0, 0.0, 0.0, 0.0, 0.0, 0.0, 0.0, 0.0, 0.0, 1.6664044711485968E9, 0.0, 2022-10-21 19:07:51.148
74.0, -130000.96440326744, -157250.15488268793, -33389.59466094907, -140252.68140467184, 67621.15718378511, -103650.67167886159, 56085.17600121212, -111201.13565935323, 0.02, 0.964, -0.03, 192.0, 0.0, 0.0, 0.0, 0.0, 0.0, 0.0, 0.0, 0.0, 0.0, 1.6664044711486263E9, 0.0, 2022-10-21 19:07:51.148
75.0, -129983.37358038111, -157234.95569645832, -33388.32061151512, -140238.33158473155, 67624.37583498667, -103631.24801292992, 56102.23038223152, -111197.60408372928, 0.016, 0.96, -0.036000000000000004, 192.0, 0.0, 128.0, 30.0, 0.0, 254.0, 224.0, 0.0, 0.0, 0.0, 1.6664044711486416E9, 0.0, 2022-10-21 19:07:51.148
76.0, -129974.63404829909, -157228.5630975441, -33391.8298353946, -140250.73680290423, 67617.1562215276, -103642.89327179114, 56095.681321106116, -111204.68958672162, 0.016, 0.96, -0.036000000000000004, 192.0, 0.0, 0.0, 0.0, 0.0, 0.0, 0.0, 0.0, 0.0, 0.0, 1.6664044711486576E9, 0.0, 2022-10-21 19:07:51.148
77.0, -129965.49218481687, -157223.17632713038, -33395.22730055181, -140263.03026235464, 67610.42834644656, -103651.67750736208, 56084.81837330084, -111209.67402573515, 0.016, 0.96, -0.036000000000000004, 192.0, 0.0, 0.0, 0.0, 0.0, 0.0, 0.0, 0.0, 0.0, 0.0, 1.6664044711486723E9, 0.0, 2022-10-21 19:07:51.148
78.0, -129948.16958286401, -157209.18413510136, -33390.265213282735, -140255.4083174954, 67614.18343951505, -103650.7610858394, 56087.29941693538, -111199.72749945254, 0.016, 0.96, -0.036000000000000004, 192.0, 0.0, 0.0, 0.0, 0.0, 0.0, 0.0, 0.0, 0.0, 0.0, 1.6664044711486876E9, 0.0, 2022-10-21 19:07:51.148
79.0, -129933.88681815706, -157196.1530680839, -33381.12334980051, -140238.62215740947, 67622.47593670797, -103635.91952752108, 56106.030178788926, -111197.06764186236, 0.016, 0.96, -0.036000000000000004, 192.0, 0.0, 0.0, 0.0, 0.0, 0.0, 0.0, 0.0, 0.0, 0.0, 1.6664044711487029E9, 0.0, 2022-10-21 19:07:51.148
80.0, -129934.0656321127, -157198.4552977628, -33386.51012021424, -140248.4569249698, 67612.75292786991, -103627.53762335035, 56110.41112070216, -111213.98791241503, 0.016, 0.96, -0.036000000000000004, 192.0, 0.0, 0.0, 0.0, 0.0, 0.0, 0.0, 0.0, 0.0, 0.0, 1.6664044711487179E9, 0.0, 2022-10-21 19:07:51.148
81.0, -129920.63223369507, -157181.87030337696, -33387.15832080344, -140259.27516928615, 67608.46139293449, -103654.29266146335, 56093.647312360685, -111209.80813620189, 0.016, 0.96, -0.036000000000000004, 192.0, 0.0, 0.0, 0.0, 0.0, 0.0, 0.0, 0.0, 0.0, 0.0, 1.666404471148733E9, 0.0, 2022-10-21 19:07:51.148
82.0, -129914.48550396986, -157173.95778583977, -33389.192329548874, -140254.4471924838, 67612.0600237918, -103664.95444356852, 56086.07007099034, -111202.99085414302, 0.016, 0.96, -0.036000000000000004, 192.0, 0.0, 0.0, 0.0, 0.0, 0.0, 0.0, 0.0, 0.0, 0.0, 1.666404471148748E9, 0.0, 2022-10-21 19:07:51.148
83.0, -129909.05403006721, -157171.0967625495, -33383.76085564624, -140238.48804694272, 67617.7597186279, -103643.72028633599, 56101.53747815341, -111200.8450866753, 0.016, 0.96, -0.036000000000000004, 192.0, 0.0, 0.0, 0.0, 0.0, 0.0, 0.0, 0.0, 0.0, 0.0, 1.6664044711487627E9, 0.0, 2022-10-21 19:07:51.148
84.0, -129909.2104922784, -157176.50588470767, -33388.722942915316, -140239.8515033545, 67609.40016620161, -103634.42196064258, 56107.66185613416, -111212.31153158088, 0.016, 0.96, -0.036000000000000004, 192.0, 0.0, 0.0, 0.0, 0.0, 0.0, 0.0, 0.0, 0.0, 0.0, 1.6664044711487775E9, 0.0, 2022-10-21 19:07:51.148
85.0, -129911.89270161305, -157180.08216382054, -33395.003783107255, -140259.6551489419, 67602.96286379849, -103656.3713736977, 56088.93109428062, -111221.16282238517, 0.02, 0.96, -0.038, 192.0, 0.0, 160.0, 30.0, 0.0, 254.0, 208.0, 0.0, 0.0, 0.0, 1.6664044711487925E9, 0.0, 2022-10-21 19:07:51.148
86.0, -129894.16776825998, -157162.1560647674, -33379.24580326627, -140246.7581923912, 67621.64892216312, -103657.13133300917, 56092.06033850436, -111203.70610996558, 0.02, 0.96, -0.038, 192.0, 0.0, 0.0, 0.0, 0.0, 0.0, 0.0, 0.0, 0.0, 0.0, 1.6664044711488087E9, 0.0, 2022-10-21 19:07:51.148
87.0, -129895.0618380382, -157163.87714909043, -33382.03977132318, -140238.66686089837, 67616.17274477157, -103641.14983572363, 56105.82901308883, -111199.30281630789, 0.02, 0.96, -0.038, 192.0, 0.0, 0.0, 0.0, 0.0, 0.0, 0.0, 0.0, 0.0, 0.0, 1.6664044711488235E9, 0.0, 2022-10-21 19:07:51.148
88.0, -129896.06766653869, -157166.46995144724, -33384.96784984683, -140242.93604408932, 67606.51679116688, -103631.44917863002, 56114.72500738204, -111197.38056628473, 0.02, 0.96, -0.038, 192.0, 0.0, 0.0, 0.0, 0.0, 0.0, 0.0, 0.0, 0.0, 0.0, 1.6664044711488385E9, 0.0, 2022-10-21 19:07:51.148
89.0, -129893.11723627058, -157165.1064950355, -33385.906623113944, -140260.28099778664, 67595.83265731724, -103663.94861506805, 56092.35091118228, -111206.12009836675, 0.02, 0.96, -0.038, 192.0, 0.0, 0.0, 0.0, 0.0, 0.0, 0.0, 0.0, 0.0, 0.0, 1.6664044711488678E9, 0.0, 2022-10-21 19:07:51.148
90.0, -129891.17263450297, -157165.48647469122, -33381.34686724506, -140260.63862569793, 67601.08531726424, -103682.54526645485, 56077.44229763059, -111203.43788903212, 0.02, 0.96, -0.038, 192.0, 0.0, 0.0, 0.0, 0.0, 0.0, 0.0, 0.0, 0.0, 0.0, 1.666404471148883E9, 0.0, 2022-10-21 19:07:51.148
91.0, -129895.24065199384, -157169.84506486, -33386.37600974751, -140253.7542884057, 67601.97938704245, -103664.19448425705, 56085.98066401252, -111205.33778731083, 0.02, 0.96, -0.038, 192.0, 0.0, 0.0, 0.0, 0.0, 0.0, 0.0, 0.0, 0.0, 0.0, 1.666404471148898E9, 0.0, 2022-10-21 19:07:51.148
92.0, -129895.12889327157, -157170.15798928236, -33389.415846993434, -140250.1556575484, 67601.68881436453, -103653.75621959641, 56092.66383560465, -111216.96069442759, 0.02, 0.96, -0.038, 192.0, 0.0, 0.0, 0.0, 0.0, 0.0, 0.0, 0.0, 0.0, 0.0, 1.6664044711489153E9, 0.0, 2022-10-21 19:07:51.148
93.0, -129897.29701248373, -157171.40968697186, -33384.386704490986, -140250.8485616265, 67605.89094232213, -103648.16828348259, 56097.71532985155, -111217.51948803896, 0.02, 0.96, -0.038, 192.0, 0.0, 0.0, 0.0, 0.0, 0.0, 0.0, 0.0, 0.0, 0.0, 1.66640447114893E9, 0.0, 2022-10-21 19:07:51.148
94.0, -129889.42919843546, -157160.4573321888, -33375.423654964405, -140243.11485804498, 67618.29616049482, -103647.20715847102, 56096.59774262879, -111207.5506100119, 0.02, 0.96, -0.038, 192.0, 0.0, 0.0, 0.0, 0.0, 0.0, 0.0, 0.0, 0.0, 0.0, 1.6664044711489449E9, 0.0, 2022-10-21 19:07:51.148
95.0, -129891.75377985882, -157162.71485837875, -33382.46445446783, -140253.6648814279, 67607.56732315628, -103660.8193708443, 56084.95248376757, -111209.27169433495, 0.012, 0.96, -0.034, 192.0, 0.0, 96.0, 30.0, 0.0, 254.0, 240.0, 0.0, 0.0, 0.0, 1.66640447114896E9, 0.0, 2022-10-21 19:07:51.148
96.0, -129898.23578575085, -157168.21338751476, -33388.67823942641, -140255.63183493994, 67597.95607304049, -103663.94861506805, 56086.40534715717, -111214.47965079304, 0.012, 0.96, -0.034, 192.0, 0.0, 0.0, 0.0, 0.0, 0.0, 0.0, 0.0, 0.0, 0.0, 1.6664044711489754E9, 0.0, 2022-10-21 19:07:51.148
97.0, -129896.17942526095, -157162.37958221193, -33380.832777122596, -140259.67750068635, 67596.68202360654, -103676.30912975183, 56084.348986667275, -111206.81300244488, 0.012, 0.96, -0.034, 192.0, 0.0, 0.0, 0.0, 0.0, 0.0, 0.0, 0.0, 0.0, 0.0, 1.6664044711489916E9, 0.0, 2022-10-21 19:07:51.148
98.0, -129897.8111026062, -157163.07248629004, -33380.49750095576, -140264.43842225533, 67598.60427362971, -103686.43446999008, 56077.57640809732, -111212.95973217009, 0.012, 0.96, -0.034, 192.0, 0.0, 0.0, 0.0, 0.0, 0.0, 0.0, 0.0, 0.0, 0.0, 1.666404471149006E9, 0.0, 2022-10-21 19:07:51.149
99.0, -129897.63228865055, -157163.63127990143, -33381.65979166744, -140260.23629429773, 67599.52069515237, -103690.0778043363, 56075.49769586298, -111218.03357816144, 0.012, 0.96, -0.034, 192.0, 0.0, 0.0, 0.0, 0.0, 0.0, 0.0, 0.0, 0.0, 0.0, 1.6664044711490211E9, 0.0, 2022-10-21 19:07:51.149
100.0, -129901.2085677634, -157164.1453700239, -33383.64909692396, -140249.28393951463, 67600.81709633078, -103664.1721325126, 56095.79307982839, -111217.67595025015, 0.012, 0.96, -0.034, 192.0, 0.0, 0.0, 0.0, 0.0, 0.0, 0.0, 0.0, 0.0, 0.0, 1.666404471149038E9, 0.0, 2022-10-21 19:07:51.149
101.0, -129898.12402702858, -157159.6079658995, -33377.16709103192, -140240.18677952132, 67610.69656738003, -103649.55409163883, 56111.03696954691, -111208.35527281229, 0.012, 0.96, -0.034, 192.0, 0.0, 0.0, 0.0, 0.0, 0.0, 0.0, 0.0, 0.0, 0.0, 1.6664044711490533E9, 0.0, 2022-10-21 19:07:51.149
102.0, -129894.12306477108, -157155.0482100306, -33374.104902041545, -140246.5570266911, 67615.16691627109, -103664.73092612397, 56099.25760021897, -111204.86840067725, 0.012, 0.96, -0.034, 192.0, 0.0, 0.0, 0.0, 0.0, 0.0, 0.0, 0.0, 0.0, 0.0, 1.6664044711490684E9, 0.0, 2022-10-21 19:07:51.149
103.0, -129895.35241071612, -157157.21632924274, -33374.663695652926, -140252.346128505, 67611.2553609914, -103678.20902803053, 56088.260541946955, -111203.70610996558, 0.012, 0.96, -0.034, 192.0, 0.0, 0.0, 0.0, 0.0, 0.0, 0.0, 0.0, 0.0, 0.0, 1.6664044711490836E9, 0.0, 2022-10-21 19:07:51.149
104.0, -129908.22701552237, -157169.57684392654, -33386.621878936516, -140250.02154708168, 67599.76656434138, -103656.19255974205, 56099.99520778599, -111218.9052961952, 0.02, 0.962, -0.034, 192.0, 0.0, 160.0, 30.0, 16.0, 254.0, 240.0, 0.0, 0.0, 0.0, 1.666404471149114E9, 0.0, 2022-10-21 19:07:51.149
105.0, -129905.63421316555, -157166.0452683026, -33386.59952719206, -140254.357785506, 67595.65384336161, -103652.99626028494, 56104.46555667705, -111218.52531653945, 0.02, 0.962, -0.034, 192.0, 0.0, 0.0, 0.0, 0.0, 0.0, 0.0, 0.0, 0.0, 0.0, 1.6664044711491299E9, 0.0, 2022-10-21 19:07:51.149
106.0, -129892.60314614812, -157151.38252393992, -33376.45183520935, -140250.7591546487, 67605.04157603283, -103669.11186803722, 56097.15653624017, -111209.56226701288, 0.02, 0.962, -0.034, 192.0, 0.0, 0.0, 0.0, 0.0, 0.0, 0.0, 0.0, 0.0, 0.0, 1.666404471149145E9, 0.0, 2022-10-21 19:07:51.149
107.0, -129887.66341062349, -157145.9957535262, -33372.294410740666, -140247.11582030248, 67608.5060964234, -103686.47917347899, 56085.600684356774, -111198.47580176304, 0.02, 0.962, -0.034, 192.0, 0.0, 0.0, 0.0, 0.0, 0.0, 0.0, 0.0, 0.0, 0.0, 1.66640447114916E9, 0.0, 2022-10-21 19:07:51.149
108.0, -129891.5079106698, -157151.58368964, -33375.423654964405, -140240.92438708837, 67605.13098301065, -103661.98166155597, 56103.28091422092, -111197.71584245157, 0.02, 0.962, -0.034, 192.0, 0.0, 0.0, 0.0, 0.0, 0.0, 0.0, 0.0, 0.0, 0.0, 1.6664044711491747E9, 0.0, 2022-10-21 19:07:51.149
109.0, -129895.88885258304, -157155.56230015308, -33379.80459687765, -140244.43361096783, 67599.54304689683, -103655.47730391948, 56108.55592591238, -111202.81204018737, 0.02, 0.962, -0.034, 192.0, 0.0, 0.0, 0.0, 0.0, 0.0, 0.0, 0.0, 0.0, 0.0, 1.6664044711491897E9, 0.0, 2022-10-21 19:07:51.149
110.0, -129901.02975380776, -157157.41749494284, -33388.2312045373, -140260.32570127555, 67594.93858753903, -103670.60943491572, 56095.591914128294, -111211.70803448059, 0.02, 0.962, -0.034, 192.0, 0.0, 0.0, 0.0, 0.0, 0.0, 0.0, 0.0, 0.0, 0.0, 1.6664044711492045E9, 0.0, 2022-10-21 19:07:51.149
111.0, -129902.0579340527, -157160.4573321888, -33387.71711441483, -140266.71830018976, 67588.63539560263, -103691.48596423698, 56080.68330057661, -111216.93834268312, 0.02, 0.962, -0.034, 192.0, 0.0, 0.0, 0.0, 0.0, 0.0, 0.0, 0.0, 0.0, 0.0, 1.6664044711492205E9, 0.0, 2022-10-21 19:07:51.149
112.0, -129895.82179734968, -157154.6905821193, -33377.83764336558, -140249.1945325368, 67596.19028522853, -103683.1711152996, 56092.57442862683, -111209.94224666861, 0.02, 0.962, -0.034, 192.0, 0.0, 0.0, 0.0, 0.0, 0.0, 0.0, 0.0, 0.0, 0.0, 1.6664044711492352E9, 0.0, 2022-10-21 19:07:51.149
113.0, -129899.3086694847, -157156.43401818682, -33382.10682655655, -140236.56579691957, 67598.85014281872, -103648.6153183717, 56115.23909750451, -111211.3504065693, 0.02, 0.962, -0.034, 192.0, 0.0, 0.0, 0.0, 0.0, 0.0, 0.0, 0.0, 0.0, 0.0, 1.666404471149252E9, 0.0, 2022-10-21 19:07:51.149
114.0, -129899.93451832945, -157159.2056344993, -33387.06891382562, -140257.08469832953, 67592.34578518222, -103664.97679531298, 56101.22455373104, -111217.8994676947, 0.022, 0.962, -0.038, 192.0, 0.0, 176.0, 30.0, 16.0, 254.0, 208.0, 0.0, 0.0, 0.0, 1.6664044711492672E9, 0.0, 2022-10-21 19:07:51.149
115.0, -129896.46999793888, -157157.05986703158, -33384.14083530198, -140260.59392220902, 67597.77725908486, -103688.8261066468, 56086.69591983508, -111215.48547929354, 0.022, 0.962, -0.038, 192.0, 0.0, 0.0, 0.0, 0.0, 0.0, 0.0, 0.0, 0.0, 0.0, 1.666404471149283E9, 0.0, 2022-10-21 19:07:51.149
116.0, -129892.40198044802, -157153.7965123411, -33378.46349221033, -140246.4452679688, 67602.15820099809, -103681.31592050982, 56094.36256818326, -111208.01999664545, 0.022, 0.962, -0.038, 192.0, 0.0, 0.0, 0.0, 0.0, 0.0, 0.0, 0.0, 0.0, 0.0, 1.666404471149298E9, 0.0, 2022-10-21 19:07:51.149
117.0, -129895.7547421163, -157157.17162575384, -33384.252594024256, -140254.8048203951, 67593.55277938281, -103669.26833024841, 56104.17498399913, -111214.39024381521, 0.022, 0.962, -0.038, 192.0, 0.0, 0.0, 0.0, 0.0, 0.0, 0.0, 0.0, 0.0, 0.0, 1.6664044711493134E9, 0.0, 2022-10-21 19:07:51.149
118.0, -129890.56913740268, -157152.65657337388, -33380.810425378135, -140261.1527158204, 67594.82682881676, -103672.50933319442, 56102.319789209345, -111211.77508971395, 0.022, 0.962, -0.038, 192.0, 0.0, 0.0, 0.0, 0.0, 0.0, 0.0, 0.0, 0.0, 0.0, 1.6664044711493285E9, 0.0, 2022-10-21 19:07:51.149
119.0, -129885.56234664469, -157147.850948316, -33376.831814865094, -140261.80091640961, 67600.41476493058, -103700.35960678573, 56082.15851571066, -111206.47772627804, 0.022, 0.962, -0.038, 192.0, 0.0, 0.0, 0.0, 0.0, 0.0, 0.0, 0.0, 0.0, 0.0, 1.6664044711494424E9, 0.0, 2022-10-21 19:07:51.149
120.0, -129892.46903568138, -157155.9422798088, -33386.1301405585, -140263.6561111994, 67593.70924159398, -103693.96700787151, 56082.02440524392, -111206.5000780225, 0.022, 0.962, -0.038, 192.0, 0.0, 0.0, 0.0, 0.0, 0.0, 0.0, 0.0, 0.0, 0.0, 1.6664044711494582E9, 0.0, 2022-10-21 19:07:51.149
121.0, -129892.62549789257, -157154.95880305278, -33390.08639932709, -140263.03026235464, 67584.03093624485, -103681.5170862099, 56092.462669904555, -111207.95294141209, 0.022, 0.962, -0.038, 192.0, 0.0, 0.0, 0.0, 0.0, 0.0, 0.0, 0.0, 0.0, 0.0, 1.6664044716262653E9, 0.0, 2022-10-21 19:07:51.626
122.0, -129893.05018103722, -157156.81399784258, -33393.059181339646, -140264.95251237781, 67584.61208160067, -103675.5715221848, 56097.82708857383, -111217.0053979165, 0.022, 0.962, -0.038, 192.0, 0.0, 0.0, 0.0, 0.0, 0.0, 0.0, 0.0, 0.0, 0.0, 1.6664044716263657E9, 0.0, 2022-10-21 19:07:51.626
123.0, -129882.16488148748, -157145.07933200352, -33383.60439343505, -140265.48895424473, 67596.30204395081, -103683.05935657733, 56091.32273093733, -111204.89075242172, 0.022, 0.962, -0.038, 192.0, 0.0, 0.0, 0.0, 0.0, 0.0, 0.0, 0.0, 0.0, 0.0, 1.666404471626469E9, 0.0, 2022-10-21 19:07:51.626
124.0, -129883.84126232163, -157146.6439541154, -33384.85609112455, -140260.88449488694, 67594.93858753903, -103682.41115598813, 56090.69688209258, -111206.1424501112, 0.02, 0.96, -0.04, 192.0, 0.0, 160.0, 30.0, 0.0, 254.0, 192.0, 0.0, 0.0, 0.0, 1.6664044716264877E9, 0.0, 2022-10-21 19:07:51.626
125.0, -129884.17653848846, -157149.52732915012, -33386.30895451414, -140251.58616919353, 67593.99981427191, -103658.58419639876, 56108.35476021228, -111211.01513040246, 0.02, 0.96, -0.04, 192.0, 0.0, 0.0, 0.0, 0.0, 0.0, 0.0, 0.0, 0.0, 0.0, 1.6664044716265094E9, 0.0, 2022-10-21 19:07:51.626
126.0, -129890.77030310278, -157157.77512285413, -33392.32157377262, -140258.47050648578, 67584.7014885785, -103645.12844623667, 56111.77457711394, -111217.60889501679, 0.02, 0.96, -0.04, 192.0, 0.0, 0.0, 0.0, 0.0, 0.0, 0.0, 0.0, 0.0, 0.0, 1.6664044716265285E9, 0.0, 2022-10-21 19:07:51.626
127.0, -129883.57304138817, -157150.10847450598, -33380.92218410041, -140257.17410530735, 67592.59165437122, -103662.22753074497, 56100.41989093064, -111205.38249079973, 0.02, 0.96, -0.04, 192.0, 0.0, 0.0, 0.0, 0.0, 0.0, 0.0, 0.0, 0.0, 0.0, 1.6664044716265466E9, 0.0, 2022-10-21 19:07:51.626
128.0, -129880.7567215868, -157148.096817505, -33378.35173348805, -140243.22661676726, 67602.91816030958, -103673.85043786174, 56094.831954816815, -111196.75471743998, 0.02, 0.96, -0.04, 192.0, 0.0, 0.0, 0.0, 0.0, 0.0, 0.0, 0.0, 0.0, 0.0, 1.666404471626565E9, 0.0, 2022-10-21 19:07:51.626
129.0, -129892.49138742583, -157161.9548990673, -33391.98629760579, -140256.68236692934, 67588.56834036927, -103666.69787963605, 56095.16723098364, -111212.2444763475, 0.02, 0.96, -0.04, 192.0, 0.0, 0.0, 0.0, 0.0, 0.0, 0.0, 0.0, 0.0, 0.0, 1.6664044716265836E9, 0.0, 2022-10-21 19:07:51.626
130.0, -129892.24551823683, -157161.3066984781, -33390.7793034052, -140268.61819846847, 67584.88030253415, -103663.45687669002, 56098.16236474066, -111217.29597059441, 0.02, 0.96, -0.04, 192.0, 0.0, 0.0, 0.0, 0.0, 0.0, 0.0, 0.0, 0.0, 0.0, 1.666404471626602E9, 0.0, 2022-10-21 19:07:51.626
131.0, -129887.77516934577, -157154.86939607494, -33385.66075392494, -140262.13619257644, 67594.13392473863, -103665.84851334675, 56095.65896936166, -111208.22116234555, 0.02, 0.96, -0.04, 192.0, 0.0, 0.0, 0.0, 0.0, 0.0, 0.0, 0.0, 0.0, 0.0, 1.6664044716266203E9, 0.0, 2022-10-21 19:07:51.626
132.0, -129889.36214320209, -157152.7906838406, -33389.482902226795, -140259.610445453, 67595.87736080616, -103670.721193638, 56091.121565237234, -111201.09095586432, 0.02, 0.96, -0.04, 192.0, 0.0, 0.0, 0.0, 0.0, 0.0, 0.0, 0.0, 0.0, 0.0, 1.6664044716266384E9, 0.0, 2022-10-21 19:07:51.626
133.0, -129892.51373917029, -157153.37182919643, -33391.94159411688, -140250.3121197596, 67594.24568346092, -103653.84562657424, 56103.303265965376, -111201.96267389807, 0.02, 0.96, -0.04, 192.0, 0.0, 0.0, 0.0, 0.0, 0.0, 0.0, 0.0, 0.0, 0.0, 1.6664044716266568E9, 0.0, 2022-10-21 19:07:51.626
134.0, -129891.5079106698, -157153.6847536188, -33390.46637898283, -140250.46858197078, 67591.80934331528, -103646.87188230419, 56112.176908514135, -111204.53312451043, 0.022, 0.9560000000000001, -0.038, 192.0, 0.0, 176.0, 29.0, 224.0, 254.0, 208.0, 0.0, 0.0, 0.0, 1.6664044716267667E9, 0.0, 2022-10-21 19:07:51.626
135.0, -129893.34075371514, -157154.75763735268, -33396.00961160775, -140258.4034512524, 67589.84238980322, -103659.05358303232, 56103.75030085448, -111211.21629610256, 0.022, 0.9560000000000001, -0.038, 192.0, 0.0, 0.0, 0.0, 0.0, 0.0, 0.0, 0.0, 0.0, 0.0, 1.666404471626788E9, 0.0, 2022-10-21 19:07:51.626
136.0, -129894.14541651553, -157152.36600069597, -33394.48969298478, -140262.53852397663, 67590.46823864797, -103676.48794370747, 56093.222629216034, -111212.93738042563, 0.022, 0.9560000000000001, -0.038, 192.0, 0.0, 0.0, 0.0, 0.0, 0.0, 0.0, 0.0, 0.0, 0.0, 1.6664044716268072E9, 0.0, 2022-10-21 19:07:51.626
137.0, -129890.68089612496, -157146.57689888202, -33391.76278016124, -140253.68723317233, 67592.21167471548, -103673.49280995046, 56099.27995196342, -111212.6468077477, 0.022, 0.9560000000000001, -0.038, 192.0, 0.0, 0.0, 0.0, 0.0, 0.0, 0.0, 0.0, 0.0, 0.0, 1.666404471626826E9, 0.0, 2022-10-21 19:07:51.626
138.0, -129897.36406771709, -157153.4388844298, -33395.87550114102, -140256.39179425142, 67583.98623275594, -103661.93695806706, 56107.840670089805, -111217.74300548351, 0.022, 0.9560000000000001, -0.038, 192.0, 0.0, 0.0, 0.0, 0.0, 0.0, 0.0, 0.0, 0.0, 0.0, 1.6664044716268444E9, 0.0, 2022-10-21 19:07:51.626
139.0, -129901.49914044133, -157158.31156472108, -33398.915338386934, -140261.13036407594, 67586.24375894592, -103658.87476907669, 56108.17594625663, -111217.8547642058, 0.022, 0.9560000000000001, -0.038, 192.0, 0.0, 0.0, 0.0, 0.0, 0.0, 0.0, 0.0, 0.0, 0.0, 1.6664044716268628E9, 0.0, 2022-10-21 19:07:51.626
140.0, -129883.61774487708, -157139.1784714673, -33382.59856493456, -140242.7572301337, 67603.43225043204, -103676.66675766312, 56097.916495551646, -111205.8965809222, 0.022, 0.9560000000000001, -0.038, 192.0, 0.0, 0.0, 0.0, 0.0, 0.0, 0.0, 0.0, 0.0, 0.0, 1.6664044716268811E9, 0.0, 2022-10-21 19:07:51.626
141.0, -129889.92093681348, -157147.40391342688, -33389.95228886036, -140244.16539003438, 67600.43711667504, -103688.6249409467, 56092.01563501545, -111207.08122337834, 0.022, 0.9560000000000001, -0.038, 192.0, 0.0, 0.0, 0.0, 0.0, 0.0, 0.0, 0.0, 0.0, 0.0, 1.6664044716268995E9, 0.0, 2022-10-21 19:07:51.626
142.0, -129901.90147184151, -157158.78095135462, -33401.82106516613, -140264.12549783295, 67587.62956710215, -103665.69205113556, 56105.20316424408, -111215.08314789334, 0.022, 0.9560000000000001, -0.038, 192.0, 0.0, 0.0, 0.0, 0.0, 0.0, 0.0, 0.0, 0.0, 0.0, 1.6664044716269183E9, 0.0, 2022-10-21 19:07:51.626
143.0, -129892.91607057049, -157148.85677681648, -33397.35071627506, -140258.8057826526, 67594.55860788329, -103666.54141742486, 56105.9407718111, -111203.70610996558, 0.026000000000000002, 0.9580000000000001, -0.034, 192.0, 0.0, 208.0, 29.0, 240.0, 254.0, 240.0, 0.0, 0.0, 0.0, 1.6664044716269372E9, 0.0, 2022-10-21 19:07:51.626
144.0, -129895.5088729273, -157151.67309661783, -33402.42456226642, -140262.7173379323, 67594.1562764831, -103681.11475480972, 56089.75810882546, -111206.27656057794, 0.026000000000000002, 0.9580000000000001, -0.034, 192.0, 0.0, 0.0, 0.0, 0.0, 0.0, 0.0, 0.0, 0.0, 0.0, 1.666404471626957E9, 0.0, 2022-10-21 19:07:51.626
145.0, -129898.74987587333, -157153.8859193189, -33405.57615823462, -140263.70081468832, 67593.59748287172, -103689.85428689174, 56081.51031512146, -111212.04331064741, 0.026000000000000002, 0.9580000000000001, -0.034, 192.0, 0.0, 0.0, 0.0, 0.0, 0.0, 0.0, 0.0, 0.0, 0.0, 1.6664044716269753E9, 0.0, 2022-10-21 19:07:51.626
146.0, -129905.32128874319, -157159.07152403254, -33411.007632137254, -140259.8116111531, 67586.89195953512, -103676.68910940757, 56091.05451000387, -111223.77797648645, 0.026000000000000002, 0.9580000000000001, -0.034, 192.0, 0.0, 0.0, 0.0, 0.0, 0.0, 0.0, 0.0, 0.0, 0.0, 1.6664044716269968E9, 0.0, 2022-10-21 19:07:51.626
147.0, -129903.89077709804, -157156.836349587, -33409.64417572548, -140264.72899493325, 67585.84142754572, -103660.77466735539, 56104.845536332796, -111228.04715967742, 0.026000000000000002, 0.9580000000000001, -0.034, 192.0, 0.0, 0.0, 0.0, 0.0, 0.0, 0.0, 0.0, 0.0, 0.0, 1.666404471627015E9, 0.0, 2022-10-21 19:07:51.627
148.0, -129895.46416943839, -157145.52636689262, -33400.97169887683, -140267.4112042679, 67592.43519216003, -103670.09534479326, 56099.70463510807, -111213.58558101484, 0.026000000000000002, 0.9580000000000001, -0.034, 192.0, 0.0, 0.0, 0.0, 0.0, 0.0, 0.0, 0.0, 0.0, 0.0, 1.666404471627061E9, 0.0, 2022-10-21 19:07:51.627
149.0, -129891.79848334772, -157143.67117210283, -33395.160245318446, -140253.68723317233, 67602.31466320928, -103682.63467343268, 56092.887353049206, -111196.03946161742, 0.026000000000000002, 0.9580000000000001, -0.034, 192.0, 0.0, 0.0, 0.0, 0.0, 0.0, 0.0, 0.0, 0.0, 0.0, 1.6664044716271453E9, 0.0, 2022-10-21 19:07:51.627
150.0, -129900.87329159658, -157154.6458786304, -33402.491617499785, -140256.83882914053, 67596.21263697298, -103668.59777791474, 56102.43154793162, -111204.1978483436, 0.026000000000000002, 0.9580000000000001, -0.034, 192.0, 0.0, 0.0, 0.0, 0.0, 0.0, 0.0, 0.0, 0.0, 0.0, 1.6664044716271877E9, 0.0, 2022-10-21 19:07:51.627
151.0, -129899.86746309609, -157153.5506431521, -33402.1339895885, -140260.6162739535, 67595.11740149467, -103662.24988248944, 56109.91938232415, -111204.42136578815, 0.026000000000000002, 0.9580000000000001, -0.034, 192.0, 0.0, 0.0, 0.0, 0.0, 0.0, 0.0, 0.0, 0.0, 0.0, 1.6664044716272297E9, 0.0, 2022-10-21 19:07:51.627
152.0, -129895.44181769394, -157147.9850587827, -33390.93576561639, -140257.57643670755, 67604.59454114373, -103657.53366440936, 56117.31780973886, -111199.79455468591, 0.026000000000000002, 0.9580000000000001, -0.034, 192.0, 0.0, 0.0, 0.0, 0.0, 0.0, 0.0, 0.0, 0.0, 0.0, 1.6664044716272771E9, 0.0, 2022-10-21 19:07:51.627
153.0, -129895.84414909413, -157145.8839948039, -33388.2312045373, -140258.4034512524, 67608.17082025658, -103672.15170528313, 56105.22551598853, -111204.91310416617, 0.026000000000000002, 0.96, -0.03, 192.0, 0.0, 208.0, 30.0, 0.0, 255.0, 16.0, 0.0, 0.0, 0.0, 1.666404471627323E9, 0.0, 2022-10-21 19:07:51.627
154.0, -129895.73239037185, -157148.7897215831, -33392.05335283915, -140252.2567215272, 67605.66742487758, -103663.99331855695, 56112.02044630295, -111203.84022043232, 0.026000000000000002, 0.96, -0.03, 192.0, 0.0, 0.0, 0.0, 0.0, 0.0, 0.0, 0.0, 0.0, 0.0, 1.6664044716273503E9, 0.0, 2022-10-21 19:07:51.627
155.0, -129897.4534746949, -157153.01420128517, -33400.47996049881, -140257.2188087963, 67598.49251490743, -103666.9213970806, 56109.449995690586, -111205.53895301092, 0.026000000000000002, 0.96, -0.03, 192.0, 0.0, 0.0, 0.0, 0.0, 0.0, 0.0, 0.0, 0.0, 0.0, 1.666404471627365E9, 0.0, 2022-10-21 19:07:51.627
156.0, -129894.79361710473, -157147.850948316, -33399.00474536476, -140257.33056751854, 67600.77239284187, -103666.54141742486, 56104.57731539933, -111206.16480185567, 0.026000000000000002, 0.96, -0.03, 192.0, 0.0, 0.0, 0.0, 0.0, 0.0, 0.0, 0.0, 0.0, 0.0, 1.6664044716273818E9, 0.0, 2022-10-21 19:07:51.627
157.0, -129891.15028275852, -157141.50305289068, -33394.9814313628, -140256.9505878628, 67600.9065033086, -103691.46361249252, 56085.62303610123, -111206.43302278913, 0.026000000000000002, 0.96, -0.03, 192.0, 0.0, 0.0, 0.0, 0.0, 0.0, 0.0, 0.0, 0.0, 0.0, 1.6664044716273963E9, 0.0, 2022-10-21 19:07:51.627
158.0, -129892.49138742583, -157146.15221573738, -33397.529530230706, -140246.93700634682, 67600.39241318613, -103670.31886223781, 56100.0399112749, -111209.94224666861, 0.026000000000000002, 0.96, -0.03, 192.0, 0.0, 0.0, 0.0, 0.0, 0.0, 0.0, 0.0, 0.0, 0.0, 1.6664044716274104E9, 0.0, 2022-10-21 19:07:51.627
159.0, -129896.20177700542, -157153.21536698527, -33402.692783199884, -140248.8145528811, 67593.15044798261, -103647.8106555713, 56114.52384168194, -111213.74204322601, 0.026000000000000002, 0.96, -0.03, 192.0, 0.0, 0.0, 0.0, 0.0, 0.0, 0.0, 0.0, 0.0, 0.0, 1.6664044716274247E9, 0.0, 2022-10-21 19:07:51.627
160.0, -129900.44860845193, -157156.21050074228, -33403.31863204463, -140258.2693407857, 67594.17862822756, -103659.7688388549, 56108.466518934554, -111210.18811585763, 0.026000000000000002, 0.96, -0.03, 192.0, 0.0, 0.0, 0.0, 0.0, 0.0, 0.0, 0.0, 0.0, 0.0, 1.666404471627439E9, 0.0, 2022-10-21 19:07:51.627
161.0, -129900.38155321855, -157156.5010734202, -33402.89394889998, -140264.9078088889, 67594.64801486112, -103690.45778399204, 56086.47240239053, -111206.0977466223, 0.026000000000000002, 0.96, -0.03, 192.0, 0.0, 0.0, 0.0, 0.0, 0.0, 0.0, 0.0, 0.0, 0.0, 1.666404471627453E9, 0.0, 2022-10-21 19:07:51.627
162.0, -129902.4602654529, -157160.36792521094, -33404.48092275631, -140255.02833783964, 67593.99981427191, -103678.94663559755, 56091.56860012634, -111200.12983085273, 0.026000000000000002, 0.96, -0.03, 192.0, 0.0, 0.0, 0.0, 0.0, 0.0, 0.0, 0.0, 0.0, 0.0, 1.6664044716274679E9, 0.0, 2022-10-21 19:07:51.627
163.0, -129890.77030310278, -157147.02393377112, -33394.310879029144, -140242.1537330334, 67599.05130851881, -103652.99626028494, 56115.41791146016, -111197.40291802918, 0.02, 0.96, -0.032, 192.0, 0.0, 160.0, 30.0, 0.0, 255.0, 0.0, 0.0, 0.0, 0.0, 1.6664044716274822E9, 0.0, 2022-10-21 19:07:51.627
164.0, -129881.06964600917, -157136.16098596586, -33380.609259678036, -140222.350087446, 67619.77137562887, -103645.84370205924, 56127.53255695493, -111185.66825219015, 0.02, 0.96, -0.032, 192.0, 0.0, 0.0, 0.0, 0.0, 0.0, 0.0, 0.0, 0.0, 0.0, 1.6664044716275115E9, 0.0, 2022-10-21 19:07:51.627
165.0, -129900.02392530728, -157155.6517071309, -33401.91047214394, -140258.67167218588, 67596.59261662872, -103664.06037379031, 56107.10306252278, -111209.67402573515, 0.02, 0.96, -0.032, 192.0, 0.0, 0.0, 0.0, 0.0, 0.0, 0.0, 0.0, 0.0, 0.0, 1.666404471627526E9, 0.0, 2022-10-21 19:07:51.627
166.0, -129902.57202417518, -157158.5574339101, -33407.520760002226, -140266.4053757674, 67583.89682577811, -103687.08267057929, 56092.395614671186, -111221.09576715181, 0.02, 0.96, -0.032, 192.0, 0.0, 0.0, 0.0, 0.0, 0.0, 0.0, 0.0, 0.0, 0.0, 1.6664044716275408E9, 0.0, 2022-10-21 19:07:51.627
167.0, -129900.26979449629, -157156.7022391203, -33403.94448088938, -140252.5025907162, 67588.18836071352, -103679.68424316458, 56102.610361887266, -111215.86545894927, 0.02, 0.96, -0.032, 192.0, 0.0, 0.0, 0.0, 0.0, 0.0, 0.0, 0.0, 0.0, 0.0, 1.6664044716275554E9, 0.0, 2022-10-21 19:07:51.627
168.0, -129896.87232933908, -157152.72362860723, -33397.57423371962, -140252.3014250161, 67596.36909918417, -103670.31886223781, 56112.26631549196, -111213.31736008136, 0.02, 0.96, -0.032, 192.0, 0.0, 0.0, 0.0, 0.0, 0.0, 0.0, 0.0, 0.0, 0.0, 1.6664044716275697E9, 0.0, 2022-10-21 19:07:51.627
169.0, -129899.48748344035, -157155.9869832977, -33401.21756806583, -140261.62210245396, 67591.36230842618, -103685.13806881168, 56097.2906467069, -111218.45826130609, 0.02, 0.96, -0.032, 192.0, 0.0, 0.0, 0.0, 0.0, 0.0, 0.0, 0.0, 0.0, 0.0, 1.6664044716275845E9, 0.0, 2022-10-21 19:07:51.627
170.0, -129898.63811715104, -157154.91409956387, -33401.2846232992, -140254.111916317, 67593.19515147152, -103688.55788571334, 56093.20027747158, -111212.15506936969, 0.02, 0.96, -0.032, 192.0, 0.0, 0.0, 0.0, 0.0, 0.0, 0.0, 0.0, 0.0, 0.0, 1.6664044716275988E9, 0.0, 2022-10-21 19:07:51.627
171.0, -129899.19691076243, -157154.55647165258, -33399.80940816515, -140248.79220113662, 67594.26803520537, -103678.00786233043, 56105.78430959992, -111210.38928155773, 0.02, 0.96, -0.032, 192.0, 0.0, 0.0, 0.0, 0.0, 0.0, 0.0, 0.0, 0.0, 0.0, 1.666404471627614E9, 0.0, 2022-10-21 19:07:51.627
172.0, -129898.41459970649, -157151.18135823982, -33396.38959126348, -140244.5453696901, 67598.51486665188, -103666.5190656804, 56118.63656266172, -111205.67306347765, 0.02, 0.9560000000000001, -0.034, 192.0, 0.0, 160.0, 29.0, 224.0, 254.0, 240.0, 0.0, 0.0, 0.0, 1.6664044716276283E9, 0.0, 2022-10-21 19:07:51.627
173.0, -129898.36989621758, -157151.4942826622, -33394.48969298478, -140250.73680290423, 67601.42059343107, -103670.11769653771, 56112.02044630295, -111198.96754014106, 0.02, 0.9560000000000001, -0.034, 192.0, 0.0, 0.0, 0.0, 0.0, 0.0, 0.0, 0.0, 0.0, 0.0, 1.6664044716276467E9, 0.0, 2022-10-21 19:07:51.627
174.0, -129890.30091646922, -157142.06184650207, -33387.60535569255, -140246.69113715782, 67605.77918359985, -103681.22651353199, 56104.37614969923, -111191.97144412655, 0.02, 0.9560000000000001, -0.034, 192.0, 0.0, 0.0, 0.0, 0.0, 0.0, 0.0, 0.0, 0.0, 0.0, 1.6664044716276672E9, 0.0, 2022-10-21 19:07:51.627
175.0, -129896.40294270552, -157149.57203263903, -33391.24869003877, -140251.9661488493, 67599.67715736356, -103670.90000759363, 56112.84746084779, -111194.58659822782, 0.02, 0.9560000000000001, -0.034, 192.0, 0.0, 0.0, 0.0, 0.0, 0.0, 0.0, 0.0, 0.0, 0.0, 1.666404471627689E9, 0.0, 2022-10-21 19:07:51.627
176.0, -129901.90147184151, -157155.80816934208, -33395.60728020755, -140259.78925940863, 67594.46920090547, -103668.35190872573, 56115.84259460481, -111199.72749945254, 0.02, 0.9560000000000001, -0.034, 192.0, 0.0, 0.0, 0.0, 0.0, 0.0, 0.0, 0.0, 0.0, 0.0, 1.666404471627709E9, 0.0, 2022-10-21 19:07:51.627
177.0, -129908.91991960049, -157161.08318103352, -33402.67043145543, -140269.9145996469, 67590.44588690352, -103684.06518507781, 56102.90093456518, -111212.71386298107, 0.02, 0.9560000000000001, -0.034, 192.0, 0.0, 0.0, 0.0, 0.0, 0.0, 0.0, 0.0, 0.0, 0.0, 1.666404471627735E9, 0.0, 2022-10-21 19:07:51.627
178.0, -129904.5613294317, -157157.17162575384, -33398.80357966466, -140262.42676525435, 67596.68202360654, -103677.71728965252, 56101.38101594222, -111215.3960723157, 0.02, 0.9560000000000001, -0.034, 192.0, 0.0, 0.0, 0.0, 0.0, 0.0, 0.0, 0.0, 0.0, 0.0, 1.66640447162776E9, 0.0, 2022-10-21 19:07:51.627
179.0, -129897.18525376145, -157152.20953848478, -33398.24478605328, -140257.44232624082, 67589.97650026996, -103663.41217320111, 56110.12054802425, -111219.17351712866, 0.02, 0.9560000000000001, -0.034, 192.0, 0.0, 0.0, 0.0, 0.0, 0.0, 0.0, 0.0, 0.0, 0.0, 1.6664044716278057E9, 0.0, 2022-10-21 19:07:51.627
180.0, -129887.68576236794, -157141.52540463512, -33399.92116688743, -140254.5589512061, 67587.22723570195, -103661.71344062251, 56115.93200158262, -111215.5525345269, 0.02, 0.9560000000000001, -0.034, 192.0, 0.0, 0.0, 0.0, 0.0, 0.0, 0.0, 0.0, 0.0, 0.0, 1.666404471627829E9, 0.0, 2022-10-21 19:07:51.627
181.0, -129890.70324786942, -157145.2357942147, -33402.84924541107, -140261.19741930932, 67589.1047822362, -103678.29843500834, 56101.4927746645, -111215.88781069372, 0.02, 0.9560000000000001, -0.034, 192.0, 0.0, 0.0, 0.0, 0.0, 0.0, 0.0, 0.0, 0.0, 0.0, 1.666404471627854E9, 0.0, 2022-10-21 19:07:51.627
182.0, -129893.29605022623, -157148.11916924943, -33392.880367384, -140253.77664015014, 67600.95120679752, -103686.30035952335, 56094.16140248316, -111211.61862750276, 0.02, 0.962, -0.024, 192.0, 0.0, 160.0, 30.0, 16.0, 255.0, 64.0, 0.0, 0.0, 0.0, 1.6664044716278803E9, 0.0, 2022-10-21 19:07:51.627
183.0, -129883.48363441035, -157137.54679412208, -33383.31382075713, -140238.13041903145, 67605.1533347551, -103666.83199010277, 56112.06514979186, -111200.77803144194, 0.02, 0.962, -0.024, 192.0, 0.0, 0.0, 0.0, 0.0, 0.0, 0.0, 0.0, 0.0, 0.0, 1.6664044716279044E9, 0.0, 2022-10-21 19:07:51.627
184.0, -129884.78003558876, -157138.37380866692, -33391.76278016124, -140250.9603203488, 67589.12713398066, -103653.39859168514, 56122.525766196944, -111195.21244707257, 0.02, 0.962, -0.024, 192.0, 0.0, 0.0, 0.0, 0.0, 0.0, 0.0, 0.0, 0.0, 0.0, 1.6664044716279297E9, 0.0, 2022-10-21 19:07:51.627
185.0, -129873.49240463882, -157124.31456140455, -33381.0786463116, -140240.81262836608, 67597.55374164031, -103670.49767619344, 56119.28476325092, -111190.98796737051, 0.02, 0.962, -0.024, 192.0, 0.0, 0.0, 0.0, 0.0, 0.0, 0.0, 0.0, 0.0, 0.0, 1.666404471627952E9, 0.0, 2022-10-21 19:07:51.627
186.0, -129876.97927677385, -157130.2824771741, -33383.49263471278, -140242.8019336226, 67602.33701495374, -103688.37907175769, 56105.314922966354, -111193.80428717188, 0.02, 0.962, -0.024, 192.0, 0.0, 0.0, 0.0, 0.0, 0.0, 0.0, 0.0, 0.0, 0.0, 1.6664044716279745E9, 0.0, 2022-10-21 19:07:51.627
187.0, -129880.3096866977, -157132.2270789417, -33389.70641967135, -140247.78637263612, 67597.44198291803, -103679.50542920893, 56107.37128345625, -111201.29212156442, 0.02, 0.962, -0.024, 192.0, 0.0, 0.0, 0.0, 0.0, 0.0, 0.0, 0.0, 0.0, 0.0, 1.6664044716279967E9, 0.0, 2022-10-21 19:07:51.627
188.0, -129885.33882920013, -157137.77031156665, -33399.60824246505, -140250.82620988204, 67586.64609034611, -103664.1721325126, 56117.54132718341, -111207.01416814497, 0.02, 0.962, -0.024, 192.0, 0.0, 0.0, 0.0, 0.0, 0.0, 0.0, 0.0, 0.0, 0.0, 1.6664044716280186E9, 0.0, 2022-10-21 19:07:51.628
189.0, -129885.36118094459, -157138.61967785595, -33401.575195977115, -140256.83882914053, 67587.4507531465, -103663.34511796775, 56116.75901612747, -111203.86257217677, 0.02, 0.962, -0.024, 192.0, 0.0, 0.0, 0.0, 0.0, 0.0, 0.0, 0.0, 0.0, 0.0, 1.6664044716280422E9, 0.0, 2022-10-21 19:07:51.628
190.0, -129878.76741633027, -157130.0366079851, -33393.394457506474, -140255.6094831955, 67598.11253525168, -103677.31495825232, 56106.38780670021, -111195.68183370613, 0.02, 0.962, -0.024, 192.0, 0.0, 0.0, 0.0, 0.0, 0.0, 0.0, 0.0, 0.0, 0.0, 1.6664044716280642E9, 0.0, 2022-10-21 19:07:51.628
191.0, -129876.68870409593, -157127.84613702848, -33390.71224817184, -140248.16635229188, 67602.82875333175, -103679.7736501424, 56106.85719333377, -111193.80428717188, 0.02, 0.962, -0.024, 192.0, 0.0, 0.0, 0.0, 0.0, 0.0, 0.0, 0.0, 0.0, 0.0, 1.6664044716280875E9, 0.0, 2022-10-21 19:07:51.628
192.0, -129876.64400060702, -157126.97441899474, -33393.77443716222, -140237.3928114644, 67606.04740453332, -103655.9690422975, 56127.711370910576, -111184.21538880056, 0.024, 0.962, -0.024, 192.0, 0.0, 192.0, 30.0, 16.0, 255.0, 64.0, 0.0, 0.0, 0.0, 1.6664044716281085E9, 0.0, 2022-10-21 19:07:51.628
193.0, -129879.19209947492, -157128.5390411066, -33395.87550114102, -140248.79220113662, 67601.66646262008, -103663.88155983467, 56123.91157435317, -111181.22025504355, 0.024, 0.962, -0.024, 192.0, 0.0, 0.0, 0.0, 0.0, 0.0, 0.0, 0.0, 0.0, 0.0, 1.6664044716281257E9, 0.0, 2022-10-21 19:07:51.628
194.0, -129879.48267215285, -157125.96859049425, -33394.71321042934, -140254.42484073935, 67604.9074655661, -103677.76199314142, 56112.06514979186, -111195.50301975048, 0.024, 0.962, -0.024, 192.0, 0.0, 0.0, 0.0, 0.0, 0.0, 0.0, 0.0, 0.0, 0.0, 1.6664044716281726E9, 0.0, 2022-10-21 19:07:51.628
195.0, -129880.98023903136, -157128.22611668424, -33398.7365244313, -140248.0545935696, 67604.99687254392, -103679.86305712022, 56105.62784738873, -111207.3941478007, 0.024, 0.962, -0.024, 192.0, 0.0, 0.0, 0.0, 0.0, 0.0, 0.0, 0.0, 0.0, 0.0, 1.6664044716281981E9, 0.0, 2022-10-21 19:07:51.628
196.0, -129874.8111575617, -157123.06286371505, -33389.16997780442, -140225.65814562538, 67614.8092883598, -103648.19063522705, 56129.18658604463, -111195.43596451712, 0.024, 0.962, -0.024, 192.0, 0.0, 0.0, 0.0, 0.0, 0.0, 0.0, 0.0, 0.0, 0.0, 1.6664044716282208E9, 0.0, 2022-10-21 19:07:51.628
197.0, -129890.77030310278, -157140.4972243902, -33404.61503322304, -140259.8116111531, 67592.81517181578, -103656.8184085868, 56118.70361789509, -111214.23378160404, 0.024, 0.962, -0.024, 192.0, 0.0, 0.0, 0.0, 0.0, 0.0, 0.0, 0.0, 0.0, 0.0, 1.6664044716282449E9, 0.0, 2022-10-21 19:07:51.628
198.0, -129885.40588443351, -157137.56914586655, -33398.35654477555, -140267.47825950125, 67595.45267766151, -103691.03892934787, 56097.357701940266, -111208.17645885664, 0.024, 0.962, -0.024, 192.0, 0.0, 0.0, 0.0, 0.0, 0.0, 0.0, 0.0, 0.0, 0.0, 1.66640447162827E9, 0.0, 2022-10-21 19:07:51.628
199.0, -129879.52737564176, -157132.80822429757, -33389.81817839362, -140252.88257037193, 67609.19900050153, -103692.06710959281, 56098.63175137422, -111191.23383655952, 0.024, 0.962, -0.024, 192.0, 0.0, 0.0, 0.0, 0.0, 0.0, 0.0, 0.0, 0.0, 0.0, 1.6664044716282935E9, 0.0, 2022-10-21 19:07:51.628
200.0, -129881.20375647591, -157134.4846051317, -33390.75695166075, -140247.74166914722, 67604.92981731055, -103673.96219658402, 56112.4451294476, -111196.57590348434, 0.024, 0.962, -0.024, 192.0, 0.0, 0.0, 0.0, 0.0, 0.0, 0.0, 0.0, 0.0, 0.0, 1.6664044716283166E9, 0.0, 2022-10-21 19:07:51.628
201.0, -129878.655657608, -157128.87431727344, -33387.89592837047, -140242.33254698903, 67608.64020689014, -103657.35485045372, 56129.00777208898, -111186.22704580153, 0.024, 0.962, -0.024, 192.0, 0.0, 0.0, 0.0, 0.0, 0.0, 0.0, 0.0, 0.0, 0.0, 1.666404471628339E9, 0.0, 2022-10-21 19:07:51.628
202.0, -129872.24070694932, -157121.1853171808, -33380.29633525566, -140242.69017490032, 67617.22327676097, -103664.52976042387, 56126.929059854636, -111176.90636836368, 0.02, 0.9560000000000001, -0.032, 192.0, 0.0, 160.0, 29.0, 224.0, 255.0, 0.0, 0.0, 0.0, 0.0, 1.6664044716283622E9, 0.0, 2022-10-21 19:07:51.628
203.0, -129872.39716916051, -157122.4817183592, -33381.0786463116, -140245.9982330797, 67615.52454418236, -103689.89899038065, 56108.66768463465, -111189.06571734736, 0.02, 0.9560000000000001, -0.032, 192.0, 0.0, 0.0, 0.0, 0.0, 0.0, 0.0, 0.0, 0.0, 0.0, 1.666404471628386E9, 0.0, 2022-10-21 19:07:51.628
204.0, -129881.29316345372, -157132.00356149717, -33389.14762605997, -140245.1041633015, 67609.60133190171, -103689.6754729361, 56111.52870792493, -111196.10651685078, 0.02, 0.9560000000000001, -0.032, 192.0, 0.0, 0.0, 0.0, 0.0, 0.0, 0.0, 0.0, 0.0, 0.0, 1.6664044716284094E9, 0.0, 2022-10-21 19:07:51.628
205.0, -129886.70228561191, -157138.2844016891, -33391.80748365015, -140241.88551209992, 67605.42155568858, -103675.01272857342, 56127.04081857691, -111201.22506633104, 0.02, 0.9560000000000001, -0.032, 192.0, 0.0, 0.0, 0.0, 0.0, 0.0, 0.0, 0.0, 0.0, 0.0, 1.6664044716284363E9, 0.0, 2022-10-21 19:07:51.628
206.0, -129880.98023903136, -157130.2824771741, -33389.75112316026, -140243.606596423, 67608.52844816785, -103674.56569368432, 56126.12439705425, -111197.44762151809, 0.02, 0.9560000000000001, -0.032, 192.0, 0.0, 0.0, 0.0, 0.0, 0.0, 0.0, 0.0, 0.0, 0.0, 1.6664044716284633E9, 0.0, 2022-10-21 19:07:51.628
207.0, -129872.1065964826, -157120.26889565814, -33381.41392247843, -140234.97882306325, 67616.9103523386, -103689.83193514729, 56116.53549868292, -111188.57397896935, 0.02, 0.9560000000000001, -0.032, 192.0, 0.0, 0.0, 0.0, 0.0, 0.0, 0.0, 0.0, 0.0, 0.0, 1.6664044716284897E9, 0.0, 2022-10-21 19:07:51.628
208.0, -129880.53320414225, -157130.95302950777, -33391.31574527213, -140248.63573892543, 67602.6052358872, -103689.94369386956, 56116.46844344956, -111204.37666229924, 0.02, 0.9560000000000001, -0.032, 192.0, 0.0, 0.0, 0.0, 0.0, 0.0, 0.0, 0.0, 0.0, 0.0, 1.6664044716285164E9, 0.0, 2022-10-21 19:07:51.628
209.0, -129882.0084192763, -157134.4846051317, -33397.19425406388, -140252.83786688303, 67593.12809623816, -103674.27512100639, 56128.40427498869, -111211.26099959148, 0.02, 0.9560000000000001, -0.032, 192.0, 0.0, 0.0, 0.0, 0.0, 0.0, 0.0, 0.0, 0.0, 0.0, 1.6664044716285648E9, 0.0, 2022-10-21 19:07:51.628
210.0, -129876.5545936292, -157129.7907387961, -33391.69572492787, -140251.83203838253, 67603.74517485443, -103688.04379559086, 56124.47036796455, -111203.01320588747, 0.02, 0.9560000000000001, -0.032, 192.0, 0.0, 0.0, 0.0, 0.0, 0.0, 0.0, 0.0, 0.0, 0.0, 1.6664044716285913E9, 0.0, 2022-10-21 19:07:51.628
211.0, -129876.17461397346, -157126.32621840553, -33386.26425102523, -140252.100259316, 67610.71891912448, -103702.97476088701, 56113.31684748136, -111192.64199646021, 0.018000000000000002, 0.9560000000000001, -0.036000000000000004, 192.0, 0.0, 144.0, 29.0, 224.0, 254.0, 224.0, 0.0, 0.0, 0.0, 1.666404471628615E9, 0.0, 2022-10-21 19:07:51.628
212.0, -129885.87527106707, -157135.6915993323, -33392.27687028371, -140246.5123232022, 67609.3554627127, -103682.14293505465, 56128.69484766661, -111191.81498191536, 0.018000000000000002, 0.9560000000000001, -0.036000000000000004, 192.0, 0.0, 0.0, 0.0, 0.0, 0.0, 0.0, 0.0, 0.0, 0.0, 1.6664044716286323E9, 0.0, 2022-10-21 19:07:51.628
213.0, -129882.09782625412, -157131.66828533035, -33395.20494880735, -140241.81845686657, 67602.89580856512, -103669.31303373731, 56140.16129257218, -111190.65269120368, 0.018000000000000002, 0.9560000000000001, -0.036000000000000004, 192.0, 0.0, 0.0, 0.0, 0.0, 0.0, 0.0, 0.0, 0.0, 0.0, 1.666404471628648E9, 0.0, 2022-10-21 19:07:51.628
214.0, -129879.9073552975, -157131.42241614134, -33391.80748365015, -140244.4112592234, 67605.93564581104, -103672.28581574987, 56138.90959488268, -111195.07833660583, 0.018000000000000002, 0.9560000000000001, -0.036000000000000004, 192.0, 0.0, 0.0, 0.0, 0.0, 0.0, 0.0, 0.0, 0.0, 0.0, 1.666404471628664E9, 0.0, 2022-10-21 19:07:51.628
215.0, -129874.4535296504, -157128.40493063987, -33383.42557947941, -140244.7018319013, 67613.42348020356, -103674.63274891768, 56136.428551248144, -111191.03267085942, 0.018000000000000002, 0.9560000000000001, -0.036000000000000004, 192.0, 0.0, 0.0, 0.0, 0.0, 0.0, 0.0, 0.0, 0.0, 0.0, 1.6664044716286795E9, 0.0, 2022-10-21 19:07:51.628
216.0, -129873.69357033892, -157128.42728238433, -33385.303126013656, -140250.98267209323, 67608.43904119004, -103689.89899038065, 56125.20797553158, -111196.50884825097, 0.018000000000000002, 0.9560000000000001, -0.036000000000000004, 192.0, 0.0, 0.0, 0.0, 0.0, 0.0, 0.0, 0.0, 0.0, 0.0, 1.6664044716286952E9, 0.0, 2022-10-21 19:07:51.628
217.0, -129876.57694537366, -157132.02591324164, -33388.32061151512, -140243.91952084537, 67604.39337544363, -103686.74739441245, 56127.75607439948, -111199.54868549689, 0.018000000000000002, 0.9560000000000001, -0.036000000000000004, 192.0, 0.0, 0.0, 0.0, 0.0, 0.0, 0.0, 0.0, 0.0, 0.0, 1.6664044716287112E9, 0.0, 2022-10-21 19:07:51.628
218.0, -129885.83056757816, -157143.84998605849, -33397.12719883051, -140248.9486633478, 67595.16210498358, -103675.43741171807, 56134.37219075826, -111210.81396470238, 0.018000000000000002, 0.9560000000000001, -0.036000000000000004, 192.0, 0.0, 0.0, 0.0, 0.0, 0.0, 0.0, 0.0, 0.0, 0.0, 1.6664044716287265E9, 0.0, 2022-10-21 19:07:51.628
219.0, -129882.43310242095, -157138.06088424457, -33393.70738192885, -140255.8553523845, 67597.88901780713, -103695.55398172785, 56120.37999872923, -111206.72359546705, 0.018000000000000002, 0.9560000000000001, -0.036000000000000004, 192.0, 0.0, 0.0, 0.0, 0.0, 0.0, 0.0, 0.0, 0.0, 0.0, 1.6664044716287425E9, 0.0, 2022-10-21 19:07:51.628
220.0, -129873.73827382784, -157127.10852946146, -33378.95523058835, -140235.9399480748, 67618.47497445047, -103696.67156895061, 56124.73858889802, -111188.61868245825, 0.018000000000000002, 0.9560000000000001, -0.036000000000000004, 192.0, 0.0, 0.0, 0.0, 0.0, 0.0, 0.0, 0.0, 0.0, 0.0, 1.6664044716287596E9, 0.0, 2022-10-21 19:07:51.628
221.0, -129874.2076604614, -157128.5837445955, -33378.865823610526, -140235.4929131857, 67617.02211106087, -103684.06518507781, 56135.44507449211, -111187.25522604647, 0.014, 0.9580000000000001, -0.038, 192.0, 0.0, 112.0, 29.0, 240.0, 254.0, 208.0, 0.0, 0.0, 0.0, 1.6664044716287756E9, 0.0, 2022-10-21 19:07:51.628
222.0, -129872.28541043824, -157127.19793643928, -33381.14570154496, -140242.51136094469, 67613.64699764813, -103677.53847569687, 56142.32941178435, -111186.33880452381, 0.014, 0.9580000000000001, -0.038, 192.0, 0.0, 0.0, 0.0, 0.0, 0.0, 0.0, 0.0, 0.0, 0.0, 1.666404471628792E9, 0.0, 2022-10-21 19:07:51.628
223.0, -129874.34177092812, -157128.7849102956, -33380.0281143222, -140247.58520693603, 67617.5138494389, -103685.0710135783, 56137.92611812665, -111184.26009228946, 0.014, 0.9580000000000001, -0.038, 192.0, 0.0, 0.0, 0.0, 0.0, 0.0, 0.0, 0.0, 0.0, 0.0, 1.6664044716288223E9, 0.0, 2022-10-21 19:07:51.628
224.0, -129875.79463431772, -157129.65662832937, -33379.5810794331, -140245.21592202378, 67617.5138494389, -103689.16138281363, 56132.025257590445, -111189.73626968102, 0.014, 0.9580000000000001, -0.038, 192.0, 0.0, 0.0, 0.0, 0.0, 0.0, 0.0, 0.0, 0.0, 0.0, 1.666404471628838E9, 0.0, 2022-10-21 19:07:51.628
225.0, -129876.39813141801, -157129.50016611817, -33381.32451550061, -140240.41029696589, 67613.1105557812, -103668.93305408157, 56143.17877807365, -111192.68669994912, 0.014, 0.9580000000000001, -0.038, 192.0, 0.0, 0.0, 0.0, 0.0, 0.0, 0.0, 0.0, 0.0, 0.0, 1.6664044716288545E9, 0.0, 2022-10-21 19:07:51.628
226.0, -129885.62940187806, -157142.0394947576, -33391.76278016124, -140251.31794826008, 67598.82779107426, -103662.87573133418, 56144.56458622988, -111200.1968860861, 0.014, 0.9580000000000001, -0.038, 192.0, 0.0, 0.0, 0.0, 0.0, 0.0, 0.0, 0.0, 0.0, 0.0, 1.6664044716288702E9, 0.0, 2022-10-21 19:07:51.628
227.0, -129879.61678261957, -157137.01035225517, -33388.47707372631, -140252.18966629382, 67603.02991903185, -103666.58612091377, 56143.134074584734, -111193.80428717188, 0.014, 0.9580000000000001, -0.038, 192.0, 0.0, 0.0, 0.0, 0.0, 0.0, 0.0, 0.0, 0.0, 0.0, 1.6664044716288855E9, 0.0, 2022-10-21 19:07:51.628
228.0, -129870.92195402646, -157131.55652660807, -33387.15832080344, -140260.52686697565, 67601.66646262008, -103692.84942064875, 56126.370266243255, -111187.67990919112, 0.014, 0.9580000000000001, -0.038, 192.0, 0.0, 0.0, 0.0, 0.0, 0.0, 0.0, 0.0, 0.0, 0.0, 1.666404471628901E9, 0.0, 2022-10-21 19:07:51.628
229.0, -129872.1512999715, -157134.55166036508, -33389.12527431551, -140256.99529135172, 67596.45850616199, -103703.19827833156, 56121.78815862992, -111189.51275223646, 0.014, 0.9580000000000001, -0.038, 192.0, 0.0, 0.0, 0.0, 0.0, 0.0, 0.0, 0.0, 0.0, 0.0, 1.6664044716289165E9, 0.0, 2022-10-21 19:07:51.628
230.0, -129874.0064947613, -157137.2338696997, -33390.91341387194, -140253.57547445004, 67594.91623579458, -103687.1720775571, 56134.908632625185, -111190.36211852577, 0.014, 0.9580000000000001, -0.038, 192.0, 0.0, 0.0, 0.0, 0.0, 0.0, 0.0, 0.0, 0.0, 0.0, 1.666404471628932E9, 0.0, 2022-10-21 19:07:51.628
231.0, -129872.68774183844, -157136.04922724358, -33389.95228886036, -140257.33056751854, 67598.8054393298, -103683.90872286663, 56133.992211102515, -111196.21827557306, 0.018000000000000002, 0.9580000000000001, -0.03, 192.0, 0.0, 144.0, 29.0, 240.0, 255.0, 16.0, 0.0, 0.0, 0.0, 1.6664044716289475E9, 0.0, 2022-10-21 19:07:51.628
232.0, -129866.8986400245, -157131.19889869678, -33385.16901554692, -140256.88353262944, 67605.08627952174, -103696.47040325051, 56122.90574585268, -111193.4466592606, 0.018000000000000002, 0.9580000000000001, -0.03, 192.0, 0.0, 0.0, 0.0, 0.0, 0.0, 0.0, 0.0, 0.0, 0.0, 1.666404471628964E9, 0.0, 2022-10-21 19:07:51.628
233.0, -129861.42246263295, -157127.80143353957, -33382.57621319011, -140247.11582030248, 67608.88607607914, -103706.84161267777, 56116.53549868292, -111187.76931616895, 0.018000000000000002, 0.9580000000000001, -0.03, 192.0, 0.0, 0.0, 0.0, 0.0, 0.0, 0.0, 0.0, 0.0, 0.0, 1.6664044716289797E9, 0.0, 2022-10-21 19:07:51.628
234.0, -129865.31166616819, -157133.36701790895, -33386.487768469786, -140248.2110557808, 67607.0085295449, -103692.00005435945, 56130.3488767563, -111184.41655450065, 0.018000000000000002, 0.9580000000000001, -0.03, 192.0, 0.0, 0.0, 0.0, 0.0, 0.0, 0.0, 0.0, 0.0, 0.0, 1.6664044716289957E9, 0.0, 2022-10-21 19:07:51.628
235.0, -129871.23487844884, -157140.4301691568, -33390.57813770511, -140257.6658436854, 67606.98617780044, -103685.74156591196, 56134.1486733137, -111183.65659518917, 0.018000000000000002, 0.9580000000000001, -0.03, 192.0, 0.0, 0.0, 0.0, 0.0, 0.0, 0.0, 0.0, 0.0, 0.0, 1.6664044716290112E9, 0.0, 2022-10-21 19:07:51.629
236.0, -129874.2076604614, -157143.6488203584, -33394.444989495874, -140270.98748338074, 67601.21942773098, -103705.85813592174, 56115.61907716025, -111192.21731331556, 0.018000000000000002, 0.9580000000000001, -0.03, 192.0, 0.0, 0.0, 0.0, 0.0, 0.0, 0.0, 0.0, 0.0, 0.0, 1.666404471629027E9, 0.0, 2022-10-21 19:07:51.629
237.0, -129865.89281152403, -157136.25039294368, -33383.31382075713, -140252.100259316, 67612.03767204734, -103713.01069414744, 56119.82120511785, -111178.0463073309, 0.018000000000000002, 0.9580000000000001, -0.03, 192.0, 0.0, 0.0, 0.0, 0.0, 0.0, 0.0, 0.0, 0.0, 0.0, 1.6664044716290443E9, 0.0, 2022-10-21 19:07:51.629
238.0, -129870.653733093, -157146.0404570151, -33394.310879029144, -140256.52590471815, 67606.65090163362, -103706.99807488896, 56126.370266243255, -111190.0491941034, 0.018000000000000002, 0.9580000000000001, -0.03, 192.0, 0.0, 0.0, 0.0, 0.0, 0.0, 0.0, 0.0, 0.0, 0.0, 1.6664044716290734E9, 0.0, 2022-10-21 19:07:51.629
239.0, -129873.82768080565, -157148.20857622728, -33400.63642270999, -140264.7066431888, 67603.76752659888, -103710.21672609053, 56123.33042899733, -111199.05694711888, 0.018000000000000002, 0.9580000000000001, -0.03, 192.0, 0.0, 0.0, 0.0, 0.0, 0.0, 0.0, 0.0, 0.0, 0.0, 1.6664044716290889E9, 0.0, 2022-10-21 19:07:51.629
240.0, -129871.03371274874, -157144.52053839216, -33397.596585464074, -140266.74065193423, 67605.37685219965, -103727.11464489874, 56110.94756256909, -111198.40874652968, 0.02, 0.9580000000000001, -0.03, 192.0, 0.0, 160.0, 29.0, 240.0, 255.0, 16.0, 0.0, 0.0, 0.0, 1.6664044716291032E9, 0.0, 2022-10-21 19:07:51.629
241.0, -129855.18632592993, -157130.90832601886, -33380.0281143222, -140238.6892126428, 67625.40401523162, -103718.732740728, 56123.75511214198, -111181.13084806572, 0.02, 0.9580000000000001, -0.03, 192.0, 0.0, 0.0, 0.0, 0.0, 0.0, 0.0, 0.0, 0.0, 0.0, 1.666404472105754E9, 0.0, 2022-10-21 19:07:52.105
242.0, -129860.7519102993, -157135.31161967656, -33383.58204169059, -140236.07405854156, 67622.14066054115, -103692.49179273746, 56142.083542595334, -111182.47195273305, 0.02, 0.9580000000000001, -0.03, 192.0, 0.0, 0.0, 0.0, 0.0, 0.0, 0.0, 0.0, 0.0, 0.0, 1.666404472105896E9, 0.0, 2022-10-21 19:07:52.105
243.0, -129866.27279117976, -157138.79849181158, -33389.907585371446, -140253.3966604944, 67616.17274477157, -103696.51510673942, 56137.03204834844, -111184.93064462312, 0.02, 0.9580000000000001, -0.03, 192.0, 0.0, 0.0, 0.0, 0.0, 0.0, 0.0, 0.0, 0.0, 0.0, 1.6664044721059587E9, 0.0, 2022-10-21 19:07:52.105
244.0, -129863.23295393384, -157135.75865456567, -33385.437236480386, -140256.57060820708, 67619.90548609561, -103719.22447910601, 56119.374170228744, -111177.19694104159, 0.02, 0.9580000000000001, -0.03, 192.0, 0.0, 0.0, 0.0, 0.0, 0.0, 0.0, 0.0, 0.0, 0.0, 1.6664044721059804E9, 0.0, 2022-10-21 19:07:52.105
245.0, -129872.3077621827, -157146.35338143748, -33392.634498194995, -140262.58322746554, 67612.61881740318, -103718.732740728, 56116.28962949391, -111185.55649346787, 0.02, 0.9580000000000001, -0.03, 192.0, 0.0, 0.0, 0.0, 0.0, 0.0, 0.0, 0.0, 0.0, 0.0, 1.666404472106002E9, 0.0, 2022-10-21 19:07:52.106
246.0, -129863.65763707849, -157140.11724473446, -33385.88427136949, -140253.48606747223, 67612.3058929808, -103715.7823104599, 56123.978629586534, -111185.1988655566, 0.02, 0.9580000000000001, -0.03, 192.0, 0.0, 0.0, 0.0, 0.0, 0.0, 0.0, 0.0, 0.0, 0.0, 1.6664044721060233E9, 0.0, 2022-10-21 19:07:52.106
247.0, -129868.41855864746, -157145.36990468146, -33389.0805708266, -140251.2508930267, 67611.09889878023, -103711.91545866913, 56128.15840579968, -111201.53799075342, 0.02, 0.9580000000000001, -0.03, 192.0, 0.0, 0.0, 0.0, 0.0, 0.0, 0.0, 0.0, 0.0, 0.0, 1.6664044721060467E9, 0.0, 2022-10-21 19:07:52.106
248.0, -129870.36316041509, -157148.45444541628, -33390.30991677164, -140259.29752103062, 67608.43904119004, -103719.33623782829, 56118.815376617364, -111211.17159261365, 0.02, 0.9580000000000001, -0.03, 192.0, 0.0, 0.0, 0.0, 0.0, 0.0, 0.0, 0.0, 0.0, 0.0, 1.6664044721060677E9, 0.0, 2022-10-21 19:07:52.106
249.0, -129868.37385515856, -157148.85677681648, -33388.41001849294, -140258.6046169525, 67609.1542970126, -103745.80070326338, 56102.49860316499, -111206.9918164005, 0.02, 0.9580000000000001, -0.03, 192.0, 0.0, 0.0, 0.0, 0.0, 0.0, 0.0, 0.0, 0.0, 0.0, 1.6664044721060889E9, 0.0, 2022-10-21 19:07:52.106
250.0, -129865.3563696571, -157145.45931165927, -33383.60439343505, -140245.32768074606, 67620.0172448179, -103736.72589501452, 56115.50731843797, -111199.03459537443, 0.024, 0.9540000000000001, -0.036000000000000004, 192.0, 0.0, 192.0, 29.0, 208.0, 254.0, 224.0, 0.0, 0.0, 0.0, 1.66640447210611E9, 0.0, 2022-10-21 19:07:52.106
251.0, -129865.46812837938, -157144.76640758116, -33385.19136729138, -140248.56868369208, 67619.0114163174, -103736.36826710323, 56121.45288246309, -111198.49815350749, 0.024, 0.9540000000000001, -0.036000000000000004, 192.0, 0.0, 0.0, 0.0, 0.0, 0.0, 0.0, 0.0, 0.0, 0.0, 1.6664044721061337E9, 0.0, 2022-10-21 19:07:52.106
252.0, -129864.17172720096, -157142.1959569688, -33385.25842252474, -140255.94475936232, 67620.88896285165, -103735.92123221412, 56119.038894061916, -111198.63226397423, 0.024, 0.9540000000000001, -0.036000000000000004, 192.0, 0.0, 0.0, 0.0, 0.0, 0.0, 0.0, 0.0, 0.0, 0.0, 1.6664044721061552E9, 0.0, 2022-10-21 19:07:52.106
253.0, -129869.89377378151, -157145.593422126, -33387.33713475909, -140262.09148908753, 67619.59256167324, -103725.95235418706, 56120.17883302914, -111198.69931920759, 0.024, 0.9540000000000001, -0.036000000000000004, 192.0, 0.0, 0.0, 0.0, 0.0, 0.0, 0.0, 0.0, 0.0, 0.0, 1.6664044721062524E9, 0.0, 2022-10-21 19:07:52.106
254.0, -129870.6090296041, -157147.00158202669, -33389.23703303779, -140253.41901223888, 67617.13386978315, -103730.35564784476, 56121.07290280735, -111193.53606623842, 0.024, 0.9540000000000001, -0.036000000000000004, 192.0, 0.0, 0.0, 0.0, 0.0, 0.0, 0.0, 0.0, 0.0, 0.0, 1.666404472106274E9, 0.0, 2022-10-21 19:07:52.106
255.0, -129870.36316041509, -157146.5321953931, -33391.13693131649, -140259.364576264, 67612.08237553625, -103725.25945010895, 56129.655972678185, -111190.22800805903, 0.024, 0.9540000000000001, -0.036000000000000004, 192.0, 0.0, 0.0, 0.0, 0.0, 0.0, 0.0, 0.0, 0.0, 0.0, 1.6664044721062949E9, 0.0, 2022-10-21 19:07:52.106
0.0, -129868.01622724728, -157141.10072149048, -33387.78416964819, -140265.60071296702, 67612.1047272807, -103730.78033098941, 56127.33139125483, -111190.4962289925, 0.024, 0.9540000000000001, -0.036000000000000004, 192.0, 0.0, 0.0, 0.0, 0.0, 0.0, 0.0, 0.0, 0.0, 0.0, 1.6664044721063159E9, 0.0, 2022-10-21 19:07:52.106
1.0, -129864.52935511224, -157135.64689584338, -33382.9785445903, -140255.1177448175, 67622.83356461926, -103743.65493579567, 56118.7930248729, -111185.71295567906, 0.024, 0.9540000000000001, -0.036000000000000004, 192.0, 0.0, 0.0, 0.0, 0.0, 0.0, 0.0, 0.0, 0.0, 0.0, 1.6664044721063373E9, 0.0, 2022-10-21 19:07:52.106
2.0, -129873.78297731675, -157149.12499774992, -33393.260347039744, -140263.94668387732, 67612.41765170309, -103737.95524095956, 56119.21770801755, -111194.51954299446, 0.024, 0.9540000000000001, -0.036000000000000004, 192.0, 0.0, 0.0, 0.0, 0.0, 0.0, 0.0, 0.0, 0.0, 0.0, 1.6664044721063595E9, 0.0, 2022-10-21 19:07:52.106
3.0, -129874.27471569476, -157148.65561111638, -33390.242861538274, -140259.4539832418, 67610.02601504636, -103731.7861594899, 56126.794949387906, -111193.75958368297, 0.024, 0.9540000000000001, -0.036000000000000004, 192.0, 0.0, 0.0, 0.0, 0.0, 0.0, 0.0, 0.0, 0.0, 0.0, 1.6664044721063817E9, 0.0, 2022-10-21 19:07:52.106
4.0, -129872.17365171596, -157144.6993523478, -33389.86288188254, -140263.6114077105, 67610.51775342438, -103733.46254032405, 56121.51993769645, -111197.22410407354, 0.02, 0.964, -0.038, 192.0, 0.0, 160.0, 30.0, 32.0, 254.0, 208.0, 0.0, 0.0, 0.0, 1.6664044721064043E9, 0.0, 2022-10-21 19:07:52.106
5.0, -129871.5030993823, -157144.67700060332, -33389.9299371159, -140265.69011994483, 67614.51871568189, -103731.31677285633, 56116.28962949391, -111203.97433089904, 0.02, 0.964, -0.038, 192.0, 0.0, 0.0, 0.0, 0.0, 0.0, 0.0, 0.0, 0.0, 0.0, 1.666404472106428E9, 0.0, 2022-10-21 19:07:52.106
6.0, -129861.31070391068, -157136.16098596586, -33377.256498009745, -140247.4510964693, 67623.37000648618, -103726.980534432, 56125.744417398506, -111193.49136274951, 0.02, 0.964, -0.038, 192.0, 0.0, 0.0, 0.0, 0.0, 0.0, 0.0, 0.0, 0.0, 0.0, 1.666404472106449E9, 0.0, 2022-10-21 19:07:52.106
7.0, -129864.19407894542, -157138.329105178, -33383.3808759905, -140252.0555558271, 67613.1552592701, -103721.37024657373, 56134.86392913627, -111198.16287734067, 0.02, 0.964, -0.038, 192.0, 0.0, 0.0, 0.0, 0.0, 0.0, 0.0, 0.0, 0.0, 0.0, 1.6664044721064641E9, 0.0, 2022-10-21 19:07:52.106
8.0, -129871.16782321547, -157148.20857622728, -33391.025172594214, -140272.93208514835, 67601.64411087563, -103725.66178150914, 56131.958202357084, -111206.83535418933, 0.02, 0.964, -0.038, 192.0, 0.0, 0.0, 0.0, 0.0, 0.0, 0.0, 0.0, 0.0, 0.0, 1.6664044721064796E9, 0.0, 2022-10-21 19:07:52.106
9.0, -129870.31845692616, -157147.7838930826, -33387.98533534829, -140275.61429448298, 67611.09889878023, -103741.84444449478, 56121.274068507446, -111198.81107792987, 0.02, 0.964, -0.038, 192.0, 0.0, 0.0, 0.0, 0.0, 0.0, 0.0, 0.0, 0.0, 0.0, 1.6664044721064951E9, 0.0, 2022-10-21 19:07:52.106
10.0, -129868.37385515856, -157144.36407618097, -33381.79390213417, -140265.64541645593, 67619.8607826067, -103742.55970031736, 56123.978629586534, -111191.1444295817, 0.02, 0.964, -0.038, 192.0, 0.0, 0.0, 0.0, 0.0, 0.0, 0.0, 0.0, 0.0, 0.0, 1.6664044721065104E9, 0.0, 2022-10-21 19:07:52.106
11.0, -129871.16782321547, -157148.81207332757, -33385.39253299148, -140256.79412565162, 67617.1115180387, -103716.0281796489, 56141.54710072841, -111196.39708952869, 0.02, 0.964, -0.038, 192.0, 0.0, 0.0, 0.0, 0.0, 0.0, 0.0, 0.0, 0.0, 0.0, 1.6664044721065257E9, 0.0, 2022-10-21 19:07:52.106
12.0, -129868.84324179211, -157143.55941338057, -33382.26328876773, -140252.92727386084, 67616.77624187186, -103721.12437738471, 56138.9990018605, -111197.15704884018, 0.02, 0.964, -0.038, 192.0, 0.0, 0.0, 0.0, 0.0, 0.0, 0.0, 0.0, 0.0, 0.0, 1.6664044721065564E9, 0.0, 2022-10-21 19:07:52.106
13.0, -129866.07162547966, -157137.4350353998, -33378.016457321224, -140254.04486108362, 67622.3641779857, -103722.91251694114, 56137.0991035818, -111196.1959238286, 0.02, 0.964, -0.038, 192.0, 0.0, 0.0, 0.0, 0.0, 0.0, 0.0, 0.0, 0.0, 0.0, 1.666404472106572E9, 0.0, 2022-10-21 19:07:52.106
