%OpenBCI Raw EEG Data
%Number of channels = 8
%Sample Rate = 250 Hz
%Board = OpenBCI_GUI$BoardCytonSerial
Sample Index, EXG Channel 0, EXG Channel 1, EXG Channel 2, EXG Channel 3, EXG Channel 4, EXG Channel 5, EXG Channel 6, EXG Channel 7, Accel Channel 0, Accel Channel 1, Accel Channel 2, Other, Other, Other, Other, Other, Other, Other, Analog Channel 0, Analog Channel 1, Analog Channel 2, Timestamp, Other, Timestamp (Formatted)
238.0, -129476.74894055713, -157044.18355753226, -33513.9597670984, -140200.80300579107, 67145.33324782053, -100161.47496241033, 54875.209018612986, -111453.1068745979, 0.0, 0.0, 0.0, 192.0, 0.0, 0.0, 0.0, 0.0, 0.0, 0.0, 0.0, 0.0, 0.0, 1.6664044488212306E9, 0.0, 2022-10-21 19:07:28.821
239.0, -129472.70327481072, -157043.24478426515, -33512.21633103089, -140195.25977316615, 67151.77055022366, -100165.52062815674, 54868.61525399867, -111452.72689494216, 0.0, 0.0, 0.0, 192.0, 0.0, 0.0, 0.0, 0.0, 0.0, 0.0, 0.0, 0.0, 0.0, 1.6664044488212545E9, 0.0, 2022-10-21 19:07:28.821
240.0, -129477.44184463524, -157050.55380470204, -33517.58074970016, -140193.2481161652, 67146.96492516577, -100161.89964555498, 54871.632739500135, -111453.19628157571, 0.0, 0.0, 0.0, 192.0, 0.0, 0.0, 0.0, 0.0, 0.0, 0.0, 0.0, 0.0, 0.0, 1.6664044488212798E9, 0.0, 2022-10-21 19:07:28.821
241.0, -129477.48654812414, -157050.53145295757, -33521.53700846875, -140198.1431482009, 67143.03101814163, -100175.66832013945, 54865.19543709701, -111459.56652874549, 0.024, 0.9540000000000001, -0.032, 192.0, 0.0, 192.0, 29.0, 208.0, 255.0, 0.0, 0.0, 0.0, 0.0, 1.6664044488213012E9, 0.0, 2022-10-21 19:07:28.821
242.0, -129483.2085947047, -157057.81812165, -33525.91795038199, -140208.82728205054, 67146.94257342131, -100184.22903826584, 54858.08758236022, -111457.73368570015, 0.024, 0.9540000000000001, -0.032, 192.0, 0.0, 0.0, 0.0, 0.0, 0.0, 0.0, 0.0, 0.0, 0.0, 1.6664044488213253E9, 0.0, 2022-10-21 19:07:28.821
243.0, -129480.77225455908, -157053.63834543686, -33519.14537181203, -140200.6465435799, 67157.24672761522, -100189.19112553491, 54854.220730569454, -111446.4013512613, 0.024, 0.9540000000000001, -0.032, 192.0, 0.0, 0.0, 0.0, 0.0, 0.0, 0.0, 0.0, 0.0, 0.0, 1.6664044488213472E9, 0.0, 2022-10-21 19:07:28.821
244.0, -129477.75476905762, -157051.62668843588, -33518.050136333724, -140189.18009867432, 67158.02903867114, -100186.62067492255, 54858.40050678259, -111446.49075823913, 0.024, 0.9540000000000001, -0.032, 192.0, 0.0, 0.0, 0.0, 0.0, 0.0, 0.0, 0.0, 0.0, 0.0, 1.6664044488213685E9, 0.0, 2022-10-21 19:07:28.821
245.0, -129478.85000453593, -157052.34194425846, -33522.028746846765, -140187.05668295108, 67153.73750373573, -100175.95889281738, 54870.04576564381, -111456.39258103284, 0.024, 0.9540000000000001, -0.032, 192.0, 0.0, 0.0, 0.0, 0.0, 0.0, 0.0, 0.0, 0.0, 0.0, 1.6664044488213887E9, 0.0, 2022-10-21 19:07:28.821
246.0, -129474.11143471139, -157045.45760696623, -33518.318357267184, -140187.48136609572, 67159.66071601638, -100167.73345085782, 54876.84069595822, -111450.91640364128, 0.024, 0.9540000000000001, -0.032, 192.0, 0.0, 0.0, 0.0, 0.0, 0.0, 0.0, 0.0, 0.0, 0.0, 1.6664044488214097E9, 0.0, 2022-10-21 19:07:28.821
247.0, -129474.37965564487, -157045.72582789967, -33514.07152582068, -140188.9342294853, 67161.76177999518, -100177.07648004014, 54866.8494661867, -111447.74245592863, 0.024, 0.9540000000000001, -0.032, 192.0, 0.0, 0.0, 0.0, 0.0, 0.0, 0.0, 0.0, 0.0, 0.0, 1.6664044488214307E9, 0.0, 2022-10-21 19:07:28.821
248.0, -129491.52344364209, -157064.94832813126, -33530.50005799533, -140204.46869188175, 67145.847337943, -100182.37384347605, 54854.28778580282, -111463.32162181397, 0.024, 0.9540000000000001, -0.032, 192.0, 0.0, 0.0, 0.0, 0.0, 0.0, 0.0, 0.0, 0.0, 0.0, 1.6664044488214529E9, 0.0, 2022-10-21 19:07:28.821
249.0, -129484.41558890529, -157058.98041236168, -33528.77897367227, -140201.8982412694, 67143.65686698638, -100165.78884909021, 54869.19639935451, -111458.87362466737, 0.024, 0.9540000000000001, -0.032, 192.0, 0.0, 0.0, 0.0, 0.0, 0.0, 0.0, 0.0, 0.0, 0.0, 1.6664044488214684E9, 0.0, 2022-10-21 19:07:28.821
250.0, -129480.59344060344, -157053.45953148123, -33528.37664227207, -140206.88268028293, 67146.00380015418, -100173.41079394947, 54868.61525399867, -111449.79881641851, 0.024, 0.9540000000000001, -0.032, 192.0, 0.0, 0.0, 0.0, 0.0, 0.0, 0.0, 0.0, 0.0, 0.0, 1.6664044488214836E9, 0.0, 2022-10-21 19:07:28.821
251.0, -129481.97924875967, -157053.28071752557, -33526.47674399337, -140209.20726170627, 67151.05529440109, -100192.99092209231, 54855.561835236775, -111454.53738624304, 0.026000000000000002, 0.96, -0.03, 192.0, 0.0, 208.0, 30.0, 0.0, 255.0, 16.0, 0.0, 0.0, 0.0, 1.6664044488214986E9, 0.0, 2022-10-21 19:07:28.821
252.0, -129479.85583303642, -157051.35846750243, -33519.368889256584, -140200.95946800226, 67155.88327120343, -100201.99867510781, 54853.48312300243, -111450.804644919, 0.026000000000000002, 0.96, -0.03, 192.0, 0.0, 0.0, 0.0, 0.0, 0.0, 0.0, 0.0, 0.0, 0.0, 1.6664044488215148E9, 0.0, 2022-10-21 19:07:28.821
253.0, -129480.74990281463, -157051.02319133558, -33516.19494154393, -140186.43083410632, 67160.64419277242, -100181.03273880873, 54873.82321045676, -111451.49754899711, 0.026000000000000002, 0.96, -0.03, 192.0, 0.0, 0.0, 0.0, 0.0, 0.0, 0.0, 0.0, 0.0, 0.0, 1.666404448821682E9, 0.0, 2022-10-21 19:07:28.821
254.0, -129484.37088541639, -157053.83951113696, -33521.35819451311, -140199.26073542365, 67151.50232929019, -100175.75772711728, 54875.52194303536, -111459.38771478985, 0.026000000000000002, 0.96, -0.03, 192.0, 0.0, 0.0, 0.0, 0.0, 0.0, 0.0, 0.0, 0.0, 0.0, 1.6664044488216991E9, 0.0, 2022-10-21 19:07:28.821
255.0, -129483.38740866035, -157055.02415359308, -33521.201732301924, -140202.88171802543, 67151.85995720148, -100196.7013116719, 54859.249873071894, -111457.73368570015, 0.026000000000000002, 0.96, -0.03, 192.0, 0.0, 0.0, 0.0, 0.0, 0.0, 0.0, 0.0, 0.0, 0.0, 1.6664044488217146E9, 0.0, 2022-10-21 19:07:28.821
0.0, -129483.812091805, -157055.15826405984, -33518.117191567086, -140194.96920048824, 67155.72680899224, -100190.24165752431, 54859.85337017219, -111454.38092403185, 0.026000000000000002, 0.96, -0.03, 192.0, 0.0, 0.0, 0.0, 0.0, 0.0, 0.0, 0.0, 0.0, 0.0, 1.66640444882173E9, 0.0, 2022-10-21 19:07:28.821
1.0, -129479.85583303642, -157053.14660705885, -33518.34070901164, -140187.9954562182, 67153.75985548018, -100164.00070953378, 54878.22650411446, -111451.74341818613, 0.026000000000000002, 0.96, -0.03, 192.0, 0.0, 0.0, 0.0, 0.0, 0.0, 0.0, 0.0, 0.0, 0.0, 1.666404448821745E9, 0.0, 2022-10-21 19:07:28.821
2.0, -129481.82278654848, -157055.69470592675, -33528.10842133861, -140204.78161630413, 67137.95717215027, -100165.72179385684, 54875.81251571328, -111468.52957827206, 0.026000000000000002, 0.96, -0.03, 192.0, 0.0, 0.0, 0.0, 0.0, 0.0, 0.0, 0.0, 0.0, 0.0, 1.6664044488217635E9, 0.0, 2022-10-21 19:07:28.821
3.0, -129481.37575165938, -157050.37499074638, -33518.29600552273, -140204.84867153747, 67146.8978699324, -100190.10754705759, 54860.85919867268, -111465.55679625951, 0.026000000000000002, 0.96, -0.03, 192.0, 0.0, 0.0, 0.0, 0.0, 0.0, 0.0, 0.0, 0.0, 0.0, 1.666404448821779E9, 0.0, 2022-10-21 19:07:28.821
4.0, -129489.35532442991, -157058.37691526138, -33508.93062459596, -140198.72429355673, 67160.53243405014, -100189.77227089075, 54860.590977739215, -111459.07479036746, 0.024, 0.962, -0.028, 192.0, 0.0, 192.0, 30.0, 16.0, 255.0, 32.0, 0.0, 0.0, 0.0, 1.666404448821797E9, 0.0, 2022-10-21 19:07:28.821
5.0, -129487.12014998439, -157054.6218221929, -33509.42236297397, -140197.98668598972, 67157.69376250432, -100170.54977065919, 54874.40435581259, -111454.78325543205, 0.024, 0.962, -0.028, 192.0, 0.0, 0.0, 0.0, 0.0, 0.0, 0.0, 0.0, 0.0, 0.0, 1.666404448821813E9, 0.0, 2022-10-21 19:07:28.821
6.0, -129470.66926606528, -157034.5723074165, -33504.147351282525, -140193.2481161652, 67159.37014333847, -100178.26112249627, 54878.22650411446, -111441.64042969233, 0.024, 0.962, -0.028, 192.0, 0.0, 0.0, 0.0, 0.0, 0.0, 0.0, 0.0, 0.0, 0.0, 1.666404448821828E9, 0.0, 2022-10-21 19:07:28.821
7.0, -129473.73145505566, -157036.1145777839, -33513.646842676026, -140201.85353778047, 67151.99406766822, -100189.36993949056, 54870.82807669975, -111454.17975833175, 0.024, 0.962, -0.028, 192.0, 0.0, 0.0, 0.0, 0.0, 0.0, 0.0, 0.0, 0.0, 0.0, 1.666404448821843E9, 0.0, 2022-10-21 19:07:28.821
8.0, -129481.73337957065, -157041.27783075307, -33524.10745908111, -140214.43756990883, 67140.52762276265, -100209.17358507795, 54852.4996462464, -111468.30606082751, 0.024, 0.962, -0.028, 192.0, 0.0, 0.0, 0.0, 0.0, 0.0, 0.0, 0.0, 0.0, 0.0, 1.666404448821858E9, 0.0, 2022-10-21 19:07:28.821
9.0, -129486.67311509528, -157043.73652264316, -33528.48840099435, -140208.26848843915, 67139.85707042897, -100201.99867510781, 54858.08758236022, -111474.05045915252, 0.024, 0.962, -0.028, 192.0, 0.0, 0.0, 0.0, 0.0, 0.0, 0.0, 0.0, 0.0, 0.0, 1.6664044488218727E9, 0.0, 2022-10-21 19:07:28.821
10.0, -129473.61969633338, -157028.9620195582, -33510.8081711302, -140190.00711321915, 67157.24672761522, -100196.03075933823, 54874.73963197943, -111457.17489208876, 0.024, 0.962, -0.028, 192.0, 0.0, 0.0, 0.0, 0.0, 0.0, 0.0, 0.0, 0.0, 0.0, 1.6664044488218875E9, 0.0, 2022-10-21 19:07:28.821
11.0, -129472.05507422151, -157027.576211402, -33504.75084838281, -140191.66114230885, 67164.91337596338, -100196.0531110827, 54876.19249536902, -111453.37509553136, 0.024, 0.962, -0.028, 192.0, 0.0, 0.0, 0.0, 0.0, 0.0, 0.0, 0.0, 0.0, 0.0, 1.6664044488219028E9, 0.0, 2022-10-21 19:07:28.821
12.0, -129473.28442016656, -157026.14569975683, -33507.76833388428, -140196.6008778335, 67163.66167827389, -100197.28245702773, 54870.783373210834, -111454.1574065873, 0.024, 0.962, -0.028, 192.0, 0.0, 0.0, 0.0, 0.0, 0.0, 0.0, 0.0, 0.0, 0.0, 1.6664044488219178E9, 0.0, 2022-10-21 19:07:28.821
13.0, -129474.40200738932, -157024.40226368932, -33511.32226125267, -140193.18106093182, 67160.68889626133, -100196.74601516081, 54873.39852731211, -111452.36926703088, 0.024, 0.962, -0.028, 192.0, 0.0, 0.0, 0.0, 0.0, 0.0, 0.0, 0.0, 0.0, 0.0, 1.6664044488219895E9, 0.0, 2022-10-21 19:07:28.821
14.0, -129482.1133592264, -157030.4148829478, -33517.53604621125, -140193.91866849884, 67156.62087877047, -100188.900552857, 54882.4509838165, -111457.24194732214, 0.024, 0.9560000000000001, -0.032, 192.0, 0.0, 192.0, 29.0, 224.0, 255.0, 0.0, 0.0, 0.0, 0.0, 1.666404448822005E9, 0.0, 2022-10-21 19:07:28.822
15.0, -129485.82374880598, -157032.6724091378, -33519.48064797886, -140202.90406976987, 67154.78803572513, -100187.93942784541, 54884.88732396213, -111448.30124954, 0.024, 0.9560000000000001, -0.032, 192.0, 0.0, 0.0, 0.0, 0.0, 0.0, 0.0, 0.0, 0.0, 0.0, 1.6664044488220212E9, 0.0, 2022-10-21 19:07:28.822
16.0, -129481.77808305957, -157029.09613002493, -33516.61962468858, -140206.21212794926, 67156.48676830373, -100198.62356169506, 54876.23719885793, -111447.34012452843, 0.024, 0.9560000000000001, -0.032, 192.0, 0.0, 0.0, 0.0, 0.0, 0.0, 0.0, 0.0, 0.0, 0.0, 1.6664044488220367E9, 0.0, 2022-10-21 19:07:28.822
17.0, -129477.73241731316, -157023.75406310012, -33508.327127495664, -140191.1917556753, 67161.27004161717, -100197.7518436613, 54879.321739592764, -111448.56947047348, 0.024, 0.9560000000000001, -0.032, 192.0, 0.0, 0.0, 0.0, 0.0, 0.0, 0.0, 0.0, 0.0, 0.0, 1.6664044488220522E9, 0.0, 2022-10-21 19:07:28.822
18.0, -129478.22415569118, -157021.7647578436, -33504.30381349371, -140182.87690673792, 67160.8453584725, -100191.895686614, 54887.010739685385, -111449.53059548505, 0.024, 0.9560000000000001, -0.032, 192.0, 0.0, 0.0, 0.0, 0.0, 0.0, 0.0, 0.0, 0.0, 0.0, 1.6664044488220675E9, 0.0, 2022-10-21 19:07:28.822
19.0, -129484.2591266941, -157026.34686545693, -33511.97046184188, -140199.32779065703, 67153.49163454672, -100190.64398892451, 54884.28382686184, -111456.88431941085, 0.024, 0.9560000000000001, -0.032, 192.0, 0.0, 0.0, 0.0, 0.0, 0.0, 0.0, 0.0, 0.0, 0.0, 1.6664044488220825E9, 0.0, 2022-10-21 19:07:28.822
20.0, -129475.20667018971, -157017.38381593034, -33508.03655481774, -140201.11593021345, 67158.11844564897, -100207.02781761024, 54871.31981507776, -111450.3576100299, 0.024, 0.9560000000000001, -0.032, 192.0, 0.0, 0.0, 0.0, 0.0, 0.0, 0.0, 0.0, 0.0, 0.0, 1.6664044488220975E9, 0.0, 2022-10-21 19:07:28.822
21.0, -129476.68188532376, -157019.7083973537, -33509.08708680714, -140193.91866849884, 67159.5042538052, -100205.93258213194, 54872.43740230053, -111446.1554820723, 0.024, 0.9560000000000001, -0.032, 192.0, 0.0, 0.0, 0.0, 0.0, 0.0, 0.0, 0.0, 0.0, 0.0, 1.6664044488221126E9, 0.0, 2022-10-21 19:07:28.822
22.0, -129481.308696426, -157023.95522880022, -33513.848008376124, -140189.0459882076, 67155.45858805878, -100177.65762539598, 54892.06223393229, -111447.96597337318, 0.024, 0.9560000000000001, -0.032, 192.0, 0.0, 0.0, 0.0, 0.0, 0.0, 0.0, 0.0, 0.0, 0.0, 1.6664044488221278E9, 0.0, 2022-10-21 19:07:28.822
23.0, -129486.65076335083, -157027.3750457019, -33518.83244738966, -140195.9973807332, 67147.16609086587, -100169.87921832553, 54900.17591716957, -111449.24002280713, 0.024, 0.9560000000000001, -0.032, 192.0, 0.0, 0.0, 0.0, 0.0, 0.0, 0.0, 0.0, 0.0, 0.0, 1.6664044488221428E9, 0.0, 2022-10-21 19:07:28.822
24.0, -129482.29217318204, -157022.94940029972, -33513.5574356982, -140197.6514098229, 67153.22341361326, -100205.08321584263, 54879.34409133722, -111448.14478732883, 0.016, 0.96, -0.034, 192.0, 0.0, 128.0, 30.0, 0.0, 254.0, 240.0, 0.0, 0.0, 0.0, 1.6664044488221579E9, 0.0, 2022-10-21 19:07:28.822
25.0, -129476.79364404603, -157016.60150487442, -33505.82373211667, -140183.70392128278, 67162.2535183732, -100204.07738734214, 54879.29938784831, -111445.68609543874, 0.016, 0.96, -0.034, 192.0, 0.0, 0.0, 0.0, 0.0, 0.0, 0.0, 0.0, 0.0, 0.0, 1.6664044488221755E9, 0.0, 2022-10-21 19:07:28.822
26.0, -129486.02491450608, -157025.9221823123, -33515.27852002127, -140187.4366626068, 67147.9484019218, -100184.56431443266, 54891.972826954465, -111456.21376707719, 0.016, 0.96, -0.034, 192.0, 0.0, 0.0, 0.0, 0.0, 0.0, 0.0, 0.0, 0.0, 0.0, 1.6664044488221905E9, 0.0, 2022-10-21 19:07:28.822
27.0, -129497.49135941165, -157039.15441502983, -33525.09093583714, -140207.77675006114, 67133.10684360348, -100193.57206744816, 54888.19538214152, -111472.59759576293, 0.016, 0.96, -0.034, 192.0, 0.0, 0.0, 0.0, 0.0, 0.0, 0.0, 0.0, 0.0, 0.0, 1.6664044488222058E9, 0.0, 2022-10-21 19:07:28.822
28.0, -129490.33880118595, -157033.78999636055, -33516.507865966305, -140204.17811920383, 67148.06016064408, -100200.32229427366, 54887.4577745745, -111463.09810436942, 0.016, 0.96, -0.034, 192.0, 0.0, 0.0, 0.0, 0.0, 0.0, 0.0, 0.0, 0.0, 0.0, 1.6664044488222368E9, 0.0, 2022-10-21 19:07:28.822
29.0, -129478.47002488018, -157024.4693189227, -33508.327127495664, -140195.68445631082, 67158.23020437124, -100218.36015204909, 54876.70658549149, -111446.75897917259, 0.016, 0.96, -0.034, 192.0, 0.0, 0.0, 0.0, 0.0, 0.0, 0.0, 0.0, 0.0, 0.0, 1.6664044488222525E9, 0.0, 2022-10-21 19:07:28.822
30.0, -129482.1133592264, -157031.9124498263, -33513.04334557573, -140185.1344329279, 67158.09609390452, -100207.96659087737, 54882.540390794326, -111446.02137160557, 0.016, 0.96, -0.034, 192.0, 0.0, 0.0, 0.0, 0.0, 0.0, 0.0, 0.0, 0.0, 0.0, 1.6664044488222735E9, 0.0, 2022-10-21 19:07:28.822
31.0, -129488.30479244051, -157040.49551969714, -33516.865493877594, -140185.55911607255, 67158.14079739343, -100192.16390754747, 54890.095280420224, -111448.9494501292, 0.016, 0.96, -0.034, 192.0, 0.0, 0.0, 0.0, 0.0, 0.0, 0.0, 0.0, 0.0, 0.0, 1.666404448822289E9, 0.0, 2022-10-21 19:07:28.822
32.0, -129483.29800168253, -157035.77930161706, -33515.189113043445, -140186.20731666178, 67162.81231198458, -100187.33593074512, 54890.45290833151, -111444.14382507133, 0.016, 0.96, -0.034, 192.0, 0.0, 0.0, 0.0, 0.0, 0.0, 0.0, 0.0, 0.0, 0.0, 1.666404448822304E9, 0.0, 2022-10-21 19:07:28.822
33.0, -129490.49526339714, -157041.41194121982, -33524.33097652566, -140194.5445173436, 67154.07277990256, -100206.44667225442, 54873.89026569013, -111452.81630191999, 0.016, 0.96, -0.034, 192.0, 0.0, 0.0, 0.0, 0.0, 0.0, 0.0, 0.0, 0.0, 0.0, 1.666404448822319E9, 0.0, 2022-10-21 19:07:28.822
34.0, -129502.1181705139, -157055.69470592675, -33539.932494155466, -140201.85353778047, 67140.12529136245, -100214.67211421396, 54868.92817842105, -111469.28953758354, 0.008, 0.962, -0.03, 192.0, 0.0, 64.0, 30.0, 16.0, 255.0, 16.0, 0.0, 0.0, 0.0, 1.6664044488223338E9, 0.0, 2022-10-21 19:07:28.822
35.0, -129494.98796403265, -157049.86090062393, -33528.5107527388, -140182.60868580447, 67150.80942521208, -100191.67216916945, 54895.750271767414, -111453.308040298, 0.008, 0.962, -0.03, 192.0, 0.0, 0.0, 0.0, 0.0, 0.0, 0.0, 0.0, 0.0, 0.0, 1.6664044488223503E9, 0.0, 2022-10-21 19:07:28.822
36.0, -129489.33297268546, -157042.66363890932, -33519.99473810133, -140172.77391824411, 67163.79578874061, -100175.0424712947, 54906.34499863923, -111443.47327273767, 0.008, 0.962, -0.03, 192.0, 0.0, 0.0, 0.0, 0.0, 0.0, 0.0, 0.0, 0.0, 0.0, 1.666404448822365E9, 0.0, 2022-10-21 19:07:28.822
37.0, -129493.17747273177, -157049.59267969045, -33530.20948531741, -140194.63392432142, 67156.91145144838, -100196.74601516081, 54882.22746637195, -111450.91640364128, 0.008, 0.962, -0.03, 192.0, 0.0, 0.0, 0.0, 0.0, 0.0, 0.0, 0.0, 0.0, 0.0, 1.66640444882238E9, 0.0, 2022-10-21 19:07:28.822
38.0, -129492.50692039811, -157050.53145295757, -33531.885866151555, -140189.0459882076, 67156.95615493729, -100199.09294832862, 54879.09822214821, -111450.71523794119, 0.008, 0.962, -0.03, 192.0, 0.0, 0.0, 0.0, 0.0, 0.0, 0.0, 0.0, 0.0, 0.0, 1.6664044488223948E9, 0.0, 2022-10-21 19:07:28.822
39.0, -129492.50692039811, -157053.99597334815, -33533.696357452434, -140190.834127764, 67147.90369843288, -100203.29507628622, 54877.73476573644, -111464.52861601456, 0.008, 0.962, -0.03, 192.0, 0.0, 0.0, 0.0, 0.0, 0.0, 0.0, 0.0, 0.0, 0.0, 1.6664044488224096E9, 0.0, 2022-10-21 19:07:28.822
40.0, -129495.27853671057, -157057.43814199427, -33540.46893602239, -140199.30543891256, 67139.72295996225, -100199.67409368446, 54879.545257037316, -111473.60342426342, 0.008, 0.962, -0.03, 192.0, 0.0, 0.0, 0.0, 0.0, 0.0, 0.0, 0.0, 0.0, 0.0, 1.6664044488224247E9, 0.0, 2022-10-21 19:07:28.822
41.0, -129493.98213553216, -157055.42648499328, -33538.21140983241, -140202.61349709195, 67146.20496585428, -100223.36694280707, 54863.65316672959, -111468.35076431642, 0.008, 0.962, -0.03, 192.0, 0.0, 0.0, 0.0, 0.0, 0.0, 0.0, 0.0, 0.0, 0.0, 1.6664044488224397E9, 0.0, 2022-10-21 19:07:28.822
42.0, -129495.45735066621, -157059.65096469535, -33541.40770928952, -140198.9925144902, 67146.00380015418, -100231.48062604436, 54858.75813469388, -111472.70935448521, 0.008, 0.962, -0.03, 192.0, 0.0, 0.0, 0.0, 0.0, 0.0, 0.0, 0.0, 0.0, 0.0, 1.6664044488224547E9, 0.0, 2022-10-21 19:07:28.822
43.0, -129493.89272855435, -157057.90752862784, -33539.865438922105, -140196.71263655575, 67144.66269548687, -100213.53217524674, 54873.62204475666, -111475.63743300884, 0.014, 0.968, -0.03, 192.0, 0.0, 112.0, 30.0, 64.0, 255.0, 16.0, 0.0, 0.0, 0.0, 1.6664044488225148E9, 0.0, 2022-10-21 19:07:28.822
44.0, -129486.561356373, -157050.75497040214, -33530.835334162155, -140192.66697080934, 67152.53050953514, -100194.64495118201, 54888.93298970855, -111468.95426141671, 0.014, 0.968, -0.03, 192.0, 0.0, 0.0, 0.0, 0.0, 0.0, 0.0, 0.0, 0.0, 0.0, 1.6664044488225315E9, 0.0, 2022-10-21 19:07:28.822
45.0, -129485.35436217242, -157048.45274072324, -33530.8129824177, -140196.086787711, 67153.44693105781, -100201.68575068543, 54882.04865241631, -111466.51792127108, 0.014, 0.968, -0.03, 192.0, 0.0, 0.0, 0.0, 0.0, 0.0, 0.0, 0.0, 0.0, 0.0, 1.6664044488225467E9, 0.0, 2022-10-21 19:07:28.822
46.0, -129487.6118883624, -157047.62572617838, -33533.49519175234, -140194.96920048824, 67150.98823916772, -100215.63323922554, 54873.06325114528, -111469.13307537236, 0.014, 0.968, -0.03, 192.0, 0.0, 0.0, 0.0, 0.0, 0.0, 0.0, 0.0, 0.0, 0.0, 1.666404448822564E9, 0.0, 2022-10-21 19:07:28.822
47.0, -129488.03657150705, -157049.48092096817, -33535.328034797676, -140194.1868894323, 67147.43431179933, -100220.66238172799, 54877.354786080694, -111469.20013060572, 0.014, 0.968, -0.03, 192.0, 0.0, 0.0, 0.0, 0.0, 0.0, 0.0, 0.0, 0.0, 0.0, 1.6664044488225791E9, 0.0, 2022-10-21 19:07:28.822
48.0, -129482.04630399303, -157044.02709532107, -33530.72357543988, -140190.11887194143, 67151.18940486782, -100218.0025241378, 54887.10014666321, -111462.71812471368, 0.014, 0.968, -0.03, 192.0, 0.0, 0.0, 0.0, 0.0, 0.0, 0.0, 0.0, 0.0, 0.0, 1.6664044488225942E9, 0.0, 2022-10-21 19:07:28.822
49.0, -129483.4097604048, -157043.93768834326, -33534.52337199728, -140204.80396804857, 67146.29437283211, -100235.50394004631, 54871.34216682222, -111468.86485443889, 0.014, 0.968, -0.03, 192.0, 0.0, 0.0, 0.0, 0.0, 0.0, 0.0, 0.0, 0.0, 0.0, 1.66640444882261E9, 0.0, 2022-10-21 19:07:28.822
50.0, -129488.32714418498, -157045.99404883315, -33536.915008654, -140198.00903773415, 67151.01059091218, -100233.46993130088, 54869.28580633233, -111466.83084569346, 0.014, 0.968, -0.03, 192.0, 0.0, 0.0, 0.0, 0.0, 0.0, 0.0, 0.0, 0.0, 0.0, 1.6664044488226244E9, 0.0, 2022-10-21 19:07:28.822
51.0, -129491.12111224189, -157049.01153433463, -33537.1161743541, -140195.66210456635, 67149.91535543387, -100214.8062246807, 54885.3567105957, -111461.42172353527, 0.014, 0.968, -0.03, 192.0, 0.0, 0.0, 0.0, 0.0, 0.0, 0.0, 0.0, 0.0, 0.0, 1.6664044488226388E9, 0.0, 2022-10-21 19:07:28.822
52.0, -129486.33783892845, -157041.7695691311, -33530.701223695425, -140190.65531380835, 67154.60922176948, -100195.8519453826, 54905.115652694185, -111449.46354025169, 0.014, 0.968, -0.03, 192.0, 0.0, 0.0, 0.0, 0.0, 0.0, 0.0, 0.0, 0.0, 0.0, 1.6664044488226533E9, 0.0, 2022-10-21 19:07:28.822
53.0, -129486.24843195063, -157040.65198190833, -33527.92960738297, -140193.80690977655, 67157.47024505977, -100212.14636709052, 54895.683216534046, -111450.84934840791, 0.026000000000000002, 0.96, -0.026000000000000002, 192.0, 0.0, 208.0, 30.0, 0.0, 255.0, 48.0, 0.0, 0.0, 0.0, 1.6664044488226676E9, 0.0, 2022-10-21 19:07:28.822
54.0, -129488.99769651864, -157042.75304588713, -33530.902389395524, -140201.40650289136, 67153.37987582444, -100218.31544856018, 54890.47526007596, -111454.85031066541, 0.026000000000000002, 0.96, -0.026000000000000002, 192.0, 0.0, 0.0, 0.0, 0.0, 0.0, 0.0, 0.0, 0.0, 0.0, 1.6664044488226829E9, 0.0, 2022-10-21 19:07:28.822
55.0, -129491.54579538654, -157043.6694674098, -33530.991796373346, -140196.3997121334, 67145.66852398736, -100210.17941357844, 54900.46648984748, -111447.78715941754, 0.026000000000000002, 0.96, -0.026000000000000002, 192.0, 0.0, 0.0, 0.0, 0.0, 0.0, 0.0, 0.0, 0.0, 0.0, 1.6664044488226988E9, 0.0, 2022-10-21 19:07:28.822
56.0, -129487.47777789568, -157040.1155400414, -33526.38733701555, -140188.06251145154, 67151.30116359009, -100213.37571303555, 54906.43440561705, -111447.72010418418, 0.026000000000000002, 0.96, -0.026000000000000002, 192.0, 0.0, 0.0, 0.0, 0.0, 0.0, 0.0, 0.0, 0.0, 0.0, 1.6664044488227134E9, 0.0, 2022-10-21 19:07:28.822
57.0, -129494.60798437691, -157046.57519418898, -33528.01901436079, -140189.62713356342, 67160.71124800578, -100210.38057927854, 54905.607391072204, -111452.16810133078, 0.026000000000000002, 0.96, -0.026000000000000002, 192.0, 0.0, 0.0, 0.0, 0.0, 0.0, 0.0, 0.0, 0.0, 0.0, 1.6664044488227277E9, 0.0, 2022-10-21 19:07:28.822
58.0, -129493.78096983206, -157044.07179880998, -33525.69443293744, -140200.57948834653, 67154.94449793632, -100226.04915214171, 54888.01656818588, -111451.18462457474, 0.026000000000000002, 0.96, -0.026000000000000002, 192.0, 0.0, 0.0, 0.0, 0.0, 0.0, 0.0, 0.0, 0.0, 0.0, 1.6664044488227563E9, 0.0, 2022-10-21 19:07:28.822
59.0, -129487.54483312904, -157040.74138888615, -33521.53700846875, -140187.86134575144, 67161.02417242815, -100221.24352708382, 54896.84550724572, -111445.48492973864, 0.026000000000000002, 0.96, -0.026000000000000002, 192.0, 0.0, 0.0, 0.0, 0.0, 0.0, 0.0, 0.0, 0.0, 0.0, 1.6664044488227704E9, 0.0, 2022-10-21 19:07:28.822
60.0, -129485.04143775004, -157040.69668539724, -33520.01708984579, -140181.3793398594, 67162.76760849568, -100209.53121298924, 54908.53546959585, -111444.3002872825, 0.026000000000000002, 0.96, -0.026000000000000002, 192.0, 0.0, 0.0, 0.0, 0.0, 0.0, 0.0, 0.0, 0.0, 0.0, 1.666404448822785E9, 0.0, 2022-10-21 19:07:28.822
61.0, -129488.79653081854, -157042.73069414267, -33522.83340964716, -140184.86621199443, 67164.17576839635, -100209.44180601143, 54906.032074216855, -111447.6083454619, 0.026000000000000002, 0.96, -0.026000000000000002, 192.0, 0.0, 0.0, 0.0, 0.0, 0.0, 0.0, 0.0, 0.0, 0.0, 1.6664044488227992E9, 0.0, 2022-10-21 19:07:28.822
62.0, -129487.94716452924, -157040.98725807515, -33525.91795038199, -140190.00711321915, 67163.81814048508, -100211.72168394587, 54900.98057996995, -111447.42953150625, 0.026000000000000002, 0.96, -0.026000000000000002, 192.0, 0.0, 0.0, 0.0, 0.0, 0.0, 0.0, 0.0, 0.0, 0.0, 1.6664044488228135E9, 0.0, 2022-10-21 19:07:28.822
63.0, -129485.46612089469, -157037.92506908477, -33526.96848237139, -140186.9449242288, 67159.59366078302, -100227.59142250913, 54891.74930950991, -111446.78133091705, 0.022, 0.96, -0.024, 192.0, 0.0, 176.0, 30.0, 0.0, 255.0, 64.0, 0.0, 0.0, 0.0, 1.666404448822828E9, 0.0, 2022-10-21 19:07:28.822
64.0, -129483.92385052728, -157038.34975222943, -33516.68667992195, -140163.29677859508, 67170.94834696631, -100219.54479450521, 54909.00485622941, -111442.93683087073, 0.022, 0.96, -0.024, 192.0, 0.0, 0.0, 0.0, 0.0, 0.0, 0.0, 0.0, 0.0, 0.0, 1.6664044488228433E9, 0.0, 2022-10-21 19:07:28.822
65.0, -129498.74305710115, -157051.55963320253, -33521.604063702114, -140160.65927274936, 67175.01636445717, -100198.44474773941, 54924.896946537134, -111445.99901986112, 0.022, 0.96, -0.024, 192.0, 0.0, 0.0, 0.0, 0.0, 0.0, 0.0, 0.0, 0.0, 0.0, 1.6664044488228576E9, 0.0, 2022-10-21 19:07:28.822
66.0, -129509.51659792861, -157062.44493275226, -33535.99858713133, -140193.76220628765, 67156.03973341463, -100208.79360542222, 54904.80272827181, -111466.62967999336, 0.022, 0.96, -0.024, 192.0, 0.0, 0.0, 0.0, 0.0, 0.0, 0.0, 0.0, 0.0, 0.0, 1.666404448822872E9, 0.0, 2022-10-21 19:07:28.822
67.0, -129508.10843802792, -157058.60043270595, -33533.49519175234, -140193.35987488745, 67153.44693105781, -100234.87809120156, 54885.78139374035, -111469.58011026146, 0.022, 0.96, -0.024, 192.0, 0.0, 0.0, 0.0, 0.0, 0.0, 0.0, 0.0, 0.0, 0.0, 1.6664044488228862E9, 0.0, 2022-10-21 19:07:28.822
68.0, -129511.79647586304, -157058.60043270595, -33537.3173400542, -140186.60964806195, 67149.60243101149, -100228.73136147636, 54894.96796071148, -111469.53540677256, 0.022, 0.96, -0.024, 192.0, 0.0, 0.0, 0.0, 0.0, 0.0, 0.0, 0.0, 0.0, 0.0, 1.6664044488229022E9, 0.0, 2022-10-21 19:07:28.822
69.0, -129517.98790907717, -157065.4177147648, -33542.659406979015, -140193.60574407646, 67147.83664319952, -100219.27657357175, 54903.99806547142, -111468.39546780533, 0.022, 0.96, -0.024, 192.0, 0.0, 0.0, 0.0, 0.0, 0.0, 0.0, 0.0, 0.0, 0.0, 1.6664044488229165E9, 0.0, 2022-10-21 19:07:28.822
70.0, -129513.31639448601, -157061.32734552948, -33535.75271794233, -140196.55617434456, 67155.57034678107, -100228.84312019862, 54894.833850244744, -111467.05436313801, 0.022, 0.96, -0.024, 192.0, 0.0, 0.0, 0.0, 0.0, 0.0, 0.0, 0.0, 0.0, 0.0, 1.6664044488229308E9, 0.0, 2022-10-21 19:07:28.822
71.0, -129509.96363281771, -157056.90170012735, -33530.65652020652, -140182.6310375489, 67166.0533149306, -100238.87905345907, 54889.044748430824, -111458.13601710035, 0.022, 0.96, -0.024, 192.0, 0.0, 0.0, 0.0, 0.0, 0.0, 0.0, 0.0, 0.0, 0.0, 1.666404448822945E9, 0.0, 2022-10-21 19:07:28.822
72.0, -129511.05886829602, -157059.53920597307, -33532.2658458073, -140173.95856070027, 67164.66750677438, -100220.77414045026, 54905.3615218832, -111457.15254034431, 0.02, 0.964, -0.016, 192.0, 0.0, 160.0, 30.0, 32.0, 255.0, 128.0, 0.0, 0.0, 0.0, 1.6664044488229594E9, 0.0, 2022-10-21 19:07:28.822
73.0, -129514.38927821987, -157063.04842985256, -33536.95971214291, -140182.51927882663, 67159.57130903855, -100204.74793967581, 54914.74925455442, -111459.49947351211, 0.02, 0.964, -0.016, 192.0, 0.0, 0.0, 0.0, 0.0, 0.0, 0.0, 0.0, 0.0, 0.0, 1.666404448822989E9, 0.0, 2022-10-21 19:07:28.822
74.0, -129510.38831596237, -157059.36039201744, -33530.94709288443, -140196.57852608903, 67159.77247473865, -100218.82953868265, 54903.171050926576, -111453.64331646483, 0.02, 0.964, -0.016, 192.0, 0.0, 0.0, 0.0, 0.0, 0.0, 0.0, 0.0, 0.0, 0.0, 1.6664044488230038E9, 0.0, 2022-10-21 19:07:28.823
75.0, -129502.22992923617, -157051.33611575796, -33526.18617131546, -140192.46580510924, 67166.12037016396, -100232.46410280038, 54894.87855373366, -111447.09425533943, 0.02, 0.964, -0.016, 192.0, 0.0, 0.0, 0.0, 0.0, 0.0, 0.0, 0.0, 0.0, 0.0, 1.6664044488230183E9, 0.0, 2022-10-21 19:07:28.823
76.0, -129504.26393798161, -157055.24767103765, -33530.67887195097, -140183.36864511593, 67162.7005532623, -100217.64489622651, 54905.18270792755, -111447.38482801734, 0.02, 0.964, -0.016, 192.0, 0.0, 0.0, 0.0, 0.0, 0.0, 0.0, 0.0, 0.0, 0.0, 1.6664044488230329E9, 0.0, 2022-10-21 19:07:28.823
77.0, -129503.45927518122, -157055.068857082, -33526.38733701555, -140176.4396043348, 67167.23795738674, -100197.48362272783, 54922.10297848022, -111447.11660708388, 0.02, 0.964, -0.016, 192.0, 0.0, 0.0, 0.0, 0.0, 0.0, 0.0, 0.0, 0.0, 0.0, 1.6664044488230472E9, 0.0, 2022-10-21 19:07:28.823
78.0, -129500.2182722352, -157051.09024656896, -33522.90046488053, -140172.75156649968, 67177.18448366935, -100205.28438154273, 54915.79978654382, -111442.13216807034, 0.02, 0.964, -0.016, 192.0, 0.0, 0.0, 0.0, 0.0, 0.0, 0.0, 0.0, 0.0, 0.0, 1.6664044488230617E9, 0.0, 2022-10-21 19:07:28.823
79.0, -129502.40874319182, -157055.18061580427, -33530.567113228695, -140181.35698811497, 67173.07176268956, -100226.69735273092, 54895.63851304514, -111444.56850821598, 0.02, 0.964, -0.016, 192.0, 0.0, 0.0, 0.0, 0.0, 0.0, 0.0, 0.0, 0.0, 0.0, 1.666404448823076E9, 0.0, 2022-10-21 19:07:28.823
80.0, -129513.38344971937, -157065.52947348708, -33540.58069474467, -140186.31907538403, 67161.13593115043, -100226.11620737507, 54891.61519904318, -111452.5033774976, 0.02, 0.964, -0.016, 192.0, 0.0, 0.0, 0.0, 0.0, 0.0, 0.0, 0.0, 0.0, 0.0, 1.6664044488230903E9, 0.0, 2022-10-21 19:07:28.823
81.0, -129510.47772294018, -157065.1271420869, -33537.94318889895, -140182.25105789318, 67161.69472476182, -100219.23187008285, 54902.8581265042, -111443.6520866933, 0.02, 0.964, -0.016, 192.0, 0.0, 0.0, 0.0, 0.0, 0.0, 0.0, 0.0, 0.0, 0.0, 1.6664044488231044E9, 0.0, 2022-10-21 19:07:28.823
82.0, -129508.68958338376, -157063.2272438082, -33535.37273828658, -140181.62520904842, 67167.52853006465, -100209.84413741162, 54909.809519029805, -111445.08259833844, 0.024, 0.962, -0.018000000000000002, 192.0, 0.0, 192.0, 30.0, 16.0, 255.0, 112.0, 0.0, 0.0, 0.0, 1.6664044488231187E9, 0.0, 2022-10-21 19:07:28.823
83.0, -129503.41457169231, -157056.99110710516, -33532.802287674225, -140181.02171194812, 67173.18352141185, -100220.39416079452, 54901.49467009243, -111447.83186290645, 0.024, 0.962, -0.018000000000000002, 192.0, 0.0, 0.0, 0.0, 0.0, 0.0, 0.0, 0.0, 0.0, 0.0, 1.666404448823134E9, 0.0, 2022-10-21 19:07:28.823
84.0, -129505.31446997101, -157057.52754897208, -33538.27846506578, -140186.9896277177, 67164.17576839635, -100228.23962309833, 54897.8066322573, -111453.68801995374, 0.024, 0.962, -0.018000000000000002, 192.0, 0.0, 0.0, 0.0, 0.0, 0.0, 0.0, 0.0, 0.0, 0.0, 1.6664044488231485E9, 0.0, 2022-10-21 19:07:28.823
85.0, -129510.09774328444, -157059.8744821399, -33543.844049435145, -140186.1849649173, 67159.81717822757, -100217.1084543596, 54912.08939696424, -111462.6063659914, 0.024, 0.962, -0.018000000000000002, 192.0, 0.0, 0.0, 0.0, 0.0, 0.0, 0.0, 0.0, 0.0, 0.0, 1.6664044488231633E9, 0.0, 2022-10-21 19:07:28.823
86.0, -129512.75760087463, -157062.6684501968, -33547.196811103444, -140197.71846505624, 67154.07277990256, -100212.07931185715, 54916.49269062194, -111469.17777886127, 0.024, 0.962, -0.018000000000000002, 192.0, 0.0, 0.0, 0.0, 0.0, 0.0, 0.0, 0.0, 0.0, 0.0, 1.6664044488231773E9, 0.0, 2022-10-21 19:07:28.823
87.0, -129506.7673333606, -157052.72192391419, -33542.167668600996, -140196.71263655575, 67160.93476545034, -100233.84991095662, 54900.62295205867, -111463.52278751407, 0.024, 0.962, -0.018000000000000002, 192.0, 0.0, 0.0, 0.0, 0.0, 0.0, 0.0, 0.0, 0.0, 0.0, 1.666404448823192E9, 0.0, 2022-10-21 19:07:28.823
88.0, -129497.22313847819, -157043.49065345415, -33531.68470045146, -140184.91091548334, 67173.31763187857, -100246.03161168475, 54899.81828925828, -111442.26627853708, 0.024, 0.962, -0.018000000000000002, 192.0, 0.0, 0.0, 0.0, 0.0, 0.0, 0.0, 0.0, 0.0, 0.0, 1.6664044488232193E9, 0.0, 2022-10-21 19:07:28.823
89.0, -129501.58172864697, -157047.58102268947, -33533.361081285606, -140168.5717902865, 67180.358431382, -100217.33197180415, 54923.82406280328, -111441.08163608094, 0.024, 0.962, -0.018000000000000002, 192.0, 0.0, 0.0, 0.0, 0.0, 0.0, 0.0, 0.0, 0.0, 0.0, 1.6664044488232353E9, 0.0, 2022-10-21 19:07:28.823
90.0, -129515.14923753134, -157058.063990839, -33541.45241277843, -140178.11598516893, 67172.33415512255, -100198.71296867287, 54930.03784776186, -111449.66470595179, 0.024, 0.962, -0.018000000000000002, 192.0, 0.0, 0.0, 0.0, 0.0, 0.0, 0.0, 0.0, 0.0, 0.0, 1.6664044488232496E9, 0.0, 2022-10-21 19:07:28.823
91.0, -129523.8664178689, -157065.48476999818, -33546.97329365889, -140195.25977316615, 67167.05914343109, -100219.7012567164, 54910.12244345218, -111460.84057817944, 0.024, 0.962, -0.018000000000000002, 192.0, 0.0, 0.0, 0.0, 0.0, 0.0, 0.0, 0.0, 0.0, 0.0, 1.666404448823264E9, 0.0, 2022-10-21 19:07:28.823
92.0, -129524.08993531346, -157065.328307787, -33545.63218899157, -140191.1917556753, 67170.21073939929, -100231.41357081098, 54902.38873987064, -111458.85127292291, 0.032, 0.9540000000000001, -0.012, 192.0, 1.0, 0.0, 29.0, 208.0, 255.0, 160.0, 0.0, 0.0, 0.0, 1.6664044488232963E9, 0.0, 2022-10-21 19:07:28.823
93.0, -129513.49520844164, -157054.6665256818, -33537.16087784301, -140164.7719937291, 67181.85599826051, -100221.66821022847, 54915.263344676896, -111446.13313032784, 0.032, 0.9540000000000001, -0.012, 192.0, 0.0, 0.0, 0.0, 0.0, 0.0, 0.0, 0.0, 0.0, 0.0, 1.666404448823312E9, 0.0, 2022-10-21 19:07:28.823
94.0, -129525.16281904731, -157067.54113048807, -33551.957732672425, -140181.9381334708, 67168.69082077633, -100204.27855304224, 54921.745350568934, -111454.9620693877, 0.032, 0.9540000000000001, -0.012, 192.0, 0.0, 0.0, 0.0, 0.0, 0.0, 0.0, 0.0, 0.0, 0.0, 1.6664044488233333E9, 0.0, 2022-10-21 19:07:28.823
95.0, -129527.5768074485, -157068.05522061055, -33549.00730240432, -140201.20533719126, 67158.96781193827, -100229.82659695466, 54900.44413810303, -111459.23125257865, 0.032, 0.9540000000000001, -0.012, 192.0, 0.0, 0.0, 0.0, 0.0, 0.0, 0.0, 0.0, 0.0, 0.0, 1.6664044488233478E9, 0.0, 2022-10-21 19:07:28.823
96.0, -129526.325109759, -157064.74716243116, -33543.17349710149, -140189.850651008, 67171.12716092195, -100233.98402142336, 54898.47718459096, -111449.01650536258, 0.032, 0.9540000000000001, -0.012, 192.0, 0.0, 0.0, 0.0, 0.0, 0.0, 0.0, 0.0, 0.0, 0.0, 1.6664044488233624E9, 0.0, 2022-10-21 19:07:28.823
97.0, -129527.7779731486, -157067.09409559896, -33543.19584884594, -140177.9818747022, 67173.98818421224, -100208.43597751093, 54916.649152833124, -111445.03789484953, 0.032, 0.9540000000000001, -0.012, 192.0, 0.0, 0.0, 0.0, 0.0, 0.0, 0.0, 0.0, 0.0, 0.0, 1.6664044488233767E9, 0.0, 2022-10-21 19:07:28.823
98.0, -129522.86058936843, -157062.4225810078, -33542.01120638981, -140181.22287764822, 67170.52366382166, -100215.92381190346, 54916.58209759976, -111441.97570585916, 0.032, 0.9540000000000001, -0.012, 192.0, 0.0, 0.0, 0.0, 0.0, 0.0, 0.0, 0.0, 0.0, 0.0, 1.6664044488233912E9, 0.0, 2022-10-21 19:07:28.823
99.0, -129534.9752348632, -157075.4759997697, -33553.72352048439, -140193.2928196541, 67162.4993875622, -100222.87520442906, 54905.87561200567, -111455.34204904344, 0.032, 0.9540000000000001, -0.012, 192.0, 0.0, 0.0, 0.0, 0.0, 0.0, 0.0, 0.0, 0.0, 0.0, 1.6664044488234053E9, 0.0, 2022-10-21 19:07:28.823
100.0, -129530.50488597214, -157068.4128485218, -33548.940247170955, -140191.7952527756, 67166.52270156416, -100234.63222201256, 54895.57145781177, -111454.49268275413, 0.032, 0.9540000000000001, -0.012, 192.0, 0.0, 0.0, 0.0, 0.0, 0.0, 0.0, 0.0, 0.0, 0.0, 1.66640444882342E9, 0.0, 2022-10-21 19:07:28.823
101.0, -129526.50392371464, -157065.28360429808, -33545.74394771385, -140179.5464968141, 67169.42842834335, -100230.45244579941, 54903.19340267103, -111450.53642398554, 0.032, 0.9540000000000001, -0.012, 192.0, 0.0, 0.0, 0.0, 0.0, 0.0, 0.0, 0.0, 0.0, 0.0, 1.6664044488234344E9, 0.0, 2022-10-21 19:07:28.823
102.0, -129528.0685458265, -157069.55278748905, -33545.74394771385, -140181.96048521524, 67165.29335561911, -100217.89076541553, 54915.464510376994, -111450.71523794119, 0.024, 0.9560000000000001, -0.026000000000000002, 192.0, 0.0, 192.0, 29.0, 224.0, 255.0, 48.0, 0.0, 0.0, 0.0, 1.6664044488234487E9, 0.0, 2022-10-21 19:07:28.823
103.0, -129527.50975221513, -157070.33509854498, -33546.30274132523, -140181.96048521524, 67166.857977731, -100219.74596020531, 54915.64332433264, -111447.98832511764, 0.024, 0.9560000000000001, -0.026000000000000002, 192.0, 0.0, 0.0, 0.0, 0.0, 0.0, 0.0, 0.0, 0.0, 0.0, 1.6664044488235133E9, 0.0, 2022-10-21 19:07:28.823
104.0, -129522.86058936843, -157066.7588194321, -33545.27456108029, -140177.6913020243, 67169.33902136554, -100232.86643420058, 54908.08843470674, -111444.52380472707, 0.024, 0.9560000000000001, -0.026000000000000002, 192.0, 0.0, 0.0, 0.0, 0.0, 0.0, 0.0, 0.0, 0.0, 0.0, 1.6664044488235292E9, 0.0, 2022-10-21 19:07:28.823
0.0, 0.0, 0.0, 0.0, 0.0, 0.0, 0.0, 0.0, 0.0, 0.022, 0.9560000000000001, -0.02, 192.0, 0.0, 176.0, 29.0, 224.0, 255.0, 96.0, 0.0, 0.0, 0.0, 1.6664044489000993E9, 0.0, 2022-10-21 19:07:28.900
1.0, -129984.64762981507, -157523.06968248723, -33604.75255307586, -140241.23731151072, 67186.97454774077, -100481.64134998815, 54941.057257778324, -111471.18943586224, 0.022, 0.9560000000000001, -0.02, 192.0, 0.0, 0.0, 0.0, 0.0, 0.0, 0.0, 0.0, 0.0, 0.0, 1.6664044493831327E9, 0.0, 2022-10-21 19:07:29.383
2.0, -129985.67581006001, -157525.52837437732, -33609.37936417811, -140237.5492736756, 67186.08047796256, -100464.63167245766, 54952.27783349489, -111481.04655516703, 0.022, 0.9560000000000001, -0.02, 192.0, 0.0, 0.0, 0.0, 0.0, 0.0, 0.0, 0.0, 0.0, 0.0, 1.666404449383182E9, 0.0, 2022-10-21 19:07:29.383
3.0, -129968.66613252953, -157509.9268567475, -33598.69523032847, -140228.9438520603, 67194.0600507331, -100432.06518078627, 54976.59653146226, -111469.13307537236, 0.022, 0.9560000000000001, -0.02, 192.0, 0.0, 0.0, 0.0, 0.0, 0.0, 0.0, 0.0, 0.0, 0.0, 1.6664044493832865E9, 0.0, 2022-10-21 19:07:29.383
4.0, -129952.93050443298, -157494.79472575127, -33596.214186693935, -140245.77471563517, 67191.3107861651, -100455.04277408634, 54960.23505452098, -111463.88041542536, 0.022, 0.9560000000000001, -0.02, 192.0, 0.0, 0.0, 0.0, 0.0, 0.0, 0.0, 0.0, 0.0, 0.0, 1.6664044493833396E9, 0.0, 2022-10-21 19:07:29.383
5.0, -129934.8702949131, -157479.908463944, -33596.70592507195, -140241.72904988876, 67194.61884434448, -100479.07089937579, 54944.23120549098, -111468.19430210523, 0.022, 0.9560000000000001, -0.02, 192.0, 0.0, 0.0, 0.0, 0.0, 0.0, 0.0, 0.0, 0.0, 0.0, 1.666404449383392E9, 0.0, 2022-10-21 19:07:29.383
6.0, -129925.03552735277, -157468.19614984945, -33593.37551514811, -140224.27233746916, 67198.86567579099, -100464.78813466885, 54953.73069688448, -111465.9591276597, 0.022, 0.9560000000000001, -0.02, 192.0, 0.0, 0.0, 0.0, 0.0, 0.0, 0.0, 0.0, 0.0, 0.0, 1.6664044493834126E9, 0.0, 2022-10-21 19:07:29.383
7.0, -129925.90724538652, -157465.44688528145, -33590.067456968725, -140223.57943339105, 67199.37976591346, -100453.56755895229, 54962.04554582186, -111467.63550849386, 0.02, 0.962, -0.022, 192.0, 0.0, 160.0, 30.0, 16.0, 255.0, 80.0, 0.0, 0.0, 0.0, 1.666404449383433E9, 0.0, 2022-10-21 19:07:29.383
8.0, -129924.70025118593, -157465.67040272598, -33595.36482040463, -140243.1595615339, 67189.47794311977, -100460.8095241558, 54950.51204568292, -111473.75988647461, 0.02, 0.962, -0.022, 192.0, 0.0, 0.0, 0.0, 0.0, 0.0, 0.0, 0.0, 0.0, 0.0, 1.6664044493834558E9, 0.0, 2022-10-21 19:07:29.383
9.0, -129909.18814053395, -157448.2136903064, -33593.59903259266, -140246.26645401318, 67186.30399540711, -100472.92416965058, 54939.313821710806, -111473.67047949678, 0.02, 0.962, -0.022, 192.0, 0.0, 0.0, 0.0, 0.0, 0.0, 0.0, 0.0, 0.0, 0.0, 1.6664044493834765E9, 0.0, 2022-10-21 19:07:29.383
10.0, -129898.99574506233, -157438.89301286853, -33585.82062552221, -140232.7436486177, 67188.36035589699, -100472.70065220603, 54944.03003979088, -111473.82694170797, 0.02, 0.962, -0.022, 192.0, 0.0, 0.0, 0.0, 0.0, 0.0, 0.0, 0.0, 0.0, 0.0, 1.6664044493834968E9, 0.0, 2022-10-21 19:07:29.383
11.0, -129893.94425081543, -157435.98728608934, -33587.13937844508, -140225.68049736985, 67188.13683845244, -100465.30222479132, 54954.91533934061, -111476.68796499824, 0.02, 0.962, -0.022, 192.0, 0.0, 0.0, 0.0, 0.0, 0.0, 0.0, 0.0, 0.0, 0.0, 1.666404449383518E9, 0.0, 2022-10-21 19:07:29.383
12.0, -129884.51181465528, -157425.99605631782, -33590.67095406901, -140232.60953815098, 67184.62761457296, -100467.7609166814, 54955.027098062885, -111478.27493885458, 0.02, 0.962, -0.022, 192.0, 0.0, 0.0, 0.0, 0.0, 0.0, 0.0, 0.0, 0.0, 0.0, 1.6664044493835385E9, 0.0, 2022-10-21 19:07:29.383
13.0, -129882.36604718758, -157421.57041091568, -33601.802122807756, -140254.1566198059, 67172.5576725671, -100490.33617858126, 54932.049504762836, -111489.24964538214, 0.02, 0.962, -0.022, 192.0, 0.0, 0.0, 0.0, 0.0, 0.0, 0.0, 0.0, 0.0, 0.0, 1.6664044493836367E9, 0.0, 2022-10-21 19:07:29.383
14.0, -129873.51475638329, -157413.18850674492, -33598.35995416164, -140244.03127956763, 67174.12229467896, -100487.1175273797, 54935.961060042515, -111484.48872381315, 0.02, 0.962, -0.022, 192.0, 0.0, 0.0, 0.0, 0.0, 0.0, 0.0, 0.0, 0.0, 0.0, 1.6664044493836584E9, 0.0, 2022-10-21 19:07:29.383
15.0, -129858.13675619803, -157399.97862577185, -33590.58154709119, -140227.0439537816, 67181.45366686031, -100459.22255029948, 54961.889083610666, -111472.66465099629, 0.02, 0.962, -0.022, 192.0, 0.0, 0.0, 0.0, 0.0, 0.0, 0.0, 0.0, 0.0, 0.0, 1.666404449383679E9, 0.0, 2022-10-21 19:07:29.383
16.0, -129836.45556407639, -157379.86205576206, -33580.38915161957, -140225.07700026955, 67188.69563206383, -100443.57632918077, 54974.964854117025, -111460.52765375706, 0.02, 0.962, -0.022, 192.0, 0.0, 0.0, 0.0, 0.0, 0.0, 0.0, 0.0, 0.0, 0.0, 1.6664044493836997E9, 0.0, 2022-10-21 19:07:29.383
17.0, -129818.28359583422, -157362.137122409, -33574.84591899466, -140227.37922994845, 67193.4565536328, -100455.86978863119, 54966.158266801634, -111461.37702004636, 0.02, 0.962, -0.026000000000000002, 192.0, 0.0, 160.0, 30.0, 16.0, 255.0, 48.0, 0.0, 0.0, 0.0, 1.6664044493837206E9, 0.0, 2022-10-21 19:07:29.383
18.0, -129812.71801146485, -157354.91750894993, -33582.087884198176, -140228.60857589348, 67188.65092857492, -100457.38970725414, 54965.28654876787, -111469.69186898373, 0.02, 0.962, -0.026000000000000002, 192.0, 0.0, 0.0, 0.0, 0.0, 0.0, 0.0, 0.0, 0.0, 0.0, 1.6664044493837423E9, 0.0, 2022-10-21 19:07:29.383
19.0, -129796.64710720148, -157334.37625579553, -33576.34348587316, -140216.27041295415, 67192.20485594332, -100445.99031758193, 54979.569313474814, -111473.71518298569, 0.02, 0.962, -0.026000000000000002, 192.0, 0.0, 0.0, 0.0, 0.0, 0.0, 0.0, 0.0, 0.0, 0.0, 1.666404449383757E9, 0.0, 2022-10-21 19:07:29.383
20.0, -129779.07863605961, -157318.35005502106, -33574.55534631674, -140223.46767466876, 67189.76851579768, -100448.33725074974, 54981.98330187599, -111477.17970337627, 0.02, 0.962, -0.026000000000000002, 192.0, 0.0, 0.0, 0.0, 0.0, 0.0, 0.0, 0.0, 0.0, 0.0, 1.6664044493837717E9, 0.0, 2022-10-21 19:07:29.383
21.0, -129768.43920569889, -157311.24220028426, -33575.449416094954, -140240.7455731327, 67185.94636749582, -100472.11950685018, 54966.78411564638, -111472.77640971857, 0.02, 0.962, -0.026000000000000002, 192.0, 0.0, 0.0, 0.0, 0.0, 0.0, 0.0, 0.0, 0.0, 0.0, 1.6664044493837855E9, 0.0, 2022-10-21 19:07:29.383
22.0, -129743.76287982022, -157287.21407499482, -33566.30755261273, -140231.46959918377, 67193.05422223262, -100472.90181790612, 54967.141743557666, -111463.14280785833, 0.02, 0.962, -0.026000000000000002, 192.0, 0.0, 0.0, 0.0, 0.0, 0.0, 0.0, 0.0, 0.0, 0.0, 1.6664044493838E9, 0.0, 2022-10-21 19:07:29.383
23.0, -129722.77459177669, -157267.5221881297, -33555.936343185465, -140218.01384902166, 67203.9618735268, -100463.62584395717, 54978.36231927423, -111460.12532235686, 0.02, 0.962, -0.026000000000000002, 192.0, 0.0, 0.0, 0.0, 0.0, 0.0, 0.0, 0.0, 0.0, 0.0, 1.666404449383814E9, 0.0, 2022-10-21 19:07:29.383
24.0, -129709.54235905915, -157251.3171733996, -33549.74490997135, -140214.9963635202, 67212.18731548636, -100448.62782342767, 54991.61690373623, -111457.59957523341, 0.02, 0.962, -0.026000000000000002, 192.0, 0.0, 0.0, 0.0, 0.0, 0.0, 0.0, 0.0, 0.0, 0.0, 1.6664044493838284E9, 0.0, 2022-10-21 19:07:29.383
25.0, -129700.95928918831, -157241.30359188362, -33557.43391006398, -140235.9399480748, 67204.78888807165, -100458.0155560989, 54975.25542679494, -111468.23900559414, 0.02, 0.962, -0.026000000000000002, 192.0, 0.0, 0.0, 0.0, 0.0, 0.0, 0.0, 0.0, 0.0, 0.0, 1.6664044493838425E9, 0.0, 2022-10-21 19:07:29.383
26.0, -129683.68139072436, -157224.18215563084, -33552.13654662807, -140235.98465156372, 67205.07946074956, -100464.47521024647, 54968.393441247164, -111473.62577600787, 0.02, 0.962, -0.026000000000000002, 192.0, 0.0, 0.0, 0.0, 0.0, 0.0, 0.0, 0.0, 0.0, 0.0, 1.6664044493838568E9, 0.0, 2022-10-21 19:07:29.383
27.0, -129668.77277717266, -157209.4076525459, -33542.14531685654, -140223.6464886244, 67208.07459450657, -100459.0660880883, 54979.32344428581, -111469.17777886127, 0.022, 0.966, -0.026000000000000002, 192.0, 0.0, 176.0, 30.0, 48.0, 255.0, 48.0, 0.0, 0.0, 0.0, 1.666404449383873E9, 0.0, 2022-10-21 19:07:29.383
28.0, -129656.03228283314, -157198.38824252944, -33536.75854644281, -140221.92540430135, 67209.95214104082, -100459.13314332165, 54988.30884555684, -111465.37798230386, 0.022, 0.966, -0.026000000000000002, 192.0, 0.0, 0.0, 0.0, 0.0, 0.0, 0.0, 0.0, 0.0, 0.0, 1.6664044493839023E9, 0.0, 2022-10-21 19:07:29.383
29.0, -129650.04201531912, -157190.9004081369, -33543.73229071287, -140229.01090729368, 67206.44291716134, -100468.25265505942, 54980.552790230846, -111476.5091510426, 0.022, 0.966, -0.026000000000000002, 192.0, 0.0, 0.0, 0.0, 0.0, 0.0, 0.0, 0.0, 0.0, 0.0, 1.6664044493839166E9, 0.0, 2022-10-21 19:07:29.383
30.0, -129636.94389306831, -157178.38343124193, -33539.82073543319, -140224.31704095806, 67207.5605043841, -100477.03689063036, 54972.14853431565, -111473.82694170797, 0.022, 0.966, -0.026000000000000002, 192.0, 0.0, 0.0, 0.0, 0.0, 0.0, 0.0, 0.0, 0.0, 0.0, 1.6664044493839307E9, 0.0, 2022-10-21 19:07:29.383
31.0, -129630.12661100944, -157176.5505881966, -33542.83822093466, -140224.42879968035, 67201.2126089588, -100484.3682628117, 54968.88517962518, -111473.26814809658, 0.022, 0.966, -0.026000000000000002, 192.0, 0.0, 0.0, 0.0, 0.0, 0.0, 0.0, 0.0, 0.0, 0.0, 1.6664044493839447E9, 0.0, 2022-10-21 19:07:29.383
32.0, -129618.30253819258, -157167.22991075873, -33545.252209335835, -140223.42297117985, 67199.5138763802, -100471.53836149436, 54983.97260713251, -111466.07088638197, 0.022, 0.966, -0.026000000000000002, 192.0, 0.0, 0.0, 0.0, 0.0, 0.0, 0.0, 0.0, 0.0, 0.0, 1.6664044493839593E9, 0.0, 2022-10-21 19:07:29.383
33.0, -129606.88079677592, -157158.78095135462, -33540.67010172249, -140227.6921543708, 67202.44195490384, -100495.65589376164, 54972.528513971396, -111457.37605778886, 0.022, 0.966, -0.026000000000000002, 192.0, 0.0, 0.0, 0.0, 0.0, 0.0, 0.0, 0.0, 0.0, 0.0, 1.6664044493839731E9, 0.0, 2022-10-21 19:07:29.383
34.0, -129603.10335196297, -157153.12596000743, -33536.87030516509, -140223.71354385777, 67211.1144317525, -100510.60921080223, 54960.50327545444, -111463.56749100298, 0.022, 0.966, -0.026000000000000002, 192.0, 0.0, 0.0, 0.0, 0.0, 0.0, 0.0, 0.0, 0.0, 0.0, 1.6664044493839877E9, 0.0, 2022-10-21 19:07:29.383
35.0, -129596.77780828212, -157147.71683784926, -33541.72063371189, -140214.97401177575, 67209.8180305741, -100490.22441985899, 54972.61792094922, -111471.83763645144, 0.022, 0.966, -0.026000000000000002, 192.0, 0.0, 0.0, 0.0, 0.0, 0.0, 0.0, 0.0, 0.0, 0.0, 1.6664044493840015E9, 0.0, 2022-10-21 19:07:29.384
36.0, -129582.80796799755, -157134.1269772204, -33537.45145052093, -140202.36762790295, 67214.89187656545, -100467.2691783034, 54995.32729331581, -111464.34980205892, 0.024, 0.962, -0.03, 192.0, 0.0, 192.0, 30.0, 16.0, 255.0, 16.0, 0.0, 0.0, 0.0, 1.666404449384016E9, 0.0, 2022-10-21 19:07:29.384
37.0, -129584.57375580953, -157135.60219235448, -33545.58748550266, -140218.88556705543, 67207.5158008952, -100477.66273947511, 54986.766575189424, -111471.77058121808, 0.024, 0.962, -0.03, 192.0, 0.0, 0.0, 0.0, 0.0, 0.0, 0.0, 0.0, 0.0, 0.0, 1.666404449384031E9, 0.0, 2022-10-21 19:07:29.384
38.0, -129588.41825585584, -157138.10558773347, -33555.46695655191, -140234.08475328502, 67199.46917289129, -100500.75209149744, 54963.34194700026, -111478.34199408794, 0.024, 0.962, -0.03, 192.0, 0.0, 0.0, 0.0, 0.0, 0.0, 0.0, 0.0, 0.0, 0.0, 1.6664044493840456E9, 0.0, 2022-10-21 19:07:29.384
39.0, -129588.95469772277, -157136.65272434388, -33562.507756055325, -140232.5424829176, 67194.21651294429, -100493.48777454946, 54966.47119122401, -111475.43626730875, 0.024, 0.962, -0.03, 192.0, 0.0, 0.0, 0.0, 0.0, 0.0, 0.0, 0.0, 0.0, 0.0, 1.66640444938406E9, 0.0, 2022-10-21 19:07:29.384
40.0, -129578.53878480659, -157127.06382597255, -33547.97912215938, -140215.35399143148, 67202.64312060394, -100482.80364069983, 54985.29136005537, -111456.14671184382, 0.024, 0.962, -0.03, 192.0, 0.0, 0.0, 0.0, 0.0, 0.0, 0.0, 0.0, 0.0, 0.0, 1.6664044493840744E9, 0.0, 2022-10-21 19:07:29.384
41.0, -129575.00720918266, -157126.0803492165, -33545.1180988691, -140218.46088391077, 67205.8617718055, -100483.87652443368, 54991.57220024731, -111457.73368570015, 0.024, 0.962, -0.03, 192.0, 0.0, 0.0, 0.0, 0.0, 0.0, 0.0, 0.0, 0.0, 0.0, 1.6664044493840976E9, 0.0, 2022-10-21 19:07:29.384
42.0, -129568.34638933497, -157119.2854189021, -33537.697319709936, -140209.25196519517, 67218.62461788948, -100494.58301002777, 54983.436165265586, -111453.7103716982, 0.024, 0.962, -0.03, 192.0, 0.0, 0.0, 0.0, 0.0, 0.0, 0.0, 0.0, 0.0, 0.0, 1.666404449384112E9, 0.0, 2022-10-21 19:07:29.384
43.0, -129566.7370637342, -157117.76550027914, -33535.0151103753, -140197.8972790119, 67222.40206270243, -100483.69771047804, 54989.158211846145, -111448.92709838475, 0.024, 0.962, -0.03, 192.0, 0.0, 0.0, 0.0, 0.0, 0.0, 0.0, 0.0, 0.0, 0.0, 1.6664044493841393E9, 0.0, 2022-10-21 19:07:29.384
44.0, -129575.78952023858, -157130.26012542966, -33546.839183192154, -140209.65429659537, 67208.87925730697, -100473.48296326197, 54996.154307860656, -111459.29830781202, 0.024, 0.962, -0.03, 192.0, 0.0, 0.0, 0.0, 0.0, 0.0, 0.0, 0.0, 0.0, 0.0, 1.666404449384154E9, 0.0, 2022-10-21 19:07:29.384
45.0, -129582.65150578637, -157136.25039294368, -33556.226915863386, -140222.37243919045, 67200.43029790286, -100469.45964926001, 54996.44488053857, -111479.90661619982, 0.024, 0.962, -0.03, 192.0, 0.0, 0.0, 0.0, 0.0, 0.0, 0.0, 0.0, 0.0, 0.0, 1.6664044493841686E9, 0.0, 2022-10-21 19:07:29.384
46.0, -129579.90224121837, -157133.29996267558, -33554.818755962704, -140231.0449160391, 67198.03866124614, -100483.00480639993, 54980.619845464214, -111489.9201977158, 0.022, 0.964, -0.03, 192.0, 0.0, 176.0, 30.0, 32.0, 255.0, 16.0, 0.0, 0.0, 0.0, 1.6664044493841832E9, 0.0, 2022-10-21 19:07:29.384
47.0, -129579.18698539579, -157131.91415451936, -33556.361026330116, -140226.5969188925, 67192.85305653252, -100507.25644913393, 54960.905606854634, -111493.83175299547, 0.022, 0.964, -0.03, 192.0, 0.0, 0.0, 0.0, 0.0, 0.0, 0.0, 0.0, 0.0, 0.0, 1.6664044493841987E9, 0.0, 2022-10-21 19:07:29.384
48.0, -129579.67872377382, -157132.02591324164, -33558.68560775347, -140225.3005177141, 67185.27581516217, -100504.26131537692, 54967.32055751331, -111490.3672326049, 0.022, 0.964, -0.03, 192.0, 0.0, 0.0, 0.0, 0.0, 0.0, 0.0, 0.0, 0.0, 0.0, 1.666404449384215E9, 0.0, 2022-10-21 19:07:29.384
49.0, -129564.81481371104, -157114.90447698886, -33538.59138948815, -140207.48617738322, 67200.47500139178, -100481.03785288786, 54994.477927026506, -111467.25552883811, 0.022, 0.964, -0.03, 192.0, 0.0, 0.0, 0.0, 0.0, 0.0, 0.0, 0.0, 0.0, 0.0, 1.6664044493842306E9, 0.0, 2022-10-21 19:07:29.384
50.0, -129563.67487474381, -157111.50701183165, -33533.78576443026, -140214.66108735336, 67205.6606061054, -100491.45376580404, 54984.15142108815, -111464.50626427011, 0.022, 0.964, -0.03, 192.0, 0.0, 0.0, 0.0, 0.0, 0.0, 0.0, 0.0, 0.0, 0.0, 1.666404449384245E9, 0.0, 2022-10-21 19:07:29.384
51.0, -129566.44649105627, -157112.42343335433, -33537.87613366558, -140225.25581422518, 67197.43516414585, -100504.50718456593, 54969.868656381215, -111470.36242131739, 0.022, 0.964, -0.03, 192.0, 0.0, 0.0, 0.0, 0.0, 0.0, 0.0, 0.0, 0.0, 0.0, 1.666404449384259E9, 0.0, 2022-10-21 19:07:29.384
52.0, -129562.1326043764, -157107.86367748544, -33534.03163361927, -140213.72231408625, 67197.4575158903, -100496.72877749549, 54980.150458830656, -111462.02522063557, 0.022, 0.964, -0.03, 192.0, 0.0, 0.0, 0.0, 0.0, 0.0, 0.0, 0.0, 0.0, 0.0, 1.6664044493842733E9, 0.0, 2022-10-21 19:07:29.384
53.0, -129565.15008987786, -157112.3340263765, -33538.07729936568, -140227.02160203716, 67188.96385299729, -100489.0174256584, 54989.091156612776, -111460.7064677127, 0.022, 0.964, -0.03, 192.0, 0.0, 0.0, 0.0, 0.0, 0.0, 0.0, 0.0, 0.0, 0.0, 1.6664044493842876E9, 0.0, 2022-10-21 19:07:29.384
54.0, -129564.99362766667, -157111.4846600872, -33539.2172383329, -140236.11876203047, 67189.6567570754, -100491.58787627076, 54986.565409489325, -111469.40129630582, 0.022, 0.964, -0.03, 192.0, 0.0, 0.0, 0.0, 0.0, 0.0, 0.0, 0.0, 0.0, 0.0, 1.666404449384302E9, 0.0, 2022-10-21 19:07:29.384
55.0, -129562.87021194342, -157110.34472111997, -33538.01024413231, -140233.7494771182, 67192.00369024322, -100513.44788234806, 54971.16505755962, -111476.28563359805, 0.022, 0.964, -0.03, 192.0, 0.0, 0.0, 0.0, 0.0, 0.0, 0.0, 0.0, 0.0, 0.0, 1.666404449384316E9, 0.0, 2022-10-21 19:07:29.384
56.0, -129567.85465095696, -157116.51380258964, -33544.268732579796, -140226.73102935925, 67188.58387334154, -100503.61311478772, 54977.959987874034, -111474.54219753054, 0.02, 0.9540000000000001, -0.034, 192.0, 0.0, 160.0, 29.0, 208.0, 254.0, 240.0, 0.0, 0.0, 0.0, 1.6664044493843305E9, 0.0, 2022-10-21 19:07:29.384
57.0, -129567.80994746805, -157116.46909910074, -33546.95094191444, -140222.75241884618, 67184.71702155078, -100488.7715564694, 54989.3817292907, -111475.07863939747, 0.02, 0.9540000000000001, -0.034, 192.0, 0.0, 0.0, 0.0, 0.0, 0.0, 0.0, 0.0, 0.0, 0.0, 1.6664044493843455E9, 0.0, 2022-10-21 19:07:29.384
58.0, -129564.16661312184, -157112.95987522125, -33542.74881395684, -140223.42297117985, 67187.08630646304, -100500.50622230842, 54981.64802570916, -111470.07184863948, 0.02, 0.9540000000000001, -0.034, 192.0, 0.0, 0.0, 0.0, 0.0, 0.0, 0.0, 0.0, 0.0, 0.0, 1.6664044493843732E9, 0.0, 2022-10-21 19:07:29.384
59.0, -129566.06651140052, -157113.94335197727, -33541.63122673407, -140225.7922560921, 67193.76947805518, -100513.35847537023, 54971.813258148824, -111470.25066259512, 0.02, 0.9540000000000001, -0.034, 192.0, 0.0, 0.0, 0.0, 0.0, 0.0, 0.0, 0.0, 0.0, 0.0, 1.6664044493843873E9, 0.0, 2022-10-21 19:07:29.384
60.0, -129562.7361014767, -157112.98222696572, -33539.59721798864, -140214.19170071982, 67199.06684149109, -100504.41777758811, 54977.69176694057, -111466.24970033762, 0.02, 0.9540000000000001, -0.034, 192.0, 0.0, 0.0, 0.0, 0.0, 0.0, 0.0, 0.0, 0.0, 0.0, 1.6664044493844016E9, 0.0, 2022-10-21 19:07:29.384
61.0, -129563.49606078817, -157116.42439561183, -33534.00928187481, -140203.596973848, 67198.48569613525, -100476.58985574126, 54996.86956368322, -111467.76961896058, 0.02, 0.9540000000000001, -0.034, 192.0, 0.0, 0.0, 0.0, 0.0, 0.0, 0.0, 0.0, 0.0, 0.0, 1.6664044493844156E9, 0.0, 2022-10-21 19:07:29.384
62.0, -129558.22104909671, -157110.50118333116, -33526.58850271565, -140198.72429355673, 67205.4594404053, -100462.73177417896, 55007.15136613267, -111461.57818574646, 0.02, 0.9540000000000001, -0.034, 192.0, 0.0, 0.0, 0.0, 0.0, 0.0, 0.0, 0.0, 0.0, 0.0, 1.66640444938443E9, 0.0, 2022-10-21 19:07:29.384
63.0, -129563.33959857699, -157117.09494794547, -33535.57390398668, -140219.98080253374, 67197.9045507794, -100480.74728020994, 54987.325368800804, -111468.97661316117, 0.02, 0.9540000000000001, -0.034, 192.0, 0.0, 0.0, 0.0, 0.0, 0.0, 0.0, 0.0, 0.0, 0.0, 1.6664044493844445E9, 0.0, 2022-10-21 19:07:29.384
64.0, -129570.5368602916, -157125.25333467167, -33548.00147390383, -140238.4433434538, 67182.70536454981, -100505.4236060886, 54967.65583368014, -111477.00088942063, 0.02, 0.9540000000000001, -0.034, 192.0, 0.0, 0.0, 0.0, 0.0, 0.0, 0.0, 0.0, 0.0, 0.0, 1.6664044493844588E9, 0.0, 2022-10-21 19:07:29.384
65.0, -129558.46691828573, -157115.26210490015, -33539.82073543319, -140226.28399447014, 67188.60622508601, -100506.83176598928, 54975.4789442395, -111471.18943586224, 0.02, 0.9540000000000001, -0.034, 192.0, 0.0, 0.0, 0.0, 0.0, 0.0, 0.0, 0.0, 0.0, 0.0, 1.666404449384473E9, 0.0, 2022-10-21 19:07:29.384
66.0, -129563.47370904371, -157121.6323520699, -33549.655502993526, -140235.2470439967, 67179.93374823735, -100513.71610328152, 54969.04164183637, -111487.17093314779, 0.016, 0.96, -0.032, 192.0, 0.0, 128.0, 30.0, 0.0, 255.0, 0.0, 0.0, 0.0, 0.0, 1.6664044493844883E9, 0.0, 2022-10-21 19:07:29.384
67.0, -129562.31141833204, -157117.92196249033, -33542.860572679114, -140237.72808763126, 67189.76851579768, -100521.98624872998, 54960.92795859909, -111474.11751438589, 0.016, 0.96, -0.032, 192.0, 0.0, 0.0, 0.0, 0.0, 0.0, 0.0, 0.0, 0.0, 0.0, 1.6664044493845036E9, 0.0, 2022-10-21 19:07:29.384
68.0, -129559.78567120859, -157116.84907875647, -33535.12686909758, -140225.90401481438, 67198.57510311308, -100520.15340568464, 54961.620862677206, -111472.03880215154, 0.016, 0.96, -0.032, 192.0, 0.0, 0.0, 0.0, 0.0, 0.0, 0.0, 0.0, 0.0, 0.0, 1.666404449384518E9, 0.0, 2022-10-21 19:07:29.384
69.0, -129563.07137764352, -157120.00067472467, -33536.75854644281, -140220.56194788957, 67198.08336473505, -100500.30505660834, 54973.73550817198, -111476.24093010914, 0.016, 0.96, -0.032, 192.0, 0.0, 0.0, 0.0, 0.0, 0.0, 0.0, 0.0, 0.0, 0.0, 1.666404449384534E9, 0.0, 2022-10-21 19:07:29.384
70.0, -129565.44066255579, -157122.6828840593, -33540.983026144866, -140225.65814562538, 67193.16598095489, -100487.34104482425, 54982.69855769856, -111481.89592145634, 0.016, 0.96, -0.032, 192.0, 0.0, 0.0, 0.0, 0.0, 0.0, 0.0, 0.0, 0.0, 0.0, 1.666404449384548E9, 0.0, 2022-10-21 19:07:29.384
71.0, -129557.57284850751, -157113.18339266581, -33534.5680754862, -140228.22859623775, 67197.12223972348, -100495.41002457261, 54979.05522335234, -111475.43626730875, 0.016, 0.96, -0.032, 192.0, 0.0, 0.0, 0.0, 0.0, 0.0, 0.0, 0.0, 0.0, 0.0, 1.6664044493845625E9, 0.0, 2022-10-21 19:07:29.384
72.0, -129553.84010718348, -157108.46717458573, -33527.348462027134, -140223.46767466876, 67202.53136188166, -100503.3225421098, 54974.22724655, -111471.56941551798, 0.016, 0.96, -0.032, 192.0, 0.0, 0.0, 0.0, 0.0, 0.0, 0.0, 0.0, 0.0, 0.0, 1.6664044493845763E9, 0.0, 2022-10-21 19:07:29.384
73.0, -129550.68851121528, -157105.80731699555, -33523.16868581399, -140208.49200588372, 67207.33698693955, -100475.80754468532, 54995.997845649465, -111466.7637904601, 0.016, 0.96, -0.032, 192.0, 0.0, 0.0, 0.0, 0.0, 0.0, 0.0, 0.0, 0.0, 0.0, 1.6664044493846035E9, 0.0, 2022-10-21 19:07:29.384
74.0, -129558.3775113079, -157113.585724066, -33533.9645783859, -140226.9992502927, 67192.87540827697, -100482.13308836617, 54993.22622933701, -111468.12724687187, 0.016, 0.96, -0.032, 192.0, 0.0, 0.0, 0.0, 0.0, 0.0, 0.0, 0.0, 0.0, 0.0, 1.666404449384618E9, 0.0, 2022-10-21 19:07:29.384
75.0, -129557.75166246315, -157115.59738106697, -33533.852819663625, -140235.0458782966, 67194.86471353349, -100510.54215556887, 54975.61305470623, -111465.06505788148, 0.02, 0.964, -0.032, 192.0, 0.0, 160.0, 30.0, 32.0, 255.0, 0.0, 0.0, 0.0, 0.0, 1.666404449384632E9, 0.0, 2022-10-21 19:07:29.384
76.0, -129555.3823775509, -157113.56337232154, -33533.89752315253, -140239.02448880966, 67193.27773967717, -100535.55375761435, 54956.88229285268, -111469.69186898373, 0.02, 0.964, -0.032, 192.0, 0.0, 0.0, 0.0, 0.0, 0.0, 0.0, 0.0, 0.0, 0.0, 1.6664044493846471E9, 0.0, 2022-10-21 19:07:29.384
77.0, -129555.6729502288, -157112.44578509877, -33536.82560167618, -140231.62606139496, 67189.50029486422, -100524.2214231755, 54966.62765343519, -111473.49166554114, 0.02, 0.964, -0.032, 192.0, 0.0, 0.0, 0.0, 0.0, 0.0, 0.0, 0.0, 0.0, 0.0, 1.6664044493846614E9, 0.0, 2022-10-21 19:07:29.384
78.0, -129555.2259153397, -157110.38942460887, -33537.74202319885, -140230.17319800536, 67185.72285005127, -100516.04068470487, 54978.20585706304, -111481.49359005614, 0.02, 0.964, -0.032, 192.0, 0.0, 0.0, 0.0, 0.0, 0.0, 0.0, 0.0, 0.0, 0.0, 1.6664044493846755E9, 0.0, 2022-10-21 19:07:29.384
79.0, -129556.00822639564, -157110.38942460887, -33536.69149120945, -140229.61440439397, 67191.26608267619, -100520.84630976275, 54976.37301401771, -111481.49359005614, 0.02, 0.964, -0.032, 192.0, 0.0, 0.0, 0.0, 0.0, 0.0, 0.0, 0.0, 0.0, 0.0, 1.6664044493846896E9, 0.0, 2022-10-21 19:07:29.384
80.0, -129557.43873804079, -157113.36220662144, -33539.440755777454, -140236.20816900829, 67193.23303618825, -100546.52846414191, 54953.06014455082, -111479.37017433289, 0.02, 0.964, -0.032, 192.0, 0.0, 0.0, 0.0, 0.0, 0.0, 0.0, 0.0, 0.0, 0.0, 1.666404449384704E9, 0.0, 2022-10-21 19:07:29.384
81.0, -129565.21714511122, -157119.71010204675, -33548.49321228185, -140233.7494771182, 67190.81904778708, -100528.80353078885, 54959.11746729821, -111481.67240401178, 0.02, 0.964, -0.032, 192.0, 0.0, 0.0, 0.0, 0.0, 0.0, 0.0, 0.0, 0.0, 0.0, 1.666404449384718E9, 0.0, 2022-10-21 19:07:29.384
82.0, -129552.20842983824, -157106.54492456256, -33538.41257553251, -140224.76407584717, 67194.17180945538, -100510.69861778006, 54977.55765647384, -111471.48000854017, 0.02, 0.964, -0.032, 192.0, 0.0, 0.0, 0.0, 0.0, 0.0, 0.0, 0.0, 0.0, 0.0, 1.666404449384732E9, 0.0, 2022-10-21 19:07:29.384
83.0, -129549.7273862037, -157100.59936053745, -33529.18130507247, -140224.58526189154, 67198.88802753545, -100510.67626603559, 54980.17281057511, -111467.85902593841, 0.02, 0.964, -0.032, 192.0, 0.0, 0.0, 0.0, 0.0, 0.0, 0.0, 0.0, 0.0, 0.0, 1.666404449384746E9, 0.0, 2022-10-21 19:07:29.384
84.0, -129550.1297176039, -157101.47107857122, -33526.856723649114, -140225.23346248074, 67201.88316129246, -100517.76176902793, 54971.65679593763, -111467.07671488247, 0.02, 0.964, -0.032, 192.0, 0.0, 0.0, 0.0, 0.0, 0.0, 0.0, 0.0, 0.0, 0.0, 1.66640444938476E9, 0.0, 2022-10-21 19:07:29.384
85.0, -129555.60589499545, -157106.36611060693, -33532.802287674225, -140227.33452645954, 67199.69269033584, -100513.02319920341, 54974.4284122501, -111472.30702308501, 0.016, 0.962, -0.028, 192.0, 0.0, 128.0, 30.0, 16.0, 255.0, 32.0, 0.0, 0.0, 0.0, 1.6664044493847747E9, 0.0, 2022-10-21 19:07:29.384
86.0, -129557.84106944098, -157106.20964839574, -33534.07633710818, -140219.15378798888, 67201.72669908126, -100494.2700856054, 54993.02506363691, -111467.85902593841, 0.016, 0.962, -0.028, 192.0, 0.0, 0.0, 0.0, 0.0, 0.0, 0.0, 0.0, 0.0, 0.0, 1.6664044493847897E9, 0.0, 2022-10-21 19:07:29.384
87.0, -129563.67487474381, -157111.64112229837, -33539.68662496646, -140229.5026456717, 67195.24469318923, -100494.65006526114, 54992.62273223671, -111466.67438348227, 0.016, 0.962, -0.028, 192.0, 0.0, 0.0, 0.0, 0.0, 0.0, 0.0, 0.0, 0.0, 0.0, 1.666404449384804E9, 0.0, 2022-10-21 19:07:29.384
88.0, -129558.51162177464, -157106.70138677376, -33538.50198251033, -140241.9078638444, 67189.03090823066, -100512.21853640302, 54977.1776768181, -111473.60342426342, 0.016, 0.962, -0.028, 192.0, 0.0, 0.0, 0.0, 0.0, 0.0, 0.0, 0.0, 0.0, 0.0, 1.6664044493848317E9, 0.0, 2022-10-21 19:07:29.384
89.0, -129552.36489204943, -157102.11927916043, -33532.511714996304, -140235.33645097452, 67191.04256523163, -100528.15533019965, 54969.48867672547, -111477.17970337627, 0.016, 0.962, -0.028, 192.0, 0.0, 0.0, 0.0, 0.0, 0.0, 0.0, 0.0, 0.0, 0.0, 1.666404449384846E9, 0.0, 2022-10-21 19:07:29.384
90.0, -129554.91299091734, -157105.87437222892, -33534.21044757491, -140226.86513982597, 67192.87540827697, -100513.31377188132, 54984.50904899944, -111478.56551153249, 0.016, 0.962, -0.028, 192.0, 0.0, 0.0, 0.0, 0.0, 0.0, 0.0, 0.0, 0.0, 0.0, 1.66640444938486E9, 0.0, 2022-10-21 19:07:29.384
91.0, -129553.75070020565, -157103.97447395022, -33534.32220629718, -140219.55611938908, 67198.01630950169, -100498.33810309626, 54995.48375552699, -111479.68309875525, 0.016, 0.962, -0.028, 192.0, 0.0, 0.0, 0.0, 0.0, 0.0, 0.0, 0.0, 0.0, 0.0, 1.666404449384876E9, 0.0, 2022-10-21 19:07:29.384
92.0, -129551.98491239369, -157102.34279660496, -33531.77410742928, -140221.36661068996, 67202.0619752481, -100513.42553060359, 54981.87154315371, -111475.54802603103, 0.016, 0.962, -0.028, 192.0, 0.0, 0.0, 0.0, 0.0, 0.0, 0.0, 0.0, 0.0, 0.0, 1.6664044493848903E9, 0.0, 2022-10-21 19:07:29.384
93.0, -129558.10929037444, -157109.76357576414, -33538.457279021415, -140229.16736950487, 67194.84236178904, -100534.50322562495, 54965.71123191252, -111476.44209580924, 0.016, 0.962, -0.028, 192.0, 0.0, 0.0, 0.0, 0.0, 0.0, 0.0, 0.0, 0.0, 0.0, 1.6664044493849046E9, 0.0, 2022-10-21 19:07:29.384
94.0, -129563.831336955, -157114.56920082204, -33541.050081378235, -140220.02550602265, 67194.39532689993, -100513.58199281478, 54981.335101286786, -111475.88330219786, 0.016, 0.962, -0.028, 192.0, 0.0, 0.0, 0.0, 0.0, 0.0, 0.0, 0.0, 0.0, 0.0, 1.6664044493849187E9, 0.0, 2022-10-21 19:07:29.384
95.0, -129574.35900859346, -157124.91805850485, -33549.45433729343, -140232.5424829176, 67184.73937329523, -100504.14955665465, 54985.090194355274, -111485.38279359136, 0.018000000000000002, 0.96, -0.034, 192.0, 0.0, 144.0, 30.0, 0.0, 254.0, 240.0, 0.0, 0.0, 0.0, 1.6664044493849328E9, 0.0, 2022-10-21 19:07:29.384
96.0, -129566.26767710062, -157114.97153222223, -33542.793517445745, -140238.93508183182, 67189.81321928659, -100510.00571370193, 54980.84336290877, -111475.68213649777, 0.018000000000000002, 0.96, -0.034, 192.0, 0.0, 0.0, 0.0, 0.0, 0.0, 0.0, 0.0, 0.0, 0.0, 1.6664044493849494E9, 0.0, 2022-10-21 19:07:29.384
97.0, -129560.12094737541, -157107.37193910743, -33537.45145052093, -140230.21790149427, 67197.8598472905, -100521.76273128543, 54978.09409834076, -111456.057304866, 0.018000000000000002, 0.96, -0.034, 192.0, 0.0, 0.0, 0.0, 0.0, 0.0, 0.0, 0.0, 0.0, 0.0, 1.666404449384964E9, 0.0, 2022-10-21 19:07:29.384
98.0, -129551.58258099349, -157097.60422678044, -33525.76148817081, -140207.10619772747, 67215.85300157702, -100510.51980382441, 54994.72379621551, -111443.67443843777, 0.018000000000000002, 0.96, -0.034, 192.0, 0.0, 0.0, 0.0, 0.0, 0.0, 0.0, 0.0, 0.0, 0.0, 1.6664044493849783E9, 0.0, 2022-10-21 19:07:29.384
99.0, -129562.04319739857, -157108.75774726365, -33537.49615400984, -140223.8923578134, 67203.04545200414, -100504.75305375493, 54995.81903169383, -111467.38963930483, 0.018000000000000002, 0.96, -0.034, 192.0, 0.0, 0.0, 0.0, 0.0, 0.0, 0.0, 0.0, 0.0, 0.0, 1.6664044493849928E9, 0.0, 2022-10-21 19:07:29.384
100.0, -129565.3289038335, -157110.27766588662, -33541.38535754506, -140238.33158473155, 67198.4633443908, -100507.45761483403, 54990.186392091084, -111465.98147940416, 0.018000000000000002, 0.96, -0.034, 192.0, 0.0, 0.0, 0.0, 0.0, 0.0, 0.0, 0.0, 0.0, 0.0, 1.6664044493850076E9, 0.0, 2022-10-21 19:07:29.385
101.0, -129563.2278398547, -157107.50604957415, -33539.39605228854, -140239.7397446322, 67200.38559441395, -100517.60530681674, 54981.670377453614, -111468.64133699433, 0.018000000000000002, 0.96, -0.034, 192.0, 0.0, 0.0, 0.0, 0.0, 0.0, 0.0, 0.0, 0.0, 0.0, 1.6664044493850224E9, 0.0, 2022-10-21 19:07:29.385
102.0, -129559.2268775972, -157105.91907571783, -33531.99762487383, -140223.73589560224, 67202.95604502631, -100512.15148116964, 54990.611075235734, -111465.89207242633, 0.018000000000000002, 0.96, -0.034, 192.0, 0.0, 0.0, 0.0, 0.0, 0.0, 0.0, 0.0, 0.0, 0.0, 1.6664044493850367E9, 0.0, 2022-10-21 19:07:29.385
103.0, -129559.85272644195, -157106.29905537356, -33530.88003765107, -140221.7912938346, 67203.33602468205, -100500.64033277516, 55003.15040387517, -111464.21569159218, 0.018000000000000002, 0.96, -0.034, 192.0, 0.0, 0.0, 0.0, 0.0, 0.0, 0.0, 0.0, 0.0, 0.0, 1.666404449385064E9, 0.0, 2022-10-21 19:07:29.385
104.0, -129559.51745027513, -157106.0308344401, -33530.276540550774, -140222.57360489055, 67210.95796954131, -100506.474138078, 54998.255371839456, -111458.65010722281, 0.018000000000000002, 0.96, -0.03, 192.0, 0.0, 144.0, 30.0, 0.0, 255.0, 16.0, 0.0, 0.0, 0.0, 1.6664044493850784E9, 0.0, 2022-10-21 19:07:29.385
105.0, -129560.34446481997, -157108.19895365226, -33534.09868885263, -140218.12560774395, 67214.51189690971, -100514.11843468172, 54988.375900790204, -111450.69288619673, 0.018000000000000002, 0.96, -0.03, 192.0, 0.0, 0.0, 0.0, 0.0, 0.0, 0.0, 0.0, 0.0, 0.0, 1.666404449385098E9, 0.0, 2022-10-21 19:07:29.385
106.0, -129575.00720918266, -157124.9851137382, -33549.67785473798, -140227.8933200709, 67197.27870193466, -100512.46440559202, 54986.81127867834, -111462.38284854685, 0.018000000000000002, 0.96, -0.03, 192.0, 0.0, 0.0, 0.0, 0.0, 0.0, 0.0, 0.0, 0.0, 0.0, 1.6664044493851123E9, 0.0, 2022-10-21 19:07:29.385
107.0, -129579.14228190688, -157129.05313122907, -33553.5223547843, -140227.33452645954, 67191.62371058748, -100498.20399262954, 54998.00950265044, -111469.24483409463, 0.018000000000000002, 0.96, -0.03, 192.0, 0.0, 0.0, 0.0, 0.0, 0.0, 0.0, 0.0, 0.0, 0.0, 1.6664044493851268E9, 0.0, 2022-10-21 19:07:29.385
108.0, -129566.580601523, -157115.48562234468, -33541.02772963378, -140223.87000606896, 67205.63825436095, -100504.86481247722, 54997.808336950344, -111461.35466830191, 0.018000000000000002, 0.96, -0.03, 192.0, 0.0, 0.0, 0.0, 0.0, 0.0, 0.0, 0.0, 0.0, 0.0, 1.666404449385141E9, 0.0, 2022-10-21 19:07:29.385
109.0, -129572.25794461466, -157120.3359508915, -33546.570962258695, -140226.21693923677, 67206.4652689058, -100520.30986789583, 54981.35745303124, -111463.05340088051, 0.018000000000000002, 0.96, -0.03, 192.0, 0.0, 0.0, 0.0, 0.0, 0.0, 0.0, 0.0, 0.0, 0.0, 1.6664044493851552E9, 0.0, 2022-10-21 19:07:29.385
110.0, -129575.47659581622, -157122.10173870347, -33549.1190611266, -140229.97203230526, 67200.92203628088, -100529.60819358924, 54972.304996526844, -111464.68507822575, 0.018000000000000002, 0.96, -0.03, 192.0, 0.0, 0.0, 0.0, 0.0, 0.0, 0.0, 0.0, 0.0, 0.0, 1.6664044493851695E9, 0.0, 2022-10-21 19:07:29.385
111.0, -129574.85074697147, -157121.90057300337, -33547.71090122592, -140218.12560774395, 67203.29132119314, -100514.94544922656, 54986.20778157804, -111466.24970033762, 0.018000000000000002, 0.96, -0.03, 192.0, 0.0, 0.0, 0.0, 0.0, 0.0, 0.0, 0.0, 0.0, 0.0, 1.6664044493851836E9, 0.0, 2022-10-21 19:07:29.385
112.0, -129579.23168888471, -157128.60609633997, -33552.89650593955, -140227.13336075944, 67198.37393741298, -100508.79871950136, 54989.89581941317, -111471.77058121808, 0.018000000000000002, 0.96, -0.03, 192.0, 0.0, 0.0, 0.0, 0.0, 0.0, 0.0, 0.0, 0.0, 0.0, 1.6664044493851995E9, 0.0, 2022-10-21 19:07:29.385
113.0, -129578.18115689531, -157126.90736376136, -33552.56122977272, -140235.2917474856, 67198.68686183535, -100519.75107428445, 54979.90458964164, -111482.812342979, 0.018000000000000002, 0.96, -0.03, 192.0, 0.0, 0.0, 0.0, 0.0, 0.0, 0.0, 0.0, 0.0, 0.0, 1.666404449385214E9, 0.0, 2022-10-21 19:07:29.385
114.0, -129576.48242431671, -157124.24750617117, -33550.12488962709, -140232.6542416399, 67197.97160601278, -100530.0775802228, 54974.07078433881, -111479.16900863279, 0.016, 0.9540000000000001, -0.028, 192.0, 0.0, 128.0, 29.0, 208.0, 255.0, 32.0, 0.0, 0.0, 0.0, 1.6664044493852282E9, 0.0, 2022-10-21 19:07:29.385
115.0, -129564.39013056639, -157114.70331128876, -33537.02676737628, -140206.88268028293, 67214.02015853168, -100522.58974583028, 54991.393386291675, -111460.2594328236, 0.016, 0.9540000000000001, -0.028, 192.0, 0.0, 0.0, 0.0, 0.0, 0.0, 0.0, 0.0, 0.0, 0.0, 1.6664044493852437E9, 0.0, 2022-10-21 19:07:29.385
116.0, -129569.17340387982, -157121.3864828809, -33542.41353779001, -140214.54932863108, 67210.6673968634, -100522.70150455255, 54994.65674098215, -111462.02522063557, 0.016, 0.9540000000000001, -0.028, 192.0, 0.0, 0.0, 0.0, 0.0, 0.0, 0.0, 0.0, 0.0, 0.0, 1.6664044493852575E9, 0.0, 2022-10-21 19:07:29.385
117.0, -129578.91876446233, -157131.42241614134, -33556.0704536522, -140236.9010730864, 67197.9045507794, -100531.59749884576, 54984.24082806597, -111471.21178760669, 0.016, 0.9540000000000001, -0.028, 192.0, 0.0, 0.0, 0.0, 0.0, 0.0, 0.0, 0.0, 0.0, 0.0, 1.666404449385272E9, 0.0, 2022-10-21 19:07:29.385
118.0, -129576.21420338324, -157127.6896748173, -33558.372683331094, -140236.0070033082, 67194.104754222, -100548.47306590952, 54970.203932548044, -111472.64229925183, 0.016, 0.9540000000000001, -0.028, 192.0, 0.0, 0.0, 0.0, 0.0, 0.0, 0.0, 0.0, 0.0, 0.0, 1.66640444938539E9, 0.0, 2022-10-21 19:07:29.385
119.0, -129571.40857832535, -157120.80533752506, -33551.667159994504, -140225.21111073627, 67198.01630950169, -100532.60332734625, 54985.6266362222, -111473.64812775233, 0.016, 0.9540000000000001, -0.028, 192.0, 0.0, 0.0, 0.0, 0.0, 0.0, 0.0, 0.0, 0.0, 0.0, 1.666404449385405E9, 0.0, 2022-10-21 19:07:29.385
120.0, -129568.07816840151, -157117.83255551252, -33545.54278201375, -140218.95262228878, 67201.88316129246, -100505.64712353316, 55005.05030215387, -111477.80555222102, 0.016, 0.9540000000000001, -0.028, 192.0, 0.0, 0.0, 0.0, 0.0, 0.0, 0.0, 0.0, 0.0, 0.0, 1.6664044493854194E9, 0.0, 2022-10-21 19:07:29.385
121.0, -129564.94892417776, -157111.12703217592, -33542.19002034546, -140227.82626483755, 67206.48762065025, -100531.64220233467, 54989.091156612776, -111471.88233994036, 0.016, 0.9540000000000001, -0.028, 192.0, 0.0, 0.0, 0.0, 0.0, 0.0, 0.0, 0.0, 0.0, 0.0, 1.6664044498625789E9, 0.0, 2022-10-21 19:07:29.862
122.0, -129566.60295326746, -157109.67416878633, -33543.32995931267, -140225.3899246919, 67209.37099568499, -100548.62952812071, 54977.22238030701, -111467.85902593841, 0.016, 0.9540000000000001, -0.028, 192.0, 0.0, 0.0, 0.0, 0.0, 0.0, 0.0, 0.0, 0.0, 0.0, 1.6664044498627396E9, 0.0, 2022-10-21 19:07:29.862
123.0, -129572.77203473712, -157117.05024445656, -33547.062700636714, -140220.4948926562, 67202.53136188166, -100531.19516744556, 54989.89581941317, -111474.38573531935, 0.016, 0.9540000000000001, -0.028, 192.0, 0.0, 0.0, 0.0, 0.0, 0.0, 0.0, 0.0, 0.0, 0.0, 1.6664044498628216E9, 0.0, 2022-10-21 19:07:29.862
124.0, -129577.62236328392, -157122.57112533704, -33549.61079950462, -140228.31800321557, 67196.18346645635, -100524.13201619769, 54998.34477881727, -111477.89495919883, 0.018000000000000002, 0.9580000000000001, -0.026000000000000002, 192.0, 0.0, 144.0, 29.0, 240.0, 255.0, 48.0, 0.0, 0.0, 0.0, 1.666404449862846E9, 0.0, 2022-10-21 19:07:29.862
125.0, -129577.48825281719, -157120.93944799178, -33548.672026237495, -140225.83695958104, 67203.7607078267, -100536.20195820356, 54990.901647913655, -111475.32450858648, 0.018000000000000002, 0.9580000000000001, -0.026000000000000002, 192.0, 0.0, 0.0, 0.0, 0.0, 0.0, 0.0, 0.0, 0.0, 0.0, 1.6664044498628745E9, 0.0, 2022-10-21 19:07:29.862
126.0, -129568.12287189042, -157110.97056996473, -33536.75854644281, -140219.10908449997, 67213.77428934268, -100548.20484497606, 54985.4254705221, -111462.7628282026, 0.018000000000000002, 0.9580000000000001, -0.026000000000000002, 192.0, 0.0, 0.0, 0.0, 0.0, 0.0, 0.0, 0.0, 0.0, 0.0, 1.6664044498628924E9, 0.0, 2022-10-21 19:07:29.862
127.0, -129578.29291561758, -157122.10173870347, -33547.95677041492, -140229.25677648268, 67203.5595421266, -100534.01148724694, 54992.35451130325, -111471.39060156234, 0.018000000000000002, 0.9580000000000001, -0.026000000000000002, 192.0, 0.0, 0.0, 0.0, 0.0, 0.0, 0.0, 0.0, 0.0, 0.0, 1.6664044498629072E9, 0.0, 2022-10-21 19:07:29.862
128.0, -129577.44354932828, -157119.55363983556, -33548.046177392745, -140225.21111073627, 67201.6596438479, -100509.60338230174, 55011.2864388569, -111461.48877876865, 0.018000000000000002, 0.9580000000000001, -0.026000000000000002, 192.0, 0.0, 0.0, 0.0, 0.0, 0.0, 0.0, 0.0, 0.0, 0.0, 1.6664044498629203E9, 0.0, 2022-10-21 19:07:29.862
129.0, -129574.96250569374, -157117.87725900143, -33542.860572679114, -140227.848616582, 67203.89481829344, -100529.40702788914, 55000.80347070736, -111454.89501415432, 0.018000000000000002, 0.9580000000000001, -0.026000000000000002, 192.0, 0.0, 0.0, 0.0, 0.0, 0.0, 0.0, 0.0, 0.0, 0.0, 1.666404449862934E9, 0.0, 2022-10-21 19:07:29.862
130.0, -129575.99068593868, -157120.29124740258, -33541.675930222984, -140222.1936252348, 67213.32725445357, -100527.79770228836, 54999.19414510657, -111457.26429906659, 0.018000000000000002, 0.9580000000000001, -0.026000000000000002, 192.0, 0.0, 0.0, 0.0, 0.0, 0.0, 0.0, 0.0, 0.0, 0.0, 1.6664044498629472E9, 0.0, 2022-10-21 19:07:29.862
131.0, -129576.79534873908, -157117.16200317885, -33544.760470957815, -140220.2937269561, 67210.77915558567, -100517.51589983892, 55000.66936024062, -111463.03104913606, 0.018000000000000002, 0.9580000000000001, -0.026000000000000002, 192.0, 0.0, 0.0, 0.0, 0.0, 0.0, 0.0, 0.0, 0.0, 0.0, 1.66640444986296E9, 0.0, 2022-10-21 19:07:29.862
132.0, -129574.22489812672, -157113.92100023283, -33540.80421218923, -140213.54350013062, 67209.10277475152, -100517.82882426129, 55008.3360085888, -111463.18751134725, 0.018000000000000002, 0.9580000000000001, -0.026000000000000002, 192.0, 0.0, 0.0, 0.0, 0.0, 0.0, 0.0, 0.0, 0.0, 0.0, 1.6664044498629737E9, 0.0, 2022-10-21 19:07:29.862
133.0, -129583.14324416438, -157124.7392445492, -33549.3202268267, -140227.58039564855, 67203.49248689324, -100527.01539123243, 54999.75293871796, -111478.23023536567, 0.018000000000000002, 0.9580000000000001, -0.026000000000000002, 192.0, 0.0, 0.0, 0.0, 0.0, 0.0, 0.0, 0.0, 0.0, 0.0, 1.6664044498630593E9, 0.0, 2022-10-21 19:07:29.863
134.0, -129581.26569763014, -157122.05703521456, -33547.889715181554, -140219.2431949667, 67211.3155974526, -100521.69567605206, 54997.69657822807, -111478.58786327695, 0.02, 0.9540000000000001, -0.028, 192.0, 0.0, 160.0, 29.0, 208.0, 255.0, 32.0, 0.0, 0.0, 0.0, 1.6664044498630729E9, 0.0, 2022-10-21 19:07:29.863
135.0, -129580.46103482974, -157121.90057300337, -33551.10836638312, -140228.0497822821, 67201.97256827028, -100542.14752222867, 54983.61497922122, -111483.2146743792, 0.02, 0.9540000000000001, -0.028, 192.0, 0.0, 0.0, 0.0, 0.0, 0.0, 0.0, 0.0, 0.0, 0.0, 1.6664044498630872E9, 0.0, 2022-10-21 19:07:29.863
136.0, -129579.94694470728, -157122.6381805704, -33549.856668693625, -140220.13726474493, 67203.29132119314, -100550.10474325476, 54985.35841528874, -111483.16997089029, 0.02, 0.9540000000000001, -0.028, 192.0, 0.0, 0.0, 0.0, 0.0, 0.0, 0.0, 0.0, 0.0, 0.0, 1.6664044498631003E9, 0.0, 2022-10-21 19:07:29.863
137.0, -129579.70107551827, -157121.3864828809, -33547.666197737, -140216.94096528782, 67210.10860325201, -100537.92304252661, 54993.695615970566, -111477.9620144322, 0.02, 0.9540000000000001, -0.028, 192.0, 0.0, 0.0, 0.0, 0.0, 0.0, 0.0, 0.0, 0.0, 0.0, 1.6664044498631136E9, 0.0, 2022-10-21 19:07:29.863
138.0, -129583.88085173142, -157123.35343639296, -33553.25413385083, -140227.55804390408, 67203.89481829344, -100545.56733913033, 54980.95512163104, -111482.11943890089, 0.02, 0.9540000000000001, -0.028, 192.0, 0.0, 0.0, 0.0, 0.0, 0.0, 0.0, 0.0, 0.0, 0.0, 1.666404449863127E9, 0.0, 2022-10-21 19:07:29.863
139.0, -129579.07522667352, -157117.74314853468, -33542.90527616802, -140214.34816293098, 67213.72958585377, -100548.51776939843, 54981.62567396471, -111474.1622178748, 0.02, 0.9540000000000001, -0.028, 192.0, 0.0, 0.0, 0.0, 0.0, 0.0, 0.0, 0.0, 0.0, 0.0, 1.6664044498631403E9, 0.0, 2022-10-21 19:07:29.863
140.0, -129585.04314244309, -157124.96276199375, -33547.57679075918, -140214.97401177575, 67207.02406251717, -100533.69856282456, 54992.1309938587, -111479.39252607734, 0.02, 0.9540000000000001, -0.028, 192.0, 0.0, 0.0, 0.0, 0.0, 0.0, 0.0, 0.0, 0.0, 0.0, 1.6664044498631535E9, 0.0, 2022-10-21 19:07:29.863
141.0, -129584.99843895418, -157126.54973585007, -33546.54861051424, -140215.08577049803, 67207.5158008952, -100527.28361216589, 54998.68005498411, -111473.71518298569, 0.02, 0.9540000000000001, -0.028, 192.0, 0.0, 0.0, 0.0, 0.0, 0.0, 0.0, 0.0, 0.0, 0.0, 1.6664044498631668E9, 0.0, 2022-10-21 19:07:29.863
142.0, -129583.25500288667, -157124.91805850485, -33547.2191628479, -140227.82626483755, 67208.02989101766, -100543.57803387381, 54988.55471474585, -111473.46931379668, 0.02, 0.9540000000000001, -0.028, 192.0, 0.0, 0.0, 0.0, 0.0, 0.0, 0.0, 0.0, 0.0, 0.0, 1.66640444986318E9, 0.0, 2022-10-21 19:07:29.863
143.0, -129571.76620623663, -157114.07746244402, -33542.34648255664, -140219.66787811136, 67212.67905386437, -100555.69267936859, 54984.73256644399, -111467.03201139356, 0.02, 0.9560000000000001, -0.024, 192.0, 0.0, 160.0, 29.0, 224.0, 255.0, 64.0, 0.0, 0.0, 0.0, 1.6664044498631933E9, 0.0, 2022-10-21 19:07:29.863
144.0, -129570.60391552496, -157113.07163394353, -33541.608874989615, -140209.29666868408, 67213.37195794248, -100552.74224910048, 54991.393386291675, -111466.13794161535, 0.02, 0.9560000000000001, -0.024, 192.0, 0.0, 0.0, 0.0, 0.0, 0.0, 0.0, 0.0, 0.0, 0.0, 1.666404449863207E9, 0.0, 2022-10-21 19:07:29.863
145.0, -129575.54365104958, -157117.36316887895, -33543.17349710149, -140209.36372391746, 67213.32725445357, -100537.25249019296, 55002.41279630814, -111464.55096775902, 0.02, 0.9560000000000001, -0.024, 192.0, 0.0, 0.0, 0.0, 0.0, 0.0, 0.0, 0.0, 0.0, 0.0, 1.6664044498632207E9, 0.0, 2022-10-21 19:07:29.863
146.0, -129582.94207846429, -157124.24750617117, -33555.534011785276, -140226.3957531924, 67204.20774271581, -100543.06394375133, 54990.74518570247, -111478.58786327695, 0.02, 0.9560000000000001, -0.024, 192.0, 0.0, 0.0, 0.0, 0.0, 0.0, 0.0, 0.0, 0.0, 0.0, 1.6664044498632336E9, 0.0, 2022-10-21 19:07:29.863
147.0, -129585.22195639873, -157126.8850120169, -33559.512622298316, -140236.31992773057, 67196.2058182008, -100550.79764733287, 54980.21751406402, -111484.9134069578, 0.02, 0.9560000000000001, -0.024, 192.0, 0.0, 0.0, 0.0, 0.0, 0.0, 0.0, 0.0, 0.0, 0.0, 1.666404449863247E9, 0.0, 2022-10-21 19:07:29.863
148.0, -129580.03635168509, -157122.50407010366, -33550.95190417193, -140232.4530759398, 67195.91524552289, -100558.0843160253, 54982.6762059541, -111473.33520332996, 0.02, 0.9560000000000001, -0.024, 192.0, 0.0, 0.0, 0.0, 0.0, 0.0, 0.0, 0.0, 0.0, 0.0, 1.666404449863274E9, 0.0, 2022-10-21 19:07:29.863
149.0, -129579.32109586253, -157121.61000032545, -33543.35231105713, -140221.7465903457, 67204.8112398161, -100537.58776635978, 55006.54786903237, -111473.44696205223, 0.02, 0.9560000000000001, -0.024, 192.0, 0.0, 0.0, 0.0, 0.0, 0.0, 0.0, 0.0, 0.0, 0.0, 1.6664044498632872E9, 0.0, 2022-10-21 19:07:29.863
150.0, -129579.92459296282, -157123.7334160487, -33541.474764522885, -140227.26747122617, 67204.90064679392, -100529.29526916686, 55011.040569667886, -111479.39252607734, 0.02, 0.9560000000000001, -0.024, 192.0, 0.0, 0.0, 0.0, 0.0, 0.0, 0.0, 0.0, 0.0, 0.0, 1.6664044498633003E9, 0.0, 2022-10-21 19:07:29.863
151.0, -129565.12773813341, -157109.31654087504, -33525.87324689308, -140222.6406601239, 67217.46232717781, -100555.71503111304, 54994.41087179314, -111462.1593311023, 0.02, 0.9560000000000001, -0.024, 192.0, 0.0, 0.0, 0.0, 0.0, 0.0, 0.0, 0.0, 0.0, 0.0, 1.6664044498633132E9, 0.0, 2022-10-21 19:07:29.863
152.0, -129560.56798226453, -157104.5332675616, -33522.96752011389, -140208.38024716143, 67224.32431272558, -100552.3846211892, 54999.10473812876, -111452.97276413116, 0.02, 0.9560000000000001, -0.024, 192.0, 0.0, 0.0, 0.0, 0.0, 0.0, 0.0, 0.0, 0.0, 0.0, 1.6664044498633263E9, 0.0, 2022-10-21 19:07:29.863
153.0, -129566.87117420092, -157113.29515138807, -33530.09772659513, -140205.80979654906, 67217.81995508909, -100513.20201315904, 55022.12703491772, -111460.03591537905, 0.022, 0.962, -0.026000000000000002, 192.0, 0.0, 176.0, 30.0, 16.0, 255.0, 48.0, 0.0, 0.0, 0.0, 1.6664044498633397E9, 0.0, 2022-10-21 19:07:29.863
154.0, -129565.8876974449, -157111.52936357612, -33528.24253180534, -140222.05951476807, 67210.24271371875, -100528.4235511331, 55009.297133600376, -111465.5120927706, 0.022, 0.962, -0.026000000000000002, 192.0, 0.0, 0.0, 0.0, 0.0, 0.0, 0.0, 0.0, 0.0, 0.0, 1.6664044498633544E9, 0.0, 2022-10-21 19:07:29.863
155.0, -129574.26960161563, -157119.17366017983, -33536.0656423647, -140238.2421777537, 67205.30297819411, -100564.09693528379, 54980.79865941986, -111471.18943586224, 0.022, 0.962, -0.026000000000000002, 192.0, 0.0, 0.0, 0.0, 0.0, 0.0, 0.0, 0.0, 0.0, 0.0, 1.66640444986337E9, 0.0, 2022-10-21 19:07:29.863
156.0, -129584.14907266488, -157131.55652660807, -33547.08505238117, -140235.98465156372, 67199.04448974664, -100556.92202531363, 54981.245694308964, -111480.9124447003, 0.022, 0.962, -0.026000000000000002, 192.0, 0.0, 0.0, 0.0, 0.0, 0.0, 0.0, 0.0, 0.0, 0.0, 1.666404449863383E9, 0.0, 2022-10-21 19:07:29.863
157.0, -129577.33179060601, -157125.40979688286, -33541.63122673407, -140218.55029088858, 67207.85107706202, -100534.4808738805, 55002.63631375269, -111475.77154347558, 0.022, 0.962, -0.026000000000000002, 192.0, 0.0, 0.0, 0.0, 0.0, 0.0, 0.0, 0.0, 0.0, 0.0, 1.666404449863396E9, 0.0, 2022-10-21 19:07:29.863
158.0, -129574.04608417107, -157121.78881428108, -33540.46893602239, -140219.06438101106, 67213.64017887595, -100525.96485924303, 55008.60422952226, -111475.23510160865, 0.022, 0.962, -0.026000000000000002, 192.0, 0.0, 0.0, 0.0, 0.0, 0.0, 0.0, 0.0, 0.0, 0.0, 1.6664044498634095E9, 0.0, 2022-10-21 19:07:29.863
159.0, -129576.61653478343, -157124.29220966008, -33540.46893602239, -140225.56873864756, 67215.74124285475, -100545.74615308597, 54993.472098526014, -111469.24483409463, 0.022, 0.962, -0.026000000000000002, 192.0, 0.0, 0.0, 0.0, 0.0, 0.0, 0.0, 0.0, 0.0, 0.0, 1.6664044498634224E9, 0.0, 2022-10-21 19:07:29.863
160.0, -129579.29874411807, -157125.92388700534, -33542.97233140139, -140222.9982880352, 67214.6683591209, -100559.82775209281, 54981.804487920344, -111470.47418003967, 0.022, 0.962, -0.026000000000000002, 192.0, 0.0, 0.0, 0.0, 0.0, 0.0, 0.0, 0.0, 0.0, 0.0, 1.666404449863437E9, 0.0, 2022-10-21 19:07:29.863
161.0, -129580.41633134084, -157125.76742479415, -33543.39701454604, -140209.78840706212, 67214.93658005436, -100537.96774601552, 54999.998807906966, -111464.59567124792, 0.022, 0.962, -0.026000000000000002, 192.0, 0.0, 0.0, 0.0, 0.0, 0.0, 0.0, 0.0, 0.0, 0.0, 1.6664044498634503E9, 0.0, 2022-10-21 19:07:29.863
162.0, -129579.96929645173, -157125.99094223868, -33545.40867154702, -140222.97593629075, 67203.89481829344, -100533.85502503575, 55005.430281809604, -111462.9639939027, 0.022, 0.962, -0.026000000000000002, 192.0, 0.0, 0.0, 0.0, 0.0, 0.0, 0.0, 0.0, 0.0, 0.0, 1.666404449863464E9, 0.0, 2022-10-21 19:07:29.863
163.0, -129575.00720918266, -157118.54781133507, -33538.054947621225, -140218.08090425504, 67213.34960619803, -100558.24077823649, 54991.25927582494, -111455.34204904344, 0.026000000000000002, 0.9540000000000001, -0.032, 192.0, 0.0, 208.0, 29.0, 208.0, 255.0, 0.0, 0.0, 0.0, 0.0, 1.6664044498634896E9, 0.0, 2022-10-21 19:07:29.863
164.0, -129579.23168888471, -157120.93944799178, -33540.11130811111, -140218.52793914414, 67214.24367597625, -100560.14067651519, 54983.79379317687, -111467.32258407147, 0.026000000000000002, 0.9540000000000001, -0.032, 192.0, 0.0, 0.0, 0.0, 0.0, 0.0, 0.0, 0.0, 0.0, 0.0, 1.6664044498635032E9, 0.0, 2022-10-21 19:07:29.863
165.0, -129582.83031974202, -157126.6391428279, -33548.7167297264, -140223.08769501303, 67206.95700728381, -100543.93566178509, 54993.31563631483, -111477.35851733192, 0.026000000000000002, 0.9540000000000001, -0.032, 192.0, 0.0, 0.0, 0.0, 0.0, 0.0, 0.0, 0.0, 0.0, 0.0, 1.6664044498635168E9, 0.0, 2022-10-21 19:07:29.863
166.0, -129584.59610755398, -157129.05313122907, -33554.86345945161, -140227.17806424835, 67202.88898979295, -100534.2350046915, 55000.26702884043, -111481.09125865594, 0.026000000000000002, 0.9540000000000001, -0.032, 192.0, 0.0, 0.0, 0.0, 0.0, 0.0, 0.0, 0.0, 0.0, 0.0, 1.66640444986353E9, 0.0, 2022-10-21 19:07:29.863
167.0, -129578.65054352887, -157121.81116602555, -33549.722558226895, -140233.36949746247, 67202.77723107066, -100547.13196124221, 54993.87442992621, -111471.34589807343, 0.026000000000000002, 0.9540000000000001, -0.032, 192.0, 0.0, 0.0, 0.0, 0.0, 0.0, 0.0, 0.0, 0.0, 0.0, 1.6664044498635435E9, 0.0, 2022-10-21 19:07:29.863
168.0, -129569.2851626021, -157109.65181704186, -33537.02676737628, -140220.00315427818, 67216.72471961078, -100554.70920261255, 54994.29911307086, -111460.57235724597, 0.026000000000000002, 0.9540000000000001, -0.032, 192.0, 0.0, 0.0, 0.0, 0.0, 0.0, 0.0, 0.0, 0.0, 0.0, 1.6664044498635569E9, 0.0, 2022-10-21 19:07:29.863
169.0, -129578.47172957323, -157118.92779099083, -33542.90527616802, -140214.43756990883, 67214.9142283099, -100537.05132449286, 55006.16788937663, -111472.55289227402, 0.026000000000000002, 0.9540000000000001, -0.032, 192.0, 0.0, 0.0, 0.0, 0.0, 0.0, 0.0, 0.0, 0.0, 0.0, 1.66640444986357E9, 0.0, 2022-10-21 19:07:29.863
170.0, -129583.50087207567, -157124.1357474489, -33548.00147390383, -140225.1887589918, 67204.25244620471, -100540.73936232798, 55005.78790972089, -111478.56551153249, 0.026000000000000002, 0.9540000000000001, -0.032, 192.0, 0.0, 0.0, 0.0, 0.0, 0.0, 0.0, 0.0, 0.0, 0.0, 1.666404449863583E9, 0.0, 2022-10-21 19:07:29.863
171.0, -129578.06939817303, -157119.15130843536, -33543.8664011796, -140219.13143624444, 67209.63921661845, -100542.41574316213, 55008.89480220018, -111471.61411900689, 0.026000000000000002, 0.9540000000000001, -0.032, 192.0, 0.0, 0.0, 0.0, 0.0, 0.0, 0.0, 0.0, 0.0, 0.0, 1.6664044498635964E9, 0.0, 2022-10-21 19:07:29.863
172.0, -129587.0324476996, -157129.92484926284, -33554.99756991835, -140244.1430382899, 67195.08823097804, -100573.99875807748, 54983.39146177667, -111478.52080804358, 0.022, 0.9540000000000001, -0.036000000000000004, 192.0, 0.0, 176.0, 29.0, 208.0, 254.0, 224.0, 0.0, 0.0, 0.0, 1.6664044498636096E9, 0.0, 2022-10-21 19:07:29.863
173.0, -129578.40467433986, -157120.89474450288, -33543.575828501685, -140230.12849451645, 67208.27576020667, -100578.89379011319, 54988.7782321904, -111463.43338053625, 0.022, 0.9540000000000001, -0.036000000000000004, 192.0, 0.0, 0.0, 0.0, 0.0, 0.0, 0.0, 0.0, 0.0, 0.0, 1.6664044498636236E9, 0.0, 2022-10-21 19:07:29.863
174.0, -129575.56600279403, -157115.70913978925, -33540.31247381121, -140218.3938286774, 67215.18244924337, -100546.46140890854, 55017.8354999823, -111462.3604968024, 0.022, 0.9540000000000001, -0.036000000000000004, 192.0, 0.0, 0.0, 0.0, 0.0, 0.0, 0.0, 0.0, 0.0, 0.0, 1.6664044498636367E9, 0.0, 2022-10-21 19:07:29.863
175.0, -129572.07913065901, -157111.19408740927, -33536.93736039846, -140223.87000606896, 67217.43997543336, -100542.34868792877, 55019.5342325609, -111464.43920903675, 0.022, 0.9540000000000001, -0.036000000000000004, 192.0, 0.0, 0.0, 0.0, 0.0, 0.0, 0.0, 0.0, 0.0, 0.0, 1.6664044498636503E9, 0.0, 2022-10-21 19:07:29.863
176.0, -129572.32499984802, -157110.54588682007, -33533.562246985704, -140223.46767466876, 67220.59157140154, -100556.00560379095, 55008.29130509988, -111459.8571014234, 0.022, 0.9540000000000001, -0.036000000000000004, 192.0, 0.0, 0.0, 0.0, 0.0, 0.0, 0.0, 0.0, 0.0, 0.0, 1.666404449863665E9, 0.0, 2022-10-21 19:07:29.863
177.0, -129577.22003188373, -157116.60320956746, -33540.11130811111, -140226.17223574786, 67213.30490270912, -100566.30975798485, 55002.74807247497, -111458.33718280045, 0.022, 0.9540000000000001, -0.036000000000000004, 192.0, 0.0, 0.0, 0.0, 0.0, 0.0, 0.0, 0.0, 0.0, 0.0, 1.6664044498636787E9, 0.0, 2022-10-21 19:07:29.863
178.0, -129581.75743600816, -157124.35926489346, -33547.554439014726, -140226.9992502927, 67209.05807126261, -100541.54402512837, 55019.37777034972, -111467.23317709366, 0.022, 0.9540000000000001, -0.036000000000000004, 192.0, 0.0, 0.0, 0.0, 0.0, 0.0, 0.0, 0.0, 0.0, 0.0, 1.6664044498637042E9, 0.0, 2022-10-21 19:07:29.863
179.0, -129586.36189536595, -157125.32038990504, -33549.20846810442, -140227.06630552607, 67207.3146351951, -100540.62760360571, 55016.22617438152, -111464.50626427011, 0.022, 0.9540000000000001, -0.036000000000000004, 192.0, 0.0, 0.0, 0.0, 0.0, 0.0, 0.0, 0.0, 0.0, 0.0, 1.6664044498637173E9, 0.0, 2022-10-21 19:07:29.863
180.0, -129591.32398263503, -157126.61679108345, -33552.78474721727, -140235.2917474856, 67203.78305957116, -100556.34087995779, 55003.01629340843, -111469.44599979473, 0.022, 0.9540000000000001, -0.036000000000000004, 192.0, 0.0, 0.0, 0.0, 0.0, 0.0, 0.0, 0.0, 0.0, 0.0, 1.6664044498637304E9, 0.0, 2022-10-21 19:07:29.863
181.0, -129590.92165123484, -157125.70036956077, -33552.851802450634, -140228.85444508248, 67209.03571951816, -100556.51969391343, 55003.619790508725, -111469.40129630582, 0.022, 0.9540000000000001, -0.036000000000000004, 192.0, 0.0, 0.0, 0.0, 0.0, 0.0, 0.0, 0.0, 0.0, 0.0, 1.6664044498637435E9, 0.0, 2022-10-21 19:07:29.863
182.0, -129588.77588376713, -157124.91805850485, -33549.74490997135, -140220.2937269561, 67210.35447244102, -100543.98036527401, 55018.103720915766, -111469.44599979473, 0.026000000000000002, 0.9560000000000001, -0.04, 192.0, 0.0, 208.0, 29.0, 224.0, 254.0, 192.0, 0.0, 0.0, 0.0, 1.666404449863757E9, 0.0, 2022-10-21 19:07:29.863
183.0, -129576.95181095027, -157115.35151187796, -33535.26097956431, -140215.75632283167, 67216.41179518841, -100548.33895544278, 55021.68000002862, -111466.96495616018, 0.026000000000000002, 0.9560000000000001, -0.04, 192.0, 0.0, 0.0, 0.0, 0.0, 0.0, 0.0, 0.0, 0.0, 0.0, 1.6664044498637707E9, 0.0, 2022-10-21 19:07:29.863
184.0, -129571.74385449218, -157110.50118333116, -33530.05302310622, -140215.55515713157, 67222.29030398015, -100563.44873469458, 55009.3865405782, -111462.8075316915, 0.026000000000000002, 0.9560000000000001, -0.04, 192.0, 0.0, 0.0, 0.0, 0.0, 0.0, 0.0, 0.0, 0.0, 0.0, 1.666404449863784E9, 0.0, 2022-10-21 19:07:29.863
185.0, -129581.42215984133, -157121.61000032545, -33538.323168554685, -140230.21790149427, 67209.30394045162, -100580.32430175833, 54992.287456069884, -111468.39546780533, 0.026000000000000002, 0.9560000000000001, -0.04, 192.0, 0.0, 0.0, 0.0, 0.0, 0.0, 0.0, 0.0, 0.0, 0.0, 1.6664044498637972E9, 0.0, 2022-10-21 19:07:29.863
186.0, -129588.46295934475, -157130.14836670738, -33543.8664011796, -140222.41714267936, 67203.53719038215, -100575.3398627448, 54999.21649685103, -111474.87747369737, 0.026000000000000002, 0.9560000000000001, -0.04, 192.0, 0.0, 0.0, 0.0, 0.0, 0.0, 0.0, 0.0, 0.0, 0.0, 1.6664044498638103E9, 0.0, 2022-10-21 19:07:29.863
187.0, -129584.84197674299, -157127.86848877295, -33542.949979656936, -140223.98176479124, 67204.364204927, -100561.2806154824, 55013.29809585788, -111471.85998819591, 0.026000000000000002, 0.9560000000000001, -0.04, 192.0, 0.0, 0.0, 0.0, 0.0, 0.0, 0.0, 0.0, 0.0, 0.0, 1.6664044498638234E9, 0.0, 2022-10-21 19:07:29.863
188.0, -129585.15490116537, -157128.8296137845, -33543.93345641297, -140231.62606139496, 67204.7665363272, -100571.1377347872, 55004.31269458684, -111471.74822947363, 0.026000000000000002, 0.9560000000000001, -0.04, 192.0, 0.0, 0.0, 0.0, 0.0, 0.0, 0.0, 0.0, 0.0, 0.0, 1.6664044498638365E9, 0.0, 2022-10-21 19:07:29.863
189.0, -129586.54070932159, -157129.54486960708, -33549.54374427125, -140239.18095102085, 67196.96577751229, -100585.55460996088, 54988.91234265713, -111477.02324116508, 0.026000000000000002, 0.9560000000000001, -0.04, 192.0, 0.0, 0.0, 0.0, 0.0, 0.0, 0.0, 0.0, 0.0, 0.0, 1.6664044498638496E9, 0.0, 2022-10-21 19:07:29.863
190.0, -129585.64663954338, -157132.02591324164, -33546.59331400315, -140231.4919509282, 67197.6139781015, -100577.97736859052, 55002.45749979705, -111468.75309571662, 0.026000000000000002, 0.9560000000000001, -0.04, 192.0, 0.0, 0.0, 0.0, 0.0, 0.0, 0.0, 0.0, 0.0, 0.0, 1.6664044498638628E9, 0.0, 2022-10-21 19:07:29.863
191.0, -129588.17238666683, -157134.99869525418, -33545.095747124644, -140227.0439537816, 67201.50318163671, -100564.67808063961, 55021.00944769495, -111460.68411596825, 0.026000000000000002, 0.9560000000000001, -0.04, 192.0, 0.0, 0.0, 0.0, 0.0, 0.0, 0.0, 0.0, 0.0, 0.0, 1.6664044498638759E9, 0.0, 2022-10-21 19:07:29.863
192.0, -129579.54461330708, -157126.0803492165, -33540.33482555566, -140229.7485148607, 67208.20870497331, -100585.91223787217, 55007.464290555035, -111460.23708107915, 0.018000000000000002, 0.964, -0.036000000000000004, 192.0, 0.0, 144.0, 30.0, 32.0, 254.0, 224.0, 0.0, 0.0, 0.0, 1.6664044498638945E9, 0.0, 2022-10-21 19:07:29.863
193.0, -129582.07036043053, -157129.9919044962, -33544.469898279895, -140234.10710502948, 67204.00657701571, -100589.19794430709, 54996.422528794115, -111471.68117424026, 0.018000000000000002, 0.964, -0.036000000000000004, 192.0, 0.0, 0.0, 0.0, 0.0, 0.0, 0.0, 0.0, 0.0, 0.0, 1.6664044498639212E9, 0.0, 2022-10-21 19:07:29.863
194.0, -129570.64861901387, -157117.72079679024, -33525.35915677061, -140200.11010171295, 67225.41954820389, -100561.79470560489, 55022.082331428806, -111452.68219145325, 0.018000000000000002, 0.964, -0.036000000000000004, 192.0, 0.0, 0.0, 0.0, 0.0, 0.0, 0.0, 0.0, 0.0, 0.0, 1.6664044498639348E9, 0.0, 2022-10-21 19:07:29.863
195.0, -129578.35997085094, -157126.59443933898, -33530.67887195097, -140205.07218898204, 67225.95599007083, -100547.40018217567, 55031.91709898914, -111447.74245592863, 0.018000000000000002, 0.964, -0.036000000000000004, 192.0, 0.0, 0.0, 0.0, 0.0, 0.0, 0.0, 0.0, 0.0, 0.0, 1.666404449863948E9, 0.0, 2022-10-21 19:07:29.863
196.0, -129582.91972671983, -157133.29996267558, -33537.898485410034, -140223.71354385777, 67215.33891145456, -100564.47691493951, 55016.87437497072, -111458.53834850054, 0.018000000000000002, 0.964, -0.036000000000000004, 192.0, 0.0, 0.0, 0.0, 0.0, 0.0, 0.0, 0.0, 0.0, 0.0, 1.6664044498639617E9, 0.0, 2022-10-21 19:07:29.863
197.0, -129582.7856162531, -157134.4846051317, -33542.033558134266, -140233.1459800179, 67211.36030094151, -100589.75673791848, 54994.20970609304, -111467.16612186028, 0.018000000000000002, 0.964, -0.036000000000000004, 192.0, 0.0, 0.0, 0.0, 0.0, 0.0, 0.0, 0.0, 0.0, 0.0, 1.6664044498639767E9, 0.0, 2022-10-21 19:07:29.863
198.0, -129587.21126165525, -157138.75378832268, -33546.30274132523, -140227.15571250388, 67209.8180305741, -100571.76358363195, 55006.45846205455, -111466.11558987088, 0.018000000000000002, 0.964, -0.036000000000000004, 192.0, 0.0, 0.0, 0.0, 0.0, 0.0, 0.0, 0.0, 0.0, 0.0, 1.666404449863991E9, 0.0, 2022-10-21 19:07:29.863
199.0, -129580.19281389628, -157134.4846051317, -33542.68175872347, -140217.96914553276, 67213.17079224238, -100557.95020555858, 55021.4341308396, -111464.8638921814, 0.018000000000000002, 0.964, -0.036000000000000004, 192.0, 0.0, 0.0, 0.0, 0.0, 0.0, 0.0, 0.0, 0.0, 0.0, 1.6664044498640044E9, 0.0, 2022-10-21 19:07:29.864
200.0, -129570.02277016912, -157123.84517477098, -33531.2153138179, -140215.10812224247, 67221.41858594639, -100554.26216772344, 55027.75967452046, -111458.4042380338, 0.018000000000000002, 0.964, -0.036000000000000004, 192.0, 0.0, 0.0, 0.0, 0.0, 0.0, 0.0, 0.0, 0.0, 0.0, 1.6664044498640175E9, 0.0, 2022-10-21 19:07:29.864
201.0, -129566.49119454517, -157118.14547993487, -33528.01901436079, -140214.32581118654, 67223.51964992519, -100559.1348480147, 55022.12703491772, -111448.32360128446, 0.018000000000000002, 0.9560000000000001, -0.036000000000000004, 192.0, 0.0, 144.0, 29.0, 224.0, 254.0, 224.0, 0.0, 0.0, 0.0, 1.6664044498640313E9, 0.0, 2022-10-21 19:07:29.864
202.0, -129572.83908997048, -157125.81212828305, -33532.42230801848, -140210.68247684033, 67221.95502781332, -100551.19997873307, 55026.619735553235, -111443.0038861041, 0.018000000000000002, 0.9560000000000001, -0.036000000000000004, 192.0, 0.0, 0.0, 0.0, 0.0, 0.0, 0.0, 0.0, 0.0, 0.0, 1.6664044498640454E9, 0.0, 2022-10-21 19:07:29.864
203.0, -129573.57669753752, -157129.45546262927, -33534.23279931937, -140209.96722101775, 67218.57991440057, -100545.56733913033, 55034.12992169022, -111445.66374369428, 0.018000000000000002, 0.9560000000000001, -0.036000000000000004, 192.0, 0.0, 0.0, 0.0, 0.0, 0.0, 0.0, 0.0, 0.0, 0.0, 1.6664044498640587E9, 0.0, 2022-10-21 19:07:29.864
204.0, -129566.51354628964, -157124.582782338, -33527.63903470505, -140209.81075880656, 67224.50312668123, -100540.35938267225, 55041.12601770473, -111447.87656639535, 0.018000000000000002, 0.9560000000000001, -0.036000000000000004, 192.0, 0.0, 0.0, 0.0, 0.0, 0.0, 0.0, 0.0, 0.0, 0.0, 1.666404449864072E9, 0.0, 2022-10-21 19:07:29.864
205.0, -129570.22393586922, -157129.76838705165, -33533.60695047462, -140237.01283180868, 67212.00850153071, -100578.13383080171, 55012.26991561293, -111463.25456658061, 0.018000000000000002, 0.9560000000000001, -0.036000000000000004, 192.0, 0.0, 0.0, 0.0, 0.0, 0.0, 0.0, 0.0, 0.0, 0.0, 1.6664044498640852E9, 0.0, 2022-10-21 19:07:29.864
206.0, -129572.66027601485, -157133.56818360905, -33538.27846506578, -140229.48029392725, 67213.95310329832, -100568.61198766375, 55017.947258704575, -111469.53540677256, 0.018000000000000002, 0.9560000000000001, -0.036000000000000004, 192.0, 0.0, 0.0, 0.0, 0.0, 0.0, 0.0, 0.0, 0.0, 0.0, 1.6664044498641005E9, 0.0, 2022-10-21 19:07:29.864
207.0, -129575.38718883839, -157137.61384935546, -33539.75368019983, -140222.595956635, 67209.92978929637, -100544.09212399628, 55034.800474023876, -111466.62967999336, 0.018000000000000002, 0.9560000000000001, -0.036000000000000004, 192.0, 0.0, 0.0, 0.0, 0.0, 0.0, 0.0, 0.0, 0.0, 0.0, 1.6664044498641157E9, 0.0, 2022-10-21 19:07:29.864
208.0, -129573.64375277088, -157134.79752955408, -33538.43492727696, -140226.28399447014, 67209.25923696271, -100550.37296418822, 55033.39231412319, -111462.51695901358, 0.018000000000000002, 0.9560000000000001, -0.036000000000000004, 192.0, 0.0, 0.0, 0.0, 0.0, 0.0, 0.0, 0.0, 0.0, 0.0, 1.6664044498641448E9, 0.0, 2022-10-21 19:07:29.864
209.0, -129567.6311335124, -157127.22028818374, -33535.97623538688, -140232.22955849525, 67211.56146664161, -100570.22131326453, 55019.60128779427, -111455.18558683225, 0.018000000000000002, 0.9560000000000001, -0.036000000000000004, 192.0, 0.0, 0.0, 0.0, 0.0, 0.0, 0.0, 0.0, 0.0, 0.0, 1.6664044498641598E9, 0.0, 2022-10-21 19:07:29.864
210.0, -129559.85272644195, -157119.26306715765, -33528.2648835498, -140227.4462851818, 67215.5177254102, -100596.32815078834, 55003.23981085299, -111460.88528166835, 0.018000000000000002, 0.9560000000000001, -0.036000000000000004, 192.0, 0.0, 0.0, 0.0, 0.0, 0.0, 0.0, 0.0, 0.0, 0.0, 1.6664044498641748E9, 0.0, 2022-10-21 19:07:29.864
211.0, -129556.99170315168, -157118.0337212126, -33524.554493970216, -140217.99149727722, 67220.25629523472, -100576.79272613439, 55022.39525585118, -111460.8629299239, 0.016, 0.9520000000000001, -0.038, 192.0, 0.0, 128.0, 29.0, 192.0, 254.0, 208.0, 0.0, 0.0, 0.0, 1.66640444986419E9, 0.0, 2022-10-21 19:07:29.864
212.0, -129554.75652870614, -157114.70331128876, -33524.286273036756, -140219.55611938908, 67220.65862663492, -100567.02501380742, 55030.62069781074, -111458.31483105599, 0.016, 0.9520000000000001, -0.038, 192.0, 0.0, 0.0, 0.0, 0.0, 0.0, 0.0, 0.0, 0.0, 0.0, 1.666404449864206E9, 0.0, 2022-10-21 19:07:29.864
213.0, -129554.30949381704, -157113.89864848836, -33521.626415446575, -140218.84086356653, 67227.07357729359, -100578.20088603508, 55022.41760759564, -111448.9494501292, 0.016, 0.9520000000000001, -0.038, 192.0, 0.0, 0.0, 0.0, 0.0, 0.0, 0.0, 0.0, 0.0, 0.0, 1.6664044498642209E9, 0.0, 2022-10-21 19:07:29.864
214.0, -129560.14329911988, -157117.47492760123, -33529.00249111682, -140235.55996841908, 67217.39527194444, -100597.6469037112, 55004.42445330912, -111453.93388914275, 0.016, 0.9520000000000001, -0.038, 192.0, 0.0, 0.0, 0.0, 0.0, 0.0, 0.0, 0.0, 0.0, 0.0, 1.6664044498642356E9, 0.0, 2022-10-21 19:07:29.864
215.0, -129558.9810084082, -157114.52449733313, -33526.58850271565, -140219.46671241126, 67221.8656208355, -100592.3942437642, 55012.11345340174, -111451.2516798081, 0.016, 0.9520000000000001, -0.038, 192.0, 0.0, 0.0, 0.0, 0.0, 0.0, 0.0, 0.0, 0.0, 0.0, 1.6664044498642507E9, 0.0, 2022-10-21 19:07:29.864
216.0, -129570.93919169178, -157125.16392769385, -33536.512677253806, -140224.16057874687, 67219.04930103413, -100564.65572889516, 55027.64791579818, -111464.30509857001, 0.016, 0.9520000000000001, -0.038, 192.0, 0.0, 0.0, 0.0, 0.0, 0.0, 0.0, 0.0, 0.0, 0.0, 1.6664044498642654E9, 0.0, 2022-10-21 19:07:29.864
217.0, -129578.24821212867, -157133.1882039533, -33541.07243312269, -140250.89326511542, 67210.60034163002, -100573.73053714402, 55017.56727904884, -111473.24579635213, 0.016, 0.9520000000000001, -0.038, 192.0, 0.0, 0.0, 0.0, 0.0, 0.0, 0.0, 0.0, 0.0, 0.0, 1.6664044498642805E9, 0.0, 2022-10-21 19:07:29.864
218.0, -129568.99458992417, -157124.91805850485, -33534.25515106382, -140242.1984365223, 67219.92101906789, -100581.59835119228, 55015.62267728122, -111459.79004619004, 0.016, 0.9520000000000001, -0.038, 192.0, 0.0, 0.0, 0.0, 0.0, 0.0, 0.0, 0.0, 0.0, 0.0, 1.6664044498642952E9, 0.0, 2022-10-21 19:07:29.864
219.0, -129559.5845055085, -157115.35151187796, -33523.61572070309, -140230.6425846389, 67227.9676470718, -100584.57113320484, 55023.065808184845, -111447.67540069525, 0.016, 0.9520000000000001, -0.038, 192.0, 0.0, 0.0, 0.0, 0.0, 0.0, 0.0, 0.0, 0.0, 0.0, 1.6664044498643124E9, 0.0, 2022-10-21 19:07:29.864
220.0, -129569.083996902, -157122.95110499277, -33528.197828316435, -140233.92829107385, 67223.43024294738, -100581.75481340347, 55031.62652631123, -111460.32648805696, 0.016, 0.9520000000000001, -0.038, 192.0, 0.0, 0.0, 0.0, 0.0, 0.0, 0.0, 0.0, 0.0, 0.0, 1.6664044498643272E9, 0.0, 2022-10-21 19:07:29.864
221.0, -129574.53782254909, -157126.9297155058, -33531.23766556235, -140242.28784350012, 67225.35249297053, -100579.43023198012, 55032.20767166706, -111464.59567124792, 0.02, 0.9540000000000001, -0.028, 192.0, 0.0, 160.0, 29.0, 208.0, 255.0, 32.0, 0.0, 0.0, 0.0, 1.6664044498643422E9, 0.0, 2022-10-21 19:07:29.864
222.0, -129573.39788358187, -157122.95110499277, -33528.0637178497, -140241.86316035548, 67234.114376797, -100581.57599944783, 55026.70914253106, -111459.83474967895, 0.02, 0.9540000000000001, -0.028, 192.0, 0.0, 0.0, 0.0, 0.0, 0.0, 0.0, 0.0, 0.0, 0.0, 1.6664044498643582E9, 0.0, 2022-10-21 19:07:29.864
223.0, -129564.90422068886, -157115.48562234468, -33521.000566601826, -140224.13822700243, 67243.5244612127, -100575.56338018936, 55034.42049436814, -111448.72593268465, 0.02, 0.9540000000000001, -0.028, 192.0, 0.0, 0.0, 0.0, 0.0, 0.0, 0.0, 0.0, 0.0, 0.0, 1.666404449864387E9, 0.0, 2022-10-21 19:07:29.864
224.0, -129571.25211611416, -157122.39231138138, -33527.2143515604, -140220.87487231195, 67239.41174023291, -100558.66546138114, 55047.42920964113, -111451.07286585246, 0.02, 0.9540000000000001, -0.028, 192.0, 0.0, 0.0, 0.0, 0.0, 0.0, 0.0, 0.0, 0.0, 0.0, 1.666404449864403E9, 0.0, 2022-10-21 19:07:29.864
225.0, -129578.40467433986, -157130.90832601886, -33536.4679737649, -140233.25773874018, 67228.92877208338, -100561.77235386043, 55042.020087482946, -111458.02425837806, 0.02, 0.9540000000000001, -0.028, 192.0, 0.0, 0.0, 0.0, 0.0, 0.0, 0.0, 0.0, 0.0, 0.0, 1.666404449864418E9, 0.0, 2022-10-21 19:07:29.864
226.0, -129568.70401724626, -157122.59347708148, -33529.15895332801, -140230.352011961, 67234.13672854146, -100589.75673791848, 55026.26210764195, -111449.32942978495, 0.02, 0.9540000000000001, -0.028, 192.0, 0.0, 0.0, 0.0, 0.0, 0.0, 0.0, 0.0, 0.0, 0.0, 1.6664044498644328E9, 0.0, 2022-10-21 19:07:29.864
227.0, -129567.85465095696, -157124.26985791564, -33531.37177602908, -140234.9564713188, 67225.06192029262, -100608.30868581637, 55013.208688880055, -111462.04757238002, 0.02, 0.9540000000000001, -0.028, 192.0, 0.0, 0.0, 0.0, 0.0, 0.0, 0.0, 0.0, 0.0, 0.0, 1.666404449864448E9, 0.0, 2022-10-21 19:07:29.864
228.0, -129567.85465095696, -157126.79560503908, -33533.3163777967, -140229.45794218278, 67222.33500746907, -100594.741176932, 55024.3398576188, -111464.72978171466, 0.02, 0.9540000000000001, -0.028, 192.0, 0.0, 0.0, 0.0, 0.0, 0.0, 0.0, 0.0, 0.0, 0.0, 1.6664044498644629E9, 0.0, 2022-10-21 19:07:29.864
229.0, -129570.02277016912, -157130.77421555214, -33532.802287674225, -140224.98759329173, 67228.2135162608, -100583.16297330416, 55029.346648376784, -111470.42947655077, 0.02, 0.9540000000000001, -0.028, 192.0, 0.0, 0.0, 0.0, 0.0, 0.0, 0.0, 0.0, 0.0, 0.0, 1.666404449864478E9, 0.0, 2022-10-21 19:07:29.864
230.0, -129572.14618589237, -157135.06575048756, -33535.64095922005, -140232.1401515174, 67225.10662378152, -100591.00843560798, 55018.438997082594, -111469.71422072819, 0.02, 0.9540000000000001, -0.028, 192.0, 0.0, 0.0, 0.0, 0.0, 0.0, 0.0, 0.0, 0.0, 0.0, 1.6664044498644931E9, 0.0, 2022-10-21 19:07:29.864
231.0, -129574.31430510453, -157137.6362010999, -33538.01024413231, -140229.1897212493, 67224.74899587024, -100597.08811009981, 55012.20286037956, -111464.72978171466, 0.022, 0.9580000000000001, -0.032, 192.0, 0.0, 176.0, 29.0, 240.0, 255.0, 0.0, 0.0, 0.0, 0.0, 1.666404449864508E9, 0.0, 2022-10-21 19:07:29.864
232.0, -129570.5815637805, -157134.6410673429, -33534.03163361927, -140226.17223574786, 67225.84423134854, -100593.91416238715, 55017.50022381547, -111466.29440382653, 0.022, 0.9580000000000001, -0.032, 192.0, 0.0, 0.0, 0.0, 0.0, 0.0, 0.0, 0.0, 0.0, 0.0, 1.6664044498645241E9, 0.0, 2022-10-21 19:07:29.864
233.0, -129574.44841557127, -157138.95495402277, -33535.037462119755, -140229.7485148607, 67223.81022260312, -100598.42921476714, 55017.09789241527, -111475.68213649777, 0.022, 0.9580000000000001, -0.032, 192.0, 0.0, 0.0, 0.0, 0.0, 0.0, 0.0, 0.0, 0.0, 0.0, 1.6664044498645391E9, 0.0, 2022-10-21 19:07:29.864
234.0, -129571.98972368118, -157136.5856691105, -33534.8139446752, -140230.6872881278, 67230.1134145395, -100586.739252417, 55022.574069806826, -111477.98436617665, 0.022, 0.9580000000000001, -0.032, 192.0, 0.0, 0.0, 0.0, 0.0, 0.0, 0.0, 0.0, 0.0, 0.0, 1.6664044498645542E9, 0.0, 2022-10-21 19:07:29.864
235.0, -129563.69722648826, -157130.4836428742, -33526.074412593174, -140221.43366592334, 67240.39521698895, -100595.61289496576, 55017.813148237845, -111463.99217414763, 0.022, 0.9580000000000001, -0.032, 192.0, 0.0, 0.0, 0.0, 0.0, 0.0, 0.0, 0.0, 0.0, 0.0, 1.666404449864569E9, 0.0, 2022-10-21 19:07:29.864
236.0, -129565.82064221152, -157132.47294813074, -33534.121040597085, -140221.0983897565, 67232.14742328494, -100587.67802568413, 55020.60711629476, -111470.87651143987, 0.022, 0.9580000000000001, -0.032, 192.0, 0.0, 0.0, 0.0, 0.0, 0.0, 0.0, 0.0, 0.0, 0.0, 1.666404449864584E9, 0.0, 2022-10-21 19:07:29.864
237.0, -129569.19575562427, -157135.75865456567, -33541.38535754506, -140237.16929401987, 67218.08817602256, -100602.18430783562, 55011.19703187908, -111479.07960165497, 0.022, 0.9580000000000001, -0.032, 192.0, 0.0, 0.0, 0.0, 0.0, 0.0, 0.0, 0.0, 0.0, 0.0, 1.6664044498645992E9, 0.0, 2022-10-21 19:07:29.864
238.0, -129563.87604044391, -157132.69646557528, -33536.33386329816, -140239.22565450976, 67220.50216442373, -100602.0501973689, 55008.380712077706, -111476.46444755369, 0.022, 0.9580000000000001, -0.032, 192.0, 0.0, 0.0, 0.0, 0.0, 0.0, 0.0, 0.0, 0.0, 0.0, 1.66640444986463E9, 0.0, 2022-10-21 19:07:29.864
239.0, -129563.20548811025, -157131.3777126524, -33539.59721798864, -140241.5055324442, 67217.64114113346, -100617.78582546543, 54997.13778461669, -111472.93287192976, 0.022, 0.9580000000000001, -0.032, 192.0, 0.0, 0.0, 0.0, 0.0, 0.0, 0.0, 0.0, 0.0, 0.0, 1.6664044498646455E9, 0.0, 2022-10-21 19:07:29.864
240.0, -129571.43093006981, -157137.25622144417, -33547.59914250364, -140236.40933470838, 67213.52842015367, -100603.72657820304, 55006.8831451992, -111478.69962199923, 0.026000000000000002, 0.9580000000000001, -0.032, 192.0, 0.0, 208.0, 29.0, 240.0, 255.0, 0.0, 0.0, 0.0, 0.0, 1.666404449864663E9, 0.0, 2022-10-21 19:07:29.864
241.0, -129566.29002884509, -157130.39423589638, -33542.61470349011, -140232.2966137286, 67219.71985336779, -100583.31943551534, 55023.334029118305, -111477.38086907637, 0.026000000000000002, 0.9580000000000001, -0.032, 192.0, 0.0, 0.0, 0.0, 0.0, 0.0, 0.0, 0.0, 0.0, 0.0, 1.6664044503419333E9, 0.0, 2022-10-21 19:07:30.341
242.0, -129558.39986305236, -157123.01816022614, -33535.12686909758, -140234.97882306325, 67225.82187960409, -100605.78293869292, 55010.86175571225, -111469.60246200592, 0.026000000000000002, 0.9580000000000001, -0.032, 192.0, 0.0, 0.0, 0.0, 0.0, 0.0, 0.0, 0.0, 0.0, 0.0, 1.666404450342016E9, 0.0, 2022-10-21 19:07:30.342
243.0, -129559.11511887494, -157122.39231138138, -33532.95874988541, -140229.27912822715, 67231.34276048455, -100612.95784866308, 55003.37392131972, -111468.10489512741, 0.026000000000000002, 0.9580000000000001, -0.032, 192.0, 0.0, 0.0, 0.0, 0.0, 0.0, 0.0, 0.0, 0.0, 0.0, 1.666404450342079E9, 0.0, 2022-10-21 19:07:30.342
244.0, -129562.42317705431, -157126.10270096097, -33537.473802265384, -140222.88652931293, 67227.40885346042, -100595.76935717695, 55013.25339236896, -111474.76571497509, 0.026000000000000002, 0.9580000000000001, -0.032, 192.0, 0.0, 0.0, 0.0, 0.0, 0.0, 0.0, 0.0, 0.0, 0.0, 1.666404450342149E9, 0.0, 2022-10-21 19:07:30.342
245.0, -129563.33959857699, -157126.34857014997, -33540.33482555566, -140234.0400497961, 67219.92101906789, -100594.38354902073, 55019.26601162744, -111467.94843291622, 0.026000000000000002, 0.9580000000000001, -0.032, 192.0, 0.0, 0.0, 0.0, 0.0, 0.0, 0.0, 0.0, 0.0, 0.0, 1.6664044503421924E9, 0.0, 2022-10-21 19:07:30.342
246.0, -129562.22201135421, -157121.3864828809, -33536.82560167618, -140243.31602374508, 67225.35249297053, -100610.85678468428, 55017.053188926366, -111463.07575262497, 0.026000000000000002, 0.9580000000000001, -0.032, 192.0, 0.0, 0.0, 0.0, 0.0, 0.0, 0.0, 0.0, 0.0, 0.0, 1.6664044503422155E9, 0.0, 2022-10-21 19:07:30.342
247.0, -129567.74289223467, -157126.0803492165, -33537.29498830974, -140254.42484073935, 67221.66445513541, -100621.11623538927, 55007.64310451068, -111473.31285158549, 0.026000000000000002, 0.9580000000000001, -0.032, 192.0, 0.0, 0.0, 0.0, 0.0, 0.0, 0.0, 0.0, 0.0, 0.0, 1.6664044503422315E9, 0.0, 2022-10-21 19:07:30.342
248.0, -129566.9382294343, -157126.4826806167, -33537.09382260965, -140244.9477010903, 67222.80439410263, -100618.27756384344, 55009.23007836701, -111473.08933414094, 0.026000000000000002, 0.9580000000000001, -0.032, 192.0, 0.0, 0.0, 0.0, 0.0, 0.0, 0.0, 0.0, 0.0, 0.0, 1.6664044503422475E9, 0.0, 2022-10-21 19:07:30.342
249.0, -129564.77011022212, -157124.7392445492, -33534.43396501946, -140231.51430267267, 67227.92294358289, -100585.12992681623, 55033.70523854557, -111470.47418003967, 0.026000000000000002, 0.9580000000000001, -0.032, 192.0, 0.0, 0.0, 0.0, 0.0, 0.0, 0.0, 0.0, 0.0, 0.0, 1.666404450342264E9, 0.0, 2022-10-21 19:07:30.342
250.0, -129565.03833115559, -157122.12409044793, -33534.45631676392, -140236.43168645285, 67226.5147836822, -100577.84325812379, 55039.31552640385, -111470.42947655077, 0.014, 0.966, -0.034, 192.0, 0.0, 112.0, 30.0, 48.0, 254.0, 240.0, 0.0, 0.0, 0.0, 1.6664044503422818E9, 0.0, 2022-10-21 19:07:30.342
251.0, -129556.8799444294, -157110.32236937553, -33527.81784866069, -140242.8466371115, 67227.92294358289, -100604.3971305367, 55023.15521516267, -111465.04270613703, 0.014, 0.966, -0.034, 192.0, 0.0, 0.0, 0.0, 0.0, 0.0, 0.0, 0.0, 0.0, 0.0, 1.6664044503422997E9, 0.0, 2022-10-21 19:07:30.342
252.0, -129558.22104909671, -157110.88116298692, -33526.990834115844, -140236.9457765753, 67228.57114417209, -100618.16580512117, 55016.31558135934, -111466.85319743791, 0.014, 0.966, -0.034, 192.0, 0.0, 0.0, 0.0, 0.0, 0.0, 0.0, 0.0, 0.0, 0.0, 1.6664044503423867E9, 0.0, 2022-10-21 19:07:30.342
253.0, -129569.95571493576, -157125.4321486273, -33538.457279021415, -140244.97005283477, 67213.95310329832, -100604.68770321461, 55025.70331403057, -111473.60342426342, 0.014, 0.966, -0.034, 192.0, 0.0, 0.0, 0.0, 0.0, 0.0, 0.0, 0.0, 0.0, 0.0, 1.6664044503424037E9, 0.0, 2022-10-21 19:07:30.342
254.0, -129570.7380259917, -157124.76159629365, -33541.25124707833, -140245.93117784633, 67215.33891145456, -100589.55557221838, 55036.476854858025, -111471.12238062888, 0.014, 0.966, -0.034, 192.0, 0.0, 0.0, 0.0, 0.0, 0.0, 0.0, 0.0, 0.0, 0.0, 1.6664044503424194E9, 0.0, 2022-10-21 19:07:30.342
255.0, -129560.41152005334, -157112.80341301006, -33530.38829927305, -140233.81653235157, 67230.24752500624, -100592.14837457519, 55034.21932866804, -111458.29247931154, 0.014, 0.966, -0.034, 192.0, 0.0, 0.0, 0.0, 0.0, 0.0, 0.0, 0.0, 0.0, 0.0, 1.6664044503424363E9, 0.0, 2022-10-21 19:07:30.342
0.0, -129551.58258099349, -157101.7840029936, -33518.27365377828, -140214.88460479793, 67246.22902229178, -100604.86651717026, 55029.59251756579, -111449.21767106268, 0.014, 0.966, -0.034, 192.0, 0.0, 0.0, 0.0, 0.0, 0.0, 0.0, 0.0, 0.0, 0.0, 1.666404450342452E9, 0.0, 2022-10-21 19:07:30.342
1.0, -129561.5291072761, -157114.12216593293, -33531.55058998473, -140233.88358758495, 67232.50505119623, -100599.70326420109, 55033.45936935656, -111468.70839222771, 0.014, 0.966, -0.034, 192.0, 0.0, 0.0, 0.0, 0.0, 0.0, 0.0, 0.0, 0.0, 0.0, 1.666404450342468E9, 0.0, 2022-10-21 19:07:30.342
2.0, -129566.60295326746, -157118.16783167934, -33535.14922084203, -140231.62606139496, 67232.05801630713, -100587.1415838172, 55045.03757298441, -111466.27205208207, 0.014, 0.966, -0.034, 192.0, 0.0, 0.0, 0.0, 0.0, 0.0, 0.0, 0.0, 0.0, 0.0, 1.666404450342484E9, 0.0, 2022-10-21 19:07:30.342
3.0, -129570.87213645842, -157122.86169801495, -33541.16184010051, -140241.43847721082, 67229.12993778348, -100603.83833692531, 55031.76063677796, -111467.85902593841, 0.014, 0.966, -0.034, 192.0, 0.0, 0.0, 0.0, 0.0, 0.0, 0.0, 0.0, 0.0, 0.0, 1.6664044503425002E9, 0.0, 2022-10-21 19:07:30.342
4.0, -129570.24628761367, -157119.77715728013, -33542.88292442357, -140241.37142197747, 67226.67124589339, -100625.92186044715, 55018.39429359369, -111461.64524097982, 0.012, 0.962, -0.03, 192.0, 0.0, 96.0, 30.0, 16.0, 255.0, 16.0, 0.0, 0.0, 0.0, 1.666404450342516E9, 0.0, 2022-10-21 19:07:30.342
5.0, -129569.79925272457, -157118.61486656844, -33540.04425287774, -140225.32286945856, 67231.83449886258, -100621.0491801559, 55027.89378498719, -111454.82795892096, 0.012, 0.962, -0.03, 192.0, 0.0, 0.0, 0.0, 0.0, 0.0, 0.0, 0.0, 0.0, 0.0, 1.6664044503425395E9, 0.0, 2022-10-21 19:07:30.342
6.0, -129573.53199404861, -157122.12409044793, -33543.66523547951, -140221.45601766778, 67232.84032736305, -100617.18232836513, 55035.158101935165, -111466.85319743791, 0.012, 0.962, -0.03, 192.0, 0.0, 0.0, 0.0, 0.0, 0.0, 0.0, 0.0, 0.0, 0.0, 1.6664044503425555E9, 0.0, 2022-10-21 19:07:30.342
7.0, -129578.98581969569, -157126.21445968325, -33555.46695655191, -140243.8077621231, 67222.17854525788, -100631.5992035388, 55022.46231108455, -111482.05238366753, 0.012, 0.962, -0.03, 192.0, 0.0, 0.0, 0.0, 0.0, 0.0, 0.0, 0.0, 0.0, 0.0, 1.6664044503425727E9, 0.0, 2022-10-21 19:07:30.342
8.0, -129572.25794461466, -157118.61486656844, -33551.10836638312, -140239.91855858787, 67226.11245228202, -100640.33873562083, 55016.203822637064, -111475.83859870894, 0.012, 0.962, -0.03, 192.0, 0.0, 0.0, 0.0, 0.0, 0.0, 0.0, 0.0, 0.0, 0.0, 1.6664044503425884E9, 0.0, 2022-10-21 19:07:30.342
9.0, -129568.81577596853, -157118.92779099083, -33543.285255823765, -140226.48516017024, 67231.00748431773, -100632.71679076157, 55024.36220936325, -111469.69186898373, 0.012, 0.962, -0.03, 192.0, 0.0, 0.0, 0.0, 0.0, 0.0, 0.0, 0.0, 0.0, 0.0, 1.666404450342604E9, 0.0, 2022-10-21 19:07:30.342
