%OpenBCI Raw EEG Data
%Number of channels = 8
%Sample Rate = 250 Hz
%Board = OpenBCI_GUI$BoardCytonSerial
Sample Index, EXG Channel 0, EXG Channel 1, EXG Channel 2, EXG Channel 3, EXG Channel 4, EXG Channel 5, EXG Channel 6, EXG Channel 7, Accel Channel 0, Accel Channel 1, Accel Channel 2, Other, Other, Other, Other, Other, Other, Other, Analog Channel 0, Analog Channel 1, Analog Channel 2, Timestamp, Other, Timestamp (Formatted)
223.0, -127069.66722842066, -155816.55869681344, -27972.314116038575, -133208.28327039283, 61786.21194198274, -64231.3586749266, 62801.159954209324, -113023.40632956104, 0.0, 0.0, 0.0, 192.0, 0.0, 0.0, 0.0, 0.0, 0.0, 0.0, 0.0, 0.0, 0.0, 1.6664042987118037E9, 0.0, 2022-10-21 19:04:58.711
224.0, -127068.46023422007, -155813.72002526763, -27971.800025916105, -133219.74971529839, 61786.927197805315, -64239.65117211952, 62789.917026748306, -113031.14003314258, 0.0, 0.0, 0.0, 192.0, 0.0, 0.0, 0.0, 0.0, 0.0, 0.0, 0.0, 0.0, 0.0, 1.666404298711832E9, 0.0, 2022-10-21 19:04:58.711
225.0, -127067.25324001948, -155809.98728394357, -27964.82628164605, -133217.60394783068, 61789.36353795094, -64259.43246596247, 62779.45641034322, -113016.41023354653, 0.0, 0.0, 0.0, 192.0, 0.0, 0.0, 0.0, 0.0, 0.0, 0.0, 0.0, 0.0, 0.0, 1.666404298711852E9, 0.0, 2022-10-21 19:04:58.711
226.0, -127070.44953947658, -155810.12139441032, -27967.664953191874, -133205.33284012473, 61792.96216880825, -64261.91350959701, 62787.34657613595, -113020.18767835948, 0.0, 0.0, 0.0, 192.0, 0.0, 0.0, 0.0, 0.0, 0.0, 0.0, 0.0, 0.0, 0.0, 1.6664042987118716E9, 0.0, 2022-10-21 19:04:58.711
227.0, -127084.73230418353, -155825.7229120401, -27982.9535463993, -133217.46983736395, 61780.221674468725, -64225.346055668124, 62804.8256403, -113036.12447215611, 0.02, 0.962, -0.042, 192.0, 0.0, 160.0, 30.0, 16.0, 254.0, 176.0, 0.0, 0.0, 0.0, 1.6664042987118907E9, 0.0, 2022-10-21 19:04:58.711
228.0, -127069.91309760966, -155810.81429848843, -27969.788368915128, -133212.50775009487, 61791.21873274073, -64216.09243346363, 62804.602122855445, -113017.14784111356, 0.02, 0.962, -0.042, 192.0, 0.0, 0.0, 0.0, 0.0, 0.0, 0.0, 0.0, 0.0, 0.0, 1.6664042987119153E9, 0.0, 2022-10-21 19:04:58.711
229.0, -127068.90726910917, -155809.07086242092, -27965.563889213074, -133209.51261633786, 61795.174991509324, -64247.22841348987, 62784.28438714557, -113014.5773905012, 0.02, 0.962, -0.042, 192.0, 0.0, 0.0, 0.0, 0.0, 0.0, 0.0, 0.0, 0.0, 0.0, 1.666404298711933E9, 0.0, 2022-10-21 19:04:58.711
230.0, -127074.71872266755, -155817.20689740265, -27974.258717806188, -133208.66325004856, 61787.86597107244, -64254.53743392676, 62782.228026655685, -113028.77074823032, 0.02, 0.962, -0.042, 192.0, 0.0, 0.0, 0.0, 0.0, 0.0, 0.0, 0.0, 0.0, 0.0, 1.666404298711948E9, 0.0, 2022-10-21 19:04:58.711
231.0, -127081.2454320485, -155824.2700486505, -27984.741685955727, -133217.35807864167, 61773.3820406654, -64249.32947746867, 62783.88205574537, -113032.23526862089, 0.02, 0.962, -0.042, 192.0, 0.0, 0.0, 0.0, 0.0, 0.0, 0.0, 0.0, 0.0, 0.0, 1.666404298711962E9, 0.0, 2022-10-21 19:04:58.711
232.0, -127086.16281582866, -155829.6344673198, -27991.000174403212, -133239.3521951857, 61759.56866259202, -64261.42177121899, 62768.25818637112, -113035.36451284464, 0.02, 0.962, -0.042, 192.0, 0.0, 0.0, 0.0, 0.0, 0.0, 0.0, 0.0, 0.0, 0.0, 1.6664042987119768E9, 0.0, 2022-10-21 19:04:58.711
233.0, -127068.68375166462, -155809.42849033218, -27969.58720321503, -133229.83035204772, 61777.785334323096, -64271.97179460189, 62764.90542470282, -113020.74647197087, 0.02, 0.962, -0.042, 192.0, 0.0, 0.0, 0.0, 0.0, 0.0, 0.0, 0.0, 0.0, 0.0, 1.6664042987119913E9, 0.0, 2022-10-21 19:04:58.711
234.0, -127061.0394550609, -155797.53736228196, -27956.936115853325, -133213.62533731764, 61793.90094207537, -64281.60539646213, 62773.15321840683, -113011.76107069982, 0.02, 0.962, -0.042, 192.0, 0.0, 0.0, 0.0, 0.0, 0.0, 0.0, 0.0, 0.0, 0.0, 1.6664042987120059E9, 0.0, 2022-10-21 19:04:58.712
235.0, -127065.71096965206, -155803.88525770727, -27960.221822288255, -133205.95868896946, 61792.42572694132, -64245.775550100276, 62799.215352441715, -113025.95442842894, 0.02, 0.962, -0.042, 192.0, 0.0, 0.0, 0.0, 0.0, 0.0, 0.0, 0.0, 0.0, 0.0, 1.66640429871202E9, 0.0, 2022-10-21 19:04:58.712
236.0, -127065.62156267423, -155802.83472571787, -27957.00317108669, -133204.48347383543, 61794.66090138685, -64253.82217810419, 62792.934512249776, -113015.20323934594, 0.02, 0.962, -0.042, 192.0, 0.0, 0.0, 0.0, 0.0, 0.0, 0.0, 0.0, 0.0, 0.0, 1.6664042987120347E9, 0.0, 2022-10-21 19:04:58.712
237.0, -127070.49424296549, -155804.89108620776, -27962.546403711607, -133215.12290419615, 61789.922331562324, -64279.48198073888, 62776.349517863935, -113016.79021320227, 0.024, 0.9580000000000001, -0.038, 192.0, 0.0, 192.0, 29.0, 240.0, 254.0, 208.0, 0.0, 0.0, 0.0, 1.6664042987120492E9, 0.0, 2022-10-21 19:04:58.712
238.0, -127079.92667912564, -155812.8259554894, -27967.866118891972, -133212.99948847288, 61786.8824943164, -64251.43054144747, 62792.57688433849, -113008.65417822055, 0.024, 0.9580000000000001, -0.038, 192.0, 0.0, 0.0, 0.0, 0.0, 0.0, 0.0, 0.0, 0.0, 0.0, 1.6664042987120647E9, 0.0, 2022-10-21 19:04:58.712
239.0, -127084.1958623166, -155815.55286831295, -27975.10808409549, -133222.85660777768, 61772.04093599808, -64227.49182313584, 62802.67987283229, -113019.62888474809, 0.024, 0.9580000000000001, -0.038, 192.0, 0.0, 0.0, 0.0, 0.0, 0.0, 0.0, 0.0, 0.0, 0.0, 1.6664042987122219E9, 0.0, 2022-10-21 19:04:58.712
240.0, -127079.65845819218, -155811.12722291079, -27971.285935793632, -133224.10830546718, 61777.584168623, -64243.38391344356, 62791.168724437804, -113027.92138194102, 0.024, 0.9580000000000001, -0.038, 192.0, 0.0, 0.0, 0.0, 0.0, 0.0, 0.0, 0.0, 0.0, 0.0, 1.6664042987122371E9, 0.0, 2022-10-21 19:04:58.712
241.0, -127086.76631292896, -155816.4245863467, -27977.365610285477, -133227.4834188799, 61778.56764537903, -64262.9193380975, 62772.95205270673, -113026.73673948488, 0.024, 0.9580000000000001, -0.038, 192.0, 0.0, 0.0, 0.0, 0.0, 0.0, 0.0, 0.0, 0.0, 0.0, 1.6664042987122517E9, 0.0, 2022-10-21 19:04:58.712
242.0, -127084.57584197234, -155819.95616197065, -27979.265508564178, -133227.72928806892, 61775.661918599835, -64274.25167253634, 62763.98900318015, -113020.18767835948, 0.024, 0.9580000000000001, -0.038, 192.0, 0.0, 0.0, 0.0, 0.0, 0.0, 0.0, 0.0, 0.0, 0.0, 1.6664042987122662E9, 0.0, 2022-10-21 19:04:58.712
243.0, -127080.239603548, -155813.98824620107, -27973.34229628352, -133210.96547972746, 61782.859180314445, -64266.607375932625, 62778.24941614264, -113016.81256494673, 0.024, 0.9580000000000001, -0.038, 192.0, 0.0, 0.0, 0.0, 0.0, 0.0, 0.0, 0.0, 0.0, 0.0, 1.6664042987122884E9, 0.0, 2022-10-21 19:04:58.712
244.0, -127071.27655402143, -155803.63938851826, -27967.32967702504, -133203.67881103503, 61785.20611348226, -64247.7648553568, 62791.7722215381, -113022.86988769412, 0.024, 0.9580000000000001, -0.038, 192.0, 0.0, 0.0, 0.0, 0.0, 0.0, 0.0, 0.0, 0.0, 0.0, 1.6664042987123034E9, 0.0, 2022-10-21 19:04:58.712
245.0, -127063.989885329, -155795.279836092, -27962.524051967153, -133203.99173545738, 61788.111840261445, -64265.75800964332, 62778.69645103174, -113015.69497772396, 0.024, 0.9580000000000001, -0.038, 192.0, 0.0, 0.0, 0.0, 0.0, 0.0, 0.0, 0.0, 0.0, 0.0, 1.666404298712322E9, 0.0, 2022-10-21 19:04:58.712
246.0, -127075.41162674567, -155806.94744669765, -27972.73879918323, -133215.9946222299, 61779.2829012016, -64272.39647774655, 62771.7674102506, -113019.78534695928, 0.024, 0.9580000000000001, -0.038, 192.0, 0.0, 0.0, 0.0, 0.0, 0.0, 0.0, 0.0, 0.0, 0.0, 1.6664042987123363E9, 0.0, 2022-10-21 19:04:58.712
247.0, -127086.63220246223, -155819.95616197065, -27985.144017355924, -133224.06360197827, 61765.670688828315, -64246.7143233674, 62783.63618655637, -113036.90678321205, 0.02, 0.964, -0.038, 192.0, 0.0, 160.0, 30.0, 32.0, 254.0, 208.0, 0.0, 0.0, 0.0, 1.666404298712351E9, 0.0, 2022-10-21 19:04:58.712
248.0, -127079.05496109188, -155812.15540315575, -27977.097389352013, -133227.81869504676, 61771.90682553135, -64226.5083463798, 62798.231875685684, -113034.49279481088, 0.02, 0.964, -0.038, 192.0, 0.0, 0.0, 0.0, 0.0, 0.0, 0.0, 0.0, 0.0, 0.0, 1.6664042987123668E9, 0.0, 2022-10-21 19:04:58.712
249.0, -127078.18324305813, -155810.65783627724, -27977.499720752206, -133236.37941317313, 61770.31985167502, -64252.972811814885, 62776.774201008586, -113032.68230351, 0.02, 0.964, -0.038, 192.0, 0.0, 0.0, 0.0, 0.0, 0.0, 0.0, 0.0, 0.0, 0.0, 1.6664042987123814E9, 0.0, 2022-10-21 19:04:58.712
250.0, -127077.80326340238, -155809.49554556556, -27980.91953765387, -133238.32401494074, 61767.23531094019, -64287.39449827606, 62752.433151296755, -113041.2877251253, 0.02, 0.964, -0.038, 192.0, 0.0, 0.0, 0.0, 0.0, 0.0, 0.0, 0.0, 0.0, 0.0, 1.666404298712396E9, 0.0, 2022-10-21 19:04:58.712
251.0, -127069.242545276, -155801.1806966282, -27967.664953191874, -133216.97809898594, 61780.80281982456, -64277.224454548894, 62770.47100907219, -113027.65316100755, 0.02, 0.964, -0.038, 192.0, 0.0, 0.0, 0.0, 0.0, 0.0, 0.0, 0.0, 0.0, 0.0, 1.6664042987124107E9, 0.0, 2022-10-21 19:04:58.712
252.0, -127075.43397849012, -155806.72392925312, -27973.074075350058, -133222.36486939967, 61774.32081393252, -64248.05542803472, 62790.18524768177, -113030.24596336436, 0.02, 0.964, -0.038, 192.0, 0.0, 0.0, 0.0, 0.0, 0.0, 0.0, 0.0, 0.0, 0.0, 1.666404298712425E9, 0.0, 2022-10-21 19:04:58.712
253.0, -127071.47771972153, -155804.64521701875, -27971.330639282543, -133221.3366891547, 61780.24402621318, -64260.08066655167, 62781.937453977764, -113017.14784111356, 0.02, 0.964, -0.038, 192.0, 0.0, 0.0, 0.0, 0.0, 0.0, 0.0, 0.0, 0.0, 0.0, 1.6664042987124395E9, 0.0, 2022-10-21 19:04:58.712
254.0, -127066.33681849681, -155800.3313303389, -27971.82237766056, -133221.91783451056, 61783.46267741474, -64280.733678428376, 62767.81115148201, -113002.35098628415, 0.02, 0.964, -0.038, 192.0, 0.0, 0.0, 0.0, 0.0, 0.0, 0.0, 0.0, 0.0, 0.0, 1.6664042987125163E9, 0.0, 2022-10-21 19:04:58.712
255.0, -127054.11041427976, -155791.2341703456, -27975.756284684692, -133215.32406989625, 61778.880569801404, -64283.48294299638, 62768.92873870477, -113012.92336141151, 0.02, 0.964, -0.038, 192.0, 0.0, 0.0, 0.0, 0.0, 0.0, 0.0, 0.0, 0.0, 0.0, 1.6664042987125313E9, 0.0, 2022-10-21 19:04:58.712
0.0, -127052.8363648458, -155789.6248447448, -27984.78638944464, -133217.55924434177, 61770.96805226422, -64245.44027393345, 62790.94520699325, -113029.28483835279, 0.02, 0.964, -0.038, 192.0, 0.0, 0.0, 0.0, 0.0, 0.0, 0.0, 0.0, 0.0, 0.0, 1.666404298712546E9, 0.0, 2022-10-21 19:04:58.712
1.0, -127091.72840019804, -155824.94060098418, -28009.127439156466, -133255.64661689362, 61743.095426928456, -64255.58796591616, 62766.13477064786, -113058.94560324498, 0.024, 0.962, -0.04, 192.0, 0.0, 192.0, 30.0, 16.0, 254.0, 192.0, 0.0, 0.0, 0.0, 1.6664042987125607E9, 0.0, 2022-10-21 19:04:58.712
2.0, -127076.26099303497, -155806.34394959736, -27974.437531761832, -133234.948901528, 61772.443267398274, -64295.23996057987, 62754.02012515308, -113029.55305928625, 0.024, 0.962, -0.04, 192.0, 0.0, 0.0, 0.0, 0.0, 0.0, 0.0, 0.0, 0.0, 0.0, 1.6664042987125764E9, 0.0, 2022-10-21 19:04:58.712
3.0, -127076.81978664635, -155805.65104551925, -27967.866118891972, -133216.3969536301, 61781.71924134723, -64291.417812278014, 62770.09102941645, -113018.28778008078, 0.024, 0.962, -0.04, 192.0, 0.0, 0.0, 0.0, 0.0, 0.0, 0.0, 0.0, 0.0, 0.0, 1.6664042987125914E9, 0.0, 2022-10-21 19:04:58.712
4.0, -127057.2396585035, -155782.74050745254, -27957.561964698074, -133204.21525290195, 61793.05157578607, -64270.69774516794, 62792.55453259403, -113013.63861723407, 0.024, 0.962, -0.04, 192.0, 0.0, 0.0, 0.0, 0.0, 0.0, 0.0, 0.0, 0.0, 0.0, 1.666404298712606E9, 0.0, 2022-10-21 19:04:58.712
5.0, -127053.75278636847, -155771.89991139172, -27952.935153595827, -133207.27744189234, 61798.05836654406, -64250.13414026906, 62805.227971700195, -113011.67166372201, 0.024, 0.962, -0.04, 192.0, 0.0, 0.0, 0.0, 0.0, 0.0, 0.0, 0.0, 0.0, 0.0, 1.6664042987126207E9, 0.0, 2022-10-21 19:04:58.712
6.0, -127051.31644622285, -155765.32849852188, -27953.695112907306, -133220.0849914652, 61790.145849006876, -64285.49459999736, 62776.43892484176, -113011.11287011062, 0.024, 0.962, -0.04, 192.0, 0.0, 0.0, 0.0, 0.0, 0.0, 0.0, 0.0, 0.0, 0.0, 1.666404298712636E9, 0.0, 2022-10-21 19:04:58.712
7.0, -127055.07153929134, -155767.2060450561, -27954.075092563045, -133215.12290419615, 61790.838753084994, -64297.095155369665, 62773.84612248494, -113015.09148062367, 0.024, 0.962, -0.04, 192.0, 0.0, 0.0, 0.0, 0.0, 0.0, 0.0, 0.0, 0.0, 0.0, 1.6664042987126505E9, 0.0, 2022-10-21 19:04:58.712
8.0, -127069.242545276, -155780.1253533513, -27960.981781599738, -133221.1355234546, 61782.76977333663, -64272.061201579716, 62788.75473603663, -113020.00886440383, 0.024, 0.962, -0.04, 192.0, 0.0, 0.0, 0.0, 0.0, 0.0, 0.0, 0.0, 0.0, 0.0, 1.666404298712665E9, 0.0, 2022-10-21 19:04:58.712
9.0, -127042.88983856319, -155748.00589656903, -27938.026540044135, -133204.03643894632, 61805.14386953639, -64233.057407505206, 62816.135622994385, -112991.33157626768, 0.024, 0.962, -0.04, 192.0, 0.0, 0.0, 0.0, 0.0, 0.0, 0.0, 0.0, 0.0, 0.0, 1.6664042987126799E9, 0.0, 2022-10-21 19:04:58.712
10.0, -127032.74214658048, -155733.74548360653, -27929.555228895573, -133194.11226440815, 61817.52673596463, -64255.38680021606, 62803.35042516595, -112985.25190177583, 0.026000000000000002, 0.968, -0.048, 192.0, 0.0, 208.0, 30.0, 64.0, 254.0, 128.0, 0.0, 0.0, 0.0, 1.666404298712696E9, 0.0, 2022-10-21 19:04:58.712
11.0, -127029.00940525645, -155729.78922483794, -27928.035310272615, -133191.69827600697, 61818.75608190967, -64269.2225300339, 62796.421384384805, -112986.99533784334, 0.026000000000000002, 0.968, -0.048, 192.0, 0.0, 0.0, 0.0, 0.0, 0.0, 0.0, 0.0, 0.0, 0.0, 1.666404298712712E9, 0.0, 2022-10-21 19:04:58.712
12.0, -127034.70910009256, -155728.93985854863, -27933.600894641986, -133200.46015983346, 61809.86008761646, -64261.13119854107, 62807.55255312355, -112991.44333498995, 0.026000000000000002, 0.968, -0.048, 192.0, 0.0, 0.0, 0.0, 0.0, 0.0, 0.0, 0.0, 0.0, 0.0, 1.6664042987127264E9, 0.0, 2022-10-21 19:04:58.712
13.0, -127053.99865555749, -155745.2119285121, -27949.157708782877, -133223.10247696668, 61795.21969499823, -64250.00002980233, 62809.60891361343, -113008.676529965, 0.026000000000000002, 0.968, -0.048, 192.0, 0.0, 0.0, 0.0, 0.0, 0.0, 0.0, 0.0, 0.0, 0.0, 1.666404298712756E9, 0.0, 2022-10-21 19:04:58.712
14.0, -127062.55937368386, -155750.7104576481, -27955.505604208185, -133235.82061956177, 61787.88832281689, -64252.414018203504, 62798.365986152414, -113013.43745153397, 0.026000000000000002, 0.968, -0.048, 192.0, 0.0, 0.0, 0.0, 0.0, 0.0, 0.0, 0.0, 0.0, 0.0, 1.6664042987127705E9, 0.0, 2022-10-21 19:04:58.712
15.0, -127041.63814087369, -155726.23529746954, -27935.701958620783, -133215.32406989625, 61804.696834647286, -64268.57432944469, 62793.336843649966, -112984.58134944217, 0.026000000000000002, 0.968, -0.048, 192.0, 0.0, 0.0, 0.0, 0.0, 0.0, 0.0, 0.0, 0.0, 0.0, 1.6664042987127848E9, 0.0, 2022-10-21 19:04:58.712
16.0, -127028.96470176753, -155714.07594848584, -27922.67089160334, -133190.11130215065, 61818.68902667631, -64253.0175153038, 62815.576829383, -112973.74075338135, 0.026000000000000002, 0.968, -0.048, 192.0, 0.0, 0.0, 0.0, 0.0, 0.0, 0.0, 0.0, 0.0, 0.0, 1.6664042987127993E9, 0.0, 2022-10-21 19:04:58.712
17.0, -127021.14159120819, -155704.9564367481, -27925.733080593716, -133194.2910783638, 61812.83286962901, -64228.4082446585, 62829.278448734105, -112988.04586983274, 0.026000000000000002, 0.968, -0.048, 192.0, 0.0, 0.0, 0.0, 0.0, 0.0, 0.0, 0.0, 0.0, 0.0, 1.6664042987128136E9, 0.0, 2022-10-21 19:04:58.712
18.0, -127025.34371916577, -155707.1469077047, -27931.58923764101, -133204.43877034652, 61807.133174792914, -64244.00976228831, 62811.32999793649, -112990.32574776719, 0.026000000000000002, 0.968, -0.048, 192.0, 0.0, 0.0, 0.0, 0.0, 0.0, 0.0, 0.0, 0.0, 0.0, 1.6664042987128282E9, 0.0, 2022-10-21 19:04:58.712
19.0, -127023.04148948687, -155703.63768382522, -27931.790403341103, -133213.5359303398, 61806.216753270244, -64275.61512894811, 62790.274654659595, -112981.20623602942, 0.026000000000000002, 0.968, -0.048, 192.0, 0.0, 0.0, 0.0, 0.0, 0.0, 0.0, 0.0, 0.0, 0.0, 1.6664042987128427E9, 0.0, 2022-10-21 19:04:58.712
20.0, -127035.51376289294, -155718.83687005483, -27944.173269769344, -133207.09862793668, 61799.913561333844, -64259.58892817366, 62802.5234106211, -112993.70086117994, 0.026000000000000002, 0.9580000000000001, -0.05, 192.0, 0.0, 208.0, 29.0, 240.0, 254.0, 112.0, 0.0, 0.0, 0.0, 1.6664042987128568E9, 0.0, 2022-10-21 19:04:58.712
21.0, -127026.46130638855, -155710.2985036729, -27935.545496409595, -133199.67784877753, 61806.216753270244, -64235.15847148401, 62820.71773060772, -112988.58231169968, 0.026000000000000002, 0.9580000000000001, -0.05, 192.0, 0.0, 0.0, 0.0, 0.0, 0.0, 0.0, 0.0, 0.0, 0.0, 1.6664042987128725E9, 0.0, 2022-10-21 19:04:58.712
22.0, -127029.29997793437, -155711.61725659578, -27940.038197045113, -133209.26674714885, 61805.00975906965, -64258.11371303961, 62804.28919843307, -112994.63963444706, 0.026000000000000002, 0.9580000000000001, -0.05, 192.0, 0.0, 0.0, 0.0, 0.0, 0.0, 0.0, 0.0, 0.0, 0.0, 1.6664042987128868E9, 0.0, 2022-10-21 19:04:58.712
23.0, -127038.2853792054, -155717.98750376553, -27947.43662445982, -133218.5427210978, 61796.04670954308, -64295.95521640244, 62775.008413196614, -113002.68626245097, 0.026000000000000002, 0.9580000000000001, -0.05, 192.0, 0.0, 0.0, 0.0, 0.0, 0.0, 0.0, 0.0, 0.0, 0.0, 1.666404298712901E9, 0.0, 2022-10-21 19:04:58.712
24.0, -127038.03951001639, -155717.02637875394, -27943.68153139133, -133212.73126753944, 61796.851372343466, -64285.829876164185, 62786.47485810219, -112997.70182343744, 0.026000000000000002, 0.9580000000000001, -0.05, 192.0, 0.0, 0.0, 0.0, 0.0, 0.0, 0.0, 0.0, 0.0, 0.0, 1.6664042987129157E9, 0.0, 2022-10-21 19:04:58.712
25.0, -127039.984111784, -155718.43453865463, -27944.86617384746, -133220.6884885655, 61792.76100310815, -64255.25268974933, 62806.56907636751, -113004.18382932947, 0.026000000000000002, 0.9580000000000001, -0.05, 192.0, 0.0, 0.0, 0.0, 0.0, 0.0, 0.0, 0.0, 0.0, 0.0, 1.66640429871293E9, 0.0, 2022-10-21 19:04:58.712
26.0, -127040.72171935103, -155718.14396597672, -27943.234496502224, -133223.57186360026, 61792.313968219045, -64258.44898920644, 62800.57880885349, -112998.19356181545, 0.026000000000000002, 0.9580000000000001, -0.05, 192.0, 0.0, 0.0, 0.0, 0.0, 0.0, 0.0, 0.0, 0.0, 0.0, 1.6664042987129457E9, 0.0, 2022-10-21 19:04:58.712
27.0, -127045.52734440893, -155724.5142131465, -27952.510470451176, -133223.12482871115, 61790.2352559847, -64281.24776855085, 62781.22219815519, -113003.53562874027, 0.026000000000000002, 0.9580000000000001, -0.05, 192.0, 0.0, 0.0, 0.0, 0.0, 0.0, 0.0, 0.0, 0.0, 0.0, 1.6664042987129605E9, 0.0, 2022-10-21 19:04:58.712
28.0, -127040.74407109548, -155718.76981482148, -27946.877830848436, -133214.87703500714, 61798.17012526633, -64289.49556225486, 62781.4680673442, -112994.19259955795, 0.026000000000000002, 0.9580000000000001, -0.05, 192.0, 0.0, 0.0, 0.0, 0.0, 0.0, 0.0, 0.0, 0.0, 0.0, 1.6664042987130175E9, 0.0, 2022-10-21 19:04:58.713
29.0, -127030.43991690158, -155709.53854436142, -27933.533839408617, -133194.20167138596, 61811.603523683974, -64268.44021897796, 62807.574904868, -112991.17511405649, 0.026000000000000002, 0.9580000000000001, -0.05, 192.0, 0.0, 0.0, 0.0, 0.0, 0.0, 0.0, 0.0, 0.0, 0.0, 1.6664042987130325E9, 0.0, 2022-10-21 19:04:58.713
30.0, -127038.19597222758, -155716.0652537424, -27939.680569133827, -133213.75944778437, 61802.32754973502, -64255.990297316355, 62807.91018103483, -113000.7193089389, 0.038, 0.9560000000000001, -0.056, 192.0, 1.0, 48.0, 29.0, 224.0, 254.0, 64.0, 0.0, 0.0, 0.0, 1.6664042987130485E9, 0.0, 2022-10-21 19:04:58.713
31.0, -127023.5332278649, -155701.06723321287, -27925.084880004513, -133209.33380238223, 61814.21867778524, -64266.83089337718, 62803.193962954756, -112971.08089579116, 0.038, 0.9560000000000001, -0.056, 192.0, 0.0, 0.0, 0.0, 0.0, 0.0, 0.0, 0.0, 0.0, 0.0, 1.6664042987130697E9, 0.0, 2022-10-21 19:04:58.713
32.0, -127016.22420742801, -155690.87483774126, -27918.62522585693, -133199.40962784406, 61817.16910805334, -64281.24776855085, 62802.61281759892, -112970.8126748577, 0.038, 0.9560000000000001, -0.056, 192.0, 0.0, 0.0, 0.0, 0.0, 0.0, 0.0, 0.0, 0.0, 0.0, 1.666404298713081E9, 0.0, 2022-10-21 19:04:58.713
33.0, -127022.8850272757, -155697.22273316656, -27925.4425079158, -133196.8391772317, 61813.704587662774, -64276.19627430395, 62811.28529444758, -112985.74364015384, 0.038, 0.9560000000000001, -0.056, 192.0, 0.0, 0.0, 0.0, 0.0, 0.0, 0.0, 0.0, 0.0, 0.0, 1.666404298713092E9, 0.0, 2022-10-21 19:04:58.713
34.0, -127030.35050992377, -155702.96713149158, -27935.67960687633, -133211.41251461656, 61803.13221253541, -64261.68999215245, 62813.00637877064, -113000.74166068336, 0.038, 0.9560000000000001, -0.056, 192.0, 0.0, 0.0, 0.0, 0.0, 0.0, 0.0, 0.0, 0.0, 0.0, 1.6664042987131033E9, 0.0, 2022-10-21 19:04:58.713
35.0, -127032.3845186692, -155703.12359370277, -27939.9934935562, -133226.0976107237, 61798.08071828851, -64280.08547783917, 62794.96852099521, -112996.24896004784, 0.038, 0.9560000000000001, -0.056, 192.0, 0.0, 0.0, 0.0, 0.0, 0.0, 0.0, 0.0, 0.0, 0.0, 1.6664042987131145E9, 0.0, 2022-10-21 19:04:58.713
36.0, -127022.37093715322, -155694.58522732081, -27929.689339362307, -133217.82746527524, 61805.99323582569, -64293.74239370137, 62790.09584070395, -112981.34034649616, 0.038, 0.9560000000000001, -0.056, 192.0, 0.0, 0.0, 0.0, 0.0, 0.0, 0.0, 0.0, 0.0, 0.0, 1.6664042987131257E9, 0.0, 2022-10-21 19:04:58.713
37.0, -127021.11923946372, -155691.72420403056, -27925.86719106045, -133204.68463953552, 61808.7872038826, -64281.4712859954, 62804.6244745999, -112987.71059366592, 0.038, 0.9560000000000001, -0.056, 192.0, 0.0, 0.0, 0.0, 0.0, 0.0, 0.0, 0.0, 0.0, 0.0, 1.6664042987131367E9, 0.0, 2022-10-21 19:04:58.713
38.0, -127025.14255346567, -155695.27813139895, -27930.784574840614, -133210.7419622829, 61804.272151502635, -64268.90960561152, 62812.38052992589, -112993.47734373539, 0.038, 0.9560000000000001, -0.056, 192.0, 0.0, 0.0, 0.0, 0.0, 0.0, 0.0, 0.0, 0.0, 0.0, 1.6664042987131476E9, 0.0, 2022-10-21 19:04:58.713
39.0, -127027.17656221111, -155697.75917503348, -27937.53480166612, -133223.30364266678, 61803.37808172442, -64268.10494281113, 62805.853820544944, -112995.8689803921, 0.052000000000000005, 0.9580000000000001, -0.05, 192.0, 1.0, 160.0, 29.0, 240.0, 254.0, 112.0, 0.0, 0.0, 0.0, 1.6664042987131584E9, 0.0, 2022-10-21 19:04:58.713
40.0, -127030.12699247921, -155701.8495442688, -27943.010979057668, -133224.51063686737, 61798.863029344444, -64283.08061159618, 62790.14054419286, -112999.17703857149, 0.052000000000000005, 0.9580000000000001, -0.05, 192.0, 0.0, 0.0, 0.0, 0.0, 0.0, 0.0, 0.0, 0.0, 0.0, 1.6664042987131703E9, 0.0, 2022-10-21 19:04:58.713
41.0, -127039.40296642817, -155710.0526344839, -27951.169365783855, -133226.16466595707, 61790.078793773515, -64296.78223094729, 62782.987985967164, -113013.39274804507, 0.052000000000000005, 0.9580000000000001, -0.05, 192.0, 0.0, 0.0, 0.0, 0.0, 0.0, 0.0, 0.0, 0.0, 0.0, 1.6664042987131813E9, 0.0, 2022-10-21 19:04:58.713
42.0, -127036.36312918224, -155707.3927768937, -27947.39192097091, -133213.84885476218, 61798.75127062217, -64266.76383814381, 62809.631265357886, -113009.99528288786, 0.052000000000000005, 0.9580000000000001, -0.05, 192.0, 0.0, 0.0, 0.0, 0.0, 0.0, 0.0, 0.0, 0.0, 0.0, 1.6664042987131925E9, 0.0, 2022-10-21 19:04:58.713
43.0, -127028.49531513397, -155701.71543380208, -27939.613513900462, -133217.55924434177, 61804.07098580254, -64265.73565789887, 62806.50202113415, -113003.8709049071, 0.052000000000000005, 0.9580000000000001, -0.05, 192.0, 0.0, 0.0, 0.0, 0.0, 0.0, 0.0, 0.0, 0.0, 0.0, 1.6664042987132137E9, 0.0, 2022-10-21 19:04:58.713
44.0, -127025.96956801052, -155700.48608785702, -27938.250057488687, -133217.51454085286, 61806.2391050147, -64290.34492854416, 62788.57592208099, -112997.81358215971, 0.052000000000000005, 0.9580000000000001, -0.05, 192.0, 0.0, 0.0, 0.0, 0.0, 0.0, 0.0, 0.0, 0.0, 0.0, 1.666404298713225E9, 0.0, 2022-10-21 19:04:58.713
45.0, -127041.19110598459, -155717.67457934315, -27951.48229020623, -133225.7399828124, 61789.07296527302, -64285.98633837538, 62788.374756380894, -113002.90977989552, 0.052000000000000005, 0.9580000000000001, -0.05, 192.0, 0.0, 0.0, 0.0, 0.0, 0.0, 0.0, 0.0, 0.0, 0.0, 1.666404298713236E9, 0.0, 2022-10-21 19:04:58.713
46.0, -127037.79364082738, -155714.36652116379, -27946.274333748144, -133224.01889848936, 61791.4869536742, -64276.129219070586, 62803.32807342149, -112990.10223032263, 0.052000000000000005, 0.9580000000000001, -0.05, 192.0, 0.0, 0.0, 0.0, 0.0, 0.0, 0.0, 0.0, 0.0, 0.0, 1.6664042987132468E9, 0.0, 2022-10-21 19:04:58.713
47.0, -127045.86262057575, -155721.78730032293, -27956.62319143095, -133239.08397425222, 61786.144886749375, -64295.128201857595, 62785.62549181289, -113003.31211129572, 0.052000000000000005, 0.9580000000000001, -0.05, 192.0, 0.0, 0.0, 0.0, 0.0, 0.0, 0.0, 0.0, 0.0, 0.0, 1.6664042987132587E9, 0.0, 2022-10-21 19:04:58.713
48.0, -127017.05122197286, -155692.4394598531, -27931.790403341103, -133218.00627923087, 61811.75998589516, -64325.39246385008, 62777.109477175414, -112975.97592782688, 0.052000000000000005, 0.9580000000000001, -0.05, 192.0, 0.0, 0.0, 0.0, 0.0, 0.0, 0.0, 0.0, 0.0, 0.0, 1.6664042987132697E9, 0.0, 2022-10-21 19:04:58.713
49.0, -127011.75385853695, -155686.248026639, -27927.610627127964, -133199.27551737733, 61820.25364878817, -64321.43620508149, 62788.71003254772, -112974.29954699273, 0.044, 0.962, -0.052000000000000005, 192.0, 1.0, 96.0, 30.0, 16.0, 254.0, 96.0, 0.0, 0.0, 0.0, 1.6664042987132828E9, 0.0, 2022-10-21 19:04:58.713
50.0, -127016.93946325059, -155695.1887244211, -27932.103327763478, -133193.79933998577, 61818.174936553834, -64299.48679202638, 62807.82077405701, -112982.05560231872, 0.044, 0.962, -0.052000000000000005, 192.0, 0.0, 0.0, 0.0, 0.0, 0.0, 0.0, 0.0, 0.0, 0.0, 1.6664042987132947E9, 0.0, 2022-10-21 19:04:58.713
51.0, -127029.56819886783, -155709.27032342798, -27945.313208736567, -133215.07820070724, 61800.695872389784, -64285.15932383053, 62809.0277682576, -112999.64642520505, 0.044, 0.962, -0.052000000000000005, 192.0, 0.0, 0.0, 0.0, 0.0, 0.0, 0.0, 0.0, 0.0, 0.0, 1.666404298713306E9, 0.0, 2022-10-21 19:04:58.713
52.0, -127026.17073371062, -155705.7610995485, -27945.424967458843, -133228.0422124913, 61796.27022698763, -64301.29728332726, 62791.3698901379, -113002.39568977305, 0.044, 0.962, -0.052000000000000005, 192.0, 0.0, 0.0, 0.0, 0.0, 0.0, 0.0, 0.0, 0.0, 0.0, 1.6664042987133336E9, 0.0, 2022-10-21 19:04:58.713
53.0, -127021.20864644155, -155701.22369542407, -27938.71944412225, -133214.22883441794, 61807.133174792914, -64306.23701885188, 62793.962692494715, -112987.33061401018, 0.044, 0.962, -0.052000000000000005, 192.0, 0.0, 0.0, 0.0, 0.0, 0.0, 0.0, 0.0, 0.0, 0.0, 1.666404298713379E9, 0.0, 2022-10-21 19:04:58.713
54.0, -127023.9355592651, -155709.4044338947, -27945.223801758744, -133216.3969536301, 61802.37225322393, -64290.34492854416, 62806.3232071785, -112990.75043091184, 0.044, 0.962, -0.052000000000000005, 192.0, 0.0, 0.0, 0.0, 0.0, 0.0, 0.0, 0.0, 0.0, 0.0, 1.6664042987134192E9, 0.0, 2022-10-21 19:04:58.713
55.0, -127019.82283828531, -155707.81746003838, -27944.95558082528, -133225.47176187896, 61797.72309037723, -64282.25359705134, 62807.306683934534, -112989.27521577779, 0.044, 0.962, -0.052000000000000005, 192.0, 0.0, 0.0, 0.0, 0.0, 0.0, 0.0, 0.0, 0.0, 0.0, 1.66640429871346E9, 0.0, 2022-10-21 19:04:58.713
56.0, -127026.0813267328, -155712.69014032962, -27950.834089617027, -133233.58544511622, 61790.39171819589, -64318.195202135474, 62779.25524464313, -113000.20521881644, 0.044, 0.962, -0.052000000000000005, 192.0, 0.0, 0.0, 0.0, 0.0, 0.0, 0.0, 0.0, 0.0, 0.0, 1.666404298713501E9, 0.0, 2022-10-21 19:04:58.713
57.0, -127012.4244108706, -155699.9496459901, -27937.51244992166, -133217.9839274864, 61805.90382884787, -64327.694693528974, 62782.54095107806, -112997.5230094818, 0.044, 0.962, -0.052000000000000005, 192.0, 0.0, 0.0, 0.0, 0.0, 0.0, 0.0, 0.0, 0.0, 0.0, 1.6664042987135327E9, 0.0, 2022-10-21 19:04:58.713
58.0, -127015.08426846079, -155701.8942477577, -27937.445394688297, -133206.65159304757, 61811.402357983876, -64301.073765882706, 62805.89852403385, -112995.84662864765, 0.044, 0.962, -0.052000000000000005, 192.0, 0.0, 0.0, 0.0, 0.0, 0.0, 0.0, 0.0, 0.0, 0.0, 1.6664042987135575E9, 0.0, 2022-10-21 19:04:58.713
59.0, -127018.34762315126, -155702.07306171337, -27935.701958620783, -133199.76725575535, 61812.721110906736, -64278.29733828275, 62821.6788556193, -112985.78834364277, 0.036000000000000004, 0.966, -0.042, 192.0, 1.0, 32.0, 30.0, 48.0, 254.0, 176.0, 0.0, 0.0, 0.0, 1.6664042987135704E9, 0.0, 2022-10-21 19:04:58.713
60.0, -127016.33596615029, -155697.71447154458, -27944.95558082528, -133222.07429672175, 61798.99713981118, -64297.05045188075, 62802.27754143209, -112994.14789606904, 0.036000000000000004, 0.966, -0.042, 192.0, 0.0, 0.0, 0.0, 0.0, 0.0, 0.0, 0.0, 0.0, 0.0, 1.6664042987135842E9, 0.0, 2022-10-21 19:04:58.713
61.0, -127002.58964331028, -155686.13626791674, -27940.105252278478, -133220.21910193196, 61803.981578824714, -64292.04366112276, 62801.42817514279, -112992.44916349044, 0.036000000000000004, 0.966, -0.042, 192.0, 0.0, 0.0, 0.0, 0.0, 0.0, 0.0, 0.0, 0.0, 0.0, 1.6664042987135973E9, 0.0, 2022-10-21 19:04:58.713
62.0, -127016.67124231711, -155706.31989315987, -27949.895316349903, -133223.86243627817, 61794.50443917566, -64281.00189936184, 62807.7760705681, -112998.32767228219, 0.036000000000000004, 0.966, -0.042, 192.0, 0.0, 0.0, 0.0, 0.0, 0.0, 0.0, 0.0, 0.0, 0.0, 1.66640429871361E9, 0.0, 2022-10-21 19:04:58.713
63.0, -127021.07453597481, -155713.4500996411, -27938.76414761116, -133207.25509014787, 61811.402357983876, -64253.28573623726, 62833.458224947244, -112977.80877087222, 0.036000000000000004, 0.966, -0.042, 192.0, 0.0, 0.0, 0.0, 0.0, 0.0, 0.0, 0.0, 0.0, 0.0, 1.6664042987136228E9, 0.0, 2022-10-21 19:04:58.713
64.0, -127036.02785301542, -155730.72799810505, -27949.761205883173, -133218.16274144207, 61802.32754973502, -64272.28471902427, 62813.02873051509, -112990.72807916738, 0.036000000000000004, 0.966, -0.042, 192.0, 0.0, 0.0, 0.0, 0.0, 0.0, 0.0, 0.0, 0.0, 0.0, 1.6664042987136357E9, 0.0, 2022-10-21 19:04:58.713
65.0, -127035.80433557087, -155732.78435859494, -27955.371493741455, -133225.7846863013, 61795.532619420606, -64294.703518712944, 62793.58271283898, -113000.29462579425, 0.036000000000000004, 0.966, -0.042, 192.0, 0.0, 0.0, 0.0, 0.0, 0.0, 0.0, 0.0, 0.0, 0.0, 1.6664042987136483E9, 0.0, 2022-10-21 19:04:58.713
66.0, -127013.00555622645, -155710.11968971728, -27935.09846152049, -133197.15210165406, 61813.59282894049, -64280.13018132809, 62815.62153287191, -112972.60081441412, 0.036000000000000004, 0.966, -0.042, 192.0, 0.0, 0.0, 0.0, 0.0, 0.0, 0.0, 0.0, 0.0, 0.0, 1.6664042987136612E9, 0.0, 2022-10-21 19:04:58.713
67.0, -127013.49729460446, -155710.79024205092, -27936.372510954443, -133194.33578185271, 61815.448023730285, -64242.53454715426, 62841.34839073997, -112972.69022139195, 0.036000000000000004, 0.966, -0.042, 192.0, 0.0, 0.0, 0.0, 0.0, 0.0, 0.0, 0.0, 0.0, 0.0, 1.666404298713674E9, 0.0, 2022-10-21 19:04:58.713
68.0, -127026.39425115517, -155723.77660557945, -27948.777729127138, -133218.60977633117, 61804.31685499154, -64250.5141199248, 62826.14920451036, -112979.06046856171, 0.036000000000000004, 0.966, -0.042, 192.0, 0.0, 0.0, 0.0, 0.0, 0.0, 0.0, 0.0, 0.0, 0.0, 1.6664042987136867E9, 0.0, 2022-10-21 19:04:58.713
69.0, -127032.11629773573, -155729.43159692665, -27955.930287352836, -133233.11605848267, 61795.4879159317, -64268.88725386706, 62804.8256403, -112989.90106462254, 0.03, 0.96, -0.032, 192.0, 0.0, 240.0, 30.0, 0.0, 255.0, 0.0, 0.0, 0.0, 0.0, 1.6664042987136996E9, 0.0, 2022-10-21 19:04:58.713
70.0, -127028.987053512, -155727.3081812034, -27953.516298951665, -133225.87409327916, 61799.37711946692, -64269.401343989535, 62808.11134673493, -112991.89036987905, 0.03, 0.96, -0.032, 192.0, 0.0, 0.0, 0.0, 0.0, 0.0, 0.0, 0.0, 0.0, 0.0, 1.6664042987137132E9, 0.0, 2022-10-21 19:04:58.713
71.0, -127030.19404771258, -155725.47533815805, -27950.789386128115, -133220.5990815877, 61803.17691602432, -64256.392628716545, 62825.12102426541, -112980.40157322903, 0.03, 0.96, -0.032, 192.0, 0.0, 0.0, 0.0, 0.0, 0.0, 0.0, 0.0, 0.0, 0.0, 1.6664042987137263E9, 0.0, 2022-10-21 19:04:58.713
72.0, -127033.27858844741, -155725.47533815805, -27949.783557627627, -133224.30947116727, 61806.95436083727, -64240.254669219816, 62831.98300981319, -112987.26355877682, 0.03, 0.96, -0.032, 192.0, 0.0, 0.0, 0.0, 0.0, 0.0, 0.0, 0.0, 0.0, 0.0, 1.666404298713739E9, 0.0, 2022-10-21 19:04:58.713
73.0, -127044.54386765289, -155737.34411446383, -27960.71356066627, -133238.12284924067, 61799.13125027791, -64264.95334684293, 62803.46218388822, -113010.1293933546, 0.03, 0.96, -0.032, 192.0, 0.0, 0.0, 0.0, 0.0, 0.0, 0.0, 0.0, 0.0, 0.0, 1.6664042987137637E9, 0.0, 2022-10-21 19:04:58.713
74.0, -127038.82182107233, -155733.03022778395, -27955.907935608382, -133225.9411485125, 61806.2391050147, -64261.354715985624, 62807.86547754592, -113002.1721723285, 0.03, 0.96, -0.032, 192.0, 0.0, 0.0, 0.0, 0.0, 0.0, 0.0, 0.0, 0.0, 0.0, 1.666404298713778E9, 0.0, 2022-10-21 19:04:58.713
75.0, -127034.99967277047, -155728.69398935963, -27952.599877428995, -133218.02863097534, 61812.25172427318, -64237.81832907419, 62830.28427723459, -112994.68433793598, 0.03, 0.96, -0.032, 192.0, 0.0, 0.0, 0.0, 0.0, 0.0, 0.0, 0.0, 0.0, 0.0, 1.666404298713791E9, 0.0, 2022-10-21 19:04:58.713
76.0, -127050.24356248899, -155743.13321627775, -27965.787406657626, -133229.94211077, 61804.249799758174, -64230.7104743374, 62826.03744578808, -113000.49579149435, 0.03, 0.96, -0.032, 192.0, 0.0, 0.0, 0.0, 0.0, 0.0, 0.0, 0.0, 0.0, 0.0, 1.6664042987138035E9, 0.0, 2022-10-21 19:04:58.713
77.0, -127043.5380391524, -155734.61720164027, -27960.378284499442, -133232.8478375492, 61810.977674839225, -64253.30808798171, 62806.81494555652, -112985.34130875366, 0.03, 0.96, -0.032, 192.0, 0.0, 0.0, 0.0, 0.0, 0.0, 0.0, 0.0, 0.0, 0.0, 1.666404298713817E9, 0.0, 2022-10-21 19:04:58.713
78.0, -127045.12501300873, -155736.60650689682, -27962.904031622893, -133234.1442387276, 61809.25659051617, -64259.52187294029, 62804.37860541089, -112985.14014305356, 0.028, 0.9540000000000001, -0.034, 192.0, 0.0, 224.0, 29.0, 208.0, 254.0, 240.0, 0.0, 0.0, 0.0, 1.6664042987138295E9, 0.0, 2022-10-21 19:04:58.713
79.0, -127048.231905488, -155739.48988193154, -27962.904031622893, -133221.47079962146, 61812.43053822882, -64226.08366323515, 62829.14433826737, -112991.13041056758, 0.028, 0.9540000000000001, -0.034, 192.0, 0.0, 0.0, 0.0, 0.0, 0.0, 0.0, 0.0, 0.0, 0.0, 1.666404298713843E9, 0.0, 2022-10-21 19:04:58.713
80.0, -127058.98309457101, -155750.01755356998, -27971.531804982642, -133235.21712246147, 61805.05446255857, -64213.0078927288, 62828.60789640044, -113000.67460545, 0.028, 0.9540000000000001, -0.034, 192.0, 0.0, 0.0, 0.0, 0.0, 0.0, 0.0, 0.0, 0.0, 0.0, 1.6664042987138562E9, 0.0, 2022-10-21 19:04:58.713
81.0, -127057.15025152567, -155747.38004772426, -27970.235403804232, -133233.96542477197, 61806.507325948165, -64225.25664869031, 62812.358178181436, -113000.38403277208, 0.028, 0.9540000000000001, -0.034, 192.0, 0.0, 0.0, 0.0, 0.0, 0.0, 0.0, 0.0, 0.0, 0.0, 1.666404298713869E9, 0.0, 2022-10-21 19:04:58.713
82.0, -127068.10260630878, -155758.22064378508, -27984.02643013316, -133248.22583773444, 61788.49181991719, -64241.014628531295, 62791.660462815824, -113016.03025389079, 0.028, 0.9540000000000001, -0.034, 192.0, 0.0, 0.0, 0.0, 0.0, 0.0, 0.0, 0.0, 0.0, 0.0, 1.666404298713882E9, 0.0, 2022-10-21 19:04:58.713
83.0, -127055.56327766935, -155745.43544595665, -27968.603726458994, -133229.51742762537, 61803.66865440234, -64226.53069812426, 62810.547686880556, -113002.5745037287, 0.028, 0.9540000000000001, -0.034, 192.0, 0.0, 0.0, 0.0, 0.0, 0.0, 0.0, 0.0, 0.0, 0.0, 1.6664042987138944E9, 0.0, 2022-10-21 19:04:58.713
84.0, -127040.52055365093, -155730.4150736827, -27952.77869138464, -133209.4902645934, 61826.66859944685, -64220.00398874331, 62826.126852765905, -112977.13821853856, 0.028, 0.9540000000000001, -0.034, 192.0, 0.0, 0.0, 0.0, 0.0, 0.0, 0.0, 0.0, 0.0, 0.0, 1.6664042987139072E9, 0.0, 2022-10-21 19:04:58.713
85.0, -127042.64396937418, -155735.28775397394, -27954.477423963242, -133206.45042734747, 61834.402303028386, -64221.05452073271, 62825.65746613235, -112977.13821853856, 0.028, 0.9540000000000001, -0.034, 192.0, 0.0, 0.0, 0.0, 0.0, 0.0, 0.0, 0.0, 0.0, 0.0, 1.6664042987139199E9, 0.0, 2022-10-21 19:04:58.713
86.0, -127055.11624278025, -155748.67644890267, -27967.642601447416, -133227.90810202458, 61818.51021272066, -64226.64245684654, 62811.598218869956, -112988.00116634383, 0.028, 0.9540000000000001, -0.034, 192.0, 0.0, 0.0, 0.0, 0.0, 0.0, 0.0, 0.0, 0.0, 0.0, 1.6664042987139325E9, 0.0, 2022-10-21 19:04:58.713
87.0, -127069.17549004263, -155760.9699083531, -27981.16540684288, -133234.65832885008, 61808.07194806003, -64225.502517879315, 62811.35234968094, -112998.28296879328, 0.028, 0.9540000000000001, -0.034, 192.0, 0.0, 0.0, 0.0, 0.0, 0.0, 0.0, 0.0, 0.0, 0.0, 1.666404298713947E9, 0.0, 2022-10-21 19:04:58.713
88.0, -127082.11715008225, -155773.0174986145, -27993.0565348931, -133245.52127665534, 61796.158468265356, -64207.06232870369, 62816.31443695002, -113012.96806490041, 0.03, 0.9520000000000001, -0.03, 192.0, 0.0, 240.0, 29.0, 192.0, 255.0, 16.0, 0.0, 0.0, 0.0, 1.6664042987139976E9, 0.0, 2022-10-21 19:04:58.713
89.0, -127068.61669643126, -155760.0087833415, -27981.903014409905, -133239.5533608858, 61810.061253316555, -64176.57454926665, 62828.987876056184, -112997.27714029279, 0.03, 0.9520000000000001, -0.03, 192.0, 0.0, 0.0, 0.0, 0.0, 0.0, 0.0, 0.0, 0.0, 0.0, 1.6664042987140129E9, 0.0, 2022-10-21 19:04:58.714
0.0, 0.0, 0.0, 0.0, 0.0, 0.0, 0.0, 0.0, 0.0, 0.03, 0.9520000000000001, -0.03, 192.0, 0.0, 0.0, 0.0, 0.0, 0.0, 0.0, 0.0, 0.0, 0.0, 1.6664042987830203E9, 0.0, 2022-10-21 19:04:58.783
1.0, -127542.94306551732, -156159.68032594686, -28318.45323067346, -134789.64683886134, 62885.470734294744, -67231.85685060703, 53112.2375264451, -112755.610079242, 0.03, 0.9580000000000001, -0.024, 192.0, 0.0, 240.0, 29.0, 240.0, 255.0, 64.0, 0.0, 0.0, 0.0, 1.666404298799054E9, 0.0, 2022-10-21 19:04:58.799
2.0, -127536.23754218074, -156156.84165440104, -28321.381309197106, -134783.12012948038, 62883.57083601604, -67244.03855133516, 53106.09079671989, -112757.44292228734, 0.03, 0.9580000000000001, -0.024, 192.0, 0.0, 0.0, 0.0, 0.0, 0.0, 0.0, 0.0, 0.0, 0.0, 1.6664042992777104E9, 0.0, 2022-10-21 19:04:59.277
3.0, -127529.17439093285, -156150.98549735374, -28321.493067919382, -134775.8111090435, 62888.59997851849, -67235.5225366977, 53121.84877656088, -112761.30977407811, 0.03, 0.9580000000000001, -0.024, 192.0, 0.0, 0.0, 0.0, 0.0, 0.0, 0.0, 0.0, 0.0, 0.0, 1.666404299277856E9, 0.0, 2022-10-21 19:04:59.277
4.0, -127527.02862346514, -156150.44905548682, -28312.775887581814, -134776.6157718439, 62894.29967335459, -67242.11630131201, 53123.79337832849, -112749.53040475017, 0.03, 0.9580000000000001, -0.024, 192.0, 0.0, 0.0, 0.0, 0.0, 0.0, 0.0, 0.0, 0.0, 0.0, 1.6664042992779253E9, 0.0, 2022-10-21 19:04:59.277
5.0, -127520.5466175731, -156150.56081420908, -28313.871123060126, -134774.04532123153, 62900.91578971336, -67275.62156625051, 53106.64959033127, -112745.12711109247, 0.03, 0.9580000000000001, -0.024, 192.0, 0.0, 0.0, 0.0, 0.0, 0.0, 0.0, 0.0, 0.0, 0.0, 1.666404299277962E9, 0.0, 2022-10-21 19:04:59.277
6.0, -127544.3065219291, -156167.43638127286, -28338.14511753859, -134787.03168476006, 62887.862370951465, -67304.27650264221, 53094.28907564749, -112748.32341054958, 0.03, 0.9580000000000001, -0.024, 192.0, 0.0, 0.0, 0.0, 0.0, 0.0, 0.0, 0.0, 0.0, 0.0, 1.6664042992779863E9, 0.0, 2022-10-21 19:04:59.277
7.0, -127542.33956841702, -156171.34793655254, -28348.158699054566, -134799.23573723267, 62869.66805096484, -67293.86058972604, 53098.15592743825, -112766.3165648361, 0.03, 0.962, -0.014, 192.0, 0.0, 240.0, 30.0, 16.0, 255.0, 144.0, 0.0, 0.0, 0.0, 1.66640429927801E9, 0.0, 2022-10-21 19:04:59.278
8.0, -127531.16369618938, -156155.52290147817, -28335.41820471504, -134784.72945508116, 62885.71660348375, -67309.05977595565, 53095.98780822609, -112766.45067530283, 0.03, 0.962, -0.014, 192.0, 0.0, 0.0, 0.0, 0.0, 0.0, 0.0, 0.0, 0.0, 0.0, 1.666404299278037E9, 0.0, 2022-10-21 19:04:59.278
9.0, -127516.29978612659, -156144.52584320615, -28316.21805622793, -134777.53219336655, 62900.513458313166, -67332.10442448908, 53092.41152911324, -112754.85011993053, 0.03, 0.962, -0.014, 192.0, 0.0, 0.0, 0.0, 0.0, 0.0, 0.0, 0.0, 0.0, 0.0, 1.6664042992780604E9, 0.0, 2022-10-21 19:04:59.278
10.0, -127510.95771920178, -156146.69396241833, -28312.999405026367, -134774.69352182074, 62908.18010666133, -67348.44354968591, 53096.99363672658, -112749.4633495168, 0.03, 0.962, -0.014, 192.0, 0.0, 0.0, 0.0, 0.0, 0.0, 0.0, 0.0, 0.0, 0.0, 1.6664042992780836E9, 0.0, 2022-10-21 19:04:59.278
11.0, -127515.38336460393, -156147.6550874299, -28321.358957452652, -134773.19595494223, 62901.765156002664, -67339.03346527021, 53111.05288398897, -112751.63146872897, 0.03, 0.962, -0.014, 192.0, 0.0, 0.0, 0.0, 0.0, 0.0, 0.0, 0.0, 0.0, 0.0, 1.6664042992781081E9, 0.0, 2022-10-21 19:04:59.278
12.0, -127514.15401865888, -156144.0564565726, -28324.398794698573, -134784.41653065878, 62897.51832455616, -67346.02956128473, 53108.14715720978, -112744.63537271446, 0.03, 0.962, -0.014, 192.0, 0.0, 0.0, 0.0, 0.0, 0.0, 0.0, 0.0, 0.0, 0.0, 1.6664042992781324E9, 0.0, 2022-10-21 19:04:59.278
13.0, -127519.76430651717, -156150.33729676454, -28331.79722211328, -134793.46898716319, 62896.75836524468, -67371.5552534527, 53090.82455525691, -112744.36715178099, 0.03, 0.962, -0.014, 192.0, 0.0, 0.0, 0.0, 0.0, 0.0, 0.0, 0.0, 0.0, 0.0, 1.6664042992782607E9, 0.0, 2022-10-21 19:04:59.278
14.0, -127520.81483850657, -156152.12543632096, -28341.743748395893, -134792.97724878517, 62891.97509193124, -67397.63973923204, 53077.94995045065, -112755.78889319765, 0.03, 0.962, -0.014, 192.0, 0.0, 0.0, 0.0, 0.0, 0.0, 0.0, 0.0, 0.0, 0.0, 1.6664042992782848E9, 0.0, 2022-10-21 19:04:59.278
15.0, -127511.85178897998, -156144.0564565726, -28332.98186456941, -134784.01419925858, 62891.01396691966, -67373.38809649803, 53100.212287928145, -112746.93760239334, 0.03, 0.962, -0.014, 192.0, 0.0, 0.0, 0.0, 0.0, 0.0, 0.0, 0.0, 0.0, 0.0, 1.666404299278308E9, 0.0, 2022-10-21 19:04:59.278
16.0, -127514.13166691443, -156144.23527052824, -28332.244257002385, -134786.45053940424, 62889.739917485706, -67376.13736106604, 53102.5368693515, -112747.07171286008, 0.03, 0.962, -0.014, 192.0, 0.0, 0.0, 0.0, 0.0, 0.0, 0.0, 0.0, 0.0, 0.0, 1.666404299278342E9, 0.0, 2022-10-21 19:04:59.278
17.0, -127524.27935889714, -156152.57247121006, -28343.062501318756, -134803.99665880165, 62882.02856564863, -67410.3131783382, 53079.49222081807, -112753.21844258529, 0.032, 0.9500000000000001, -0.014, 192.0, 1.0, 0.0, 29.0, 176.0, 255.0, 144.0, 0.0, 0.0, 0.0, 1.666404299278366E9, 0.0, 2022-10-21 19:04:59.278
18.0, -127503.4922365537, -156144.27997401715, -28342.168431540544, -134788.55160338304, 62894.16556288786, -67434.47541409438, 53073.34549109286, -112735.06882608758, 0.032, 0.9500000000000001, -0.014, 192.0, 0.0, 0.0, 0.0, 0.0, 0.0, 0.0, 0.0, 0.0, 0.0, 1.6664042992783928E9, 0.0, 2022-10-21 19:04:59.278
19.0, -127508.47667556725, -156151.52193922066, -28347.398739743083, -134788.75276908313, 62889.00230991868, -67442.45498686493, 53079.291055117974, -112743.69659944733, 0.032, 0.9500000000000001, -0.014, 192.0, 0.0, 0.0, 0.0, 0.0, 0.0, 0.0, 0.0, 0.0, 0.0, 1.6664042992784166E9, 0.0, 2022-10-21 19:04:59.278
20.0, -127524.07819319704, -156161.82609341457, -28358.239335803908, -134813.83142636198, 62866.38234452991, -67436.0623879507, 53078.37463359531, -112779.88407372047, 0.032, 0.9500000000000001, -0.014, 192.0, 0.0, 0.0, 0.0, 0.0, 0.0, 0.0, 0.0, 0.0, 0.0, 1.6664042992784405E9, 0.0, 2022-10-21 19:04:59.278
21.0, -127502.46405630876, -156131.8971075889, -28334.635893659106, -134796.68763836476, 62891.37159483095, -67441.18093743098, 53082.91203771973, -112761.6674019894, 0.032, 0.9500000000000001, -0.014, 192.0, 0.0, 0.0, 0.0, 0.0, 0.0, 0.0, 0.0, 0.0, 0.0, 1.666404299278466E9, 0.0, 2022-10-21 19:04:59.278
22.0, -127514.28812912562, -156148.77267465266, -28349.18687929951, -134805.69539138026, 62890.45517330828, -67473.23333897989, 53069.277473602, -112755.45361703083, 0.032, 0.9500000000000001, -0.014, 192.0, 0.0, 0.0, 0.0, 0.0, 0.0, 0.0, 0.0, 0.0, 0.0, 1.66640429927849E9, 0.0, 2022-10-21 19:04:59.278
23.0, -127506.3979633329, -156140.81545362656, -28350.32681826673, -134794.40776043033, 62891.75157448668, -67477.54722565976, 53076.63119752779, -112750.7150472063, 0.032, 0.9500000000000001, -0.014, 192.0, 0.0, 0.0, 0.0, 0.0, 0.0, 0.0, 0.0, 0.0, 0.0, 1.6664042992785137E9, 0.0, 2022-10-21 19:04:59.278
24.0, -127490.75174221418, -156131.27125874415, -28333.115975036144, -134781.89078353535, 62901.698100769296, -67456.93891727197, 53102.17924144021, -112742.35549478001, 0.032, 0.9500000000000001, -0.014, 192.0, 0.0, 0.0, 0.0, 0.0, 0.0, 0.0, 0.0, 0.0, 0.0, 1.6664042992785373E9, 0.0, 2022-10-21 19:04:59.278
25.0, -127490.6399834919, -156128.11966277598, -28319.70492836296, -134779.61090560092, 62913.32100788606, -67453.0720654812, 53107.74482580958, -112737.0581313441, 0.032, 0.9500000000000001, -0.014, 192.0, 0.0, 0.0, 0.0, 0.0, 0.0, 0.0, 0.0, 0.0, 0.0, 1.6664042992785606E9, 0.0, 2022-10-21 19:04:59.278
26.0, -127505.88387321042, -156140.18960478183, -28347.97988509892, -134797.98403954317, 62898.39004258991, -67473.1215802576, 53086.5330203215, -112748.83750067205, 0.032, 0.9500000000000001, -0.014, 192.0, 0.0, 0.0, 0.0, 0.0, 0.0, 0.0, 0.0, 0.0, 0.0, 1.6664042992785847E9, 0.0, 2022-10-21 19:04:59.278
27.0, -127515.89745472641, -156145.35285775102, -28363.581402728727, -134816.69244965227, 62880.21807434775, -67483.69395538497, 53079.26870337352, -112747.85402391602, 0.028, 0.9500000000000001, -0.008, 192.0, 0.0, 224.0, 29.0, 176.0, 255.0, 192.0, 0.0, 0.0, 0.0, 1.6664042992786117E9, 0.0, 2022-10-21 19:04:59.278
28.0, -127511.58356804652, -156147.45392172982, -28350.70679792247, -134803.52727216808, 62889.27053085215, -67463.46562665292, 53103.207421685154, -112736.47698598827, 0.028, 0.9500000000000001, -0.008, 192.0, 0.0, 0.0, 0.0, 0.0, 0.0, 0.0, 0.0, 0.0, 0.0, 1.6664042992786615E9, 0.0, 2022-10-21 19:04:59.278
29.0, -127502.15113188639, -156150.56081420908, -28356.42884450303, -134800.5097866666, 62892.176257631334, -67456.31306842722, 53107.70012232067, -112730.33025626306, 0.028, 0.9500000000000001, -0.008, 192.0, 0.0, 0.0, 0.0, 0.0, 0.0, 0.0, 0.0, 0.0, 0.0, 1.6664042992786858E9, 0.0, 2022-10-21 19:04:59.278
30.0, -127516.74682101571, -156156.86400614548, -28366.71064695247, -134813.00441181712, 62884.04022264961, -67477.36841170411, 53084.45430808715, -112738.5109947337, 0.028, 0.9500000000000001, -0.008, 192.0, 0.0, 0.0, 0.0, 0.0, 0.0, 0.0, 0.0, 0.0, 0.0, 1.6664042992787094E9, 0.0, 2022-10-21 19:04:59.278
31.0, -127497.63607950641, -156130.22072675475, -28342.123728051632, -134793.58074588547, 62902.41335659187, -67492.52289444482, 53089.014063956034, -112716.13689853394, 0.028, 0.9500000000000001, -0.008, 192.0, 0.0, 0.0, 0.0, 0.0, 0.0, 0.0, 0.0, 0.0, 0.0, 1.6664042992787287E9, 0.0, 2022-10-21 19:04:59.278
32.0, -127496.67495449484, -156136.07688380204, -28353.299600279286, -134790.94324003975, 62898.56885654556, -67495.42862122401, 53096.8818780043, -112732.27485803067, 0.028, 0.9500000000000001, -0.008, 192.0, 0.0, 0.0, 0.0, 0.0, 0.0, 0.0, 0.0, 0.0, 0.0, 1.6664042992787423E9, 0.0, 2022-10-21 19:04:59.278
33.0, -127510.17540814585, -156154.49472123323, -28380.0993418812, -134812.55737692802, 62880.68746098131, -67503.20702829445, 53083.44847958666, -112765.0201636577, 0.028, 0.9500000000000001, -0.008, 192.0, 0.0, 0.0, 0.0, 0.0, 0.0, 0.0, 0.0, 0.0, 0.0, 1.6664042992787564E9, 0.0, 2022-10-21 19:04:59.278
34.0, -127507.67201276685, -156152.41600899887, -28372.387990044117, -134812.89265309487, 62885.604844761474, -67506.93976961849, 53078.44168882867, -112763.41083805691, 0.028, 0.9500000000000001, -0.008, 192.0, 0.0, 0.0, 0.0, 0.0, 0.0, 0.0, 0.0, 0.0, 0.0, 1.6664042992787716E9, 0.0, 2022-10-21 19:04:59.278
35.0, -127496.9878789172, -156140.61428792647, -28362.776739928337, -134793.7148563522, 62900.11112691297, -67509.77844116431, 53085.236619143085, -112756.72766646478, 0.028, 0.9500000000000001, -0.008, 192.0, 0.0, 0.0, 0.0, 0.0, 0.0, 0.0, 0.0, 0.0, 0.0, 1.6664042992787855E9, 0.0, 2022-10-21 19:04:59.278
36.0, -127502.30759409757, -156142.71535190527, -28371.67273422155, -134793.89367030785, 62894.433783821325, -67488.27606299831, 53102.96155249615, -112749.28453556115, 0.028, 0.9500000000000001, -0.008, 192.0, 0.0, 0.0, 0.0, 0.0, 0.0, 0.0, 0.0, 0.0, 0.0, 1.6664042992787993E9, 0.0, 2022-10-21 19:04:59.278
37.0, -127515.62923379293, -156147.47627347425, -28373.10324586669, -134797.3581906984, 62891.416298319855, -67490.73475488838, 53102.80509028496, -112740.23207905676, 0.028, 0.9560000000000001, -0.016, 192.0, 0.0, 224.0, 29.0, 224.0, 255.0, 128.0, 0.0, 0.0, 0.0, 1.666404299278813E9, 0.0, 2022-10-21 19:04:59.278
38.0, -127492.76339921515, -156148.88443337494, -28377.03715289082, -134807.48353093668, 62891.416298319855, -67507.67737718551, 53089.10347093386, -112745.01535237019, 0.028, 0.9560000000000001, -0.016, 192.0, 0.0, 0.0, 0.0, 0.0, 0.0, 0.0, 0.0, 0.0, 0.0, 1.6664042992788272E9, 0.0, 2022-10-21 19:04:59.278
39.0, -127509.12487615645, -156165.3576690385, -28420.15366794511, -134847.33669130047, 62852.81483564554, -67545.42947357053, 53047.30570880243, -112791.55168432614, 0.028, 0.9560000000000001, -0.016, 192.0, 0.0, 0.0, 0.0, 0.0, 0.0, 0.0, 0.0, 0.0, 0.0, 1.6664042992788413E9, 0.0, 2022-10-21 19:04:59.278
40.0, -127496.4961405392, -156144.16821529486, -28384.61439426117, -134809.562243171, 62877.24529233519, -67540.75795897937, 53067.93636893468, -112760.4604077888, 0.028, 0.9560000000000001, -0.016, 192.0, 0.0, 0.0, 0.0, 0.0, 0.0, 0.0, 0.0, 0.0, 0.0, 1.6664042992788548E9, 0.0, 2022-10-21 19:04:59.278
41.0, -127501.48057955274, -156137.32858149154, -28352.114957823153, -134788.59630687194, 62902.70392926979, -67512.17007782104, 53107.90128802077, -112726.37399749446, 0.028, 0.9560000000000001, -0.016, 192.0, 0.0, 0.0, 0.0, 0.0, 0.0, 0.0, 0.0, 0.0, 0.0, 1.6664042992788684E9, 0.0, 2022-10-21 19:04:59.278
42.0, -127487.28722182362, -156143.14003504993, -28372.835024933225, -134805.3601152134, 62893.092679154004, -67517.8921244016, 53096.18897392619, -112726.57516319456, 0.028, 0.9560000000000001, -0.016, 192.0, 0.0, 0.0, 0.0, 0.0, 0.0, 0.0, 0.0, 0.0, 0.0, 1.6664042992788832E9, 0.0, 2022-10-21 19:04:59.278
43.0, -127487.06370437905, -156145.73283740674, -28387.743638484913, -134807.058847792, 62887.929426184826, -67540.0427031568, 53075.84888647186, -112734.64414294293, 0.028, 0.9560000000000001, -0.016, 192.0, 0.0, 0.0, 0.0, 0.0, 0.0, 0.0, 0.0, 0.0, 0.0, 1.66640429927891E9, 0.0, 2022-10-21 19:04:59.278
44.0, -127505.12391389895, -156156.95341312332, -28380.47932153694, -134801.73913261166, 62887.75061222919, -67512.0806708432, 53100.01112222805, -112739.38271276746, 0.028, 0.9560000000000001, -0.016, 192.0, 0.0, 0.0, 0.0, 0.0, 0.0, 0.0, 0.0, 0.0, 0.0, 1.6664042992789237E9, 0.0, 2022-10-21 19:04:59.278
45.0, -127494.55153877159, -156147.23040428525, -28380.836949448225, -134811.50684493862, 62884.084926138516, -67483.40338270705, 53118.3395526814, -112746.33410529306, 0.028, 0.9560000000000001, -0.016, 192.0, 0.0, 0.0, 0.0, 0.0, 0.0, 0.0, 0.0, 0.0, 0.0, 1.6664042992789376E9, 0.0, 2022-10-21 19:04:59.278
46.0, -127484.00151538868, -156134.46755820126, -28385.463760550472, -134814.3678682289, 62885.895417439395, -67508.77261266383, 53095.20549717015, -112786.38843135697, 0.024, 0.964, -0.018000000000000002, 192.0, 0.0, 192.0, 30.0, 32.0, 255.0, 112.0, 0.0, 0.0, 0.0, 1.6664042992789512E9, 0.0, 2022-10-21 19:04:59.278
47.0, -127493.25513759318, -156137.64150591393, -28385.44140880602, -134806.7235716252, 62893.07032740955, -67530.92319141903, 53087.203572655155, -112745.57414598158, 0.024, 0.964, -0.018000000000000002, 192.0, 0.0, 0.0, 0.0, 0.0, 0.0, 0.0, 0.0, 0.0, 0.0, 1.6664042992789657E9, 0.0, 2022-10-21 19:04:59.278
48.0, -127507.22497787775, -156154.24885204423, -28393.42098157656, -134807.50588268111, 62887.52709478464, -67536.66758974404, 53093.350302380364, -112717.92503809035, 0.024, 0.964, -0.018000000000000002, 192.0, 0.0, 0.0, 0.0, 0.0, 0.0, 0.0, 0.0, 0.0, 0.0, 1.6664042992789812E9, 0.0, 2022-10-21 19:04:59.278
49.0, -127508.45432382278, -156166.363497539, -28401.84758923621, -134801.69442912276, 62888.0411849071, -67510.5831039647, 53109.98000025511, -112736.58874471055, 0.024, 0.964, -0.018000000000000002, 192.0, 0.0, 0.0, 0.0, 0.0, 0.0, 0.0, 0.0, 0.0, 0.0, 1.6664042992789948E9, 0.0, 2022-10-21 19:04:59.278
50.0, -127485.20850958927, -156142.78240713864, -28396.930205456047, -134802.54379541206, 62896.4454408223, -67504.52578121732, 53110.1364624663, -112744.97064888128, 0.024, 0.964, -0.018000000000000002, 192.0, 0.0, 0.0, 0.0, 0.0, 0.0, 0.0, 0.0, 0.0, 0.0, 1.6664042992790082E9, 0.0, 2022-10-21 19:04:59.279
51.0, -127494.32802132703, -156134.66872390136, -28379.47349303645, -134802.6108506454, 62905.542600815614, -67506.87271438513, 53107.76717755404, -112735.49350923223, 0.024, 0.964, -0.018000000000000002, 192.0, 0.0, 0.0, 0.0, 0.0, 0.0, 0.0, 0.0, 0.0, 0.0, 1.6664042992790215E9, 0.0, 2022-10-21 19:04:59.279
52.0, -127491.57875675903, -156137.88737510293, -28388.19067337402, -134801.78383610057, 62902.256894380684, -67509.1302405751, 53107.09662522038, -112726.46340447229, 0.024, 0.964, -0.018000000000000002, 192.0, 0.0, 0.0, 0.0, 0.0, 0.0, 0.0, 0.0, 0.0, 0.0, 1.6664042992790353E9, 0.0, 2022-10-21 19:04:59.279
53.0, -127500.22888186324, -156139.13907279243, -28394.67267926606, -134793.40193192984, 62897.65243502289, -67509.51022023085, 53106.426072886716, -112745.48473900376, 0.024, 0.964, -0.018000000000000002, 192.0, 0.0, 0.0, 0.0, 0.0, 0.0, 0.0, 0.0, 0.0, 0.0, 1.666404299279049E9, 0.0, 2022-10-21 19:04:59.279
54.0, -127481.05108512058, -156132.18768026683, -28380.65813549258, -134794.3183534525, 62899.395871090404, -67512.93003713251, 53105.48729961959, -112748.03283787167, 0.024, 0.964, -0.018000000000000002, 192.0, 0.0, 0.0, 0.0, 0.0, 0.0, 0.0, 0.0, 0.0, 0.0, 1.6664042992790625E9, 0.0, 2022-10-21 19:04:59.279
55.0, -127465.65073319087, -156124.76690110768, -28371.2480510769, -134789.98211502816, 62911.890496240914, -67526.92222916153, 53109.287096176995, -112715.28753224463, 0.024, 0.964, -0.018000000000000002, 192.0, 0.0, 0.0, 0.0, 0.0, 0.0, 0.0, 0.0, 0.0, 0.0, 1.666404299279076E9, 0.0, 2022-10-21 19:04:59.279
56.0, -127487.53309101262, -156142.84946237202, -28402.406382847596, -134825.65549917883, 62883.48142903822, -67529.06799662924, 53101.687503062196, -112737.70633193331, 0.024, 0.962, -0.018000000000000002, 192.0, 0.0, 192.0, 30.0, 16.0, 255.0, 112.0, 0.0, 0.0, 0.0, 1.6664042992790897E9, 0.0, 2022-10-21 19:04:59.279
57.0, -127491.82462594804, -156145.35285775102, -28395.834969977735, -134806.79062685856, 62891.61746401995, -67499.02725208132, 53127.50376790807, -112736.74520692173, 0.024, 0.962, -0.018000000000000002, 192.0, 0.0, 0.0, 0.0, 0.0, 0.0, 0.0, 0.0, 0.0, 0.0, 1.666404299279104E9, 0.0, 2022-10-21 19:04:59.279
58.0, -127487.22016659024, -156136.14393903542, -28398.830103734745, -134802.83436808997, 62898.21122863427, -67485.50444668585, 53137.00325930158, -112731.06786383007, 0.024, 0.962, -0.018000000000000002, 192.0, 0.0, 0.0, 0.0, 0.0, 0.0, 0.0, 0.0, 0.0, 0.0, 1.66640429927913E9, 0.0, 2022-10-21 19:04:59.279
59.0, -127493.41159980436, -156151.72310492076, -28409.111906184186, -134818.34647874194, 62888.622330262944, -67503.00586259435, 53115.52323288003, -112764.84134970205, 0.024, 0.962, -0.018000000000000002, 192.0, 0.0, 0.0, 0.0, 0.0, 0.0, 0.0, 0.0, 0.0, 0.0, 1.6664042992791445E9, 0.0, 2022-10-21 19:04:59.279
60.0, -127474.70318969527, -156139.69786640382, -28397.265481622875, -134811.9762315722, 62894.12085939895, -67501.95533060495, 53118.18309047021, -112731.69371267482, 0.024, 0.962, -0.018000000000000002, 192.0, 0.0, 0.0, 0.0, 0.0, 0.0, 0.0, 0.0, 0.0, 0.0, 1.6664042992791584E9, 0.0, 2022-10-21 19:04:59.279
61.0, -127489.90237592488, -156151.23136654275, -28412.799944019313, -134816.53598744108, 62881.916806926354, -67494.15457179006, 53122.1393492388, -112718.59559042403, 0.024, 0.962, -0.018000000000000002, 192.0, 0.0, 0.0, 0.0, 0.0, 0.0, 0.0, 0.0, 0.0, 0.0, 1.6664042992791724E9, 0.0, 2022-10-21 19:04:59.279
62.0, -127489.85767243597, -156144.57054669506, -28412.688185297036, -134822.90623461083, 62882.69911798229, -67482.71047862894, 53129.627183631324, -112728.363302751, 0.024, 0.962, -0.018000000000000002, 192.0, 0.0, 0.0, 0.0, 0.0, 0.0, 0.0, 0.0, 0.0, 0.0, 1.6664042992791865E9, 0.0, 2022-10-21 19:04:59.279
63.0, -127463.14733781188, -156128.7008081318, -28380.70283898149, -134807.2153100032, 62911.86814449646, -67487.65021415356, 53136.71268662366, -112707.28560772963, 0.024, 0.962, -0.018000000000000002, 192.0, 0.0, 0.0, 0.0, 0.0, 0.0, 0.0, 0.0, 0.0, 0.0, 1.6664042992792013E9, 0.0, 2022-10-21 19:04:59.279
64.0, -127485.54378575609, -156149.86791013097, -28408.19548466152, -134815.3736967294, 62897.361862344966, -67514.22643831091, 53114.5844596129, -112739.89680288993, 0.024, 0.962, -0.018000000000000002, 192.0, 0.0, 0.0, 0.0, 0.0, 0.0, 0.0, 0.0, 0.0, 0.0, 1.6664042992792149E9, 0.0, 2022-10-21 19:04:59.279
65.0, -127498.35133532899, -156162.1613695814, -28439.398519921127, -134817.318298497, 62876.97707140173, -67470.66288836753, 53127.77198884154, -112778.72178300879, 0.024, 0.962, -0.018000000000000002, 192.0, 0.0, 0.0, 0.0, 0.0, 0.0, 0.0, 0.0, 0.0, 0.0, 1.6664042992792292E9, 0.0, 2022-10-21 19:04:59.279
66.0, -127452.01616907313, -156117.23436322622, -28376.43365579053, -134752.6099982989, 62933.303467429105, -67438.27521065179, 53170.24030330662, -112698.4566686698, 0.022, 0.96, -0.014, 192.0, 0.0, 176.0, 30.0, 0.0, 255.0, 144.0, 0.0, 0.0, 0.0, 1.6664042992792432E9, 0.0, 2022-10-21 19:04:59.279
67.0, -127461.02392208863, -156113.5016219022, -28380.926356426044, -134774.93939100974, 62927.559069104085, -67459.50936788433, 53159.422058990254, -112686.38672666393, 0.022, 0.96, -0.014, 192.0, 0.0, 0.0, 0.0, 0.0, 0.0, 0.0, 0.0, 0.0, 0.0, 1.6664042992792575E9, 0.0, 2022-10-21 19:04:59.279
68.0, -127482.07926536552, -156128.96902906528, -28403.85924623719, -134803.7731413571, 62898.52415305664, -67494.06516481223, 53126.81086382996, -112716.6062851675, 0.022, 0.96, -0.014, 192.0, 0.0, 0.0, 0.0, 0.0, 0.0, 0.0, 0.0, 0.0, 0.0, 1.6664042992792716E9, 0.0, 2022-10-21 19:04:59.279
69.0, -127466.20952680225, -156130.0642645436, -28403.121638670164, -134794.94420229725, 62899.328815857036, -67495.67449041302, 53134.96925055615, -112718.08150030155, 0.022, 0.96, -0.014, 192.0, 0.0, 0.0, 0.0, 0.0, 0.0, 0.0, 0.0, 0.0, 0.0, 1.666404299279287E9, 0.0, 2022-10-21 19:04:59.279
70.0, -127456.66533191984, -156119.089558016, -28398.316013612275, -134800.33097271097, 62895.73018499973, -67487.22553100891, 53147.821503617946, -112723.24475327073, 0.022, 0.96, -0.014, 192.0, 0.0, 0.0, 0.0, 0.0, 0.0, 0.0, 0.0, 0.0, 0.0, 1.6664042992793007E9, 0.0, 2022-10-21 19:04:59.279
71.0, -127463.81789014554, -156122.06234002858, -28388.503597796393, -134802.7226093677, 62905.07321418205, -67483.20221700695, 53152.202445531184, -112715.84632585602, 0.022, 0.96, -0.014, 192.0, 0.0, 0.0, 0.0, 0.0, 0.0, 0.0, 0.0, 0.0, 0.0, 1.6664042992793148E9, 0.0, 2022-10-21 19:04:59.279
72.0, -127473.31738153905, -156128.857270343, -28393.62214727666, -134801.1579872558, 62905.184972904324, -67499.49663871487, 53142.03240180402, -112712.31475023208, 0.022, 0.96, -0.014, 192.0, 0.0, 0.0, 0.0, 0.0, 0.0, 0.0, 0.0, 0.0, 0.0, 1.6664042992793365E9, 0.0, 2022-10-21 19:04:59.279
73.0, -127457.3358842535, -156133.4617297008, -28409.983624217944, -134810.65747864931, 62892.37742333143, -67480.2294349944, 53150.10138155239, -112745.2612215592, 0.022, 0.96, -0.014, 192.0, 0.0, 0.0, 0.0, 0.0, 0.0, 0.0, 0.0, 0.0, 0.0, 1.6664042992793503E9, 0.0, 2022-10-21 19:04:59.279
74.0, -127465.7848436576, -156134.66872390136, -28398.159551401088, -134802.05205703404, 62899.44057457931, -67443.8184432767, 53178.97983538864, -112703.44110768332, 0.022, 0.96, -0.014, 192.0, 0.0, 0.0, 0.0, 0.0, 0.0, 0.0, 0.0, 0.0, 0.0, 1.666404299279377E9, 0.0, 2022-10-21 19:04:59.279
75.0, -127489.09771312449, -156147.63273568545, -28425.138106958642, -134836.71961268422, 62872.8419986775, -67467.89127205507, 53148.38029722933, -112717.18743052334, 0.02, 0.96, -0.014, 192.0, 0.0, 160.0, 30.0, 0.0, 255.0, 144.0, 0.0, 0.0, 0.0, 1.6664042992793913E9, 0.0, 2022-10-21 19:04:59.279
76.0, -127486.72842821223, -156147.16334905187, -28431.016615750388, -134847.24728432266, 62870.40565853187, -67513.75705167736, 53113.01983750104, -112736.07465458807, 0.02, 0.96, -0.014, 192.0, 0.0, 0.0, 0.0, 0.0, 0.0, 0.0, 0.0, 0.0, 0.0, 1.6664042992794056E9, 0.0, 2022-10-21 19:04:59.279
77.0, -127459.41459648784, -156124.23045924073, -28393.62214727666, -134803.92960356828, 62903.73210951473, -67498.35669974764, 53145.47457045014, -112690.4994476437, 0.02, 0.96, -0.014, 192.0, 0.0, 0.0, 0.0, 0.0, 0.0, 0.0, 0.0, 0.0, 0.0, 1.6664042992794197E9, 0.0, 2022-10-21 19:04:59.279
78.0, -127458.76639589864, -156121.61530513948, -28390.269385608364, -134803.99665880165, 62904.983807204226, -67478.5307024158, 53169.92737888425, -112690.14181973241, 0.02, 0.96, -0.014, 192.0, 0.0, 0.0, 0.0, 0.0, 0.0, 0.0, 0.0, 0.0, 0.0, 1.6664042992794333E9, 0.0, 2022-10-21 19:04:59.279
79.0, -127451.0326923171, -156120.02833128313, -28388.928280941043, -134801.78383610057, 62908.29186538362, -67486.19735076396, 53172.363719029876, -112690.0524127546, 0.02, 0.96, -0.014, 192.0, 0.0, 0.0, 0.0, 0.0, 0.0, 0.0, 0.0, 0.0, 0.0, 1.6664042992794468E9, 0.0, 2022-10-21 19:04:59.279
80.0, -127461.47095697773, -156130.86892734395, -28402.227568891954, -134806.6565163918, 62905.050862437594, -67502.67058642753, 53161.90310262479, -112699.9542355483, 0.02, 0.96, -0.014, 192.0, 0.0, 0.0, 0.0, 0.0, 0.0, 0.0, 0.0, 0.0, 0.0, 1.666404299279461E9, 0.0, 2022-10-21 19:04:59.279
81.0, -127452.55261094007, -156118.28489521562, -28392.504560053894, -134799.6604203773, 62908.58243806153, -67507.94559811898, 53163.15480031429, -112701.83178208253, 0.02, 0.96, -0.014, 192.0, 0.0, 0.0, 0.0, 0.0, 0.0, 0.0, 0.0, 0.0, 0.0, 1.6664042992794747E9, 0.0, 2022-10-21 19:04:59.279
82.0, -127455.86066911944, -156122.57643015104, -28399.701821768504, -134791.36792318439, 62911.35405437399, -67497.95436834746, 53178.59985573291, -112693.56163663407, 0.02, 0.96, -0.014, 192.0, 0.0, 0.0, 0.0, 0.0, 0.0, 0.0, 0.0, 0.0, 0.0, 1.6664042992794886E9, 0.0, 2022-10-21 19:04:59.279
83.0, -127471.37277977142, -156136.6580291579, -28417.382051632652, -134807.99762105916, 62902.10043216949, -67480.6764698835, 53182.64552147932, -112712.33710197653, 0.02, 0.96, -0.014, 192.0, 0.0, 0.0, 0.0, 0.0, 0.0, 0.0, 0.0, 0.0, 0.0, 1.6664042992795024E9, 0.0, 2022-10-21 19:04:59.279
84.0, -127480.84991942048, -156149.77850315315, -28421.785345290347, -134833.4786097382, 62889.4940482967, -67497.39557473607, 53156.49398046661, -112742.69077094684, 0.02, 0.96, -0.014, 192.0, 0.0, 0.0, 0.0, 0.0, 0.0, 0.0, 0.0, 0.0, 0.0, 1.666404299279516E9, 0.0, 2022-10-21 19:04:59.279
85.0, -127469.338771026, -156135.5627936796, -28409.737755028935, -134804.8236733465, 62910.25881889568, -67492.14291478907, 53165.792306160016, -112720.02610206915, 0.016, 0.9580000000000001, -0.016, 192.0, 0.0, 128.0, 29.0, 240.0, 255.0, 128.0, 0.0, 0.0, 0.0, 1.66640429927953E9, 0.0, 2022-10-21 19:04:59.279
86.0, -127466.4330442468, -156131.27125874415, -28407.077897438754, -134796.53117615357, 62912.58340031903, -67471.17697849, 53186.19944884771, -112708.67141588587, 0.016, 0.9580000000000001, -0.016, 192.0, 0.0, 0.0, 0.0, 0.0, 0.0, 0.0, 0.0, 0.0, 0.0, 1.6664042992795448E9, 0.0, 2022-10-21 19:04:59.279
87.0, -127456.37475924192, -156128.47729068724, -28406.8543799942, -134791.56908888448, 62916.584362576534, -67457.09537948316, 53196.0565681525, -112696.98145353574, 0.016, 0.9580000000000001, -0.016, 192.0, 0.0, 0.0, 0.0, 0.0, 0.0, 0.0, 0.0, 0.0, 0.0, 1.666404299279559E9, 0.0, 2022-10-21 19:04:59.279
88.0, -127470.7916344156, -156140.77075013766, -28420.488944111938, -134824.40380148933, 62901.2957693691, -67474.44033318048, 53174.040099864025, -112706.45859318478, 0.016, 0.9580000000000001, -0.016, 192.0, 0.0, 0.0, 0.0, 0.0, 0.0, 0.0, 0.0, 0.0, 0.0, 1.6664042992795727E9, 0.0, 2022-10-21 19:04:59.279
89.0, -127453.82666037402, -156123.38109295143, -28399.254786879395, -134805.9636123137, 62918.52896434414, -67502.24590328288, 53164.54060847052, -112702.3011687161, 0.016, 0.9580000000000001, -0.016, 192.0, 0.0, 0.0, 0.0, 0.0, 0.0, 0.0, 0.0, 0.0, 0.0, 1.6664042992795975E9, 0.0, 2022-10-21 19:04:59.279
90.0, -127454.54191619658, -156121.57060165057, -28403.27810088135, -134791.63614411786, 62919.870069011464, -67508.34792951918, 53176.31997779846, -112696.69088085782, 0.016, 0.9580000000000001, -0.016, 192.0, 0.0, 0.0, 0.0, 0.0, 0.0, 0.0, 0.0, 0.0, 0.0, 1.66640429927961E9, 0.0, 2022-10-21 19:04:59.279
91.0, -127502.6428702644, -156168.57632024007, -28456.877584085178, -134836.8760748954, 62876.48533302371, -67485.05741179675, 53176.901123154305, -112715.48869794473, 0.016, 0.9580000000000001, -0.016, 192.0, 0.0, 0.0, 0.0, 0.0, 0.0, 0.0, 0.0, 0.0, 0.0, 1.6664042992796235E9, 0.0, 2022-10-21 19:04:59.279
92.0, -127470.85868964896, -156144.07880831705, -28432.938865773544, -134832.1822085598, 62886.27539709514, -67481.97287106191, 53172.967216130164, -112708.69376763032, 0.016, 0.9580000000000001, -0.016, 192.0, 0.0, 0.0, 0.0, 0.0, 0.0, 0.0, 0.0, 0.0, 0.0, 1.666404299279636E9, 0.0, 2022-10-21 19:04:59.279
93.0, -127455.65950341935, -156128.6561046429, -28415.705670798503, -134814.7254961402, 62899.01589143466, -67496.45680146894, 53165.97112011565, -112709.87841008644, 0.016, 0.9580000000000001, -0.016, 192.0, 0.0, 0.0, 0.0, 0.0, 0.0, 0.0, 0.0, 0.0, 0.0, 1.666404299279648E9, 0.0, 2022-10-21 19:04:59.279
94.0, -127458.20760228725, -156129.37136046545, -28410.92239748507, -134812.44561820576, 62898.39004258991, -67503.00586259435, 53170.82144866246, -112713.29822698812, 0.016, 0.9580000000000001, -0.016, 192.0, 0.0, 0.0, 0.0, 0.0, 0.0, 0.0, 0.0, 0.0, 0.0, 1.6664042992796605E9, 0.0, 2022-10-21 19:04:59.279
95.0, -127453.84901211847, -156124.7445493632, -28409.313071884284, -134810.79158911607, 62903.15096415889, -67484.65508039655, 53189.28398958254, -112710.54896242011, 0.016, 0.962, -0.022, 192.0, 0.0, 128.0, 30.0, 16.0, 255.0, 80.0, 0.0, 0.0, 0.0, 1.6664042992796729E9, 0.0, 2022-10-21 19:04:59.279
96.0, -127457.00060808667, -156121.347084206, -28399.679470024046, -134809.04815304856, 62915.55618233159, -67488.99131882087, 53189.9545419162, -112695.72975584625, 0.016, 0.962, -0.022, 192.0, 0.0, 0.0, 0.0, 0.0, 0.0, 0.0, 0.0, 0.0, 0.0, 1.666404299279688E9, 0.0, 2022-10-21 19:04:59.279
97.0, -127454.94424759678, -156118.0390260266, -28394.180940888044, -134801.00152504464, 62921.81467077907, -67506.93976961849, 53182.62316973486, -112688.53249413164, 0.016, 0.962, -0.022, 192.0, 0.0, 0.0, 0.0, 0.0, 0.0, 0.0, 0.0, 0.0, 0.0, 1.666404299279701E9, 0.0, 2022-10-21 19:04:59.279
98.0, -127433.30775896405, -156123.8951830739, -28406.317938127275, -134815.8654351074, 62906.63783629392, -67513.4888307439, 53179.38216678884, -112699.5072006592, 0.016, 0.962, -0.022, 192.0, 0.0, 0.0, 0.0, 0.0, 0.0, 0.0, 0.0, 0.0, 0.0, 1.6664042992797132E9, 0.0, 2022-10-21 19:04:59.279
99.0, -127447.56817192653, -156123.2022789958, -28411.615301563183, -134817.25124326363, 62903.48624032572, -67491.02532756631, 53194.648408251815, -112700.17775299285, 0.016, 0.962, -0.022, 192.0, 0.0, 0.0, 0.0, 0.0, 0.0, 0.0, 0.0, 0.0, 0.0, 1.6664042992797256E9, 0.0, 2022-10-21 19:04:59.279
100.0, -127438.40395669985, -156116.07207251457, -28401.936996214034, -134816.60304267443, 62908.828307250544, -67488.52193218732, 53195.8554024524, -112697.07086051356, 0.016, 0.962, -0.022, 192.0, 0.0, 0.0, 0.0, 0.0, 0.0, 0.0, 0.0, 0.0, 0.0, 1.666404299279738E9, 0.0, 2022-10-21 19:04:59.279
101.0, -127447.36700622643, -156123.0011132957, -28427.038005237344, -134834.46208649423, 62893.60676927648, -67513.64529295509, 53169.16741957277, -112713.67820664385, 0.016, 0.962, -0.022, 192.0, 0.0, 0.0, 0.0, 0.0, 0.0, 0.0, 0.0, 0.0, 0.0, 1.66640429927975E9, 0.0, 2022-10-21 19:04:59.279
102.0, -127440.4826689342, -156116.0050172812, -28417.49381035493, -134826.75073465714, 62897.74184200071, -67515.96987437844, 53170.75439342909, -112708.49260193022, 0.016, 0.962, -0.022, 192.0, 0.0, 0.0, 0.0, 0.0, 0.0, 0.0, 0.0, 0.0, 0.0, 1.6664042992797627E9, 0.0, 2022-10-21 19:04:59.279
103.0, -127455.14541329688, -156127.67262788684, -28417.605569077205, -134831.89163588185, 62888.71173724077, -67505.0845748287, 53178.711614455184, -112714.32640723305, 0.016, 0.962, -0.022, 192.0, 0.0, 0.0, 0.0, 0.0, 0.0, 0.0, 0.0, 0.0, 0.0, 1.6664042992797751E9, 0.0, 2022-10-21 19:04:59.279
104.0, -127447.97050332672, -156122.46467142878, -28415.124525442665, -134828.89650212484, 62896.043109422106, -67491.00297582186, 53185.975931403154, -112710.70542463129, 0.016, 0.962, -0.022, 192.0, 0.0, 0.0, 0.0, 0.0, 0.0, 0.0, 0.0, 0.0, 0.0, 1.6664042992797985E9, 0.0, 2022-10-21 19:04:59.279
105.0, -127458.05114007607, -156131.5618314221, -28428.33440641575, -134835.04323185005, 62893.83028672103, -67504.54813296178, 53170.41911726226, -112722.84242187053, 0.016, 0.966, -0.026000000000000002, 192.0, 0.0, 128.0, 30.0, 48.0, 255.0, 48.0, 0.0, 0.0, 0.0, 1.6664042992798107E9, 0.0, 2022-10-21 19:04:59.279
106.0, -127460.57688719951, -156136.5015669467, -28430.144897716633, -134836.71961268422, 62893.20443787628, -67529.62679024063, 53156.11400081086, -112718.21561076828, 0.016, 0.966, -0.026000000000000002, 192.0, 0.0, 0.0, 0.0, 0.0, 0.0, 0.0, 0.0, 0.0, 0.0, 1.6664042992798235E9, 0.0, 2022-10-21 19:04:59.279
107.0, -127473.60795421696, -156151.23136654275, -28440.024368765877, -134838.44069700726, 62887.05770815107, -67533.20306935348, 53159.08678282342, -112723.93765734884, 0.016, 0.966, -0.026000000000000002, 192.0, 0.0, 0.0, 0.0, 0.0, 0.0, 0.0, 0.0, 0.0, 0.0, 1.666404299279836E9, 0.0, 2022-10-21 19:04:59.279
108.0, -127464.60020120147, -156135.18281402384, -28432.201258206518, -134831.0199178481, 62896.87012396695, -67524.01650238235, 53175.0012248756, -112688.55484587609, 0.016, 0.966, -0.026000000000000002, 192.0, 0.0, 0.0, 0.0, 0.0, 0.0, 0.0, 0.0, 0.0, 0.0, 1.666404299279848E9, 0.0, 2022-10-21 19:04:59.279
109.0, -127452.23968651769, -156123.604610396, -28428.043833737833, -134820.04521132057, 62908.962417717274, -67523.10008085967, 53177.68343421024, -112694.63452036794, 0.016, 0.966, -0.026000000000000002, 192.0, 0.0, 0.0, 0.0, 0.0, 0.0, 0.0, 0.0, 0.0, 0.0, 1.6664042992798605E9, 0.0, 2022-10-21 19:04:59.279
110.0, -127459.59341044349, -156135.0040000682, -28444.539421145848, -134829.61175794742, 62898.479449567734, -67539.52861303433, 53158.21506478966, -112732.8560033865, 0.016, 0.966, -0.026000000000000002, 192.0, 0.0, 0.0, 0.0, 0.0, 0.0, 0.0, 0.0, 0.0, 0.0, 1.6664042992798727E9, 0.0, 2022-10-21 19:04:59.279
111.0, -127455.97242784173, -156132.32179073355, -28437.58802862025, -134821.40866773232, 62902.36865310296, -67525.42466228303, 53177.728137699145, -112707.352662963, 0.016, 0.966, -0.026000000000000002, 192.0, 0.0, 0.0, 0.0, 0.0, 0.0, 0.0, 0.0, 0.0, 0.0, 1.6664042992798848E9, 0.0, 2022-10-21 19:04:59.279
112.0, -127455.4359859748, -156130.0642645436, -28434.615246607693, -134818.83821711998, 62903.1956676478, -67491.42765896651, 53200.7057309992, -112706.70446237379, 0.016, 0.966, -0.026000000000000002, 192.0, 0.0, 0.0, 0.0, 0.0, 0.0, 0.0, 0.0, 0.0, 0.0, 1.6664042992798984E9, 0.0, 2022-10-21 19:04:59.279
113.0, -127458.34171275399, -156132.18768026683, -28434.52583962987, -134833.61272020492, 62902.815687992064, -67500.92715036002, 53192.61439950638, -112701.2059332378, 0.016, 0.966, -0.026000000000000002, 192.0, 0.0, 0.0, 0.0, 0.0, 0.0, 0.0, 0.0, 0.0, 0.0, 1.6664042992799108E9, 0.0, 2022-10-21 19:04:59.279
114.0, -127460.64394243289, -156134.84753785701, -28439.934961788054, -134835.35615627244, 62902.5474670586, -67521.691920959, 53182.31024531249, -112698.85900006998, 0.02, 0.962, -0.022, 192.0, 0.0, 160.0, 30.0, 16.0, 255.0, 80.0, 0.0, 0.0, 0.0, 1.6664042992799227E9, 0.0, 2022-10-21 19:04:59.279
115.0, -127453.75960514064, -156134.2663925012, -28447.422796180585, -134843.84981916545, 62891.50570529768, -67532.30899957527, 53178.13046909934, -112709.83370659754, 0.02, 0.962, -0.022, 192.0, 0.0, 0.0, 0.0, 0.0, 0.0, 0.0, 0.0, 0.0, 0.0, 1.6664042992799356E9, 0.0, 2022-10-21 19:04:59.279
116.0, -127443.85778234695, -156128.5443459206, -28439.24205770994, -134821.40866773232, 62904.134440914924, -67525.60347623867, 53193.329655328955, -112696.46736341326, 0.02, 0.962, -0.022, 192.0, 0.0, 0.0, 0.0, 0.0, 0.0, 0.0, 0.0, 0.0, 0.0, 1.666404299279948E9, 0.0, 2022-10-21 19:04:59.279
117.0, -127451.30091325057, -156129.93015407684, -28438.750319331924, -134824.35909800042, 62903.55329555909, -67494.40044097907, 53205.489004312636, -112695.66270061287, 0.02, 0.962, -0.022, 192.0, 0.0, 0.0, 0.0, 0.0, 0.0, 0.0, 0.0, 0.0, 0.0, 1.666404299279961E9, 0.0, 2022-10-21 19:04:59.279
118.0, -127454.16193654084, -156128.14201452042, -28430.211952949998, -134834.99852836115, 62904.26855138166, -67508.2361707969, 53187.83112619295, -112690.81237206607, 0.02, 0.962, -0.022, 192.0, 0.0, 0.0, 0.0, 0.0, 0.0, 0.0, 0.0, 0.0, 0.0, 1.6664042992799735E9, 0.0, 2022-10-21 19:04:59.279
119.0, -127472.13273908291, -156143.0059245832, -28453.457767183518, -134846.26380756663, 62887.97412967374, -67528.28568557331, 53172.2519603076, -112709.16315426388, 0.02, 0.962, -0.022, 192.0, 0.0, 0.0, 0.0, 0.0, 0.0, 0.0, 0.0, 0.0, 0.0, 1.666404299280062E9, 0.0, 2022-10-21 19:04:59.280
120.0, -127457.8276226315, -156146.20222404032, -28458.553964919327, -134839.11124934093, 62885.80601046157, -67500.72598465992, 53190.468632038675, -112718.05914855709, 0.02, 0.962, -0.022, 192.0, 0.0, 0.0, 0.0, 0.0, 0.0, 0.0, 0.0, 0.0, 0.0, 1.6664042992800748E9, 0.0, 2022-10-21 19:04:59.280
121.0, -127448.17166902682, -156129.349008721, -28438.593857120737, -134837.0772405955, 62896.49014431121, -67494.69101365698, 53195.408367563294, -112708.49260193022, 0.02, 0.962, -0.022, 192.0, 0.0, 0.0, 0.0, 0.0, 0.0, 0.0, 0.0, 0.0, 0.0, 1.6664042992800884E9, 0.0, 2022-10-21 19:04:59.280
122.0, -127450.45154696127, -156128.36553196498, -28432.71534832899, -134841.83816216447, 62903.933275214826, -67528.55390650677, 53179.695091211215, -112706.65975888488, 0.02, 0.962, -0.022, 192.0, 0.0, 0.0, 0.0, 0.0, 0.0, 0.0, 0.0, 0.0, 0.0, 1.66640429975712E9, 0.0, 2022-10-21 19:04:59.757
123.0, -127449.55747718304, -156130.1983750103, -28435.263447196896, -134827.3765835019, 62907.53190607213, -67535.50529903237, 53184.7018819692, -112703.68697687233, 0.02, 0.962, -0.022, 192.0, 0.0, 0.0, 0.0, 0.0, 0.0, 0.0, 0.0, 0.0, 0.0, 1.6664042997571845E9, 0.0, 2022-10-21 19:04:59.757
124.0, -127423.94237803727, -156112.31697944607, -28415.795077776325, -134803.03553379007, 62926.82146153706, -67508.01265335234, 53220.19645216423, -112671.36635438996, 0.016, 0.9580000000000001, -0.018000000000000002, 192.0, 0.0, 128.0, 29.0, 240.0, 255.0, 112.0, 0.0, 0.0, 0.0, 1.666404299757209E9, 0.0, 2022-10-21 19:04:59.757
125.0, -127438.64982588886, -156121.592953395, -28438.079766998264, -134836.92077838432, 62905.98963570472, -67481.54818791726, 53223.97389697718, -112688.01840400916, 0.016, 0.9580000000000001, -0.018000000000000002, 192.0, 0.0, 0.0, 0.0, 0.0, 0.0, 0.0, 0.0, 0.0, 0.0, 1.6664042997572658E9, 0.0, 2022-10-21 19:04:59.757
126.0, -127438.89569507787, -156123.62696214044, -28442.125432744677, -134847.69431921176, 62903.73210951473, -67508.97377836393, 53199.409329820795, -112698.74724134771, 0.016, 0.9580000000000001, -0.018000000000000002, 192.0, 0.0, 0.0, 0.0, 0.0, 0.0, 0.0, 0.0, 0.0, 0.0, 1.6664042997572975E9, 0.0, 2022-10-21 19:04:59.757
127.0, -127440.6838346343, -156123.26933422918, -28439.15265073212, -134831.04226959255, 62910.236467151226, -67511.45482199846, 53208.93117295876, -112691.594683122, 0.016, 0.9580000000000001, -0.018000000000000002, 192.0, 0.0, 0.0, 0.0, 0.0, 0.0, 0.0, 0.0, 0.0, 0.0, 1.6664042997573156E9, 0.0, 2022-10-21 19:04:59.757
128.0, -127446.33882598148, -156126.9573720643, -28442.90774380061, -134832.00339460414, 62908.11305142797, -67497.68614741399, 53224.063303955, -112685.00091850769, 0.016, 0.9580000000000001, -0.018000000000000002, 192.0, 0.0, 0.0, 0.0, 0.0, 0.0, 0.0, 0.0, 0.0, 0.0, 1.6664042997573323E9, 0.0, 2022-10-21 19:04:59.757
129.0, -127450.69741615027, -156140.0554943151, -28457.838709096755, -134846.68849071127, 62899.664092023864, -67502.5811794497, 53218.698885285725, -112700.6024361375, 0.016, 0.9580000000000001, -0.018000000000000002, 192.0, 0.0, 0.0, 0.0, 0.0, 0.0, 0.0, 0.0, 0.0, 0.0, 1.6664042997573528E9, 0.0, 2022-10-21 19:04:59.757
130.0, -127441.3320352235, -156126.7562063642, -28443.332426945264, -134844.85564766594, 62911.286999140626, -67508.45968824145, 53212.10512067141, -112697.54024714712, 0.016, 0.9580000000000001, -0.018000000000000002, 192.0, 0.0, 0.0, 0.0, 0.0, 0.0, 0.0, 0.0, 0.0, 0.0, 1.6664042997573693E9, 0.0, 2022-10-21 19:04:59.757
131.0, -127447.97050332672, -156128.56669766508, -28441.05254901082, -134850.17536284632, 62910.102356684496, -67532.57722050873, 53200.526917043564, -112696.24384596871, 0.016, 0.9580000000000001, -0.018000000000000002, 192.0, 0.0, 0.0, 0.0, 0.0, 0.0, 0.0, 0.0, 0.0, 0.0, 1.6664042997573855E9, 0.0, 2022-10-21 19:04:59.757
132.0, -127452.37379698442, -156135.62984891294, -28446.68518861356, -134846.9790633892, 62906.660188038375, -67514.62876971111, 53215.122606172874, -112697.83081982505, 0.016, 0.9580000000000001, -0.018000000000000002, 192.0, 0.0, 0.0, 0.0, 0.0, 0.0, 0.0, 0.0, 0.0, 0.0, 1.6664042997574024E9, 0.0, 2022-10-21 19:04:59.757
133.0, -127447.90344809336, -156131.51712793318, -28445.63465662416, -134842.79928717605, 62912.337531130026, -67486.24205425287, 53234.210995937705, -112692.77932557814, 0.016, 0.9580000000000001, -0.018000000000000002, 192.0, 0.0, 0.0, 0.0, 0.0, 0.0, 0.0, 0.0, 0.0, 0.0, 1.666404299757426E9, 0.0, 2022-10-21 19:04:59.757
134.0, -127453.26786676263, -156135.8086628686, -28450.462633426505, -134856.36679606044, 62907.151926416394, -67471.3781441901, 53231.95346974772, -112695.17096223486, 0.016, 0.962, -0.018000000000000002, 192.0, 0.0, 128.0, 30.0, 16.0, 255.0, 112.0, 0.0, 0.0, 0.0, 1.6664042997575169E9, 0.0, 2022-10-21 19:04:59.757
135.0, -127434.55945665354, -156120.16244174988, -28427.417984893083, -134835.087935339, 62923.46869986877, -67476.85432158165, 53229.91946100229, -112669.35469738898, 0.016, 0.962, -0.018000000000000002, 192.0, 0.0, 0.0, 0.0, 0.0, 0.0, 0.0, 0.0, 0.0, 0.0, 1.6664042997575347E9, 0.0, 2022-10-21 19:04:59.757
136.0, -127420.09787799095, -156113.59102888, -28426.993301748433, -134822.6827171663, 62925.03332198064, -67484.14099027407, 53233.518091859594, -112668.48297935522, 0.016, 0.962, -0.018000000000000002, 192.0, 0.0, 0.0, 0.0, 0.0, 0.0, 0.0, 0.0, 0.0, 0.0, 1.6664042997575517E9, 0.0, 2022-10-21 19:04:59.757
137.0, -127438.15808751085, -156128.92432557634, -28442.170136233588, -134840.89938889735, 62907.50955432768, -67470.84170232317, 53239.4189523958, -112687.5937208645, 0.016, 0.962, -0.018000000000000002, 192.0, 0.0, 0.0, 0.0, 0.0, 0.0, 0.0, 0.0, 0.0, 0.0, 1.6664042997575684E9, 0.0, 2022-10-21 19:04:59.757
138.0, -127435.72174736521, -156124.07399702954, -28447.31103745831, -134842.28519705357, 62906.101394426994, -67471.69106861248, 53230.925289502775, -112695.66270061287, 0.016, 0.962, -0.018000000000000002, 192.0, 0.0, 0.0, 0.0, 0.0, 0.0, 0.0, 0.0, 0.0, 0.0, 1.6664042997575848E9, 0.0, 2022-10-21 19:04:59.757
139.0, -127444.95301782526, -156131.38301746643, -28457.034046296365, -134848.94601690126, 62901.07225192455, -67480.2741384833, 53215.88256548435, -112704.24577048371, 0.016, 0.962, -0.018000000000000002, 192.0, 0.0, 0.0, 0.0, 0.0, 0.0, 0.0, 0.0, 0.0, 0.0, 1.6664042997576015E9, 0.0, 2022-10-21 19:04:59.757
140.0, -127449.13279403839, -156136.36745647996, -28452.854270083222, -134842.10638309794, 62904.000330448194, -67471.10992325663, 53223.14688243233, -112704.4022326949, 0.016, 0.962, -0.018000000000000002, 192.0, 0.0, 0.0, 0.0, 0.0, 0.0, 0.0, 0.0, 0.0, 0.0, 1.666404299757618E9, 0.0, 2022-10-21 19:04:59.757
141.0, -127441.68966313478, -156131.1595000219, -28445.455842668518, -134831.0199178481, 62907.95658921678, -67446.59005958916, 53243.15169371983, -112683.72686907374, 0.016, 0.962, -0.018000000000000002, 192.0, 0.0, 0.0, 0.0, 0.0, 0.0, 0.0, 0.0, 0.0, 0.0, 1.6664042997576342E9, 0.0, 2022-10-21 19:04:59.757
142.0, -127428.83741007299, -156116.22853472573, -28439.018540265388, -134830.32701377, 62917.79135677712, -67430.45210009243, 53247.17500772179, -112683.95038651829, 0.016, 0.962, -0.018000000000000002, 192.0, 0.0, 0.0, 0.0, 0.0, 0.0, 0.0, 0.0, 0.0, 0.0, 1.666404299757651E9, 0.0, 2022-10-21 19:04:59.757
143.0, -127431.6760816188, -156116.58616263702, -28440.1137757437, -134838.21717956272, 62917.90311549939, -67447.43942587846, 53225.896147000334, -112687.81723830906, 0.018000000000000002, 0.968, -0.02, 192.0, 0.0, 144.0, 30.0, 64.0, 255.0, 96.0, 0.0, 0.0, 0.0, 1.6664042997576675E9, 0.0, 2022-10-21 19:04:59.757
144.0, -127435.49822992066, -156120.83299408352, -28434.794060563334, -134834.5291417276, 62920.27240041166, -67463.64444060856, 53226.49964410063, -112665.2419764092, 0.018000000000000002, 0.968, -0.02, 192.0, 0.0, 0.0, 0.0, 0.0, 0.0, 0.0, 0.0, 0.0, 0.0, 1.6664042997576857E9, 0.0, 2022-10-21 19:04:59.757
145.0, -127424.30000594855, -156115.13329924742, -28430.457822139004, -134833.76918241612, 62927.02262723716, -67439.70572229693, 53253.25468221363, -112665.8454735095, 0.018000000000000002, 0.968, -0.02, 192.0, 0.0, 0.0, 0.0, 0.0, 0.0, 0.0, 0.0, 0.0, 0.0, 1.666404299757702E9, 0.0, 2022-10-21 19:04:59.757
146.0, -127431.29610196306, -156126.26446798618, -28443.19831647853, -134842.84399066496, 62917.299618399105, -67431.25676289282, 53251.555949635025, -112679.27887192713, 0.018000000000000002, 0.968, -0.02, 192.0, 0.0, 0.0, 0.0, 0.0, 0.0, 0.0, 0.0, 0.0, 0.0, 1.6664042997577188E9, 0.0, 2022-10-21 19:04:59.757
147.0, -127441.64495964587, -156131.22655525524, -28445.746415346435, -134856.8808861829, 62910.90701948488, -67438.92341124099, 53233.942775004245, -112690.4994476437, 0.018000000000000002, 0.968, -0.02, 192.0, 0.0, 0.0, 0.0, 0.0, 0.0, 0.0, 0.0, 0.0, 0.0, 1.6664042997577353E9, 0.0, 2022-10-21 19:04:59.757
148.0, -127437.7781078551, -156134.9592965793, -28450.462633426505, -134849.54951400156, 62909.78943226212, -67450.34515265765, 53226.85727201191, -112684.73269757423, 0.018000000000000002, 0.968, -0.02, 192.0, 0.0, 0.0, 0.0, 0.0, 0.0, 0.0, 0.0, 0.0, 0.0, 1.6664042997577517E9, 0.0, 2022-10-21 19:04:59.757
149.0, -127426.75869783864, -156125.3927499524, -28441.074900755277, -134831.8692841374, 62920.719435300765, -67428.41809134699, 53251.06421125701, -112670.87461601193, 0.018000000000000002, 0.968, -0.02, 192.0, 0.0, 0.0, 0.0, 0.0, 0.0, 0.0, 0.0, 0.0, 0.0, 1.666404299757785E9, 0.0, 2022-10-21 19:04:59.757
150.0, -127421.39427916937, -156118.73193010472, -28434.190563463042, -134828.4718189802, 62927.89434527092, -67425.24414363434, 53251.37713567938, -112670.4946363562, 0.018000000000000002, 0.968, -0.02, 192.0, 0.0, 0.0, 0.0, 0.0, 0.0, 0.0, 0.0, 0.0, 0.0, 1.6664042997578015E9, 0.0, 2022-10-21 19:04:59.757
151.0, -127429.9326455513, -156125.3927499524, -28446.707540358013, -134834.6856039388, 62920.80884227859, -67432.19553615994, 53238.144902961845, -112682.83279929553, 0.018000000000000002, 0.968, -0.02, 192.0, 0.0, 0.0, 0.0, 0.0, 0.0, 0.0, 0.0, 0.0, 0.0, 1.666404299757818E9, 0.0, 2022-10-21 19:04:59.757
152.0, -127430.91612230732, -156127.5608691646, -28437.00688326441, -134849.90714191284, 62917.47843235474, -67461.18574871848, 53221.53755683155, -112683.592758607, 0.018000000000000002, 0.968, -0.02, 192.0, 0.0, 0.0, 0.0, 0.0, 0.0, 0.0, 0.0, 0.0, 0.0, 1.6664042997578344E9, 0.0, 2022-10-21 19:04:59.757
153.0, -127406.93270050678, -156116.2955899591, -28423.953464502512, -134831.8692841374, 62931.58238310604, -67457.78828356127, 53239.12837971788, -112671.18754043432, 0.024, 0.968, -0.02, 192.0, 0.0, 192.0, 30.0, 64.0, 255.0, 96.0, 0.0, 0.0, 0.0, 1.6664042997578506E9, 0.0, 2022-10-21 19:04:59.757
154.0, -127407.2232731847, -156114.90978180288, -28423.953464502512, -134829.85762713643, 62927.603772593, -67452.73678931437, 53244.78337106507, -112676.95429050378, 0.024, 0.968, -0.02, 192.0, 0.0, 0.0, 0.0, 0.0, 0.0, 0.0, 0.0, 0.0, 0.0, 1.666404299757868E9, 0.0, 2022-10-21 19:04:59.757
155.0, -127420.67902334679, -156128.96902906528, -28436.40338616412, -134844.69918545475, 62919.44538586681, -67503.58700795019, 53206.69599851323, -112681.67050858385, 0.024, 0.968, -0.02, 192.0, 0.0, 0.0, 0.0, 0.0, 0.0, 0.0, 0.0, 0.0, 0.0, 1.6664042997578871E9, 0.0, 2022-10-21 19:04:59.757
156.0, -127433.01718628612, -156139.63081117044, -28452.362531705206, -134857.39497630537, 62911.24229565171, -67520.90960990306, 53198.8058327205, -112683.65981384038, 0.024, 0.968, -0.02, 192.0, 0.0, 0.0, 0.0, 0.0, 0.0, 0.0, 0.0, 0.0, 0.0, 1.6664042997579033E9, 0.0, 2022-10-21 19:04:59.757
157.0, -127410.03959298607, -156121.16827025037, -28435.129336730166, -134830.4834759812, 62929.816595294076, -67490.01949906582, 53233.71925755969, -112664.16909267535, 0.024, 0.968, -0.02, 192.0, 0.0, 0.0, 0.0, 0.0, 0.0, 0.0, 0.0, 0.0, 0.0, 1.6664042997579198E9, 0.0, 2022-10-21 19:04:59.757
158.0, -127419.78495356858, -156124.4092731964, -28445.120566501686, -134832.0704498375, 62921.769967290165, -67467.73480984388, 53239.73187681817, -112674.29443291361, 0.024, 0.968, -0.02, 192.0, 0.0, 0.0, 0.0, 0.0, 0.0, 0.0, 0.0, 0.0, 0.0, 1.6664042997579362E9, 0.0, 2022-10-21 19:04:59.757
159.0, -127418.68971809027, -156125.23628774122, -28444.472365912483, -134839.15595282984, 62923.31223765758, -67494.78042063481, 53216.57546956247, -112671.27694741213, 0.024, 0.968, -0.02, 192.0, 0.0, 0.0, 0.0, 0.0, 0.0, 0.0, 0.0, 0.0, 0.0, 1.6664042997579527E9, 0.0, 2022-10-21 19:04:59.757
160.0, -127412.29711917606, -156123.4481481848, -28447.087520013753, -134842.55341798704, 62924.273362669155, -67522.96597039295, 53203.92438220077, -112657.86590073895, 0.024, 0.968, -0.02, 192.0, 0.0, 0.0, 0.0, 0.0, 0.0, 0.0, 0.0, 0.0, 0.0, 1.666404299757969E9, 0.0, 2022-10-21 19:04:59.757
161.0, -127403.31171790502, -156114.17217423586, -28432.961217518, -134831.5787114595, 62927.11203421498, -67522.83185992621, 53217.804815507516, -112648.47816806773, 0.024, 0.968, -0.02, 192.0, 0.0, 0.0, 0.0, 0.0, 0.0, 0.0, 0.0, 0.0, 0.0, 1.6664042997579856E9, 0.0, 2022-10-21 19:04:59.757
162.0, -127408.20674994073, -156118.53076440463, -28435.174040219074, -134835.71378418372, 62923.17812719085, -67524.46353727145, 53223.83978651045, -112669.19823517778, 0.024, 0.968, -0.02, 192.0, 0.0, 0.0, 0.0, 0.0, 0.0, 0.0, 0.0, 0.0, 0.0, 1.6664042997580037E9, 0.0, 2022-10-21 19:04:59.758
163.0, -127417.14744772285, -156130.1089680325, -28449.38974969265, -134851.69528146926, 62915.42207186486, -67536.39936881058, 53211.65808578231, -112687.50431388669, 0.024, 0.962, -0.012, 192.0, 0.0, 192.0, 30.0, 16.0, 255.0, 160.0, 0.0, 0.0, 0.0, 1.6664042997580202E9, 0.0, 2022-10-21 19:04:59.758
164.0, -127406.32920340648, -156126.5550406641, -28448.518031658892, -134851.80704019155, 62919.937124244825, -67559.13109292163, 53196.79417571952, -112689.60537786549, 0.024, 0.962, -0.012, 192.0, 0.0, 0.0, 0.0, 0.0, 0.0, 0.0, 0.0, 0.0, 0.0, 1.6664042997580533E9, 0.0, 2022-10-21 19:04:59.758
165.0, -127399.75779053662, -156112.853421313, -28427.373281404172, -134819.28525200908, 62942.78060707815, -67548.2904968608, 53217.9612777187, -112670.58404333402, 0.024, 0.962, -0.012, 192.0, 0.0, 0.0, 0.0, 0.0, 0.0, 0.0, 0.0, 0.0, 0.0, 1.6664042997580702E9, 0.0, 2022-10-21 19:04:59.758
166.0, -127418.44384890127, -156133.5511366786, -28441.879563555667, -134839.8265051635, 62931.69414182832, -67532.24194434189, 53231.417027880794, -112657.86590073895, 0.024, 0.962, -0.012, 192.0, 0.0, 0.0, 0.0, 0.0, 0.0, 0.0, 0.0, 0.0, 0.0, 1.6664042997580867E9, 0.0, 2022-10-21 19:04:59.758
167.0, -127429.28444496209, -156137.59680242502, -28461.146767276143, -134871.36481658995, 62911.01877820716, -67539.55096477878, 53210.98753344864, -112688.51014238718, 0.024, 0.962, -0.012, 192.0, 0.0, 0.0, 0.0, 0.0, 0.0, 0.0, 0.0, 0.0, 0.0, 1.6664042997581031E9, 0.0, 2022-10-21 19:04:59.758
168.0, -127408.78789529657, -156122.48702317322, -28439.15265073212, -134852.70110996976, 62928.40843539339, -67564.07082844626, 53199.07405365397, -112678.51891261565, 0.024, 0.962, -0.012, 192.0, 0.0, 0.0, 0.0, 0.0, 0.0, 0.0, 0.0, 0.0, 0.0, 1.66640429975812E9, 0.0, 2022-10-21 19:04:59.758
169.0, -127419.94141577977, -156123.8951830739, -28445.67936011307, -134844.52037149912, 62927.849641782006, -67561.52272957836, 53207.2100886357, -112675.85905502547, 0.024, 0.962, -0.012, 192.0, 0.0, 0.0, 0.0, 0.0, 0.0, 0.0, 0.0, 0.0, 0.0, 1.6664042997581365E9, 0.0, 2022-10-21 19:04:59.758
170.0, -127417.90740703433, -156123.26933422918, -28451.15553750462, -134852.14231635837, 62916.49495559871, -67544.55775553676, 53218.408312607804, -112691.32646218855, 0.024, 0.962, -0.012, 192.0, 0.0, 0.0, 0.0, 0.0, 0.0, 0.0, 0.0, 0.0, 0.0, 1.6664042997581532E9, 0.0, 2022-10-21 19:04:59.758
171.0, -127409.99488949716, -156128.52199417615, -28449.1662322481, -134856.92558967182, 62924.11690045797, -67536.8911071886, 53224.55504233301, -112688.08545924253, 0.024, 0.962, -0.012, 192.0, 0.0, 0.0, 0.0, 0.0, 0.0, 0.0, 0.0, 0.0, 0.0, 1.66640429975817E9, 0.0, 2022-10-21 19:04:59.758
172.0, -127412.47593313169, -156129.81839535458, -28447.892182814147, -134857.9314181723, 62931.492976128226, -67553.76667425236, 53208.2606206251, -112687.25844469768, 0.024, 0.9560000000000001, -0.016, 192.0, 0.0, 192.0, 29.0, 224.0, 255.0, 128.0, 0.0, 0.0, 0.0, 1.6664042997581868E9, 0.0, 2022-10-21 19:04:59.758
173.0, -127421.84131405847, -156135.18281402384, -28460.67738064258, -134863.1840781193, 62919.42303412236, -67571.13397969413, 53193.039082651034, -112699.23897972572, 0.024, 0.9560000000000001, -0.016, 192.0, 0.0, 0.0, 0.0, 0.0, 0.0, 0.0, 0.0, 0.0, 0.0, 1.6664042997582042E9, 0.0, 2022-10-21 19:04:59.758
174.0, -127415.18049421078, -156125.7950813526, -28458.129281774676, -134862.580581019, 62915.891458498416, -67569.16702618207, 53200.795137977024, -112702.39057569392, 0.024, 0.9560000000000001, -0.016, 192.0, 0.0, 0.0, 0.0, 0.0, 0.0, 0.0, 0.0, 0.0, 0.0, 1.6664042997582211E9, 0.0, 2022-10-21 19:04:59.758
175.0, -127416.67806108929, -156128.63375289843, -28454.0165607949, -134858.28904608358, 62920.294752156115, -67569.1446744376, 53204.72904500116, -112679.23416843823, 0.024, 0.9560000000000001, -0.016, 192.0, 0.0, 0.0, 0.0, 0.0, 0.0, 0.0, 0.0, 0.0, 0.0, 1.6664042997582376E9, 0.0, 2022-10-21 19:04:59.758
176.0, -127406.64212782886, -156121.77176735067, -28448.450976425527, -134864.77105197564, 62925.54741210311, -67598.53721839633, 53190.02159714956, -112672.68510731282, 0.024, 0.9560000000000001, -0.016, 192.0, 0.0, 0.0, 0.0, 0.0, 0.0, 0.0, 0.0, 0.0, 0.0, 1.6664042997582555E9, 0.0, 2022-10-21 19:04:59.758
177.0, -127406.73153480668, -156120.36360744998, -28445.165269990597, -134857.99847340566, 62929.45896738279, -67613.5128871814, 53185.26067558058, -112684.68799408533, 0.024, 0.9560000000000001, -0.016, 192.0, 0.0, 0.0, 0.0, 0.0, 0.0, 0.0, 0.0, 0.0, 0.0, 1.6664042997582724E9, 0.0, 2022-10-21 19:04:59.758
178.0, -127427.65276761685, -156145.01758158416, -28464.54423243335, -134866.64859850987, 62911.35405437399, -67599.83361957474, 53186.3559110589, -112714.1028897885, 0.024, 0.9560000000000001, -0.016, 192.0, 0.0, 0.0, 0.0, 0.0, 0.0, 0.0, 0.0, 0.0, 0.0, 1.666404299758289E9, 0.0, 2022-10-21 19:04:59.758
179.0, -127409.83842728597, -156126.599744153, -28451.78138634937, -134858.42315655033, 62919.55714458909, -67591.6081776152, 53194.04491115152, -112700.17775299285, 0.024, 0.9560000000000001, -0.016, 192.0, 0.0, 0.0, 0.0, 0.0, 0.0, 0.0, 0.0, 0.0, 0.0, 1.6664042997583206E9, 0.0, 2022-10-21 19:04:59.758
180.0, -127415.31460467752, -156127.29264823112, -28447.9145345586, -134853.25990358114, 62928.4531388823, -67591.51877063737, 53193.86609719588, -112681.46934288375, 0.024, 0.9560000000000001, -0.016, 192.0, 0.0, 0.0, 0.0, 0.0, 0.0, 0.0, 0.0, 0.0, 0.0, 1.6664042997583373E9, 0.0, 2022-10-21 19:04:59.758
181.0, -127429.9773490402, -156142.5588896941, -28461.169119020597, -134871.14129914538, 62916.807880021086, -67613.28936973684, 53174.733003942136, -112691.68409009984, 0.024, 0.9560000000000001, -0.016, 192.0, 0.0, 0.0, 0.0, 0.0, 0.0, 0.0, 0.0, 0.0, 0.0, 1.666404299758361E9, 0.0, 2022-10-21 19:04:59.758
182.0, -127414.48759013267, -156128.2984767316, -28454.68711312856, -134860.52422052913, 62919.91477250037, -67614.3622534707, 53184.5007162691, -112698.88135181445, 0.026000000000000002, 0.9540000000000001, -0.012, 192.0, 0.0, 208.0, 29.0, 208.0, 255.0, 160.0, 0.0, 0.0, 0.0, 1.666404299758379E9, 0.0, 2022-10-21 19:04:59.758
183.0, -127402.23883417116, -156117.86021207098, -28444.315903701296, -134856.99264490517, 62924.0498452246, -67597.28552070684, 53204.170251389776, -112696.17679073535, 0.026000000000000002, 0.9540000000000001, -0.012, 192.0, 0.0, 0.0, 0.0, 0.0, 0.0, 0.0, 0.0, 0.0, 0.0, 1.6664042997583969E9, 0.0, 2022-10-21 19:04:59.758
184.0, -127398.66255505831, -156115.06624401407, -28442.81833682279, -134860.63597925138, 62924.6533423249, -67608.86372433469, 53193.530821029046, -112695.05920351259, 0.026000000000000002, 0.9540000000000001, -0.012, 192.0, 0.0, 0.0, 0.0, 0.0, 0.0, 0.0, 0.0, 0.0, 0.0, 1.6664042997584133E9, 0.0, 2022-10-21 19:04:59.758
185.0, -127401.7694475376, -156117.5025841597, -28443.39948217863, -134858.55726701705, 62925.56976384757, -67644.0677218518, 53169.055660850485, -112690.7453168327, 0.026000000000000002, 0.9540000000000001, -0.012, 192.0, 0.0, 0.0, 0.0, 0.0, 0.0, 0.0, 0.0, 0.0, 0.0, 1.6664042997584295E9, 0.0, 2022-10-21 19:04:59.758
186.0, -127406.1727411953, -156128.2537732427, -28454.128319517175, -134864.54753453107, 62916.42790036534, -67660.22803309298, 53165.88171313783, -112688.599549365, 0.026000000000000002, 0.9540000000000001, -0.012, 192.0, 0.0, 0.0, 0.0, 0.0, 0.0, 0.0, 0.0, 0.0, 0.0, 1.6664042997584462E9, 0.0, 2022-10-21 19:04:59.758
187.0, -127408.74319180766, -156125.2586394857, -28448.070996769788, -134857.90906642785, 62924.22865918025, -67642.12312008419, 53186.44531803672, -112690.58885462151, 0.026000000000000002, 0.9540000000000001, -0.012, 192.0, 0.0, 0.0, 0.0, 0.0, 0.0, 0.0, 0.0, 0.0, 0.0, 1.666404299758463E9, 0.0, 2022-10-21 19:04:59.758
188.0, -127407.80441854053, -156123.62696214044, -28442.460708911505, -134855.31626407104, 62934.97984826325, -67626.05221582082, 53196.83887920844, -112698.0990407585, 0.026000000000000002, 0.9540000000000001, -0.012, 192.0, 0.0, 0.0, 0.0, 0.0, 0.0, 0.0, 0.0, 0.0, 0.0, 1.6664042997584796E9, 0.0, 2022-10-21 19:04:59.758
189.0, -127418.06386924552, -156133.59584016752, -28454.977685806476, -134867.6767787548, 62922.68638881283, -67630.27669552287, 53183.8525156799, -112710.37014846447, 0.026000000000000002, 0.9540000000000001, -0.012, 192.0, 0.0, 0.0, 0.0, 0.0, 0.0, 0.0, 0.0, 0.0, 0.0, 1.6664042997584963E9, 0.0, 2022-10-21 19:04:59.758
190.0, -127433.79949734206, -156140.77075013766, -28467.49466270145, -134876.14808990338, 62906.369615360454, -67637.58571595977, 53173.52600974155, -112716.89685784542, 0.026000000000000002, 0.9540000000000001, -0.012, 192.0, 0.0, 0.0, 0.0, 0.0, 0.0, 0.0, 0.0, 0.0, 0.0, 1.6664042997585125E9, 0.0, 2022-10-21 19:04:59.758
191.0, -127403.0211452271, -156123.93988656282, -28445.657008368613, -134855.38331930438, 62924.36276964698, -67621.93949484105, 53194.11196638489, -112695.17096223486, 0.026000000000000002, 0.9540000000000001, -0.012, 192.0, 0.0, 0.0, 0.0, 0.0, 0.0, 0.0, 0.0, 0.0, 0.0, 1.6664042997585287E9, 0.0, 2022-10-21 19:04:59.758
192.0, -127402.10472370444, -156123.42579644034, -28443.712406601004, -134855.20450534875, 62932.43174939534, -67626.18632628756, 53192.122661128364, -112688.24192145371, 0.02, 0.9540000000000001, -0.01, 192.0, 0.0, 160.0, 29.0, 208.0, 255.0, 176.0, 0.0, 0.0, 0.0, 1.6664042997585456E9, 0.0, 2022-10-21 19:04:59.758
193.0, -127423.0259565146, -156143.09533156102, -28466.533537689873, -134878.00328469317, 62916.874935254455, -67658.8198731923, 53162.12662006934, -112710.50425893119, 0.02, 0.9540000000000001, -0.01, 192.0, 0.0, 0.0, 0.0, 0.0, 0.0, 0.0, 0.0, 0.0, 0.0, 1.6664042997585635E9, 0.0, 2022-10-21 19:04:59.758
194.0, -127425.48464840469, -156141.7095234048, -28471.33916274776, -134893.5824505785, 62902.01102519167, -67682.0209839369, 53146.10041929489, -112733.12422431997, 0.02, 0.9540000000000001, -0.01, 192.0, 0.0, 0.0, 0.0, 0.0, 0.0, 0.0, 0.0, 0.0, 0.0, 1.6664042997585955E9, 0.0, 2022-10-21 19:04:59.758
195.0, -127402.6188138269, -156120.6988836168, -28449.613267137203, -134857.327921072, 62929.83894703853, -67654.79655919035, 53181.28206506754, -112699.77542159265, 0.02, 0.9540000000000001, -0.01, 192.0, 0.0, 0.0, 0.0, 0.0, 0.0, 0.0, 0.0, 0.0, 0.0, 1.6664042997586124E9, 0.0, 2022-10-21 19:04:59.758
196.0, -127393.78987476706, -156117.86021207098, -28439.934961788054, -134850.51063901314, 62942.91471754488, -67627.0133408324, 53204.7066932567, -112669.91349100036, 0.02, 0.9540000000000001, -0.01, 192.0, 0.0, 0.0, 0.0, 0.0, 0.0, 0.0, 0.0, 0.0, 0.0, 1.666404299758629E9, 0.0, 2022-10-21 19:04:59.758
197.0, -127404.29519466106, -156124.38692145192, -28445.142918246143, -134848.43192677878, 62944.16641523438, -67657.99285864746, 53183.673701724256, -112681.20112195029, 0.02, 0.9540000000000001, -0.01, 192.0, 0.0, 0.0, 0.0, 0.0, 0.0, 0.0, 0.0, 0.0, 0.0, 1.666404299758648E9, 0.0, 2022-10-21 19:04:59.758
198.0, -127408.87730227438, -156125.2586394857, -28448.58508689226, -134854.93628441528, 62940.768950077174, -67669.83928320877, 53178.95748364419, -112697.74141284722, 0.02, 0.9540000000000001, -0.01, 192.0, 0.0, 0.0, 0.0, 0.0, 0.0, 0.0, 0.0, 0.0, 0.0, 1.6664042997586644E9, 0.0, 2022-10-21 19:04:59.758
199.0, -127416.36513666692, -156136.79213962462, -28462.73374113247, -134866.04510140957, 62926.39677839241, -67657.70228596953, 53185.975931403154, -112710.16898276437, 0.02, 0.9540000000000001, -0.01, 192.0, 0.0, 0.0, 0.0, 0.0, 0.0, 0.0, 0.0, 0.0, 0.0, 1.6664042997586808E9, 0.0, 2022-10-21 19:04:59.758
200.0, -127415.31460467752, -156137.23917451373, -28459.135110275165, -134874.76228174716, 62927.626124337454, -67630.32139901178, 53207.455957824706, -112703.21759023877, 0.02, 0.9540000000000001, -0.01, 192.0, 0.0, 0.0, 0.0, 0.0, 0.0, 0.0, 0.0, 0.0, 0.0, 1.6664042997586975E9, 0.0, 2022-10-21 19:04:59.758
201.0, -127420.79078206907, -156138.78144488114, -28464.477177199984, -134890.45320635478, 62924.6533423249, -67639.6644281941, 53197.509431542094, -112699.57425589256, 0.02, 0.9540000000000001, -0.01, 192.0, 0.0, 0.0, 0.0, 0.0, 0.0, 0.0, 0.0, 0.0, 0.0, 1.6664042997587144E9, 0.0, 2022-10-21 19:04:59.758
202.0, -127412.38652615387, -156129.03608429863, -28452.116662516197, -134877.71271201526, 62934.130481973945, -67659.89275692616, 53186.87000118137, -112695.12625874595, 0.022, 0.9480000000000001, -0.004, 192.0, 0.0, 176.0, 29.0, 160.0, 255.0, 224.0, 0.0, 0.0, 0.0, 1.6664042997587292E9, 0.0, 2022-10-21 19:04:59.758
203.0, -127409.05611623003, -156131.94181107782, -28463.024313810387, -134876.4833660702, 62925.949743503304, -67654.88596616816, 53194.804870463005, -112699.44014542582, 0.022, 0.9480000000000001, -0.004, 192.0, 0.0, 0.0, 0.0, 0.0, 0.0, 0.0, 0.0, 0.0, 0.0, 1.6664042997587452E9, 0.0, 2022-10-21 19:04:59.758
204.0, -127402.08237195997, -156125.23628774122, -28454.597706150736, -134867.90029619937, 62933.77285406266, -67635.61876244769, 53213.35681836091, -112676.30608991458, 0.022, 0.9480000000000001, -0.004, 192.0, 0.0, 0.0, 0.0, 0.0, 0.0, 0.0, 0.0, 0.0, 0.0, 1.6664042997587607E9, 0.0, 2022-10-21 19:04:59.758
205.0, -127398.86372075841, -156116.7426248482, -28450.19441249304, -134860.45716529575, 62941.484205899746, -67650.92970739957, 53204.237306623145, -112684.93386327433, 0.022, 0.9480000000000001, -0.004, 192.0, 0.0, 0.0, 0.0, 0.0, 0.0, 0.0, 0.0, 0.0, 0.0, 1.6664042997587757E9, 0.0, 2022-10-21 19:04:59.758
206.0, -127409.70431681923, -156122.7105406178, -28459.00099980843, -134875.5222410586, 62926.17326094786, -67667.42529480759, 53186.400614547805, -112705.13984026192, 0.022, 0.9480000000000001, -0.004, 192.0, 0.0, 0.0, 0.0, 0.0, 0.0, 0.0, 0.0, 0.0, 0.0, 1.6664042997587907E9, 0.0, 2022-10-21 19:04:59.758
207.0, -127436.81698284352, -156142.00009608272, -28473.26141277092, -134901.4055611379, 62903.55329555909, -67674.06376291082, 53175.82823942044, -112724.94348584933, 0.022, 0.9480000000000001, -0.004, 192.0, 0.0, 0.0, 0.0, 0.0, 0.0, 0.0, 0.0, 0.0, 0.0, 1.6664042997588058E9, 0.0, 2022-10-21 19:04:59.758
208.0, -127399.0201829696, -156121.36943595047, -28452.92132531659, -134869.01788342214, 62930.17422320536, -67650.46032076601, 53207.34419910243, -112694.96979653476, 0.022, 0.9480000000000001, -0.004, 192.0, 0.0, 0.0, 0.0, 0.0, 0.0, 0.0, 0.0, 0.0, 0.0, 1.6664042997588208E9, 0.0, 2022-10-21 19:04:59.758
209.0, -127392.49347358865, -156109.56771487807, -28446.774595591378, -134871.3871683344, 62935.82921455255, -67648.60512597623, 53209.1099869144, -112688.71130808728, 0.022, 0.9480000000000001, -0.004, 192.0, 0.0, 0.0, 0.0, 0.0, 0.0, 0.0, 0.0, 0.0, 0.0, 1.6664042997588491E9, 0.0, 2022-10-21 19:04:59.758
210.0, -127389.61009855392, -156104.2927031866, -28431.709519828502, -134864.36872057544, 62950.626069381964, -67656.36118130221, 53207.366550846884, -112673.55682534658, 0.022, 0.9480000000000001, -0.004, 192.0, 0.0, 0.0, 0.0, 0.0, 0.0, 0.0, 0.0, 0.0, 0.0, 1.666404299758864E9, 0.0, 2022-10-21 19:04:59.758
211.0, -127401.05419171504, -156116.18383123682, -28446.215801979997, -134867.2744473546, 62943.093531500526, -67645.74410268595, 53215.212013150696, -112680.79879055009, 0.022, 0.9500000000000001, -0.006, 192.0, 0.0, 176.0, 29.0, 176.0, 255.0, 208.0, 0.0, 0.0, 0.0, 1.6664042997588797E9, 0.0, 2022-10-21 19:04:59.758
212.0, -127395.19803466774, -156112.4510899128, -28446.10404325772, -134868.7720142331, 62937.97498202026, -67628.51090771091, 53227.41606562329, -112683.32453767354, 0.022, 0.9500000000000001, -0.006, 192.0, 0.0, 0.0, 0.0, 0.0, 0.0, 0.0, 0.0, 0.0, 0.0, 1.6664042997588954E9, 0.0, 2022-10-21 19:04:59.758
213.0, -127395.6674213013, -156114.5968573805, -28451.24494448244, -134867.78853747708, 62936.61152560849, -67647.93457364256, 53212.86507998289, -112685.98439526373, 0.022, 0.9500000000000001, -0.006, 192.0, 0.0, 0.0, 0.0, 0.0, 0.0, 0.0, 0.0, 0.0, 0.0, 1.6664042997589104E9, 0.0, 2022-10-21 19:04:59.758
214.0, -127398.14846493585, -156119.089558016, -28459.82801435328, -134879.9925899497, 62929.57072610506, -67672.1191611432, 53192.74850997311, -112688.17486622035, 0.022, 0.9500000000000001, -0.006, 192.0, 0.0, 0.0, 0.0, 0.0, 0.0, 0.0, 0.0, 0.0, 0.0, 1.6664042997589247E9, 0.0, 2022-10-21 19:04:59.758
215.0, -127402.68586906027, -156118.3072469601, -28461.169119020597, -134871.3871683344, 62928.11786271547, -67676.81302747883, 53195.90010594131, -112689.27010169865, 0.022, 0.9500000000000001, -0.006, 192.0, 0.0, 0.0, 0.0, 0.0, 0.0, 0.0, 0.0, 0.0, 0.0, 1.66640429975894E9, 0.0, 2022-10-21 19:04:59.758
216.0, -127409.92783426378, -156126.62209589744, -28461.370284720695, -134878.65148528237, 62927.69317957082, -67660.09392262626, 53213.669742783284, -112696.91439830237, 0.022, 0.9500000000000001, -0.006, 192.0, 0.0, 0.0, 0.0, 0.0, 0.0, 0.0, 0.0, 0.0, 0.0, 1.666404299758955E9, 0.0, 2022-10-21 19:04:59.758
217.0, -127406.32920340648, -156129.1478430209, -28460.789139364857, -134881.35604636147, 62931.42592089486, -67655.4224080351, 53215.99432420664, -112707.26325598518, 0.022, 0.9500000000000001, -0.006, 192.0, 0.0, 0.0, 0.0, 0.0, 0.0, 0.0, 0.0, 0.0, 0.0, 1.6664042997589705E9, 0.0, 2022-10-21 19:04:59.758
218.0, -127407.69265981826, -156129.57252616555, -28468.321677246295, -134877.64565678188, 62932.58821160653, -67667.11237038522, 53202.67268451127, -112720.33902649154, 0.022, 0.9500000000000001, -0.006, 192.0, 0.0, 0.0, 0.0, 0.0, 0.0, 0.0, 0.0, 0.0, 0.0, 1.6664042997589848E9, 0.0, 2022-10-21 19:04:59.758
219.0, -127423.65180535935, -156146.38103799595, -28477.999982595444, -134893.31422964504, 62919.44538586681, -67658.90928017012, 53202.62798102236, -112715.57810492255, 0.022, 0.9500000000000001, -0.006, 192.0, 0.0, 0.0, 0.0, 0.0, 0.0, 0.0, 0.0, 0.0, 0.0, 1.666404299759002E9, 0.0, 2022-10-21 19:04:59.759
220.0, -127389.14071192035, -156111.2440957122, -28438.370339676185, -134854.08691812598, 62954.045886283624, -67634.07649208028, 53239.57541460698, -112673.57917709103, 0.022, 0.9500000000000001, -0.006, 192.0, 0.0, 0.0, 0.0, 0.0, 0.0, 0.0, 0.0, 0.0, 0.0, 1.666404299759017E9, 0.0, 2022-10-21 19:04:59.759
221.0, -127388.55956656452, -156111.2440957122, -28451.110834015708, -134859.8760199399, 62950.17903449286, -67648.58277423176, 53229.181853435264, -112682.65398533989, 0.022, 0.9580000000000001, -0.006, 192.0, 0.0, 176.0, 29.0, 240.0, 255.0, 208.0, 0.0, 0.0, 0.0, 1.6664042997590318E9, 0.0, 2022-10-21 19:04:59.759
222.0, -127390.39240960985, -156108.40542416638, -28451.58022064927, -134863.49700254167, 62950.89429031543, -67646.8169864198, 53224.73385628866, -112693.0475465116, 0.022, 0.9580000000000001, -0.006, 192.0, 0.0, 0.0, 0.0, 0.0, 0.0, 0.0, 0.0, 0.0, 0.0, 1.6664042997590475E9, 0.0, 2022-10-21 19:04:59.759
223.0, -127392.1134939329, -156105.45499389828, -28443.77946183437, -134860.45716529575, 62953.26357522769, -67645.9676201305, 53225.38205687786, -112696.95910179128, 0.022, 0.9580000000000001, -0.006, 192.0, 0.0, 0.0, 0.0, 0.0, 0.0, 0.0, 0.0, 0.0, 0.0, 1.6664042997590628E9, 0.0, 2022-10-21 19:04:59.759
224.0, -127397.74613353565, -156120.16244174988, -28456.743473618448, -134864.97221767574, 62942.08770300004, -67638.70330318253, 53232.98164999267, -112688.599549365, 0.022, 0.9580000000000001, -0.006, 192.0, 0.0, 0.0, 0.0, 0.0, 0.0, 0.0, 0.0, 0.0, 0.0, 1.6664042997590926E9, 0.0, 2022-10-21 19:04:59.759
225.0, -127397.58967132446, -156125.3033429746, -28455.312961973308, -134875.29872361408, 62939.33843843204, -67626.14162279863, 53241.36355416341, -112688.46543889826, 0.022, 0.9580000000000001, -0.006, 192.0, 0.0, 0.0, 0.0, 0.0, 0.0, 0.0, 0.0, 0.0, 0.0, 1.6664042997591083E9, 0.0, 2022-10-21 19:04:59.759
226.0, -127386.74907526364, -156113.56867713557, -28448.875659570178, -134875.49988931417, 62946.53570014665, -67646.70522769753, 53228.556004590515, -112676.68606957032, 0.022, 0.9580000000000001, -0.006, 192.0, 0.0, 0.0, 0.0, 0.0, 0.0, 0.0, 0.0, 0.0, 0.0, 1.666404299759124E9, 0.0, 2022-10-21 19:04:59.759
227.0, -127392.78404626658, -156116.96614229277, -28457.369322463197, -134870.29193285608, 62942.46768265578, -67660.74212321546, 53214.87673698387, -112701.49650591571, 0.022, 0.9580000000000001, -0.006, 192.0, 0.0, 0.0, 0.0, 0.0, 0.0, 0.0, 0.0, 0.0, 0.0, 1.6664042997591393E9, 0.0, 2022-10-21 19:04:59.759
228.0, -127403.84815977195, -156129.23724999873, -28469.171043535596, -134872.05772066806, 62929.995409249714, -67643.84420440724, 53219.97293471968, -112718.17090727937, 0.022, 0.9580000000000001, -0.006, 192.0, 0.0, 0.0, 0.0, 0.0, 0.0, 0.0, 0.0, 0.0, 0.0, 1.6664042997591543E9, 0.0, 2022-10-21 19:04:59.759
229.0, -127416.9239302783, -156139.42964547034, -28481.26333728592, -134892.86719475593, 62917.88076375494, -67623.32530299727, 53224.17506267728, -112720.76370963619, 0.022, 0.9580000000000001, -0.006, 192.0, 0.0, 0.0, 0.0, 0.0, 0.0, 0.0, 0.0, 0.0, 0.0, 1.6664042997591693E9, 0.0, 2022-10-21 19:04:59.759
230.0, -127393.83457825596, -156118.843688827, -28467.114683045707, -134886.40754060837, 62935.94097327483, -67613.1105557812, 53234.94860350473, -112693.62869186745, 0.022, 0.9580000000000001, -0.006, 192.0, 0.0, 0.0, 0.0, 0.0, 0.0, 0.0, 0.0, 0.0, 0.0, 1.6664042997591846E9, 0.0, 2022-10-21 19:04:59.759
231.0, -127404.40695338332, -156122.57643015104, -28465.63946791166, -134889.22386040972, 62932.811729051085, -67629.94141935604, 53219.07886494147, -112700.75889834868, 0.024, 0.964, -0.01, 192.0, 0.0, 192.0, 30.0, 32.0, 255.0, 176.0, 0.0, 0.0, 0.0, 1.6664042997592E9, 0.0, 2022-10-21 19:04:59.759
232.0, -127388.2689938866, -156117.43552892632, -28455.469424184495, -134869.50962180016, 62940.903060543904, -67608.7519656124, 53238.07784772848, -112691.102944744, 0.024, 0.964, -0.01, 192.0, 0.0, 0.0, 0.0, 0.0, 0.0, 0.0, 0.0, 0.0, 0.0, 1.666404299759216E9, 0.0, 2022-10-21 19:04:59.759
233.0, -127392.02408695509, -156115.602685881, -28458.35279921923, -134873.4882323132, 62935.13631047444, -67610.02601504636, 53238.86015878441, -112695.17096223486, 0.024, 0.964, -0.01, 192.0, 0.0, 0.0, 0.0, 0.0, 0.0, 0.0, 0.0, 0.0, 0.0, 1.666404299759231E9, 0.0, 2022-10-21 19:04:59.759
234.0, -127402.50705510462, -156125.7503778637, -28464.432473711073, -134882.0265986951, 62937.66205759789, -67610.58480865775, 53238.92721401778, -112686.16320921938, 0.024, 0.964, -0.01, 192.0, 0.0, 0.0, 0.0, 0.0, 0.0, 0.0, 0.0, 0.0, 0.0, 1.666404299759246E9, 0.0, 2022-10-21 19:04:59.759
235.0, -127407.58090109598, -156135.98747682423, -28472.188529037063, -134890.65437205488, 62934.66692384087, -67634.65763743612, 53221.82812950947, -112691.1476482329, 0.024, 0.964, -0.01, 192.0, 0.0, 0.0, 0.0, 0.0, 0.0, 0.0, 0.0, 0.0, 0.0, 1.6664042997592616E9, 0.0, 2022-10-21 19:04:59.759
236.0, -127397.81318876901, -156121.9505813063, -28461.459691698517, -134879.2773341271, 62941.3053919441, -67631.05900657881, 53230.76882729159, -112687.92899703134, 0.024, 0.964, -0.01, 192.0, 0.0, 0.0, 0.0, 0.0, 0.0, 0.0, 0.0, 0.0, 0.0, 1.6664042997592769E9, 0.0, 2022-10-21 19:04:59.759
237.0, -127398.55079633604, -156122.9117063179, -28464.745398133447, -134876.14808990338, 62939.62901110995, -67594.26803520537, 53255.15458049233, -112687.7501830757, 0.024, 0.964, -0.01, 192.0, 0.0, 0.0, 0.0, 0.0, 0.0, 0.0, 0.0, 0.0, 0.0, 1.6664042997592924E9, 0.0, 2022-10-21 19:04:59.759
238.0, -127397.03087771308, -156120.72123536127, -28469.282802257872, -134872.90708695736, 62941.03717101064, -67604.12515451017, 53244.33633617596, -112699.44014542582, 0.024, 0.964, -0.01, 192.0, 0.0, 0.0, 0.0, 0.0, 0.0, 0.0, 0.0, 0.0, 0.0, 1.6664042997593076E9, 0.0, 2022-10-21 19:04:59.759
239.0, -127387.97842120868, -156109.41125266688, -28461.280877742873, -134868.39203457738, 62947.29565945813, -67629.49438446693, 53230.14297844684, -112684.5985871075, 0.024, 0.964, -0.01, 192.0, 0.0, 0.0, 0.0, 0.0, 0.0, 0.0, 0.0, 0.0, 0.0, 1.6664042997593358E9, 0.0, 2022-10-21 19:04:59.759
240.0, -127386.99494445264, -156113.56867713557, -28463.560755677314, -134867.34150258798, 62947.11684550248, -67627.8627071217, 53235.2168244382, -112687.03492725313, 0.022, 0.9580000000000001, -0.008, 192.0, 0.0, 176.0, 29.0, 240.0, 255.0, 192.0, 0.0, 0.0, 0.0, 1.6664042997593555E9, 0.0, 2022-10-21 19:04:59.759
241.0, -127404.7198778057, -156133.3499709785, -28485.174892565596, -134888.35214237598, 62924.899211513904, -67620.59839017372, 53231.30526915852, -112717.6568171569, 0.022, 0.9580000000000001, -0.008, 192.0, 0.0, 0.0, 0.0, 0.0, 0.0, 0.0, 0.0, 0.0, 0.0, 1.6664042997593715E9, 0.0, 2022-10-21 19:04:59.759
242.0, -127399.89190100336, -156130.28778198813, -28476.591822694758, -134876.81864223702, 62937.349133175514, -67616.01628256039, 53240.022449496086, -112706.23507574023, 0.022, 0.9580000000000001, -0.008, 192.0, 0.0, 0.0, 0.0, 0.0, 0.0, 0.0, 0.0, 0.0, 0.0, 1.6664043002370849E9, 0.0, 2022-10-21 19:05:00.237
243.0, -127383.68688627327, -156110.61824686747, -28463.136072532663, -134873.46588056875, 62951.25191822671, -67627.59448618823, 53239.038972740054, -112698.99311053671, 0.022, 0.9580000000000001, -0.008, 192.0, 0.0, 0.0, 0.0, 0.0, 0.0, 0.0, 0.0, 0.0, 0.0, 1.6664043002372484E9, 0.0, 2022-10-21 19:05:00.237
244.0, -127407.33503190697, -156130.7571686217, -28485.152540821142, -134900.1985669373, 62926.441481881324, -67648.4710155095, 53220.308210886506, -112715.89102934493, 0.022, 0.9580000000000001, -0.008, 192.0, 0.0, 0.0, 0.0, 0.0, 0.0, 0.0, 0.0, 0.0, 0.0, 1.6664043002373123E9, 0.0, 2022-10-21 19:05:00.237
245.0, -127402.19413068226, -156124.63279064093, -28482.962069864523, -134891.81666276653, 62928.676656326854, -67612.84233484774, 53246.325641432486, -112702.5023344162, 0.022, 0.9580000000000001, -0.008, 192.0, 0.0, 0.0, 0.0, 0.0, 0.0, 0.0, 0.0, 0.0, 0.0, 1.6664043002373712E9, 0.0, 2022-10-21 19:05:00.237
246.0, -127386.01146769662, -156110.86411605647, -28474.26724127141, -134879.2773341271, 62943.093531500526, -67614.71988138199, 53250.863045556915, -112689.6500813544, 0.022, 0.9580000000000001, -0.008, 192.0, 0.0, 0.0, 0.0, 0.0, 0.0, 0.0, 0.0, 0.0, 0.0, 1.6664043002374103E9, 0.0, 2022-10-21 19:05:00.237
247.0, -127374.29915360203, -156102.61632235246, -28455.78234860687, -134877.3327323595, 62956.10224677352, -67624.0629105643, 53246.28093794357, -112684.03979349612, 0.022, 0.9580000000000001, -0.008, 192.0, 0.0, 0.0, 0.0, 0.0, 0.0, 0.0, 0.0, 0.0, 0.0, 1.6664043002374258E9, 0.0, 2022-10-21 19:05:00.237
248.0, -127374.85794721342, -156100.15763046237, -28452.071959027286, -134874.6728747693, 62956.146950262424, -67639.88794563865, 53241.36355416341, -112673.73563930222, 0.022, 0.9580000000000001, -0.008, 192.0, 0.0, 0.0, 0.0, 0.0, 0.0, 0.0, 0.0, 0.0, 0.0, 1.6664043002374413E9, 0.0, 2022-10-21 19:05:00.237
249.0, -127379.01537168211, -156108.1372032329, -28461.035008553867, -134876.2822003701, 62949.55318564811, -67618.69849189502, 53256.450981670736, -112673.62388057994, 0.022, 0.9580000000000001, -0.008, 192.0, 0.0, 0.0, 0.0, 0.0, 0.0, 0.0, 0.0, 0.0, 0.0, 1.6664043002374568E9, 0.0, 2022-10-21 19:05:00.237
250.0, -127391.13001717688, -156120.36360744998, -28473.037895326364, -134892.5989738225, 62939.13727273194, -67612.21648600299, 53256.9203683043, -112680.53056961663, 0.02, 0.9580000000000001, -0.012, 192.0, 0.0, 160.0, 29.0, 240.0, 255.0, 160.0, 0.0, 0.0, 0.0, 1.666404300237472E9, 0.0, 2022-10-21 19:05:00.237
251.0, -127383.19514789524, -156108.9418660333, -28462.28670624336, -134887.92745923132, 62948.14502574743, -67617.69266339454, 53251.31008044602, -112678.56361610457, 0.02, 0.9580000000000001, -0.012, 192.0, 0.0, 0.0, 0.0, 0.0, 0.0, 0.0, 0.0, 0.0, 0.0, 1.6664043002374897E9, 0.0, 2022-10-21 19:05:00.237
252.0, -127384.24567988464, -156108.092499744, -28467.896994101644, -134878.07033992652, 62954.42586593937, -67627.08039606576, 53242.70465883073, -112690.47709589924, 0.02, 0.9580000000000001, -0.012, 192.0, 0.0, 0.0, 0.0, 0.0, 0.0, 0.0, 0.0, 0.0, 0.0, 1.6664043002375057E9, 0.0, 2022-10-21 19:05:00.237
253.0, -127404.42930512778, -156119.17896499383, -28481.240985541463, -134879.74672076068, 62944.43463616785, -67622.63239891916, 53244.51515013161, -112705.63157863994, 0.02, 0.9580000000000001, -0.012, 192.0, 0.0, 0.0, 0.0, 0.0, 0.0, 0.0, 0.0, 0.0, 0.0, 1.6664043002375207E9, 0.0, 2022-10-21 19:05:00.237
254.0, -127410.88895927537, -156129.63958139892, -28493.579148480792, -134885.22289815222, 62930.643609838924, -67603.83458183224, 53250.75128683464, -112714.52757293315, 0.02, 0.9580000000000001, -0.012, 192.0, 0.0, 0.0, 0.0, 0.0, 0.0, 0.0, 0.0, 0.0, 0.0, 1.6664043002375987E9, 0.0, 2022-10-21 19:05:00.237
255.0, -127396.94147073526, -156124.4986801742, -28489.622889712202, -134895.92938374632, 62930.80007205011, -67620.08430005125, 53236.2673564276, -112699.08251751454, 0.02, 0.9580000000000001, -0.012, 192.0, 0.0, 0.0, 0.0, 0.0, 0.0, 0.0, 0.0, 0.0, 0.0, 1.666404300237615E9, 0.0, 2022-10-21 19:05:00.237
0.0, -127381.38465659437, -156107.5337061326, -28471.517976703406, -134882.36187486196, 62948.30148795861, -67621.87243960767, 53238.547234362035, -112689.4936191432, 0.02, 0.9580000000000001, -0.012, 192.0, 0.0, 0.0, 0.0, 0.0, 0.0, 0.0, 0.0, 0.0, 0.0, 1.6664043002376304E9, 0.0, 2022-10-21 19:05:00.237
1.0, -127379.77533099358, -156107.42194741036, -28472.903784859634, -134869.01788342214, 62950.357848448504, -67603.05227077632, 53250.795990323546, -112693.51693314516, 0.02, 0.9580000000000001, -0.012, 192.0, 0.0, 0.0, 0.0, 0.0, 0.0, 0.0, 0.0, 0.0, 0.0, 1.6664043002376451E9, 0.0, 2022-10-21 19:05:00.237
2.0, -127397.70143004674, -156125.12452901894, -28486.11366583272, -134884.99938070768, 62935.605697107996, -67577.68304081954, 53259.78139159458, -112706.5032966737, 0.02, 0.9580000000000001, -0.012, 192.0, 0.0, 0.0, 0.0, 0.0, 0.0, 0.0, 0.0, 0.0, 0.0, 1.6664043002376604E9, 0.0, 2022-10-21 19:05:00.237
3.0, -127395.57801432349, -156122.9117063179, -28489.39937226765, -134895.4376453683, 62932.521156373165, -67591.89875029311, 53238.25666168412, -112708.4031949524, 0.02, 0.9580000000000001, -0.012, 192.0, 0.0, 0.0, 0.0, 0.0, 0.0, 0.0, 0.0, 0.0, 0.0, 1.6664043002376761E9, 0.0, 2022-10-21 19:05:00.237
4.0, -127386.97259270819, -156112.0487585126, -28482.179758808586, -134887.94981097578, 62941.97594427776, -67617.80442211681, 53224.75620803311, -112686.67729934184, 0.02, 0.96, -0.006, 192.0, 0.0, 160.0, 30.0, 0.0, 255.0, 208.0, 0.0, 0.0, 0.0, 1.6664043002376912E9, 0.0, 2022-10-21 19:05:00.237
5.0, -127392.58288056648, -156121.16827025037, -28490.986346123977, -134897.87398551393, 62928.810766793584, -67613.33407322575, 53224.2644696551, -112706.03391004013, 0.02, 0.96, -0.006, 192.0, 0.0, 0.0, 0.0, 0.0, 0.0, 0.0, 0.0, 0.0, 0.0, 1.6664043002377136E9, 0.0, 2022-10-21 19:05:00.237
6.0, -127405.25631967263, -156139.51905244816, -28503.369212552218, -134905.76415130665, 62919.78066203364, -67571.2457384164, 53243.06228674201, -112731.49254697472, 0.02, 0.96, -0.006, 192.0, 0.0, 0.0, 0.0, 0.0, 0.0, 0.0, 0.0, 0.0, 0.0, 1.6664043002377286E9, 0.0, 2022-10-21 19:05:00.237
7.0, -127406.86564527341, -156134.02052331215, -28504.59855849726, -134913.98959326622, 62915.84675500951, -67573.97265123995, 53229.62888832437, -112735.69467493233, 0.02, 0.96, -0.006, 192.0, 0.0, 0.0, 0.0, 0.0, 0.0, 0.0, 0.0, 0.0, 0.0, 1.6664043002377436E9, 0.0, 2022-10-21 19:05:00.237
8.0, -127369.22530761067, -156096.58135134954, -28465.930040589577, -134877.2880288706, 62957.57746190757, -67584.12034322266, 53239.463655884705, -112690.07476449905, 0.02, 0.96, -0.006, 192.0, 0.0, 0.0, 0.0, 0.0, 0.0, 0.0, 0.0, 0.0, 0.0, 1.6664043002377582E9, 0.0, 2022-10-21 19:05:00.237
9.0, -127371.66164775631, -156098.97298800625, -28468.43343596857, -134869.24140086668, 62961.01963055368, -67596.97259628447, 53242.257623941616, -112680.88819752792, 0.02, 0.96, -0.006, 192.0, 0.0, 0.0, 0.0, 0.0, 0.0, 0.0, 0.0, 0.0, 0.0, 1.666404300237773E9, 0.0, 2022-10-21 19:05:00.237
10.0, -127380.11060716042, -156112.4957934017, -28484.660802443126, -134876.4833660702, 62949.75435134821, -67562.61796505666, 53264.18468525227, -112689.80654356559, 0.02, 0.96, -0.006, 192.0, 0.0, 0.0, 0.0, 0.0, 0.0, 0.0, 0.0, 0.0, 0.0, 1.666404300237788E9, 0.0, 2022-10-21 19:05:00.237
11.0, -127388.89484273134, -156122.4423196843, -28490.159331579132, -134897.2928401581, 62937.97498202026, -67535.6394094991, 53269.7726213661, -112696.1544389909, 0.02, 0.96, -0.006, 192.0, 0.0, 0.0, 0.0, 0.0, 0.0, 0.0, 0.0, 0.0, 0.0, 1.6664043002378032E9, 0.0, 2022-10-21 19:05:00.237
12.0, -127387.44197934175, -156116.094424259, -28495.903729904145, -134905.38417165092, 62937.907926786895, -67562.03681970082, 53246.50445538813, -112702.56938964956, 0.02, 0.96, -0.006, 192.0, 0.0, 0.0, 0.0, 0.0, 0.0, 0.0, 0.0, 0.0, 0.0, 1.6664043002378185E9, 0.0, 2022-10-21 19:05:00.237
