%OpenBCI Raw EEG Data
%Number of channels = 8
%Sample Rate = 250 Hz
%Board = OpenBCI_GUI$BoardCytonSerial
Sample Index, EXG Channel 0, EXG Channel 1, EXG Channel 2, EXG Channel 3, EXG Channel 4, EXG Channel 5, EXG Channel 6, EXG Channel 7, Accel Channel 0, Accel Channel 1, Accel Channel 2, Other, Other, Other, Other, Other, Other, Other, Analog Channel 0, Analog Channel 1, Analog Channel 2, Timestamp, Other, Timestamp (Formatted)
239.0, -131465.294237768, -157754.723162022, -32851.521116676464, -140550.65251000554, 69279.36604969097, -112853.71188565635, 57899.690616093954, -110162.47244625956, 0.0, 0.0, 0.0, 192.0, 0.0, 0.0, 0.0, 0.0, 0.0, 0.0, 0.0, 0.0, 0.0, 1.6664045717502756E9, 0.0, 2022-10-21 19:09:31.750
240.0, -131465.1377755568, -157754.16436841065, -32849.59886665331, -140536.682669721, 69284.66341312688, -112839.63028664951, 57911.55939239972, -110154.58228046684, 0.0, 0.0, 0.0, 192.0, 0.0, 0.0, 0.0, 0.0, 0.0, 0.0, 0.0, 0.0, 0.0, 1.6664045717503042E9, 0.0, 2022-10-21 19:09:31.750
241.0, -131468.40113024725, -157759.55113882438, -32854.829174855855, -140538.15788485503, 69279.74602934672, -112826.66627486543, 57919.60602040363, -110156.59393746781, 0.012, 0.96, -0.05, 192.0, 0.0, 96.0, 30.0, 0.0, 254.0, 112.0, 0.0, 0.0, 0.0, 1.666404571750326E9, 0.0, 2022-10-21 19:09:31.750
242.0, -131465.7412726571, -157757.5841853123, -32853.46571844408, -140550.8760274501, 69278.15905549038, -112830.9801615453, 57917.70612212493, -110148.502605975, 0.012, 0.96, -0.05, 192.0, 0.0, 0.0, 0.0, 0.0, 0.0, 0.0, 0.0, 0.0, 0.0, 1.6664045717503507E9, 0.0, 2022-10-21 19:09:31.750
243.0, -131465.36129300133, -157753.60557479927, -32848.12365151926, -140550.16077162753, 69283.76934334867, -112843.47478669582, 57908.36309294261, -110148.45790248609, 0.012, 0.96, -0.05, 192.0, 0.0, 0.0, 0.0, 0.0, 0.0, 0.0, 0.0, 0.0, 0.0, 1.666404571750372E9, 0.0, 2022-10-21 19:09:31.750
244.0, -131467.5294122135, -157753.4267608436, -32851.76698586548, -140546.49508553685, 69276.90735780088, -112849.39799897648, 57902.66339810651, -110158.0020973685, 0.012, 0.96, -0.05, 192.0, 0.0, 0.0, 0.0, 0.0, 0.0, 0.0, 0.0, 0.0, 0.0, 1.666404571750387E9, 0.0, 2022-10-21 19:09:31.750
245.0, -131470.65865643724, -157757.15950216766, -32856.080872545346, -140540.2813005783, 69273.5992996215, -112836.2328214923, 57916.78970060226, -110158.67264970216, 0.012, 0.96, -0.05, 192.0, 0.0, 0.0, 0.0, 0.0, 0.0, 0.0, 0.0, 0.0, 0.0, 1.6664045717504017E9, 0.0, 2022-10-21 19:09:31.750
246.0, -131474.77137741703, -157762.233348159, -32859.41128246919, -140549.08788789366, 69269.57598561955, -112829.99668478926, 57918.913116325515, -110163.32181254886, 0.012, 0.96, -0.05, 192.0, 0.0, 0.0, 0.0, 0.0, 0.0, 0.0, 0.0, 0.0, 0.0, 1.6664045717504165E9, 0.0, 2022-10-21 19:09:31.750
247.0, -131468.06585408043, -157755.39371435568, -32854.203326011106, -140555.54754204125, 69273.01815426566, -112853.04133332269, 57903.0657295067, -110156.50453049, 0.012, 0.96, -0.05, 192.0, 0.0, 0.0, 0.0, 0.0, 0.0, 0.0, 0.0, 0.0, 0.0, 1.6664045717504313E9, 0.0, 2022-10-21 19:09:31.750
248.0, -131463.036711578, -157750.31986836434, -32850.58234340934, -140549.24435010485, 69277.98024153474, -112867.43585675191, 57897.34368292614, -110149.95546936459, 0.012, 0.96, -0.05, 192.0, 0.0, 0.0, 0.0, 0.0, 0.0, 0.0, 0.0, 0.0, 0.0, 1.6664045717504456E9, 0.0, 2022-10-21 19:09:31.750
249.0, -131462.50026971105, -157751.01277244245, -32851.99050331003, -140542.04708839025, 69275.99093627822, -112858.1822345474, 57906.10556675262, -110148.59201295281, 0.012, 0.96, -0.05, 192.0, 0.0, 0.0, 0.0, 0.0, 0.0, 0.0, 0.0, 0.0, 0.0, 1.6664045717504604E9, 0.0, 2022-10-21 19:09:31.750
250.0, -131464.51192671203, -157752.04095268738, -32854.91858183367, -140548.81966696022, 69273.5545961326, -112850.09090305459, 57908.67601736498, -110152.5035682325, 0.012, 0.96, -0.05, 192.0, 0.0, 0.0, 0.0, 0.0, 0.0, 0.0, 0.0, 0.0, 0.0, 1.6664045717504747E9, 0.0, 2022-10-21 19:09:31.750
251.0, -131466.30006626845, -157751.99624919848, -32855.4550237006, -140548.68555649347, 69279.99189853572, -112849.77797863222, 57902.95397078442, -110152.5035682325, 0.012, 0.962, -0.05, 192.0, 0.0, 96.0, 30.0, 16.0, 254.0, 112.0, 0.0, 0.0, 0.0, 1.6664045717504892E9, 0.0, 2022-10-21 19:09:31.750
252.0, -131468.75875815854, -157755.4384178446, -32859.59009642483, -140549.4231640605, 69276.54972988961, -112860.6856299264, 57896.15904047001, -110154.6046322113, 0.012, 0.962, -0.05, 192.0, 0.0, 0.0, 0.0, 0.0, 0.0, 0.0, 0.0, 0.0, 0.0, 1.6664045717505052E9, 0.0, 2022-10-21 19:09:31.750
253.0, -131473.85495589435, -157759.0370487019, -32868.664904673686, -140544.3716698136, 69268.92778503035, -112839.25030699377, 57911.53704065526, -110167.47923701754, 0.012, 0.962, -0.05, 192.0, 0.0, 0.0, 0.0, 0.0, 0.0, 0.0, 0.0, 0.0, 0.0, 1.6664045717505202E9, 0.0, 2022-10-21 19:09:31.750
254.0, -131481.02986586452, -157764.66968830462, -32870.833023885854, -140548.9761291714, 69262.17755820484, -112830.30960921165, 57917.70612212493, -110176.01760339948, 0.012, 0.962, -0.05, 192.0, 0.0, 0.0, 0.0, 0.0, 0.0, 0.0, 0.0, 0.0, 0.0, 1.66640457175074E9, 0.0, 2022-10-21 19:09:31.750
255.0, -131473.76554891653, -157753.96320271055, -32859.61244816929, -140553.98291992937, 69268.23488095222, -112859.45628398136, 57899.824726560684, -110167.54629225092, 0.012, 0.962, -0.05, 192.0, 0.0, 0.0, 0.0, 0.0, 0.0, 0.0, 0.0, 0.0, 0.0, 1.6664045717507615E9, 0.0, 2022-10-21 19:09:31.750
0.0, -131469.76458665903, -157748.71054276355, -32855.387968467236, -140547.70207973744, 69277.42144792336, -112872.33088878762, 57892.94038926845, -110162.74066719302, 0.012, 0.962, -0.05, 192.0, 0.0, 0.0, 0.0, 0.0, 0.0, 0.0, 0.0, 0.0, 0.0, 1.6664045717507763E9, 0.0, 2022-10-21 19:09:31.750
1.0, -131466.1436040573, -157743.234365372, -32848.97301780856, -140535.38626854256, 69285.26691022718, -112862.65258343848, 57903.043377762246, -110150.91659437616, 0.012, 0.962, -0.05, 192.0, 0.0, 0.0, 0.0, 0.0, 0.0, 0.0, 0.0, 0.0, 0.0, 1.6664045717507908E9, 0.0, 2022-10-21 19:09:31.750
2.0, -131475.44192975067, -157748.79994974137, -32855.27620974496, -140527.85373066113, 69287.01034629469, -112828.45441442185, 57925.23866000637, -110144.85927162878, 0.012, 0.962, -0.05, 192.0, 0.0, 0.0, 0.0, 0.0, 0.0, 0.0, 0.0, 0.0, 0.0, 1.6664045717508054E9, 0.0, 2022-10-21 19:09:31.750
3.0, -131479.39818851926, -157749.26933637494, -32862.24995401502, -140540.3707075561, 69282.04825902561, -112825.45928066484, 57922.064712293715, -110151.0954083318, 0.012, 0.962, -0.05, 192.0, 0.0, 0.0, 0.0, 0.0, 0.0, 0.0, 0.0, 0.0, 0.0, 1.66640457175082E9, 0.0, 2022-10-21 19:09:31.750
4.0, -131476.96184837364, -157745.5812985398, -32861.33353249235, -140542.11414362362, 69283.92580555986, -112845.03940880769, 57908.631313876074, -110147.22855654104, 0.016, 0.9580000000000001, -0.046, 192.0, 0.0, 128.0, 29.0, 240.0, 254.0, 144.0, 0.0, 0.0, 0.0, 1.6664045717508347E9, 0.0, 2022-10-21 19:09:31.750
5.0, -131486.64015372278, -157753.09148467678, -32869.93895410764, -140549.4231640605, 69271.34177343152, -112843.27362099572, 57908.45249992043, -110154.71639093356, 0.016, 0.9580000000000001, -0.046, 192.0, 0.0, 0.0, 0.0, 0.0, 0.0, 0.0, 0.0, 0.0, 0.0, 1.666404571750856E9, 0.0, 2022-10-21 19:09:31.750
6.0, -131482.41567402074, -157748.9340602081, -32865.06627381638, -140545.28809133626, 69272.59347112101, -112842.46895819533, 57914.80039534574, -110148.81553039736, 0.016, 0.9580000000000001, -0.046, 192.0, 0.0, 0.0, 0.0, 0.0, 0.0, 0.0, 0.0, 0.0, 0.0, 1.6664045717508755E9, 0.0, 2022-10-21 19:09:31.750
7.0, -131477.36417977384, -157745.44718807307, -32860.618276669775, -140544.03639364676, 69280.77420959166, -112852.25902226675, 57909.79360458775, -110149.77665540895, 0.016, 0.9580000000000001, -0.046, 192.0, 0.0, 0.0, 0.0, 0.0, 0.0, 0.0, 0.0, 0.0, 0.0, 1.6664045717508907E9, 0.0, 2022-10-21 19:09:31.750
8.0, -131477.11831058483, -157747.79412124088, -32864.86510811628, -140551.70304199494, 69278.82960782404, -112860.57387120413, 57899.40004341603, -110157.48800724602, 0.016, 0.9580000000000001, -0.046, 192.0, 0.0, 0.0, 0.0, 0.0, 0.0, 0.0, 0.0, 0.0, 0.0, 1.6664045717509055E9, 0.0, 2022-10-21 19:09:31.750
9.0, -131465.9424383572, -157741.08859790428, -32876.46566348859, -140559.28028336528, 69261.03761923763, -112861.57969970461, 57895.24261894735, -110169.42383878517, 0.016, 0.9580000000000001, -0.046, 192.0, 0.0, 0.0, 0.0, 0.0, 0.0, 0.0, 0.0, 0.0, 0.0, 1.6664045717509208E9, 0.0, 2022-10-21 19:09:31.750
10.0, -131467.0376738355, -157739.97101068153, -32879.99723911253, -140555.54754204125, 69255.96377324627, -112854.15892054545, 57901.94814228394, -110172.57543475335, 0.016, 0.9580000000000001, -0.046, 192.0, 0.0, 0.0, 0.0, 0.0, 0.0, 0.0, 0.0, 0.0, 0.0, 1.6664045717509356E9, 0.0, 2022-10-21 19:09:31.750
11.0, -131484.47203451063, -157751.75038000947, -32864.328666249356, -140551.43482106147, 69271.09590424251, -112848.48157745381, 57910.48650866587, -110156.03514385642, 0.016, 0.9580000000000001, -0.046, 192.0, 0.0, 0.0, 0.0, 0.0, 0.0, 0.0, 0.0, 0.0, 0.0, 1.6664045717509506E9, 0.0, 2022-10-21 19:09:31.750
12.0, -131487.15424384526, -157751.2809933759, -32850.15766026469, -140542.98586165736, 69289.6031486515, -112855.12004555704, 57907.96076154242, -110150.71542867606, 0.016, 0.9580000000000001, -0.046, 192.0, 0.0, 0.0, 0.0, 0.0, 0.0, 0.0, 0.0, 0.0, 0.0, 1.6664045717509658E9, 0.0, 2022-10-21 19:09:31.750
13.0, -131478.6382292078, -157740.61921127074, -32853.80099461091, -140541.1753703565, 69288.44085793983, -112847.14047278649, 57911.04530227725, -110146.31213501838, 0.016, 0.9580000000000001, -0.046, 192.0, 0.0, 0.0, 0.0, 0.0, 0.0, 0.0, 0.0, 0.0, 0.0, 1.6664045717509809E9, 0.0, 2022-10-21 19:09:31.750
14.0, -131477.85591815185, -157737.35585658025, -32853.622180655264, -140538.85078893314, 69284.84222708252, -112828.52146965521, 57927.4738344519, -110147.92146061915, 0.02, 0.96, -0.05, 192.0, 0.0, 160.0, 30.0, 0.0, 254.0, 112.0, 0.0, 0.0, 0.0, 1.6664045717510595E9, 0.0, 2022-10-21 19:09:31.751
15.0, -131472.42444424922, -157731.38794081067, -32846.6037328963, -140534.44749527544, 69289.08905852903, -112826.28629520969, 57936.70510491194, -110143.58522219483, 0.02, 0.96, -0.05, 192.0, 0.0, 0.0, 0.0, 0.0, 0.0, 0.0, 0.0, 0.0, 0.0, 1.666404571751076E9, 0.0, 2022-10-21 19:09:31.751
16.0, -131466.30006626845, -157722.96133315103, -32844.748538106505, -140537.10735286563, 69289.29022422913, -112847.18517627541, 57922.37763671609, -110139.24898377049, 0.02, 0.96, -0.05, 192.0, 0.0, 0.0, 0.0, 0.0, 0.0, 0.0, 0.0, 0.0, 0.0, 1.6664045717510915E9, 0.0, 2022-10-21 19:09:31.751
17.0, -131476.49246174007, -157733.15372862265, -32851.6552271432, -140543.81287620222, 69283.16584624838, -112843.20656576236, 57919.31544772571, -110144.56869895085, 0.02, 0.96, -0.05, 192.0, 0.0, 0.0, 0.0, 0.0, 0.0, 0.0, 0.0, 0.0, 0.0, 1.6664045717511067E9, 0.0, 2022-10-21 19:09:31.751
18.0, -131476.82773790692, -157733.84663270076, -32856.03616905644, -140542.11414362362, 69275.23097696673, -112840.01026630525, 57925.551584428744, -110142.55704194988, 0.02, 0.96, -0.05, 192.0, 0.0, 0.0, 0.0, 0.0, 0.0, 0.0, 0.0, 0.0, 0.0, 1.6664045717511218E9, 0.0, 2022-10-21 19:09:31.751
19.0, -131474.50315648355, -157728.30340007585, -32851.677578887655, -140539.78956220025, 69283.94815730432, -112828.11913825503, 57940.99663984736, -110135.58329767983, 0.02, 0.96, -0.05, 192.0, 0.0, 0.0, 0.0, 0.0, 0.0, 0.0, 0.0, 0.0, 0.0, 1.6664045717511373E9, 0.0, 2022-10-21 19:09:31.751
20.0, -131468.4905372251, -157723.90010641815, -32844.43561368413, -140543.2764343353, 69294.8558085985, -112834.1317575135, 57935.14048280007, -110130.53180343292, 0.02, 0.96, -0.05, 192.0, 0.0, 0.0, 0.0, 0.0, 0.0, 0.0, 0.0, 0.0, 0.0, 1.666404571751152E9, 0.0, 2022-10-21 19:09:31.751
21.0, -131459.70630165414, -157714.66883595812, -32839.40647118169, -140535.34156505365, 69296.26396849919, -112833.4835569243, 57933.95584034394, -110120.25000098349, 0.02, 0.96, -0.05, 192.0, 0.0, 0.0, 0.0, 0.0, 0.0, 0.0, 0.0, 0.0, 0.0, 1.6664045717511673E9, 0.0, 2022-10-21 19:09:31.751
22.0, -131457.29231325298, -157711.8748679012, -32839.87585781525, -140522.98105036988, 69293.38059346445, -112808.09197522307, 57954.13946558708, -110116.58431489281, 0.02, 0.96, -0.05, 192.0, 0.0, 0.0, 0.0, 0.0, 0.0, 0.0, 0.0, 0.0, 0.0, 1.6664045717511823E9, 0.0, 2022-10-21 19:09:31.751
23.0, -131457.4711272086, -157711.24901905644, -32836.79131708042, -140523.09280909214, 69295.03462255414, -112794.65857680544, 57965.98589014839, -110120.25000098349, 0.02, 0.96, -0.05, 192.0, 0.0, 0.0, 0.0, 0.0, 0.0, 0.0, 0.0, 0.0, 0.0, 1.666404571751197E9, 0.0, 2022-10-21 19:09:31.751
24.0, -131453.85014460687, -157707.89625738814, -32834.15381123469, -140527.13847483858, 69299.39321272293, -112806.61676008902, 57956.7769714328, -110119.78061434992, 0.012, 0.964, -0.048, 192.0, 0.0, 96.0, 30.0, 32.0, 254.0, 128.0, 0.0, 0.0, 0.0, 1.6664045717512124E9, 0.0, 2022-10-21 19:09:31.751
25.0, -131452.3749294728, -157705.21404805352, -32832.18685772263, -140529.0160213728, 69296.46513419929, -112822.7323678413, 57943.0753520817, -110127.40255920918, 0.012, 0.964, -0.048, 192.0, 0.0, 0.0, 0.0, 0.0, 0.0, 0.0, 0.0, 0.0, 0.0, 1.6664045717512283E9, 0.0, 2022-10-21 19:09:31.751
26.0, -131449.5809614159, -157702.06245208532, -32836.83602056933, -140534.1345708531, 69284.9539858048, -112830.5331266562, 57939.58847994667, -110134.06337905687, 0.012, 0.964, -0.048, 192.0, 0.0, 0.0, 0.0, 0.0, 0.0, 0.0, 0.0, 0.0, 0.0, 1.6664045717512453E9, 0.0, 2022-10-21 19:09:31.751
27.0, -131441.75785085652, -157694.8204868818, -32834.332625190335, -140531.2288440739, 69283.88110207094, -112833.81883309112, 57940.594308447166, -110133.7951581234, 0.012, 0.964, -0.048, 192.0, 0.0, 0.0, 0.0, 0.0, 0.0, 0.0, 0.0, 0.0, 0.0, 1.6664045717512605E9, 0.0, 2022-10-21 19:09:31.751
28.0, -131443.18836250168, -157695.1781147931, -32830.152848977195, -140531.2735475628, 69292.9559103198, -112829.2814289667, 57944.28234628229, -110128.07311154284, 0.012, 0.964, -0.048, 192.0, 0.0, 0.0, 0.0, 0.0, 0.0, 0.0, 0.0, 0.0, 0.0, 1.6664045717512753E9, 0.0, 2022-10-21 19:09:31.751
29.0, -131442.89778982376, -157696.0721845713, -32828.20824720958, -140536.5709109987, 69294.60993940949, -112836.0316557922, 57936.90627061204, -110118.37245444924, 0.012, 0.964, -0.048, 192.0, 0.0, 0.0, 0.0, 0.0, 0.0, 0.0, 0.0, 0.0, 0.0, 1.6664045717513337E9, 0.0, 2022-10-21 19:09:31.751
30.0, -131442.24958923456, -157695.1781147931, -32830.1975524661, -140527.94313763894, 69293.24648299773, -112837.35040871506, 57941.08604682518, -110120.6970358726, 0.012, 0.964, -0.048, 192.0, 0.0, 0.0, 0.0, 0.0, 0.0, 0.0, 0.0, 0.0, 0.0, 1.6664045717513487E9, 0.0, 2022-10-21 19:09:31.751
31.0, -131452.55374342843, -157707.51627773241, -32841.619293882766, -140539.431934289, 69276.88500605643, -112823.80525157515, 57951.501959741356, -110131.98466682252, 0.012, 0.964, -0.048, 192.0, 0.0, 0.0, 0.0, 0.0, 0.0, 0.0, 0.0, 0.0, 0.0, 1.6664045717513635E9, 0.0, 2022-10-21 19:09:31.751
32.0, -131444.39535670227, -157699.13437356168, -32832.92446528965, -140539.18606509996, 69284.64106138243, -112825.43692892039, 57951.79253241927, -110122.61928589575, 0.012, 0.964, -0.048, 192.0, 0.0, 0.0, 0.0, 0.0, 0.0, 0.0, 0.0, 0.0, 0.0, 1.6664045717513783E9, 0.0, 2022-10-21 19:09:31.751
33.0, -131443.63539739078, -157695.89337061567, -32829.21407571007, -140536.9732423989, 69292.7547446197, -112833.50590866875, 57944.081180582194, -110115.57848639232, 0.012, 0.964, -0.048, 192.0, 0.0, 0.0, 0.0, 0.0, 0.0, 0.0, 0.0, 0.0, 0.0, 1.6664045717513933E9, 0.0, 2022-10-21 19:09:31.751
34.0, -131443.09895552386, -157695.60279793772, -32831.56100887788, -140531.0276783738, 69289.29022422913, -112831.6283621345, 57948.39506726206, -110116.67372187064, 0.012, 0.964, -0.048, 192.0, 0.0, 0.0, 29.0, 240.0, 254.0, 96.0, 0.0, 0.0, 0.0, 1.666404571751408E9, 0.0, 2022-10-21 19:09:31.751
35.0, -131443.9706735576, -157696.04983282683, -32834.66790135716, -140529.26189056181, 69287.47973292824, -112831.29308596767, 57954.83236966519, -110116.2937422149, 0.012, 0.964, -0.048, 192.0, 0.0, 0.0, 0.0, 0.0, 0.0, 0.0, 0.0, 0.0, 0.0, 1.666404571751424E9, 0.0, 2022-10-21 19:09:31.751
36.0, -131446.8316968479, -157696.2286467825, -32837.66303511417, -140531.74293419634, 69287.12210501697, -112827.33682719909, 57956.531102243796, -110119.53474516091, 0.012, 0.964, -0.048, 192.0, 0.0, 0.0, 0.0, 0.0, 0.0, 0.0, 0.0, 0.0, 0.0, 1.6664045717514389E9, 0.0, 2022-10-21 19:09:31.751
37.0, -131451.99494981708, -157699.69316717307, -32842.245142727515, -140544.34931806914, 69284.12697125995, -112833.64001913549, 57946.49516898336, -110129.72714063253, 0.012, 0.964, -0.048, 192.0, 0.0, 0.0, 0.0, 0.0, 0.0, 0.0, 0.0, 0.0, 0.0, 1.6664045717514534E9, 0.0, 2022-10-21 19:09:31.751
38.0, -131449.64801664927, -157697.0109578384, -32840.45700317109, -140540.54952151174, 69285.55748290509, -112849.24153676529, 57936.79451188976, -110121.88167832872, 0.012, 0.964, -0.048, 192.0, 0.0, 0.0, 0.0, 0.0, 0.0, 0.0, 0.0, 0.0, 0.0, 1.6664045717514684E9, 0.0, 2022-10-21 19:09:31.751
39.0, -131449.4244992047, -157695.75926014892, -32841.01579678247, -140527.94313763894, 69286.92093931687, -112827.87326906601, 57951.837235908184, -110120.78644285041, 0.012, 0.964, -0.048, 192.0, 0.0, 0.0, 0.0, 0.0, 0.0, 0.0, 0.0, 0.0, 0.0, 1.6664045717514834E9, 0.0, 2022-10-21 19:09:31.751
40.0, -131450.85501084983, -157697.4132892386, -32844.323854961855, -140535.58743424265, 69283.16584624838, -112815.87038229352, 57956.82167492172, -110121.27818122842, 0.012, 0.964, -0.048, 192.0, 0.0, 0.0, 0.0, 0.0, 0.0, 0.0, 0.0, 0.0, 0.0, 1.666404571751498E9, 0.0, 2022-10-21 19:09:31.751
41.0, -131448.4186707042, -157693.50173395892, -32841.9992735385, -140544.75164946934, 69281.78003809214, -112842.44660645087, 57936.593346189664, -110120.42881493912, 0.012, 0.964, -0.048, 192.0, 0.0, 0.0, 0.0, 0.0, 0.0, 0.0, 0.0, 0.0, 0.0, 1.6664045717515128E9, 0.0, 2022-10-21 19:09:31.751
42.0, -131452.15141202824, -157696.89919911613, -32839.2500089705, -140534.64866097554, 69284.43989568233, -112862.20554854936, 57926.17743327349, -110119.91472481666, 0.012, 0.964, -0.048, 192.0, 0.0, 0.0, 0.0, 0.0, 0.0, 0.0, 0.0, 0.0, 0.0, 1.6664045717515345E9, 0.0, 2022-10-21 19:09:31.751
43.0, -131462.16499354423, -157705.45991724252, -32847.8554305858, -140529.6195184731, 69274.13574148843, -112853.89069961199, 57931.4747967094, -110129.74949237698, 0.008, 0.964, -0.044, 192.0, 0.0, 64.0, 30.0, 32.0, 254.0, 160.0, 0.0, 0.0, 0.0, 1.6664045717515495E9, 0.0, 2022-10-21 19:09:31.751
44.0, -131468.31172326943, -157710.26554230042, -32851.4540614431, -140531.05003011823, 69268.25723269669, -112840.25613549426, 57941.287212525276, -110133.97397207904, 0.008, 0.964, -0.044, 192.0, 0.0, 0.0, 0.0, 0.0, 0.0, 0.0, 0.0, 0.0, 0.0, 1.666404571751582E9, 0.0, 2022-10-21 19:09:31.751
45.0, -131465.60716219034, -157705.7728416649, -32845.62025614027, -140539.56604475572, 69274.51572114417, -112850.04619956568, 57935.36400024462, -110128.0954632873, 0.008, 0.964, -0.044, 192.0, 0.0, 0.0, 0.0, 0.0, 0.0, 0.0, 0.0, 0.0, 0.0, 1.666404571751597E9, 0.0, 2022-10-21 19:09:31.751
46.0, -131467.9764471026, -157705.54932422034, -32846.223753240556, -140546.2715680923, 69275.85682581148, -112855.56708044614, 57927.853814107635, -110127.6931318871, 0.008, 0.964, -0.044, 192.0, 0.0, 0.0, 0.0, 0.0, 0.0, 0.0, 0.0, 0.0, 0.0, 1.6664045717516117E9, 0.0, 2022-10-21 19:09:31.751
47.0, -131465.11542381233, -157702.9341701191, -32839.54058164842, -140533.55342549723, 69279.67897411334, -112849.82268212113, 57931.564203687216, -110130.59885866629, 0.008, 0.964, -0.044, 192.0, 0.0, 0.0, 0.0, 0.0, 0.0, 0.0, 0.0, 0.0, 0.0, 1.6664045717516284E9, 0.0, 2022-10-21 19:09:31.751
48.0, -131468.02115059152, -157704.2752747864, -32841.619293882766, -140533.39696328604, 69276.90735780088, -112829.19202198889, 57945.690506182975, -110134.28689650142, 0.008, 0.964, -0.044, 192.0, 0.0, 0.0, 0.0, 0.0, 0.0, 0.0, 0.0, 0.0, 0.0, 1.6664045717516432E9, 0.0, 2022-10-21 19:09:31.751
49.0, -131464.8919063678, -157698.44146948357, -32837.73009034754, -140545.39985005854, 69276.63913686742, -112840.18908026088, 57939.052038079746, -110125.68147488612, 0.008, 0.964, -0.044, 192.0, 0.0, 0.0, 0.0, 0.0, 0.0, 0.0, 0.0, 0.0, 0.0, 1.6664045717516575E9, 0.0, 2022-10-21 19:09:31.751
50.0, -131462.34380749988, -157698.70969041702, -32833.863238556776, -140540.9742046564, 69285.42337243837, -112858.45045548088, 57926.08802629567, -110117.67955037112, 0.008, 0.964, -0.044, 192.0, 0.0, 0.0, 0.0, 0.0, 0.0, 0.0, 0.0, 0.0, 0.0, 1.6664045717516725E9, 0.0, 2022-10-21 19:09:31.751
51.0, -131467.75292965805, -157701.63776894068, -32836.21017172458, -140532.23467257438, 69287.77030560617, -112845.26292625224, 57933.21823277691, -110115.57848639232, 0.008, 0.964, -0.044, 192.0, 0.0, 0.0, 0.0, 0.0, 0.0, 0.0, 0.0, 0.0, 0.0, 1.666404571751687E9, 0.0, 2022-10-21 19:09:31.751
52.0, -131477.92297338523, -157711.49488824545, -32843.854468328296, -140534.40279178653, 69283.9034538154, -112818.06085325014, 57946.91985212801, -110126.01675105296, 0.008, 0.964, -0.044, 192.0, 0.0, 0.0, 0.0, 0.0, 0.0, 0.0, 0.0, 0.0, 0.0, 1.6664045717517016E9, 0.0, 2022-10-21 19:09:31.751
53.0, -131477.14066232927, -157710.55611497833, -32840.88168631574, -140542.51647502382, 69282.27177647017, -112822.5312021412, 57941.153102058546, -110129.63773365472, 0.018000000000000002, 0.9580000000000001, -0.046, 192.0, 0.0, 144.0, 29.0, 240.0, 254.0, 144.0, 0.0, 0.0, 0.0, 1.6664045717517164E9, 0.0, 2022-10-21 19:09:31.751
54.0, -131481.25338330906, -157713.14891733514, -32844.949703806604, -140540.61657674512, 69281.64592762542, -112852.30372575567, 57919.56131691472, -110137.63965816972, 0.018000000000000002, 0.9580000000000001, -0.046, 192.0, 0.0, 0.0, 0.0, 0.0, 0.0, 0.0, 0.0, 0.0, 0.0, 1.666404571751732E9, 0.0, 2022-10-21 19:09:31.751
55.0, -131497.81602595045, -157730.20329835455, -32857.1537562792, -140552.68651875097, 69266.33498267354, -112856.34939150208, 57915.09096802366, -110150.87189088725, 0.018000000000000002, 0.9580000000000001, -0.046, 192.0, 0.0, 0.0, 0.0, 0.0, 0.0, 0.0, 0.0, 0.0, 0.0, 1.666404571751747E9, 0.0, 2022-10-21 19:09:31.751
56.0, -131491.31166831395, -157722.15667035064, -32841.79810783841, -140535.4756755204, 69276.92970954535, -112856.55055720218, 57925.685694895474, -110135.78446337993, 0.018000000000000002, 0.9580000000000001, -0.046, 192.0, 0.0, 0.0, 0.0, 0.0, 0.0, 0.0, 0.0, 0.0, 0.0, 1.6664045717517617E9, 0.0, 2022-10-21 19:09:31.751
57.0, -131494.86559568235, -157733.10902513374, -32839.428822926144, -140534.04516387524, 69283.16584624838, -112851.14143504399, 57929.75371238634, -110130.19652726609, 0.018000000000000002, 0.9580000000000001, -0.046, 192.0, 0.0, 0.0, 0.0, 0.0, 0.0, 0.0, 0.0, 0.0, 0.0, 1.6664045717517765E9, 0.0, 2022-10-21 19:09:31.751
58.0, -131505.66148825426, -157748.84465323028, -32845.1508695067, -140548.50674253784, 69277.19793047881, -112868.59814746359, 57910.2182877324, -110138.15374829218, 0.018000000000000002, 0.9580000000000001, -0.046, 192.0, 0.0, 0.0, 0.0, 0.0, 0.0, 0.0, 0.0, 0.0, 0.0, 1.666404571751791E9, 0.0, 2022-10-21 19:09:31.751
59.0, -131515.51860755906, -157755.14784516668, -32843.4521369281, -140534.2239778309, 69284.41754393787, -112861.80321714916, 57915.02391279029, -110133.32577148984, 0.018000000000000002, 0.9580000000000001, -0.046, 192.0, 0.0, 0.0, 0.0, 0.0, 0.0, 0.0, 0.0, 0.0, 0.0, 1.6664045717518194E9, 0.0, 2022-10-21 19:09:31.751
60.0, -131529.42139261024, -157771.21874943003, -32847.09547127432, -140528.99366962834, 69282.76351484818, -112834.95877205835, 57935.408703733534, -110134.75628313498, 0.018000000000000002, 0.9580000000000001, -0.046, 192.0, 0.0, 0.0, 0.0, 0.0, 0.0, 0.0, 0.0, 0.0, 0.0, 1.666404571751835E9, 0.0, 2022-10-21 19:09:31.751
61.0, -131539.7031950597, -157788.36253742725, -32853.01868355497, -140540.84009418965, 69276.01328802267, -112832.81300459064, 57936.79451188976, -110136.41031222467, 0.018000000000000002, 0.9580000000000001, -0.046, 192.0, 0.0, 0.0, 0.0, 0.0, 0.0, 0.0, 0.0, 0.0, 0.0, 1.6664045717518501E9, 0.0, 2022-10-21 19:09:31.751
62.0, -131554.36593942237, -157805.90865682467, -32861.959381337096, -140556.88864670857, 69267.40786640739, -112860.21624329285, 57915.51565116831, -110143.02642858344, 0.018000000000000002, 0.9580000000000001, -0.046, 192.0, 0.0, 0.0, 0.0, 0.0, 0.0, 0.0, 0.0, 0.0, 0.0, 1.6664045717518654E9, 0.0, 2022-10-21 19:09:31.751
63.0, -131569.11809076287, -157823.0524448219, -32859.41128246919, -140553.35707108464, 69268.57015711906, -112876.91299640096, 57907.82665107568, -110140.25481227098, 0.016, 0.9560000000000001, -0.048, 192.0, 0.0, 128.0, 29.0, 224.0, 254.0, 128.0, 0.0, 0.0, 0.0, 1.6664045717518804E9, 0.0, 2022-10-21 19:09:31.751
64.0, -131586.6642101603, -157844.37600903228, -32858.181936524146, -140542.94115816845, 69271.43118040934, -112865.46890323985, 57921.349456471144, -110136.41031222467, 0.016, 0.9560000000000001, -0.048, 192.0, 0.0, 0.0, 0.0, 0.0, 0.0, 0.0, 0.0, 0.0, 0.0, 1.6664045717518988E9, 0.0, 2022-10-21 19:09:31.751
65.0, -131597.92948936578, -157861.05041039592, -32858.874840602264, -140544.3269663247, 69272.43700890982, -112854.94123160139, 57929.75371238634, -110134.10808254578, 0.016, 0.9560000000000001, -0.048, 192.0, 0.0, 0.0, 0.0, 0.0, 0.0, 0.0, 0.0, 0.0, 0.0, 1.666404571751914E9, 0.0, 2022-10-21 19:09:31.751
66.0, -131606.1102278364, -157869.78994247795, -32858.8524888578, -140546.51743728132, 69275.40979092238, -112869.0898858416, 57920.27657273729, -110129.81654761036, 0.016, 0.9560000000000001, -0.048, 192.0, 0.0, 0.0, 0.0, 0.0, 0.0, 0.0, 0.0, 0.0, 0.0, 1.6664045717519288E9, 0.0, 2022-10-21 19:09:31.751
67.0, -131623.18696060026, -157885.43616359666, -32867.547317450924, -140545.46690529192, 69273.04050601012, -112873.00144112128, 57915.51565116831, -110132.49875694499, 0.016, 0.9560000000000001, -0.048, 192.0, 0.0, 0.0, 0.0, 0.0, 0.0, 0.0, 0.0, 0.0, 0.0, 1.666404571751944E9, 0.0, 2022-10-21 19:09:31.751
68.0, -131656.89339123887, -157923.94821929315, -32891.307221806914, -140565.35995785714, 69247.8947934979, -112872.06266785416, 57910.866488321604, -110156.12455083425, 0.016, 0.9560000000000001, -0.048, 192.0, 0.0, 0.0, 0.0, 0.0, 0.0, 0.0, 0.0, 0.0, 0.0, 1.6664045717519588E9, 0.0, 2022-10-21 19:09:31.751
69.0, -131664.7835570316, -157935.43701594317, -32885.24989905953, -140556.32985309718, 69255.6955523128, -112859.88096712601, 57924.61281116162, -110146.46859722956, 0.016, 0.9560000000000001, -0.048, 192.0, 0.0, 0.0, 0.0, 0.0, 0.0, 0.0, 0.0, 0.0, 0.0, 1.666404571751975E9, 0.0, 2022-10-21 19:09:31.751
70.0, -131669.5891820895, -157940.98024856808, -32876.53271872195, -140557.69330950896, 69261.596412849, -112853.44366472289, 57927.4738344519, -110139.22663202604, 0.016, 0.9560000000000001, -0.048, 192.0, 0.0, 0.0, 0.0, 0.0, 0.0, 0.0, 0.0, 0.0, 0.0, 1.66640457175199E9, 0.0, 2022-10-21 19:09:31.751
71.0, -131672.69607456875, -157943.81892011393, -32870.02836108546, -140557.6262542756, 69262.1999099493, -112875.7954091782, 57912.16288950001, -110137.55025119189, 0.016, 0.9560000000000001, -0.048, 192.0, 0.0, 0.0, 0.0, 0.0, 0.0, 0.0, 0.0, 0.0, 0.0, 1.666404571752005E9, 0.0, 2022-10-21 19:09:31.752
72.0, -131688.45405440975, -157955.84415863088, -32874.47635823207, -140545.39985005854, 69265.5526716176, -112866.96647011835, 57918.644895392055, -110138.22080352555, 0.016, 0.9540000000000001, -0.05, 192.0, 0.0, 128.0, 29.0, 208.0, 254.0, 112.0, 0.0, 0.0, 0.0, 1.66640457175202E9, 0.0, 2022-10-21 19:09:31.752
73.0, -131694.17610099033, -157957.69935342067, -32874.811634398895, -140546.40567855904, 69263.2504419387, -112840.77022561672, 57940.39314274707, -110133.81750986786, 0.016, 0.9540000000000001, -0.05, 192.0, 0.0, 0.0, 0.0, 0.0, 0.0, 0.0, 0.0, 0.0, 0.0, 1.666404571752037E9, 0.0, 2022-10-21 19:09:31.752
74.0, -131688.47640615422, -157954.279536519, -32868.396683740226, -140553.17825712898, 69266.51379662917, -112853.66718216744, 57935.56516594472, -110128.85542259878, 0.016, 0.9540000000000001, -0.05, 192.0, 0.0, 0.0, 0.0, 0.0, 0.0, 0.0, 0.0, 0.0, 0.0, 1.666404571752066E9, 0.0, 2022-10-21 19:09:31.752
75.0, -131698.84761558147, -157966.37183026932, -32874.92339312117, -140556.68748100847, 69264.01040125018, -112870.31923178665, 57921.1706425155, -110134.08573080132, 0.016, 0.9540000000000001, -0.05, 192.0, 0.0, 0.0, 0.0, 0.0, 0.0, 0.0, 0.0, 0.0, 0.0, 1.666404571752081E9, 0.0, 2022-10-21 19:09:31.752
76.0, -131706.1789877628, -157978.55353099748, -32877.02445709997, -140551.27835885028, 69257.1931191913, -112867.7934846632, 57920.47773843739, -110142.06530357186, 0.016, 0.9540000000000001, -0.05, 192.0, 0.0, 0.0, 0.0, 0.0, 0.0, 0.0, 0.0, 0.0, 0.0, 1.6664045717520957E9, 0.0, 2022-10-21 19:09:31.752
77.0, -131709.79997036458, -157982.4874380216, -32874.49870997652, -140530.9159196515, 69265.46326463977, -112850.42617922142, 57938.24737527936, -110139.07016981485, 0.016, 0.9540000000000001, -0.05, 192.0, 0.0, 0.0, 0.0, 0.0, 0.0, 0.0, 0.0, 0.0, 0.0, 1.6664045717521105E9, 0.0, 2022-10-21 19:09:31.752
78.0, -131727.97193860673, -157998.4912870516, -32889.429675272666, -140554.49701005185, 69250.71111329927, -112847.76632163124, 57932.14534904306, -110156.39277176771, 0.016, 0.9540000000000001, -0.05, 192.0, 0.0, 0.0, 0.0, 0.0, 0.0, 0.0, 0.0, 0.0, 0.0, 1.6664045717521255E9, 0.0, 2022-10-21 19:09:31.752
79.0, -131732.844618898, -158002.84987722037, -32888.62501247228, -140567.34926311366, 69250.88992725492, -112877.53884524571, 57911.000598788334, -110153.1964723106, 0.016, 0.9540000000000001, -0.05, 192.0, 0.0, 0.0, 0.0, 0.0, 0.0, 0.0, 0.0, 0.0, 0.0, 1.66640457175214E9, 0.0, 2022-10-21 19:09:31.752
80.0, -131737.31496778905, -158008.92955171224, -32889.139102594745, -140558.72148975392, 69253.25921216718, -112893.00625240878, 57902.03754926176, -110149.53078621994, 0.016, 0.9540000000000001, -0.05, 192.0, 0.0, 0.0, 0.0, 0.0, 0.0, 0.0, 0.0, 0.0, 0.0, 1.6664045717521548E9, 0.0, 2022-10-21 19:09:31.752
81.0, -131750.5024970177, -158023.86051700838, -32900.02440214448, -140554.38525132957, 69247.67127605334, -112870.58745272011, 57914.84509883465, -110157.1527310792, 0.016, 0.9540000000000001, -0.05, 192.0, 0.0, 0.0, 0.0, 0.0, 0.0, 0.0, 0.0, 0.0, 0.0, 1.6664045717521696E9, 0.0, 2022-10-21 19:09:31.752
82.0, -131751.84360168502, -158022.72057804116, -32897.31984106539, -140556.95570194194, 69249.68293305433, -112847.96748733133, 57930.446616464455, -110150.67072518716, 0.02, 0.96, -0.05, 192.0, 0.0, 160.0, 30.0, 0.0, 254.0, 112.0, 0.0, 0.0, 0.0, 1.6664045717521844E9, 0.0, 2022-10-21 19:09:31.752
83.0, -131748.53554350563, -158021.4465286072, -32893.85532067482, -140565.00232994586, 69247.38070337543, -112863.36783926105, 57918.93546806997, -110148.27908853044, 0.02, 0.96, -0.05, 192.0, 0.0, 0.0, 0.0, 0.0, 0.0, 0.0, 0.0, 0.0, 0.0, 1.6664045717522E9, 0.0, 2022-10-21 19:09:31.752
84.0, -131745.47335451524, -158017.93730472773, -32890.01082062851, -140556.73218449738, 69249.95115398779, -112873.91786264395, 57916.27561047979, -110143.62992568374, 0.02, 0.96, -0.05, 192.0, 0.0, 0.0, 0.0, 0.0, 0.0, 0.0, 0.0, 0.0, 0.0, 1.666404571752215E9, 0.0, 2022-10-21 19:09:31.752
85.0, -131748.1555638499, -158019.1442989283, -32891.62014622929, -140549.3784605716, 69247.73833128672, -112871.61563296505, 57922.55645067173, -110142.60174543879, 0.02, 0.96, -0.05, 192.0, 0.0, 0.0, 0.0, 0.0, 0.0, 0.0, 0.0, 0.0, 0.0, 1.6664045717522297E9, 0.0, 2022-10-21 19:09:31.752
86.0, -131758.77264246615, -158032.4435868792, -32899.33149806637, -140554.22878911838, 69243.46914809576, -112865.67006893994, 57923.89755533905, -110154.51522523347, 0.02, 0.96, -0.05, 192.0, 0.0, 0.0, 0.0, 0.0, 0.0, 0.0, 0.0, 0.0, 0.0, 1.6664045717522445E9, 0.0, 2022-10-21 19:09:31.752
87.0, -131759.80082271108, -158033.98585724662, -32894.43646603065, -140557.35803334214, 69247.73833128672, -112876.22009232285, 57915.02391279029, -110149.70960017559, 0.02, 0.96, -0.05, 192.0, 0.0, 0.0, 0.0, 0.0, 0.0, 0.0, 0.0, 0.0, 0.0, 1.6664045717522593E9, 0.0, 2022-10-21 19:09:31.752
88.0, -131766.08166290305, -158039.797310805, -32898.77270445498, -140551.59128327266, 69246.06195045257, -112887.50772327278, 57906.418491175, -110153.26352754397, 0.02, 0.96, -0.05, 192.0, 0.0, 0.0, 0.0, 0.0, 0.0, 0.0, 0.0, 0.0, 0.0, 1.666404571752274E9, 0.0, 2022-10-21 19:09:31.752
89.0, -131768.92033444886, -158044.98291551863, -32904.42769580218, -140558.31915835373, 69236.24953463669, -112889.40762155148, 57906.30673245272, -110160.93017589215, 0.02, 0.96, -0.05, 192.0, 0.0, 0.0, 0.0, 0.0, 0.0, 0.0, 0.0, 0.0, 0.0, 1.6664045717523026E9, 0.0, 2022-10-21 19:09:31.752
90.0, -131765.12053789146, -158040.49021488312, -32901.07493413388, -140557.06746066423, 69238.3953021044, -112885.16079010497, 57909.27951446528, -110159.56671948037, 0.02, 0.96, -0.05, 192.0, 0.0, 0.0, 0.0, 0.0, 0.0, 0.0, 0.0, 0.0, 0.0, 1.666404571752319E9, 0.0, 2022-10-21 19:09:31.752
91.0, -131769.81440422707, -158044.6476393518, -32900.404381800225, -140562.14130665557, 69242.95505797327, -112884.17731334893, 57904.33977894065, -110149.97782110905, 0.02, 0.96, -0.05, 192.0, 0.0, 0.0, 0.0, 0.0, 0.0, 0.0, 0.0, 0.0, 0.0, 1.6664045717523308E9, 0.0, 2022-10-21 19:09:31.752
92.0, -131774.3518083515, -158044.1111974849, -32896.22460558708, -140556.01692867483, 69249.66058130987, -112881.96449064786, 57904.67505510749, -110144.83691988433, 0.018000000000000002, 0.964, -0.054, 192.0, 0.0, 144.0, 30.0, 32.0, 254.0, 80.0, 0.0, 0.0, 0.0, 1.6664045717523425E9, 0.0, 2022-10-21 19:09:31.752
93.0, -131785.68414279036, -158053.1636539893, -32905.09824813584, -140552.06066990623, 69242.79859576208, -112863.68076368341, 57918.86841283661, -110153.66585894416, 0.018000000000000002, 0.964, -0.054, 192.0, 0.0, 0.0, 0.0, 0.0, 0.0, 0.0, 0.0, 0.0, 0.0, 1.6664045717523549E9, 0.0, 2022-10-21 19:09:31.752
94.0, -131784.76772126768, -158052.02371502208, -32908.69687899314, -140557.04510891976, 69239.19996490478, -112855.00828683475, 57927.675000152, -110157.71152469057, 0.018000000000000002, 0.964, -0.054, 192.0, 0.0, 0.0, 0.0, 0.0, 0.0, 0.0, 0.0, 0.0, 0.0, 1.6664045717523668E9, 0.0, 2022-10-21 19:09:31.752
95.0, -131782.2419741442, -158048.29097369802, -32905.724096980586, -140560.26376012134, 69244.02794170713, -112860.93149911541, 57921.438863448966, -110156.68334444563, 0.018000000000000002, 0.964, -0.054, 192.0, 0.0, 0.0, 0.0, 0.0, 0.0, 0.0, 0.0, 0.0, 0.0, 1.6664045717523785E9, 0.0, 2022-10-21 19:09:31.752
96.0, -131780.2079653988, -158047.553366131, -32899.93499516666, -140559.39204208757, 69247.85009000899, -112883.99849939329, 57908.3183894537, -110149.1955100531, 0.018000000000000002, 0.964, -0.054, 192.0, 0.0, 0.0, 0.0, 0.0, 0.0, 0.0, 0.0, 0.0, 0.0, 1.66640457175239E9, 0.0, 2022-10-21 19:09:31.752
97.0, -131784.9018317344, -158052.9177848003, -32904.47239929109, -140554.18408562947, 69244.22910740723, -112875.61659522256, 57917.14732851354, -110150.87189088725, 0.018000000000000002, 0.964, -0.054, 192.0, 0.0, 0.0, 0.0, 0.0, 0.0, 0.0, 0.0, 0.0, 0.0, 1.6664045717524016E9, 0.0, 2022-10-21 19:09:31.752
98.0, -131784.7453695232, -158053.23070922264, -32900.78436145596, -140551.7253937394, 69248.63240106493, -112862.02673459373, 57932.03359032078, -110139.76307389297, 0.018000000000000002, 0.964, -0.054, 192.0, 0.0, 0.0, 0.0, 0.0, 0.0, 0.0, 0.0, 0.0, 0.0, 1.6664045717524135E9, 0.0, 2022-10-21 19:09:31.752
99.0, -131785.5947358125, -158053.99066853413, -32900.22556784458, -140556.86629496413, 69249.63822956542, -112875.66129871146, 57924.925735583995, -110137.17027153615, 0.018000000000000002, 0.964, -0.054, 192.0, 0.0, 0.0, 0.0, 0.0, 0.0, 0.0, 0.0, 0.0, 0.0, 1.6664045717524252E9, 0.0, 2022-10-21 19:09:31.752
100.0, -131789.37218062548, -158057.03050578004, -32905.27706209148, -140563.46005957844, 69247.62657256443, -112878.81289467966, 57917.236735491366, -110151.11776007626, 0.018000000000000002, 0.964, -0.054, 192.0, 0.0, 0.0, 0.0, 0.0, 0.0, 0.0, 0.0, 0.0, 0.0, 1.6664045717524369E9, 0.0, 2022-10-21 19:09:31.752
101.0, -131783.42661660037, -158052.6495638668, -32900.78436145596, -140554.56406528523, 69251.60518307748, -112855.7905978907, 57933.70997115493, -110141.68532391613, 0.018000000000000002, 0.964, -0.054, 192.0, 0.0, 0.0, 0.0, 0.0, 0.0, 0.0, 0.0, 0.0, 0.0, 1.6664045717524488E9, 0.0, 2022-10-21 19:09:31.752
102.0, -131786.08647419055, -158058.03633428054, -32901.521969022986, -140552.99944317335, 69251.64988656639, -112849.12977804302, 57940.39314274707, -110140.50068145999, 0.016, 0.962, -0.056, 192.0, 0.0, 128.0, 30.0, 16.0, 254.0, 64.0, 0.0, 0.0, 0.0, 1.6664045717524605E9, 0.0, 2022-10-21 19:09:31.752
103.0, -131788.43340735836, -158061.52320641556, -32899.622070744284, -140559.25793162084, 69254.55561334558, -112855.6341356795, 57937.04038107877, -110143.18289079463, 0.016, 0.962, -0.056, 192.0, 0.0, 0.0, 0.0, 0.0, 0.0, 0.0, 0.0, 0.0, 0.0, 1.6664045717524729E9, 0.0, 2022-10-21 19:09:31.752
104.0, -131784.99123871222, -158058.55042440302, -32895.442294531145, -140555.90516995254, 69260.03179073714, -112861.80321714916, 57930.021933319804, -110144.41223673968, 0.016, 0.962, -0.056, 192.0, 0.0, 0.0, 0.0, 0.0, 0.0, 0.0, 0.0, 0.0, 0.0, 1.666404571752519E9, 0.0, 2022-10-21 19:09:31.752
105.0, -131788.5004625917, -158064.8089128505, -32902.907777179214, -140558.74384149836, 69248.47593885373, -112872.77792367672, 57917.28143898028, -110151.83301589884, 0.016, 0.962, -0.056, 192.0, 0.0, 0.0, 0.0, 0.0, 0.0, 0.0, 0.0, 0.0, 0.0, 1.6664045717525349E9, 0.0, 2022-10-21 19:09:31.752
1.0, -131841.13882078396, -158187.00589978768, -32951.45576613615, -140584.06836796622, 69227.71116825475, -112984.46959071989, 57910.30769471022, -110199.28576937746, 0.016, 0.962, -0.056, 192.0, 0.0, 0.0, 0.0, 0.0, 0.0, 0.0, 0.0, 0.0, 0.0, 1.6664045723144276E9, 0.0, 2022-10-21 19:09:32.314
2.0, -131843.8210301186, -158188.347004455, -32956.99899876106, -140591.06446398073, 69228.38172058841, -112983.97785234188, 57909.63714237656, -110207.1088799368, 0.016, 0.962, -0.056, 192.0, 0.0, 0.0, 0.0, 0.0, 0.0, 0.0, 0.0, 0.0, 0.0, 1.6664045723146431E9, 0.0, 2022-10-21 19:09:32.314
3.0, -131837.62959690447, -158181.35090844048, -32957.580144116895, -140603.96142053144, 69218.47989779472, -112998.171210071, 57892.38159565707, -110211.1098421943, 0.016, 0.962, -0.056, 192.0, 0.0, 0.0, 0.0, 0.0, 0.0, 0.0, 0.0, 0.0, 0.0, 1.6664045723146722E9, 0.0, 2022-10-21 19:09:32.314
4.0, -131830.5664456566, -158177.41700141632, -32952.26042893653, -140598.37348441762, 69214.14365937038, -113005.88256190807, 57884.446726375434, -110210.12636543828, 0.016, 0.962, -0.056, 192.0, 0.0, 0.0, 0.0, 0.0, 0.0, 0.0, 0.0, 0.0, 0.0, 1.6664045723146966E9, 0.0, 2022-10-21 19:09:32.314
5.0, -131834.7685736142, -158183.6307863749, -32948.05830097894, -140585.0294929778, 69218.39049081689, -112988.24703553284, 57903.60217137363, -110205.99129271404, 0.016, 0.962, -0.056, 192.0, 0.0, 0.0, 0.0, 0.0, 0.0, 0.0, 0.0, 0.0, 0.0, 1.666404572314721E9, 0.0, 2022-10-21 19:09:32.314
6.0, -131840.89295159496, -158188.41405968834, -32948.90766726824, -140588.24814417938, 69217.04938614958, -112986.12361980959, 57908.25133422033, -110207.86883924829, 0.016, 0.962, -0.056, 192.0, 0.0, 0.0, 0.0, 0.0, 0.0, 0.0, 0.0, 0.0, 0.0, 1.666404572314769E9, 0.0, 2022-10-21 19:09:32.314
7.0, -131848.60430343205, -158195.43250744732, -32959.547097628965, -140608.96821128944, 69208.51101976765, -112996.85245714814, 57896.471964892386, -110214.08262420686, 0.006, 0.96, -0.058, 192.0, 0.0, 48.0, 30.0, 0.0, 254.0, 48.0, 0.0, 0.0, 0.0, 1.666404572314794E9, 0.0, 2022-10-21 19:09:32.314
8.0, -131838.94834982735, -158183.67548986382, -32952.66276033673, -140601.5474321303, 69212.13200236941, -113011.44814627746, 57889.140592711046, -110201.54329556743, 0.006, 0.96, -0.058, 192.0, 0.0, 0.0, 0.0, 0.0, 0.0, 0.0, 0.0, 0.0, 0.0, 1.6664045723148203E9, 0.0, 2022-10-21 19:09:32.314
9.0, -131835.17090501438, -158180.12156249542, -32953.91445802623, -140592.15969945904, 69211.10382212447, -113005.9719688859, 57898.774194571284, -110205.72307178058, 0.006, 0.96, -0.058, 192.0, 0.0, 0.0, 0.0, 0.0, 0.0, 0.0, 0.0, 0.0, 0.0, 1.666404572314844E9, 0.0, 2022-10-21 19:09:32.314
10.0, -131840.89295159496, -158187.31882421003, -32962.65399010825, -140599.1334437291, 69208.66748197883, -112987.64353843255, 57906.55260164173, -110215.759005041, 0.006, 0.96, -0.058, 192.0, 0.0, 0.0, 0.0, 0.0, 0.0, 0.0, 0.0, 0.0, 0.0, 1.6664045723148696E9, 0.0, 2022-10-21 19:09:32.314
11.0, -131837.78605911566, -158182.75906834117, -32959.547097628965, -140604.184937976, 69209.71801396823, -112997.85828564863, 57896.49431663684, -110211.3110078944, 0.006, 0.96, -0.058, 192.0, 0.0, 0.0, 0.0, 0.0, 0.0, 0.0, 0.0, 0.0, 0.0, 1.666404572314895E9, 0.0, 2022-10-21 19:09:32.314
12.0, -131835.95321607034, -158180.590949129, -32956.686074338686, -140597.45706289494, 69216.11061288245, -113006.6201694751, 57893.92386602448, -110206.55008632543, 0.006, 0.96, -0.058, 192.0, 0.0, 0.0, 0.0, 0.0, 0.0, 0.0, 0.0, 0.0, 0.0, 1.6664045723149185E9, 0.0, 2022-10-21 19:09:32.314
13.0, -131833.85215209154, -158179.31689969503, -32953.601533603854, -140591.7350163144, 69217.96580767224, -112988.60466344413, 57910.19593598795, -110207.53356308145, 0.006, 0.96, -0.058, 192.0, 0.0, 0.0, 0.0, 0.0, 0.0, 0.0, 0.0, 0.0, 0.0, 1.666404572314942E9, 0.0, 2022-10-21 19:09:32.314
14.0, -131838.38955621596, -158183.9437107973, -32958.630676106295, -140601.52508038582, 69212.24376109168, -112982.70380290793, 57913.951029056436, -110212.3168363949, 0.006, 0.96, -0.058, 192.0, 0.0, 0.0, 0.0, 0.0, 0.0, 0.0, 0.0, 0.0, 0.0, 1.666404572315054E9, 0.0, 2022-10-21 19:09:32.315
15.0, -131830.07470727857, -158176.075896749, -32954.98734176008, -140616.97013580444, 69211.23793259119, -113013.66096897853, 57893.052147990726, -110211.08749044985, 0.006, 0.96, -0.058, 192.0, 0.0, 0.0, 0.0, 0.0, 0.0, 0.0, 0.0, 0.0, 0.0, 1.666404572315078E9, 0.0, 2022-10-21 19:09:32.315
16.0, -131831.14759101244, -158178.19931247228, -32952.19337370317, -140613.14798750257, 69218.03286290562, -113017.32665506919, 57889.3641101556, -110208.00294971502, 0.006, 0.96, -0.058, 192.0, 0.0, 0.0, 0.0, 0.0, 0.0, 0.0, 0.0, 0.0, 0.0, 1.666404572315102E9, 0.0, 2022-10-21 19:09:32.315
17.0, -131836.82493410408, -158184.50250440868, -32951.366359158324, -140608.00708627785, 69214.16601111484, -113010.33055905468, 57892.98509275736, -110208.7629090265, 0.006, 0.96, -0.056, 192.0, 0.0, 48.0, 30.0, 0.0, 254.0, 64.0, 0.0, 0.0, 0.0, 1.666404572315126E9, 0.0, 2022-10-21 19:09:32.315
18.0, -131831.19229450135, -158177.2828909496, -32945.04081547747, -140599.22285070692, 69221.45267980728, -112994.8184484027, 57908.7207208539, -110202.19149615664, 0.006, 0.96, -0.056, 192.0, 0.0, 0.0, 0.0, 0.0, 0.0, 0.0, 0.0, 0.0, 0.0, 1.6664045723151507E9, 0.0, 2022-10-21 19:09:32.315
19.0, -131829.78413460066, -158173.05841124756, -32943.94557999916, -140606.12953974362, 69222.86083970795, -113002.9768351289, 57904.9656277854, -110199.9116182222, 0.006, 0.96, -0.056, 192.0, 0.0, 0.0, 0.0, 0.0, 0.0, 0.0, 0.0, 0.0, 0.0, 1.666404572315174E9, 0.0, 2022-10-21 19:09:32.315
20.0, -131834.03096604717, -158177.5287601386, -32947.164231200724, -140606.8000920773, 69222.12323214093, -113001.7251374394, 57901.165831228005, -110202.32560662337, 0.006, 0.96, -0.056, 192.0, 0.0, 0.0, 0.0, 0.0, 0.0, 0.0, 0.0, 0.0, 0.0, 1.6664045723151984E9, 0.0, 2022-10-21 19:09:32.315
21.0, -131838.99305331626, -158182.5355508966, -32949.533516112984, -140599.75929257384, 69217.65288324987, -113000.09346009415, 57900.115299238605, -110203.06321419039, 0.006, 0.96, -0.056, 192.0, 0.0, 0.0, 0.0, 0.0, 0.0, 0.0, 0.0, 0.0, 0.0, 1.6664045723152225E9, 0.0, 2022-10-21 19:09:32.315
22.0, -131847.33025399808, -158190.76099285614, -32954.00386500405, -140600.94393503, 69214.03190064811, -112987.68824192147, 57905.09973825214, -110206.48303109207, 0.006, 0.96, -0.056, 192.0, 0.0, 0.0, 0.0, 0.0, 0.0, 0.0, 0.0, 0.0, 0.0, 1.6664045723152473E9, 0.0, 2022-10-21 19:09:32.315
23.0, -131847.8219923761, -158190.11279226694, -32951.81339404743, -140604.72137984293, 69218.12226988343, -112991.04100358975, 57902.350473684135, -110206.23716190305, 0.006, 0.96, -0.056, 192.0, 0.0, 0.0, 0.0, 0.0, 0.0, 0.0, 0.0, 0.0, 0.0, 1.666404572315271E9, 0.0, 2022-10-21 19:09:32.315
24.0, -131842.88225685147, -158182.20027472978, -32949.757033557544, -140602.1509292306, 69225.20777287576, -113004.85438166314, 57892.78392705726, -110201.02920544497, 0.006, 0.96, -0.056, 192.0, 0.0, 0.0, 0.0, 0.0, 0.0, 0.0, 0.0, 0.0, 0.0, 1.666404572315292E9, 0.0, 2022-10-21 19:09:32.315
25.0, -131841.89878009545, -158181.14974274038, -32946.38192014479, -140589.45513837997, 69230.5945432895, -113001.38986127256, 57901.05407250572, -110197.87760947677, 0.006, 0.96, -0.056, 192.0, 0.0, 0.0, 0.0, 0.0, 0.0, 0.0, 0.0, 0.0, 0.0, 1.666404572315307E9, 0.0, 2022-10-21 19:09:32.315
26.0, -131843.59751267405, -158182.9378822968, -32943.58795208787, -140583.80014703277, 69231.06392992305, -112983.66492791951, 57918.220212247405, -110199.28576937746, 0.006, 0.96, -0.056, 192.0, 0.0, 0.0, 0.0, 0.0, 0.0, 0.0, 0.0, 0.0, 0.0, 1.6664045723153224E9, 0.0, 2022-10-21 19:09:32.315
27.0, -131851.80060288915, -158191.1856760008, -32948.773556801505, -140596.5406413723, 69225.25247636468, -112967.97400331189, 57924.7692733728, -110204.98546421355, 0.012, 0.9560000000000001, -0.052000000000000005, 192.0, 0.0, 96.0, 29.0, 224.0, 254.0, 96.0, 0.0, 0.0, 0.0, 1.6664045723153377E9, 0.0, 2022-10-21 19:09:32.315
28.0, -131850.50420171075, -158186.4471061763, -32948.5276876125, -140608.02943802232, 69218.2340286057, -112987.77764889928, 57909.23481097637, -110202.79499325693, 0.012, 0.9560000000000001, -0.052000000000000005, 192.0, 0.0, 0.0, 0.0, 0.0, 0.0, 0.0, 0.0, 0.0, 0.0, 1.6664045723153565E9, 0.0, 2022-10-21 19:09:32.315
29.0, -131849.0736900656, -158186.581216643, -32944.88435326629, -140598.3287809287, 69219.73159548422, -113004.78732642977, 57902.88691555106, -110197.72114726558, 0.012, 0.9560000000000001, -0.052000000000000005, 192.0, 0.0, 0.0, 0.0, 0.0, 0.0, 0.0, 0.0, 0.0, 0.0, 1.6664045723153937E9, 0.0, 2022-10-21 19:09:32.315
30.0, -131864.16111757292, -158200.6404639054, -32954.94263827117, -140606.55422288826, 69207.01345288915, -113003.80384967374, 57908.161927242516, -110209.32170263788, 0.012, 0.9560000000000001, -0.052000000000000005, 192.0, 0.0, 0.0, 0.0, 0.0, 0.0, 0.0, 0.0, 0.0, 0.0, 1.6664045723154087E9, 0.0, 2022-10-21 19:09:32.315
31.0, -131870.64312346498, -158203.12150753994, -32961.31288544094, -140618.2441852384, 69203.41482203185, -113004.16147758502, 57909.3689214431, -110213.07679570638, 0.012, 0.9560000000000001, -0.052000000000000005, 192.0, 0.0, 0.0, 0.0, 0.0, 0.0, 0.0, 0.0, 0.0, 0.0, 1.6664045723154235E9, 0.0, 2022-10-21 19:09:32.315
32.0, -131857.4779459808, -158186.1341817539, -32947.70067306765, -140613.41620843604, 69216.7364617272, -113005.65904446352, 57909.21245923191, -110202.54912406793, 0.012, 0.9560000000000001, -0.052000000000000005, 192.0, 0.0, 0.0, 0.0, 0.0, 0.0, 0.0, 0.0, 0.0, 0.0, 1.6664045723154387E9, 0.0, 2022-10-21 19:09:32.315
33.0, -131873.59355373308, -158204.77553662963, -32952.349835914356, -140610.10815025665, 69213.71897622573, -113002.35098628415, 57907.245505719846, -110208.04765320393, 0.012, 0.9560000000000001, -0.052000000000000005, 192.0, 0.0, 0.0, 0.0, 0.0, 0.0, 0.0, 0.0, 0.0, 0.0, 1.6664045723154535E9, 0.0, 2022-10-21 19:09:32.315
34.0, -131883.1377486155, -158217.27016178015, -32951.791042302975, -140602.17328097502, 69212.60138900297, -112998.99822461585, 57912.27464822229, -110205.16427816919, 0.012, 0.9560000000000001, -0.052000000000000005, 192.0, 0.0, 0.0, 0.0, 0.0, 0.0, 0.0, 0.0, 0.0, 0.0, 1.6664045723154683E9, 0.0, 2022-10-21 19:09:32.315
35.0, -131888.12218762902, -158222.41106300487, -32955.65789409374, -140604.20728972045, 69209.40508954586, -113001.9710066284, 57911.425281932985, -110209.8134410159, 0.012, 0.9560000000000001, -0.052000000000000005, 192.0, 0.0, 0.0, 0.0, 0.0, 0.0, 0.0, 0.0, 0.0, 0.0, 1.6664045723154833E9, 0.0, 2022-10-21 19:09:32.315
36.0, -131890.84910045256, -158226.1438043289, -32952.10396672535, -140607.80592057775, 69215.48476403771, -113025.9767801734, 57895.0638049917, -110206.43832760314, 0.014, 0.9520000000000001, -0.052000000000000005, 192.0, 0.0, 112.0, 29.0, 192.0, 254.0, 96.0, 0.0, 0.0, 0.0, 1.6664045723154988E9, 0.0, 2022-10-21 19:09:32.315
37.0, -131899.36511509004, -158235.01744687767, -32952.19337370317, -140604.22964146492, 69218.50224953917, -113031.81058547624, 57889.3641101556, -110205.74542352503, 0.014, 0.9520000000000001, -0.052000000000000005, 192.0, 0.0, 0.0, 0.0, 0.0, 0.0, 0.0, 0.0, 0.0, 0.0, 1.666404572315515E9, 0.0, 2022-10-21 19:09:32.315
38.0, -131903.25431862526, -158237.8561184235, -32953.22155394811, -140591.19857444748, 69222.79378447459, -113011.20227708845, 57905.1667934855, -110204.51607757999, 0.014, 0.9520000000000001, -0.052000000000000005, 192.0, 0.0, 0.0, 0.0, 0.0, 0.0, 0.0, 0.0, 0.0, 0.0, 1.66640457231553E9, 0.0, 2022-10-21 19:09:32.315
39.0, -131916.1289234315, -158251.89301394142, -32952.819222547914, -140584.56010634426, 69226.12419439844, -112981.04977381823, 57927.56324142972, -110205.03016770247, 0.014, 0.9520000000000001, -0.052000000000000005, 192.0, 0.0, 0.0, 0.0, 0.0, 0.0, 0.0, 0.0, 0.0, 0.0, 1.666404572315545E9, 0.0, 2022-10-21 19:09:32.315
40.0, -131924.82375202462, -158260.09610415652, -32953.64623709276, -140597.41235940604, 69223.21846761924, -113011.13522185507, 57908.5195551538, -110204.20315315762, 0.014, 0.9520000000000001, -0.052000000000000005, 192.0, 0.0, 0.0, 0.0, 0.0, 0.0, 0.0, 0.0, 0.0, 0.0, 1.66640457231556E9, 0.0, 2022-10-21 19:09:32.315
41.0, -131926.8354090256, -158261.14663614592, -32962.94456278617, -140608.36471418914, 69215.0377291486, -113042.22649839241, 57885.94429325394, -110209.99225497154, 0.014, 0.9520000000000001, -0.052000000000000005, 192.0, 0.0, 0.0, 0.0, 0.0, 0.0, 0.0, 0.0, 0.0, 0.0, 1.666404572315575E9, 0.0, 2022-10-21 19:09:32.315
42.0, -131933.0938974731, -158271.67430778436, -32970.655914623254, -140600.80982456324, 69211.12617386892, -113032.03410292079, 57891.84515379014, -110213.74734804004, 0.014, 0.9520000000000001, -0.052000000000000005, 192.0, 0.0, 0.0, 0.0, 0.0, 0.0, 0.0, 0.0, 0.0, 0.0, 1.66640457231559E9, 0.0, 2022-10-21 19:09:32.315
43.0, -131947.46606915785, -158287.96872949228, -32972.93579255769, -140597.21119370594, 69213.60721750346, -113009.9729311434, 57909.32421795419, -110209.12053693779, 0.014, 0.9520000000000001, -0.052000000000000005, 192.0, 0.0, 0.0, 0.0, 0.0, 0.0, 0.0, 0.0, 0.0, 0.0, 1.666404572315605E9, 0.0, 2022-10-21 19:09:32.315
44.0, -131949.92476104794, -158289.62275858197, -32973.06990302443, -140607.47064441093, 69212.13200236941, -113023.18281211649, 57903.73628184036, -110208.33822588185, 0.014, 0.9520000000000001, -0.052000000000000005, 192.0, 0.0, 0.0, 0.0, 0.0, 0.0, 0.0, 0.0, 0.0, 0.0, 1.6664045723156347E9, 0.0, 2022-10-21 19:09:32.315
45.0, -131956.16089775096, -158296.14946796294, -32984.60340316336, -140616.65721138206, 69204.15242959886, -113037.86790822362, 57886.816011287694, -110223.20213594462, 0.014, 0.9520000000000001, -0.052000000000000005, 192.0, 0.0, 0.0, 0.0, 0.0, 0.0, 0.0, 0.0, 0.0, 0.0, 1.66640457231565E9, 0.0, 2022-10-21 19:09:32.315
46.0, -131960.58654315313, -158302.27384594368, -32987.03974330899, -140613.32680145823, 69200.46439176374, -113031.78823373179, 57886.4136798875, -110222.39747314424, 0.016, 0.9540000000000001, -0.05, 192.0, 0.0, 128.0, 29.0, 208.0, 254.0, 112.0, 0.0, 0.0, 0.0, 1.6664045723156648E9, 0.0, 2022-10-21 19:09:32.315
47.0, -131959.49130767482, -158300.59746510955, -32978.0319902935, -140603.7379030869, 69208.06398487854, -113009.88352416558, 57903.35630218462, -110212.02626371698, 0.016, 0.9540000000000001, -0.05, 192.0, 0.0, 0.0, 0.0, 0.0, 0.0, 0.0, 0.0, 0.0, 0.0, 1.6664045723156812E9, 0.0, 2022-10-21 19:09:32.315
48.0, -131954.43981342792, -158297.28940693015, -32970.521804156524, -140604.2966966983, 69217.22820010522, -113009.01180613182, 57903.28924695126, -110211.7580427835, 0.016, 0.9540000000000001, -0.05, 192.0, 0.0, 0.0, 0.0, 0.0, 0.0, 0.0, 0.0, 0.0, 0.0, 1.6664045723156967E9, 0.0, 2022-10-21 19:09:32.315
49.0, -131963.51462167676, -158309.29229370266, -32979.283687983, -140617.86420558265, 69214.38952855939, -113023.62984700559, 57885.27374092028, -110221.68221732166, 0.016, 0.9540000000000001, -0.05, 192.0, 0.0, 0.0, 0.0, 0.0, 0.0, 0.0, 0.0, 0.0, 0.0, 1.6664045723157136E9, 0.0, 2022-10-21 19:09:32.315
50.0, -131971.74006363633, -158315.95311355032, -32983.798740362974, -140620.70287712847, 69205.9852726442, -113024.85919295064, 57885.31844440919, -110220.765795799, 0.016, 0.9540000000000001, -0.05, 192.0, 0.0, 0.0, 0.0, 0.0, 0.0, 0.0, 0.0, 0.0, 0.0, 1.6664045723157296E9, 0.0, 2022-10-21 19:09:32.315
51.0, -131971.42713921395, -158318.74708160723, -32987.41972296473, -140616.63485963762, 69201.67138596432, -113017.10313762464, 57895.93552302546, -110223.76092955601, 0.016, 0.9540000000000001, -0.05, 192.0, 0.0, 0.0, 0.0, 0.0, 0.0, 0.0, 0.0, 0.0, 0.0, 1.6664045723157504E9, 0.0, 2022-10-21 19:09:32.315
52.0, -131973.05881655918, -158321.18342175288, -32987.71029564265, -140618.8923858276, 69204.71122321025, -113034.71631225543, 57888.62650258857, -110225.48201387907, 0.016, 0.9540000000000001, -0.05, 192.0, 0.0, 0.0, 0.0, 0.0, 0.0, 0.0, 0.0, 0.0, 0.0, 1.6664045723157709E9, 0.0, 2022-10-21 19:09:32.315
53.0, -131981.64188643, -158327.26309624471, -32992.00183057807, -140629.71063014396, 69202.34193829798, -113052.91063224204, 57873.65083380352, -110233.75215932753, 0.016, 0.9540000000000001, -0.05, 192.0, 0.0, 0.0, 0.0, 0.0, 0.0, 0.0, 0.0, 0.0, 0.0, 1.666404572315786E9, 0.0, 2022-10-21 19:09:32.315
54.0, -131984.61466844258, -158329.94530557934, -32988.202034020665, -140624.92735683054, 69198.81036267405, -113053.80470202026, 57875.39426987103, -110233.03690350497, 0.016, 0.9540000000000001, -0.05, 192.0, 0.0, 0.0, 0.0, 0.0, 0.0, 0.0, 0.0, 0.0, 0.0, 1.6664045723158011E9, 0.0, 2022-10-21 19:09:32.315
55.0, -131985.3522760096, -158327.0172270557, -32987.06209505345, -140615.18199624802, 69201.62668247541, -113035.05158842226, 57891.82280204568, -110228.87947903627, 0.016, 0.9540000000000001, -0.05, 192.0, 0.0, 0.0, 0.0, 0.0, 0.0, 0.0, 0.0, 0.0, 0.0, 1.666404572315816E9, 0.0, 2022-10-21 19:09:32.315
56.0, -131982.62536318606, -158324.625590399, -32982.79291186248, -140615.0925892702, 69208.22044708973, -113031.45295756495, 57894.795584058236, -110229.93001102567, 0.016, 0.964, -0.044, 192.0, 0.0, 128.0, 30.0, 32.0, 254.0, 160.0, 0.0, 0.0, 0.0, 1.6664045723158312E9, 0.0, 2022-10-21 19:09:32.315
57.0, -131975.47280496036, -158318.1659362514, -32971.66174312374, -140608.52117640033, 69218.68106349482, -113028.65898950804, 57896.36020617011, -110221.14577545474, 0.016, 0.964, -0.044, 192.0, 0.0, 0.0, 0.0, 0.0, 0.0, 0.0, 0.0, 0.0, 0.0, 1.6664045723158472E9, 0.0, 2022-10-21 19:09:32.315
58.0, -131974.53403169324, -158317.2718664732, -32973.22636523561, -140608.32001070023, 69215.84239194899, -113037.10794891215, 57887.12893571007, -110216.60837133031, 0.016, 0.964, -0.044, 192.0, 0.0, 0.0, 0.0, 0.0, 0.0, 0.0, 0.0, 0.0, 0.0, 1.6664045723158624E9, 0.0, 2022-10-21 19:09:32.315
59.0, -131988.88385163355, -158328.89477358994, -32983.32935372941, -140612.52213865783, 69204.33124355451, -113025.03800690628, 57894.19208695795, -110224.99027550106, 0.016, 0.964, -0.044, 192.0, 0.0, 0.0, 0.0, 0.0, 0.0, 0.0, 0.0, 0.0, 0.0, 1.6664045723158917E9, 0.0, 2022-10-21 19:09:32.315
60.0, -131987.0510085882, -158329.2300497568, -32985.07278979693, -140617.03719103782, 69201.5819789865, -113025.3732830731, 57898.03658700426, -110227.96305751361, 0.016, 0.964, -0.044, 192.0, 0.0, 0.0, 0.0, 0.0, 0.0, 0.0, 0.0, 0.0, 0.0, 1.6664045723159068E9, 0.0, 2022-10-21 19:09:32.315
61.0, -131985.7546074098, -158328.80536661213, -32987.12915028681, -140624.65913589706, 69202.1407725979, -113046.49568158337, 57882.05508971871, -110227.53837436896, 0.016, 0.964, -0.044, 192.0, 0.0, 0.0, 0.0, 0.0, 0.0, 0.0, 0.0, 0.0, 0.0, 1.6664045723159218E9, 0.0, 2022-10-21 19:09:32.315
62.0, -131981.150148052, -158324.60323865453, -32985.51982468603, -140621.46283643995, 69202.52075225362, -113067.12634171563, 57869.96279596839, -110222.64334233325, 0.016, 0.964, -0.044, 192.0, 0.0, 0.0, 0.0, 0.0, 0.0, 0.0, 0.0, 0.0, 0.0, 1.6664045723159368E9, 0.0, 2022-10-21 19:09:32.315
63.0, -131984.1899852979, -158325.38554971048, -32986.6374119088, -140608.27530721133, 69206.72288021122, -113038.35964660165, 57891.21930494539, -110223.4703568781, 0.016, 0.964, -0.044, 192.0, 0.0, 0.0, 0.0, 0.0, 0.0, 0.0, 0.0, 0.0, 0.0, 1.6664045723159516E9, 0.0, 2022-10-21 19:09:32.315
64.0, -131984.0558748312, -158328.89477358994, -32983.50816768505, -140603.20146122, 69212.62374074743, -113016.94667541346, 57906.954933041925, -110220.47522312109, 0.016, 0.964, -0.044, 192.0, 0.0, 0.0, 0.0, 0.0, 0.0, 0.0, 0.0, 0.0, 0.0, 1.6664045723159668E9, 0.0, 2022-10-21 19:09:32.315
65.0, -131993.28714529122, -158338.66248591692, -32990.19133927719, -140614.95847880346, 69205.85116217747, -113028.16725113003, 57893.387424157554, -110228.94653426965, 0.016, 0.964, -0.044, 192.0, 0.0, 0.0, 0.0, 0.0, 0.0, 0.0, 0.0, 0.0, 0.0, 1.6664045723159816E9, 0.0, 2022-10-21 19:09:32.315
66.0, -131993.89064239152, -158337.25432601623, -32991.17481603323, -140621.10520852866, 69202.54310399808, -113050.25077465187, 57875.79660127123, -110230.89113603726, 0.014, 0.96, -0.06, 192.0, 0.0, 112.0, 30.0, 0.0, 254.0, 32.0, 0.0, 0.0, 0.0, 1.666404572315997E9, 0.0, 2022-10-21 19:09:32.315
67.0, -131985.8440143876, -158326.95017182233, -32979.64131589429, -140605.6825048545, 69210.50032502417, -113026.51322204033, 57895.287322436256, -110222.37512139979, 0.014, 0.96, -0.06, 192.0, 0.0, 0.0, 0.0, 0.0, 0.0, 0.0, 0.0, 0.0, 0.0, 1.6664045723160126E9, 0.0, 2022-10-21 19:09:32.316
68.0, -131987.0510085882, -158328.0677590451, -32978.993115305086, -140611.62806887963, 69204.19713308777, -113016.47728877989, 57902.93161903997, -110228.1195197248, 0.014, 0.96, -0.06, 192.0, 0.0, 0.0, 0.0, 0.0, 0.0, 0.0, 0.0, 0.0, 0.0, 1.6664045723160276E9, 0.0, 2022-10-21 19:09:32.316
69.0, -131984.63702018704, -158326.2796194887, -32980.155406016755, -140619.16060676106, 69203.34776679847, -113039.38782684659, 57888.69355782194, -110233.30512443843, 0.014, 0.96, -0.06, 192.0, 0.0, 0.0, 0.0, 0.0, 0.0, 0.0, 0.0, 0.0, 0.0, 1.6664045723160424E9, 0.0, 2022-10-21 19:09:32.316
70.0, -131989.3085347782, -158332.73927363625, -32985.9892113196, -140625.15087427507, 69199.97265338572, -113048.01560020633, 57877.62944431656, -110240.86001406432, 0.014, 0.96, -0.06, 192.0, 0.0, 0.0, 0.0, 0.0, 0.0, 0.0, 0.0, 0.0, 0.0, 1.66640457231606E9, 0.0, 2022-10-21 19:09:32.316
71.0, -131988.0568370887, -158330.25823000172, -32982.971725818126, -140623.96623181895, 69198.27392080711, -113050.3848851186, 57880.78104028476, -110233.64040060526, 0.014, 0.96, -0.06, 192.0, 0.0, 0.0, 0.0, 0.0, 0.0, 0.0, 0.0, 0.0, 0.0, 1.666404572316075E9, 0.0, 2022-10-21 19:09:32.316
72.0, -131980.43489222944, -158323.99974155423, -32977.517900171035, -140614.35498170316, 69204.26418832115, -113040.39365534707, 57895.913171281005, -110224.87851677877, 0.014, 0.96, -0.06, 192.0, 0.0, 0.0, 0.0, 0.0, 0.0, 0.0, 0.0, 0.0, 0.0, 1.66640457231609E9, 0.0, 2022-10-21 19:09:32.316
73.0, -131983.60883994208, -158328.13481427848, -32978.61313564934, -140619.67469688354, 69202.69956620927, -113037.26441112334, 57893.543886368745, -110230.46645289261, 0.014, 0.96, -0.06, 192.0, 0.0, 0.0, 0.0, 0.0, 0.0, 0.0, 0.0, 0.0, 0.0, 1.6664045723161051E9, 0.0, 2022-10-21 19:09:32.316
74.0, -131978.42323522846, -158324.80440435463, -32975.95327805916, -140620.83698759522, 69207.8851709229, -113046.45097809446, 57882.18920018544, -110229.50532788102, 0.014, 0.96, -0.06, 192.0, 0.0, 0.0, 0.0, 0.0, 0.0, 0.0, 0.0, 0.0, 0.0, 1.6664045723161337E9, 0.0, 2022-10-21 19:09:32.316
75.0, -131976.9480200944, -158324.80440435463, -32972.3322954574, -140614.75731310336, 69212.10965062496, -113047.90384148406, 57884.379671142065, -110226.77841505747, 0.02, 0.9560000000000001, -0.054, 192.0, 0.0, 160.0, 29.0, 224.0, 254.0, 80.0, 0.0, 0.0, 0.0, 1.6664045723161485E9, 0.0, 2022-10-21 19:09:32.316
76.0, -131983.0053428418, -158328.76066312322, -32974.656876880756, -140613.08093226922, 69205.96292089975, -113029.66481800853, 57894.75088056933, -110232.25459244903, 0.02, 0.9560000000000001, -0.054, 192.0, 0.0, 0.0, 0.0, 0.0, 0.0, 0.0, 0.0, 0.0, 0.0, 1.6664045723161645E9, 0.0, 2022-10-21 19:09:32.316
77.0, -131989.82262490067, -158336.1814422824, -32979.21663274964, -140621.66400214005, 69196.91046439535, -113027.675512752, 57888.33592991065, -110240.52473789749, 0.02, 0.9560000000000001, -0.054, 192.0, 0.0, 0.0, 0.0, 0.0, 0.0, 0.0, 0.0, 0.0, 0.0, 1.6664045723161793E9, 0.0, 2022-10-21 19:09:32.316
78.0, -131983.11710156407, -158330.0794160461, -32979.41779844974, -140632.34813598968, 69193.64710970486, -113040.90774546955, 57873.02498495877, -110240.86001406432, 0.02, 0.9560000000000001, -0.054, 192.0, 0.0, 0.0, 0.0, 0.0, 0.0, 0.0, 0.0, 0.0, 0.0, 1.6664045723161943E9, 0.0, 2022-10-21 19:09:32.316
79.0, -131982.96063935288, -158330.25823000172, -32977.026161793015, -140628.25776675437, 69192.41776375983, -113053.91646074253, 57865.224226143866, -110238.69189485216, 0.02, 0.9560000000000001, -0.054, 192.0, 0.0, 0.0, 0.0, 0.0, 0.0, 0.0, 0.0, 0.0, 0.0, 1.6664045723162093E9, 0.0, 2022-10-21 19:09:32.316
80.0, -131979.6525811735, -158329.25240150123, -32971.66174312374, -140614.10911251415, 69195.81522891704, -113050.45194035197, 57876.15422918251, -110231.82990930438, 0.02, 0.9560000000000001, -0.054, 192.0, 0.0, 0.0, 0.0, 0.0, 0.0, 0.0, 0.0, 0.0, 0.0, 1.666404572316224E9, 0.0, 2022-10-21 19:09:32.316
81.0, -131984.5476132092, -158335.08620680406, -32971.371170445826, -140616.67956312653, 69200.06206036355, -113039.99132394687, 57885.07257522018, -110231.31581918191, 0.02, 0.9560000000000001, -0.054, 192.0, 0.0, 0.0, 0.0, 0.0, 0.0, 0.0, 0.0, 0.0, 0.0, 1.666404572316239E9, 0.0, 2022-10-21 19:09:32.316
82.0, -131988.07918883316, -158339.06481731712, -32975.86387108134, -140626.4919789424, 69199.45856326325, -113056.26339391034, 57871.63917680254, -110233.57334537189, 0.02, 0.9560000000000001, -0.054, 192.0, 0.0, 0.0, 0.0, 0.0, 0.0, 0.0, 0.0, 0.0, 0.0, 1.6664045723162541E9, 0.0, 2022-10-21 19:09:32.316
83.0, -131982.2453835303, -158333.0745498031, -32976.84734783737, -140623.78741786332, 69199.838542919, -113062.09719921318, 57867.48175233386, -110227.24780169105, 0.02, 0.9560000000000001, -0.054, 192.0, 0.0, 0.0, 0.0, 0.0, 0.0, 0.0, 0.0, 0.0, 0.0, 1.6664045723162692E9, 0.0, 2022-10-21 19:09:32.316
84.0, -131984.07822657566, -158337.99193358325, -32980.20010950567, -140614.2879264698, 69197.89394115137, -113043.6346582931, 57881.76451704079, -110228.03011274697, 0.02, 0.9560000000000001, -0.054, 192.0, 0.0, 0.0, 0.0, 0.0, 0.0, 0.0, 0.0, 0.0, 0.0, 1.666404572316284E9, 0.0, 2022-10-21 19:09:32.316
85.0, -131988.9509068669, -158346.50794822074, -32979.127225771816, -140609.5493566453, 69203.25835982065, -113037.84555647917, 57889.69938632243, -110221.34694115484, 0.024, 0.9560000000000001, -0.048, 192.0, 0.0, 192.0, 29.0, 224.0, 254.0, 128.0, 0.0, 0.0, 0.0, 1.6664045723162987E9, 0.0, 2022-10-21 19:09:32.316
86.0, -131996.908127893, -158346.5750034541, -32986.01156306405, -140624.32385973024, 69200.35263304146, -113049.15553917356, 57880.02108097328, -110236.70258959563, 0.024, 0.9560000000000001, -0.048, 192.0, 0.0, 0.0, 0.0, 0.0, 0.0, 0.0, 0.0, 0.0, 0.0, 1.6664045723163147E9, 0.0, 2022-10-21 19:09:32.316
87.0, -131994.3600290251, -158348.6760674329, -32983.55287117397, -140624.56972891925, 69201.26905456412, -113064.86881552564, 57869.40400235701, -110237.48490065157, 0.024, 0.9560000000000001, -0.048, 192.0, 0.0, 0.0, 0.0, 0.0, 0.0, 0.0, 0.0, 0.0, 0.0, 1.6664045723163297E9, 0.0, 2022-10-21 19:09:32.316
88.0, -131994.33767728062, -158351.00064885625, -32982.99407756258, -140614.80201659226, 69202.27488306462, -113051.14484443008, 57883.08326996366, -110237.32843844038, 0.024, 0.9560000000000001, -0.048, 192.0, 0.0, 0.0, 0.0, 0.0, 0.0, 0.0, 0.0, 0.0, 0.0, 1.6664045723163445E9, 0.0, 2022-10-21 19:09:32.316
89.0, -131993.4436075024, -158350.39715175595, -32979.84248159439, -140616.03136253732, 69202.6325109759, -113050.11666418513, 57886.905418265516, -110237.50725239603, 0.024, 0.9560000000000001, -0.048, 192.0, 0.0, 0.0, 0.0, 0.0, 0.0, 0.0, 0.0, 0.0, 0.0, 1.666404572316373E9, 0.0, 2022-10-21 19:09:32.316
90.0, -131998.6068604716, -158358.80140767116, -32985.67628689722, -140626.24610975338, 69198.6315487184, -113055.95046948797, 57877.02594721627, -110244.95038329964, 0.024, 0.9560000000000001, -0.048, 192.0, 0.0, 0.0, 0.0, 0.0, 0.0, 0.0, 0.0, 0.0, 0.0, 1.666404572316388E9, 0.0, 2022-10-21 19:09:32.316
91.0, -131999.88090990557, -158354.12989307998, -32986.52565318652, -140628.48128419893, 69197.84923766246, -113070.50145512837, 57863.07845867616, -110242.13406349828, 0.024, 0.9560000000000001, -0.048, 192.0, 0.0, 0.0, 0.0, 0.0, 0.0, 0.0, 0.0, 0.0, 0.0, 1.666404572316403E9, 0.0, 2022-10-21 19:09:32.316
92.0, -131992.32602027967, -158346.88792787647, -32981.87649033982, -140617.10424627116, 69200.12911559691, -113071.77550456232, 57867.817028500685, -110237.35079018484, 0.024, 0.9560000000000001, -0.048, 192.0, 0.0, 0.0, 0.0, 0.0, 0.0, 0.0, 0.0, 0.0, 0.0, 1.6664045723164191E9, 0.0, 2022-10-21 19:09:32.316
93.0, -131987.2968777772, -158347.51377672123, -32977.62965889331, -140606.91185079954, 69206.23114183321, -113048.23911765088, 57888.04535723274, -110235.94263028416, 0.024, 0.9560000000000001, -0.048, 192.0, 0.0, 0.0, 0.0, 0.0, 0.0, 0.0, 0.0, 0.0, 0.0, 1.6664045723164341E9, 0.0, 2022-10-21 19:09:32.316
94.0, -131989.5544039672, -158347.96081161033, -32974.790987347485, -140615.4949206704, 69208.53337151211, -113052.93298398651, 57882.85975251911, -110239.40715067473, 0.024, 0.9560000000000001, -0.048, 192.0, 0.0, 0.0, 0.0, 0.0, 0.0, 0.0, 0.0, 0.0, 0.0, 1.6664045723164487E9, 0.0, 2022-10-21 19:09:32.316
95.0, -131999.97031688338, -158357.81793091513, -32982.56939441793, -140627.07312429824, 69203.34776679847, -113072.24489119589, 57865.157170910505, -110242.60345013184, 0.028, 0.9540000000000001, -0.05, 192.0, 0.0, 224.0, 29.0, 208.0, 254.0, 112.0, 0.0, 0.0, 0.0, 1.6664045723164637E9, 0.0, 2022-10-21 19:09:32.316
96.0, -132002.13843609553, -158356.05214310315, -32985.1845485192, -140618.31124047175, 69199.39150802989, -113064.04180098079, 57870.27572039077, -110242.04465652045, 0.028, 0.9540000000000001, -0.05, 192.0, 0.0, 0.0, 0.0, 0.0, 0.0, 0.0, 0.0, 0.0, 0.0, 1.6664045723164806E9, 0.0, 2022-10-21 19:09:32.316
97.0, -132009.5592152547, -158367.20566358636, -32991.979478833615, -140621.12756027313, 69190.56256897004, -113051.81539676373, 57878.03177571676, -110246.73852285607, 0.028, 0.9540000000000001, -0.05, 192.0, 0.0, 0.0, 0.0, 0.0, 0.0, 0.0, 0.0, 0.0, 0.0, 1.6664045723164957E9, 0.0, 2022-10-21 19:09:32.316
98.0, -132007.1005233646, -158364.41169552944, -32984.156368274256, -140623.56390041875, 69195.6364149614, -113060.84550152368, 57874.47784834837, -110240.01064777502, 0.028, 0.9540000000000001, -0.05, 192.0, 0.0, 0.0, 0.0, 0.0, 0.0, 0.0, 0.0, 0.0, 0.0, 1.6664045723165104E9, 0.0, 2022-10-21 19:09:32.316
99.0, -132001.69140120642, -158357.68382044838, -32982.99407756258, -140629.01772606585, 69198.1845138293, -113080.71620234445, 57858.63046152955, -110237.10492099583, 0.028, 0.9540000000000001, -0.05, 192.0, 0.0, 0.0, 0.0, 0.0, 0.0, 0.0, 0.0, 0.0, 0.0, 1.6664045723165252E9, 0.0, 2022-10-21 19:09:32.316
100.0, -132007.94988965392, -158366.53511125268, -32982.77056011803, -140618.87003408314, 69200.01735687464, -113083.93485354602, 57856.909377206495, -110231.7181505821, 0.028, 0.9540000000000001, -0.05, 192.0, 0.0, 0.0, 0.0, 0.0, 0.0, 0.0, 0.0, 0.0, 0.0, 1.6664045723165395E9, 0.0, 2022-10-21 19:09:32.316
101.0, -132015.19185485743, -158375.878140435, -32982.16706301773, -140608.9905630339, 69199.95030164126, -113068.26628068284, 57874.14257218153, -110229.72884532558, 0.028, 0.9540000000000001, -0.05, 192.0, 0.0, 0.0, 0.0, 0.0, 0.0, 0.0, 0.0, 0.0, 0.0, 1.6664045723165545E9, 0.0, 2022-10-21 19:09:32.316
102.0, -132025.65247126253, -158381.62253876, -32987.66559215374, -140623.80976960776, 69193.28948179359, -113060.77844629032, 57878.12118269458, -110242.42463617619, 0.028, 0.9540000000000001, -0.05, 192.0, 0.0, 0.0, 0.0, 0.0, 0.0, 0.0, 0.0, 0.0, 0.0, 1.666404572316569E9, 0.0, 2022-10-21 19:09:32.316
103.0, -132020.84684620463, -158373.03946888918, -32982.18941476219, -140631.45406621147, 69193.20007481576, -113081.81143782276, 57861.938519708936, -110233.68510409417, 0.028, 0.9540000000000001, -0.05, 192.0, 0.0, 0.0, 0.0, 0.0, 0.0, 0.0, 0.0, 0.0, 0.0, 1.666404572316584E9, 0.0, 2022-10-21 19:09:32.316
104.0, -132017.94111942544, -158371.6760124774, -32982.72585662912, -140618.44535093848, 69200.26322606365, -113078.21280696546, 57864.33015636566, -110227.7171883246, 0.022, 0.9500000000000001, -0.058, 192.0, 0.0, 176.0, 29.0, 176.0, 254.0, 48.0, 0.0, 0.0, 0.0, 1.6664045723166132E9, 0.0, 2022-10-21 19:09:32.316
105.0, -132025.65247126253, -158378.96268116985, -32989.118455543336, -140615.78549334832, 69191.65780444835, -113062.36542014664, 57873.94140648144, -110233.43923490516, 0.022, 0.9500000000000001, -0.058, 192.0, 0.0, 0.0, 0.0, 0.0, 0.0, 0.0, 0.0, 0.0, 0.0, 1.6664045723166292E9, 0.0, 2022-10-21 19:09:32.316
106.0, -132032.64856727704, -158385.5340940397, -32989.69960089918, -140620.45700793946, 69189.28851953609, -113064.82411203673, 57873.09204019214, -110237.19432797364, 0.022, 0.9500000000000001, -0.058, 192.0, 0.0, 0.0, 0.0, 0.0, 0.0, 0.0, 0.0, 0.0, 0.0, 1.6664045723166535E9, 0.0, 2022-10-21 19:09:32.316
107.0, -132029.22875037536, -158383.88006495, -32991.420685222234, -140626.98371732043, 69189.06500209153, -113067.8863010271, 57869.202836656914, -110238.89306055225, 0.022, 0.9500000000000001, -0.058, 192.0, 0.0, 0.0, 0.0, 0.0, 0.0, 0.0, 0.0, 0.0, 0.0, 1.666404572316666E9, 0.0, 2022-10-21 19:09:32.316
108.0, -132025.92069219597, -158376.95102416887, -32986.168025275234, -140624.79324636378, 69188.1262288244, -113080.53738838881, 57859.68099351895, -110236.92610704018, 0.022, 0.9500000000000001, -0.058, 192.0, 0.0, 0.0, 0.0, 0.0, 0.0, 0.0, 0.0, 0.0, 0.0, 1.6664045723166792E9, 0.0, 2022-10-21 19:09:32.316
109.0, -132032.87208472157, -158386.11523939553, -32988.29144099849, -140622.06633354025, 69185.95810961224, -113074.1447894746, 57867.30293837821, -110240.72590359759, 0.022, 0.9500000000000001, -0.058, 192.0, 0.0, 0.0, 0.0, 0.0, 0.0, 0.0, 0.0, 0.0, 0.0, 1.666404572316692E9, 0.0, 2022-10-21 19:09:32.316
110.0, -132039.44349759145, -158390.85380922008, -32990.45956021066, -140621.75340911787, 69184.39348750038, -113059.21382417844, 57879.23876991735, -110241.03882801997, 0.022, 0.9500000000000001, -0.058, 192.0, 0.0, 0.0, 0.0, 0.0, 0.0, 0.0, 0.0, 0.0, 0.0, 1.666404572316705E9, 0.0, 2022-10-21 19:09:32.316
111.0, -132038.66118653552, -158385.7799632287, -32984.55869967445, -140622.33455447372, 69189.44498174728, -113086.192379736, 57863.23492088734, -110238.20015647414, 0.022, 0.9500000000000001, -0.058, 192.0, 0.0, 0.0, 0.0, 0.0, 0.0, 0.0, 0.0, 0.0, 0.0, 1.6664045723167171E9, 0.0, 2022-10-21 19:09:32.316
112.0, -132037.74476501285, -158388.0374894187, -32981.988249062095, -140618.87003408314, 69193.91533063834, -113092.92025481704, 57857.334060351146, -110232.88044129378, 0.022, 0.9500000000000001, -0.058, 192.0, 0.0, 0.0, 0.0, 0.0, 0.0, 0.0, 0.0, 0.0, 0.0, 1.6664045723167307E9, 0.0, 2022-10-21 19:09:32.316
113.0, -132049.6582448075, -158401.649701792, -32993.49939745657, -140619.76410386135, 69184.86287413393, -113079.33039418822, 57864.88894997704, -110237.66371460722, 0.022, 0.9500000000000001, -0.058, 192.0, 0.0, 0.0, 0.0, 0.0, 0.0, 0.0, 0.0, 0.0, 0.0, 1.6664045723167443E9, 0.0, 2022-10-21 19:09:32.316
114.0, -132066.73497757138, -158412.51264959725, -33000.71901091564, -140631.23054876694, 69175.47514146271, -113075.28472844181, 57865.87242673307, -110245.15154899974, 0.024, 0.9540000000000001, -0.056, 192.0, 0.0, 192.0, 29.0, 208.0, 254.0, 64.0, 0.0, 0.0, 0.0, 1.666404572316762E9, 0.0, 2022-10-21 19:09:32.316
115.0, -132059.7165298124, -158403.41548960394, -32987.17385377573, -140625.37439171964, 69188.66267069134, -113071.08260048421, 57870.83451400215, -110230.24293544806, 0.024, 0.9540000000000001, -0.056, 192.0, 0.0, 0.0, 0.0, 0.0, 0.0, 0.0, 0.0, 0.0, 0.0, 1.666404572316775E9, 0.0, 2022-10-21 19:09:32.316
116.0, -132061.5270211133, -158407.86348675055, -32985.206900263656, -140624.68148764153, 69192.59657771546, -113075.41883890855, 57866.274758133266, -110225.50436562352, 0.024, 0.9540000000000001, -0.056, 192.0, 0.0, 0.0, 0.0, 0.0, 0.0, 0.0, 0.0, 0.0, 0.0, 1.6664045723167872E9, 0.0, 2022-10-21 19:09:32.316
117.0, -132059.4259571345, -158402.56612331464, -32984.17872001871, -140618.2441852384, 69190.20494105875, -113073.72010632994, 57869.31459537919, -110221.74927255504, 0.024, 0.9540000000000001, -0.056, 192.0, 0.0, 0.0, 0.0, 0.0, 0.0, 0.0, 0.0, 0.0, 0.0, 1.6664045723167992E9, 0.0, 2022-10-21 19:09:32.316
118.0, -132062.3093321692, -158402.76728901474, -32979.30603972745, -140607.4929961554, 69195.8375806615, -113058.58797533369, 57884.73729905335, -110217.99417948654, 0.024, 0.9540000000000001, -0.056, 192.0, 0.0, 0.0, 0.0, 0.0, 0.0, 0.0, 0.0, 0.0, 0.0, 1.6664045723168113E9, 0.0, 2022-10-21 19:09:32.316
119.0, -132073.932239286, -158413.22790541983, -32986.8385776089, -140629.8894440996, 69184.88522587839, -113078.32456568773, 57868.576987812165, -110232.20988896012, 0.024, 0.9540000000000001, -0.056, 192.0, 0.0, 0.0, 0.0, 0.0, 0.0, 0.0, 0.0, 0.0, 0.0, 1.6664045723169117E9, 0.0, 2022-10-21 19:09:32.316
120.0, -132084.6387248801, -158424.18026020293, -32994.39346723479, -140641.31118551627, 69176.97270834121, -113096.38477520763, 57852.66254575999, -110240.12240649729, 0.024, 0.9540000000000001, -0.056, 192.0, 0.0, 0.0, 0.0, 0.0, 0.0, 0.0, 0.0, 0.0, 0.0, 1.666404572316924E9, 0.0, 2022-10-21 19:09:32.316
121.0, -132087.432692937, -158426.16956545945, -32996.89686261379, -140630.60469992217, 69177.12917055239, -113080.55974013326, 57862.09498192013, -110242.022304776, 0.024, 0.9540000000000001, -0.056, 192.0, 0.0, 0.0, 0.0, 0.0, 0.0, 0.0, 0.0, 0.0, 0.0, 1.6664045727938342E9, 0.0, 2022-10-21 19:09:32.793
122.0, -132094.2276232514, -158430.30463818368, -32991.487740455595, -140616.29958347077, 69185.86870263443, -113052.41889386403, 57887.95595025492, -110230.17588021468, 0.024, 0.9540000000000001, -0.056, 192.0, 0.0, 0.0, 0.0, 0.0, 0.0, 0.0, 0.0, 0.0, 0.0, 1.666404572794022E9, 0.0, 2022-10-21 19:09:32.794
123.0, -132096.77572211932, -158435.8925742975, -32990.70542939966, -140620.52406317284, 69186.00281310115, -113055.30226889877, 57887.55361885472, -110229.99706625903, 0.024, 0.9540000000000001, -0.056, 192.0, 0.0, 0.0, 0.0, 0.0, 0.0, 0.0, 0.0, 0.0, 0.0, 1.666404572794052E9, 0.0, 2022-10-21 19:09:32.794
124.0, -132100.19553902096, -158435.55729813068, -32990.303097999466, -140627.31899348725, 69185.30990902304, -113078.68219359902, 57870.54394132423, -110228.83477554737, 0.016, 0.9580000000000001, -0.06, 192.0, 0.0, 128.0, 29.0, 240.0, 254.0, 32.0, 0.0, 0.0, 0.0, 1.66640457279408E9, 0.0, 2022-10-21 19:09:32.794
125.0, -132112.64546068257, -158446.4873011693, -32991.66655441124, -140618.66886838304, 69187.76860091313, -113078.27986219882, 57872.06385994719, -110224.63264758977, 0.016, 0.9580000000000001, -0.06, 192.0, 0.0, 0.0, 0.0, 0.0, 0.0, 0.0, 0.0, 0.0, 0.0, 1.6664045727941113E9, 0.0, 2022-10-21 19:09:32.794
126.0, -132113.87480662763, -158448.96834480387, -32992.895900356285, -140613.41620843604, 69188.17093231333, -113063.66182132505, 57887.19599094344, -110216.13898469675, 0.016, 0.9580000000000001, -0.06, 192.0, 0.0, 0.0, 0.0, 0.0, 0.0, 0.0, 0.0, 0.0, 0.0, 1.666404572794139E9, 0.0, 2022-10-21 19:09:32.794
127.0, -132118.25574854086, -158449.1471587595, -32996.40512423577, -140619.83115909473, 69184.84052238948, -113062.45482712446, 57888.02300548828, -110220.67638882119, 0.016, 0.9580000000000001, -0.06, 192.0, 0.0, 0.0, 0.0, 0.0, 0.0, 0.0, 0.0, 0.0, 0.0, 1.666404572794166E9, 0.0, 2022-10-21 19:09:32.794
128.0, -132122.25671079836, -158447.3366674586, -32995.24283352409, -140627.47545569844, 69184.99698460067, -113093.25553098388, 57866.52062732228, -110220.94460975465, 0.016, 0.9580000000000001, -0.06, 192.0, 0.0, 0.0, 0.0, 0.0, 0.0, 0.0, 0.0, 0.0, 0.0, 1.666404572794194E9, 0.0, 2022-10-21 19:09:32.794
129.0, -132129.56573123526, -158455.8079786072, -32996.181606791215, -140623.47449344094, 69182.09125782148, -113093.27788272833, 57861.60324354211, -110223.96209525611, 0.016, 0.9580000000000001, -0.06, 192.0, 0.0, 0.0, 0.0, 0.0, 0.0, 0.0, 0.0, 0.0, 0.0, 1.6664045727942216E9, 0.0, 2022-10-21 19:09:32.794
130.0, -132129.6774899575, -158456.3444204741, -32992.02418232253, -140613.01387703585, 69186.44984799025, -113085.47712391343, 57867.50410407831, -110222.4645283776, 0.016, 0.9580000000000001, -0.06, 192.0, 0.0, 0.0, 0.0, 0.0, 0.0, 0.0, 0.0, 0.0, 0.0, 1.6664045727942495E9, 0.0, 2022-10-21 19:09:32.794
131.0, -132130.0798213577, -158449.52713841526, -32986.86092935335, -140610.30931595675, 69191.94837712626, -113065.15938820355, 57881.3621856406, -110220.27405742099, 0.016, 0.9580000000000001, -0.06, 192.0, 0.0, 0.0, 0.0, 0.0, 0.0, 0.0, 0.0, 0.0, 0.0, 1.6664045727942772E9, 0.0, 2022-10-21 19:09:32.794
132.0, -132141.8368389412, -158458.37842921953, -32991.286574755504, -140627.07312429824, 69186.2263305457, -113053.80470202026, 57883.17267694148, -110229.66179009221, 0.016, 0.9580000000000001, -0.06, 192.0, 0.0, 0.0, 0.0, 0.0, 0.0, 0.0, 0.0, 0.0, 0.0, 1.6664045727943065E9, 0.0, 2022-10-21 19:09:32.794
133.0, -132142.2838738303, -158455.8079786072, -32987.39737122028, -140628.5930429212, 69184.95228111175, -113072.06607724025, 57871.08038319116, -110228.27598193598, 0.016, 0.9580000000000001, -0.06, 192.0, 0.0, 0.0, 0.0, 0.0, 0.0, 0.0, 0.0, 0.0, 0.0, 1.6664045727943337E9, 0.0, 2022-10-21 19:09:32.794
134.0, -132138.3946702951, -158452.67873438343, -32982.39058046229, -140615.58432764822, 69186.47219973472, -113071.79785630679, 57879.01525247279, -110220.51992661, 0.01, 0.962, -0.064, 192.0, 0.0, 80.0, 30.0, 16.0, 254.0, 0.0, 0.0, 0.0, 0.0, 1.6664045727944584E9, 0.0, 2022-10-21 19:09:32.794
135.0, -132142.75326046388, -158454.8021501067, -32980.11070252785, -140612.83506308022, 69192.03778410409, -113059.57145208973, 57894.0132730023, -110216.58601958585, 0.01, 0.962, -0.064, 192.0, 0.0, 0.0, 0.0, 0.0, 0.0, 0.0, 0.0, 0.0, 0.0, 1.6664045727944891E9, 0.0, 2022-10-21 19:09:32.794
136.0, -132148.47530704443, -158461.28415599873, -32984.29047874099, -140630.4929411999, 69189.89201663638, -113070.434399895, 57883.01621473029, -110220.51992661, 0.01, 0.962, -0.064, 192.0, 0.0, 0.0, 0.0, 0.0, 0.0, 0.0, 0.0, 0.0, 0.0, 1.6664045727945015E9, 0.0, 2022-10-21 19:09:32.794
137.0, -132141.434507541, -158448.141330259, -32975.30507746996, -140627.36369697616, 69196.66459520634, -113081.92319654503, 57875.75189778232, -110207.82413575938, 0.01, 0.962, -0.064, 192.0, 0.0, 0.0, 0.0, 0.0, 0.0, 0.0, 0.0, 0.0, 0.0, 1.666404572794514E9, 0.0, 2022-10-21 19:09:32.794
138.0, -132148.2517895999, -158450.37650470456, -32973.67340012472, -140615.51727241484, 69201.04553711957, -113067.46161788245, 57888.47004037739, -110200.64922578922, 0.01, 0.962, -0.064, 192.0, 0.0, 0.0, 0.0, 0.0, 0.0, 0.0, 0.0, 0.0, 0.0, 1.6664045727945268E9, 0.0, 2022-10-21 19:09:32.794
139.0, -132151.693958246, -158460.99358332081, -32967.97370528862, -140603.62614436462, 69208.46631627873, -113046.20510890546, 57905.43501441897, -110201.72210952308, 0.01, 0.962, -0.064, 192.0, 0.0, 0.0, 0.0, 0.0, 0.0, 0.0, 0.0, 0.0, 0.0, 1.6664045727945392E9, 0.0, 2022-10-21 19:09:32.794
140.0, -132148.81058321125, -158452.47756868333, -32969.24775472257, -140615.04788578127, 69206.11938311093, -113052.03891420829, 57899.824726560684, -110202.8620484903, 0.01, 0.962, -0.064, 192.0, 0.0, 0.0, 0.0, 0.0, 0.0, 0.0, 0.0, 0.0, 0.0, 1.6664045727945511E9, 0.0, 2022-10-21 19:09:32.794
141.0, -132148.22943785542, -158443.55922264568, -32969.3818651893, -140621.39578120658, 69201.17964758631, -113062.27601316883, 57891.77809855677, -110202.68323453466, 0.01, 0.962, -0.064, 192.0, 0.0, 0.0, 0.0, 0.0, 0.0, 0.0, 0.0, 0.0, 0.0, 1.6664045727945633E9, 0.0, 2022-10-21 19:09:32.794
142.0, -132149.7493564784, -158446.57670814716, -32964.777405831504, -140610.66694386804, 69204.9347406548, -113062.54423410229, 57895.779060814275, -110197.58703679885, 0.01, 0.962, -0.064, 192.0, 0.0, 0.0, 0.0, 0.0, 0.0, 0.0, 0.0, 0.0, 0.0, 1.6664045727945757E9, 0.0, 2022-10-21 19:09:32.794
143.0, -132155.31494084775, -158454.77979836223, -32971.03589427899, -140606.7330368439, 69203.07954586501, -113040.34895185816, 57910.06182552122, -110196.71531876508, 0.014, 0.9560000000000001, -0.058, 192.0, 0.0, 112.0, 29.0, 224.0, 254.0, 48.0, 0.0, 0.0, 0.0, 1.6664045727945876E9, 0.0, 2022-10-21 19:09:32.794
144.0, -132160.81346998375, -158456.97026931887, -32974.74628385857, -140618.4900544274, 69200.24087431919, -113029.28483835279, 57916.02974129078, -110191.79793498492, 0.014, 0.9560000000000001, -0.058, 192.0, 0.0, 0.0, 0.0, 0.0, 0.0, 0.0, 0.0, 0.0, 0.0, 1.6664045727946007E9, 0.0, 2022-10-21 19:09:32.794
145.0, -132151.98453092392, -158444.36388544607, -32969.02423727801, -140620.16643526155, 69202.31958655352, -113053.58118457571, 57904.13861324056, -110187.97578668306, 0.014, 0.9560000000000001, -0.058, 192.0, 0.0, 0.0, 0.0, 0.0, 0.0, 0.0, 0.0, 0.0, 0.0, 1.666404572794613E9, 0.0, 2022-10-21 19:09:32.794
146.0, -132144.2508273424, -158437.56895513166, -32961.42464416321, -140614.35498170316, 69204.4877057657, -113066.07580972623, 57903.22219171789, -110187.41699307169, 0.014, 0.9560000000000001, -0.058, 192.0, 0.0, 0.0, 0.0, 0.0, 0.0, 0.0, 0.0, 0.0, 0.0, 1.6664045727946253E9, 0.0, 2022-10-21 19:09:32.794
147.0, -132151.6045512682, -158445.36971394657, -32962.832804063895, -140603.82731006472, 69209.62860699042, -113048.77555951782, 57917.48260468038, -110193.47431581907, 0.014, 0.9560000000000001, -0.058, 192.0, 0.0, 0.0, 0.0, 0.0, 0.0, 0.0, 0.0, 0.0, 0.0, 1.6664045727946372E9, 0.0, 2022-10-21 19:09:32.794
148.0, -132151.58219952372, -158442.5533941452, -32957.803661561455, -140605.8389670657, 69215.59652275998, -113039.38782684659, 57922.84702334965, -110187.32758609386, 0.014, 0.9560000000000001, -0.058, 192.0, 0.0, 0.0, 0.0, 0.0, 0.0, 0.0, 0.0, 0.0, 0.0, 1.6664045727946496E9, 0.0, 2022-10-21 19:09:32.794
149.0, -132149.16821112254, -158440.76525458877, -32958.76478657303, -140613.12563575813, 69216.22237160473, -113048.37322811762, 57911.38057844408, -110184.33245233685, 0.014, 0.9560000000000001, -0.058, 192.0, 0.0, 0.0, 0.0, 0.0, 0.0, 0.0, 0.0, 0.0, 0.0, 1.666404572794675E9, 0.0, 2022-10-21 19:09:32.794
150.0, -132158.77946123833, -158447.8060540922, -32973.69575186918, -140625.70966788646, 69200.19617083027, -113061.20312943497, 57894.996749758335, -110199.39752809973, 0.014, 0.9560000000000001, -0.058, 192.0, 0.0, 0.0, 0.0, 0.0, 0.0, 0.0, 0.0, 0.0, 0.0, 1.666404572794688E9, 0.0, 2022-10-21 19:09:32.794
151.0, -132144.83197269822, -158431.13165272854, -32960.50822264054, -140611.22573747943, 69208.57807500102, -113057.26922241083, 57904.585648129665, -110189.04867041692, 0.014, 0.9560000000000001, -0.058, 192.0, 0.0, 0.0, 0.0, 0.0, 0.0, 0.0, 0.0, 0.0, 0.0, 1.6664045727947E9, 0.0, 2022-10-21 19:09:32.794
152.0, -132135.4889435159, -158422.54858285768, -32947.70067306765, -140590.8409465362, 69223.37492983043, -113038.51610881284, 57923.316409983214, -110177.89514993373, 0.014, 0.9560000000000001, -0.058, 192.0, 0.0, 0.0, 0.0, 0.0, 0.0, 0.0, 0.0, 0.0, 0.0, 1.6664045727947128E9, 0.0, 2022-10-21 19:09:32.794
153.0, -132129.25280681287, -158414.36784438704, -32951.54517311396, -140603.11205424214, 69218.61400826144, -113047.52386182832, 57913.90632556753, -110181.38202206875, 0.016, 0.9580000000000001, -0.058, 192.0, 0.0, 128.0, 29.0, 240.0, 254.0, 48.0, 0.0, 0.0, 0.0, 1.6664045727947252E9, 0.0, 2022-10-21 19:09:32.794
154.0, -132126.50354224487, -158409.91984724044, -32957.55779237244, -140610.51048165685, 69207.79576394508, -113057.60449857767, 57903.55746788472, -110185.91942619317, 0.016, 0.9580000000000001, -0.058, 192.0, 0.0, 0.0, 0.0, 0.0, 0.0, 0.0, 0.0, 0.0, 0.0, 1.666404572794738E9, 0.0, 2022-10-21 19:09:32.794
155.0, -132124.55894047726, -158407.41645186144, -32955.43437664919, -140601.01099026334, 69209.00275814567, -113040.2818966248, 57918.75665411433, -110183.21486511409, 0.016, 0.9580000000000001, -0.058, 192.0, 0.0, 0.0, 0.0, 0.0, 0.0, 0.0, 0.0, 0.0, 0.0, 1.6664045727947507E9, 0.0, 2022-10-21 19:09:32.794
156.0, -132109.80678913675, -158393.5360185547, -32944.50437361054, -140593.36669365963, 69214.81421170404, -113030.13420464209, 57932.3241629987, -110178.83392320084, 0.016, 0.9580000000000001, -0.058, 192.0, 0.0, 0.0, 0.0, 0.0, 0.0, 0.0, 0.0, 0.0, 0.0, 1.6664045727947645E9, 0.0, 2022-10-21 19:09:32.794
157.0, -132106.34226874617, -158387.85867546307, -32949.84644053536, -140602.91088854204, 69213.04842389208, -113040.30424836926, 57921.72943612689, -110185.69590874862, 0.016, 0.9580000000000001, -0.058, 192.0, 0.0, 0.0, 0.0, 0.0, 0.0, 0.0, 0.0, 0.0, 0.0, 1.6664045727947772E9, 0.0, 2022-10-21 19:09:32.794
158.0, -132096.88748084157, -158377.6215765025, -32950.85226903585, -140607.9400310445, 69209.1368686124, -113056.68807705499, 57910.12888075458, -110184.19834187011, 0.016, 0.9580000000000001, -0.058, 192.0, 0.0, 0.0, 0.0, 0.0, 0.0, 0.0, 0.0, 0.0, 0.0, 1.6664045727947893E9, 0.0, 2022-10-21 19:09:32.794
159.0, -132075.85448930913, -158360.7236576943, -32945.08551896638, -140597.25589719485, 69210.63443549091, -113053.62588806462, 57918.46608143641, -110180.39854531271, 0.016, 0.9580000000000001, -0.058, 192.0, 0.0, 0.0, 0.0, 0.0, 0.0, 0.0, 0.0, 0.0, 0.0, 1.666404572794802E9, 0.0, 2022-10-21 19:09:32.794
160.0, -132057.03432047777, -158338.55072719464, -32945.15257419975, -140595.75833031634, 69208.9357029123, -113042.9864577039, 57928.36790423011, -110188.40046982771, 0.016, 0.9580000000000001, -0.058, 192.0, 0.0, 0.0, 0.0, 0.0, 0.0, 0.0, 0.0, 0.0, 0.0, 1.6664045727948205E9, 0.0, 2022-10-21 19:09:32.794
161.0, -132041.23163714787, -158316.2660379727, -32939.29641715246, -140604.40845542055, 69212.69079598079, -113047.65797229506, 57926.06567455122, -110179.7056412346, 0.016, 0.9580000000000001, -0.058, 192.0, 0.0, 0.0, 0.0, 0.0, 0.0, 0.0, 0.0, 0.0, 0.0, 1.6664045727948391E9, 0.0, 2022-10-21 19:09:32.794
162.0, -132029.02758467526, -158298.94343601985, -32930.28866413697, -140604.11788274263, 69217.67523499433, -113057.38098113312, 57918.17550875849, -110176.19641735512, 0.016, 0.9580000000000001, -0.058, 192.0, 0.0, 0.0, 0.0, 0.0, 0.0, 0.0, 0.0, 0.0, 0.0, 1.6664045727948563E9, 0.0, 2022-10-21 19:09:32.794
163.0, -132015.6165380021, -158285.01829922418, -32923.76195475602, -140587.2423156789, 69225.5430490426, -113035.78919598929, 57936.07925606719, -110168.50741726249, 0.008, 0.964, -0.068, 192.0, 0.0, 64.0, 30.0, 32.0, 253.0, 224.0, 0.0, 0.0, 0.0, 1.6664045727948687E9, 0.0, 2022-10-21 19:09:32.794
164.0, -132006.9664128979, -158276.09995318652, -32926.71238502412, -140585.56593484472, 69222.95024668578, -113024.36745457262, 57947.52334922831, -110168.52976900694, 0.008, 0.964, -0.068, 192.0, 0.0, 0.0, 0.0, 0.0, 0.0, 0.0, 0.0, 0.0, 0.0, 1.6664045727948947E9, 0.0, 2022-10-21 19:09:32.794
165.0, -131994.8070639142, -158261.0125256792, -32928.522876325, -140599.75929257384, 69214.21071460376, -113021.1264516266, 57950.11615158513, -110173.29069057593, 0.008, 0.964, -0.068, 192.0, 0.0, 0.0, 0.0, 0.0, 0.0, 0.0, 0.0, 0.0, 0.0, 1.666404572794907E9, 0.0, 2022-10-21 19:09:32.794
166.0, -131971.51654619176, -158238.72783645726, -32919.001033187036, -140596.27242043882, 69221.340921085, -113041.19831814746, 57941.60013694765, -110169.31208006288, 0.008, 0.964, -0.068, 192.0, 0.0, 0.0, 0.0, 0.0, 0.0, 0.0, 0.0, 0.0, 0.0, 1.6664045727949193E9, 0.0, 2022-10-21 19:09:32.794
167.0, -131958.01609254075, -158224.8474031505, -32919.760992498515, -140596.11595822763, 69220.02216816213, -113043.09821642617, 57942.89653812606, -110170.31790856337, 0.008, 0.964, -0.068, 192.0, 0.0, 0.0, 0.0, 0.0, 0.0, 0.0, 0.0, 0.0, 0.0, 1.6664045727949314E9, 0.0, 2022-10-21 19:09:32.794
168.0, -131946.7508133353, -158215.10204256797, -32916.02825117448, -140590.0362837358, 69220.58096177352, -113034.24692562186, 57956.240529565875, -110165.69109746112, 0.008, 0.964, -0.068, 192.0, 0.0, 0.0, 0.0, 0.0, 0.0, 0.0, 0.0, 0.0, 0.0, 1.6664045727949433E9, 0.0, 2022-10-21 19:09:32.794
169.0, -131938.52537137573, -158210.00584483217, -32919.09044016486, -140594.30546692677, 69220.06687165104, -113028.03314066329, 57961.51554125733, -110170.02733588545, 0.008, 0.964, -0.068, 192.0, 0.0, 0.0, 0.0, 0.0, 0.0, 0.0, 0.0, 0.0, 0.0, 1.6664045727949555E9, 0.0, 2022-10-21 19:09:32.794
170.0, -131921.71685954535, -158194.56078941355, -32917.68228026418, -140599.31225768474, 69224.5372205421, -113041.9359257145, 57948.43977075098, -110167.97097539557, 0.008, 0.964, -0.068, 192.0, 0.0, 0.0, 0.0, 0.0, 0.0, 0.0, 0.0, 0.0, 0.0, 1.6664045727949677E9, 0.0, 2022-10-21 19:09:32.794
171.0, -131904.10368491456, -158179.2945479506, -32908.62982375977, -140583.6883883105, 69235.06489218056, -113045.17692866051, 57949.06561959573, -110158.24796655751, 0.008, 0.964, -0.068, 192.0, 0.0, 0.0, 0.0, 0.0, 0.0, 0.0, 0.0, 0.0, 0.0, 1.66640457279498E9, 0.0, 2022-10-21 19:09:32.794
172.0, -131890.53617603017, -158166.95638501126, -32908.38395457077, -140573.1830684165, 69232.91912471285, -113027.76491972983, 57962.92370115801, -110159.83494041383, 0.006, 0.962, -0.058, 192.0, 0.0, 48.0, 30.0, 16.0, 254.0, 48.0, 0.0, 0.0, 0.0, 1.6664045727949922E9, 0.0, 2022-10-21 19:09:32.794
173.0, -131874.9346584004, -158147.97975396868, -32911.244977861046, -140589.9915802469, 69224.7383862422, -113046.96506821693, 57951.94899463046, -110158.15855957968, 0.006, 0.962, -0.058, 192.0, 0.0, 0.0, 0.0, 0.0, 0.0, 0.0, 0.0, 0.0, 0.0, 1.666404572795005E9, 0.0, 2022-10-21 19:09:32.795
174.0, -131854.54986745716, -158126.90205894734, -32904.807675457916, -140589.70100756898, 69233.16499390185, -113058.47621661142, 57945.89167188307, -110150.67072518716, 0.006, 0.962, -0.058, 192.0, 0.0, 0.0, 0.0, 0.0, 0.0, 0.0, 0.0, 0.0, 0.0, 1.6664045727950175E9, 0.0, 2022-10-21 19:09:32.795
175.0, -131837.02609980418, -158111.68052097328, -32896.80575094292, -140575.90998124005, 69241.59160156151, -113041.80181524776, 57956.46404701043, -110148.86023388628, 0.006, 0.962, -0.058, 192.0, 0.0, 0.0, 0.0, 0.0, 0.0, 0.0, 0.0, 0.0, 0.0, 1.6664045727950296E9, 0.0, 2022-10-21 19:09:32.795
176.0, -131819.12235249547, -158095.98959636566, -32895.285832319954, -140565.58347530168, 69241.21162190576, -113014.62209399011, 57975.37362281962, -110147.80970189688, 0.006, 0.962, -0.058, 192.0, 0.0, 0.0, 0.0, 0.0, 0.0, 0.0, 0.0, 0.0, 0.0, 1.6664045727950425E9, 0.0, 2022-10-21 19:09:32.795
177.0, -131790.1097881925, -158068.27343324106, -32887.686239205155, -140564.59999854566, 69245.34669462999, -113010.35291079915, 57981.22977986691, -110145.12749256224, 0.006, 0.962, -0.058, 192.0, 0.0, 0.0, 0.0, 0.0, 0.0, 0.0, 0.0, 0.0, 0.0, 1.666404572795056E9, 0.0, 2022-10-21 19:09:32.795
178.0, -131768.47329955976, -158044.6476393518, -32883.618221714285, -140580.3356266422, 69246.46428185276, -113047.50151008386, 57959.16860808952, -110143.71933266155, 0.006, 0.962, -0.058, 192.0, 0.0, 0.0, 0.0, 0.0, 0.0, 0.0, 0.0, 0.0, 0.0, 1.6664045727950685E9, 0.0, 2022-10-21 19:09:32.795
179.0, -131758.14679362142, -158031.28129616755, -32888.89323340574, -140585.34241740018, 69247.09013069751, -113051.2342514079, 57951.2784422968, -110151.31892577636, 0.006, 0.962, -0.058, 192.0, 0.0, 0.0, 0.0, 0.0, 0.0, 0.0, 0.0, 0.0, 0.0, 1.6664045727950928E9, 0.0, 2022-10-21 19:09:32.795
180.0, -131737.2926160446, -158010.80709824647, -32882.97002112508, -140564.80116424576, 69255.15911044588, -113030.178908131, 57966.83525643769, -110151.94477462111, 0.006, 0.962, -0.058, 192.0, 0.0, 0.0, 0.0, 0.0, 0.0, 0.0, 0.0, 0.0, 0.0, 1.6664045727951052E9, 0.0, 2022-10-21 19:09:32.795
181.0, -131718.36068849097, -157992.83629570442, -32882.67944844716, -140566.56695205774, 69249.63822956542, -113025.19446911747, 57976.75943097585, -110158.18091132415, 0.006, 0.962, -0.058, 192.0, 0.0, 0.0, 0.0, 0.0, 0.0, 0.0, 0.0, 0.0, 0.0, 1.6664045727951186E9, 0.0, 2022-10-21 19:09:32.795
182.0, -131700.36753420444, -157975.044307118, -32878.29850653392, -140578.7710045303, 69250.12996794343, -113042.91940247052, 57966.321166315225, -110155.18577756712, 0.01, 0.96, -0.058, 192.0, 0.0, 80.0, 30.0, 0.0, 254.0, 48.0, 0.0, 0.0, 0.0, 1.6664045727951307E9, 0.0, 2022-10-21 19:09:32.795
183.0, -131673.54544085806, -157947.10462654885, -32867.055579072905, -140569.6291410481, 69264.345677417, -113044.05934143775, 57967.30464307126, -110140.47832971554, 0.01, 0.96, -0.058, 192.0, 0.0, 0.0, 0.0, 0.0, 0.0, 0.0, 0.0, 0.0, 0.0, 1.6664045727951438E9, 0.0, 2022-10-21 19:09:32.795
184.0, -131658.05568195053, -157927.79271933946, -32867.79318663993, -140565.56112355724, 69259.07066572555, -113040.84069023617, 57971.46206753994, -110137.86317561427, 0.01, 0.96, -0.058, 192.0, 0.0, 0.0, 0.0, 0.0, 0.0, 0.0, 0.0, 0.0, 0.0, 1.6664045727951565E9, 0.0, 2022-10-21 19:09:32.795
185.0, -131637.82735321848, -157907.7208528186, -32865.714474405584, -140563.21419038944, 69259.33888665901, -113031.20708837594, 57981.11802114463, -110146.17802455164, 0.01, 0.96, -0.058, 192.0, 0.0, 0.0, 0.0, 0.0, 0.0, 0.0, 0.0, 0.0, 0.0, 1.6664045727951689E9, 0.0, 2022-10-21 19:09:32.795
186.0, -131631.03242290407, -157901.68588181568, -32865.53566044995, -140571.3725771156, 69259.36123840348, -113019.83005044819, 57986.88477121411, -110150.8048356539, 0.01, 0.96, -0.058, 192.0, 0.0, 0.0, 0.0, 0.0, 0.0, 0.0, 0.0, 0.0, 0.0, 1.6664045727951815E9, 0.0, 2022-10-21 19:09:32.795
187.0, -131608.59127147094, -157876.9648524481, -32858.22664001306, -140572.89249573858, 69262.66929658286, -113045.28868738278, 57972.35613731816, -110140.45597797108, 0.01, 0.96, -0.058, 192.0, 0.0, 0.0, 0.0, 0.0, 0.0, 0.0, 0.0, 0.0, 0.0, 1.666404572795194E9, 0.0, 2022-10-21 19:09:32.795
188.0, -131584.4513874592, -157852.19911959162, -32851.85639284329, -140562.43187933348, 69267.67608734085, -113046.83095775021, 57975.06069839725, -110134.10808254578, 0.01, 0.96, -0.058, 192.0, 0.0, 0.0, 0.0, 0.0, 0.0, 0.0, 0.0, 0.0, 0.0, 1.6664045727952063E9, 0.0, 2022-10-21 19:09:32.795
189.0, -131579.77987286806, -157847.37114278928, -32847.140174763226, -140559.05676592074, 69268.7042675858, -113030.15655638654, 57989.47757357092, -110133.12460578974, 0.01, 0.96, -0.058, 192.0, 0.0, 0.0, 0.0, 0.0, 0.0, 0.0, 0.0, 0.0, 0.0, 1.6664045727952187E9, 0.0, 2022-10-21 19:09:32.795
190.0, -131564.04424477153, -157831.1437763147, -32848.324817219356, -140569.69619628147, 69263.20573844979, -113041.75711175885, 57980.60393102216, -110142.78055939444, 0.01, 0.96, -0.058, 192.0, 0.0, 0.0, 0.0, 0.0, 0.0, 0.0, 0.0, 0.0, 0.0, 1.6664045727952316E9, 0.0, 2022-10-21 19:09:32.795
191.0, -131550.54379112052, -157817.95624708608, -32847.78837535243, -140573.13836492758, 69266.603203607, -113046.04864669427, 57975.127753630615, -110145.17219605115, 0.01, 0.96, -0.058, 192.0, 0.0, 0.0, 0.0, 0.0, 0.0, 0.0, 0.0, 0.0, 0.0, 1.6664045727952435E9, 0.0, 2022-10-21 19:09:32.795
192.0, -131547.32513991895, -157814.75994762898, -32840.412299682175, -140562.96832120043, 69275.92388104486, -113032.61524827663, 57984.135506646104, -110136.67853315813, 0.014, 0.9580000000000001, -0.054, 192.0, 0.0, 112.0, 29.0, 240.0, 254.0, 80.0, 0.0, 0.0, 0.0, 1.6664045727952557E9, 0.0, 2022-10-21 19:09:32.795
193.0, -131527.5885495649, -157797.37029044275, -32834.332625190335, -140556.95570194194, 69276.05799151158, -113026.60262901815, 57993.74675676188, -110126.24026849751, 0.014, 0.9580000000000001, -0.054, 192.0, 0.0, 0.0, 0.0, 0.0, 0.0, 0.0, 0.0, 0.0, 0.0, 1.666404572795282E9, 0.0, 2022-10-21 19:09:32.795
194.0, -131522.17942740672, -157788.47429614954, -32833.59501762331, -140554.13938214057, 69278.80725607958, -113020.2770853373, 57996.9877597079, -110126.21791675306, 0.014, 0.9580000000000001, -0.054, 192.0, 0.0, 0.0, 0.0, 0.0, 0.0, 0.0, 0.0, 0.0, 0.0, 1.6664045727952948E9, 0.0, 2022-10-21 19:09:32.795
195.0, -131514.71394475867, -157778.8406942893, -32828.23059895403, -140554.87698970758, 69284.70811661579, -113022.98164641639, 57992.316245116745, -110122.8428033403, 0.014, 0.9580000000000001, -0.054, 192.0, 0.0, 0.0, 0.0, 0.0, 0.0, 0.0, 0.0, 0.0, 0.0, 1.6664045727953076E9, 0.0, 2022-10-21 19:09:32.795
196.0, -131506.46615105466, -157773.8339035313, -32826.82243905335, -140550.71956523892, 69286.0045177942, -113030.2236116199, 57987.82354448123, -110122.73104461802, 0.014, 0.9580000000000001, -0.054, 192.0, 0.0, 0.0, 0.0, 0.0, 0.0, 0.0, 0.0, 0.0, 0.0, 1.6664045727953205E9, 0.0, 2022-10-21 19:09:32.795
197.0, -131511.42823832372, -157781.0982204793, -32830.37636642175, -140546.6738994925, 69286.4515526833, -113023.24986734985, 57992.3385968612, -110122.41812019565, 0.014, 0.9580000000000001, -0.054, 192.0, 0.0, 0.0, 0.0, 0.0, 0.0, 0.0, 0.0, 0.0, 0.0, 1.6664045727953331E9, 0.0, 2022-10-21 19:09:32.795
198.0, -131508.3884010778, -157778.01367974444, -32831.73982283352, -140549.22199836042, 69284.88693057143, -113017.14784111356, 57996.451317840976, -110130.86707959976, 0.014, 0.9580000000000001, -0.054, 192.0, 0.0, 0.0, 0.0, 0.0, 0.0, 0.0, 0.0, 0.0, 0.0, 1.6664045727953467E9, 0.0, 2022-10-21 19:09:32.795
199.0, -131501.8393399524, -157771.91165350817, -32833.17033447866, -140562.05189967775, 69280.88596831393, -113032.79406223226, 57982.034442667304, -110140.05364657089, 0.014, 0.9580000000000001, -0.054, 192.0, 0.0, 0.0, 0.0, 0.0, 0.0, 0.0, 0.0, 0.0, 0.0, 1.6664045727953596E9, 0.0, 2022-10-21 19:09:32.795
200.0, -131499.71592422915, -157769.87764476272, -32832.790354822915, -140559.5261525543, 69280.46128516928, -113047.88148973961, 57971.26090183984, -110135.71740814656, 0.014, 0.9580000000000001, -0.054, 192.0, 0.0, 0.0, 0.0, 0.0, 0.0, 0.0, 0.0, 0.0, 0.0, 1.666404572795372E9, 0.0, 2022-10-21 19:09:32.795
201.0, -131504.7897702205, -157776.35965065478, -32835.40550892419, -140552.86533270663, 69276.34856418951, -113041.80181524776, 57978.16759087653, -110134.17513777914, 0.016, 0.9580000000000001, -0.05, 192.0, 0.0, 128.0, 29.0, 240.0, 254.0, 112.0, 0.0, 0.0, 0.0, 1.6664045727953844E9, 0.0, 2022-10-21 19:09:32.795
202.0, -131513.2387296246, -157784.27216819194, -32840.92638980465, -140557.44744031996, 69271.2523664537, -113036.57150704521, 57983.55436129026, -110139.96423959307, 0.016, 0.9580000000000001, -0.05, 192.0, 0.0, 0.0, 0.0, 0.0, 0.0, 0.0, 0.0, 0.0, 0.0, 1.6664045727953975E9, 0.0, 2022-10-21 19:09:32.795
203.0, -131506.91318594376, -157777.3431274108, -32835.249046713005, -140558.87795196509, 69276.57208163406, -113037.10794891215, 57979.95573043296, -110135.58329767983, 0.016, 0.9580000000000001, -0.05, 192.0, 0.0, 0.0, 0.0, 0.0, 0.0, 0.0, 0.0, 0.0, 0.0, 1.66640457279541E9, 0.0, 2022-10-21 19:09:32.795
204.0, -131504.2309766091, -157778.25954893345, -32835.13728799073, -140563.79533574526, 69272.07938099855, -113048.37322811762, 57967.99754714937, -110137.1926232806, 0.016, 0.9580000000000001, -0.05, 192.0, 0.0, 0.0, 0.0, 0.0, 0.0, 0.0, 0.0, 0.0, 0.0, 1.6664045727954223E9, 0.0, 2022-10-21 19:09:32.795
205.0, -131512.27760461302, -157787.53552288242, -32844.07798577285, -140564.46588807894, 69261.37289540445, -113051.68128629701, 57967.32699481571, -110142.08765531633, 0.016, 0.9580000000000001, -0.05, 192.0, 0.0, 0.0, 0.0, 0.0, 0.0, 0.0, 0.0, 0.0, 0.0, 1.6664045727954345E9, 0.0, 2022-10-21 19:09:32.795
206.0, -131508.4778080556, -157782.1040489798, -32840.23348572654, -140558.40856533154, 69270.09007574202, -113030.35772208664, 57983.643768268084, -110139.27133551495, 0.016, 0.9580000000000001, -0.05, 192.0, 0.0, 0.0, 0.0, 0.0, 0.0, 0.0, 0.0, 0.0, 0.0, 1.6664045727954469E9, 0.0, 2022-10-21 19:09:32.795
207.0, -131502.37578181934, -157776.80668554388, -32834.824363568354, -140566.36578635764, 69274.71688684427, -113041.01950419182, 57978.16759087653, -110136.05268431338, 0.016, 0.9580000000000001, -0.05, 192.0, 0.0, 0.0, 0.0, 0.0, 0.0, 0.0, 0.0, 0.0, 0.0, 1.666404572795459E9, 0.0, 2022-10-21 19:09:32.795
208.0, -131502.2863748415, -157775.55498785438, -32828.99055826552, -140568.2209811474, 69274.0016310217, -113057.82801602222, 57965.963538403936, -110132.38699822272, 0.016, 0.9580000000000001, -0.05, 192.0, 0.0, 0.0, 0.0, 0.0, 0.0, 0.0, 0.0, 0.0, 0.0, 1.666404572795483E9, 0.0, 2022-10-21 19:09:32.795
209.0, -131498.19600560618, -157771.4869703635, -32823.31321517387, -140554.13938214057, 69274.4039624219, -113050.76486477433, 57973.42902105201, -110131.20235576658, 0.016, 0.9580000000000001, -0.05, 192.0, 0.0, 0.0, 0.0, 0.0, 0.0, 0.0, 0.0, 0.0, 0.0, 1.6664045727954955E9, 0.0, 2022-10-21 19:09:32.795
210.0, -131503.06868589745, -157779.51124662295, -32831.49395364451, -140561.49310606637, 69264.52449137265, -113049.58022231821, 57975.70889898645, -110142.6464489277, 0.016, 0.9580000000000001, -0.05, 192.0, 0.0, 0.0, 0.0, 0.0, 0.0, 0.0, 0.0, 0.0, 0.0, 1.6664045727955077E9, 0.0, 2022-10-21 19:09:32.795
211.0, -131505.795598721, -157782.72989782452, -32836.54544789141, -140577.0722719517, 69257.8413197805, -113065.31585041474, 57961.85081742416, -110154.11289383327, 0.016, 0.962, -0.052000000000000005, 192.0, 0.0, 128.0, 30.0, 16.0, 254.0, 96.0, 0.0, 0.0, 0.0, 1.6664045727955196E9, 0.0, 2022-10-21 19:09:32.795
212.0, -131497.34663931688, -157773.27510991992, -32829.28113094343, -140576.40171961806, 69263.07162798305, -113088.06992627024, 57945.7799131608, -110145.8427483848, 0.016, 0.962, -0.052000000000000005, 192.0, 0.0, 0.0, 0.0, 0.0, 0.0, 0.0, 0.0, 0.0, 0.0, 1.6664045727955327E9, 0.0, 2022-10-21 19:09:32.795
213.0, -131497.45839803916, -157773.9903657425, -32829.5493518769, -140563.66122527854, 69267.40786640739, -113069.62973709461, 57960.04032612328, -110142.8923181167, 0.016, 0.962, -0.052000000000000005, 192.0, 0.0, 0.0, 0.0, 0.0, 0.0, 0.0, 0.0, 0.0, 0.0, 1.6664045727955449E9, 0.0, 2022-10-21 19:09:32.795
214.0, -131498.9783166621, -157775.06324947634, -32828.92350303215, -140555.27932110778, 69271.81116006507, -113038.22553613491, 57984.224913623926, -110141.73002740504, 0.016, 0.962, -0.052000000000000005, 192.0, 0.0, 0.0, 0.0, 0.0, 0.0, 0.0, 0.0, 0.0, 0.0, 1.6664045727955568E9, 0.0, 2022-10-21 19:09:32.795
215.0, -131490.61876423584, -157766.16725518313, -32819.446363383104, -140552.50770479534, 69279.25429096869, -113040.90774546955, 57986.504791558364, -110134.89039360172, 0.016, 0.962, -0.052000000000000005, 192.0, 0.0, 0.0, 0.0, 0.0, 0.0, 0.0, 0.0, 0.0, 0.0, 1.6664045727955692E9, 0.0, 2022-10-21 19:09:32.795
216.0, -131498.86655793985, -157775.3985256432, -32831.22573271105, -140571.03730094878, 69268.41369490787, -113060.06319046774, 57966.298814570764, -110147.02739084094, 0.016, 0.962, -0.052000000000000005, 192.0, 0.0, 0.0, 0.0, 0.0, 0.0, 0.0, 0.0, 0.0, 0.0, 1.666404572795581E9, 0.0, 2022-10-21 19:09:32.795
217.0, -131502.66635449725, -157779.91357802314, -32835.74078509102, -140569.98676895938, 69262.57988960504, -113064.98057424791, 57960.66617496803, -110148.86023388628, 0.016, 0.962, -0.052000000000000005, 192.0, 0.0, 0.0, 0.0, 0.0, 0.0, 0.0, 0.0, 0.0, 0.0, 1.666404572795594E9, 0.0, 2022-10-21 19:09:32.795
218.0, -131503.04633415298, -157778.8853977782, -32836.567799635865, -140555.83811471917, 69263.78688380562, -113053.58118457571, 57973.09374488518, -110143.40640823919, 0.016, 0.962, -0.052000000000000005, 192.0, 0.0, 0.0, 0.0, 0.0, 0.0, 0.0, 0.0, 0.0, 0.0, 1.666404572795606E9, 0.0, 2022-10-21 19:09:32.795
219.0, -131499.02302015104, -157774.32564190932, -32835.40550892419, -140560.48727756587, 69263.0939797275, -113059.97378348993, 57968.824561694215, -110144.9933820955, 0.016, 0.962, -0.052000000000000005, 192.0, 0.0, 0.0, 0.0, 0.0, 0.0, 0.0, 0.0, 0.0, 0.0, 1.6664045727956183E9, 0.0, 2022-10-21 19:09:32.795
220.0, -131495.55849976046, -157769.5423685959, -32833.79618332341, -140566.34343461317, 69267.02788675165, -113069.07094348324, 57959.4815325119, -110150.78248390944, 0.016, 0.962, -0.052000000000000005, 192.0, 0.0, 0.0, 0.0, 0.0, 0.0, 0.0, 0.0, 0.0, 0.0, 1.6664045727956316E9, 0.0, 2022-10-21 19:09:32.795
221.0, -131496.76549396105, -157768.40242962868, -32835.71843334656, -140566.58930380217, 69264.32332567255, -113074.1894929635, 57952.77600917531, -110156.3033647899, 0.01, 0.9560000000000001, -0.054, 192.0, 0.0, 80.0, 29.0, 224.0, 254.0, 80.0, 0.0, 0.0, 0.0, 1.6664045727956436E9, 0.0, 2022-10-21 19:09:32.795
222.0, -131493.94917415967, -157767.6424703172, -32832.231561211534, -140556.39690833056, 69266.4020379069, -113064.35472540316, 57961.44848602397, -110155.61046071177, 0.01, 0.9560000000000001, -0.054, 192.0, 0.0, 0.0, 0.0, 0.0, 0.0, 0.0, 0.0, 0.0, 0.0, 1.6664045727956564E9, 0.0, 2022-10-21 19:09:32.795
223.0, -131493.72565671513, -157768.60359532878, -32831.6504158557, -140560.59903628816, 69269.03954375262, -113058.05153346677, 57967.10347737116, -110154.4481700001, 0.01, 0.9560000000000001, -0.054, 192.0, 0.0, 0.0, 0.0, 0.0, 0.0, 0.0, 0.0, 0.0, 0.0, 1.6664045727956803E9, 0.0, 2022-10-21 19:09:32.795
224.0, -131492.71982821464, -157766.30136564988, -32833.95264553459, -140582.9731324879, 69260.59058434851, -113088.20403673698, 57944.59527070466, -110158.27031830196, 0.01, 0.9560000000000001, -0.054, 192.0, 0.0, 0.0, 0.0, 0.0, 0.0, 0.0, 0.0, 0.0, 0.0, 1.6664045727956955E9, 0.0, 2022-10-21 19:09:32.795
225.0, -131492.31749681444, -157763.90972899317, -32833.52796238994, -140575.418242862, 69263.16103496088, -113092.5402751613, 57940.34843925815, -110155.6998676896, 0.01, 0.9560000000000001, -0.054, 192.0, 0.0, 0.0, 0.0, 0.0, 0.0, 0.0, 0.0, 0.0, 0.0, 1.6664045727957082E9, 0.0, 2022-10-21 19:09:32.795
226.0, -131496.69843872768, -157766.56958658333, -32838.08771825882, -140566.56695205774, 69258.91420351436, -113070.92613827302, 57955.74879118786, -110155.36459152277, 0.01, 0.9560000000000001, -0.054, 192.0, 0.0, 0.0, 0.0, 0.0, 0.0, 0.0, 0.0, 0.0, 0.0, 1.6664045727957203E9, 0.0, 2022-10-21 19:09:32.795
227.0, -131500.1853108627, -157769.31885115133, -32841.9992735385, -140569.78560325928, 69251.78399703313, -113068.10981847165, 57959.43682902299, -110155.31988803386, 0.01, 0.9560000000000001, -0.054, 192.0, 0.0, 0.0, 0.0, 0.0, 0.0, 0.0, 0.0, 0.0, 0.0, 1.6664045727957332E9, 0.0, 2022-10-21 19:09:32.795
228.0, -131500.788807963, -157768.91651975113, -32845.59790439581, -140578.25691440786, 69251.31461039957, -113075.2400249529, 57950.585538218686, -110153.84467289981, 0.01, 0.9560000000000001, -0.054, 192.0, 0.0, 0.0, 0.0, 0.0, 0.0, 0.0, 0.0, 0.0, 0.0, 1.6664045727957456E9, 0.0, 2022-10-21 19:09:32.795
229.0, -131496.02788639403, -157763.99913597098, -32842.714529361074, -140576.93816148498, 69257.28252616913, -113083.33135644572, 57943.65649743754, -110153.53174847744, 0.01, 0.9560000000000001, -0.054, 192.0, 0.0, 0.0, 0.0, 0.0, 0.0, 0.0, 0.0, 0.0, 0.0, 1.6664045727957604E9, 0.0, 2022-10-21 19:09:32.795
230.0, -131491.51283401405, -157757.96416496806, -32835.53961939092, -140568.91388522554, 69258.17659594734, -113071.61904235114, 57957.022840621816, -110147.2956117744, 0.01, 0.9560000000000001, -0.054, 192.0, 0.0, 0.0, 0.0, 0.0, 0.0, 0.0, 0.0, 0.0, 0.0, 1.6664045727957747E9, 0.0, 2022-10-21 19:09:32.795
231.0, -131489.54588050197, -157756.51130157846, -32831.628064111246, -140568.55625731425, 69256.52256685765, -113070.34499291719, 57965.74002095938, -110147.20620479659, 0.018000000000000002, 0.9560000000000001, -0.052000000000000005, 192.0, 0.0, 144.0, 29.0, 224.0, 254.0, 96.0, 0.0, 0.0, 0.0, 1.6664045727957897E9, 0.0, 2022-10-21 19:09:32.795
232.0, -131488.11536885684, -157755.46076958906, -32830.21990421056, -140573.09366143867, 69260.85880528198, -113080.58209187772, 57957.42517202201, -110151.20716705409, 0.018000000000000002, 0.9560000000000001, -0.052000000000000005, 192.0, 0.0, 0.0, 0.0, 0.0, 0.0, 0.0, 0.0, 0.0, 0.0, 1.6664045727958047E9, 0.0, 2022-10-21 19:09:32.795
233.0, -131494.91029917126, -157759.8864149912, -32838.71356710357, -140578.3686731301, 69259.6965145703, -113086.90763555857, 57945.399933505054, -110160.03610611393, 0.018000000000000002, 0.9560000000000001, -0.052000000000000005, 192.0, 0.0, 0.0, 0.0, 0.0, 0.0, 0.0, 0.0, 0.0, 0.0, 1.666404572795826E9, 0.0, 2022-10-21 19:09:32.795
234.0, -131489.92586015773, -157754.7902172554, -32834.64554961271, -140567.9751119584, 69262.26696518266, -113079.30804244376, 57956.08406735469, -110152.77178916596, 0.018000000000000002, 0.9560000000000001, -0.052000000000000005, 192.0, 0.0, 0.0, 0.0, 0.0, 0.0, 0.0, 0.0, 0.0, 0.0, 1.666404572795841E9, 0.0, 2022-10-21 19:09:32.795
235.0, -131488.54005200148, -157753.985554455, -32831.628064111246, -140554.31819609622, 69269.598337364, -113052.48594909739, 57979.53104728831, -110142.11000706078, 0.018000000000000002, 0.9560000000000001, -0.052000000000000005, 192.0, 0.0, 0.0, 0.0, 0.0, 0.0, 0.0, 0.0, 0.0, 0.0, 1.6664045727958553E9, 0.0, 2022-10-21 19:09:32.795
236.0, -131495.17852010473, -157758.81353125736, -32838.89238105922, -140569.36092011465, 69265.17269196185, -113054.81053052074, 57975.03834665279, -110146.51330071846, 0.018000000000000002, 0.9560000000000001, -0.052000000000000005, 192.0, 0.0, 0.0, 0.0, 0.0, 0.0, 0.0, 0.0, 0.0, 0.0, 1.6664045727958703E9, 0.0, 2022-10-21 19:09:32.795
237.0, -131490.6858194692, -157755.6842870336, -32834.757308334985, -140579.70977779746, 69266.29027918461, -113069.36151616115, 57964.46597152543, -110145.93215536264, 0.018000000000000002, 0.9560000000000001, -0.052000000000000005, 192.0, 0.0, 0.0, 0.0, 0.0, 0.0, 0.0, 0.0, 0.0, 0.0, 1.6664045727958848E9, 0.0, 2022-10-21 19:09:32.795
238.0, -131485.81313917795, -157751.05747593136, -32828.811744309874, -140570.16558291504, 69269.03954375262, -113081.29734770028, 57960.1297331011, -110140.27716401544, 0.018000000000000002, 0.9560000000000001, -0.052000000000000005, 192.0, 0.0, 0.0, 0.0, 0.0, 0.0, 0.0, 0.0, 0.0, 0.0, 1.6664045727959137E9, 0.0, 2022-10-21 19:09:32.795
239.0, -131490.30583981346, -157754.65610678867, -32831.15867747768, -140563.10243166715, 69266.2008722068, -113068.57920510521, 57971.551474517764, -110144.7922163954, 0.018000000000000002, 0.9560000000000001, -0.052000000000000005, 192.0, 0.0, 0.0, 0.0, 0.0, 0.0, 0.0, 0.0, 0.0, 0.0, 1.6664045727959285E9, 0.0, 2022-10-21 19:09:32.795
240.0, -131493.25627008156, -157756.8242260008, -32834.73495659053, -140571.30552188226, 69261.84228203801, -113068.5345016163, 57969.00337564986, -110149.62019319776, 0.016, 0.96, -0.054, 192.0, 0.0, 128.0, 30.0, 0.0, 254.0, 80.0, 0.0, 0.0, 0.0, 1.666404572795944E9, 0.0, 2022-10-21 19:09:32.795
241.0, -131491.78105494753, -157755.41606610015, -32832.27626470045, -140574.2336004059, 69266.29027918461, -113068.22157719394, 57965.49415177038, -110145.7980448959, 0.016, 0.96, -0.054, 192.0, 0.0, 0.0, 0.0, 0.0, 0.0, 0.0, 0.0, 0.0, 0.0, 1.6664045727959604E9, 0.0, 2022-10-21 19:09:32.795
242.0, -131492.1833863477, -157757.6735922901, -32829.97403502155, -140567.34926311366, 69266.33498267354, -113071.70844932896, 57963.10251511366, -110145.61923094025, 0.016, 0.96, -0.054, 192.0, 0.0, 0.0, 0.0, 0.0, 0.0, 0.0, 0.0, 0.0, 0.0, 1.6664045732731695E9, 0.0, 2022-10-21 19:09:33.273
243.0, -131495.40203754927, -157762.94860398158, -32830.95751177758, -140560.08494616568, 69267.16199721837, -113060.7337428014, 57976.64767225357, -110141.75237914949, 0.016, 0.96, -0.054, 192.0, 0.0, 0.0, 0.0, 0.0, 0.0, 0.0, 0.0, 0.0, 0.0, 1.6664045732733948E9, 0.0, 2022-10-21 19:09:33.273
244.0, -131499.87238644034, -157767.21778717253, -32834.198514723605, -140568.95858871445, 69263.78688380562, -113046.00394320536, 57985.543666546786, -110149.08375133084, 0.016, 0.96, -0.054, 192.0, 0.0, 0.0, 0.0, 0.0, 0.0, 0.0, 0.0, 0.0, 0.0, 1.666404573273418E9, 0.0, 2022-10-21 19:09:33.273
245.0, -131500.40882830726, -157766.2790139054, -32835.98665428003, -140578.5698388302, 69263.27279368315, -113058.29740265578, 57971.32795707321, -110159.43260901363, 0.016, 0.96, -0.054, 192.0, 0.0, 0.0, 0.0, 0.0, 0.0, 0.0, 0.0, 0.0, 0.0, 1.6664045732734396E9, 0.0, 2022-10-21 19:09:33.273
246.0, -131498.59833700638, -157764.40146737118, -32832.34331993381, -140576.24525740687, 69261.5517093601, -113073.49658888539, 57962.05198312426, -110152.81649265486, 0.016, 0.96, -0.054, 192.0, 0.0, 0.0, 0.0, 0.0, 0.0, 0.0, 0.0, 0.0, 0.0, 1.666404573273462E9, 0.0, 2022-10-21 19:09:33.273
247.0, -131494.2397468376, -157760.42285685812, -32825.794258808404, -140564.7788125013, 69265.41856115086, -113077.60930986516, 57968.533989016294, -110143.67462917264, 0.016, 0.96, -0.054, 192.0, 0.0, 0.0, 0.0, 0.0, 0.0, 0.0, 0.0, 0.0, 0.0, 1.6664045732734835E9, 0.0, 2022-10-21 19:09:33.273
248.0, -131486.30487755596, -157750.4763305755, -32816.20536043708, -140550.80897221674, 69279.43310492433, -113057.60449857767, 57986.303625858265, -110131.71644588906, 0.016, 0.96, -0.054, 192.0, 0.0, 0.0, 0.0, 0.0, 0.0, 0.0, 0.0, 0.0, 0.0, 1.6664045732735047E9, 0.0, 2022-10-21 19:09:33.273
249.0, -131485.32140079993, -157749.9845921975, -32817.03237498193, -140557.58155078668, 69282.22707298126, -113062.81245503575, 57977.67585249852, -110133.10225404528, 0.016, 0.96, -0.054, 192.0, 0.0, 0.0, 0.0, 0.0, 0.0, 0.0, 0.0, 0.0, 0.0, 1.6664045732735257E9, 0.0, 2022-10-21 19:09:33.273
250.0, -131492.36220030335, -157756.9359847231, -32826.12953497524, -140566.4775450799, 69274.44866591081, -113069.62973709461, 57967.12582911561, -110139.60661168178, 0.014, 0.96, -0.048, 192.0, 0.0, 112.0, 30.0, 0.0, 254.0, 128.0, 0.0, 0.0, 0.0, 1.6664045732735467E9, 0.0, 2022-10-21 19:09:33.273
251.0, -131490.26113632455, -157754.85727248876, -32826.97890126454, -140550.16077162753, 69274.18044497735, -113057.15746368855, 57978.055832154256, -110136.00798082448, 0.014, 0.96, -0.048, 192.0, 0.0, 0.0, 0.0, 0.0, 0.0, 0.0, 0.0, 0.0, 0.0, 1.6664045732735693E9, 0.0, 2022-10-21 19:09:33.273
252.0, -131496.1396451163, -157761.2275196585, -32832.0527472559, -140558.20739963144, 69266.69261058481, -113051.70363804146, 57982.727346745414, -110145.3957134957, 0.014, 0.96, -0.048, 192.0, 0.0, 0.0, 0.0, 0.0, 0.0, 0.0, 0.0, 0.0, 0.0, 1.6664045732735903E9, 0.0, 2022-10-21 19:09:33.273
253.0, -131499.76062771806, -157763.2391766595, -32834.913770546176, -140569.15975441455, 69265.91029952888, -113052.75417003086, 57978.815791465735, -110154.4481700001, 0.014, 0.96, -0.048, 192.0, 0.0, 0.0, 0.0, 0.0, 0.0, 0.0, 0.0, 0.0, 0.0, 1.6664045732736862E9, 0.0, 2022-10-21 19:09:33.273
254.0, -131485.29904905547, -157745.29072586188, -32829.25877919898, -140569.13740267008, 69266.31263092907, -113068.0874667272, 57968.89161692758, -110149.44137924211, 0.014, 0.96, -0.048, 192.0, 0.0, 0.0, 0.0, 0.0, 0.0, 0.0, 0.0, 0.0, 0.0, 1.6664045732737079E9, 0.0, 2022-10-21 19:09:33.273
255.0, -131478.72763618562, -157736.46178680204, -32835.71843334656, -140566.11991716863, 69261.03761923763, -113058.90089975607, 57974.59131176369, -110153.5541002219, 0.014, 0.96, -0.048, 192.0, 0.0, 0.0, 0.0, 0.0, 0.0, 0.0, 0.0, 0.0, 0.0, 1.6664045732737296E9, 0.0, 2022-10-21 19:09:33.273
0.0, -131497.12312187234, -157761.69690629208, -32837.283055458436, -140562.40952758904, 69260.05414248159, -113059.30323115627, 57980.71568974444, -110146.62505944075, 0.014, 0.96, -0.048, 192.0, 0.0, 0.0, 0.0, 0.0, 0.0, 0.0, 0.0, 0.0, 0.0, 1.6664045732737503E9, 0.0, 2022-10-21 19:09:33.273
1.0, -131504.11921788685, -157774.57151109833, -32823.82730529634, -140562.2754171223, 69271.23001470925, -113066.16521670404, 57980.291006599786, -110137.32673374734, 0.014, 0.96, -0.048, 192.0, 0.0, 0.0, 0.0, 0.0, 0.0, 0.0, 0.0, 0.0, 0.0, 1.6664045732737715E9, 0.0, 2022-10-21 19:09:33.273
2.0, -131494.50796777106, -157765.5861098273, -32816.361822648265, -140562.02954793329, 69279.29899445761, -113083.75603959037, 57966.27646282631, -110134.19748952359, 0.014, 0.96, -0.048, 192.0, 0.0, 0.0, 0.0, 0.0, 0.0, 0.0, 0.0, 0.0, 0.0, 1.6664045732737927E9, 0.0, 2022-10-21 19:09:33.273
3.0, -131499.04537189548, -157769.1400371957, -32818.79816279389, -140553.64764376255, 69277.30968920108, -113077.27403369833, 57970.88092218411, -110133.45988195657, 0.014, 0.96, -0.048, 192.0, 0.0, 0.0, 0.0, 0.0, 0.0, 0.0, 0.0, 0.0, 0.0, 1.6664045732738137E9, 0.0, 2022-10-21 19:09:33.273
4.0, -131493.2339183371, -157763.01565921496, -32821.905055273186, -140548.55144602674, 69279.20958747978, -113059.683210812, 57984.3366723462, -110140.47832971554, 0.014, 0.96, -0.048, 192.0, 0.0, 112.0, 30.0, 0.0, 254.0, 128.0, 0.0, 0.0, 0.0, 1.6664045732738352E9, 0.0, 2022-10-21 19:09:33.273
5.0, -131486.52839500053, -157755.95250796707, -32823.89436052971, -140555.94987344145, 69280.26011946918, -113057.64920206658, 57984.40372757956, -110147.22855654104, 0.014, 0.96, -0.048, 192.0, 0.0, 0.0, 0.0, 0.0, 0.0, 0.0, 0.0, 0.0, 0.0, 1.666404573273857E9, 0.0, 2022-10-21 19:09:33.273
6.0, -131491.0881508694, -157759.0817521908, -32828.677633843145, -140565.89639972406, 69272.16878797636, -113068.22157719394, 57972.62435825162, -110152.39180951021, 0.014, 0.96, -0.048, 192.0, 0.0, 0.0, 0.0, 0.0, 0.0, 0.0, 0.0, 0.0, 0.0, 1.666404573273886E9, 0.0, 2022-10-21 19:09:33.273
7.0, -131486.61780197834, -157753.1361881657, -32827.02360475345, -140561.20253338845, 69271.47588389825, -113062.99126899139, 57977.206465864954, -110145.41806524016, 0.014, 0.96, -0.048, 192.0, 0.0, 0.0, 0.0, 0.0, 0.0, 0.0, 0.0, 0.0, 0.0, 1.6664045732739067E9, 0.0, 2022-10-21 19:09:33.273
8.0, -131480.42636876422, -157746.54242355138, -32824.49785763, -140547.14328612605, 69275.63330836693, -113059.92908000102, 57983.2861403568, -110137.05851281388, 0.014, 0.96, -0.048, 192.0, 0.0, 0.0, 0.0, 0.0, 0.0, 0.0, 0.0, 0.0, 0.0, 1.666404573273928E9, 0.0, 2022-10-21 19:09:33.273
9.0, -131489.30001131297, -157755.59488005578, -32831.31513968887, -140547.88089369307, 69275.20862522228, -113051.25660315236, 57986.929474703014, -110142.66880067215, 0.014, 0.96, -0.048, 192.0, 0.0, 0.0, 0.0, 0.0, 0.0, 0.0, 0.0, 0.0, 0.0, 1.666404573273949E9, 0.0, 2022-10-21 19:09:33.273
10.0, -131495.67025848274, -157761.76396152546, -32839.47352641506, -140569.4726788369, 69266.8043693071, -113065.96405100395, 57970.2327215949, -110157.93504213513, 0.014, 0.96, -0.048, 192.0, 0.0, 0.0, 0.0, 0.0, 0.0, 0.0, 0.0, 0.0, 0.0, 1.6664045732739651E9, 0.0, 2022-10-21 19:09:33.273
11.0, -131497.8383776949, -157763.4403423596, -32840.05467177089, -140562.11895491113, 69266.4467413958, -113061.5831090907, 57971.95380591796, -110158.35972527978, 0.014, 0.96, -0.048, 192.0, 0.0, 0.0, 0.0, 0.0, 0.0, 0.0, 0.0, 0.0, 0.0, 1.6664045732739785E9, 0.0, 2022-10-21 19:09:33.273
12.0, -131497.01136315006, -157763.01565921496, -32838.13242174774, -140556.97805368638, 69263.0492762386, -113050.3848851186, 57982.52618104532, -110151.6989054321, 0.014, 0.96, -0.048, 192.0, 0.0, 0.0, 0.0, 0.0, 0.0, 0.0, 0.0, 0.0, 0.0, 1.6664045732740047E9, 0.0, 2022-10-21 19:09:33.274
13.0, -131506.42144756575, -157773.4986273645, -32849.66592188668, -140569.94206547047, 69254.48855811222, -113049.84844325167, 57979.70986124395, -110162.02541137046, 0.016, 0.9560000000000001, -0.044, 192.0, 0.0, 128.0, 29.0, 224.0, 254.0, 160.0, 0.0, 0.0, 0.0, 1.6664045732740176E9, 0.0, 2022-10-21 19:09:33.274
14.0, -131503.9851074201, -157767.26249066147, -32847.967189308074, -140576.0217399623, 69254.8908895124, -113075.95528077547, 57961.02380287932, -110159.09733284681, 0.016, 0.9560000000000001, -0.044, 192.0, 0.0, 0.0, 0.0, 0.0, 0.0, 0.0, 0.0, 0.0, 0.0, 1.6664045732740314E9, 0.0, 2022-10-21 19:09:33.274
15.0, -131499.51475852905, -157763.10506619277, -32844.36855845077, -140573.09366143867, 69255.85201452399, -113094.59663565119, 57952.91011964204, -110152.1012368323, 0.016, 0.9560000000000001, -0.044, 192.0, 0.0, 0.0, 0.0, 0.0, 0.0, 0.0, 0.0, 0.0, 0.0, 1.6664045732740445E9, 0.0, 2022-10-21 19:09:33.274
