%OpenBCI Raw EEG Data
%Number of channels = 8
%Sample Rate = 250 Hz
%Board = OpenBCI_GUI$BoardCytonSerial
Sample Index, EXG Channel 0, EXG Channel 1, EXG Channel 2, EXG Channel 3, EXG Channel 4, EXG Channel 5, EXG Channel 6, EXG Channel 7, Accel Channel 0, Accel Channel 1, Accel Channel 2, Other, Other, Other, Other, Other, Other, Other, Analog Channel 0, Analog Channel 1, Analog Channel 2, Timestamp, Other, Timestamp (Formatted)
118.0, -130995.1699966395, -157618.6010382892, -33377.45766370984, -140689.61330528418, 68810.35939578526, -110445.42317931929, 56872.60560662814, -110587.6026257995, 0.0, 0.0, 0.0, 192.0, 0.0, 0.0, 0.0, 0.0, 0.0, 0.0, 0.0, 0.0, 0.0, 1.6664045394836895E9, 0.0, 2022-10-21 19:08:59.483
119.0, -130993.98535418337, -157616.9023057106, -33373.03201830769, -140679.3091510903, 68816.37201504374, -110441.33281008397, 56875.57838864069, -110580.60652978499, 0.0, 0.0, 0.0, 192.0, 0.0, 0.0, 0.0, 0.0, 0.0, 0.0, 0.0, 0.0, 0.0, 1.666404539483726E9, 0.0, 2022-10-21 19:08:59.483
120.0, -130990.78905472627, -157607.96160792848, -33367.84641359406, -140672.08953763123, 68817.8472301778, -110425.70894070971, 56888.385938213585, -110581.81352398558, 0.0, 0.0, 0.0, 192.0, 0.0, 0.0, 0.0, 0.0, 0.0, 0.0, 0.0, 0.0, 0.0, 1.666404539483765E9, 0.0, 2022-10-21 19:08:59.483
121.0, -130992.44308381595, -157606.3522823277, -33371.735617129285, -140682.14782263612, 68815.00855863196, -110422.89262090834, 56893.750356882854, -110588.92137872236, 0.0, 0.0, 0.0, 192.0, 0.0, 0.0, 0.0, 0.0, 0.0, 0.0, 0.0, 0.0, 0.0, 1.666404539483801E9, 0.0, 2022-10-21 19:08:59.483
122.0, -130985.35758082362, -157598.17154385705, -33361.0738350241, -140676.33636907773, 68830.31950358386, -110425.88775466535, 56895.717310394924, -110580.18184664033, 0.0, 0.0, 0.0, 192.0, 0.0, 0.0, 0.0, 0.0, 0.0, 0.0, 0.0, 0.0, 0.0, 1.6664045394838276E9, 0.0, 2022-10-21 19:08:59.483
123.0, -130986.65398200203, -157596.74103221192, -33358.50338441174, -140670.9048951751, 68835.21453561957, -110432.4144640463, 56892.0292725598, -110576.62791927194, 0.0, 0.0, 0.0, 192.0, 0.0, 0.0, 0.0, 0.0, 0.0, 0.0, 0.0, 0.0, 0.0, 1.6664045394838552E9, 0.0, 2022-10-21 19:08:59.483
124.0, -130992.33132509368, -157603.46890729296, -33365.924163570904, -140670.5025637749, 68825.62563724825, -110421.6632749633, 56897.393691229074, -110584.31691936457, 0.02, 0.9540000000000001, -0.054, 192.0, 0.0, 160.0, 29.0, 208.0, 254.0, 80.0, 0.0, 0.0, 0.0, 1.6664045394838824E9, 0.0, 2022-10-21 19:08:59.483
125.0, -130991.86193846012, -157601.72547122545, -33370.37216071751, -140674.8611539437, 68821.78113720192, -110410.59916145793, 56906.334389011194, -110586.82031474357, 0.02, 0.9540000000000001, -0.054, 192.0, 0.0, 0.0, 0.0, 0.0, 0.0, 0.0, 0.0, 0.0, 0.0, 1.666404539483916E9, 0.0, 2022-10-21 19:08:59.483
126.0, -130998.79097924125, -157608.6545120066, -33382.3303440011, -140693.88248847515, 68812.54986674189, -110430.2686965786, 56887.55892366874, -110597.102117193, 0.02, 0.9540000000000001, -0.054, 192.0, 0.0, 0.0, 0.0, 0.0, 0.0, 0.0, 0.0, 0.0, 0.0, 1.666404539483945E9, 0.0, 2022-10-21 19:08:59.483
127.0, -130997.1145984071, -157605.52526778285, -33383.73850390178, -140694.53068906436, 68813.4439365201, -110440.68460949477, 56880.004034042846, -110596.9009514929, 0.02, 0.9540000000000001, -0.054, 192.0, 0.0, 0.0, 0.0, 0.0, 0.0, 0.0, 0.0, 0.0, 0.0, 1.6664045394839728E9, 0.0, 2022-10-21 19:08:59.483
128.0, -130987.86097620262, -157596.15988685607, -33373.41199796343, -140677.92334293405, 68821.57997150182, -110430.38045530087, 56894.28679874978, -110585.85918973199, 0.02, 0.9540000000000001, -0.054, 192.0, 0.0, 0.0, 0.0, 0.0, 0.0, 0.0, 0.0, 0.0, 0.0, 1.6664045394840007E9, 0.0, 2022-10-21 19:08:59.484
129.0, -130986.85514770212, -157595.01994788885, -33370.28275373969, -140674.2129533545, 68824.26218083646, -110410.57680971347, 56910.31299952424, -110580.29360536262, 0.02, 0.9540000000000001, -0.054, 192.0, 0.0, 0.0, 0.0, 0.0, 0.0, 0.0, 0.0, 0.0, 0.0, 1.6664045394840288E9, 0.0, 2022-10-21 19:08:59.484
130.0, -130982.87653718908, -157590.50489550887, -33366.46060543783, -140680.13616563514, 68825.35741631477, -110429.30757156701, 56897.34898774016, -110576.38205008293, 0.02, 0.9540000000000001, -0.054, 192.0, 0.0, 0.0, 0.0, 0.0, 0.0, 0.0, 0.0, 0.0, 0.0, 1.6664045394840565E9, 0.0, 2022-10-21 19:08:59.484
131.0, -130983.43533080046, -157589.36495654166, -33367.84641359406, -140679.46561330147, 68825.67034073715, -110443.47857755168, 56885.16728701202, -110571.33055583603, 0.02, 0.9540000000000001, -0.054, 192.0, 0.0, 0.0, 0.0, 0.0, 0.0, 0.0, 0.0, 0.0, 0.0, 1.6664045394840848E9, 0.0, 2022-10-21 19:08:59.484
132.0, -130987.14572038004, -157595.28816882233, -33374.46252995283, -140676.1128516332, 68815.56735224335, -110429.4193302893, 56893.86211560513, -110574.21393087077, 0.02, 0.9540000000000001, -0.054, 192.0, 0.0, 0.0, 0.0, 0.0, 0.0, 0.0, 0.0, 0.0, 0.0, 1.6664045394841132E9, 0.0, 2022-10-21 19:08:59.484
133.0, -130987.72686573588, -157597.59039850123, -33375.8259863646, -140680.4043865686, 68809.66649170715, -110417.99758887263, 56900.746452897365, -110583.73577400873, 0.02, 0.9540000000000001, -0.054, 192.0, 0.0, 0.0, 0.0, 0.0, 0.0, 0.0, 0.0, 0.0, 0.0, 1.6664045394843779E9, 0.0, 2022-10-21 19:08:59.484
134.0, -130991.41490357101, -157601.65841599207, -33376.54124218717, -140692.74254950794, 68805.35260502728, -110428.92759191127, 56890.5764091702, -110585.83683798753, 0.018000000000000002, 0.9560000000000001, -0.048, 192.0, 0.0, 144.0, 29.0, 224.0, 254.0, 128.0, 0.0, 0.0, 0.0, 1.6664045394844096E9, 0.0, 2022-10-21 19:08:59.484
135.0, -130990.87846170408, -157601.50195378088, -33375.06602705312, -140689.74741575093, 68806.76076492797, -110442.04806590654, 56880.6745863765, -110580.38301234043, 0.018000000000000002, 0.9560000000000001, -0.048, 192.0, 0.0, 0.0, 0.0, 0.0, 0.0, 0.0, 0.0, 0.0, 0.0, 1.6664045394844403E9, 0.0, 2022-10-21 19:08:59.484
136.0, -130994.23122337238, -157603.17833461505, -33382.285640512186, -140681.18669762454, 68800.88225613622, -110445.53493804157, 56877.67945261949, -110584.38397459793, 0.018000000000000002, 0.9560000000000001, -0.048, 192.0, 0.0, 0.0, 0.0, 0.0, 0.0, 0.0, 0.0, 0.0, 0.0, 1.666404539484468E9, 0.0, 2022-10-21 19:08:59.484
137.0, -130991.39255182655, -157597.74686071242, -33377.681181154396, -140670.9048951751, 68805.66552944964, -110430.44751053424, 56890.621112659115, -110581.47824781874, 0.018000000000000002, 0.9560000000000001, -0.048, 192.0, 0.0, 0.0, 0.0, 0.0, 0.0, 0.0, 0.0, 0.0, 0.0, 1.6664045394844954E9, 0.0, 2022-10-21 19:08:59.484
138.0, -130997.44987457394, -157602.26191309237, -33383.78320739069, -140679.5103167904, 68801.86573289224, -110420.50098425163, 56892.699824893454, -110589.3013583781, 0.018000000000000002, 0.9560000000000001, -0.048, 192.0, 0.0, 0.0, 0.0, 0.0, 0.0, 0.0, 0.0, 0.0, 0.0, 1.666404539484523E9, 0.0, 2022-10-21 19:08:59.484
139.0, -131000.40030484204, -157602.08309913674, -33387.78416964819, -140690.14974715112, 68795.40607874467, -110442.02571416208, 56874.63961537357, -110591.22360840125, 0.018000000000000002, 0.9560000000000001, -0.048, 192.0, 0.0, 0.0, 0.0, 0.0, 0.0, 0.0, 0.0, 0.0, 0.0, 1.6664045394845505E9, 0.0, 2022-10-21 19:08:59.484
140.0, -130995.72879025088, -157597.88097117914, -33386.15249230296, -140684.27123835936, 68795.69665142258, -110458.4765980812, 56866.95061528094, -110585.85918973199, 0.018000000000000002, 0.9560000000000001, -0.048, 192.0, 0.0, 0.0, 0.0, 0.0, 0.0, 0.0, 0.0, 0.0, 0.0, 1.6664045394845836E9, 0.0, 2022-10-21 19:08:59.484
141.0, -130996.667563518, -157600.18320085804, -33386.37600974751, -140678.34802607872, 68794.44495373308, -110446.47371130869, 56877.99237704187, -110583.78047749764, 0.018000000000000002, 0.9560000000000001, -0.048, 192.0, 0.0, 0.0, 0.0, 0.0, 0.0, 0.0, 0.0, 0.0, 0.0, 1.6664045394846113E9, 0.0, 2022-10-21 19:08:59.484
142.0, -130997.56163329622, -157600.80904970277, -33384.721980657814, -140679.3091510903, 68793.8861601217, -110441.6680862508, 56878.7746880978, -110587.51321882168, 0.018000000000000002, 0.9560000000000001, -0.048, 192.0, 0.0, 0.0, 0.0, 0.0, 0.0, 0.0, 0.0, 0.0, 0.0, 1.6664045394846385E9, 0.0, 2022-10-21 19:08:59.484
143.0, -130999.5732902972, -157602.75365147038, -33389.415846993434, -140693.14488090813, 68785.28073850641, -110464.93625222877, 56857.898158776545, -110591.93886422383, 0.018000000000000002, 0.9560000000000001, -0.048, 192.0, 0.0, 0.0, 0.0, 0.0, 0.0, 0.0, 0.0, 0.0, 0.0, 1.6664045394846656E9, 0.0, 2022-10-21 19:08:59.484
144.0, -131002.65783103203, -157607.0004829169, -33390.89106212748, -140697.54817456583, 68782.59852917177, -110474.74866804466, 56850.767952295304, -110593.88346599144, 0.014, 0.9560000000000001, -0.048, 192.0, 0.0, 112.0, 29.0, 224.0, 254.0, 128.0, 0.0, 0.0, 0.0, 1.666404539484693E9, 0.0, 2022-10-21 19:08:59.484
145.0, -130999.88621471956, -157604.47473579345, -33388.722942915316, -140690.57443029576, 68787.7841338854, -110449.55825204353, 56869.05167925974, -110592.2070851573, 0.014, 0.9560000000000001, -0.048, 192.0, 0.0, 0.0, 0.0, 0.0, 0.0, 0.0, 0.0, 0.0, 0.0, 1.6664045394847221E9, 0.0, 2022-10-21 19:08:59.484
146.0, -130998.74627575235, -157603.4018520596, -33390.689896427386, -140693.14488090813, 68787.5382646964, -110429.55344075602, 56880.406365443036, -110595.02340495866, 0.014, 0.9560000000000001, -0.048, 192.0, 0.0, 0.0, 0.0, 0.0, 0.0, 0.0, 0.0, 0.0, 0.0, 1.6664045394847496E9, 0.0, 2022-10-21 19:08:59.484
147.0, -130991.39255182655, -157597.09866012319, -33384.4314079799, -140700.18568041155, 68790.4886949645, -110448.95475494323, 56868.11290599262, -110593.77170726916, 0.014, 0.9560000000000001, -0.048, 192.0, 0.0, 0.0, 0.0, 0.0, 0.0, 0.0, 0.0, 0.0, 0.0, 1.6664045394847767E9, 0.0, 2022-10-21 19:08:59.484
148.0, -130990.65494425953, -157595.48933452243, -33382.24093702328, -140696.29647687633, 68791.24865427597, -110456.6661067803, 56862.81554255671, -110590.7989252566, 0.014, 0.9560000000000001, -0.048, 192.0, 0.0, 0.0, 0.0, 0.0, 0.0, 0.0, 0.0, 0.0, 0.0, 1.666404539484887E9, 0.0, 2022-10-21 19:08:59.484
149.0, -130989.67146750349, -157593.81295368826, -33379.40226547745, -140686.32759884925, 68794.19908454407, -110438.67295249378, 56881.23337998788, -110584.78630599813, 0.014, 0.9560000000000001, -0.048, 192.0, 0.0, 0.0, 0.0, 0.0, 0.0, 0.0, 0.0, 0.0, 0.0, 1.6664045394849157E9, 0.0, 2022-10-21 19:08:59.484
150.0, -130986.02813315728, -157589.7002327085, -33377.90469859895, -140686.66287501607, 68799.94348286909, -110431.85567043492, 56888.16242076903, -110584.56278855358, 0.014, 0.9560000000000001, -0.048, 192.0, 0.0, 0.0, 0.0, 0.0, 0.0, 0.0, 0.0, 0.0, 0.0, 1.6664045394849448E9, 0.0, 2022-10-21 19:08:59.484
151.0, -130991.63842101557, -157594.10352636618, -33376.54124218717, -140695.04477918684, 68801.48575323651, -110447.09956015344, 56874.058470017735, -110583.93693970883, 0.014, 0.9560000000000001, -0.048, 192.0, 0.0, 0.0, 0.0, 0.0, 0.0, 0.0, 0.0, 0.0, 0.0, 1.6664045394849725E9, 0.0, 2022-10-21 19:08:59.484
152.0, -130993.11363614962, -157594.59526474422, -33373.25553575224, -140693.14488090813, 68801.91043638116, -110469.20543541973, 56857.54053086526, -110585.97094845427, 0.014, 0.9560000000000001, -0.048, 192.0, 0.0, 0.0, 0.0, 0.0, 0.0, 0.0, 0.0, 0.0, 0.0, 1.666404539485E9, 0.0, 2022-10-21 19:08:59.485
153.0, -130996.82402572919, -157598.39506130162, -33374.596640419564, -140682.61720926967, 68802.20100905908, -110447.74776074264, 56868.649347859544, -110590.32953862305, 0.014, 0.9560000000000001, -0.048, 192.0, 0.0, 0.0, 0.0, 0.0, 0.0, 0.0, 0.0, 0.0, 0.0, 1.6664045394850273E9, 0.0, 2022-10-21 19:08:59.485
154.0, -130996.51110130682, -157598.12684036815, -33373.188480518875, -140678.70565399, 68802.49158173699, -110438.0694553935, 56877.187714241474, -110591.67064329036, 0.012, 0.9580000000000001, -0.052000000000000005, 192.0, 0.0, 96.0, 29.0, 240.0, 254.0, 96.0, 0.0, 0.0, 0.0, 1.6664045394850547E9, 0.0, 2022-10-21 19:08:59.485
155.0, -130992.15251113803, -157592.74006995442, -33369.23222175029, -140679.93499993504, 68808.72771844003, -110450.45232182174, 56871.175094982995, -110588.47434383325, 0.012, 0.9580000000000001, -0.052000000000000005, 192.0, 0.0, 0.0, 0.0, 0.0, 0.0, 0.0, 0.0, 0.0, 0.0, 1.666404539485084E9, 0.0, 2022-10-21 19:08:59.485
156.0, -130994.05240941673, -157596.09283162272, -33370.28275373969, -140679.82324121275, 68807.85600040627, -110459.01303994811, 56865.47540014689, -110585.41215484288, 0.012, 0.9580000000000001, -0.052000000000000005, 192.0, 0.0, 0.0, 0.0, 0.0, 0.0, 0.0, 0.0, 0.0, 0.0, 1.6664045394851122E9, 0.0, 2022-10-21 19:08:59.485
157.0, -130998.07572341869, -157601.01021540287, -33373.65786715244, -140680.62790401315, 68804.79381141589, -110466.70204004075, 56862.68143208998, -110587.75908801069, 0.012, 0.9580000000000001, -0.052000000000000005, 192.0, 0.0, 0.0, 0.0, 0.0, 0.0, 0.0, 0.0, 0.0, 0.0, 1.6664045394851396E9, 0.0, 2022-10-21 19:08:59.485
158.0, -131001.38378159808, -157603.58066601524, -33376.4294834649, -140679.01857841236, 68807.67718645063, -110445.75845548612, 56878.238246230874, -110593.57054156906, 0.012, 0.9580000000000001, -0.052000000000000005, 192.0, 0.0, 0.0, 0.0, 0.0, 0.0, 0.0, 0.0, 0.0, 0.0, 1.6664045394851668E9, 0.0, 2022-10-21 19:08:59.485
159.0, -130999.28271761928, -157599.51264852437, -33370.64038165097, -140683.1089476477, 68809.2418085625, -110445.71375199722, 56877.43358343048, -110587.69203277733, 0.012, 0.9580000000000001, -0.052000000000000005, 192.0, 0.0, 0.0, 0.0, 0.0, 0.0, 0.0, 0.0, 0.0, 0.0, 1.6664045394851944E9, 0.0, 2022-10-21 19:08:59.485
160.0, -130998.81333098571, -157599.78086945784, -33365.2759629817, -140683.93596219254, 68813.6898057091, -110467.26083365212, 56863.10611523463, -110584.74160250922, 0.012, 0.9580000000000001, -0.052000000000000005, 192.0, 0.0, 0.0, 0.0, 0.0, 0.0, 0.0, 0.0, 0.0, 0.0, 1.6664045394852257E9, 0.0, 2022-10-21 19:08:59.485
161.0, -131011.88910149207, -157610.50970679638, -33374.06019855264, -140685.88056396015, 68807.3866137727, -110461.51643532711, 56863.843722801656, -110591.89416073491, 0.012, 0.9580000000000001, -0.052000000000000005, 192.0, 0.0, 0.0, 0.0, 0.0, 0.0, 0.0, 0.0, 0.0, 0.0, 1.6664045394852576E9, 0.0, 2022-10-21 19:08:59.485
162.0, -131011.28560439177, -157606.97813117245, -33370.618029906516, -140681.90195344712, 68807.69953819508, -110444.77497873009, 56881.032214287785, -110585.12158216497, 0.012, 0.9580000000000001, -0.052000000000000005, 192.0, 0.0, 0.0, 0.0, 0.0, 0.0, 0.0, 0.0, 0.0, 0.0, 1.6664045394852853E9, 0.0, 2022-10-21 19:08:59.485
163.0, -131003.03781068776, -157597.25512233438, -33361.677332124396, -140678.92917143455, 68815.27677956544, -110441.04223740606, 56889.34706322516, -110574.57155878206, 0.018000000000000002, 0.9540000000000001, -0.054, 192.0, 0.0, 144.0, 29.0, 208.0, 254.0, 80.0, 0.0, 0.0, 0.0, 1.666404539485365E9, 0.0, 2022-10-21 19:08:59.485
164.0, -131001.09320892015, -157593.81295368826, -33362.39258794696, -140687.78046223885, 68812.4381080196, -110474.92748200029, 56867.21883621441, -110574.43744831532, 0.018000000000000002, 0.9540000000000001, -0.054, 192.0, 0.0, 0.0, 0.0, 0.0, 0.0, 0.0, 0.0, 0.0, 0.0, 1.6664045394854102E9, 0.0, 2022-10-21 19:08:59.485
165.0, -131005.11652292211, -157597.9480264125, -33366.79588160466, -140682.3042848473, 68813.39923303119, -110472.55819708803, 56865.96713852491, -110577.07495416106, 0.018000000000000002, 0.9540000000000001, -0.054, 192.0, 0.0, 0.0, 0.0, 0.0, 0.0, 0.0, 0.0, 0.0, 0.0, 1.6664045394854517E9, 0.0, 2022-10-21 19:08:59.485
166.0, -131011.73263928088, -157603.8488869487, -33376.4294834649, -140680.06911040176, 68805.35260502728, -110444.90908919682, 56883.37914745559, -110589.21195140028, 0.018000000000000002, 0.9540000000000001, -0.054, 192.0, 0.0, 0.0, 0.0, 0.0, 0.0, 0.0, 0.0, 0.0, 0.0, 1.666404539485493E9, 0.0, 2022-10-21 19:08:59.485
167.0, -131014.10192419315, -157607.201648617, -33379.40226547745, -140695.22359314247, 68793.93086361061, -110464.73508652867, 56873.45497291744, -110599.27023640517, 0.018000000000000002, 0.9540000000000001, -0.054, 192.0, 0.0, 0.0, 0.0, 0.0, 0.0, 0.0, 0.0, 0.0, 0.0, 1.6664045394855344E9, 0.0, 2022-10-21 19:08:59.485
168.0, -131002.81429324321, -157597.05395663428, -33362.929029813895, -140675.53170627734, 68812.5945702308, -110480.11308671393, 56871.75624033884, -110584.54043680913, 0.018000000000000002, 0.9540000000000001, -0.054, 192.0, 0.0, 0.0, 0.0, 0.0, 0.0, 0.0, 0.0, 0.0, 0.0, 1.6664045394855752E9, 0.0, 2022-10-21 19:08:59.485
169.0, -130994.7676652393, -157585.31929079525, -33355.307084954635, -140657.695014202, 68821.6470267352, -110481.85652278144, 56870.95157753844, -110572.58225352553, 0.018000000000000002, 0.9540000000000001, -0.054, 192.0, 0.0, 0.0, 0.0, 0.0, 0.0, 0.0, 0.0, 0.0, 0.0, 1.6664045394856172E9, 0.0, 2022-10-21 19:08:59.485
170.0, -131004.98241245539, -157596.20459034498, -33366.482957182285, -140668.08857537372, 68810.20293357408, -110472.53584534358, 56876.09247876317, -110571.03998315812, 0.018000000000000002, 0.9540000000000001, -0.054, 192.0, 0.0, 0.0, 0.0, 0.0, 0.0, 0.0, 0.0, 0.0, 0.0, 1.6664045394856486E9, 0.0, 2022-10-21 19:08:59.485
171.0, -131003.7754182548, -157595.37757580014, -33363.55487865864, -140676.69399698902, 68813.8909714092, -110460.73412427117, 56882.865057333125, -110567.08372438952, 0.018000000000000002, 0.9540000000000001, -0.054, 192.0, 0.0, 0.0, 0.0, 0.0, 0.0, 0.0, 0.0, 0.0, 0.0, 1.666404539485664E9, 0.0, 2022-10-21 19:08:59.485
172.0, -131004.37891535509, -157595.37757580014, -33363.89015482547, -140682.34898833622, 68818.87541042274, -110455.34735385745, 56879.981682298385, -110569.47536104625, 0.018000000000000002, 0.9540000000000001, -0.054, 192.0, 0.0, 0.0, 0.0, 0.0, 0.0, 0.0, 0.0, 0.0, 0.0, 1.66640453948568E9, 0.0, 2022-10-21 19:08:59.485
173.0, -131003.52954906579, -157596.02577638935, -33364.806576348135, -140681.90195344712, 68816.3943667882, -110462.9245952278, 56870.57159788271, -110574.19157912632, 0.024, 0.9580000000000001, -0.05, 192.0, 0.0, 192.0, 29.0, 240.0, 254.0, 112.0, 0.0, 0.0, 0.0, 1.6664045394856958E9, 0.0, 2022-10-21 19:08:59.485
174.0, -131006.27881363379, -157599.60205550218, -33370.618029906516, -140672.13424112013, 68813.15336384218, -110451.52520555559, 56879.33348170918, -110576.51616054967, 0.024, 0.9580000000000001, -0.05, 192.0, 0.0, 0.0, 0.0, 0.0, 0.0, 0.0, 0.0, 0.0, 0.0, 1.6664045394857123E9, 0.0, 2022-10-21 19:08:59.485
175.0, -131019.42163937351, -157613.41543357557, -33381.34686724506, -140680.67260750206, 68803.11743058174, -110449.8711764659, 56877.902970064046, -110589.43546884484, 0.024, 0.9580000000000001, -0.05, 192.0, 0.0, 0.0, 0.0, 0.0, 0.0, 0.0, 0.0, 0.0, 0.0, 1.666404539485728E9, 0.0, 2022-10-21 19:08:59.485
176.0, -131013.40902011502, -157604.85471544918, -33370.394512461964, -140682.81837496976, 68811.3875760302, -110463.86336849492, 56870.57159788271, -110587.37910835494, 0.024, 0.9580000000000001, -0.05, 192.0, 0.0, 0.0, 0.0, 0.0, 0.0, 0.0, 0.0, 0.0, 0.0, 1.6664045394857438E9, 0.0, 2022-10-21 19:08:59.485
177.0, -131005.74237176686, -157596.53986651183, -33363.26430598072, -140676.29166558883, 68816.17084934365, -110477.43087737929, 56863.128466979084, -110578.99720418421, 0.024, 0.9580000000000001, -0.05, 192.0, 0.0, 0.0, 0.0, 0.0, 0.0, 0.0, 0.0, 0.0, 0.0, 1.6664045394857597E9, 0.0, 2022-10-21 19:08:59.485
178.0, -131004.8706537331, -157596.91984616756, -33362.03496003568, -140663.17119159357, 68819.68007322312, -110471.35120288745, 56874.3713944401, -110571.44231455831, 0.024, 0.9580000000000001, -0.05, 192.0, 0.0, 0.0, 0.0, 0.0, 0.0, 0.0, 0.0, 0.0, 0.0, 1.6664045394858193E9, 0.0, 2022-10-21 19:08:59.485
179.0, -131012.31378463672, -157603.73712822644, -33367.30997172713, -140665.3616625502, 68819.52361101194, -110448.77594098759, 56895.11381329463, -110566.52493077815, 0.024, 0.9580000000000001, -0.05, 192.0, 0.0, 0.0, 0.0, 0.0, 0.0, 0.0, 0.0, 0.0, 0.0, 1.6664045394858353E9, 0.0, 2022-10-21 19:08:59.485
180.0, -131013.4760753484, -157605.63702650514, -33370.327457228595, -140672.961255665, 68816.3943667882, -110463.05870569452, 56882.35096721065, -110573.43161981483, 0.024, 0.9580000000000001, -0.05, 192.0, 0.0, 0.0, 0.0, 0.0, 0.0, 0.0, 0.0, 0.0, 0.0, 1.6664045394858515E9, 0.0, 2022-10-21 19:08:59.485
181.0, -131018.41581087302, -157613.37073008667, -33373.546108430164, -140677.6551220006, 68813.95802664256, -110480.73893555868, 56870.57159788271, -110575.8009047271, 0.024, 0.9580000000000001, -0.05, 192.0, 0.0, 0.0, 0.0, 0.0, 0.0, 0.0, 0.0, 0.0, 0.0, 1.6664045394858673E9, 0.0, 2022-10-21 19:08:59.485
182.0, -131022.14855219706, -157617.3940440886, -33375.04367530867, -140668.04387188482, 68815.12031735425, -110470.65829880933, 56879.6240543871, -110577.34317509452, 0.024, 0.9580000000000001, -0.05, 192.0, 0.0, 0.0, 0.0, 0.0, 0.0, 0.0, 0.0, 0.0, 0.0, 1.6664045394858851E9, 0.0, 2022-10-21 19:08:59.485
183.0, -131027.8258952887, -157620.07625342326, -33375.26719275322, -140663.48411601593, 68817.57900924433, -110447.9712781872, 56897.393691229074, -110580.83004722954, 0.01, 0.9540000000000001, -0.05, 192.0, 0.0, 80.0, 29.0, 208.0, 254.0, 112.0, 0.0, 0.0, 0.0, 1.6664045394859009E9, 0.0, 2022-10-21 19:08:59.485
184.0, -131031.29041567928, -157623.13844241362, -33372.80850086314, -140671.41898529755, 68818.0930993668, -110450.9217084553, 56893.57154292722, -110576.62791927194, 0.01, 0.9540000000000001, -0.05, 192.0, 0.0, 0.0, 0.0, 0.0, 0.0, 0.0, 0.0, 0.0, 0.0, 1.6664045394859176E9, 0.0, 2022-10-21 19:08:59.485
185.0, -131032.69857557995, -157625.88770698162, -33367.958172316336, -140664.46759277198, 68826.63146574872, -110467.73022028568, 56883.46855443341, -110565.11677087746, 0.01, 0.9540000000000001, -0.05, 192.0, 0.0, 0.0, 0.0, 0.0, 0.0, 0.0, 0.0, 0.0, 0.0, 1.6664045394859335E9, 0.0, 2022-10-21 19:08:59.485
186.0, -131046.7354710979, -157640.72926529995, -33373.903736341446, -140668.58031375174, 68818.40602378917, -110472.87112151041, 56883.557961411236, -110570.21296861327, 0.01, 0.9540000000000001, -0.05, 192.0, 0.0, 0.0, 0.0, 0.0, 0.0, 0.0, 0.0, 0.0, 0.0, 1.6664045394859495E9, 0.0, 2022-10-21 19:08:59.485
187.0, -131057.66547413653, -157654.43088465105, -33381.34686724506, -140667.6638922291, 68808.92888414013, -110452.50868231163, 56898.64538891857, -110578.25959661718, 0.01, 0.9540000000000001, -0.05, 192.0, 0.0, 0.0, 0.0, 0.0, 0.0, 0.0, 0.0, 0.0, 0.0, 1.6664045394859653E9, 0.0, 2022-10-21 19:08:59.485
188.0, -131065.7344538849, -157660.13057948716, -33384.90079461346, -140673.83297369874, 68805.12908758273, -110451.94988870024, 56898.31011275174, -110581.16532339637, 0.01, 0.9540000000000001, -0.05, 192.0, 0.0, 0.0, 0.0, 0.0, 0.0, 0.0, 0.0, 0.0, 0.0, 1.6664045394859822E9, 0.0, 2022-10-21 19:08:59.485
189.0, -131072.73054989942, -157667.95369004653, -33383.3808759905, -140682.57250578076, 68806.02315736093, -110476.71562155672, 56877.25476947484, -110581.52295130766, 0.01, 0.9540000000000001, -0.05, 192.0, 0.0, 0.0, 0.0, 0.0, 0.0, 0.0, 0.0, 0.0, 0.0, 1.6664045394859972E9, 0.0, 2022-10-21 19:08:59.485
190.0, -131079.59253544718, -157676.2685389839, -33380.27398351121, -140672.1565928646, 68813.98037838703, -110477.83320877948, 56877.38887994157, -110577.52198905016, 0.01, 0.9540000000000001, -0.05, 192.0, 0.0, 0.0, 0.0, 0.0, 0.0, 0.0, 0.0, 0.0, 0.0, 1.666404539486012E9, 0.0, 2022-10-21 19:08:59.486
191.0, -131088.10855008467, -157686.52798968888, -33388.52177721522, -140671.64250274212, 68804.97262537153, -110462.00817370512, 56885.39080445657, -110584.07105017557, 0.01, 0.9540000000000001, -0.05, 192.0, 0.0, 0.0, 0.0, 0.0, 0.0, 0.0, 0.0, 0.0, 0.0, 1.6664045394860268E9, 0.0, 2022-10-21 19:08:59.486
192.0, -131101.22902407992, -157706.28693178738, -33396.38959126348, -140672.82714519824, 68801.75397416997, -110450.85465322193, 56888.20712425794, -110593.57054156906, 0.012, 0.96, -0.05, 192.0, 0.0, 96.0, 30.0, 0.0, 254.0, 112.0, 0.0, 0.0, 0.0, 1.6664045394860415E9, 0.0, 2022-10-21 19:08:59.486
193.0, -131118.5516260328, -157727.94577216456, -33397.104847086055, -140674.23530509893, 68806.58195097232, -110454.09565616795, 56882.64153988857, -110587.17794265485, 0.012, 0.96, -0.05, 192.0, 0.0, 0.0, 0.0, 0.0, 0.0, 0.0, 0.0, 0.0, 0.0, 1.6664045394860935E9, 0.0, 2022-10-21 19:08:59.486
194.0, -131138.06469894227, -157749.3810950972, -33398.06597209763, -140670.68137773054, 68808.34773878429, -110474.7263163002, 56868.49288564836, -110581.5005995632, 0.012, 0.96, -0.05, 192.0, 0.0, 0.0, 0.0, 0.0, 0.0, 0.0, 0.0, 0.0, 0.0, 1.6664045394861093E9, 0.0, 2022-10-21 19:08:59.486
195.0, -131166.87609754517, -157781.61231060175, -33415.94736766188, -140678.951523179, 68791.15924729816, -110462.79048476106, 56876.94184505247, -110595.49279159222, 0.012, 0.96, -0.05, 192.0, 0.0, 0.0, 0.0, 0.0, 0.0, 0.0, 0.0, 0.0, 0.0, 1.6664045394861245E9, 0.0, 2022-10-21 19:08:59.486
196.0, -131164.707978333, -157774.3479936538, -33407.721925702324, -140679.73383423494, 68793.59558744378, -110455.79438874655, 56887.201295757455, -110587.66968103287, 0.012, 0.96, -0.05, 192.0, 0.0, 0.0, 0.0, 0.0, 0.0, 0.0, 0.0, 0.0, 0.0, 1.6664045394861393E9, 0.0, 2022-10-21 19:08:59.486
197.0, -131170.78765282486, -157779.2430256895, -33408.25836756925, -140690.73089250695, 68795.42843048912, -110457.53782481406, 56883.46855443341, -110583.64636703092, 0.012, 0.96, -0.05, 192.0, 0.0, 0.0, 0.0, 0.0, 0.0, 0.0, 0.0, 0.0, 0.0, 1.666404539486154E9, 0.0, 2022-10-21 19:08:59.486
198.0, -131184.28810647584, -157793.12345899624, -33405.17382683442, -140686.32759884925, 68801.10577358077, -110456.68845852476, 56883.24503698886, -110579.98068094024, 0.012, 0.96, -0.05, 192.0, 0.0, 0.0, 0.0, 0.0, 0.0, 0.0, 0.0, 0.0, 0.0, 1.6664045394861689E9, 0.0, 2022-10-21 19:08:59.486
199.0, -131198.1685397826, -157807.74149987003, -33406.55963499065, -140679.57737202375, 68798.58002645732, -110453.067475923, 56886.10606027914, -110582.59583504152, 0.012, 0.96, -0.05, 192.0, 0.0, 0.0, 0.0, 0.0, 0.0, 0.0, 0.0, 0.0, 0.0, 1.6664045394861841E9, 0.0, 2022-10-21 19:08:59.486
200.0, -131209.18794979906, -157818.67150290866, -33413.04164088269, -140684.53945929284, 68797.06010783436, -110451.43579857778, 56887.55892366874, -110584.00399494219, 0.012, 0.96, -0.05, 192.0, 0.0, 0.0, 0.0, 0.0, 0.0, 0.0, 0.0, 0.0, 0.0, 1.6664045394861996E9, 0.0, 2022-10-21 19:08:59.486
201.0, -131210.81962714432, -157816.52573544096, -33410.739411203795, -140687.53459304984, 68802.22336080353, -110459.46007483722, 56882.082746277185, -110582.17115189687, 0.012, 0.96, -0.05, 192.0, 0.0, 0.0, 0.0, 0.0, 0.0, 0.0, 0.0, 0.0, 0.0, 1.6664045394862163E9, 0.0, 2022-10-21 19:08:59.486
202.0, -131205.70107766404, -157815.07287205136, -33406.58198673511, -140680.69495924652, 68804.01150035996, -110466.74674352966, 56876.53951365227, -110581.7017652633, 0.016, 0.9540000000000001, -0.05, 192.0, 0.0, 128.0, 29.0, 208.0, 254.0, 112.0, 0.0, 0.0, 0.0, 1.666404539486231E9, 0.0, 2022-10-21 19:08:59.486
203.0, -131217.27928129188, -157828.998008847, -33414.11452461655, -140675.86698244416, 68800.1893520581, -110466.18794991827, 56875.6230921296, -110583.15462865289, 0.016, 0.9540000000000001, -0.05, 192.0, 0.0, 0.0, 0.0, 0.0, 0.0, 0.0, 0.0, 0.0, 0.0, 1.6664045394862473E9, 0.0, 2022-10-21 19:08:59.486
204.0, -131233.6184064887, -157848.1087503563, -33419.478943285816, -140674.32471207675, 68797.79771540138, -110453.08982766746, 56883.066223033224, -110591.67064329036, 0.016, 0.9540000000000001, -0.05, 192.0, 0.0, 0.0, 0.0, 0.0, 0.0, 0.0, 0.0, 0.0, 0.0, 1.6664045394862642E9, 0.0, 2022-10-21 19:08:59.486
205.0, -131251.54450554188, -157866.12425638727, -33430.9900916803, -140700.14097692264, 68784.11844779474, -110462.36580161641, 56871.01863277181, -110604.23232367425, 0.016, 0.9540000000000001, -0.05, 192.0, 0.0, 0.0, 0.0, 0.0, 0.0, 0.0, 0.0, 0.0, 0.0, 1.6664045394862792E9, 0.0, 2022-10-21 19:08:59.486
206.0, -131247.74470898448, -157862.30210808542, -33427.726736989825, -140702.73377927946, 68787.65002341867, -110475.32981340049, 56864.961310024424, -110598.59968407151, 0.016, 0.9540000000000001, -0.05, 192.0, 0.0, 0.0, 0.0, 0.0, 0.0, 0.0, 0.0, 0.0, 0.0, 1.666404539486294E9, 0.0, 2022-10-21 19:08:59.486
207.0, -131236.79235420137, -157849.82983467935, -33418.87544618553, -140687.69105526104, 68792.61211068775, -110480.31425241403, 56870.146914738056, -110589.63663454494, 0.016, 0.9540000000000001, -0.05, 192.0, 0.0, 0.0, 0.0, 0.0, 0.0, 0.0, 0.0, 0.0, 0.0, 1.6664045394863088E9, 0.0, 2022-10-21 19:08:59.486
208.0, -131243.20730486003, -157858.12233187226, -33427.36910907854, -140691.22263088496, 68783.62670941671, -110469.49600809766, 56879.60170264265, -110594.9563497253, 0.016, 0.9540000000000001, -0.05, 192.0, 0.0, 0.0, 0.0, 0.0, 0.0, 0.0, 0.0, 0.0, 0.0, 1.6664045394864304E9, 0.0, 2022-10-21 19:08:59.486
209.0, -131247.230618862, -157863.77732321946, -33432.01827192525, -140700.8562327452, 68783.62670941671, -110466.70204004075, 56878.64057763107, -110597.57150382656, 0.016, 0.9540000000000001, -0.05, 192.0, 0.0, 0.0, 0.0, 0.0, 0.0, 0.0, 0.0, 0.0, 0.0, 1.6664045394864478E9, 0.0, 2022-10-21 19:08:59.486
210.0, -131245.59894151677, -157864.78315171995, -33425.44685905539, -140706.73474153696, 68786.06304956235, -110486.3715751614, 56861.89912103405, -110597.57150382656, 0.016, 0.9540000000000001, -0.05, 192.0, 0.0, 0.0, 0.0, 0.0, 0.0, 0.0, 0.0, 0.0, 0.0, 1.666404539486463E9, 0.0, 2022-10-21 19:08:59.486
211.0, -131250.44927006357, -157868.58294827736, -33420.730640975315, -140695.60357279822, 68792.81327638785, -110483.35408965994, 56864.71544083541, -110592.22943690175, 0.016, 0.9540000000000001, -0.05, 192.0, 0.0, 0.0, 0.0, 0.0, 0.0, 0.0, 0.0, 0.0, 0.0, 1.6664045394864783E9, 0.0, 2022-10-21 19:08:59.486
212.0, -131260.50755506844, -157876.45076232564, -33428.352585834575, -140703.5607938243, 68781.14566578218, -110483.42114489332, 56864.603682113135, -110603.31590215157, 0.016, 0.96, -0.058, 192.0, 0.0, 128.0, 30.0, 0.0, 254.0, 48.0, 0.0, 0.0, 0.0, 1.6664045394864933E9, 0.0, 2022-10-21 19:08:59.486
213.0, -131260.59696204626, -157877.32248035938, -33431.32536784713, -140713.7531892959, 68779.5363401814, -110488.45028739575, 56864.78249606878, -110604.52289635217, 0.016, 0.96, -0.058, 192.0, 0.0, 0.0, 0.0, 0.0, 0.0, 0.0, 0.0, 0.0, 0.0, 1.66640453948651E9, 0.0, 2022-10-21 19:08:59.486
214.0, -131261.3345696133, -157879.73646876056, -33433.98522543731, -140721.2633754329, 68783.42554371661, -110484.06934548252, 56863.64255710156, -110602.26537016217, 0.016, 0.96, -0.058, 192.0, 0.0, 0.0, 0.0, 0.0, 0.0, 0.0, 0.0, 0.0, 0.0, 1.6664045394865246E9, 0.0, 2022-10-21 19:08:59.486
215.0, -131256.5289445554, -157877.18836989265, -33428.486696301305, -140716.34599165275, 68785.95129084006, -110492.07126999751, 56857.80875179872, -110596.76684102617, 0.016, 0.96, -0.058, 192.0, 0.0, 0.0, 0.0, 0.0, 0.0, 0.0, 0.0, 0.0, 0.0, 1.6664045394865398E9, 0.0, 2022-10-21 19:08:59.486
216.0, -131260.82047949082, -157880.85405598333, -33426.407984066966, -140707.44999735954, 68786.33127049581, -110486.10335422795, 56865.76597282481, -110597.9067799934, 0.016, 0.96, -0.058, 192.0, 0.0, 0.0, 0.0, 0.0, 0.0, 0.0, 0.0, 0.0, 0.0, 1.666404539486555E9, 0.0, 2022-10-21 19:08:59.486
217.0, -131269.29179063937, -157889.72769853208, -33427.74908873428, -140708.67934330457, 68786.19716002907, -110464.64567955086, 56878.90879856453, -110601.88539050645, 0.016, 0.96, -0.058, 192.0, 0.0, 0.0, 0.0, 0.0, 0.0, 0.0, 0.0, 0.0, 0.0, 1.6664045394865704E9, 0.0, 2022-10-21 19:08:59.486
218.0, -131264.84379349276, -157883.2680443845, -33419.85892294156, -140706.60063107024, 68792.88033162121, -110469.96539473122, 56874.30433920674, -110590.21777990078, 0.016, 0.96, -0.058, 192.0, 0.0, 0.0, 0.0, 0.0, 0.0, 0.0, 0.0, 0.0, 0.0, 1.666404539486586E9, 0.0, 2022-10-21 19:08:59.486
219.0, -131271.16933717363, -157890.80058226595, -33426.407984066966, -140706.48887234795, 68787.06887806284, -110484.96341526073, 56860.93799602247, -110598.19735267131, 0.016, 0.96, -0.058, 192.0, 0.0, 0.0, 0.0, 0.0, 0.0, 0.0, 0.0, 0.0, 0.0, 1.666404539486601E9, 0.0, 2022-10-21 19:08:59.486
220.0, -131273.18099417462, -157895.20387592362, -33428.643158512496, -140702.64437230164, 68784.27491000592, -110479.91192101383, 56863.910778035024, -110602.28772190664, 0.016, 0.96, -0.058, 192.0, 0.0, 0.0, 0.0, 0.0, 0.0, 0.0, 0.0, 0.0, 0.0, 1.6664045394866164E9, 0.0, 2022-10-21 19:08:59.486
221.0, -131275.97496223153, -157897.03671896897, -33428.084364901115, -140708.8134537713, 68780.1845407706, -110474.65926106683, 56867.04002225876, -110606.28868416413, 0.016, 0.96, -0.058, 192.0, 0.0, 0.0, 0.0, 0.0, 0.0, 0.0, 0.0, 0.0, 0.0, 1.6664045394866316E9, 0.0, 2022-10-21 19:08:59.486
222.0, -131274.20917441955, -157896.58968407987, -33424.642196254994, -140715.6083840857, 68784.4313722171, -110489.97020601871, 56858.05462098773, -110604.43348937435, 0.018000000000000002, 0.962, -0.058, 192.0, 0.0, 144.0, 30.0, 16.0, 254.0, 48.0, 0.0, 0.0, 0.0, 1.6664045394866471E9, 0.0, 2022-10-21 19:08:59.486
223.0, -131273.31510464134, -157899.62952132578, -33422.65289099847, -140708.209956671, 68792.65681417666, -110487.66797633983, 56858.00991749882, -110600.72309979476, 0.018000000000000002, 0.962, -0.058, 192.0, 0.0, 0.0, 0.0, 0.0, 0.0, 0.0, 0.0, 0.0, 0.0, 1.6664045394866812E9, 0.0, 2022-10-21 19:08:59.486
224.0, -131282.12169195674, -157908.74903306353, -33427.27970210072, -140699.5598315668, 68788.90172110817, -110472.75936278813, 56867.39765017005, -110602.108907951, 0.018000000000000002, 0.962, -0.058, 192.0, 0.0, 0.0, 0.0, 0.0, 0.0, 0.0, 0.0, 0.0, 0.0, 1.666404539486697E9, 0.0, 2022-10-21 19:08:59.486
225.0, -131289.02838099343, -157914.5828383664, -33429.51487654625, -140702.86788974618, 68785.79482862889, -110452.88866196736, 56879.53464740928, -110602.7124050513, 0.018000000000000002, 0.962, -0.058, 192.0, 0.0, 0.0, 0.0, 0.0, 0.0, 0.0, 0.0, 0.0, 0.0, 1.6664045394867141E9, 0.0, 2022-10-21 19:08:59.486
226.0, -131287.59786934828, -157911.61005635382, -33426.1397631335, -140712.6132503287, 68782.57617742731, -110474.21222617773, 56865.05071700224, -110601.43835561734, 0.018000000000000002, 0.962, -0.058, 192.0, 0.0, 0.0, 0.0, 0.0, 0.0, 0.0, 0.0, 0.0, 0.0, 1.6664045394867291E9, 0.0, 2022-10-21 19:08:59.486
227.0, -131285.47445362504, -157909.6207510973, -33426.85501895607, -140713.99905848491, 68782.39736347168, -110500.92256080182, 56844.91179524801, -110600.87956200595, 0.018000000000000002, 0.962, -0.058, 192.0, 0.0, 0.0, 0.0, 0.0, 0.0, 0.0, 0.0, 0.0, 0.0, 1.6664045394867444E9, 0.0, 2022-10-21 19:08:59.486
228.0, -131282.05463672336, -157904.88218127278, -33425.51391428875, -140704.4548636025, 68787.40415422966, -110489.09848798496, 56854.85832153062, -110598.64438756042, 0.018000000000000002, 0.962, -0.058, 192.0, 0.0, 0.0, 0.0, 0.0, 0.0, 0.0, 0.0, 0.0, 0.0, 1.6664045394867597E9, 0.0, 2022-10-21 19:08:59.486
229.0, -131282.12169195674, -157905.95506500662, -33418.45076304088, -140689.27802911735, 68792.09802056527, -110452.19575788925, 56887.06718529072, -110593.7046520358, 0.018000000000000002, 0.962, -0.058, 192.0, 0.0, 0.0, 0.0, 0.0, 0.0, 0.0, 0.0, 0.0, 0.0, 1.6664045394867747E9, 0.0, 2022-10-21 19:08:59.486
230.0, -131287.240241437, -157911.29713193144, -33417.735507218305, -140700.76682576738, 68787.56061644085, -110460.84588299345, 56882.26156023283, -110595.11281193649, 0.018000000000000002, 0.962, -0.058, 192.0, 0.0, 0.0, 0.0, 0.0, 0.0, 0.0, 0.0, 0.0, 0.0, 1.6664045394867904E9, 0.0, 2022-10-21 19:08:59.486
231.0, -131288.1343112152, -157912.25825694302, -33422.78700146521, -140716.92713700858, 68782.0844390493, -110491.69129034178, 56858.21108319892, -110596.76684102617, 0.02, 0.962, -0.054, 192.0, 0.0, 160.0, 30.0, 16.0, 254.0, 80.0, 0.0, 0.0, 0.0, 1.6664045394868052E9, 0.0, 2022-10-21 19:08:59.486
232.0, -131285.89913676967, -157908.90549527472, -33425.04452765519, -140708.4111223711, 68785.41484897315, -110482.57177860402, 56861.65325184503, -110599.38199512745, 0.02, 0.962, -0.054, 192.0, 0.0, 0.0, 0.0, 0.0, 0.0, 0.0, 0.0, 0.0, 0.0, 1.6664045394868214E9, 0.0, 2022-10-21 19:08:59.486
233.0, -131289.40836064916, -157913.30878893242, -33423.41285030995, -140699.44807284453, 68785.66071816215, -110464.93625222877, 56873.209103728426, -110606.51220160868, 0.02, 0.962, -0.054, 192.0, 0.0, 0.0, 0.0, 0.0, 0.0, 0.0, 0.0, 0.0, 0.0, 1.666404539486837E9, 0.0, 2022-10-21 19:08:59.486
234.0, -131293.11875022875, -157919.41081516873, -33422.45172529837, -140702.86788974618, 68783.44789546107, -110469.09367669746, 56868.805810070735, -110607.42862313136, 0.02, 0.962, -0.054, 192.0, 0.0, 0.0, 0.0, 0.0, 0.0, 0.0, 0.0, 0.0, 0.0, 1.666404539486852E9, 0.0, 2022-10-21 19:08:59.486
235.0, -131288.38018040423, -157910.8724487868, -33424.95512067737, -140708.4111223711, 68783.00086057196, -110491.42306940831, 56852.35492615163, -110601.43835561734, 0.02, 0.962, -0.054, 192.0, 0.0, 0.0, 0.0, 0.0, 0.0, 0.0, 0.0, 0.0, 0.0, 1.6664045394868667E9, 0.0, 2022-10-21 19:08:59.486
236.0, -131281.94287800108, -157901.19414343766, -33424.41867881044, -140703.31492463528, 68782.21854951604, -110498.66503461183, 56849.89623426154, -110596.11864043697, 0.02, 0.962, -0.054, 192.0, 0.0, 0.0, 0.0, 0.0, 0.0, 0.0, 0.0, 0.0, 0.0, 1.6664045394868822E9, 0.0, 2022-10-21 19:08:59.486
237.0, -131294.95159327408, -157916.05805350043, -33426.49739104479, -140693.63661928615, 68785.39249722869, -110473.02758372159, 56871.42096417201, -110598.62203581596, 0.02, 0.962, -0.054, 192.0, 0.0, 0.0, 0.0, 0.0, 0.0, 0.0, 0.0, 0.0, 0.0, 1.6664045394868972E9, 0.0, 2022-10-21 19:08:59.486
238.0, -131291.75529381697, -157914.11345173282, -33428.911379445955, -140702.37615136817, 68783.20202627206, -110457.94015621426, 56880.92045556551, -110606.17692544186, 0.02, 0.962, -0.054, 192.0, 0.0, 0.0, 0.0, 0.0, 0.0, 0.0, 0.0, 0.0, 0.0, 1.6664045394869268E9, 0.0, 2022-10-21 19:08:59.486
239.0, -131279.55124134436, -157896.43322186868, -33424.84336195509, -140709.2604886604, 68783.35848848325, -110475.12864770039, 56867.44235365896, -110601.6618730619, 0.02, 0.962, -0.054, 192.0, 0.0, 0.0, 0.0, 0.0, 0.0, 0.0, 0.0, 0.0, 0.0, 1.666404539486942E9, 0.0, 2022-10-21 19:08:59.486
0.0, 0.0, 0.0, 0.0, 0.0, 0.0, 0.0, 0.0, 0.0, 0.02, 0.962, -0.054, 192.0, 0.0, 0.0, 0.0, 0.0, 0.0, 0.0, 0.0, 0.0, 0.0, 1.6664045395900912E9, 0.0, 2022-10-21 19:08:59.590
1.0, -131021.05331671874, -157621.66322727958, -33344.75706157173, -140664.53464800533, 68857.76744577497, -110686.15146710294, 56999.42940466755, -110547.57065148004, 0.012, 0.964, -0.054, 192.0, 0.0, 96.0, 30.0, 32.0, 254.0, 80.0, 0.0, 0.0, 0.0, 1.666404540073362E9, 0.0, 2022-10-21 19:09:00.073
2.0, -131017.03000271678, -157618.22105863347, -33342.566590615104, -140664.86992417218, 68860.11437894277, -110696.79089746368, 56993.39443366462, -110540.6416106989, 0.012, 0.964, -0.054, 192.0, 0.0, 0.0, 0.0, 0.0, 0.0, 0.0, 0.0, 0.0, 0.0, 1.6664045400734615E9, 0.0, 2022-10-21 19:09:00.073
3.0, -131022.19325568597, -157625.1948029035, -33346.81342206161, -140671.9554271645, 68861.12020744327, -110709.55374354766, 56982.5985410927, -110542.31799153305, 0.012, 0.964, -0.054, 192.0, 0.0, 0.0, 0.0, 0.0, 0.0, 0.0, 0.0, 0.0, 0.0, 1.6664045400735075E9, 0.0, 2022-10-21 19:09:00.073
4.0, -131027.1776946995, -157631.9003262401, -33351.239067463765, -140671.5083922754, 68861.61194582128, -110697.14852537496, 56991.58394236374, -110540.14987232088, 0.012, 0.964, -0.054, 192.0, 0.0, 0.0, 0.0, 0.0, 0.0, 0.0, 0.0, 0.0, 0.0, 1.6664045400736759E9, 0.0, 2022-10-21 19:09:00.073
5.0, -131025.30014816525, -157631.74386402892, -33353.340131442565, -140655.48219150092, 68865.2552801675, -110669.0747343391, 57011.16407050659, -110531.23152628321, 0.012, 0.964, -0.054, 192.0, 0.0, 0.0, 0.0, 0.0, 0.0, 0.0, 0.0, 0.0, 0.0, 1.666404540073692E9, 0.0, 2022-10-21 19:09:00.073
6.0, -131020.09219170717, -157626.9605907155, -33347.327512184085, -140652.28589204382, 68873.27955642695, -110668.09125758306, 57012.32636121826, -110526.62706692542, 0.012, 0.964, -0.054, 192.0, 0.0, 0.0, 0.0, 0.0, 0.0, 0.0, 0.0, 0.0, 0.0, 1.6664045400737157E9, 0.0, 2022-10-21 19:09:00.073
7.0, -131018.34875563966, -157624.88187848116, -33348.713320340314, -140660.91366540358, 68874.28538492744, -110692.5217142727, 56995.339035432226, -110524.81657562454, 0.014, 0.9560000000000001, -0.052000000000000005, 192.0, 0.0, 112.0, 29.0, 224.0, 254.0, 96.0, 0.0, 0.0, 0.0, 1.6664045400737307E9, 0.0, 2022-10-21 19:09:00.073
8.0, -131023.40024988654, -157630.53686982833, -33356.156451243936, -140660.08665085872, 68869.79268429193, -110696.43326955239, 56989.77345106286, -110533.57845945102, 0.014, 0.9560000000000001, -0.052000000000000005, 192.0, 0.0, 0.0, 0.0, 0.0, 0.0, 0.0, 0.0, 0.0, 0.0, 1.6664045400737472E9, 0.0, 2022-10-21 19:09:00.073
9.0, -131022.26031091933, -157628.6146198052, -33353.764814587215, -140659.28198805833, 68867.69162031313, -110699.56251377614, 56994.10968948719, -110533.26553502865, 0.014, 0.9560000000000001, -0.052000000000000005, 192.0, 0.0, 0.0, 0.0, 0.0, 0.0, 0.0, 0.0, 0.0, 0.0, 1.6664045400737646E9, 0.0, 2022-10-21 19:09:00.073
10.0, -131024.29431966477, -157629.17341341657, -33355.150622743444, -140663.3053020603, 68867.02106797947, -110701.95415043285, 56997.90948604459, -110539.18874730931, 0.014, 0.9560000000000001, -0.052000000000000005, 192.0, 0.0, 0.0, 0.0, 0.0, 0.0, 0.0, 0.0, 0.0, 0.0, 1.666404540073782E9, 0.0, 2022-10-21 19:09:00.073
11.0, -131027.69178482197, -157632.03443670683, -33360.00095129025, -140669.4967352744, 68864.04828596691, -110708.63732202498, 56992.09803248621, -110544.06142760057, 0.014, 0.9560000000000001, -0.052000000000000005, 192.0, 0.0, 0.0, 0.0, 0.0, 0.0, 0.0, 0.0, 0.0, 0.0, 1.6664045400737972E9, 0.0, 2022-10-21 19:09:00.073
12.0, -131020.60628182963, -157626.82648024877, -33355.32943669909, -140665.98751139492, 68868.76450404698, -110714.53818256118, 56990.75692781889, -110532.21500303925, 0.014, 0.9560000000000001, -0.052000000000000005, 192.0, 0.0, 0.0, 0.0, 0.0, 0.0, 0.0, 0.0, 0.0, 0.0, 1.6664045400738125E9, 0.0, 2022-10-21 19:09:00.073
13.0, -131021.23213067438, -157626.49120408192, -33350.613218619015, -140662.92532240454, 68864.07063771137, -110727.77041527873, 56987.873552784156, -110537.35590426397, 0.014, 0.9560000000000001, -0.052000000000000005, 192.0, 0.0, 0.0, 0.0, 0.0, 0.0, 0.0, 0.0, 0.0, 0.0, 1.6664045400738995E9, 0.0, 2022-10-21 19:09:00.073
14.0, -131030.30693892324, -157638.18116643204, -33352.870744809006, -140666.0545666283, 68864.04828596691, -110710.87249647052, 56998.8035558228, -110546.36365727946, 0.014, 0.9560000000000001, -0.052000000000000005, 192.0, 0.0, 0.0, 0.0, 0.0, 0.0, 0.0, 0.0, 0.0, 0.0, 1.6664045400739152E9, 0.0, 2022-10-21 19:09:00.073
15.0, -131022.68499406398, -157631.83327100673, -33345.04763424965, -140661.67362471507, 68876.81113205089, -110705.61983652352, 56999.451756412, -110538.22762229772, 0.014, 0.9560000000000001, -0.052000000000000005, 192.0, 0.0, 0.0, 0.0, 0.0, 0.0, 0.0, 0.0, 0.0, 0.0, 1.6664045400739305E9, 0.0, 2022-10-21 19:09:00.073
16.0, -131014.88423524908, -157623.2502011359, -33339.05736673562, -140657.4044415241, 68876.98994600654, -110723.59063906559, 56985.3031021718, -110531.49974721667, 0.014, 0.9560000000000001, -0.052000000000000005, 192.0, 0.0, 0.0, 0.0, 0.0, 0.0, 0.0, 0.0, 0.0, 0.0, 1.6664045400739465E9, 0.0, 2022-10-21 19:09:00.073
17.0, -131013.00668871483, -157625.82065174828, -33339.83967779156, -140645.26744428487, 68884.54483563243, -110717.35450236256, 56994.8025935653, -110530.51627046065, 0.024, 0.9500000000000001, -0.05, 192.0, 0.0, 192.0, 29.0, 176.0, 254.0, 112.0, 0.0, 0.0, 0.0, 1.6664045400739655E9, 0.0, 2022-10-21 19:09:00.073
18.0, -131023.04262197527, -157637.89059375413, -33348.713320340314, -140650.87773214316, 68878.1075332293, -110700.0766038986, 57006.872535571165, -110537.53471821961, 0.024, 0.9500000000000001, -0.05, 192.0, 0.0, 0.0, 0.0, 0.0, 0.0, 0.0, 0.0, 0.0, 0.0, 1.6664045400739815E9, 0.0, 2022-10-21 19:09:00.073
19.0, -131025.23309293189, -157638.04705596532, -33353.25072446474, -140665.33931080572, 68871.96080350409, -110696.54502827466, 57003.34095994723, -110552.13040734893, 0.024, 0.9500000000000001, -0.05, 192.0, 0.0, 0.0, 0.0, 0.0, 0.0, 0.0, 0.0, 0.0, 0.0, 1.6664045400739963E9, 0.0, 2022-10-21 19:09:00.073
20.0, -131020.0251364738, -157632.97320997398, -33350.38970117446, -140664.86992417218, 68870.53029185894, -110711.85597322656, 56994.780241820845, -110545.73780843471, 0.024, 0.9500000000000001, -0.05, 192.0, 0.0, 0.0, 0.0, 0.0, 0.0, 0.0, 0.0, 0.0, 0.0, 1.6664045400740116E9, 0.0, 2022-10-21 19:09:00.074
21.0, -131022.75204929734, -157635.2530879084, -33351.19436397486, -140655.3033775453, 68871.73728605954, -110709.7325575033, 57000.88226805715, -110540.19457580979, 0.024, 0.9500000000000001, -0.05, 192.0, 0.0, 0.0, 0.0, 0.0, 0.0, 0.0, 0.0, 0.0, 0.0, 1.6664045400740266E9, 0.0, 2022-10-21 19:09:00.074
22.0, -131021.94738649696, -157634.1578524301, -33351.14966048594, -140656.3539095347, 68867.28928891293, -110703.00468242225, 57010.82879433976, -110538.67465718683, 0.024, 0.9500000000000001, -0.05, 192.0, 0.0, 0.0, 0.0, 0.0, 0.0, 0.0, 0.0, 0.0, 0.0, 1.6664045400740457E9, 0.0, 2022-10-21 19:09:00.074
23.0, -131028.74231681137, -157641.5562798448, -33358.570439645104, -140671.44133704202, 68858.08037019735, -110728.66448505694, 56991.44983189701, -110546.43071251283, 0.024, 0.9500000000000001, -0.05, 192.0, 0.0, 0.0, 0.0, 0.0, 0.0, 0.0, 0.0, 0.0, 0.0, 1.6664045400740616E9, 0.0, 2022-10-21 19:09:00.074
24.0, -131027.24474993287, -157639.43286412154, -33356.782300088686, -140668.62501724064, 68864.54002434493, -110733.38070313701, 56987.69473882851, -110538.2946775311, 0.024, 0.9500000000000001, -0.05, 192.0, 0.0, 0.0, 0.0, 0.0, 0.0, 0.0, 0.0, 0.0, 0.0, 1.6664045400740764E9, 0.0, 2022-10-21 19:09:00.074
25.0, -131029.09994472265, -157642.22683217845, -33353.87657330949, -140656.62213046817, 68868.89861451372, -110724.12708093252, 56996.255456954896, -110538.38408450891, 0.024, 0.9500000000000001, -0.05, 192.0, 0.0, 0.0, 0.0, 0.0, 0.0, 0.0, 0.0, 0.0, 0.0, 1.6664045400740914E9, 0.0, 2022-10-21 19:09:00.074
26.0, -131032.8773895356, -157645.2666694244, -33357.69872161135, -140662.0983078597, 68863.46714061107, -110708.4808598138, 57004.68206461454, -110548.79999742509, 0.024, 0.9500000000000001, -0.05, 192.0, 0.0, 0.0, 0.0, 0.0, 0.0, 0.0, 0.0, 0.0, 0.0, 1.6664045400741065E9, 0.0, 2022-10-21 19:09:00.074
27.0, -131025.27779642079, -157636.21421292, -33349.09329999606, -140655.9962816234, 68876.16293146169, -110704.39049057847, 57008.81713733878, -110538.80876765357, 0.022, 0.96, -0.046, 192.0, 0.0, 176.0, 30.0, 0.0, 254.0, 144.0, 0.0, 0.0, 0.0, 1.6664045400741212E9, 0.0, 2022-10-21 19:09:00.074
28.0, -131029.16699995603, -157639.1199396992, -33352.53546864217, -140670.3013980748, 68872.83252153784, -110716.43808083989, 56994.46731739847, -110544.73197993422, 0.022, 0.96, -0.046, 192.0, 0.0, 0.0, 0.0, 0.0, 0.0, 0.0, 0.0, 0.0, 0.0, 1.6664045400741634E9, 0.0, 2022-10-21 19:09:00.074
29.0, -131027.87059877762, -157636.705951298, -33351.90961979743, -140670.68137773054, 68870.21736743658, -110716.59454305108, 56995.80842206579, -110539.92635487633, 0.022, 0.96, -0.046, 192.0, 0.0, 0.0, 0.0, 0.0, 0.0, 0.0, 0.0, 0.0, 0.0, 1.6664045400741794E9, 0.0, 2022-10-21 19:09:00.074
30.0, -131031.60334010165, -157643.18795719004, -33357.609314633526, -140674.07884288774, 68862.61777432177, -110718.22622039632, 57001.284599457336, -110548.46472125826, 0.022, 0.96, -0.046, 192.0, 0.0, 0.0, 0.0, 0.0, 0.0, 0.0, 0.0, 0.0, 0.0, 1.6664045400741951E9, 0.0, 2022-10-21 19:09:00.074
31.0, -131024.22726443139, -157637.17533793158, -33350.00972151873, -140671.0166538974, 68871.33495465934, -110710.04548192567, 57010.47116642847, -110544.30729678957, 0.022, 0.96, -0.046, 192.0, 0.0, 0.0, 0.0, 0.0, 0.0, 0.0, 0.0, 0.0, 0.0, 1.6664045400742102E9, 0.0, 2022-10-21 19:09:00.074
32.0, -131018.84049401767, -157631.6097535622, -33344.35473017153, -140671.19546785302, 68875.98411750604, -110718.13681341849, 57001.32930294625, -110543.99437236719, 0.022, 0.96, -0.046, 192.0, 0.0, 0.0, 0.0, 0.0, 0.0, 0.0, 0.0, 0.0, 0.0, 1.6664045400742319E9, 0.0, 2022-10-21 19:09:00.074
33.0, -131017.56644458372, -157630.1121866837, -33345.382910416476, -140667.9991683959, 68873.52542561597, -110731.32434264713, 56987.784145806334, -110548.12944509143, 0.022, 0.96, -0.046, 192.0, 0.0, 0.0, 0.0, 0.0, 0.0, 0.0, 0.0, 0.0, 0.0, 1.6664045400742486E9, 0.0, 2022-10-21 19:09:00.074
34.0, -131026.52949411029, -157638.87407051018, -33349.428576162885, -140659.37139503617, 68869.36800114728, -110718.00270295177, 56997.70832034449, -110551.72807594873, 0.022, 0.96, -0.046, 192.0, 0.0, 0.0, 0.0, 0.0, 0.0, 0.0, 0.0, 0.0, 0.0, 1.6664045400742636E9, 0.0, 2022-10-21 19:09:00.074
35.0, -131017.52174109481, -157628.92754422757, -33336.710433567816, -140645.2003890515, 68882.93551003165, -110694.6227782515, 57019.09893978822, -110534.0925495735, 0.022, 0.96, -0.046, 192.0, 0.0, 0.0, 0.0, 0.0, 0.0, 0.0, 0.0, 0.0, 0.0, 1.6664045400742788E9, 0.0, 2022-10-21 19:09:00.074
36.0, -131020.13689519608, -157633.57670707427, -33342.34307317055, -140668.66972072958, 68874.06186748289, -110733.44775837038, 56989.92991327404, -110539.1440438204, 0.022, 0.96, -0.046, 192.0, 0.0, 0.0, 0.0, 0.0, 0.0, 0.0, 0.0, 0.0, 0.0, 1.666404540074294E9, 0.0, 2022-10-21 19:09:00.074
37.0, -131021.25448241884, -157634.04609370782, -33342.90186678194, -140664.3111305608, 68875.96176576159, -110734.63240082651, 56986.28657892783, -110541.58038396602, 0.018000000000000002, 0.96, -0.044, 192.0, 0.0, 144.0, 30.0, 0.0, 254.0, 160.0, 0.0, 0.0, 0.0, 1.6664045400743103E9, 0.0, 2022-10-21 19:09:00.074
38.0, -131020.69568880746, -157633.82257626328, -33341.29254118115, -140653.8505141557, 68875.71589657258, -110718.96382796334, 56997.641265111124, -110537.06533158605, 0.018000000000000002, 0.96, -0.044, 192.0, 0.0, 0.0, 0.0, 0.0, 0.0, 0.0, 0.0, 0.0, 0.0, 1.666404540074334E9, 0.0, 2022-10-21 19:09:00.074
39.0, -131022.50618010834, -157636.8624135092, -33341.113727225515, -140658.87965665813, 68872.76546630448, -110711.23012438181, 57003.22920122495, -110548.04003811361, 0.018000000000000002, 0.96, -0.044, 192.0, 0.0, 0.0, 0.0, 0.0, 0.0, 0.0, 0.0, 0.0, 0.0, 1.6664045400743494E9, 0.0, 2022-10-21 19:09:00.074
40.0, -131023.08732546418, -157635.7671780309, -33340.71139582532, -140665.47342127244, 68876.52055937298, -110714.78405175019, 56996.9036575441, -110545.53664273462, 0.018000000000000002, 0.96, -0.044, 192.0, 0.0, 0.0, 0.0, 0.0, 0.0, 0.0, 0.0, 0.0, 0.0, 1.666404540074365E9, 0.0, 2022-10-21 19:09:00.074
41.0, -131016.18063642748, -157628.77108201638, -33336.442212634356, -140667.2615608289, 68878.12988497375, -110717.33215061811, 56993.170916220064, -110540.86512814346, 0.018000000000000002, 0.96, -0.044, 192.0, 0.0, 0.0, 0.0, 0.0, 0.0, 0.0, 0.0, 0.0, 0.0, 1.6664045400743804E9, 0.0, 2022-10-21 19:09:00.074
42.0, -131020.51687485182, -157630.715683784, -33339.571456858095, -140657.0468136128, 68876.92289077317, -110702.71410974434, 57007.07370127126, -110545.80486366808, 0.018000000000000002, 0.96, -0.044, 192.0, 0.0, 0.0, 0.0, 0.0, 0.0, 0.0, 0.0, 0.0, 0.0, 1.6664045400743954E9, 0.0, 2022-10-21 19:09:00.074
43.0, -131021.92503475251, -157633.710817541, -33341.58311385907, -140659.77372643637, 68875.38062040575, -110687.4255165369, 57019.83654735525, -110549.6940672033, 0.018000000000000002, 0.96, -0.044, 192.0, 0.0, 0.0, 0.0, 0.0, 0.0, 0.0, 0.0, 0.0, 0.0, 1.6664045400744252E9, 0.0, 2022-10-21 19:09:00.074
44.0, -131020.58393008518, -157628.68167503856, -33340.15260221394, -140666.97098815098, 68879.44863789662, -110700.83656321009, 57009.04065478333, -110545.4919392457, 0.018000000000000002, 0.96, -0.044, 192.0, 0.0, 0.0, 0.0, 0.0, 0.0, 0.0, 0.0, 0.0, 0.0, 1.6664045400744405E9, 0.0, 2022-10-21 19:09:00.074
45.0, -131019.80161902924, -157626.91588722658, -33340.15260221394, -140666.76982245088, 68879.64980359672, -110720.17082216393, 56997.41774766657, -110541.11099733246, 0.018000000000000002, 0.96, -0.044, 192.0, 0.0, 0.0, 0.0, 0.0, 0.0, 0.0, 0.0, 0.0, 0.0, 1.6664045400744555E9, 0.0, 2022-10-21 19:09:00.074
46.0, -131012.71611603691, -157621.73028251296, -33331.88245676547, -140657.11386884618, 68882.46612339809, -110719.56732506363, 57005.86670707068, -110531.87972687242, 0.012, 0.962, -0.05, 192.0, 0.0, 96.0, 30.0, 16.0, 254.0, 112.0, 0.0, 0.0, 0.0, 1.6664045400744703E9, 0.0, 2022-10-21 19:09:00.074
47.0, -131021.47799986339, -157631.09566343972, -33343.1700877154, -140660.57838923673, 68873.45837038259, -110715.20873489484, 57008.32539896076, -110542.07212234403, 0.012, 0.962, -0.05, 192.0, 0.0, 0.0, 0.0, 0.0, 0.0, 0.0, 0.0, 0.0, 0.0, 1.666404540074486E9, 0.0, 2022-10-21 19:09:00.074
48.0, -131024.98722374288, -157633.53200358534, -33346.88047729498, -140668.78147945183, 68872.22902443755, -110716.86276398454, 57002.960980291486, -110548.86705265845, 0.012, 0.962, -0.05, 192.0, 0.0, 0.0, 0.0, 0.0, 0.0, 0.0, 0.0, 0.0, 0.0, 1.666404540074501E9, 0.0, 2022-10-21 19:09:00.074
49.0, -131018.14758993956, -157623.33960811372, -33341.56076211462, -140672.3130550758, 68875.06769598338, -110743.26017418626, 56987.24770393941, -110537.6911804308, 0.012, 0.962, -0.05, 192.0, 0.0, 0.0, 0.0, 0.0, 0.0, 0.0, 0.0, 0.0, 0.0, 1.6664045400745175E9, 0.0, 2022-10-21 19:09:00.074
50.0, -131016.2253399164, -157622.49024182442, -33343.12538422649, -140661.3607002927, 68876.69937332862, -110739.72859856232, 56992.053328997295, -110534.36077050696, 0.012, 0.962, -0.05, 192.0, 0.0, 0.0, 0.0, 0.0, 0.0, 0.0, 0.0, 0.0, 0.0, 1.6664045400745325E9, 0.0, 2022-10-21 19:09:00.074
51.0, -131016.47120910541, -157625.1948029035, -33344.64530284945, -140660.13135434763, 68876.58761460634, -110724.19413616588, 57006.06787277078, -110535.88068912992, 0.012, 0.962, -0.05, 192.0, 0.0, 0.0, 0.0, 0.0, 0.0, 0.0, 0.0, 0.0, 0.0, 1.6664045400745475E9, 0.0, 2022-10-21 19:09:00.074
52.0, -131017.56644458372, -157624.79247150332, -33346.74636682825, -140669.6979009745, 68876.29704192842, -110720.03671169719, 57006.872535571165, -110534.1372530624, 0.012, 0.962, -0.05, 192.0, 0.0, 0.0, 0.0, 0.0, 0.0, 0.0, 0.0, 0.0, 0.0, 1.6664045400745623E9, 0.0, 2022-10-21 19:09:00.074
53.0, -131016.44885736096, -157625.1500994146, -33344.77941331618, -140678.57154352326, 68873.77129480497, -110727.16691817844, 56996.3001604438, -110543.07795084453, 0.012, 0.962, -0.05, 192.0, 0.0, 0.0, 0.0, 0.0, 0.0, 0.0, 0.0, 0.0, 0.0, 1.666404540074577E9, 0.0, 2022-10-21 19:09:00.074
54.0, -131022.21560743042, -157630.3580558727, -33342.79010805966, -140673.6541597431, 68871.29025117043, -110736.2864299162, 56990.66752084107, -110546.78834042411, 0.012, 0.962, -0.05, 192.0, 0.0, 0.0, 0.0, 0.0, 0.0, 0.0, 0.0, 0.0, 0.0, 1.666404540074592E9, 0.0, 2022-10-21 19:09:00.074
55.0, -131022.28266266378, -157629.7992622613, -33340.331416169574, -140661.31599680378, 68876.92289077317, -110730.00558972426, 57001.53046864635, -110537.17709030832, 0.012, 0.962, -0.05, 192.0, 0.0, 0.0, 0.0, 0.0, 0.0, 0.0, 0.0, 0.0, 0.0, 1.6664045400746071E9, 0.0, 2022-10-21 19:09:00.074
56.0, -131022.05914521923, -157628.43580584953, -33341.33724467007, -140656.97975837943, 68883.71782108759, -110716.46043258434, 57007.96777104948, -110536.5959449525, 0.016, 0.9580000000000001, -0.052000000000000005, 192.0, 0.0, 128.0, 29.0, 240.0, 254.0, 96.0, 0.0, 0.0, 0.0, 1.6664045400746222E9, 0.0, 2022-10-21 19:09:00.074
57.0, -131025.25544467634, -157630.2462971504, -33345.76289007222, -140662.1430113486, 68883.27078619848, -110715.78988025068, 57001.5528203908, -110540.57455546553, 0.016, 0.9580000000000001, -0.052000000000000005, 192.0, 0.0, 0.0, 0.0, 0.0, 0.0, 0.0, 0.0, 0.0, 0.0, 1.6664045400746381E9, 0.0, 2022-10-21 19:09:00.074
58.0, -131028.51879936682, -157633.37554137417, -33354.83769832107, -140670.3013980748, 68874.19597794962, -110724.21648791034, 56992.56741911977, -110547.07891310203, 0.016, 0.9580000000000001, -0.052000000000000005, 192.0, 0.0, 0.0, 0.0, 0.0, 0.0, 0.0, 0.0, 0.0, 0.0, 1.666404540074681E9, 0.0, 2022-10-21 19:09:00.074
59.0, -131023.60141558664, -157631.52034658438, -33352.20019247534, -140663.77468869384, 68872.51959711548, -110727.07751120062, 56996.456622654994, -110546.83304391302, 0.016, 0.9580000000000001, -0.052000000000000005, 192.0, 0.0, 0.0, 0.0, 0.0, 0.0, 0.0, 0.0, 0.0, 0.0, 1.6664045400746973E9, 0.0, 2022-10-21 19:09:00.074
60.0, -131021.36624114112, -157627.5640878158, -33346.61225636152, -140658.38791828012, 68879.49334138553, -110715.29814187267, 57010.04648328382, -110546.38600902392, 0.016, 0.9580000000000001, -0.052000000000000005, 192.0, 0.0, 0.0, 0.0, 0.0, 0.0, 0.0, 0.0, 0.0, 0.0, 1.6664045400747128E9, 0.0, 2022-10-21 19:09:00.074
61.0, -131025.38955514308, -157630.22394540597, -33349.920314540905, -140675.93403767754, 68870.44088488113, -110729.91618274644, 56996.5013261439, -110553.0915323605, 0.016, 0.9580000000000001, -0.052000000000000005, 192.0, 0.0, 0.0, 0.0, 0.0, 0.0, 0.0, 0.0, 0.0, 0.0, 1.6664045400747287E9, 0.0, 2022-10-21 19:09:00.074
62.0, -131021.65681381903, -157625.37361685917, -33340.957265014324, -140669.83201144123, 68870.68675407014, -110764.00259304079, 56974.84248576671, -110551.50455850418, 0.016, 0.9580000000000001, -0.052000000000000005, 192.0, 0.0, 0.0, 0.0, 0.0, 0.0, 0.0, 0.0, 0.0, 0.0, 1.6664045400747445E9, 0.0, 2022-10-21 19:09:00.074
63.0, -131028.09411622217, -157635.18603267503, -33348.69096859586, -140658.23145606893, 68872.22902443755, -110735.14649094899, 56995.16022147659, -110554.25382307218, 0.016, 0.9580000000000001, -0.052000000000000005, 192.0, 0.0, 0.0, 0.0, 0.0, 0.0, 0.0, 0.0, 0.0, 0.0, 1.6664045400747657E9, 0.0, 2022-10-21 19:09:00.074
64.0, -131022.30501440824, -157628.458157594, -33345.20409646083, -140658.9467118915, 68876.96759426208, -110720.59550530858, 57007.028997782356, -110549.2917358031, 0.016, 0.9580000000000001, -0.052000000000000005, 192.0, 0.0, 0.0, 0.0, 0.0, 0.0, 0.0, 0.0, 0.0, 0.0, 1.6664045400747817E9, 0.0, 2022-10-21 19:09:00.074
65.0, -131024.33902315368, -157629.1063581832, -33343.52771562668, -140667.01569163988, 68877.36992566228, -110741.76260730776, 56993.32737843125, -110553.76208469417, 0.016, 0.9580000000000001, -0.052000000000000005, 192.0, 0.0, 0.0, 0.0, 0.0, 0.0, 0.0, 0.0, 0.0, 0.0, 1.6664045400747974E9, 0.0, 2022-10-21 19:09:00.074
66.0, -131024.58489234268, -157632.3473611292, -33344.26532319371, -140662.6123979822, 68878.77808556295, -110737.51577586125, 56993.77441332036, -110551.10222710398, 0.012, 0.964, -0.052000000000000005, 192.0, 0.0, 96.0, 30.0, 32.0, 254.0, 96.0, 0.0, 0.0, 0.0, 1.666404540074813E9, 0.0, 2022-10-21 19:09:00.074
67.0, -131015.42067711601, -157621.43970983502, -33334.89994226694, -140642.7864006503, 68889.43986766814, -110710.96190344833, 57014.4050734526, -110537.86999438645, 0.012, 0.964, -0.052000000000000005, 192.0, 0.0, 0.0, 0.0, 0.0, 0.0, 0.0, 0.0, 0.0, 0.0, 1.6664045400748296E9, 0.0, 2022-10-21 19:09:00.074
68.0, -131020.0251364738, -157625.1053959257, -33339.862029536016, -140650.2965867873, 68882.64493735373, -110699.6742724984, 57025.29037300234, -110535.47835772972, 0.012, 0.964, -0.052000000000000005, 192.0, 0.0, 0.0, 0.0, 0.0, 0.0, 0.0, 0.0, 0.0, 0.0, 1.6664045400748453E9, 0.0, 2022-10-21 19:09:00.074
69.0, -131018.19229342847, -157622.87022148017, -33338.878552779985, -140664.93697940552, 68876.92289077317, -110718.11446167403, 57009.264172227886, -110545.73780843471, 0.012, 0.964, -0.052000000000000005, 192.0, 0.0, 0.0, 0.0, 0.0, 0.0, 0.0, 0.0, 0.0, 0.0, 1.6664045400748625E9, 0.0, 2022-10-21 19:09:00.074
70.0, -131018.08053470618, -157620.9926749459, -33337.93977951286, -140665.2499038279, 68876.69937332862, -110733.71597930384, 56992.56741911977, -110551.10222710398, 0.012, 0.964, -0.052000000000000005, 192.0, 0.0, 0.0, 0.0, 0.0, 0.0, 0.0, 0.0, 0.0, 0.0, 1.666404540074883E9, 0.0, 2022-10-21 19:09:00.074
71.0, -131018.52756959529, -157622.1549656576, -33337.09041322356, -140659.1031741027, 68875.58178610585, -110727.30102864518, 56999.27294245636, -110543.65909620037, 0.012, 0.964, -0.052000000000000005, 192.0, 0.0, 0.0, 0.0, 0.0, 0.0, 0.0, 0.0, 0.0, 0.0, 1.6664045400748985E9, 0.0, 2022-10-21 19:09:00.074
72.0, -131020.13689519608, -157625.954762215, -33339.39264290245, -140656.62213046817, 68873.97246050507, -110718.85206924107, 57010.73938736194, -110544.88844214541, 0.012, 0.964, -0.052000000000000005, 192.0, 0.0, 0.0, 0.0, 0.0, 0.0, 0.0, 0.0, 0.0, 0.0, 1.666404540074914E9, 0.0, 2022-10-21 19:09:00.074
73.0, -131016.78413352778, -157623.6078290472, -33336.08458472307, -140660.26546481438, 68875.1571029612, -110714.91816221693, 57015.34384671973, -110542.13917757741, 0.012, 0.964, -0.052000000000000005, 192.0, 0.0, 0.0, 0.0, 0.0, 0.0, 0.0, 0.0, 0.0, 0.0, 1.6664045400749443E9, 0.0, 2022-10-21 19:09:00.074
74.0, -131015.68889804947, -157620.63504703465, -33338.677387079886, -140667.7980026958, 68867.11047495728, -110741.42733114092, 56994.489669142924, -110550.7445991927, 0.012, 0.964, -0.052000000000000005, 192.0, 0.0, 0.0, 0.0, 0.0, 0.0, 0.0, 0.0, 0.0, 0.0, 1.6664045400749617E9, 0.0, 2022-10-21 19:09:00.074
75.0, -131023.10967720863, -157630.4474628505, -33345.76289007222, -140662.3441770487, 68868.87626276926, -110739.86270902905, 56993.84146855372, -110548.91175614737, 0.01, 0.9540000000000001, -0.056, 192.0, 0.0, 80.0, 29.0, 208.0, 254.0, 64.0, 0.0, 0.0, 0.0, 1.666404540074984E9, 0.0, 2022-10-21 19:09:00.074
76.0, -131032.31859592423, -157641.8692042672, -33355.105919254536, -140659.28198805833, 68866.01523947898, -110711.81126973763, 57009.24182048343, -110547.68241020232, 0.01, 0.9540000000000001, -0.056, 192.0, 0.0, 0.0, 0.0, 0.0, 0.0, 0.0, 0.0, 0.0, 0.0, 1.666404540075001E9, 0.0, 2022-10-21 19:09:00.075
77.0, -131027.35650865514, -157634.8060530193, -33346.9698842728, -140661.4948107594, 68866.75284704601, -110709.7325575033, 57011.67816062906, -110542.80972991107, 0.01, 0.9540000000000001, -0.056, 192.0, 0.0, 0.0, 0.0, 0.0, 0.0, 0.0, 0.0, 0.0, 0.0, 1.6664045400750165E9, 0.0, 2022-10-21 19:09:00.075
78.0, -131020.09219170717, -157628.212288405, -33337.64920683494, -140659.8407816697, 68874.93358551664, -110726.3846071225, 56998.46827965597, -110539.34520952048, 0.01, 0.9540000000000001, -0.056, 192.0, 0.0, 0.0, 0.0, 0.0, 0.0, 0.0, 0.0, 0.0, 0.0, 1.6664045400750325E9, 0.0, 2022-10-21 19:09:00.075
79.0, -131021.27683416329, -157628.43580584953, -33339.59380860255, -140659.68431945852, 68873.01133549349, -110734.07360721513, 56990.75692781889, -110547.95063113578, 0.01, 0.9540000000000001, -0.056, 192.0, 0.0, 0.0, 0.0, 0.0, 0.0, 0.0, 0.0, 0.0, 0.0, 1.6664045400750484E9, 0.0, 2022-10-21 19:09:00.075
80.0, -131030.64221509008, -157638.82936702124, -33344.06415749361, -140650.00601410939, 68871.51376861498, -110712.70533951586, 57005.50907915939, -110557.36071555148, 0.01, 0.9540000000000001, -0.056, 192.0, 0.0, 0.0, 0.0, 0.0, 0.0, 0.0, 0.0, 0.0, 0.0, 1.6664045400750644E9, 0.0, 2022-10-21 19:09:00.075
81.0, -131030.50810462334, -157635.87893675317, -33340.77845105868, -140653.42583101106, 68868.60804183579, -110696.99206316378, 57018.204870010006, -110553.60562248298, 0.01, 0.9540000000000001, -0.056, 192.0, 0.0, 0.0, 0.0, 0.0, 0.0, 0.0, 0.0, 0.0, 0.0, 1.666404540075087E9, 0.0, 2022-10-21 19:09:00.075
82.0, -131030.30693892324, -157633.33083788524, -33339.88438128047, -140666.6580637286, 68867.40104763521, -110723.32241813213, 56998.200058722505, -110552.51038700467, 0.01, 0.9540000000000001, -0.056, 192.0, 0.0, 0.0, 0.0, 0.0, 0.0, 0.0, 0.0, 0.0, 0.0, 1.6664045400751028E9, 0.0, 2022-10-21 19:09:00.075
83.0, -131030.10577322314, -157635.5660123308, -33339.45969813582, -140665.13814510562, 68870.26207092548, -110735.66058107145, 56992.74623307541, -110550.63284047043, 0.01, 0.9540000000000001, -0.056, 192.0, 0.0, 0.0, 0.0, 0.0, 0.0, 0.0, 0.0, 0.0, 0.0, 1.6664045400751183E9, 0.0, 2022-10-21 19:09:00.075
84.0, -131017.83466551718, -157622.28907612432, -33329.714337553305, -140648.66490944207, 68876.98994600654, -110722.1824791649, 57007.028997782356, -110540.48514848771, 0.01, 0.9540000000000001, -0.056, 192.0, 0.0, 0.0, 0.0, 0.0, 0.0, 0.0, 0.0, 0.0, 0.0, 1.6664045400751343E9, 0.0, 2022-10-21 19:09:00.075
85.0, -131018.75108703985, -157619.58451504525, -33329.40141313093, -140645.6474239406, 68876.4535041396, -110714.35936860554, 57015.679122886555, -110539.30050603158, 0.014, 0.9560000000000001, -0.056, 192.0, 0.0, 112.0, 29.0, 224.0, 254.0, 64.0, 0.0, 0.0, 0.0, 1.6664045400751498E9, 0.0, 2022-10-21 19:09:00.075
86.0, -131022.39442138607, -157620.43388133455, -33336.151639956435, -140661.98654913742, 68875.26886168348, -110732.888964759, 57000.010550023384, -110542.80972991107, 0.014, 0.9560000000000001, -0.056, 192.0, 0.0, 0.0, 0.0, 0.0, 0.0, 0.0, 0.0, 0.0, 0.0, 1.6664045400751681E9, 0.0, 2022-10-21 19:09:00.075
87.0, -131022.77440104181, -157624.0101604474, -33338.47622137979, -140658.5443804913, 68877.74990531802, -110736.91227876095, 56992.50036388641, -110541.58038396602, 0.014, 0.9560000000000001, -0.056, 192.0, 0.0, 0.0, 0.0, 0.0, 0.0, 0.0, 0.0, 0.0, 0.0, 1.6664045400751927E9, 0.0, 2022-10-21 19:09:00.075
88.0, -131022.70734580843, -157625.37361685917, -33336.777488801185, -140653.4034792666, 68876.58761460634, -110724.99879896628, 57001.217544223975, -110534.42782574032, 0.014, 0.9560000000000001, -0.056, 192.0, 0.0, 0.0, 0.0, 0.0, 0.0, 0.0, 0.0, 0.0, 0.0, 1.6664045400752237E9, 0.0, 2022-10-21 19:09:00.075
89.0, -131019.68986030697, -157620.88091622366, -33331.368366643, -140643.92633961755, 68883.00256526501, -110710.35840634805, 57014.74034961943, -110532.81850013955, 0.014, 0.9560000000000001, -0.056, 192.0, 0.0, 0.0, 0.0, 0.0, 0.0, 0.0, 0.0, 0.0, 0.0, 1.6664045400752397E9, 0.0, 2022-10-21 19:09:00.075
90.0, -131032.29624417976, -157634.9178117416, -33344.2206197048, -140653.62699671116, 68877.99577450703, -110708.01147318025, 57007.20781173799, -110553.65032597189, 0.014, 0.9560000000000001, -0.056, 192.0, 0.0, 0.0, 0.0, 0.0, 0.0, 0.0, 0.0, 0.0, 0.0, 1.6664045400752556E9, 0.0, 2022-10-21 19:09:00.075
91.0, -131032.72092732441, -157635.54366058632, -33344.0194540047, -140655.92922639003, 68878.53221637395, -110727.77041527873, 56989.751099318404, -110553.22564282724, 0.014, 0.9560000000000001, -0.056, 192.0, 0.0, 0.0, 0.0, 0.0, 0.0, 0.0, 0.0, 0.0, 0.0, 1.6664045400752716E9, 0.0, 2022-10-21 19:09:00.075
92.0, -131030.5751598567, -157634.8060530193, -33344.332378427076, -140650.4530489985, 68877.63814659574, -110726.76458677824, 56990.22048595196, -110557.00308764019, 0.014, 0.9560000000000001, -0.056, 192.0, 0.0, 0.0, 0.0, 0.0, 0.0, 0.0, 0.0, 0.0, 0.0, 1.6664045400752988E9, 0.0, 2022-10-21 19:09:00.075
93.0, -131026.08245922119, -157628.0111227049, -33337.93977951286, -140645.2897960293, 68881.34853617533, -110710.64897902597, 57003.2068494805, -110549.62701196993, 0.014, 0.9560000000000001, -0.056, 192.0, 0.0, 0.0, 0.0, 0.0, 0.0, 0.0, 0.0, 0.0, 0.0, 1.6664045400753157E9, 0.0, 2022-10-21 19:09:00.075
94.0, -131022.61793883062, -157623.31725636928, -33333.491782366254, -140646.47443848546, 68883.71782108759, -110724.79763326618, 56999.250590711905, -110541.20040431028, 0.014, 0.9560000000000001, -0.056, 192.0, 0.0, 0.0, 0.0, 0.0, 0.0, 0.0, 0.0, 0.0, 0.0, 1.6664045400753314E9, 0.0, 2022-10-21 19:09:00.075
95.0, -131027.69178482197, -157628.23464014943, -33341.89603828145, -140659.81842992528, 68875.98411750604, -110744.4895201313, 56986.75596556139, -110546.38600902392, 0.016, 0.96, -0.056, 192.0, 0.0, 128.0, 30.0, 0.0, 254.0, 64.0, 0.0, 0.0, 0.0, 1.6664045400753472E9, 0.0, 2022-10-21 19:09:00.075
96.0, -131034.06203199174, -157636.2589164089, -33347.528677884184, -140660.91366540358, 68870.19501569212, -110740.86853752955, 56991.87451504166, -110548.26355555817, 0.016, 0.96, -0.056, 192.0, 0.0, 0.0, 0.0, 0.0, 0.0, 0.0, 0.0, 0.0, 0.0, 1.666404540075364E9, 0.0, 2022-10-21 19:09:00.075
97.0, -131032.78798255778, -157635.47660535297, -33345.13704122747, -140651.23536005442, 68870.82086453687, -110727.52454608973, 57006.15727974859, -110544.86609040096, 0.016, 0.96, -0.056, 192.0, 0.0, 0.0, 0.0, 0.0, 0.0, 0.0, 0.0, 0.0, 0.0, 1.6664045400753818E9, 0.0, 2022-10-21 19:09:00.075
98.0, -131033.14561046906, -157634.13550068563, -33345.98640751677, -140659.0584706138, 68870.26207092548, -110743.01430499725, 56998.91531454508, -110553.8961951609, 0.016, 0.96, -0.056, 192.0, 0.0, 0.0, 0.0, 0.0, 0.0, 0.0, 0.0, 0.0, 0.0, 1.6664045400754063E9, 0.0, 2022-10-21 19:09:00.075
99.0, -131028.94348251147, -157630.17924191707, -33340.063195236115, -140657.06916535727, 68881.23677745304, -110747.81993005514, 56994.55672437629, -110555.01378238366, 0.016, 0.96, -0.056, 192.0, 0.0, 0.0, 0.0, 0.0, 0.0, 0.0, 0.0, 0.0, 0.0, 1.666404540075422E9, 0.0, 2022-10-21 19:09:00.075
100.0, -131030.66456683453, -157631.98973321792, -33340.37611965849, -140649.3354617757, 68883.94133853214, -110728.70918854585, 57008.347750705216, -110550.5434334926, 0.016, 0.96, -0.056, 192.0, 0.0, 0.0, 0.0, 0.0, 0.0, 0.0, 0.0, 0.0, 0.0, 1.6664045400754378E9, 0.0, 2022-10-21 19:09:00.075
101.0, -131037.23597970439, -157636.77300653138, -33347.28280869518, -140656.0409851123, 68874.17362620517, -110717.15333666246, 57017.40020720962, -110553.96325039426, 0.016, 0.96, -0.056, 192.0, 0.0, 0.0, 0.0, 0.0, 0.0, 0.0, 0.0, 0.0, 0.0, 1.6664045400754535E9, 0.0, 2022-10-21 19:09:00.075
102.0, -131033.3244244247, -157634.69429429702, -33334.29644516664, -140654.92339788956, 68881.0579634974, -110724.12708093252, 57017.53431767635, -110544.41905551184, 0.016, 0.96, -0.056, 192.0, 0.0, 0.0, 0.0, 0.0, 0.0, 0.0, 0.0, 0.0, 0.0, 1.6664045400754695E9, 0.0, 2022-10-21 19:09:00.075
103.0, -131027.91530226653, -157626.7594250154, -33325.95924448482, -140658.23145606893, 68887.78583857845, -110742.07553173012, 57003.877401814156, -110540.35103802098, 0.016, 0.96, -0.056, 192.0, 0.0, 0.0, 0.0, 0.0, 0.0, 0.0, 0.0, 0.0, 0.0, 1.666404540075485E9, 0.0, 2022-10-21 19:09:00.075
104.0, -131035.40313665905, -157633.6661140521, -33332.97769224378, -140654.63282521162, 68885.08127749935, -110743.95307826437, 56998.490631400426, -110545.62604971243, 0.016, 0.96, -0.056, 192.0, 0.0, 0.0, 0.0, 0.0, 0.0, 0.0, 0.0, 0.0, 0.0, 1.6664045400755212E9, 0.0, 2022-10-21 19:09:00.075
105.0, -131036.90070353755, -157635.2083844195, -33335.57049460059, -140651.41417401007, 68884.67894609916, -110726.16108967795, 57013.06396878529, -110541.0439420991, 0.016, 0.9560000000000001, -0.054, 192.0, 0.0, 128.0, 29.0, 224.0, 254.0, 80.0, 0.0, 0.0, 0.0, 1.6664045400755374E9, 0.0, 2022-10-21 19:09:00.075
106.0, -131031.51393312383, -157630.4027593616, -33332.15067769893, -140655.77276417887, 68885.97534727756, -110711.58775229308, 57026.586774180745, -110534.38312225141, 0.016, 0.9560000000000001, -0.054, 192.0, 0.0, 0.0, 0.0, 0.0, 0.0, 0.0, 0.0, 0.0, 0.0, 1.6664045400755541E9, 0.0, 2022-10-21 19:09:00.075
107.0, -131027.80354354424, -157625.9994657039, -33329.155543941924, -140662.3441770487, 68885.55066413291, -110738.74512180629, 57006.872535571165, -110538.47349148673, 0.016, 0.9560000000000001, -0.054, 192.0, 0.0, 0.0, 0.0, 0.0, 0.0, 0.0, 0.0, 0.0, 0.0, 1.6664045400755703E9, 0.0, 2022-10-21 19:09:00.075
108.0, -131027.37886039959, -157625.97711395947, -33332.105974210026, -140658.07499385776, 68884.52248388798, -110750.34567717859, 56995.51784938787, -110544.44140725631, 0.016, 0.9560000000000001, -0.054, 192.0, 0.0, 0.0, 0.0, 0.0, 0.0, 0.0, 0.0, 0.0, 0.0, 1.6664045400755863E9, 0.0, 2022-10-21 19:09:00.075
109.0, -131020.38276438508, -157621.2608958794, -33325.869837506994, -140645.6027204517, 68885.9082920442, -110745.02596199822, 57004.23502972544, -110541.6921426883, 0.016, 0.9560000000000001, -0.054, 192.0, 0.0, 0.0, 0.0, 0.0, 0.0, 0.0, 0.0, 0.0, 0.0, 1.6664045400756068E9, 0.0, 2022-10-21 19:09:00.075
110.0, -131020.31570915172, -157623.02668369137, -33326.27216890719, -140645.91564487407, 68886.3553269333, -110726.85399375606, 57016.32732347576, -110541.98271536622, 0.016, 0.9560000000000001, -0.054, 192.0, 0.0, 0.0, 0.0, 0.0, 0.0, 0.0, 0.0, 0.0, 0.0, 1.6664045400756247E9, 0.0, 2022-10-21 19:09:00.075
111.0, -131021.25448241884, -157623.47371858047, -33329.55787534212, -140653.0458513553, 68889.93160604616, -110727.4798426008, 57009.17476525006, -110542.18388106632, 0.016, 0.9560000000000001, -0.054, 192.0, 0.0, 0.0, 0.0, 0.0, 0.0, 0.0, 0.0, 0.0, 0.0, 1.6664045400756407E9, 0.0, 2022-10-21 19:09:00.075
112.0, -131028.92113076702, -157631.69916054, -33337.35863415702, -140665.0487381278, 68881.63910885324, -110732.95601999236, 56995.87547729915, -110555.90785216188, 0.016, 0.9560000000000001, -0.054, 192.0, 0.0, 0.0, 0.0, 0.0, 0.0, 0.0, 0.0, 0.0, 0.0, 1.6664045400756576E9, 0.0, 2022-10-21 19:09:00.075
113.0, -131029.85990403414, -157632.88380299613, -33340.77845105868, -140660.06429911428, 68878.19694020713, -110733.5371653482, 57000.88226805715, -110555.46081727277, 0.016, 0.9560000000000001, -0.054, 192.0, 0.0, 0.0, 0.0, 0.0, 0.0, 0.0, 0.0, 0.0, 0.0, 1.6664045400756752E9, 0.0, 2022-10-21 19:09:00.075
114.0, -131036.58777911519, -157640.4163408776, -33343.5724191156, -140660.01959562537, 68872.34078315983, -110720.01435995274, 57013.62276239667, -110552.4433317713, 0.012, 0.9580000000000001, -0.052000000000000005, 192.0, 0.0, 96.0, 29.0, 240.0, 254.0, 96.0, 0.0, 0.0, 0.0, 1.6664045400756912E9, 0.0, 2022-10-21 19:09:00.075
115.0, -131037.10186923765, -157637.6670763096, -33341.33724467007, -140668.28974107382, 68870.21736743658, -110733.42540662592, 57004.83852682573, -110549.11292184747, 0.012, 0.9580000000000001, -0.052000000000000005, 192.0, 0.0, 0.0, 0.0, 0.0, 0.0, 0.0, 0.0, 0.0, 0.0, 1.666404540075708E9, 0.0, 2022-10-21 19:09:00.075
116.0, -131031.15630521254, -157631.02860820637, -33336.26339867871, -140659.72902294743, 68878.66632684068, -110748.06579924416, 56994.914352287575, -110545.76016017917, 0.012, 0.9580000000000001, -0.052000000000000005, 192.0, 0.0, 0.0, 0.0, 0.0, 0.0, 0.0, 0.0, 0.0, 0.0, 1.666404540075725E9, 0.0, 2022-10-21 19:09:00.075
117.0, -131032.51976162432, -157633.5990588187, -33336.50926786772, -140645.0886303292, 68884.43307691015, -110744.0424852422, 56999.116480245175, -110544.97784912323, 0.012, 0.9580000000000001, -0.052000000000000005, 192.0, 0.0, 0.0, 0.0, 0.0, 0.0, 0.0, 0.0, 0.0, 0.0, 1.6664045400757453E9, 0.0, 2022-10-21 19:09:00.075
118.0, -131030.64221509008, -157629.62044830568, -33332.15067769893, -140643.3004907728, 68884.88011179926, -110722.07072044263, 57016.79671010932, -110543.41322701136, 0.012, 0.9580000000000001, -0.052000000000000005, 192.0, 0.0, 0.0, 0.0, 0.0, 0.0, 0.0, 0.0, 0.0, 0.0, 1.6664045400757768E9, 0.0, 2022-10-21 19:09:00.075
119.0, -131034.93375002549, -157636.39302687562, -33337.71626206831, -140663.64057822712, 68878.04047799594, -110720.72961577532, 57015.18738450854, -110548.91175614737, 0.012, 0.9580000000000001, -0.052000000000000005, 192.0, 0.0, 0.0, 0.0, 0.0, 0.0, 0.0, 0.0, 0.0, 0.0, 1.666404540075793E9, 0.0, 2022-10-21 19:09:00.075
120.0, -131032.2738924353, -157633.7555210299, -33334.810535289114, -140668.89323817412, 68877.23581519554, -110742.32140091913, 57001.083433757245, -110545.71545669026, 0.012, 0.9580000000000001, -0.052000000000000005, 192.0, 0.0, 0.0, 0.0, 0.0, 0.0, 0.0, 0.0, 0.0, 0.0, 1.6664045400758088E9, 0.0, 2022-10-21 19:09:00.075
121.0, -131026.95417725494, -157628.16758491608, -33324.90871249542, -140649.62603445366, 68886.5564926334, -110745.24947944278, 57005.53143090385, -110528.37050299294, 0.012, 0.9580000000000001, -0.052000000000000005, 192.0, 0.0, 0.0, 0.0, 0.0, 0.0, 0.0, 0.0, 0.0, 0.0, 1.666404540552806E9, 0.0, 2022-10-21 19:09:00.552
122.0, -131030.7763255568, -157632.8167477628, -33331.63658757646, -140643.3004907728, 68884.67894609916, -110725.22231641083, 57018.87542234366, -110531.41034023886, 0.012, 0.9580000000000001, -0.052000000000000005, 192.0, 0.0, 0.0, 0.0, 0.0, 0.0, 0.0, 0.0, 0.0, 0.0, 1.6664045405529394E9, 0.0, 2022-10-21 19:09:00.552
123.0, -131045.86375306413, -157645.78075954685, -33347.28280869518, -140667.73094746243, 68865.74701854552, -110730.20675542435, 57009.30887571679, -110549.42584626983, 0.012, 0.9580000000000001, -0.052000000000000005, 192.0, 0.0, 0.0, 0.0, 0.0, 0.0, 0.0, 0.0, 0.0, 0.0, 1.6664045405530133E9, 0.0, 2022-10-21 19:09:00.553
124.0, -131032.45270639095, -157632.4591198515, -33330.04961372013, -140662.67945321553, 68877.28051868445, -110739.2368601843, 57005.35261694821, -110541.8933083884, 0.014, 0.96, -0.052000000000000005, 192.0, 0.0, 112.0, 30.0, 0.0, 254.0, 96.0, 0.0, 0.0, 0.0, 1.6664045405530367E9, 0.0, 2022-10-21 19:09:00.553
125.0, -131024.40607838704, -157624.3007331253, -33322.651186305426, -140644.90981637358, 68886.84706531132, -110744.71303757586, 57002.73746284693, -110541.13334907692, 0.014, 0.96, -0.052000000000000005, 192.0, 0.0, 0.0, 0.0, 0.0, 0.0, 0.0, 0.0, 0.0, 0.0, 1.666404540553064E9, 0.0, 2022-10-21 19:09:00.553
126.0, -131030.15047671205, -157628.5028610829, -33324.059346206115, -140641.7358686609, 68884.38837342124, -110746.90350853247, 57006.06787277078, -110540.68631418781, 0.014, 0.96, -0.052000000000000005, 192.0, 0.0, 0.0, 0.0, 0.0, 0.0, 0.0, 0.0, 0.0, 0.0, 1.666404540553088E9, 0.0, 2022-10-21 19:09:00.553
127.0, -131028.29528192227, -157625.463023837, -33321.399488615934, -140637.75725814787, 68890.98213803556, -110734.27477291522, 57015.27679148636, -110537.80293915307, 0.014, 0.96, -0.052000000000000005, 192.0, 0.0, 0.0, 0.0, 0.0, 0.0, 0.0, 0.0, 0.0, 0.0, 1.6664045405531113E9, 0.0, 2022-10-21 19:09:00.553
128.0, -131040.4769826504, -157637.77883503184, -33332.79887828814, -140656.3092060458, 68883.98604202105, -110732.46428161435, 57007.05134952681, -110551.07987535953, 0.014, 0.96, -0.052000000000000005, 192.0, 0.0, 0.0, 0.0, 0.0, 0.0, 0.0, 0.0, 0.0, 0.0, 1.6664045405531335E9, 0.0, 2022-10-21 19:09:00.553
129.0, -131045.7296425974, -157644.43965487953, -33336.285750423165, -140662.12065960417, 68876.52055937298, -110730.29616240218, 57006.02316928186, -110551.43750327082, 0.014, 0.96, -0.052000000000000005, 192.0, 0.0, 0.0, 0.0, 0.0, 0.0, 0.0, 0.0, 0.0, 0.0, 1.666404540553156E9, 0.0, 2022-10-21 19:09:00.553
130.0, -131040.14170648357, -157640.19282343303, -33331.48012536528, -140644.90981637358, 68883.06962049838, -110713.06296742713, 57021.222355511476, -110544.03907585611, 0.014, 0.96, -0.052000000000000005, 192.0, 0.0, 0.0, 0.0, 0.0, 0.0, 0.0, 0.0, 0.0, 0.0, 1.6664045405531795E9, 0.0, 2022-10-21 19:09:00.553
131.0, -131039.35939542764, -157640.23752692193, -33328.88732300846, -140643.32284251726, 68885.3047949439, -110709.30787435865, 57026.85499511421, -110546.72128519074, 0.014, 0.96, -0.052000000000000005, 192.0, 0.0, 0.0, 0.0, 0.0, 0.0, 0.0, 0.0, 0.0, 0.0, 1.666404540553224E9, 0.0, 2022-10-21 19:09:00.553
132.0, -131036.34190992618, -157632.92850648507, -33328.44028811935, -140651.72709843246, 68884.88011179926, -110741.31557241865, 57008.77243384987, -110550.3422677925, 0.014, 0.96, -0.052000000000000005, 192.0, 0.0, 0.0, 0.0, 0.0, 0.0, 0.0, 0.0, 0.0, 0.0, 1.666404540553266E9, 0.0, 2022-10-21 19:09:00.553
133.0, -131033.01150000234, -157631.69916054, -33330.85427652053, -140650.3412902762, 68885.7071263441, -110766.77420935324, 56993.34973017571, -110544.46375900076, 0.014, 0.96, -0.052000000000000005, 192.0, 0.0, 0.0, 0.0, 0.0, 0.0, 0.0, 0.0, 0.0, 0.0, 1.6664045405534365E9, 0.0, 2022-10-21 19:09:00.553
134.0, -131038.35356692715, -157635.58836407523, -33337.71626206831, -140647.6367291971, 68879.2027687076, -110749.80923531167, 57007.45368092701, -110545.38018052343, 0.016, 0.9580000000000001, -0.052000000000000005, 192.0, 0.0, 128.0, 29.0, 240.0, 254.0, 96.0, 0.0, 0.0, 0.0, 1.66640454055346E9, 0.0, 2022-10-21 19:09:00.553
135.0, -131042.17571522901, -157637.28709665383, -33336.419860889895, -140652.97879612193, 68874.77712330547, -110740.0415229847, 57014.74034961943, -110547.14596833539, 0.016, 0.9580000000000001, -0.052000000000000005, 192.0, 0.0, 0.0, 0.0, 0.0, 0.0, 0.0, 0.0, 0.0, 0.0, 1.666404540553477E9, 0.0, 2022-10-21 19:09:00.553
136.0, -131051.27287522232, -157645.9148700136, -33342.03014874818, -140661.02542412584, 68873.30190817142, -110752.42438941293, 57004.43619542554, -110551.30339280408, 0.016, 0.9580000000000001, -0.052000000000000005, 192.0, 0.0, 0.0, 0.0, 0.0, 0.0, 0.0, 0.0, 0.0, 0.0, 1.6664045405534923E9, 0.0, 2022-10-21 19:09:00.553
137.0, -131037.57125587121, -157633.3978931186, -33332.731823054775, -140657.27033105737, 68880.99090826404, -110760.15809299448, 56998.982369778445, -110547.01185786867, 0.016, 0.9580000000000001, -0.052000000000000005, 192.0, 0.0, 0.0, 0.0, 0.0, 0.0, 0.0, 0.0, 0.0, 0.0, 1.6664045405535073E9, 0.0, 2022-10-21 19:09:00.553
138.0, -131037.90653203805, -157635.27543965288, -33334.743480055746, -140657.42679326853, 68872.45254188211, -110761.96858429535, 56999.049425011806, -110548.62118346944, 0.016, 0.9580000000000001, -0.052000000000000005, 192.0, 0.0, 0.0, 0.0, 0.0, 0.0, 0.0, 0.0, 0.0, 0.0, 1.6664045405535226E9, 0.0, 2022-10-21 19:09:00.553
139.0, -131036.05133724825, -157634.53783208583, -33334.251741677734, -140651.28006354332, 68874.91123377219, -110748.31166843316, 57011.72286411797, -110550.25286081468, 0.016, 0.9580000000000001, -0.052000000000000005, 192.0, 0.0, 0.0, 0.0, 0.0, 0.0, 0.0, 0.0, 0.0, 0.0, 1.666404540553538E9, 0.0, 2022-10-21 19:09:00.553
140.0, -131037.25833144884, -157633.710817541, -33334.13998295546, -140659.28198805833, 68877.68285008465, -110753.51962489124, 57003.11744250268, -110557.2489568292, 0.016, 0.9580000000000001, -0.052000000000000005, 192.0, 0.0, 0.0, 0.0, 0.0, 0.0, 0.0, 0.0, 0.0, 0.0, 1.6664045405535543E9, 0.0, 2022-10-21 19:09:00.553
141.0, -131037.34773842666, -157634.1578524301, -33332.53065735468, -140656.93505489052, 68881.52735013096, -110765.88013957503, 56994.04263425382, -110552.66684921585, 0.016, 0.9580000000000001, -0.052000000000000005, 192.0, 0.0, 0.0, 0.0, 0.0, 0.0, 0.0, 0.0, 0.0, 0.0, 1.6664045405535698E9, 0.0, 2022-10-21 19:09:00.553
142.0, -131035.80546805925, -157631.14036692862, -33324.57343632858, -140647.92730187505, 68886.57884437786, -110758.43700867142, 57004.86087857019, -110535.70187517427, 0.016, 0.9580000000000001, -0.052000000000000005, 192.0, 0.0, 0.0, 0.0, 0.0, 0.0, 0.0, 0.0, 0.0, 0.0, 1.6664045405535853E9, 0.0, 2022-10-21 19:09:00.553
143.0, -131038.64413960506, -157630.4474628505, -33322.29355839414, -140639.97008084896, 68889.95395779061, -110748.22226145533, 57015.053274041806, -110543.05559910007, 0.014, 0.964, -0.054, 192.0, 0.0, 112.0, 30.0, 32.0, 254.0, 80.0, 0.0, 0.0, 0.0, 1.6664045405536003E9, 0.0, 2022-10-21 19:09:00.553
144.0, -131045.50612515285, -157635.0072187194, -33327.21094217431, -140646.20621755198, 68890.9597862911, -110743.48369163081, 57016.95317232051, -110545.67075320134, 0.014, 0.964, -0.054, 192.0, 0.0, 0.0, 0.0, 0.0, 0.0, 0.0, 0.0, 0.0, 0.0, 1.6664045405536172E9, 0.0, 2022-10-21 19:09:00.553
145.0, -131041.59456987317, -157629.82161400578, -33324.059346206115, -140649.62603445366, 68890.9597862911, -110760.64983137249, 57001.86574481318, -110537.6911804308, 0.014, 0.964, -0.054, 192.0, 0.0, 0.0, 0.0, 0.0, 0.0, 0.0, 0.0, 0.0, 0.0, 1.6664045405536325E9, 0.0, 2022-10-21 19:09:00.553
146.0, -131046.02021527532, -157637.3541518872, -33330.22842767578, -140650.18482806502, 68883.85193155431, -110766.34952620859, 56994.66848309857, -110543.43557875582, 0.014, 0.964, -0.054, 192.0, 0.0, 0.0, 0.0, 0.0, 0.0, 0.0, 0.0, 0.0, 0.0, 1.666404540553648E9, 0.0, 2022-10-21 19:09:00.553
147.0, -131045.95316004196, -157638.49409085442, -33329.64728231994, -140645.02157509586, 68880.72268733058, -110753.58668012462, 57004.68206461454, -110547.92827939133, 0.014, 0.964, -0.054, 192.0, 0.0, 0.0, 0.0, 0.0, 0.0, 0.0, 0.0, 0.0, 0.0, 1.6664045405536633E9, 0.0, 2022-10-21 19:09:00.553
148.0, -131047.20485773146, -157638.89642225462, -33326.115706696, -140643.9933948509, 68883.85193155431, -110740.91324101845, 57014.67329438607, -110549.20232882528, 0.014, 0.964, -0.054, 192.0, 0.0, 0.0, 0.0, 0.0, 0.0, 0.0, 0.0, 0.0, 0.0, 1.6664045405536945E9, 0.0, 2022-10-21 19:09:00.553
149.0, -131043.9862065299, -157633.3084861408, -33324.90871249542, -140653.47053449997, 68883.89663504323, -110750.68095334542, 57005.84435532622, -110546.43071251283, 0.014, 0.964, -0.054, 192.0, 0.0, 0.0, 0.0, 0.0, 0.0, 0.0, 0.0, 0.0, 0.0, 1.6664045405537095E9, 0.0, 2022-10-21 19:09:00.553
150.0, -131043.4274129185, -157632.2579541514, -33325.15458168442, -140643.72517391745, 68888.72461184557, -110756.44770341489, 57002.111614002184, -110543.27911654463, 0.014, 0.964, -0.054, 192.0, 0.0, 0.0, 0.0, 0.0, 0.0, 0.0, 0.0, 0.0, 0.0, 1.6664045405537245E9, 0.0, 2022-10-21 19:09:00.553
151.0, -131051.56344790023, -157639.79049203283, -33331.055442220626, -140638.941900604, 68882.66728909819, -110730.49732810228, 57017.914297332085, -110547.12361659094, 0.014, 0.964, -0.054, 192.0, 0.0, 0.0, 0.0, 0.0, 0.0, 0.0, 0.0, 0.0, 0.0, 1.6664045405537395E9, 0.0, 2022-10-21 19:09:00.553
152.0, -131051.49639266687, -157640.8633757667, -33331.23425617626, -140652.8893891441, 68872.74311456003, -110742.16493870795, 57011.4546431845, -110548.68823870282, 0.014, 0.964, -0.054, 192.0, 0.0, 0.0, 0.0, 0.0, 0.0, 0.0, 0.0, 0.0, 0.0, 1.6664045405537546E9, 0.0, 2022-10-21 19:09:00.553
153.0, -131046.51195365335, -157637.3094483983, -33328.14971544143, -140653.5375897333, 68880.8567977973, -110764.91901456345, 56995.92018078807, -110540.37338976543, 0.018000000000000002, 0.96, -0.054, 192.0, 0.0, 144.0, 30.0, 0.0, 254.0, 80.0, 0.0, 0.0, 0.0, 1.6664045405537696E9, 0.0, 2022-10-21 19:09:00.553
154.0, -131043.6285786186, -157635.14132918612, -33325.04282296215, -140648.21787455297, 68886.7129548446, -110760.5380726502, 57000.34582619022, -110532.17029955034, 0.018000000000000002, 0.96, -0.054, 192.0, 0.0, 0.0, 0.0, 0.0, 0.0, 0.0, 0.0, 0.0, 0.0, 1.6664045405537856E9, 0.0, 2022-10-21 19:09:00.553
155.0, -131048.74712809887, -157637.6670763096, -33334.58701784456, -140652.97879612193, 68874.754771561, -110757.69940110439, 57002.29042795783, -110540.12752057643, 0.018000000000000002, 0.96, -0.054, 192.0, 0.0, 0.0, 0.0, 0.0, 0.0, 0.0, 0.0, 0.0, 0.0, 1.6664045405538008E9, 0.0, 2022-10-21 19:09:00.553
156.0, -131048.38950018758, -157637.42120712058, -33339.95143651384, -140658.72319444697, 68871.24554768152, -110754.12312199154, 57006.04552102632, -110545.15666307887, 0.018000000000000002, 0.96, -0.054, 192.0, 0.0, 0.0, 0.0, 0.0, 0.0, 0.0, 0.0, 0.0, 0.0, 1.666404540553818E9, 0.0, 2022-10-21 19:09:00.553
157.0, -131043.51681989632, -157631.67680879557, -33336.352805656534, -140663.41706078258, 68872.51959711548, -110773.92676757895, 56991.67334934156, -110546.72128519074, 0.018000000000000002, 0.96, -0.054, 192.0, 0.0, 0.0, 0.0, 0.0, 0.0, 0.0, 0.0, 0.0, 0.0, 1.6664045405538328E9, 0.0, 2022-10-21 19:09:00.553
158.0, -131048.41185193205, -157635.99069547543, -33337.22452369029, -140663.21589508248, 68872.81016979339, -110778.75474438128, 56987.650035339604, -110552.33157304903, 0.018000000000000002, 0.96, -0.054, 192.0, 0.0, 0.0, 0.0, 0.0, 0.0, 0.0, 0.0, 0.0, 0.0, 1.666404540553848E9, 0.0, 2022-10-21 19:09:00.553
159.0, -131047.67424436501, -157638.22586992098, -33331.055442220626, -140650.11777283167, 68876.6546698397, -110751.37385742353, 57008.03482628284, -110553.65032597189, 0.018000000000000002, 0.96, -0.054, 192.0, 0.0, 0.0, 0.0, 0.0, 0.0, 0.0, 0.0, 0.0, 0.0, 1.6664045405538628E9, 0.0, 2022-10-21 19:09:00.553
160.0, -131044.36618618562, -157636.460082109, -33331.07779396508, -140648.32963327525, 68876.8558355398, -110737.89575551699, 57017.06493104278, -110556.13136960643, 0.018000000000000002, 0.96, -0.054, 192.0, 0.0, 0.0, 0.0, 0.0, 0.0, 0.0, 0.0, 0.0, 0.0, 1.666404540553879E9, 0.0, 2022-10-21 19:09:00.553
161.0, -131037.0795174932, -157628.0111227049, -33326.719203796296, -140652.1070780882, 68880.4097629082, -110752.46909290184, 57005.57613439276, -110551.54926199309, 0.018000000000000002, 0.96, -0.054, 192.0, 0.0, 0.0, 0.0, 0.0, 0.0, 0.0, 0.0, 0.0, 0.0, 1.666404540553894E9, 0.0, 2022-10-21 19:09:00.553
162.0, -131039.426450661, -157628.6146198052, -33325.73572704026, -140649.76014492038, 68882.5555303759, -110765.90249131949, 56994.780241820845, -110550.40932302587, 0.018000000000000002, 0.96, -0.054, 192.0, 0.0, 0.0, 0.0, 0.0, 0.0, 0.0, 0.0, 0.0, 0.0, 1.6664045405539093E9, 0.0, 2022-10-21 19:09:00.553
163.0, -131049.55179089926, -157639.09758795472, -33332.508305610216, -140650.7883251653, 68873.86070178279, -110744.15424396447, 57007.923067560565, -110549.87288115894, 0.022, 0.96, -0.05, 192.0, 0.0, 176.0, 30.0, 0.0, 254.0, 112.0, 0.0, 0.0, 0.0, 1.666404540553938E9, 0.0, 2022-10-21 19:09:00.553
164.0, -131052.83749733419, -157641.69039031153, -33334.743480055746, -140650.4977524874, 68870.08325696984, -110735.79469153819, 57016.77435836487, -110543.27911654463, 0.022, 0.96, -0.05, 192.0, 0.0, 0.0, 0.0, 0.0, 0.0, 0.0, 0.0, 0.0, 0.0, 1.6664045405539544E9, 0.0, 2022-10-21 19:09:00.553
165.0, -131050.69172986648, -157639.9022507551, -33331.61423583201, -140655.57159847877, 68873.45837038259, -110737.44872062787, 57016.48378568695, -110540.95453512127, 0.022, 0.96, -0.05, 192.0, 0.0, 0.0, 0.0, 0.0, 0.0, 0.0, 0.0, 0.0, 0.0, 1.6664045405539703E9, 0.0, 2022-10-21 19:09:00.553
166.0, -131045.79669783077, -157632.12384368468, -33330.09431720905, -140666.47924977294, 68874.53125411645, -110765.23193898583, 56996.34486393272, -110549.42584626983, 0.022, 0.96, -0.05, 192.0, 0.0, 0.0, 0.0, 0.0, 0.0, 0.0, 0.0, 0.0, 0.0, 1.666404540553985E9, 0.0, 2022-10-21 19:09:00.553
167.0, -131052.36811070063, -157638.24822166542, -33335.302273667134, -140657.82912466873, 68870.93262325914, -110761.5886046396, 56999.407052923096, -110554.49969226119, 0.022, 0.96, -0.05, 192.0, 0.0, 0.0, 0.0, 0.0, 0.0, 0.0, 0.0, 0.0, 0.0, 1.6664045405540004E9, 0.0, 2022-10-21 19:09:00.554
168.0, -131051.16111650004, -157637.6670763096, -33332.82123003259, -140657.11386884618, 68864.56237608938, -110749.89864228948, 57009.398282694616, -110553.27034631615, 0.022, 0.96, -0.05, 192.0, 0.0, 0.0, 0.0, 0.0, 0.0, 0.0, 0.0, 0.0, 0.0, 1.6664045405540152E9, 0.0, 2022-10-21 19:09:00.554
169.0, -131047.04839552027, -157632.36971287368, -33326.67450030738, -140656.8903514016, 68872.56430060438, -110759.8451685721, 57006.85018382671, -110543.25676480017, 0.022, 0.96, -0.05, 192.0, 0.0, 0.0, 0.0, 0.0, 0.0, 0.0, 0.0, 0.0, 0.0, 1.6664045405540302E9, 0.0, 2022-10-21 19:09:00.554
170.0, -131044.74616584137, -157629.37457911667, -33326.54038984065, -140658.9914153804, 68876.07352448387, -110763.8908343185, 57002.3574831912, -110537.80293915307, 0.022, 0.96, -0.05, 192.0, 0.0, 0.0, 0.0, 0.0, 0.0, 0.0, 0.0, 0.0, 0.0, 1.6664045405540454E9, 0.0, 2022-10-21 19:09:00.554
171.0, -131044.41088967455, -157629.62044830568, -33330.67546256488, -140658.5443804913, 68874.21832969408, -110769.12114252105, 56996.9036575441, -110536.68535193031, 0.022, 0.96, -0.05, 192.0, 0.0, 0.0, 0.0, 0.0, 0.0, 0.0, 0.0, 0.0, 0.0, 1.6664045405540605E9, 0.0, 2022-10-21 19:09:00.554
172.0, -131054.06684327923, -157639.63402982164, -33337.626855090486, -140652.42000251057, 68870.79851279242, -110753.09494174659, 57007.09605301572, -110545.11195958997, 0.022, 0.96, -0.05, 192.0, 0.0, 0.0, 0.0, 0.0, 0.0, 0.0, 0.0, 0.0, 0.0, 1.6664045405540771E9, 0.0, 2022-10-21 19:09:00.554
173.0, -131054.33506421269, -157640.55045134432, -33336.03988123416, -140657.38208977962, 68869.01037323599, -110741.98612475231, 57013.443948441025, -110544.84373865649, 0.026000000000000002, 0.9540000000000001, -0.056, 192.0, 0.0, 208.0, 29.0, 208.0, 254.0, 64.0, 0.0, 0.0, 0.0, 1.6664045405540924E9, 0.0, 2022-10-21 19:09:00.554
174.0, -131044.61205537464, -157631.02860820637, -33327.8144392746, -140662.79121193782, 68873.68188782714, -110762.14739825099, 56999.96584653448, -110535.83598564101, 0.026000000000000002, 0.9540000000000001, -0.056, 192.0, 0.0, 0.0, 0.0, 0.0, 0.0, 0.0, 0.0, 0.0, 0.0, 1.6664045405541084E9, 0.0, 2022-10-21 19:09:00.554
175.0, -131046.40019493106, -157632.14619542912, -33328.954378241826, -140651.97296762146, 68874.37479190527, -110762.25915697328, 56997.23893371093, -110545.22371831223, 0.026000000000000002, 0.9540000000000001, -0.056, 192.0, 0.0, 0.0, 0.0, 0.0, 0.0, 0.0, 0.0, 0.0, 0.0, 1.666404540554124E9, 0.0, 2022-10-21 19:09:00.554
176.0, -131050.75878509985, -157639.1199396992, -33331.77069804319, -140657.27033105737, 68867.24458542402, -110747.81993005514, 57003.83269832524, -110556.08666611751, 0.026000000000000002, 0.9540000000000001, -0.056, 192.0, 0.0, 0.0, 0.0, 0.0, 0.0, 0.0, 0.0, 0.0, 0.0, 1.6664045405541391E9, 0.0, 2022-10-21 19:09:00.554
177.0, -131053.21747698993, -157642.8526810232, -33331.61423583201, -140662.70180496, 68865.74701854552, -110743.17076720843, 57007.99012279393, -110557.80775044058, 0.026000000000000002, 0.9540000000000001, -0.056, 192.0, 0.0, 0.0, 0.0, 0.0, 0.0, 0.0, 0.0, 0.0, 0.0, 1.6664045405541558E9, 0.0, 2022-10-21 19:09:00.554
178.0, -131058.26897123683, -157647.6583060811, -33339.83967779156, -140672.73773822043, 68857.29805914141, -110754.61486036955, 56995.674311599054, -110568.29071859011, 0.026000000000000002, 0.9540000000000001, -0.056, 192.0, 0.0, 0.0, 0.0, 0.0, 0.0, 0.0, 0.0, 0.0, 0.0, 1.6664045405541852E9, 0.0, 2022-10-21 19:09:00.554
179.0, -131054.84915433517, -157643.47852986795, -33339.616160347, -140671.24017134192, 68856.58280331884, -110781.25813976028, 56977.167067190065, -110567.30724183407, 0.026000000000000002, 0.9540000000000001, -0.056, 192.0, 0.0, 0.0, 0.0, 0.0, 0.0, 0.0, 0.0, 0.0, 0.0, 1.6664045405542E9, 0.0, 2022-10-21 19:09:00.554
180.0, -131051.1834682445, -157641.4221693781, -33336.352805656534, -140655.61630196768, 68865.27763191196, -110770.61870939955, 56988.09707022871, -110557.51717776265, 0.026000000000000002, 0.9540000000000001, -0.056, 192.0, 0.0, 0.0, 0.0, 0.0, 0.0, 0.0, 0.0, 0.0, 0.0, 1.6664045405542152E9, 0.0, 2022-10-21 19:09:00.554
181.0, -131054.55858165726, -157644.5737653463, -33335.48108762277, -140650.9447873765, 68871.04438198142, -110742.1872904524, 57007.632494882644, -110552.08570386002, 0.026000000000000002, 0.9540000000000001, -0.056, 192.0, 0.0, 0.0, 0.0, 0.0, 0.0, 0.0, 0.0, 0.0, 0.0, 1.6664045405542305E9, 0.0, 2022-10-21 19:09:00.554
182.0, -131053.21747698993, -157644.3725996462, -33335.92812251188, -140660.28781655882, 68869.59151859183, -110750.56919462314, 56996.23310521044, -110553.4938637607, 0.022, 0.9560000000000001, -0.054, 192.0, 0.0, 176.0, 29.0, 224.0, 254.0, 80.0, 0.0, 0.0, 0.0, 1.6664045405542452E9, 0.0, 2022-10-21 19:09:00.554
183.0, -131052.0328345338, -157645.0208002354, -33334.89994226694, -140666.38984279512, 68869.61387033628, -110761.25332847278, 56987.38181440614, -110554.45498877228, 0.022, 0.9560000000000001, -0.054, 192.0, 0.0, 0.0, 0.0, 0.0, 0.0, 0.0, 0.0, 0.0, 0.0, 1.6664045405542612E9, 0.0, 2022-10-21 19:09:00.554
184.0, -131049.88706706608, -157643.29971591232, -33333.000043988235, -140653.2917205443, 68872.38548664874, -110748.6916480889, 56999.56351513428, -110547.52594799113, 0.022, 0.9560000000000001, -0.054, 192.0, 0.0, 0.0, 0.0, 0.0, 0.0, 0.0, 0.0, 0.0, 0.0, 1.6664045405542762E9, 0.0, 2022-10-21 19:09:00.554
185.0, -131048.54596239877, -157642.3609426452, -33334.13998295546, -140645.51331347387, 68871.26789942598, -110732.41957812544, 57012.683989129546, -110548.84470091399, 0.022, 0.9560000000000001, -0.054, 192.0, 0.0, 0.0, 0.0, 0.0, 0.0, 0.0, 0.0, 0.0, 0.0, 1.6664045405542912E9, 0.0, 2022-10-21 19:09:00.554
186.0, -131049.30592171026, -157642.0033147339, -33335.726956811784, -140663.1488398491, 68862.79658827742, -110749.51866263374, 56999.6529221121, -110547.21302356877, 0.022, 0.9560000000000001, -0.054, 192.0, 0.0, 0.0, 0.0, 0.0, 0.0, 0.0, 0.0, 0.0, 0.0, 1.6664045405543058E9, 0.0, 2022-10-21 19:09:00.554
187.0, -131049.64119787708, -157642.3162391563, -33331.70364280983, -140668.28974107382, 68864.18239643365, -110769.7469913658, 56985.86189578318, -110549.22468056974, 0.022, 0.9560000000000001, -0.054, 192.0, 0.0, 0.0, 0.0, 0.0, 0.0, 0.0, 0.0, 0.0, 0.0, 1.6664045405543208E9, 0.0, 2022-10-21 19:09:00.554
188.0, -131051.58579964469, -157644.3055444128, -33333.80470678863, -140656.1080403457, 68865.52350110096, -110760.0910377611, 56991.785108063836, -110551.75042769319, 0.022, 0.9560000000000001, -0.054, 192.0, 0.0, 0.0, 0.0, 0.0, 0.0, 0.0, 0.0, 0.0, 0.0, 1.6664045405543356E9, 0.0, 2022-10-21 19:09:00.554
189.0, -131049.57414264372, -157642.7185705565, -33327.5685700856, -140646.67560418556, 68869.99384999202, -110749.85393880057, 57006.738425104435, -110544.66492470086, 0.022, 0.9560000000000001, -0.054, 192.0, 0.0, 0.0, 0.0, 0.0, 0.0, 0.0, 0.0, 0.0, 0.0, 1.6664045405543504E9, 0.0, 2022-10-21 19:09:00.554
190.0, -131050.15528799956, -157643.03149497884, -33326.69685205184, -140653.5375897333, 68870.82086453687, -110748.19990971088, 57005.73259660394, -110547.61535496896, 0.022, 0.9560000000000001, -0.054, 192.0, 0.0, 0.0, 0.0, 0.0, 0.0, 0.0, 0.0, 0.0, 0.0, 1.6664045405543652E9, 0.0, 2022-10-21 19:09:00.554
191.0, -131052.72573861192, -157645.62429733566, -33328.529695097175, -140665.38401429463, 68869.83738778083, -110763.8908343185, 56989.21465745147, -110550.20815732577, 0.022, 0.9560000000000001, -0.054, 192.0, 0.0, 0.0, 0.0, 0.0, 0.0, 0.0, 0.0, 0.0, 0.0, 1.6664045405543804E9, 0.0, 2022-10-21 19:09:00.554
192.0, -131044.58970363018, -157637.77883503184, -33321.041860704645, -140655.3033775453, 68875.24650993902, -110750.77036032324, 57002.960980291486, -110535.81363389656, 0.004, 0.9560000000000001, -0.052000000000000005, 192.0, 0.0, 32.0, 29.0, 224.0, 254.0, 96.0, 0.0, 0.0, 0.0, 1.6664045405543952E9, 0.0, 2022-10-21 19:09:00.554
193.0, -131035.55959887024, -157628.6146198052, -33310.7153547663, -140644.17220880656, 68878.01812625148, -110742.00847649676, 57019.05423629931, -110529.42103498234, 0.004, 0.9560000000000001, -0.052000000000000005, 192.0, 0.0, 0.0, 0.0, 0.0, 0.0, 0.0, 0.0, 0.0, 0.0, 1.6664045405544243E9, 0.0, 2022-10-21 19:09:00.554
194.0, -131033.63734884709, -157625.66418953708, -33304.0098314297, -140638.20429303698, 68887.13763798925, -110740.17563345142, 57025.7597596359, -110526.58236343651, 0.004, 0.9560000000000001, -0.052000000000000005, 192.0, 0.0, 0.0, 0.0, 0.0, 0.0, 0.0, 0.0, 0.0, 0.0, 1.6664045405544398E9, 0.0, 2022-10-21 19:09:00.554
195.0, -131048.30009320976, -157639.8128437773, -33321.08656419356, -140665.51812476138, 68871.22319593707, -110750.18921496741, 57007.74425360492, -110545.69310494579, 0.004, 0.9560000000000001, -0.052000000000000005, 192.0, 0.0, 0.0, 0.0, 0.0, 0.0, 0.0, 0.0, 0.0, 0.0, 1.6664045405544553E9, 0.0, 2022-10-21 19:09:00.554
196.0, -131050.51291591083, -157638.94112574353, -33324.059346206115, -140663.88644741612, 68867.04341972392, -110751.50796789027, 57005.41967218157, -110552.30922130457, 0.004, 0.9560000000000001, -0.052000000000000005, 192.0, 0.0, 0.0, 0.0, 0.0, 0.0, 0.0, 0.0, 0.0, 0.0, 1.6664045405544708E9, 0.0, 2022-10-21 19:09:00.554
197.0, -131049.30592171026, -157638.963477488, -33320.79599151564, -140651.1906565655, 68869.61387033628, -110742.88019453052, 57016.19321300903, -110546.11778809044, 0.004, 0.9560000000000001, -0.052000000000000005, 192.0, 0.0, 0.0, 0.0, 0.0, 0.0, 0.0, 0.0, 0.0, 0.0, 1.666404540554486E9, 0.0, 2022-10-21 19:09:00.554
198.0, -131043.74033734087, -157634.69429429702, -33312.95052921183, -140645.2897960293, 68879.76156231899, -110743.32722941962, 57019.79184386633, -110536.8418141415, 0.004, 0.9560000000000001, -0.052000000000000005, 192.0, 0.0, 0.0, 0.0, 0.0, 0.0, 0.0, 0.0, 0.0, 0.0, 1.6664045405545025E9, 0.0, 2022-10-21 19:09:00.554
199.0, -131044.27677920781, -157634.42607336357, -33315.34216586854, -140658.0973456022, 68877.52638787345, -110768.91997682095, 57001.39635817961, -110542.42975025532, 0.004, 0.9560000000000001, -0.052000000000000005, 192.0, 0.0, 0.0, 0.0, 0.0, 0.0, 0.0, 0.0, 0.0, 0.0, 1.6664045405545175E9, 0.0, 2022-10-21 19:09:00.554
200.0, -131048.09892750967, -157638.87407051018, -33320.773639771185, -140658.4996770024, 68877.52638787345, -110773.5020844343, 56993.90852378709, -110546.83304391302, 0.004, 0.9560000000000001, -0.052000000000000005, 192.0, 0.0, 0.0, 0.0, 0.0, 0.0, 0.0, 0.0, 0.0, 0.0, 1.6664045405545328E9, 0.0, 2022-10-21 19:09:00.554
201.0, -131052.56927640073, -157644.0149717349, -33322.584131072064, -140648.4413919975, 68875.51473087248, -110757.52058714874, 57009.04065478333, -110545.44723575679, 0.004, 0.9560000000000001, -0.052000000000000005, 192.0, 0.0, 0.0, 0.0, 0.0, 0.0, 0.0, 0.0, 0.0, 0.0, 1.6664045405545483E9, 0.0, 2022-10-21 19:09:00.554
202.0, -131060.4817939379, -157650.63108809365, -33330.9660352428, -140658.9914153804, 68865.59055633433, -110755.30776444767, 57012.21460249599, -110549.6940672033, 0.008, 0.9540000000000001, -0.046, 192.0, 0.0, 64.0, 29.0, 208.0, 254.0, 144.0, 0.0, 0.0, 0.0, 1.6664045405545635E9, 0.0, 2022-10-21 19:09:00.554
203.0, -131054.02213979032, -157644.43965487953, -33322.9641107278, -140654.2528455559, 68876.60996635079, -110769.90345357699, 57003.34095994723, -110536.21596529675, 0.008, 0.9540000000000001, -0.046, 192.0, 0.0, 0.0, 0.0, 0.0, 0.0, 0.0, 0.0, 0.0, 0.0, 1.6664045405545795E9, 0.0, 2022-10-21 19:09:00.554
204.0, -131046.37784318661, -157635.8565850087, -33312.4140873449, -140635.946766847, 68889.7080886016, -110759.97927903883, 57010.76173910639, -110526.89528785889, 0.008, 0.9540000000000001, -0.046, 192.0, 0.0, 0.0, 0.0, 0.0, 0.0, 0.0, 0.0, 0.0, 0.0, 1.6664045405545948E9, 0.0, 2022-10-21 19:09:00.554
205.0, -131046.95898854245, -157637.28709665383, -33316.996194958236, -140641.06531632727, 68880.49916988602, -110756.82768307063, 57015.455605442, -110533.26553502865, 0.008, 0.9540000000000001, -0.046, 192.0, 0.0, 0.0, 0.0, 0.0, 0.0, 0.0, 0.0, 0.0, 0.0, 1.6664045405546105E9, 0.0, 2022-10-21 19:09:00.554
206.0, -131057.59841890317, -157647.6583060811, -33324.55108458413, -140654.945749634, 68875.13475121674, -110746.38941841, 57023.032846812355, -110534.76310190716, 0.008, 0.9540000000000001, -0.046, 192.0, 0.0, 0.0, 0.0, 0.0, 0.0, 0.0, 0.0, 0.0, 0.0, 1.6664045405546255E9, 0.0, 2022-10-21 19:09:00.554
207.0, -131056.07850028021, -157645.04315197983, -33319.32077638159, -140657.87382815767, 68881.23677745304, -110756.2912412037, 57015.254439741904, -110531.96913385025, 0.008, 0.9540000000000001, -0.046, 192.0, 0.0, 0.0, 0.0, 0.0, 0.0, 0.0, 0.0, 0.0, 0.0, 1.6664045405546405E9, 0.0, 2022-10-21 19:09:00.554
208.0, -131059.14068927059, -157644.39495139063, -33323.65701480592, -140657.18092407953, 68882.84610305383, -110764.51668316325, 57004.41384368108, -110542.47445374423, 0.008, 0.9540000000000001, -0.046, 192.0, 0.0, 0.0, 0.0, 0.0, 0.0, 0.0, 0.0, 0.0, 0.0, 1.6664045405546691E9, 0.0, 2022-10-21 19:09:00.554
209.0, -131061.86760209413, -157649.96053576, -33323.67936655037, -140662.2547700709, 68872.09491397082, -110777.01130831377, 56995.02611100985, -110554.18676783882, 0.008, 0.9540000000000001, -0.046, 192.0, 0.0, 0.0, 0.0, 0.0, 0.0, 0.0, 0.0, 0.0, 0.0, 1.666404540554684E9, 0.0, 2022-10-21 19:09:00.554
210.0, -131052.61397988963, -157643.0091432344, -33313.19639840083, -140650.3859937651, 68881.01326000849, -110760.58277613913, 57015.07562578627, -110542.27328804413, 0.008, 0.9540000000000001, -0.046, 192.0, 0.0, 0.0, 0.0, 0.0, 0.0, 0.0, 0.0, 0.0, 0.0, 1.6664045405546992E9, 0.0, 2022-10-21 19:09:00.554
211.0, -131055.36324445764, -157644.32789615725, -33314.98453795726, -140655.7951159233, 68879.82861755235, -110765.03077328573, 57011.99108505143, -110545.17901482333, 0.016, 0.964, -0.048, 192.0, 0.0, 128.0, 30.0, 32.0, 254.0, 128.0, 0.0, 0.0, 0.0, 1.6664045405547142E9, 0.0, 2022-10-21 19:09:00.554
212.0, -131056.95021831397, -157649.69231482653, -33317.04089844714, -140658.67849095803, 68877.03464949544, -110794.71388992238, 56987.80649755079, -110545.82721541253, 0.016, 0.964, -0.048, 192.0, 0.0, 0.0, 0.0, 0.0, 0.0, 0.0, 0.0, 0.0, 0.0, 1.6664045405547304E9, 0.0, 2022-10-21 19:09:00.554
213.0, -131058.49248868138, -157649.82642529326, -33319.1643141704, -140645.98270010742, 68882.17555072016, -110776.40781121347, 56999.742329089924, -110542.58621246651, 0.016, 0.964, -0.048, 192.0, 0.0, 0.0, 0.0, 0.0, 0.0, 0.0, 0.0, 0.0, 0.0, 1.6664045405547454E9, 0.0, 2022-10-21 19:09:00.554
214.0, -131053.06101477874, -157642.38329438964, -33315.655090290915, -140640.70768841598, 68882.24260595354, -110749.07162774463, 57023.09990204572, -110540.26163104316, 0.016, 0.964, -0.048, 192.0, 0.0, 0.0, 0.0, 0.0, 0.0, 0.0, 0.0, 0.0, 0.0, 1.66640454055476E9, 0.0, 2022-10-21 19:09:00.554
215.0, -131053.44099443448, -157642.9644397455, -33316.10212518003, -140644.2839675288, 68884.94716703263, -110759.53224414973, 57018.1601665211, -110538.33938102, 0.016, 0.964, -0.048, 192.0, 0.0, 0.0, 0.0, 0.0, 0.0, 0.0, 0.0, 0.0, 0.0, 1.666404540554773E9, 0.0, 2022-10-21 19:09:00.554
216.0, -131046.80252633126, -157632.52617508487, -33308.0107936872, -140640.66298492707, 68892.52440840297, -110777.72656413635, 57005.66554137058, -110521.97790407873, 0.016, 0.964, -0.048, 192.0, 0.0, 0.0, 0.0, 0.0, 0.0, 0.0, 0.0, 0.0, 0.0, 1.6664045405547872E9, 0.0, 2022-10-21 19:09:00.554
217.0, -131047.16015424255, -157634.1578524301, -33309.843636732534, -140641.02061283836, 68890.62451012427, -110777.45834320287, 57008.481861171946, -110514.62418015292, 0.016, 0.964, -0.048, 192.0, 0.0, 0.0, 0.0, 0.0, 0.0, 0.0, 0.0, 0.0, 0.0, 1.6664045405548005E9, 0.0, 2022-10-21 19:09:00.554
218.0, -131064.6839218955, -157654.00620150642, -33328.619102075, -140647.77083966386, 68874.01716399398, -110750.77036032324, 57021.53527993385, -110538.45113974228, 0.016, 0.964, -0.048, 192.0, 0.0, 0.0, 0.0, 0.0, 0.0, 0.0, 0.0, 0.0, 0.0, 1.6664045405548136E9, 0.0, 2022-10-21 19:09:00.554
219.0, -131058.67130263703, -157649.6699630821, -33325.33339564007, -140655.3033775453, 68870.28442266994, -110764.0472965297, 57016.48378568695, -110543.94966887828, 0.016, 0.964, -0.048, 192.0, 0.0, 0.0, 0.0, 0.0, 0.0, 0.0, 0.0, 0.0, 0.0, 1.666404540554827E9, 0.0, 2022-10-21 19:09:00.554
220.0, -131048.85888682115, -157641.19865193352, -33314.24693039023, -140647.7037844305, 68880.83444605285, -110777.72656413635, 57015.79088160883, -110538.40643625337, 0.016, 0.964, -0.048, 192.0, 0.0, 0.0, 0.0, 0.0, 0.0, 0.0, 0.0, 0.0, 0.0, 1.666404540554842E9, 0.0, 2022-10-21 19:09:00.554
221.0, -131048.54596239877, -157643.03149497884, -33313.10699142301, -140649.13429607562, 68880.14154197474, -110796.3008637787, 57003.47507041396, -110537.4900147307, 0.014, 0.9560000000000001, -0.05, 192.0, 0.0, 112.0, 29.0, 224.0, 254.0, 112.0, 0.0, 0.0, 0.0, 1.6664045405548549E9, 0.0, 2022-10-21 19:09:00.554
222.0, -131054.73739561289, -157649.80407354882, -33317.51028508071, -140641.2888337718, 68876.6546698397, -110779.33588973712, 57015.612067653194, -110536.61829669695, 0.014, 0.9560000000000001, -0.05, 192.0, 0.0, 0.0, 0.0, 0.0, 0.0, 0.0, 0.0, 0.0, 0.0, 1.6664045405548687E9, 0.0, 2022-10-21 19:09:00.554
223.0, -131061.19704976048, -157652.95566951702, -33324.17110492839, -140646.51914197436, 68868.36217264678, -110773.47973268983, 57019.76949212188, -110545.58134622352, 0.014, 0.9560000000000001, -0.05, 192.0, 0.0, 0.0, 0.0, 0.0, 0.0, 0.0, 0.0, 0.0, 0.0, 1.6664045405548942E9, 0.0, 2022-10-21 19:09:00.554
224.0, -131064.59451491768, -157653.5591666173, -33323.74642178374, -140652.06237459928, 68875.91706227268, -110762.34856395109, 57023.05519855681, -110542.58621246651, 0.014, 0.9560000000000001, -0.05, 192.0, 0.0, 0.0, 0.0, 0.0, 0.0, 0.0, 0.0, 0.0, 0.0, 1.666404540554908E9, 0.0, 2022-10-21 19:09:00.554
225.0, -131064.21453526194, -157653.24624219493, -33323.634663061464, -140650.60951120968, 68875.76060006149, -110769.1434942655, 57014.51683217488, -110539.83694789851, 0.014, 0.9560000000000001, -0.05, 192.0, 0.0, 0.0, 0.0, 0.0, 0.0, 0.0, 0.0, 0.0, 0.0, 1.6664045405549228E9, 0.0, 2022-10-21 19:09:00.554
226.0, -131061.37586371612, -157652.03924799434, -33318.13613392546, -140639.2995285153, 68877.1017047288, -110766.6400988865, 57020.88707934464, -110528.8398896265, 0.014, 0.9560000000000001, -0.05, 192.0, 0.0, 0.0, 0.0, 0.0, 0.0, 0.0, 0.0, 0.0, 0.0, 1.6664045405549362E9, 0.0, 2022-10-21 19:09:00.554
227.0, -131057.10668052516, -157648.2170996925, -33312.861122234004, -140635.5891389357, 68880.32035593038, -110752.26792720174, 57036.15332080762, -110525.4871279582, 0.014, 0.9560000000000001, -0.05, 192.0, 0.0, 0.0, 0.0, 0.0, 0.0, 0.0, 0.0, 0.0, 0.0, 1.6664045405549495E9, 0.0, 2022-10-21 19:09:00.554
228.0, -131057.64312239208, -157646.42896013605, -33313.68813677885, -140642.7416971614, 68880.253300697, -110763.30968896268, 57027.95023059252, -110525.06244481355, 0.014, 0.9560000000000001, -0.05, 192.0, 0.0, 0.0, 0.0, 0.0, 0.0, 0.0, 0.0, 0.0, 0.0, 1.666404540554963E9, 0.0, 2022-10-21 19:09:00.554
229.0, -131056.14555551358, -157646.63012583615, -33316.37034611349, -140644.57454020676, 68878.26399544049, -110768.0929622761, 57021.9599630785, -110525.39772098039, 0.014, 0.9560000000000001, -0.05, 192.0, 0.0, 0.0, 0.0, 0.0, 0.0, 0.0, 0.0, 0.0, 0.0, 1.6664045405549765E9, 0.0, 2022-10-21 19:09:00.554
230.0, -131054.93856131299, -157645.3560764022, -33320.483067093264, -140645.6474239406, 68870.1056087143, -110762.41561918445, 57024.37395147967, -110527.05175007007, 0.014, 0.9560000000000001, -0.05, 192.0, 0.0, 0.0, 0.0, 0.0, 0.0, 0.0, 0.0, 0.0, 0.0, 1.66640454055499E9, 0.0, 2022-10-21 19:09:00.554
231.0, -131060.07946253772, -157651.1675299606, -33321.89122699395, -140644.82040939576, 68868.18335869114, -110747.05997074366, 57033.69462891753, -110535.94774436328, 0.008, 0.966, -0.048, 192.0, 0.0, 64.0, 30.0, 48.0, 254.0, 128.0, 0.0, 0.0, 0.0, 1.666404540555004E9, 0.0, 2022-10-21 19:09:00.555
232.0, -131051.54109615578, -157643.99261999043, -33311.07298267758, -140645.9379966185, 68877.03464949544, -110745.47299688733, 57033.38170449516, -110531.92443036132, 0.008, 0.966, -0.048, 192.0, 0.0, 0.0, 0.0, 0.0, 0.0, 0.0, 0.0, 0.0, 0.0, 1.666404540555018E9, 0.0, 2022-10-21 19:09:00.555
233.0, -131046.0872705087, -157635.54366058632, -33305.75326749722, -140637.26551976986, 68883.96369027659, -110751.59737486808, 57026.40796022511, -110529.0857588155, 0.008, 0.966, -0.048, 192.0, 0.0, 0.0, 0.0, 0.0, 0.0, 0.0, 0.0, 0.0, 0.0, 1.6664045405550315E9, 0.0, 2022-10-21 19:09:00.555
234.0, -131049.52943915481, -157641.0198379779, -33306.24500587523, -140635.63384242464, 68876.81113205089, -110756.4924069038, 57025.73740789144, -110534.89721237388, 0.008, 0.966, -0.048, 192.0, 0.0, 0.0, 0.0, 0.0, 0.0, 0.0, 0.0, 0.0, 0.0, 1.6664045405550451E9, 0.0, 2022-10-21 19:09:00.555
235.0, -131047.7860030873, -157642.0703699673, -33303.76396224069, -140635.52208370235, 68875.96176576159, -110745.02596199822, 57039.84135864274, -110529.6445524269, 0.008, 0.966, -0.048, 192.0, 0.0, 0.0, 0.0, 0.0, 0.0, 0.0, 0.0, 0.0, 0.0, 1.666404540555059E9, 0.0, 2022-10-21 19:09:00.555
236.0, -131044.27677920781, -157637.82353852078, -33298.041915660135, -140637.55609244778, 68879.33687917434, -110744.62363059803, 57041.830663899265, -110526.22473552523, 0.008, 0.966, -0.048, 192.0, 0.0, 0.0, 0.0, 0.0, 0.0, 0.0, 0.0, 0.0, 0.0, 1.666404540555074E9, 0.0, 2022-10-21 19:09:00.555
237.0, -131047.00369203136, -157642.3609426452, -33299.40537207191, -140640.55122620479, 68881.72851583106, -110761.3427354506, 57028.03963757034, -110523.5872296795, 0.008, 0.966, -0.048, 192.0, 0.0, 0.0, 0.0, 0.0, 0.0, 0.0, 0.0, 0.0, 0.0, 1.666404540555087E9, 0.0, 2022-10-21 19:09:00.555
238.0, -131047.69659610947, -157644.88668976864, -33302.087581406544, -140636.55026394728, 68879.22512045207, -110758.01232552675, 57030.654791671615, -110524.838927369, 0.008, 0.966, -0.048, 192.0, 0.0, 0.0, 0.0, 0.0, 0.0, 0.0, 0.0, 0.0, 0.0, 1.6664045405551128E9, 0.0, 2022-10-21 19:09:00.555
239.0, -131048.54596239877, -157649.13352121515, -33309.53071231017, -140637.17611279205, 68867.89278601322, -110754.391342925, 57033.515814961895, -110534.27136352914, 0.008, 0.966, -0.048, 192.0, 0.0, 0.0, 0.0, 0.0, 0.0, 0.0, 0.0, 0.0, 0.0, 1.6664045405551264E9, 0.0, 2022-10-21 19:09:00.555
240.0, -131042.17571522901, -157645.89251826913, -33304.45686631881, -140635.45502846898, 68878.5098646295, -110751.23974695681, 57038.8131783978, -110527.07410181453, 0.008, 0.97, -0.052000000000000005, 192.0, 0.0, 64.0, 30.0, 80.0, 254.0, 96.0, 0.0, 0.0, 0.0, 1.6664045405551407E9, 0.0, 2022-10-21 19:09:00.555
241.0, -131043.22624721841, -157648.68648632604, -33311.1623896554, -140641.02061283836, 68883.8072280654, -110751.93265103492, 57034.499291717926, -110524.30248550206, 0.008, 0.97, -0.052000000000000005, 192.0, 0.0, 0.0, 0.0, 0.0, 0.0, 0.0, 0.0, 0.0, 0.0, 1.6664045410321872E9, 0.0, 2022-10-21 19:09:01.032
242.0, -131036.52072388181, -157642.58446008974, -33305.529750052665, -140631.9905080784, 68889.7080886016, -110755.62068887004, 57034.566346951295, -110512.18784000729, 0.008, 0.97, -0.052000000000000005, 192.0, 0.0, 0.0, 0.0, 0.0, 0.0, 0.0, 0.0, 0.0, 0.0, 1.6664045410322855E9, 0.0, 2022-10-21 19:09:01.032
243.0, -131040.6781483505, -157646.5630706028, -33307.94373845384, -140621.57459516224, 68890.73626884655, -110744.2883544312, 57045.49634998994, -110515.87587784242, 0.008, 0.97, -0.052000000000000005, 192.0, 0.0, 0.0, 0.0, 0.0, 0.0, 0.0, 0.0, 0.0, 0.0, 1.6664045410323188E9, 0.0, 2022-10-21 19:09:01.032
244.0, -131044.433241419, -157649.96053576, -33315.453924590816, -140635.67854591354, 68881.37088791978, -110729.11151994605, 57052.5147977489, -110529.42103498234, 0.008, 0.97, -0.052000000000000005, 192.0, 0.0, 0.0, 0.0, 0.0, 0.0, 0.0, 0.0, 0.0, 0.0, 1.6664045410323873E9, 0.0, 2022-10-21 19:09:01.032
245.0, -131040.20876171695, -157648.23945143694, -33311.5647210556, -140640.70768841598, 68880.4544663971, -110756.38064818153, 57030.05129457132, -110530.06923557154, 0.008, 0.97, -0.052000000000000005, 192.0, 0.0, 0.0, 0.0, 0.0, 0.0, 0.0, 0.0, 0.0, 0.0, 1.666404541032404E9, 0.0, 2022-10-21 19:09:01.032
246.0, -131037.63831110459, -157646.58542234724, -33310.290671621646, -140630.4929411999, 68888.05405951191, -110766.34952620859, 57024.79863462432, -110521.86614535644, 0.008, 0.97, -0.052000000000000005, 192.0, 0.0, 0.0, 0.0, 0.0, 0.0, 0.0, 0.0, 0.0, 0.0, 1.6664045410324202E9, 0.0, 2022-10-21 19:09:01.032
247.0, -131045.9308082975, -157655.07908524026, -33321.55595082712, -140631.58817667823, 68879.38158266325, -110759.75576159428, 57031.03477132735, -110528.86224137095, 0.008, 0.97, -0.052000000000000005, 192.0, 0.0, 0.0, 0.0, 0.0, 0.0, 0.0, 0.0, 0.0, 0.0, 1.6664045410324366E9, 0.0, 2022-10-21 19:09:01.032
248.0, -131048.4342036765, -157658.52125388637, -33324.90871249542, -140644.70865067348, 68872.34078315983, -110761.02981102823, 57030.38657073815, -110532.594982695, 0.008, 0.97, -0.052000000000000005, 192.0, 0.0, 0.0, 0.0, 0.0, 0.0, 0.0, 0.0, 0.0, 0.0, 1.6664045410324526E9, 0.0, 2022-10-21 19:09:01.032
249.0, -131040.4322791615, -157650.29581192683, -33320.39366011544, -140644.8874646291, 68883.8072280654, -110773.0997530341, 57021.490576444936, -110524.48129945771, 0.008, 0.97, -0.052000000000000005, 192.0, 0.0, 0.0, 0.0, 0.0, 0.0, 0.0, 0.0, 0.0, 0.0, 1.6664045410324693E9, 0.0, 2022-10-21 19:09:01.032
250.0, -131033.90556978055, -157644.64082057963, -33313.50932282321, -140638.76308664837, 68892.07737351386, -110776.4525147024, 57019.50127118841, -110512.79133710758, 0.008, 0.964, -0.054, 192.0, 0.0, 64.0, 30.0, 32.0, 254.0, 80.0, 0.0, 0.0, 0.0, 1.6664045410324852E9, 0.0, 2022-10-21 19:09:01.032
251.0, -131037.66066284904, -157649.78172180435, -33317.86791299199, -140633.26455751236, 68886.86941705579, -110764.20375874088, 57028.64313467064, -110520.86031685595, 0.008, 0.964, -0.054, 192.0, 0.0, 0.0, 0.0, 0.0, 0.0, 0.0, 0.0, 0.0, 0.0, 1.666404541032511E9, 0.0, 2022-10-21 19:09:01.032
252.0, -131043.04743326276, -157655.70493408502, -33325.57926482907, -140639.7912668933, 68879.76156231899, -110739.5944880956, 57046.68099244607, -110527.31997100354, 0.008, 0.964, -0.054, 192.0, 0.0, 0.0, 0.0, 0.0, 0.0, 0.0, 0.0, 0.0, 0.0, 1.666404541032526E9, 0.0, 2022-10-21 19:09:01.032
253.0, -131044.50029665236, -157656.28607944085, -33325.534561340166, -140653.62699671116, 68880.02978325245, -110760.87334881704, 57033.582870195256, -110521.86614535644, 0.008, 0.964, -0.054, 192.0, 0.0, 0.0, 0.0, 0.0, 0.0, 0.0, 0.0, 0.0, 0.0, 1.6664045410326035E9, 0.0, 2022-10-21 19:09:01.032
254.0, -131044.85792456365, -157655.43671315155, -33323.83582876156, -140650.16247632058, 68887.24939671152, -110778.95591008138, 57023.12225379018, -110519.65332265537, 0.008, 0.964, -0.054, 192.0, 0.0, 0.0, 0.0, 0.0, 0.0, 0.0, 0.0, 0.0, 0.0, 1.6664045410326183E9, 0.0, 2022-10-21 19:09:01.032
255.0, -131039.71702333892, -157650.85460553822, -33321.198322915836, -140642.5852349502, 68888.14346648974, -110763.26498547375, 57035.63923068515, -110530.89625011639, 0.008, 0.964, -0.054, 192.0, 0.0, 0.0, 0.0, 0.0, 0.0, 0.0, 0.0, 0.0, 0.0, 1.6664045410326328E9, 0.0, 2022-10-21 19:09:01.032
0.0, -131039.51585763883, -157649.62525959316, -33324.484029350766, -140640.52887446035, 68888.72461184557, -110754.05606675817, 57045.451646501024, -110534.80780539606, 0.008, 0.964, -0.054, 192.0, 0.0, 0.0, 0.0, 0.0, 0.0, 0.0, 0.0, 0.0, 0.0, 1.666404541032647E9, 0.0, 2022-10-21 19:09:01.032
1.0, -131032.8773895356, -157642.204480434, -33319.67840429287, -140641.4005924941, 68893.4631816701, -110772.63036640052, 57034.633402184656, -110529.0857588155, 0.008, 0.964, -0.054, 192.0, 0.0, 0.0, 0.0, 0.0, 0.0, 0.0, 0.0, 0.0, 0.0, 1.6664045410326617E9, 0.0, 2022-10-21 19:09:01.032
2.0, -131033.39147965808, -157643.29971591232, -33317.15265716942, -140649.22370305346, 68896.59242589383, -110785.32615725114, 57023.07755030126, -110524.1907267798, 0.008, 0.964, -0.054, 192.0, 0.0, 0.0, 0.0, 0.0, 0.0, 0.0, 0.0, 0.0, 0.0, 1.6664045410326762E9, 0.0, 2022-10-21 19:09:01.032
3.0, -131032.6315203466, -157639.34345714372, -33311.92234896688, -140645.2450925404, 68898.22410323907, -110775.11141003507, 57029.78307363785, -110519.80978486655, 0.008, 0.964, -0.054, 192.0, 0.0, 0.0, 0.0, 0.0, 0.0, 0.0, 0.0, 0.0, 0.0, 1.6664045410326908E9, 0.0, 2022-10-21 19:09:01.032
4.0, -131030.84338079017, -157640.19282343303, -33313.419915845385, -140635.61149068017, 68900.97336780708, -110766.43893318641, 57041.31657377679, -110516.54643017608, 0.014, 0.96, -0.046, 192.0, 0.0, 112.0, 30.0, 0.0, 254.0, 144.0, 0.0, 0.0, 0.0, 1.6664045410327053E9, 0.0, 2022-10-21 19:09:01.032
5.0, -131034.7325843254, -157644.5737653463, -33319.1643141704, -140635.5444354468, 68901.84508584083, -110751.68678184591, 57048.536187235855, -110520.0333023111, 0.014, 0.96, -0.046, 192.0, 0.0, 0.0, 0.0, 0.0, 0.0, 0.0, 0.0, 0.0, 0.0, 1.6664045410327208E9, 0.0, 2022-10-21 19:09:01.032
6.0, -131031.89391277957, -157643.23266067894, -33318.89609323694, -140639.12071455966, 68903.56617016389, -110767.40005819799, 57033.98520159545, -110522.82727036803, 0.014, 0.96, -0.046, 192.0, 0.0, 0.0, 0.0, 0.0, 0.0, 0.0, 0.0, 0.0, 0.0, 1.666404541032735E9, 0.0, 2022-10-21 19:09:01.032
7.0, -131038.35356692715, -157650.67579158256, -33323.12057293899, -140648.50844723088, 68894.5137136595, -110773.47973268983, 57028.35256199272, -110525.2859622581, 0.014, 0.96, -0.046, 192.0, 0.0, 0.0, 0.0, 0.0, 0.0, 0.0, 0.0, 0.0, 0.0, 1.6664045410327494E9, 0.0, 2022-10-21 19:09:01.032
8.0, -131037.19127621548, -157648.99941074842, -33320.10308743752, -140646.00505185188, 68888.2105217231, -110765.142532008, 57039.8637103872, -110524.28013375761, 0.014, 0.96, -0.046, 192.0, 0.0, 0.0, 0.0, 0.0, 0.0, 0.0, 0.0, 0.0, 0.0, 1.666404541032764E9, 0.0, 2022-10-21 19:09:01.032
9.0, -131036.85600004865, -157650.34051541574, -33320.95245372682, -140650.2965867873, 68886.57884437786, -110771.49042743331, 57037.09209407474, -110528.07993031501, 0.014, 0.96, -0.046, 192.0, 0.0, 0.0, 0.0, 0.0, 0.0, 0.0, 0.0, 0.0, 0.0, 1.6664045410327837E9, 0.0, 2022-10-21 19:09:01.032
10.0, -131042.71215709594, -157656.39783816313, -33326.20511367382, -140660.73485144792, 68887.04823101142, -110787.69544216341, 57020.507099688904, -110531.61150593896, 0.014, 0.96, -0.046, 192.0, 0.0, 0.0, 0.0, 0.0, 0.0, 0.0, 0.0, 0.0, 0.0, 1.6664045410327992E9, 0.0, 2022-10-21 19:09:01.032
11.0, -131035.85017154815, -157648.95470725952, -33317.465581591794, -140645.42390649606, 68897.97823405007, -110792.16579105447, 57023.54693693483, -110517.90988658785, 0.014, 0.96, -0.046, 192.0, 0.0, 0.0, 0.0, 0.0, 0.0, 0.0, 0.0, 0.0, 0.0, 1.6664045410328135E9, 0.0, 2022-10-21 19:09:01.032
