%OpenBCI Raw EEG Data
%Number of channels = 8
%Sample Rate = 250 Hz
%Board = OpenBCI_GUI$BoardCytonSerial
Sample Index, EXG Channel 0, EXG Channel 1, EXG Channel 2, EXG Channel 3, EXG Channel 4, EXG Channel 5, EXG Channel 6, EXG Channel 7, Accel Channel 0, Accel Channel 1, Accel Channel 2, Other, Other, Other, Other, Other, Other, Other, Analog Channel 0, Analog Channel 1, Analog Channel 2, Timestamp, Other, Timestamp (Formatted)
224.0, -129293.84461567935, -157047.82689187847, -33723.797944044825, -140089.37955968137, 66994.72719368066, -98139.60321421662, 54499.49854606373, -111523.96190452122, 0.0, 0.0, 0.0, 192.0, 0.0, 0.0, 0.0, 0.0, 0.0, 0.0, 0.0, 0.0, 0.0, 1.6664044379319482E9, 0.0, 2022-10-21 19:07:17.931
225.0, -129289.30721155491, -157042.2166040202, -33722.68035682206, -140088.7090073477, 66993.58725471345, -98156.3670225581, 54486.288665090644, -111520.49738413065, 0.0, 0.0, 0.0, 192.0, 0.0, 0.0, 0.0, 0.0, 0.0, 0.0, 0.0, 0.0, 0.0, 1.6664044379319973E9, 0.0, 2022-10-21 19:07:17.931
226.0, -129291.22946157807, -157043.60241217643, -33725.13904871214, -140083.09871948944, 66993.22962680216, -98163.94426392845, 54482.69003423334, -111516.58582885098, 0.0, 0.0, 0.0, 192.0, 0.0, 0.0, 0.0, 0.0, 0.0, 0.0, 0.0, 0.0, 0.0, 1.6664044379320345E9, 0.0, 2022-10-21 19:07:17.932
227.0, -129299.83488319337, -157050.37499074638, -33734.280912194365, -140088.23962071416, 66990.0556790895, -98133.63529844706, 54501.040816431145, -111526.19707896675, 0.0, 0.0, 0.0, 192.0, 0.0, 0.0, 0.0, 0.0, 0.0, 0.0, 0.0, 0.0, 0.0, 1.666404437932067E9, 0.0, 2022-10-21 19:07:17.932
228.0, -129293.44228427915, -157042.66363890932, -33727.82125804678, -140089.82659457048, 66998.1693623268, -98135.46814149238, 54498.85034547453, -111523.15724172084, 0.016, 0.96, -0.028, 192.0, 0.0, 128.0, 30.0, 0.0, 255.0, 32.0, 0.0, 0.0, 0.0, 1.666404437932094E9, 0.0, 2022-10-21 19:07:17.932
229.0, -129287.25085106504, -157034.5723074165, -33718.32176665327, -140072.8616205289, 67012.85445843393, -98132.9647461134, 54501.17492689788, -111508.80742178053, 0.016, 0.96, -0.028, 192.0, 0.0, 0.0, 0.0, 0.0, 0.0, 0.0, 0.0, 0.0, 0.0, 1.6664044379321268E9, 0.0, 2022-10-21 19:07:17.932
230.0, -129293.79991219043, -157044.85410986593, -33728.51416212489, -140087.47966140267, 66996.5153332371, -98141.25724330632, 54494.53645879465, -111517.45754688473, 0.016, 0.96, -0.028, 192.0, 0.0, 0.0, 0.0, 0.0, 0.0, 0.0, 0.0, 0.0, 0.0, 1.6664044379321551E9, 0.0, 2022-10-21 19:07:17.932
231.0, -129285.14978708624, -157037.72390338467, -33722.09921146622, -140081.064710744, 67001.70093795072, -98140.40787701702, 54503.11952866549, -111505.74523279014, 0.016, 0.96, -0.028, 192.0, 0.0, 0.0, 0.0, 0.0, 0.0, 0.0, 0.0, 0.0, 0.0, 1.6664044379321835E9, 0.0, 2022-10-21 19:07:17.932
232.0, -129286.53559524246, -157039.10971154092, -33721.04867947682, -140081.13176597736, 67007.55709499802, -98128.91908036699, 54509.17685141288, -111509.7685467921, 0.016, 0.96, -0.028, 192.0, 0.0, 0.0, 0.0, 0.0, 0.0, 0.0, 0.0, 0.0, 0.0, 1.666404437932212E9, 0.0, 2022-10-21 19:07:17.932
233.0, -129288.52490049899, -157041.47899645317, -33726.70367082401, -140089.69248410375, 67004.18198158527, -98148.07452536518, 54487.87563894697, -111514.14948870534, 0.016, 0.96, -0.028, 192.0, 0.0, 0.0, 0.0, 0.0, 0.0, 0.0, 0.0, 0.0, 0.0, 1.6664044379322398E9, 0.0, 2022-10-21 19:07:17.932
234.0, -129288.3684382878, -157041.05431330853, -33728.98354875846, -140082.27170494458, 67001.90210365082, -98153.8189236902, 54485.93103717936, -111517.79282305155, 0.016, 0.96, -0.028, 192.0, 0.0, 0.0, 0.0, 0.0, 0.0, 0.0, 0.0, 0.0, 0.0, 1.6664044379322684E9, 0.0, 2022-10-21 19:07:17.932
235.0, -129292.59291798985, -157047.98335408967, -33727.55303711331, -140082.51757413358, 66998.07995534896, -98147.00164163133, 54496.48106056226, -111514.52946836108, 0.016, 0.96, -0.028, 192.0, 0.0, 0.0, 0.0, 0.0, 0.0, 0.0, 0.0, 0.0, 0.0, 1.6664044379322963E9, 0.0, 2022-10-21 19:07:17.932
236.0, -129293.46463602361, -157047.78218838957, -33727.59774060223, -140083.38929216735, 66999.82339141649, -98140.22906306137, 54504.03595018816, -111512.29429391555, 0.016, 0.96, -0.028, 192.0, 0.0, 0.0, 0.0, 0.0, 0.0, 0.0, 0.0, 0.0, 0.0, 1.6664044379323237E9, 0.0, 2022-10-21 19:07:17.932
237.0, -129292.41410403421, -157044.69764765474, -33727.62009234668, -140091.3688649379, 66999.6669292053, -98156.54583651375, 54490.1108133925, -111520.85501204194, 0.016, 0.96, -0.028, 192.0, 0.0, 0.0, 0.0, 0.0, 0.0, 0.0, 0.0, 0.0, 0.0, 1.666404437932351E9, 0.0, 2022-10-21 19:07:17.932
238.0, -129287.89905165424, -157040.83079586396, -33723.10503996671, -140082.74109157815, 67001.6115309729, -98157.70812722541, 54490.66960700388, -111520.4750323862, 0.014, 0.962, -0.022, 192.0, 0.0, 112.0, 30.0, 16.0, 255.0, 80.0, 0.0, 0.0, 0.0, 1.666404437932379E9, 0.0, 2022-10-21 19:07:17.932
239.0, -129288.10021735434, -157041.32253424198, -33721.94274925503, -140076.14732696384, 67002.99733912914, -98141.90544389552, 54504.14770891044, -111522.64315159836, 0.014, 0.962, -0.022, 192.0, 0.0, 0.0, 0.0, 0.0, 0.0, 0.0, 0.0, 0.0, 0.0, 1.6664044379324088E9, 0.0, 2022-10-21 19:07:17.932
240.0, -129287.65318246522, -157038.68502839626, -33721.29454866583, -140083.8586788009, 67002.12562109537, -98144.7664671858, 54501.040816431145, -111522.28552368708, 0.014, 0.962, -0.022, 192.0, 0.0, 0.0, 0.0, 0.0, 0.0, 0.0, 0.0, 0.0, 0.0, 1.6664044379327767E9, 0.0, 2022-10-21 19:07:17.932
241.0, -129285.97680163108, -157038.6179731629, -33720.44518237653, -140096.5544696515, 67002.99733912914, -98169.10751689762, 54481.2595225882, -111524.43129115479, 0.014, 0.962, -0.022, 192.0, 0.0, 0.0, 0.0, 0.0, 0.0, 0.0, 0.0, 0.0, 0.0, 1.6664044379328194E9, 0.0, 2022-10-21 19:07:17.932
242.0, -129287.7202376986, -157038.79678711854, -33716.53362709685, -140092.53115564957, 67004.45020251872, -98168.72753724188, 54480.05252838761, -111519.60331435244, 0.014, 0.962, -0.022, 192.0, 0.0, 0.0, 0.0, 0.0, 0.0, 0.0, 0.0, 0.0, 0.0, 1.6664044379328616E9, 0.0, 2022-10-21 19:07:17.932
243.0, -129287.38496153176, -157037.18746151775, -33714.81254277379, -140083.45634740073, 67006.39480428635, -98152.09783936714, 54494.961141939304, -111517.1669742068, 0.014, 0.962, -0.022, 192.0, 0.0, 0.0, 0.0, 0.0, 0.0, 0.0, 0.0, 0.0, 0.0, 1.6664044379329033E9, 0.0, 2022-10-21 19:07:17.932
244.0, -129289.55308074392, -157041.43429296426, -33716.42186837457, -140086.42912941327, 67007.24417057565, -98126.4603884769, 54510.18267991337, -111523.29135218756, 0.014, 0.962, -0.022, 192.0, 0.0, 0.0, 0.0, 0.0, 0.0, 0.0, 0.0, 0.0, 0.0, 1.6664044379329295E9, 0.0, 2022-10-21 19:07:17.932
245.0, -129289.73189469957, -157040.22729876367, -33717.517103852886, -140091.68178936027, 67007.24417057565, -98138.88795839406, 54497.79981348513, -111522.50904113163, 0.014, 0.962, -0.022, 192.0, 0.0, 0.0, 0.0, 0.0, 0.0, 0.0, 0.0, 0.0, 0.0, 1.6664044379329467E9, 0.0, 2022-10-21 19:07:17.932
246.0, -129293.75520870152, -157045.01057207712, -33723.12739171117, -140095.95097255125, 67003.84670541844, -98164.25718835082, 54480.45485978781, -111524.00660801014, 0.014, 0.962, -0.022, 192.0, 0.0, 0.0, 0.0, 0.0, 0.0, 0.0, 0.0, 0.0, 0.0, 1.666404437932968E9, 0.0, 2022-10-21 19:07:17.932
247.0, -129294.80574069092, -157047.13398780036, -33724.78142080086, -140098.6108301414, 67000.33748153895, -98162.75962147232, 54479.33727256504, -111525.7276923332, 0.026000000000000002, 0.966, -0.018000000000000002, 192.0, 0.0, 208.0, 30.0, 48.0, 255.0, 112.0, 0.0, 0.0, 0.0, 1.666404437932985E9, 0.0, 2022-10-21 19:07:17.932
248.0, -129291.60944123381, -157042.23895576465, -33718.478228864464, -140088.6643038588, 67009.09936536543, -98152.85779867863, 54491.83189771556, -111518.12809921839, 0.026000000000000002, 0.966, -0.018000000000000002, 192.0, 0.0, 0.0, 0.0, 0.0, 0.0, 0.0, 0.0, 0.0, 0.0, 1.6664044379330032E9, 0.0, 2022-10-21 19:07:17.933
249.0, -129291.9223656562, -157043.87063310988, -33717.87473176417, -140092.2182312272, 67012.29566482254, -98147.44867652043, 54494.134127394456, -111516.22820093969, 0.026000000000000002, 0.966, -0.018000000000000002, 192.0, 0.0, 0.0, 0.0, 0.0, 0.0, 0.0, 0.0, 0.0, 0.0, 1.66640443793302E9, 0.0, 2022-10-21 19:07:17.933
250.0, -129289.12839759927, -157039.84731910794, -33716.801848030314, -140090.05011201504, 67011.78157470007, -98150.0638306217, 54490.17786862587, -111513.16601194932, 0.026000000000000002, 0.966, -0.018000000000000002, 192.0, 0.0, 0.0, 0.0, 0.0, 0.0, 0.0, 0.0, 0.0, 0.0, 1.6664044379330366E9, 0.0, 2022-10-21 19:07:17.933
251.0, -129288.88252841026, -157040.47316795267, -33715.259577662895, -140074.11331821838, 67022.77863297208, -98129.03083908926, 54502.91836296539, -111508.44979386924, 0.026000000000000002, 0.966, -0.018000000000000002, 192.0, 0.0, 0.0, 0.0, 0.0, 0.0, 0.0, 0.0, 0.0, 0.0, 1.6664044379330535E9, 0.0, 2022-10-21 19:07:17.933
252.0, -129295.23042383557, -157046.97752558917, -33722.52389461087, -140088.64195211435, 67010.50752526612, -98134.95405136992, 54495.1623076394, -111525.07949174399, 0.026000000000000002, 0.966, -0.018000000000000002, 192.0, 0.0, 0.0, 0.0, 0.0, 0.0, 0.0, 0.0, 0.0, 0.0, 1.66640443793307E9, 0.0, 2022-10-21 19:07:17.933
253.0, -129287.87669990979, -157039.60144991893, -33718.18765618654, -140095.5709928955, 67014.12850786788, -98161.19499936045, 54481.77361271067, -111519.49155563016, 0.026000000000000002, 0.966, -0.018000000000000002, 192.0, 0.0, 0.0, 0.0, 0.0, 0.0, 0.0, 0.0, 0.0, 0.0, 1.6664044379330864E9, 0.0, 2022-10-21 19:07:17.933
254.0, -129283.76397893, -157034.99699056114, -33714.16434218459, -140087.14438523585, 67024.23149636168, -98179.00933969133, 54470.553036994104, -111509.65678806983, 0.026000000000000002, 0.966, -0.018000000000000002, 192.0, 0.0, 0.0, 0.0, 0.0, 0.0, 0.0, 0.0, 0.0, 0.0, 1.666404437933103E9, 0.0, 2022-10-21 19:07:17.933
255.0, -129282.24406030704, -157033.566478916, -33712.890292750635, -140080.19299271025, 67024.34325508395, -98171.58856053217, 54476.63271148595, -111508.09216595796, 0.026000000000000002, 0.966, -0.018000000000000002, 192.0, 0.0, 0.0, 0.0, 0.0, 0.0, 0.0, 0.0, 0.0, 0.0, 1.666404437933196E9, 0.0, 2022-10-21 19:07:17.933
0.0, -129285.2168423196, -157035.98046731716, -33719.327595153765, -140073.93450426275, 67022.24219110515, -98143.53712124076, 54494.42470007238, -111516.00468349514, 0.026000000000000002, 0.966, -0.018000000000000002, 192.0, 0.0, 0.0, 0.0, 0.0, 0.0, 0.0, 0.0, 0.0, 0.0, 1.6664044379332128E9, 0.0, 2022-10-21 19:07:17.933
1.0, -129290.96124064461, -157039.8696708524, -33721.830990532755, -140088.57489688098, 67012.67564447828, -98153.19307484545, 54483.96408366729, -111523.8277940545, 0.026000000000000002, 0.962, -0.01, 192.0, 0.0, 208.0, 30.0, 16.0, 255.0, 176.0, 0.0, 0.0, 0.0, 1.66640443793323E9, 0.0, 2022-10-21 19:07:17.933
2.0, -129286.69205745365, -157033.34296147144, -33715.72896429646, -140089.64778061485, 67018.50944978112, -98176.64005477907, 54468.16140033739, -111519.31274167453, 0.026000000000000002, 0.962, -0.01, 192.0, 0.0, 0.0, 0.0, 0.0, 0.0, 0.0, 0.0, 0.0, 0.0, 1.6664044379332485E9, 0.0, 2022-10-21 19:07:17.933
3.0, -129288.1672725877, -157035.75694987262, -33717.18182768605, -140081.9587805222, 67021.3704730714, -98166.671176752, 54475.91745566338, -111519.2680381856, 0.026000000000000002, 0.962, -0.01, 192.0, 0.0, 0.0, 0.0, 0.0, 0.0, 0.0, 0.0, 0.0, 0.0, 1.666404437933266E9, 0.0, 2022-10-21 19:07:17.933
4.0, -129287.09438885385, -157033.63353414935, -33715.34898464072, -140074.15802170732, 67022.75628122763, -98157.70812722541, 54485.08167089006, -111522.7772620651, 0.026000000000000002, 0.962, -0.01, 192.0, 0.0, 0.0, 0.0, 0.0, 0.0, 0.0, 0.0, 0.0, 0.0, 1.6664044379332829E9, 0.0, 2022-10-21 19:07:17.933
5.0, -129293.30817381242, -157038.93089758526, -33721.94274925503, -140081.08706248846, 67015.58137125747, -98149.25916782132, 54490.155516881416, -111528.00757026764, 0.026000000000000002, 0.962, -0.01, 192.0, 0.0, 0.0, 0.0, 0.0, 0.0, 0.0, 0.0, 0.0, 0.0, 1.6664044379332995E9, 0.0, 2022-10-21 19:07:17.933
6.0, -129295.36453430231, -157041.14372028635, -33725.63078709016, -140086.22796371317, 67010.50752526612, -98160.92677842699, 54478.06322313109, -111527.58288712299, 0.026000000000000002, 0.962, -0.01, 192.0, 0.0, 0.0, 0.0, 0.0, 0.0, 0.0, 0.0, 0.0, 0.0, 1.6664044379333167E9, 0.0, 2022-10-21 19:07:17.933
7.0, -129285.48506325306, -157030.75015911463, -33719.729926553955, -140077.17550720877, 67017.45891779172, -98169.73336574237, 54475.64923472992, -111514.06008172753, 0.026000000000000002, 0.962, -0.01, 192.0, 0.0, 0.0, 0.0, 0.0, 0.0, 0.0, 0.0, 0.0, 0.0, 1.666404437933333E9, 0.0, 2022-10-21 19:07:17.933
8.0, -129296.12449361378, -157039.8696708524, -33730.16819121459, -140080.03653049906, 67012.80975494502, -98152.50017076734, 54485.88633369045, -111526.73352083369, 0.026000000000000002, 0.962, -0.01, 192.0, 0.0, 0.0, 0.0, 0.0, 0.0, 0.0, 0.0, 0.0, 0.0, 1.6664044379333491E9, 0.0, 2022-10-21 19:07:17.933
9.0, -129293.44228427915, -157037.47803419566, -33725.58608360125, -140086.67499860228, 67011.2674845776, -98157.88694118106, 54484.23230460076, -111528.8792883014, 0.026000000000000002, 0.962, -0.01, 192.0, 0.0, 0.0, 0.0, 0.0, 0.0, 0.0, 0.0, 0.0, 0.0, 1.666404437933364E9, 0.0, 2022-10-21 19:07:17.933
10.0, -129283.78633067445, -157027.97854280216, -33717.360641641695, -140089.066635259, 67019.60468525943, -98181.17745890349, 54469.793077682625, -111520.45268064174, 0.026000000000000002, 0.962, -0.01, 192.0, 0.0, 0.0, 0.0, 0.0, 0.0, 0.0, 0.0, 0.0, 0.0, 1.6664044379333787E9, 0.0, 2022-10-21 19:07:17.933
11.0, -129282.86990915179, -157027.576211402, -33711.72800203896, -140073.73333856266, 67029.26063886411, -98171.58856053217, 54476.87858067496, -111510.26028517012, 0.02, 0.9580000000000001, -0.004, 192.0, 0.0, 160.0, 29.0, 240.0, 255.0, 224.0, 0.0, 0.0, 0.0, 1.6664044379333956E9, 0.0, 2022-10-21 19:07:17.933
12.0, -129296.30330756943, -157044.22826102117, -33723.95440625601, -140076.14732696384, 67017.48126953618, -98152.07548762269, 54487.04862440212, -111519.2233346967, 0.02, 0.9580000000000001, -0.004, 192.0, 0.0, 0.0, 0.0, 0.0, 0.0, 0.0, 0.0, 0.0, 0.0, 1.6664044379334111E9, 0.0, 2022-10-21 19:07:17.933
13.0, -129302.47238903909, -157051.0678948245, -33731.21872320399, -140085.3115421905, 67014.57554275698, -98129.99196410085, 54497.82216522958, -111526.51000338912, 0.02, 0.9580000000000001, -0.004, 192.0, 0.0, 0.0, 0.0, 0.0, 0.0, 0.0, 0.0, 0.0, 0.0, 1.666404437933426E9, 0.0, 2022-10-21 19:07:17.933
14.0, -129294.78338894647, -157040.98725807515, -33723.97675800047, -140089.22309747018, 67019.00118815913, -98159.42921154849, 54477.92911266436, -111522.39728240935, 0.02, 0.9580000000000001, -0.004, 192.0, 0.0, 0.0, 0.0, 0.0, 0.0, 0.0, 0.0, 0.0, 0.0, 1.6664044379334617E9, 0.0, 2022-10-21 19:07:17.933
15.0, -129288.48019701007, -157034.43819694975, -33718.45587712, -140087.05497825803, 67021.77280447159, -98183.81496474922, 54464.24984505771, -111517.41284339582, 0.02, 0.9580000000000001, -0.004, 192.0, 0.0, 0.0, 0.0, 0.0, 0.0, 0.0, 0.0, 0.0, 0.0, 1.666404437933476E9, 0.0, 2022-10-21 19:07:17.933
16.0, -129292.92819415667, -157038.03682780705, -33723.39561264463, -140083.76927182308, 67015.29079857956, -98181.6244937926, 54468.317862548574, -111513.41188113832, 0.02, 0.9580000000000001, -0.004, 192.0, 0.0, 0.0, 0.0, 0.0, 0.0, 0.0, 0.0, 0.0, 0.0, 1.6664044379334905E9, 0.0, 2022-10-21 19:07:17.933
17.0, -129288.8154731769, -157033.45472019372, -33718.56763584228, -140071.14053620584, 67018.8670776924, -98165.59829301815, 54487.31684533559, -111509.14269794736, 0.02, 0.9580000000000001, -0.004, 192.0, 0.0, 0.0, 0.0, 0.0, 0.0, 0.0, 0.0, 0.0, 0.0, 1.666404437933505E9, 0.0, 2022-10-21 19:07:17.933
18.0, -129285.08273185286, -157031.08543528145, -33714.47726660696, -140069.0618239715, 67024.9691039287, -98165.93356918497, 54490.73666223725, -111505.52171534559, 0.02, 0.9580000000000001, -0.004, 192.0, 0.0, 0.0, 0.0, 0.0, 0.0, 0.0, 0.0, 0.0, 0.0, 1.6664044379335191E9, 0.0, 2022-10-21 19:07:17.933
19.0, -129300.75130471603, -157046.84341512245, -33733.11862148269, -140102.45533018772, 67005.70190020822, -98201.78576729128, 54457.857246143496, -111526.30883768904, 0.02, 0.9580000000000001, -0.004, 192.0, 0.0, 0.0, 0.0, 0.0, 0.0, 0.0, 0.0, 0.0, 0.0, 1.6664044379335337E9, 0.0, 2022-10-21 19:07:17.933
20.0, -129296.28095582497, -157041.54605168654, -33728.760031313905, -140086.00444626863, 67015.35785381292, -98184.55257231624, 54473.078784117555, -111517.83752654048, 0.02, 0.9580000000000001, -0.014, 192.0, 0.0, 160.0, 29.0, 240.0, 255.0, 144.0, 0.0, 0.0, 0.0, 1.6664044379335475E9, 0.0, 2022-10-21 19:07:17.933
21.0, -129297.39854304773, -157042.39541797584, -33727.01659524639, -140077.39902465334, 67019.02353990359, -98171.23093262088, 54485.193429612336, -111511.71314855972, 0.02, 0.9580000000000001, -0.014, 192.0, 0.0, 0.0, 0.0, 0.0, 0.0, 0.0, 0.0, 0.0, 0.0, 1.6664044379335628E9, 0.0, 2022-10-21 19:07:17.933
22.0, -129303.34410707286, -157046.75400814464, -33733.11862148269, -140087.12203349138, 67013.27914157858, -98165.0171476623, 54484.187601111844, -111516.85404978444, 0.02, 0.9580000000000001, -0.014, 192.0, 0.0, 0.0, 0.0, 0.0, 0.0, 0.0, 0.0, 0.0, 0.0, 1.6664044379335773E9, 0.0, 2022-10-21 19:07:17.933
23.0, -129299.76782796001, -157041.50134819763, -33732.045737748835, -140090.98888528216, 67013.07797587848, -98175.63422627858, 54471.78238293915, -111516.5187736176, 0.02, 0.9580000000000001, -0.014, 192.0, 0.0, 0.0, 0.0, 0.0, 0.0, 0.0, 0.0, 0.0, 0.0, 1.6664044379335933E9, 0.0, 2022-10-21 19:07:17.933
24.0, -129298.33731631486, -157042.12719704237, -33729.47528713647, -140081.84702179994, 67012.51918226709, -98175.03072917828, 54473.95050215132, -111516.63053233988, 0.02, 0.9580000000000001, -0.014, 192.0, 0.0, 0.0, 0.0, 0.0, 0.0, 0.0, 0.0, 0.0, 0.0, 1.6664044379336145E9, 0.0, 2022-10-21 19:07:17.933
25.0, -129305.64633675174, -157049.99501109065, -33738.415984918596, -140090.6089056264, 67000.00220537212, -98169.91217969802, 54478.465554531285, -111526.64411385586, 0.02, 0.9580000000000001, -0.014, 192.0, 0.0, 0.0, 0.0, 0.0, 0.0, 0.0, 0.0, 0.0, 0.0, 1.6664044379336293E9, 0.0, 2022-10-21 19:07:17.933
26.0, -129303.74643847304, -157047.87159536738, -33736.314920939796, -140090.5642021375, 67004.15962984081, -98183.79261300477, 54472.944673650825, -111519.6703695858, 0.02, 0.9580000000000001, -0.014, 192.0, 0.0, 0.0, 0.0, 0.0, 0.0, 0.0, 0.0, 0.0, 0.0, 1.6664044379336436E9, 0.0, 2022-10-21 19:07:17.933
27.0, -129301.10893262732, -157044.49648195464, -33734.68324359456, -140089.13369049237, 67009.18877234326, -98202.8810027696, 54458.08076358805, -111518.06104398503, 0.02, 0.9580000000000001, -0.014, 192.0, 0.0, 0.0, 0.0, 0.0, 0.0, 0.0, 0.0, 0.0, 0.0, 1.6664044379336584E9, 0.0, 2022-10-21 19:07:17.933
28.0, -129303.43351405067, -157047.40220873384, -33737.18663897355, -140088.4184346698, 67004.47255426318, -98187.88298224009, 54464.02632761316, -111511.60138983744, 0.02, 0.9580000000000001, -0.014, 192.0, 0.0, 0.0, 0.0, 0.0, 0.0, 0.0, 0.0, 0.0, 0.0, 1.6664044379336727E9, 0.0, 2022-10-21 19:07:17.933
29.0, -129302.69590648364, -157046.12815929987, -33733.96798777199, -140076.34849266394, 67005.52308625258, -98164.63716800656, 54483.58410401155, -111506.77341303509, 0.02, 0.9580000000000001, -0.014, 192.0, 0.0, 0.0, 0.0, 0.0, 0.0, 0.0, 0.0, 0.0, 0.0, 1.666404437933728E9, 0.0, 2022-10-21 19:07:17.933
30.0, -129295.25277558003, -157036.94159232875, -33725.25080743442, -140066.15609719232, 67013.81558344551, -98155.18238010198, 54492.949484938326, -111507.35455839093, 0.018000000000000002, 0.96, -0.018000000000000002, 192.0, 0.0, 144.0, 30.0, 0.0, 255.0, 112.0, 0.0, 0.0, 0.0, 1.6664044379337428E9, 0.0, 2022-10-21 19:07:17.933
31.0, -129297.95733665912, -157039.35558072993, -33727.15070571312, -140086.38442592436, 67009.18877234326, -98177.37766234609, 54472.34117655053, -111517.65871258483, 0.018000000000000002, 0.96, -0.018000000000000002, 192.0, 0.0, 0.0, 0.0, 0.0, 0.0, 0.0, 0.0, 0.0, 0.0, 1.666404437933758E9, 0.0, 2022-10-21 19:07:17.933
32.0, -129297.48795002556, -157038.03682780705, -33725.76489755689, -140083.63516135636, 67011.0663188775, -98188.173554918, 54464.11573459098, -111514.90944801683, 0.018000000000000002, 0.96, -0.018000000000000002, 192.0, 0.0, 0.0, 0.0, 0.0, 0.0, 0.0, 0.0, 0.0, 0.0, 1.666404437933775E9, 0.0, 2022-10-21 19:07:17.933
33.0, -129299.29844132643, -157039.71320864122, -33728.67062433608, -140074.38153915186, 67009.65815897682, -98169.8227727202, 54477.63853998644, -111512.7189770602, 0.018000000000000002, 0.96, -0.018000000000000002, 192.0, 0.0, 0.0, 0.0, 0.0, 0.0, 0.0, 0.0, 0.0, 0.0, 1.66640443793379E9, 0.0, 2022-10-21 19:07:17.933
34.0, -129307.94856643064, -157047.55867094503, -33737.18663897355, -140078.47190838718, 67002.6620629623, -98167.56524653021, 54476.96798765278, -111521.81613705351, 0.018000000000000002, 0.96, -0.018000000000000002, 192.0, 0.0, 0.0, 0.0, 0.0, 0.0, 0.0, 0.0, 0.0, 0.0, 1.666404437933805E9, 0.0, 2022-10-21 19:07:17.933
35.0, -129304.19347336216, -157042.55188018703, -33732.313958682294, -140085.57976312397, 67004.9195891523, -98188.1288514291, 54463.91456889088, -111516.78699455108, 0.018000000000000002, 0.96, -0.018000000000000002, 192.0, 0.0, 0.0, 0.0, 0.0, 0.0, 0.0, 0.0, 0.0, 0.0, 1.6664044379338193E9, 0.0, 2022-10-21 19:07:17.933
36.0, -129302.76296171702, -157042.64128716485, -33732.939807527044, -140082.29405668905, 67005.29956880803, -98199.88586901259, 54456.71730717627, -111509.47797411418, 0.018000000000000002, 0.96, -0.018000000000000002, 192.0, 0.0, 0.0, 0.0, 0.0, 0.0, 0.0, 0.0, 0.0, 0.0, 1.666404437933834E9, 0.0, 2022-10-21 19:07:17.933
37.0, -129312.30715659943, -157053.10190356994, -33743.378072187676, -140085.9150392908, 66992.7155366797, -98179.97046470291, 54472.676452717365, -111518.77629980759, 0.018000000000000002, 0.96, -0.018000000000000002, 192.0, 0.0, 0.0, 0.0, 0.0, 0.0, 0.0, 0.0, 0.0, 0.0, 1.6664044379338481E9, 0.0, 2022-10-21 19:07:17.933
38.0, -129312.8659502108, -157053.77245590359, -33743.55688614331, -140094.90044056185, 66986.76997265458, -98171.76737448781, 54480.32074932108, -111527.31466618952, 0.018000000000000002, 0.96, -0.018000000000000002, 192.0, 0.0, 0.0, 0.0, 0.0, 0.0, 0.0, 0.0, 0.0, 0.0, 1.6664044379338627E9, 0.0, 2022-10-21 19:07:17.933
39.0, -129308.10502864183, -157049.03388607907, -33738.97477852998, -140097.314428963, 66990.4133070008, -98182.2726943818, 54473.74933645122, -111524.23012545469, 0.018000000000000002, 0.96, -0.018000000000000002, 192.0, 0.0, 0.0, 0.0, 0.0, 0.0, 0.0, 0.0, 0.0, 0.0, 1.6664044379338777E9, 0.0, 2022-10-21 19:07:17.933
40.0, -129306.20513036313, -157044.47413021018, -33735.21968546149, -140098.43201618578, 66989.8098099005, -98187.21242990643, 54470.39657478292, -111520.74325331966, 0.012, 0.96, -0.024, 192.0, 0.0, 96.0, 30.0, 0.0, 255.0, 64.0, 0.0, 0.0, 0.0, 1.666404437933892E9, 0.0, 2022-10-21 19:07:17.933
41.0, -129291.90001391174, -157029.49846142513, -33720.713403309994, -140083.88103054537, 67002.84087691795, -98192.55449683125, 54478.57731325356, -111511.08729971497, 0.012, 0.96, -0.024, 192.0, 0.0, 0.0, 0.0, 0.0, 0.0, 0.0, 0.0, 0.0, 0.0, 1.6664044379339075E9, 0.0, 2022-10-21 19:07:17.933
42.0, -129290.89418541125, -157029.20788874722, -33716.08659220774, -140074.91798101878, 67008.38410954287, -98180.84218273667, 54494.201182627825, -111510.41674738131, 0.012, 0.96, -0.024, 192.0, 0.0, 0.0, 0.0, 0.0, 0.0, 0.0, 0.0, 0.0, 0.0, 1.666404437933922E9, 0.0, 2022-10-21 19:07:17.933
43.0, -129290.22363307759, -157027.64326663534, -33717.20417943051, -140080.52826887707, 67004.60666472992, -98181.51273507033, 54489.19439186983, -111509.92500900329, 0.012, 0.96, -0.024, 192.0, 0.0, 0.0, 0.0, 0.0, 0.0, 0.0, 0.0, 0.0, 0.0, 1.666404437933936E9, 0.0, 2022-10-21 19:07:17.933
44.0, -129296.68328722517, -157035.08639753895, -33729.162362714094, -140103.88584183287, 66988.1110773219, -98206.50198537136, 54461.56763572308, -111523.96190452122, 0.012, 0.96, -0.024, 192.0, 0.0, 0.0, 0.0, 0.0, 0.0, 0.0, 0.0, 0.0, 0.0, 1.6664044379339664E9, 0.0, 2022-10-21 19:07:17.933
45.0, -129294.7163337131, -157032.00185680413, -33727.15070571312, -140089.13369049237, 66989.47453373368, -98200.06468296822, 54467.267330559174, -111525.66063709982, 0.012, 0.96, -0.024, 192.0, 0.0, 0.0, 0.0, 0.0, 0.0, 0.0, 0.0, 0.0, 0.0, 1.6664044379339807E9, 0.0, 2022-10-21 19:07:17.933
46.0, -129295.02925813547, -157031.53247017055, -33725.899008023625, -140080.43886189925, 66993.43079250226, -98181.17745890349, 54483.137069122444, -111523.2242969542, 0.012, 0.96, -0.024, 192.0, 0.0, 0.0, 0.0, 0.0, 0.0, 0.0, 0.0, 0.0, 0.0, 1.6664044379339952E9, 0.0, 2022-10-21 19:07:17.933
47.0, -129296.772694203, -157033.1194440269, -33726.74837431293, -140084.32806543447, 66997.9681966267, -98194.76731953232, 54474.01755738468, -111520.00564575264, 0.012, 0.96, -0.024, 192.0, 0.0, 0.0, 0.0, 0.0, 0.0, 0.0, 0.0, 0.0, 0.0, 1.6664044379340093E9, 0.0, 2022-10-21 19:07:17.934
48.0, -129292.45880752311, -157028.44792943573, -33723.84264753373, -140087.92669629178, 66999.04108036055, -98212.62636335212, 54458.99718511071, -111515.44588988375, 0.012, 0.96, -0.024, 192.0, 0.0, 0.0, 0.0, 0.0, 0.0, 0.0, 0.0, 0.0, 0.0, 1.6664044379340239E9, 0.0, 2022-10-21 19:07:17.934
49.0, -129304.64050825126, -157041.81427262002, -33729.98937725894, -140093.49228066116, 66993.11786807989, -98206.97137200492, 54462.68522294584, -111528.43225341229, 0.012, 0.96, -0.024, 192.0, 0.0, 0.0, 0.0, 0.0, 0.0, 0.0, 0.0, 0.0, 0.0, 1.666404437934038E9, 0.0, 2022-10-21 19:07:17.934
50.0, -129310.56372053192, -157049.92795585727, -33731.553999370815, -140085.19978346824, 66995.97889137016, -98179.54578155826, 54484.70169123432, -111523.00077950965, 0.012, 0.964, -0.034, 192.0, 0.0, 96.0, 30.0, 32.0, 254.0, 240.0, 0.0, 0.0, 0.0, 1.666404437934052E9, 0.0, 2022-10-21 19:07:17.934
51.0, -129302.36063031682, -157040.67433365277, -33724.62495858967, -140080.84119329945, 67002.39384202885, -98175.56717104522, 54490.5131447927, -111512.22723868219, 0.012, 0.964, -0.034, 192.0, 0.0, 0.0, 0.0, 0.0, 0.0, 0.0, 0.0, 0.0, 0.0, 1.6664044379340675E9, 0.0, 2022-10-21 19:07:17.934
52.0, -129301.73478147207, -157039.0203045631, -33726.8601330352, -140097.1579667518, 66996.18005707026, -98203.37274114761, 54470.553036994104, -111513.79186079405, 0.012, 0.964, -0.034, 192.0, 0.0, 0.0, 0.0, 0.0, 0.0, 0.0, 0.0, 0.0, 0.0, 1.6664044379340816E9, 0.0, 2022-10-21 19:07:17.934
53.0, -129294.6716302242, -157032.0242085486, -33724.7590690564, -140094.14048125036, 66994.59308321394, -98228.07141877073, 54459.69008918883, -111508.9191805028, 0.012, 0.964, -0.034, 192.0, 0.0, 0.0, 0.0, 0.0, 0.0, 0.0, 0.0, 0.0, 0.0, 1.666404437934096E9, 0.0, 2022-10-21 19:07:17.934
54.0, -129290.20128133314, -157028.49263292464, -33717.27123466387, -140074.06861472948, 67006.35010079743, -98221.14237798958, 54479.225513842764, -111502.3701193774, 0.012, 0.964, -0.034, 192.0, 0.0, 0.0, 0.0, 0.0, 0.0, 0.0, 0.0, 0.0, 0.0, 1.6664044379341123E9, 0.0, 2022-10-21 19:07:17.934
55.0, -129293.57639474588, -157033.9688103162, -33717.45004861952, -140066.93840824824, 67012.89916192283, -98197.94126724497, 54499.722063508285, -111502.30306414403, 0.012, 0.964, -0.034, 192.0, 0.0, 0.0, 0.0, 0.0, 0.0, 0.0, 0.0, 0.0, 0.0, 1.6664044379341269E9, 0.0, 2022-10-21 19:07:17.934
56.0, -129298.49377852606, -157037.90271734033, -33724.93788301205, -140091.6594376158, 67003.7125949517, -98212.80517730775, 54481.55009526612, -111514.46241312772, 0.012, 0.964, -0.034, 192.0, 0.0, 0.0, 0.0, 0.0, 0.0, 0.0, 0.0, 0.0, 0.0, 1.666404437934141E9, 0.0, 2022-10-21 19:07:17.934
57.0, -129289.77659818849, -157030.19136550324, -33717.070068963774, -140083.813975312, 67007.4676880202, -98223.04227626829, 54475.58217949655, -111505.49936360113, 0.012, 0.964, -0.034, 192.0, 0.0, 0.0, 0.0, 0.0, 0.0, 0.0, 0.0, 0.0, 0.0, 1.6664044379341562E9, 0.0, 2022-10-21 19:07:17.934
58.0, -129298.96316515961, -157037.09805453994, -33723.32855741126, -140080.59532411044, 67000.3151297945, -98209.05008423926, 54486.9592174243, -111510.75202354814, 0.012, 0.964, -0.034, 192.0, 0.0, 0.0, 0.0, 0.0, 0.0, 0.0, 0.0, 0.0, 0.0, 1.6664044379341705E9, 0.0, 2022-10-21 19:07:17.934
59.0, -129314.76584848951, -157053.72775241468, -33735.97964477297, -140094.27459171708, 66988.1557808108, -98199.3270754012, 54487.8085837136, -111528.96869527921, 0.018000000000000002, 0.968, -0.038, 192.0, 0.0, 144.0, 30.0, 64.0, 254.0, 208.0, 0.0, 0.0, 0.0, 1.6664044379342003E9, 0.0, 2022-10-21 19:07:17.934
60.0, -129311.14486588775, -157051.82785413598, -33732.00103425992, -140097.85087082995, 66991.77676341258, -98201.5846015912, 54484.277008089666, -111520.98912250866, 0.018000000000000002, 0.968, -0.038, 192.0, 0.0, 0.0, 0.0, 0.0, 0.0, 0.0, 0.0, 0.0, 0.0, 1.666404437934216E9, 0.0, 2022-10-21 19:07:17.934
61.0, -129310.45196180964, -157048.20687153423, -33729.47528713647, -140090.09481550395, 66995.80007741453, -98221.76822683433, 54472.385880039445, -111515.13296546138, 0.018000000000000002, 0.968, -0.038, 192.0, 0.0, 0.0, 0.0, 0.0, 0.0, 0.0, 0.0, 0.0, 0.0, 1.6664044379342306E9, 0.0, 2022-10-21 19:07:17.934
62.0, -129310.16138913172, -157046.12815929987, -33725.72019406798, -140077.35432116443, 67001.67858620627, -98203.48449986988, 54488.389729069444, -111505.87934325688, 0.018000000000000002, 0.968, -0.038, 192.0, 0.0, 0.0, 0.0, 0.0, 0.0, 0.0, 0.0, 0.0, 0.0, 1.666404437934245E9, 0.0, 2022-10-21 19:07:17.934
63.0, -129317.11278165733, -157055.96292686023, -33731.82222030428, -140082.7634433226, 66999.82339141649, -98186.96656071742, 54501.08551992006, -111507.82394502449, 0.018000000000000002, 0.968, -0.038, 192.0, 0.0, 0.0, 0.0, 0.0, 0.0, 0.0, 0.0, 0.0, 0.0, 1.66640443793426E9, 0.0, 2022-10-21 19:07:17.934
64.0, -129323.39362184926, -157059.24863329515, -33734.906761039114, -140094.83338532847, 66999.15283908282, -98193.53797358728, 54493.53063029416, -111501.94543623275, 0.018000000000000002, 0.968, -0.038, 192.0, 0.0, 0.0, 0.0, 0.0, 0.0, 0.0, 0.0, 0.0, 0.0, 1.6664044379342744E9, 0.0, 2022-10-21 19:07:17.934
65.0, -129327.05930793993, -157061.70732518524, -33734.75029882792, -140081.98113226666, 67005.07605136347, -98218.23665121039, 54476.92328416387, -111496.13398267436, 0.018000000000000002, 0.968, -0.038, 192.0, 0.0, 0.0, 0.0, 0.0, 0.0, 0.0, 0.0, 0.0, 0.0, 1.6664044379342887E9, 0.0, 2022-10-21 19:07:17.934
66.0, -129338.25753191204, -157071.98912763468, -33742.39459543164, -140083.88103054537, 66995.42009775879, -98219.01896226633, 54473.68228121785, -111503.51005834462, 0.018000000000000002, 0.968, -0.038, 192.0, 0.0, 0.0, 0.0, 0.0, 0.0, 0.0, 0.0, 0.0, 0.0, 1.6664044379343033E9, 0.0, 2022-10-21 19:07:17.934
67.0, -129349.29929367296, -157084.95313941874, -33746.73083385597, -140083.1657747228, 66992.67083319079, -98205.60791559315, 54483.04766214462, -111509.1203462029, 0.018000000000000002, 0.968, -0.038, 192.0, 0.0, 0.0, 0.0, 0.0, 0.0, 0.0, 0.0, 0.0, 0.0, 1.666404437934317E9, 0.0, 2022-10-21 19:07:17.934
68.0, -129364.65494211376, -157100.5323053041, -33750.776499602376, -140098.3202574635, 66989.2063128002, -98213.14045347458, 54477.750298708714, -111516.13879396187, 0.018000000000000002, 0.968, -0.038, 192.0, 0.0, 0.0, 0.0, 0.0, 0.0, 0.0, 0.0, 0.0, 0.0, 1.6664044379343317E9, 0.0, 2022-10-21 19:07:17.934
69.0, -129378.26715448704, -157110.14355541987, -33755.738586871455, -140105.1598912668, 66987.7087459217, -98220.9859157784, 54469.949539893816, -111518.5751341075, 0.016, 0.962, -0.04, 192.0, 0.0, 128.0, 30.0, 16.0, 254.0, 192.0, 0.0, 0.0, 0.0, 1.666404437934346E9, 0.0, 2022-10-21 19:07:17.934
70.0, -129383.11748303384, -157113.40691011035, -33750.575333902285, -140096.48741441817, 66988.312243022, -98216.56027037624, 54472.944673650825, -111515.73646256168, 0.016, 0.962, -0.04, 192.0, 0.0, 0.0, 0.0, 0.0, 0.0, 0.0, 0.0, 0.0, 0.0, 1.6664044379343615E9, 0.0, 2022-10-21 19:07:17.934
71.0, -129391.03000057102, -157123.17462243733, -33745.68030186657, -140081.69055958875, 66991.73205992366, -98193.35915963164, 54495.72110125078, -111514.66357882782, 0.016, 0.962, -0.04, 192.0, 0.0, 0.0, 0.0, 0.0, 0.0, 0.0, 0.0, 0.0, 0.0, 1.6664044379343758E9, 0.0, 2022-10-21 19:07:17.934
72.0, -129402.71996292115, -157138.50791913367, -33746.14968850013, -140096.2638969736, 66989.38512675585, -98200.7799387908, 54490.04375815913, -111520.2738666861, 0.016, 0.962, -0.04, 192.0, 0.0, 0.0, 0.0, 0.0, 0.0, 0.0, 0.0, 0.0, 0.0, 1.6664044379343903E9, 0.0, 2022-10-21 19:07:17.934
73.0, -129424.89289342081, -157160.68084963333, -33751.402348447125, -140101.44950168722, 66990.6591761898, -98219.17542447752, 54470.93301664985, -111524.23012545469, 0.016, 0.962, -0.04, 192.0, 0.0, 0.0, 0.0, 0.0, 0.0, 0.0, 0.0, 0.0, 0.0, 1.6664044379344049E9, 0.0, 2022-10-21 19:07:17.934
74.0, -129447.95989369869, -157183.74784991122, -33752.944618814545, -140094.90044056185, 66989.98862385614, -98227.35616294816, 54464.696879946816, -111523.20194520974, 0.016, 0.962, -0.04, 192.0, 0.0, 0.0, 0.0, 0.0, 0.0, 0.0, 0.0, 0.0, 0.0, 1.666404437934433E9, 0.0, 2022-10-21 19:07:17.934
75.0, -129469.08229220896, -157206.32311181107, -33752.34112171425, -140082.94225727825, 66995.3083390365, -98200.01997947932, 54487.607418013504, -111515.2223724392, 0.016, 0.962, -0.04, 192.0, 0.0, 0.0, 0.0, 0.0, 0.0, 0.0, 0.0, 0.0, 0.0, 1.6664044379344487E9, 0.0, 2022-10-21 19:07:17.934
76.0, -129490.94229828625, -157228.9207254554, -33758.44314795055, -140088.57489688098, 66988.22283604418, -98193.80619452074, 54487.58506626905, -111525.68298884429, 0.016, 0.962, -0.04, 192.0, 0.0, 0.0, 0.0, 0.0, 0.0, 0.0, 0.0, 0.0, 0.0, 1.6664044379344633E9, 0.0, 2022-10-21 19:07:17.934
77.0, -129506.99085080516, -157245.90805124142, -33766.579182932284, -140103.23764124367, 66980.42207722928, -98229.65839262705, 54457.857246143496, -111532.96965753671, 0.016, 0.962, -0.04, 192.0, 0.0, 0.0, 0.0, 0.0, 0.0, 0.0, 0.0, 0.0, 0.0, 1.6664044379344776E9, 0.0, 2022-10-21 19:07:17.934
78.0, -129512.75760087463, -157257.84388278055, -33765.84157536526, -140093.64874287235, 66984.08776331994, -98229.3901716936, 54458.326632777054, -111530.30979994652, 0.016, 0.962, -0.04, 192.0, 0.0, 0.0, 0.0, 0.0, 0.0, 0.0, 0.0, 0.0, 0.0, 1.666404437934492E9, 0.0, 2022-10-21 19:07:17.934
79.0, -129534.9752348632, -157282.9225400594, -33777.53153771538, -140099.6613621308, 66972.64367015882, -98210.63705809558, 54468.809600926594, -111536.74710234966, 0.012, 0.9540000000000001, -0.04, 192.0, 0.0, 96.0, 29.0, 208.0, 254.0, 192.0, 0.0, 0.0, 0.0, 1.6664044379345064E9, 0.0, 2022-10-21 19:07:17.934
80.0, -129549.16859259232, -157299.9322175899, -33785.8240349083, -140111.10545529192, 66963.09947527641, -98222.84111056819, 54464.003975868705, -111541.01628554062, 0.012, 0.9540000000000001, -0.04, 192.0, 0.0, 0.0, 0.0, 0.0, 0.0, 0.0, 0.0, 0.0, 0.0, 1.6664044379345229E9, 0.0, 2022-10-21 19:07:17.934
81.0, -129555.33767406199, -157310.7281101618, -33787.65687795364, -140108.75852212412, 66973.7612573816, -98234.10638977366, 54458.326632777054, -111534.60133488195, 0.012, 0.9540000000000001, -0.04, 192.0, 0.0, 0.0, 0.0, 0.0, 0.0, 0.0, 0.0, 0.0, 0.0, 1.6664044379345372E9, 0.0, 2022-10-21 19:07:17.934
82.0, -129555.71765371773, -157313.09739507406, -33781.890127884166, -140096.0627312735, 66985.63003368737, -98227.17734899251, 54465.09921134701, -111525.39241616636, 0.012, 0.9540000000000001, -0.04, 192.0, 0.0, 0.0, 0.0, 0.0, 0.0, 0.0, 0.0, 0.0, 0.0, 1.6664044379345517E9, 0.0, 2022-10-21 19:07:17.934
83.0, -129553.54953450555, -157313.07504332962, -33776.68217142608, -140087.59142012495, 66990.23449304515, -98221.07532275622, 54473.9057986624, -111520.13975621936, 0.012, 0.9540000000000001, -0.04, 192.0, 0.0, 0.0, 0.0, 0.0, 0.0, 0.0, 0.0, 0.0, 0.0, 1.666404437934566E9, 0.0, 2022-10-21 19:07:17.934
84.0, -129568.72636899071, -157329.16829933744, -33782.20305230654, -140104.2211179997, 66977.42694347227, -98213.60984010814, 54477.12444986397, -111529.9298202908, 0.012, 0.9540000000000001, -0.04, 192.0, 0.0, 0.0, 0.0, 0.0, 0.0, 0.0, 0.0, 0.0, 0.0, 1.6664044379345815E9, 0.0, 2022-10-21 19:07:17.934
85.0, -129576.43772082779, -157336.1867470964, -33779.654953438636, -140115.68756290528, 66976.24230101613, -98234.0393345403, 54463.91456889088, -111531.06975925801, 0.012, 0.9540000000000001, -0.04, 192.0, 0.0, 0.0, 0.0, 0.0, 0.0, 0.0, 0.0, 0.0, 0.0, 1.6664044379345956E9, 0.0, 2022-10-21 19:07:17.934
86.0, -129569.55338353556, -157330.59881098257, -33768.79200563336, -140101.60596389842, 66988.64751918883, -98254.3347185057, 54453.63276644144, -111523.8724975434, 0.012, 0.9540000000000001, -0.04, 192.0, 0.0, 0.0, 0.0, 0.0, 0.0, 0.0, 0.0, 0.0, 0.0, 1.66640443793461E9, 0.0, 2022-10-21 19:07:17.934
87.0, -129576.84005222798, -157338.35486630857, -33770.11075855622, -140088.97722828118, 66989.92156862278, -98228.74197110439, 54470.44127827183, -111529.46043365722, 0.012, 0.9540000000000001, -0.04, 192.0, 0.0, 0.0, 0.0, 0.0, 0.0, 0.0, 0.0, 0.0, 0.0, 1.6664044379346247E9, 0.0, 2022-10-21 19:07:17.934
88.0, -129585.15490116537, -157346.80382571268, -33776.25748828143, -140097.94027780776, 66978.94686209522, -98226.66325887004, 54471.08947886104, -111535.07072151551, 0.012, 0.9540000000000001, -0.038, 192.0, 0.0, 96.0, 29.0, 208.0, 254.0, 208.0, 0.0, 0.0, 0.0, 1.6664044379346392E9, 0.0, 2022-10-21 19:07:17.934
89.0, -129582.96443020874, -157345.641535001, -33771.0718835678, -140091.72649284918, 66983.08193481946, -98236.87800608612, 54465.92622589186, -111526.51000338912, 0.012, 0.9540000000000001, -0.038, 192.0, 0.0, 0.0, 0.0, 0.0, 0.0, 0.0, 0.0, 0.0, 0.0, 1.6664044379346976E9, 0.0, 2022-10-21 19:07:17.934
1.0, -129566.60295326746, -157275.99349927827, -33921.94615864112, -140123.35421125343, 67010.84280143295, -98567.77323100249, 54401.39673964939, -111537.14943374986, 0.012, 0.9540000000000001, -0.038, 192.0, 0.0, 0.0, 0.0, 0.0, 0.0, 0.0, 0.0, 0.0, 0.0, 1.6664044385302453E9, 0.0, 2022-10-21 19:07:18.530
2.0, -129538.99854886516, -157248.18792917585, -33915.821780660364, -140105.85279534492, 67015.22374334619, -98567.16973390219, 54403.56485886155, -111531.53914589157, 0.012, 0.9540000000000001, -0.038, 192.0, 0.0, 0.0, 0.0, 0.0, 0.0, 0.0, 0.0, 0.0, 0.0, 1.6664044385303116E9, 0.0, 2022-10-21 19:07:18.530
3.0, -129539.08795584297, -157253.93232750086, -33929.188123844644, -140123.95770835373, 66994.79424891404, -98550.98707091656, 54410.71741708725, -111546.4254076988, 0.012, 0.9540000000000001, -0.038, 192.0, 0.0, 0.0, 0.0, 0.0, 0.0, 0.0, 0.0, 0.0, 0.0, 1.6664044385303388E9, 0.0, 2022-10-21 19:07:18.530
4.0, -129522.1676852903, -157236.2744493812, -33925.209513331596, -140132.85370264694, 66995.64361520334, -98553.66928025118, 54409.756292075675, -111543.11734951942, 0.012, 0.9540000000000001, -0.038, 192.0, 0.0, 0.0, 0.0, 0.0, 0.0, 0.0, 0.0, 0.0, 0.0, 1.6664044385303657E9, 0.0, 2022-10-21 19:07:18.530
5.0, -129505.31446997101, -157220.13648988443, -33918.68280395064, -140132.98781311366, 66999.9127983943, -98575.30576888392, 54396.613466335955, -111538.78111109509, 0.012, 0.9540000000000001, -0.038, 192.0, 0.0, 0.0, 0.0, 0.0, 0.0, 0.0, 0.0, 0.0, 0.0, 1.6664044385303905E9, 0.0, 2022-10-21 19:07:18.530
6.0, -129490.1599872303, -157204.4455652768, -33913.81012365939, -140123.64478393135, 67002.23737981766, -98582.72654804308, 54393.55127734558, -111538.66935237282, 0.012, 0.9540000000000001, -0.038, 192.0, 0.0, 0.0, 0.0, 0.0, 0.0, 0.0, 0.0, 0.0, 0.0, 1.6664044385304153E9, 0.0, 2022-10-21 19:07:18.530
7.0, -129482.62744934887, -157196.24247506174, -33921.72264119657, -140124.74001940966, 66995.17422856978, -98571.37186185979, 54403.38604490591, -111547.18536701029, 0.02, 0.9540000000000001, -0.026000000000000002, 192.0, 0.0, 160.0, 29.0, 208.0, 255.0, 48.0, 0.0, 0.0, 0.0, 1.66640443853045E9, 0.0, 2022-10-21 19:07:18.530
8.0, -129468.43409161975, -157185.29012027863, -33920.24742606252, -140128.36100201143, 66994.63778670285, -98562.18529488865, 54410.40449266488, -111546.13483502089, 0.02, 0.9540000000000001, -0.026000000000000002, 192.0, 0.0, 0.0, 0.0, 0.0, 0.0, 0.0, 0.0, 0.0, 0.0, 1.6664044385304763E9, 0.0, 2022-10-21 19:07:18.530
9.0, -129440.38265232834, -157160.68084963333, -33908.75862941249, -140127.8245601445, 67003.19850482923, -98585.20759167762, 54397.59694309199, -111543.51968091962, 0.02, 0.9540000000000001, -0.026000000000000002, 192.0, 0.0, 0.0, 0.0, 0.0, 0.0, 0.0, 0.0, 0.0, 0.0, 1.6664044385305007E9, 0.0, 2022-10-21 19:07:18.530
10.0, -129423.17180909775, -157145.77223608163, -33901.650774675705, -140112.55831868152, 67013.52501076758, -98601.07733024089, 54393.39481513439, -111536.52358490511, 0.02, 0.9540000000000001, -0.026000000000000002, 192.0, 0.0, 0.0, 0.0, 0.0, 0.0, 0.0, 0.0, 0.0, 0.0, 1.6664044385305247E9, 0.0, 2022-10-21 19:07:18.530
11.0, -129425.00465214309, -157151.47193091773, -33911.1055625803, -140108.78087386859, 67006.84183917545, -98588.53800160147, 54402.4919751277, -111545.1290065204, 0.02, 0.9540000000000001, -0.026000000000000002, 192.0, 0.0, 0.0, 0.0, 0.0, 0.0, 0.0, 0.0, 0.0, 0.0, 1.6664044385305493E9, 0.0, 2022-10-21 19:07:18.530
12.0, -129421.0930968634, -157151.5389861511, -33909.80916140189, -140111.6642489033, 67004.5172577521, -98580.17844917518, 54405.91179202936, -111548.86174784444, 0.02, 0.9540000000000001, -0.026000000000000002, 192.0, 0.0, 0.0, 0.0, 0.0, 0.0, 0.0, 0.0, 0.0, 0.0, 1.6664044385305738E9, 0.0, 2022-10-21 19:07:18.530
13.0, -129411.37008802535, -157145.5487186371, -33902.25427177599, -140116.35811523892, 67008.38410954287, -98586.12401320029, 54400.457966382266, -111546.53716642108, 0.02, 0.9540000000000001, -0.026000000000000002, 192.0, 0.0, 0.0, 0.0, 0.0, 0.0, 0.0, 0.0, 0.0, 0.0, 1.666404438530597E9, 0.0, 2022-10-21 19:07:18.530
14.0, -129398.38372449682, -157134.26108768716, -33898.141550796216, -140114.1229407934, 67009.72521421018, -98598.95391451764, 54394.26653316814, -111544.41375069783, 0.02, 0.9540000000000001, -0.026000000000000002, 192.0, 0.0, 0.0, 0.0, 0.0, 0.0, 0.0, 0.0, 0.0, 0.0, 1.6664044385306149E9, 0.0, 2022-10-21 19:07:18.530
15.0, -129393.39928548329, -157128.89666901788, -33900.95787059759, -140110.43490295828, 67004.29374030755, -98599.84798429585, 54398.46866112574, -111548.3253059775, 0.02, 0.9540000000000001, -0.026000000000000002, 192.0, 0.0, 0.0, 0.0, 0.0, 0.0, 0.0, 0.0, 0.0, 0.0, 1.6664044385307047E9, 0.0, 2022-10-21 19:07:18.530
16.0, -129382.71515163365, -157118.10077644596, -33899.66146941918, -140105.00342905562, 67003.17615308477, -98577.9656264741, 54417.75821659067, -111542.91618381932, 0.02, 0.9540000000000001, -0.026000000000000002, 192.0, 0.0, 0.0, 0.0, 0.0, 0.0, 0.0, 0.0, 0.0, 0.0, 1.6664044385307229E9, 0.0, 2022-10-21 19:07:18.530
17.0, -129369.75113984957, -157104.84619198396, -33887.27860299094, -140099.75076910862, 67013.79323170104, -98581.67601605368, 54417.40058867939, -111529.1251574904, 0.018000000000000002, 0.962, -0.024, 192.0, 0.0, 144.0, 30.0, 16.0, 255.0, 64.0, 0.0, 0.0, 0.0, 1.6664044385307412E9, 0.0, 2022-10-21 19:07:18.530
18.0, -129372.61216313984, -157107.52840131862, -33885.13283552323, -140104.98107731118, 67014.10615612342, -98595.4670423826, 54403.96719026175, -111520.318570175, 0.018000000000000002, 0.962, -0.024, 192.0, 0.0, 0.0, 0.0, 0.0, 0.0, 0.0, 0.0, 0.0, 0.0, 1.6664044385307605E9, 0.0, 2022-10-21 19:07:18.530
19.0, -129379.29533473199, -157115.84325025597, -33890.318440236864, -140109.8761093469, 67004.22668507417, -98589.02973997948, 54408.37048391945, -111525.5265266331, 0.018000000000000002, 0.962, -0.024, 192.0, 0.0, 0.0, 0.0, 0.0, 0.0, 0.0, 0.0, 0.0, 0.0, 1.666404438530779E9, 0.0, 2022-10-21 19:07:18.530
20.0, -129384.4362359567, -157121.34177939198, -33892.30774549338, -140114.90525184933, 67000.78451642806, -98587.21924867861, 54412.57261187704, -111540.05516052904, 0.018000000000000002, 0.962, -0.024, 192.0, 0.0, 0.0, 0.0, 0.0, 0.0, 0.0, 0.0, 0.0, 0.0, 1.6664044385307965E9, 0.0, 2022-10-21 19:07:18.530
21.0, -129388.01251506955, -157123.75576779316, -33895.638155417226, -140123.24245253115, 67002.23737981766, -98610.80033907895, 54393.28305641211, -111551.56630892353, 0.018000000000000002, 0.962, -0.024, 192.0, 0.0, 0.0, 0.0, 0.0, 0.0, 0.0, 0.0, 0.0, 0.0, 1.6664044385308146E9, 0.0, 2022-10-21 19:07:18.530
22.0, -129376.79193935299, -157113.85394499946, -33885.82573960134, -140112.7147808927, 67015.22374334619, -98603.98305702009, 54397.86516402545, -111543.31851521952, 0.018000000000000002, 0.962, -0.024, 192.0, 0.0, 0.0, 0.0, 0.0, 0.0, 0.0, 0.0, 0.0, 0.0, 1.6664044385308323E9, 0.0, 2022-10-21 19:07:18.530
23.0, -129375.85316608587, -157113.36220662144, -33879.18727149812, -140105.1598912668, 67015.93899916876, -98587.48746961207, 54413.019646766144, -111536.94826804976, 0.018000000000000002, 0.962, -0.024, 192.0, 0.0, 0.0, 0.0, 0.0, 0.0, 0.0, 0.0, 0.0, 0.0, 1.6664044385308504E9, 0.0, 2022-10-21 19:07:18.530
24.0, -129381.59756441088, -157117.89961074587, -33883.29999247789, -140109.04909480203, 67008.42881303177, -98579.99963521953, 54420.88746081442, -111536.74710234966, 0.018000000000000002, 0.962, -0.024, 192.0, 0.0, 0.0, 0.0, 0.0, 0.0, 0.0, 0.0, 0.0, 0.0, 1.6664044385308688E9, 0.0, 2022-10-21 19:07:18.530
25.0, -129381.77637836653, -157118.92779099083, -33883.054123288886, -140118.79445538454, 67004.47255426318, -98582.68184455417, 54415.612449122964, -111541.99976229666, 0.018000000000000002, 0.962, -0.024, 192.0, 0.0, 0.0, 0.0, 0.0, 0.0, 0.0, 0.0, 0.0, 0.0, 1.6664044385308864E9, 0.0, 2022-10-21 19:07:18.530
26.0, -129380.61408765485, -157119.4865846022, -33884.46228318957, -140123.2871560201, 67002.12562109537, -98599.28919068447, 54399.876821026424, -111543.72084661972, 0.018000000000000002, 0.962, -0.024, 192.0, 0.0, 0.0, 0.0, 0.0, 0.0, 0.0, 0.0, 0.0, 0.0, 1.666404438530904E9, 0.0, 2022-10-21 19:07:18.530
27.0, -129373.50623291807, -157111.39525310937, -33881.645963388204, -140110.7701791251, 67003.77965018507, -98600.78675756298, 54398.982751248215, -111539.87634657341, 0.022, 0.9500000000000001, -0.026000000000000002, 192.0, 0.0, 176.0, 29.0, 176.0, 255.0, 48.0, 0.0, 0.0, 0.0, 1.6664044385309217E9, 0.0, 2022-10-21 19:07:18.530
28.0, -129372.18747999519, -157111.46230834274, -33881.020114543455, -140113.9217750933, 66996.29181579255, -98607.2240599661, 54400.323855915536, -111542.60325939694, 0.022, 0.9500000000000001, -0.026000000000000002, 192.0, 0.0, 0.0, 0.0, 0.0, 0.0, 0.0, 0.0, 0.0, 0.0, 1.6664044385309412E9, 0.0, 2022-10-21 19:07:18.530
29.0, -129373.52858466252, -157113.67513104383, -33879.14256800921, -140117.20748152822, 66997.83408615996, -98613.41549318022, 54403.00606525017, -111542.11152101893, 0.022, 0.9500000000000001, -0.026000000000000002, 192.0, 0.0, 0.0, 0.0, 0.0, 0.0, 0.0, 0.0, 0.0, 0.0, 1.6664044385309615E9, 0.0, 2022-10-21 19:07:18.530
30.0, -129364.74434909158, -157102.2310378827, -33868.61489637076, -140108.9149843353, 67007.80296418702, -98623.42907469619, 54396.79228029159, -111534.19900348176, 0.022, 0.9500000000000001, -0.026000000000000002, 192.0, 0.0, 0.0, 0.0, 0.0, 0.0, 0.0, 0.0, 0.0, 0.0, 1.6664044385309985E9, 0.0, 2022-10-21 19:07:18.530
31.0, -129363.78322408, -157102.34279660496, -33867.452605659084, -140110.01021981362, 67006.37245254188, -98641.62339468281, 54382.978902218216, -111530.57802088, 0.022, 0.9500000000000001, -0.026000000000000002, 192.0, 0.0, 0.0, 0.0, 0.0, 0.0, 0.0, 0.0, 0.0, 0.0, 1.6664044385310168E9, 0.0, 2022-10-21 19:07:18.531
32.0, -129369.48291891611, -157108.9365612193, -33872.973486539544, -140117.98979258418, 66997.4094030153, -98629.70991488814, 54391.47256511123, -111535.85303257145, 0.022, 0.9500000000000001, -0.026000000000000002, 192.0, 0.0, 0.0, 0.0, 0.0, 0.0, 0.0, 0.0, 0.0, 0.0, 1.6664044385310352E9, 0.0, 2022-10-21 19:07:18.531
33.0, -129370.35463694987, -157108.62363679692, -33871.67708536114, -140118.74975189564, 66999.7116326942, -98611.31442920142, 54400.94970476028, -111538.53524190608, 0.022, 0.9500000000000001, -0.026000000000000002, 192.0, 0.0, 0.0, 0.0, 0.0, 0.0, 0.0, 0.0, 0.0, 0.0, 1.6664044385310533E9, 0.0, 2022-10-21 19:07:18.531
34.0, -129372.27688697302, -157109.76357576414, -33869.911297549166, -140125.70114442124, 66999.59987397192, -98629.21817651013, 54381.95072197327, -111541.08334077398, 0.022, 0.9500000000000001, -0.026000000000000002, 192.0, 0.0, 0.0, 0.0, 0.0, 0.0, 0.0, 0.0, 0.0, 0.0, 1.6664044385310717E9, 0.0, 2022-10-21 19:07:18.531
35.0, -129367.82888982641, -157104.6897297728, -33866.8938120477, -140120.64965017434, 67002.48324900666, -98640.86343537134, 54372.540637557584, -111539.49636691767, 0.022, 0.9500000000000001, -0.026000000000000002, 192.0, 0.0, 0.0, 0.0, 0.0, 0.0, 0.0, 0.0, 0.0, 0.0, 1.6664044385310895E9, 0.0, 2022-10-21 19:07:18.531
36.0, -129373.26036372906, -157111.4846600872, -33872.86172781727, -140113.6312024154, 66995.9118361368, -98613.59430713586, 54387.35984413145, -111545.01724779813, 0.022, 0.9500000000000001, -0.026000000000000002, 192.0, 0.0, 0.0, 0.0, 0.0, 0.0, 0.0, 0.0, 0.0, 0.0, 1.666404438531108E9, 0.0, 2022-10-21 19:07:18.531
37.0, -129374.35559920737, -157113.78688976608, -33872.74996909499, -140120.7167054077, 66989.42983024476, -98600.9208680297, 54397.798108792085, -111545.55368966504, 0.016, 0.9540000000000001, -0.032, 192.0, 0.0, 128.0, 29.0, 208.0, 255.0, 0.0, 0.0, 0.0, 0.0, 1.6664044385311255E9, 0.0, 2022-10-21 19:07:18.531
38.0, -129377.01545679754, -157114.16686942184, -33876.03567552992, -140135.46885674822, 66983.59602494193, -98608.18518497769, 54390.6902540553, -111550.09109378948, 0.016, 0.9540000000000001, -0.032, 192.0, 0.0, 0.0, 0.0, 0.0, 0.0, 0.0, 0.0, 0.0, 0.0, 1.6664044385311444E9, 0.0, 2022-10-21 19:07:18.531
39.0, -129369.92995380521, -157106.96960770723, -33866.58088762533, -140133.0772200915, 66986.81467614349, -98626.42420845322, 54384.11884118544, -111540.72571286271, 0.016, 0.9540000000000001, -0.032, 192.0, 0.0, 0.0, 0.0, 0.0, 0.0, 0.0, 0.0, 0.0, 0.0, 1.6664044385311618E9, 0.0, 2022-10-21 19:07:18.531
40.0, -129364.43142466921, -157102.11927916043, -33860.970599767046, -140121.34255425245, 66990.4580104897, -98617.61762113782, 54394.62416107943, -111541.10569251844, 0.016, 0.9540000000000001, -0.032, 192.0, 0.0, 0.0, 0.0, 0.0, 0.0, 0.0, 0.0, 0.0, 0.0, 1.6664044385311797E9, 0.0, 2022-10-21 19:07:18.531
41.0, -129358.46350889964, -157095.078479657, -33858.42250089914, -140113.05005705953, 66993.38608901335, -98592.67307432569, 54412.37144617694, -111533.34963719246, 0.016, 0.9540000000000001, -0.032, 192.0, 0.0, 0.0, 0.0, 0.0, 0.0, 0.0, 0.0, 0.0, 0.0, 1.6664044385311973E9, 0.0, 2022-10-21 19:07:18.531
42.0, -129357.4800321436, -157094.31852034552, -33857.70724507657, -140126.14817931034, 66987.57463545498, -98607.71579834411, 54396.255838424666, -111535.33894244897, 0.016, 0.9540000000000001, -0.032, 192.0, 0.0, 0.0, 0.0, 0.0, 0.0, 0.0, 0.0, 0.0, 0.0, 1.666404438531216E9, 0.0, 2022-10-21 19:07:18.531
43.0, -129354.77547106451, -157090.3399098325, -33849.99589323949, -140118.21331002872, 66991.28502503455, -98626.11128403083, 54381.97307371772, -111536.4788814162, 0.016, 0.9540000000000001, -0.032, 192.0, 0.0, 0.0, 0.0, 0.0, 0.0, 0.0, 0.0, 0.0, 0.0, 1.6664044385312335E9, 0.0, 2022-10-21 19:07:18.531
44.0, -129355.04369199798, -157092.2845116001, -33849.39239613919, -140114.8158448715, 66988.64751918883, -98639.20940628165, 54374.932274214305, -111533.59550638146, 0.016, 0.9540000000000001, -0.032, 192.0, 0.0, 0.0, 0.0, 0.0, 0.0, 0.0, 0.0, 0.0, 0.0, 1.6664044385312512E9, 0.0, 2022-10-21 19:07:18.531
45.0, -129365.4372531697, -157104.66737802833, -33855.67323633114, -140122.8848246199, 66986.52410346558, -98612.11909200181, 54393.61833257894, -111539.27284947311, 0.016, 0.9540000000000001, -0.032, 192.0, 0.0, 0.0, 0.0, 0.0, 0.0, 0.0, 0.0, 0.0, 0.0, 1.6664044385312853E9, 0.0, 2022-10-21 19:07:18.531
46.0, -129370.86872707233, -157109.89768623086, -33861.28352418942, -140134.57478697, 66980.04209757353, -98603.13369073079, 54393.752443045676, -111544.63726814238, 0.016, 0.962, -0.034, 192.0, 0.0, 128.0, 30.0, 16.0, 254.0, 240.0, 0.0, 0.0, 0.0, 1.6664044385313027E9, 0.0, 2022-10-21 19:07:18.531
47.0, -129361.59275312338, -157102.834534983, -33854.98033225302, -140134.5300834811, 66984.89242612034, -98627.58649916489, 54377.12274517093, -111539.27284947311, 0.016, 0.962, -0.034, 192.0, 0.0, 0.0, 0.0, 0.0, 0.0, 0.0, 0.0, 0.0, 0.0, 1.666404438531322E9, 0.0, 2022-10-21 19:07:18.531
48.0, -129354.0825669864, -157097.9395029473, -33850.465279873046, -140122.81776938651, 66986.4123447433, -98623.87610958531, 54380.67667253932, -111537.9764482947, 0.016, 0.962, -0.034, 192.0, 0.0, 0.0, 0.0, 0.0, 0.0, 0.0, 0.0, 0.0, 0.0, 1.66640443853134E9, 0.0, 2022-10-21 19:07:18.531
49.0, -129349.0310727395, -157096.5760465355, -33845.25732341496, -140113.2288710152, 66992.84964714643, -98599.11037672883, 54402.268457683145, -111527.69464584526, 0.016, 0.962, -0.034, 192.0, 0.0, 0.0, 0.0, 0.0, 0.0, 0.0, 0.0, 0.0, 0.0, 1.6664044385313573E9, 0.0, 2022-10-21 19:07:18.531
50.0, -129352.49559313008, -157099.4817733147, -33847.91718100514, -140119.48735946268, 66992.5590744685, -98606.44174891016, 54397.59694309199, -111531.94147729177, 0.016, 0.962, -0.034, 192.0, 0.0, 0.0, 0.0, 0.0, 0.0, 0.0, 0.0, 0.0, 0.0, 1.6664044385313773E9, 0.0, 2022-10-21 19:07:18.531
51.0, -129355.22250595361, -157100.80052623755, -33854.734463064015, -140130.2832520346, 66989.04985058903, -98639.05294407046, 54372.831210235505, -111543.22910824169, 0.016, 0.962, -0.034, 192.0, 0.0, 0.0, 0.0, 0.0, 0.0, 0.0, 0.0, 0.0, 0.0, 1.6664044385313947E9, 0.0, 2022-10-21 19:07:18.531
52.0, -129361.45864265665, -157107.61780829643, -33860.523564877934, -140129.83621714546, 66986.25588253212, -98632.41447596723, 54376.00515794816, -111549.80052111155, 0.016, 0.962, -0.034, 192.0, 0.0, 0.0, 0.0, 0.0, 0.0, 0.0, 0.0, 0.0, 0.0, 1.6664044385314124E9, 0.0, 2022-10-21 19:07:18.531
53.0, -129370.15347124977, -157118.54781133507, -33867.318495192354, -140130.70793517923, 66978.43277197276, -98615.31539145892, 54386.4881260977, -111557.86950085992, 0.016, 0.962, -0.034, 192.0, 0.0, 0.0, 0.0, 0.0, 0.0, 0.0, 0.0, 0.0, 0.0, 1.66640443853143E9, 0.0, 2022-10-21 19:07:18.531
54.0, -129366.35367469236, -157116.64791305637, -33866.78205332542, -140132.60783345794, 66978.41042022829, -98615.38244669228, 54386.51047784215, -111555.12023629193, 0.016, 0.962, -0.034, 192.0, 0.0, 0.0, 0.0, 0.0, 0.0, 0.0, 0.0, 0.0, 0.0, 1.6664044385314476E9, 0.0, 2022-10-21 19:07:18.531
55.0, -129355.42367165371, -157105.09206117297, -33856.65671308717, -140131.84787414645, 66988.40164999983, -98638.24828127006, 54375.28990212559, -111543.38557045288, 0.016, 0.962, -0.034, 192.0, 0.0, 0.0, 0.0, 0.0, 0.0, 0.0, 0.0, 0.0, 0.0, 1.666404438531466E9, 0.0, 2022-10-21 19:07:18.531
56.0, -129358.86584029984, -157110.45647984225, -33856.50025087598, -140129.79151365656, 66989.25101628913, -98655.88380764531, 54365.25396886516, -111547.96767806623, 0.016, 0.962, -0.028, 192.0, 0.0, 128.0, 30.0, 16.0, 255.0, 32.0, 0.0, 0.0, 0.0, 1.6664044385314803E9, 0.0, 2022-10-21 19:07:18.531
57.0, -129351.55681986295, -157104.62267453942, -33844.385605381205, -140115.0170105716, 66998.92932163826, -98629.17347302122, 54389.21503892125, -111533.10376800345, 0.016, 0.962, -0.028, 192.0, 0.0, 0.0, 0.0, 0.0, 0.0, 0.0, 0.0, 0.0, 0.0, 1.666404438531495E9, 0.0, 2022-10-21 19:07:18.531
58.0, -129333.67542429871, -157086.9200929308, -33826.8841894727, -140090.2065742262, 67021.66104574932, -98606.48645239907, 54410.158623475865, -111518.3739684074, 0.016, 0.962, -0.028, 192.0, 0.0, 0.0, 0.0, 0.0, 0.0, 0.0, 0.0, 0.0, 0.0, 1.6664044385315092E9, 0.0, 2022-10-21 19:07:18.531
59.0, -129349.25459018405, -157105.71791001773, -33840.7869745239, -140122.59425194195, 67001.79034492855, -98621.79739735097, 54387.80687902056, -111536.56828839402, 0.016, 0.962, -0.028, 192.0, 0.0, 0.0, 0.0, 0.0, 0.0, 0.0, 0.0, 0.0, 0.0, 1.666404438531523E9, 0.0, 2022-10-21 19:07:18.531
60.0, -129355.15545072025, -157110.4341280978, -33847.961884494056, -140136.89936839335, 66991.6650046903, -98643.47858947261, 54369.52315205612, -111541.50802391864, 0.016, 0.962, -0.028, 192.0, 0.0, 0.0, 0.0, 0.0, 0.0, 0.0, 0.0, 0.0, 0.0, 1.6664044385315497E9, 0.0, 2022-10-21 19:07:18.531
61.0, -129354.17197396421, -157107.30488387405, -33845.59259958179, -140122.25897577513, 66996.9623681262, -98621.39506595077, 54389.79618427708, -111541.73154136319, 0.016, 0.962, -0.028, 192.0, 0.0, 0.0, 0.0, 0.0, 0.0, 0.0, 0.0, 0.0, 0.0, 1.666404438531564E9, 0.0, 2022-10-21 19:07:18.531
62.0, -129344.20309593715, -157100.84522972646, -33839.06589020084, -140115.8663768609, 67005.00899613011, -98603.89365004226, 54405.420053651345, -111531.24857321366, 0.016, 0.962, -0.028, 192.0, 0.0, 0.0, 0.0, 0.0, 0.0, 0.0, 0.0, 0.0, 0.0, 1.666404438531578E9, 0.0, 2022-10-21 19:07:18.531
63.0, -129344.91835175973, -157101.51578206013, -33840.87638150172, -140122.59425194195, 67006.30539730852, -98612.99081003557, 54395.42882387982, -111538.22231748371, 0.016, 0.962, -0.028, 192.0, 0.0, 0.0, 0.0, 0.0, 0.0, 0.0, 0.0, 0.0, 0.0, 1.666404438531592E9, 0.0, 2022-10-21 19:07:18.531
64.0, -129340.33624414638, -157098.7888692366, -33838.06006170035, -140123.80124614254, 67007.57944674247, -98633.9343945902, 54382.75538477366, -111540.81511984052, 0.016, 0.962, -0.028, 192.0, 0.0, 0.0, 0.0, 0.0, 0.0, 0.0, 0.0, 0.0, 0.0, 1.666404438531606E9, 0.0, 2022-10-21 19:07:18.531
65.0, -129339.41982262372, -157096.75486049114, -33837.45656460006, -140122.75071415314, 67004.22668507417, -98640.66226967124, 54384.40941386335, -111540.32338146251, 0.016, 0.962, -0.028, 192.0, 0.0, 0.0, 0.0, 0.0, 0.0, 0.0, 0.0, 0.0, 0.0, 1.6664044385316205E9, 0.0, 2022-10-21 19:07:18.531
66.0, -129344.31485465943, -157102.49925881615, -33842.0386722134, -140123.7341909092, 67001.1197925949, -98612.54377514646, 54403.76602456165, -111545.35252396495, 0.022, 0.9480000000000001, -0.022, 192.0, 0.0, 176.0, 29.0, 160.0, 255.0, 80.0, 0.0, 0.0, 0.0, 1.6664044385316348E9, 0.0, 2022-10-21 19:07:18.531
67.0, -129347.89113377228, -157105.85202048445, -33842.86568675825, -140131.64670844635, 67000.87392340589, -98619.94220256117, 54395.16060294636, -111543.92201231982, 0.022, 0.9480000000000001, -0.022, 192.0, 0.0, 0.0, 0.0, 0.0, 0.0, 0.0, 0.0, 0.0, 0.0, 1.6664044385316525E9, 0.0, 2022-10-21 19:07:18.531
68.0, -129338.27988365649, -157095.81608722403, -33832.04744244188, -140123.06363857552, 67012.18390610027, -98631.90038584475, 54388.343320887485, -111530.9803522802, 0.022, 0.9480000000000001, -0.022, 192.0, 0.0, 0.0, 0.0, 0.0, 0.0, 0.0, 0.0, 0.0, 0.0, 1.6664044385316665E9, 0.0, 2022-10-21 19:07:18.531
69.0, -129336.84937201136, -157094.00559592314, -33830.236951141, -140114.0335338156, 67010.95456015522, -98637.15304579175, 54385.81757376404, -111532.76849183661, 0.022, 0.9480000000000001, -0.022, 192.0, 0.0, 0.0, 0.0, 0.0, 0.0, 0.0, 0.0, 0.0, 0.0, 1.6664044385316806E9, 0.0, 2022-10-21 19:07:18.531
70.0, -129337.51992434502, -157094.4749825567, -33831.46629708604, -140109.25026050213, 67010.95456015522, -98627.98883056508, 54398.08868147, -111531.31562844702, 0.022, 0.9480000000000001, -0.022, 192.0, 0.0, 0.0, 0.0, 0.0, 0.0, 0.0, 0.0, 0.0, 0.0, 1.6664044385316947E9, 0.0, 2022-10-21 19:07:18.531
71.0, -129329.58505506338, -157085.95896791923, -33819.95514869155, -140103.058827288, 67020.45405154873, -98626.02187705302, 54401.709664071765, -111530.71213134672, 0.022, 0.9480000000000001, -0.022, 192.0, 0.0, 0.0, 0.0, 0.0, 0.0, 0.0, 0.0, 0.0, 0.0, 1.6664044385317106E9, 0.0, 2022-10-21 19:07:18.531
72.0, -129339.75509879054, -157095.16788663482, -33829.3875848517, -140135.40180151485, 67005.00899613011, -98654.92268263373, 54372.94296895778, -111547.85591934394, 0.022, 0.9480000000000001, -0.022, 192.0, 0.0, 0.0, 0.0, 0.0, 0.0, 0.0, 0.0, 0.0, 0.0, 1.6664044385317245E9, 0.0, 2022-10-21 19:07:18.531
73.0, -129342.05732846944, -157096.0396046686, -33828.91819821813, -140129.65740318983, 67007.78061244257, -98654.92268263373, 54375.28990212559, -111540.99393379617, 0.022, 0.9480000000000001, -0.022, 192.0, 0.0, 0.0, 0.0, 0.0, 0.0, 0.0, 0.0, 0.0, 0.0, 1.6664044385317383E9, 0.0, 2022-10-21 19:07:18.531
74.0, -129349.6792733287, -157105.29322687307, -33835.35550062126, -140125.9246618658, 67003.44437401825, -98631.4757027001, 54393.93125700131, -111542.73736986368, 0.022, 0.9480000000000001, -0.022, 192.0, 0.0, 0.0, 0.0, 0.0, 0.0, 0.0, 0.0, 0.0, 0.0, 1.6664044385317523E9, 0.0, 2022-10-21 19:07:18.531
75.0, -129336.71526154462, -157092.7762499781, -33826.481858072504, -140123.15304555334, 67011.20042934423, -98636.01310682454, 54393.41716687884, -111528.25343945665, 0.024, 0.9500000000000001, -0.026000000000000002, 192.0, 0.0, 192.0, 29.0, 176.0, 255.0, 48.0, 0.0, 0.0, 0.0, 1.6664044385317793E9, 0.0, 2022-10-21 19:07:18.531
76.0, -129333.94364523217, -157087.6353487534, -33827.733555762, -140127.15400781084, 67013.41325204531, -98650.7876099095, 54381.48133533971, -111525.68298884429, 0.024, 0.9500000000000001, -0.026000000000000002, 192.0, 0.0, 0.0, 0.0, 0.0, 0.0, 0.0, 0.0, 0.0, 0.0, 1.6664044385317943E9, 0.0, 2022-10-21 19:07:18.531
77.0, -129340.69387205767, -157097.1348401469, -33828.11353541774, -140125.34351650995, 67008.5182200096, -98657.51548499054, 54376.3851376039, -111535.0260180266, 0.024, 0.9500000000000001, -0.026000000000000002, 192.0, 0.0, 0.0, 0.0, 0.0, 0.0, 0.0, 0.0, 0.0, 0.0, 1.6664044385318089E9, 0.0, 2022-10-21 19:07:18.531
78.0, -129344.15839244824, -157101.71694776023, -33827.77825925091, -140117.25218501713, 67005.70190020822, -98637.7341911476, 54388.365672631946, -111544.01141929763, 0.024, 0.9500000000000001, -0.026000000000000002, 192.0, 0.0, 0.0, 0.0, 0.0, 0.0, 0.0, 0.0, 0.0, 0.0, 1.6664044385318227E9, 0.0, 2022-10-21 19:07:18.531
79.0, -129345.05246222645, -157102.54396230506, -33829.45464008506, -140128.45040898924, 67002.99733912914, -98645.22202554012, 54385.348187130476, -111543.94436406427, 0.024, 0.9500000000000001, -0.026000000000000002, 192.0, 0.0, 0.0, 0.0, 0.0, 0.0, 0.0, 0.0, 0.0, 0.0, 1.6664044385318367E9, 0.0, 2022-10-21 19:07:18.531
80.0, -129342.43730812518, -157099.6382355259, -33825.163105149644, -140132.00433635764, 67007.9147229093, -98642.51746446104, 54385.92933248632, -111540.94923030726, 0.024, 0.9500000000000001, -0.026000000000000002, 192.0, 0.0, 0.0, 0.0, 0.0, 0.0, 0.0, 0.0, 0.0, 0.0, 1.666404438531851E9, 0.0, 2022-10-21 19:07:18.531
81.0, -129343.44313662568, -157100.10762215944, -33824.984291194, -140129.54564446755, 67004.9642926412, -98649.15593256426, 54379.42497484982, -111542.75972160813, 0.024, 0.9500000000000001, -0.026000000000000002, 192.0, 0.0, 0.0, 0.0, 0.0, 0.0, 0.0, 0.0, 0.0, 0.0, 1.6664044385318651E9, 0.0, 2022-10-21 19:07:18.531
82.0, -129342.95139824765, -157100.7334710042, -33823.71024176005, -140125.0305920876, 67002.19267632875, -98651.18994130968, 54384.32000688554, -111540.61395414043, 0.024, 0.9500000000000001, -0.026000000000000002, 192.0, 0.0, 0.0, 0.0, 0.0, 0.0, 0.0, 0.0, 0.0, 0.0, 1.6664044385318792E9, 0.0, 2022-10-21 19:07:18.531
83.0, -129337.11759294482, -157094.7432034902, -33817.78702947939, -140111.30662099202, 67011.17807759978, -98627.58649916489, 54402.44727163879, -111536.4788814162, 0.024, 0.9500000000000001, -0.026000000000000002, 192.0, 0.0, 0.0, 0.0, 0.0, 0.0, 0.0, 0.0, 0.0, 0.0, 1.6664044385318935E9, 0.0, 2022-10-21 19:07:18.531
84.0, -129337.07288945591, -157094.40792732334, -33816.73649748999, -140118.816807129, 67013.07797587848, -98631.14042653328, 54395.16060294636, -111538.28937271707, 0.024, 0.9500000000000001, -0.026000000000000002, 192.0, 0.0, 0.0, 0.0, 0.0, 0.0, 0.0, 0.0, 0.0, 0.0, 1.666404438531908E9, 0.0, 2022-10-21 19:07:18.531
85.0, -129341.29736915797, -157100.39819483735, -33824.87253247172, -140132.45137124675, 67005.07605136347, -98660.22004606963, 54375.66988178133, -111544.61491639793, 0.022, 0.9540000000000001, -0.022, 192.0, 0.0, 176.0, 29.0, 208.0, 255.0, 80.0, 0.0, 0.0, 0.0, 1.666404438531922E9, 0.0, 2022-10-21 19:07:18.531
86.0, -129345.52184886002, -157104.7344332617, -33826.10187841676, -140125.2317577877, 66999.30930129401, -98650.27351978702, 54387.00221622017, -111552.68389614629, 0.022, 0.9540000000000001, -0.022, 192.0, 0.0, 0.0, 0.0, 0.0, 0.0, 0.0, 0.0, 0.0, 0.0, 1.6664044385319371E9, 0.0, 2022-10-21 19:07:18.531
87.0, -129341.65499706924, -157099.3923663369, -33815.88713120069, -140113.94412683774, 67003.73494669616, -98636.16956903573, 54402.44727163879, -111545.19606175377, 0.022, 0.9540000000000001, -0.022, 192.0, 0.0, 0.0, 0.0, 0.0, 0.0, 0.0, 0.0, 0.0, 0.0, 1.6664044385319514E9, 0.0, 2022-10-21 19:07:18.531
88.0, -129344.1807441927, -157099.81704948153, -33813.45079105506, -140124.3823914984, 67001.812696673, -98656.62141521233, 54386.77869877562, -111529.54984063505, 0.022, 0.9540000000000001, -0.022, 192.0, 0.0, 0.0, 0.0, 0.0, 0.0, 0.0, 0.0, 0.0, 0.0, 1.6664044385319655E9, 0.0, 2022-10-21 19:07:18.531
89.0, -129342.75023254757, -157097.5371715471, -33809.74040147548, -140121.94605135274, 67011.35689155542, -98675.28512183251, 54374.75346025866, -111522.93372427628, 0.022, 0.9540000000000001, -0.022, 192.0, 0.0, 0.0, 0.0, 0.0, 0.0, 0.0, 0.0, 0.0, 0.0, 1.6664044385319798E9, 0.0, 2022-10-21 19:07:18.531
90.0, -129348.4275756392, -157106.32140711803, -33818.994023679974, -140115.91108034982, 67006.93124615327, -98655.48147624511, 54384.34235862999, -111536.12125350491, 0.022, 0.9540000000000001, -0.022, 192.0, 0.0, 0.0, 0.0, 0.0, 0.0, 0.0, 0.0, 0.0, 0.0, 1.666404438532007E9, 0.0, 2022-10-21 19:07:18.532
91.0, -129346.41591863823, -157105.29322687307, -33821.519770803425, -140113.40768497082, 67006.8641909199, -98640.97519409361, 54392.74661454518, -111542.08916927448, 0.022, 0.9540000000000001, -0.022, 192.0, 0.0, 0.0, 0.0, 0.0, 0.0, 0.0, 0.0, 0.0, 0.0, 1.6664044385320213E9, 0.0, 2022-10-21 19:07:18.532
92.0, -129339.03984296798, -157096.66545351333, -33824.3360906048, -140121.74488565265, 67002.70676645121, -98635.18609227969, 54390.466736610746, -111551.94628857927, 0.022, 0.9540000000000001, -0.022, 192.0, 0.0, 0.0, 0.0, 0.0, 0.0, 0.0, 0.0, 0.0, 0.0, 1.6664044385320356E9, 0.0, 2022-10-21 19:07:18.532
93.0, -129328.8250957519, -157085.80250570804, -33812.06498289883, -140116.49222570565, 67010.03813863256, -98658.49896174658, 54376.34043411499, -111547.61005015494, 0.022, 0.9540000000000001, -0.022, 192.0, 0.0, 0.0, 0.0, 0.0, 0.0, 0.0, 0.0, 0.0, 0.0, 1.666404438532051E9, 0.0, 2022-10-21 19:07:18.532
94.0, -129323.43832533817, -157079.25344458263, -33797.15636934714, -140096.5097661626, 67024.43266206178, -98657.20256056817, 54383.872971996425, -111528.0299220121, 0.022, 0.9540000000000001, -0.022, 192.0, 0.0, 0.0, 0.0, 0.0, 0.0, 0.0, 0.0, 0.0, 0.0, 1.6664044385320652E9, 0.0, 2022-10-21 19:07:18.532
95.0, -129337.58697957838, -157093.91618894532, -33802.34197406077, -140104.53404242208, 67016.52014452459, -98645.51259821805, 54394.04301572359, -111536.90356456085, 0.02, 0.96, -0.024, 192.0, 0.0, 160.0, 30.0, 0.0, 255.0, 64.0, 0.0, 0.0, 0.0, 1.6664044385320792E9, 0.0, 2022-10-21 19:07:18.532
96.0, -129342.9290465032, -157098.7888692366, -33808.71222123053, -140123.24245253115, 67010.88750492186, -98646.07139182942, 54392.07606221153, -111546.31364897653, 0.02, 0.96, -0.024, 192.0, 0.0, 0.0, 0.0, 0.0, 0.0, 0.0, 0.0, 0.0, 0.0, 1.6664044385320942E9, 0.0, 2022-10-21 19:07:18.532
97.0, -129333.0272237095, -157087.14361037538, -33807.21465435203, -140127.15400781084, 67007.57944674247, -98659.48243850261, 54380.43080335031, -111540.25632622914, 0.02, 0.96, -0.024, 192.0, 0.0, 0.0, 0.0, 0.0, 0.0, 0.0, 0.0, 0.0, 0.0, 1.666404438532108E9, 0.0, 2022-10-21 19:07:18.532
98.0, -129331.48495334208, -157086.4283545528, -33806.05236364035, -140119.19678678474, 67010.99926364413, -98665.76327869455, 54380.162582416844, -111536.25536397164, 0.02, 0.96, -0.024, 192.0, 0.0, 0.0, 0.0, 0.0, 0.0, 0.0, 0.0, 0.0, 0.0, 1.666404438532123E9, 0.0, 2022-10-21 19:07:18.532
99.0, -129330.79204926397, -157087.56829352002, -33804.86772118422, -140111.3736762254, 67013.07797587848, -98655.57088322293, 54392.03135872261, -111539.25049772866, 0.02, 0.96, -0.024, 192.0, 0.0, 0.0, 0.0, 0.0, 0.0, 0.0, 0.0, 0.0, 0.0, 1.6664044385321376E9, 0.0, 2022-10-21 19:07:18.532
100.0, -129336.31293014443, -157091.1222208884, -33810.478009042505, -140117.60981292842, 67007.71355720921, -98657.91781639073, 54389.66207381035, -111545.93366932079, 0.02, 0.96, -0.024, 192.0, 0.0, 0.0, 0.0, 0.0, 0.0, 0.0, 0.0, 0.0, 0.0, 1.6664044385321512E9, 0.0, 2022-10-21 19:07:18.532
101.0, -129331.79787776446, -157085.95896791923, -33805.02418339541, -140117.78862688408, 67014.91081892382, -98672.84878168689, 54378.93323647181, -111540.09986401796, 0.02, 0.96, -0.024, 192.0, 0.0, 0.0, 0.0, 0.0, 0.0, 0.0, 0.0, 0.0, 0.0, 1.6664044385321653E9, 0.0, 2022-10-21 19:07:18.532
102.0, -129336.40233712226, -157089.87052319892, -33807.125247374206, -140114.83819661598, 67015.46961253519, -98680.98481666861, 54377.63683529339, -111528.8792883014, 0.02, 0.96, -0.024, 192.0, 0.0, 0.0, 0.0, 0.0, 0.0, 0.0, 0.0, 0.0, 0.0, 1.666404438532179E9, 0.0, 2022-10-21 19:07:18.532
103.0, -129332.35667137583, -157087.25536909763, -33805.4265147956, -140104.0199522996, 67015.35785381292, -98672.66996773124, 54390.6902540553, -111528.25343945665, 0.02, 0.96, -0.024, 192.0, 0.0, 0.0, 0.0, 0.0, 0.0, 0.0, 0.0, 0.0, 0.0, 1.6664044385321932E9, 0.0, 2022-10-21 19:07:18.532
104.0, -129332.15550567575, -157086.11543013042, -33805.15829386214, -140099.43784468627, 67017.77184221409, -98663.34929029338, 54398.62512333693, -111533.99783778166, 0.02, 0.96, -0.024, 192.0, 0.0, 0.0, 0.0, 0.0, 0.0, 0.0, 0.0, 0.0, 0.0, 1.6664044385322073E9, 0.0, 2022-10-21 19:07:18.532
105.0, -129337.89990400076, -157091.7257179887, -33809.53923577538, -140114.4135134713, 67013.74852821213, -98666.90321766178, 54390.24321916619, -111542.08916927448, 0.018000000000000002, 0.9560000000000001, -0.024, 192.0, 0.0, 144.0, 29.0, 224.0, 255.0, 64.0, 0.0, 0.0, 0.0, 1.6664044385322213E9, 0.0, 2022-10-21 19:07:18.532
106.0, -129337.74344178957, -157091.4351453108, -33808.667517741625, -140128.31629852252, 67009.27817932107, -98698.01684594355, 54370.0819456675, -111540.83747158498, 0.018000000000000002, 0.9560000000000001, -0.024, 192.0, 0.0, 0.0, 0.0, 0.0, 0.0, 0.0, 0.0, 0.0, 0.0, 1.66640443853225E9, 0.0, 2022-10-21 19:07:18.532
107.0, -129338.83867726788, -157091.8821801999, -33811.796761965365, -140120.94022285225, 67007.53474325356, -98688.65146501678, 54376.80982074855, -111554.44968395826, 0.018000000000000002, 0.9560000000000001, -0.024, 192.0, 0.0, 0.0, 0.0, 0.0, 0.0, 0.0, 0.0, 0.0, 0.0, 1.6664044385322645E9, 0.0, 2022-10-21 19:07:18.532
108.0, -129338.83867726788, -157089.7811162211, -33810.83563695379, -140122.2366240307, 67009.88167642137, -98656.57671172342, 54396.322893658034, -111554.1814630248, 0.018000000000000002, 0.9560000000000001, -0.024, 192.0, 0.0, 0.0, 0.0, 0.0, 0.0, 0.0, 0.0, 0.0, 0.0, 1.6664044385322783E9, 0.0, 2022-10-21 19:07:18.532
109.0, -129342.70552905864, -157091.61395926643, -33815.82007596732, -140136.78760967107, 67005.38897578586, -98663.70691820467, 54385.66111155285, -111557.60127992646, 0.018000000000000002, 0.9560000000000001, -0.024, 192.0, 0.0, 0.0, 0.0, 0.0, 0.0, 0.0, 0.0, 0.0, 0.0, 1.666404438532292E9, 0.0, 2022-10-21 19:07:18.532
110.0, -129344.4266133817, -157091.2339796107, -33811.30502358735, -140135.08887709246, 67005.70190020822, -98685.29870334848, 54370.79720149007, -111555.41080896984, 0.018000000000000002, 0.9560000000000001, -0.024, 192.0, 0.0, 0.0, 0.0, 0.0, 0.0, 0.0, 0.0, 0.0, 0.0, 1.666404438532306E9, 0.0, 2022-10-21 19:07:18.532
111.0, -129340.42565112421, -157087.81416270902, -33805.96295666253, -140127.24341478865, 67004.45020251872, -98682.41532831376, 54376.3851376039, -111542.40209369684, 0.018000000000000002, 0.9560000000000001, -0.024, 192.0, 0.0, 0.0, 0.0, 0.0, 0.0, 0.0, 0.0, 0.0, 0.0, 1.66640443853232E9, 0.0, 2022-10-21 19:07:18.532
112.0, -129333.0272237095, -157082.5838545065, -33800.620889737715, -140124.00241184264, 67008.7193857097, -98674.7933834545, 54388.343320887485, -111529.9745237797, 0.018000000000000002, 0.9560000000000001, -0.024, 192.0, 0.0, 0.0, 0.0, 0.0, 0.0, 0.0, 0.0, 0.0, 0.0, 1.6664044385323348E9, 0.0, 2022-10-21 19:07:18.532
113.0, -129331.9766917201, -157081.7791917061, -33799.078619370295, -140124.51650196512, 67016.98953115816, -98679.46489804565, 54382.688329540295, -111534.51192790412, 0.018000000000000002, 0.9560000000000001, -0.024, 192.0, 0.0, 0.0, 0.0, 0.0, 0.0, 0.0, 0.0, 0.0, 0.0, 1.6664044385323489E9, 0.0, 2022-10-21 19:07:18.532
114.0, -129335.08358419938, -157083.36616556242, -33804.06305838383, -140131.579653213, 67010.82044968849, -98690.03727317302, 54366.684480510296, -111544.21258499773, 0.024, 0.962, -0.026000000000000002, 192.0, 0.0, 192.0, 30.0, 16.0, 255.0, 48.0, 0.0, 0.0, 0.0, 1.6664044385323648E9, 0.0, 2022-10-21 19:07:18.532
115.0, -129330.90380798625, -157079.1193341159, -33796.32935480229, -140123.91300486482, 67012.27331307808, -98690.73017725113, 54370.305463112054, -111549.86757634493, 0.024, 0.962, -0.026000000000000002, 192.0, 0.0, 0.0, 0.0, 0.0, 0.0, 0.0, 0.0, 0.0, 0.0, 1.6664044385323799E9, 0.0, 2022-10-21 19:07:18.532
116.0, -129331.90963648673, -157080.25927308312, -33794.317697801314, -140112.826539615, 67015.31315032401, -98675.70980497716, 54385.61640806394, -111543.20675649724, 0.024, 0.962, -0.026000000000000002, 192.0, 0.0, 0.0, 0.0, 0.0, 0.0, 0.0, 0.0, 0.0, 0.0, 1.666404438532394E9, 0.0, 2022-10-21 19:07:18.532
117.0, -129331.77552602, -157076.90651141483, -33791.54608148886, -140114.90525184933, 67017.54832476954, -98675.55334276597, 54384.789393519095, -111536.56828839402, 0.024, 0.962, -0.026000000000000002, 192.0, 0.0, 0.0, 0.0, 0.0, 0.0, 0.0, 0.0, 0.0, 0.0, 1.6664044385324075E9, 0.0, 2022-10-21 19:07:18.532
118.0, -129337.74344178957, -157082.40504055083, -33798.050439125356, -140129.36683051192, 67006.35010079743, -98682.61649401386, 54370.90896021235, -111547.92297457732, 0.024, 0.962, -0.026000000000000002, 192.0, 0.0, 0.0, 0.0, 0.0, 0.0, 0.0, 0.0, 0.0, 0.0, 1.6664044385324216E9, 0.0, 2022-10-21 19:07:18.532
119.0, -129330.99321496407, -157075.34188930297, -33791.16610183312, -140122.01310658612, 67009.32288280998, -98681.78947946901, 54377.56978006003, -111536.90356456085, 0.024, 0.962, -0.026000000000000002, 192.0, 0.0, 0.0, 0.0, 0.0, 0.0, 0.0, 0.0, 0.0, 0.0, 1.6664044385324357E9, 0.0, 2022-10-21 19:07:18.532
120.0, -129341.81145928043, -157084.9307876743, -33800.062096126334, -140126.59521419945, 67002.0138623731, -98655.14620007828, 54395.18295469081, -111546.47011118772, 0.024, 0.962, -0.026000000000000002, 192.0, 0.0, 0.0, 0.0, 0.0, 0.0, 0.0, 0.0, 0.0, 0.0, 1.6664044385324492E9, 0.0, 2022-10-21 19:07:18.532
121.0, -129342.41495638073, -157085.66839524132, -33800.66559322662, -140139.55922598354, 66993.6096064579, -98661.73996469259, 54391.04788196658, -111550.98516356769, 0.024, 0.962, -0.026000000000000002, 192.0, 0.0, 0.0, 0.0, 0.0, 0.0, 0.0, 0.0, 0.0, 0.0, 1.666404439009382E9, 0.0, 2022-10-21 19:07:19.009
122.0, -129334.70360454365, -157078.73935446018, -33794.4294565236, -140141.95086264025, 67000.3151297945, -98696.00518894258, 54369.07611716702, -111551.90158509035, 0.024, 0.962, -0.026000000000000002, 192.0, 0.0, 0.0, 0.0, 0.0, 0.0, 0.0, 0.0, 0.0, 0.0, 1.666404439009693E9, 0.0, 2022-10-21 19:07:19.009
123.0, -129331.75317427555, -157078.13585735988, -33790.18262507708, -140126.8857868774, 67008.60762698742, -98695.55815405348, 54371.44540207928, -111550.47107344522, 0.024, 0.962, -0.026000000000000002, 192.0, 0.0, 0.0, 0.0, 0.0, 0.0, 0.0, 0.0, 0.0, 0.0, 1.6664044390097396E9, 0.0, 2022-10-21 19:07:19.009
124.0, -129341.96792149163, -157089.4234883098, -33797.71516295853, -140117.29688850604, 67005.90306590832, -98672.2899880755, 54388.03039646512, -111559.6352886719, 0.024, 0.96, -0.03, 192.0, 0.0, 192.0, 30.0, 0.0, 255.0, 16.0, 0.0, 0.0, 0.0, 1.6664044390097833E9, 0.0, 2022-10-21 19:07:19.009
125.0, -129349.18753495069, -157095.25729361264, -33802.4760845275, -140122.3707344974, 67001.07508910597, -98666.72440370613, 54390.71260579975, -111556.75191363716, 0.024, 0.96, -0.03, 192.0, 0.0, 0.0, 0.0, 0.0, 0.0, 0.0, 0.0, 0.0, 0.0, 1.666404439009828E9, 0.0, 2022-10-21 19:07:19.009
126.0, -129341.25266566905, -157085.4225260523, -33799.436247281585, -140136.20646431524, 67002.70676645121, -98698.97797095514, 54367.66795726633, -111545.95602106524, 0.024, 0.96, -0.03, 192.0, 0.0, 0.0, 0.0, 0.0, 0.0, 0.0, 0.0, 0.0, 0.0, 1.666404439009843E9, 0.0, 2022-10-21 19:07:19.009
127.0, -129333.2283894096, -157077.3758980484, -33794.85413966825, -140123.6224321869, 67010.06049037701, -98703.71654077966, 54366.90799795485, -111536.25536397164, 0.024, 0.96, -0.03, 192.0, 0.0, 0.0, 0.0, 0.0, 0.0, 0.0, 0.0, 0.0, 0.0, 1.6664044390098584E9, 0.0, 2022-10-21 19:07:19.009
128.0, -129333.56366557642, -157079.320499816, -33791.747247188956, -140108.2667837461, 67010.99926364413, -98679.73311897911, 54387.583361576006, -111537.08237851648, 0.024, 0.96, -0.03, 192.0, 0.0, 0.0, 0.0, 0.0, 0.0, 0.0, 0.0, 0.0, 0.0, 1.666404439009873E9, 0.0, 2022-10-21 19:07:19.009
129.0, -129342.14673544727, -157090.9881104217, -33801.514959515924, -140125.56703395452, 66998.10230709342, -98675.95567416617, 54389.751480788174, -111545.62074489842, 0.024, 0.96, -0.03, 192.0, 0.0, 0.0, 0.0, 0.0, 0.0, 0.0, 0.0, 0.0, 0.0, 1.666404439009888E9, 0.0, 2022-10-21 19:07:19.009
130.0, -129342.25849416954, -157090.071688899, -33803.68307872809, -140136.27351954862, 66997.85643790441, -98700.02850294454, 54370.4842770677, -111543.22910824169, 0.024, 0.96, -0.03, 192.0, 0.0, 0.0, 0.0, 0.0, 0.0, 0.0, 0.0, 0.0, 0.0, 1.6664044390099027E9, 0.0, 2022-10-21 19:07:19.009
131.0, -129343.7784127925, -157091.79277322209, -33807.99696540797, -140138.7769149276, 66996.13535358135, -98715.0041717296, 54358.39198331738, -111549.42054145582, 0.024, 0.96, -0.03, 192.0, 0.0, 0.0, 0.0, 0.0, 0.0, 0.0, 0.0, 0.0, 0.0, 1.6664044390099175E9, 0.0, 2022-10-21 19:07:19.009
132.0, -129341.58794183588, -157092.46332555573, -33803.481913027994, -140126.23758628816, 67000.3151297945, -98701.5931250564, 54370.12664915642, -111548.74998912215, 0.024, 0.96, -0.03, 192.0, 0.0, 0.0, 0.0, 0.0, 0.0, 0.0, 0.0, 0.0, 0.0, 1.666404439009932E9, 0.0, 2022-10-21 19:07:19.009
133.0, -129346.05829072694, -157098.6771105143, -33803.0795816278, -140120.336725752, 67003.9137606518, -98680.2472091016, 54388.343320887485, -111550.56048042304, 0.024, 0.96, -0.03, 192.0, 0.0, 0.0, 0.0, 0.0, 0.0, 0.0, 0.0, 0.0, 0.0, 1.6664044390099468E9, 0.0, 2022-10-21 19:07:19.009
134.0, -129353.4790698861, -157104.9355989618, -33809.561587519835, -140132.27255729111, 66998.63874896035, -98672.4911537756, 54387.337492387, -111559.09884680496, 0.026000000000000002, 0.96, -0.028, 192.0, 0.0, 208.0, 30.0, 0.0, 255.0, 32.0, 0.0, 0.0, 0.0, 1.6664044390099614E9, 0.0, 2022-10-21 19:07:19.009
135.0, -129347.28763667199, -157097.51481980263, -33804.800665950854, -140130.0820863345, 67003.60083622942, -98688.40559582777, 54373.881742224905, -111551.52160543462, 0.026000000000000002, 0.96, -0.028, 192.0, 0.0, 0.0, 0.0, 0.0, 0.0, 0.0, 0.0, 0.0, 0.0, 1.6664044390099857E9, 0.0, 2022-10-21 19:07:19.009
136.0, -129343.30902615894, -157091.21162786623, -33803.95129966155, -140117.4309989728, 67005.1207548524, -98699.08972967742, 54372.65239627986, -111544.01141929763, 0.026000000000000002, 0.96, -0.028, 192.0, 0.0, 0.0, 0.0, 0.0, 0.0, 0.0, 0.0, 0.0, 0.0, 1.6664044390102725E9, 0.0, 2022-10-21 19:07:19.010
137.0, -129347.22058143863, -157094.2291133677, -33800.553834504346, -140117.54275769505, 67003.2208565737, -98685.56692428196, 54387.71747204274, -111539.98810529568, 0.026000000000000002, 0.96, -0.028, 192.0, 0.0, 0.0, 0.0, 0.0, 0.0, 0.0, 0.0, 0.0, 0.0, 1.6664044390103104E9, 0.0, 2022-10-21 19:07:19.010
138.0, -129350.75215706255, -157096.5760465355, -33799.79387519287, -140127.64574618885, 67001.45506876172, -98684.047005659, 54389.10328019897, -111538.37877969489, 0.026000000000000002, 0.96, -0.028, 192.0, 0.0, 0.0, 0.0, 0.0, 0.0, 0.0, 0.0, 0.0, 0.0, 1.6664044390103257E9, 0.0, 2022-10-21 19:07:19.010
139.0, -129353.8814012863, -157096.5313430466, -33802.11845661622, -140131.28908053506, 67000.22572281667, -98687.69034000521, 54382.59892256247, -111542.67031463032, 0.026000000000000002, 0.96, -0.028, 192.0, 0.0, 0.0, 0.0, 0.0, 0.0, 0.0, 0.0, 0.0, 0.0, 1.66640443901034E9, 0.0, 2022-10-21 19:07:19.010
140.0, -129342.0796802139, -157085.4225260523, -33792.55190998935, -140112.73713263718, 67008.76408919861, -98676.17919161072, 54391.3384546445, -111546.6265733989, 0.026000000000000002, 0.96, -0.028, 192.0, 0.0, 0.0, 0.0, 0.0, 0.0, 0.0, 0.0, 0.0, 0.0, 1.6664044390103548E9, 0.0, 2022-10-21 19:07:19.010
141.0, -129350.39452915128, -157095.99490117966, -33802.364325805225, -140121.3872577414, 66999.75633618311, -98677.2967788335, 54391.04788196658, -111561.51283520614, 0.026000000000000002, 0.96, -0.028, 192.0, 0.0, 0.0, 0.0, 0.0, 0.0, 0.0, 0.0, 0.0, 0.0, 1.6664044390103693E9, 0.0, 2022-10-21 19:07:19.010
142.0, -129361.79391882347, -157108.7353955192, -33813.29432884388, -140142.28613880707, 66987.17230405478, -98693.90412496378, 54376.00515794816, -111571.10173357747, 0.026000000000000002, 0.96, -0.028, 192.0, 0.0, 0.0, 0.0, 0.0, 0.0, 0.0, 0.0, 0.0, 0.0, 1.6664044390104048E9, 0.0, 2022-10-21 19:07:19.010
143.0, -129353.94845651966, -157098.94533144776, -33807.25935784094, -140139.73803993917, 66991.37443201238, -98717.17229094176, 54359.46486705123, -111565.5361492081, 0.022, 0.96, -0.026000000000000002, 192.0, 0.0, 176.0, 30.0, 0.0, 255.0, 48.0, 0.0, 0.0, 0.0, 1.6664044390104465E9, 0.0, 2022-10-21 19:07:19.010
144.0, -129340.58211333539, -157083.0755928845, -33790.51790124392, -140118.43682747328, 67005.5677897415, -98707.87396524835, 54375.80399224806, -111546.22424199872, 0.022, 0.96, -0.026000000000000002, 192.0, 0.0, 0.0, 0.0, 0.0, 0.0, 0.0, 0.0, 0.0, 0.0, 1.6664044390104923E9, 0.0, 2022-10-21 19:07:19.010
145.0, -129347.46645062763, -157091.837476711, -33793.20011057855, -140120.9849263412, 67001.05273736152, -98682.12475563583, 54396.30054191358, -111547.14066352138, 0.022, 0.96, -0.026000000000000002, 192.0, 0.0, 0.0, 0.0, 0.0, 0.0, 0.0, 0.0, 0.0, 0.0, 1.6664044390105343E9, 0.0, 2022-10-21 19:07:19.010
146.0, -129344.76188954854, -157090.00463366564, -33790.40614252164, -140127.93631886676, 67000.5162954946, -98690.99839818459, 54392.254876167164, -111543.49732917517, 0.022, 0.96, -0.026000000000000002, 192.0, 0.0, 0.0, 0.0, 0.0, 0.0, 0.0, 0.0, 0.0, 0.0, 1.6664044390105755E9, 0.0, 2022-10-21 19:07:19.010
147.0, -129343.68900581468, -157085.44487779678, -33788.50624424294, -140131.9819846132, 67004.38314728536, -98711.62905831684, 54376.273378881626, -111534.42252092631, 0.022, 0.96, -0.026000000000000002, 192.0, 0.0, 0.0, 0.0, 0.0, 0.0, 0.0, 0.0, 0.0, 0.0, 1.666404439010605E9, 0.0, 2022-10-21 19:07:19.010
148.0, -129341.54323834697, -157080.19221784978, -33786.0252006084, -140121.2754990191, 67008.56292349851, -98714.8477095184, 54370.886608467896, -111532.12029124741, 0.022, 0.96, -0.026000000000000002, 192.0, 0.0, 0.0, 0.0, 0.0, 0.0, 0.0, 0.0, 0.0, 0.0, 1.6664044390106196E9, 0.0, 2022-10-21 19:07:19.010
149.0, -129341.38677613578, -157081.9356539173, -33783.52180522941, -140113.85471985993, 67008.24999907613, -98705.795253014, 54380.07317543902, -111532.0755877585, 0.022, 0.96, -0.026000000000000002, 192.0, 0.0, 0.0, 0.0, 0.0, 0.0, 0.0, 0.0, 0.0, 0.0, 1.6664044390106342E9, 0.0, 2022-10-21 19:07:19.010
150.0, -129343.30902615894, -157081.5333225171, -33780.52667147239, -140109.94316458027, 67012.60858924492, -98678.45906954516, 54399.273323926136, -111536.85886107193, 0.022, 0.96, -0.026000000000000002, 192.0, 0.0, 0.0, 0.0, 0.0, 0.0, 0.0, 0.0, 0.0, 0.0, 1.66640443901065E9, 0.0, 2022-10-21 19:07:19.010
151.0, -129347.62291283882, -157084.30493882953, -33781.174872061594, -140118.10155130643, 67010.59693224393, -98693.36768309686, 54388.00804472066, -111537.79763433906, 0.022, 0.96, -0.026000000000000002, 192.0, 0.0, 0.0, 0.0, 0.0, 0.0, 0.0, 0.0, 0.0, 0.0, 1.666404439010788E9, 0.0, 2022-10-21 19:07:19.010
152.0, -129356.29538968747, -157091.77042147762, -33788.394485520665, -140134.66419394783, 67004.62901647437, -98705.90701173629, 54373.27824512461, -111546.4254076988, 0.022, 0.96, -0.026000000000000002, 192.0, 0.0, 0.0, 0.0, 0.0, 0.0, 0.0, 0.0, 0.0, 0.0, 1.6664044390108025E9, 0.0, 2022-10-21 19:07:19.010
153.0, -129349.85808728434, -157089.11056388743, -33783.11947382921, -140125.79055139906, 67010.61928398839, -98694.82054648644, 54381.41428010634, -111554.13675953589, 0.024, 0.962, -0.034, 192.0, 0.0, 192.0, 30.0, 16.0, 254.0, 240.0, 0.0, 0.0, 0.0, 1.6664044390108173E9, 0.0, 2022-10-21 19:07:19.010
154.0, -129346.46062212714, -157086.3836510639, -33775.63163943668, -140118.5262344511, 67016.07310963549, -98701.41431110077, 54383.42593710732, -111549.15232052235, 0.024, 0.962, -0.034, 192.0, 0.0, 0.0, 0.0, 0.0, 0.0, 0.0, 0.0, 0.0, 0.0, 1.6664044390108328E9, 0.0, 2022-10-21 19:07:19.010
155.0, -129353.54612511946, -157093.06682265602, -33780.05728483883, -140120.29202226305, 67015.93899916876, -98689.29966560598, 54385.72816678622, -111547.63240189939, 0.024, 0.962, -0.034, 192.0, 0.0, 0.0, 0.0, 0.0, 0.0, 0.0, 0.0, 0.0, 0.0, 1.666404439010847E9, 0.0, 2022-10-21 19:07:19.010
156.0, -129356.67536934321, -157098.07361341402, -33785.71227618602, -140133.43484800277, 67003.4220222738, -98707.96337222616, 54367.28797761059, -111552.54978567956, 0.024, 0.962, -0.034, 192.0, 0.0, 0.0, 0.0, 0.0, 0.0, 0.0, 0.0, 0.0, 0.0, 1.666404439010862E9, 0.0, 2022-10-21 19:07:19.010
157.0, -129348.91931401723, -157089.91522668782, -33776.95039235955, -140123.91300486482, 67008.02648163158, -98701.07903493394, 54379.894361483384, -111540.99393379617, 0.024, 0.962, -0.034, 192.0, 0.0, 0.0, 0.0, 0.0, 0.0, 0.0, 0.0, 0.0, 0.0, 1.6664044390108812E9, 0.0, 2022-10-21 19:07:19.010
158.0, -129349.41105239524, -157092.75389823364, -33777.08450282628, -140118.30271700653, 67007.04300487555, -98677.52029627805, 54397.440480880796, -111547.29712573257, 0.024, 0.962, -0.034, 192.0, 0.0, 0.0, 0.0, 0.0, 0.0, 0.0, 0.0, 0.0, 0.0, 1.6664044390108967E9, 0.0, 2022-10-21 19:07:19.010
159.0, -129353.45671814165, -157097.15719189134, -33777.66564818211, -140128.24924328914, 67009.34523455444, -98691.15486039578, 54386.35401563097, -111555.25434675865, 0.024, 0.962, -0.034, 192.0, 0.0, 0.0, 0.0, 0.0, 0.0, 0.0, 0.0, 0.0, 0.0, 1.6664044390109117E9, 0.0, 2022-10-21 19:07:19.010
160.0, -129351.5344681185, -157092.7762499781, -33772.68120916858, -140125.56703395452, 67017.36951081389, -98710.89145074981, 54376.251027137165, -111548.14649202187, 0.024, 0.962, -0.034, 192.0, 0.0, 0.0, 0.0, 0.0, 0.0, 0.0, 0.0, 0.0, 0.0, 1.6664044390109267E9, 0.0, 2022-10-21 19:07:19.010
161.0, -129348.44992738366, -157089.91522668782, -33766.95916258802, -140103.2152894992, 67023.89622019485, -98701.92840122324, 54387.27043715363, -111536.63534362738, 0.024, 0.962, -0.034, 192.0, 0.0, 0.0, 0.0, 0.0, 0.0, 0.0, 0.0, 0.0, 0.0, 1.6664044390109417E9, 0.0, 2022-10-21 19:07:19.010
162.0, -129348.33816866139, -157092.0833459, -33764.03108406438, -140093.40287368334, 67024.67853125079, -98672.24528458659, 54405.397701906884, -111533.43904417027, 0.024, 0.962, -0.034, 192.0, 0.0, 0.0, 0.0, 0.0, 0.0, 0.0, 0.0, 0.0, 0.0, 1.6664044390109568E9, 0.0, 2022-10-21 19:07:19.010
163.0, -129357.52473563251, -157099.9288082038, -33769.6190201782, -140117.5204059506, 67014.01674914561, -98679.80017421248, 54391.40550987786, -111536.61299188292, 0.028, 0.966, -0.028, 192.0, 0.0, 224.0, 30.0, 48.0, 255.0, 32.0, 0.0, 0.0, 0.0, 1.666404439010972E9, 0.0, 2022-10-21 19:07:19.010
164.0, -129354.95428502015, -157094.72085174572, -33768.59083993326, -140120.64965017434, 67015.62607474638, -98708.9468489822, 54367.66795726633, -111544.43610244228, 0.028, 0.966, -0.028, 192.0, 0.0, 0.0, 0.0, 0.0, 0.0, 0.0, 0.0, 0.0, 0.0, 1.666404439010988E9, 0.0, 2022-10-21 19:07:19.010
165.0, -129359.42463391121, -157098.2300756252, -33773.88820336917, -140122.90717636433, 67008.94290315425, -98704.32003787995, 54369.6349107784, -111549.46524494473, 0.028, 0.966, -0.028, 192.0, 0.0, 0.0, 0.0, 0.0, 0.0, 0.0, 0.0, 0.0, 0.0, 1.666404439011003E9, 0.0, 2022-10-21 19:07:19.011
166.0, -129356.92123853222, -157102.6333692829, -33770.08840681177, -140119.3756007404, 67007.33357755347, -98686.25982836007, 54387.24808540918, -111542.33503846348, 0.028, 0.966, -0.028, 192.0, 0.0, 0.0, 0.0, 0.0, 0.0, 0.0, 0.0, 0.0, 0.0, 1.6664044390110345E9, 0.0, 2022-10-21 19:07:19.011
167.0, -129351.82504079641, -157098.36418609193, -33766.60153467674, -140119.50971120712, 67012.04979563353, -98691.69130226271, 54387.35984413145, -111539.04933202856, 0.028, 0.966, -0.028, 192.0, 0.0, 0.0, 0.0, 0.0, 0.0, 0.0, 0.0, 0.0, 0.0, 1.6664044390110495E9, 0.0, 2022-10-21 19:07:19.011
168.0, -129349.36634890633, -157094.11735464542, -33763.24877300844, -140122.7283624087, 67017.54832476954, -98708.85744200439, 54376.1839719038, -111541.06098902953, 0.028, 0.966, -0.028, 192.0, 0.0, 0.0, 0.0, 0.0, 0.0, 0.0, 0.0, 0.0, 0.0, 1.6664044390110643E9, 0.0, 2022-10-21 19:07:19.011
169.0, -129352.13796521879, -157097.11248840243, -33765.10396779823, -140119.2191385292, 67018.15182186983, -98708.27629664855, 54377.592131804486, -111543.65379138634, 0.028, 0.966, -0.028, 192.0, 0.0, 0.0, 0.0, 0.0, 0.0, 0.0, 0.0, 0.0, 0.0, 1.6664044390110793E9, 0.0, 2022-10-21 19:07:19.011
170.0, -129351.26624718503, -157095.41375582383, -33766.579182932284, -140115.1734727828, 67014.35202531243, -98692.89829646329, 54389.6397220659, -111550.94046007878, 0.028, 0.966, -0.028, 192.0, 0.0, 0.0, 0.0, 0.0, 0.0, 0.0, 0.0, 0.0, 0.0, 1.666404439011094E9, 0.0, 2022-10-21 19:07:19.011
171.0, -129355.06604374244, -157098.94533144776, -33769.507261455925, -140114.63703091588, 67012.94386541174, -98674.8380869434, 54399.31802741504, -111559.94821309426, 0.028, 0.966, -0.028, 192.0, 0.0, 0.0, 0.0, 0.0, 0.0, 0.0, 0.0, 0.0, 0.0, 1.6664044390111089E9, 0.0, 2022-10-21 19:07:19.011
172.0, -129344.53837210398, -157087.25536909763, -33754.64335139315, -140102.65649588782, 67026.8242987185, -98689.54553479499, 54392.254876167164, -111546.78303561009, 0.026000000000000002, 0.964, -0.028, 192.0, 0.0, 208.0, 30.0, 32.0, 255.0, 32.0, 0.0, 0.0, 0.0, 1.6664044390111237E9, 0.0, 2022-10-21 19:07:19.011
173.0, -129357.90471528826, -157099.839401226, -33768.30026725534, -140122.25897577513, 67010.06049037701, -98717.88754676432, 54371.24423637918, -111554.33792523599, 0.026000000000000002, 0.964, -0.028, 192.0, 0.0, 0.0, 0.0, 0.0, 0.0, 0.0, 0.0, 0.0, 0.0, 1.6664044390111396E9, 0.0, 2022-10-21 19:07:19.011
174.0, -129360.76573857854, -157102.07457567152, -33769.797834133846, -140126.23758628816, 67003.9137606518, -98702.75541576809, 54388.25391390967, -111548.1241402774, 0.026000000000000002, 0.964, -0.028, 192.0, 0.0, 0.0, 0.0, 0.0, 0.0, 0.0, 0.0, 0.0, 0.0, 1.6664044390111547E9, 0.0, 2022-10-21 19:07:19.011
175.0, -129363.15737523526, -157102.61101753844, -33766.44507246555, -140131.51259797963, 66999.8680949054, -98692.07128191844, 54394.713568057254, -111547.63240189939, 0.026000000000000002, 0.964, -0.028, 192.0, 0.0, 0.0, 0.0, 0.0, 0.0, 0.0, 0.0, 0.0, 0.0, 1.6664044390111697E9, 0.0, 2022-10-21 19:07:19.011
176.0, -129360.6316281118, -157097.5371715471, -33758.82312760629, -140132.45137124675, 67009.74756595463, -98706.35404662539, 54383.04595745158, -111543.60908789744, 0.026000000000000002, 0.964, -0.028, 192.0, 0.0, 0.0, 0.0, 0.0, 0.0, 0.0, 0.0, 0.0, 0.0, 1.6664044390111845E9, 0.0, 2022-10-21 19:07:19.011
177.0, -129357.56943912142, -157092.79860172255, -33759.2701624954, -140123.4212664868, 67015.02257764609, -98697.16747965425, 54386.24225690869, -111535.11542500442, 0.026000000000000002, 0.964, -0.028, 192.0, 0.0, 0.0, 0.0, 0.0, 0.0, 0.0, 0.0, 0.0, 0.0, 1.6664044390111995E9, 0.0, 2022-10-21 19:07:19.011
178.0, -129351.48976462959, -157087.70240398674, -33755.13508977117, -140114.6146791714, 67018.55415327003, -98690.97604644013, 54395.71939655774, -111531.6732563583, 0.026000000000000002, 0.964, -0.028, 192.0, 0.0, 0.0, 0.0, 0.0, 0.0, 0.0, 0.0, 0.0, 0.0, 1.666404439011216E9, 0.0, 2022-10-21 19:07:19.011
179.0, -129353.79199430849, -157089.80346796554, -33749.524801912885, -140109.04909480203, 67023.5162405391, -98692.65242727428, 54395.94291400229, -111536.83650932748, 0.026000000000000002, 0.964, -0.028, 192.0, 0.0, 0.0, 0.0, 0.0, 0.0, 0.0, 0.0, 0.0, 0.0, 1.6664044390112307E9, 0.0, 2022-10-21 19:07:19.011
180.0, -129353.74729081956, -157088.21649410922, -33749.43539493506, -140111.48543494768, 67027.94188594125, -98690.37254933984, 54391.58432383351, -111528.81223306802, 0.026000000000000002, 0.964, -0.028, 192.0, 0.0, 0.0, 0.0, 0.0, 0.0, 0.0, 0.0, 0.0, 0.0, 1.6664044390112457E9, 0.0, 2022-10-21 19:07:19.011
181.0, -129354.14962221976, -157087.1212586309, -33752.34112171425, -140114.90525184933, 67025.84082196245, -98689.25496211708, 54384.43176560781, -111534.62368662641, 0.026000000000000002, 0.964, -0.028, 192.0, 0.0, 0.0, 0.0, 0.0, 0.0, 0.0, 0.0, 0.0, 0.0, 1.6664044390112748E9, 0.0, 2022-10-21 19:07:19.011
182.0, -129344.44896512617, -157079.074630627, -33741.94756054253, -140091.72649284918, 67033.1721941438, -98679.6437120013, 54395.71939655774, -111527.51583188961, 0.024, 0.964, -0.026000000000000002, 192.0, 0.0, 192.0, 30.0, 32.0, 255.0, 48.0, 0.0, 0.0, 0.0, 1.66640443901129E9, 0.0, 2022-10-21 19:07:19.011
183.0, -129348.3828721503, -157082.15917136183, -33746.931999556065, -140094.9674957952, 67029.10417665294, -98673.5863892539, 54406.00119900718, -111524.25247719914, 0.024, 0.964, -0.026000000000000002, 192.0, 0.0, 0.0, 0.0, 0.0, 0.0, 0.0, 0.0, 0.0, 0.0, 1.666404439011306E9, 0.0, 2022-10-21 19:07:19.011
184.0, -129364.76670083603, -157098.56535179203, -33763.51699394191, -140123.2201007867, 67012.22860958918, -98678.86140094536, 54398.222791936736, -111542.78207335259, 0.024, 0.964, -0.026000000000000002, 192.0, 0.0, 0.0, 0.0, 0.0, 0.0, 0.0, 0.0, 0.0, 0.0, 1.6664044390113213E9, 0.0, 2022-10-21 19:07:19.011
185.0, -129365.12432874732, -157099.0794419145, -33761.43828170756, -140127.7351531667, 67011.73687121116, -98700.1402616668, 54380.81078300605, -111545.84426234297, 0.024, 0.964, -0.026000000000000002, 192.0, 0.0, 0.0, 0.0, 0.0, 0.0, 0.0, 0.0, 0.0, 0.0, 1.6664044390113366E9, 0.0, 2022-10-21 19:07:19.011
186.0, -129369.59467763838, -157106.1872966513, -33768.99317133345, -140128.07042933351, 67004.29374030755, -98712.56783158396, 54371.42305033482, -111558.2271287712, 0.024, 0.964, -0.026000000000000002, 192.0, 0.0, 0.0, 0.0, 0.0, 0.0, 0.0, 0.0, 0.0, 0.0, 1.6664044390113513E9, 0.0, 2022-10-21 19:07:19.011
187.0, -129361.41393916775, -157099.01238668113, -33760.03012180688, -140117.45335071723, 67012.22860958918, -98701.21314540067, 54388.29861739858, -111548.81704435553, 0.024, 0.964, -0.026000000000000002, 192.0, 0.0, 0.0, 0.0, 0.0, 0.0, 0.0, 0.0, 0.0, 0.0, 1.6664044390113661E9, 0.0, 2022-10-21 19:07:19.011
188.0, -129354.10491873085, -157088.59647376498, -33755.00097930443, -140116.1345977944, 67019.42587130379, -98709.17036642676, 54390.600847077476, -111532.2767534586, 0.024, 0.964, -0.026000000000000002, 192.0, 0.0, 0.0, 0.0, 0.0, 0.0, 0.0, 0.0, 0.0, 0.0, 1.6664044390113811E9, 0.0, 2022-10-21 19:07:19.011
189.0, -129354.35078791986, -157088.64117725388, -33753.1681362591, -140120.336725752, 67021.01284516012, -98718.53574735353, 54383.9847307187, -111525.25830569964, 0.024, 0.964, -0.026000000000000002, 192.0, 0.0, 0.0, 0.0, 0.0, 0.0, 0.0, 0.0, 0.0, 0.0, 1.6664044390113964E9, 0.0, 2022-10-21 19:07:19.011
190.0, -129352.8308692969, -157089.91522668782, -33749.05541527932, -140110.99369656967, 67023.9632754282, -98710.06443620496, 54388.00804472066, -111533.59550638146, 0.024, 0.964, -0.026000000000000002, 192.0, 0.0, 0.0, 0.0, 0.0, 0.0, 0.0, 0.0, 0.0, 0.0, 1.6664044390114117E9, 0.0, 2022-10-21 19:07:19.011
191.0, -129357.72590133261, -157094.586741279, -33753.03402579237, -140104.4669871887, 67022.44335680525, -98683.57761902543, 54407.00702750767, -111538.31172446153, 0.024, 0.964, -0.026000000000000002, 192.0, 0.0, 0.0, 0.0, 0.0, 0.0, 0.0, 0.0, 0.0, 0.0, 1.6664044390114267E9, 0.0, 2022-10-21 19:07:19.011
192.0, -129359.5363926335, -157093.5809127785, -33751.558810658316, -140110.45725470272, 67020.99049341565, -98690.14903189529, 54403.09547222799, -111534.28841045957, 0.028, 0.962, -0.026000000000000002, 192.0, 0.0, 224.0, 30.0, 16.0, 255.0, 48.0, 0.0, 0.0, 0.0, 1.666404439011442E9, 0.0, 2022-10-21 19:07:19.011
193.0, -129350.9309710182, -157082.76266846212, -33738.259522707405, -140099.48254817518, 67036.9272872123, -98701.03433144503, 54398.44630938129, -111519.4692038857, 0.028, 0.962, -0.026000000000000002, 192.0, 0.0, 0.0, 0.0, 0.0, 0.0, 0.0, 0.0, 0.0, 0.0, 1.666404439011458E9, 0.0, 2022-10-21 19:07:19.011
194.0, -129361.6821601012, -157094.00559592314, -33752.00584554742, -140121.320202508, 67018.2188771032, -98715.80883452998, 54385.90698074186, -111533.37198893691, 0.028, 0.962, -0.026000000000000002, 192.0, 0.0, 0.0, 0.0, 0.0, 0.0, 0.0, 0.0, 0.0, 0.0, 1.6664044390114768E9, 0.0, 2022-10-21 19:07:19.011
195.0, -129363.55970663545, -157096.3748808354, -33753.01167404791, -140120.82846413, 67014.17321135679, -98709.32682863795, 54392.88072501191, -111537.95409655024, 0.028, 0.962, -0.026000000000000002, 192.0, 0.0, 0.0, 0.0, 0.0, 0.0, 0.0, 0.0, 0.0, 0.0, 1.666404439011492E9, 0.0, 2022-10-21 19:07:19.011
196.0, -129356.80947980995, -157090.36226157693, -33742.68516810956, -140105.24929824463, 67028.9700661862, -98697.12277616534, 54406.02355075163, -111531.49444240266, 0.028, 0.962, -0.026000000000000002, 192.0, 0.0, 0.0, 0.0, 0.0, 0.0, 0.0, 0.0, 0.0, 0.0, 1.6664044390115209E9, 0.0, 2022-10-21 19:07:19.011
197.0, -129354.95428502015, -157085.0201946521, -33736.85136280672, -140104.55639416652, 67037.5754878015, -98707.82926175944, 54398.423957636835, -111529.30397144605, 0.028, 0.962, -0.026000000000000002, 192.0, 0.0, 0.0, 0.0, 0.0, 0.0, 0.0, 0.0, 0.0, 0.0, 1.6664044390115361E9, 0.0, 2022-10-21 19:07:19.011
198.0, -129359.29052344449, -157091.2786830996, -33744.09332801024, -140105.3610569669, 67033.08278716599, -98720.39094214332, 54386.331663886514, -111532.23204996968, 0.028, 0.962, -0.026000000000000002, 192.0, 0.0, 0.0, 0.0, 0.0, 0.0, 0.0, 0.0, 0.0, 0.0, 1.6664044390115511E9, 0.0, 2022-10-21 19:07:19.011
199.0, -129357.77060482152, -157091.6810144998, -33743.981569287964, -140096.4203591848, 67029.8194324755, -98701.36960761185, 54399.76506230415, -111527.96286677872, 0.028, 0.962, -0.026000000000000002, 192.0, 0.0, 0.0, 0.0, 0.0, 0.0, 0.0, 0.0, 0.0, 0.0, 1.6664044390115676E9, 0.0, 2022-10-21 19:07:19.011
200.0, -129359.9834275226, -157092.30686334454, -33747.53549665636, -140104.93637382227, 67022.84568820545, -98703.02363670155, 54400.368559404444, -111524.99008476616, 0.028, 0.962, -0.026000000000000002, 192.0, 0.0, 0.0, 0.0, 0.0, 0.0, 0.0, 0.0, 0.0, 0.0, 1.6664044390115829E9, 0.0, 2022-10-21 19:07:19.011
201.0, -129367.87359331532, -157100.66641577083, -33752.788156603354, -140119.46500771822, 67018.97883641468, -98712.43372111724, 54392.679559311815, -111525.79474756656, 0.028, 0.962, -0.026000000000000002, 192.0, 0.0, 0.0, 0.0, 0.0, 0.0, 0.0, 0.0, 0.0, 0.0, 1.666404439011598E9, 0.0, 2022-10-21 19:07:19.011
202.0, -129362.35271243486, -157095.30199710155, -33741.94756054253, -140108.19972851273, 67031.96519994321, -98721.66499157727, 54388.16450693185, -111514.95415150574, 0.03, 0.9560000000000001, -0.026000000000000002, 192.0, 0.0, 240.0, 29.0, 224.0, 255.0, 48.0, 0.0, 0.0, 0.0, 1.666404439011613E9, 0.0, 2022-10-21 19:07:19.011
203.0, -129363.71616884663, -157095.21259012373, -33744.49565941044, -140099.10256851942, 67029.7747289866, -98706.28699139203, 54400.234448937714, -111528.00757026764, 0.03, 0.9560000000000001, -0.026000000000000002, 192.0, 0.0, 0.0, 0.0, 0.0, 0.0, 0.0, 0.0, 0.0, 0.0, 1.6664044390116296E9, 0.0, 2022-10-21 19:07:19.011
204.0, -129375.11555851884, -157104.46621232823, -33757.973761316985, -140117.20748152822, 67008.49586826513, -98708.7456832821, 54397.97692274772, -111545.64309664287, 0.03, 0.9560000000000001, -0.026000000000000002, 192.0, 0.0, 0.0, 0.0, 0.0, 0.0, 0.0, 0.0, 0.0, 0.0, 1.6664044390116448E9, 0.0, 2022-10-21 19:07:19.011
205.0, -129370.64520962778, -157100.26408437063, -33753.27989498137, -140125.05294383204, 67012.40742354482, -98722.76022705558, 54388.969169732234, -111536.81415758302, 0.03, 0.9560000000000001, -0.026000000000000002, 192.0, 0.0, 0.0, 0.0, 0.0, 0.0, 0.0, 0.0, 0.0, 0.0, 1.6664044390116615E9, 0.0, 2022-10-21 19:07:19.011
206.0, -129361.95038103467, -157093.26798835612, -33741.411118675605, -140122.6836589198, 67018.77767071458, -98747.4589046787, 54373.50176256916, -111523.96190452122, 0.03, 0.9560000000000001, -0.026000000000000002, 192.0, 0.0, 0.0, 0.0, 0.0, 0.0, 0.0, 0.0, 0.0, 0.0, 1.6664044390116765E9, 0.0, 2022-10-21 19:07:19.011
207.0, -129368.87942181581, -157100.17467739282, -33747.31197921181, -140121.16374029682, 67012.42977528927, -98737.28886095154, 54378.977939960714, -111534.24370697066, 0.03, 0.9560000000000001, -0.026000000000000002, 192.0, 0.0, 0.0, 0.0, 0.0, 0.0, 0.0, 0.0, 0.0, 0.0, 1.6664044390116954E9, 0.0, 2022-10-21 19:07:19.011
208.0, -129372.92508756222, -157103.90741871684, -33752.07290078079, -140118.4815309622, 67010.23930433266, -98708.72333153765, 54397.06050122506, -111541.68683787428, 0.03, 0.9560000000000001, -0.026000000000000002, 192.0, 0.0, 0.0, 0.0, 0.0, 0.0, 0.0, 0.0, 0.0, 0.0, 1.666404439011717E9, 0.0, 2022-10-21 19:07:19.011
209.0, -129367.85124157087, -157098.4312413253, -33744.92034255509, -140119.64382167385, 67017.19069685826, -98714.26656416256, 54394.04301572359, -111535.67421861581, 0.03, 0.9560000000000001, -0.026000000000000002, 192.0, 0.0, 0.0, 0.0, 0.0, 0.0, 0.0, 0.0, 0.0, 0.0, 1.6664044390117357E9, 0.0, 2022-10-21 19:07:19.011
210.0, -129363.47029965762, -157092.6868430003, -33736.15845872861, -140109.7643506246, 67031.96519994321, -98717.32875315295, 54390.55614358856, -111525.50417488864, 0.03, 0.9560000000000001, -0.026000000000000002, 192.0, 0.0, 0.0, 0.0, 0.0, 0.0, 0.0, 0.0, 0.0, 0.0, 1.6664044390117507E9, 0.0, 2022-10-21 19:07:19.011
211.0, -129355.96011352065, -157089.04350865408, -33731.755165070914, -140104.1764145108, 67030.91466795381, -98711.15967168329, 54393.84185002349, -111515.89292477285, 0.026000000000000002, 0.96, -0.022, 192.0, 0.0, 208.0, 30.0, 0.0, 255.0, 80.0, 0.0, 0.0, 0.0, 1.6664044390117817E9, 0.0, 2022-10-21 19:07:19.011
212.0, -129350.66275008474, -157087.85886619793, -33727.95536851351, -140102.1200540209, 67027.45014756324, -98712.32196239496, 54399.38508264841, -111509.63443632537, 0.026000000000000002, 0.96, -0.022, 192.0, 0.0, 0.0, 0.0, 0.0, 0.0, 0.0, 0.0, 0.0, 0.0, 1.6664044390117977E9, 0.0, 2022-10-21 19:07:19.011
213.0, -129360.47516590061, -157094.11735464542, -33737.11958374019, -140112.7147808927, 67019.00118815913, -98705.9964187141, 54399.92152451534, -111523.55957312103, 0.026000000000000002, 0.96, -0.022, 192.0, 0.0, 0.0, 0.0, 0.0, 0.0, 0.0, 0.0, 0.0, 0.0, 1.6664044390118127E9, 0.0, 2022-10-21 19:07:19.011
214.0, -129358.15058447726, -157088.9317499318, -33734.10209823872, -140118.7721036401, 67020.16347887082, -98726.85059629091, 54384.96820747474, -111524.16307022132, 0.026000000000000002, 0.96, -0.022, 192.0, 0.0, 0.0, 0.0, 0.0, 0.0, 0.0, 0.0, 0.0, 0.0, 1.6664044390118277E9, 0.0, 2022-10-21 19:07:19.011
215.0, -129359.96107577815, -157089.1776191208, -33734.996168016936, -140107.79739711253, 67020.1187753819, -98727.74466606912, 54386.01873946414, -111529.10280574595, 0.026000000000000002, 0.96, -0.022, 192.0, 0.0, 0.0, 0.0, 0.0, 0.0, 0.0, 0.0, 0.0, 0.0, 1.6664044390118427E9, 0.0, 2022-10-21 19:07:19.011
216.0, -129371.69574161718, -157100.39819483735, -33744.24979022143, -140117.94508909524, 67008.42881303177, -98720.48034912114, 54390.086756955, -111538.57994539499, 0.026000000000000002, 0.96, -0.022, 192.0, 0.0, 0.0, 0.0, 0.0, 0.0, 0.0, 0.0, 0.0, 0.0, 1.6664044390118577E9, 0.0, 2022-10-21 19:07:19.011
217.0, -129372.83568058441, -157101.7840029936, -33743.53453439886, -140119.3308972515, 67013.56971425649, -98711.13731993882, 54394.73591980171, -111538.37877969489, 0.026000000000000002, 0.96, -0.022, 192.0, 0.0, 0.0, 0.0, 0.0, 0.0, 0.0, 0.0, 0.0, 0.0, 1.6664044390118728E9, 0.0, 2022-10-21 19:07:19.011
218.0, -129371.24870672807, -157100.26408437063, -33738.99713027443, -140117.9674408397, 67023.00215041664, -98710.93615423872, 54391.3384546445, -111536.2777157161, 0.026000000000000002, 0.96, -0.022, 192.0, 0.0, 0.0, 0.0, 0.0, 0.0, 0.0, 0.0, 0.0, 0.0, 1.666404439011888E9, 0.0, 2022-10-21 19:07:19.011
219.0, -129371.36046545036, -157102.4322035828, -33739.89120005265, -140118.4815309622, 67020.43169980428, -98717.3511048974, 54385.32583538602, -111538.71405586172, 0.026000000000000002, 0.96, -0.022, 192.0, 0.0, 0.0, 0.0, 0.0, 0.0, 0.0, 0.0, 0.0, 0.0, 1.6664044390119028E9, 0.0, 2022-10-21 19:07:19.011
220.0, -129371.91925906173, -157104.5332675616, -33740.852325064225, -140108.5126529351, 67019.4705747927, -98697.72627326564, 54397.73105355872, -111537.44000642777, 0.026000000000000002, 0.96, -0.022, 192.0, 0.0, 0.0, 0.0, 0.0, 0.0, 0.0, 0.0, 0.0, 0.0, 1.666404439011918E9, 0.0, 2022-10-21 19:07:19.011
221.0, -129377.61895389784, -157112.3340263765, -33747.82606933428, -140113.13946403738, 67012.69799622273, -98690.26079061757, 54401.79907104958, -111537.39530293886, 0.026000000000000002, 0.962, -0.02, 192.0, 0.0, 208.0, 30.0, 16.0, 255.0, 96.0, 0.0, 0.0, 0.0, 1.6664044390119345E9, 0.0, 2022-10-21 19:07:19.011
222.0, -129369.12529100482, -157103.50508731665, -33742.30518845382, -140113.40768497082, 67020.47640329319, -98720.21212818768, 54386.51047784215, -111532.2767534586, 0.026000000000000002, 0.962, -0.02, 192.0, 0.0, 0.0, 0.0, 0.0, 0.0, 0.0, 0.0, 0.0, 0.0, 1.6664044390119507E9, 0.0, 2022-10-21 19:07:19.011
223.0, -129370.24287822758, -157104.35445360595, -33740.9640837865, -140106.03160930058, 67025.30438009553, -98726.29180267952, 54387.940989487295, -111523.17959346529, 0.026000000000000002, 0.962, -0.02, 192.0, 0.0, 0.0, 0.0, 0.0, 0.0, 0.0, 0.0, 0.0, 0.0, 1.6664044390119658E9, 0.0, 2022-10-21 19:07:19.011
224.0, -129369.81819508293, -157105.5390960621, -33738.192467474044, -140102.9247168213, 67024.3656068284, -98719.29570666501, 54399.76506230415, -111516.00468349514, 0.026000000000000002, 0.962, -0.02, 192.0, 0.0, 0.0, 0.0, 0.0, 0.0, 0.0, 0.0, 0.0, 0.0, 1.6664044390119808E9, 0.0, 2022-10-21 19:07:19.011
225.0, -129368.32062820443, -157102.25338962715, -33737.633673862656, -140093.89461206135, 67032.27812436559, -98711.8972792503, 54405.19653620679, -111525.68298884429, 0.026000000000000002, 0.962, -0.02, 192.0, 0.0, 0.0, 0.0, 0.0, 0.0, 0.0, 0.0, 0.0, 0.0, 1.6664044390119958E9, 0.0, 2022-10-21 19:07:19.011
226.0, -129377.79776785348, -157110.56823856453, -33745.36737744419, -140111.28426924758, 67026.24315336265, -98721.30736366598, 54389.840887766, -111535.69657036026, 0.026000000000000002, 0.962, -0.02, 192.0, 0.0, 0.0, 0.0, 0.0, 0.0, 0.0, 0.0, 0.0, 0.0, 1.666404439012026E9, 0.0, 2022-10-21 19:07:19.012
227.0, -129374.13208176281, -157105.85202048445, -33740.18177273056, -140114.1676442823, 67029.88648770886, -98736.3053841955, 54377.793297504584, -111536.14360524937, 0.026000000000000002, 0.962, -0.02, 192.0, 0.0, 0.0, 0.0, 0.0, 0.0, 0.0, 0.0, 0.0, 0.0, 1.6664044390120409E9, 0.0, 2022-10-21 19:07:19.012
228.0, -129373.55093640697, -157104.01917743913, -33738.03600526285, -140103.1258825214, 67030.93701969826, -98707.8516135039, 54395.16060294636, -111540.23397448468, 0.026000000000000002, 0.962, -0.02, 192.0, 0.0, 0.0, 0.0, 0.0, 0.0, 0.0, 0.0, 0.0, 0.0, 1.6664044390120559E9, 0.0, 2022-10-21 19:07:19.012
229.0, -129368.76766309353, -157098.96768319223, -33731.755165070914, -140104.9587255667, 67025.0138074176, -98705.86230824738, 54400.99440824919, -111532.56732613652, 0.026000000000000002, 0.962, -0.02, 192.0, 0.0, 0.0, 0.0, 0.0, 0.0, 0.0, 0.0, 0.0, 0.0, 1.666404439012071E9, 0.0, 2022-10-21 19:07:19.012
230.0, -129366.77835783701, -157098.0289099251, -33727.709499324505, -140106.74686512313, 67028.14305164135, -98713.90893625128, 54397.68635006981, -111520.25151494164, 0.026000000000000002, 0.962, -0.02, 192.0, 0.0, 0.0, 0.0, 0.0, 0.0, 0.0, 0.0, 0.0, 0.0, 1.6664044390120854E9, 0.0, 2022-10-21 19:07:19.012
231.0, -129367.67242761522, -157097.91715120283, -33726.949540013025, -140110.99369656967, 67025.59495277345, -98720.14507295431, 54391.204344177764, -111528.81223306802, 0.024, 0.968, -0.026000000000000002, 192.0, 0.0, 192.0, 30.0, 64.0, 255.0, 48.0, 0.0, 0.0, 0.0, 1.6664044390121005E9, 0.0, 2022-10-21 19:07:19.012
232.0, -129365.48195665861, -157095.5925697795, -33724.40144114512, -140097.8732225744, 67028.47832780819, -98721.84380553292, 54393.37246338993, -111528.4769569012, 0.024, 0.968, -0.026000000000000002, 192.0, 0.0, 0.0, 0.0, 0.0, 0.0, 0.0, 0.0, 0.0, 0.0, 1.6664044390121162E9, 0.0, 2022-10-21 19:07:19.012
233.0, -129366.59954388137, -157097.1795436358, -33725.25080743442, -140091.50297540464, 67032.83691797697, -98702.21897390115, 54408.50459438618, -111522.71020683173, 0.024, 0.968, -0.026000000000000002, 192.0, 0.0, 0.0, 0.0, 0.0, 0.0, 0.0, 0.0, 0.0, 0.0, 1.6664044390121307E9, 0.0, 2022-10-21 19:07:19.012
234.0, -129370.33228520541, -157099.81704948153, -33726.793077801834, -140113.38533322638, 67029.3723975864, -98712.47842460615, 54400.01093149316, -111523.78309056559, 0.024, 0.968, -0.026000000000000002, 192.0, 0.0, 0.0, 0.0, 0.0, 0.0, 0.0, 0.0, 0.0, 0.0, 1.6664044390121458E9, 0.0, 2022-10-21 19:07:19.012
235.0, -129373.10390151787, -157102.05222392705, -33728.93884526954, -140124.8741298764, 67025.7737667291, -98734.4501894057, 54379.64849229437, -111533.90843080383, 0.024, 0.968, -0.026000000000000002, 192.0, 0.0, 0.0, 0.0, 0.0, 0.0, 0.0, 0.0, 0.0, 0.0, 1.6664044390121605E9, 0.0, 2022-10-21 19:07:19.012
236.0, -129374.57911665192, -157100.59936053745, -33731.46459239299, -140114.86054836042, 67022.39865331634, -98735.79129407303, 54377.99446320468, -111534.04254127057, 0.024, 0.968, -0.026000000000000002, 192.0, 0.0, 0.0, 0.0, 0.0, 0.0, 0.0, 0.0, 0.0, 0.0, 1.6664044390121758E9, 0.0, 2022-10-21 19:07:19.012
237.0, -129377.37308470883, -157102.7898314941, -33732.179848215565, -140106.43394070078, 67020.565810271, -98717.64167757532, 54393.79714653458, -111531.8744220584, 0.024, 0.968, -0.026000000000000002, 192.0, 0.0, 0.0, 0.0, 0.0, 0.0, 0.0, 0.0, 0.0, 0.0, 1.6664044390121908E9, 0.0, 2022-10-21 19:07:19.012
238.0, -129381.21758475514, -157108.26600888564, -33731.129316226165, -140121.29785076354, 67017.05658639153, -98717.1052357084, 54392.50074535618, -111528.4769569012, 0.024, 0.968, -0.026000000000000002, 192.0, 0.0, 0.0, 0.0, 0.0, 0.0, 0.0, 0.0, 0.0, 0.0, 1.6664044390122056E9, 0.0, 2022-10-21 19:07:19.012
239.0, -129373.37212245133, -157099.50412505915, -33723.239150433445, -140122.84012113095, 67024.58912427296, -98725.28597417903, 54389.93029474381, -111524.40893941034, 0.024, 0.968, -0.026000000000000002, 192.0, 0.0, 0.0, 0.0, 0.0, 0.0, 0.0, 0.0, 0.0, 0.0, 1.6664044390122206E9, 0.0, 2022-10-21 19:07:19.012
240.0, -129370.9357823057, -157096.75486049114, -33720.512237609895, -140115.2181762717, 67028.1654033858, -98726.96235501318, 54396.747576802685, -111519.49155563016, 0.028, 0.962, -0.026000000000000002, 192.0, 0.0, 224.0, 30.0, 16.0, 255.0, 48.0, 0.0, 0.0, 0.0, 1.6664044390122364E9, 0.0, 2022-10-21 19:07:19.012
241.0, -129367.18068923721, -157095.61492152393, -33718.29941490882, -140104.9587255667, 67030.51233655361, -98717.68638106422, 54410.11391998696, -111514.28359917208, 0.028, 0.962, -0.026000000000000002, 192.0, 0.0, 0.0, 0.0, 0.0, 0.0, 0.0, 0.0, 0.0, 0.0, 1.66640443948893E9, 0.0, 2022-10-21 19:07:19.488
242.0, -129367.73948284858, -157095.078479657, -33720.355775398704, -140109.29496399107, 67034.60270578894, -98713.88658450682, 54414.092530500006, -111517.1669742068, 0.028, 0.962, -0.026000000000000002, 192.0, 0.0, 0.0, 0.0, 0.0, 0.0, 0.0, 0.0, 0.0, 0.0, 1.6664044394891531E9, 0.0, 2022-10-21 19:07:19.489
243.0, -129360.85514555636, -157086.7859824641, -33709.3587171267, -140104.6234493999, 67047.38790361737, -98717.08288396393, 54410.62801010943, -111506.70635780173, 0.028, 0.962, -0.026000000000000002, 192.0, 0.0, 0.0, 0.0, 0.0, 0.0, 0.0, 0.0, 0.0, 0.0, 1.6664044394891737E9, 0.0, 2022-10-21 19:07:19.489
244.0, -129358.21763971064, -157085.15430511883, -33701.423847845064, -140091.50297540464, 67050.91947924132, -98731.92444228227, 54401.06146348256, -111508.58390433597, 0.028, 0.962, -0.026000000000000002, 192.0, 0.0, 0.0, 0.0, 0.0, 0.0, 0.0, 0.0, 0.0, 0.0, 1.6664044394891925E9, 0.0, 2022-10-21 19:07:19.489
245.0, -129371.74044510609, -157100.15232564835, -33719.12642945367, -140104.60109765542, 67032.70280751024, -98719.40746538728, 54408.61635310845, -111526.28648594457, 0.028, 0.962, -0.026000000000000002, 192.0, 0.0, 0.0, 0.0, 0.0, 0.0, 0.0, 0.0, 0.0, 0.0, 1.6664044394892108E9, 0.0, 2022-10-21 19:07:19.489
246.0, -129381.17288126623, -157107.26018038514, -33726.61426384619, -140118.7274001512, 67020.94578992674, -98706.1975844142, 54417.355885190475, -111535.51775640462, 0.028, 0.962, -0.026000000000000002, 192.0, 0.0, 0.0, 0.0, 0.0, 0.0, 0.0, 0.0, 0.0, 0.0, 1.6664044394892285E9, 0.0, 2022-10-21 19:07:19.489
247.0, -129382.9833725671, -157105.44968908426, -33725.29551092333, -140130.21619680122, 67019.96231317072, -98730.13630272583, 54402.536678616605, -111536.74710234966, 0.028, 0.962, -0.026000000000000002, 192.0, 0.0, 0.0, 0.0, 0.0, 0.0, 0.0, 0.0, 0.0, 0.0, 1.6664044394892466E9, 0.0, 2022-10-21 19:07:19.489
248.0, -129371.09224451688, -157094.89966570135, -33715.9077782521, -140124.09181882045, 67029.26063886411, -98754.14207627083, 54390.086756955, -111525.01243651062, 0.028, 0.962, -0.026000000000000002, 192.0, 0.0, 0.0, 0.0, 0.0, 0.0, 0.0, 0.0, 0.0, 0.0, 1.6664044394892647E9, 0.0, 2022-10-21 19:07:19.489
249.0, -129370.71226486114, -157097.1348401469, -33716.84655151922, -140113.20651927072, 67028.50067955264, -98746.92246281177, 54399.02745473712, -111517.90458177384, 0.028, 0.962, -0.026000000000000002, 192.0, 0.0, 0.0, 0.0, 0.0, 0.0, 0.0, 0.0, 0.0, 0.0, 1.6664044394892833E9, 0.0, 2022-10-21 19:07:19.489
250.0, -129366.24191597008, -157092.2845116001, -33710.67747004956, -140103.68467613278, 67032.61340053241, -98729.66691609228, 54412.43850141031, -111516.87640152889, 0.026000000000000002, 0.962, -0.03, 192.0, 0.0, 208.0, 30.0, 16.0, 255.0, 16.0, 0.0, 0.0, 0.0, 1.6664044394893017E9, 0.0, 2022-10-21 19:07:19.489
251.0, -129366.84541307038, -157091.25633135514, -33710.38689737164, -140111.44073145877, 67029.26063886411, -98740.82043657546, 54400.52502161563, -111514.06008172753, 0.026000000000000002, 0.962, -0.03, 192.0, 0.0, 0.0, 0.0, 0.0, 0.0, 0.0, 0.0, 0.0, 0.0, 1.666404439489322E9, 0.0, 2022-10-21 19:07:19.489
252.0, -129368.85707007136, -157092.21745636672, -33713.73965903994, -140121.1190368079, 67023.58329577248, -98754.27618673757, 54389.77383253263, -111514.84239278345, 0.026000000000000002, 0.962, -0.03, 192.0, 0.0, 0.0, 0.0, 0.0, 0.0, 0.0, 0.0, 0.0, 0.0, 1.6664044394893398E9, 0.0, 2022-10-21 19:07:19.489
253.0, -129371.36046545036, -157095.4361075683, -33714.65608056261, -140117.9674408397, 67017.79419395854, -98758.54536992853, 54389.95264648827, -111527.24761095615, 0.026000000000000002, 0.962, -0.03, 192.0, 0.0, 0.0, 0.0, 0.0, 0.0, 0.0, 0.0, 0.0, 0.0, 1.6664044394893577E9, 0.0, 2022-10-21 19:07:19.489
254.0, -129372.00866603956, -157095.54786629055, -33715.86307476319, -140110.54666168054, 67018.8670776924, -98735.4560179062, 54406.85056529648, -111531.29327670256, 0.026000000000000002, 0.962, -0.03, 192.0, 0.0, 0.0, 0.0, 0.0, 0.0, 0.0, 0.0, 0.0, 0.0, 1.6664044394893756E9, 0.0, 2022-10-21 19:07:19.489
255.0, -129363.55970663545, -157088.1717906203, -33706.09536243622, -140106.0092575561, 67026.71253999621, -98732.66204984928, 54408.30342868608, -111519.37979690789, 0.026000000000000002, 0.962, -0.03, 192.0, 0.0, 0.0, 0.0, 0.0, 0.0, 0.0, 0.0, 0.0, 0.0, 1.6664044394893937E9, 0.0, 2022-10-21 19:07:19.489
0.0, -129359.64815135577, -157084.2825870851, -33702.876711234654, -140099.48254817518, 67033.6192290329, -98742.2062447317, 54398.73688205921, -111515.69175907275, 0.026000000000000002, 0.962, -0.03, 192.0, 0.0, 0.0, 0.0, 0.0, 0.0, 0.0, 0.0, 0.0, 0.0, 1.6664044394895039E9, 0.0, 2022-10-21 19:07:19.489
1.0, -129368.63355262681, -157094.65379651234, -33714.700784051514, -140116.8722053614, 67018.26358059212, -98743.32383195446, 54395.540582602094, -111527.15820397834, 0.026000000000000002, 0.962, -0.03, 192.0, 0.0, 0.0, 0.0, 0.0, 0.0, 0.0, 0.0, 0.0, 0.0, 1.6664044394895215E9, 0.0, 2022-10-21 19:07:19.489
2.0, -129372.16512825074, -157100.30878785954, -33716.06424046329, -140119.48735946268, 67014.82141194599, -98734.78546557254, 54407.83404205251, -111525.14654697735, 0.026000000000000002, 0.962, -0.03, 192.0, 0.0, 0.0, 0.0, 0.0, 0.0, 0.0, 0.0, 0.0, 0.0, 1.6664044394895399E9, 0.0, 2022-10-21 19:07:19.489
3.0, -129373.05919802896, -157103.90741871684, -33717.13712419714, -140123.46596997572, 67015.62607474638, -98732.59499461592, 54413.55608863307, -111524.38658766587, 0.026000000000000002, 0.962, -0.03, 192.0, 0.0, 0.0, 0.0, 0.0, 0.0, 0.0, 0.0, 0.0, 0.0, 1.666404439489558E9, 0.0, 2022-10-21 19:07:19.489
4.0, -129369.54997414947, -157100.62171228192, -33711.52683633886, -140124.65061243184, 67021.45988004922, -98760.48997169614, 54395.74174830219, -111519.6703695858, 0.022, 0.962, -0.034, 192.0, 0.0, 176.0, 30.0, 16.0, 254.0, 240.0, 0.0, 0.0, 0.0, 1.6664044394895756E9, 0.0, 2022-10-21 19:07:19.489
5.0, -129370.44404392768, -157101.04639542656, -33712.86794100618, -140109.54083318007, 67026.24315336265, -98752.75626811461, 54400.659132082365, -111514.10478521643, 0.022, 0.962, -0.034, 192.0, 0.0, 0.0, 0.0, 0.0, 0.0, 0.0, 0.0, 0.0, 0.0, 1.6664044394895952E9, 0.0, 2022-10-21 19:07:19.489
6.0, -129366.21956422563, -157097.7830407361, -33709.8057520158, -140095.52628940658, 67032.50164181014, -98723.96722125617, 54424.217870738255, -111508.0698142135, 0.022, 0.962, -0.034, 192.0, 0.0, 0.0, 0.0, 0.0, 0.0, 0.0, 0.0, 0.0, 0.0, 1.6664044394896133E9, 0.0, 2022-10-21 19:07:19.489
7.0, -129363.89498280227, -157096.19606687975, -33713.382031128654, -140114.59232742697, 67028.88065920839, -98728.61638410288, 54419.188728235815, -111514.95415150574, 0.022, 0.962, -0.034, 192.0, 0.0, 0.0, 0.0, 0.0, 0.0, 0.0, 0.0, 0.0, 0.0, 1.6664044394896338E9, 0.0, 2022-10-21 19:07:19.489
8.0, -129363.96203803565, -157097.4924680582, -33715.617205574184, -140124.069467076, 67028.9253626973, -98747.4589046787, 54400.837946038, -111525.21360221072, 0.022, 0.962, -0.034, 192.0, 0.0, 0.0, 0.0, 0.0, 0.0, 0.0, 0.0, 0.0, 0.0, 1.6664044394896517E9, 0.0, 2022-10-21 19:07:19.489
9.0, -129361.27982870101, -157095.54786629055, -33711.23626366094, -140115.821673372, 67032.00990343212, -98748.68825062375, 54399.56389660405, -111523.80544231004, 0.022, 0.962, -0.034, 192.0, 0.0, 0.0, 0.0, 0.0, 0.0, 0.0, 0.0, 0.0, 0.0, 1.6664044394896693E9, 0.0, 2022-10-21 19:07:19.489
10.0, -129357.52473563251, -157093.55856103403, -33711.01274621639, -140106.1210162784, 67032.14401389885, -98739.76990458608, 54409.041036253104, -111521.7267300757, 0.022, 0.962, -0.034, 192.0, 0.0, 0.0, 0.0, 0.0, 0.0, 0.0, 0.0, 0.0, 0.0, 1.66640443948969E9, 0.0, 2022-10-21 19:07:19.489
11.0, -129358.0835292439, -157094.3855755789, -33713.27027240637, -140110.2113855137, 67029.10417665294, -98725.48713987913, 54416.662981112364, -111524.34188417696, 0.022, 0.962, -0.034, 192.0, 0.0, 0.0, 0.0, 0.0, 0.0, 0.0, 0.0, 0.0, 0.0, 1.6664044394897077E9, 0.0, 2022-10-21 19:07:19.489
12.0, -129358.284694944, -157095.05612791254, -33713.33732763974, -140120.4261327298, 67028.3665690859, -98747.4589046787, 54401.8884780274, -111517.45754688473, 0.022, 0.962, -0.034, 192.0, 0.0, 0.0, 0.0, 0.0, 0.0, 0.0, 0.0, 0.0, 0.0, 1.6664044394897256E9, 0.0, 2022-10-21 19:07:19.489
13.0, -129355.49072688709, -157090.8763516994, -33711.61624331668, -140108.4679494462, 67034.08861566646, -98760.06528855149, 54400.837946038, -111513.92597126079, 0.022, 0.962, -0.034, 192.0, 0.0, 0.0, 0.0, 0.0, 0.0, 0.0, 0.0, 0.0, 0.0, 1.6664044394897437E9, 0.0, 2022-10-21 19:07:19.489
