%OpenBCI Raw EEG Data
%Number of channels = 8
%Sample Rate = 250 Hz
%Board = OpenBCI_GUI$BoardCytonSerial
Sample Index, EXG Channel 0, EXG Channel 1, EXG Channel 2, EXG Channel 3, EXG Channel 4, EXG Channel 5, EXG Channel 6, EXG Channel 7, Accel Channel 0, Accel Channel 1, Accel Channel 2, Other, Other, Other, Other, Other, Other, Other, Analog Channel 0, Analog Channel 1, Analog Channel 2, Timestamp, Other, Timestamp (Formatted)
120.0, -128310.45726662366, -156865.83898852338, -33062.812157012486, -139284.7167592903, 65928.68309362925, -92415.8131975905, 56108.6453328902, -111757.1800061679, 0.0, 0.0, 0.0, 192.0, 0.0, 0.0, 0.0, 0.0, 0.0, 0.0, 0.0, 0.0, 0.0, 1.6664044015482855E9, 0.0, 2022-10-21 19:06:41.548
121.0, -128306.92569099972, -156862.75444778855, -33060.48757558913, -139285.54377383518, 65932.6170006534, -92436.04152632256, 56093.87082980524, -111758.6775730464, 0.0, 0.0, 0.0, 192.0, 0.0, 0.0, 0.0, 0.0, 0.0, 0.0, 0.0, 0.0, 0.0, 1.6664044015483162E9, 0.0, 2022-10-21 19:06:41.548
122.0, -128305.29401365448, -156859.15581693125, -33056.441909842724, -139275.75370976375, 65936.88618384436, -92432.8675786099, 56101.38101594222, -111756.8223782566, 0.0, 0.0, 0.0, 192.0, 0.0, 0.0, 0.0, 0.0, 0.0, 0.0, 0.0, 0.0, 0.0, 1.6664044015483332E9, 0.0, 2022-10-21 19:06:41.548
123.0, -128302.41063861975, -156853.9702122176, -33050.02695918405, -139263.6614160134, 65940.99890482413, -92419.74710461464, 56113.62977190373, -111751.90499447644, 0.0, 0.0, 0.0, 192.0, 0.0, 0.0, 0.0, 0.0, 0.0, 0.0, 0.0, 0.0, 0.0, 1.666404401548354E9, 0.0, 2022-10-21 19:06:41.548
124.0, -128307.86446426684, -156859.2228721646, -33053.849107485905, -139284.20266916783, 65933.53342217606, -92441.31653801401, 56094.45197516108, -111757.58233756809, 0.066, 0.9560000000000001, -0.024, 192.0, 2.0, 16.0, 29.0, 224.0, 255.0, 64.0, 0.0, 0.0, 0.0, 1.6664044015483773E9, 0.0, 2022-10-21 19:06:41.548
125.0, -128311.57485384642, -156863.1120756998, -33055.25726738659, -139291.95872449383, 65933.13109077586, -92451.53128523008, 56086.740623323996, -111760.42100911391, 0.066, 0.9560000000000001, -0.024, 192.0, 0.0, 0.0, 0.0, 0.0, 0.0, 0.0, 0.0, 0.0, 0.0, 1.6664044015484056E9, 0.0, 2022-10-21 19:06:41.548
126.0, -128311.82072303543, -156863.9167385002, -33055.190212153226, -139289.9694192373, 65932.68405588676, -92428.88896809686, 56102.49860316499, -111761.49389284778, 0.066, 0.9560000000000001, -0.024, 192.0, 0.0, 0.0, 0.0, 0.0, 0.0, 0.0, 0.0, 0.0, 0.0, 1.666404401548426E9, 0.0, 2022-10-21 19:06:41.548
127.0, -128310.94900500168, -156862.50857859955, -33052.73152026314, -139279.5758580656, 65934.69571288774, -92423.5692529165, 56109.651161390684, -111763.77377078221, 0.066, 0.9560000000000001, -0.024, 192.0, 0.0, 0.0, 0.0, 0.0, 0.0, 0.0, 0.0, 0.0, 0.0, 1.6664044015484433E9, 0.0, 2022-10-21 19:06:41.548
128.0, -128308.75853404506, -156859.53579658698, -33050.988084195626, -139278.95000922086, 65939.85896585691, -92428.50898844111, 56108.0418357899, -111761.11391319204, 0.066, 0.9560000000000001, -0.024, 192.0, 0.0, 0.0, 0.0, 0.0, 0.0, 0.0, 0.0, 0.0, 0.0, 1.6664044015484614E9, 0.0, 2022-10-21 19:06:41.548
129.0, -128307.28331891101, -156859.75931403154, -33051.07749117345, -139292.29400066068, 65936.95323907772, -92455.35343353194, 56087.29941693538, -111760.48806434729, 0.066, 0.9560000000000001, -0.024, 192.0, 0.0, 0.0, 0.0, 0.0, 0.0, 0.0, 0.0, 0.0, 0.0, 1.6664044015484784E9, 0.0, 2022-10-21 19:06:41.548
130.0, -128312.91595851374, -156865.0790292119, -33054.899639475305, -139290.95289599334, 65928.92896281826, -92462.28247431308, 56084.30428317837, -111766.2324626723, 0.066, 0.9560000000000001, -0.024, 192.0, 0.0, 0.0, 0.0, 0.0, 0.0, 0.0, 0.0, 0.0, 0.0, 1.6664044015484948E9, 0.0, 2022-10-21 19:06:41.548
131.0, -128315.03937423699, -156866.35307864586, -33053.73734876363, -139286.21432616882, 65926.78319535055, -92443.86463688192, 56101.71629210905, -111764.80195102716, 0.066, 0.9560000000000001, -0.024, 192.0, 0.0, 0.0, 0.0, 0.0, 0.0, 0.0, 0.0, 0.0, 0.0, 1.6664044015485115E9, 0.0, 2022-10-21 19:06:41.548
132.0, -128309.13851370079, -156863.8273315224, -33047.03182542704, -139290.1705849374, 65930.71710237469, -92444.11050607092, 56101.85040257579, -111764.60078532706, 0.066, 0.9560000000000001, -0.024, 192.0, 0.0, 0.0, 0.0, 0.0, 0.0, 0.0, 0.0, 0.0, 0.0, 1.666404401548528E9, 0.0, 2022-10-21 19:06:41.548
133.0, -128306.43395262171, -156860.60868032085, -33047.03182542704, -139291.623448327, 65934.80747161001, -92455.08521259848, 56091.546248381885, -111767.19358768387, 0.066, 0.9560000000000001, -0.024, 192.0, 0.0, 0.0, 0.0, 0.0, 0.0, 0.0, 0.0, 0.0, 0.0, 1.666404401548545E9, 0.0, 2022-10-21 19:06:41.548
134.0, -128311.0831154684, -156864.60964257832, -33049.46816557267, -139289.9694192373, 65932.16996576429, -92445.00457584913, 56095.189582728104, -111767.9311952509, 0.068, 0.96, -0.02, 192.0, 2.0, 32.0, 30.0, 0.0, 255.0, 96.0, 0.0, 0.0, 0.0, 1.666404401548561E9, 0.0, 2022-10-21 19:06:41.548
135.0, -128304.26583340953, -156858.261747153, -33042.09208990241, -139274.54671556316, 65941.44593971323, -92419.34477321444, 56116.20022251609, -111763.39379112647, 0.068, 0.96, -0.02, 192.0, 0.0, 0.0, 0.0, 0.0, 0.0, 0.0, 0.0, 0.0, 0.0, 1.6664044015485797E9, 0.0, 2022-10-21 19:06:41.548
136.0, -128297.87323449532, -156854.0149157065, -33035.56538052147, -139274.45730858532, 65946.1174543044, -92416.61786039089, 56121.83286211883, -111758.52111083521, 0.068, 0.96, -0.02, 192.0, 0.0, 0.0, 0.0, 0.0, 0.0, 0.0, 0.0, 0.0, 0.0, 1.6664044015487528E9, 0.0, 2022-10-21 19:06:41.548
137.0, -128299.32609788491, -156857.18886341917, -33035.744194477105, -139286.7731197802, 65941.9153263468, -92444.0210990931, 56100.151669997176, -111764.26550916024, 0.068, 0.96, -0.02, 192.0, 0.0, 0.0, 0.0, 0.0, 0.0, 0.0, 0.0, 0.0, 0.0, 1.666404401548771E9, 0.0, 2022-10-21 19:06:41.548
138.0, -128300.60014731887, -156857.4123808637, -33036.079470643934, -139280.29111388818, 65945.46925371519, -92450.3689945184, 56097.82708857383, -111762.52207309271, 0.068, 0.96, -0.02, 192.0, 0.0, 0.0, 0.0, 0.0, 0.0, 0.0, 0.0, 0.0, 0.0, 1.666404401548788E9, 0.0, 2022-10-21 19:06:41.548
139.0, -128304.98108923211, -156862.4638751106, -33041.57799977994, -139277.20657315332, 65941.08831180196, -92426.18440701776, 56116.89312659421, -111766.65714581695, 0.068, 0.96, -0.02, 192.0, 0.0, 0.0, 0.0, 0.0, 0.0, 0.0, 0.0, 0.0, 0.0, 1.6664044015488048E9, 0.0, 2022-10-21 19:06:41.548
140.0, -128307.32802239992, -156863.60381407785, -33043.67906375874, -139279.10647143202, 65939.83661411246, -92417.40017144683, 56124.22449877555, -111765.91953824992, 0.068, 0.96, -0.02, 192.0, 0.0, 0.0, 0.0, 0.0, 0.0, 0.0, 0.0, 0.0, 0.0, 1.6664044015488217E9, 0.0, 2022-10-21 19:06:41.548
141.0, -128305.36106888784, -156862.10624719935, -33042.29325560251, -139284.15796567893, 65941.64710541333, -92440.13189555788, 56107.25952473397, -111760.24219515828, 0.068, 0.96, -0.02, 192.0, 0.0, 0.0, 0.0, 0.0, 0.0, 0.0, 0.0, 0.0, 0.0, 1.6664044015488384E9, 0.0, 2022-10-21 19:06:41.548
142.0, -128301.71773454163, -156859.33463088688, -33043.500249803095, -139283.71093078982, 65941.73651239116, -92458.59443647796, 56095.30134145038, -111748.95456420834, 0.068, 0.96, -0.02, 192.0, 0.0, 0.0, 0.0, 0.0, 0.0, 0.0, 0.0, 0.0, 0.0, 1.6664044015488598E9, 0.0, 2022-10-21 19:06:41.548
143.0, -128300.57779557441, -156859.64755530926, -33042.025034669045, -139272.62446554, 65945.24573627063, -92440.46717172471, 56111.34989396929, -111748.57458455261, 0.068, 0.96, -0.02, 192.0, 0.0, 0.0, 0.0, 0.0, 0.0, 0.0, 0.0, 0.0, 0.0, 1.6664044015488763E9, 0.0, 2022-10-21 19:06:41.548
144.0, -128302.32123164192, -156861.83802626588, -33038.269941600556, -139269.20464863835, 65948.71025666122, -92422.7645901161, 56127.37609474374, -111756.15182592295, 0.056, 0.96, -0.022, 192.0, 1.0, 192.0, 30.0, 0.0, 255.0, 80.0, 0.0, 0.0, 0.0, 1.6664044015488927E9, 0.0, 2022-10-21 19:06:41.548
145.0, -128294.028734449, -156854.1713779177, -33031.899694430795, -139269.83049748308, 65951.70539041822, -92425.69266863975, 56122.7492836415, -111753.64843054395, 0.056, 0.96, -0.022, 192.0, 0.0, 0.0, 0.0, 0.0, 0.0, 0.0, 0.0, 0.0, 0.0, 1.666404401548911E9, 0.0, 2022-10-21 19:06:41.548
146.0, -128293.31347862644, -156852.89732848376, -33034.6489589988, -139279.7323202768, 65943.43524496976, -92449.89960788484, 56105.51608866645, -111756.64356430098, 0.056, 0.96, -0.022, 192.0, 0.0, 0.0, 0.0, 0.0, 0.0, 0.0, 0.0, 0.0, 0.0, 1.666404401548928E9, 0.0, 2022-10-21 19:06:41.548
147.0, -128300.2872228965, -156859.44638960916, -33040.371005579356, -139282.63804705598, 65934.33808497645, -92447.75384041714, 56110.746396869, -111761.98563122579, 0.056, 0.96, -0.022, 192.0, 0.0, 0.0, 0.0, 0.0, 0.0, 0.0, 0.0, 0.0, 0.0, 1.6664044015489445E9, 0.0, 2022-10-21 19:06:41.548
148.0, -128298.61084206235, -156857.524139586, -33038.471107300655, -139278.54767782066, 65935.45567219921, -92425.40209596182, 56131.06413257887, -111753.55902356614, 0.056, 0.96, -0.022, 192.0, 0.0, 0.0, 0.0, 0.0, 0.0, 0.0, 0.0, 0.0, 0.0, 1.6664044015489616E9, 0.0, 2022-10-21 19:06:41.548
149.0, -128295.52630132751, -156852.98673546157, -33035.0959938879, -139278.10064293156, 65939.94837283473, -92437.67320366779, 56121.2964202519, -111746.87585197401, 0.056, 0.96, -0.022, 192.0, 0.0, 0.0, 0.0, 0.0, 0.0, 0.0, 0.0, 0.0, 0.0, 1.666404401548978E9, 0.0, 2022-10-21 19:06:41.548
150.0, -128295.74981877206, -156851.4668168386, -33035.27480784355, -139280.2687621437, 65939.59074492345, -92465.50112551465, 56100.4422426751, -111750.42977934239, 0.056, 0.96, -0.022, 192.0, 0.0, 0.0, 0.0, 0.0, 0.0, 0.0, 0.0, 0.0, 0.0, 1.6664044015489948E9, 0.0, 2022-10-21 19:06:41.548
151.0, -128309.31732765643, -156865.25784316752, -33046.49538356011, -139282.95097147836, 65929.35364596291, -92458.5720847335, 56101.64923687569, -111765.5842620831, 0.056, 0.96, -0.022, 192.0, 0.0, 0.0, 0.0, 0.0, 0.0, 0.0, 0.0, 0.0, 0.0, 1.666404401549063E9, 0.0, 2022-10-21 19:06:41.549
152.0, -128309.94317650118, -156866.1742646902, -33046.42832832674, -139279.68761678788, 65925.97853255016, -92436.13093330037, 56118.70361789509, -111770.05461097416, 0.056, 0.96, -0.022, 192.0, 0.0, 0.0, 0.0, 0.0, 0.0, 0.0, 0.0, 0.0, 0.0, 1.6664044015490751E9, 0.0, 2022-10-21 19:06:41.549
153.0, -128288.1278739128, -156841.25206962254, -33024.50126701609, -139261.53800029017, 65947.39150373836, -92432.93463384327, 56130.63944943422, -111747.70286651884, 0.056, 0.96, -0.022, 192.0, 0.0, 0.0, 0.0, 0.0, 0.0, 0.0, 0.0, 0.0, 0.0, 1.666404401549087E9, 0.0, 2022-10-21 19:06:41.549
154.0, -128297.1356269283, -156850.63980229376, -33034.67131074325, -139281.78868076668, 65935.07569254347, -92453.81116316452, 56111.17108001365, -111753.08963693258, 0.044, 0.964, -0.02, 192.0, 1.0, 96.0, 30.0, 32.0, 255.0, 96.0, 0.0, 0.0, 0.0, 1.666404401549099E9, 0.0, 2022-10-21 19:06:41.549
155.0, -128310.72548755712, -156868.275328669, -33045.668369015264, -139286.39314012448, 65924.95035230523, -92451.57598871899, 56108.62298114574, -111760.42100911391, 0.044, 0.964, -0.02, 192.0, 0.0, 0.0, 0.0, 0.0, 0.0, 0.0, 0.0, 0.0, 0.0, 1.6664044015491118E9, 0.0, 2022-10-21 19:06:41.549
156.0, -128311.19487419068, -156869.54937810297, -33043.075566658445, -139280.626390055, 65925.15151800532, -92440.91420661382, 56120.223536518046, -111756.68826778988, 0.044, 0.964, -0.02, 192.0, 0.0, 0.0, 0.0, 0.0, 0.0, 0.0, 0.0, 0.0, 0.0, 1.6664044015491235E9, 0.0, 2022-10-21 19:06:41.549
157.0, -128309.42908637872, -156868.4764943691, -33037.77820322254, -139279.84407899907, 65931.85704134191, -92423.94923257224, 56133.90280412469, -111752.32967762109, 0.044, 0.964, -0.02, 192.0, 0.0, 0.0, 0.0, 0.0, 0.0, 0.0, 0.0, 0.0, 0.0, 1.6664044015491357E9, 0.0, 2022-10-21 19:06:41.549
158.0, -128305.13755144329, -156864.2743664115, -33033.12904037584, -139284.4261866124, 65936.37209372189, -92442.32236651449, 56123.17396678615, -111746.92055546292, 0.044, 0.964, -0.02, 192.0, 0.0, 0.0, 0.0, 0.0, 0.0, 0.0, 0.0, 0.0, 0.0, 1.6664044015491476E9, 0.0, 2022-10-21 19:06:41.549
159.0, -128302.6341560643, -156861.83802626588, -33035.65478749928, -139279.19587840987, 65935.72389313267, -92449.56433171801, 56120.51410919597, -111743.12075890551, 0.044, 0.964, -0.02, 192.0, 0.0, 0.0, 0.0, 0.0, 0.0, 0.0, 0.0, 0.0, 0.0, 1.6664044015491593E9, 0.0, 2022-10-21 19:06:41.549
160.0, -128302.65650780876, -156862.79915127746, -33036.995892166604, -139271.0598434281, 65935.63448615486, -92427.90549134082, 56140.898900139204, -111742.4278548274, 0.044, 0.964, -0.02, 192.0, 0.0, 0.0, 0.0, 0.0, 0.0, 0.0, 0.0, 0.0, 0.0, 1.6664044015491712E9, 0.0, 2022-10-21 19:06:41.549
161.0, -128303.97526073162, -156864.3637733893, -33036.59356076641, -139275.70900627482, 65933.13109077586, -92425.22328200619, 56142.932908884635, -111742.67372401641, 0.044, 0.964, -0.02, 192.0, 0.0, 0.0, 0.0, 0.0, 0.0, 0.0, 0.0, 0.0, 0.0, 1.666404401549184E9, 0.0, 2022-10-21 19:06:41.549
162.0, -128302.03065896401, -156861.65921231025, -33035.58773226592, -139285.05203545713, 65933.15344252031, -92452.067727097, 56122.12343479675, -111737.73398849177, 0.044, 0.964, -0.02, 192.0, 0.0, 0.0, 0.0, 0.0, 0.0, 0.0, 0.0, 0.0, 0.0, 1.666404401549196E9, 0.0, 2022-10-21 19:06:41.549
163.0, -128301.74008628608, -156861.88272975478, -33033.33020607593, -139275.70900627482, 65937.48968094465, -92461.54486674606, 56115.93200158262, -111735.38705532397, 0.012, 0.9580000000000001, -0.01, 192.0, 0.0, 96.0, 29.0, 240.0, 255.0, 176.0, 0.0, 0.0, 0.0, 1.6664044015492148E9, 0.0, 2022-10-21 19:06:41.549
164.0, -128305.20460667666, -156867.2695001685, -33037.30881658898, -139267.2153433818, 65934.3604367209, -92435.61684317791, 56131.17589130114, -111745.11006416203, 0.012, 0.9580000000000001, -0.01, 192.0, 0.0, 0.0, 0.0, 0.0, 0.0, 0.0, 0.0, 0.0, 0.0, 1.666404401549234E9, 0.0, 2022-10-21 19:06:41.549
165.0, -128301.76243803055, -156864.45318036716, -33033.799592709496, -139257.42527931038, 65940.82009086848, -92427.86078785191, 56138.73078092704, -111741.8243577271, 0.012, 0.9580000000000001, -0.01, 192.0, 0.0, 0.0, 0.0, 0.0, 0.0, 0.0, 0.0, 0.0, 0.0, 1.6664044015492523E9, 0.0, 2022-10-21 19:06:41.549
166.0, -128309.87612126782, -156873.8185612939, -33043.47789805864, -139283.35330287853, 65932.79581460904, -92443.50700897063, 56123.62100167525, -111751.94969796535, 0.012, 0.9580000000000001, -0.01, 192.0, 0.0, 0.0, 0.0, 0.0, 0.0, 0.0, 0.0, 0.0, 0.0, 1.6664044015493054E9, 0.0, 2022-10-21 19:06:41.549
167.0, -128308.66912706723, -156874.0867822274, -33041.77916548004, -139289.7235500483, 65926.313808717, -92465.00938713663, 56105.538440410906, -111752.39673285447, 0.012, 0.9580000000000001, -0.01, 192.0, 0.0, 0.0, 0.0, 0.0, 0.0, 0.0, 0.0, 0.0, 0.0, 1.6664044015493171E9, 0.0, 2022-10-21 19:06:41.549
168.0, -128303.26000490905, -156867.6271280798, -33033.53137177603, -139269.29405561616, 65933.57812566496, -92454.07938409799, 56119.3965219732, -111744.48421531728, 0.012, 0.9580000000000001, -0.01, 192.0, 0.0, 0.0, 0.0, 0.0, 0.0, 0.0, 0.0, 0.0, 0.0, 1.6664044015493293E9, 0.0, 2022-10-21 19:06:41.549
169.0, -128302.85767350886, -156868.65530832476, -33036.70531948868, -139270.9704364503, 65929.89008782984, -92435.99682283364, 56135.243908792014, -111746.18294789588, 0.012, 0.9580000000000001, -0.01, 192.0, 0.0, 0.0, 0.0, 0.0, 0.0, 0.0, 0.0, 0.0, 0.0, 1.6664044015493407E9, 0.0, 2022-10-21 19:06:41.549
170.0, -128306.52335959952, -156870.2199304366, -33043.61200852537, -139283.26389590072, 65924.79389009404, -92434.94629084424, 56134.43924599162, -111738.69511350336, 0.012, 0.9580000000000001, -0.01, 192.0, 0.0, 0.0, 0.0, 0.0, 0.0, 0.0, 0.0, 0.0, 0.0, 1.666404401549353E9, 0.0, 2022-10-21 19:06:41.549
171.0, -128308.55736834496, -156871.40457289276, -33048.59644753891, -139286.84017501358, 65924.2127447382, -92452.49241024166, 56122.88339410823, -111742.0255234272, 0.012, 0.9580000000000001, -0.01, 192.0, 0.0, 0.0, 0.0, 0.0, 0.0, 0.0, 0.0, 0.0, 0.0, 1.6664044015493646E9, 0.0, 2022-10-21 19:06:41.549
172.0, -128313.40769689175, -156877.14897121777, -33056.41955809826, -139284.2697244012, 65917.26135221259, -92441.04831708054, 56126.97376334355, -111750.85446248704, 0.012, 0.9580000000000001, -0.01, 192.0, 0.0, 0.0, 0.0, 0.0, 0.0, 0.0, 0.0, 0.0, 0.0, 1.6664044015493765E9, 0.0, 2022-10-21 19:06:41.549
173.0, -128304.98108923211, -156870.19757869217, -33046.80830798249, -139276.2230963973, 65923.0057505376, -92425.17857851727, 56140.47421699455, -111744.66302927292, -0.004, 0.9520000000000001, -0.012, 192.0, 255.0, 224.0, 29.0, 192.0, 255.0, 160.0, 0.0, 0.0, 0.0, 1.6664044015493884E9, 0.0, 2022-10-21 19:06:41.549
174.0, -128310.01023173454, -156876.1878462062, -33051.72569176265, -139284.4708901013, 65921.01644528109, -92440.69068916926, 56126.25850752098, -111748.86515723052, -0.004, 0.9520000000000001, -0.012, 192.0, 0.0, 0.0, 0.0, 0.0, 0.0, 0.0, 0.0, 0.0, 0.0, 1.6664044015494013E9, 0.0, 2022-10-21 19:06:41.549
175.0, -128302.96943223113, -156869.23645368058, -33041.756813735585, -139282.41452961141, 65929.35364596291, -92447.30680552803, 56123.710408653074, -111739.63388677048, -0.004, 0.9520000000000001, -0.012, 192.0, 0.0, 0.0, 0.0, 0.0, 0.0, 0.0, 0.0, 0.0, 0.0, 1.666404401549413E9, 0.0, 2022-10-21 19:06:41.549
176.0, -128297.64971705076, -156862.530930344, -33035.85595319938, -139266.6118462815, 65932.88522158685, -92438.81314263502, 56132.449940735096, -111734.71650299031, -0.004, 0.9520000000000001, -0.012, 192.0, 0.0, 0.0, 0.0, 0.0, 0.0, 0.0, 0.0, 0.0, 0.0, 1.666404401549425E9, 0.0, 2022-10-21 19:06:41.549
177.0, -128304.01996422053, -156871.94101475968, -33045.91423820427, -139272.15507890645, 65920.77057609208, -92431.43706696476, 56137.05440009289, -111738.24807861426, -0.004, 0.9520000000000001, -0.012, 192.0, 0.0, 0.0, 0.0, 0.0, 0.0, 0.0, 0.0, 0.0, 0.0, 1.6664044015494366E9, 0.0, 2022-10-21 19:06:41.549
178.0, -128302.54474908648, -156868.99058449158, -33041.756813735585, -139282.25806740022, 65921.79875633703, -92444.28932002657, 56128.85130987779, -111734.33652333457, -0.004, 0.9520000000000001, -0.012, 192.0, 0.0, 0.0, 0.0, 0.0, 0.0, 0.0, 0.0, 0.0, 0.0, 1.6664044015494485E9, 0.0, 2022-10-21 19:06:41.549
179.0, -128305.11519969883, -156870.6222618368, -33043.14262189181, -139286.8848785025, 65923.02810228207, -92457.61095972192, 56115.82024286035, -111739.00803792573, -0.004, 0.9520000000000001, -0.012, 192.0, 0.0, 0.0, 0.0, 0.0, 0.0, 0.0, 0.0, 0.0, 0.0, 1.6664044015494604E9, 0.0, 2022-10-21 19:06:41.549
180.0, -128305.29401365448, -156869.1693984472, -33041.93562769123, -139274.7702330077, 65926.40321569481, -92448.17852356179, 56122.68222840813, -111741.44437807136, -0.004, 0.9520000000000001, -0.012, 192.0, 0.0, 0.0, 0.0, 0.0, 0.0, 0.0, 0.0, 0.0, 0.0, 1.666404401549472E9, 0.0, 2022-10-21 19:06:41.549
181.0, -128304.66816480973, -156867.94005250218, -33041.37683407984, -139263.52730554668, 65927.09611977293, -92439.32723275748, 56133.96985935806, -111737.91280244742, -0.004, 0.9520000000000001, -0.012, 192.0, 0.0, 0.0, 0.0, 0.0, 0.0, 0.0, 0.0, 0.0, 0.0, 1.666404401549496E9, 0.0, 2022-10-21 19:06:41.549
182.0, -128309.49614161208, -156875.0255554945, -33046.853011471394, -139280.40287261043, 65921.73170110365, -92442.59058744796, 56133.25460353549, -111736.5269942912, -0.004, 0.9520000000000001, -0.012, 192.0, 0.0, 0.0, 0.0, 0.0, 0.0, 0.0, 0.0, 0.0, 0.0, 1.666404401549508E9, 0.0, 2022-10-21 19:06:41.549
183.0, -128303.79644677597, -156870.91283451472, -33042.82969746944, -139277.16186966441, 65928.0125412956, -92446.88212238338, 56127.08552206583, -111732.5260320337, -0.012, 0.9480000000000001, -0.01, 192.0, 255.0, 160.0, 29.0, 160.0, 255.0, 176.0, 0.0, 0.0, 0.0, 1.66640440154952E9, 0.0, 2022-10-21 19:06:41.549
184.0, -128313.1841794472, -156879.00416600754, -33050.94338070672, -139279.4640993433, 65917.79779407952, -92454.1687910758, 56120.67057140715, -111739.25390711475, -0.012, 0.9480000000000001, -0.01, 192.0, 0.0, 0.0, 0.0, 0.0, 0.0, 0.0, 0.0, 0.0, 0.0, 1.6664044015495343E9, 0.0, 2022-10-21 19:06:41.549
185.0, -128313.02771723602, -156877.50659912903, -33048.93172370574, -139274.25614288522, 65914.22151496667, -92459.68967195626, 56123.285725508424, -111740.70677050433, -0.012, 0.9480000000000001, -0.01, 192.0, 0.0, 0.0, 0.0, 0.0, 0.0, 0.0, 0.0, 0.0, 0.0, 1.6664044015495462E9, 0.0, 2022-10-21 19:06:41.549
186.0, -128309.18321718971, -156873.5726921049, -33045.08722365942, -139273.09385217357, 65921.9552185482, -92448.9161311288, 56131.891147123715, -111735.7223314908, -0.012, 0.9480000000000001, -0.01, 192.0, 0.0, 0.0, 0.0, 0.0, 0.0, 0.0, 0.0, 0.0, 0.0, 1.666404401549558E9, 0.0, 2022-10-21 19:06:41.549
187.0, -128306.25513866606, -156872.2762909265, -33042.09208990241, -139282.41452961141, 65926.6043813949, -92452.82768640849, 56123.710408653074, -111735.65527625744, -0.012, 0.9480000000000001, -0.01, 192.0, 0.0, 0.0, 0.0, 0.0, 0.0, 0.0, 0.0, 0.0, 0.0, 1.66640440154957E9, 0.0, 2022-10-21 19:06:41.549
188.0, -128297.3814961173, -156869.05763972492, -33033.95605492068, -139278.7711952652, 65931.67822738626, -92459.46615451171, 56118.92713533964, -111732.30251458914, -0.012, 0.9480000000000001, -0.01, 192.0, 0.0, 0.0, 0.0, 0.0, 0.0, 0.0, 0.0, 0.0, 0.0, 1.6664044015495827E9, 0.0, 2022-10-21 19:06:41.549
189.0, -128304.44464736518, -156871.33751765938, -33033.017281653556, -139271.2610091282, 65933.35460822041, -92440.10954381342, 56137.05440009289, -111726.28989533066, -0.012, 0.9480000000000001, -0.01, 192.0, 0.0, 0.0, 0.0, 0.0, 0.0, 0.0, 0.0, 0.0, 0.0, 1.6664044015495949E9, 0.0, 2022-10-21 19:06:41.549
190.0, -128310.50197011257, -156875.4278868947, -33032.23497059762, -139273.04914868466, 65930.67239888578, -92432.62170942088, 56146.419781019664, -111729.79911921015, -0.012, 0.9480000000000001, -0.01, 192.0, 0.0, 0.0, 0.0, 0.0, 0.0, 0.0, 0.0, 0.0, 0.0, 1.6664044015496068E9, 0.0, 2022-10-21 19:06:41.549
191.0, -128304.31053689845, -156868.61060483582, -33027.76462170656, -139270.90338121695, 65938.5178611896, -92449.38551776238, 56138.5519669714, -111726.37930230849, -0.012, 0.9480000000000001, -0.01, 192.0, 0.0, 0.0, 0.0, 0.0, 0.0, 0.0, 0.0, 0.0, 0.0, 1.666404401549619E9, 0.0, 2022-10-21 19:06:41.549
192.0, -128309.33967940089, -156875.40553515023, -33036.995892166604, -139274.65847428542, 65936.32739023297, -92461.5225150016, 56126.079693565334, -111734.11300589002, -0.008, 0.9560000000000001, -0.006, 192.0, 255.0, 192.0, 29.0, 224.0, 255.0, 208.0, 0.0, 0.0, 0.0, 1.666404401549631E9, 0.0, 2022-10-21 19:06:41.549
193.0, -128308.82558927842, -156883.2286457096, -33048.752909750096, -139278.21240165381, 65922.17873599277, -92456.82864866599, 56127.64431567721, -111742.51726180522, -0.008, 0.9560000000000001, -0.006, 192.0, 0.0, 0.0, 0.0, 0.0, 0.0, 0.0, 0.0, 0.0, 0.0, 1.6664044015496435E9, 0.0, 2022-10-21 19:06:41.549
194.0, -128300.44368510768, -156874.35500316083, -33047.38945333832, -139269.5175730607, 65926.89495407284, -92452.64887245285, 56137.143807070715, -111732.39192156696, -0.008, 0.9560000000000001, -0.006, 192.0, 0.0, 0.0, 0.0, 0.0, 0.0, 0.0, 0.0, 0.0, 0.0, 1.6664044015496554E9, 0.0, 2022-10-21 19:06:41.549
195.0, -128307.08215321091, -156877.4842473846, -33045.91423820427, -139269.78579399418, 65935.2098030102, -92465.5234772591, 56127.487853466024, -111728.54742152065, -0.008, 0.9560000000000001, -0.006, 192.0, 0.0, 0.0, 0.0, 0.0, 0.0, 0.0, 0.0, 0.0, 0.0, 1.666404401549678E9, 0.0, 2022-10-21 19:06:41.549
196.0, -128318.36978416084, -156891.29762545796, -33046.987121938124, -139283.06273020062, 65930.1136052744, -92482.55550653404, 56110.90285908018, -111736.9293256914, -0.008, 0.9560000000000001, -0.006, 192.0, 0.0, 0.0, 0.0, 0.0, 0.0, 0.0, 0.0, 0.0, 0.0, 1.6664044015496902E9, 0.0, 2022-10-21 19:06:41.549
197.0, -128315.77698180403, -156892.9293028032, -33048.462337072175, -139270.05401492765, 65936.14857627732, -92458.81795392251, 56125.25267902049, -111739.63388677048, -0.008, 0.9560000000000001, -0.006, 192.0, 0.0, 0.0, 0.0, 0.0, 0.0, 0.0, 0.0, 0.0, 0.0, 1.666404401549702E9, 0.0, 2022-10-21 19:06:41.549
198.0, -128306.88098751081, -156885.86615155532, -33052.21743014067, -139271.03749168367, 65930.87356458588, -92457.6780149553, 56125.6997139096, -111742.40550308293, -0.008, 0.9560000000000001, -0.006, 192.0, 0.0, 0.0, 0.0, 0.0, 0.0, 0.0, 0.0, 0.0, 0.0, 1.6664044015497139E9, 0.0, 2022-10-21 19:06:41.549
199.0, -128305.69634505468, -156885.82144806642, -33056.48661333163, -139271.4621748283, 65931.03002679706, -92455.91222714332, 56122.86104236377, -111745.84767172906, -0.008, 0.9560000000000001, -0.006, 192.0, 0.0, 0.0, 0.0, 0.0, 0.0, 0.0, 0.0, 0.0, 0.0, 1.6664044015497255E9, 0.0, 2022-10-21 19:06:41.549
200.0, -128303.84115026488, -156882.71455558712, -33051.72569176265, -139274.8149364966, 65936.59561116644, -92474.24065759667, 56108.19829800109, -111742.11493040502, -0.008, 0.9560000000000001, -0.006, 192.0, 0.0, 0.0, 0.0, 0.0, 0.0, 0.0, 0.0, 0.0, 0.0, 1.6664044015497372E9, 0.0, 2022-10-21 19:06:41.549
201.0, -128304.80227527647, -156884.6815090992, -33052.77622375205, -139272.3115411176, 65936.72972163316, -92463.19889583575, 56116.647257405195, -111746.16059615143, -0.008, 0.9560000000000001, -0.006, 192.0, 0.0, 0.0, 0.0, 0.0, 0.0, 0.0, 0.0, 0.0, 0.0, 1.666404401549749E9, 0.0, 2022-10-21 19:06:41.549
202.0, -128303.39411537578, -156886.2908347, -33057.51479357658, -139281.118128433, 65928.39252095134, -92464.96468364772, 56119.664742906665, -111748.30636361914, -0.008, 0.9560000000000001, -0.006, 192.0, 0.0, 0.0, 29.0, 224.0, 255.0, 240.0, 0.0, 0.0, 0.0, 1.6664044015497606E9, 0.0, 2022-10-21 19:06:41.549
203.0, -128300.37662987431, -156884.1227154878, -33057.17951740975, -139275.88782023048, 65936.32739023297, -92467.91511391582, 56123.33042899733, -111746.62998278499, -0.008, 0.9560000000000001, -0.006, 192.0, 0.0, 0.0, 0.0, 0.0, 0.0, 0.0, 0.0, 0.0, 0.0, 1.6664044015497727E9, 0.0, 2022-10-21 19:06:41.549
204.0, -128301.82949326391, -156888.9953957791, -33059.83937499993, -139289.61179132602, 65928.0572447845, -92477.39225356487, 56112.35572246978, -111751.36855260952, -0.008, 0.9560000000000001, -0.006, 192.0, 0.0, 0.0, 0.0, 0.0, 0.0, 0.0, 0.0, 0.0, 0.0, 1.6664044015497844E9, 0.0, 2022-10-21 19:06:41.549
205.0, -128298.09675193987, -156888.3248434454, -33060.10759593339, -139290.84113727108, 65924.48096567165, -92504.90725098936, 56094.76489958345, -111754.31898287762, -0.008, 0.9560000000000001, -0.006, 192.0, 0.0, 0.0, 0.0, 0.0, 0.0, 0.0, 0.0, 0.0, 0.0, 1.6664044015497963E9, 0.0, 2022-10-21 19:06:41.549
206.0, -128297.82853100641, -156888.8389335679, -33059.63820929983, -139279.6652650434, 65930.18066050776, -92493.95489620625, 56107.46069043406, -111753.15669216594, -0.008, 0.9560000000000001, -0.006, 192.0, 0.0, 0.0, 0.0, 0.0, 0.0, 0.0, 0.0, 0.0, 0.0, 1.6664044015498097E9, 0.0, 2022-10-21 19:06:41.549
207.0, -128294.05108619346, -156883.9886050211, -33051.412767340276, -139276.20074465286, 65939.00959956761, -92482.04141641158, 56122.86104236377, -111743.67955251689, -0.008, 0.9560000000000001, -0.006, 192.0, 0.0, 0.0, 0.0, 0.0, 0.0, 0.0, 0.0, 0.0, 0.0, 1.6664044015498211E9, 0.0, 2022-10-21 19:06:41.549
208.0, -128297.15797867275, -156885.5308753885, -33053.91616271927, -139284.9179249904, 65939.07665480097, -92490.93741070479, 56112.28866723641, -111743.16546239442, -0.008, 0.9560000000000001, -0.006, 192.0, 0.0, 0.0, 0.0, 0.0, 0.0, 0.0, 0.0, 0.0, 0.0, 1.6664044015498328E9, 0.0, 2022-10-21 19:06:41.549
209.0, -128285.73623725609, -156876.41136365072, -33046.4506800712, -139269.8081457386, 65947.99500083864, -92485.50593680215, 56113.76388237046, -111732.03429365567, -0.008, 0.9560000000000001, -0.006, 192.0, 0.0, 0.0, 0.0, 0.0, 0.0, 0.0, 0.0, 0.0, 0.0, 1.6664044015498447E9, 0.0, 2022-10-21 19:06:41.549
210.0, -128286.11621691183, -156876.14314271728, -33046.87536321585, -139267.19299163736, 65942.65293391382, -92471.49139302867, 56122.168138285655, -111737.44341581386, -0.008, 0.9560000000000001, -0.006, 192.0, 0.0, 0.0, 0.0, 0.0, 0.0, 0.0, 0.0, 0.0, 0.0, 1.6664044015498672E9, 0.0, 2022-10-21 19:06:41.549
211.0, -128288.66431577974, -156877.61835785132, -33049.95990395068, -139280.80520401063, 65938.60726816741, -92468.07157612701, 56124.91740285366, -111739.74564549276, -0.008, 0.9560000000000001, -0.006, 192.0, 0.0, 0.0, 0.0, 0.0, 0.0, 0.0, 0.0, 0.0, 0.0, 1.6664044015498807E9, 0.0, 2022-10-21 19:06:41.549
212.0, -128283.61282153284, -156871.76220080402, -33044.81900272596, -139285.5214220907, 65943.8152246255, -92491.31739036053, 56109.22647824603, -111736.75051173575, -0.008, 0.9560000000000001, -0.006, 192.0, 0.0, 0.0, 29.0, 240.0, 255.0, 240.0, 0.0, 0.0, 0.0, 1.666404401549893E9, 0.0, 2022-10-21 19:06:41.549
213.0, -128277.89077495228, -156869.54937810297, -33036.88413344433, -139275.5301923192, 65949.11258806141, -92505.91307948984, 56101.559829897866, -111731.7213692333, -0.008, 0.9560000000000001, -0.006, 192.0, 0.0, 0.0, 0.0, 0.0, 0.0, 0.0, 0.0, 0.0, 0.0, 1.6664044015499053E9, 0.0, 2022-10-21 19:06:41.549
214.0, -128285.6244785338, -156878.11009622933, -33044.72959574814, -139275.03845394118, 65940.35070423492, -92501.5321375766, 56104.35379795478, -111743.18781413887, -0.008, 0.9560000000000001, -0.006, 192.0, 0.0, 0.0, 0.0, 0.0, 0.0, 0.0, 0.0, 0.0, 0.0, 1.6664044015499177E9, 0.0, 2022-10-21 19:06:41.549
215.0, -128294.2299001491, -156882.5357416315, -33048.48468881663, -139283.46506160081, 65934.09221578744, -92494.35722760645, 56109.025312545935, -111755.7271427783, -0.008, 0.9560000000000001, -0.006, 192.0, 0.0, 0.0, 0.0, 0.0, 0.0, 0.0, 0.0, 0.0, 0.0, 1.6664044015499296E9, 0.0, 2022-10-21 19:06:41.549
216.0, -128296.26390889454, -156881.50756138653, -33039.92397069025, -139289.79060528168, 65941.64710541333, -92509.5340620916, 56101.22455373104, -111751.16738690942, -0.008, 0.9560000000000001, -0.006, 192.0, 0.0, 0.0, 0.0, 0.0, 0.0, 0.0, 0.0, 0.0, 0.0, 1.6664044015499415E9, 0.0, 2022-10-21 19:06:41.549
217.0, -128294.76634201602, -156879.71942183012, -33037.30881658898, -139285.38731162398, 65948.73260840567, -92513.51267260464, 56099.81639383035, -111750.04979968665, -0.008, 0.9560000000000001, -0.006, 192.0, 0.0, 0.0, 0.0, 0.0, 0.0, 0.0, 0.0, 0.0, 0.0, 1.6664044015499537E9, 0.0, 2022-10-21 19:06:41.549
218.0, -128296.30861238345, -156882.91572128722, -33041.06390965747, -139273.58559055158, 65949.89489911734, -92492.61379153894, 56115.86494634926, -111750.92151772042, -0.008, 0.9560000000000001, -0.006, 192.0, 0.0, 0.0, 0.0, 0.0, 0.0, 0.0, 0.0, 0.0, 0.0, 1.6664044015499654E9, 0.0, 2022-10-21 19:06:41.549
219.0, -128304.01996422053, -156890.11298300183, -33043.366139336365, -139278.7264917763, 65947.16798629379, -92478.9792274212, 56124.60447843128, -111753.00022995475, -0.008, 0.9560000000000001, -0.006, 192.0, 0.0, 0.0, 0.0, 0.0, 0.0, 0.0, 0.0, 0.0, 0.0, 1.6664044015499773E9, 0.0, 2022-10-21 19:06:41.549
220.0, -128305.53988284348, -156889.46478241263, -33046.80830798249, -139295.6914658179, 65942.27295425808, -92494.44663458427, 56112.02044630295, -111755.39186661148, -0.008, 0.9560000000000001, -0.006, 192.0, 0.0, 0.0, 0.0, 0.0, 0.0, 0.0, 0.0, 0.0, 0.0, 1.666404401549989E9, 0.0, 2022-10-21 19:06:41.549
221.0, -128309.74201080108, -156892.6387301253, -33051.39041559582, -139297.3901983965, 65940.90949784631, -92510.22696616972, 56096.91066705116, -111759.03520095769, -0.008, 0.9560000000000001, -0.006, 192.0, 0.0, 0.0, 0.0, 0.0, 0.0, 0.0, 0.0, 0.0, 0.0, 1.666404401550001E9, 0.0, 2022-10-21 19:06:41.550
222.0, -128306.81393227744, -156888.2801399565, -33043.790822481016, -139281.94514297787, 65948.15146304983, -92510.53989059209, 56100.39753918619, -111753.13434042149, 0.008, 0.968, 0.002, 192.0, 0.0, 64.0, 30.0, 64.0, 0.0, 16.0, 0.0, 0.0, 0.0, 1.6664044015500128E9, 0.0, 2022-10-21 19:06:41.550
223.0, -128297.76147577305, -156880.8370090529, -33033.017281653556, -139267.93059920438, 65961.74132367865, -92486.22119262471, 56121.25171676299, -111742.15963389393, 0.008, 0.968, 0.002, 192.0, 0.0, 0.0, 0.0, 0.0, 0.0, 0.0, 0.0, 0.0, 0.0, 1.6664044015500252E9, 0.0, 2022-10-21 19:06:41.550
224.0, -128302.67885955321, -156886.5814073779, -33036.72767123314, -139279.91113423242, 65965.16114058031, -92484.52246004611, 56117.72014113905, -111746.80879674063, 0.008, 0.968, 0.002, 192.0, 0.0, 0.0, 0.0, 0.0, 0.0, 0.0, 0.0, 0.0, 0.0, 1.6664044015500371E9, 0.0, 2022-10-21 19:06:41.550
225.0, -128301.56127233045, -156885.6873375997, -33039.387528823325, -139289.0753494591, 65962.03189635658, -92510.31637314754, 56097.2906467069, -111746.33941010707, 0.008, 0.968, 0.002, 192.0, 0.0, 0.0, 0.0, 0.0, 0.0, 0.0, 0.0, 0.0, 0.0, 1.6664044015500596E9, 0.0, 2022-10-21 19:06:41.550
226.0, -128305.60693807686, -156892.7281371031, -33045.467203315166, -139287.26485815822, 65955.818111398, -92520.21819594124, 56092.55207688238, -111753.91665147743, 0.008, 0.968, 0.002, 192.0, 0.0, 0.0, 0.0, 0.0, 0.0, 0.0, 0.0, 0.0, 0.0, 1.6664044015500715E9, 0.0, 2022-10-21 19:06:41.550
227.0, -128306.54571134398, -156896.34911970486, -33048.57409579445, -139285.09673894607, 65951.14659680684, -92503.05205619957, 56105.87371657774, -111761.76211378124, 0.008, 0.968, 0.002, 192.0, 0.0, 0.0, 0.0, 0.0, 0.0, 0.0, 0.0, 0.0, 0.0, 1.6664044015500846E9, 0.0, 2022-10-21 19:06:41.550
228.0, -128303.23765316459, -156891.6329016248, -33038.35934857838, -139282.50393658923, 65964.11060859091, -92506.33776263449, 56106.32075146685, -111752.70965727684, 0.008, 0.968, 0.002, 192.0, 0.0, 0.0, 0.0, 0.0, 0.0, 0.0, 0.0, 0.0, 0.0, 1.6664044015500965E9, 0.0, 2022-10-21 19:06:41.550
229.0, -128297.11327518384, -156885.6873375997, -33030.49153453011, -139277.00540745322, 65978.21455934222, -92523.3921436539, 56095.72602459503, -111743.32192460561, 0.008, 0.968, 0.002, 192.0, 0.0, 0.0, 0.0, 0.0, 0.0, 0.0, 0.0, 0.0, 0.0, 1.6664044015501082E9, 0.0, 2022-10-21 19:06:41.550
230.0, -128301.04718220797, -156890.11298300183, -33040.438060812725, -139277.94418072037, 65970.7267249497, -92530.27648094612, 56087.90291403567, -111753.00022995475, 0.008, 0.968, 0.002, 192.0, 0.0, 0.0, 0.0, 0.0, 0.0, 0.0, 0.0, 0.0, 0.0, 1.66640440155012E9, 0.0, 2022-10-21 19:06:41.550
231.0, -128309.65260382327, -156897.42200343873, -33053.424424341254, -139283.68857904538, 65957.87447188789, -92518.25124242918, 56091.1886204706, -111757.69409629038, 0.018000000000000002, 0.966, 0.008, 192.0, 0.0, 144.0, 30.0, 48.0, 0.0, 64.0, 0.0, 0.0, 0.0, 1.6664044015501316E9, 0.0, 2022-10-21 19:06:41.550
232.0, -128302.29887989747, -156894.51627665953, -33055.72665402015, -139288.874183759, 65956.73453292067, -92502.18033816581, 56097.53651589591, -111764.91370974944, 0.018000000000000002, 0.966, 0.008, 192.0, 0.0, 0.0, 0.0, 0.0, 0.0, 0.0, 0.0, 0.0, 0.0, 1.666404401550144E9, 0.0, 2022-10-21 19:06:41.550
233.0, -128294.67693503821, -156885.2403027106, -33044.01433992557, -139289.4776808593, 65968.17862608179, -92507.88003300191, 56094.96606528355, -111752.70965727684, 0.018000000000000002, 0.966, 0.008, 192.0, 0.0, 0.0, 0.0, 0.0, 0.0, 0.0, 0.0, 0.0, 0.0, 1.6664044015501559E9, 0.0, 2022-10-21 19:06:41.550
234.0, -128296.86740599482, -156878.9371107742, -33039.72280499015, -139273.54088706267, 65981.65672798833, -92526.76725706665, 56088.52876288042, -111743.56779379462, 0.018000000000000002, 0.966, 0.008, 192.0, 0.0, 0.0, 0.0, 0.0, 0.0, 0.0, 0.0, 0.0, 0.0, 1.6664044015501676E9, 0.0, 2022-10-21 19:06:41.550
235.0, -128307.46213286664, -156891.543494647, -33054.09497667491, -139274.7702330077, 65973.6771552178, -92513.75854179365, 56096.307169950866, -111756.7776747677, 0.018000000000000002, 0.966, 0.008, 192.0, 0.0, 0.0, 0.0, 0.0, 0.0, 0.0, 0.0, 0.0, 0.0, 1.666404401550181E9, 0.0, 2022-10-21 19:06:41.550
236.0, -128312.24540618008, -156896.8408580829, -33058.34180812142, -139287.39896862497, 65965.16114058031, -92509.24348941368, 56097.31299845136, -111765.94188999437, 0.018000000000000002, 0.966, 0.008, 192.0, 0.0, 0.0, 0.0, 0.0, 0.0, 0.0, 0.0, 0.0, 0.0, 1.6664044015501926E9, 0.0, 2022-10-21 19:06:41.550
237.0, -128303.61763282033, -156888.5260091455, -33048.48468881663, -139279.0170644542, 65976.89580641936, -92515.0325912276, 56092.10504199327, -111753.91665147743, 0.018000000000000002, 0.966, 0.008, 192.0, 0.0, 0.0, 0.0, 0.0, 0.0, 0.0, 0.0, 0.0, 0.0, 1.6664044015502045E9, 0.0, 2022-10-21 19:06:41.550
238.0, -128300.39898161877, -156887.60958762284, -33051.34571210691, -139277.94418072037, 65976.56053025252, -92537.71961184975, 56074.223646429025, -111749.58041305309, 0.018000000000000002, 0.966, 0.008, 192.0, 0.0, 0.0, 0.0, 0.0, 0.0, 0.0, 0.0, 0.0, 0.0, 1.666404401550216E9, 0.0, 2022-10-21 19:06:41.550
239.0, -128299.01317346255, -156886.1790759777, -33055.3019708755, -139278.2794568872, 65971.86666391691, -92549.0966497775, 56070.446201616076, -111748.84280548607, 0.018000000000000002, 0.966, 0.008, 192.0, 0.0, 0.0, 0.0, 0.0, 0.0, 0.0, 0.0, 0.0, 0.0, 1.666404401550228E9, 0.0, 2022-10-21 19:06:41.550
240.0, -128305.83045552141, -156892.90695105874, -33062.83450875694, -139281.38634936648, 65969.94441389375, -92534.74682983718, 56084.639559345196, -111755.81654975613, 0.018000000000000002, 0.966, 0.008, 192.0, 0.0, 0.0, 0.0, 0.0, 0.0, 0.0, 0.0, 0.0, 0.0, 1.66640440155024E9, 0.0, 2022-10-21 19:06:41.550
241.0, -128308.75853404506, -156894.538628404, -33064.68970354673, -139284.9179249904, 65973.54304475106, -92529.7400390792, 56084.30428317837, -111759.63869805798, 0.018000000000000002, 0.9560000000000001, 0.014, 192.0, 0.0, 144.0, 29.0, 224.0, 0.0, 112.0, 0.0, 0.0, 0.0, 1.6664044015502896E9, 0.0, 2022-10-21 19:06:41.550
1.0, -128709.70412608435, -157282.00611853672, -33366.25943973773, -139367.8428969196, 65899.51406711509, -92908.40094189656, 55988.12472678718, -111835.85814665057, 0.018000000000000002, 0.9560000000000001, 0.014, 192.0, 0.0, 0.0, 0.0, 0.0, 0.0, 0.0, 0.0, 0.0, 0.0, 1.6664044015973716E9, 0.0, 2022-10-21 19:06:41.597
2.0, -128706.03843999369, -157282.05082202566, -33362.45964318033, -139376.73889121282, 65904.11852647287, -92926.93053805, 55975.60774989221, -111830.22550704784, 0.018000000000000002, 0.9560000000000001, 0.014, 192.0, 0.0, 0.0, 0.0, 0.0, 0.0, 0.0, 0.0, 0.0, 0.0, 1.6664044020756075E9, 0.0, 2022-10-21 19:06:42.075
3.0, -128705.83727429359, -157282.7660778482, -33352.53546864217, -139368.08876610862, 65913.93094228876, -92925.99176478288, 55976.85944758171, -111823.07294882214, 0.018000000000000002, 0.9560000000000001, 0.014, 192.0, 0.0, 0.0, 0.0, 0.0, 0.0, 0.0, 0.0, 0.0, 0.0, 1.6664044020757542E9, 0.0, 2022-10-21 19:06:42.075
4.0, -128720.52237040072, -157299.79810712315, -33359.352750701044, -139385.2996093392, 65897.77063104756, -92932.29495671928, 55974.78073534736, -111830.62783844804, 0.018000000000000002, 0.9560000000000001, 0.014, 192.0, 0.0, 0.0, 0.0, 0.0, 0.0, 0.0, 0.0, 0.0, 0.0, 1.6664044020758216E9, 0.0, 2022-10-21 19:06:42.075
5.0, -128723.96453904684, -157301.65330191294, -33361.69968386885, -139381.79038545972, 65897.79298279202, -92941.16859926804, 55979.40754644961, -111832.08070183764, 0.018000000000000002, 0.9560000000000001, 0.014, 192.0, 0.0, 0.0, 0.0, 0.0, 0.0, 0.0, 0.0, 0.0, 0.0, 1.6664044020758843E9, 0.0, 2022-10-21 19:06:42.075
6.0, -128724.34451870258, -157301.45213621284, -33357.7210733558, -139386.01486516176, 65901.92805551625, -92950.04224181679, 55977.59705514873, -111834.65115245, 0.018000000000000002, 0.9560000000000001, 0.014, 192.0, 0.0, 0.0, 0.0, 0.0, 0.0, 0.0, 0.0, 0.0, 0.0, 1.6664044020759523E9, 0.0, 2022-10-21 19:06:42.075
7.0, -128730.9382833169, -157309.00702583874, -33362.41493969142, -139390.88754545304, 65898.84351478142, -92957.03833783131, 55972.143229501635, -111836.5957542176, 0.03, 0.9580000000000001, -0.008, 192.0, 0.0, 240.0, 29.0, 240.0, 255.0, 192.0, 0.0, 0.0, 0.0, 1.666404402075981E9, 0.0, 2022-10-21 19:06:42.075
8.0, -128726.42323093693, -157303.0391100692, -33354.79299483216, -139374.7495859563, 65905.97372126266, -92953.95379709647, 55981.75447961742, -111827.16331805746, 0.03, 0.9580000000000001, -0.008, 192.0, 0.0, 0.0, 0.0, 0.0, 0.0, 0.0, 0.0, 0.0, 0.0, 1.6664044020760043E9, 0.0, 2022-10-21 19:06:42.076
9.0, -128725.05977452514, -157298.9263890894, -33351.104956997035, -139369.8545539206, 65908.61122710838, -92935.40184919856, 55999.03237808137, -111821.8436028771, 0.03, 0.9580000000000001, -0.008, 192.0, 0.0, 0.0, 0.0, 0.0, 0.0, 0.0, 0.0, 0.0, 0.0, 1.6664044020760243E9, 0.0, 2022-10-21 19:06:42.076
10.0, -128725.0821262696, -157300.66982515692, -33349.853259307536, -139379.13052786954, 65904.94554101772, -92945.8401138592, 55991.49984019993, -111814.98161732932, 0.03, 0.9580000000000001, -0.008, 192.0, 0.0, 0.0, 0.0, 0.0, 0.0, 0.0, 0.0, 0.0, 0.0, 1.666404402076044E9, 0.0, 2022-10-21 19:06:42.076
11.0, -128732.54760891768, -157308.42588048292, -33356.424672177396, -139388.16063262947, 65898.06120372549, -92971.5446199828, 55969.617482378184, -111816.05450106318, 0.03, 0.9580000000000001, -0.008, 192.0, 0.0, 0.0, 0.0, 0.0, 0.0, 0.0, 0.0, 0.0, 0.0, 1.666404402076064E9, 0.0, 2022-10-21 19:06:42.076
12.0, -128738.38141422051, -157314.95258986385, -33364.94068681487, -139392.40746407598, 65888.6958227987, -92994.87984119414, 55956.38524966064, -111832.5947919601, 0.03, 0.9580000000000001, -0.008, 192.0, 0.0, 0.0, 0.0, 0.0, 0.0, 0.0, 0.0, 0.0, 0.0, 1.666404402076084E9, 0.0, 2022-10-21 19:06:42.076
13.0, -128737.97908282031, -157313.2315055408, -33363.621933892005, -139387.24421110682, 65888.40525012079, -92984.12865211113, 55967.40465967711, -111838.4509490074, 0.03, 0.9580000000000001, -0.008, 192.0, 0.0, 0.0, 0.0, 0.0, 0.0, 0.0, 0.0, 0.0, 0.0, 1.666404402076104E9, 0.0, 2022-10-21 19:06:42.076
14.0, -128728.25607398225, -157304.5813804366, -33353.764814587215, -139380.51633602576, 65894.64138682383, -92966.85075364719, 55978.84875283823, -111828.77264365825, 0.03, 0.9580000000000001, -0.008, 192.0, 0.0, 0.0, 0.0, 0.0, 0.0, 0.0, 0.0, 0.0, 0.0, 1.666404402076124E9, 0.0, 2022-10-21 19:06:42.076
15.0, -128731.47472518383, -157307.95649384934, -33352.26724770871, -139379.53285926973, 65897.61416883639, -92964.9955588574, 55976.12184001468, -111825.0399023342, 0.03, 0.9580000000000001, -0.008, 192.0, 0.0, 0.0, 0.0, 0.0, 0.0, 0.0, 0.0, 0.0, 0.0, 1.6664044020762105E9, 0.0, 2022-10-21 19:06:42.076
16.0, -128739.5884084211, -157313.85735438555, -33357.98929428927, -139380.51633602576, 65892.8532472674, -92974.696215951, 55969.6621858671, -111828.57147795815, 0.03, 0.9580000000000001, -0.008, 192.0, 0.0, 0.0, 0.0, 0.0, 0.0, 0.0, 0.0, 0.0, 0.0, 1.6664044020762274E9, 0.0, 2022-10-21 19:06:42.076
17.0, -128746.40569047997, -157318.93120037692, -33363.487823425276, -139383.77969071624, 65887.10884894239, -92967.11897458065, 55979.22873249397, -111831.79012915971, 0.028, 0.96, -0.016, 192.0, 0.0, 224.0, 30.0, 0.0, 255.0, 128.0, 0.0, 0.0, 0.0, 1.66640440207624E9, 0.0, 2022-10-21 19:06:42.076
18.0, -128747.90325735847, -157320.62993295552, -33366.66177113793, -139397.1460339005, 65880.64919479481, -92974.71856769545, 55976.054784781314, -111835.0981873391, 0.028, 0.96, -0.016, 192.0, 0.0, 0.0, 0.0, 0.0, 0.0, 0.0, 0.0, 0.0, 0.0, 1.666404402076254E9, 0.0, 2022-10-21 19:06:42.076
19.0, -128743.63407416751, -157317.59009570957, -33358.90571581194, -139387.64654250702, 65893.52379960105, -92985.93914341202, 55968.522246899876, -111831.76777741525, 0.028, 0.96, -0.016, 192.0, 0.0, 0.0, 0.0, 0.0, 0.0, 0.0, 0.0, 0.0, 0.0, 1.6664044020762668E9, 0.0, 2022-10-21 19:06:42.076
20.0, -128744.05875731216, -157318.55122072116, -33359.86684082352, -139382.59504826012, 65894.3508141459, -92990.16362311407, 55962.48727589694, -111835.20994606137, 0.028, 0.96, -0.016, 192.0, 0.0, 0.0, 0.0, 0.0, 0.0, 0.0, 0.0, 0.0, 0.0, 1.6664044020762796E9, 0.0, 2022-10-21 19:06:42.076
21.0, -128748.14912654748, -157322.79805216767, -33365.65594263744, -139385.63488550604, 65885.85715125289, -92986.20736434548, 55966.331775943254, -111839.27796355225, 0.028, 0.96, -0.016, 192.0, 0.0, 0.0, 0.0, 0.0, 0.0, 0.0, 0.0, 0.0, 0.0, 1.6664044020762925E9, 0.0, 2022-10-21 19:06:42.076
22.0, -128748.75262364777, -157323.64741845697, -33364.49365192576, -139390.95460068638, 65884.69486054122, -92970.53879148231, 55974.78073534736, -111839.21090831887, 0.028, 0.96, -0.016, 192.0, 0.0, 0.0, 0.0, 0.0, 0.0, 0.0, 0.0, 0.0, 0.0, 1.666404402076305E9, 0.0, 2022-10-21 19:06:42.076
23.0, -128749.53493470371, -157324.72030219084, -33363.197250747355, -139399.94000195744, 65883.93490122973, -92979.32302705325, 55961.92848228556, -111837.1992513179, 0.028, 0.96, -0.016, 192.0, 0.0, 0.0, 0.0, 0.0, 0.0, 0.0, 0.0, 0.0, 0.0, 1.6664044020763175E9, 0.0, 2022-10-21 19:06:42.076
24.0, -128751.65835042697, -157329.05654061516, -33362.705512369335, -139400.4987955688, 65883.10788668488, -92985.96149515647, 55955.17825546006, -111835.07583559465, 0.028, 0.96, -0.016, 192.0, 0.0, 0.0, 0.0, 0.0, 0.0, 0.0, 0.0, 0.0, 0.0, 1.66640440207633E9, 0.0, 2022-10-21 19:06:42.076
25.0, -128755.83812664011, -157334.24214532878, -33367.75700661624, -139397.9506967009, 65878.14579941581, -92994.47750979394, 55952.51839786988, -111844.88825141052, 0.028, 0.96, -0.016, 192.0, 0.0, 0.0, 0.0, 0.0, 0.0, 0.0, 0.0, 0.0, 0.0, 1.6664044020763428E9, 0.0, 2022-10-21 19:06:42.076
26.0, -128749.93726610391, -157326.48609000279, -33357.7210733558, -139385.63488550604, 65890.43925886623, -92972.7963176723, 55974.60192139172, -111833.35475127159, 0.028, 0.96, -0.016, 192.0, 0.0, 0.0, 0.0, 0.0, 0.0, 0.0, 0.0, 0.0, 0.0, 1.6664044020763552E9, 0.0, 2022-10-21 19:06:42.076
27.0, -128745.2881032572, -157322.59688646757, -33351.30612269713, -139381.65627499297, 65900.76576480457, -92978.4513090195, 55970.62331087868, -111824.74932965629, 0.028, 0.96, -0.016, 192.0, 0.0, 224.0, 30.0, 0.0, 255.0, 128.0, 0.0, 0.0, 0.0, 1.6664044020763679E9, 0.0, 2022-10-21 19:06:42.076
28.0, -128757.24628654079, -157334.86799417355, -33362.1243670135, -139401.9069554695, 65886.86297975338, -93000.95951568599, 55949.4562088795, -111835.03113210574, 0.028, 0.96, -0.016, 192.0, 0.0, 0.0, 0.0, 0.0, 0.0, 0.0, 0.0, 0.0, 0.0, 1.6664044020763812E9, 0.0, 2022-10-21 19:06:42.076
29.0, -128759.8390888976, -157337.25963083026, -33363.46547168082, -139401.16934790247, 65881.00682270608, -93012.82829199175, 55942.88479600964, -111835.92520188395, 0.028, 0.96, -0.016, 192.0, 0.0, 0.0, 0.0, 0.0, 0.0, 0.0, 0.0, 0.0, 0.0, 1.6664044020763955E9, 0.0, 2022-10-21 19:06:42.076
30.0, -128755.52520221773, -157331.22465982733, -33355.016512276714, -139374.86134467856, 65897.03302348054, -92977.08785260771, 55972.009119034905, -111823.9446668559, 0.028, 0.96, -0.016, 192.0, 0.0, 0.0, 0.0, 0.0, 0.0, 0.0, 0.0, 0.0, 0.0, 1.6664044020764217E9, 0.0, 2022-10-21 19:06:42.076
31.0, -128768.2880483017, -157345.5297762787, -33370.30510548414, -139404.81268224868, 65883.08553494043, -92973.62333221715, 55963.761325330895, -111844.3518095436, 0.028, 0.96, -0.016, 192.0, 0.0, 0.0, 0.0, 0.0, 0.0, 0.0, 0.0, 0.0, 0.0, 1.6664044020764349E9, 0.0, 2022-10-21 19:06:42.076
32.0, -128771.66316171446, -157349.0837036471, -33369.52279442821, -139414.73685678683, 65878.59283430492, -92993.29286733782, 55946.9528135005, -111849.67152472396, 0.028, 0.96, -0.016, 192.0, 0.0, 0.0, 0.0, 0.0, 0.0, 0.0, 0.0, 0.0, 0.0, 1.6664044020764475E9, 0.0, 2022-10-21 19:06:42.076
33.0, -128770.21029832486, -157349.26251760277, -33363.59958214755, -139403.42687409246, 65881.27504363954, -93004.06640816526, 55948.383325145645, -111845.29058281072, 0.028, 0.96, -0.016, 192.0, 0.0, 0.0, 0.0, 0.0, 0.0, 0.0, 0.0, 0.0, 0.0, 1.6664044020764608E9, 0.0, 2022-10-21 19:06:42.076
34.0, -128778.03340888422, -157357.4879595623, -33372.20500376284, -139407.0031532053, 65872.89313946881, -92991.72824522594, 55959.51449388439, -111853.02428639225, 0.028, 0.96, -0.016, 192.0, 0.0, 0.0, 0.0, 0.0, 0.0, 0.0, 0.0, 0.0, 0.0, 1.6664044020764735E9, 0.0, 2022-10-21 19:06:42.076
35.0, -128777.27344957275, -157355.2974886057, -33369.16516651692, -139412.23346140786, 65873.78720924702, -93009.4084750901, 55949.277394923854, -111847.14577760051, 0.028, 0.96, -0.016, 192.0, 0.0, 0.0, 0.0, 0.0, 0.0, 0.0, 0.0, 0.0, 0.0, 1.666404402076486E9, 0.0, 2022-10-21 19:06:42.076
36.0, -128781.00619089678, -157358.38202934052, -33368.65107639445, -139407.47253983887, 65883.62197680736, -93018.05860019429, 55942.46011286499, -111843.23422232083, 0.024, 0.9560000000000001, -0.014, 192.0, 0.0, 192.0, 29.0, 224.0, 255.0, 144.0, 0.0, 0.0, 0.0, 1.6664044020764992E9, 0.0, 2022-10-21 19:06:42.076
37.0, -128779.48627227382, -157356.3480205951, -33369.99218106177, -139402.33163861415, 65885.85715125289, -93012.76123675838, 55945.92463325556, -111842.72013219836, 0.024, 0.9560000000000001, -0.014, 192.0, 0.0, 0.0, 0.0, 0.0, 0.0, 0.0, 0.0, 0.0, 0.0, 1.6664044020765123E9, 0.0, 2022-10-21 19:06:42.076
38.0, -128773.60776348207, -157349.37427632502, -33359.68802686787, -139391.80396697568, 65894.19435193471, -93013.4094373476, 55956.72052582748, -111824.9951988453, 0.024, 0.9560000000000001, -0.014, 192.0, 0.0, 0.0, 0.0, 0.0, 0.0, 0.0, 0.0, 0.0, 0.0, 1.666404402076525E9, 0.0, 2022-10-21 19:06:42.076
39.0, -128792.56204278018, -157369.3567358681, -33371.06506479562, -139399.53767055724, 65889.45578211019, -92992.64466674862, 55965.728278842966, -111833.1982890604, 0.024, 0.9560000000000001, -0.014, 192.0, 0.0, 0.0, 0.0, 0.0, 0.0, 0.0, 0.0, 0.0, 0.0, 1.6664044020765378E9, 0.0, 2022-10-21 19:06:42.076
40.0, -128797.03239167124, -157374.4529336039, -33374.3284194861, -139412.27816489676, 65885.14189543032, -93008.5591088008, 55948.942118757026, -111839.12150134105, 0.024, 0.9560000000000001, -0.014, 192.0, 0.0, 0.0, 0.0, 0.0, 0.0, 0.0, 0.0, 0.0, 0.0, 1.6664044020765505E9, 0.0, 2022-10-21 19:06:42.076
41.0, -128797.3453160936, -157372.8436080031, -33369.74631187276, -139406.9584497164, 65885.81244776398, -93022.68541129654, 55941.56604308678, -111836.03696060622, 0.024, 0.9560000000000001, -0.014, 192.0, 0.0, 0.0, 0.0, 0.0, 0.0, 0.0, 0.0, 0.0, 0.0, 1.666404402076563E9, 0.0, 2022-10-21 19:06:42.076
42.0, -128805.81662724217, -157380.10792495107, -33373.76962587472, -139399.6047257906, 65884.02430820755, -93012.87299548066, 55947.73512455644, -111841.69195195341, 0.024, 0.9560000000000001, -0.014, 192.0, 0.0, 0.0, 0.0, 0.0, 0.0, 0.0, 0.0, 0.0, 0.0, 1.6664044020765755E9, 0.0, 2022-10-21 19:06:42.076
43.0, -128813.03624070123, -157385.91937850945, -33380.51985270022, -139407.8078160057, 65878.9504622162, -93008.62616403415, 55946.99751698942, -111852.5996032476, 0.024, 0.9560000000000001, -0.014, 192.0, 0.0, 0.0, 0.0, 0.0, 0.0, 0.0, 0.0, 0.0, 0.0, 1.6664044020765884E9, 0.0, 2022-10-21 19:06:42.076
44.0, -128796.76417073778, -157371.7930760137, -33369.65690489494, -139402.7563217588, 65888.33819488743, -93012.69418152502, 55944.49412161042, -111839.83675716362, 0.024, 0.9560000000000001, -0.014, 192.0, 0.0, 0.0, 0.0, 0.0, 0.0, 0.0, 0.0, 0.0, 0.0, 1.6664044020766008E9, 0.0, 2022-10-21 19:06:42.076
45.0, -128805.97308945336, -157383.03600347473, -33368.89694558346, -139396.78840598924, 65891.71330830018, -93013.0071059474, 55940.98489773094, -111835.16524257246, 0.024, 0.9560000000000001, -0.014, 192.0, 0.0, 0.0, 0.0, 0.0, 0.0, 0.0, 0.0, 0.0, 0.0, 1.6664044020766256E9, 0.0, 2022-10-21 19:06:42.076
46.0, -128814.80202851321, -157393.78719255773, -33366.99704730476, -139387.35596982908, 65896.47422986916, -92989.76129171388, 55956.4076014051, -111831.11957682605, 0.03, 0.962, -0.01, 192.0, 0.0, 240.0, 30.0, 16.0, 255.0, 176.0, 0.0, 0.0, 0.0, 1.6664044020766385E9, 0.0, 2022-10-21 19:06:42.076
47.0, -128814.13147617955, -157391.75318381228, -33367.1758612604, -139387.62419076255, 65894.64138682383, -92984.50863176688, 55961.816723563286, -111832.3489227711, 0.03, 0.962, -0.01, 192.0, 0.0, 0.0, 0.0, 0.0, 0.0, 0.0, 0.0, 0.0, 0.0, 1.6664044020766523E9, 0.0, 2022-10-21 19:06:42.076
48.0, -128808.0070981988, -157384.31005290867, -33362.75021585825, -139396.14020540004, 65891.91447400028, -92997.74086448443, 55952.96543275898, -111833.73473092732, 0.03, 0.962, -0.01, 192.0, 0.0, 0.0, 0.0, 0.0, 0.0, 0.0, 0.0, 0.0, 0.0, 1.6664044020766652E9, 0.0, 2022-10-21 19:06:42.076
49.0, -128805.7495720088, -157382.07487846314, -33357.56461114462, -139397.23544087834, 65894.86490426838, -93010.9060419686, 55946.93046175605, -111827.0962628241, 0.03, 0.962, -0.01, 192.0, 0.0, 0.0, 0.0, 0.0, 0.0, 0.0, 0.0, 0.0, 0.0, 1.666404402076678E9, 0.0, 2022-10-21 19:06:42.076
50.0, -128817.14896168101, -157392.64725359052, -33365.790053104174, -139405.5055863268, 65884.35958437438, -93015.24228039292, 55943.756514043394, -111839.56853623016, 0.03, 0.962, -0.01, 192.0, 0.0, 0.0, 0.0, 0.0, 0.0, 0.0, 0.0, 0.0, 0.0, 1.666404402076692E9, 0.0, 2022-10-21 19:06:42.076
51.0, -128818.91474949298, -157394.23422744684, -33367.22056474931, -139399.33650485714, 65890.12633444385, -93001.27244010835, 55956.02762174936, -111842.13898684252, 0.03, 0.962, -0.01, 192.0, 0.0, 0.0, 0.0, 0.0, 0.0, 0.0, 0.0, 0.0, 0.0, 1.6664044020767045E9, 0.0, 2022-10-21 19:06:42.076
52.0, -128824.94972049592, -157399.50923913828, -33364.82892809259, -139402.8457287366, 65892.92030250076, -92986.96732365697, 55963.5601596308, -111838.47330075185, 0.03, 0.962, -0.01, 192.0, 0.0, 0.0, 0.0, 0.0, 0.0, 0.0, 0.0, 0.0, 0.0, 1.6664044020767171E9, 0.0, 2022-10-21 19:06:42.076
53.0, -128831.09645022113, -157405.16423048548, -33367.667599638415, -139412.2111096634, 65887.8464565094, -92994.18693711603, 55953.412467648086, -111838.36154202957, 0.03, 0.962, -0.01, 192.0, 0.0, 0.0, 0.0, 0.0, 0.0, 0.0, 0.0, 0.0, 0.0, 1.66640440207673E9, 0.0, 2022-10-21 19:06:42.076
54.0, -128834.2033427004, -157411.28860846625, -33369.83571885058, -139404.63386829305, 65887.53353208704, -92998.03143716234, 55953.32306067027, -111836.57340247315, 0.03, 0.962, -0.01, 192.0, 0.0, 0.0, 0.0, 0.0, 0.0, 0.0, 0.0, 0.0, 0.0, 1.666404402076744E9, 0.0, 2022-10-21 19:06:42.076
55.0, -128833.46573513339, -157411.42271893297, -33368.20404150534, -139399.11298741258, 65888.98639547663, -92985.73797771192, 55967.22584572147, -111835.41111176147, 0.03, 0.962, -0.01, 192.0, 0.0, 0.0, 0.0, 0.0, 0.0, 0.0, 0.0, 0.0, 0.0, 1.666404402076758E9, 0.0, 2022-10-21 19:06:42.076
56.0, -128833.84571478913, -157409.90280031, -33370.752140373246, -139409.08186543966, 65885.11954368587, -92997.58440227323, 55959.17921771756, -111840.12732984155, 0.028, 0.9560000000000001, -0.016, 192.0, 0.0, 224.0, 29.0, 224.0, 255.0, 128.0, 0.0, 0.0, 0.0, 1.6664044020767708E9, 0.0, 2022-10-21 19:06:42.076
57.0, -128835.65620609, -157410.37218694357, -33373.43434970789, -139414.3121736422, 65882.88436924033, -93019.46676009498, 55941.11900819767, -111841.6025449756, 0.028, 0.9560000000000001, -0.016, 192.0, 0.0, 0.0, 0.0, 0.0, 0.0, 0.0, 0.0, 0.0, 0.0, 1.6664044020767848E9, 0.0, 2022-10-21 19:06:42.076
58.0, -128842.04880500422, -157415.22251549037, -33379.96105908883, -139410.82530150717, 65877.22937789313, -93012.96240245848, 55946.99751698942, -111838.96503912986, 0.028, 0.9560000000000001, -0.016, 192.0, 0.0, 0.0, 0.0, 0.0, 0.0, 0.0, 0.0, 0.0, 0.0, 1.666404402076798E9, 0.0, 2022-10-21 19:06:42.076
59.0, -128843.18874397145, -157416.02717829077, -33377.61412592103, -139401.21405139138, 65879.77747676104, -92998.76904472936, 55962.151999730115, -111841.8484141646, 0.028, 0.9560000000000001, -0.016, 192.0, 0.0, 0.0, 0.0, 0.0, 0.0, 0.0, 0.0, 0.0, 0.0, 1.6664044020768108E9, 0.0, 2022-10-21 19:06:42.076
60.0, -128849.89426730803, -157416.8541928356, -33378.06116081013, -139406.08673168265, 65879.73277327213, -93011.24131813542, 55955.98291826045, -111838.2497833073, 0.028, 0.9560000000000001, -0.016, 192.0, 0.0, 0.0, 0.0, 0.0, 0.0, 0.0, 0.0, 0.0, 0.0, 1.6664044020768359E9, 0.0, 2022-10-21 19:06:42.076
61.0, -128849.7154533524, -157419.9610853149, -33376.138910786976, -139413.7533800308, 65882.83966575142, -93032.02844047885, 55940.91784249757, -111838.6968181964, 0.028, 0.9560000000000001, -0.016, 192.0, 0.0, 0.0, 0.0, 0.0, 0.0, 0.0, 0.0, 0.0, 0.0, 1.6664044020768485E9, 0.0, 2022-10-21 19:06:42.076
62.0, -128845.62508411707, -157416.78713760222, -33380.89983235596, -139407.47253983887, 65881.36445061737, -93025.36762063118, 55943.130665198645, -111838.71916994086, 0.028, 0.9560000000000001, -0.016, 192.0, 0.0, 0.0, 0.0, 0.0, 0.0, 0.0, 0.0, 0.0, 0.0, 1.6664044020768614E9, 0.0, 2022-10-21 19:06:42.076
63.0, -128851.45888941991, -157420.0057888038, -33381.39157073398, -139406.13143517156, 65877.25172963759, -93013.23062339195, 55956.45230489401, -111834.51704198326, 0.028, 0.9560000000000001, -0.016, 192.0, 0.0, 0.0, 0.0, 0.0, 0.0, 0.0, 0.0, 0.0, 0.0, 1.6664044020768745E9, 0.0, 2022-10-21 19:06:42.076
64.0, -128855.70572086642, -157425.37020747308, -33370.57332641761, -139405.37147586007, 65885.20895066368, -93005.6533820216, 55965.728278842966, -111829.95728611438, 0.028, 0.9560000000000001, -0.016, 192.0, 0.0, 0.0, 0.0, 0.0, 0.0, 0.0, 0.0, 0.0, 0.0, 1.666404402076887E9, 0.0, 2022-10-21 19:06:42.076
65.0, -128854.72224411038, -157421.59276266012, -33367.62289614951, -139411.5629090742, 65886.7512210311, -93032.18490269005, 55947.84688327872, -111830.4937279813, 0.028, 0.9560000000000001, -0.016, 192.0, 0.0, 0.0, 0.0, 0.0, 0.0, 0.0, 0.0, 0.0, 0.0, 1.6664044020768995E9, 0.0, 2022-10-21 19:06:42.076
66.0, -128858.05265403423, -157427.6053819186, -33372.27205899621, -139408.7912927617, 65883.17494191825, -93044.45601039601, 55940.51551109738, -111835.32170478365, 0.026000000000000002, 0.962, -0.014, 192.0, 0.0, 208.0, 30.0, 16.0, 255.0, 144.0, 0.0, 0.0, 0.0, 1.6664044020769155E9, 0.0, 2022-10-21 19:06:42.076
67.0, -128872.24601176335, -157443.7209896709, -33379.066989310624, -139404.9020892265, 65879.24103489412, -93018.12565542766, 55959.69330784003, -111844.08358861013, 0.026000000000000002, 0.962, -0.014, 192.0, 0.0, 0.0, 0.0, 0.0, 0.0, 0.0, 0.0, 0.0, 0.0, 1.6664044020769296E9, 0.0, 2022-10-21 19:06:42.076
68.0, -128876.09051180966, -157447.43137925045, -33376.11655904252, -139404.96914445987, 65879.15162791629, -93016.31516412678, 55966.89056955464, -111834.74055942781, 0.026000000000000002, 0.962, -0.014, 192.0, 0.0, 0.0, 0.0, 0.0, 0.0, 0.0, 0.0, 0.0, 0.0, 1.6664044020769424E9, 0.0, 2022-10-21 19:06:42.076
69.0, -128872.17895652998, -157443.69863792643, -33373.09907354106, -139406.8019875052, 65885.07484019695, -93043.87486504017, 55950.707906569, -111830.20315530339, 0.026000000000000002, 0.962, -0.014, 192.0, 0.0, 0.0, 0.0, 0.0, 0.0, 0.0, 0.0, 0.0, 0.0, 1.6664044020769553E9, 0.0, 2022-10-21 19:06:42.076
70.0, -128870.74844488484, -157441.03878033624, -33374.44017820837, -139413.48515909736, 65884.13606692983, -93059.85636232572, 55938.392095374125, -111829.8455273921, 0.026000000000000002, 0.962, -0.014, 192.0, 0.0, 0.0, 0.0, 0.0, 0.0, 0.0, 0.0, 0.0, 0.0, 1.6664044020769677E9, 0.0, 2022-10-21 19:06:42.076
71.0, -128873.38595073056, -157439.58591694664, -33380.00576257775, -139418.5590050887, 65872.89313946881, -93048.03228950886, 55947.399848389614, -111834.53939372771, 0.026000000000000002, 0.962, -0.014, 192.0, 0.0, 0.0, 0.0, 0.0, 0.0, 0.0, 0.0, 0.0, 0.0, 1.6664044020769815E9, 0.0, 2022-10-21 19:06:42.076
72.0, -128886.28290728127, -157455.05332410973, -33379.916355599926, -139417.32965914367, 65873.16136040227, -93046.19944646352, 55951.62432809167, -111837.8474519071, 0.026000000000000002, 0.962, -0.014, 192.0, 0.0, 0.0, 0.0, 0.0, 0.0, 0.0, 0.0, 0.0, 0.0, 1.6664044020769944E9, 0.0, 2022-10-21 19:06:42.076
73.0, -128891.51321548382, -157460.30598405673, -33380.89983235596, -139417.12849344357, 65881.18563666173, -93054.53664714536, 55942.571871587264, -111838.2497833073, 0.026000000000000002, 0.962, -0.014, 192.0, 0.0, 0.0, 0.0, 0.0, 0.0, 0.0, 0.0, 0.0, 0.0, 1.666404402077007E9, 0.0, 2022-10-21 19:06:42.077
74.0, -128892.63080270658, -157456.28267005476, -33381.34686724506, -139414.13335968656, 65888.13702918733, -93055.92245530158, 55937.609784318185, -111831.32074252615, 0.026000000000000002, 0.962, -0.014, 192.0, 0.0, 0.0, 0.0, 0.0, 0.0, 0.0, 0.0, 0.0, 0.0, 1.6664044020770197E9, 0.0, 2022-10-21 19:06:42.077
75.0, -128899.73865744338, -157464.79868469224, -33380.6316114225, -139403.38217060355, 65891.51214260008, -93036.54349285884, 55952.49604612542, -111822.67061742194, 0.032, 0.962, -0.016, 192.0, 1.0, 0.0, 30.0, 16.0, 255.0, 128.0, 0.0, 0.0, 0.0, 1.6664044020770438E9, 0.0, 2022-10-21 19:06:42.077
76.0, -128909.5734250037, -157479.908463944, -33385.99603009177, -139401.25875488028, 65889.34402338792, -93020.15966417309, 55960.4085636626, -111830.15845181448, 0.032, 0.962, -0.016, 192.0, 0.0, 0.0, 0.0, 0.0, 0.0, 0.0, 0.0, 0.0, 0.0, 1.6664044020770576E9, 0.0, 2022-10-21 19:06:42.077
77.0, -128917.41888730752, -157488.29036811477, -33389.57230920462, -139424.12458945808, 65877.27408138206, -93032.83310327925, 55946.88575826714, -111837.98156237382, 0.032, 0.962, -0.016, 192.0, 0.0, 0.0, 0.0, 0.0, 0.0, 0.0, 0.0, 0.0, 0.0, 1.6664044020770705E9, 0.0, 2022-10-21 19:06:42.077
78.0, -128918.69293674147, -157486.50222855835, -33381.79390213417, -139421.12945570107, 65880.11275292787, -93055.92245530158, 55933.51941508287, -111828.5938297026, 0.032, 0.962, -0.016, 192.0, 0.0, 0.0, 0.0, 0.0, 0.0, 0.0, 0.0, 0.0, 0.0, 1.6664044020770829E9, 0.0, 2022-10-21 19:06:42.077
79.0, -128922.87271295462, -157490.8161152382, -33386.063085325135, -139412.79225501922, 65878.01168894907, -93050.33451918776, 55939.95671748599, -111830.4937279813, 0.032, 0.962, -0.016, 192.0, 0.0, 0.0, 0.0, 0.0, 0.0, 0.0, 0.0, 0.0, 0.0, 1.6664044020770953E9, 0.0, 2022-10-21 19:06:42.077
80.0, -128932.5286665593, -157501.99198746588, -33392.29922202817, -139411.02646720727, 65874.81538949197, -93050.28981569885, 55942.79538903182, -111828.5938297026, 0.032, 0.962, -0.016, 192.0, 0.0, 0.0, 0.0, 0.0, 0.0, 0.0, 0.0, 0.0, 0.0, 1.666404402077108E9, 0.0, 2022-10-21 19:06:42.077
81.0, -128931.85811422564, -157500.65088279854, -33386.197195791865, -139397.45895832288, 65893.36733738988, -93028.54156834383, 55957.72635432796, -111815.04867256268, 0.032, 0.962, -0.016, 192.0, 0.0, 0.0, 0.0, 0.0, 0.0, 0.0, 0.0, 0.0, 0.0, 1.6664044020771203E9, 0.0, 2022-10-21 19:06:42.077
82.0, -128933.3780328486, -157502.05904269923, -33388.52177721522, -139404.3432956151, 65895.17782869075, -93029.6591555666, 55952.54074961433, -111810.39950971598, 0.032, 0.962, -0.016, 192.0, 0.0, 0.0, 0.0, 0.0, 0.0, 0.0, 0.0, 0.0, 0.0, 1.6664044020771327E9, 0.0, 2022-10-21 19:06:42.077
83.0, -128950.186544679, -157513.10080446015, -33400.65877445445, -139419.29661265571, 65879.24103489412, -93046.15474297461, 55940.962545986484, -111830.13610007001, 0.032, 0.962, -0.016, 192.0, 0.0, 0.0, 0.0, 0.0, 0.0, 0.0, 0.0, 0.0, 0.0, 1.6664044020771456E9, 0.0, 2022-10-21 19:06:42.077
84.0, -128954.90276275907, -157513.12315620462, -33394.22147205132, -139407.78546426125, 65885.23130240814, -93034.0624492243, 55954.12772347066, -111826.42571049044, 0.032, 0.962, -0.016, 192.0, 0.0, 0.0, 0.0, 0.0, 0.0, 0.0, 0.0, 0.0, 0.0, 1.6664044020771608E9, 0.0, 2022-10-21 19:06:42.077
85.0, -128960.13307096162, -157522.57794410922, -33394.62380345152, -139412.0546474522, 65886.1030204419, -93032.36371664569, 55952.96543275898, -111825.71045466787, 0.028, 0.968, -0.016, 192.0, 0.0, 224.0, 30.0, 64.0, 255.0, 128.0, 0.0, 0.0, 0.0, 1.6664044020771759E9, 0.0, 2022-10-21 19:06:42.077
86.0, -128965.16221346405, -157525.64013309957, -33392.008649350246, -139414.22276666437, 65890.23809316613, -93039.18099870456, 55945.656412322096, -111823.60939068907, 0.028, 0.968, -0.016, 192.0, 0.0, 0.0, 0.0, 0.0, 0.0, 0.0, 0.0, 0.0, 0.0, 1.6664044020771914E9, 0.0, 2022-10-21 19:06:42.077
87.0, -128968.35851292117, -157532.09978724716, -33395.45081799637, -139416.8155690212, 65885.9018547418, -93035.58236784725, 55947.17633094506, -111823.20705928888, 0.028, 0.968, -0.016, 192.0, 0.0, 0.0, 0.0, 0.0, 0.0, 0.0, 0.0, 0.0, 0.0, 1.6664044020772064E9, 0.0, 2022-10-21 19:06:42.077
88.0, -128971.688922845, -157536.41367392705, -33398.80357966466, -139413.9545457309, 65883.04083145152, -93008.82732973425, 55967.5611218883, -111828.61618144705, 0.028, 0.968, -0.016, 192.0, 0.0, 0.0, 0.0, 0.0, 0.0, 0.0, 0.0, 0.0, 0.0, 1.6664044020772212E9, 0.0, 2022-10-21 19:06:42.077
89.0, -128980.0931787602, -157538.47003441694, -33401.932823888405, -139422.5599673462, 65877.27408138206, -93005.63103027715, 55969.282206211356, -111830.80665240368, 0.028, 0.968, -0.016, 192.0, 0.0, 0.0, 0.0, 0.0, 0.0, 0.0, 0.0, 0.0, 0.0, 1.666404402077236E9, 0.0, 2022-10-21 19:06:42.077
90.0, -128981.65780087207, -157537.30774370526, -33401.932823888405, -139427.99144124883, 65879.24103489412, -93030.35205964472, 55953.010136247896, -111820.72601565433, 0.028, 0.968, -0.016, 192.0, 0.0, 0.0, 0.0, 0.0, 0.0, 0.0, 0.0, 0.0, 0.0, 1.6664044020772643E9, 0.0, 2022-10-21 19:06:42.077
91.0, -128975.93575429151, -157533.55265063676, -33389.88523362699, -139418.82722602217, 65885.20895066368, -93047.69701334203, 55945.70111581101, -111812.7911463727, 0.028, 0.968, -0.016, 192.0, 0.0, 0.0, 0.0, 0.0, 0.0, 0.0, 0.0, 0.0, 0.0, 1.6664044020772793E9, 0.0, 2022-10-21 19:06:42.077
92.0, -128981.3448764497, -157545.7343513649, -33393.61797495103, -139417.5978800771, 65877.45289533769, -93045.30537668531, 55951.57962460275, -111818.13321329752, 0.028, 0.968, -0.016, 192.0, 0.0, 0.0, 0.0, 0.0, 0.0, 0.0, 0.0, 0.0, 0.0, 1.666404402077295E9, 0.0, 2022-10-21 19:06:42.077
93.0, -128992.72191437746, -157554.0268485578, -33398.781227920204, -139415.42976086496, 65878.63753779382, -93032.22960617895, 55962.151999730115, -111823.36352150007, 0.028, 0.968, -0.016, 192.0, 0.0, 0.0, 0.0, 0.0, 0.0, 0.0, 0.0, 0.0, 0.0, 1.6664044020773115E9, 0.0, 2022-10-21 19:06:42.077
94.0, -128993.25835624438, -157548.95300256647, -33390.80165514966, -139410.6017840626, 65891.13216294434, -93036.76701030339, 55959.22392120647, -111814.95926558487, 0.028, 0.968, -0.016, 192.0, 0.0, 0.0, 0.0, 0.0, 0.0, 0.0, 0.0, 0.0, 0.0, 1.6664044020773268E9, 0.0, 2022-10-21 19:06:42.077
95.0, -128994.84533010071, -157551.50110143438, -33395.428466251906, -139410.82530150717, 65888.71817454317, -93044.97010051849, 55947.84688327872, -111817.93204759742, 0.024, 0.966, -0.01, 192.0, 0.0, 192.0, 30.0, 48.0, 255.0, 176.0, 0.0, 0.0, 0.0, 1.6664044020773418E9, 0.0, 2022-10-21 19:06:42.077
96.0, -128994.51005393387, -157553.60216541318, -33398.445951753376, -139410.17710091796, 65884.47134309667, -93039.47157138248, 55951.7584385584, -111823.9446668559, 0.024, 0.966, -0.01, 192.0, 0.0, 0.0, 0.0, 0.0, 0.0, 0.0, 0.0, 0.0, 0.0, 1.666404402077358E9, 0.0, 2022-10-21 19:06:42.077
97.0, -128996.40995221258, -157555.0773805472, -33396.00961160775, -139403.82920549266, 65892.048584467, -93028.04982996582, 55962.643738108134, -111829.21967854735, 0.024, 0.966, -0.01, 192.0, 0.0, 0.0, 0.0, 0.0, 0.0, 0.0, 0.0, 0.0, 0.0, 1.6664044020773733E9, 0.0, 2022-10-21 19:06:42.077
98.0, -128996.43230395703, -157551.16582526756, -33389.907585371446, -139399.82824323516, 65900.83282003795, -93037.99635624843, 55955.89351128263, -111826.15748955698, 0.024, 0.966, -0.01, 192.0, 0.0, 0.0, 0.0, 0.0, 0.0, 0.0, 0.0, 0.0, 0.0, 1.6664044020773892E9, 0.0, 2022-10-21 19:06:42.077
99.0, -129000.99205982592, -157554.31742123576, -33390.46637898283, -139398.1965658899, 65903.47032588367, -93059.72225185898, 55943.3541826432, -111821.91065811047, 0.024, 0.966, -0.01, 192.0, 0.0, 0.0, 0.0, 0.0, 0.0, 0.0, 0.0, 0.0, 0.0, 1.6664044020774043E9, 0.0, 2022-10-21 19:06:42.077
100.0, -129010.46919947496, -157564.35335449618, -33404.39151577849, -139412.14405443, 65889.34402338792, -93051.42975466607, 55948.15980770109, -111827.9903326023, 0.024, 0.966, -0.01, 192.0, 0.0, 0.0, 0.0, 0.0, 0.0, 0.0, 0.0, 0.0, 0.0, 1.6664044020774193E9, 0.0, 2022-10-21 19:06:42.077
101.0, -129019.87928389065, -157573.56227321175, -33410.56059724815, -139413.7086765419, 65884.87367449685, -93023.46772235248, 55966.15296198762, -111828.52677446924, 0.024, 0.966, -0.01, 192.0, 0.0, 0.0, 0.0, 0.0, 0.0, 0.0, 0.0, 0.0, 0.0, 1.6664044020774345E9, 0.0, 2022-10-21 19:06:42.077
102.0, -129021.30979553578, -157572.06470633324, -33410.06885887014, -139421.93411850143, 65884.13606692983, -93029.4579898665, 55962.286110196845, -111826.78333840173, 0.024, 0.966, -0.01, 192.0, 0.0, 0.0, 0.0, 0.0, 0.0, 0.0, 0.0, 0.0, 0.0, 1.6664044020774498E9, 0.0, 2022-10-21 19:06:42.077
103.0, -129028.77527818386, -157578.61376745865, -33414.80742869466, -139427.49970287082, 65879.17397966076, -93049.77572557637, 55946.86340652269, -111830.51607972576, 0.024, 0.966, -0.01, 192.0, 0.0, 0.0, 0.0, 0.0, 0.0, 0.0, 0.0, 0.0, 0.0, 1.6664044020774648E9, 0.0, 2022-10-21 19:06:42.077
104.0, -129028.93174039504, -157573.4505144895, -33411.25350132627, -139417.7096387994, 65879.77747676104, -93058.17998149157, 55947.8021797898, -111823.07294882214, 0.028, 0.9580000000000001, -0.01, 192.0, 0.0, 224.0, 29.0, 240.0, 255.0, 176.0, 0.0, 0.0, 0.0, 1.6664044020774796E9, 0.0, 2022-10-21 19:06:42.077
105.0, -129021.89094089162, -157567.57200569773, -33403.63155646701, -139412.88166199706, 65883.19729366271, -93036.94582425903, 55965.147133487124, -111818.15556504198, 0.028, 0.9580000000000001, -0.01, 192.0, 0.0, 0.0, 0.0, 0.0, 0.0, 0.0, 0.0, 0.0, 0.0, 1.66640440207751E9, 0.0, 2022-10-21 19:06:42.077
106.0, -129027.70239445001, -157571.68472667751, -33401.75400993276, -139418.38019113307, 65882.39263086232, -93039.42686789356, 55962.151999730115, -111816.92621909693, 0.028, 0.9580000000000001, -0.01, 192.0, 0.0, 0.0, 0.0, 0.0, 0.0, 0.0, 0.0, 0.0, 0.0, 1.6664044020775251E9, 0.0, 2022-10-21 19:06:42.077
107.0, -129024.59550197072, -157565.06861031873, -33391.49455922777, -139414.08865619762, 65893.14381994531, -93056.28008321287, 55951.40081064711, -111807.56083817016, 0.028, 0.9580000000000001, -0.01, 192.0, 0.0, 0.0, 0.0, 0.0, 0.0, 0.0, 0.0, 0.0, 0.0, 1.6664044020775404E9, 0.0, 2022-10-21 19:06:42.077
108.0, -129022.53914148083, -157564.42040972953, -33389.0805708266, -139405.52793807126, 65897.14478220281, -93047.04881275282, 55956.899339783115, -111803.06813753465, 0.028, 0.9580000000000001, -0.01, 192.0, 0.0, 0.0, 0.0, 0.0, 0.0, 0.0, 0.0, 0.0, 0.0, 1.666404402077556E9, 0.0, 2022-10-21 19:06:42.077
109.0, -129026.67421420506, -157563.3475259957, -33387.15832080344, -139400.4987955688, 65895.58016009095, -93018.21506240548, 55980.92746507257, -111799.4918584218, 0.028, 0.9580000000000001, -0.01, 192.0, 0.0, 0.0, 0.0, 0.0, 0.0, 0.0, 0.0, 0.0, 0.0, 1.666404402077571E9, 0.0, 2022-10-21 19:06:42.077
110.0, -129030.0046241289, -157560.4417992165, -33387.29243127018, -139406.73493227185, 65891.57919783345, -93018.17035891657, 55980.70394762802, -111800.7882596002, 0.028, 0.9580000000000001, -0.01, 192.0, 0.0, 0.0, 0.0, 0.0, 0.0, 0.0, 0.0, 0.0, 0.0, 1.6664044020775857E9, 0.0, 2022-10-21 19:06:42.077
111.0, -129029.24466481742, -157561.55938643927, -33389.95228886036, -139419.63188882257, 65889.56754083248, -93050.11100174321, 55955.222958948965, -111806.46560269185, 0.028, 0.9580000000000001, -0.01, 192.0, 0.0, 0.0, 0.0, 0.0, 0.0, 0.0, 0.0, 0.0, 0.0, 1.6664044020776012E9, 0.0, 2022-10-21 19:06:42.077
112.0, -129035.86078117619, -157566.52147370833, -33389.75112316026, -139413.97689747537, 65893.14381994531, -93030.9108532561, 55968.03050852186, -111804.07396603512, 0.028, 0.9580000000000001, -0.01, 192.0, 0.0, 0.0, 0.0, 0.0, 0.0, 0.0, 0.0, 0.0, 0.0, 1.6664044020776174E9, 0.0, 2022-10-21 19:06:42.077
113.0, -129031.18926658503, -157555.2785462473, -33386.39836149196, -139409.9982869623, 65890.7968867775, -93025.2558619089, 55976.054784781314, -111797.1896287429, 0.028, 0.9580000000000001, -0.01, 192.0, 0.0, 0.0, 0.0, 0.0, 0.0, 0.0, 0.0, 0.0, 0.0, 1.6664044020776327E9, 0.0, 2022-10-21 19:06:42.077
114.0, -129029.55758923979, -157555.1891392695, -33386.823044636614, -139414.5580428312, 65889.54518908802, -93036.99052774794, 55970.3103864563, -111799.58126539961, 0.024, 0.962, -0.016, 192.0, 0.0, 192.0, 30.0, 16.0, 255.0, 128.0, 0.0, 0.0, 0.0, 1.6664044020776496E9, 0.0, 2022-10-21 19:06:42.077
115.0, -129032.64212997463, -157561.4923312059, -33385.68310566939, -139414.1110079421, 65896.98831999164, -93049.10517324271, 55960.98970901844, -111802.57639915662, 0.024, 0.962, -0.016, 192.0, 0.0, 0.0, 0.0, 0.0, 0.0, 0.0, 0.0, 0.0, 0.0, 1.6664044020776656E9, 0.0, 2022-10-21 19:06:42.077
116.0, -129041.22519984546, -157562.27464226182, -33389.0805708266, -139415.5638713317, 65895.22253217966, -93057.17415299108, 55953.635985092646, -111805.1915532579, 0.024, 0.962, -0.016, 192.0, 0.0, 0.0, 0.0, 0.0, 0.0, 0.0, 0.0, 0.0, 0.0, 1.6664044020776808E9, 0.0, 2022-10-21 19:06:42.077
117.0, -129028.28353980584, -157546.8742903321, -33371.91443108492, -139385.61253376157, 65915.13793648934, -93022.01485896288, 55983.31910172929, -111787.39956467148, 0.024, 0.962, -0.016, 192.0, 0.0, 0.0, 0.0, 0.0, 0.0, 0.0, 0.0, 0.0, 0.0, 1.6664044020776956E9, 0.0, 2022-10-21 19:06:42.077
118.0, -129028.57411248377, -157551.50110143438, -33373.88138459699, -139387.26656285126, 65913.37214867737, -93008.0003151894, 55989.01879656539, -111787.60073037157, 0.024, 0.962, -0.016, 192.0, 0.0, 0.0, 0.0, 0.0, 0.0, 0.0, 0.0, 0.0, 0.0, 1.6664044020777109E9, 0.0, 2022-10-21 19:06:42.077
119.0, -129049.07066214927, -157568.26490977584, -33385.81721613613, -139419.38601963353, 65896.74245080262, -93014.86230073718, 55972.83613357975, -111802.73286136781, 0.024, 0.962, -0.016, 192.0, 0.0, 0.0, 0.0, 0.0, 0.0, 0.0, 0.0, 0.0, 0.0, 1.6664044020777256E9, 0.0, 2022-10-21 19:06:42.077
120.0, -129038.72180446648, -157557.7819416263, -33372.94261132987, -139408.2101474059, 65909.7064625867, -93014.2588036369, 55975.160715003105, -111788.53950363869, 0.024, 0.962, -0.016, 192.0, 0.0, 0.0, 0.0, 0.0, 0.0, 0.0, 0.0, 0.0, 0.0, 1.6664044020778167E9, 0.0, 2022-10-21 19:06:42.077
121.0, -129039.4594120335, -157559.7488951384, -33371.60150666255, -139397.32484785616, 65910.91345678728, -92992.35409407069, 55994.98671233496, -111780.49287563478, 0.024, 0.962, -0.016, 192.0, 0.0, 0.0, 0.0, 0.0, 0.0, 0.0, 0.0, 0.0, 0.0, 1.6664044020778325E9, 0.0, 2022-10-21 19:06:42.077
122.0, -129038.07360387727, -157558.72071489342, -33373.25553575224, -139407.87487123907, 65905.52668637356, -92991.46002429248, 56000.8652211267, -111787.60073037157, 0.024, 0.962, -0.016, 192.0, 0.0, 0.0, 0.0, 0.0, 0.0, 0.0, 0.0, 0.0, 0.0, 1.6664044025563629E9, 0.0, 2022-10-21 19:06:42.556
123.0, -129029.60229272871, -157548.01422929936, -33368.2263932498, -139409.32773462866, 65914.42268066677, -93005.4075128326, 55993.824421623285, -111785.67848034842, 0.024, 0.962, -0.016, 192.0, 0.0, 0.0, 0.0, 0.0, 0.0, 0.0, 0.0, 0.0, 0.0, 1.6664044025564632E9, 0.0, 2022-10-21 19:06:42.556
124.0, -129031.18926658503, -157546.5837176542, -33366.617067649015, -139398.82241473466, 65920.43529992524, -93018.61739380567, 55983.22969475147, -111779.77761981222, 0.028, 0.964, -0.018000000000000002, 192.0, 0.0, 224.0, 30.0, 32.0, 255.0, 112.0, 0.0, 0.0, 0.0, 1.666404402556554E9, 0.0, 2022-10-21 19:06:42.556
125.0, -129033.84912417522, -157550.11529327816, -33373.76962587472, -139395.89433621103, 65914.71325334469, -93009.02849543435, 55991.76806113339, -111784.09150649208, 0.028, 0.964, -0.018000000000000002, 192.0, 0.0, 0.0, 0.0, 0.0, 0.0, 0.0, 0.0, 0.0, 0.0, 1.666404402556609E9, 0.0, 2022-10-21 19:06:42.556
126.0, -129030.49636250692, -157548.7741886108, -33378.39643697697, -139399.47061532387, 65909.28177944206, -92997.67380925105, 56006.22963979598, -111779.0847157341, 0.028, 0.964, -0.018000000000000002, 192.0, 0.0, 0.0, 0.0, 0.0, 0.0, 0.0, 0.0, 0.0, 0.0, 1.6664044025566313E9, 0.0, 2022-10-21 19:06:42.556
127.0, -129034.89965616462, -157548.19304325499, -33384.61022193554, -139409.2606793953, 65904.27498868406, -93003.17233838706, 56000.57464844879, -111775.68725057688, 0.028, 0.964, -0.018000000000000002, 192.0, 0.0, 0.0, 0.0, 0.0, 0.0, 0.0, 0.0, 0.0, 0.0, 1.666404402556654E9, 0.0, 2022-10-21 19:06:42.556
128.0, -129036.21840908748, -157548.5283194218, -33383.31382075713, -139411.38409511856, 65905.97372126266, -93023.49007409693, 55982.93912207355, -111773.42972438691, 0.028, 0.964, -0.018000000000000002, 192.0, 0.0, 0.0, 0.0, 0.0, 0.0, 0.0, 0.0, 0.0, 0.0, 1.666404402556678E9, 0.0, 2022-10-21 19:06:42.556
129.0, -129034.13969685313, -157549.42238920002, -33386.621878936516, -139405.43853109344, 65904.31969217297, -93024.13827468613, 55979.80987784981, -111779.26352968974, 0.028, 0.964, -0.018000000000000002, 192.0, 0.0, 0.0, 0.0, 0.0, 0.0, 0.0, 0.0, 0.0, 0.0, 1.6664044025567E9, 0.0, 2022-10-21 19:06:42.556
130.0, -129031.9045224076, -157547.0307525433, -33391.025172594214, -139403.51628107027, 65902.86682878337, -93014.41526584807, 55987.47652619798, -111787.80189607167, 0.028, 0.964, -0.018000000000000002, 192.0, 0.0, 0.0, 0.0, 0.0, 0.0, 0.0, 0.0, 0.0, 0.0, 1.666404402556722E9, 0.0, 2022-10-21 19:06:42.556
131.0, -129036.41957478758, -157550.0258863003, -33385.928974858405, -139408.2101474059, 65909.08061374196, -93002.2559168644, 55996.50663095792, -111785.27614894822, 0.028, 0.964, -0.018000000000000002, 192.0, 0.0, 0.0, 0.0, 0.0, 0.0, 0.0, 0.0, 0.0, 0.0, 1.6664044025567443E9, 0.0, 2022-10-21 19:06:42.556
132.0, -129023.34380428122, -157538.42533092803, -33373.25553575224, -139402.21987989187, 65923.36337844889, -93015.37639085966, 55989.37642447668, -111769.69698306287, 0.028, 0.964, -0.018000000000000002, 192.0, 0.0, 0.0, 0.0, 0.0, 0.0, 0.0, 0.0, 0.0, 0.0, 1.666404402556766E9, 0.0, 2022-10-21 19:06:42.556
133.0, -129007.36230699568, -157520.38747315257, -33366.773529860206, -139385.07609189465, 65931.92409657528, -93022.46189385199, 55990.60577042172, -111760.42100911391, 0.028, 0.964, -0.018000000000000002, 192.0, 0.0, 0.0, 0.0, 0.0, 0.0, 0.0, 0.0, 0.0, 0.0, 1.6664044025567877E9, 0.0, 2022-10-21 19:06:42.556
134.0, -129020.16985656857, -157536.6818948605, -33385.21371903583, -139404.99149620434, 65909.37118641987, -93024.49590259742, 55985.017834307895, -111778.12359072252, 0.032, 0.9580000000000001, -0.016, 192.0, 1.0, 0.0, 29.0, 240.0, 255.0, 128.0, 0.0, 0.0, 0.0, 1.66640440255681E9, 0.0, 2022-10-21 19:06:42.556
135.0, -129033.02210963037, -157546.06962753175, -33394.95907961835, -139416.18972017642, 65902.9562357612, -93013.94587921452, 55986.15777327511, -111778.95060526737, 0.032, 0.9580000000000001, -0.016, 192.0, 0.0, 0.0, 0.0, 0.0, 0.0, 0.0, 0.0, 0.0, 0.0, 1.6664044025570138E9, 0.0, 2022-10-21 19:06:42.557
136.0, -129021.7568304249, -157532.65858085855, -33387.672410925916, -139411.94288872991, 65911.58400912095, -93022.93128048554, 55977.19472374854, -111768.15471269545, 0.032, 0.9580000000000001, -0.016, 192.0, 0.0, 0.0, 0.0, 0.0, 0.0, 0.0, 0.0, 0.0, 0.0, 1.6664044025570376E9, 0.0, 2022-10-21 19:06:42.557
137.0, -129014.06783033226, -157526.08716798868, -33386.80069289216, -139406.2431938938, 65916.79196557903, -93040.03036499386, 55968.94693004453, -111771.2839569192, 0.032, 0.9580000000000001, -0.016, 192.0, 0.0, 0.0, 0.0, 0.0, 0.0, 0.0, 0.0, 0.0, 0.0, 1.6664044025570595E9, 0.0, 2022-10-21 19:06:42.557
138.0, -129020.97451936896, -157531.31747619124, -33388.34296325957, -139397.86128972308, 65914.98147427816, -93021.56782407378, 55983.475563940476, -111779.62115760102, 0.032, 0.9580000000000001, -0.016, 192.0, 0.0, 0.0, 0.0, 0.0, 0.0, 0.0, 0.0, 0.0, 0.0, 1.666404402557082E9, 0.0, 2022-10-21 19:06:42.557
139.0, -129024.59550197072, -157534.55847913725, -33389.16997780442, -139402.73397001435, 65913.03687251054, -93010.54841405731, 55993.42209022309, -111789.38886992799, 0.032, 0.9580000000000001, -0.016, 192.0, 0.0, 0.0, 0.0, 0.0, 0.0, 0.0, 0.0, 0.0, 0.0, 1.6664044025571065E9, 0.0, 2022-10-21 19:06:42.557
140.0, -129014.53721696582, -157525.12604297712, -33379.55872768864, -139412.88166199706, 65918.9600847912, -93030.19559743353, 55983.38615696265, -111775.62019534352, 0.032, 0.9580000000000001, -0.016, 192.0, 0.0, 0.0, 0.0, 0.0, 0.0, 0.0, 0.0, 0.0, 0.0, 1.6664044025571313E9, 0.0, 2022-10-21 19:06:42.557
141.0, -129014.26899603236, -157518.91225801854, -33375.53541368669, -139409.3053828842, 65923.36337844889, -93050.11100174321, 55972.634967879654, -111769.5852243406, 0.032, 0.9580000000000001, -0.016, 192.0, 0.0, 0.0, 0.0, 0.0, 0.0, 0.0, 0.0, 0.0, 0.0, 1.666404402557163E9, 0.0, 2022-10-21 19:06:42.557
142.0, -129017.93468212304, -157526.04246449977, -33381.32451550061, -139410.2441561513, 65917.7083871017, -93035.82823703626, 55982.67090114009, -111770.4792941188, 0.032, 0.9580000000000001, -0.016, 192.0, 0.0, 0.0, 0.0, 0.0, 0.0, 0.0, 0.0, 0.0, 0.0, 1.6664044025571876E9, 0.0, 2022-10-21 19:06:42.557
143.0, -129016.2583012889, -157524.07551098772, -33380.69866665586, -139407.96427821688, 65919.27300921358, -93031.26848116738, 55990.76223263291, -111768.22176792882, 0.032, 0.9540000000000001, -0.018000000000000002, 192.0, 1.0, 0.0, 29.0, 208.0, 255.0, 112.0, 0.0, 0.0, 0.0, 1.666404402557212E9, 0.0, 2022-10-21 19:06:42.557
144.0, -129012.68202217604, -157518.91225801854, -33375.423654964405, -139408.23249915036, 65922.7598813486, -93039.18099870456, 55987.45417445352, -111759.37047712451, 0.032, 0.9540000000000001, -0.018000000000000002, 192.0, 0.0, 0.0, 0.0, 0.0, 0.0, 0.0, 0.0, 0.0, 0.0, 1.6664044025572352E9, 0.0, 2022-10-21 19:06:42.557
145.0, -129016.5041704779, -157517.0794149732, -33376.138910786976, -139408.88069973956, 65925.35268370541, -93052.4132314221, 55977.57470340427, -111759.63869805798, 0.032, 0.9540000000000001, -0.018000000000000002, 192.0, 0.0, 0.0, 0.0, 0.0, 0.0, 0.0, 0.0, 0.0, 0.0, 1.6664044025572572E9, 0.0, 2022-10-21 19:06:42.557
146.0, -129007.8987488626, -157512.45260387094, -33373.85903285254, -139402.5551560587, 65925.7550151056, -93049.79807732083, 55981.41920345059, -111760.08573294709, 0.032, 0.9540000000000001, -0.018000000000000002, 192.0, 0.0, 0.0, 0.0, 0.0, 0.0, 0.0, 0.0, 0.0, 0.0, 1.6664044025572793E9, 0.0, 2022-10-21 19:06:42.557
147.0, -129002.33316449323, -157504.11540318912, -33369.94747757286, -139390.82049021966, 65929.7112738742, -93036.1635132031, 55994.3161600013, -111759.01284921324, 0.032, 0.9540000000000001, -0.018000000000000002, 192.0, 0.0, 0.0, 0.0, 0.0, 0.0, 0.0, 0.0, 0.0, 0.0, 1.6664044025573015E9, 0.0, 2022-10-21 19:06:42.557
148.0, -129011.27386227535, -157509.90450500304, -33379.02228582171, -139407.9419264724, 65922.17873599277, -93037.61637659269, 55989.13055528767, -111768.82526502911, 0.032, 0.9540000000000001, -0.018000000000000002, 192.0, 0.0, 0.0, 0.0, 0.0, 0.0, 0.0, 0.0, 0.0, 0.0, 1.6664044025573237E9, 0.0, 2022-10-21 19:06:42.557
149.0, -129023.96965312597, -157523.74023482087, -33387.20302429236, -139421.9564702459, 65916.81431732349, -93052.79321107783, 55971.69619461253, -111776.9836517553, 0.032, 0.9540000000000001, -0.018000000000000002, 192.0, 0.0, 0.0, 0.0, 0.0, 0.0, 0.0, 0.0, 0.0, 0.0, 1.666404402557346E9, 0.0, 2022-10-21 19:06:42.557
150.0, -129019.56635946827, -157523.60612435415, -33382.352695745554, -139404.76797875977, 65922.9610470487, -93042.86903653969, 55977.55235165982, -111774.61436684303, 0.032, 0.9540000000000001, -0.018000000000000002, 192.0, 0.0, 0.0, 0.0, 0.0, 0.0, 0.0, 0.0, 0.0, 0.0, 1.6664044025574484E9, 0.0, 2022-10-21 19:06:42.557
151.0, -129013.50903672089, -157512.60906608214, -33378.61995442152, -139400.14116765754, 65924.2574482271, -93011.88951872462, 56000.64170368215, -111771.84275053057, 0.032, 0.9540000000000001, -0.018000000000000002, 192.0, 0.0, 0.0, 0.0, 0.0, 0.0, 0.0, 0.0, 0.0, 0.0, 1.6664044025574708E9, 0.0, 2022-10-21 19:06:42.557
152.0, -129019.87928389065, -157521.12508071962, -33379.26815501072, -139415.47446435387, 65918.53540164654, -93020.89727174012, 55989.01879656539, -111774.94964300987, 0.032, 0.9540000000000001, -0.018000000000000002, 192.0, 0.0, 0.0, 0.0, 0.0, 0.0, 0.0, 0.0, 0.0, 0.0, 1.6664044025574927E9, 0.0, 2022-10-21 19:06:42.557
153.0, -129016.1018390777, -157518.82285104072, -33370.86389909552, -139414.08865619762, 65927.56550640649, -93042.82433305077, 55974.33370045826, -111766.4783318613, 0.03, 0.9580000000000001, -0.012, 192.0, 0.0, 240.0, 29.0, 240.0, 255.0, 160.0, 0.0, 0.0, 0.0, 1.666404402557515E9, 0.0, 2022-10-21 19:06:42.557
154.0, -129023.07558334776, -157519.89573477456, -33372.853204352046, -139409.1042171841, 65925.1068145164, -93055.07308901228, 55965.437706165045, -111775.19551219887, 0.03, 0.9580000000000001, -0.012, 192.0, 0.0, 0.0, 0.0, 0.0, 0.0, 0.0, 0.0, 0.0, 0.0, 1.6664044025575387E9, 0.0, 2022-10-21 19:06:42.557
155.0, -129015.2077692995, -157513.2349149269, -33372.69674214086, -139408.32190612817, 65922.06697727049, -93036.83406553675, 55980.34631971674, -111773.1838551979, 0.03, 0.9580000000000001, -0.012, 192.0, 0.0, 0.0, 0.0, 0.0, 0.0, 0.0, 0.0, 0.0, 0.0, 1.6664044025575607E9, 0.0, 2022-10-21 19:06:42.557
156.0, -129016.68298443354, -157513.54783934925, -33377.77058813222, -139417.64258356602, 65920.61411388089, -93027.96042298799, 55981.97799706197, -111770.72516330781, 0.03, 0.9580000000000001, -0.012, 192.0, 0.0, 0.0, 0.0, 0.0, 0.0, 0.0, 0.0, 0.0, 0.0, 1.6664044025575829E9, 0.0, 2022-10-21 19:06:42.557
157.0, -129020.54983622431, -157517.0794149732, -33377.05533230965, -139420.5483103452, 65923.69865461573, -93032.07314396778, 55975.63010163666, -111775.30727092116, 0.03, 0.9580000000000001, -0.012, 192.0, 0.0, 0.0, 0.0, 0.0, 0.0, 0.0, 0.0, 0.0, 0.0, 1.666404402557609E9, 0.0, 2022-10-21 19:06:42.557
158.0, -129018.0017373564, -157512.1396794486, -33371.82502410711, -139407.6960572834, 65929.01836979609, -93036.8117137923, 55975.09365976974, -111764.7348957938, 0.03, 0.9580000000000001, -0.012, 192.0, 0.0, 0.0, 0.0, 0.0, 0.0, 0.0, 0.0, 0.0, 0.0, 1.666404402557632E9, 0.0, 2022-10-21 19:06:42.557
159.0, -129012.01146984239, -157508.31753114672, -33369.74631187276, -139399.91765021297, 65930.3594744634, -93016.31516412678, 55993.48914545646, -111755.9730119673, 0.03, 0.9580000000000001, -0.012, 192.0, 0.0, 0.0, 0.0, 0.0, 0.0, 0.0, 0.0, 0.0, 0.0, 1.6664044025576544E9, 0.0, 2022-10-21 19:06:42.557
160.0, -129010.53625470834, -157507.9822549799, -33364.381893203485, -139400.63290603555, 65933.3099047315, -93016.56103331578, 55995.25493326842, -111754.9224799779, 0.03, 0.9580000000000001, -0.012, 192.0, 0.0, 0.0, 0.0, 0.0, 0.0, 0.0, 0.0, 0.0, 0.0, 1.6664044025576763E9, 0.0, 2022-10-21 19:06:42.557
161.0, -129017.24177804492, -157518.2864091738, -33373.88138459699, -139408.47836833936, 65929.24188724064, -93028.69803055502, 55982.87206684018, -111766.18775918339, 0.03, 0.9580000000000001, -0.012, 192.0, 0.0, 0.0, 0.0, 0.0, 0.0, 0.0, 0.0, 0.0, 0.0, 1.666404402557698E9, 0.0, 2022-10-21 19:06:42.557
162.0, -129016.59357745571, -157511.80440328174, -33374.93191658639, -139417.93315624396, 65920.34589294743, -93051.16153373261, 55966.957624788, -111772.3344889086, 0.03, 0.9580000000000001, -0.012, 192.0, 0.0, 0.0, 0.0, 0.0, 0.0, 0.0, 0.0, 0.0, 0.0, 1.6664044025577211E9, 0.0, 2022-10-21 19:06:42.557
163.0, -129012.3467460092, -157513.90546726054, -33370.28275373969, -139407.2490223943, 65923.67630287127, -93039.02453649337, 55980.30161622782, -111774.59201509858, 0.026000000000000002, 0.9580000000000001, -0.016, 192.0, 0.0, 208.0, 29.0, 240.0, 255.0, 128.0, 0.0, 0.0, 0.0, 1.6664044025577435E9, 0.0, 2022-10-21 19:06:42.557
164.0, -129010.96093785299, -157510.91033350353, -33358.123404756, -139392.20629837588, 65937.2661635001, -93020.27142289537, 55995.81372687981, -111763.30438414865, 0.026000000000000002, 0.9580000000000001, -0.016, 192.0, 0.0, 0.0, 0.0, 0.0, 0.0, 0.0, 0.0, 0.0, 0.0, 1.666404402557767E9, 0.0, 2022-10-21 19:06:42.557
165.0, -129019.0075658569, -157516.56532485073, -33360.760910601726, -139398.28597286774, 65937.73555013366, -93038.04105973734, 55978.289959226844, -111759.61634631353, 0.026000000000000002, 0.9580000000000001, -0.016, 192.0, 0.0, 0.0, 0.0, 0.0, 0.0, 0.0, 0.0, 0.0, 0.0, 1.666404402557838E9, 0.0, 2022-10-21 19:06:42.557
166.0, -129023.43321125903, -157521.30389467525, -33373.546108430164, -139419.4530748669, 65923.49748891563, -93064.25965598342, 55953.30070892581, -111771.9321575084, 0.026000000000000002, 0.9580000000000001, -0.016, 192.0, 0.0, 0.0, 0.0, 0.0, 0.0, 0.0, 0.0, 0.0, 0.0, 1.6664044025578527E9, 0.0, 2022-10-21 19:06:42.557
167.0, -129029.1552578396, -157523.40495865405, -33383.44793122386, -139414.08865619762, 65917.84249756843, -93041.97496676147, 55968.231674221955, -111775.2849191767, 0.026000000000000002, 0.9580000000000001, -0.016, 192.0, 0.0, 0.0, 0.0, 0.0, 0.0, 0.0, 0.0, 0.0, 0.0, 1.666404402557867E9, 0.0, 2022-10-21 19:06:42.557
168.0, -129021.17568506906, -157514.6877783165, -33370.1262915285, -139405.28206888225, 65925.2632767276, -93023.40066711912, 55986.58245641977, -111761.09156144758, 0.026000000000000002, 0.9580000000000001, -0.016, 192.0, 0.0, 0.0, 0.0, 0.0, 0.0, 0.0, 0.0, 0.0, 0.0, 1.6664044025578816E9, 0.0, 2022-10-21 19:06:42.557
169.0, -129025.80249617131, -157519.44869988546, -33371.802672362646, -139407.83016775016, 65925.41973893878, -93034.82240853578, 55977.73116561546, -111766.29951790566, 0.026000000000000002, 0.9580000000000001, -0.016, 192.0, 0.0, 0.0, 0.0, 0.0, 0.0, 0.0, 0.0, 0.0, 0.0, 1.666404402557896E9, 0.0, 2022-10-21 19:06:42.557
170.0, -129025.78014442686, -157521.4827086309, -33376.11655904252, -139412.0546474522, 65922.3575499484, -93054.60370237872, 55961.79437181883, -111775.75430581026, 0.026000000000000002, 0.9580000000000001, -0.016, 192.0, 0.0, 0.0, 0.0, 0.0, 0.0, 0.0, 0.0, 0.0, 0.0, 1.6664044025579102E9, 0.0, 2022-10-21 19:06:42.557
171.0, -129021.24274030242, -157516.81119403974, -33372.20500376284, -139403.31511537018, 65925.15151800532, -93058.17998149157, 55964.945967787025, -111776.40250639946, 0.026000000000000002, 0.9580000000000001, -0.016, 192.0, 0.0, 0.0, 0.0, 0.0, 0.0, 0.0, 0.0, 0.0, 0.0, 1.6664044025579245E9, 0.0, 2022-10-21 19:06:42.557
172.0, -129030.63047297364, -157527.31651393374, -33383.1797102904, -139402.62221129207, 65921.307017959, -93045.30537668531, 55973.618444635686, -111784.5832448701, 0.03, 0.9580000000000001, -0.008, 192.0, 0.0, 240.0, 29.0, 240.0, 255.0, 192.0, 0.0, 0.0, 0.0, 1.6664044025579393E9, 0.0, 2022-10-21 19:06:42.557
173.0, -129026.62951071616, -157527.92001103403, -33383.693800412875, -139413.17223467497, 65917.37311093487, -93053.01672852239, 55965.77298233187, -111784.62794835902, 0.03, 0.9580000000000001, -0.008, 192.0, 0.0, 0.0, 0.0, 0.0, 0.0, 0.0, 0.0, 0.0, 0.0, 1.6664044025579548E9, 0.0, 2022-10-21 19:06:42.557
174.0, -129030.36225204018, -157531.8315663137, -33387.20302429236, -139412.81460676368, 65916.81431732349, -93070.98753106446, 55952.25017693641, -111783.68917509189, 0.03, 0.9580000000000001, -0.008, 192.0, 0.0, 0.0, 0.0, 0.0, 0.0, 0.0, 0.0, 0.0, 0.0, 1.6664044025579693E9, 0.0, 2022-10-21 19:06:42.557
175.0, -129028.64116771713, -157533.91027854805, -33388.588832448586, -139405.43853109344, 65919.58593363594, -93066.5618856623, 55956.65347059411, -111781.16342796844, 0.03, 0.9580000000000001, -0.008, 192.0, 0.0, 0.0, 0.0, 0.0, 0.0, 0.0, 0.0, 0.0, 0.0, 1.6664044025579848E9, 0.0, 2022-10-21 19:06:42.557
176.0, -129034.69849046452, -157537.24068847188, -33392.634498194995, -139408.23249915036, 65917.14959349032, -93051.45210641052, 55967.65052886612, -111785.34320418158, 0.03, 0.9580000000000001, -0.008, 192.0, 0.0, 0.0, 0.0, 0.0, 0.0, 0.0, 0.0, 0.0, 0.0, 1.6664044025579991E9, 0.0, 2022-10-21 19:06:42.557
177.0, -129045.20381035851, -157543.8791565751, -33404.25740531176, -139425.33158365864, 65907.78421256355, -93057.82235358028, 55959.000403761915, -111793.2333699743, 0.03, 0.9580000000000001, -0.008, 192.0, 0.0, 0.0, 0.0, 0.0, 0.0, 0.0, 0.0, 0.0, 0.0, 1.6664044025580134E9, 0.0, 2022-10-21 19:06:42.558
178.0, -129036.15135385412, -157530.46810990194, -33395.60728020755, -139418.24608066631, 65916.99313127913, -93068.35002521874, 55952.45134263651, -111780.64933784597, 0.03, 0.9580000000000001, -0.008, 192.0, 0.0, 0.0, 0.0, 0.0, 0.0, 0.0, 0.0, 0.0, 0.0, 1.6664044025580297E9, 0.0, 2022-10-21 19:06:42.558
179.0, -129025.86955140467, -157523.65082784306, -33387.69476267037, -139412.18875791892, 65918.28953245754, -93062.20329549353, 55958.575720617264, -111782.43747740239, 0.03, 0.9580000000000001, -0.008, 192.0, 0.0, 0.0, 0.0, 0.0, 0.0, 0.0, 0.0, 0.0, 0.0, 1.6664044025580437E9, 0.0, 2022-10-21 19:06:42.558
180.0, -129028.48470550594, -157527.60708661165, -33389.10292257106, -139414.33452538666, 65913.08157599946, -93045.99828076342, 55972.23263647946, -111792.138134496, 0.03, 0.9580000000000001, -0.008, 192.0, 0.0, 0.0, 0.0, 0.0, 0.0, 0.0, 0.0, 0.0, 0.0, 1.6664044025580933E9, 0.0, 2022-10-21 19:06:42.558
181.0, -129025.86955140467, -157527.20475521145, -33392.768608661725, -139416.0109062208, 65913.93094228876, -93040.83502779425, 55973.193761491035, -111793.85921881905, 0.03, 0.9580000000000001, -0.008, 192.0, 0.0, 0.0, 0.0, 0.0, 0.0, 0.0, 0.0, 0.0, 0.0, 1.6664044025581093E9, 0.0, 2022-10-21 19:06:42.558
182.0, -129019.87928389065, -157525.37191216613, -33394.26617554023, -139426.24800518132, 65913.41685216628, -93048.23345520896, 55964.07424975327, -111794.41801243044, 0.03, 0.9580000000000001, -0.014, 192.0, 0.0, 240.0, 29.0, 240.0, 255.0, 144.0, 0.0, 0.0, 0.0, 1.666404402558124E9, 0.0, 2022-10-21 19:06:42.558
183.0, -128996.02997255683, -157502.86370549962, -33384.14083530198, -139412.59108931912, 65924.16804124929, -93069.28879848585, 55958.91099678409, -111779.50939887876, 0.03, 0.9580000000000001, -0.014, 192.0, 0.0, 0.0, 0.0, 0.0, 0.0, 0.0, 0.0, 0.0, 0.0, 1.6664044025581396E9, 0.0, 2022-10-21 19:06:42.558
184.0, -128987.22338524145, -157488.4244785815, -33382.26328876773, -139403.11394967008, 65924.16804124929, -93055.27425471238, 55979.5640086608, -111768.04295397317, 0.03, 0.9580000000000001, -0.014, 192.0, 0.0, 0.0, 0.0, 0.0, 0.0, 0.0, 0.0, 0.0, 0.0, 1.666404402558154E9, 0.0, 2022-10-21 19:06:42.558
185.0, -128991.69373413251, -157480.7578302333, -33383.827910879605, -139403.31511537018, 65924.07863427146, -93050.02159476538, 55986.046014552834, -111770.09931446306, 0.03, 0.9580000000000001, -0.014, 192.0, 0.0, 0.0, 0.0, 0.0, 0.0, 0.0, 0.0, 0.0, 0.0, 1.6664044025581684E9, 0.0, 2022-10-21 19:06:42.558
186.0, -128982.73068460592, -157471.25833883983, -33384.99020159128, -139421.24121442332, 65917.57427663497, -93064.52787691688, 55970.1092207562, -111782.66099484694, 0.03, 0.9580000000000001, -0.014, 192.0, 0.0, 0.0, 0.0, 0.0, 0.0, 0.0, 0.0, 0.0, 0.0, 1.666404402558183E9, 0.0, 2022-10-21 19:06:42.558
187.0, -128962.77057680734, -157455.61211772112, -33382.643268423475, -139425.17512144748, 65915.18263997826, -93094.16629006462, 55949.992650746426, -111780.80580005716, 0.03, 0.9580000000000001, -0.014, 192.0, 0.0, 0.0, 0.0, 0.0, 0.0, 0.0, 0.0, 0.0, 0.0, 1.6664044025581975E9, 0.0, 2022-10-21 19:06:42.558
188.0, -128952.37701563562, -157444.27978328225, -33381.74919864526, -139415.18389167596, 65916.34493068993, -93069.89229558615, 55966.15296198762, -111787.28780594919, 0.03, 0.9580000000000001, -0.014, 192.0, 0.0, 0.0, 0.0, 0.0, 0.0, 0.0, 0.0, 0.0, 0.0, 1.666404402558212E9, 0.0, 2022-10-21 19:06:42.558
189.0, -128944.91153298755, -157430.28759125323, -33373.680218896894, -139413.4628073529, 65921.79875633703, -93064.05849028332, 55974.06547952479, -111780.71639307933, 0.03, 0.9580000000000001, -0.014, 192.0, 0.0, 0.0, 0.0, 0.0, 0.0, 0.0, 0.0, 0.0, 0.0, 1.6664044025582263E9, 0.0, 2022-10-21 19:06:42.558
190.0, -128927.05248916776, -157413.36732070058, -33368.516965927716, -139415.4968160983, 65929.063073285, -93075.3237694888, 55964.65539510911, -111784.35972742554, 0.03, 0.9580000000000001, -0.014, 192.0, 0.0, 0.0, 0.0, 0.0, 0.0, 0.0, 0.0, 0.0, 0.0, 1.666404402558241E9, 0.0, 2022-10-21 19:06:42.558
191.0, -128905.01366913483, -157393.74248906883, -33364.91833507041, -139411.0041154628, 65933.4663669427, -93086.16436554962, 55957.90516828361, -111783.01862275823, 0.03, 0.9580000000000001, -0.014, 192.0, 0.0, 0.0, 0.0, 0.0, 0.0, 0.0, 0.0, 0.0, 0.0, 1.6664044025582552E9, 0.0, 2022-10-21 19:06:42.558
192.0, -128895.73769518588, -157377.51512259425, -33372.80850086314, -139413.3510486306, 65921.61994238138, -93076.77663287839, 55964.76715383139, -111791.02054727323, 0.028, 0.96, -0.012, 192.0, 0.0, 224.0, 30.0, 0.0, 255.0, 160.0, 0.0, 0.0, 0.0, 1.6664044025582695E9, 0.0, 2022-10-21 19:06:42.558
193.0, -128886.05938983672, -157360.8854247195, -33368.874593839006, -139412.6581445525, 65920.27883771407, -93060.10223151473, 55976.79239234834, -111790.39469842848, 0.028, 0.96, -0.012, 192.0, 0.0, 0.0, 0.0, 0.0, 0.0, 0.0, 0.0, 0.0, 0.0, 1.6664044025582843E9, 0.0, 2022-10-21 19:06:42.558
194.0, -128853.17997374297, -157334.9797528958, -33351.30612269713, -139398.3530281011, 65936.70736988871, -93060.97394954848, 55977.93233131556, -111768.46763711782, 0.028, 0.96, -0.012, 192.0, 0.0, 0.0, 0.0, 0.0, 0.0, 0.0, 0.0, 0.0, 0.0, 1.6664044025582988E9, 0.0, 2022-10-21 19:06:42.558
195.0, -128836.17029621248, -157320.58522946658, -33351.70845409733, -139401.21405139138, 65936.84148035545, -93074.25088575494, 55967.33760444375, -111767.26064291724, 0.028, 0.96, -0.012, 192.0, 0.0, 0.0, 0.0, 0.0, 0.0, 0.0, 0.0, 0.0, 0.0, 1.6664044025583518E9, 0.0, 2022-10-21 19:06:42.558
196.0, -128838.13724972455, -157313.11974681853, -33358.83866057857, -139400.36468510207, 65926.20204999472, -93076.70957764502, 55964.27541545337, -111774.70377382086, 0.028, 0.96, -0.012, 192.0, 0.0, 0.0, 0.0, 0.0, 0.0, 0.0, 0.0, 0.0, 0.0, 1.6664044025583673E9, 0.0, 2022-10-21 19:06:42.558
197.0, -128832.86223803309, -157303.21792402482, -33365.007742048234, -139402.97983920336, 65920.8599830699, -93063.41028969412, 55972.79143009084, -111784.7844105702, 0.028, 0.96, -0.012, 192.0, 0.0, 0.0, 0.0, 0.0, 0.0, 0.0, 0.0, 0.0, 0.0, 1.6664044025583816E9, 0.0, 2022-10-21 19:06:42.558
198.0, -128819.33943263763, -157288.28695872868, -33360.69385536836, -139410.06534219568, 65923.07280577098, -93062.35975770472, 55974.64662488063, -111787.95835828285, 0.028, 0.96, -0.012, 192.0, 0.0, 0.0, 0.0, 0.0, 0.0, 0.0, 0.0, 0.0, 0.0, 1.6664044025583963E9, 0.0, 2022-10-21 19:06:42.558
199.0, -128800.8545399731, -157275.2782434557, -33355.77647158819, -139406.77963576076, 65930.5606401635, -93083.1692317926, 55959.82741830676, -111788.1371722385, 0.028, 0.96, -0.012, 192.0, 0.0, 0.0, 0.0, 0.0, 0.0, 0.0, 0.0, 0.0, 0.0, 1.6664044025584126E9, 0.0, 2022-10-21 19:06:42.558
200.0, -128789.79042646772, -157267.43278115187, -33353.85422156504, -139392.76509198727, 65936.2156315107, -93064.68433912807, 55972.143229501635, -111782.90686403596, 0.028, 0.96, -0.012, 192.0, 0.0, 0.0, 0.0, 0.0, 0.0, 0.0, 0.0, 0.0, 0.0, 1.666404402558427E9, 0.0, 2022-10-21 19:06:42.558
201.0, -128777.2958013172, -157251.74185654425, -33346.902829039434, -139394.75439724379, 65931.11943377489, -93041.4161731501, 55991.11986054419, -111781.87868379102, 0.024, 0.9580000000000001, -0.014, 192.0, 0.0, 192.0, 29.0, 240.0, 255.0, 144.0, 0.0, 0.0, 0.0, 1.6664044025584416E9, 0.0, 2022-10-21 19:06:42.558
202.0, -128762.18602206542, -157233.68164702435, -33343.88534353797, -139401.88460372505, 65932.0135035531, -93052.56969363328, 55985.53192443037, -111780.60463435706, 0.024, 0.9580000000000001, -0.014, 192.0, 0.0, 0.0, 0.0, 0.0, 0.0, 0.0, 0.0, 0.0, 0.0, 1.6664044025584576E9, 0.0, 2022-10-21 19:06:42.558
203.0, -128746.47274571333, -157212.87217293648, -33346.142869727955, -139407.91957472797, 65935.03098905456, -93071.14399327565, 55970.42214517858, -111788.56185538314, 0.024, 0.9580000000000001, -0.014, 192.0, 0.0, 0.0, 0.0, 0.0, 0.0, 0.0, 0.0, 0.0, 0.0, 1.6664044025584722E9, 0.0, 2022-10-21 19:06:42.558
204.0, -128718.42130642192, -157188.06173659107, -33327.27799740768, -139391.53574604224, 65944.68694265926, -93073.75914737691, 55977.90997957111, -111776.15663721046, 0.024, 0.9580000000000001, -0.014, 192.0, 0.0, 0.0, 0.0, 0.0, 0.0, 0.0, 0.0, 0.0, 0.0, 1.6664044025584865E9, 0.0, 2022-10-21 19:06:42.558
205.0, -128698.14827420095, -157170.4038584714, -33319.20901765931, -139375.10721386757, 65947.79383513854, -93060.54926640383, 55996.39487223564, -111768.60174758456, 0.024, 0.9580000000000001, -0.014, 192.0, 0.0, 0.0, 0.0, 0.0, 0.0, 0.0, 0.0, 0.0, 0.0, 1.666404402558501E9, 0.0, 2022-10-21 19:06:42.558
206.0, -128693.78968403218, -157165.06179154656, -33333.491782366254, -139385.88075469504, 65938.67432340077, -93049.95453953202, 55998.89826761464, -111779.04001224518, 0.024, 0.9580000000000001, -0.014, 192.0, 0.0, 0.0, 0.0, 0.0, 0.0, 0.0, 0.0, 0.0, 0.0, 1.6664044025585153E9, 0.0, 2022-10-21 19:06:42.558
207.0, -128668.75573024224, -157144.9452215368, -33329.714337553305, -139391.75926348678, 65947.23504152716, -93060.4151559371, 55992.25979951141, -111772.35684065305, 0.024, 0.9580000000000001, -0.014, 192.0, 0.0, 0.0, 0.0, 0.0, 0.0, 0.0, 0.0, 0.0, 0.0, 1.66640440255853E9, 0.0, 2022-10-21 19:06:42.558
208.0, -128643.58766598556, -157120.04537821357, -33322.98646247226, -139381.45510929287, 65955.95222186473, -93072.39569096515, 55988.147078531634, -111765.69602080536, 0.024, 0.9580000000000001, -0.014, 192.0, 0.0, 0.0, 0.0, 0.0, 0.0, 0.0, 0.0, 0.0, 0.0, 1.6664044025585449E9, 0.0, 2022-10-21 19:06:42.558
209.0, -128631.20479955731, -157106.52257281812, -33325.378099128975, -139380.58339125913, 65953.82880614148, -93060.05752802582, 55999.03237808137, -111774.81553254313, 0.024, 0.9580000000000001, -0.014, 192.0, 0.0, 0.0, 0.0, 0.0, 0.0, 0.0, 0.0, 0.0, 0.0, 1.6664044025585592E9, 0.0, 2022-10-21 19:06:42.558
210.0, -128611.22234001427, -157085.5342847746, -33321.84652350504, -139369.0945946091, 65962.38952426786, -93049.73102208746, 56009.403587508634, -111764.71254404934, 0.024, 0.9580000000000001, -0.014, 192.0, 0.0, 0.0, 0.0, 0.0, 0.0, 0.0, 0.0, 0.0, 0.0, 1.6664044025586488E9, 0.0, 2022-10-21 19:06:42.558
211.0, -128599.66648813087, -157077.1300288594, -33335.235218433765, -139391.26752510876, 65953.96291660822, -93061.17511524858, 55992.93035184507, -111767.84178827307, 0.016, 0.962, -0.016, 192.0, 0.0, 128.0, 30.0, 16.0, 255.0, 128.0, 0.0, 0.0, 0.0, 1.666404402558664E9, 0.0, 2022-10-21 19:06:42.558
212.0, -128575.97363900825, -157057.81812165, -33324.260511906214, -139387.40067331798, 65962.83655915696, -93075.25671425542, 55981.374499961676, -111757.98466896829, 0.016, 0.962, -0.016, 192.0, 0.0, 0.0, 0.0, 0.0, 0.0, 0.0, 0.0, 0.0, 0.0, 1.66640440255868E9, 0.0, 2022-10-21 19:06:42.558
213.0, -128563.00962722416, -157044.47413021018, -33321.533599082664, -139368.53580099772, 65965.98815512516, -93047.20527496401, 56002.25102928293, -111763.3267358931, 0.016, 0.962, -0.016, 192.0, 0.0, 0.0, 0.0, 0.0, 0.0, 0.0, 0.0, 0.0, 0.0, 1.6664044025586948E9, 0.0, 2022-10-21 19:06:42.558
214.0, -128543.04951942558, -157021.54124039903, -33322.80764851662, -139371.642693477, 65959.14852132184, -93048.2111034645, 56001.93810486056, -111772.66976507542, 0.016, 0.962, -0.016, 192.0, 0.0, 0.0, 0.0, 0.0, 0.0, 0.0, 0.0, 0.0, 0.0, 1.6664044025587094E9, 0.0, 2022-10-21 19:06:42.558
215.0, -128530.01845240814, -157009.4042431598, -33319.097258937036, -139375.24132433432, 65965.22819581369, -93061.62215013769, 55991.857468111215, -111770.8369220301, 0.016, 0.962, -0.016, 192.0, 0.0, 0.0, 0.0, 0.0, 0.0, 0.0, 0.0, 0.0, 0.0, 1.666404402558724E9, 0.0, 2022-10-21 19:06:42.558
216.0, -128519.31196681404, -157000.82117328898, -33319.991328715245, -139376.56007725716, 65964.40118126884, -93080.26350501341, 55976.09948827023, -111777.40833489996, 0.016, 0.962, -0.016, 192.0, 0.0, 0.0, 0.0, 0.0, 0.0, 0.0, 0.0, 0.0, 0.0, 1.6664044025587385E9, 0.0, 2022-10-21 19:06:42.558
217.0, -128511.62296672142, -156994.8085540305, -33325.28869215115, -139372.06737662165, 65958.1650445658, -93074.36264447721, 55981.374499961676, -111789.880608306, 0.016, 0.962, -0.016, 192.0, 0.0, 0.0, 0.0, 0.0, 0.0, 0.0, 0.0, 0.0, 0.0, 1.6664044025587525E9, 0.0, 2022-10-21 19:06:42.558
218.0, -128498.65895493735, -156983.4538678472, -33316.90678798041, -139363.52901023973, 65963.26124230161, -93071.30045548684, 55993.80206987883, -111779.64350934548, 0.016, 0.962, -0.016, 192.0, 0.0, 0.0, 0.0, 0.0, 0.0, 0.0, 0.0, 0.0, 0.0, 1.6664044025587673E9, 0.0, 2022-10-21 19:06:42.558
219.0, -128491.10406531145, -156975.16137065427, -33315.49862807973, -139364.08780385111, 65970.03382087157, -93067.67947288508, 55994.20440127902, -111769.27229991822, 0.016, 0.962, -0.016, 192.0, 0.0, 0.0, 0.0, 0.0, 0.0, 0.0, 0.0, 0.0, 0.0, 1.6664044025587819E9, 0.0, 2022-10-21 19:06:42.558
220.0, -128486.03021932009, -156971.02629793005, -33328.30617765262, -139384.11496688306, 65959.30498353303, -93080.91170560262, 55975.83126733676, -111775.03904998768, 0.016, 0.962, -0.016, 192.0, 0.0, 0.0, 0.0, 0.0, 0.0, 0.0, 0.0, 0.0, 0.0, 1.666404402558796E9, 0.0, 2022-10-21 19:06:42.558
221.0, -128479.83878610597, -156966.555949039, -33332.97769224378, -139379.01876914725, 65953.69469567474, -93084.46563297101, 55973.752555102415, -111781.8339803021, 0.02, 0.96, -0.014, 192.0, 0.0, 160.0, 30.0, 0.0, 255.0, 144.0, 0.0, 0.0, 0.0, 1.6664044025588124E9, 0.0, 2022-10-21 19:06:42.558
222.0, -128472.39565520236, -156959.7610187246, -33321.600654316026, -139363.73017593983, 65963.08242834598, -93073.69209214355, 55991.18691577756, -111770.09931446306, 0.02, 0.96, -0.014, 192.0, 0.0, 0.0, 0.0, 0.0, 0.0, 0.0, 0.0, 0.0, 0.0, 1.6664044025588274E9, 0.0, 2022-10-21 19:06:42.558
223.0, -128476.64248664887, -156966.66770776125, -33328.2167706748, -139378.59408600262, 65958.45561724373, -93078.63182766817, 55987.90120934263, -111767.21593942834, 0.02, 0.96, -0.014, 192.0, 0.0, 0.0, 0.0, 0.0, 0.0, 0.0, 0.0, 0.0, 0.0, 1.6664044025588417E9, 0.0, 2022-10-21 19:06:42.558
224.0, -128480.73285588418, -156972.85914097537, -33337.60450334603, -139391.28987685323, 65950.25252702863, -93093.54044121987, 55970.13157250066, -111772.42389588642, 0.02, 0.96, -0.014, 192.0, 0.0, 0.0, 0.0, 0.0, 0.0, 0.0, 0.0, 0.0, 0.0, 1.6664044025588562E9, 0.0, 2022-10-21 19:06:42.558
225.0, -128476.21780350422, -156967.13709439483, -33335.592846345055, -139377.65531273547, 65951.68303867377, -93081.11287130271, 55977.44059293754, -111774.90493952096, 0.02, 0.96, -0.014, 192.0, 0.0, 0.0, 0.0, 0.0, 0.0, 0.0, 0.0, 0.0, 0.0, 1.6664044025588853E9, 0.0, 2022-10-21 19:06:42.558
226.0, -128466.69596036625, -156953.793102955, -33327.546218341144, -139367.06058586366, 65956.48866373165, -93064.32671121678, 55997.311293758314, -111775.17316045442, 0.02, 0.96, -0.014, 192.0, 0.0, 0.0, 0.0, 0.0, 0.0, 0.0, 0.0, 0.0, 0.0, 1.666404402558901E9, 0.0, 2022-10-21 19:06:42.558
227.0, -128459.074015507, -156946.90876566278, -33324.70754679532, -139377.74471971332, 65956.063980587, -93078.87769685719, 55989.64464541014, -111776.53661686619, 0.02, 0.96, -0.014, 192.0, 0.0, 0.0, 0.0, 0.0, 0.0, 0.0, 0.0, 0.0, 0.0, 1.6664044025589151E9, 0.0, 2022-10-21 19:06:42.558
228.0, -128463.94669579825, -156954.9553936667, -33331.63658757646, -139385.56783027266, 65956.84629164294, -93088.24307778396, 55979.11697377169, -111784.11385823654, 0.02, 0.96, -0.014, 192.0, 0.0, 0.0, 0.0, 0.0, 0.0, 0.0, 0.0, 0.0, 0.0, 1.6664044025589297E9, 0.0, 2022-10-21 19:06:42.558
229.0, -128464.41608243181, -156959.67161174674, -33336.151639956435, -139387.64654250702, 65953.58293695247, -93081.71636840301, 55978.513476671396, -111782.90686403596, 0.02, 0.96, -0.014, 192.0, 0.0, 0.0, 0.0, 0.0, 0.0, 0.0, 0.0, 0.0, 0.0, 1.6664044025589435E9, 0.0, 2022-10-21 19:06:42.558
230.0, -128459.7669195851, -156949.9486029087, -33330.38488988696, -139376.0459871347, 65956.71218117622, -93068.0147490519, 55992.03628206686, -111771.9321575084, 0.02, 0.96, -0.014, 192.0, 0.0, 0.0, 0.0, 0.0, 0.0, 0.0, 0.0, 0.0, 0.0, 1.6664044025589583E9, 0.0, 2022-10-21 19:06:42.558
231.0, -128462.82910857549, -156948.71925696364, -33332.39654688794, -139378.79525170272, 65954.09702707494, -93058.00116753593, 55998.60769493672, -111771.2839569192, 0.026000000000000002, 0.964, -0.02, 192.0, 0.0, 208.0, 30.0, 32.0, 255.0, 96.0, 0.0, 0.0, 0.0, 1.6664044025589728E9, 0.0, 2022-10-21 19:06:42.558
232.0, -128465.48896616566, -156952.8543296879, -33333.80470678863, -139386.08192039514, 65951.10189331793, -93089.04774058436, 55976.56887490379, -111769.65227957396, 0.026000000000000002, 0.964, -0.02, 192.0, 0.0, 0.0, 0.0, 0.0, 0.0, 0.0, 0.0, 0.0, 0.0, 1.666404402558988E9, 0.0, 2022-10-21 19:06:42.558
233.0, -128455.25186720514, -156945.03121912852, -33326.27216890719, -139373.67670222244, 65958.41091375482, -93098.5695837223, 55975.20541849201, -111765.65131731646, 0.026000000000000002, 0.964, -0.02, 192.0, 0.0, 0.0, 0.0, 0.0, 0.0, 0.0, 0.0, 0.0, 0.0, 1.6664044025590024E9, 0.0, 2022-10-21 19:06:42.559
234.0, -128449.99920725814, -156938.035123114, -33319.83486650406, -139357.96342587037, 65968.96093713772, -93088.17602255059, 55990.58341867726, -111762.76794228173, 0.026000000000000002, 0.964, -0.02, 192.0, 0.0, 0.0, 0.0, 0.0, 0.0, 0.0, 0.0, 0.0, 0.0, 1.6664044025590167E9, 0.0, 2022-10-21 19:06:42.559
235.0, -128449.66393109132, -156932.1789660667, -33316.05742169111, -139358.63397820402, 65974.9735563962, -93081.29168525836, 56001.714587416005, -111760.08573294709, 0.026000000000000002, 0.964, -0.02, 192.0, 0.0, 0.0, 0.0, 0.0, 0.0, 0.0, 0.0, 0.0, 0.0, 1.6664044025590315E9, 0.0, 2022-10-21 19:06:42.559
236.0, -128453.77665207109, -156934.0341608565, -33323.23233166127, -139374.5037167673, 65968.73741969316, -93092.73577841948, 55989.53288668786, -111773.16150345345, 0.026000000000000002, 0.964, -0.02, 192.0, 0.0, 0.0, 0.0, 0.0, 0.0, 0.0, 0.0, 0.0, 0.0, 1.6664044025590456E9, 0.0, 2022-10-21 19:06:42.559
237.0, -128456.19064047225, -156938.5492132365, -33327.769735785696, -139380.18105985894, 65968.40214352634, -93100.08950234528, 55983.49791568493, -111776.15663721046, 0.026000000000000002, 0.964, -0.02, 192.0, 0.0, 0.0, 0.0, 0.0, 0.0, 0.0, 0.0, 0.0, 0.0, 1.66640440255906E9, 0.0, 2022-10-21 19:06:42.559
238.0, -128456.30239919454, -156944.1371493503, -33338.252703935235, -139376.49302202382, 65962.85891090143, -93090.63471444068, 55988.50470644292, -111782.05749774666, 0.026000000000000002, 0.964, -0.02, 192.0, 0.0, 0.0, 0.0, 0.0, 0.0, 0.0, 0.0, 0.0, 0.0, 1.6664044025590742E9, 0.0, 2022-10-21 19:06:42.559
239.0, -128458.17994572879, -156946.9981726406, -33340.621988847495, -139374.12373711154, 65959.90848063333, -93074.40734796612, 56000.8652211267, -111784.82911405912, 0.026000000000000002, 0.964, -0.02, 192.0, 0.0, 0.0, 0.0, 0.0, 0.0, 0.0, 0.0, 0.0, 0.0, 1.6664044025590885E9, 0.0, 2022-10-21 19:06:42.559
240.0, -128469.3781697009, -156956.02827740053, -33350.56851513011, -139395.402597833, 65943.27878275857, -93096.89320288817, 55979.51930517189, -111792.74163159629, 0.028, 0.96, -0.022, 192.0, 0.0, 224.0, 30.0, 0.0, 255.0, 80.0, 0.0, 0.0, 0.0, 1.666404402559122E9, 0.0, 2022-10-21 19:06:42.559
241.0, -128461.93503879727, -156949.52391976403, -33344.28767493817, -139396.02844667775, 65943.07761705847, -93132.34306959428, 55962.1072962412, -111778.0341837447, 0.028, 0.96, -0.022, 192.0, 0.0, 0.0, 0.0, 0.0, 0.0, 0.0, 0.0, 0.0, 0.0, 1.6664044025591376E9, 0.0, 2022-10-21 19:06:42.559
242.0, -128455.74360558315, -156946.86406217387, -33341.13607896997, -139385.45607155038, 65946.60919268242, -93126.17398812462, 55973.86431382469, -111777.85536978906, 0.028, 0.96, -0.022, 192.0, 0.0, 0.0, 0.0, 0.0, 0.0, 0.0, 0.0, 0.0, 0.0, 1.6664044030368576E9, 0.0, 2022-10-21 19:06:43.036
243.0, -128465.73483535467, -156952.98844015462, -33346.433442405876, -139387.75830122927, 65937.04264605555, -93119.06613338782, 55978.06644178229, -111793.97097754134, 0.028, 0.96, -0.022, 192.0, 0.0, 0.0, 0.0, 0.0, 0.0, 0.0, 0.0, 0.0, 0.0, 1.666404403037058E9, 0.0, 2022-10-21 19:06:43.037
244.0, -128458.38111142888, -156944.6512394728, -33342.231314448276, -139382.43858604893, 65947.10093106043, -93123.06709564533, 55980.14515401664, -111789.79120132819, 0.028, 0.96, -0.022, 192.0, 0.0, 0.0, 0.0, 0.0, 0.0, 0.0, 0.0, 0.0, 0.0, 1.6664044030370784E9, 0.0, 2022-10-21 19:06:43.037
245.0, -128455.54243988305, -156942.0360853715, -33345.94170402786, -139387.69124599593, 65945.80452988202, -93137.8863022192, 55967.44936316602, -111788.40539317197, 0.028, 0.96, -0.022, 192.0, 0.0, 0.0, 0.0, 0.0, 0.0, 0.0, 0.0, 0.0, 0.0, 1.6664044030371006E9, 0.0, 2022-10-21 19:06:43.037
246.0, -128458.53757364006, -156944.51712900607, -33348.26628545121, -139382.93032442694, 65943.32348624748, -93131.80662772735, 55971.3609184457, -111788.91948329443, 0.028, 0.96, -0.022, 192.0, 0.0, 0.0, 0.0, 0.0, 0.0, 0.0, 0.0, 0.0, 0.0, 1.666404403037121E9, 0.0, 2022-10-21 19:06:43.037
247.0, -128454.42485266029, -156938.81743416996, -33349.003893018235, -139384.09261513862, 65939.30017224552, -93119.5802235103, 55981.28509298385, -111786.12551523752, 0.028, 0.96, -0.022, 192.0, 0.0, 0.0, 0.0, 0.0, 0.0, 0.0, 0.0, 0.0, 0.0, 1.6664044030371408E9, 0.0, 2022-10-21 19:06:43.037
248.0, -128454.44720440474, -156939.35387603688, -33349.562686629615, -139388.2500396073, 65942.45176821372, -93111.39948503966, 55987.07419479778, -111779.91173027894, 0.028, 0.96, -0.022, 192.0, 0.0, 0.0, 0.0, 0.0, 0.0, 0.0, 0.0, 0.0, 0.0, 1.6664044030371618E9, 0.0, 2022-10-21 19:06:43.037
249.0, -128450.6697595918, -156934.36943702336, -33343.19243945985, -139385.83605120613, 65949.06788457249, -93120.29547933287, 55979.69811912753, -111772.17802669741, 0.028, 0.96, -0.022, 192.0, 0.0, 0.0, 0.0, 0.0, 0.0, 0.0, 0.0, 0.0, 0.0, 1.6664044030371814E9, 0.0, 2022-10-21 19:06:43.037
250.0, -128458.8728498069, -156946.4393790292, -33353.72011109831, -139398.01775193427, 65938.27199200058, -93124.49760729047, 55975.38423244766, -111784.53854138119, 0.026000000000000002, 0.9560000000000001, -0.018000000000000002, 192.0, 0.0, 208.0, 29.0, 224.0, 255.0, 112.0, 0.0, 0.0, 0.0, 1.6664044030372012E9, 0.0, 2022-10-21 19:06:43.037
251.0, -128456.19064047225, -156943.06426561647, -33350.85908780803, -139392.899202454, 65938.5178611896, -93118.30617407635, 55985.12959303017, -111788.20422747187, 0.026000000000000002, 0.9560000000000001, -0.018000000000000002, 192.0, 0.0, 0.0, 0.0, 0.0, 0.0, 0.0, 0.0, 0.0, 0.0, 1.6664044030372229E9, 0.0, 2022-10-21 19:06:43.037
252.0, -128453.39667241534, -156941.32082954893, -33352.93780004237, -139389.81466171917, 65943.88227985887, -93119.40140955466, 55985.37546221918, -111788.31598619414, 0.026000000000000002, 0.9560000000000001, -0.018000000000000002, 192.0, 0.0, 0.0, 0.0, 0.0, 0.0, 0.0, 0.0, 0.0, 0.0, 1.6664044030372424E9, 0.0, 2022-10-21 19:06:43.037
253.0, -128467.59003014446, -156954.28484133302, -33368.584021161085, -139408.76894101728, 65932.95227682022, -93131.35959283824, 55967.471714910476, -111794.0827362636, 0.026000000000000002, 0.9560000000000001, -0.018000000000000002, 192.0, 0.0, 0.0, 0.0, 0.0, 0.0, 0.0, 0.0, 0.0, 0.0, 1.6664044030372615E9, 0.0, 2022-10-21 19:06:43.037
254.0, -128467.21005048872, -156953.86015818838, -33366.639419393476, -139406.2431938938, 65934.69571288774, -93159.41103212966, 55950.41733389108, -111793.45688741886, 0.026000000000000002, 0.9560000000000001, -0.018000000000000002, 192.0, 0.0, 0.0, 0.0, 0.0, 0.0, 0.0, 0.0, 0.0, 0.0, 1.666404403037281E9, 0.0, 2022-10-21 19:06:43.037
255.0, -128450.28977993605, -156934.3917887678, -33352.021378519705, -139374.57077200065, 65953.94056486375, -93136.05345917385, 55974.378403947165, -111782.05749774666, 0.026000000000000002, 0.9560000000000001, -0.018000000000000002, 192.0, 0.0, 0.0, 0.0, 0.0, 0.0, 0.0, 0.0, 0.0, 0.0, 1.6664044030373669E9, 0.0, 2022-10-21 19:06:43.037
0.0, -128457.8670213064, -156941.1867190822, -33361.252648979746, -139384.4502430499, 65947.10093106043, -93117.92619442061, 55979.631063894165, -111788.5842071276, 0.026000000000000002, 0.9560000000000001, -0.018000000000000002, 192.0, 0.0, 0.0, 0.0, 0.0, 0.0, 0.0, 0.0, 0.0, 0.0, 1.666404403037394E9, 0.0, 2022-10-21 19:06:43.037
1.0, -128460.43747191876, -156944.4947772616, -33362.146718757955, -139396.09550191113, 65944.93281184827, -93125.03404915739, 55965.39300267613, -111790.12647749503, 0.026000000000000002, 0.9560000000000001, -0.018000000000000002, 192.0, 0.0, 0.0, 0.0, 0.0, 0.0, 0.0, 0.0, 0.0, 0.0, 1.6664044030374138E9, 0.0, 2022-10-21 19:06:43.037
2.0, -128453.95546602673, -156939.3315242924, -33360.35857920153, -139387.53478378474, 65951.52657646258, -93146.02233720092, 55953.30070892581, -111785.92434953742, 0.026000000000000002, 0.9560000000000001, -0.018000000000000002, 192.0, 0.0, 0.0, 0.0, 0.0, 0.0, 0.0, 0.0, 0.0, 0.0, 1.666404403037434E9, 0.0, 2022-10-21 19:06:43.037
3.0, -128454.15663172683, -156940.15853883728, -33361.14089025747, -139374.7048824674, 65954.83463464197, -93114.50637751895, 55978.22290399348, -111775.06140173215, 0.026000000000000002, 0.9560000000000001, -0.018000000000000002, 192.0, 0.0, 0.0, 0.0, 0.0, 0.0, 0.0, 0.0, 0.0, 0.0, 1.6664044030374546E9, 0.0, 2022-10-21 19:06:43.037
4.0, -128463.09732950895, -156948.294573819, -33369.36633221702, -139383.51146978277, 65943.03291356956, -93099.48600524498, 55985.33075873027, -111782.07984949111, 0.028, 0.9580000000000001, -0.016, 192.0, 0.0, 224.0, 29.0, 240.0, 255.0, 128.0, 0.0, 0.0, 0.0, 1.66640440303749E9, 0.0, 2022-10-21 19:06:43.037
5.0, -128463.05262602004, -156948.07105637444, -33369.142814772465, -139395.08967341064, 65941.11066354641, -93112.96410715152, 55974.60192139172, -111784.56089312564, 0.028, 0.9580000000000001, -0.016, 192.0, 0.0, 0.0, 0.0, 0.0, 0.0, 0.0, 0.0, 0.0, 0.0, 1.6664044030375354E9, 0.0, 2022-10-21 19:06:43.037
6.0, -128464.88546906537, -156950.70856222018, -33371.02036130671, -139394.1509001435, 65944.35166649242, -93129.77261898192, 55964.92361604257, -111782.54923612467, 0.028, 0.9580000000000001, -0.016, 192.0, 0.0, 0.0, 0.0, 0.0, 0.0, 0.0, 0.0, 0.0, 0.0, 1.666404403037578E9, 0.0, 2022-10-21 19:06:43.037
7.0, -128465.77953884359, -156951.3567628094, -33374.529585186196, -139391.08871115313, 65944.53048044807, -93128.02918291441, 55968.90222655562, -111777.43068664441, 0.028, 0.9580000000000001, -0.016, 192.0, 0.0, 0.0, 0.0, 0.0, 0.0, 0.0, 0.0, 0.0, 0.0, 1.6664044030376396E9, 0.0, 2022-10-21 19:06:43.037
8.0, -128467.7241406112, -156951.73674246512, -33380.2292800223, -139393.32388559866, 65941.02125656858, -93118.0826566318, 55973.88666556915, -111788.69596584988, 0.028, 0.9580000000000001, -0.016, 192.0, 0.0, 0.0, 0.0, 0.0, 0.0, 0.0, 0.0, 0.0, 0.0, 1.6664044030376823E9, 0.0, 2022-10-21 19:06:43.037
9.0, -128467.29945746655, -156949.21099534168, -33380.6316114225, -139396.36372284457, 65942.5188234471, -93133.46065681704, 55965.236540464946, -111793.8368670746, 0.028, 0.9580000000000001, -0.016, 192.0, 0.0, 0.0, 0.0, 0.0, 0.0, 0.0, 0.0, 0.0, 0.0, 1.6664044030377235E9, 0.0, 2022-10-21 19:06:43.037
10.0, -128463.9243440538, -156944.5394807505, -33378.59760267706, -139395.35789434408, 65950.11841656189, -93146.22350290102, 55960.27445319587, -111790.75232633977, 0.028, 0.9580000000000001, -0.016, 192.0, 0.0, 0.0, 0.0, 0.0, 0.0, 0.0, 0.0, 0.0, 0.0, 1.6664044030377648E9, 0.0, 2022-10-21 19:06:43.037
11.0, -128459.74456784065, -156943.287783061, -33376.38477997599, -139393.56975478766, 65950.52074796209, -93151.47616284802, 55963.64956660862, -111788.20422747187, 0.028, 0.9580000000000001, -0.016, 192.0, 0.0, 0.0, 0.0, 0.0, 0.0, 0.0, 0.0, 0.0, 0.0, 1.6664044030378067E9, 0.0, 2022-10-21 19:06:43.037
12.0, -128465.04193127656, -156950.46269303118, -33383.71615215733, -139390.75343498628, 65948.48673921666, -93138.55685455285, 55977.77586910437, -111783.66682334743, 0.028, 0.9580000000000001, -0.016, 192.0, 0.0, 0.0, 0.0, 0.0, 0.0, 0.0, 0.0, 0.0, 0.0, 1.6664044030378492E9, 0.0, 2022-10-21 19:06:43.037
13.0, -128473.06620753602, -156955.46948378914, -33391.092227827576, -139400.20822289088, 65944.84340487044, -93129.97378468202, 55978.513476671396, -111784.73970708129, 0.032, 0.96, -0.014, 192.0, 1.0, 0.0, 30.0, 0.0, 255.0, 144.0, 0.0, 0.0, 0.0, 1.6664044030378904E9, 0.0, 2022-10-21 19:06:43.037
14.0, -128460.1692509853, -156942.7513411941, -33376.340076487075, -139394.91085945498, 65959.2155765552, -93147.56460756835, 55970.17627598957, -111770.18872144089, 0.032, 0.96, -0.014, 192.0, 0.0, 0.0, 0.0, 0.0, 0.0, 0.0, 0.0, 0.0, 0.0, 1.666404403037979E9, 0.0, 2022-10-21 19:06:43.037
15.0, -128459.67751260729, -156943.9359836502, -33377.0776840541, -139390.59697277512, 65959.75201842214, -93147.5869593128, 55972.769078346384, -111772.7368203088, 0.032, 0.96, -0.014, 192.0, 0.0, 0.0, 0.0, 0.0, 0.0, 0.0, 0.0, 0.0, 0.0, 1.6664044030380096E9, 0.0, 2022-10-21 19:06:43.038
