%OpenBCI Raw EEG Data
%Number of channels = 8
%Sample Rate = 250 Hz
%Board = OpenBCI_GUI$BoardCytonSerial
Sample Index, EXG Channel 0, EXG Channel 1, EXG Channel 2, EXG Channel 3, EXG Channel 4, EXG Channel 5, EXG Channel 6, EXG Channel 7, Accel Channel 0, Accel Channel 1, Accel Channel 2, Other, Other, Other, Other, Other, Other, Other, Analog Channel 0, Analog Channel 1, Analog Channel 2, Timestamp, Other, Timestamp (Formatted)
238.0, -129969.89547847456, -157135.1775092098, -33366.39355020446, -140260.97390186475, 67818.79130825894, -104666.82668528876, 56228.89771805975, -111071.27202406789, 0.0, 0.0, 0.0, 192.0, 0.0, 0.0, 0.0, 0.0, 0.0, 0.0, 0.0, 0.0, 0.0, 1.6664044818929374E9, 0.0, 2022-10-21 19:08:01.892
239.0, -129966.78858599528, -157128.40493063987, -33360.336227457075, -140265.17602982235, 67822.79227051644, -104688.01613903239, 56217.61008710982, -111063.15834083062, 0.0, 0.0, 0.0, 192.0, 0.0, 0.0, 0.0, 0.0, 0.0, 0.0, 0.0, 0.0, 0.0, 1.6664044818929667E9, 0.0, 2022-10-21 19:08:01.892
240.0, -129959.12193764711, -157119.06190145755, -33351.373177930494, -140254.5142477172, 67829.38603513075, -104696.48745018095, 56211.64217134025, -111054.75408491542, 0.0, 0.0, 0.0, 192.0, 0.0, 0.0, 0.0, 0.0, 0.0, 0.0, 0.0, 0.0, 0.0, 1.6664044818929877E9, 0.0, 2022-10-21 19:08:01.892
241.0, -129953.69046374447, -157112.11050893195, -33342.432480148374, -140232.4977794287, 67838.50554686852, -104690.9665693005, 56218.995895266045, -111048.67441042357, 0.018000000000000002, 0.9560000000000001, -0.032, 192.0, 0.0, 144.0, 29.0, 224.0, 255.0, 0.0, 0.0, 0.0, 0.0, 1.6664044818930097E9, 0.0, 2022-10-21 19:08:01.893
242.0, -129965.64864702805, -157123.97928523773, -33352.73663434227, -140240.36559347698, 67833.96814274408, -104685.1104122532, 56222.10278774534, -111058.53152972837, 0.018000000000000002, 0.9560000000000001, -0.032, 192.0, 0.0, 0.0, 0.0, 0.0, 0.0, 0.0, 0.0, 0.0, 0.0, 1.6664044818930275E9, 0.0, 2022-10-21 19:08:01.893
243.0, -129975.66222854404, -157134.3281429205, -33362.7278641138, -140261.68915768733, 67822.50169783851, -104684.48456340845, 56213.542069618954, -111066.13112284317, 0.018000000000000002, 0.9560000000000001, -0.032, 192.0, 0.0, 0.0, 0.0, 0.0, 0.0, 0.0, 0.0, 0.0, 0.0, 1.6664044818930426E9, 0.0, 2022-10-21 19:08:01.893
244.0, -129976.7798157668, -157133.9928667537, -33360.403282690444, -140263.07496584355, 67823.93220948365, -104692.24061873445, 56203.59554333634, -111061.95134663003, 0.018000000000000002, 0.9560000000000001, -0.032, 192.0, 0.0, 0.0, 0.0, 0.0, 0.0, 0.0, 0.0, 0.0, 0.0, 1.666404481893058E9, 0.0, 2022-10-21 19:08:01.893
245.0, -129982.45715885845, -157138.2844016891, -33365.36536995952, -140259.47633498625, 67820.1100611818, -104700.08608103826, 56199.19224967864, -111066.28758505435, 0.018000000000000002, 0.9560000000000001, -0.032, 192.0, 0.0, 0.0, 0.0, 0.0, 0.0, 0.0, 0.0, 0.0, 0.0, 1.666404481893073E9, 0.0, 2022-10-21 19:08:01.893
246.0, -129985.47464435991, -157141.7936255686, -33371.22152700681, -140261.82326815405, 67814.94680821263, -104690.3630722002, 56209.004665494525, -111070.44500952304, 0.018000000000000002, 0.9560000000000001, -0.032, 192.0, 0.0, 0.0, 0.0, 0.0, 0.0, 0.0, 0.0, 0.0, 0.0, 1.666404481893088E9, 0.0, 2022-10-21 19:08:01.893
247.0, -129978.6350105566, -157137.01035225517, -33366.281791482186, -140263.34318677703, 67824.7145205396, -104693.5593716573, 56208.289409671954, -111063.82889316427, 0.018000000000000002, 0.9560000000000001, -0.032, 192.0, 0.0, 0.0, 0.0, 0.0, 0.0, 0.0, 0.0, 0.0, 0.0, 1.6664044818931034E9, 0.0, 2022-10-21 19:08:01.893
248.0, -129977.11509193362, -157138.083235989, -33365.141852514964, -140260.52686697565, 67830.70478805361, -104692.64295013464, 56203.43908112515, -111068.4110007776, 0.018000000000000002, 0.9560000000000001, -0.032, 192.0, 0.0, 0.0, 0.0, 0.0, 0.0, 0.0, 0.0, 0.0, 0.0, 1.6664044818931184E9, 0.0, 2022-10-21 19:08:01.893
249.0, -129975.9751529664, -157137.591497611, -33364.98539030378, -140253.7542884057, 67830.10129095332, -104691.34654895622, 56203.193211936145, -111072.38961129065, 0.018000000000000002, 0.9560000000000001, -0.032, 192.0, 0.0, 0.0, 0.0, 0.0, 0.0, 0.0, 0.0, 0.0, 0.0, 1.6664044818931334E9, 0.0, 2022-10-21 19:08:01.893
250.0, -129978.00916171185, -157139.87137554545, -33365.25361123724, -140248.03224182513, 67831.95648574311, -104683.14345874113, 56212.24566844055, -111071.69670721254, 0.018000000000000002, 0.9560000000000001, -0.032, 192.0, 0.0, 0.0, 0.0, 0.0, 0.0, 0.0, 0.0, 0.0, 0.0, 1.666404481893149E9, 0.0, 2022-10-21 19:08:01.893
251.0, -129983.59709782567, -157144.96757328126, -33372.428521207396, -140259.78925940863, 67825.89916299572, -104693.49231642394, 56202.54501134694, -111076.83760843726, 0.02, 0.96, -0.03, 192.0, 0.0, 160.0, 30.0, 0.0, 255.0, 16.0, 0.0, 0.0, 0.0, 1.666404481893164E9, 0.0, 2022-10-21 19:08:01.893
252.0, -129979.17145242351, -157138.82084355605, -33368.91929732791, -140265.98069262275, 67828.29079965244, -104702.81299386181, 56193.760775776005, -111078.60339624924, 0.02, 0.96, -0.03, 192.0, 0.0, 0.0, 0.0, 0.0, 0.0, 0.0, 0.0, 0.0, 0.0, 1.6664044818931804E9, 0.0, 2022-10-21 19:08:01.893
253.0, -129974.25406864335, -157133.1882039533, -33362.437291435876, -140256.07886982904, 67834.28106716646, -104694.40873794661, 56202.03092122447, -111072.70253571303, 0.02, 0.96, -0.03, 192.0, 0.0, 0.0, 0.0, 0.0, 0.0, 0.0, 0.0, 0.0, 0.0, 1.666404481893335E9, 0.0, 2022-10-21 19:08:01.893
254.0, -129974.65640004355, -157134.842233043, -33358.34692220055, -140241.2596632552, 67837.11973871228, -104682.29409245183, 56215.95605802013, -111069.75210544493, 0.02, 0.96, -0.03, 192.0, 0.0, 0.0, 0.0, 0.0, 0.0, 0.0, 0.0, 0.0, 0.0, 1.6664044818933556E9, 0.0, 2022-10-21 19:08:01.893
255.0, -129976.71276053344, -157137.25622144417, -33356.82700357759, -140244.2547970122, 67838.93023001317, -104681.66824360708, 56217.677142343186, -111072.03198337938, 0.02, 0.96, -0.03, 192.0, 0.0, 0.0, 0.0, 0.0, 0.0, 0.0, 0.0, 0.0, 0.0, 1.6664044818933709E9, 0.0, 2022-10-21 19:08:01.893
0.0, -129989.49795836187, -157149.46027391677, -33367.1758612604, -140269.22169556876, 67827.39672987422, -104699.30376998232, 56198.94638048964, -111082.17967536207, 0.02, 0.96, -0.03, 192.0, 0.0, 0.0, 0.0, 0.0, 0.0, 0.0, 0.0, 0.0, 0.0, 1.666404481893386E9, 0.0, 2022-10-21 19:08:01.893
1.0, -129984.46881585942, -157144.67700060332, -33362.05731178013, -140271.56862873657, 67827.53084034096, -104706.83630786376, 56195.6159705658, -111076.18940784805, 0.02, 0.96, -0.03, 192.0, 0.0, 0.0, 0.0, 0.0, 0.0, 0.0, 0.0, 0.0, 0.0, 1.6664044818934019E9, 0.0, 2022-10-21 19:08:01.893
2.0, -129981.74190303587, -157142.95591628028, -33358.391625689466, -140260.9068466314, 67829.63190431976, -104700.17548801607, 56204.802537536925, -111067.40517227713, 0.02, 0.96, -0.03, 192.0, 0.0, 0.0, 0.0, 0.0, 0.0, 0.0, 0.0, 0.0, 0.0, 1.6664044818934171E9, 0.0, 2022-10-21 19:08:01.893
3.0, -129985.87697576011, -157145.41460817037, -33358.68219836738, -140262.09148908753, 67832.67174156567, -104689.17842974406, 56217.14070047626, -111067.87455891068, 0.02, 0.96, -0.03, 192.0, 0.0, 0.0, 0.0, 0.0, 0.0, 0.0, 0.0, 0.0, 0.0, 1.6664044818934321E9, 0.0, 2022-10-21 19:08:01.893
4.0, -129979.77494952381, -157139.42434065632, -33351.037901763666, -140264.03609085514, 67840.47250038058, -104691.92769431206, 56217.07364524289, -111057.97273611698, 0.02, 0.96, -0.03, 192.0, 0.0, 0.0, 0.0, 0.0, 0.0, 0.0, 0.0, 0.0, 0.0, 1.6664044818934512E9, 0.0, 2022-10-21 19:08:01.893
5.0, -129976.06455994422, -157135.19986095428, -33348.33334068458, -140265.01956761116, 67836.73975905654, -104711.17254628809, 56204.28844741445, -111057.05631459432, 0.02, 0.962, -0.03, 192.0, 0.0, 160.0, 30.0, 16.0, 255.0, 16.0, 0.0, 0.0, 0.0, 1.6664044818934665E9, 0.0, 2022-10-21 19:08:01.893
6.0, -129969.67196103, -157128.20376493977, -33341.78427955917, -140253.7542884057, 67842.12652947028, -104700.73428162746, 56213.475014385585, -111056.13989307165, 0.02, 0.962, -0.03, 192.0, 0.0, 0.0, 0.0, 0.0, 0.0, 0.0, 0.0, 0.0, 0.0, 1.6664044818934824E9, 0.0, 2022-10-21 19:08:01.893
7.0, -129974.96932446591, -157132.29413417508, -33347.01458776171, -140253.93310236133, 67838.72906431307, -104674.8062580593, 56227.6236686258, -111063.60537571972, 0.02, 0.962, -0.03, 192.0, 0.0, 0.0, 0.0, 0.0, 0.0, 0.0, 0.0, 0.0, 0.0, 1.6664044818934975E9, 0.0, 2022-10-21 19:08:01.893
8.0, -129983.23946991438, -157141.05601800157, -33355.68706461037, -140267.1653350789, 67828.02257871897, -104686.42916517606, 56211.15043296223, -111075.58591074776, 0.02, 0.962, -0.03, 192.0, 0.0, 0.0, 0.0, 0.0, 0.0, 0.0, 0.0, 0.0, 0.0, 1.6664044818935125E9, 0.0, 2022-10-21 19:08:01.893
9.0, -129976.19867041096, -157134.9763435097, -33352.31195119762, -140268.4170327684, 67830.54832584242, -104708.9150200981, 56195.25834265451, -111071.00380313443, 0.02, 0.962, -0.03, 192.0, 0.0, 0.0, 0.0, 0.0, 0.0, 0.0, 0.0, 0.0, 0.0, 1.6664044818935273E9, 0.0, 2022-10-21 19:08:01.893
10.0, -129978.72441753441, -157137.591497611, -33355.03886402117, -140263.87962864395, 67829.90012525322, -104716.33579925726, 56192.75494727552, -111071.80846593481, 0.02, 0.962, -0.03, 192.0, 0.0, 0.0, 0.0, 0.0, 0.0, 0.0, 0.0, 0.0, 0.0, 1.6664044818935423E9, 0.0, 2022-10-21 19:08:01.893
11.0, -129968.08498717369, -157125.76742479415, -33342.007797003724, -140247.22757902474, 67841.94771551463, -104695.28045598036, 56213.58677310786, -111060.31966928479, 0.02, 0.962, -0.03, 192.0, 0.0, 0.0, 0.0, 0.0, 0.0, 0.0, 0.0, 0.0, 0.0, 1.6664044818935568E9, 0.0, 2022-10-21 19:08:01.893
12.0, -129965.69335051697, -157123.5322503486, -33340.51023012522, -140246.82524762457, 67848.1167969843, -104710.39023523215, 56204.735482303564, -111055.91637562709, 0.02, 0.962, -0.03, 192.0, 0.0, 0.0, 0.0, 0.0, 0.0, 0.0, 0.0, 0.0, 0.0, 1.666404481893572E9, 0.0, 2022-10-21 19:08:01.893
13.0, -129982.680676303, -157142.01714301316, -33359.620971634504, -140275.79310843864, 67829.1625176862, -104731.44557850905, 56178.13690640175, -111075.09417236975, 0.02, 0.962, -0.03, 192.0, 0.0, 0.0, 0.0, 0.0, 0.0, 0.0, 0.0, 0.0, 0.0, 1.6664044818936496E9, 0.0, 2022-10-21 19:08:01.893
14.0, -129983.01595246982, -157144.11820699196, -33359.911544312425, -140271.47922175875, 67829.20722117511, -104724.22596504999, 56183.83660123785, -111076.8152566928, 0.018000000000000002, 0.966, -0.028, 192.0, 0.0, 144.0, 30.0, 48.0, 255.0, 32.0, 0.0, 0.0, 0.0, 1.6664044818936656E9, 0.0, 2022-10-21 19:08:01.893
15.0, -129981.67484780251, -157140.51957613465, -33356.80465183314, -140264.1031460885, 67830.90595375371, -104711.03843582135, 56198.56640083389, -111076.54703575934, 0.018000000000000002, 0.966, -0.028, 192.0, 0.0, 0.0, 0.0, 0.0, 0.0, 0.0, 0.0, 0.0, 0.0, 1.666404481893682E9, 0.0, 2022-10-21 19:08:01.893
16.0, -129984.75938853735, -157141.12307323492, -33359.88919256797, -140275.0107973827, 67831.15182294272, -104712.13367129967, 56196.93472348866, -111077.35169855974, 0.018000000000000002, 0.966, -0.028, 192.0, 0.0, 0.0, 0.0, 0.0, 0.0, 0.0, 0.0, 0.0, 0.0, 1.6664044818936968E9, 0.0, 2022-10-21 19:08:01.893
17.0, -129989.16268219503, -157146.57689888202, -33359.39745418995, -140279.61525674048, 67834.05754972191, -104722.08019758227, 56190.00568270752, -111074.69184096955, 0.018000000000000002, 0.966, -0.028, 192.0, 0.0, 0.0, 0.0, 0.0, 0.0, 0.0, 0.0, 0.0, 0.0, 1.666404481893712E9, 0.0, 2022-10-21 19:08:01.893
18.0, -129981.5854408247, -157139.0890644895, -33351.663750608415, -140267.34414903453, 67840.36074165831, -104736.11709310021, 56188.57517106237, -111057.36923901668, 0.018000000000000002, 0.966, -0.028, 192.0, 0.0, 0.0, 0.0, 0.0, 0.0, 0.0, 0.0, 0.0, 0.0, 1.6664044818937273E9, 0.0, 2022-10-21 19:08:01.893
19.0, -129984.69233330397, -157139.06671274506, -33354.949457043345, -140258.73872741923, 67841.88066028127, -104710.65845616562, 56208.244706183046, -111058.91150938411, 0.018000000000000002, 0.966, -0.028, 192.0, 0.0, 0.0, 0.0, 0.0, 0.0, 0.0, 0.0, 0.0, 0.0, 1.6664044818937433E9, 0.0, 2022-10-21 19:08:01.893
20.0, -129988.29096416128, -157141.8383290575, -33358.592791389565, -140272.4626985148, 67835.37630264477, -104710.79256663234, 56206.45656662662, -111065.84055016525, 0.018000000000000002, 0.966, -0.028, 192.0, 0.0, 0.0, 0.0, 0.0, 0.0, 0.0, 0.0, 0.0, 0.0, 1.666404481893759E9, 0.0, 2022-10-21 19:08:01.893
21.0, -129987.37454263862, -157139.80432031208, -33358.70455011184, -140275.34607354953, 67837.27620092347, -104731.69144769806, 56192.643188553244, -111066.44404726554, 0.018000000000000002, 0.966, -0.028, 192.0, 0.0, 0.0, 0.0, 0.0, 0.0, 0.0, 0.0, 0.0, 0.0, 1.666404481893774E9, 0.0, 2022-10-21 19:08:01.893
22.0, -129985.72051354892, -157135.80335805457, -33356.89405881096, -140259.8116111531, 67846.41806440569, -104713.83240387827, 56203.17086019169, -111061.61607046319, 0.018000000000000002, 0.966, -0.028, 192.0, 0.0, 0.0, 0.0, 0.0, 0.0, 0.0, 0.0, 0.0, 0.0, 1.6664044818937893E9, 0.0, 2022-10-21 19:08:01.893
23.0, -129995.22000494243, -157145.07933200352, -33368.56166941663, -140257.24116054073, 67838.72906431307, -104704.66818865159, 56206.277752670976, -111072.6131287352, 0.018000000000000002, 0.966, -0.028, 192.0, 0.0, 0.0, 0.0, 0.0, 0.0, 0.0, 0.0, 0.0, 0.0, 1.6664044818938272E9, 0.0, 2022-10-21 19:08:01.893
24.0, -129992.91777526353, -157140.31841043456, -33366.03592229318, -140262.65028269892, 67836.98562824556, -104699.46023219351, 56213.542069618954, -111069.39447753364, 0.022, 0.964, -0.022, 192.0, 0.0, 176.0, 30.0, 32.0, 255.0, 80.0, 0.0, 0.0, 0.0, 1.6664044818938684E9, 0.0, 2022-10-21 19:08:01.893
25.0, -129988.44742637247, -157135.60219235448, -33361.11853851301, -140265.53365773364, 67841.45597713662, -104716.80518589083, 56199.37106363429, -111065.75114318743, 0.022, 0.964, -0.022, 192.0, 0.0, 0.0, 0.0, 0.0, 0.0, 0.0, 0.0, 0.0, 0.0, 1.666404481893919E9, 0.0, 2022-10-21 19:08:01.893
26.0, -129991.08493221819, -157137.77031156665, -33364.35954145903, -140268.6629019574, 67837.07503522337, -104730.64091570866, 56189.82686875187, -111069.30507055583, 0.022, 0.964, -0.022, 192.0, 0.0, 0.0, 0.0, 0.0, 0.0, 0.0, 0.0, 0.0, 0.0, 1.6664044818939595E9, 0.0, 2022-10-21 19:08:01.893
27.0, -129998.55041486627, -157144.72170409223, -33370.50627118424, -140270.85337291402, 67830.52597409797, -104716.89459286864, 56205.47308987059, -111070.2661955674, 0.022, 0.964, -0.022, 192.0, 0.0, 0.0, 0.0, 0.0, 0.0, 0.0, 0.0, 0.0, 0.0, 1.6664044818940008E9, 0.0, 2022-10-21 19:08:01.894
28.0, -130000.29385093378, -157146.57689888202, -33372.31676248512, -140269.69108220233, 67829.78836653095, -104705.31638924079, 56218.012418510014, -111069.08155311127, 0.022, 0.964, -0.022, 192.0, 0.0, 0.0, 0.0, 0.0, 0.0, 0.0, 0.0, 0.0, 0.0, 1.6664044818940723E9, 0.0, 2022-10-21 19:08:01.894
29.0, -129994.54945260877, -157141.8383290575, -33370.03688455068, -140273.73674794874, 67836.56094510091, -104712.08896781075, 56214.05615974143, -111062.9124716416, 0.022, 0.964, -0.022, 192.0, 0.0, 0.0, 0.0, 0.0, 0.0, 0.0, 0.0, 0.0, 0.0, 1.6664044818940876E9, 0.0, 2022-10-21 19:08:01.894
30.0, -129990.52613860682, -157138.06088424457, -33367.84641359406, -140273.06619561507, 67834.10225321082, -104732.33964828726, 56201.29331365744, -111061.59371871874, 0.022, 0.964, -0.022, 192.0, 0.0, 0.0, 0.0, 0.0, 0.0, 0.0, 0.0, 0.0, 0.0, 1.6664044818941026E9, 0.0, 2022-10-21 19:08:01.894
31.0, -129993.36481015263, -157142.57593662452, -33370.79684386216, -140262.04678559862, 67832.29176190993, -104724.2706685389, 56207.90943001622, -111064.85707340922, 0.022, 0.964, -0.022, 192.0, 0.0, 0.0, 0.0, 0.0, 0.0, 0.0, 0.0, 0.0, 0.0, 1.6664044818941176E9, 0.0, 2022-10-21 19:08:01.894
32.0, -129997.94691776598, -157148.20857622728, -33378.17291953241, -140268.95347463532, 67822.6134565608, -104719.71091267001, 56211.575116106884, -111068.52275949989, 0.022, 0.964, -0.022, 192.0, 0.0, 0.0, 0.0, 0.0, 0.0, 0.0, 0.0, 0.0, 0.0, 1.6664044818941329E9, 0.0, 2022-10-21 19:08:01.894
33.0, -129988.5815368392, -157138.10558773347, -33372.54027992967, -140267.79118392363, 67828.42491011917, -104723.8683371387, 56207.238877682554, -111061.95134663003, 0.022, 0.964, -0.022, 192.0, 0.0, 0.0, 0.0, 0.0, 0.0, 0.0, 0.0, 0.0, 0.0, 1.666404481894148E9, 0.0, 2022-10-21 19:08:01.894
34.0, -129984.15589143705, -157133.29996267558, -33364.60541064804, -140256.7494221627, 67831.53180259846, -104724.9188691281, 56200.84627876834, -111062.46543675249, 0.016, 0.9580000000000001, -0.03, 192.0, 0.0, 128.0, 29.0, 240.0, 255.0, 16.0, 0.0, 0.0, 0.0, 1.666404481894163E9, 0.0, 2022-10-21 19:08:01.894
35.0, -129990.97317349592, -157139.6925615898, -33372.51792818522, -140266.22656181175, 67819.1042326813, -104733.70310469903, 56192.643188553244, -111067.15930308812, 0.016, 0.9580000000000001, -0.03, 192.0, 0.0, 0.0, 0.0, 0.0, 0.0, 0.0, 0.0, 0.0, 0.0, 1.666404481894179E9, 0.0, 2022-10-21 19:08:01.894
36.0, -129989.16268219503, -157136.5856691105, -33372.786149118685, -140267.8135356681, 67817.62901754725, -104727.55637497382, 56201.47212761309, -111070.1097333562, 0.016, 0.9580000000000001, -0.03, 192.0, 0.0, 0.0, 0.0, 0.0, 0.0, 0.0, 0.0, 0.0, 0.0, 1.6664044818941944E9, 0.0, 2022-10-21 19:08:01.894
37.0, -129992.18016769651, -157142.57593662452, -33376.071855553615, -140268.95347463532, 67821.27235189347, -104723.77893016087, 56201.807403779916, -111078.4692857825, 0.016, 0.9580000000000001, -0.03, 192.0, 0.0, 0.0, 0.0, 0.0, 0.0, 0.0, 0.0, 0.0, 0.0, 1.6664044818942094E9, 0.0, 2022-10-21 19:08:01.894
38.0, -129992.96247875244, -157143.5370616361, -33374.17195727491, -140271.25570431422, 67821.4064623602, -104719.28622952536, 56198.856973511814, -111075.60826249221, 0.016, 0.9580000000000001, -0.03, 192.0, 0.0, 0.0, 0.0, 0.0, 0.0, 0.0, 0.0, 0.0, 0.0, 1.6664044818942244E9, 0.0, 2022-10-21 19:08:01.894
39.0, -129990.97317349592, -157140.45252090128, -33368.382855460986, -140260.4151082534, 67825.74270078454, -104708.04330206434, 56209.518755617, -111065.34881178723, 0.016, 0.9580000000000001, -0.03, 192.0, 0.0, 0.0, 0.0, 0.0, 0.0, 0.0, 0.0, 0.0, 0.0, 1.6664044818942392E9, 0.0, 2022-10-21 19:08:01.894
40.0, -129990.83906302918, -157139.1784714673, -33365.432425192885, -140250.3121197596, 67829.78836653095, -104699.16965951558, 56222.88509880127, -111061.92899488557, 0.016, 0.9580000000000001, -0.03, 192.0, 0.0, 0.0, 0.0, 0.0, 0.0, 0.0, 0.0, 0.0, 0.0, 1.6664044818942554E9, 0.0, 2022-10-21 19:08:01.894
41.0, -129992.35898165214, -157139.55845112307, -33367.91346882743, -140263.6561111994, 67824.93803798415, -104707.37274973068, 56216.71601733161, -111069.37212578919, 0.016, 0.9580000000000001, -0.03, 192.0, 0.0, 0.0, 0.0, 0.0, 0.0, 0.0, 0.0, 0.0, 0.0, 1.6664044818942707E9, 0.0, 2022-10-21 19:08:01.894
42.0, -129992.49309211888, -157137.16681446636, -33367.06410253813, -140271.54627699213, 67823.6639885502, -104733.01020062092, 56194.051348453926, -111072.7695909464, 0.016, 0.9580000000000001, -0.03, 192.0, 0.0, 0.0, 0.0, 0.0, 0.0, 0.0, 0.0, 0.0, 0.0, 1.6664044818942857E9, 0.0, 2022-10-21 19:08:01.894
43.0, -129996.56110960974, -157140.89955579038, -33360.55974490163, -140259.74455591972, 67825.6085903178, -104740.60979373573, 56190.78799376345, -111070.78028568988, 0.008, 0.962, -0.032, 192.0, 0.0, 64.0, 30.0, 16.0, 255.0, 0.0, 0.0, 0.0, 0.0, 1.6664044818943856E9, 0.0, 2022-10-21 19:08:01.894
44.0, -130002.21610095694, -157148.81207332757, -33358.34692220055, -140255.27420702865, 67822.6581600497, -104714.25708702292, 56211.68687482916, -111070.6685269676, 0.008, 0.962, -0.032, 192.0, 0.0, 0.0, 0.0, 0.0, 0.0, 0.0, 0.0, 0.0, 0.0, 1.6664044818944333E9, 0.0, 2022-10-21 19:08:01.894
45.0, -130012.52025515084, -157158.33391646552, -33365.61123914853, -140267.27709380115, 67813.53864831194, -104707.77508113088, 56214.43613939716, -111077.08347762626, 0.008, 0.962, -0.032, 192.0, 0.0, 0.0, 0.0, 0.0, 0.0, 0.0, 0.0, 0.0, 0.0, 1.6664044818944747E9, 0.0, 2022-10-21 19:08:01.894
46.0, -130016.83414183071, -157161.3961054559, -33364.2254309923, -140274.65316947142, 67814.99151170153, -104722.97426736049, 56204.377854392274, -111066.57815773228, 0.008, 0.962, -0.032, 192.0, 0.0, 0.0, 0.0, 0.0, 0.0, 0.0, 0.0, 0.0, 0.0, 1.6664044818945224E9, 0.0, 2022-10-21 19:08:01.894
47.0, -130012.85553131766, -157156.1881489978, -33355.64236112146, -140255.1624483064, 67827.0614537074, -104727.10934008472, 56206.23304918207, -111055.80461690482, 0.008, 0.962, -0.032, 192.0, 0.0, 0.0, 0.0, 0.0, 0.0, 0.0, 0.0, 0.0, 0.0, 1.6664044818945644E9, 0.0, 2022-10-21 19:08:01.894
48.0, -130032.72623213843, -157175.7012219073, -33364.15837575893, -140262.87380014345, 67818.47838383655, -104722.50488072692, 56212.33507541836, -111067.5169309994, 0.008, 0.962, -0.032, 192.0, 0.0, 0.0, 0.0, 0.0, 0.0, 0.0, 0.0, 0.0, 0.0, 1.6664044818946054E9, 0.0, 2022-10-21 19:08:01.894
49.0, -130047.47838347894, -157185.55834121208, -33369.79101536167, -140272.19447758133, 67811.68345352214, -104720.69438942605, 56214.83847079736, -111074.73654445846, 0.008, 0.962, -0.032, 192.0, 0.0, 0.0, 0.0, 0.0, 0.0, 0.0, 0.0, 0.0, 0.0, 1.6664044818946338E9, 0.0, 2022-10-21 19:08:01.894
50.0, -130043.96915959945, -157177.28819576363, -33368.67342813891, -140274.38494853795, 67813.87392447877, -104731.13265408667, 56205.987179993055, -111070.28854731185, 0.008, 0.962, -0.032, 192.0, 0.0, 0.0, 0.0, 0.0, 0.0, 0.0, 0.0, 0.0, 0.0, 1.666404481894647E9, 0.0, 2022-10-21 19:08:01.894
51.0, -130046.91958986755, -157183.18905629983, -33368.874593839006, -140270.9651316363, 67813.94097971213, -104743.44846528154, 56195.25834265451, -111066.64521296564, 0.008, 0.962, -0.032, 192.0, 0.0, 0.0, 0.0, 0.0, 0.0, 0.0, 0.0, 0.0, 0.0, 1.6664044818946605E9, 0.0, 2022-10-21 19:08:01.894
52.0, -130066.05268312129, -157208.4018240454, -33370.57332641761, -140263.4549454993, 67814.87975297925, -104718.97330510299, 56213.13973821876, -111069.19331183354, 0.008, 0.962, -0.032, 192.0, 0.0, 0.0, 0.0, 0.0, 0.0, 0.0, 0.0, 0.0, 0.0, 1.6664044818946736E9, 0.0, 2022-10-21 19:08:01.894
53.0, -130078.43554954954, -157224.58448703104, -33367.824061849606, -140259.14105881943, 67821.00413096, -104707.90919159762, 56223.399188923744, -111064.87942515367, 0.008, 0.9560000000000001, -0.036000000000000004, 192.0, 0.0, 64.0, 29.0, 224.0, 254.0, 224.0, 0.0, 0.0, 0.0, 1.6664044818946867E9, 0.0, 2022-10-21 19:08:01.894
54.0, -130093.32181135677, -157240.6106878055, -33367.98052406079, -140259.14105881943, 67826.32384614037, -104711.95485734403, 56218.81708131041, -111063.09128559724, 0.008, 0.9560000000000001, -0.036000000000000004, 192.0, 0.0, 0.0, 0.0, 0.0, 0.0, 0.0, 0.0, 0.0, 0.0, 1.6664044818947012E9, 0.0, 2022-10-21 19:08:01.894
55.0, -130117.23817792395, -157259.5202636147, -33375.87068985352, -140270.09341360253, 67815.61736054628, -104727.64578195165, 56200.667464812694, -111075.83177993677, 0.008, 0.9560000000000001, -0.036000000000000004, 192.0, 0.0, 0.0, 0.0, 0.0, 0.0, 0.0, 0.0, 0.0, 0.0, 1.6664044818947148E9, 0.0, 2022-10-21 19:08:01.894
56.0, -130125.75419256142, -157270.7631910757, -33382.66562016793, -140271.59098048104, 67802.31807259537, -104730.23858430846, 56196.912371744205, -111080.99503290595, 0.008, 0.9560000000000001, -0.036000000000000004, 192.0, 0.0, 0.0, 0.0, 0.0, 0.0, 0.0, 0.0, 0.0, 0.0, 1.666404481894728E9, 0.0, 2022-10-21 19:08:01.894
57.0, -130136.10305024423, -157287.86227558402, -33390.399323749465, -140272.21682932577, 67794.4502585471, -104729.50097674144, 56203.59554333634, -111086.8735416977, 0.008, 0.9560000000000001, -0.036000000000000004, 192.0, 0.0, 0.0, 0.0, 0.0, 0.0, 0.0, 0.0, 0.0, 0.0, 1.6664044818947415E9, 0.0, 2022-10-21 19:08:01.894
58.0, -130144.6190648817, -157299.01579606722, -33387.62770743701, -140283.59386725354, 67798.07124114886, -104742.19676759205, 56199.72869154557, -111080.27977708337, 0.008, 0.9560000000000001, -0.036000000000000004, 192.0, 0.0, 0.0, 0.0, 0.0, 0.0, 0.0, 0.0, 0.0, 0.0, 1.6664044818947687E9, 0.0, 2022-10-21 19:08:01.894
59.0, -130167.39549248165, -157324.67559870193, -33395.160245318446, -140293.62980051397, 67795.27727309195, -104745.21425309352, 56192.084394941856, -111086.80648646432, 0.008, 0.9560000000000001, -0.036000000000000004, 192.0, 0.0, 0.0, 0.0, 0.0, 0.0, 0.0, 0.0, 0.0, 0.0, 1.6664044818947823E9, 0.0, 2022-10-21 19:08:01.894
60.0, -130181.45473974405, -157345.41801755645, -33406.02319312372, -140291.72990223527, 67784.81665668686, -104755.20548286504, 56183.613083793294, -111087.3205765868, 0.008, 0.9560000000000001, -0.036000000000000004, 192.0, 0.0, 0.0, 0.0, 0.0, 0.0, 0.0, 0.0, 0.0, 0.0, 1.666404481894796E9, 0.0, 2022-10-21 19:08:01.894
61.0, -130188.1826148251, -157350.3801048255, -33407.878387913515, -140279.61525674048, 67788.3035288219, -104732.719627943, 56202.23208692457, -111084.5266085299, 0.008, 0.9560000000000001, -0.036000000000000004, 192.0, 0.0, 0.0, 0.0, 0.0, 0.0, 0.0, 0.0, 0.0, 0.0, 1.6664044818948095E9, 0.0, 2022-10-21 19:08:01.894
62.0, -130200.74429520898, -157366.3392503666, -33409.17478909192, -140290.38879756795, 67786.2024648431, -104720.64968593714, 56206.210697437615, -111089.77926847688, 0.008, 0.9560000000000001, -0.036000000000000004, 192.0, 0.0, 0.0, 0.0, 0.0, 0.0, 0.0, 0.0, 0.0, 0.0, 1.666404481894823E9, 0.0, 2022-10-21 19:08:01.894
63.0, -130201.50425452045, -157370.96606146885, -33406.336117546096, -140294.92620169237, 67789.97990965605, -104744.83427343778, 56188.84339199584, -111085.6218440082, 0.012, 0.9580000000000001, -0.044, 192.0, 0.0, 96.0, 29.0, 240.0, 254.0, 160.0, 0.0, 0.0, 0.0, 1.6664044818948383E9, 0.0, 2022-10-21 19:08:01.894
64.0, -130214.46826630454, -157386.54522735422, -33411.40996353745, -140293.42863481387, 67786.22481658755, -104748.09762812825, 56188.01637745099, -111092.19325687806, 0.012, 0.9580000000000001, -0.044, 192.0, 0.0, 0.0, 0.0, 0.0, 0.0, 0.0, 0.0, 0.0, 0.0, 1.6664044818948553E9, 0.0, 2022-10-21 19:08:01.894
65.0, -130222.69370826408, -157396.55880887018, -33410.94057690389, -140288.22067835578, 67789.3987643002, -104745.14719786015, 56197.202944422126, -111092.34971908924, 0.012, 0.9580000000000001, -0.044, 192.0, 0.0, 0.0, 0.0, 0.0, 0.0, 0.0, 0.0, 0.0, 0.0, 1.6664044818948703E9, 0.0, 2022-10-21 19:08:01.894
66.0, -130225.80060074337, -157401.4538409059, -33413.35456530507, -140287.52777427767, 67791.36571781227, -104744.54370075985, 56199.12519444528, -111094.31667260132, 0.012, 0.9580000000000001, -0.044, 192.0, 0.0, 0.0, 0.0, 0.0, 0.0, 0.0, 0.0, 0.0, 0.0, 1.6664044818948855E9, 0.0, 2022-10-21 19:08:01.894
67.0, -130225.37591759872, -157402.32555893966, -33412.37108854903, -140278.02828288416, 67798.49592429351, -104744.14136935967, 56195.81713626589, -111090.60628302173, 0.012, 0.9580000000000001, -0.044, 192.0, 0.0, 0.0, 0.0, 0.0, 0.0, 0.0, 0.0, 0.0, 0.0, 1.666404481894901E9, 0.0, 2022-10-21 19:08:01.894
68.0, -130226.18058039912, -157405.16423048548, -33413.64513798298, -140279.23527708475, 67795.5007905365, -104752.25505259694, 56189.849220496326, -111083.20785560702, 0.012, 0.9580000000000001, -0.044, 192.0, 0.0, 0.0, 0.0, 0.0, 0.0, 0.0, 0.0, 0.0, 0.0, 1.666404481894918E9, 0.0, 2022-10-21 19:08:01.894
69.0, -130236.84236250429, -157418.64233239202, -33419.1883706079, -140288.35478882253, 67785.66602297616, -104740.27451756889, 56202.299142157935, -111089.15341963213, 0.012, 0.9580000000000001, -0.044, 192.0, 0.0, 0.0, 0.0, 0.0, 0.0, 0.0, 0.0, 0.0, 0.0, 1.6664044818949327E9, 0.0, 2022-10-21 19:08:01.894
70.0, -130246.76653704245, -157432.52276569878, -33425.84919045558, -140291.4616813018, 67781.44154327411, -104736.18414833357, 56203.26026716951, -111099.81520173732, 0.012, 0.9580000000000001, -0.044, 192.0, 0.0, 0.0, 0.0, 0.0, 0.0, 0.0, 0.0, 0.0, 0.0, 1.666404481894948E9, 0.0, 2022-10-21 19:08:01.894
71.0, -130244.41960387464, -157429.57233543068, -33425.33510033311, -140300.3129721061, 67780.72628745154, -104746.51065427193, 56189.24572339603, -111104.1737919061, 0.012, 0.9580000000000001, -0.044, 192.0, 0.0, 0.0, 0.0, 0.0, 0.0, 0.0, 0.0, 0.0, 0.0, 1.6664044818949633E9, 0.0, 2022-10-21 19:08:01.894
72.0, -130243.65964456316, -157430.3099429977, -33421.37884156452, -140294.90384994794, 67786.11305786527, -104758.40178232215, 56183.68013902666, -111095.68012901308, 0.012, 0.9580000000000001, -0.044, 192.0, 0.0, 0.0, 0.0, 0.0, 0.0, 0.0, 0.0, 0.0, 0.0, 1.6664044818949783E9, 0.0, 2022-10-21 19:08:01.894
73.0, -130249.82872603284, -157439.22828903535, -33424.75395497727, -140287.4607190443, 67786.4036305432, -104741.14623560265, 56200.08631945686, -111092.90851270063, 0.012, 0.96, -0.034, 192.0, 0.0, 96.0, 30.0, 0.0, 254.0, 240.0, 0.0, 0.0, 0.0, 1.666404481895009E9, 0.0, 2022-10-21 19:08:01.895
74.0, -130253.00267374549, -157443.63158269305, -33429.38076607952, -140291.0146464127, 67783.85553167529, -104737.12292160069, 56202.701473558125, -111096.86477146922, 0.012, 0.96, -0.034, 192.0, 0.0, 0.0, 0.0, 0.0, 0.0, 0.0, 0.0, 0.0, 0.0, 1.6664044818950248E9, 0.0, 2022-10-21 19:08:01.895
75.0, -130251.90743826717, -157442.7598646593, -33426.7879637227, -140295.39558832595, 67786.73890671002, -104739.6710204686, 56200.533354345964, -111096.3730330912, 0.012, 0.96, -0.034, 192.0, 0.0, 0.0, 0.0, 0.0, 0.0, 0.0, 0.0, 0.0, 0.0, 1.6664044818950396E9, 0.0, 2022-10-21 19:08:01.895
76.0, -130259.68584533762, -157454.53923398725, -33429.35841433507, -140303.15164365192, 67778.78168568393, -104748.23173859499, 56190.609179807805, -111099.99401569297, 0.012, 0.96, -0.034, 192.0, 0.0, 0.0, 0.0, 0.0, 0.0, 0.0, 0.0, 0.0, 0.0, 1.6664044818950548E9, 0.0, 2022-10-21 19:08:01.895
77.0, -130265.00556051798, -157462.04942012424, -33435.23692312681, -140293.94272493635, 67777.10530484979, -104741.86149142522, 56193.73842403155, -111105.4701930845, 0.012, 0.96, -0.034, 192.0, 0.0, 0.0, 0.0, 0.0, 0.0, 0.0, 0.0, 0.0, 0.0, 1.6664044818950696E9, 0.0, 2022-10-21 19:08:01.895
78.0, -130263.41858666166, -157459.90365265653, -33435.52749580473, -140294.79209122565, 67775.11599959327, -104726.93052612907, 56204.19904043664, -111109.225286153, 0.012, 0.96, -0.034, 192.0, 0.0, 0.0, 0.0, 0.0, 0.0, 0.0, 0.0, 0.0, 0.0, 1.6664044818950844E9, 0.0, 2022-10-21 19:08:01.895
79.0, -130251.1921824446, -157447.54313797274, -33424.28456834371, -140291.19346036835, 67783.92258690865, -104742.64380248117, 56198.70051130063, -111103.74910876145, 0.012, 0.96, -0.034, 192.0, 0.0, 0.0, 0.0, 0.0, 0.0, 0.0, 0.0, 0.0, 0.0, 1.6664044818950992E9, 0.0, 2022-10-21 19:08:01.895
80.0, -130243.86081026326, -157438.84830937962, -33410.180617592414, -140273.08854735954, 67797.82537195986, -104759.00527942245, 56191.92793273067, -111091.61211152222, 0.012, 0.96, -0.034, 192.0, 0.0, 0.0, 0.0, 0.0, 0.0, 0.0, 0.0, 0.0, 0.0, 1.6664044818951144E9, 0.0, 2022-10-21 19:08:01.895
81.0, -130266.74899658549, -157463.65874572503, -33426.609149767064, -140295.8649749595, 67777.82056067235, -104762.04511666836, 56184.93183671616, -111108.2194576525, 0.012, 0.96, -0.034, 192.0, 0.0, 0.0, 0.0, 0.0, 0.0, 0.0, 0.0, 0.0, 0.0, 1.6664044818951292E9, 0.0, 2022-10-21 19:08:01.895
82.0, -130279.17656650265, -157473.672327241, -33436.868600472044, -140306.3702948535, 67761.03440058642, -104760.50284630095, 56185.66944428319, -111120.08823395827, 0.014, 0.966, -0.044, 192.0, 0.0, 112.0, 30.0, 48.0, 254.0, 160.0, 0.0, 0.0, 0.0, 1.666404481895144E9, 0.0, 2022-10-21 19:08:01.895
83.0, -130274.3485897003, -157464.8657399256, -33431.772402736235, -140309.4101320994, 67765.68356343312, -104761.30750910135, 56188.26224664, -111111.88514374319, 0.014, 0.966, -0.044, 192.0, 0.0, 0.0, 0.0, 0.0, 0.0, 0.0, 0.0, 0.0, 0.0, 1.66640448189516E9, 0.0, 2022-10-21 19:08:01.895
84.0, -130265.34083668482, -157455.70152469893, -33416.66262348445, -140299.77653023918, 67778.96049963958, -104788.2860646589, 56174.82884822236, -111102.7209285165, 0.014, 0.966, -0.044, 192.0, 0.0, 0.0, 0.0, 0.0, 0.0, 0.0, 0.0, 0.0, 0.0, 1.666404481895175E9, 0.0, 2022-10-21 19:08:01.895
85.0, -130276.74022635703, -157469.9172341725, -33421.82587645362, -140286.70075973283, 67780.27925256244, -104778.25013139847, 56178.29336861293, -111110.54403907586, 0.014, 0.966, -0.044, 192.0, 0.0, 0.0, 0.0, 0.0, 0.0, 0.0, 0.0, 0.0, 0.0, 1.66640448189519E9, 0.0, 2022-10-21 19:08:01.895
86.0, -130272.0463600214, -157465.7151062149, -33418.920149674435, -140279.0117596402, 67783.4532002751, -104757.61947126621, 56194.811307765405, -111102.56446630532, 0.014, 0.966, -0.044, 192.0, 0.0, 0.0, 0.0, 0.0, 0.0, 0.0, 0.0, 0.0, 0.0, 1.666404481895205E9, 0.0, 2022-10-21 19:08:01.895
87.0, -130276.6955228681, -157469.78312370577, -33426.89972244498, -140287.39366381094, 67778.0440781169, -104756.21131136554, 56193.93958973165, -111109.71702453101, 0.014, 0.966, -0.044, 192.0, 0.0, 0.0, 0.0, 0.0, 0.0, 0.0, 0.0, 0.0, 0.0, 1.66640448189522E9, 0.0, 2022-10-21 19:08:01.895
88.0, -130280.16004325869, -157474.99108016386, -33426.85501895607, -140299.37419883898, 67776.18888332712, -104777.60193080927, 56174.06888891088, -111114.81322226682, 0.014, 0.966, -0.044, 192.0, 0.0, 0.0, 0.0, 0.0, 0.0, 0.0, 0.0, 0.0, 0.0, 1.6664044818952496E9, 0.0, 2022-10-21 19:08:01.895
89.0, -130271.24169722102, -157465.96097540393, -33411.90170191547, -140271.07689035856, 67788.57174975536, -104773.51156157393, 56181.42261283668, -111102.05037618284, 0.014, 0.966, -0.044, 192.0, 0.0, 0.0, 0.0, 0.0, 0.0, 0.0, 0.0, 0.0, 0.0, 1.6664044818952668E9, 0.0, 2022-10-21 19:08:01.895
90.0, -130280.6964851256, -157475.0581353972, -33425.491562544295, -140276.19543983883, 67778.28994730592, -104753.35028807525, 56196.01830196599, -111107.5712570633, 0.014, 0.966, -0.044, 192.0, 0.0, 0.0, 0.0, 0.0, 0.0, 0.0, 0.0, 0.0, 0.0, 1.6664044818952818E9, 0.0, 2022-10-21 19:08:01.895
91.0, -130289.81599686337, -157482.94830118996, -33438.92496096194, -140305.78914949766, 67763.73896166551, -104751.472741541, 56194.29721764293, -111116.42254786761, 0.014, 0.966, -0.044, 192.0, 0.0, 0.0, 0.0, 0.0, 0.0, 0.0, 0.0, 0.0, 0.0, 1.6664044818952968E9, 0.0, 2022-10-21 19:08:01.895
92.0, -130287.1561392732, -157482.70243200095, -33431.05714691367, -140303.8221959856, 67772.67965944763, -104764.23558762498, 56184.41774659369, -111110.56639082031, 0.01, 0.968, -0.05, 192.0, 0.0, 80.0, 30.0, 64.0, 254.0, 112.0, 0.0, 0.0, 0.0, 1.6664044818953116E9, 0.0, 2022-10-21 19:08:01.895
93.0, -130290.62065966376, -157487.91038845901, -33429.85015271308, -140296.44612031535, 67771.56207222487, -104771.05286968386, 56177.60046453482, -111109.09117568626, 0.01, 0.968, -0.05, 192.0, 0.0, 0.0, 0.0, 0.0, 0.0, 0.0, 0.0, 0.0, 0.0, 1.6664044818953273E9, 0.0, 2022-10-21 19:08:01.895
94.0, -130290.12892128575, -157487.95509194792, -33429.693690501896, -140284.93497192085, 67773.10434259228, -104759.96640443402, 56191.77147051948, -111100.46340232652, 0.01, 0.968, -0.05, 192.0, 0.0, 0.0, 0.0, 0.0, 0.0, 0.0, 0.0, 0.0, 0.0, 1.6664044818953435E9, 0.0, 2022-10-21 19:08:01.895
95.0, -130300.79070339093, -157498.9297984755, -33443.462365086365, -140296.22260287078, 67764.40951399917, -104748.23173859499, 56197.538220588955, -111107.70536753004, 0.01, 0.968, -0.05, 192.0, 0.0, 0.0, 0.0, 0.0, 0.0, 0.0, 0.0, 0.0, 0.0, 1.6664044818953583E9, 0.0, 2022-10-21 19:08:01.895
96.0, -130304.38933424823, -157501.65671129903, -33446.23398139882, -140305.34211460856, 67761.30262151988, -104756.83716021029, 56186.40705185021, -111120.49056535847, 0.01, 0.968, -0.05, 192.0, 0.0, 0.0, 0.0, 0.0, 0.0, 0.0, 0.0, 0.0, 0.0, 1.6664044818953733E9, 0.0, 2022-10-21 19:08:01.895
97.0, -130284.2057090051, -157479.79670522176, -33427.302053845175, -140285.31495157658, 67779.13931359522, -104754.71374448702, 56192.084394941856, -111103.83851573928, 0.01, 0.968, -0.05, 192.0, 0.0, 0.0, 0.0, 0.0, 0.0, 0.0, 0.0, 0.0, 0.0, 1.6664044818953884E9, 0.0, 2022-10-21 19:08:01.895
98.0, -130288.43018870715, -157485.5187518023, -33428.39728932349, -140283.16918410888, 67775.16070308218, -104757.06067765484, 56197.26999965549, -111104.28555062838, 0.01, 0.968, -0.05, 192.0, 0.0, 0.0, 0.0, 0.0, 0.0, 0.0, 0.0, 0.0, 0.0, 1.6664044818954031E9, 0.0, 2022-10-21 19:08:01.895
99.0, -130297.68381091164, -157494.90648447353, -33436.62273128304, -140291.88636444646, 67766.6446884447, -104751.24922409645, 56201.62858982427, -111110.18641116458, 0.01, 0.968, -0.05, 192.0, 0.0, 0.0, 0.0, 0.0, 0.0, 0.0, 0.0, 0.0, 0.0, 1.6664044818954184E9, 0.0, 2022-10-21 19:08:01.895
100.0, -130299.98604059053, -157495.15235366253, -33438.92496096194, -140299.3071436056, 67769.17043556816, -104750.24339559596, 56199.572229334386, -111112.84626875476, 0.01, 0.968, -0.05, 192.0, 0.0, 0.0, 0.0, 0.0, 0.0, 0.0, 0.0, 0.0, 0.0, 1.6664044818954332E9, 0.0, 2022-10-21 19:08:01.895
101.0, -130298.62258417877, -157492.7830687503, -33443.104737175076, -140307.93491696537, 67766.37646751123, -104778.92068373213, 56176.37111858978, -111116.26608565642, 0.01, 0.968, -0.05, 192.0, 0.0, 0.0, 0.0, 0.0, 0.0, 0.0, 0.0, 0.0, 0.0, 1.6664044818954482E9, 0.0, 2022-10-21 19:08:01.895
102.0, -130292.0511713089, -157488.98327219288, -33437.13682140551, -140291.57344002408, 67773.97606062604, -104773.91389297413, 56181.98140644806, -111108.1747541636, 0.006, 0.968, -0.048, 192.0, 0.0, 48.0, 30.0, 64.0, 254.0, 128.0, 0.0, 0.0, 0.0, 1.6664044818954635E9, 0.0, 2022-10-21 19:08:01.895
103.0, -130303.71878191458, -157502.84135375518, -33438.92496096194, -140293.02630341367, 67772.32203153634, -104755.18313112059, 56192.93376123116, -111114.4779461, 0.006, 0.968, -0.048, 192.0, 0.0, 0.0, 0.0, 0.0, 0.0, 0.0, 0.0, 0.0, 0.0, 1.666404481895518E9, 0.0, 2022-10-21 19:08:01.895
104.0, -130306.8033226494, -157503.0201677108, -33441.96479820786, -140307.59964079852, 67768.67869719013, -104763.85560796925, 56185.714147772094, -111114.63440831119, 0.006, 0.968, -0.048, 192.0, 0.0, 0.0, 0.0, 0.0, 0.0, 0.0, 0.0, 0.0, 0.0, 1.6664044818955336E9, 0.0, 2022-10-21 19:08:01.895
1.0, -130017.77291509783, -157179.59042544253, -33365.141852514964, -140253.5978261945, 67836.13626195626, -104955.49946492905, 56186.60821755031, -111059.89498614013, 0.014, 0.962, -0.038, 192.0, 0.0, 112.0, 30.0, 16.0, 254.0, 208.0, 0.0, 0.0, 0.0, 1.666404482491213E9, 0.0, 2022-10-21 19:08:02.491
2.0, -130024.14316226759, -157187.86057089097, -33373.43434970789, -140285.9631521658, 67820.53474432645, -104977.40417449524, 56169.88911269774, -111066.57815773228, 0.014, 0.962, -0.038, 192.0, 0.0, 0.0, 0.0, 0.0, 0.0, 0.0, 0.0, 0.0, 0.0, 1.6664044824913404E9, 0.0, 2022-10-21 19:08:02.491
3.0, -130027.49592393589, -157190.78864941464, -33375.87068985352, -140297.63076277147, 67818.008997203, -104998.75009045006, 56149.32550779886, -111070.37795428968, 0.014, 0.962, -0.038, 192.0, 0.0, 0.0, 0.0, 0.0, 0.0, 0.0, 0.0, 0.0, 0.0, 1.6664044824915063E9, 0.0, 2022-10-21 19:08:02.491
4.0, -130026.22187450193, -157189.8498761475, -33369.96982931731, -140290.52290803468, 67818.8583634923, -105008.89778243277, 56142.68703969563, -111066.28758505435, 0.014, 0.962, -0.038, 192.0, 0.0, 0.0, 0.0, 0.0, 0.0, 0.0, 0.0, 0.0, 0.0, 1.6664044824915297E9, 0.0, 2022-10-21 19:08:02.491
5.0, -130029.55228442578, -157191.81682965957, -33372.45087295185, -140277.60359973952, 67819.01482570349, -104986.8813141443, 56160.79195270443, -111064.34298328674, 0.014, 0.962, -0.038, 192.0, 0.0, 0.0, 0.0, 0.0, 0.0, 0.0, 0.0, 0.0, 0.0, 1.666404482491552E9, 0.0, 2022-10-21 19:08:02.491
6.0, -130028.52410418083, -157191.63801570394, -33375.20013751985, -140278.69883521783, 67817.3607966138, -104968.41877322421, 56172.77248773247, -111071.1155618567, 0.014, 0.962, -0.038, 192.0, 0.0, 0.0, 0.0, 0.0, 0.0, 0.0, 0.0, 0.0, 0.0, 1.6664044824915848E9, 0.0, 2022-10-21 19:08:02.491
7.0, -130029.06054604777, -157193.33674828254, -33376.898870098456, -140286.58900101055, 67815.37149135728, -104981.8298198974, 56160.18845560413, -111076.25646308142, 0.014, 0.962, -0.038, 192.0, 0.0, 0.0, 0.0, 0.0, 0.0, 0.0, 0.0, 0.0, 0.0, 1.6664044824916074E9, 0.0, 2022-10-21 19:08:02.491
8.0, -130028.43469720302, -157194.2978732941, -33374.48488169729, -140284.73380622076, 67817.74077626954, -104997.67720671621, 56149.77254268796, -111069.8638641672, 0.014, 0.962, -0.026000000000000002, 192.0, 0.0, 112.0, 30.0, 16.0, 255.0, 48.0, 0.0, 0.0, 0.0, 1.6664044824916296E9, 0.0, 2022-10-21 19:08:02.491
9.0, -130032.74858388289, -157199.77405068566, -33377.45766370984, -140281.69396897484, 67814.72329076807, -104994.77147993702, 56150.17487408816, -111077.8210851933, 0.014, 0.962, -0.026000000000000002, 192.0, 0.0, 0.0, 0.0, 0.0, 0.0, 0.0, 0.0, 0.0, 0.0, 1.6664044824916537E9, 0.0, 2022-10-21 19:08:02.491
10.0, -130028.32293848073, -157196.48834425074, -33376.60829742054, -140272.5074020037, 67819.88654373724, -104972.64325292627, 56162.5577405164, -111076.30116657034, 0.014, 0.962, -0.026000000000000002, 192.0, 0.0, 0.0, 0.0, 0.0, 0.0, 0.0, 0.0, 0.0, 0.0, 1.6664044824916759E9, 0.0, 2022-10-21 19:08:02.491
11.0, -130027.29475823579, -157194.67785294986, -33375.8259863646, -140276.84364042804, 67821.83114550485, -104966.8317993679, 56160.38962130423, -111072.09903861274, 0.014, 0.962, -0.026000000000000002, 192.0, 0.0, 0.0, 0.0, 0.0, 0.0, 0.0, 0.0, 0.0, 0.0, 1.6664044824916985E9, 0.0, 2022-10-21 19:08:02.491
12.0, -130018.51052266486, -157183.43492548884, -33363.823099592104, -140268.72995719075, 67828.89429675273, -104974.81137213843, 56157.84152243633, -111053.72590467047, 0.014, 0.962, -0.026000000000000002, 192.0, 0.0, 0.0, 0.0, 0.0, 0.0, 0.0, 0.0, 0.0, 0.0, 1.6664044824917212E9, 0.0, 2022-10-21 19:08:02.491
13.0, -130028.05471754727, -157194.0520041051, -33370.99800956226, -140265.73482343374, 67821.54057282694, -104982.09804083087, 56155.53929275743, -111055.15641631561, 0.014, 0.962, -0.026000000000000002, 192.0, 0.0, 0.0, 0.0, 0.0, 0.0, 0.0, 0.0, 0.0, 0.0, 1.666404482491743E9, 0.0, 2022-10-21 19:08:02.491
14.0, -130043.92445611054, -157211.86634443598, -33387.35948650354, -140287.93010567786, 67799.21118011608, -104985.8307821549, 56149.504321754495, -111076.74820145944, 0.014, 0.962, -0.026000000000000002, 192.0, 0.0, 0.0, 0.0, 0.0, 0.0, 0.0, 0.0, 0.0, 0.0, 1.666404482491978E9, 0.0, 2022-10-21 19:08:02.491
15.0, -130030.84868560419, -157201.606893731, -33375.647172408964, -140285.22554459877, 67813.78451750094, -105004.40508179726, 56141.86002515078, -111074.20010259154, 0.014, 0.962, -0.026000000000000002, 192.0, 0.0, 0.0, 0.0, 0.0, 0.0, 0.0, 0.0, 0.0, 0.0, 1.6664044824920003E9, 0.0, 2022-10-21 19:08:02.492
16.0, -130030.4910576929, -157200.51165825268, -33374.28371599719, -140283.81738469808, 67821.4064623602, -105002.97457015212, 56139.580147216344, -111070.4673612675, 0.014, 0.962, -0.026000000000000002, 192.0, 0.0, 0.0, 0.0, 0.0, 0.0, 0.0, 0.0, 0.0, 0.0, 1.6664044824920228E9, 0.0, 2022-10-21 19:08:02.492
17.0, -130031.92156933804, -157203.08210886506, -33376.78711137618, -140278.29650381763, 67818.36662511429, -104991.55282873545, 56147.71618219807, -111071.60730023473, 0.014, 0.968, -0.036000000000000004, 192.0, 0.0, 112.0, 30.0, 64.0, 254.0, 224.0, 0.0, 0.0, 0.0, 1.6664044824920447E9, 0.0, 2022-10-21 19:08:02.492
18.0, -130028.65821464757, -157198.61175997398, -33378.575250932605, -140281.11282361898, 67814.79034600143, -104975.95131110566, 56163.18358936114, -111070.55676824533, 0.014, 0.968, -0.036000000000000004, 192.0, 0.0, 0.0, 0.0, 0.0, 0.0, 0.0, 0.0, 0.0, 0.0, 1.6664044824920683E9, 0.0, 2022-10-21 19:08:02.492
19.0, -130029.35111872568, -157198.4552977628, -33378.575250932605, -140286.18666961035, 67815.66206403519, -104987.79773566697, 56155.941624157625, -111067.5169309994, 0.014, 0.968, -0.036000000000000004, 192.0, 0.0, 0.0, 0.0, 0.0, 0.0, 0.0, 0.0, 0.0, 0.0, 1.6664044824920905E9, 0.0, 2022-10-21 19:08:02.492
20.0, -130022.4891331779, -157189.78282091414, -33369.12046302801, -140281.13517536345, 67826.50266009601, -105003.98039865261, 56144.966917630074, -111060.52083498488, 0.014, 0.968, -0.036000000000000004, 192.0, 0.0, 0.0, 0.0, 0.0, 0.0, 0.0, 0.0, 0.0, 0.0, 1.6664044824921129E9, 0.0, 2022-10-21 19:08:02.492
21.0, -130014.21898772944, -157182.47380047725, -33362.5266984137, -140258.49285823022, 67836.80681428991, -104981.40513675274, 56162.021298649466, -111053.27886978137, 0.014, 0.968, -0.036000000000000004, 192.0, 0.0, 0.0, 0.0, 0.0, 0.0, 0.0, 0.0, 0.0, 0.0, 1.666404482492135E9, 0.0, 2022-10-21 19:08:02.492
22.0, -130022.66794713354, -157193.6496727049, -33371.75796887374, -140267.99234962373, 67820.17711641516, -104975.14664830526, 56166.08931614034, -111057.14572157213, 0.014, 0.968, -0.036000000000000004, 192.0, 0.0, 0.0, 0.0, 0.0, 0.0, 0.0, 0.0, 0.0, 0.0, 1.6664044824921567E9, 0.0, 2022-10-21 19:08:02.492
23.0, -130033.28502574982, -157202.88094316496, -33378.41878872142, -140288.73476847826, 67809.64944477672, -104974.0290610825, 56166.87162719627, -111063.49361699744, 0.014, 0.968, -0.036000000000000004, 192.0, 0.0, 0.0, 0.0, 0.0, 0.0, 0.0, 0.0, 0.0, 0.0, 1.666404482492179E9, 0.0, 2022-10-21 19:08:02.492
24.0, -130024.54549366779, -157194.00730061618, -33369.54514617266, -140288.7571202227, 67818.32192162538, -104992.69276770268, 56156.433362535645, -111053.6141459482, 0.014, 0.968, -0.036000000000000004, 192.0, 0.0, 0.0, 0.0, 0.0, 0.0, 0.0, 0.0, 0.0, 0.0, 1.6664044824922006E9, 0.0, 2022-10-21 19:08:02.492
25.0, -130022.60089190018, -157194.2978732941, -33371.51209968473, -140281.98454165275, 67815.08091867935, -104998.92890440571, 56151.44892352211, -111065.63938446515, 0.014, 0.968, -0.036000000000000004, 192.0, 0.0, 0.0, 0.0, 0.0, 0.0, 0.0, 0.0, 0.0, 0.0, 1.6664044824922175E9, 0.0, 2022-10-21 19:08:02.492
26.0, -130030.84868560419, -157202.63507397595, -33376.876518354, -140275.43548052735, 67810.69997676612, -104996.00082588206, 56153.68409796764, -111077.19523634855, 0.014, 0.968, -0.036000000000000004, 192.0, 0.0, 0.0, 0.0, 0.0, 0.0, 0.0, 0.0, 0.0, 0.0, 1.66640448249223E9, 0.0, 2022-10-21 19:08:02.492
27.0, -130026.89242683559, -157199.9528646413, -33376.11655904252, -140277.13421310595, 67815.86322973529, -104993.27391305851, 56157.1039148693, -111076.79290494835, 0.016, 0.966, -0.036000000000000004, 192.0, 0.0, 128.0, 30.0, 48.0, 254.0, 224.0, 0.0, 0.0, 0.0, 1.666404482492242E9, 0.0, 2022-10-21 19:08:02.492
28.0, -130022.98087155592, -157196.845972162, -33367.958172316336, -140279.14587010694, 67822.70286353861, -105007.26610508753, 56143.558757729385, -111071.5625967458, 0.016, 0.966, -0.036000000000000004, 192.0, 0.0, 0.0, 0.0, 0.0, 0.0, 0.0, 0.0, 0.0, 0.0, 1.6664044824922593E9, 0.0, 2022-10-21 19:08:02.492
29.0, -130025.61837740164, -157199.57288498557, -33368.04757929416, -140275.92721890536, 67823.41811936119, -105009.56833476643, 56140.80949316138, -111066.0640676098, 0.016, 0.966, -0.036000000000000004, 192.0, 0.0, 0.0, 0.0, 0.0, 0.0, 0.0, 0.0, 0.0, 0.0, 1.6664044824922879E9, 0.0, 2022-10-21 19:08:02.492
30.0, -130022.22091224443, -157196.57775122856, -33366.17003275991, -140261.04095709813, 67827.97787523006, -104985.18258156569, 56162.11070562729, -111070.95909964551, 0.016, 0.966, -0.036000000000000004, 192.0, 0.0, 0.0, 0.0, 0.0, 0.0, 0.0, 0.0, 0.0, 0.0, 1.6664044824922998E9, 0.0, 2022-10-21 19:08:02.492
31.0, -130013.21315922895, -157183.59138770003, -33354.48007040979, -140250.13330580393, 67839.57843060237, -104970.40807848073, 56180.84146748084, -111055.96107911601, 0.016, 0.966, -0.036000000000000004, 192.0, 0.0, 0.0, 0.0, 0.0, 0.0, 0.0, 0.0, 0.0, 0.0, 1.666404482492312E9, 0.0, 2022-10-21 19:08:02.492
32.0, -130018.80109534277, -157187.65940519088, -33357.83283207808, -140260.79508790912, 67838.52789861297, -104996.02317762651, 56165.21759810658, -111049.47907322396, 0.016, 0.966, -0.036000000000000004, 192.0, 0.0, 0.0, 0.0, 0.0, 0.0, 0.0, 0.0, 0.0, 0.0, 1.6664044824923244E9, 0.0, 2022-10-21 19:08:02.492
33.0, -130022.71265062246, -157190.29691103662, -33364.82892809259, -140271.50157350322, 67831.24122992053, -105015.82682321392, 56148.23027232054, -111048.02620983437, 0.016, 0.966, -0.036000000000000004, 192.0, 0.0, 0.0, 0.0, 0.0, 0.0, 0.0, 0.0, 0.0, 0.0, 1.6664044824923377E9, 0.0, 2022-10-21 19:08:02.492
34.0, -130037.80007812979, -157203.9985303877, -33377.34590498757, -140274.22848632676, 67820.57944781535, -104989.94350313468, 56161.194284104626, -111061.77253267438, 0.016, 0.966, -0.036000000000000004, 192.0, 0.0, 0.0, 0.0, 0.0, 0.0, 0.0, 0.0, 0.0, 0.0, 1.66640448249235E9, 0.0, 2022-10-21 19:08:02.492
35.0, -130045.95846485597, -157212.58160025856, -33385.25842252474, -140280.30816081862, 67811.45993607759, -104966.89885460126, 56174.538275544444, -111079.9221491721, 0.016, 0.966, -0.036000000000000004, 192.0, 0.0, 0.0, 0.0, 0.0, 0.0, 0.0, 0.0, 0.0, 0.0, 1.6664044824923625E9, 0.0, 2022-10-21 19:08:02.492
36.0, -130032.72623213843, -157197.96355938478, -33371.89207934047, -140281.38104455246, 67818.0537006919, -104983.99793910957, 56168.458601052596, -111073.50719851343, 0.016, 0.966, -0.036000000000000004, 192.0, 0.0, 0.0, 0.0, 0.0, 0.0, 0.0, 0.0, 0.0, 0.0, 1.6664044824923747E9, 0.0, 2022-10-21 19:08:02.492
37.0, -130029.17230477004, -157195.08018435005, -33367.86876533851, -140282.14100386394, 67821.11588968229, -105020.09600640488, 56146.39742927521, -111070.28854731185, 0.014, 0.962, -0.042, 192.0, 0.0, 112.0, 30.0, 16.0, 254.0, 176.0, 0.0, 0.0, 0.0, 1.6664044824923868E9, 0.0, 2022-10-21 19:08:02.492
38.0, -130029.75345012588, -157196.73421343975, -33370.059236295136, -140273.5579339931, 67821.8087937604, -105009.1883551107, 56156.25454858, -111067.82985542178, 0.014, 0.962, -0.042, 192.0, 0.0, 0.0, 0.0, 0.0, 0.0, 0.0, 0.0, 0.0, 0.0, 1.6664044824923997E9, 0.0, 2022-10-21 19:08:02.492
39.0, -130038.11300255216, -157205.8537251775, -33377.83764336558, -140273.53558224865, 67813.8068692454, -104978.05237508446, 56174.180647633155, -111074.53537875836, 0.014, 0.962, -0.042, 192.0, 0.0, 0.0, 0.0, 0.0, 0.0, 0.0, 0.0, 0.0, 0.0, 1.666404482492412E9, 0.0, 2022-10-21 19:08:02.492
40.0, -130032.5921216717, -157201.6963007088, -33372.428521207396, -140275.88251541645, 67817.58431405835, -104984.1767530652, 56164.479990539556, -111069.4168292781, 0.014, 0.962, -0.042, 192.0, 0.0, 0.0, 0.0, 0.0, 0.0, 0.0, 0.0, 0.0, 0.0, 1.666404482492424E9, 0.0, 2022-10-21 19:08:02.492
41.0, -130031.40747921557, -157198.9470361408, -33369.567497917116, -140279.16822185137, 67818.4113286032, -105007.0872911319, 56147.11268509778, -111065.0135356204, 0.014, 0.962, -0.042, 192.0, 0.0, 0.0, 0.0, 0.0, 0.0, 0.0, 0.0, 0.0, 0.0, 1.6664044824924357E9, 0.0, 2022-10-21 19:08:02.492
42.0, -130030.73692688192, -157195.92955063935, -33364.60541064804, -140268.81936416856, 67819.32775012586, -105005.50031727557, 56153.773504945464, -111056.67633493857, 0.014, 0.962, -0.042, 192.0, 0.0, 0.0, 0.0, 0.0, 0.0, 0.0, 0.0, 0.0, 0.0, 1.666404482492448E9, 0.0, 2022-10-21 19:08:02.492
43.0, -130028.34529022519, -157193.49321049373, -33359.39745418995, -140256.34709076252, 67826.12268044027, -104983.86382864283, 56172.61602552128, -111055.08936108225, 0.014, 0.962, -0.042, 192.0, 0.0, 0.0, 0.0, 0.0, 0.0, 0.0, 0.0, 0.0, 0.0, 1.6664044824924603E9, 0.0, 2022-10-21 19:08:02.492
44.0, -130028.63586290312, -157197.6506349624, -33362.23612573578, -140265.7571751782, 67825.0050932175, -104987.50716298904, 56164.122362628266, -111060.38672451816, 0.014, 0.962, -0.042, 192.0, 0.0, 0.0, 0.0, 0.0, 0.0, 0.0, 0.0, 0.0, 0.0, 1.6664044824924836E9, 0.0, 2022-10-21 19:08:02.492
45.0, -130036.66013916256, -157205.6078559885, -33370.394512461964, -140278.78824219565, 67820.62415130426, -105001.02996838451, 56147.000926375506, -111068.00866937742, 0.014, 0.962, -0.042, 192.0, 0.0, 0.0, 0.0, 0.0, 0.0, 0.0, 0.0, 0.0, 0.0, 1.666404482492496E9, 0.0, 2022-10-21 19:08:02.492
46.0, -130042.4939444654, -157211.12873686897, -33375.06602705312, -140282.18570735285, 67816.06439543539, -104997.1854683382, 56150.06311536588, -111073.28368106886, 0.016, 0.964, -0.036000000000000004, 192.0, 0.0, 128.0, 30.0, 32.0, 254.0, 224.0, 0.0, 0.0, 0.0, 1.6664044824925084E9, 0.0, 2022-10-21 19:08:02.492
47.0, -130035.9895868289, -157205.78666994415, -33367.89111708297, -140271.47922175875, 67821.47351759356, -104985.78607866599, 56164.34588007282, -111070.08738161175, 0.016, 0.964, -0.036000000000000004, 192.0, 0.0, 0.0, 0.0, 0.0, 0.0, 0.0, 0.0, 0.0, 0.0, 1.6664044824925215E9, 0.0, 2022-10-21 19:08:02.492
48.0, -130028.34529022519, -157196.82362041756, -33359.39745418995, -140266.9641693788, 67829.58720083085, -104989.1835438232, 56167.29631034092, -111060.56553847379, 0.016, 0.964, -0.036000000000000004, 192.0, 0.0, 0.0, 0.0, 0.0, 0.0, 0.0, 0.0, 0.0, 0.0, 1.666404482492534E9, 0.0, 2022-10-21 19:08:02.492
49.0, -130029.28406349232, -157198.56705648507, -33361.14089025747, -140279.07881487356, 67826.50266009601, -105004.94152366418, 56155.092257868324, -111064.90177689813, 0.016, 0.964, -0.036000000000000004, 192.0, 0.0, 0.0, 0.0, 0.0, 0.0, 0.0, 0.0, 0.0, 0.0, 1.6664044824925478E9, 0.0, 2022-10-21 19:08:02.492
50.0, -130031.36277572665, -157202.76918444267, -33364.91833507041, -140281.15752710792, 67818.52308732546, -105018.285515104, 56144.29636529641, -111071.40613453463, 0.016, 0.964, -0.036000000000000004, 192.0, 0.0, 0.0, 0.0, 0.0, 0.0, 0.0, 0.0, 0.0, 0.0, 1.66640448249256E9, 0.0, 2022-10-21 19:08:02.492
51.0, -130028.30058673628, -157199.12585009646, -33359.79978559015, -140265.64541645593, 67823.73104378355, -104998.57127649442, 56162.11070562729, -111062.39838151913, 0.016, 0.964, -0.036000000000000004, 192.0, 0.0, 0.0, 0.0, 0.0, 0.0, 0.0, 0.0, 0.0, 0.0, 1.6664044824925723E9, 0.0, 2022-10-21 19:08:02.492
52.0, -130018.95755755396, -157190.00633835868, -33347.43927090636, -140252.5025907162, 67840.09252072484, -104983.05916584244, 56176.4605255676, -111045.83573887775, 0.016, 0.964, -0.036000000000000004, 192.0, 0.0, 0.0, 0.0, 0.0, 0.0, 0.0, 0.0, 0.0, 0.0, 1.6664044824925847E9, 0.0, 2022-10-21 19:08:02.492
53.0, -130027.11594428014, -157200.1540303414, -33357.542259400165, -140273.08854735954, 67829.7660147865, -104993.34096829189, 56163.630624250254, -111048.07091332327, 0.016, 0.964, -0.036000000000000004, 192.0, 0.0, 0.0, 0.0, 0.0, 0.0, 0.0, 0.0, 0.0, 0.0, 1.666404482492597E9, 0.0, 2022-10-21 19:08:02.492
54.0, -130045.48907822241, -157216.82843170507, -33377.547070687666, -140297.07196916008, 67802.76510748448, -105016.18445112521, 56142.06119085088, -111078.0222508934, 0.016, 0.964, -0.036000000000000004, 192.0, 0.0, 0.0, 0.0, 0.0, 0.0, 0.0, 0.0, 0.0, 0.0, 1.6664044824926095E9, 0.0, 2022-10-21 19:08:02.492
55.0, -130036.34721474019, -157206.68073972236, -33366.70647462684, -140273.04384387063, 67813.67275877867, -104997.34193054939, 56162.513037027486, -111066.95813738802, 0.016, 0.964, -0.036000000000000004, 192.0, 0.0, 0.0, 0.0, 0.0, 0.0, 0.0, 0.0, 0.0, 0.0, 1.666404482492622E9, 0.0, 2022-10-21 19:08:02.492
56.0, -130027.49592393589, -157198.56705648507, -33356.04469252166, -140261.9126751319, 67830.43656712015, -104985.92018913272, 56172.52661854347, -111064.79001817585, 0.02, 0.964, -0.032, 192.0, 0.0, 160.0, 30.0, 32.0, 255.0, 0.0, 0.0, 0.0, 0.0, 1.666404482492634E9, 0.0, 2022-10-21 19:08:02.492
57.0, -130035.5425519398, -157206.3454635555, -33368.06993103861, -140287.39366381094, 67821.4064623602, -104987.68597694469, 56163.92119692817, -111075.5188555144, 0.02, 0.964, -0.032, 192.0, 0.0, 0.0, 0.0, 0.0, 0.0, 0.0, 0.0, 0.0, 0.0, 1.666404482492647E9, 0.0, 2022-10-21 19:08:02.492
58.0, -130034.78259262833, -157205.2949315661, -33370.30510548414, -140291.81930921308, 67819.7524332705, -105009.70244523317, 56148.27497580946, -111067.9639658885, 0.02, 0.964, -0.032, 192.0, 0.0, 0.0, 0.0, 0.0, 0.0, 0.0, 0.0, 0.0, 0.0, 1.666404482492659E9, 0.0, 2022-10-21 19:08:02.492
59.0, -130030.73692688192, -157202.36685304248, -33365.61123914853, -140280.33051256306, 67821.76409027149, -105005.85794518686, 56157.14861835821, -111059.15737857312, 0.02, 0.964, -0.032, 192.0, 0.0, 0.0, 0.0, 0.0, 0.0, 0.0, 0.0, 0.0, 0.0, 1.6664044824926825E9, 0.0, 2022-10-21 19:08:02.492
60.0, -130029.01584255885, -157200.51165825268, -33362.48199492478, -140270.69691070283, 67825.51918333997, -104983.41679375373, 56177.73457500155, -111052.54126221435, 0.02, 0.964, -0.032, 192.0, 0.0, 0.0, 0.0, 0.0, 0.0, 0.0, 0.0, 0.0, 0.0, 1.6664044824926944E9, 0.0, 2022-10-21 19:08:02.492
61.0, -130033.93322633902, -157204.9596553993, -33371.445044451364, -140280.57638175206, 67818.29956988091, -104986.94836937767, 56172.81719122138, -111058.03979135035, 0.02, 0.964, -0.032, 192.0, 0.0, 0.0, 0.0, 0.0, 0.0, 0.0, 0.0, 0.0, 0.0, 1.6664044824927063E9, 0.0, 2022-10-21 19:08:02.492
62.0, -130034.20144727248, -157203.5514954986, -33373.03201830769, -140289.87470744547, 67814.8574012348, -105015.78211972502, 56155.2040165906, -111059.33619252876, 0.02, 0.964, -0.032, 192.0, 0.0, 0.0, 0.0, 0.0, 0.0, 0.0, 0.0, 0.0, 0.0, 1.6664044824927187E9, 0.0, 2022-10-21 19:08:02.492
63.0, -130034.00028157239, -157201.22691407526, -33372.96496307432, -140276.44130902784, 67821.74173852704, -104996.00082588206, 56169.576188275365, -111059.26913729539, 0.02, 0.964, -0.032, 192.0, 0.0, 0.0, 0.0, 0.0, 0.0, 0.0, 0.0, 0.0, 0.0, 1.6664044824927309E9, 0.0, 2022-10-21 19:08:02.492
64.0, -130028.27823499183, -157191.01216685917, -33366.147681015456, -140260.72803267575, 67830.23540142005, -104984.55673272094, 56182.74136575954, -111048.24972727892, 0.02, 0.964, -0.032, 192.0, 0.0, 0.0, 0.0, 0.0, 0.0, 0.0, 0.0, 0.0, 0.0, 1.6664044824927428E9, 0.0, 2022-10-21 19:08:02.492
65.0, -130035.7437176399, -157198.23178031825, -33372.987314818776, -140281.7610242082, 67819.39480535923, -104993.00569212505, 56170.8055342204, -111060.49848324043, 0.02, 0.964, -0.032, 192.0, 0.0, 0.0, 0.0, 0.0, 0.0, 0.0, 0.0, 0.0, 0.0, 1.6664044824927547E9, 0.0, 2022-10-21 19:08:02.492
66.0, -130037.77772638533, -157201.07045186407, -33375.33424798659, -140301.69878026235, 67810.81173548839, -105025.2369076296, 56144.318717040864, -111067.58398623277, 0.024, 0.96, -0.032, 192.0, 0.0, 192.0, 30.0, 0.0, 255.0, 0.0, 0.0, 0.0, 0.0, 1.666404482492767E9, 0.0, 2022-10-21 19:08:02.492
67.0, -130031.76510712685, -157196.44364076183, -33367.15350951594, -140281.24693408574, 67816.9584652136, -105023.89580296229, 56149.660783965686, -111055.13406457116, 0.024, 0.96, -0.032, 192.0, 0.0, 0.0, 0.0, 0.0, 0.0, 0.0, 0.0, 0.0, 0.0, 1.6664044824927795E9, 0.0, 2022-10-21 19:08:02.492
68.0, -130035.43079321753, -157201.18221058635, -33373.76962587472, -140277.62595148396, 67808.66596802068, -105001.3875962958, 56166.64810975172, -111063.38185827517, 0.024, 0.96, -0.032, 192.0, 0.0, 0.0, 0.0, 0.0, 0.0, 0.0, 0.0, 0.0, 0.0, 1.666404482492792E9, 0.0, 2022-10-21 19:08:02.492
69.0, -130038.47063046345, -157202.97035014277, -33372.428521207396, -140286.16431786589, 67806.94488369762, -105010.93179117821, 56161.395449804724, -111063.49361699744, 0.024, 0.96, -0.032, 192.0, 0.0, 0.0, 0.0, 0.0, 0.0, 0.0, 0.0, 0.0, 0.0, 1.6664044824928038E9, 0.0, 2022-10-21 19:08:02.492
70.0, -130032.54741818279, -157197.2483035622, -33364.0242652922, -140277.98357939525, 67818.72425302556, -105017.57025928143, 56156.47806602455, -111056.31870702728, 0.024, 0.96, -0.032, 192.0, 0.0, 0.0, 0.0, 0.0, 0.0, 0.0, 0.0, 0.0, 0.0, 1.6664044824928176E9, 0.0, 2022-10-21 19:08:02.492
71.0, -130029.86520884815, -157193.58261747155, -33362.34788445805, -140272.03801537014, 67819.9535989706, -105020.8336139719, 56157.23802533603, -111052.92124187008, 0.024, 0.96, -0.032, 192.0, 0.0, 0.0, 0.0, 0.0, 0.0, 0.0, 0.0, 0.0, 0.0, 1.6664044824928293E9, 0.0, 2022-10-21 19:08:02.492
72.0, -130034.64848216159, -157197.78474542915, -33366.08062578209, -140273.20030608182, 67818.38897685874, -105008.09311963238, 56170.134981886746, -111056.45281749402, 0.024, 0.96, -0.032, 192.0, 0.0, 0.0, 0.0, 0.0, 0.0, 0.0, 0.0, 0.0, 0.0, 1.6664044824928415E9, 0.0, 2022-10-21 19:08:02.492
73.0, -130032.30154899378, -157193.82848666055, -33362.5266984137, -140275.83781192754, 67818.99247395904, -105004.15921260825, 56170.5596650314, -111062.01840186339, 0.024, 0.96, -0.032, 192.0, 0.0, 0.0, 0.0, 0.0, 0.0, 0.0, 0.0, 0.0, 0.0, 1.6664044824928536E9, 0.0, 2022-10-21 19:08:02.492
74.0, -130033.86617110565, -157197.02478611766, -33363.51017516973, -140290.52290803468, 67816.98081695805, -105018.86666045984, 56157.17097010267, -111062.01840186339, 0.024, 0.96, -0.032, 192.0, 0.0, 0.0, 0.0, 0.0, 0.0, 0.0, 0.0, 0.0, 0.0, 1.6664044824928768E9, 0.0, 2022-10-21 19:08:02.492
75.0, -130036.3919182291, -157198.4552977628, -33360.827965835095, -140284.95732366532, 67821.09353793784, -105009.59068651088, 56164.83761845084, -111049.76964590188, 0.022, 0.964, -0.038, 192.0, 0.0, 176.0, 30.0, 32.0, 254.0, 208.0, 0.0, 0.0, 0.0, 1.6664044824928887E9, 0.0, 2022-10-21 19:08:02.492
76.0, -130034.11204029465, -157196.22012331727, -33357.87753556699, -140274.02732062666, 67821.4064623602, -104988.5800467229, 56182.987234948545, -111045.1651865441, 0.022, 0.964, -0.038, 192.0, 0.0, 0.0, 0.0, 0.0, 0.0, 0.0, 0.0, 0.0, 0.0, 1.666404482492902E9, 0.0, 2022-10-21 19:08:02.492
77.0, -130030.46870594844, -157196.10836459498, -33355.77647158819, -140280.39756779643, 67821.87584899376, -104982.2768547865, 56188.64222629574, -111049.03203833486, 0.022, 0.964, -0.038, 192.0, 0.0, 0.0, 0.0, 0.0, 0.0, 0.0, 0.0, 0.0, 0.0, 1.6664044824929142E9, 0.0, 2022-10-21 19:08:02.492
78.0, -130022.690298878, -157187.39118425743, -33347.55102962864, -140288.01951265568, 67828.64842756372, -105003.10868061885, 56176.8628569678, -111048.3614860012, 0.022, 0.964, -0.038, 192.0, 0.0, 0.0, 0.0, 0.0, 0.0, 0.0, 0.0, 0.0, 0.0, 1.6664044824929261E9, 0.0, 2022-10-21 19:08:02.492
79.0, -130024.29962447878, -157190.6992424368, -33349.2721139517, -140283.81738469808, 67825.6085903178, -105026.80152974148, 56162.848313194314, -111051.42367499157, 0.022, 0.964, -0.038, 192.0, 0.0, 0.0, 0.0, 0.0, 0.0, 0.0, 0.0, 0.0, 0.0, 1.6664044824929385E9, 0.0, 2022-10-21 19:08:02.492
80.0, -130024.05375528977, -157193.06852734907, -33348.40039591794, -140270.18282058035, 67827.24026766304, -105023.87345121783, 56169.017394663984, -111046.52864295586, 0.022, 0.964, -0.038, 192.0, 0.0, 0.0, 0.0, 0.0, 0.0, 0.0, 0.0, 0.0, 0.0, 1.6664044824929507E9, 0.0, 2022-10-21 19:08:02.492
81.0, -130025.50661867937, -157193.89554189393, -33353.18366923138, -140265.22073331126, 67829.69895955312, -104991.57518047991, 56187.0105489505, -111043.5558609433, 0.022, 0.964, -0.038, 192.0, 0.0, 0.0, 0.0, 0.0, 0.0, 0.0, 0.0, 0.0, 0.0, 1.6664044824929626E9, 0.0, 2022-10-21 19:08:02.492
82.0, -130028.12177278064, -157197.38241402895, -33362.861974580526, -140277.67065497287, 67823.01578796099, -104984.69084318768, 56183.210752393104, -111045.27694526636, 0.022, 0.964, -0.038, 192.0, 0.0, 0.0, 0.0, 0.0, 0.0, 0.0, 0.0, 0.0, 0.0, 1.6664044824929748E9, 0.0, 2022-10-21 19:08:02.492
83.0, -130026.71361287996, -157197.51652449567, -33366.66177113793, -140275.34607354953, 67819.64067454824, -104999.19712533917, 56167.899807441216, -111047.24389877844, 0.022, 0.964, -0.038, 192.0, 0.0, 0.0, 0.0, 0.0, 0.0, 0.0, 0.0, 0.0, 0.0, 1.6664044824929872E9, 0.0, 2022-10-21 19:08:02.492
84.0, -130030.66987164854, -157203.66325422088, -33366.214736248825, -140276.28484681665, 67815.93028496865, -105000.3370643064, 56169.442077808635, -111052.40715174761, 0.022, 0.964, -0.038, 192.0, 0.0, 0.0, 0.0, 0.0, 0.0, 0.0, 0.0, 0.0, 0.0, 1.6664044824929996E9, 0.0, 2022-10-21 19:08:02.492
85.0, -130036.05664206228, -157209.27354207917, -33372.562631674125, -140274.6084659825, 67816.04204369093, -104990.45759325715, 56176.37111858978, -111061.10198034073, 0.02, 0.964, -0.03, 192.0, 0.0, 160.0, 30.0, 32.0, 255.0, 16.0, 0.0, 0.0, 0.0, 1.666404482493012E9, 0.0, 2022-10-21 19:08:02.493
86.0, -130030.64751990409, -157205.51844901068, -33368.449910694355, -140274.31789330457, 67824.60276181731, -104991.530476991, 56176.438173823146, -111049.47907322396, 0.02, 0.964, -0.03, 192.0, 0.0, 0.0, 0.0, 0.0, 0.0, 0.0, 0.0, 0.0, 0.0, 1.6664044824930253E9, 0.0, 2022-10-21 19:08:02.493
87.0, -130029.82050535924, -157204.356158299, -33368.852242094545, -140282.02924514166, 67821.54057282694, -105003.7345294636, 56165.865798695784, -111047.28860226735, 0.02, 0.964, -0.03, 192.0, 0.0, 0.0, 0.0, 0.0, 0.0, 0.0, 0.0, 0.0, 0.0, 1.6664044824930375E9, 0.0, 2022-10-21 19:08:02.493
88.0, -130026.95948206897, -157205.18317284386, -33368.36050371653, -140278.40826253992, 67819.12658442576, -105016.49737554758, 56158.98146140355, -111049.63553543515, 0.02, 0.964, -0.03, 192.0, 0.0, 0.0, 0.0, 0.0, 0.0, 0.0, 0.0, 0.0, 0.0, 1.6664044824930491E9, 0.0, 2022-10-21 19:08:02.493
89.0, -130030.64751990409, -157211.5087165247, -33371.55680317364, -140272.73091944825, 67824.46865135059, -105009.00954115506, 56166.26813009598, -111049.76964590188, 0.02, 0.964, -0.03, 192.0, 0.0, 0.0, 0.0, 0.0, 0.0, 0.0, 0.0, 0.0, 0.0, 1.666404482493073E9, 0.0, 2022-10-21 19:08:02.493
90.0, -130030.78163037082, -157210.0111496462, -33370.528622928694, -140280.57638175206, 67825.45212810661, -105010.30594233346, 56166.08931614034, -111049.79199764635, 0.02, 0.964, -0.03, 192.0, 0.0, 0.0, 0.0, 0.0, 0.0, 0.0, 0.0, 0.0, 0.0, 1.6664044824930851E9, 0.0, 2022-10-21 19:08:02.493
91.0, -130031.87686584913, -157212.53689676966, -33373.76962587472, -140286.54429752164, 67822.63580830525, -105016.67618950323, 56158.84735093682, -111055.715209927, 0.02, 0.964, -0.03, 192.0, 0.0, 0.0, 0.0, 0.0, 0.0, 0.0, 0.0, 0.0, 0.0, 1.6664044824930978E9, 0.0, 2022-10-21 19:08:02.493
92.0, -130023.78553435631, -157208.33476881206, -33369.343980472564, -140277.02245438367, 67824.1557269282, -105025.81805298544, 56155.47223752407, -111051.1107505692, 0.02, 0.964, -0.03, 192.0, 0.0, 0.0, 0.0, 0.0, 0.0, 0.0, 0.0, 0.0, 0.0, 1.6664044824931123E9, 0.0, 2022-10-21 19:08:02.493
93.0, -130021.30449072177, -157207.2618850782, -33365.32066647061, -140259.7669076642, 67832.49292761003, -105008.9871894106, 56171.520790042974, -111046.03690457785, 0.02, 0.964, -0.03, 192.0, 0.0, 0.0, 0.0, 0.0, 0.0, 0.0, 0.0, 0.0, 0.0, 1.6664044824931245E9, 0.0, 2022-10-21 19:08:02.493
94.0, -130023.24909248938, -157211.7098822248, -33369.05340779464, -140269.5122682467, 67832.13529969876, -104998.92890440571, 56174.78414473345, -111046.34982900022, 0.02, 0.964, -0.03, 192.0, 0.0, 0.0, 0.0, 0.0, 0.0, 0.0, 0.0, 0.0, 0.0, 1.666404482493137E9, 0.0, 2022-10-21 19:08:02.493
95.0, -130024.50079017888, -157211.48636478026, -33371.93678282938, -140289.360617323, 67825.67564555116, -105016.18445112521, 56156.83569393584, -111049.6131836907, 0.018000000000000002, 0.96, -0.032, 192.0, 0.0, 144.0, 30.0, 0.0, 255.0, 0.0, 0.0, 0.0, 0.0, 1.6664044824931493E9, 0.0, 2022-10-21 19:08:02.493
96.0, -130016.61062438616, -157206.72544321127, -33360.91737281292, -140269.73578569124, 67837.11973871228, -105017.25733485907, 56162.46833353858, -111040.85129986421, 0.018000000000000002, 0.96, -0.032, 192.0, 0.0, 0.0, 0.0, 0.0, 0.0, 0.0, 0.0, 0.0, 0.0, 1.6664044824931622E9, 0.0, 2022-10-21 19:08:02.493
97.0, -130030.17813327053, -157222.84105096353, -33374.46252995283, -140274.65316947142, 67827.5084885965, -105004.82976494191, 56171.74430748753, -111063.51596874189, 0.018000000000000002, 0.96, -0.032, 192.0, 0.0, 0.0, 0.0, 0.0, 0.0, 0.0, 0.0, 0.0, 0.0, 1.6664044824931755E9, 0.0, 2022-10-21 19:08:02.493
98.0, -130033.97792982793, -157224.3162660976, -33374.88721309748, -140290.70172199034, 67820.82531700436, -105003.22043934112, 56177.958092446104, -111066.30993679882, 0.018000000000000002, 0.96, -0.032, 192.0, 0.0, 0.0, 0.0, 0.0, 0.0, 0.0, 0.0, 0.0, 0.0, 1.6664044824931877E9, 0.0, 2022-10-21 19:08:02.493
99.0, -130020.05279303227, -157208.69239672332, -33361.11853851301, -140290.70172199034, 67829.29662815292, -105028.70142802018, 56165.01643240648, -111051.1107505692, 0.018000000000000002, 0.96, -0.032, 192.0, 0.0, 0.0, 0.0, 0.0, 0.0, 0.0, 0.0, 0.0, 0.0, 1.6664044824932E9, 0.0, 2022-10-21 19:08:02.493
100.0, -130015.82831333022, -157204.42321353237, -33358.92806755639, -140279.70466371832, 67834.07990146636, -105039.83259675892, 56155.42753403515, -111050.55195695782, 0.018000000000000002, 0.96, -0.032, 192.0, 0.0, 0.0, 0.0, 0.0, 0.0, 0.0, 0.0, 0.0, 0.0, 1.6664044824932125E9, 0.0, 2022-10-21 19:08:02.493
101.0, -130018.4434674315, -157207.351292056, -33362.861974580526, -140272.75327119272, 67834.05754972191, -105021.25829711655, 56165.55287427341, -111052.69772442552, 0.018000000000000002, 0.96, -0.032, 192.0, 0.0, 0.0, 0.0, 0.0, 0.0, 0.0, 0.0, 0.0, 0.0, 1.666404482493225E9, 0.0, 2022-10-21 19:08:02.493
102.0, -130015.26951971884, -157204.356158299, -33359.95624780133, -140279.07881487356, 67833.90108751072, -105031.3389338659, 56161.06017363789, -111048.3167825123, 0.018000000000000002, 0.96, -0.032, 192.0, 0.0, 0.0, 0.0, 0.0, 0.0, 0.0, 0.0, 0.0, 0.0, 1.6664044824932373E9, 0.0, 2022-10-21 19:08:02.493
103.0, -130018.4881709204, -157206.77014670018, -33362.012608291225, -140282.14100386394, 67836.42683463417, -105037.41860835775, 56154.824036934864, -111051.89306162513, 0.018000000000000002, 0.96, -0.032, 192.0, 0.0, 0.0, 0.0, 0.0, 0.0, 0.0, 0.0, 0.0, 0.0, 1.6664044824932497E9, 0.0, 2022-10-21 19:08:02.493
104.0, -130025.48426693492, -157213.1627456144, -33370.953306073345, -140282.8115561976, 67831.39769213172, -105042.00071597108, 56146.62094671976, -111056.00578260492, 0.018000000000000002, 0.96, -0.032, 192.0, 0.0, 0.0, 0.0, 0.0, 0.0, 0.0, 0.0, 0.0, 0.0, 1.666404482493274E9, 0.0, 2022-10-21 19:08:02.493
105.0, -130014.71072610746, -157202.52331525367, -33358.70455011184, -140260.9068466314, 67844.71933182709, -105028.5896692979, 56165.530522528956, -111032.58115441575, 0.024, 0.9540000000000001, -0.036000000000000004, 192.0, 0.0, 192.0, 29.0, 208.0, 254.0, 224.0, 0.0, 0.0, 0.0, 1.666404482493286E9, 0.0, 2022-10-21 19:08:02.493
106.0, -130014.86718831865, -157202.5009635092, -33357.810480333625, -140252.9496256053, 67850.9107650412, -105008.11547137683, 56182.51784831499, -111042.0582940648, 0.024, 0.9540000000000001, -0.036000000000000004, 192.0, 0.0, 0.0, 0.0, 0.0, 0.0, 0.0, 0.0, 0.0, 0.0, 1.6664044824932992E9, 0.0, 2022-10-21 19:08:02.493
107.0, -130020.87980757712, -157212.08986188052, -33365.87946008199, -140274.38494853795, 67841.70184632562, -105022.30882910595, 56167.29631034092, -111055.96107911601, 0.024, 0.9540000000000001, -0.036000000000000004, 192.0, 0.0, 0.0, 0.0, 0.0, 0.0, 0.0, 0.0, 0.0, 0.0, 1.6664044824933116E9, 0.0, 2022-10-21 19:08:02.493
108.0, -130019.22577848742, -157209.67587347937, -33366.147681015456, -140284.01855039818, 67839.19845094663, -105055.63528008883, 56143.4022955182, -111054.41880874858, 0.024, 0.9540000000000001, -0.036000000000000004, 192.0, 0.0, 0.0, 0.0, 0.0, 0.0, 0.0, 0.0, 0.0, 0.0, 1.666404482493324E9, 0.0, 2022-10-21 19:08:02.493
109.0, -130017.54939765327, -157207.7983269451, -33364.873631581504, -140268.0594048571, 67844.1605382157, -105042.15717818227, 56153.773504945464, -111050.2613842799, 0.024, 0.9540000000000001, -0.036000000000000004, 192.0, 0.0, 0.0, 0.0, 0.0, 0.0, 0.0, 0.0, 0.0, 0.0, 1.6664044824933374E9, 0.0, 2022-10-21 19:08:02.493
110.0, -130014.6436708741, -157206.16664959988, -33365.38772170398, -140265.89128564493, 67844.80873880492, -105015.84917495838, 56170.202037120114, -111052.69772442552, 0.024, 0.9540000000000001, -0.036000000000000004, 192.0, 0.0, 0.0, 0.0, 0.0, 0.0, 0.0, 0.0, 0.0, 0.0, 1.6664044824933507E9, 0.0, 2022-10-21 19:08:02.493
111.0, -130016.09653426368, -157206.32311181107, -33371.109768284536, -140283.88443993145, 67838.72906431307, -105029.46138733166, 56156.142789857724, -111065.25940480942, 0.024, 0.9540000000000001, -0.036000000000000004, 192.0, 0.0, 0.0, 0.0, 0.0, 0.0, 0.0, 0.0, 0.0, 0.0, 1.6664044824933636E9, 0.0, 2022-10-21 19:08:02.493
112.0, -130023.91964482304, -157210.6593502354, -33368.89694558346, -140283.25859108672, 67843.08765448185, -105050.22615793064, 56139.49074023852, -111062.84541640824, 0.024, 0.9540000000000001, -0.036000000000000004, 192.0, 0.0, 0.0, 0.0, 0.0, 0.0, 0.0, 0.0, 0.0, 0.0, 1.666404482493376E9, 0.0, 2022-10-21 19:08:02.493
113.0, -130021.70682212197, -157206.61368448898, -33355.105919254536, -140263.38789026593, 67855.9622592881, -105045.75580903958, 56147.693830453616, -111048.1603203011, 0.024, 0.9540000000000001, -0.036000000000000004, 192.0, 0.0, 0.0, 0.0, 0.0, 0.0, 0.0, 0.0, 0.0, 0.0, 1.6664044824934032E9, 0.0, 2022-10-21 19:08:02.493
114.0, -130025.21604600144, -157206.27840832216, -33360.24682047925, -140264.14784957742, 67849.07792199588, -105026.19803264119, 56165.3070050844, -111051.9601168585, 0.026000000000000002, 0.9520000000000001, -0.04, 192.0, 0.0, 208.0, 29.0, 192.0, 254.0, 192.0, 0.0, 0.0, 0.0, 1.666404482493415E9, 0.0, 2022-10-21 19:08:02.493
115.0, -130023.94199656749, -157207.1948298448, -33364.51600367022, -140280.01758814068, 67839.39961664673, -105047.99098348511, 56153.23706307854, -111057.4139425056, 0.026000000000000002, 0.9520000000000001, -0.04, 192.0, 0.0, 0.0, 0.0, 0.0, 0.0, 0.0, 0.0, 0.0, 0.0, 1.6664044824934282E9, 0.0, 2022-10-21 19:08:02.493
116.0, -130022.75735411137, -157206.27840832216, -33367.108806027034, -140283.77268120917, 67839.06434047989, -105052.796608543, 56147.35855428679, -111057.52570122787, 0.026000000000000002, 0.9520000000000001, -0.04, 192.0, 0.0, 0.0, 0.0, 0.0, 0.0, 0.0, 0.0, 0.0, 0.0, 1.6664044824934404E9, 0.0, 2022-10-21 19:08:02.493
117.0, -130010.77681908332, -157190.65453894789, -33351.395529674955, -140254.849523884, 67856.18577673266, -105047.23102417363, 56153.751153201, -111041.36538998669, 0.026000000000000002, 0.9520000000000001, -0.04, 192.0, 0.0, 0.0, 0.0, 0.0, 0.0, 0.0, 0.0, 0.0, 0.0, 1.6664044824934528E9, 0.0, 2022-10-21 19:08:02.493
118.0, -130016.5435691528, -157196.845972162, -33352.75898608673, -140257.44232624082, 67849.05557025142, -105036.81511125746, 56161.328394571356, -111049.50142496842, 0.026000000000000002, 0.9520000000000001, -0.04, 192.0, 0.0, 0.0, 0.0, 0.0, 0.0, 0.0, 0.0, 0.0, 0.0, 1.666404482493465E9, 0.0, 2022-10-21 19:08:02.493
119.0, -130023.98670005641, -157206.7030914668, -33360.671503623904, -140277.84946892853, 67841.8136050479, -105038.40208511378, 56156.94745265812, -111062.84541640824, 0.026000000000000002, 0.9520000000000001, -0.04, 192.0, 0.0, 0.0, 0.0, 0.0, 0.0, 0.0, 0.0, 0.0, 0.0, 1.6664044824934897E9, 0.0, 2022-10-21 19:08:02.493
120.0, -130016.11888600815, -157198.76822218517, -33353.38483493147, -140278.36355905098, 67849.92728828518, -105040.83842525941, 56151.739496200025, -111058.59858496173, 0.026000000000000002, 0.9520000000000001, -0.04, 192.0, 0.0, 0.0, 0.0, 0.0, 0.0, 0.0, 0.0, 0.0, 0.0, 1.666404482493507E9, 0.0, 2022-10-21 19:08:02.493
121.0, -130014.42015342954, -157197.49417275123, -33353.56364888712, -140272.97678863726, 67849.63671560725, -105038.2903263915, 56153.907615412194, -111053.70355292602, 0.026000000000000002, 0.9520000000000001, -0.04, 192.0, 0.0, 0.0, 0.0, 0.0, 0.0, 0.0, 0.0, 0.0, 0.0, 1.6664044829705455E9, 0.0, 2022-10-21 19:08:02.970
122.0, -130018.2423017314, -157202.7468326982, -33360.626800134996, -140274.45200377132, 67840.74072131404, -105030.75778851006, 56164.189417861635, -111054.41880874858, 0.026000000000000002, 0.9520000000000001, -0.04, 192.0, 0.0, 0.0, 0.0, 0.0, 0.0, 0.0, 0.0, 0.0, 0.0, 1.6664044829708092E9, 0.0, 2022-10-21 19:08:02.970
123.0, -130016.3424034527, -157199.81875417457, -33357.519907655704, -140279.41409104038, 67843.33352367087, -105023.04643667299, 56173.26422611049, -111050.37314300217, 0.026000000000000002, 0.9520000000000001, -0.04, 192.0, 0.0, 0.0, 0.0, 0.0, 0.0, 0.0, 0.0, 0.0, 0.0, 1.6664044829708576E9, 0.0, 2022-10-21 19:08:02.970
124.0, -130010.79917082777, -157194.72255643876, -33349.78620407417, -140288.64536150044, 67847.44624465064, -105039.542024081, 56161.68602248264, -111049.47907322396, 0.02, 0.96, -0.044, 192.0, 0.0, 160.0, 30.0, 0.0, 254.0, 160.0, 0.0, 0.0, 0.0, 1.6664044829708889E9, 0.0, 2022-10-21 19:08:02.970
125.0, -130014.10722900716, -157197.47182100677, -33352.60252387554, -140289.69589348984, 67844.89814578273, -105048.41566662976, 56154.39935379021, -111051.33426801376, 0.02, 0.96, -0.044, 192.0, 0.0, 0.0, 0.0, 0.0, 0.0, 0.0, 0.0, 0.0, 0.0, 1.6664044829709237E9, 0.0, 2022-10-21 19:08:02.970
126.0, -130012.43084817301, -157193.35910002698, -33350.74732908575, -140279.48114627376, 67849.32379118488, -105047.52159685154, 56161.037821893435, -111044.29346851034, 0.02, 0.96, -0.044, 192.0, 0.0, 0.0, 0.0, 0.0, 0.0, 0.0, 0.0, 0.0, 0.0, 1.666404482970954E9, 0.0, 2022-10-21 19:08:02.970
127.0, -130019.51635116535, -157198.58940822954, -33354.323608198596, -140278.92235266237, 67849.56966037389, -105028.05322743098, 56174.49357205553, -111043.42175047658, 0.02, 0.96, -0.044, 192.0, 0.0, 0.0, 0.0, 0.0, 0.0, 0.0, 0.0, 0.0, 0.0, 1.666404482970984E9, 0.0, 2022-10-21 19:08:02.970
128.0, -130008.04990625977, -157185.08895457853, -33340.24200919175, -140271.4568700143, 67861.70665761312, -105033.06001818896, 56172.95130168812, -111038.52671844086, 0.02, 0.96, -0.044, 192.0, 0.0, 0.0, 0.0, 0.0, 0.0, 0.0, 0.0, 0.0, 0.0, 1.6664044829710145E9, 0.0, 2022-10-21 19:08:02.971
129.0, -130002.75254282386, -157182.54085571063, -33337.24687543474, -140270.54044849164, 67863.36068670281, -105030.55662280996, 56171.811362720895, -111039.33138124125, 0.02, 0.96, -0.044, 192.0, 0.0, 0.0, 0.0, 0.0, 0.0, 0.0, 0.0, 0.0, 0.0, 1.6664044829710443E9, 0.0, 2022-10-21 19:08:02.971
130.0, -130003.91483353554, -157186.45241099028, -33342.34307317055, -140275.77075669417, 67851.29074469695, -105028.544965809, 56172.03488016545, -111043.66761966559, 0.02, 0.96, -0.044, 192.0, 0.0, 0.0, 0.0, 0.0, 0.0, 0.0, 0.0, 0.0, 0.0, 1.6664044829710755E9, 0.0, 2022-10-21 19:08:02.971
131.0, -130003.04311550179, -157185.31247202307, -33341.35959641452, -140263.27613154365, 67853.28004995346, -105023.82874772893, 56181.42261283668, -111040.00193357491, 0.02, 0.96, -0.044, 192.0, 0.0, 0.0, 0.0, 0.0, 0.0, 0.0, 0.0, 0.0, 0.0, 1.666404482971106E9, 0.0, 2022-10-21 19:08:02.971
132.0, -130009.34630743819, -157192.04034710414, -33352.62487561999, -140285.91844867688, 67841.97006725908, -105052.28251842053, 56158.534426514445, -111051.73659941395, 0.02, 0.96, -0.044, 192.0, 0.0, 0.0, 0.0, 0.0, 0.0, 0.0, 0.0, 0.0, 0.0, 1.6664044829711356E9, 0.0, 2022-10-21 19:08:02.971
133.0, -130015.85066507467, -157195.86249540598, -33358.9727710453, -140292.80278596914, 67839.10904396881, -105055.25530043308, 56151.672440966664, -111058.48682623946, 0.02, 0.96, -0.044, 192.0, 0.0, 0.0, 0.0, 0.0, 0.0, 0.0, 0.0, 0.0, 0.0, 1.666404482971166E9, 0.0, 2022-10-21 19:08:02.971
134.0, -130018.37641219812, -157198.857629163, -33361.520869913205, -140284.62204749847, 67842.19358470364, -105045.73345729512, 56160.702545726606, -111054.99995410442, 0.016, 0.964, -0.04, 192.0, 0.0, 128.0, 30.0, 32.0, 254.0, 192.0, 0.0, 0.0, 0.0, 1.6664044829713109E9, 0.0, 2022-10-21 19:08:02.971
135.0, -130018.33170870921, -157198.7458704407, -33359.576268145596, -140279.41409104038, 67843.98172426007, -105037.68682929121, 56168.235083608044, -111054.57527095977, 0.016, 0.964, -0.04, 192.0, 0.0, 0.0, 0.0, 0.0, 0.0, 0.0, 0.0, 0.0, 0.0, 1.666404482971326E9, 0.0, 2022-10-21 19:08:02.971
136.0, -130018.62228138713, -157197.27065530667, -33356.759948344225, -140279.50349801822, 67848.18385221765, -105042.55950958247, 56162.513037027486, -111052.34009651425, 0.016, 0.964, -0.04, 192.0, 0.0, 0.0, 0.0, 0.0, 0.0, 0.0, 0.0, 0.0, 0.0, 1.666404482971342E9, 0.0, 2022-10-21 19:08:02.971
137.0, -130021.70682212197, -157201.2045623308, -33359.911544312425, -140288.08656788906, 67847.33448592835, -105058.42924814574, 56146.084504852835, -111049.59083194625, 0.016, 0.964, -0.04, 192.0, 0.0, 0.0, 0.0, 0.0, 0.0, 0.0, 0.0, 0.0, 0.0, 1.666404482971356E9, 0.0, 2022-10-21 19:08:02.971
138.0, -130022.04209828879, -157199.19290532984, -33363.26430598072, -140275.32372180506, 67850.59784061884, -105057.87045453435, 56144.07284785186, -111042.68414290955, 0.016, 0.964, -0.04, 192.0, 0.0, 0.0, 0.0, 0.0, 0.0, 0.0, 0.0, 0.0, 0.0, 1.6664044829713702E9, 0.0, 2022-10-21 19:08:02.971
139.0, -130014.21898772944, -157190.78864941464, -33353.85422156504, -140252.100259316, 67863.53950065846, -105030.10958792086, 56167.87745569676, -111037.43148296255, 0.016, 0.964, -0.04, 192.0, 0.0, 0.0, 0.0, 0.0, 0.0, 0.0, 0.0, 0.0, 0.0, 1.666404482971384E9, 0.0, 2022-10-21 19:08:02.971
140.0, -130022.80205760027, -157200.1540303414, -33360.73855885727, -140283.59386725354, 67848.9661632736, -105041.12899793733, 56158.042688136426, -111054.91054712661, 0.016, 0.964, -0.04, 192.0, 0.0, 0.0, 0.0, 0.0, 0.0, 0.0, 0.0, 0.0, 0.0, 1.6664044829713984E9, 0.0, 2022-10-21 19:08:02.971
141.0, -130022.35502271117, -157198.0976698515, -33361.05148327965, -140287.88540218896, 67849.97199177409, -105056.68581207823, 56148.11851359827, -111057.34688727223, 0.016, 0.964, -0.04, 192.0, 0.0, 0.0, 0.0, 0.0, 0.0, 0.0, 0.0, 0.0, 0.0, 1.6664044829714124E9, 0.0, 2022-10-21 19:08:02.971
142.0, -130015.98477554141, -157191.97329187076, -33355.41884367691, -140277.17891659486, 67857.70569535562, -105048.32625965193, 56157.17097010267, -111052.38480000316, 0.016, 0.964, -0.04, 192.0, 0.0, 0.0, 0.0, 0.0, 0.0, 0.0, 0.0, 0.0, 0.0, 1.6664044829714265E9, 0.0, 2022-10-21 19:08:02.971
143.0, -130016.5435691528, -157193.42615526036, -33354.99416053226, -140270.33928279154, 67857.12454999979, -105031.51774782155, 56172.25839761, -111049.45672147951, 0.02, 0.9560000000000001, -0.034, 192.0, 0.0, 160.0, 29.0, 224.0, 254.0, 240.0, 0.0, 0.0, 0.0, 1.6664044829714403E9, 0.0, 2022-10-21 19:08:02.971
144.0, -130016.90119706407, -157194.74490818323, -33359.86684082352, -140279.54820150713, 67849.4131981627, -105034.6469920453, 56169.79970571992, -111053.70355292602, 0.02, 0.9560000000000001, -0.034, 192.0, 0.0, 0.0, 0.0, 0.0, 0.0, 0.0, 0.0, 0.0, 0.0, 1.6664044829714556E9, 0.0, 2022-10-21 19:08:02.971
145.0, -130015.06835401875, -157193.82848666055, -33360.44798617935, -140289.09239638955, 67846.14984347223, -105058.6974690792, 56150.845426421816, -111054.59762270423, 0.02, 0.9560000000000001, -0.034, 192.0, 0.0, 0.0, 0.0, 0.0, 0.0, 0.0, 0.0, 0.0, 0.0, 1.6664044829714692E9, 0.0, 2022-10-21 19:08:02.971
146.0, -130016.20829298596, -157194.58844597204, -33365.097149026056, -140289.02534115617, 67840.24898293603, -105056.61875684485, 56147.693830453616, -111057.50334948342, 0.02, 0.9560000000000001, -0.034, 192.0, 0.0, 0.0, 0.0, 0.0, 0.0, 0.0, 0.0, 0.0, 0.0, 1.6664044829714828E9, 0.0, 2022-10-21 19:08:02.971
147.0, -130015.02365052982, -157192.75560292669, -33365.83475659308, -140287.41601555538, 67834.6610468222, -105054.00360274359, 56156.38865904673, -111052.1165790697, 0.02, 0.9560000000000001, -0.034, 192.0, 0.0, 0.0, 0.0, 0.0, 0.0, 0.0, 0.0, 0.0, 0.0, 1.6664044829714968E9, 0.0, 2022-10-21 19:08:02.971
148.0, -130018.26465347585, -157195.16959132787, -33368.11463452752, -140291.52873653517, 67837.11973871228, -105050.42732363073, 56166.53635102944, -111046.61804993369, 0.02, 0.9560000000000001, -0.034, 192.0, 0.0, 0.0, 0.0, 0.0, 0.0, 0.0, 0.0, 0.0, 0.0, 1.666404482971511E9, 0.0, 2022-10-21 19:08:02.971
149.0, -130018.64463313158, -157192.57678897106, -33367.86876533851, -140296.3120098486, 67836.94092475664, -105078.45641117769, 56147.604423475794, -111045.90279411111, 0.02, 0.9560000000000001, -0.034, 192.0, 0.0, 0.0, 0.0, 0.0, 0.0, 0.0, 0.0, 0.0, 0.0, 1.6664044829715383E9, 0.0, 2022-10-21 19:08:02.971
150.0, -130016.83414183071, -157187.34648076852, -33362.25847748023, -140282.6103904975, 67848.98851501805, -105083.61966414687, 56145.05632460789, -111054.84349189323, 0.02, 0.9560000000000001, -0.034, 192.0, 0.0, 0.0, 0.0, 0.0, 0.0, 0.0, 0.0, 0.0, 0.0, 1.6664044829715521E9, 0.0, 2022-10-21 19:08:02.971
151.0, -130020.00808954336, -157192.24151280423, -33369.65690489494, -140280.88930617445, 67844.71933182709, -105066.27471044955, 56155.807513690896, -111063.78418967537, 0.02, 0.9560000000000001, -0.034, 192.0, 0.0, 0.0, 0.0, 0.0, 0.0, 0.0, 0.0, 0.0, 0.0, 1.666404482971566E9, 0.0, 2022-10-21 19:08:02.971
152.0, -130025.77483961283, -157200.3998995304, -33372.8755560965, -140292.109881891, 67837.18679394566, -105055.97055625565, 56159.92023467067, -111074.13304735816, 0.02, 0.9560000000000001, -0.034, 192.0, 0.0, 0.0, 0.0, 0.0, 0.0, 0.0, 0.0, 0.0, 0.0, 1.6664044829715796E9, 0.0, 2022-10-21 19:08:02.971
153.0, -130023.58436865621, -157198.41059427388, -33363.912506569926, -140294.83679471456, 67842.95354401512, -105061.15616096929, 56153.48293226754, -111070.6685269676, 0.022, 0.9580000000000001, -0.034, 192.0, 0.0, 176.0, 29.0, 240.0, 254.0, 240.0, 0.0, 0.0, 0.0, 1.666404482971594E9, 0.0, 2022-10-21 19:08:02.971
154.0, -130022.17620875553, -157197.18124832885, -33364.672465881406, -140296.7590447377, 67837.87969802377, -105084.13375426934, 56134.39454250271, -111070.4673612675, 0.022, 0.9580000000000001, -0.034, 192.0, 0.0, 0.0, 0.0, 0.0, 0.0, 0.0, 0.0, 0.0, 0.0, 1.6664044829716084E9, 0.0, 2022-10-21 19:08:02.971
155.0, -130020.5892348992, -157194.47668724976, -33362.9737333028, -140284.48793703175, 67838.28202942396, -105078.32230071096, 56141.86002515078, -111063.27009955289, 0.022, 0.9580000000000001, -0.034, 192.0, 0.0, 0.0, 0.0, 0.0, 0.0, 0.0, 0.0, 0.0, 0.0, 1.6664044829716222E9, 0.0, 2022-10-21 19:08:02.971
156.0, -130024.76901111234, -157197.91885589587, -33366.99704730476, -140284.55499226513, 67833.23053517706, -105063.97248077065, 56153.63939447873, -111070.15443684513, 0.022, 0.9580000000000001, -0.034, 192.0, 0.0, 0.0, 0.0, 0.0, 0.0, 0.0, 0.0, 0.0, 0.0, 1.666404482971639E9, 0.0, 2022-10-21 19:08:02.971
157.0, -130028.54645592529, -157201.91981815337, -33373.054370052145, -140297.27313486018, 67828.93900024165, -105080.02103328957, 56140.60832746128, -111079.13983811616, 0.022, 0.9580000000000001, -0.034, 192.0, 0.0, 0.0, 0.0, 0.0, 0.0, 0.0, 0.0, 0.0, 0.0, 1.6664044829716525E9, 0.0, 2022-10-21 19:08:02.971
158.0, -130040.1470112976, -157213.02863514767, -33379.1787480329, -140305.4538733308, 67824.93803798415, -105093.34267298493, 56125.051513320395, -111083.14080037366, 0.022, 0.9580000000000001, -0.034, 192.0, 0.0, 0.0, 0.0, 0.0, 0.0, 0.0, 0.0, 0.0, 0.0, 1.6664044829716668E9, 0.0, 2022-10-21 19:08:02.971
159.0, -130026.57950241322, -157199.41642277437, -33363.59958214755, -140283.81738469808, 67842.75237831502, -105079.57399840046, 56140.407161761184, -111063.89594839764, 0.022, 0.9580000000000001, -0.034, 192.0, 0.0, 0.0, 0.0, 0.0, 0.0, 0.0, 0.0, 0.0, 0.0, 1.6664044829716804E9, 0.0, 2022-10-21 19:08:02.971
160.0, -130018.62228138713, -157189.51459998067, -33356.26820996621, -140272.57445723706, 67850.30726794091, -105058.42924814574, 56162.04365039393, -111053.70355292602, 0.022, 0.9580000000000001, -0.034, 192.0, 0.0, 0.0, 0.0, 0.0, 0.0, 0.0, 0.0, 0.0, 0.0, 1.666404482971694E9, 0.0, 2022-10-21 19:08:02.971
161.0, -130008.74281033789, -157179.45631497577, -33347.12634648399, -140265.69011994483, 67861.75136110203, -105050.65084107529, 56166.20107486261, -111047.17684354506, 0.022, 0.9580000000000001, -0.034, 192.0, 0.0, 0.0, 0.0, 0.0, 0.0, 0.0, 0.0, 0.0, 0.0, 1.666404482971708E9, 0.0, 2022-10-21 19:08:02.971
162.0, -130014.30839470726, -157184.55251271158, -33351.44023316386, -140280.84460268554, 67853.48121565356, -105056.6411085893, 56154.37700204575, -111050.14962555762, 0.022, 0.9580000000000001, -0.034, 192.0, 0.0, 0.0, 0.0, 0.0, 0.0, 0.0, 0.0, 0.0, 0.0, 1.6664044829717216E9, 0.0, 2022-10-21 19:08:02.971
163.0, -130020.92451106603, -157189.49224823623, -33356.424672177396, -140290.88053594597, 67841.92536377018, -105065.2018267157, 56147.71618219807, -111052.67537268107, 0.026000000000000002, 0.9560000000000001, -0.038, 192.0, 0.0, 208.0, 29.0, 224.0, 254.0, 208.0, 0.0, 0.0, 0.0, 1.6664044829717357E9, 0.0, 2022-10-21 19:08:02.971
164.0, -130023.45025818948, -157193.15793432688, -33358.34692220055, -140281.82807944156, 67842.57356435938, -105052.37192539834, 56157.68506022514, -111059.20208206202, 0.026000000000000002, 0.9560000000000001, -0.038, 192.0, 0.0, 0.0, 0.0, 0.0, 0.0, 0.0, 0.0, 0.0, 0.0, 1.6664044829717638E9, 0.0, 2022-10-21 19:08:02.971
165.0, -130018.6893366205, -157188.1511435689, -33354.54712564315, -140281.85043118603, 67847.0662649949, -105042.93948923821, 56161.1048771268, -111058.91150938411, 0.026000000000000002, 0.9560000000000001, -0.038, 192.0, 0.0, 0.0, 0.0, 0.0, 0.0, 0.0, 0.0, 0.0, 0.0, 1.666404482971778E9, 0.0, 2022-10-21 19:08:02.971
166.0, -130019.71751686545, -157188.32995752455, -33357.16227974442, -140291.99812316874, 67844.38405566027, -105071.549722141, 56139.73660942753, -111050.93193661356, 0.026000000000000002, 0.9560000000000001, -0.038, 192.0, 0.0, 0.0, 0.0, 0.0, 0.0, 0.0, 0.0, 0.0, 0.0, 1.666404482971792E9, 0.0, 2022-10-21 19:08:02.971
167.0, -130021.8409325887, -157191.90623663738, -33359.643323378965, -140283.61621899798, 67847.73681732855, -105070.74505934061, 56142.97761237355, -111043.28764000985, 0.026000000000000002, 0.9560000000000001, -0.038, 192.0, 0.0, 0.0, 0.0, 0.0, 0.0, 0.0, 0.0, 0.0, 0.0, 1.6664044829718063E9, 0.0, 2022-10-21 19:08:02.971
168.0, -130023.80788610077, -157194.6555012054, -33361.587925146574, -140276.39660553893, 67846.52982312797, -105050.82965503093, 56158.22150209207, -111043.39939873212, 0.026000000000000002, 0.9560000000000001, -0.038, 192.0, 0.0, 0.0, 0.0, 0.0, 0.0, 0.0, 0.0, 0.0, 0.0, 1.6664044829718204E9, 0.0, 2022-10-21 19:08:02.971
169.0, -130032.65917690507, -157203.7973646876, -33374.95426833085, -140287.97480916677, 67835.57746834487, -105056.12701846684, 56151.605385733295, -111060.47613149598, 0.026000000000000002, 0.9560000000000001, -0.038, 192.0, 0.0, 0.0, 0.0, 0.0, 0.0, 0.0, 0.0, 0.0, 0.0, 1.6664044829718344E9, 0.0, 2022-10-21 19:08:02.971
170.0, -130031.42983096003, -157203.3950332874, -33372.8755560965, -140292.2663441022, 67835.64452357823, -105076.42240243226, 56138.797836160404, -111064.72296294248, 0.026000000000000002, 0.9560000000000001, -0.038, 192.0, 0.0, 0.0, 0.0, 0.0, 0.0, 0.0, 0.0, 0.0, 0.0, 1.6664044829718487E9, 0.0, 2022-10-21 19:08:02.971
171.0, -130026.82537160223, -157198.0529663626, -33367.06410253813, -140284.95732366532, 67841.52303236998, -105078.12113501086, 56138.01552510447, -111060.16320707361, 0.026000000000000002, 0.9560000000000001, -0.038, 192.0, 0.0, 0.0, 0.0, 0.0, 0.0, 0.0, 0.0, 0.0, 0.0, 1.6664044829718626E9, 0.0, 2022-10-21 19:08:02.971
172.0, -130031.29572049329, -157201.0928036085, -33372.80850086314, -140284.82321319857, 67833.94579099963, -105058.71982082365, 56149.54902524341, -111060.81140766281, 0.026000000000000002, 0.9560000000000001, -0.038, 192.0, 0.0, 0.0, 0.0, 0.0, 0.0, 0.0, 0.0, 0.0, 0.0, 1.6664044829718769E9, 0.0, 2022-10-21 19:08:02.971
173.0, -130025.86424659066, -157194.27552154966, -33368.89694558346, -140281.80572769712, 67833.40934913271, -105046.91809975126, 56160.56843525988, -111060.00674486242, 0.02, 0.9540000000000001, -0.038, 192.0, 0.0, 160.0, 29.0, 208.0, 254.0, 208.0, 0.0, 0.0, 0.0, 1.6664044829718904E9, 0.0, 2022-10-21 19:08:02.971
174.0, -130031.87686584913, -157201.31632105308, -33375.98244857579, -140299.3071436056, 67826.79323277393, -105074.00841403108, 56140.72008618356, -111066.08641935425, 0.02, 0.9540000000000001, -0.038, 192.0, 0.0, 0.0, 0.0, 0.0, 0.0, 0.0, 0.0, 0.0, 0.0, 1.6664044829719048E9, 0.0, 2022-10-21 19:08:02.971
175.0, -130030.31224373727, -157199.19290532984, -33374.37312297501, -140299.57536453908, 67828.24609616352, -105088.38058571584, 56131.891147123715, -111062.9124716416, 0.02, 0.9540000000000001, -0.038, 192.0, 0.0, 0.0, 0.0, 0.0, 0.0, 0.0, 0.0, 0.0, 0.0, 1.6664044829719183E9, 0.0, 2022-10-21 19:08:02.971
176.0, -130027.7417931249, -157195.90719889489, -33367.42173044941, -140286.99133241075, 67833.11877645478, -105074.5001524091, 56146.86681590877, -111055.5140442269, 0.02, 0.9540000000000001, -0.038, 192.0, 0.0, 0.0, 0.0, 0.0, 0.0, 0.0, 0.0, 0.0, 0.0, 1.6664044829719324E9, 0.0, 2022-10-21 19:08:02.971
177.0, -130026.95948206897, -157196.06366110608, -33367.3770269605, -140289.31591383409, 67835.59982008932, -105071.9520535412, 56151.314813055375, -111048.27207902337, 0.02, 0.9540000000000001, -0.038, 192.0, 0.0, 0.0, 0.0, 0.0, 0.0, 0.0, 0.0, 0.0, 0.0, 1.666404482971949E9, 0.0, 2022-10-21 19:08:02.971
178.0, -130028.41234545856, -157197.51652449567, -33367.06410253813, -140291.2605156017, 67841.67949458117, -105080.62453038986, 56144.07284785186, -111040.58307893075, 0.02, 0.9540000000000001, -0.038, 192.0, 0.0, 0.0, 0.0, 0.0, 0.0, 0.0, 0.0, 0.0, 0.0, 1.6664044829719632E9, 0.0, 2022-10-21 19:08:02.971
179.0, -130027.40651695807, -157195.81779191707, -33364.35954145903, -140284.37617830947, 67847.02156150599, -105077.31647221047, 56142.97761237355, -111048.7638174014, 0.02, 0.9540000000000001, -0.038, 192.0, 0.0, 0.0, 0.0, 0.0, 0.0, 0.0, 0.0, 0.0, 0.0, 1.6664044829719899E9, 0.0, 2022-10-21 19:08:02.971
180.0, -130030.35694722617, -157198.27648380716, -33369.45573919484, -140290.52290803468, 67836.73975905654, -105072.17557098575, 56142.083542595334, -111067.18165483257, 0.02, 0.9540000000000001, -0.038, 192.0, 0.0, 0.0, 0.0, 0.0, 0.0, 0.0, 0.0, 0.0, 0.0, 1.666404482972004E9, 0.0, 2022-10-21 19:08:02.972
181.0, -130037.10717405168, -157203.88677166545, -33378.7764166327, -140302.1681668959, 67823.19460191664, -105077.76350709957, 56138.50726348249, -111072.83664617976, 0.02, 0.9540000000000001, -0.038, 192.0, 0.0, 0.0, 0.0, 0.0, 0.0, 0.0, 0.0, 0.0, 0.0, 1.6664044829720185E9, 0.0, 2022-10-21 19:08:02.972
182.0, -130045.80200264479, -157210.7040537243, -33386.66658242543, -140315.73567578028, 67817.78547975844, -105085.31839672547, 56129.2983447669, -111078.5139892714, 0.018000000000000002, 0.962, -0.036000000000000004, 192.0, 0.0, 144.0, 30.0, 16.0, 254.0, 224.0, 0.0, 0.0, 0.0, 1.6664044829720323E9, 0.0, 2022-10-21 19:08:02.972
183.0, -130028.90408383658, -157193.04617560463, -33368.159338016434, -140301.47526281778, 67838.17027070168, -105097.4106904758, 56126.97376334355, -111061.59371871874, 0.018000000000000002, 0.962, -0.036000000000000004, 192.0, 0.0, 0.0, 0.0, 0.0, 0.0, 0.0, 0.0, 0.0, 0.0, 1.666404482972047E9, 0.0, 2022-10-21 19:08:02.972
184.0, -130029.12760128113, -157192.28621629314, -33368.293448483164, -140291.75225397974, 67841.85830853682, -105104.7644144016, 56126.571431943354, -111059.53735822886, 0.018000000000000002, 0.962, -0.036000000000000004, 192.0, 0.0, 0.0, 0.0, 0.0, 0.0, 0.0, 0.0, 0.0, 0.0, 1.666404482972061E9, 0.0, 2022-10-21 19:08:02.972
185.0, -130031.96627282695, -157192.5991407155, -33369.41103570593, -140283.25859108672, 67845.25577369402, -105080.55747515649, 56147.31385079788, -111058.48682623946, 0.018000000000000002, 0.962, -0.036000000000000004, 192.0, 0.0, 0.0, 0.0, 0.0, 0.0, 0.0, 0.0, 0.0, 0.0, 1.6664044829720747E9, 0.0, 2022-10-21 19:08:02.972
186.0, -130030.98279607092, -157192.91206513788, -33368.40520720544, -140286.11961437698, 67847.28978243945, -105071.23679771862, 56152.857083422794, -111057.23512854996, 0.018000000000000002, 0.962, -0.036000000000000004, 192.0, 0.0, 0.0, 0.0, 0.0, 0.0, 0.0, 0.0, 0.0, 0.0, 1.6664044829720888E9, 0.0, 2022-10-21 19:08:02.972
187.0, -130028.45704894747, -157191.03451860364, -33366.99704730476, -140287.84069870005, 67849.8155295629, -105085.22898974764, 56142.28470829543, -111055.5140442269, 0.018000000000000002, 0.962, -0.036000000000000004, 192.0, 0.0, 0.0, 0.0, 0.0, 0.0, 0.0, 0.0, 0.0, 0.0, 1.6664044829721029E9, 0.0, 2022-10-21 19:08:02.972
188.0, -130024.65725239007, -157185.93832086783, -33362.83962283607, -140284.5102887762, 67850.016695263, -105086.59244615943, 56144.78810367443, -111048.65205867912, 0.018000000000000002, 0.962, -0.036000000000000004, 192.0, 0.0, 0.0, 0.0, 0.0, 0.0, 0.0, 0.0, 0.0, 0.0, 1.6664044829721167E9, 0.0, 2022-10-21 19:08:02.972
189.0, -130025.37250821263, -157186.43005924585, -33363.26430598072, -140281.06812013008, 67847.1109684838, -105074.32133845346, 56159.47319978156, -111045.74633189992, 0.018000000000000002, 0.962, -0.036000000000000004, 192.0, 0.0, 0.0, 0.0, 0.0, 0.0, 0.0, 0.0, 0.0, 0.0, 1.6664044829721303E9, 0.0, 2022-10-21 19:08:02.972
190.0, -130037.2412845184, -157200.3998995304, -33376.94357358737, -140292.08753014656, 67838.77376780198, -105069.6498238623, 56159.45084803711, -111052.34009651425, 0.018000000000000002, 0.962, -0.036000000000000004, 192.0, 0.0, 0.0, 0.0, 0.0, 0.0, 0.0, 0.0, 0.0, 0.0, 1.6664044829721444E9, 0.0, 2022-10-21 19:08:02.972
191.0, -130041.59987468719, -157204.8926001659, -33380.47514921131, -140301.43055932887, 67838.46084337961, -105085.63132114784, 56146.30802229739, -111048.74146565695, 0.018000000000000002, 0.962, -0.036000000000000004, 192.0, 0.0, 0.0, 0.0, 0.0, 0.0, 0.0, 0.0, 0.0, 0.0, 1.6664044829721584E9, 0.0, 2022-10-21 19:08:02.972
192.0, -130043.70093866599, -157204.49026876574, -33379.55872768864, -140300.24591687275, 67836.96327650109, -105088.58175141594, 56144.81045541888, -111057.36923901668, 0.022, 0.9580000000000001, -0.04, 192.0, 0.0, 176.0, 29.0, 240.0, 254.0, 192.0, 0.0, 0.0, 0.0, 1.6664044829721718E9, 0.0, 2022-10-21 19:08:02.972
193.0, -130038.8953136081, -157199.23760881874, -33371.84737585156, -140289.91941093438, 67838.99728524653, -105084.02199554707, 56157.5062462695, -111060.54318672934, 0.022, 0.9580000000000001, -0.04, 192.0, 0.0, 0.0, 0.0, 0.0, 0.0, 0.0, 0.0, 0.0, 0.0, 1.6664044829721985E9, 0.0, 2022-10-21 19:08:02.972
194.0, -130029.50758093687, -157187.43588774634, -33361.96790480231, -140282.27511433067, 67848.13914872875, -105087.68768163773, 56158.71324047008, -111050.52960521336, 0.022, 0.9580000000000001, -0.04, 192.0, 0.0, 0.0, 0.0, 0.0, 0.0, 0.0, 0.0, 0.0, 0.0, 1.6664044829722126E9, 0.0, 2022-10-21 19:08:02.972
195.0, -130032.03332806032, -157190.47572499225, -33367.667599638415, -140286.85722194402, 67845.6134016053, -105089.98991131663, 56149.34785954331, -111052.38480000316, 0.022, 0.9580000000000001, -0.04, 192.0, 0.0, 0.0, 0.0, 0.0, 0.0, 0.0, 0.0, 0.0, 0.0, 1.6664044829722264E9, 0.0, 2022-10-21 19:08:02.972
196.0, -130035.83312461773, -157195.48251575025, -33374.35077123055, -140295.23912611476, 67837.96910500158, -105091.62158866187, 56144.274013551956, -111063.02423036388, 0.022, 0.9580000000000001, -0.04, 192.0, 0.0, 0.0, 0.0, 0.0, 0.0, 0.0, 0.0, 0.0, 0.0, 1.66640448297224E9, 0.0, 2022-10-21 19:08:02.972
197.0, -130030.53576118182, -157188.62053020246, -33369.18751826138, -140284.28677133165, 67842.6629713372, -105079.08226002243, 56161.61896724928, -111050.88723312465, 0.022, 0.9580000000000001, -0.04, 192.0, 0.0, 0.0, 0.0, 0.0, 0.0, 0.0, 0.0, 0.0, 0.0, 1.666404482972254E9, 0.0, 2022-10-21 19:08:02.972
198.0, -130029.28406349232, -157189.13462032494, -33365.90181182645, -140277.00010263923, 67849.48025339608, -105065.42534416025, 56175.27588311147, -111046.17101504457, 0.022, 0.9580000000000001, -0.04, 192.0, 0.0, 0.0, 0.0, 0.0, 0.0, 0.0, 0.0, 0.0, 0.0, 1.6664044829722693E9, 0.0, 2022-10-21 19:08:02.972
199.0, -130030.35694722617, -157190.85570464798, -33367.73465487178, -140282.96801840878, 67852.18481447516, -105066.96761452766, 56168.01156616349, -111052.65302093662, 0.022, 0.9580000000000001, -0.04, 192.0, 0.0, 0.0, 0.0, 0.0, 0.0, 0.0, 0.0, 0.0, 0.0, 1.666404482972283E9, 0.0, 2022-10-21 19:08:02.972
200.0, -130035.60960717317, -157195.77308842816, -33370.9756578178, -140290.54525977914, 67847.66976209519, -105077.31647221047, 56154.42170553467, -111058.37506751718, 0.022, 0.9580000000000001, -0.04, 192.0, 0.0, 0.0, 0.0, 0.0, 0.0, 0.0, 0.0, 0.0, 0.0, 1.6664044829722965E9, 0.0, 2022-10-21 19:08:02.972
201.0, -130034.55907518377, -157196.66715820637, -33367.93582057188, -140276.53071600565, 67849.88258479626, -105062.31845168096, 56168.16802837468, -111051.22250929147, 0.022, 0.9580000000000001, -0.04, 192.0, 0.0, 0.0, 0.0, 0.0, 0.0, 0.0, 0.0, 0.0, 0.0, 1.6664044829723103E9, 0.0, 2022-10-21 19:08:02.972
202.0, -130028.14412452509, -157189.26873079166, -33364.91833507041, -140275.74840494973, 67847.9156312842, -105056.1493702113, 56176.79580173443, -111047.17684354506, 0.022, 0.9560000000000001, -0.044, 192.0, 0.0, 176.0, 29.0, 224.0, 254.0, 160.0, 0.0, 0.0, 0.0, 1.666404482972324E9, 0.0, 2022-10-21 19:08:02.972
203.0, -130025.73013612392, -157187.01120460167, -33364.806576348135, -140279.0117596402, 67849.92728828518, -105071.21444597417, 56166.558702773895, -111051.9601168585, 0.022, 0.9560000000000001, -0.044, 192.0, 0.0, 0.0, 0.0, 0.0, 0.0, 0.0, 0.0, 0.0, 0.0, 1.6664044829723399E9, 0.0, 2022-10-21 19:08:02.972
204.0, -130027.09359253569, -157189.35813776948, -33363.39841644745, -140276.75423345022, 67853.05653250891, -105092.4486032067, 56150.26428106598, -111057.63745995016, 0.022, 0.9560000000000001, -0.044, 192.0, 0.0, 0.0, 0.0, 0.0, 0.0, 0.0, 0.0, 0.0, 0.0, 1.666404482972355E9, 0.0, 2022-10-21 19:08:02.972
205.0, -130034.62613041713, -157198.14237334044, -33372.853204352046, -140286.58900101055, 67841.94771551463, -105087.64297814883, 56151.739496200025, -111061.95134663003, 0.022, 0.9560000000000001, -0.044, 192.0, 0.0, 0.0, 0.0, 0.0, 0.0, 0.0, 0.0, 0.0, 0.0, 1.6664044829723673E9, 0.0, 2022-10-21 19:08:02.972
206.0, -130032.01097631587, -157195.63897796144, -33369.54514617266, -140279.77171895167, 67845.56869811639, -105063.3466319259, 56171.72195574307, -111059.26913729539, 0.022, 0.9560000000000001, -0.044, 192.0, 0.0, 0.0, 0.0, 0.0, 0.0, 0.0, 0.0, 0.0, 0.0, 1.6664044829723802E9, 0.0, 2022-10-21 19:08:02.972
207.0, -130031.51923793784, -157197.76239368468, -33370.84154735107, -140293.62980051397, 67844.22759344908, -105076.93649255473, 56161.99894690501, -111059.76087567341, 0.022, 0.9560000000000001, -0.044, 192.0, 0.0, 0.0, 0.0, 0.0, 0.0, 0.0, 0.0, 0.0, 0.0, 1.6664044829723928E9, 0.0, 2022-10-21 19:08:02.972
208.0, -130032.77093562734, -157199.0587948631, -33374.104902041545, -140295.8649749595, 67841.92536377018, -105093.34267298493, 56144.92221414116, -111072.27785256838, 0.022, 0.9560000000000001, -0.044, 192.0, 0.0, 0.0, 0.0, 0.0, 0.0, 0.0, 0.0, 0.0, 0.0, 1.6664044829724183E9, 0.0, 2022-10-21 19:08:02.972
209.0, -130030.13342978162, -157197.18124832885, -33369.23222175029, -140285.85139344353, 67844.87579403828, -105096.1589927863, 56142.39646701771, -111066.28758505435, 0.022, 0.9560000000000001, -0.044, 192.0, 0.0, 0.0, 0.0, 0.0, 0.0, 0.0, 0.0, 0.0, 0.0, 1.6664044829724312E9, 0.0, 2022-10-21 19:08:02.972
210.0, -130032.21214201595, -157201.36102454198, -33367.75700661624, -140276.10603286102, 67847.98268651756, -105070.20861747368, 56162.513037027486, -111051.15545405811, 0.022, 0.9560000000000001, -0.044, 192.0, 0.0, 0.0, 0.0, 0.0, 0.0, 0.0, 0.0, 0.0, 0.0, 1.6664044829724436E9, 0.0, 2022-10-21 19:08:02.972
211.0, -130029.95461582598, -157196.17541982836, -33365.74534961526, -140283.59386725354, 67847.1109684838, -105067.57111162796, 56164.16706611718, -111053.1671110591, 0.026000000000000002, 0.96, -0.04, 192.0, 0.0, 208.0, 30.0, 0.0, 254.0, 192.0, 0.0, 0.0, 0.0, 1.6664044829724565E9, 0.0, 2022-10-21 19:08:02.972
212.0, -130023.94199656749, -157192.57678897106, -33361.2750007242, -140289.42767255637, 67849.48025339608, -105082.39031820183, 56151.15835084419, -111062.30897454132, 0.026000000000000002, 0.96, -0.04, 192.0, 0.0, 0.0, 0.0, 0.0, 0.0, 0.0, 0.0, 0.0, 0.0, 1.6664044829724696E9, 0.0, 2022-10-21 19:08:02.972
213.0, -130022.89146457809, -157196.48834425074, -33361.453814679844, -140286.52194577717, 67849.05557025142, -105080.06573677847, 56153.79585668992, -111065.46057050952, 0.026000000000000002, 0.96, -0.04, 192.0, 0.0, 0.0, 0.0, 0.0, 0.0, 0.0, 0.0, 0.0, 0.0, 1.6664044829724822E9, 0.0, 2022-10-21 19:08:02.972
214.0, -130026.78066811332, -157197.15889658438, -33365.588887404076, -140281.87278293047, 67843.42293064868, -105058.47395163465, 56169.017394663984, -111071.09321011225, 0.026000000000000002, 0.96, -0.04, 192.0, 0.0, 0.0, 0.0, 0.0, 0.0, 0.0, 0.0, 0.0, 0.0, 1.666404482972495E9, 0.0, 2022-10-21 19:08:02.972
215.0, -130031.7874588713, -157200.46695476377, -33363.53252691418, -140290.47820454577, 67841.83595679235, -105056.30583242248, 56171.2078656206, -111068.79098043335, 0.026000000000000002, 0.96, -0.04, 192.0, 0.0, 0.0, 0.0, 0.0, 0.0, 0.0, 0.0, 0.0, 0.0, 1.6664044829725077E9, 0.0, 2022-10-21 19:08:02.972
216.0, -130025.28310123482, -157194.18611457184, -33360.91737281292, -140303.8221959856, 67842.81943354839, -105083.95494031369, 56147.91734789817, -111064.43239026457, 0.026000000000000002, 0.96, -0.04, 192.0, 0.0, 0.0, 0.0, 0.0, 0.0, 0.0, 0.0, 0.0, 0.0, 1.66640448297252E9, 0.0, 2022-10-21 19:08:02.972
217.0, -130018.86815057615, -157185.11130632297, -33356.84935532205, -140292.2663441022, 67849.18968071815, -105088.8052688605, 56146.53153974194, -111058.64328845064, 0.026000000000000002, 0.96, -0.04, 192.0, 0.0, 0.0, 0.0, 0.0, 0.0, 0.0, 0.0, 0.0, 0.0, 1.6664044829725325E9, 0.0, 2022-10-21 19:08:02.972
218.0, -130021.25978723286, -157191.12392558146, -33359.88919256797, -140284.84556494304, 67847.02156150599, -105082.27855947954, 56157.327432313854, -111055.84932039373, 0.026000000000000002, 0.96, -0.04, 192.0, 0.0, 0.0, 0.0, 0.0, 0.0, 0.0, 0.0, 0.0, 0.0, 1.6664044829725451E9, 0.0, 2022-10-21 19:08:02.972
219.0, -130016.63297613061, -157186.83239064604, -33354.815346576615, -140275.72605320526, 67856.1187214993, -105077.16000999928, 56168.21273186359, -111049.94845985752, 0.026000000000000002, 0.96, -0.04, 192.0, 0.0, 0.0, 0.0, 0.0, 0.0, 0.0, 0.0, 0.0, 0.0, 1.666404482972558E9, 0.0, 2022-10-21 19:08:02.972
220.0, -130018.17524649802, -157184.75367841168, -33355.62000937701, -140284.46558528728, 67857.39277093325, -105089.98991131663, 56157.059211380394, -111052.5636139588, 0.026000000000000002, 0.96, -0.04, 192.0, 0.0, 0.0, 0.0, 0.0, 0.0, 0.0, 0.0, 0.0, 0.0, 1.666404482972572E9, 0.0, 2022-10-21 19:08:02.972
221.0, -130023.31614772275, -157187.45823949078, -33358.79395708966, -140287.95245742233, 67850.0613987519, -105100.22701027716, 56148.43143802064, -111055.17876806007, 0.018000000000000002, 0.9580000000000001, -0.04, 192.0, 0.0, 144.0, 29.0, 240.0, 254.0, 192.0, 0.0, 0.0, 0.0, 1.6664044829725845E9, 0.0, 2022-10-21 19:08:02.972
222.0, -130018.37641219812, -157182.74202141073, -33351.14966048594, -140272.88738165944, 67857.19160523315, -105086.59244615943, 56163.74238297253, -111046.4168842336, 0.018000000000000002, 0.9580000000000001, -0.04, 192.0, 0.0, 0.0, 0.0, 0.0, 0.0, 0.0, 0.0, 0.0, 0.0, 1.6664044829725983E9, 0.0, 2022-10-21 19:08:02.972
223.0, -130023.38320295612, -157188.84404764703, -33359.3751024455, -140279.8611259295, 67850.68724759665, -105074.09782100891, 56168.72682198606, -111056.54222447184, 0.018000000000000002, 0.9580000000000001, -0.04, 192.0, 0.0, 0.0, 0.0, 0.0, 0.0, 0.0, 0.0, 0.0, 0.0, 1.6664044829726224E9, 0.0, 2022-10-21 19:08:02.972
224.0, -130030.8933890931, -157192.68854769334, -33368.27109673871, -140294.18859412536, 67843.24411669304, -105076.82473383246, 56158.601481747806, -111069.55093974483, 0.018000000000000002, 0.9580000000000001, -0.04, 192.0, 0.0, 0.0, 0.0, 0.0, 0.0, 0.0, 0.0, 0.0, 0.0, 1.666404482972636E9, 0.0, 2022-10-21 19:08:02.972
225.0, -130032.14508678259, -157191.5486087261, -33369.67925663939, -140309.03015244368, 67833.54345959943, -105104.83146963496, 56134.86392913627, -111076.54703575934, 0.018000000000000002, 0.9580000000000001, -0.04, 192.0, 0.0, 0.0, 0.0, 0.0, 0.0, 0.0, 0.0, 0.0, 0.0, 1.6664044829726503E9, 0.0, 2022-10-21 19:08:02.972
226.0, -130023.76318261186, -157183.34551851102, -33355.41884367691, -140288.22067835578, 67846.12749172778, -105099.37764398786, 56147.11268509778, -111057.99508786143, 0.018000000000000002, 0.9580000000000001, -0.04, 192.0, 0.0, 0.0, 0.0, 0.0, 0.0, 0.0, 0.0, 0.0, 0.0, 1.6664044829726636E9, 0.0, 2022-10-21 19:08:02.972
227.0, -130020.70099362147, -157182.09382082152, -33349.0709482516, -140274.11672760447, 67853.03418076446, -105060.97734701364, 56176.88520871225, -111051.46837848048, 0.018000000000000002, 0.9580000000000001, -0.04, 192.0, 0.0, 0.0, 0.0, 0.0, 0.0, 0.0, 0.0, 0.0, 0.0, 1.6664044829726775E9, 0.0, 2022-10-21 19:08:02.972
228.0, -130018.91285406506, -157181.02093708765, -33351.75315758624, -140287.12544287747, 67847.80387256193, -105083.08322227994, 56159.719068970575, -111058.03979135035, 0.018000000000000002, 0.9580000000000001, -0.04, 192.0, 0.0, 0.0, 0.0, 0.0, 0.0, 0.0, 0.0, 0.0, 0.0, 1.6664044829726903E9, 0.0, 2022-10-21 19:08:02.972
229.0, -130019.00226104287, -157180.23862603173, -33352.781337831184, -140294.8144429701, 67847.02156150599, -105114.82269940648, 56137.277917537445, -111060.72200068498, 0.018000000000000002, 0.9580000000000001, -0.04, 192.0, 0.0, 0.0, 0.0, 0.0, 0.0, 0.0, 0.0, 0.0, 0.0, 1.6664044829727032E9, 0.0, 2022-10-21 19:08:02.972
230.0, -130018.73404010941, -157179.85864637597, -33350.635570363476, -140284.33147482056, 67851.53661388595, -105102.97627484516, 56144.98926937453, -111053.99412560393, 0.018000000000000002, 0.9580000000000001, -0.04, 192.0, 0.0, 0.0, 0.0, 0.0, 0.0, 0.0, 0.0, 0.0, 0.0, 1.666404482972716E9, 0.0, 2022-10-21 19:08:02.972
231.0, -130019.98573779891, -157178.22696903074, -33345.98640751677, -140267.09827984552, 67860.85729132382, -105071.1473907408, 56171.47608655407, -111044.6063929327, 0.02, 0.96, -0.042, 192.0, 0.0, 160.0, 30.0, 0.0, 254.0, 176.0, 0.0, 0.0, 0.0, 1.666404482972729E9, 0.0, 2022-10-21 19:08:02.972
232.0, -130022.64559538908, -157180.30568126508, -33346.902829039434, -140277.44713752833, 67860.7231808571, -105066.74409708311, 56174.31475809989, -111043.48880570995, 0.02, 0.96, -0.042, 192.0, 0.0, 0.0, 0.0, 0.0, 0.0, 0.0, 0.0, 0.0, 0.0, 1.6664044829727426E9, 0.0, 2022-10-21 19:08:02.972
233.0, -130023.24909248938, -157181.17739929885, -33350.344997685555, -140288.98063766726, 67856.18577673266, -105098.5059259541, 56151.046592121915, -111050.10492206871, 0.02, 0.96, -0.042, 192.0, 0.0, 0.0, 0.0, 0.0, 0.0, 0.0, 0.0, 0.0, 0.0, 1.666404482972756E9, 0.0, 2022-10-21 19:08:02.972
234.0, -130021.86328433316, -157178.96457659776, -33346.58990461706, -140272.86502991497, 67866.98166930457, -105096.18134453075, 56156.94745265812, -111040.82894811976, 0.02, 0.96, -0.042, 192.0, 0.0, 0.0, 0.0, 0.0, 0.0, 0.0, 0.0, 0.0, 0.0, 1.6664044829727688E9, 0.0, 2022-10-21 19:08:02.972
235.0, -130031.69805189349, -157188.62053020246, -33355.53060239919, -140276.41895728337, 67859.13620700076, -105071.32620469645, 56171.11845864278, -111050.2613842799, 0.02, 0.96, -0.042, 192.0, 0.0, 0.0, 0.0, 0.0, 0.0, 0.0, 0.0, 0.0, 0.0, 1.666404482972782E9, 0.0, 2022-10-21 19:08:02.972
236.0, -130034.15674378358, -157190.09574533653, -33358.45868092283, -140290.34409407905, 67852.58714587535, -105079.10461176689, 56164.122362628266, -111051.1107505692, 0.02, 0.96, -0.042, 192.0, 0.0, 0.0, 0.0, 0.0, 0.0, 0.0, 0.0, 0.0, 0.0, 1.6664044829727948E9, 0.0, 2022-10-21 19:08:02.972
237.0, -130035.27433100634, -157191.99564361523, -33358.436329178374, -140293.04865515814, 67856.05166626594, -105103.17744054526, 56145.74922868601, -111047.40036098962, 0.02, 0.96, -0.042, 192.0, 0.0, 0.0, 0.0, 0.0, 0.0, 0.0, 0.0, 0.0, 0.0, 1.6664044829728076E9, 0.0, 2022-10-21 19:08:02.972
238.0, -130034.4920199504, -157191.45920174828, -33356.0223407772, -140280.24110558524, 67860.03027677897, -105092.13567878434, 56152.790028189425, -111045.8133871333, 0.02, 0.96, -0.042, 192.0, 0.0, 0.0, 0.0, 0.0, 0.0, 0.0, 0.0, 0.0, 0.0, 1.666404482972833E9, 0.0, 2022-10-21 19:08:02.972
239.0, -130036.88365660713, -157194.00730061618, -33359.88919256797, -140273.26736131517, 67858.55506164492, -105075.59538788741, 56166.89397894072, -111052.67537268107, 0.02, 0.96, -0.042, 192.0, 0.0, 0.0, 0.0, 0.0, 0.0, 0.0, 0.0, 0.0, 0.0, 1.6664044829728456E9, 0.0, 2022-10-21 19:08:02.972
240.0, -130039.00707233038, -157195.81779191707, -33365.11950077051, -140283.19153585334, 67851.78248307496, -105083.79847810252, 56161.68602248264, -111058.24095705044, 0.02, 0.96, -0.042, 192.0, 0.0, 0.0, 0.0, 0.0, 0.0, 0.0, 0.0, 0.0, 0.0, 1.6664044829728584E9, 0.0, 2022-10-21 19:08:02.972
241.0, -130032.23449376042, -157189.67106219186, -33356.37996868849, -140286.49959403274, 67858.77857908947, -105102.0598533225, 56148.677307209655, -111046.39453248914, 0.022, 0.962, -0.042, 192.0, 0.0, 176.0, 30.0, 16.0, 254.0, 176.0, 0.0, 0.0, 0.0, 1.666404483450779E9, 0.0, 2022-10-21 19:08:03.450
242.0, -130035.43079321753, -157191.57096047056, -33358.50338441174, -140281.49280327474, 67861.23727097956, -105098.23770502064, 56148.36438278728, -111047.3109540118, 0.022, 0.962, -0.042, 192.0, 0.0, 0.0, 0.0, 0.0, 0.0, 0.0, 0.0, 0.0, 0.0, 1.6664044834509172E9, 0.0, 2022-10-21 19:08:03.450
243.0, -130032.21214201595, -157188.50877148018, -33355.97763728829, -140264.48312574424, 67864.74649485905, -105089.63228340534, 56158.40031604771, -111039.59960217471, 0.022, 0.962, -0.042, 192.0, 0.0, 0.0, 0.0, 0.0, 0.0, 0.0, 0.0, 0.0, 0.0, 1.66640448345098E9, 0.0, 2022-10-21 19:08:03.450
244.0, -130041.82339213174, -157200.7575274417, -33367.93582057188, -140275.860163672, 67854.9117272987, -105076.42240243226, 56161.86483643828, -111053.74825641492, 0.022, 0.962, -0.042, 192.0, 0.0, 0.0, 0.0, 0.0, 0.0, 0.0, 0.0, 0.0, 0.0, 1.6664044834510489E9, 0.0, 2022-10-21 19:08:03.451
245.0, -130057.02257836136, -157216.06847239358, -33379.22345152181, -140306.0126669422, 67839.19845094663, -105087.93355082674, 56145.369249030264, -111072.1660938461, 0.022, 0.962, -0.042, 192.0, 0.0, 0.0, 0.0, 0.0, 0.0, 0.0, 0.0, 0.0, 0.0, 1.6664044834511063E9, 0.0, 2022-10-21 19:08:03.451
246.0, -130037.6883194075, -157196.82362041756, -33355.64236112146, -140288.42184405588, 67859.49383491205, -105096.71778639768, 56143.62581296275, -111056.22930004947, 0.022, 0.962, -0.042, 192.0, 0.0, 0.0, 0.0, 0.0, 0.0, 0.0, 0.0, 0.0, 0.0, 1.6664044834511216E9, 0.0, 2022-10-21 19:08:03.451
247.0, -130032.43565946052, -157192.24151280423, -33354.92710529889, -140278.52002126217, 67861.50549191302, -105081.18332400123, 56154.08642936784, -111052.22833779197, 0.022, 0.962, -0.042, 192.0, 0.0, 0.0, 0.0, 0.0, 0.0, 0.0, 0.0, 0.0, 0.0, 1.6664044834511373E9, 0.0, 2022-10-21 19:08:03.451
248.0, -130043.2986072658, -157203.7079577098, -33366.95234381585, -140287.57247776657, 67849.4579016516, -105073.6507861198, 56159.74142071503, -111057.57040471678, 0.022, 0.962, -0.042, 192.0, 0.0, 0.0, 0.0, 0.0, 0.0, 0.0, 0.0, 0.0, 0.0, 1.6664044834511526E9, 0.0, 2022-10-21 19:08:03.451
249.0, -130046.33844451171, -157205.8090216886, -33373.09907354106, -140300.9164692064, 67843.37822715977, -105090.52635318355, 56146.82211241986, -111058.12919832817, 0.022, 0.962, -0.042, 192.0, 0.0, 0.0, 0.0, 0.0, 0.0, 0.0, 0.0, 0.0, 0.0, 1.666404483451168E9, 0.0, 2022-10-21 19:08:03.451
250.0, -130042.33748225421, -157201.71865245327, -33373.43434970789, -140301.13998665096, 67844.45111089363, -105104.8091178905, 56132.941679113115, -111056.81044540531, 0.018000000000000002, 0.964, -0.036000000000000004, 192.0, 0.0, 144.0, 30.0, 32.0, 254.0, 224.0, 0.0, 0.0, 0.0, 1.6664044834511833E9, 0.0, 2022-10-21 19:08:03.451
251.0, -130037.57656068524, -157199.12585009646, -33367.62289614951, -140286.18666961035, 67848.51912838449, -105098.43887072074, 56140.47421699455, -111052.00482034741, 0.018000000000000002, 0.964, -0.036000000000000004, 192.0, 0.0, 0.0, 0.0, 0.0, 0.0, 0.0, 0.0, 0.0, 0.0, 1.6664044834512E9, 0.0, 2022-10-21 19:08:03.451
252.0, -130031.51923793784, -157194.99077737224, -33365.432425192885, -140276.0613293721, 67854.35293368733, -105082.50207692411, 56155.315775312876, -111052.45185523652, 0.018000000000000002, 0.964, -0.036000000000000004, 192.0, 0.0, 0.0, 0.0, 0.0, 0.0, 0.0, 0.0, 0.0, 0.0, 1.6664044834512155E9, 0.0, 2022-10-21 19:08:03.451
253.0, -130035.11786879515, -157199.52818149666, -33371.28858224017, -140280.95636140782, 67851.42485516368, -105076.19888498771, 56156.09808636882, -111052.87653838117, 0.018000000000000002, 0.964, -0.036000000000000004, 192.0, 0.0, 0.0, 0.0, 0.0, 0.0, 0.0, 0.0, 0.0, 0.0, 1.666404483451304E9, 0.0, 2022-10-21 19:08:03.451
254.0, -130037.6436159186, -157203.73030945426, -33373.9260880859, -140290.4111493124, 67845.43458764965, -105100.6069899329, 56137.613193704274, -111056.5645762163, 0.018000000000000002, 0.964, -0.036000000000000004, 192.0, 0.0, 0.0, 0.0, 0.0, 0.0, 0.0, 0.0, 0.0, 0.0, 1.6664044834513195E9, 0.0, 2022-10-21 19:08:03.451
255.0, -130037.86713336315, -157203.93147515436, -33371.33328572909, -140278.07298637307, 67852.85536680881, -105105.50202196861, 56140.988307117026, -111052.40715174761, 0.018000000000000002, 0.964, -0.036000000000000004, 192.0, 0.0, 0.0, 0.0, 0.0, 0.0, 0.0, 0.0, 0.0, 0.0, 1.6664044834513369E9, 0.0, 2022-10-21 19:08:03.451
0.0, -130039.85643861968, -157202.88094316496, -33369.74631187276, -140268.79701242413, 67853.8164918204, -105086.52539092606, 56157.550949758406, -111054.37410525967, 0.018000000000000002, 0.964, -0.036000000000000004, 192.0, 0.0, 0.0, 0.0, 0.0, 0.0, 0.0, 0.0, 0.0, 0.0, 1.666404483451352E9, 0.0, 2022-10-21 19:08:03.451
1.0, -130046.18198230052, -157206.7477949557, -33373.680218896894, -140283.34799806454, 67848.67559059568, -105086.54774267052, 56156.58982474683, -111059.47030299548, 0.018000000000000002, 0.964, -0.036000000000000004, 192.0, 0.0, 0.0, 0.0, 0.0, 0.0, 0.0, 0.0, 0.0, 0.0, 1.666404483451367E9, 0.0, 2022-10-21 19:08:03.451
2.0, -130040.61639793115, -157198.63411171845, -33368.62872464999, -140291.52873653517, 67852.94477378664, -105104.4067864903, 56143.134074584734, -111050.88723312465, 0.018000000000000002, 0.964, -0.036000000000000004, 192.0, 0.0, 0.0, 0.0, 0.0, 0.0, 0.0, 0.0, 0.0, 0.0, 1.6664044834513829E9, 0.0, 2022-10-21 19:08:03.451
3.0, -130039.0964793082, -157197.8070971736, -33366.281791482186, -140278.85529742902, 67859.9185180567, -105099.37764398786, 56147.604423475794, -111046.99802958942, 0.018000000000000002, 0.964, -0.036000000000000004, 192.0, 0.0, 0.0, 0.0, 0.0, 0.0, 0.0, 0.0, 0.0, 0.0, 1.666404483451398E9, 0.0, 2022-10-21 19:08:03.451
4.0, -130039.2976450083, -157199.19290532984, -33366.95234381585, -140274.76492819368, 67855.44816916564, -105089.8558008499, 56156.09808636882, -111048.13796855665, 0.022, 0.9580000000000001, -0.04, 192.0, 0.0, 176.0, 29.0, 240.0, 254.0, 192.0, 0.0, 0.0, 0.0, 1.6664044834514132E9, 0.0, 2022-10-21 19:08:03.451
5.0, -130039.90114210859, -157199.86345766348, -33369.075759539104, -140280.35286430753, 67855.93990754365, -105089.58757991644, 56157.327432313854, -111049.23320403496, 0.022, 0.9580000000000001, -0.04, 192.0, 0.0, 0.0, 0.0, 0.0, 0.0, 0.0, 0.0, 0.0, 0.0, 1.6664044834514296E9, 0.0, 2022-10-21 19:08:03.451
6.0, -130037.66596766305, -157195.66132970588, -33365.67829438189, -140285.13613762095, 67859.98557329006, -105102.52923995606, 56146.285670552934, -111048.65205867912, 0.022, 0.9580000000000001, -0.04, 192.0, 0.0, 0.0, 0.0, 0.0, 0.0, 0.0, 0.0, 0.0, 0.0, 1.6664044834514647E9, 0.0, 2022-10-21 19:08:03.451
7.0, -130045.2432090334, -157205.78666994415, -33376.831814865094, -140295.17207088138, 67845.52399462748, -105109.83826039295, 56136.40619950369, -111057.32453552778, 0.022, 0.9580000000000001, -0.04, 192.0, 0.0, 0.0, 0.0, 0.0, 0.0, 0.0, 0.0, 0.0, 0.0, 1.6664044834514797E9, 0.0, 2022-10-21 19:08:03.451
8.0, -130052.06049109227, -157214.28033283717, -33384.83373938009, -140297.13902439346, 67837.41031139021, -105100.13760329934, 56142.64233620672, -111053.18946280355, 0.022, 0.9580000000000001, -0.04, 192.0, 0.0, 0.0, 0.0, 0.0, 0.0, 0.0, 0.0, 0.0, 0.0, 1.6664044834514947E9, 0.0, 2022-10-21 19:08:03.451
9.0, -130046.22668578944, -157207.03836763365, -33375.04367530867, -140288.86887894498, 67847.1109684838, -105073.47197216416, 56167.050441151914, -111047.5121197119, 0.022, 0.9580000000000001, -0.04, 192.0, 0.0, 0.0, 0.0, 0.0, 0.0, 0.0, 0.0, 0.0, 0.0, 1.6664044834515111E9, 0.0, 2022-10-21 19:08:03.451
10.0, -130037.62126417414, -157199.17055358537, -33367.824061849606, -140293.33922783606, 67849.74847432954, -105099.1541265433, 56152.92413865616, -111048.87557612367, 0.022, 0.9580000000000001, -0.04, 192.0, 0.0, 0.0, 0.0, 0.0, 0.0, 0.0, 0.0, 0.0, 0.0, 1.6664044834515264E9, 0.0, 2022-10-21 19:08:03.451
11.0, -130033.66500540555, -157196.04130936164, -33363.15254725845, -140293.07100690258, 67852.3636284308, -105121.50587099862, 56141.21182456158, -111046.7074569115, 0.022, 0.9580000000000001, -0.04, 192.0, 0.0, 0.0, 0.0, 0.0, 0.0, 0.0, 0.0, 0.0, 0.0, 1.6664044834515414E9, 0.0, 2022-10-21 19:08:03.451
12.0, -130030.80398211528, -157193.49321049373, -33356.98346578878, -140282.00689339722, 67857.95156454464, -105109.61474294838, 56153.751153201, -111042.28181150935, 0.022, 0.9580000000000001, -0.04, 192.0, 0.0, 0.0, 0.0, 0.0, 0.0, 0.0, 0.0, 0.0, 0.0, 1.6664044834515731E9, 0.0, 2022-10-21 19:08:03.451
