%OpenBCI Raw EEG Data
%Number of channels = 8
%Sample Rate = 250 Hz
%Board = OpenBCI_GUI$BoardCytonSerial
Sample Index, EXG Channel 0, EXG Channel 1, EXG Channel 2, EXG Channel 3, EXG Channel 4, EXG Channel 5, EXG Channel 6, EXG Channel 7, Accel Channel 0, Accel Channel 1, Accel Channel 2, Other, Other, Other, Other, Other, Other, Other, Analog Channel 0, Analog Channel 1, Analog Channel 2, Timestamp, Other, Timestamp (Formatted)
72.0, -123379.30481187164, -154990.2817595341, -42633.82913277497, -133407.81729314534, 64724.34875063286, -71336.91118203536, 45311.948098176494, -114910.05002380014, 0.0, 0.0, 0.0, 192.0, 0.0, 0.0, 0.0, 0.0, 0.0, 0.0, 0.0, 0.0, 0.0, 1.6664042292284083E9, 0.0, 2022-10-21 19:03:49.228
73.0, -123377.89665197095, -154980.93873035177, -42621.289804135544, -133399.8377203748, 64733.98235249309, -71350.92572580883, 45301.755702704875, -114891.00633752422, 0.0, 0.0, 0.0, 192.0, 0.0, 0.0, 0.0, 0.0, 0.0, 0.0, 0.0, 0.0, 0.0, 1.6664042292284434E9, 0.0, 2022-10-21 19:03:49.228
74.0, -123385.04921019665, -154979.39645998436, -42618.96522271219, -133396.90964185115, 64731.18838443618, -71373.43393247532, 45289.01520836535, -114882.15504671993, 0.0, 0.0, 0.0, 192.0, 0.0, 0.0, 0.0, 0.0, 0.0, 0.0, 0.0, 0.0, 0.0, 1.6664042292284603E9, 0.0, 2022-10-21 19:03:49.228
75.0, -123393.92285274541, -154989.52180022263, -42626.453057104714, -133396.32849649532, 64726.740387289574, -71364.56028992657, 45302.672124227545, -114895.05200327064, 0.016, 0.9540000000000001, -0.016, 192.0, 0.0, 128.0, 29.0, 208.0, 255.0, 128.0, 0.0, 0.0, 0.0, 1.6664042292284832E9, 0.0, 2022-10-21 19:03:49.228
76.0, -123400.71778305982, -154993.94744562477, -42630.05168796202, -133409.33721176832, 64721.577134320396, -71358.12298752344, 45310.986973164916, -114902.65159638543, 0.016, 0.9540000000000001, -0.016, 192.0, 0.0, 0.0, 0.0, 0.0, 0.0, 0.0, 0.0, 0.0, 0.0, 1.6664042292285109E9, 0.0, 2022-10-21 19:03:49.228
77.0, -123395.24160566827, -154987.71130892175, -42624.30728963701, -133409.94070886858, 64728.55087859045, -71373.9480225978, 45301.77805444933, -114895.09670675955, 0.016, 0.9540000000000001, -0.016, 192.0, 0.0, 0.0, 0.0, 0.0, 0.0, 0.0, 0.0, 0.0, 0.0, 1.6664042292285345E9, 0.0, 2022-10-21 19:03:49.228
78.0, -123394.14637018996, -154987.68895717728, -42623.97201347018, -133400.59767968627, 64735.546974604964, -71370.93053709633, 45305.734313217916, -114899.00826203922, 0.016, 0.9540000000000001, -0.016, 192.0, 0.0, 0.0, 0.0, 0.0, 0.0, 0.0, 0.0, 0.0, 0.0, 1.666404229228558E9, 0.0, 2022-10-21 19:03:49.228
79.0, -123386.18914916387, -154983.12920130842, -42616.66299303329, -133392.0816650488, 64738.18448045069, -71347.37179844044, 45331.77409550835, -114893.19680848085, 0.016, 0.9540000000000001, -0.016, 192.0, 0.0, 0.0, 0.0, 0.0, 0.0, 0.0, 0.0, 0.0, 0.0, 1.6664042292285788E9, 0.0, 2022-10-21 19:03:49.228
80.0, -123387.41849510891, -154980.49169546267, -42614.42781858776, -133391.25465050395, 64739.86086128484, -71342.81204257156, 45343.911092747585, -114878.0646774846, 0.016, 0.9540000000000001, -0.016, 192.0, 0.0, 0.0, 0.0, 0.0, 0.0, 0.0, 0.0, 0.0, 0.0, 1.6664042292285964E9, 0.0, 2022-10-21 19:03:49.228
81.0, -123395.06279171263, -154984.02327108663, -42620.239272146144, -133404.53158671042, 64743.05716074195, -71354.09967352149, 45333.6516420426, -114875.80715129462, 0.016, 0.9540000000000001, -0.016, 192.0, 0.0, 0.0, 0.0, 0.0, 0.0, 0.0, 0.0, 0.0, 0.0, 1.666404229228614E9, 0.0, 2022-10-21 19:03:49.228
82.0, -123390.14540793246, -154984.26914027563, -42618.96522271219, -133401.80467388686, 64747.929841033205, -71351.05983627557, 45332.95873796448, -114882.84795079804, 0.016, 0.9540000000000001, -0.016, 192.0, 0.0, 0.0, 0.0, 0.0, 0.0, 0.0, 0.0, 0.0, 0.0, 1.6664042292286313E9, 0.0, 2022-10-21 19:03:49.228
83.0, -123379.30481187164, -154968.01942205662, -42607.05174291751, -133382.7833393554, 64758.077533015916, -71335.8382983015, 45351.533037606845, -114880.27750018568, 0.016, 0.9540000000000001, -0.016, 192.0, 0.0, 0.0, 0.0, 0.0, 0.0, 0.0, 0.0, 0.0, 0.0, 1.666404229228649E9, 0.0, 2022-10-21 19:03:49.228
84.0, -123388.13375093148, -154969.15936102383, -42610.20333888571, -133381.5316416659, 64756.602317881865, -71338.29699019158, 45354.72933706395, -114881.57390136409, 0.016, 0.9540000000000001, -0.016, 192.0, 0.0, 0.0, 0.0, 0.0, 0.0, 0.0, 0.0, 0.0, 0.0, 1.6664042292286663E9, 0.0, 2022-10-21 19:03:49.228
85.0, -123402.79649529415, -154986.66077693235, -42624.933138481756, -133404.62099368824, 64747.05812299945, -71355.17255725534, 45338.07728744475, -114898.31535796111, 0.038, 0.9460000000000001, -0.018000000000000002, 192.0, 1.0, 48.0, 29.0, 144.0, 255.0, 112.0, 0.0, 0.0, 0.0, 1.6664042292286842E9, 0.0, 2022-10-21 19:03:49.228
86.0, -123410.23962619778, -154996.07086134804, -42638.902978766324, -133425.16224684266, 64734.07175947091, -71368.60595567297, 45326.58849079472, -114911.122907534, 0.038, 0.9460000000000001, -0.018000000000000002, 192.0, 0.0, 0.0, 0.0, 0.0, 0.0, 0.0, 0.0, 0.0, 0.0, 1.6664042292287035E9, 0.0, 2022-10-21 19:03:49.228
87.0, -123428.61276014004, -155013.81814644553, -42653.43161266227, -133430.16903760066, 64727.746215790066, -71377.43489473283, 45321.894624459106, -114921.98585533928, 0.038, 0.9460000000000001, -0.018000000000000002, 192.0, 0.0, 0.0, 0.0, 0.0, 0.0, 0.0, 0.0, 0.0, 0.0, 1.6664042292287214E9, 0.0, 2022-10-21 19:03:49.228
88.0, -123412.49715238776, -154996.24967530367, -42631.348089140425, -133401.46939772004, 64754.14362599178, -71349.91989730834, 45356.293959175826, -114897.1754189939, 0.038, 0.9460000000000001, -0.018000000000000002, 192.0, 0.0, 0.0, 0.0, 0.0, 0.0, 0.0, 0.0, 0.0, 0.0, 1.666404229228916E9, 0.0, 2022-10-21 19:03:49.228
89.0, -123411.40191690945, -154994.64034970288, -42624.9107867373, -133403.52575820993, 64762.77139935153, -71346.5894873845, 45365.79345056933, -114898.36006145002, 0.038, 0.9460000000000001, -0.018000000000000002, 192.0, 0.0, 0.0, 0.0, 0.0, 0.0, 0.0, 0.0, 0.0, 0.0, 1.6664042292289336E9, 0.0, 2022-10-21 19:03:49.228
90.0, -123423.09187925958, -155005.34683529698, -42629.62700481737, -133423.91054915317, 64757.13875974879, -71363.8003306151, 45350.14722945062, -114913.20161976834, 0.038, 0.9460000000000001, -0.018000000000000002, 192.0, 0.0, 0.0, 0.0, 0.0, 0.0, 0.0, 0.0, 0.0, 0.0, 1.6664042292289512E9, 0.0, 2022-10-21 19:03:49.228
91.0, -123422.44367867037, -155003.826916674, -42627.81651351649, -133418.47907525054, 64759.64215512779, -71373.99272608671, 45349.141400950124, -114911.07820404509, 0.038, 0.9460000000000001, -0.018000000000000002, 192.0, 0.0, 0.0, 0.0, 0.0, 0.0, 0.0, 0.0, 0.0, 0.0, 1.6664042292289684E9, 0.0, 2022-10-21 19:03:49.228
92.0, -123415.62639661151, -154999.35656778296, -42630.00698447311, -133414.90279613767, 64762.30201271797, -71360.35816196896, 45367.179258725555, -114905.11028827552, 0.038, 0.9460000000000001, -0.018000000000000002, 192.0, 0.0, 0.0, 0.0, 0.0, 0.0, 0.0, 0.0, 0.0, 0.0, 1.6664042292289853E9, 0.0, 2022-10-21 19:03:49.228
93.0, -123412.81007681014, -154996.49554449267, -42626.29659489353, -133413.740505426, 64775.556597179966, -71353.1385485099, 45373.2589332174, -114906.94313132086, 0.038, 0.9460000000000001, -0.018000000000000002, 192.0, 0.0, 0.0, 0.0, 0.0, 0.0, 0.0, 0.0, 0.0, 0.0, 1.6664042292290022E9, 0.0, 2022-10-21 19:03:49.229
94.0, -123444.08016730311, -155022.2894575941, -42621.781542513556, -133415.34983102678, 64781.971547838635, -71352.82562408753, 45371.671959361076, -114902.74100336326, 0.08, 0.9580000000000001, -0.016, 192.0, 2.0, 128.0, 29.0, 240.0, 255.0, 128.0, 0.0, 0.0, 0.0, 1.6664042292290232E9, 0.0, 2022-10-21 19:03:49.229
95.0, -123476.31138280766, -155051.68200155284, -42626.69892629373, -133409.13604606822, 64775.64600415779, -71368.67301090635, 45360.80901155579, -114906.02670979819, 0.08, 0.9580000000000001, -0.016, 192.0, 0.0, 0.0, 0.0, 0.0, 0.0, 0.0, 0.0, 0.0, 0.0, 1.6664042292290416E9, 0.0, 2022-10-21 19:03:49.229
96.0, -123494.75157198329, -155081.2533594672, -42644.60267360243, -133418.8367031618, 64747.95219277766, -71374.41740923136, 45355.511648119886, -114932.91585837792, 0.08, 0.9580000000000001, -0.016, 192.0, 0.0, 0.0, 0.0, 0.0, 0.0, 0.0, 0.0, 0.0, 0.0, 1.6664042292290585E9, 0.0, 2022-10-21 19:03:49.229
97.0, -123507.06738317818, -155098.79947886462, -42656.4714499082, -133432.6947847241, 64739.547936862466, -71372.96454584177, 45360.58549411124, -114932.31236127763, 0.08, 0.9580000000000001, -0.016, 192.0, 0.0, 0.0, 0.0, 0.0, 0.0, 0.0, 0.0, 0.0, 0.0, 1.6664042292290752E9, 0.0, 2022-10-21 19:03:49.229
98.0, -123496.94204293992, -155099.69354864283, -42637.87479852138, -133415.59570021578, 64775.86952160234, -71376.42906623233, 45367.201610470016, -114893.88971255896, 0.08, 0.9580000000000001, -0.016, 192.0, 0.0, 0.0, 0.0, 0.0, 0.0, 0.0, 0.0, 0.0, 0.0, 1.6664042292290916E9, 0.0, 2022-10-21 19:03:49.229
99.0, -123490.97412717035, -155117.37377850697, -42645.49674338064, -133406.54324371138, 64778.93171059272, -71368.6506591619, 45371.60490412771, -114894.82848582609, 0.08, 0.9580000000000001, -0.016, 192.0, 0.0, 0.0, 0.0, 0.0, 0.0, 0.0, 0.0, 0.0, 0.0, 1.666404229229108E9, 0.0, 2022-10-21 19:03:49.229
100.0, -123550.07213951019, -155155.7293719923, -42660.56181914351, -133405.31389776635, 64765.699477875176, -71342.20854547127, 45389.82157585878, -114909.51358193322, 0.08, 0.9580000000000001, -0.016, 192.0, 0.0, 0.0, 0.0, 0.0, 0.0, 0.0, 0.0, 0.0, 0.0, 1.666404229229125E9, 0.0, 2022-10-21 19:03:49.229
101.0, -123578.8164828797, -155171.9790902113, -42665.479202923685, -133424.20112183108, 64754.30008820297, -71339.21341171426, 45398.3152387518, -114905.31145397562, 0.08, 0.9580000000000001, -0.016, 192.0, 0.0, 0.0, 0.0, 0.0, 0.0, 0.0, 0.0, 0.0, 0.0, 1.6664042292291417E9, 0.0, 2022-10-21 19:03:49.229
102.0, -123585.9690411054, -155181.65739556044, -42658.483106909174, -133424.82697067584, 64759.01630628304, -71348.66819961884, 45395.05188406133, -114893.19680848085, 0.08, 0.9580000000000001, -0.016, 192.0, 0.0, 0.0, 0.0, 0.0, 0.0, 0.0, 0.0, 0.0, 0.0, 1.6664042292291584E9, 0.0, 2022-10-21 19:03:49.229
103.0, -123626.24688461387, -155196.56600911214, -42660.96415054371, -133418.1437990837, 64758.971602794125, -71361.20752825827, 45389.39689271413, -114882.80324730913, 0.08, 0.9580000000000001, -0.016, 192.0, 0.0, 0.0, 0.0, 0.0, 0.0, 0.0, 0.0, 0.0, 0.0, 1.6664042292292264E9, 0.0, 2022-10-21 19:03:49.229
104.0, -123640.75316676537, -155221.21998324632, -42667.37910120239, -133413.3381740258, 64754.52360564752, -71344.06374026106, 45406.09364582225, -114895.43198292637, 0.074, 0.9560000000000001, -0.02, 192.0, 2.0, 80.0, 29.0, 224.0, 255.0, 96.0, 0.0, 0.0, 0.0, 1.6664042292292435E9, 0.0, 2022-10-21 19:03:49.229
105.0, -123639.38971035359, -155218.4260151894, -42661.277074966085, -133410.05246759087, 64759.79861733897, -71325.35533015196, 45427.64072747716, -114902.31632021861, 0.074, 0.9560000000000001, -0.02, 192.0, 0.0, 0.0, 0.0, 0.0, 0.0, 0.0, 0.0, 0.0, 0.0, 1.666404229229262E9, 0.0, 2022-10-21 19:03:49.229
106.0, -123634.22645738441, -155220.2812099792, -42664.428670934285, -133415.68510719363, 64757.89871906027, -71325.1318127074, 45431.3734688012, -114897.60010213855, 0.074, 0.9560000000000001, -0.02, 192.0, 0.0, 0.0, 0.0, 0.0, 0.0, 0.0, 0.0, 0.0, 0.0, 1.6664042292292788E9, 0.0, 2022-10-21 19:03:49.229
107.0, -123631.03015792731, -155228.8866315945, -42672.09531928245, -133419.86488340676, 64750.947326534675, -71327.4340423863, 45429.80884668933, -114892.90623580292, 0.074, 0.9560000000000001, -0.02, 192.0, 0.0, 0.0, 0.0, 0.0, 0.0, 0.0, 0.0, 0.0, 0.0, 1.666404229229296E9, 0.0, 2022-10-21 19:03:49.229
108.0, -123633.13122190611, -155236.66503866494, -42676.520964684605, -133414.00872635946, 64738.87738452881, -71329.60216159846, 45435.46383803652, -114900.70699461782, 0.074, 0.9560000000000001, -0.02, 192.0, 0.0, 0.0, 0.0, 0.0, 0.0, 0.0, 0.0, 0.0, 0.0, 1.6664042292293131E9, 0.0, 2022-10-21 19:03:49.229
109.0, -123618.53553277679, -155221.59996290208, -42676.945647829256, -133410.34304026878, 64732.685951314685, -71327.85872553095, 45448.29373935387, -114903.92564581938, 0.074, 0.9560000000000001, -0.02, 192.0, 0.0, 0.0, 0.0, 0.0, 0.0, 0.0, 0.0, 0.0, 0.0, 1.6664042292293334E9, 0.0, 2022-10-21 19:03:49.229
110.0, -123635.52285856282, -155208.12186099554, -42681.907735098335, -133419.95429038457, 64726.09218670037, -71328.19400169779, 45452.00412893345, -114907.68073888788, 0.074, 0.9560000000000001, -0.02, 192.0, 0.0, 0.0, 0.0, 0.0, 0.0, 0.0, 0.0, 0.0, 0.0, 1.66640422922938E9, 0.0, 2022-10-21 19:03:49.229
111.0, -123649.09036744719, -155213.21805873135, -42686.869822367415, -133429.61024398927, 64717.21854415161, -71335.77124306813, 45445.09743989676, -114915.99558782525, 0.074, 0.9560000000000001, -0.02, 192.0, 0.0, 0.0, 0.0, 0.0, 0.0, 0.0, 0.0, 0.0, 0.0, 1.6664042292294219E9, 0.0, 2022-10-21 19:03:49.229
112.0, -123621.82123921171, -155205.4843551498, -42678.24204900766, -133405.87269137774, 64731.72482630311, -71309.26207414414, 45476.27812341191, -114895.67785211539, 0.074, 0.9560000000000001, -0.02, 192.0, 0.0, 0.0, 0.0, 0.0, 0.0, 0.0, 0.0, 0.0, 0.0, 1.6664042292294636E9, 0.0, 2022-10-21 19:03:49.229
113.0, -123619.89898918856, -155208.74770984027, -42686.13221480039, -133406.49854022247, 64724.594619821866, -71271.84525392596, 45510.61040289526, -114894.82848582609, 0.074, 0.9560000000000001, -0.02, 192.0, 0.0, 0.0, 0.0, 0.0, 0.0, 0.0, 0.0, 0.0, 0.0, 1.6664042292295053E9, 0.0, 2022-10-21 19:03:49.229
114.0, -123618.73669847689, -155207.49601215078, -42700.12440682941, -133426.21277883206, 64705.081546912385, -71276.15914060583, 45512.4432459406, -114909.29006448867, 0.048, 0.962, -0.026000000000000002, 192.0, 1.0, 128.0, 30.0, 16.0, 255.0, 48.0, 0.0, 0.0, 0.0, 1.6664042292295473E9, 0.0, 2022-10-21 19:03:49.229
115.0, -123605.86209367063, -155199.80701205815, -42702.58309871949, -133434.30411032488, 64697.03491890847, -71295.98513793769, 45499.23336496751, -114914.81094536913, 0.048, 0.962, -0.026000000000000002, 192.0, 0.0, 0.0, 0.0, 0.0, 0.0, 0.0, 0.0, 0.0, 0.0, 1.666404229229597E9, 0.0, 2022-10-21 19:03:49.229
116.0, -123585.34319226065, -155186.39596538496, -42696.61518294993, -133418.07674385034, 64708.1213841583, -71289.03374541209, 45513.024391296436, -114904.48443943077, 0.048, 0.962, -0.026000000000000002, 192.0, 0.0, 0.0, 0.0, 0.0, 0.0, 0.0, 0.0, 0.0, 0.0, 1.6664042292296238E9, 0.0, 2022-10-21 19:03:49.229
117.0, -123576.08957005615, -155185.85952351804, -42708.662773211334, -133416.37801127174, 64700.94647418815, -71258.68007644179, 45543.37806026675, -114898.49417191675, 0.048, 0.962, -0.026000000000000002, 192.0, 0.0, 0.0, 0.0, 0.0, 0.0, 0.0, 0.0, 0.0, 0.0, 1.6664042292296412E9, 0.0, 2022-10-21 19:03:49.229
118.0, -123569.16052927502, -155174.61659605702, -42706.584060976995, -133415.61805196025, 64706.824982979895, -71250.5663932045, 45557.52671450695, -114876.05302048363, 0.048, 0.962, -0.026000000000000002, 192.0, 0.0, 0.0, 0.0, 0.0, 0.0, 0.0, 0.0, 0.0, 0.0, 1.6664042292296767E9, 0.0, 2022-10-21 19:03:49.229
119.0, -123564.64547689504, -155163.23955812928, -42703.05248535305, -133412.06412459185, 64712.39056734927, -71263.84332941096, 45552.095240604314, -114882.73619207575, 0.048, 0.962, -0.026000000000000002, 192.0, 0.0, 0.0, 0.0, 0.0, 0.0, 0.0, 0.0, 0.0, 0.0, 1.6664042292296948E9, 0.0, 2022-10-21 19:03:49.229
120.0, -123572.04390430974, -155170.3697646105, -42715.59181399248, -133413.65109844817, 64700.49943929904, -71281.16593136382, 45543.422763755654, -114900.371718451, 0.048, 0.962, -0.026000000000000002, 192.0, 0.0, 0.0, 0.0, 0.0, 0.0, 0.0, 0.0, 0.0, 0.0, 1.6664042292297122E9, 0.0, 2022-10-21 19:03:49.229
121.0, -123579.79995963574, -155186.41831712943, -42729.36048857695, -133423.35175554178, 64686.37313680329, -71256.2660880406, 45567.92027567867, -114920.84591637205, 0.048, 0.962, -0.026000000000000002, 192.0, 0.0, 0.0, 0.0, 0.0, 0.0, 0.0, 0.0, 0.0, 0.0, 1.6664042292297297E9, 0.0, 2022-10-21 19:03:49.229
122.0, -123543.70189234041, -155158.85861621602, -42702.47133999722, -133400.35181049726, 64710.96005570413, -71237.28945699806, 45598.095130693335, -114889.53112239018, 0.048, 0.962, -0.026000000000000002, 192.0, 0.0, 0.0, 0.0, 0.0, 0.0, 0.0, 0.0, 0.0, 0.0, 1.6664042292297492E9, 0.0, 2022-10-21 19:03:49.229
123.0, -123527.78745028823, -155152.15309287942, -42703.94655513127, -133402.63168843172, 64711.787070248974, -71249.15823330382, 45589.422653844675, -114881.93152927537, 0.048, 0.962, -0.026000000000000002, 192.0, 0.0, 0.0, 0.0, 0.0, 0.0, 0.0, 0.0, 0.0, 0.0, 1.666404229229768E9, 0.0, 2022-10-21 19:03:49.229
124.0, -123531.81076429019, -155162.21137788432, -42724.24193909668, -133417.83087466133, 64692.83279095087, -71263.23983231066, 45577.620932772275, -114897.04130852716, 0.018000000000000002, 0.96, -0.028, 192.0, 0.0, 144.0, 30.0, 0.0, 255.0, 32.0, 0.0, 0.0, 0.0, 1.6664042292297857E9, 0.0, 2022-10-21 19:03:49.229
125.0, -123538.67274983798, -155165.8323604861, -42733.33909908999, -133418.05439210587, 64681.50045651203, -71250.74520716014, 45596.150528925726, -114904.26092198622, 0.018000000000000002, 0.96, -0.028, 192.0, 0.0, 0.0, 0.0, 0.0, 0.0, 0.0, 0.0, 0.0, 0.0, 1.6664042292298045E9, 0.0, 2022-10-21 19:03:49.229
126.0, -123540.86322079459, -155156.2211103703, -42736.96008169175, -133420.78130492943, 64677.85712216582, -71249.73937865965, 45605.27004066349, -114902.4727824298, 0.018000000000000002, 0.96, -0.028, 192.0, 0.0, 0.0, 0.0, 0.0, 0.0, 0.0, 0.0, 0.0, 0.0, 1.6664042292298217E9, 0.0, 2022-10-21 19:03:49.229
127.0, -123547.52404064228, -155156.4222760704, -42746.97366320773, -133439.6014737608, 64668.60349996132, -71270.34768704746, 45591.389607356745, -114902.40572719643, 0.018000000000000002, 0.96, -0.028, 192.0, 0.0, 0.0, 0.0, 0.0, 0.0, 0.0, 0.0, 0.0, 0.0, 1.6664042292298396E9, 0.0, 2022-10-21 19:03:49.229
128.0, -123544.68536909645, -155153.5612527801, -42744.2914538731, -133435.6452149922, 64666.74830517153, -71275.53329176108, 45588.796804999925, -114902.36102370752, 0.018000000000000002, 0.96, -0.028, 192.0, 0.0, 0.0, 0.0, 0.0, 0.0, 0.0, 0.0, 0.0, 0.0, 1.6664042292298572E9, 0.0, 2022-10-21 19:03:49.229
129.0, -123531.58724684564, -155149.29206958917, -42740.066974171044, -133411.39357225818, 64674.102029097325, -71251.0134280936, 45617.40703790272, -114895.54374164865, 0.018000000000000002, 0.96, -0.028, 192.0, 0.0, 0.0, 0.0, 0.0, 0.0, 0.0, 0.0, 0.0, 0.0, 1.6664042292298748E9, 0.0, 2022-10-21 19:03:49.229
130.0, -123529.44147937793, -155152.48836904627, -42749.87938998692, -133416.22154906054, 64663.686116181154, -71233.98139881867, 45637.590663145864, -114898.65063412795, 0.018000000000000002, 0.96, -0.028, 192.0, 0.0, 0.0, 0.0, 0.0, 0.0, 0.0, 0.0, 0.0, 0.0, 1.6664042292298927E9, 0.0, 2022-10-21 19:03:49.229
131.0, -123514.04112744823, -155147.48157828828, -42754.70736678927, -133420.2895665514, 64660.3110027684, -71244.64318092384, 45630.23693922006, -114903.36685220801, 0.018000000000000002, 0.96, -0.028, 192.0, 0.0, 0.0, 0.0, 0.0, 0.0, 0.0, 0.0, 0.0, 0.0, 1.6664042292299104E9, 0.0, 2022-10-21 19:03:49.229
132.0, -123514.30934838169, -155146.2745840877, -42756.786079023615, -133419.59666247328, 64652.286726508944, -71261.4740444987, 45617.98818325856, -114908.39599471046, 0.018000000000000002, 0.96, -0.028, 192.0, 0.0, 0.0, 0.0, 0.0, 0.0, 0.0, 0.0, 0.0, 0.0, 1.666404229229928E9, 0.0, 2022-10-21 19:03:49.229
133.0, -123516.0080809603, -155140.55253750714, -42755.377919122926, -133412.60056645877, 64650.09625555233, -71261.69756194325, 45629.43227641968, -114901.4222504404, -0.008, 0.962, -0.028, 192.0, 255.0, 192.0, 30.0, 16.0, 255.0, 32.0, 0.0, 0.0, 0.0, 1.666404229230003E9, 0.0, 2022-10-21 19:03:49.230
134.0, -123510.73306926884, -155138.67499097288, -42761.83757327051, -133406.34207801128, 64651.526767197465, -71226.1135847704, 45668.771346661015, -114895.25316897074, -0.008, 0.962, -0.028, 192.0, 0.0, 0.0, 0.0, 0.0, 0.0, 0.0, 0.0, 0.0, 0.0, 1.6664042292300265E9, 0.0, 2022-10-21 19:03:49.230
135.0, -123504.13930465453, -155128.72846469027, -42760.58587558101, -133414.5898717153, 64648.375171229265, -71225.53243941456, 45676.70621594265, -114879.94222401884, -0.008, 0.962, -0.028, 192.0, 0.0, 0.0, 0.0, 0.0, 0.0, 0.0, 0.0, 0.0, 0.0, 1.6664042292300413E9, 0.0, 2022-10-21 19:03:49.230
136.0, -123496.98674642883, -155122.06764484258, -42761.97168373724, -133410.76772341345, 64651.817339875386, -71238.85407910992, 45668.145497816266, -114880.85864554152, -0.008, 0.962, -0.028, 192.0, 0.0, 0.0, 0.0, 0.0, 0.0, 0.0, 0.0, 0.0, 0.0, 1.6664042292300572E9, 0.0, 2022-10-21 19:03:49.230
137.0, -123499.44543831891, -155121.57590646457, -42764.29626516059, -133408.55490071236, 64649.04572356293, -71236.95418083122, 45676.125070586815, -114884.07729674308, -0.008, 0.962, -0.028, 192.0, 0.0, 0.0, 0.0, 0.0, 0.0, 0.0, 0.0, 0.0, 0.0, 1.6664042292300715E9, 0.0, 2022-10-21 19:03:49.230
138.0, -123502.64173777602, -155121.06181634212, -42772.05232048659, -133415.37218277124, 64638.2051275021, -71232.57323891798, 45691.32425681642, -114889.24054971225, -0.008, 0.962, -0.028, 192.0, 0.0, 0.0, 0.0, 0.0, 0.0, 0.0, 0.0, 0.0, 0.0, 1.666404229230086E9, 0.0, 2022-10-21 19:03:49.230
139.0, -123499.66895576347, -155111.53997320414, -42764.60918958297, -133404.95626985506, 64646.98936307304, -71230.7180441282, 45702.120149388335, -114880.85864554152, -0.008, 0.962, -0.028, 192.0, 0.0, 0.0, 0.0, 0.0, 0.0, 0.0, 0.0, 0.0, 0.0, 1.6664042292301004E9, 0.0, 2022-10-21 19:03:49.230
140.0, -123491.13058938153, -155111.22704878176, -42765.70442506128, -133406.36442975575, 64647.257584006504, -71236.26127675311, 45701.18137612121, -114878.0646774846, -0.008, 0.962, -0.028, 192.0, 0.0, 0.0, 0.0, 0.0, 0.0, 0.0, 0.0, 0.0, 0.0, 1.6664042292301154E9, 0.0, 2022-10-21 19:03:49.230
141.0, -123482.1004846216, -155112.74696740473, -42778.6460851009, -133405.62682218873, 64634.830014089355, -71226.33710221495, 45706.99282967959, -114893.04034626966, -0.008, 0.962, -0.028, 192.0, 0.0, 0.0, 0.0, 0.0, 0.0, 0.0, 0.0, 0.0, 0.0, 1.6664042292301302E9, 0.0, 2022-10-21 19:03:49.230
142.0, -123487.1519788685, -155105.32618824556, -42775.56154436607, -133402.3858192427, 64628.9068018087, -71217.82108757748, 45720.96266996416, -114890.58165437957, -0.008, 0.962, -0.028, 192.0, 0.0, 0.0, 0.0, 0.0, 0.0, 0.0, 0.0, 0.0, 0.0, 1.6664042292301447E9, 0.0, 2022-10-21 19:03:49.230
143.0, -123497.47848480684, -155104.92385684536, -42768.587800096015, -133399.92712735262, 64636.215822245584, -71216.83761082144, 45732.295004403, -114868.87811051347, -0.034, 0.9560000000000001, -0.03, 192.0, 254.0, 240.0, 29.0, 224.0, 255.0, 16.0, 0.0, 0.0, 0.0, 1.6664042292301593E9, 0.0, 2022-10-21 19:03:49.230
144.0, -123495.91386269497, -155110.73531040375, -42773.348721664996, -133408.95723211256, 64634.15946175569, -71239.05524481002, 45716.33585886191, -114872.81201753761, -0.034, 0.9560000000000001, -0.03, 192.0, 0.0, 0.0, 0.0, 0.0, 0.0, 0.0, 0.0, 0.0, 0.0, 1.6664042292301745E9, 0.0, 2022-10-21 19:03:49.230
145.0, -123491.68938299292, -155107.0696243131, -42776.45561414428, -133409.65013619067, 64632.79600534392, -71241.17866053327, 45715.57589955043, -114877.95291876233, -0.034, 0.9560000000000001, -0.03, 192.0, 0.0, 0.0, 0.0, 0.0, 0.0, 0.0, 0.0, 0.0, 0.0, 1.6664042292301893E9, 0.0, 2022-10-21 19:03:49.230
146.0, -123491.48821729282, -155097.83835385303, -42775.96387576627, -133398.00487732945, 64634.62884838926, -71213.01546251959, 45743.76144930857, -114874.48839837176, -0.034, 0.9560000000000001, -0.03, 192.0, 0.0, 0.0, 0.0, 0.0, 0.0, 0.0, 0.0, 0.0, 0.0, 1.6664042292302039E9, 0.0, 2022-10-21 19:03:49.230
147.0, -123493.87985394953, -155105.50500220121, -42783.18348922533, -133399.07776106332, 64634.38297920024, -71196.6539855783, 45760.41349892777, -114872.65555532642, -0.034, 0.9560000000000001, -0.03, 192.0, 0.0, 0.0, 0.0, 0.0, 0.0, 0.0, 0.0, 0.0, 0.0, 1.6664042292302184E9, 0.0, 2022-10-21 19:03:49.230
148.0, -123473.0927316061, -155095.9161038299, -42778.95900952328, -133404.91156636615, 64637.825147846364, -71217.86579106639, 45746.57776910994, -114869.03457272466, -0.034, 0.9560000000000001, -0.03, 192.0, 0.0, 0.0, 0.0, 0.0, 0.0, 0.0, 0.0, 0.0, 0.0, 1.6664042292302563E9, 0.0, 2022-10-21 19:03:49.230
149.0, -123470.5446327382, -155093.1668392619, -42779.8977827904, -133395.25561276145, 64643.43543570465, -71234.51784068558, 45735.87128351585, -114876.65651758392, -0.034, 0.9560000000000001, -0.03, 192.0, 0.0, 0.0, 0.0, 0.0, 0.0, 0.0, 0.0, 0.0, 0.0, 1.6664042292302709E9, 0.0, 2022-10-21 19:03:49.230
150.0, -123483.24042358881, -155105.4602987123, -42792.88414631893, -133397.82606337382, 64630.8067000874, -71213.46249740869, 45759.094746004914, -114879.85281704103, -0.034, 0.9560000000000001, -0.03, 192.0, 0.0, 0.0, 0.0, 0.0, 0.0, 0.0, 0.0, 0.0, 0.0, 1.6664042292302854E9, 0.0, 2022-10-21 19:03:49.230
151.0, -123492.78461847123, -155098.7100718868, -42787.251506716195, -133391.8357958598, 64641.043799047926, -71204.05241299301, 45778.473708447666, -114868.90046225792, -0.034, 0.9560000000000001, -0.03, 192.0, 0.0, 0.0, 0.0, 0.0, 0.0, 0.0, 0.0, 0.0, 0.0, 1.6664042292303E9, 0.0, 2022-10-21 19:03:49.230
152.0, -123485.22972884534, -155086.41661243638, -42783.09408224751, -133401.06706631984, 64646.54232818393, -71227.54409641554, 45764.16859199627, -114856.47289234077, -0.034, 0.9560000000000001, -0.03, 192.0, 0.0, 0.0, 0.0, 0.0, 0.0, 0.0, 0.0, 0.0, 0.0, 1.6664042292303145E9, 0.0, 2022-10-21 19:03:49.230
153.0, -123479.91001366496, -155089.47880142677, -42791.2524689737, -133404.30806926586, 64642.6084211598, -71232.03679705106, 45759.452373916196, -114859.1103981865, -0.064, 0.9500000000000001, -0.038, 192.0, 254.0, 0.0, 29.0, 176.0, 254.0, 208.0, 0.0, 0.0, 0.0, 1.666404229230329E9, 0.0, 2022-10-21 19:03:49.230
154.0, -123486.72729572385, -155099.17945852035, -42802.04836154561, -133404.73275241052, 64634.45003443361, -71220.74916610113, 45769.73417636564, -114878.44465714034, -0.064, 0.9500000000000001, -0.038, 192.0, 0.0, 0.0, 0.0, 0.0, 0.0, 0.0, 0.0, 0.0, 0.0, 1.6664042292303445E9, 0.0, 2022-10-21 19:03:49.230
155.0, -123489.67772599195, -155104.58858067854, -42807.21161451479, -133399.77066514143, 64639.32271472487, -71196.51987511157, 45793.33761851044, -114893.15210499194, -0.064, 0.9500000000000001, -0.038, 192.0, 0.0, 0.0, 0.0, 0.0, 0.0, 0.0, 0.0, 0.0, 0.0, 1.6664042292303593E9, 0.0, 2022-10-21 19:03:49.230
156.0, -123484.76034221177, -155100.22999050975, -42804.238832502226, -133406.07385707783, 64640.41795020318, -71199.02327049056, 45793.33761851044, -114885.30664268813, -0.064, 0.9500000000000001, -0.038, 192.0, 0.0, 0.0, 0.0, 0.0, 0.0, 0.0, 0.0, 0.0, 0.0, 1.6664042292303736E9, 0.0, 2022-10-21 19:03:49.230
157.0, -123487.68842073542, -155098.620664909, -42804.28353599114, -133421.49656075198, 64635.74643561202, -71235.47896569717, 45767.834278086935, -114880.79159030814, -0.064, 0.9500000000000001, -0.038, 192.0, 0.0, 0.0, 0.0, 0.0, 0.0, 0.0, 0.0, 0.0, 0.0, 1.6664042292303882E9, 0.0, 2022-10-21 19:03:49.230
158.0, -123492.91872893796, -155099.2018102648, -42805.53523368064, -133410.00776410196, 64636.23817399004, -71225.04070103655, 45787.34735099642, -114877.34942166203, -0.064, 0.9500000000000001, -0.038, 192.0, 0.0, 0.0, 0.0, 0.0, 0.0, 0.0, 0.0, 0.0, 0.0, 1.6664042292304077E9, 0.0, 2022-10-21 19:03:49.230
159.0, -123487.10727537957, -155102.68868239984, -42808.91034709339, -133406.43148498912, 64635.32175246737, -71204.65591009331, 45811.86721466389, -114883.02676475368, -0.064, 0.9500000000000001, -0.038, 192.0, 0.0, 0.0, 0.0, 0.0, 0.0, 0.0, 0.0, 0.0, 0.0, 1.6664042292304225E9, 0.0, 2022-10-21 19:03:49.230
160.0, -123493.2987085937, -155098.59831316452, -42809.826768616054, -133422.234168319, 64631.946639054615, -71211.29437819653, 45807.17334832828, -114880.52336937468, -0.064, 0.9500000000000001, -0.038, 192.0, 0.0, 0.0, 0.0, 0.0, 0.0, 0.0, 0.0, 0.0, 0.0, 1.666404229230437E9, 0.0, 2022-10-21 19:03:49.230
161.0, -123481.72050496585, -155091.89278982792, -42802.58480341254, -133409.67248793514, 64641.44613044812, -71231.3662447174, 45793.09174932144, -114869.23573842476, -0.064, 0.9500000000000001, -0.038, 192.0, 0.0, 0.0, 0.0, 0.0, 0.0, 0.0, 0.0, 0.0, 0.0, 1.666404229230451E9, 0.0, 2022-10-21 19:03:49.230
162.0, -123478.27833631974, -155099.82765910955, -42810.98905932773, -133401.37999074222, 64639.18860425814, -71213.17192473078, 45809.20735707371, -114872.36498264849, -0.068, 0.9480000000000001, -0.038, 192.0, 253.0, 224.0, 29.0, 160.0, 254.0, 208.0, 0.0, 0.0, 0.0, 1.6664042292304657E9, 0.0, 2022-10-21 19:03:49.230
163.0, -123485.31913582316, -155106.7566998907, -42819.974460598765, -133413.51698798145, 64629.443243675625, -71203.96300601518, 45824.29478458104, -114869.23573842476, -0.068, 0.9480000000000001, -0.038, 192.0, 0.0, 0.0, 0.0, 0.0, 0.0, 0.0, 0.0, 0.0, 0.0, 1.666404229230499E9, 0.0, 2022-10-21 19:03:49.230
164.0, -123481.40758054347, -155103.09101380003, -42816.86756811948, -133413.78520891492, 64636.908726323694, -71206.64521534982, 45829.83801720596, -114859.08804644205, -0.068, 0.9480000000000001, -0.038, 192.0, 0.0, 0.0, 0.0, 0.0, 0.0, 0.0, 0.0, 0.0, 0.0, 1.666404229230514E9, 0.0, 2022-10-21 19:03:49.230
165.0, -123485.58735675662, -155093.74798461772, -42811.436094216835, -133406.69970592257, 64645.60355491681, -71210.89204679633, 45826.93229042677, -114852.5613370611, -0.068, 0.9480000000000001, -0.038, 192.0, 0.0, 0.0, 0.0, 0.0, 0.0, 0.0, 0.0, 0.0, 0.0, 1.666404229230528E9, 0.0, 2022-10-21 19:03:49.230
166.0, -123481.02760088774, -155096.83252535254, -42811.77137038367, -133401.89408086467, 64642.6084211598, -71208.61216886189, 45831.089714895454, -114857.74694177472, -0.068, 0.9480000000000001, -0.038, 192.0, 0.0, 0.0, 0.0, 0.0, 0.0, 0.0, 0.0, 0.0, 0.0, 1.6664042292305427E9, 0.0, 2022-10-21 19:03:49.230
167.0, -123482.16753985496, -155105.6614644124, -42821.11439956599, -133405.31389776635, 64630.493775665025, -71202.28662518103, 45841.77384874509, -114871.71678205929, -0.068, 0.9480000000000001, -0.038, 192.0, 0.0, 0.0, 0.0, 0.0, 0.0, 0.0, 0.0, 0.0, 0.0, 1.6664042292305584E9, 0.0, 2022-10-21 19:03:49.230
168.0, -123484.91680442296, -155094.93262707384, -42813.55950994009, -133402.05054307586, 64638.69686588012, -71197.30218616751, 45852.010947705625, -114859.22215690877, -0.068, 0.9480000000000001, -0.038, 192.0, 0.0, 0.0, 0.0, 0.0, 0.0, 0.0, 0.0, 0.0, 0.0, 1.6664042292305737E9, 0.0, 2022-10-21 19:03:49.230
169.0, -123495.66799350597, -155105.50500220121, -42821.06969607707, -133420.96011888506, 64632.90776406619, -71213.28368345305, 45837.661127765314, -114864.34070638905, -0.068, 0.9480000000000001, -0.038, 192.0, 0.0, 0.0, 0.0, 0.0, 0.0, 0.0, 0.0, 0.0, 0.0, 1.6664042292305896E9, 0.0, 2022-10-21 19:03:49.230
170.0, -123485.38619105652, -155094.7091096293, -42810.4526174608, -133401.67056342014, 64645.84942410582, -71212.59077937494, 45842.779677245584, -114853.6565725394, -0.068, 0.9480000000000001, -0.038, 192.0, 0.0, 0.0, 0.0, 0.0, 0.0, 0.0, 0.0, 0.0, 0.0, 1.6664042292306046E9, 0.0, 2022-10-21 19:03:49.230
171.0, -123482.36870555505, -155089.23293223773, -42807.85981510399, -133392.4392929601, 64647.615211917786, -71196.34106115592, 45860.72812804319, -114847.66630502538, -0.068, 0.9480000000000001, -0.038, 192.0, 0.0, 0.0, 0.0, 0.0, 0.0, 0.0, 0.0, 0.0, 0.0, 1.6664042292306194E9, 0.0, 2022-10-21 19:03:49.230
172.0, -123474.25502231778, -155086.08133626956, -42806.51871043667, -133394.9426883391, 64649.98449683005, -71196.96691000067, 45864.46086936723, -114850.54968006012, -0.064, 0.9500000000000001, -0.044, 192.0, 254.0, 0.0, 29.0, 176.0, 254.0, 160.0, 0.0, 0.0, 0.0, 1.6664042292306345E9, 0.0, 2022-10-21 19:03:49.230
173.0, -123481.07230437665, -155095.53612417413, -42817.98515534224, -133403.41399948765, 64641.98257231505, -71202.01840424757, 45856.68246229678, -114858.57395631957, -0.064, 0.9500000000000001, -0.044, 192.0, 0.0, 0.0, 0.0, 0.0, 0.0, 0.0, 0.0, 0.0, 0.0, 1.6664042292306504E9, 0.0, 2022-10-21 19:03:49.230
174.0, -123479.23946133131, -155095.2679032407, -42818.163969297886, -133405.22449078853, 64634.673551878164, -71216.47998291015, 45844.098430168444, -114853.12013067248, -0.064, 0.9500000000000001, -0.044, 192.0, 0.0, 0.0, 0.0, 0.0, 0.0, 0.0, 0.0, 0.0, 0.0, 1.6664042292306652E9, 0.0, 2022-10-21 19:03:49.230
175.0, -123464.77788266873, -155082.3485949455, -42811.83842561703, -133389.42180745862, 64642.720179882075, -71202.19721820322, 45864.103241455945, -114845.4087788354, -0.064, 0.9500000000000001, -0.044, 192.0, 0.0, 0.0, 0.0, 0.0, 0.0, 0.0, 0.0, 0.0, 0.0, 1.6664042292306805E9, 0.0, 2022-10-21 19:03:49.230
176.0, -123480.78173169873, -155089.7470223602, -42820.42149548787, -133394.7862261279, 64643.79306361593, -71183.30999413849, 45884.1304044879, -114847.08515966954, -0.064, 0.9500000000000001, -0.044, 192.0, 0.0, 0.0, 0.0, 0.0, 0.0, 0.0, 0.0, 0.0, 0.0, 1.6664042292306952E9, 0.0, 2022-10-21 19:03:49.230
177.0, -123471.90808914998, -155090.5516851606, -42819.03568733164, -133401.40234248666, 64644.44126420513, -71194.7540872996, 45876.687273584284, -114842.48070031175, -0.064, 0.9500000000000001, -0.044, 192.0, 0.0, 0.0, 0.0, 0.0, 0.0, 0.0, 0.0, 0.0, 0.0, 1.66640422923071E9, 0.0, 2022-10-21 19:03:49.230
178.0, -123467.72831293683, -155083.8014583351, -42809.58089942705, -133392.0816650488, 64654.34308699884, -71208.63452060634, 45867.59011359097, -114838.72560724326, -0.064, 0.9500000000000001, -0.044, 192.0, 0.0, 0.0, 0.0, 0.0, 0.0, 0.0, 0.0, 0.0, 0.0, 1.6664042292307415E9, 0.0, 2022-10-21 19:03:49.230
179.0, -123486.1014468791, -155091.82573459457, -42818.990983842734, -133398.20604302955, 64645.245927005526, -71220.0115585341, 45861.33162514349, -114841.78779623364, -0.064, 0.9500000000000001, -0.044, 192.0, 0.0, 0.0, 0.0, 0.0, 0.0, 0.0, 0.0, 0.0, 0.0, 1.6664042292307584E9, 0.0, 2022-10-21 19:03:49.230
180.0, -123480.22293808735, -155088.51767641518, -42813.55950994009, -133384.5267754229, 64657.1594068002, -71200.14085771333, 45884.39862542137, -114822.52059251316, -0.064, 0.9500000000000001, -0.044, 192.0, 0.0, 0.0, 0.0, 0.0, 0.0, 0.0, 0.0, 0.0, 0.0, 1.6664042292307734E9, 0.0, 2022-10-21 19:03:49.230
181.0, -123478.9488886534, -155089.63526363793, -42819.817998387574, -133397.37902848472, 64653.18079628716, -71193.36827914337, 45885.98559927769, -114827.68384548234, -0.064, 0.9500000000000001, -0.044, 192.0, 0.0, 0.0, 0.0, 0.0, 0.0, 0.0, 0.0, 0.0, 0.0, 1.6664042292307885E9, 0.0, 2022-10-21 19:03:49.230
182.0, -123476.11021710756, -155090.59638864952, -42827.48464673575, -133412.6899734366, 64644.01658106048, -71220.43624167875, 45863.343282144466, -114846.5040143137, -0.07200000000000001, 0.9420000000000001, -0.048, 192.0, 253.0, 192.0, 29.0, 112.0, 254.0, 128.0, 0.0, 0.0, 0.0, 1.6664042292308035E9, 0.0, 2022-10-21 19:03:49.230
183.0, -123482.61457474406, -155094.12796427347, -42828.512826980696, -133393.2886592494, 64648.82220611838, -71220.4585934232, 45867.41129963533, -114845.09585441303, -0.07200000000000001, 0.9420000000000001, -0.048, 192.0, 0.0, 0.0, 0.0, 0.0, 0.0, 0.0, 0.0, 0.0, 0.0, 1.6664042292308197E9, 0.0, 2022-10-21 19:03:49.230
184.0, -123481.56404275466, -155085.32137695808, -42821.33791701054, -133372.36742643922, 64656.421799233176, -71196.49752336711, 45894.859241826445, -114834.47877579676, -0.07200000000000001, 0.9420000000000001, -0.048, 192.0, 0.0, 0.0, 0.0, 0.0, 0.0, 0.0, 0.0, 0.0, 0.0, 1.6664042292308347E9, 0.0, 2022-10-21 19:03:49.230
185.0, -123483.53099626674, -155088.09299327052, -42832.625547960466, -133395.7920546284, 64645.29063049443, -71203.58302635944, 45889.11484350143, -114843.21830787878, -0.07200000000000001, 0.9420000000000001, -0.048, 192.0, 0.0, 0.0, 0.0, 0.0, 0.0, 0.0, 0.0, 0.0, 0.0, 1.6664042292308495E9, 0.0, 2022-10-21 19:03:49.230
186.0, -123484.17919685594, -155097.8160021086, -42845.29898706663, -133418.70259269507, 64635.61232514529, -71227.94642781572, 45867.29954091305, -114849.56620330409, -0.07200000000000001, 0.9420000000000001, -0.048, 192.0, 0.0, 0.0, 0.0, 0.0, 0.0, 0.0, 0.0, 0.0, 0.0, 1.6664042292308648E9, 0.0, 2022-10-21 19:03:49.230
187.0, -123473.2938973062, -155092.2057142503, -42847.2659405787, -133415.86392114926, 64633.73477861104, -71227.29822722652, 45872.17222120431, -114859.04334295314, -0.07200000000000001, 0.9420000000000001, -0.048, 192.0, 0.0, 0.0, 0.0, 0.0, 0.0, 0.0, 0.0, 0.0, 0.0, 1.6664042292308795E9, 0.0, 2022-10-21 19:03:49.230
188.0, -123463.30266753468, -155079.08524025505, -42834.860722405996, -133407.95140361207, 64638.4062932022, -71219.94450330074, 45891.79705283607, -114836.13280488644, -0.07200000000000001, 0.9420000000000001, -0.048, 192.0, 0.0, 0.0, 0.0, 0.0, 0.0, 0.0, 0.0, 0.0, 0.0, 1.6664042292308948E9, 0.0, 2022-10-21 19:03:49.230
189.0, -123484.49212127831, -155089.9481880603, -42820.06386757659, -133399.70360990806, 64656.26533702199, -71219.2068957337, 45900.06719828453, -114817.849077922, -0.07200000000000001, 0.9420000000000001, -0.048, 192.0, 0.0, 0.0, 0.0, 0.0, 0.0, 0.0, 0.0, 0.0, 0.0, 1.66640422923091E9, 0.0, 2022-10-21 19:03:49.230
190.0, -123509.61548204608, -155116.68087442886, -42829.49630373673, -133410.76772341345, 64652.13026429776, -71234.20491626322, 45882.006988764646, -114836.26691535318, -0.07200000000000001, 0.9420000000000001, -0.048, 192.0, 0.0, 0.0, 0.0, 0.0, 0.0, 0.0, 0.0, 0.0, 0.0, 1.666404229230925E9, 0.0, 2022-10-21 19:03:49.230
191.0, -123506.7544587558, -155117.68670292935, -42826.09883857952, -133396.06027556185, 64655.170101543685, -71225.04070103655, 45887.43846266728, -114838.14446188742, -0.074, 0.9380000000000001, -0.046, 192.0, 253.0, 176.0, 29.0, 80.0, 254.0, 144.0, 0.0, 0.0, 0.0, 1.6664042292309396E9, 0.0, 2022-10-21 19:03:49.230
192.0, -123495.1986068724, -155106.868458613, -42819.03568733164, -133385.1302725232, 64656.44415097764, -71216.36822418789, 45900.7824541071, -114833.42824380736, -0.074, 0.9380000000000001, -0.046, 192.0, 0.0, 0.0, 0.0, 0.0, 0.0, 0.0, 0.0, 0.0, 0.0, 1.6664042292309988E9, 0.0, 2022-10-21 19:03:49.230
193.0, -123493.90220569399, -155107.22608652426, -42819.92975710986, -133392.50634819345, 64654.4101422322, -71214.73654684264, 45910.55016643407, -114835.70812174179, -0.074, 0.9380000000000001, -0.046, 192.0, 0.0, 0.0, 0.0, 0.0, 0.0, 0.0, 0.0, 0.0, 0.0, 1.666404229231015E9, 0.0, 2022-10-21 19:03:49.231
0.0, 0.0, 0.0, 0.0, 0.0, 0.0, 0.0, 0.0, 0.0, -0.022, 0.9460000000000001, -0.056, 192.0, 255.0, 80.0, 29.0, 144.0, 254.0, 64.0, 0.0, 0.0, 0.0, 1.666404229294042E9, 0.0, 2022-10-21 19:03:49.294
1.0, -126841.50062102088, -155640.51635748343, -27057.479567227314, -132497.1848722917, 61698.07901359547, -64209.67748280495, 64428.858688933695, -113051.81539676373, -0.022, 0.9460000000000001, -0.056, 192.0, 0.0, 0.0, 0.0, 0.0, 0.0, 0.0, 0.0, 0.0, 0.0, 1.6664042297800143E9, 0.0, 2022-10-21 19:03:49.780
2.0, -126826.05556560226, -155619.34925548427, -27025.985959289785, -132466.4065201767, 61718.44145279425, -64189.47150581736, 64460.106427682214, -113025.86502145113, -0.022, 0.9460000000000001, -0.056, 192.0, 0.0, 0.0, 0.0, 0.0, 0.0, 0.0, 0.0, 0.0, 0.0, 1.6664042297800689E9, 0.0, 2022-10-21 19:03:49.780
3.0, -126834.8845046621, -155624.736025898, -27031.842116337077, -132492.24513676704, 61711.02067363509, -64179.3461655791, 64463.32507888378, -113042.91940247052, -0.022, 0.9460000000000001, -0.056, 192.0, 0.0, 0.0, 0.0, 0.0, 0.0, 0.0, 0.0, 0.0, 0.0, 1.6664042297801752E9, 0.0, 2022-10-21 19:03:49.780
4.0, -126833.11871685013, -155622.54555494137, -27037.385348961994, -132491.44047396665, 61711.35594980192, -64190.72320350686, 64444.19198563004, -113043.6346582931, -0.022, 0.9460000000000001, -0.056, 192.0, 0.0, 0.0, 0.0, 0.0, 0.0, 0.0, 0.0, 0.0, 0.0, 1.6664042297802124E9, 0.0, 2022-10-21 19:03:49.780
5.0, -126834.25865581736, -155626.54651719888, -27043.755596131756, -132476.93419181518, 61706.72913869967, -64225.90484927951, 64423.02488363086, -113044.12639667111, -0.022, 0.9460000000000001, -0.056, 192.0, 0.0, 0.0, 0.0, 0.0, 0.0, 0.0, 0.0, 0.0, 0.0, 1.666404229780254E9, 0.0, 2022-10-21 19:03:49.780
6.0, -126847.75910946836, -155647.02071511993, -27060.27353528423, -132502.4822357276, 61686.6572721788, -64219.825174787664, 64426.31059006579, -113068.22157719394, -0.022, 0.9460000000000001, -0.056, 192.0, 0.0, 0.0, 0.0, 0.0, 0.0, 0.0, 0.0, 0.0, 0.0, 1.6664042297802768E9, 0.0, 2022-10-21 19:03:49.780
7.0, -126832.22464707193, -155626.8817933657, -27041.431014708403, -132487.0818837979, 61703.13050784237, -64194.321834364164, 64446.53891879784, -113034.91747795553, -0.004, 0.9500000000000001, -0.054, 192.0, 255.0, 224.0, 29.0, 176.0, 254.0, 80.0, 0.0, 0.0, 0.0, 1.6664042297802935E9, 0.0, 2022-10-21 19:03:49.780
8.0, -126821.76403066685, -155613.00136005896, -27030.25514248075, -132474.0731685249, 61715.53572601506, -64201.63085480105, 64440.14631988363, -113033.08463491019, -0.004, 0.9500000000000001, -0.054, 192.0, 0.0, 0.0, 0.0, 0.0, 0.0, 0.0, 0.0, 0.0, 0.0, 1.6664042297803118E9, 0.0, 2022-10-21 19:03:49.780
9.0, -126825.22855105741, -155615.37064497123, -27038.30177048466, -132485.13728203028, 61702.2140863197, -64216.71828230838, 64426.53410751034, -113047.59091706168, -0.004, 0.9500000000000001, -0.054, 192.0, 0.0, 0.0, 0.0, 0.0, 0.0, 0.0, 0.0, 0.0, 0.0, 1.6664042297803288E9, 0.0, 2022-10-21 19:03:49.780
10.0, -126834.28100756182, -155622.90318285266, -27050.081139812606, -132494.5250147015, 61689.339481513445, -64229.659942348, 64419.64977021811, -113059.8843765121, -0.004, 0.9500000000000001, -0.054, 192.0, 0.0, 0.0, 0.0, 0.0, 0.0, 0.0, 0.0, 0.0, 0.0, 1.6664042297803457E9, 0.0, 2022-10-21 19:03:49.780
11.0, -126836.04679537378, -155623.59608693077, -27048.650628167466, -132509.90301488675, 61692.91576062629, -64212.33734039514, 64432.144395368625, -113058.16329218904, -0.004, 0.9500000000000001, -0.054, 192.0, 0.0, 0.0, 0.0, 0.0, 0.0, 0.0, 0.0, 0.0, 0.0, 1.6664042297803628E9, 0.0, 2022-10-21 19:03:49.780
12.0, -126825.83204815771, -155613.35898797025, -27036.424223950413, -132493.3850757343, 61706.952656144225, -64215.80186078571, 64428.70222672251, -113055.10110319867, -0.004, 0.9500000000000001, -0.054, 192.0, 0.0, 0.0, 0.0, 0.0, 0.0, 0.0, 0.0, 0.0, 0.0, 1.6664042297803795E9, 0.0, 2022-10-21 19:03:49.780
13.0, -126833.94573139498, -155624.7807293869, -27045.476680454813, -132494.45795946813, 61698.54840022903, -64217.83586953114, 64422.1084621082, -113059.75026604538, -0.004, 0.9500000000000001, -0.054, 192.0, 0.0, 0.0, 0.0, 0.0, 0.0, 0.0, 0.0, 0.0, 0.0, 1.666404229780396E9, 0.0, 2022-10-21 19:03:49.780
14.0, -126825.45206850197, -155616.26471474944, -27032.132689014994, -132484.4667296966, 61707.04206312205, -64169.93608116342, 64455.83724449125, -113036.05741692275, -0.004, 0.9500000000000001, -0.054, 192.0, 0.0, 0.0, 0.0, 0.0, 0.0, 0.0, 0.0, 0.0, 0.0, 1.6664042297804816E9, 0.0, 2022-10-21 19:03:49.780
15.0, -126819.86413238815, -155607.52518266742, -27009.423316648405, -132475.74954935902, 61713.63582773636, -64181.246063857805, 64453.3114973678, -113026.26735285133, -0.004, 0.9500000000000001, -0.054, 192.0, 0.0, 0.0, 0.0, 0.0, 0.0, 0.0, 0.0, 0.0, 0.0, 1.6664042297804985E9, 0.0, 2022-10-21 19:03:49.780
16.0, -126823.37335626762, -155611.41438620264, -26998.515665354214, -132481.1139680283, 61714.30638007002, -64207.03997695923, 64434.02194190287, -113025.21682086193, -0.004, 0.9500000000000001, -0.054, 192.0, 0.0, 0.0, 0.0, 0.0, 0.0, 0.0, 0.0, 0.0, 0.0, 1.6664042297805147E9, 0.0, 2022-10-21 19:03:49.780
17.0, -126819.99824285487, -155609.1792117571, -26992.05601120663, -132472.77676734648, 61719.69315048375, -64223.692026578436, 64424.56715399828, -113025.41798656202, 0.004, 0.9580000000000001, -0.058, 192.0, 0.0, 32.0, 29.0, 240.0, 254.0, 48.0, 0.0, 0.0, 0.0, 1.6664042297805314E9, 0.0, 2022-10-21 19:03:49.780
18.0, -126829.92241739303, -155619.81864211784, -27005.02002299071, -132474.0061132915, 61705.11981309889, -64196.355843109595, 64435.586564014746, -113048.26146939534, 0.004, 0.9580000000000001, -0.058, 192.0, 0.0, 0.0, 0.0, 0.0, 0.0, 0.0, 0.0, 0.0, 0.0, 1.6664042297805495E9, 0.0, 2022-10-21 19:03:49.780
19.0, -126844.40634780006, -155636.24717429248, -27019.056918508642, -132494.6814769127, 61688.3113012685, -64199.44038384443, 64426.51175576589, -113059.41498987854, 0.004, 0.9580000000000001, -0.058, 192.0, 0.0, 0.0, 0.0, 0.0, 0.0, 0.0, 0.0, 0.0, 0.0, 1.666404229780566E9, 0.0, 2022-10-21 19:03:49.780
20.0, -126838.25961807485, -155628.9828573445, -27010.20562770434, -132495.5755466909, 61694.52508622708, -64215.645398574525, 64414.50886899339, -113049.44611185147, 0.004, 0.9580000000000001, -0.058, 192.0, 0.0, 0.0, 0.0, 0.0, 0.0, 0.0, 0.0, 0.0, 0.0, 1.6664042297805824E9, 0.0, 2022-10-21 19:03:49.780
21.0, -126820.2888155328, -155607.83810708977, -26992.905377495932, -132491.6192879223, 61707.89142941135, -64233.057407505206, 64406.23872354493, -113043.14291991507, 0.004, 0.9580000000000001, -0.058, 192.0, 0.0, 0.0, 0.0, 0.0, 0.0, 0.0, 0.0, 0.0, 0.0, 1.6664042297805989E9, 0.0, 2022-10-21 19:03:49.780
22.0, -126831.68820520499, -155620.48919445148, -27000.594377588557, -132502.59399444985, 61700.82827816347, -64234.733788339356, 64409.21150555748, -113055.34697238768, 0.004, 0.9580000000000001, -0.058, 192.0, 0.0, 0.0, 0.0, 0.0, 0.0, 0.0, 0.0, 0.0, 0.0, 1.66640422978062E9, 0.0, 2022-10-21 19:03:49.780
23.0, -126826.72611793592, -155620.48919445148, -27001.264929922218, -132491.2169565221, 61705.276275310076, -64200.066232689176, 64436.972372170974, -113051.48012059691, 0.004, 0.9580000000000001, -0.058, 192.0, 0.0, 0.0, 0.0, 0.0, 0.0, 0.0, 0.0, 0.0, 0.0, 1.6664042297806327E9, 0.0, 2022-10-21 19:03:49.780
24.0, -126827.53078073631, -155617.11408103874, -27000.661432821922, -132490.4346454662, 61706.68443521076, -64195.08179367564, 64434.96071517, -113049.1331874291, 0.004, 0.9580000000000001, -0.058, 192.0, 0.0, 0.0, 0.0, 0.0, 0.0, 0.0, 0.0, 0.0, 0.0, 1.6664042297806475E9, 0.0, 2022-10-21 19:03:49.780
25.0, -126820.89231263308, -155607.32401696732, -26984.903452980932, -132480.44341569467, 61720.49781328414, -64202.54727632371, 64429.30572382281, -113025.19446911747, 0.004, 0.9580000000000001, -0.058, 192.0, 0.0, 0.0, 0.0, 0.0, 0.0, 0.0, 0.0, 0.0, 0.0, 1.66640422978066E9, 0.0, 2022-10-21 19:03:49.780
26.0, -126828.76012668136, -155615.50475543796, -26989.731429783278, -132485.36079947482, 61713.18879284726, -64203.84367750212, 64429.216316844984, -113020.74647197087, 0.004, 0.9580000000000001, -0.058, 192.0, 0.0, 0.0, 0.0, 0.0, 0.0, 0.0, 0.0, 0.0, 0.0, 1.6664042297806728E9, 0.0, 2022-10-21 19:03:49.780
27.0, -126824.22272255692, -155606.38524370018, -26978.57790930008, -132471.54742140145, 61722.531822029574, -64186.699889504904, 64444.460206563504, -113023.62984700559, 0.01, 0.964, -0.054, 192.0, 0.0, 80.0, 30.0, 32.0, 254.0, 80.0, 0.0, 0.0, 0.0, 1.6664042297806857E9, 0.0, 2022-10-21 19:03:49.780
28.0, -126823.2839492898, -155608.37454895672, -26985.752819270234, -132487.4171599647, 61714.97693240368, -64193.80774424169, 64437.93349718255, -113024.59097201718, 0.01, 0.964, -0.054, 192.0, 0.0, 0.0, 0.0, 0.0, 0.0, 0.0, 0.0, 0.0, 0.0, 1.6664042297807012E9, 0.0, 2022-10-21 19:03:49.780
29.0, -126827.06139410276, -155611.57084841383, -26991.83249376208, -132491.3287152444, 61713.658179480815, -64203.91073273549, 64427.94226741103, -113023.24986734985, 0.01, 0.964, -0.054, 192.0, 0.0, 0.0, 0.0, 0.0, 0.0, 0.0, 0.0, 0.0, 0.0, 1.666404229780727E9, 0.0, 2022-10-21 19:03:49.780
30.0, -126838.46078377495, -155622.0761683078, -27002.784848545176, -132491.84280536685, 61708.49492651164, -64200.46856408937, 64423.762491197886, -113027.34023658518, 0.01, 0.964, -0.054, 192.0, 0.0, 0.0, 0.0, 0.0, 0.0, 0.0, 0.0, 0.0, 0.0, 1.6664042297807417E9, 0.0, 2022-10-21 19:03:49.780
31.0, -126833.14106859459, -155617.98579907248, -26993.978261229786, -132468.1723079887, 61718.44145279425, -64190.56674129567, 64435.83243320375, -113025.19446911747, 0.01, 0.964, -0.054, 192.0, 0.0, 0.0, 0.0, 0.0, 0.0, 0.0, 0.0, 0.0, 0.0, 1.6664042297807543E9, 0.0, 2022-10-21 19:03:49.780
32.0, -126830.19063832649, -155619.72923514, -26990.737258283767, -132472.28502896847, 61722.397711562844, -64174.13820912102, 64448.63998277664, -113032.86111746564, 0.01, 0.964, -0.054, 192.0, 0.0, 0.0, 0.0, 0.0, 0.0, 0.0, 0.0, 0.0, 0.0, 1.6664042297807677E9, 0.0, 2022-10-21 19:03:49.780
33.0, -126846.32859782322, -155626.21124103206, -27009.892703281967, -132500.1353025598, 61703.801060176025, -64191.21494188487, 64423.29310456433, -113039.70075126896, 0.01, 0.964, -0.054, 192.0, 0.0, 0.0, 0.0, 0.0, 0.0, 0.0, 0.0, 0.0, 0.0, 1.6664042297807808E9, 0.0, 2022-10-21 19:03:49.780
34.0, -126831.19646682698, -155613.31428448134, -26998.046278720652, -132486.25486925303, 61715.24515333714, -64184.30825284818, 64427.808156944295, -113026.5802772737, 0.01, 0.964, -0.054, 192.0, 0.0, 0.0, 0.0, 0.0, 0.0, 0.0, 0.0, 0.0, 0.0, 1.666404229780794E9, 0.0, 2022-10-21 19:03:49.780
35.0, -126828.35779528116, -155610.60972340225, -26997.979223487288, -132483.013866307, 61718.70967372772, -64182.34129933611, 64435.63126750365, -113028.65898950804, 0.01, 0.964, -0.054, 192.0, 0.0, 0.0, 0.0, 0.0, 0.0, 0.0, 0.0, 0.0, 0.0, 1.6664042297808068E9, 0.0, 2022-10-21 19:03:49.780
36.0, -126829.90006564857, -155614.45422344856, -26998.493313609757, -132486.09840704183, 61712.808813191514, -64179.18970336792, 64438.872270449676, -113036.10212041166, 0.016, 0.9580000000000001, -0.052000000000000005, 192.0, 0.0, 128.0, 29.0, 240.0, 254.0, 96.0, 0.0, 0.0, 0.0, 1.66640422978082E9, 0.0, 2022-10-21 19:03:49.780
37.0, -126829.54243773728, -155611.3249792248, -26998.694479309856, -132489.45116871013, 61711.93709515776, -64177.692136489415, 64433.3066860803, -113045.24398389387, 0.016, 0.9580000000000001, -0.052000000000000005, 192.0, 0.0, 0.0, 0.0, 0.0, 0.0, 0.0, 0.0, 0.0, 0.0, 1.6664042297808335E9, 0.0, 2022-10-21 19:03:49.780
38.0, -126822.21106555595, -155601.31139770884, -26985.596357059047, -132490.1217210438, 61715.08869112596, -64200.93795072293, 64418.800403928806, -113021.39467256007, 0.016, 0.9580000000000001, -0.052000000000000005, 192.0, 0.0, 0.0, 0.0, 0.0, 0.0, 0.0, 0.0, 0.0, 0.0, 1.6664042297808466E9, 0.0, 2022-10-21 19:03:49.780
39.0, -126813.85151312966, -155593.91297029413, -26973.97344994229, -132474.1178720138, 61728.09740639894, -64191.036127929234, 64438.80521521631, -113004.7202711964, 0.016, 0.9580000000000001, -0.052000000000000005, 192.0, 0.0, 0.0, 0.0, 0.0, 0.0, 0.0, 0.0, 0.0, 0.0, 1.6664042297808604E9, 0.0, 2022-10-21 19:03:49.780
40.0, -126822.38987951158, -155603.54657215436, -26984.925804725386, -132485.8748895973, 61720.34135107295, -64178.78737196772, 64445.913069953094, -113022.53461152728, 0.016, 0.9580000000000001, -0.052000000000000005, 192.0, 0.0, 0.0, 0.0, 0.0, 0.0, 0.0, 0.0, 0.0, 0.0, 1.6664042297808733E9, 0.0, 2022-10-21 19:03:49.780
41.0, -126825.94380687998, -155604.57475239932, -26988.7703047717, -132485.4278547082, 61722.37535981838, -64174.29467133221, 64439.922802439076, -113025.48504179539, 0.016, 0.9580000000000001, -0.052000000000000005, 192.0, 0.0, 0.0, 0.0, 0.0, 0.0, 0.0, 0.0, 0.0, 0.0, 1.6664042297808857E9, 0.0, 2022-10-21 19:03:49.780
42.0, -126841.50062102088, -155618.9245723396, -27007.47871488079, -132498.7271426591, 61707.2655805666, -64200.960302467385, 64413.39128177062, -113034.13516689959, 0.016, 0.9580000000000001, -0.052000000000000005, 192.0, 0.0, 0.0, 0.0, 0.0, 0.0, 0.0, 0.0, 0.0, 0.0, 1.6664042297808986E9, 0.0, 2022-10-21 19:03:49.780
43.0, -126838.66194947505, -155614.54363042637, -27003.857732279033, -132498.16834904772, 61707.73496720016, -64208.716357793375, 64416.18524982754, -113012.85630617813, 0.016, 0.9580000000000001, -0.052000000000000005, 192.0, 0.0, 0.0, 0.0, 0.0, 0.0, 0.0, 0.0, 0.0, 0.0, 1.6664042297809117E9, 0.0, 2022-10-21 19:03:49.780
44.0, -126823.14983882307, -155598.13744999617, -26988.658546049424, -132479.8175668499, 61723.805871463526, -64175.68047948844, 64448.52822405437, -113006.21783807491, 0.016, 0.9580000000000001, -0.052000000000000005, 192.0, 0.0, 0.0, 0.0, 0.0, 0.0, 0.0, 0.0, 0.0, 0.0, 1.6664042297809355E9, 0.0, 2022-10-21 19:03:49.780
45.0, -126819.70767017695, -155599.56796164133, -26995.811104275122, -132491.23930826658, 61720.855441195425, -64192.82426748565, 64431.20562210151, -113010.35291079915, 0.016, 0.9580000000000001, -0.052000000000000005, 192.0, 0.0, 0.0, 0.0, 0.0, 0.0, 0.0, 0.0, 0.0, 0.0, 1.6664042297809484E9, 0.0, 2022-10-21 19:03:49.780
46.0, -126827.88840864759, -155608.1286797677, -27006.986976502776, -132495.284974013, 61718.44145279425, -64202.368462368075, 64416.140546338625, -113023.80866096124, 0.018000000000000002, 0.9560000000000001, -0.058, 192.0, 0.0, 144.0, 29.0, 224.0, 254.0, 48.0, 0.0, 0.0, 0.0, 1.6664042297809613E9, 0.0, 2022-10-21 19:03:49.780
47.0, -126822.79221091178, -155601.26669421993, -26996.05697346413, -132487.0818837979, 61723.939981930256, -64204.178953668954, 64417.191078328025, -113029.44130056398, 0.018000000000000002, 0.9560000000000001, -0.058, 192.0, 0.0, 0.0, 0.0, 0.0, 0.0, 0.0, 0.0, 0.0, 0.0, 1.6664042297809749E9, 0.0, 2022-10-21 19:03:49.780
48.0, -126824.3344812792, -155605.49117392197, -26994.62646181899, -132479.28112498298, 61728.43268256578, -64181.33547083563, 64436.03359890385, -113026.04383540677, 0.018000000000000002, 0.9560000000000001, -0.058, 192.0, 0.0, 0.0, 0.0, 0.0, 0.0, 0.0, 0.0, 0.0, 0.0, 1.6664042297809873E9, 0.0, 2022-10-21 19:03:49.780
49.0, -126832.40346102757, -155612.42021470313, -27002.896607267456, -132496.2237472801, 61720.07313013949, -64172.41712479796, 64432.23380234645, -113029.95539068645, 0.018000000000000002, 0.9560000000000001, -0.058, 192.0, 0.0, 0.0, 0.0, 0.0, 0.0, 0.0, 0.0, 0.0, 0.0, 1.666404229781001E9, 0.0, 2022-10-21 19:03:49.781
50.0, -126825.51912373533, -155606.45229893355, -26998.76153454322, -132491.66399141122, 61726.48808079816, -64192.220770385364, 64414.262999804385, -113017.34900681366, 0.018000000000000002, 0.9560000000000001, -0.058, 192.0, 0.0, 0.0, 0.0, 0.0, 0.0, 0.0, 0.0, 0.0, 0.0, 1.6664042297810137E9, 0.0, 2022-10-21 19:03:49.781
51.0, -126821.31699577773, -155600.59614188626, -26996.95104324234, -132467.4570521661, 61736.00992393612, -64188.443325572414, 64421.3037993078, -113014.44328003447, 0.018000000000000002, 0.9560000000000001, -0.058, 192.0, 0.0, 0.0, 0.0, 0.0, 0.0, 0.0, 0.0, 0.0, 0.0, 1.6664042297810266E9, 0.0, 2022-10-21 19:03:49.781
52.0, -126832.64933021658, -155615.30358973786, -27012.664319594423, -132465.1548224872, 61722.84474645195, -64159.76603743625, 64432.97140991347, -113047.41210310603, 0.018000000000000002, 0.9560000000000001, -0.058, 192.0, 0.0, 0.0, 0.0, 0.0, 0.0, 0.0, 0.0, 0.0, 0.0, 1.6664042297810392E9, 0.0, 2022-10-21 19:03:49.781
53.0, -126824.42388825702, -155604.23947623247, -27003.29893866765, -132486.99247682007, 61720.363702817405, -64160.414238025456, 64427.51758426638, -113037.51028031234, 0.018000000000000002, 0.9560000000000001, -0.058, 192.0, 0.0, 0.0, 0.0, 0.0, 0.0, 0.0, 0.0, 0.0, 0.0, 1.6664042297810519E9, 0.0, 2022-10-21 19:03:49.781
54.0, -126828.46955400343, -155606.85463033375, -27005.243540435262, -132488.60180242083, 61722.12949062938, -64191.21494188487, 64403.26594153237, -113033.48696631039, 0.018000000000000002, 0.9560000000000001, -0.058, 192.0, 0.0, 0.0, 0.0, 0.0, 0.0, 0.0, 0.0, 0.0, 0.0, 1.6664042297810645E9, 0.0, 2022-10-21 19:03:49.781
55.0, -126833.99043488389, -155613.44839494806, -27011.94906377185, -132489.3170582434, 61715.08869112596, -64204.06719494668, 64392.581807682735, -113037.46557682344, 0.018000000000000002, 0.9560000000000001, -0.058, 192.0, 0.0, 0.0, 0.0, 0.0, 0.0, 0.0, 0.0, 0.0, 0.0, 1.6664042297810771E9, 0.0, 2022-10-21 19:03:49.781
56.0, -126824.28977779028, -155601.26669421993, -27002.471924122805, -132469.0663777669, 61726.175156375786, -64196.691119276424, 64408.809174157286, -113013.75037595636, 0.024, 0.9580000000000001, -0.056, 192.0, 0.0, 192.0, 29.0, 240.0, 254.0, 64.0, 0.0, 0.0, 0.0, 1.6664042297810895E9, 0.0, 2022-10-21 19:03:49.781
57.0, -126838.34902505268, -155615.7282728825, -27018.989863275274, -132489.16059603222, 61709.679568967775, -64189.493857561814, 64410.686720691534, -113009.34708229866, 0.024, 0.9580000000000001, -0.056, 192.0, 0.0, 0.0, 0.0, 0.0, 0.0, 0.0, 0.0, 0.0, 0.0, 1.6664042297811031E9, 0.0, 2022-10-21 19:03:49.781
58.0, -126830.99530112688, -155612.06258679184, -27019.615712120023, -132495.4190844797, 61712.20531609122, -64211.08564270564, 64395.84516237321, -113016.79021320227, 0.024, 0.9580000000000001, -0.056, 192.0, 0.0, 0.0, 0.0, 0.0, 0.0, 0.0, 0.0, 0.0, 0.0, 1.6664042297811158E9, 0.0, 2022-10-21 19:03:49.781
59.0, -126834.05749011727, -155615.50475543796, -27020.845058065064, -132486.7242558866, 61718.70967372772, -64214.01372122928, 64396.98510134043, -113015.27029457931, 0.024, 0.9580000000000001, -0.056, 192.0, 0.0, 0.0, 0.0, 0.0, 0.0, 0.0, 0.0, 0.0, 0.0, 1.66640422978114E9, 0.0, 2022-10-21 19:03:49.781
60.0, -126828.98364412591, -155608.46395593454, -27012.172581216408, -132481.85157559533, 61723.02356040759, -64199.775660011255, 64413.614799215175, -113008.90004740955, 0.024, 0.9580000000000001, -0.056, 192.0, 0.0, 0.0, 0.0, 0.0, 0.0, 0.0, 0.0, 0.0, 0.0, 1.6664042297811527E9, 0.0, 2022-10-21 19:03:49.781
61.0, -126830.30239704877, -155610.00622630195, -27014.854790551042, -132488.7806163765, 61721.79421446255, -64184.64352901501, 64425.95296215451, -113000.36168102761, 0.024, 0.9580000000000001, -0.056, 192.0, 0.0, 0.0, 0.0, 0.0, 0.0, 0.0, 0.0, 0.0, 0.0, 1.6664042297811651E9, 0.0, 2022-10-21 19:03:49.781
62.0, -126829.25186505937, -155611.19086875807, -27021.8285348211, -132504.53859621746, 61715.02163589259, -64202.569628068166, 64404.94232236652, -113008.2741985648, 0.024, 0.9580000000000001, -0.056, 192.0, 0.0, 0.0, 0.0, 0.0, 0.0, 0.0, 0.0, 0.0, 0.0, 1.6664042297811778E9, 0.0, 2022-10-21 19:03:49.781
63.0, -126826.68141444701, -155611.95082806956, -27020.554485387147, -132504.1809683062, 61717.435624293765, -64219.26638117628, 64391.50892394888, -113013.50450676733, 0.024, 0.9580000000000001, -0.056, 192.0, 0.0, 0.0, 0.0, 0.0, 0.0, 0.0, 0.0, 0.0, 0.0, 1.66640422978119E9, 0.0, 2022-10-21 19:03:49.781
64.0, -126828.84953365917, -155610.60972340225, -27021.672072609912, -132488.8700233543, 61720.27429583959, -64192.578398296646, 64411.20081081401, -113012.72219571141, 0.024, 0.9580000000000001, -0.056, 192.0, 0.0, 0.0, 0.0, 0.0, 0.0, 0.0, 0.0, 0.0, 0.0, 1.6664042297812028E9, 0.0, 2022-10-21 19:03:49.781
65.0, -126833.31988255023, -155616.3317699828, -27019.235732464284, -132477.7165028711, 61722.755339474126, -64170.85250268609, 64419.31449405128, -113021.34996907115, 0.024, 0.9580000000000001, -0.056, 192.0, 0.0, 0.0, 0.0, 0.0, 0.0, 0.0, 0.0, 0.0, 0.0, 1.6664042297812166E9, 0.0, 2022-10-21 19:03:49.781
66.0, -126858.55500204027, -155639.46582549403, -27044.426148465416, -132505.63383169577, 61700.49300199664, -64189.426802328446, 64388.69260414751, -113052.01656246383, 0.014, 0.962, -0.056, 192.0, 0.0, 112.0, 30.0, 16.0, 254.0, 64.0, 0.0, 0.0, 0.0, 1.6664042297812293E9, 0.0, 2022-10-21 19:03:49.781
67.0, -126833.65515871707, -155609.69330187957, -27023.035529021687, -132483.84088085187, 61725.30343834203, -64203.061366446185, 64388.58084542523, -113012.58808524467, 0.014, 0.962, -0.056, 192.0, 0.0, 0.0, 0.0, 0.0, 0.0, 0.0, 0.0, 0.0, 0.0, 1.6664042297812426E9, 0.0, 2022-10-21 19:03:49.781
68.0, -126832.87284766113, -155607.94986581206, -27021.180334231896, -132474.22963073608, 61728.56679303251, -64200.334453622636, 64399.55555195279, -113002.14982058405, 0.014, 0.962, -0.056, 192.0, 0.0, 0.0, 0.0, 0.0, 0.0, 0.0, 0.0, 0.0, 0.0, 1.6664042297812552E9, 0.0, 2022-10-21 19:03:49.781
69.0, -126843.0428913883, -155618.25402000596, -27028.712872113334, -132479.05760753842, 61719.55904001702, -64161.1965490814, 64421.594371985724, -113022.86988769412, 0.014, 0.962, -0.056, 192.0, 0.0, 0.0, 0.0, 0.0, 0.0, 0.0, 0.0, 0.0, 0.0, 1.666404229781268E9, 0.0, 2022-10-21 19:03:49.781
70.0, -126863.65119977608, -155638.30353478238, -27056.272573026727, -132505.0303345955, 61696.49203973914, -64175.65812774398, 64395.42047922856, -113036.0350651783, 0.014, 0.962, -0.056, 192.0, 0.0, 0.0, 0.0, 0.0, 0.0, 0.0, 0.0, 0.0, 0.0, 1.6664042297812817E9, 0.0, 2022-10-21 19:03:49.781
71.0, -126841.72413846543, -155621.8750026077, -27039.039378051686, -132502.8845671278, 61712.16061260231, -64196.24408438732, 64380.71303137697, -113024.4792132949, 0.014, 0.962, -0.056, 192.0, 0.0, 0.0, 0.0, 0.0, 0.0, 0.0, 0.0, 0.0, 0.0, 1.666404229781294E9, 0.0, 2022-10-21 19:03:49.781
72.0, -126830.66002496006, -155613.53780192588, -27031.171564003416, -132488.2218227651, 61724.47642379718, -64204.06719494668, 64380.93654882152, -113015.80673644623, 0.014, 0.962, -0.056, 192.0, 0.0, 0.0, 0.0, 0.0, 0.0, 0.0, 0.0, 0.0, 0.0, 1.6664042297813067E9, 0.0, 2022-10-21 19:03:49.781
73.0, -126828.40249877007, -155609.98387455748, -27034.524325671715, -132467.0547207659, 61728.209165121225, -64192.66780527447, 64397.85681937419, -113006.75427994184, 0.014, 0.962, -0.056, 192.0, 0.0, 0.0, 0.0, 0.0, 0.0, 0.0, 0.0, 0.0, 0.0, 1.6664042297813191E9, 0.0, 2022-10-21 19:03:49.781
74.0, -126832.51521974984, -155612.35315946976, -27042.97328507582, -132480.7786918615, 61717.21210684921, -64182.20718886938, 64397.678005418544, -113003.69209095146, 0.014, 0.962, -0.056, 192.0, 0.0, 0.0, 0.0, 0.0, 0.0, 0.0, 0.0, 0.0, 0.0, 1.666404229781344E9, 0.0, 2022-10-21 19:03:49.781
75.0, -126828.51425749234, -155609.08980477927, -27042.34743623107, -132488.9817820766, 61718.284990583066, -64205.67652054746, 64376.846179586195, -113014.24211433437, 0.018000000000000002, 0.9580000000000001, -0.054, 192.0, 0.0, 144.0, 29.0, 240.0, 254.0, 80.0, 0.0, 0.0, 0.0, 1.6664042297813573E9, 0.0, 2022-10-21 19:03:49.781
76.0, -126828.35779528116, -155606.94403731156, -27040.514593185737, -132483.30443898492, 61719.78255746157, -64225.88249753505, 64366.564377136754, -113029.10602439714, 0.018000000000000002, 0.9580000000000001, -0.054, 192.0, 0.0, 0.0, 0.0, 0.0, 0.0, 0.0, 0.0, 0.0, 0.0, 1.6664042297813709E9, 0.0, 2022-10-21 19:03:49.781
77.0, -126844.87573443363, -155623.6184386752, -27055.579668948612, -132490.8816803553, 61706.14799334383, -64208.6045990711, 64382.47881918894, -113030.73770174239, 0.018000000000000002, 0.9580000000000001, -0.054, 192.0, 0.0, 0.0, 0.0, 0.0, 0.0, 0.0, 0.0, 0.0, 0.0, 1.6664042297813835E9, 0.0, 2022-10-21 19:03:49.781
78.0, -126851.58125777022, -155632.24621203498, -27065.526195231225, -132501.49875897155, 61698.771917673585, -64192.17606689645, 64386.68094714653, -113030.6259430201, 0.018000000000000002, 0.9580000000000001, -0.054, 192.0, 0.0, 0.0, 0.0, 0.0, 0.0, 0.0, 0.0, 0.0, 0.0, 1.6664042297813964E9, 0.0, 2022-10-21 19:03:49.781
79.0, -126833.61045522815, -155607.18990650057, -27048.091834556086, -132500.26941302652, 61717.860307438415, -64184.71058424838, 64392.60415942719, -113003.669739207, 0.018000000000000002, 0.9580000000000001, -0.054, 192.0, 0.0, 0.0, 0.0, 0.0, 0.0, 0.0, 0.0, 0.0, 0.0, 1.6664042297814093E9, 0.0, 2022-10-21 19:03:49.781
80.0, -126849.6366560026, -155622.85847936376, -27061.72639867382, -132505.96910786262, 61707.55615324452, -64186.05168891569, 64384.445772701, -113004.54145724076, 0.018000000000000002, 0.9580000000000001, -0.054, 192.0, 0.0, 0.0, 0.0, 0.0, 0.0, 0.0, 0.0, 0.0, 0.0, 1.666404229781422E9, 0.0, 2022-10-21 19:03:49.781
81.0, -126849.01080715786, -155624.55721194236, -27064.87799464202, -132499.44239848165, 61702.83993516445, -64194.63475878654, 64378.70137437599, -113006.41900377501, 0.018000000000000002, 0.9580000000000001, -0.054, 192.0, 0.0, 0.0, 0.0, 0.0, 0.0, 0.0, 0.0, 0.0, 0.0, 1.6664042297814343E9, 0.0, 2022-10-21 19:03:49.781
82.0, -126844.29458907779, -155619.63982816218, -27062.531061474212, -132492.781578634, 61707.422042777784, -64169.26552882976, 64394.52640945034, -113022.53461152728, 0.018000000000000002, 0.9580000000000001, -0.054, 192.0, 0.0, 0.0, 0.0, 0.0, 0.0, 0.0, 0.0, 0.0, 0.0, 1.6664042297814472E9, 0.0, 2022-10-21 19:03:49.781
83.0, -126834.99626338438, -155609.49213617947, -27050.17054679043, -132486.54544193094, 61721.838917951456, -64168.527921262736, 64394.23583677243, -113022.35579757164, 0.018000000000000002, 0.9580000000000001, -0.054, 192.0, 0.0, 0.0, 0.0, 0.0, 0.0, 0.0, 0.0, 0.0, 0.0, 1.6664042297814598E9, 0.0, 2022-10-21 19:03:49.781
84.0, -126838.12550760813, -155611.63790364718, -27056.16081430445, -132490.38994197728, 61716.29568532654, -64190.09735466211, 64378.14258076461, -113016.03025389079, 0.018000000000000002, 0.9580000000000001, -0.054, 192.0, 0.0, 0.0, 0.0, 0.0, 0.0, 0.0, 0.0, 0.0, 0.0, 1.6664042297814727E9, 0.0, 2022-10-21 19:03:49.781
85.0, -126834.90685640657, -155609.49213617947, -27053.031570080708, -132495.95552634663, 61712.65235098033, -64187.43749707193, 64386.278615746334, -113009.10121310965, 0.022, 0.9580000000000001, -0.056, 192.0, 0.0, 176.0, 29.0, 240.0, 254.0, 64.0, 0.0, 0.0, 0.0, 1.6664042297814853E9, 0.0, 2022-10-21 19:03:49.781
86.0, -126836.11385060714, -155608.30749372335, -27048.74003514529, -132489.25000301003, 61716.69801672674, -64171.45599978638, 64401.14252580912, -112998.26061704883, 0.022, 0.9580000000000001, -0.056, 192.0, 0.0, 0.0, 0.0, 0.0, 0.0, 0.0, 0.0, 0.0, 0.0, 1.666404229781499E9, 0.0, 2022-10-21 19:03:49.781
87.0, -126850.57542926974, -155620.80211887386, -27064.54271847519, -132505.4773694846, 61706.662083466304, -64186.83399997163, 64377.67319413104, -113005.14495434106, 0.022, 0.9580000000000001, -0.056, 192.0, 0.0, 0.0, 0.0, 0.0, 0.0, 0.0, 0.0, 0.0, 0.0, 1.6664042297815115E9, 0.0, 2022-10-21 19:03:49.781
88.0, -126841.9923593989, -155611.21322050254, -27056.049055582174, -132497.1848722917, 61716.385092304365, -64200.37915711155, 64366.67613585903, -113005.5249339968, 0.022, 0.9580000000000001, -0.056, 192.0, 0.0, 0.0, 0.0, 0.0, 0.0, 0.0, 0.0, 0.0, 0.0, 1.6664042297815244E9, 0.0, 2022-10-21 19:03:49.781
89.0, -126850.91070543656, -155625.0713020648, -27070.622392967034, -132497.0284100805, 61699.08484209596, -64195.171200653465, 64367.68196435952, -113019.45007079246, 0.022, 0.9580000000000001, -0.056, 192.0, 0.0, 0.0, 0.0, 0.0, 0.0, 0.0, 0.0, 0.0, 0.0, 1.6664042297815492E9, 0.0, 2022-10-21 19:03:49.781
90.0, -126844.7863274558, -155621.0256363184, -27059.044189339187, -132486.50073844203, 61716.094519626444, -64166.762133450764, 64393.073546060754, -112998.14885832655, 0.022, 0.9580000000000001, -0.056, 192.0, 0.0, 0.0, 0.0, 0.0, 0.0, 0.0, 0.0, 0.0, 0.0, 1.666404229781562E9, 0.0, 2022-10-21 19:03:49.781
91.0, -126824.20037081247, -155597.73511859597, -27035.932485572397, -132465.40069167624, 61742.179005405786, -64146.66791518545, 64409.725595679956, -112988.38114599958, 0.022, 0.9580000000000001, -0.056, 192.0, 0.0, 0.0, 0.0, 0.0, 0.0, 0.0, 0.0, 0.0, 0.0, 1.666404229781575E9, 0.0, 2022-10-21 19:03:49.781
92.0, -126849.16726936905, -155619.81864211784, -27066.01793360924, -132502.05755258293, 61709.21018233421, -64185.22467437085, 64366.38556318112, -113027.45199530745, 0.022, 0.9580000000000001, -0.056, 192.0, 0.0, 0.0, 0.0, 0.0, 0.0, 0.0, 0.0, 0.0, 0.0, 1.6664042297815888E9, 0.0, 2022-10-21 19:03:49.781
93.0, -126837.09732736318, -155606.76522335593, -27057.367808505038, -132499.2859362705, 61711.490060268654, -64184.28590110373, 64371.10178126118, -113015.69497772396, 0.022, 0.9580000000000001, -0.056, 192.0, 0.0, 0.0, 0.0, 0.0, 0.0, 0.0, 0.0, 0.0, 0.0, 1.6664042297816012E9, 0.0, 2022-10-21 19:03:49.781
94.0, -126824.44624000147, -155596.34931043975, -27041.16279377494, -132479.19171800517, 61726.64454300935, -64154.066342600156, 64400.695490920014, -112980.22275927338, 0.022, 0.9580000000000001, -0.056, 192.0, 0.0, 0.0, 0.0, 0.0, 0.0, 0.0, 0.0, 0.0, 0.0, 1.6664042297816143E9, 0.0, 2022-10-21 19:03:49.781
95.0, -126830.39180402659, -155609.58154315728, -27049.678808412413, -132489.25000301003, 61724.23055460818, -64159.63192696952, 64390.86072335968, -112986.19067504296, 0.02, 0.9580000000000001, -0.058, 192.0, 0.0, 160.0, 29.0, 240.0, 254.0, 48.0, 0.0, 0.0, 0.0, 1.6664042297816272E9, 0.0, 2022-10-21 19:03:49.781
96.0, -126826.83787665819, -155608.17338325662, -27049.8352706236, -132491.5745844334, 61728.65620001033, -64180.57551152415, 64372.35347895068, -112998.08180309318, 0.02, 0.9580000000000001, -0.058, 192.0, 0.0, 0.0, 0.0, 0.0, 0.0, 0.0, 0.0, 0.0, 0.0, 1.6664042297816408E9, 0.0, 2022-10-21 19:03:49.781
97.0, -126830.03417611531, -155612.15199376966, -27057.03253233821, -132491.88750885578, 61721.347179573444, -64201.96613096788, 64359.724743333434, -113004.98849212987, 0.02, 0.9580000000000001, -0.058, 192.0, 0.0, 0.0, 0.0, 0.0, 0.0, 0.0, 0.0, 0.0, 0.0, 1.6664042297816548E9, 0.0, 2022-10-21 19:03:49.781
98.0, -126839.69012972, -155622.79142413038, -27070.331820289117, -132499.1741775482, 61710.17130734579, -64194.56770355317, 64363.993926524396, -113019.33831207018, 0.02, 0.9580000000000001, -0.058, 192.0, 0.0, 0.0, 0.0, 0.0, 0.0, 0.0, 0.0, 0.0, 0.0, 1.666404229781668E9, 0.0, 2022-10-21 19:03:49.781
99.0, -126837.14203085209, -155619.3269037398, -27069.50480574427, -132500.783503149, 61711.11008061291, -64185.42584007095, 64368.62073762665, -113012.14105035557, 0.02, 0.9580000000000001, -0.058, 192.0, 0.0, 0.0, 0.0, 0.0, 0.0, 0.0, 0.0, 0.0, 0.0, 1.6664042297816808E9, 0.0, 2022-10-21 19:03:49.781
100.0, -126821.42875450001, -155605.96056055554, -27063.31337253015, -132498.16834904772, 61719.603743505926, -64184.28590110373, 64367.63726087061, -113002.52980023979, 0.02, 0.9580000000000001, -0.058, 192.0, 0.0, 0.0, 0.0, 0.0, 0.0, 0.0, 0.0, 0.0, 0.0, 1.6664042297816937E9, 0.0, 2022-10-21 19:03:49.781
101.0, -126825.83204815771, -155610.31915072433, -27069.214233066352, -132503.06338108343, 61709.92543815678, -64207.66582580398, 64347.23011818292, -113016.54434401327, 0.02, 0.9580000000000001, -0.058, 192.0, 0.0, 0.0, 0.0, 0.0, 0.0, 0.0, 0.0, 0.0, 0.0, 1.6664042297817066E9, 0.0, 2022-10-21 19:03:49.781
102.0, -126821.54051322228, -155603.99360704346, -27062.73222717431, -132487.99830532054, 61719.35787431692, -64176.37338356655, 64376.13092376363, -113009.90587591003, 0.02, 0.9580000000000001, -0.058, 192.0, 0.0, 0.0, 0.0, 0.0, 0.0, 0.0, 0.0, 0.0, 0.0, 1.6664042297817197E9, 0.0, 2022-10-21 19:03:49.781
103.0, -126824.1333155791, -155612.08493853628, -27070.73415168931, -132495.79906413544, 61713.74758645864, -64148.9924966088, 64391.17364778205, -112996.2713117923, 0.02, 0.9580000000000001, -0.058, 192.0, 0.0, 0.0, 0.0, 0.0, 0.0, 0.0, 0.0, 0.0, 0.0, 1.6664042297817333E9, 0.0, 2022-10-21 19:03:49.781
104.0, -126823.84274290118, -155611.21322050254, -27072.254070312272, -132498.7271426591, 61715.15574635932, -64173.89233993201, 64371.54881615029, -112994.79609665825, 0.02, 0.9540000000000001, -0.056, 192.0, 0.0, 160.0, 29.0, 208.0, 254.0, 64.0, 0.0, 0.0, 0.0, 1.6664042297817588E9, 0.0, 2022-10-21 19:03:49.781
105.0, -126826.97198712493, -155614.94596182657, -27082.893500673, -132511.66880269872, 61702.057624108515, -64204.64834030251, 64348.28065017232, -113013.45980327843, 0.02, 0.9540000000000001, -0.056, 192.0, 0.0, 0.0, 0.0, 0.0, 0.0, 0.0, 0.0, 0.0, 0.0, 1.6664042297817729E9, 0.0, 2022-10-21 19:03:49.781
106.0, -126832.44816451648, -155622.05381656336, -27088.50378853128, -132513.83692191087, 61694.078051337965, -64208.85046826011, 64352.75099906338, -113013.68332072298, 0.02, 0.9540000000000001, -0.056, 192.0, 0.0, 0.0, 0.0, 0.0, 0.0, 0.0, 0.0, 0.0, 0.0, 1.6664042297817855E9, 0.0, 2022-10-21 19:03:49.781
107.0, -126815.12556256361, -155605.66998787763, -27070.60004122258, -132491.75339838903, 61717.41327254931, -64191.57256979616, 64378.34374646471, -112980.71449765141, 0.02, 0.9540000000000001, -0.056, 192.0, 0.0, 0.0, 0.0, 0.0, 0.0, 0.0, 0.0, 0.0, 0.0, 1.6664042297817986E9, 0.0, 2022-10-21 19:03:49.781
108.0, -126821.04877484427, -155611.0791100358, -27077.484378514815, -132495.75436064653, 61719.49198478365, -64194.99238669782, 64371.54881615029, -112991.64450069005, 0.02, 0.9540000000000001, -0.056, 192.0, 0.0, 0.0, 0.0, 0.0, 0.0, 0.0, 0.0, 0.0, 0.0, 1.6664042297818117E9, 0.0, 2022-10-21 19:03:49.781
109.0, -126835.6891674625, -155629.0722643223, -27094.583463023122, -132514.70863994464, 61702.97404563118, -64218.573477098165, 64342.62565882512, -113025.10506213964, 0.02, 0.9540000000000001, -0.056, 192.0, 0.0, 0.0, 0.0, 0.0, 0.0, 0.0, 0.0, 0.0, 0.0, 1.6664042297818244E9, 0.0, 2022-10-21 19:03:49.781
110.0, -126840.11481286465, -155631.7768254014, -27091.767143221754, -132510.77473292052, 61703.08580435345, -64224.56374461219, 64341.753940791365, -113019.60653300364, 0.02, 0.9540000000000001, -0.056, 192.0, 0.0, 0.0, 0.0, 0.0, 0.0, 0.0, 0.0, 0.0, 0.0, 1.6664042297818375E9, 0.0, 2022-10-21 19:03:49.781
111.0, -126829.72125169293, -155618.99162757298, -27081.619451239047, -132499.2859362705, 61716.40744404882, -64183.59299702561, 64375.77329585234, -113000.5181432388, 0.02, 0.9540000000000001, -0.056, 192.0, 0.0, 0.0, 0.0, 0.0, 0.0, 0.0, 0.0, 0.0, 0.0, 1.6664042297818503E9, 0.0, 2022-10-21 19:03:49.781
112.0, -126815.66200443055, -155608.46395593454, -27076.031515125218, -132500.24706128205, 61721.905973184825, -64195.61823554257, 64365.513845147354, -112998.28296879328, 0.02, 0.9540000000000001, -0.056, 192.0, 0.0, 0.0, 0.0, 0.0, 0.0, 0.0, 0.0, 0.0, 0.0, 1.666404229781864E9, 0.0, 2022-10-21 19:03:49.781
113.0, -126814.54441720777, -155605.04413903286, -27068.566032477145, -132493.09450305635, 61728.67855175478, -64209.94570373842, 64356.12611247613, -113003.24505606235, 0.02, 0.9540000000000001, -0.056, 192.0, 0.0, 0.0, 0.0, 0.0, 0.0, 0.0, 0.0, 0.0, 0.0, 1.666404229781878E9, 0.0, 2022-10-21 19:03:49.781
114.0, -126821.94284462248, -155613.11311878124, -27073.326954046126, -132492.44630246714, 61722.956505174225, -64199.61919780007, 64362.876339301634, -113007.71540495341, 0.022, 0.9540000000000001, -0.054, 192.0, 0.0, 176.0, 29.0, 208.0, 254.0, 80.0, 0.0, 0.0, 0.0, 1.6664042297818909E9, 0.0, 2022-10-21 19:03:49.781
115.0, -126819.05946958775, -155609.46978443503, -27070.912965644955, -132493.1839100342, 61725.124624386386, -64197.94281696592, 64370.25241497188, -113003.84855316265, 0.022, 0.9540000000000001, -0.054, 192.0, 0.0, 0.0, 0.0, 0.0, 0.0, 0.0, 0.0, 0.0, 0.0, 1.6664042297819042E9, 0.0, 2022-10-21 19:03:49.781
116.0, -126813.09155381819, -155600.5290866529, -27065.503843486767, -132486.18781401968, 61732.187775634266, -64190.63379652904, 64372.867569073154, -113009.7717654433, 0.022, 0.9540000000000001, -0.054, 192.0, 0.0, 0.0, 0.0, 0.0, 0.0, 0.0, 0.0, 0.0, 0.0, 1.6664042297819169E9, 0.0, 2022-10-21 19:03:49.781
117.0, -126811.59398693968, -155600.26086571944, -27066.889651643, -132483.34914247383, 61729.326752343986, -64209.23044791585, 64354.11445547515, -113007.44718401995, 0.022, 0.9540000000000001, -0.054, 192.0, 0.0, 0.0, 0.0, 0.0, 0.0, 0.0, 0.0, 0.0, 0.0, 1.6664042297819295E9, 0.0, 2022-10-21 19:03:49.781
118.0, -126819.81942889922, -155610.27444723542, -27075.204500580374, -132502.0799043274, 61712.38413004686, -64225.32370392367, 64346.78308329381, -113006.88839040857, 0.022, 0.9540000000000001, -0.054, 192.0, 0.0, 0.0, 0.0, 0.0, 0.0, 0.0, 0.0, 0.0, 0.0, 1.666404229781942E9, 0.0, 2022-10-21 19:03:49.781
119.0, -126821.42875450001, -155605.49117392197, -27073.304602301672, -132495.24027052405, 61714.440490536756, -64209.43161361595, 64362.5410631348, -113000.04875660525, 0.022, 0.9540000000000001, -0.054, 192.0, 0.0, 0.0, 0.0, 0.0, 0.0, 0.0, 0.0, 0.0, 0.0, 1.6664042297820337E9, 0.0, 2022-10-21 19:03:49.782
120.0, -126815.14791430807, -155603.50186866545, -27069.840081911098, -132502.50458747204, 61717.100348126936, -64200.84854374511, 64366.720839347945, -112987.93411111047, 0.022, 0.9540000000000001, -0.054, 192.0, 0.0, 0.0, 0.0, 0.0, 0.0, 0.0, 0.0, 0.0, 0.0, 1.6664042297820473E9, 0.0, 2022-10-21 19:03:49.782
121.0, -126808.21887352693, -155595.61170287273, -27066.26380279825, -132503.5774712059, 61721.86126969592, -64238.44417791894, 64340.59165007969, -112999.40055601604, 0.022, 0.9540000000000001, -0.054, 192.0, 0.0, 0.0, 0.0, 0.0, 0.0, 0.0, 0.0, 0.0, 0.0, 1.6664042302594187E9, 0.0, 2022-10-21 19:03:50.259
122.0, -126809.91760610553, -155601.75843259794, -27074.086913357605, -132515.15567483375, 61714.10521436992, -64255.65502114952, 64333.528498831816, -113010.1740968435, 0.022, 0.9540000000000001, -0.054, 192.0, 0.0, 0.0, 0.0, 0.0, 0.0, 0.0, 0.0, 0.0, 0.0, 1.6664042302595072E9, 0.0, 2022-10-21 19:03:50.259
123.0, -126807.30245200425, -155599.70207210805, -27069.661267955456, -132504.6280031953, 61718.64261849435, -64243.29450646574, 64350.87345252913, -113019.49477428137, 0.022, 0.9540000000000001, -0.054, 192.0, 0.0, 0.0, 0.0, 0.0, 0.0, 0.0, 0.0, 0.0, 0.0, 1.6664042302596965E9, 0.0, 2022-10-21 19:03:50.259
124.0, -126811.01284158384, -155603.56892389883, -27072.36582903455, -132494.0332763235, 61722.464766796205, -64224.34022716764, 64360.909385789564, -113018.89127718107, 0.02, 0.9540000000000001, -0.054, 192.0, 0.0, 160.0, 29.0, 208.0, 254.0, 80.0, 0.0, 0.0, 0.0, 1.6664042302597225E9, 0.0, 2022-10-21 19:03:50.259
125.0, -126823.32865277871, -155615.70592113805, -27082.31235531716, -132507.66784044122, 61717.32386557149, -64226.3071806797, 64350.7393420624, -113016.14201261307, 0.02, 0.9540000000000001, -0.054, 192.0, 0.0, 0.0, 0.0, 0.0, 0.0, 0.0, 0.0, 0.0, 0.0, 1.6664042302597473E9, 0.0, 2022-10-21 19:03:50.259
126.0, -126845.52393502284, -155634.7943109029, -27103.322995105147, -132534.48993378758, 61691.88758038135, -64223.28969517824, 64337.86473725614, -113046.09335018318, 0.02, 0.9540000000000001, -0.054, 192.0, 0.0, 0.0, 0.0, 0.0, 0.0, 0.0, 0.0, 0.0, 0.0, 1.6664042302597697E9, 0.0, 2022-10-21 19:03:50.259
127.0, -126817.51719922034, -155608.46395593454, -27084.435771040415, -132513.00990736604, 61713.07703412498, -64209.54337233822, 64355.187339209006, -113026.71438774043, 0.02, 0.9540000000000001, -0.054, 192.0, 0.0, 0.0, 0.0, 0.0, 0.0, 0.0, 0.0, 0.0, 0.0, 1.666404230259792E9, 0.0, 2022-10-21 19:03:50.259
128.0, -126813.15860905155, -155603.27835122088, -27076.344439547593, -132494.14503504575, 61723.20237436323, -64212.44909911742, 64359.50122588888, -113021.08174813769, 0.02, 0.9540000000000001, -0.054, 192.0, 0.0, 0.0, 0.0, 0.0, 0.0, 0.0, 0.0, 0.0, 0.0, 1.6664042302598145E9, 0.0, 2022-10-21 19:03:50.259
129.0, -126826.83787665819, -155616.48823219398, -27086.55918676367, -132513.59105272187, 61709.23253407866, -64239.74057909734, 64333.439091853994, -113037.84555647917, 0.02, 0.9540000000000001, -0.054, 192.0, 0.0, 0.0, 0.0, 0.0, 0.0, 0.0, 0.0, 0.0, 0.0, 1.666404230259837E9, 0.0, 2022-10-21 19:03:50.259
130.0, -126815.05850733025, -155609.80506060185, -27081.351230305583, -132510.90884338724, 61715.60278124843, -64231.023398759775, 64337.66357155605, -113028.65898950804, 0.02, 0.9540000000000001, -0.054, 192.0, 0.0, 0.0, 0.0, 0.0, 0.0, 0.0, 0.0, 0.0, 0.0, 1.666404230259859E9, 0.0, 2022-10-21 19:03:50.259
131.0, -126807.61537642663, -155601.53491515337, -27075.092741858094, -132494.86029086832, 61721.39188306235, -64230.66577084849, 64344.95024024847, -113023.29457083877, 0.02, 0.9540000000000001, -0.054, 192.0, 0.0, 0.0, 0.0, 0.0, 0.0, 0.0, 0.0, 0.0, 0.0, 1.6664042302598813E9, 0.0, 2022-10-21 19:03:50.259
132.0, -126822.34517602267, -155612.1743455141, -27083.653459984478, -132498.3248112589, 61717.21210684921, -64212.56085783969, 64356.930775276516, -113039.38782684659, 0.02, 0.9540000000000001, -0.054, 192.0, 0.0, 0.0, 0.0, 0.0, 0.0, 0.0, 0.0, 0.0, 0.0, 1.6664042302599032E9, 0.0, 2022-10-21 19:03:50.259
133.0, -126817.02546084231, -155609.91681932413, -27080.07718087163, -132515.1780265782, 61717.860307438415, -64214.19253518493, 64348.8394437837, -113024.21099236143, 0.02, 0.9540000000000001, -0.054, 192.0, 0.0, 0.0, 0.0, 0.0, 0.0, 0.0, 0.0, 0.0, 0.0, 1.6664042302599254E9, 0.0, 2022-10-21 19:03:50.259
134.0, -126813.67269917401, -155603.59127564327, -27072.566994734647, -132508.91953813072, 61726.868060453904, -64227.670637091476, 64341.70923730246, -113000.49579149435, 0.022, 0.96, -0.054, 192.0, 0.0, 176.0, 30.0, 0.0, 254.0, 80.0, 0.0, 0.0, 0.0, 1.666404230259998E9, 0.0, 2022-10-21 19:03:50.259
135.0, -126813.76210615184, -155603.05483377635, -27074.39983777998, -132500.26941302652, 61723.29178134105, -64226.86597429109, 64347.72185656094, -113014.77855620129, 0.022, 0.96, -0.054, 192.0, 0.0, 0.0, 0.0, 0.0, 0.0, 0.0, 0.0, 0.0, 0.0, 1.6664042302600124E9, 0.0, 2022-10-21 19:03:50.260
136.0, -126818.07599283171, -155609.84976409076, -27077.79730293719, -132495.3296775019, 61718.68732198326, -64218.729939309356, 64355.09793223118, -113021.30526558224, 0.022, 0.96, -0.054, 192.0, 0.0, 0.0, 0.0, 0.0, 0.0, 0.0, 0.0, 0.0, 0.0, 1.666404230260026E9, 0.0, 2022-10-21 19:03:50.260
137.0, -126831.55409473827, -155623.21610727505, -27088.392029809005, -132510.50651198704, 61706.818545677495, -64218.52877360926, 64346.89484201609, -113026.66968425152, 0.022, 0.96, -0.054, 192.0, 0.0, 0.0, 0.0, 0.0, 0.0, 0.0, 0.0, 0.0, 0.0, 1.666404230260039E9, 0.0, 2022-10-21 19:03:50.260
138.0, -126834.72804245092, -155631.3297905123, -27103.21123638287, -132533.528808776, 61690.74764141413, -64239.070026763686, 64317.681112013, -113050.00490546286, 0.022, 0.96, -0.054, 192.0, 0.0, 0.0, 0.0, 0.0, 0.0, 0.0, 0.0, 0.0, 0.0, 1.6664042302600524E9, 0.0, 2022-10-21 19:03:50.260
139.0, -126809.33646074969, -155607.23460998948, -27083.139369862005, -132505.14209331776, 61713.70288296973, -64239.67352386398, 64326.21947839493, -113032.01175117634, 0.022, 0.96, -0.054, 192.0, 0.0, 0.0, 0.0, 0.0, 0.0, 0.0, 0.0, 0.0, 0.0, 1.6664042302600656E9, 0.0, 2022-10-21 19:03:50.260
140.0, -126809.06823981623, -155603.47951692098, -27073.058733112663, -132494.86029086832, 61718.776728961086, -64211.06329096119, 64352.59453685219, -113020.50060278185, 0.022, 0.96, -0.054, 192.0, 0.0, 0.0, 0.0, 0.0, 0.0, 0.0, 0.0, 0.0, 0.0, 1.666404230260079E9, 0.0, 2022-10-21 19:03:50.260
141.0, -126815.684356175, -155605.71469136653, -27078.17728259293, -132511.69115444316, 61713.658179480815, -64213.4549276179, 64347.632449583114, -113019.40536730354, 0.022, 0.96, -0.054, 192.0, 0.0, 0.0, 0.0, 0.0, 0.0, 0.0, 0.0, 0.0, 0.0, 1.666404230260092E9, 0.0, 2022-10-21 19:03:50.260
142.0, -126821.96519636693, -155609.51448792394, -27078.959593648862, -132505.05268633994, 61717.994417905145, -64233.10211099412, 64330.86864124163, -113017.79604170276, 0.022, 0.96, -0.054, 192.0, 0.0, 0.0, 0.0, 0.0, 0.0, 0.0, 0.0, 0.0, 0.0, 1.6664042302601054E9, 0.0, 2022-10-21 19:03:50.260
143.0, -126824.26742604583, -155614.16365077064, -27084.838102440608, -132509.85831139784, 61711.73592945766, -64234.934954039454, 64327.96291446244, -113024.36745457262, 0.016, 0.962, -0.052000000000000005, 192.0, 0.0, 128.0, 30.0, 16.0, 254.0, 96.0, 0.0, 0.0, 0.0, 1.6664042302601185E9, 0.0, 2022-10-21 19:03:50.260
144.0, -126818.41126899855, -155614.4318717041, -27082.22294833934, -132514.57452947792, 61706.326807299476, -64213.74550029582, 64342.82682452522, -113038.9854954464, 0.016, 0.962, -0.052000000000000005, 192.0, 0.0, 0.0, 0.0, 0.0, 0.0, 0.0, 0.0, 0.0, 0.0, 1.666404230260133E9, 0.0, 2022-10-21 19:03:50.260
145.0, -126836.40442328507, -155632.84970913528, -27105.044079428208, -132536.21101811065, 61687.14901055682, -64197.36167161008, 64339.5858215792, -113059.45969336745, 0.016, 0.962, -0.052000000000000005, 192.0, 0.0, 0.0, 0.0, 0.0, 0.0, 0.0, 0.0, 0.0, 0.0, 1.666404230260146E9, 0.0, 2022-10-21 19:03:50.260
146.0, -126827.84370515868, -155621.33856074078, -27094.60581476758, -132519.78248593598, 61704.06928110949, -64222.46268063339, 64319.35749284715, -113035.69978901146, 0.016, 0.962, -0.052000000000000005, 192.0, 0.0, 0.0, 0.0, 0.0, 0.0, 0.0, 0.0, 0.0, 0.0, 1.6664042302601595E9, 0.0, 2022-10-21 19:03:50.260
147.0, -126813.3821264961, -155603.27835122088, -27081.619451239047, -132490.09936929934, 61723.98468541917, -64225.994256257334, 64322.15146090406, -113009.99528288786, 0.016, 0.962, -0.052000000000000005, 192.0, 0.0, 0.0, 0.0, 0.0, 0.0, 0.0, 0.0, 0.0, 0.0, 1.6664042302601726E9, 0.0, 2022-10-21 19:03:50.260
148.0, -126828.13427783661, -155619.86334560675, -27093.443524055903, -132502.14695956075, 61708.763147445105, -64202.99431121282, 64335.316638388234, -113032.63760002109, 0.016, 0.962, -0.052000000000000005, 192.0, 0.0, 0.0, 0.0, 0.0, 0.0, 0.0, 0.0, 0.0, 0.0, 1.666404230260186E9, 0.0, 2022-10-21 19:03:50.260
149.0, -126837.7902314413, -155626.61357243225, -27102.630091027033, -132511.22176780962, 61705.74566194364, -64192.95837795239, 64336.34481863318, -113050.20607116296, 0.016, 0.962, -0.052000000000000005, 192.0, 0.0, 0.0, 0.0, 0.0, 0.0, 0.0, 0.0, 0.0, 0.0, 1.6664042302602124E9, 0.0, 2022-10-21 19:03:50.260
150.0, -126827.19550456948, -155616.75645312745, -27097.489189802312, -132509.32186953092, 61718.26263883861, -64206.771756025766, 64325.258353383346, -113043.47819608191, 0.016, 0.962, -0.052000000000000005, 192.0, 0.0, 0.0, 0.0, 0.0, 0.0, 0.0, 0.0, 0.0, 0.0, 1.6664042302602258E9, 0.0, 2022-10-21 19:03:50.260
151.0, -126830.10123134867, -155618.79046187288, -27101.244282870804, -132518.48608475758, 61710.97597014618, -64215.488936363334, 64319.7821759918, -113027.76491972983, 0.016, 0.962, -0.052000000000000005, 192.0, 0.0, 0.0, 0.0, 0.0, 0.0, 0.0, 0.0, 0.0, 0.0, 1.666404230260239E9, 0.0, 2022-10-21 19:03:50.260
152.0, -126819.14887656557, -155607.39107220067, -27084.905157673977, -132496.93900310266, 61726.2198598647, -64201.720261778864, 64342.35743789166, -113006.10607935264, 0.016, 0.962, -0.052000000000000005, 192.0, 0.0, 0.0, 0.0, 0.0, 0.0, 0.0, 0.0, 0.0, 0.0, 1.6664042302602522E9, 0.0, 2022-10-21 19:03:50.260
153.0, -126815.17026605252, -155603.92655181012, -27084.033439640218, -132499.86708162632, 61726.77865347608, -64199.61919780007, 64345.37492339312, -113009.41413753202, 0.018000000000000002, 0.962, -0.05, 192.0, 0.0, 144.0, 30.0, 16.0, 254.0, 112.0, 0.0, 0.0, 0.0, 1.6664042302602656E9, 0.0, 2022-10-21 19:03:50.260
154.0, -126823.14983882307, -155608.79923210136, -27091.36481182156, -132512.18289282118, 61723.42589180778, -64211.39856712802, 64331.67330404202, -113018.71246322543, 0.018000000000000002, 0.962, -0.05, 192.0, 0.0, 0.0, 0.0, 0.0, 0.0, 0.0, 0.0, 0.0, 0.0, 1.66640423026028E9, 0.0, 2022-10-21 19:03:50.260
155.0, -126847.55794376826, -155632.983819602, -27119.148030179505, -132539.31791058992, 61698.66015895131, -64226.843622546636, 64308.47219329741, -113039.45488207995, 0.018000000000000002, 0.962, -0.05, 192.0, 0.0, 0.0, 0.0, 0.0, 0.0, 0.0, 0.0, 0.0, 0.0, 1.6664042302602932E9, 0.0, 2022-10-21 19:03:50.260
156.0, -126837.85728667465, -155624.55721194236, -27115.08001268864, -132522.73291620408, 61702.124679341876, -64221.90388702201, 64315.53534454529, -113033.48696631039, 0.018000000000000002, 0.962, -0.05, 192.0, 0.0, 0.0, 0.0, 0.0, 0.0, 0.0, 0.0, 0.0, 0.0, 1.666404230260308E9, 0.0, 2022-10-21 19:03:50.260
157.0, -126823.14983882307, -155606.45229893355, -27099.903178203487, -132492.6251164228, 61716.40744404882, -64189.493857561814, 64344.97259199293, -113025.48504179539, 0.018000000000000002, 0.962, -0.05, 192.0, 0.0, 0.0, 0.0, 0.0, 0.0, 0.0, 0.0, 0.0, 0.0, 1.6664042302603211E9, 0.0, 2022-10-21 19:03:50.260
158.0, -126818.67948993201, -155604.97708379952, -27095.20931186787, -132495.30732575743, 61722.531822029574, -64182.40835456948, 64346.62662108262, -113021.57348651571, 0.018000000000000002, 0.962, -0.05, 192.0, 0.0, 0.0, 0.0, 0.0, 0.0, 0.0, 0.0, 0.0, 0.0, 1.6664042302603345E9, 0.0, 2022-10-21 19:03:50.260
159.0, -126838.4831355194, -155625.1830607871, -27115.392937111013, -132522.21882608163, 61705.70095845473, -64207.5540670817, 64318.10579515765, -113037.1303006566, 0.018000000000000002, 0.962, -0.05, 192.0, 0.0, 0.0, 0.0, 0.0, 0.0, 0.0, 0.0, 0.0, 0.0, 1.6664042302603476E9, 0.0, 2022-10-21 19:03:50.260
160.0, -126843.95931291096, -155629.36283700026, -27119.304492390693, -132532.61238725335, 61698.481344995664, -64225.27900043476, 64309.00863516434, -113039.32077161322, 0.018000000000000002, 0.962, -0.05, 192.0, 0.0, 0.0, 0.0, 0.0, 0.0, 0.0, 0.0, 0.0, 0.0, 1.6664042302603607E9, 0.0, 2022-10-21 19:03:50.260
161.0, -126836.67264421853, -155622.61261017475, -27108.195675396404, -132513.54634923296, 61709.09842361193, -64211.28680840574, 64329.75105401887, -113034.20222213295, 0.018000000000000002, 0.962, -0.05, 192.0, 0.0, 0.0, 0.0, 0.0, 0.0, 0.0, 0.0, 0.0, 0.0, 1.6664042302603738E9, 0.0, 2022-10-21 19:03:50.260
162.0, -126833.94573139498, -155619.25984850645, -27101.288986359716, -132506.1255700738, 61717.18975510476, -64217.18766894194, 64327.40412085106, -113023.18281211649, 0.018000000000000002, 0.962, -0.05, 192.0, 0.0, 0.0, 0.0, 0.0, 0.0, 0.0, 0.0, 0.0, 0.0, 1.6664042302603872E9, 0.0, 2022-10-21 19:03:50.260
163.0, -126845.94861816749, -155628.20054628857, -27118.589236568125, -132528.70083197366, 61701.38707177485, -64235.27023020628, 64309.50037354236, -113028.1225476411, 0.018000000000000002, 0.962, -0.046, 192.0, 0.0, 144.0, 30.0, 16.0, 254.0, 144.0, 0.0, 0.0, 0.0, 1.6664042302604003E9, 0.0, 2022-10-21 19:03:50.260
164.0, -126824.60270221267, -155607.23460998948, -27104.775858494744, -132517.63671846827, 61713.25584808062, -64230.77752957077, 64320.49743181437, -113019.49477428137, 0.018000000000000002, 0.962, -0.046, 192.0, 0.0, 0.0, 0.0, 0.0, 0.0, 0.0, 0.0, 0.0, 0.0, 1.6664042302604263E9, 0.0, 2022-10-21 19:03:50.260
165.0, -126828.5366092368, -155614.476575193, -27108.910931218976, -132511.35587827634, 61710.0148451346, -64217.70175906441, 64335.16017617705, -113023.51808828332, 0.018000000000000002, 0.962, -0.046, 192.0, 0.0, 0.0, 0.0, 0.0, 0.0, 0.0, 0.0, 0.0, 0.0, 1.6664042302604396E9, 0.0, 2022-10-21 19:03:50.260
166.0, -126827.39667026958, -155612.50962168095, -27105.491114317312, -132512.31700328793, 61718.061473138514, -64214.63957007403, 64337.55181283377, -113023.65219875005, 0.018000000000000002, 0.962, -0.046, 192.0, 0.0, 0.0, 0.0, 0.0, 0.0, 0.0, 0.0, 0.0, 0.0, 1.6664042302604527E9, 0.0, 2022-10-21 19:03:50.260
167.0, -126816.9807573534, -155601.13258375318, -27096.28219560173, -132498.30245951444, 61733.97591519069, -64216.58417184165, 64335.3836936216, -113012.09634686666, 0.018000000000000002, 0.962, -0.046, 192.0, 0.0, 0.0, 0.0, 0.0, 0.0, 0.0, 0.0, 0.0, 0.0, 1.666404230260466E9, 0.0, 2022-10-21 19:03:50.260
168.0, -126812.71157416244, -155598.80800232984, -27112.50956207628, -132506.14792181825, 61718.26263883861, -64225.793090557236, 64320.58683879219, -113021.99816966036, 0.018000000000000002, 0.962, -0.046, 192.0, 0.0, 0.0, 0.0, 0.0, 0.0, 0.0, 0.0, 0.0, 0.0, 1.6664042302604792E9, 0.0, 2022-10-21 19:03:50.260
169.0, -126829.81065867076, -155609.87211583523, -27126.9040855055, -132512.92050038822, 61706.17034508829, -64211.46562236138, 64328.49935632937, -113033.30815235474, 0.018000000000000002, 0.962, -0.046, 192.0, 0.0, 0.0, 0.0, 0.0, 0.0, 0.0, 0.0, 0.0, 0.0, 1.6664042302604926E9, 0.0, 2022-10-21 19:03:50.260
170.0, -126862.77948174233, -155643.42208426262, -27135.308341420692, -132527.60559649536, 61700.02361536308, -64175.97105216635, 64344.614964081644, -113037.95731520145, 0.018000000000000002, 0.962, -0.046, 192.0, 0.0, 0.0, 0.0, 0.0, 0.0, 0.0, 0.0, 0.0, 0.0, 1.666404230260506E9, 0.0, 2022-10-21 19:03:50.260
171.0, -126860.72312125243, -155644.0926365963, -27120.153858679994, -132519.1789888357, 61709.746624201136, -64185.20232262639, 64334.46727209893, -113019.33831207018, 0.018000000000000002, 0.962, -0.046, 192.0, 0.0, 0.0, 0.0, 0.0, 0.0, 0.0, 0.0, 0.0, 0.0, 1.6664042302605188E9, 0.0, 2022-10-21 19:03:50.260
172.0, -126863.18181314252, -155650.1499593437, -27119.7515272798, -132511.1770643207, 61713.25584808062, -64203.03901470173, 64327.20295515096, -113019.98651265938, 0.022, 0.9580000000000001, -0.048, 192.0, 0.0, 176.0, 29.0, 240.0, 254.0, 128.0, 0.0, 0.0, 0.0, 1.6664042302605321E9, 0.0, 2022-10-21 19:03:50.260
173.0, -126876.48110109344, -155663.27043333894, -27123.908951748486, -132507.75724741904, 61713.70288296973, -64199.70860477789, 64335.49545234388, -113014.13035561208, 0.022, 0.9580000000000001, -0.048, 192.0, 0.0, 0.0, 0.0, 0.0, 0.0, 0.0, 0.0, 0.0, 0.0, 1.6664042302605462E9, 0.0, 2022-10-21 19:03:50.260
174.0, -126877.71044703848, -155661.5493490159, -27124.110117448585, -132508.49485498606, 61717.90501092732, -64200.49091583383, 64336.05424595526, -113015.65027423506, 0.022, 0.9580000000000001, -0.048, 192.0, 0.0, 0.0, 0.0, 0.0, 0.0, 0.0, 0.0, 0.0, 0.0, 1.6664042302605596E9, 0.0, 2022-10-21 19:03:50.260
175.0, -126888.84161577722, -155669.26070085296, -27134.615437342578, -132533.7299744761, 61706.34915904393, -64228.83292780315, 64310.19327762047, -113043.8805274821, 0.022, 0.9580000000000001, -0.048, 192.0, 0.0, 0.0, 0.0, 0.0, 0.0, 0.0, 0.0, 0.0, 0.0, 1.6664042302605727E9, 0.0, 2022-10-21 19:03:50.260
176.0, -126905.6054241187, -155682.4482300816, -27147.624152615568, -132553.19834389669, 61696.246170550134, -64261.2653090078, 64290.21081807743, -113049.66962929603, 0.022, 0.9580000000000001, -0.048, 192.0, 0.0, 0.0, 0.0, 0.0, 0.0, 0.0, 0.0, 0.0, 0.0, 1.666404230260586E9, 0.0, 2022-10-21 19:03:50.260
177.0, -126900.33041242724, -155678.58137829084, -27138.437585644435, -132524.36459354934, 61704.583371231965, -64219.199325942915, 64324.565449305235, -113027.56375402973, 0.022, 0.9580000000000001, -0.048, 192.0, 0.0, 0.0, 0.0, 0.0, 0.0, 0.0, 0.0, 0.0, 0.0, 1.6664042302606003E9, 0.0, 2022-10-21 19:03:50.260
178.0, -126884.12539769715, -155660.81174144885, -27116.37641386705, -132498.86125312583, 61723.11296738541, -64206.36942462557, 64339.96580123494, -113000.80871591673, 0.022, 0.9580000000000001, -0.048, 192.0, 0.0, 0.0, 0.0, 0.0, 0.0, 0.0, 0.0, 0.0, 0.0, 1.666404230260614E9, 0.0, 2022-10-21 19:03:50.260
179.0, -126877.62104006065, -155662.8904536832, -27125.18300118244, -132501.94579386065, 61721.615400506904, -64219.51225036529, 64328.544059818276, -112998.88646589356, 0.022, 0.9580000000000001, -0.048, 192.0, 0.0, 0.0, 0.0, 0.0, 0.0, 0.0, 0.0, 0.0, 0.0, 1.6664042302606387E9, 0.0, 2022-10-21 19:03:50.260
180.0, -126886.18175818704, -155673.90986369966, -27141.23155370135, -132517.94964289066, 61707.33263579996, -64244.12152101059, 64302.59368450567, -113028.65898950804, 0.022, 0.9580000000000001, -0.048, 192.0, 0.0, 0.0, 0.0, 0.0, 0.0, 0.0, 0.0, 0.0, 0.0, 1.666404230260652E9, 0.0, 2022-10-21 19:03:50.260
181.0, -126912.66857536658, -155691.9477214751, -27158.28593472075, -132541.5754367799, 61689.07126057998, -64231.939820282445, 64306.84051595218, -113038.11377741264, 0.022, 0.9580000000000001, -0.048, 192.0, 0.0, 0.0, 0.0, 0.0, 0.0, 0.0, 0.0, 0.0, 0.0, 1.6664042302606652E9, 0.0, 2022-10-21 19:03:50.260
182.0, -126915.14961900111, -155694.16054417618, -27165.28203073526, -132549.06327117243, 61680.75641164261, -64208.53754383774, 64316.183545134496, -113058.72208580043, 0.022, 0.9580000000000001, -0.052000000000000005, 192.0, 0.0, 176.0, 29.0, 240.0, 254.0, 96.0, 0.0, 0.0, 0.0, 1.6664042302606785E9, 0.0, 2022-10-21 19:03:50.260
183.0, -126885.73472329792, -155663.2927850834, -27140.89627753452, -132527.94087266218, 61707.153821844324, -64204.603636813605, 64322.06205392624, -113040.21484139144, 0.022, 0.9580000000000001, -0.052000000000000005, 192.0, 0.0, 0.0, 0.0, 0.0, 0.0, 0.0, 0.0, 0.0, 0.0, 1.6664042302606926E9, 0.0, 2022-10-21 19:03:50.260
184.0, -126889.44511287751, -155665.95264267357, -27141.186850212438, -132522.531750504, 61705.969179388194, -64216.38300614155, 64311.06499565423, -113032.01175117634, 0.022, 0.9580000000000001, -0.052000000000000005, 192.0, 0.0, 0.0, 0.0, 0.0, 0.0, 0.0, 0.0, 0.0, 0.0, 1.6664042302607074E9, 0.0, 2022-10-21 19:03:50.260
185.0, -126886.74055179842, -155668.85836945276, -27135.88948677653, -132501.45405548264, 61714.66400798131, -64207.71052929289, 64321.01152193684, -113044.70754202695, 0.022, 0.9580000000000001, -0.052000000000000005, 192.0, 0.0, 0.0, 0.0, 0.0, 0.0, 0.0, 0.0, 0.0, 0.0, 1.6664042302607205E9, 0.0, 2022-10-21 19:03:50.260
186.0, -126887.0534762208, -155673.46282881056, -27143.71259733589, -132521.19064583667, 61706.93030439977, -64182.18483712493, 64334.86960349913, -113048.75320777336, 0.022, 0.9580000000000001, -0.052000000000000005, 192.0, 0.0, 0.0, 0.0, 0.0, 0.0, 0.0, 0.0, 0.0, 0.0, 1.666404230260734E9, 0.0, 2022-10-21 19:03:50.260
187.0, -126884.61713607516, -155663.0469158944, -27142.215030457384, -132527.91852091774, 61706.55032474403, -64179.03324115673, 64328.23113539591, -113039.29841986876, 0.022, 0.9580000000000001, -0.052000000000000005, 192.0, 0.0, 0.0, 0.0, 0.0, 0.0, 0.0, 0.0, 0.0, 0.0, 1.6664042302607474E9, 0.0, 2022-10-21 19:03:50.260
188.0, -126887.54521459881, -155658.91184317015, -27138.638751344533, -132525.75040170556, 61708.87490616738, -64196.04291868722, 64314.149536389064, -113028.79309997478, 0.022, 0.9580000000000001, -0.052000000000000005, 192.0, 0.0, 0.0, 0.0, 0.0, 0.0, 0.0, 0.0, 0.0, 0.0, 1.6664042302607608E9, 0.0, 2022-10-21 19:03:50.260
189.0, -126878.4927580944, -155652.20631983355, -27130.860344274086, -132498.16834904772, 61721.54834527354, -64181.60369176909, 64324.96778070543, -113012.2751608223, 0.022, 0.9580000000000001, -0.052000000000000005, 192.0, 0.0, 0.0, 0.0, 0.0, 0.0, 0.0, 0.0, 0.0, 0.0, 1.666404230260774E9, 0.0, 2022-10-21 19:03:50.260
190.0, -126883.43249361904, -155661.996383905, -27145.79130957023, -132507.95841311914, 61707.75731894462, -64166.73978170631, 64331.7850627643, -113029.5754110307, 0.022, 0.9580000000000001, -0.052000000000000005, 192.0, 0.0, 0.0, 0.0, 0.0, 0.0, 0.0, 0.0, 0.0, 0.0, 1.6664042302607875E9, 0.0, 2022-10-21 19:03:50.260
191.0, -126882.71723779646, -155662.55517751636, -27152.474481162368, -132531.4277447972, 61697.76608917309, -64174.249967843294, 64319.469251569426, -113043.58995480418, 0.022, 0.9580000000000001, -0.052000000000000005, 192.0, 0.0, 0.0, 0.0, 0.0, 0.0, 0.0, 0.0, 0.0, 0.0, 1.6664042302608008E9, 0.0, 2022-10-21 19:03:50.260
192.0, -126886.56173784277, -155660.27529958193, -27153.055626518206, -132541.06134665746, 61697.47551649517, -64202.86020074609, 64295.91051291353, -113043.0311611928, 0.024, 0.9560000000000001, -0.052000000000000005, 192.0, 0.0, 192.0, 29.0, 224.0, 254.0, 96.0, 0.0, 0.0, 0.0, 1.666404230260814E9, 0.0, 2022-10-21 19:03:50.260
193.0, -126901.85033105021, -155675.47448581154, -27172.009905816307, -132546.91750370472, 61682.87982736586, -64203.57545656866, 64286.813352920224, -113045.69101878298, 0.024, 0.9560000000000001, -0.052000000000000005, 192.0, 0.0, 0.0, 0.0, 0.0, 0.0, 0.0, 0.0, 0.0, 0.0, 1.666404230260828E9, 0.0, 2022-10-21 19:03:50.260
194.0, -126877.7998540163, -155649.52411049893, -27149.61345787209, -132517.72612544612, 61702.25878980861, -64189.22563662835, 64311.95906543244, -113008.7212334539, 0.024, 0.9560000000000001, -0.052000000000000005, 192.0, 0.0, 0.0, 0.0, 0.0, 0.0, 0.0, 0.0, 0.0, 0.0, 1.6664042302608528E9, 0.0, 2022-10-21 19:03:50.260
195.0, -126877.5986883162, -155650.82051167733, -27152.027446273263, -132517.32379404592, 61701.96821713069, -64181.96131968038, 64318.95516144695, -113016.87962018009, 0.024, 0.9560000000000001, -0.052000000000000005, 192.0, 0.0, 0.0, 0.0, 0.0, 0.0, 0.0, 0.0, 0.0, 0.0, 1.6664042302608662E9, 0.0, 2022-10-21 19:03:50.260
196.0, -126876.7493220269, -155653.9497559011, -27151.80392882871, -132517.25673881255, 61704.426909020774, -64186.74459299381, 64307.89104794158, -113025.03800690628, 0.024, 0.9560000000000001, -0.052000000000000005, 192.0, 0.0, 0.0, 0.0, 0.0, 0.0, 0.0, 0.0, 0.0, 0.0, 1.6664042302608795E9, 0.0, 2022-10-21 19:03:50.260
197.0, -126880.16913892856, -155656.65431698016, -27158.241231231837, -132519.58132023588, 61696.84966765043, -64202.636683301535, 64291.50721925584, -113038.6278675351, 0.024, 0.9560000000000001, -0.052000000000000005, 192.0, 0.0, 0.0, 0.0, 0.0, 0.0, 0.0, 0.0, 0.0, 0.0, 1.666404230260893E9, 0.0, 2022-10-21 19:03:50.260
198.0, -126888.3051739103, -155662.42106704964, -27168.053647047716, -132525.19160809417, 61682.902179110315, -64186.58813078263, 64296.312844313725, -113062.32071665773, 0.024, 0.9560000000000001, -0.052000000000000005, 192.0, 0.0, 0.0, 0.0, 0.0, 0.0, 0.0, 0.0, 0.0, 0.0, 1.6664042302609076E9, 0.0, 2022-10-21 19:03:50.260
199.0, -126882.47136860745, -155658.08482862532, -27159.627039388066, -132530.28780582998, 61685.67379542277, -64168.57262475164, 64308.18162061949, -113042.15944315905, 0.024, 0.9560000000000001, -0.052000000000000005, 192.0, 0.0, 0.0, 0.0, 0.0, 0.0, 0.0, 0.0, 0.0, 0.0, 1.6664042302609208E9, 0.0, 2022-10-21 19:03:50.260
200.0, -126875.3411621262, -155650.30642155485, -27153.010923029295, -132530.60073025236, 61692.28991178155, -64183.79416272571, 64296.29049256927, -113031.98939943188, 0.024, 0.9560000000000001, -0.052000000000000005, 192.0, 0.0, 0.0, 0.0, 0.0, 0.0, 0.0, 0.0, 0.0, 0.0, 1.666404230260934E9, 0.0, 2022-10-21 19:03:50.260
201.0, -126871.16138591307, -155645.50079649698, -27151.647466617524, -132524.65516622725, 61696.08970833894, -64193.74068900832, 64287.372146531605, -113034.93982969999, 0.024, 0.9580000000000001, -0.048, 192.0, 0.0, 192.0, 29.0, 240.0, 254.0, 128.0, 0.0, 0.0, 0.0, 1.6664042302609477E9, 0.0, 2022-10-21 19:03:50.260
202.0, -126875.02823770384, -155646.6407354642, -27157.414216686993, -132524.96809064964, 61689.00420534661, -64192.51134306328, 64287.90858839853, -113049.87079499612, 0.024, 0.9580000000000001, -0.048, 192.0, 0.0, 0.0, 0.0, 0.0, 0.0, 0.0, 0.0, 0.0, 0.0, 1.6664042302609615E9, 0.0, 2022-10-21 19:03:50.260
203.0, -126864.18764164302, -155633.65437193567, -27152.496832906825, -132527.31502381744, 61690.0100338471, -64183.771810981256, 64298.01157689233, -113039.32077161322, 0.024, 0.9580000000000001, -0.048, 192.0, 0.0, 0.0, 0.0, 0.0, 0.0, 0.0, 0.0, 0.0, 0.0, 1.666404230260975E9, 0.0, 2022-10-21 19:03:50.260
204.0, -126859.15849914057, -155627.239421277, -27149.434643916447, -132528.7231837181, 61694.92741762727, -64201.452040845405, 64284.68993719697, -113028.50252729685, 0.024, 0.9580000000000001, -0.048, 192.0, 0.0, 0.0, 0.0, 0.0, 0.0, 0.0, 0.0, 0.0, 0.0, 1.666404230260988E9, 0.0, 2022-10-21 19:03:50.260
205.0, -126876.86108074918, -155645.45609300808, -27167.405446458513, -132545.50934380406, 61680.309376753496, -64219.26638117628, 64265.60154743213, -113048.0826554397, 0.024, 0.9580000000000001, -0.048, 192.0, 0.0, 0.0, 0.0, 0.0, 0.0, 0.0, 0.0, 0.0, 0.0, 1.6664042302610028E9, 0.0, 2022-10-21 19:03:50.261
206.0, -126873.55302256979, -155643.37738077372, -27163.51624292329, -132550.8290589844, 61676.040193562534, -64208.26932290427, 64274.788114403265, -113032.41408257654, 0.024, 0.9580000000000001, -0.048, 192.0, 0.0, 0.0, 0.0, 0.0, 0.0, 0.0, 0.0, 0.0, 0.0, 1.6664042302610168E9, 0.0, 2022-10-21 19:03:50.261
207.0, -126866.75809225538, -155637.36476151523, -27158.80002484322, -132540.3237390904, 61679.10238255291, -64186.766944738265, 64292.24482682286, -113039.0301989353, 0.024, 0.9580000000000001, -0.048, 192.0, 0.0, 0.0, 0.0, 0.0, 0.0, 0.0, 0.0, 0.0, 0.0, 1.6664042302610307E9, 0.0, 2022-10-21 19:03:50.261
208.0, -126867.02631318884, -155636.87302313722, -27160.074074277174, -132541.79895422448, 61677.515408696585, -64193.4501163304, 64283.70646044093, -113043.29938212626, 0.024, 0.9580000000000001, -0.048, 192.0, 0.0, 0.0, 0.0, 0.0, 0.0, 0.0, 0.0, 0.0, 0.0, 1.6664042302610445E9, 0.0, 2022-10-21 19:03:50.261
209.0, -126852.78825197081, -155621.6291334187, -27148.27235320477, -132535.8310384549, 61693.943940871235, -64191.237293629325, 64282.58887321817, -113027.74256798538, 0.024, 0.9580000000000001, -0.048, 192.0, 0.0, 0.0, 0.0, 0.0, 0.0, 0.0, 0.0, 0.0, 0.0, 1.6664042302610705E9, 0.0, 2022-10-21 19:03:50.261
210.0, -126858.82322297373, -155627.26177302146, -27154.508489907803, -132536.41218381075, 61687.03725183455, -64205.788279269735, 64269.37899224508, -113031.18473663149, 0.024, 0.9580000000000001, -0.048, 192.0, 0.0, 0.0, 0.0, 0.0, 0.0, 0.0, 0.0, 0.0, 0.0, 1.6664042302610843E9, 0.0, 2022-10-21 19:03:50.261
211.0, -126870.02144694584, -155636.80596790387, -27166.489024935847, -132545.0399571705, 61674.0061848171, -64199.66390128898, 64273.06703008021, -113045.17692866051, 0.024, 0.9540000000000001, -0.052000000000000005, 192.0, 0.0, 192.0, 29.0, 208.0, 254.0, 96.0, 0.0, 0.0, 0.0, 1.666404230261098E9, 0.0, 2022-10-21 19:03:50.261
212.0, -126871.78723475782, -155639.71169468304, -27172.792216872243, -132548.99621593909, 61672.35215572741, -64202.7037385349, 64267.926128855484, -113054.27408865382, 0.024, 0.9540000000000001, -0.052000000000000005, 192.0, 0.0, 0.0, 0.0, 0.0, 0.0, 0.0, 0.0, 0.0, 0.0, 1.6664042302611125E9, 0.0, 2022-10-21 19:03:50.261
213.0, -126875.45292084849, -155645.27727905242, -27181.799969887732, -132564.0389399575, 61664.238472490135, -64235.918430795486, 64239.15943374151, -113062.65599282456, 0.024, 0.9540000000000001, -0.052000000000000005, 192.0, 0.0, 0.0, 0.0, 0.0, 0.0, 0.0, 0.0, 0.0, 0.0, 1.6664042302611263E9, 0.0, 2022-10-21 19:03:50.261
214.0, -126864.25469687638, -155630.0333893339, -27168.254812747815, -132542.3800995803, 61676.755449385106, -64230.55401212622, 64252.39166645905, -113038.60551579065, 0.024, 0.9540000000000001, -0.052000000000000005, 192.0, 0.0, 0.0, 0.0, 0.0, 0.0, 0.0, 0.0, 0.0, 0.0, 1.66640423026114E9, 0.0, 2022-10-21 19:03:50.261
215.0, -126867.62981028913, -155624.9371915981, -27167.38309471406, -132530.91365467475, 61682.18692328774, -64191.036127929234, 64283.68410869648, -113032.70465525445, 0.024, 0.9540000000000001, -0.052000000000000005, 192.0, 0.0, 0.0, 0.0, 0.0, 0.0, 0.0, 0.0, 0.0, 0.0, 1.6664042302611537E9, 0.0, 2022-10-21 19:03:50.261
216.0, -126874.692961537, -155635.7777876589, -27174.7144668954, -132535.31694833245, 61676.24135926263, -64186.43166857144, 64281.6724516955, -113024.03217840579, 0.024, 0.9540000000000001, -0.052000000000000005, 192.0, 0.0, 0.0, 0.0, 0.0, 0.0, 0.0, 0.0, 0.0, 0.0, 1.6664042302611673E9, 0.0, 2022-10-21 19:03:50.261
217.0, -126864.16528989856, -155623.79725263087, -27165.013809801796, -132529.1255151183, 61685.02559483357, -64206.03414845874, 64269.401343989535, -113022.28874233828, 0.024, 0.9540000000000001, -0.052000000000000005, 192.0, 0.0, 0.0, 0.0, 0.0, 0.0, 0.0, 0.0, 0.0, 0.0, 1.666404230261181E9, 0.0, 2022-10-21 19:03:50.261
218.0, -126861.97481894193, -155622.7690723859, -27165.23732724635, -132526.08567787238, 61690.83704839195, -64213.87961076255, 64265.53449219877, -113031.8329372207, 0.024, 0.9540000000000001, -0.052000000000000005, 192.0, 0.0, 0.0, 0.0, 0.0, 0.0, 0.0, 0.0, 0.0, 0.0, 1.6664042302611947E9, 0.0, 2022-10-21 19:03:50.261
219.0, -126863.04770267579, -155627.3735317437, -27171.495815693834, -132526.1303813613, 61683.28215876605, -64205.07302344716, 64273.08938182466, -113033.9340011995, 0.024, 0.9540000000000001, -0.052000000000000005, 192.0, 0.0, 0.0, 0.0, 0.0, 0.0, 0.0, 0.0, 0.0, 0.0, 1.6664042302612083E9, 0.0, 2022-10-21 19:03:50.261
220.0, -126863.09240616471, -155627.5746974438, -27172.255775005317, -132533.9311401762, 61681.94105409874, -64187.72806974984, 64283.304129040735, -113030.53653604229, 0.024, 0.9540000000000001, -0.052000000000000005, 192.0, 0.0, 0.0, 0.0, 0.0, 0.0, 0.0, 0.0, 0.0, 0.0, 1.6664042302612233E9, 0.0, 2022-10-21 19:03:50.261
221.0, -126873.91065048108, -155638.25883129347, -27181.062362320707, -132552.5948467964, 61674.25205400611, -64189.04682267271, 64273.022326591294, -113040.2818966248, 0.022, 0.9580000000000001, -0.052000000000000005, 192.0, 0.0, 176.0, 29.0, 240.0, 254.0, 96.0, 0.0, 0.0, 0.0, 1.6664042302612371E9, 0.0, 2022-10-21 19:03:50.261
222.0, -126884.84065351971, -155651.26754656644, -27192.66291769301, -132556.70756777617, 61663.322050967465, -64184.30825284818, 64265.93682359897, -113043.94758271547, 0.022, 0.9580000000000001, -0.052000000000000005, 192.0, 0.0, 0.0, 0.0, 0.0, 0.0, 0.0, 0.0, 0.0, 0.0, 1.6664042302612517E9, 0.0, 2022-10-21 19:03:50.261
223.0, -126870.82610974624, -155637.81179640433, -27178.201339030427, -132532.38886980878, 61680.510542453594, -64182.20718886938, 64276.755067915336, -113024.70273073945, 0.022, 0.9580000000000001, -0.052000000000000005, 192.0, 0.0, 0.0, 0.0, 0.0, 0.0, 0.0, 0.0, 0.0, 0.0, 1.6664042302612655E9, 0.0, 2022-10-21 19:03:50.261
224.0, -126871.4966620799, -155637.45416849307, -27182.224653032383, -132534.0876023874, 61678.94592034173, -64190.209113384386, 64275.32455627019, -113027.56375402973, 0.022, 0.9580000000000001, -0.052000000000000005, 192.0, 0.0, 0.0, 0.0, 0.0, 0.0, 0.0, 0.0, 0.0, 0.0, 1.6664042302612913E9, 0.0, 2022-10-21 19:03:50.261
225.0, -126882.27020290736, -155645.05376160788, -27192.975842115386, -132558.1827829102, 61667.54653066952, -64212.784375284245, 64250.33530596916, -113052.37419037512, 0.022, 0.9580000000000001, -0.052000000000000005, 192.0, 0.0, 0.0, 0.0, 0.0, 0.0, 0.0, 0.0, 0.0, 0.0, 1.666404230261306E9, 0.0, 2022-10-21 19:03:50.261
226.0, -126860.65606601907, -155622.56790668584, -27167.159577269507, -132529.70666047416, 61692.625187948375, -64211.66678806148, 64259.23130026237, -113021.46172779343, 0.022, 0.9580000000000001, -0.052000000000000005, 192.0, 0.0, 0.0, 0.0, 0.0, 0.0, 0.0, 0.0, 0.0, 0.0, 1.6664042302613199E9, 0.0, 2022-10-21 19:03:50.261
227.0, -126869.44030159002, -155632.492081224, -27175.586184929158, -132520.29657605846, 61686.97019660118, -64217.61235208659, 64255.498558938336, -113033.24109712138, 0.022, 0.9580000000000001, -0.052000000000000005, 192.0, 0.0, 0.0, 0.0, 0.0, 0.0, 0.0, 0.0, 0.0, 0.0, 1.6664042302613332E9, 0.0, 2022-10-21 19:03:50.261
228.0, -126862.17598464203, -155625.2724677649, -27171.764036627297, -132520.6765557142, 61690.8594001364, -64219.89223002103, 64263.00874507532, -113017.77368995831, 0.022, 0.9580000000000001, -0.052000000000000005, 192.0, 0.0, 0.0, 0.0, 0.0, 0.0, 0.0, 0.0, 0.0, 0.0, 1.666404230261347E9, 0.0, 2022-10-21 19:03:50.261
229.0, -126864.41115908757, -155626.45711022106, -27174.312135495205, -132532.50062853107, 61693.29574028203, -64215.37717764106, 64266.94265209945, -113017.43841379147, 0.022, 0.9580000000000001, -0.052000000000000005, 192.0, 0.0, 0.0, 0.0, 0.0, 0.0, 0.0, 0.0, 0.0, 0.0, 1.666404230261361E9, 0.0, 2022-10-21 19:03:50.261
230.0, -126864.27704862083, -155625.20541253156, -27172.434588960958, -132526.08567787238, 61696.26852229459, -64214.63957007403, 64260.95238458543, -113020.81352720423, 0.022, 0.9580000000000001, -0.052000000000000005, 192.0, 0.0, 0.0, 0.0, 0.0, 0.0, 0.0, 0.0, 0.0, 0.0, 1.6664042302613745E9, 0.0, 2022-10-21 19:03:50.261
231.0, -126877.35281912719, -155636.0907120813, -27185.555062956224, -132539.4296693122, 61679.057679064004, -64223.64732308952, 64251.497596680834, -113045.60161180516, 0.024, 0.962, -0.056, 192.0, 0.0, 192.0, 30.0, 16.0, 254.0, 64.0, 0.0, 0.0, 0.0, 1.6664042302613883E9, 0.0, 2022-10-21 19:03:50.261
232.0, -126860.92428695253, -155621.1820985296, -27170.22176625988, -132514.79804692246, 61692.78165015956, -64205.587113569636, 64270.787152145764, -113031.31884709823, 0.024, 0.962, -0.056, 192.0, 0.0, 0.0, 0.0, 0.0, 0.0, 0.0, 0.0, 0.0, 0.0, 1.6664042302614028E9, 0.0, 2022-10-21 19:03:50.261
233.0, -126855.67162700555, -155618.0305025614, -27167.293687736237, -132515.02156436702, 61697.60962696191, -64202.94960772391, 64271.16713180151, -113022.78048071629, 0.024, 0.962, -0.056, 192.0, 0.0, 0.0, 0.0, 0.0, 0.0, 0.0, 0.0, 0.0, 0.0, 1.6664042302614164E9, 0.0, 2022-10-21 19:03:50.261
234.0, -126882.8960517521, -155645.5454999859, -27198.407316018023, -132553.9359514637, 61669.334670225944, -64237.43834941845, 64237.81832907419, -113039.6783995245, 0.024, 0.962, -0.056, 192.0, 0.0, 0.0, 0.0, 0.0, 0.0, 0.0, 0.0, 0.0, 0.0, 1.66640423026143E9, 0.0, 2022-10-21 19:03:50.261
235.0, -126866.64633353309, -155627.41823523262, -27184.43747573346, -132534.71345123215, 61680.33172849796, -64236.34311394014, 64247.5636896567, -113024.12158538362, 0.024, 0.962, -0.056, 192.0, 0.0, 0.0, 0.0, 0.0, 0.0, 0.0, 0.0, 0.0, 0.0, 1.666404230261444E9, 0.0, 2022-10-21 19:03:50.261
236.0, -126859.65023751858, -155616.3764734717, -27175.206205273415, -132532.1206488753, 61688.22189429068, -64215.98067474135, 64271.234187034876, -113014.71150096793, 0.024, 0.962, -0.056, 192.0, 0.0, 0.0, 0.0, 0.0, 0.0, 0.0, 0.0, 0.0, 0.0, 1.6664042302614577E9, 0.0, 2022-10-21 19:03:50.261
237.0, -126872.07780743574, -155626.61357243225, -27186.069153078697, -132540.7260704906, 61681.51637095409, -64201.8543722456, 64270.56363470121, -113037.55498380125, 0.024, 0.962, -0.056, 192.0, 0.0, 0.0, 0.0, 0.0, 0.0, 0.0, 0.0, 0.0, 0.0, 1.6664042302614713E9, 0.0, 2022-10-21 19:03:50.261
238.0, -126873.06128419178, -155629.20637478906, -27191.18770255896, -132545.7328612486, 61674.90025459531, -64248.14483501254, 64229.056445247705, -113049.11083568465, 0.024, 0.962, -0.056, 192.0, 0.0, 0.0, 0.0, 0.0, 0.0, 0.0, 0.0, 0.0, 0.0, 1.6664042302614849E9, 0.0, 2022-10-21 19:03:50.261
239.0, -126853.77172872685, -155612.55432516985, -27173.95450758392, -132527.27032032853, 61692.64753969283, -64266.56267244371, 64232.073930749175, -113022.28874233828, 0.024, 0.962, -0.056, 192.0, 0.0, 0.0, 0.0, 0.0, 0.0, 0.0, 0.0, 0.0, 0.0, 1.6664042302615104E9, 0.0, 2022-10-21 19:03:50.261
240.0, -126858.19737412898, -155618.00815081695, -27174.155673284018, -132525.30336681646, 61690.92645536977, -64232.45391040491, 64259.99125957385, -113011.06816662171, 0.026000000000000002, 0.96, -0.06, 192.0, 0.0, 208.0, 30.0, 0.0, 254.0, 32.0, 0.0, 0.0, 0.0, 1.6664042302615256E9, 0.0, 2022-10-21 19:03:50.261
241.0, -126873.41891210305, -155634.10140682478, -27192.349993270636, -132555.85820148687, 61668.708821381195, -64215.19836368542, 64259.834797362666, -113034.9845331889, 0.026000000000000002, 0.96, -0.06, 192.0, 0.0, 0.0, 0.0, 0.0, 0.0, 0.0, 0.0, 0.0, 0.0, 1.6664042307390037E9, 0.0, 2022-10-21 19:03:50.739
242.0, -126865.19347014351, -155627.977028844, -27185.353897256125, -132543.92236994772, 61683.57273144397, -64208.582247326645, 64255.40915196051, -113032.50348955435, 0.026000000000000002, 0.96, -0.06, 192.0, 0.0, 0.0, 0.0, 0.0, 0.0, 0.0, 0.0, 0.0, 0.0, 1.6664042307391176E9, 0.0, 2022-10-21 19:03:50.739
243.0, -126863.60649628718, -155623.3278659973, -27183.655164677522, -132537.01568091105, 61688.7583361576, -64220.85335503261, 64242.91452681, -113039.58899254669, 0.026000000000000002, 0.96, -0.06, 192.0, 0.0, 0.0, 0.0, 0.0, 0.0, 0.0, 0.0, 0.0, 0.0, 1.6664042307391713E9, 0.0, 2022-10-21 19:03:50.739
244.0, -126871.38490335763, -155630.77099690092, -27188.99723160234, -132529.50549477406, 61683.326862254966, -64192.913674463474, 64260.77357062979, -113040.30424836926, 0.026000000000000002, 0.96, -0.06, 192.0, 0.0, 0.0, 0.0, 0.0, 0.0, 0.0, 0.0, 0.0, 0.0, 1.666404230739188E9, 0.0, 2022-10-21 19:03:50.739
245.0, -126895.03304899133, -155657.66014548065, -27213.785316203277, -132550.7396520066, 61658.359963698385, -64190.45498257339, 64252.52577692578, -113052.75417003086, 0.026000000000000002, 0.96, -0.06, 192.0, 0.0, 0.0, 0.0, 0.0, 0.0, 0.0, 0.0, 0.0, 0.0, 1.666404230739204E9, 0.0, 2022-10-21 19:03:50.739
246.0, -126890.450941378, -155648.92061339863, -27206.47629576639, -132559.32272187743, 61665.914853324284, -64211.733843294845, 64236.79014882924, -113040.14778615806, 0.026000000000000002, 0.96, -0.06, 192.0, 0.0, 0.0, 0.0, 0.0, 0.0, 0.0, 0.0, 0.0, 0.0, 1.66640423073922E9, 0.0, 2022-10-21 19:03:50.739
247.0, -126868.90385972308, -155626.79238638788, -27186.315022267703, -132536.278073344, 61690.27825478057, -64238.10890175211, 64226.95538126891, -113029.7318732419, 0.026000000000000002, 0.96, -0.06, 192.0, 0.0, 0.0, 0.0, 0.0, 0.0, 0.0, 0.0, 0.0, 0.0, 1.666404230739236E9, 0.0, 2022-10-21 19:03:50.739
248.0, -126858.93498169602, -155621.20445027406, -27178.111932052605, -132525.526884261, 61694.81565890499, -64223.24499168933, 64246.9154890675, -113029.10602439714, 0.026000000000000002, 0.96, -0.06, 192.0, 0.0, 0.0, 0.0, 0.0, 0.0, 0.0, 0.0, 0.0, 0.0, 1.666404230739252E9, 0.0, 2022-10-21 19:03:50.739
249.0, -126873.35185686969, -155636.3365812703, -27197.692060195455, -132547.45394557167, 61673.62620516136, -64220.07104397668, 64244.27798322177, -113036.0350651783, 0.026000000000000002, 0.96, -0.06, 192.0, 0.0, 0.0, 0.0, 0.0, 0.0, 0.0, 0.0, 0.0, 0.0, 1.6664042307392683E9, 0.0, 2022-10-21 19:03:50.739
250.0, -126863.29357186481, -155622.0314648189, -27181.75526639882, -132535.7192797326, 61687.97602510167, -64212.918485750975, 64250.33530596916, -113011.49284976636, 0.024, 0.9580000000000001, -0.052000000000000005, 192.0, 0.0, 192.0, 29.0, 240.0, 254.0, 96.0, 0.0, 0.0, 0.0, 1.6664042307392838E9, 0.0, 2022-10-21 19:03:50.739
251.0, -126866.69103702201, -155622.29968575237, -27182.62698443258, -132532.9253116757, 61689.83121989146, -64230.5093086373, 64235.67256160648, -113024.99330341737, 0.024, 0.9580000000000001, -0.052000000000000005, 192.0, 0.0, 0.0, 0.0, 0.0, 0.0, 0.0, 0.0, 0.0, 0.0, 1.6664042307393017E9, 0.0, 2022-10-21 19:03:50.739
252.0, -126874.692961537, -155630.81570038982, -27190.941833369954, -132542.6259687693, 61683.37156574387, -64224.317875423185, 64239.45000641943, -113033.03993142128, 0.024, 0.9580000000000001, -0.052000000000000005, 192.0, 0.0, 0.0, 0.0, 0.0, 0.0, 0.0, 0.0, 0.0, 0.0, 1.6664042307393177E9, 0.0, 2022-10-21 19:03:50.739
253.0, -126881.48789185142, -155637.05183709288, -27196.90974913952, -132547.09631766038, 61678.47653370816, -64196.8028779987, 64256.86201535011, -113029.91068719754, 0.024, 0.9580000000000001, -0.052000000000000005, 192.0, 0.0, 0.0, 0.0, 0.0, 0.0, 0.0, 0.0, 0.0, 0.0, 1.6664042307393332E9, 0.0, 2022-10-21 19:03:50.739
254.0, -126891.99321174542, -155648.4512267651, -27209.4714295234, -132558.2945416325, 61665.06548703498, -64206.81645951467, 64236.76779708479, -113034.87277446661, 0.024, 0.9580000000000001, -0.052000000000000005, 192.0, 0.0, 0.0, 0.0, 0.0, 0.0, 0.0, 0.0, 0.0, 0.0, 1.666404230739414E9, 0.0, 2022-10-21 19:03:50.739
255.0, -126878.67157205005, -155639.2870115384, -27201.447153263947, -132555.7464427646, 61675.2578825066, -64230.86693654859, 64222.216811444385, -113035.07394016671, 0.024, 0.9580000000000001, -0.052000000000000005, 192.0, 0.0, 0.0, 0.0, 0.0, 0.0, 0.0, 0.0, 0.0, 0.0, 1.6664042307394297E9, 0.0, 2022-10-21 19:03:50.739
0.0, -126880.32560113975, -155641.07515109482, -27201.156580586026, -132550.06909967292, 61675.4590482067, -64228.27413419177, 64228.27413419177, -113042.85234723716, 0.024, 0.9580000000000001, -0.052000000000000005, 192.0, 0.0, 0.0, 0.0, 0.0, 0.0, 0.0, 0.0, 0.0, 0.0, 1.6664042307394457E9, 0.0, 2022-10-21 19:03:50.739
1.0, -126879.83386276173, -155638.34823827128, -27197.20032181744, -132535.76398322155, 61679.50471395311, -64193.56187505268, 64252.86105309261, -113043.09821642617, 0.024, 0.9580000000000001, -0.052000000000000005, 192.0, 0.0, 0.0, 0.0, 0.0, 0.0, 0.0, 0.0, 0.0, 0.0, 1.6664042307394612E9, 0.0, 2022-10-21 19:03:50.739
2.0, -126869.95439171248, -155627.86527012175, -27188.99723160234, -132531.31598607494, 61690.54647571403, -64190.209113384386, 64256.50438743882, -113026.35675982914, 0.024, 0.9580000000000001, -0.052000000000000005, 192.0, 0.0, 0.0, 0.0, 0.0, 0.0, 0.0, 0.0, 0.0, 0.0, 1.6664042307394774E9, 0.0, 2022-10-21 19:03:50.739
3.0, -126879.87856625064, -155634.3919795027, -27201.53656024177, -132547.96803569412, 61675.74962088461, -64212.4043956285, 64229.4587766479, -113045.78042576081, 0.024, 0.9580000000000001, -0.052000000000000005, 192.0, 0.0, 0.0, 0.0, 0.0, 0.0, 0.0, 0.0, 0.0, 0.0, 1.6664042307394934E9, 0.0, 2022-10-21 19:03:50.739
4.0, -126882.56077558527, -155636.224822548, -27201.53656024177, -132552.6842537742, 61672.84389410543, -64225.52486962377, 64220.965113754886, -113042.65118153706, 0.026000000000000002, 0.9560000000000001, -0.046, 192.0, 0.0, 208.0, 29.0, 224.0, 254.0, 144.0, 0.0, 0.0, 0.0, 1.666404230739509E9, 0.0, 2022-10-21 19:03:50.739
5.0, -126870.08850217922, -155630.1898515451, -27194.786333416265, -132533.9758436651, 61682.11986805438, -64200.401508856005, 64245.484977422355, -113034.80571923325, 0.026000000000000002, 0.9560000000000001, -0.046, 192.0, 0.0, 0.0, 0.0, 0.0, 0.0, 0.0, 0.0, 0.0, 0.0, 1.6664042307395263E9, 0.0, 2022-10-21 19:03:50.739
6.0, -126864.41115908757, -155625.51833695392, -27192.886435137563, -132537.86504720035, 61683.75154539962, -64177.468619044856, 64256.817311861196, -113026.84849820715, 0.026000000000000002, 0.9560000000000001, -0.046, 192.0, 0.0, 0.0, 0.0, 0.0, 0.0, 0.0, 0.0, 0.0, 0.0, 1.6664042307395484E9, 0.0, 2022-10-21 19:03:50.739
