%OpenBCI Raw EEG Data
%Number of channels = 8
%Sample Rate = 250 Hz
%Board = OpenBCI_GUI$BoardCytonSerial
Sample Index, EXG Channel 0, EXG Channel 1, EXG Channel 2, EXG Channel 3, EXG Channel 4, EXG Channel 5, EXG Channel 6, EXG Channel 7, Accel Channel 0, Accel Channel 1, Accel Channel 2, Other, Other, Other, Other, Other, Other, Other, Analog Channel 0, Analog Channel 1, Analog Channel 2, Timestamp, Other, Timestamp (Formatted)
224.0, -128835.47739213436, -156689.8413526823, -32476.95058309443, -138980.12953759785, 65383.836970786695, -94214.27925995342, 56952.40133433358, -111717.50565975973, 0.0, 0.0, 0.0, 192.0, 0.0, 0.0, 0.0, 0.0, 0.0, 0.0, 0.0, 0.0, 0.0, 1.6664043903755653E9, 0.0, 2022-10-21 19:06:30.375
225.0, -128833.91277002249, -156690.62366373822, -32466.624077156077, -138976.64266546283, 65390.386031912094, -94196.01788473343, 56969.88039849763, -111709.25786605572, 0.0, 0.0, 0.0, 192.0, 0.0, 0.0, 0.0, 0.0, 0.0, 0.0, 0.0, 0.0, 0.0, 1.6664043903756077E9, 0.0, 2022-10-21 19:06:30.375
226.0, -128838.69604333593, -156697.19507660807, -32471.452053958426, -138987.46090977918, 65386.02744174331, -94206.54555637189, 56959.30802337027, -111715.35989229202, 0.0, 0.0, 0.0, 192.0, 0.0, 0.0, 0.0, 0.0, 0.0, 0.0, 0.0, 0.0, 0.0, 1.6664043903756452E9, 0.0, 2022-10-21 19:06:30.375
227.0, -128834.51626712279, -156690.84718118276, -32470.580335924667, -138989.6513807358, 65386.630938843606, -94222.59410889079, 56947.79687497579, -111712.25299981273, 0.006, 0.974, -0.032, 192.0, 0.0, 48.0, 30.0, 112.0, 255.0, 0.0, 0.0, 0.0, 0.0, 1.6664043903756783E9, 0.0, 2022-10-21 19:06:30.375
228.0, -128831.14115371004, -156686.4438875251, -32468.300457990226, -138978.90019165282, 65387.100325477164, -94213.5416523864, 56958.10102916969, -111707.55913347712, 0.006, 0.974, -0.032, 192.0, 0.0, 0.0, 0.0, 0.0, 0.0, 0.0, 0.0, 0.0, 0.0, 1.6664043903757193E9, 0.0, 2022-10-21 19:06:30.375
229.0, -128833.13045896655, -156688.90257941515, -32472.05555105872, -138979.66015096428, 65383.613453342135, -94202.29872492538, 56969.14279093061, -111709.07905210007, 0.006, 0.974, -0.032, 192.0, 0.0, 0.0, 0.0, 0.0, 0.0, 0.0, 0.0, 0.0, 0.0, 1.6664043903757443E9, 0.0, 2022-10-21 19:06:30.375
230.0, -128830.31413916519, -156687.56147474784, -32472.6143446701, -138991.66303773678, 65381.445334129974, -94234.14996077419, 56944.95820342997, -111708.60966546652, 0.006, 0.974, -0.032, 192.0, 0.0, 0.0, 0.0, 0.0, 0.0, 0.0, 0.0, 0.0, 0.0, 1.666404390375769E9, 0.0, 2022-10-21 19:06:30.375
231.0, -128829.12949670905, -156690.1319253602, -32473.016676070296, -138990.99248540314, 65382.40645914155, -94251.0478795824, 56926.5850694877, -111710.04017711166, 0.006, 0.974, -0.032, 192.0, 0.0, 0.0, 0.0, 0.0, 0.0, 0.0, 0.0, 0.0, 0.0, 1.6664043903757951E9, 0.0, 2022-10-21 19:06:30.375
232.0, -128836.23735144584, -156697.57505626383, -32481.443283729946, -138979.79426143103, 65381.378278896605, -94229.61255664976, 56934.83286319171, -111714.57758123608, 0.006, 0.974, -0.032, 192.0, 0.0, 0.0, 0.0, 0.0, 0.0, 0.0, 0.0, 0.0, 0.0, 1.6664043903758197E9, 0.0, 2022-10-21 19:06:30.375
233.0, -128839.83598230315, -156697.26213184145, -32487.813530899708, -138985.73982545614, 65376.215025927435, -94218.72725710002, 56940.666668494545, -111715.02461612519, 0.006, 0.974, -0.032, 192.0, 0.0, 0.0, 0.0, 0.0, 0.0, 0.0, 0.0, 0.0, 0.0, 1.6664043903758454E9, 0.0, 2022-10-21 19:06:30.375
234.0, -128832.12463046607, -156692.41180329464, -32479.29751626224, -138983.23643007714, 65385.42394464302, -94227.57854790433, 56939.30321208277, -111707.38031952147, 0.006, 0.974, -0.032, 192.0, 0.0, 0.0, 0.0, 0.0, 0.0, 0.0, 0.0, 0.0, 0.0, 1.6664043903758695E9, 0.0, 2022-10-21 19:06:30.375
235.0, -128834.82919154516, -156693.99877715096, -32475.60947842711, -138977.82730791895, 65391.41421215704, -94226.77388510393, 56937.40331380407, -111705.30160728713, 0.006, 0.974, -0.032, 192.0, 0.0, 0.0, 0.0, 0.0, 0.0, 0.0, 0.0, 0.0, 0.0, 1.666404390375894E9, 0.0, 2022-10-21 19:06:30.375
236.0, -128845.78154632826, -156703.65473075566, -32487.813530899708, -138990.59015400294, 65380.50656086285, -94231.64656539519, 56930.049589878276, -111712.9682556353, 0.006, 0.974, -0.032, 192.0, 0.0, 0.0, 0.0, 0.0, 0.0, 0.0, 0.0, 0.0, 0.0, 1.6664043903759184E9, 0.0, 2022-10-21 19:06:30.375
237.0, -128851.0118545308, -156710.49436455898, -32490.741609423356, -138990.99248540314, 65378.49490386187, -94215.41919892064, 56947.28278485332, -111713.01295912421, 0.006, 0.974, -0.032, 192.0, 0.0, 0.0, 30.0, 80.0, 255.0, 0.0, 0.0, 0.0, 0.0, 1.666404390375945E9, 0.0, 2022-10-21 19:06:30.375
238.0, -128849.29077020775, -156705.33111158983, -32486.33831576566, -138995.41813080528, 65384.61928184263, -94221.76709434594, 56947.528654042326, -111707.89440964395, 0.006, 0.974, -0.032, 192.0, 0.0, 0.0, 0.0, 0.0, 0.0, 0.0, 0.0, 0.0, 0.0, 1.6664043903759608E9, 0.0, 2022-10-21 19:06:30.375
239.0, -128851.32477895317, -156707.47687905753, -32486.114798321105, -138997.6086017619, 65385.714517320936, -94224.13637925821, 56942.007773161866, -111707.42502301038, 0.006, 0.974, -0.032, 192.0, 0.0, 0.0, 0.0, 0.0, 0.0, 0.0, 0.0, 0.0, 0.0, 1.6664043903759744E9, 0.0, 2022-10-21 19:06:30.375
240.0, -128852.55412489822, -156709.6897017586, -32484.214900042403, -138993.74174997114, 65385.31218592074, -94248.63389118122, 56928.283802066304, -111702.19471480785, 0.006, 0.974, -0.032, 192.0, 0.0, 0.0, 0.0, 0.0, 0.0, 0.0, 0.0, 0.0, 0.0, 1.6664043903761237E9, 0.0, 2022-10-21 19:06:30.376
241.0, -128861.78539535827, -156715.3893965947, -32488.886414633565, -138988.26557257958, 65385.021613242825, -94255.85350464028, 56934.452883535974, -111703.93815087536, 0.006, 0.974, -0.032, 192.0, 0.0, 0.0, 0.0, 0.0, 0.0, 0.0, 0.0, 0.0, 0.0, 1.6664043903761375E9, 0.0, 2022-10-21 19:06:30.376
242.0, -128870.74844488484, -156721.5808298088, -32491.881548390575, -138990.34428481394, 65385.22277894292, -94241.43662946661, 56946.50047379738, -111708.78847942216, 0.006, 0.974, -0.032, 192.0, 0.0, 0.0, 0.0, 0.0, 0.0, 0.0, 0.0, 0.0, 0.0, 1.666404390376151E9, 0.0, 2022-10-21 19:06:30.376
243.0, -128858.58909590114, -156710.67317851464, -32478.403446484026, -138986.23156383415, 65396.26454070384, -94265.77767917844, 56934.67640098053, -111698.30551127261, 0.006, 0.974, -0.032, 192.0, 0.0, 0.0, 0.0, 0.0, 0.0, 0.0, 0.0, 0.0, 0.0, 1.6664043903761647E9, 0.0, 2022-10-21 19:06:30.376
244.0, -128872.17895652998, -156733.0472747144, -32490.249871045336, -138993.78645346005, 65390.56484586774, -94291.30337134641, 56919.92424964002, -111708.29674104413, 0.006, 0.974, -0.032, 192.0, 0.0, 0.0, 0.0, 0.0, 0.0, 0.0, 0.0, 0.0, 0.0, 1.666404390376178E9, 0.0, 2022-10-21 19:06:30.376
245.0, -128904.2760615678, -156772.72162112256, -32499.592900227657, -139003.73297974266, 65379.05369747325, -94274.18193509364, 56933.58116550221, -111716.18690683687, 0.006, 0.974, -0.032, 192.0, 0.0, 0.0, 0.0, 0.0, 0.0, 0.0, 0.0, 0.0, 0.0, 1.6664043903761911E9, 0.0, 2022-10-21 19:06:30.376
246.0, -128918.04473615227, -156789.48542946405, -32492.507397235324, -138999.0614651515, 65388.21791269993, -94272.43849902613, 56941.33722082821, -111708.92258988888, 0.006, 0.974, -0.032, 192.0, 0.0, 0.0, 0.0, 0.0, 0.0, 0.0, 0.0, 0.0, 0.0, 1.6664043903762085E9, 0.0, 2022-10-21 19:06:30.376
247.0, -128940.77646026331, -156810.87604890778, -32499.458789760924, -139009.43267457877, 65389.11198247814, -94283.43555729814, 56928.79789218878, -111721.55132550614, 0.004, 0.968, -0.024, 192.0, 0.0, 32.0, 30.0, 64.0, 255.0, 64.0, 0.0, 0.0, 0.0, 1.6664043903762221E9, 0.0, 2022-10-21 19:06:30.376
248.0, -128960.33423666171, -156837.47462480958, -32503.169179340504, -139009.70089551221, 65387.48030513291, -94293.73971149203, 56919.07488335072, -111721.14899410594, 0.004, 0.968, -0.024, 192.0, 0.0, 0.0, 0.0, 0.0, 0.0, 0.0, 0.0, 0.0, 0.0, 1.666404390376237E9, 0.0, 2022-10-21 19:06:30.376
249.0, -128985.07761777373, -156867.5153693575, -32504.040897374263, -139004.73880824313, 65385.84862778767, -94291.01279866848, 56926.54036599879, -111719.09263361605, 0.004, 0.968, -0.024, 192.0, 0.0, 0.0, 0.0, 0.0, 0.0, 0.0, 0.0, 0.0, 0.0, 1.66640439037625E9, 0.0, 2022-10-21 19:06:30.376
250.0, -129011.0503448308, -156891.3870324358, -32511.81930444471, -139014.12654091438, 65383.8816742756, -94285.89424918822, 56928.283802066304, -111729.91087793242, 0.004, 0.968, -0.024, 192.0, 0.0, 0.0, 0.0, 0.0, 0.0, 0.0, 0.0, 0.0, 0.0, 1.6664043903762631E9, 0.0, 2022-10-21 19:06:30.376
251.0, -129019.81222865728, -156901.95940756315, -32511.70754572243, -139018.52983457208, 65390.22956970091, -94302.07691217387, 56916.79500541628, -111726.4240057974, 0.004, 0.968, -0.024, 192.0, 0.0, 0.0, 0.0, 0.0, 0.0, 0.0, 0.0, 0.0, 0.0, 1.6664043903762765E9, 0.0, 2022-10-21 19:06:30.376
252.0, -129037.87243817718, -156924.9370008632, -32511.39462130006, -139014.79709324802, 65392.24122670189, -94315.37620012477, 56907.58608670069, -111726.08872963056, 0.004, 0.968, -0.024, 192.0, 0.0, 0.0, 0.0, 0.0, 0.0, 0.0, 0.0, 0.0, 0.0, 1.66640439037629E9, 0.0, 2022-10-21 19:06:30.376
253.0, -129048.04248190434, -156938.8397859144, -32510.54525501076, -139000.49197679662, 65394.05171800277, -94296.35486559331, 56922.82997641921, -111727.87686918699, 0.004, 0.968, -0.024, 192.0, 0.0, 0.0, 0.0, 0.0, 0.0, 0.0, 0.0, 0.0, 0.0, 1.6664043903763032E9, 0.0, 2022-10-21 19:06:30.376
254.0, -129068.60608680322, -156961.1021233919, -32518.413069059025, -139007.93510770026, 65388.374374911116, -94280.3510165633, 56937.33625857071, -111738.13631989197, 0.004, 0.968, -0.024, 192.0, 0.0, 0.0, 0.0, 0.0, 0.0, 0.0, 0.0, 0.0, 0.0, 1.6664043903763168E9, 0.0, 2022-10-21 19:06:30.376
255.0, -129070.59539205974, -156968.2546816176, -32512.735725967377, -139008.22568037818, 65399.192619227484, -94294.74553999252, 56929.40138928907, -111735.63292451297, 0.004, 0.968, -0.024, 192.0, 0.0, 0.0, 0.0, 0.0, 0.0, 0.0, 0.0, 0.0, 0.0, 1.6664043903763838E9, 0.0, 2022-10-21 19:06:30.376
0.0, -129078.97729623049, -156982.15746666878, -32519.754173726342, -139018.10515142741, 65397.605645371164, -94328.13904620876, 56903.22749653191, -111739.94681119286, 0.004, 0.968, -0.024, 192.0, 0.0, 0.0, 0.0, 0.0, 0.0, 0.0, 0.0, 0.0, 0.0, 1.6664043903763976E9, 0.0, 2022-10-21 19:06:30.376
1.0, -129094.44470339356, -156996.52963835356, -32529.8795139646, -139017.92633747178, 65391.28010169031, -94330.01659274299, 56901.34994999766, -111743.9254217059, 0.012, 0.9580000000000001, -0.016, 192.0, 0.0, 96.0, 29.0, 240.0, 255.0, 128.0, 0.0, 0.0, 0.0, 1.6664043903764112E9, 0.0, 2022-10-21 19:06:30.376
2.0, -129108.99568903395, -157008.9572082707, -32531.73470875439, -139019.60271830592, 65388.374374911116, -94310.77174076698, 56912.61522920313, -111746.56292755163, 0.012, 0.9580000000000001, -0.016, 192.0, 0.0, 0.0, 0.0, 0.0, 0.0, 0.0, 0.0, 0.0, 0.0, 1.6664043903764265E9, 0.0, 2022-10-21 19:06:30.376
3.0, -129114.2259972365, -157014.94747578472, -32533.05346167725, -139024.810674764, 65389.84959004517, -94318.2595751595, 56902.087557564686, -111743.9254217059, 0.012, 0.9580000000000001, -0.016, 192.0, 0.0, 0.0, 0.0, 0.0, 0.0, 0.0, 0.0, 0.0, 0.0, 1.6664043903764396E9, 0.0, 2022-10-21 19:06:30.376
4.0, -129116.66233738212, -157022.27884796608, -32535.86978147862, -139025.30241314202, 65392.73296507991, -94322.28288916146, 56891.69399639297, -111744.68538101738, 0.012, 0.9580000000000001, -0.016, 192.0, 0.0, 0.0, 0.0, 0.0, 0.0, 0.0, 0.0, 0.0, 0.0, 1.6664043903764532E9, 0.0, 2022-10-21 19:06:30.376
5.0, -129121.04327929537, -157027.73267361315, -32536.45092683446, -139020.54149157304, 65390.74365982338, -94325.30037466293, 56890.062319047734, -111744.55127055066, 0.012, 0.9580000000000001, -0.016, 192.0, 0.0, 0.0, 0.0, 0.0, 0.0, 0.0, 0.0, 0.0, 0.0, 1.6664043903764665E9, 0.0, 2022-10-21 19:06:30.376
6.0, -129123.63608165218, -157028.6267433914, -32536.96501695693, -139012.0701804245, 65395.0351947588, -94309.76591226649, 56904.61330468814, -111749.15572990844, 0.012, 0.9580000000000001, -0.016, 192.0, 0.0, 0.0, 0.0, 0.0, 0.0, 0.0, 0.0, 0.0, 0.0, 1.6664043903764799E9, 0.0, 2022-10-21 19:06:30.376
7.0, -129126.07242179781, -157032.2700777376, -32538.797860002265, -139015.8699769819, 65394.67756684752, -94307.9554209656, 56903.38395874309, -111753.55902356614, 0.012, 0.9580000000000001, -0.016, 192.0, 0.0, 0.0, 0.0, 0.0, 0.0, 0.0, 0.0, 0.0, 0.0, 1.6664043903764937E9, 0.0, 2022-10-21 19:06:30.376
8.0, -129132.48737245648, -157038.2156417627, -32547.023301961817, -139031.62795682286, 65382.853494030656, -94343.33823243836, 56873.67849036199, -111762.2315004148, 0.012, 0.9580000000000001, -0.016, 192.0, 0.0, 0.0, 0.0, 0.0, 0.0, 0.0, 0.0, 0.0, 0.0, 1.666404390376507E9, 0.0, 2022-10-21 19:06:30.376
9.0, -129140.22107603803, -157047.29045001155, -32552.05244446426, -139029.03515446605, 65380.90889226305, -94352.48009592057, 56869.40930717103, -111765.67366906091, 0.012, 0.9580000000000001, -0.016, 192.0, 0.0, 0.0, 0.0, 0.0, 0.0, 0.0, 0.0, 0.0, 0.0, 1.66640439037652E9, 0.0, 2022-10-21 19:06:30.376
10.0, -129144.40085225116, -157050.39734249085, -32545.05634844975, -139020.38502936185, 65386.87680803261, -94327.13321770827, 56893.415080716026, -111764.15375043795, 0.018000000000000002, 0.962, -0.012, 192.0, 0.0, 144.0, 30.0, 16.0, 255.0, 160.0, 0.0, 0.0, 0.0, 1.6664043903765347E9, 0.0, 2022-10-21 19:06:30.376
11.0, -129143.9314656176, -157053.92891811478, -32542.57530481521, -139032.3655643899, 65384.01578474233, -94322.03701997246, 56895.53849643928, -111765.89718650546, 0.018000000000000002, 0.962, -0.012, 192.0, 0.0, 0.0, 0.0, 0.0, 0.0, 0.0, 0.0, 0.0, 0.0, 1.6664043903765512E9, 0.0, 2022-10-21 19:06:30.376
12.0, -129149.67586394261, -157059.56155771753, -32545.413976361036, -139038.48994237065, 65384.865151031634, -94343.22647371609, 56876.852438074646, -111763.86317776004, 0.018000000000000002, 0.962, -0.012, 192.0, 0.0, 0.0, 0.0, 0.0, 0.0, 0.0, 0.0, 0.0, 0.0, 1.6664043903765652E9, 0.0, 2022-10-21 19:06:30.376
13.0, -129158.50480300246, -157069.84336016697, -32553.281790409303, -139037.93114875926, 65382.65232833056, -94345.4169446727, 56872.650310117046, -111768.132360951, 0.018000000000000002, 0.962, -0.012, 192.0, 0.0, 0.0, 0.0, 0.0, 0.0, 0.0, 0.0, 0.0, 0.0, 1.6664043903765783E9, 0.0, 2022-10-21 19:06:30.376
14.0, -129163.66805597163, -157071.78796193458, -32559.24970617887, -139035.94184350275, 65376.10326720516, -94335.1127904788, 56879.95933055393, -111774.61436684303, 0.018000000000000002, 0.962, -0.012, 192.0, 0.0, 0.0, 0.0, 0.0, 0.0, 0.0, 0.0, 0.0, 0.0, 1.6664043903766065E9, 0.0, 2022-10-21 19:06:30.376
15.0, -129169.97124790803, -157078.73935446018, -32559.49557536788, -139039.13814295986, 65372.34817413666, -94321.54528159443, 56887.894199835566, -111777.74361106678, 0.018000000000000002, 0.962, -0.012, 192.0, 0.0, 0.0, 0.0, 0.0, 0.0, 0.0, 0.0, 0.0, 0.0, 1.6664043903766196E9, 0.0, 2022-10-21 19:06:30.376
16.0, -129169.32304731883, -157081.60037775047, -32550.934857241497, -139035.04777372454, 65385.580406854206, -94336.67741259068, 56879.40053694255, -111773.72029706482, 0.018000000000000002, 0.962, -0.012, 192.0, 0.0, 0.0, 0.0, 0.0, 0.0, 0.0, 0.0, 0.0, 0.0, 1.6664043903766327E9, 0.0, 2022-10-21 19:06:30.376
17.0, -129169.68067523012, -157082.51679927311, -32547.87266825112, -139030.73388704465, 65390.184866211996, -94365.19823851564, 56863.575501868196, -111770.4792941188, 0.018000000000000002, 0.962, -0.012, 192.0, 0.0, 0.0, 0.0, 0.0, 0.0, 0.0, 0.0, 0.0, 0.0, 1.6664043903766477E9, 0.0, 2022-10-21 19:06:30.376
18.0, -129173.21225085405, -157086.4283545528, -32552.231258419903, -139023.35781137442, 65392.285930190796, -94351.83189533137, 56878.797039842255, -111764.66784056042, 0.018000000000000002, 0.962, -0.012, 192.0, 0.0, 0.0, 0.0, 0.0, 0.0, 0.0, 0.0, 0.0, 0.0, 1.6664043903766603E9, 0.0, 2022-10-21 19:06:30.376
19.0, -129175.38037006622, -157087.94827317577, -32556.29927591077, -139024.94478523073, 65392.80002031327, -94325.97092699658, 56895.02440631681, -111765.91953824992, 0.018000000000000002, 0.962, -0.012, 192.0, 0.0, 0.0, 0.0, 0.0, 0.0, 0.0, 0.0, 0.0, 0.0, 1.666404390376674E9, 0.0, 2022-10-21 19:06:30.376
20.0, -129180.5436230354, -157089.66935749882, -32554.891116010087, -139034.0195934796, 65393.269406946834, -94340.07487774789, 56883.80383060025, -111761.29272714768, 0.022, 0.966, -0.006, 192.0, 0.0, 176.0, 30.0, 48.0, 255.0, 208.0, 0.0, 0.0, 0.0, 1.6664043903766868E9, 0.0, 2022-10-21 19:06:30.376
21.0, -129182.62233526974, -157090.5857790215, -32552.901810753563, -139039.45106738224, 65391.63772960159, -94363.99124431507, 56866.213007713915, -111756.71061953434, 0.022, 0.966, -0.006, 192.0, 0.0, 0.0, 0.0, 0.0, 0.0, 0.0, 0.0, 0.0, 0.0, 1.666404390376701E9, 0.0, 2022-10-21 19:06:30.376
22.0, -129192.25593712997, -157102.6333692829, -32555.472261365925, -139027.04584920953, 65392.218874957434, -94348.43443017417, 56878.5735223977, -111754.2742793887, 0.022, 0.966, -0.006, 192.0, 0.0, 0.0, 0.0, 0.0, 0.0, 0.0, 0.0, 0.0, 0.0, 1.666404390376715E9, 0.0, 2022-10-21 19:06:30.376
23.0, -129208.97504198254, -157120.67122705834, -32568.190403960994, -139040.07691622697, 65383.00995624185, -94332.11765672179, 56883.93794106698, -111768.02060222872, 0.022, 0.966, -0.006, 192.0, 0.0, 0.0, 0.0, 0.0, 0.0, 0.0, 0.0, 0.0, 0.0, 1.6664043903767283E9, 0.0, 2022-10-21 19:06:30.376
24.0, -129204.41528611367, -157117.92196249033, -32567.095168482683, -139042.28973892806, 65387.77087781083, -94348.83676157436, 56870.25867346033, -111760.95745098084, 0.022, 0.966, -0.006, 192.0, 0.0, 0.0, 0.0, 0.0, 0.0, 0.0, 0.0, 0.0, 0.0, 1.6664043903767416E9, 0.0, 2022-10-21 19:06:30.376
25.0, -129214.20535018509, -157128.49433761768, -32577.35461918767, -139048.81644830902, 65382.22764518591, -94355.02819478848, 56857.96521400991, -111773.47442787582, 0.022, 0.966, -0.006, 192.0, 0.0, 0.0, 0.0, 0.0, 0.0, 0.0, 0.0, 0.0, 0.0, 1.6664043903767552E9, 0.0, 2022-10-21 19:06:30.376
26.0, -129221.33555666632, -157134.9316400208, -32581.959078545464, -139043.80965755103, 65375.432714871495, -94345.90868305071, 56861.69795533395, -111786.90782629345, 0.022, 0.966, -0.006, 192.0, 0.0, 0.0, 0.0, 0.0, 0.0, 0.0, 0.0, 0.0, 0.0, 1.666404390376769E9, 0.0, 2022-10-21 19:06:30.376
27.0, -129220.41913514366, -157133.65759058687, -32577.98046803242, -139039.62988133787, 65375.70093580496, -94340.27604344799, 56872.94088279497, -111781.25283494627, 0.022, 0.966, -0.006, 192.0, 0.0, 0.0, 0.0, 0.0, 0.0, 0.0, 0.0, 0.0, 0.0, 1.6664043903767827E9, 0.0, 2022-10-21 19:06:30.376
28.0, -129219.81563804336, -157134.57401210954, -32575.92410754253, -139044.74843081814, 65379.05369747325, -94337.28090969098, 56875.69014736297, -111778.34710816707, 0.022, 0.966, -0.006, 192.0, 0.0, 0.0, 0.0, 0.0, 0.0, 0.0, 0.0, 0.0, 0.0, 1.666404390376796E9, 0.0, 2022-10-21 19:06:30.376
29.0, -129231.52795213796, -157143.4476546583, -32576.706418598467, -139050.85045705445, 65378.91958700652, -94351.3178052089, 56861.183865211475, -111778.34710816707, 0.022, 0.966, -0.006, 192.0, 0.0, 0.0, 0.0, 0.0, 0.0, 0.0, 0.0, 0.0, 0.0, 1.6664043903768485E9, 0.0, 2022-10-21 19:06:30.376
30.0, -129231.77382132696, -157146.6439541154, -32573.39836041908, -139041.86505578342, 65382.94290100848, -94354.93878781066, 56859.95451926643, -111778.2353494448, 0.032, 0.964, 0.0, 192.0, 1.0, 0.0, 30.0, 32.0, 0.0, 0.0, 0.0, 0.0, 0.0, 1.6664043903768616E9, 0.0, 2022-10-21 19:06:30.376
31.0, -129233.74077483903, -157150.22023322823, -32575.410017420058, -139031.49384635614, 65385.24513068738, -94336.40919165722, 56874.326690951195, -111782.45982914684, 0.032, 0.964, 0.0, 192.0, 0.0, 0.0, 0.0, 0.0, 0.0, 0.0, 0.0, 0.0, 0.0, 1.6664043903768759E9, 0.0, 2022-10-21 19:06:30.376
32.0, -129244.2013912441, -157156.85870133148, -32581.668505867543, -139048.01178550863, 65378.159627695044, -94346.8698080623, 56868.805810070735, -111781.78927681319, 0.032, 0.964, 0.0, 192.0, 0.0, 0.0, 0.0, 0.0, 0.0, 0.0, 0.0, 0.0, 0.0, 1.666404390376891E9, 0.0, 2022-10-21 19:06:30.376
33.0, -129252.24801924801, -157161.73138162273, -32584.26130822436, -139050.6716430988, 65378.49490386187, -94369.04273856197, 56849.29273716125, -111784.62794835902, 0.032, 0.964, 0.0, 192.0, 0.0, 0.0, 0.0, 0.0, 0.0, 0.0, 0.0, 0.0, 0.0, 1.666404390376904E9, 0.0, 2022-10-21 19:06:30.376
34.0, -129250.95161806961, -157166.31348923605, -32584.753046602375, -139040.12161971588, 65380.394802140574, -94381.7832329015, 56839.05563820072, -111780.91755877943, 0.032, 0.964, 0.0, 192.0, 0.0, 0.0, 0.0, 0.0, 0.0, 0.0, 0.0, 0.0, 0.0, 1.6664043903769171E9, 0.0, 2022-10-21 19:06:30.376
35.0, -129255.33255998285, -157173.66721316185, -32588.374029204137, -139031.78441903405, 65380.059525973746, -94357.8221628454, 56859.865112288615, -111780.82815180162, 0.032, 0.964, 0.0, 192.0, 0.0, 0.0, 0.0, 0.0, 0.0, 0.0, 0.0, 0.0, 0.0, 1.666404390376933E9, 0.0, 2022-10-21 19:06:30.376
36.0, -129267.02252233298, -157182.67496617735, -32589.133988515616, -139036.59004409195, 65380.23833992939, -94352.50244766504, 56863.709612334926, -111783.68917509189, 0.032, 0.964, 0.0, 192.0, 0.0, 0.0, 0.0, 0.0, 0.0, 0.0, 0.0, 0.0, 0.0, 1.666404390376946E9, 0.0, 2022-10-21 19:06:30.376
37.0, -129273.57158345838, -157189.87222789196, -32592.330287972723, -139053.93499778927, 65372.45993285894, -94381.69382592366, 56839.6144318121, -111787.15369548247, 0.032, 0.964, 0.0, 192.0, 0.0, 0.0, 0.0, 0.0, 0.0, 0.0, 0.0, 0.0, 0.0, 1.666404390376959E9, 0.0, 2022-10-21 19:06:30.376
38.0, -129271.80579564642, -157183.90431212238, -32589.223395493438, -139051.02927101008, 65373.44340961497, -94394.47902375211, 56833.981792209364, -111779.37528841202, 0.032, 0.964, 0.0, 192.0, 0.0, 0.0, 0.0, 0.0, 0.0, 0.0, 0.0, 0.0, 0.0, 1.666404390376972E9, 0.0, 2022-10-21 19:06:30.376
39.0, -129276.47731023758, -157187.83821914654, -32586.049447780784, -139039.02638423757, 65375.790342782784, -94381.89499162376, 56848.28690866076, -111780.40346865696, 0.034, 0.9540000000000001, 0.004, 192.0, 1.0, 16.0, 29.0, 208.0, 0.0, 32.0, 0.0, 0.0, 0.0, 1.6664043903769853E9, 0.0, 2022-10-21 19:06:30.376
40.0, -129283.27224055199, -157196.04130936164, -32586.7423518589, -139036.99237549215, 65378.383145139596, -94363.65596814823, 56859.95451926643, -111787.86895130503, 0.034, 0.9540000000000001, 0.004, 192.0, 0.0, 0.0, 0.0, 0.0, 0.0, 0.0, 0.0, 0.0, 0.0, 1.6664043903769996E9, 0.0, 2022-10-21 19:06:30.376
41.0, -129283.27224055199, -157193.69437619383, -32582.83079657922, -139042.24503543915, 65380.21598818493, -94364.75120362654, 56852.310222662716, -111783.55506462516, 0.034, 0.9540000000000001, 0.004, 192.0, 0.0, 0.0, 0.0, 0.0, 0.0, 0.0, 0.0, 0.0, 0.0, 1.6664043903770132E9, 0.0, 2022-10-21 19:06:30.377
42.0, -129295.09631336885, -157205.78666994415, -32586.16120650306, -139046.38010816337, 65377.1314474501, -94370.76382288503, 56843.97302198089, -111779.82232330112, 0.034, 0.9540000000000001, 0.004, 192.0, 0.0, 0.0, 0.0, 0.0, 0.0, 0.0, 0.0, 0.0, 0.0, 1.6664043903770263E9, 0.0, 2022-10-21 19:06:30.377
43.0, -129293.59874649034, -157203.52914375416, -32587.301145470283, -139038.06525922602, 65377.51142710584, -94355.43052618868, 56859.30631867723, -111771.70864006385, 0.034, 0.9540000000000001, 0.004, 192.0, 0.0, 0.0, 0.0, 0.0, 0.0, 0.0, 0.0, 0.0, 0.0, 1.6664043903770397E9, 0.0, 2022-10-21 19:06:30.377
44.0, -129297.66676398121, -157211.57577175807, -32588.329325715225, -139035.98654699165, 65380.66302307404, -94343.89702604974, 56872.024461272296, -111774.30144242066, 0.034, 0.9540000000000001, 0.004, 192.0, 0.0, 0.0, 0.0, 0.0, 0.0, 0.0, 0.0, 0.0, 0.0, 1.666404390377066E9, 0.0, 2022-10-21 19:06:30.377
45.0, -129297.80087444793, -157207.5524577561, -32584.909508813562, -139042.80382905054, 65378.76312479534, -94360.37026171331, 56860.96034776692, -111773.1838551979, 0.034, 0.9540000000000001, 0.004, 192.0, 0.0, 0.0, 0.0, 0.0, 0.0, 0.0, 0.0, 0.0, 0.0, 1.6664043903770797E9, 0.0, 2022-10-21 19:06:30.377
46.0, -129291.67649646717, -157202.9927018872, -32576.035866264807, -139033.97488999067, 65390.52014237883, -94367.88044785029, 56857.24995818734, -111762.4326661149, 0.034, 0.9540000000000001, 0.004, 192.0, 0.0, 0.0, 0.0, 0.0, 0.0, 0.0, 0.0, 0.0, 0.0, 1.6664043903770933E9, 0.0, 2022-10-21 19:06:30.377
47.0, -129310.96605193212, -157228.0713591661, -32591.235052494416, -139045.82131455198, 65377.1314474501, -94363.49950593704, 56854.03130698577, -111779.37528841202, 0.034, 0.9540000000000001, 0.004, 192.0, 0.0, 0.0, 0.0, 0.0, 0.0, 0.0, 0.0, 0.0, 0.0, 1.6664043903771071E9, 0.0, 2022-10-21 19:06:30.377
48.0, -129329.78622076348, -157249.46197860982, -32604.802561378787, -139056.08076525698, 65364.16743566602, -94355.65404363323, 56855.327708164186, -111792.71927985184, 0.034, 0.9540000000000001, 0.004, 192.0, 0.0, 0.0, 0.0, 0.0, 0.0, 0.0, 0.0, 0.0, 0.0, 1.6664043903771205E9, 0.0, 2022-10-21 19:06:30.377
49.0, -129323.25951138254, -157243.15878667342, -32600.823950865743, -139056.39368967936, 65369.37539212411, -94367.43341296118, 56845.20236792593, -111790.7299745953, 0.03, 0.96, -0.002, 192.0, 0.0, 240.0, 30.0, 0.0, 255.0, 240.0, 0.0, 0.0, 0.0, 1.666404390377134E9, 0.0, 2022-10-21 19:06:30.377
50.0, -129312.28480485498, -157232.25113537922, -32594.632517651622, -139049.44229715376, 65376.68441256099, -94385.1806980587, 56832.37246660858, -111789.09829725008, 0.03, 0.96, -0.002, 192.0, 0.0, 0.0, 0.0, 0.0, 0.0, 0.0, 0.0, 0.0, 0.0, 1.6664043903771486E9, 0.0, 2022-10-21 19:06:30.377
51.0, -129319.68323226969, -157239.40369360492, -32595.727753129933, -139038.93697725976, 65378.8301800287, -94388.10877658235, 56833.221832897885, -111789.21005597235, 0.03, 0.96, -0.002, 192.0, 0.0, 0.0, 0.0, 0.0, 0.0, 0.0, 0.0, 0.0, 0.0, 1.666404390377162E9, 0.0, 2022-10-21 19:06:30.377
52.0, -129336.33528188888, -157258.9167665144, -32605.987203834917, -139043.09440172845, 65370.15770318004, -94379.61511368932, 56840.50850159032, -111797.36844269854, 0.03, 0.96, -0.002, 192.0, 0.0, 0.0, 0.0, 0.0, 0.0, 0.0, 0.0, 0.0, 0.0, 1.666404390377175E9, 0.0, 2022-10-21 19:06:30.377
53.0, -129345.54420060448, -157269.24327245276, -32616.40311675109, -139062.58512289348, 65356.09845591766, -94394.56843072992, 56825.19755663843, -111808.141983526, 0.03, 0.96, -0.002, 192.0, 0.0, 0.0, 0.0, 0.0, 0.0, 0.0, 0.0, 0.0, 0.0, 1.6664043903771887E9, 0.0, 2022-10-21 19:06:30.377
54.0, -129336.96113073363, -157259.7661328037, -32607.194198035504, -139057.64538736886, 65365.240319399876, -94397.76473018703, 56822.9623821929, -111799.3353962106, 0.03, 0.96, -0.002, 192.0, 0.0, 0.0, 0.0, 0.0, 0.0, 0.0, 0.0, 0.0, 0.0, 1.6664043903772044E9, 0.0, 2022-10-21 19:06:30.377
55.0, -129337.85520051184, -157259.09558047005, -32603.84143636721, -139048.70468958674, 65365.17326416651, -94395.99894237507, 56826.650420028025, -111796.1838002424, 0.03, 0.96, -0.002, 192.0, 0.0, 0.0, 0.0, 0.0, 0.0, 0.0, 0.0, 0.0, 0.0, 1.6664043903772175E9, 0.0, 2022-10-21 19:06:30.377
56.0, -129339.17395343471, -157263.99061250576, -32609.78700039232, -139042.4685528837, 65362.40164785405, -94392.71323594013, 56830.427864840975, -111799.60361714406, 0.03, 0.96, -0.002, 192.0, 0.0, 0.0, 0.0, 0.0, 0.0, 0.0, 0.0, 0.0, 0.0, 1.666404390377231E9, 0.0, 2022-10-21 19:06:30.377
57.0, -129346.1253459603, -157272.50662714324, -32617.900683629596, -139052.86211405543, 65357.86424372962, -94394.92605864121, 56825.80105373872, -111803.96220731286, 0.03, 0.96, -0.002, 192.0, 0.0, 0.0, 0.0, 0.0, 0.0, 0.0, 0.0, 0.0, 0.0, 1.6664043903772445E9, 0.0, 2022-10-21 19:06:30.377
58.0, -129352.31677917443, -157271.70196434285, -32617.36424176267, -139059.67939611428, 65360.03236294179, -94407.51009076955, 56815.49689954483, -111801.3917567005, 0.03, 0.96, -0.002, 192.0, 0.0, 0.0, 0.0, 0.0, 0.0, 0.0, 0.0, 0.0, 0.0, 1.6664043903772576E9, 0.0, 2022-10-21 19:06:30.377
59.0, -129349.12047971733, -157267.14220847396, -32604.981375334428, -139047.9670820197, 65373.17518868151, -94403.24090757858, 56823.47647231537, -111787.26545420474, 0.026000000000000002, 0.964, 0.002, 192.0, 0.0, 208.0, 30.0, 32.0, 0.0, 16.0, 0.0, 0.0, 0.0, 1.6664043903772843E9, 0.0, 2022-10-21 19:06:30.377
60.0, -129352.3838344078, -157274.8759120555, -32602.343869488705, -139034.75720104662, 65376.282081160796, -94394.27785805201, 56833.422998597984, -111785.70083209287, 0.026000000000000002, 0.964, 0.002, 192.0, 0.0, 0.0, 0.0, 0.0, 0.0, 0.0, 0.0, 0.0, 0.0, 1.6664043903772984E9, 0.0, 2022-10-21 19:06:30.377
61.0, -129360.54222113398, -157282.90018831496, -32616.827799895742, -139053.06327975553, 65363.899214732555, -94384.84542189186, 56832.28305963076, -111802.71050962336, 0.026000000000000002, 0.964, 0.002, 192.0, 0.0, 0.0, 0.0, 0.0, 0.0, 0.0, 0.0, 0.0, 0.0, 1.6664043903773117E9, 0.0, 2022-10-21 19:06:30.377
62.0, -129369.95230554967, -157285.49299067177, -32620.046451097307, -139064.6191316389, 65361.105246675645, -94389.69575043867, 56824.03526592675, -111804.25277999077, 0.026000000000000002, 0.964, 0.002, 192.0, 0.0, 0.0, 0.0, 0.0, 0.0, 0.0, 0.0, 0.0, 0.0, 1.6664043903773253E9, 0.0, 2022-10-21 19:06:30.377
63.0, -129372.99214279559, -157284.30834821562, -32612.804485893786, -139059.63469262538, 65361.70874377594, -94414.26031759505, 56809.86425994209, -111797.99429154329, 0.026000000000000002, 0.964, 0.002, 192.0, 0.0, 0.0, 0.0, 0.0, 0.0, 0.0, 0.0, 0.0, 0.0, 1.6664043903773386E9, 0.0, 2022-10-21 19:06:30.377
64.0, -129376.09903527488, -157293.1819907644, -32611.351622504193, -139054.76201233413, 65357.93129896299, -94411.44399779369, 56817.10622514561, -111803.2916549792, 0.026000000000000002, 0.964, 0.002, 192.0, 0.0, 0.0, 0.0, 0.0, 0.0, 0.0, 0.0, 0.0, 0.0, 1.6664043903773537E9, 0.0, 2022-10-21 19:06:30.377
65.0, -129383.67627664523, -157297.71939488882, -32616.246654539904, -139054.65025361185, 65355.74082800637, -94393.6296574628, 56830.38316135206, -111803.64928289047, 0.026000000000000002, 0.964, 0.002, 192.0, 0.0, 0.0, 0.0, 0.0, 0.0, 0.0, 0.0, 0.0, 0.0, 1.6664043903773675E9, 0.0, 2022-10-21 19:06:30.377
66.0, -129386.9843348246, -157301.85446761304, -32616.55957896228, -139061.64634962636, 65357.17133965151, -94401.67628546672, 56820.570745536184, -111796.25085547578, 0.026000000000000002, 0.964, 0.002, 192.0, 0.0, 0.0, 0.0, 0.0, 0.0, 0.0, 0.0, 0.0, 0.0, 1.6664043903773804E9, 0.0, 2022-10-21 19:06:30.377
67.0, -129379.85412834337, -157293.04788029764, -32613.609148694177, -139052.59389312196, 65367.49784558986, -94417.92600368572, 56809.7077977309, -111782.50453263576, 0.026000000000000002, 0.964, 0.002, 192.0, 0.0, 0.0, 0.0, 0.0, 0.0, 0.0, 0.0, 0.0, 0.0, 1.6664043903773937E9, 0.0, 2022-10-21 19:06:30.377
68.0, -129391.25351801557, -157300.46865945682, -32619.375898763647, -139046.2683494411, 65368.88365374609, -94403.95616340115, 56820.68250425846, -111781.05166924617, 0.026000000000000002, 0.964, 0.002, 192.0, 0.0, 0.0, 0.0, 0.0, 0.0, 0.0, 0.0, 0.0, 0.0, 1.6664043903774073E9, 0.0, 2022-10-21 19:06:30.377
69.0, -129407.70440193468, -157320.29465678867, -32635.290340815827, -139068.0165967961, 65347.73890349137, -94395.41779701922, 56820.30252460272, -111800.90001832247, 0.02, 0.962, 0.002, 192.0, 0.0, 160.0, 30.0, 16.0, 0.0, 16.0, 0.0, 0.0, 0.0, 1.6664043903774204E9, 0.0, 2022-10-21 19:06:30.377
70.0, -129408.97845136863, -157317.41128175394, -32631.42348902506, -139066.74254736217, 65353.88563321658, -94414.0815036394, 56810.1101291311, -111797.07787002061, 0.02, 0.962, 0.002, 192.0, 0.0, 0.0, 0.0, 0.0, 0.0, 0.0, 0.0, 0.0, 0.0, 1.6664043903774345E9, 0.0, 2022-10-21 19:06:30.377
71.0, -129404.32928852193, -157310.4375374839, -32621.83459065373, -139056.46074491274, 65371.096476447165, -94420.22823336461, 56808.47845178586, -111790.59586412858, 0.02, 0.962, 0.002, 192.0, 0.0, 0.0, 0.0, 0.0, 0.0, 0.0, 0.0, 0.0, 0.0, 1.6664043903774476E9, 0.0, 2022-10-21 19:06:30.377
72.0, -129402.11646582086, -157309.5881711946, -32618.41477375207, -139040.83687553846, 65380.618319585126, -94414.57324201742, 56814.826347211165, -111782.34807042457, 0.02, 0.962, 0.002, 192.0, 0.0, 0.0, 0.0, 0.0, 0.0, 0.0, 0.0, 0.0, 0.0, 1.6664043903774607E9, 0.0, 2022-10-21 19:06:30.377
73.0, -129408.91139613527, -157313.05269158515, -32617.699517929497, -139030.37625913337, 65387.882636533104, -94390.2321923056, 56833.73592302036, -111783.75623032526, 0.02, 0.962, 0.002, 192.0, 0.0, 0.0, 0.0, 0.0, 0.0, 0.0, 0.0, 0.0, 0.0, 1.6664043903774743E9, 0.0, 2022-10-21 19:06:30.377
74.0, -129414.38757352682, -157317.47833698732, -32629.16596283507, -139051.81158206603, 65376.215025927435, -94395.30603829696, 56822.805919981714, -111801.05648053366, 0.02, 0.962, 0.002, 192.0, 0.0, 0.0, 0.0, 0.0, 0.0, 0.0, 0.0, 0.0, 0.0, 1.6664043903775E9, 0.0, 2022-10-21 19:06:30.377
75.0, -129425.92107366576, -157318.68533118788, -32630.238846568926, -139058.83002982498, 65375.298604404765, -94408.8288436924, 56809.68544598645, -111801.65997763396, 0.02, 0.962, 0.002, 192.0, 0.0, 0.0, 0.0, 0.0, 0.0, 0.0, 0.0, 0.0, 0.0, 1.6664043903775153E9, 0.0, 2022-10-21 19:06:30.377
76.0, -129416.46628576115, -157316.60661895355, -32621.678128442545, -139044.32374767348, 65381.378278896605, -94400.89397441078, 56820.28017285826, -111788.83007631662, 0.02, 0.962, 0.002, 192.0, 0.0, 0.0, 0.0, 0.0, 0.0, 0.0, 0.0, 0.0, 0.0, 1.6664043903775284E9, 0.0, 2022-10-21 19:06:30.377
77.0, -129420.62371022985, -157323.62506671253, -32631.8034686808, -139048.52587563108, 65371.63291831409, -94384.80071840296, 56832.61833579759, -111796.36261419805, 0.02, 0.962, 0.002, 192.0, 0.0, 0.0, 0.0, 0.0, 0.0, 0.0, 0.0, 0.0, 0.0, 1.6664043903775413E9, 0.0, 2022-10-21 19:06:30.377
78.0, -129424.95994865418, -157327.15664233646, -32638.5536955063, -139061.0652042705, 65366.31320313373, -94403.91145991224, 56819.09553040213, -111803.11284102355, 0.026000000000000002, 0.9560000000000001, 0.006, 192.0, 0.0, 208.0, 29.0, 224.0, 0.0, 48.0, 0.0, 0.0, 0.0, 1.6664043903775544E9, 0.0, 2022-10-21 19:06:30.377
79.0, -129416.30982354998, -157318.50651723225, -32633.748070448408, -139064.84264908347, 65368.77189502381, -94410.50522452655, 56814.066387899686, -111801.12353576704, 0.026000000000000002, 0.9560000000000001, 0.006, 192.0, 0.0, 0.0, 0.0, 0.0, 0.0, 0.0, 0.0, 0.0, 0.0, 1.6664043903775685E9, 0.0, 2022-10-21 19:06:30.377
80.0, -129419.64023347381, -157322.66394170094, -32631.199971580503, -139066.3625677064, 65361.35111586465, -94423.89391945528, 56805.63978024004, -111799.4918584218, 0.026000000000000002, 0.9560000000000001, 0.006, 192.0, 0.0, 0.0, 0.0, 0.0, 0.0, 0.0, 0.0, 0.0, 0.0, 1.6664043903775816E9, 0.0, 2022-10-21 19:06:30.377
81.0, -129419.52847475154, -157322.44042425638, -32624.516799988367, -139057.04189026856, 65364.7262292774, -94429.16893114673, 56813.32878033266, -111792.3393001961, 0.026000000000000002, 0.9560000000000001, 0.006, 192.0, 0.0, 0.0, 0.0, 0.0, 0.0, 0.0, 0.0, 0.0, 0.0, 1.6664043903775947E9, 0.0, 2022-10-21 19:06:30.377
82.0, -129417.42741077274, -157316.02547359772, -32619.666471441567, -139052.95152103325, 65371.65527005855, -94410.16994835973, 56830.58432705216, -111788.36068968305, 0.026000000000000002, 0.9560000000000001, 0.006, 192.0, 0.0, 0.0, 0.0, 0.0, 0.0, 0.0, 0.0, 0.0, 0.0, 1.666404390377608E9, 0.0, 2022-10-21 19:06:30.377
83.0, -129416.35452703889, -157314.79612765266, -32618.995919107907, -139062.04868102656, 65369.55420607975, -94421.47993105411, 56820.16841413599, -111780.85050354607, 0.026000000000000002, 0.9560000000000001, 0.006, 192.0, 0.0, 0.0, 0.0, 0.0, 0.0, 0.0, 0.0, 0.0, 0.0, 1.6664043903776212E9, 0.0, 2022-10-21 19:06:30.377
84.0, -129415.77338168304, -157308.35882524954, -32617.252483040393, -139056.6172071239, 65370.15770318004, -94441.06005919696, 56808.79137620823, -111778.54827386717, 0.026000000000000002, 0.9560000000000001, 0.006, 192.0, 0.0, 0.0, 0.0, 0.0, 0.0, 0.0, 0.0, 0.0, 0.0, 1.6664043903776348E9, 0.0, 2022-10-21 19:06:30.377
85.0, -129416.17571308324, -157308.35882524954, -32618.280663285335, -139044.81548605152, 65371.76702878083, -94431.67232652573, 56819.69902750242, -111784.29267219218, 0.026000000000000002, 0.9560000000000001, 0.006, 192.0, 0.0, 0.0, 0.0, 0.0, 0.0, 0.0, 0.0, 0.0, 0.0, 1.666404390377648E9, 0.0, 2022-10-21 19:06:30.377
86.0, -129424.91524516526, -157317.74655792076, -32629.769459935364, -139051.47630589918, 65365.62029905562, -94406.75013145807, 56834.25001314283, -111795.71441360885, 0.026000000000000002, 0.9560000000000001, 0.006, 192.0, 0.0, 0.0, 0.0, 0.0, 0.0, 0.0, 0.0, 0.0, 0.0, 1.6664043903776612E9, 0.0, 2022-10-21 19:06:30.377
87.0, -129420.042564874, -157311.30925551764, -32623.622730210154, -139056.68426235727, 65371.16353168053, -94416.1378641293, 56829.176167151476, -111781.02931750171, 0.026000000000000002, 0.9560000000000001, 0.006, 192.0, 0.0, 0.0, 0.0, 0.0, 0.0, 0.0, 0.0, 0.0, 0.0, 1.6664043903776743E9, 0.0, 2022-10-21 19:06:30.377
88.0, -129419.77434394055, -157307.82238338262, -32617.54305571831, -139046.87184654138, 65379.32191840672, -94434.80157074948, 56819.27434435777, -111769.13818945149, 0.022, 0.9560000000000001, -0.002, 192.0, 0.0, 176.0, 29.0, 224.0, 255.0, 240.0, 0.0, 0.0, 0.0, 1.6664043903776872E9, 0.0, 2022-10-21 19:06:30.377
89.0, -129420.26608231856, -157306.45892697084, -32621.298148786802, -139036.65709932533, 65378.47255211742, -94406.9289454137, 56838.49684458934, -111771.17219819692, 0.022, 0.9560000000000001, -0.002, 192.0, 0.0, 0.0, 0.0, 0.0, 0.0, 0.0, 0.0, 0.0, 0.0, 1.6664043903777401E9, 0.0, 2022-10-21 19:06:30.377
1.0, -127871.89368866608, -156806.78567967247, -32410.74471601781, -139115.04466713007, 65753.49012058855, -91460.76786050414, 56348.7030683402, -111821.93300985493, 0.022, 0.9560000000000001, -0.002, 192.0, 0.0, 0.0, 0.0, 0.0, 0.0, 0.0, 0.0, 0.0, 0.0, 1.666404390474248E9, 0.0, 2022-10-21 19:06:30.474
2.0, -127873.77123520033, -156803.99171161553, -32399.41238157897, -139099.9795913672, 65757.64754505725, -91426.14500834286, 56378.90027509932, -111812.03118706122, 0.022, 0.9560000000000001, -0.002, 192.0, 0.0, 0.0, 0.0, 0.0, 0.0, 0.0, 0.0, 0.0, 0.0, 1.6664043909530268E9, 0.0, 2022-10-21 19:06:30.953
3.0, -127887.85283420717, -156823.05774963592, -32423.5522655907, -139139.31866160856, 65731.764224978, -91434.10222936896, 56363.075240024955, -111839.07679785215, 0.022, 0.9560000000000001, -0.002, 192.0, 0.0, 0.0, 0.0, 0.0, 0.0, 0.0, 0.0, 0.0, 0.0, 1.6664043909531028E9, 0.0, 2022-10-21 19:06:30.953
4.0, -127880.96849691494, -156818.20742108912, -32421.406498122993, -139143.4984378217, 65737.95565819212, -91454.9340552013, 56346.6020043614, -111834.47233849435, 0.022, 0.9560000000000001, -0.002, 192.0, 0.0, 0.0, 0.0, 0.0, 0.0, 0.0, 0.0, 0.0, 0.0, 1.6664043909531496E9, 0.0, 2022-10-21 19:06:30.953
5.0, -127889.28334585231, -156821.2696100795, -32421.339442889624, -139139.40806858637, 65737.68743725866, -91449.72609874322, 56353.46398990918, -111836.93103038444, 0.022, 0.9560000000000001, -0.002, 192.0, 0.0, 0.0, 0.0, 0.0, 0.0, 0.0, 0.0, 0.0, 0.0, 1.6664043909531944E9, 0.0, 2022-10-21 19:06:30.953
6.0, -127889.75273248587, -156821.85075543533, -32424.312224902184, -139135.25064411768, 65737.06158841391, -91451.51423829964, 56355.65446086579, -111840.12732984155, 0.022, 0.9560000000000001, -0.002, 192.0, 0.0, 0.0, 0.0, 0.0, 0.0, 0.0, 0.0, 0.0, 0.0, 1.6664043909532115E9, 0.0, 2022-10-21 19:06:30.953
7.0, -127888.72455224092, -156814.85465942082, -32430.07897497165, -139133.596615028, 65740.86138497131, -91435.19746484727, 56364.5057516701, -111833.53356522722, 0.026000000000000002, 0.9560000000000001, -0.024, 192.0, 0.0, 208.0, 29.0, 224.0, 255.0, 64.0, 0.0, 0.0, 0.0, 1.6664043909532344E9, 0.0, 2022-10-21 19:06:30.953
8.0, -127883.9859824164, -156813.49120300903, -32420.355966133593, -139132.90371094987, 65745.01880944, -91427.46376126574, 56365.91391157078, -111831.41014950396, 0.026000000000000002, 0.9560000000000001, -0.024, 192.0, 0.0, 0.0, 0.0, 0.0, 0.0, 0.0, 0.0, 0.0, 0.0, 1.6664043909532528E9, 0.0, 2022-10-21 19:06:30.953
9.0, -127883.06956089372, -156817.29099956644, -32421.853533012098, -139137.4411150743, 65737.55332679192, -91446.03806090809, 56349.97711777415, -111836.81927166216, 0.026000000000000002, 0.9560000000000001, -0.024, 192.0, 0.0, 0.0, 0.0, 0.0, 0.0, 0.0, 0.0, 0.0, 0.0, 1.6664043909532695E9, 0.0, 2022-10-21 19:06:30.953
10.0, -127885.95293592846, -156813.33474079784, -32422.524085345758, -139132.4343243163, 65734.7146552461, -91436.56092125905, 56356.72734459965, -111838.22743156285, 0.026000000000000002, 0.9560000000000001, -0.024, 192.0, 0.0, 0.0, 0.0, 0.0, 0.0, 0.0, 0.0, 0.0, 0.0, 1.6664043909532855E9, 0.0, 2022-10-21 19:06:30.953
11.0, -127900.74979075788, -156821.38136880175, -32426.010957480787, -139128.00867891416, 65743.78946349496, -91432.62701423491, 56360.72830685715, -111836.26047805077, 0.026000000000000002, 0.9560000000000001, -0.024, 192.0, 0.0, 0.0, 0.0, 0.0, 0.0, 0.0, 0.0, 0.0, 0.0, 1.6664043909533017E9, 0.0, 2022-10-21 19:06:30.953
12.0, -127894.02191567683, -156827.70691248262, -32426.83797202563, -139134.96007143977, 65743.83416698387, -91430.50359851166, 56357.88963531132, -111834.22646930534, 0.026000000000000002, 0.9560000000000001, -0.024, 192.0, 0.0, 0.0, 0.0, 0.0, 0.0, 0.0, 0.0, 0.0, 0.0, 1.6664043909533174E9, 0.0, 2022-10-21 19:06:30.953
13.0, -127880.81203470375, -156815.9722466436, -32418.03138471024, -139127.47223704724, 65748.32686761938, -91449.4802295542, 56349.61948986286, -111828.03503609123, 0.026000000000000002, 0.9560000000000001, -0.024, 192.0, 0.0, 0.0, 0.0, 0.0, 0.0, 0.0, 0.0, 0.0, 0.0, 1.6664043909533331E9, 0.0, 2022-10-21 19:06:30.953
14.0, -127889.79743597477, -156816.28517106595, -32422.92641674595, -139126.66757424685, 65747.49985307454, -91437.45499103726, 56362.650556880304, -111830.18080355893, 0.026000000000000002, 0.9560000000000001, -0.024, 192.0, 0.0, 0.0, 0.0, 0.0, 0.0, 0.0, 0.0, 0.0, 0.0, 1.666404390953349E9, 0.0, 2022-10-21 19:06:30.953
15.0, -127894.08897091019, -156818.7215112116, -32433.677605828954, -139134.2448156172, 65742.04602742744, -91431.4870752677, 56369.69135638373, -111832.95241987139, 0.026000000000000002, 0.9560000000000001, -0.024, 192.0, 0.0, 0.0, 0.0, 0.0, 0.0, 0.0, 0.0, 0.0, 0.0, 1.666404390953432E9, 0.0, 2022-10-21 19:06:30.953
16.0, -127896.99469768938, -156823.03539789145, -32437.410347152992, -139140.1903796423, 65738.00036168103, -91446.35098533047, 56358.0013940336, -111831.72307392635, 0.026000000000000002, 0.9560000000000001, -0.024, 192.0, 0.0, 0.0, 0.0, 0.0, 0.0, 0.0, 0.0, 0.0, 0.0, 1.666404390953448E9, 0.0, 2022-10-21 19:06:30.953
17.0, -127907.1423896721, -156826.0752351374, -32430.011919738285, -139144.21369364427, 65731.7195214891, -91462.75716576066, 56347.76429507307, -111836.93103038444, 0.026000000000000002, 0.9580000000000001, -0.03, 192.0, 0.0, 208.0, 29.0, 240.0, 255.0, 16.0, 0.0, 0.0, 0.0, 1.6664043909534636E9, 0.0, 2022-10-21 19:06:30.953
18.0, -127890.62445051962, -156818.25212457802, -32422.61349232358, -139128.92510043684, 65743.38713209477, -91441.36654631693, 56367.88086508285, -111822.06712032165, 0.026000000000000002, 0.9580000000000001, -0.03, 192.0, 0.0, 0.0, 0.0, 0.0, 0.0, 0.0, 0.0, 0.0, 0.0, 1.6664043909534805E9, 0.0, 2022-10-21 19:06:30.953
19.0, -127896.97234594493, -156846.34826735835, -32436.203352952405, -139126.62287075794, 65738.29093435896, -91429.833046178, 56373.692318641224, -111825.30812326768, 0.026000000000000002, 0.9580000000000001, -0.03, 192.0, 0.0, 0.0, 0.0, 0.0, 0.0, 0.0, 0.0, 0.0, 0.0, 1.6664043909534962E9, 0.0, 2022-10-21 19:06:30.953
20.0, -127904.39312510409, -156833.47366255207, -32444.13822223404, -139143.4984378217, 65731.47365230008, -91445.61337776344, 56356.19090273272, -111840.149681586, 0.026000000000000002, 0.9580000000000001, -0.03, 192.0, 0.0, 0.0, 0.0, 0.0, 0.0, 0.0, 0.0, 0.0, 0.0, 1.6664043909535117E9, 0.0, 2022-10-21 19:06:30.953
21.0, -127914.45141010899, -156833.98775267455, -32454.487079916846, -139165.0455194766, 65718.82256493838, -91464.03121519461, 56335.739056556115, -111859.7968649622, 0.026000000000000002, 0.9580000000000001, -0.03, 192.0, 0.0, 0.0, 0.0, 0.0, 0.0, 0.0, 0.0, 0.0, 0.0, 1.6664043909535277E9, 0.0, 2022-10-21 19:06:30.953
22.0, -127898.67107852353, -156826.90224968223, -32434.594027351624, -139144.347804111, 65730.73604473306, -91454.37526158993, 56348.0995712399, -111855.7511992158, 0.026000000000000002, 0.9580000000000001, -0.03, 192.0, 0.0, 0.0, 0.0, 0.0, 0.0, 0.0, 0.0, 0.0, 0.0, 1.6664043909535432E9, 0.0, 2022-10-21 19:06:30.953
23.0, -127885.32708708372, -156815.83813617684, -32418.85839925509, -139125.0806003905, 65745.15291990673, -91420.7805896736, 56375.7039756422, -111842.07193160916, 0.026000000000000002, 0.9580000000000001, -0.03, 192.0, 0.0, 0.0, 0.0, 0.0, 0.0, 0.0, 0.0, 0.0, 0.0, 1.6664043909535587E9, 0.0, 2022-10-21 19:06:30.953
24.0, -127887.29404059578, -156815.83813617684, -32416.93614923193, -139127.1369608804, 65751.18789090967, -91419.14891232835, 56376.642748909326, -111830.2925622812, 0.026000000000000002, 0.9580000000000001, -0.03, 192.0, 0.0, 0.0, 0.0, 0.0, 0.0, 0.0, 0.0, 0.0, 0.0, 1.666404390953575E9, 0.0, 2022-10-21 19:06:30.953
25.0, -127897.84406397869, -156822.1189763688, -32436.024538996764, -139148.70639427978, 65733.6194197678, -91460.67845352631, 56343.4504083932, -111843.5024432543, 0.026000000000000002, 0.9580000000000001, -0.03, 192.0, 0.0, 0.0, 0.0, 0.0, 0.0, 0.0, 0.0, 0.0, 0.0, 1.6664043909535904E9, 0.0, 2022-10-21 19:06:30.953
26.0, -127910.87513099614, -156838.3686945878, -32446.105175746106, -139147.47704833472, 65725.50573653051, -91458.91266571435, 56341.885786281324, -111848.28571656773, 0.026000000000000002, 0.9580000000000001, -0.03, 192.0, 0.0, 0.0, 0.0, 0.0, 0.0, 0.0, 0.0, 0.0, 0.0, 1.666404390953606E9, 0.0, 2022-10-21 19:06:30.953
27.0, -127902.20265414748, -156831.48435729556, -32440.56194312119, -139138.46929531926, 65731.83128021137, -91434.90689216935, 56360.34832720141, -111853.33721081463, 0.024, 0.962, -0.034, 192.0, 0.0, 192.0, 30.0, 16.0, 254.0, 240.0, 0.0, 0.0, 0.0, 1.6664043909536219E9, 0.0, 2022-10-21 19:06:30.953
28.0, -127902.22500589193, -156827.19282236014, -32449.23441996985, -139151.36625186994, 65728.32205633189, -91430.078915367, 56360.281271968044, -111853.51602477027, 0.024, 0.962, -0.034, 192.0, 0.0, 0.0, 0.0, 0.0, 0.0, 0.0, 0.0, 0.0, 0.0, 1.6664043909536386E9, 0.0, 2022-10-21 19:06:30.953
29.0, -127895.05009592178, -156818.43093853365, -32433.252922684303, -139139.8998069644, 65740.68257101567, -91442.81940970653, 56356.794399833016, -111842.72013219836, 0.024, 0.962, -0.034, 192.0, 0.0, 0.0, 0.0, 0.0, 0.0, 0.0, 0.0, 0.0, 0.0, 1.6664043909536567E9, 0.0, 2022-10-21 19:06:30.953
30.0, -127905.57776756023, -156821.94016241314, -32451.782518837754, -139138.87162671945, 65733.93234419017, -91453.77176448963, 56350.714725341175, -111846.47522526685, 0.024, 0.962, -0.034, 192.0, 0.0, 0.0, 0.0, 0.0, 0.0, 0.0, 0.0, 0.0, 0.0, 1.6664043909536877E9, 0.0, 2022-10-21 19:06:30.953
31.0, -127921.06752646776, -156837.58638353186, -32451.536649648748, -139156.41774611684, 65718.73315796055, -91445.76983997463, 56351.56409163048, -111863.7531237308, 0.024, 0.962, -0.034, 192.0, 0.0, 0.0, 0.0, 0.0, 0.0, 0.0, 0.0, 0.0, 0.0, 1.6664043909537055E9, 0.0, 2022-10-21 19:06:30.953
32.0, -127890.62445051962, -156818.25212457802, -32426.256826669793, -139135.51886505116, 65744.10238791733, -91427.9331478993, 56371.03246105104, -111840.21673681936, 0.024, 0.962, -0.034, 192.0, 0.0, 0.0, 0.0, 0.0, 0.0, 0.0, 0.0, 0.0, 0.0, 1.6664043909537218E9, 0.0, 2022-10-21 19:06:30.953
33.0, -127883.87422369412, -156812.5747814864, -32428.871980771066, -139139.81039998657, 65746.0693414294, -91428.53664499959, 56366.47270518216, -111839.72499844135, 0.024, 0.962, -0.034, 192.0, 0.0, 0.0, 0.0, 0.0, 0.0, 0.0, 0.0, 0.0, 0.0, 1.6664043909537375E9, 0.0, 2022-10-21 19:06:30.953
34.0, -127889.57391853022, -156814.273514065, -32430.79423079422, -139136.52469355162, 65745.30938211792, -91431.24120607867, 56365.91391157078, -111832.05835009318, 0.024, 0.962, -0.034, 192.0, 0.0, 0.0, 0.0, 0.0, 0.0, 0.0, 0.0, 0.0, 0.0, 1.6664043909537537E9, 0.0, 2022-10-21 19:06:30.953
35.0, -127897.10645641167, -156820.93433391265, -32438.282065186748, -139138.80457148608, 65736.34633259133, -91423.30633679705, 56370.563074417485, -111840.61906821956, 0.024, 0.962, -0.034, 192.0, 0.0, 0.0, 0.0, 0.0, 0.0, 0.0, 0.0, 0.0, 0.0, 1.6664043909537694E9, 0.0, 2022-10-21 19:06:30.953
36.0, -127899.05105817928, -156825.13646187025, -32439.332597176148, -139144.28074887762, 65734.31232384591, -91417.4725314942, 56371.70301338471, -111850.36442880207, 0.024, 0.962, -0.034, 192.0, 0.0, 0.0, 0.0, 0.0, 0.0, 0.0, 0.0, 0.0, 0.0, 1.6664043909537852E9, 0.0, 2022-10-21 19:06:30.953
37.0, -127890.82561621972, -156814.18410708715, -32432.716480817377, -139144.50426632218, 65742.20248963863, -91431.19650258977, 56363.67873712525, -111844.91060315497, 0.018000000000000002, 0.964, -0.038, 192.0, 0.0, 144.0, 30.0, 32.0, 254.0, 208.0, 0.0, 0.0, 0.0, 1.6664043909538012E9, 0.0, 2022-10-21 19:06:30.953
38.0, -127891.51852029783, -156816.0616536214, -32436.89625703052, -139142.47025757676, 65743.47653907258, -91439.10902012695, 56356.861455066384, -111845.04471362171, 0.018000000000000002, 0.964, -0.038, 192.0, 0.0, 0.0, 0.0, 0.0, 0.0, 0.0, 0.0, 0.0, 0.0, 1.6664043909538178E9, 0.0, 2022-10-21 19:06:30.953
39.0, -127895.98886918889, -156820.80022344593, -32442.23832395534, -139141.2856151206, 65735.25109711303, -91429.49777001116, 56361.465914424174, -111847.43635027843, 0.018000000000000002, 0.964, -0.038, 192.0, 0.0, 0.0, 0.0, 0.0, 0.0, 0.0, 0.0, 0.0, 0.0, 1.666404390953834E9, 0.0, 2022-10-21 19:06:30.953
40.0, -127897.37467734513, -156820.28613332345, -32439.22083845387, -139139.20690288628, 65733.10532964532, -91419.03715360608, 56372.39591746282, -111844.19534733241, 0.018000000000000002, 0.964, -0.038, 192.0, 0.0, 0.0, 0.0, 0.0, 0.0, 0.0, 0.0, 0.0, 0.0, 1.6664043909538496E9, 0.0, 2022-10-21 19:06:30.953
41.0, -127895.40772383306, -156821.7613484575, -32441.970103021875, -139144.57132155553, 65736.83807096936, -91426.14500834286, 56368.1043825274, -111835.18759431691, 0.018000000000000002, 0.964, -0.038, 192.0, 0.0, 0.0, 0.0, 0.0, 0.0, 0.0, 0.0, 0.0, 0.0, 1.6664043909538653E9, 0.0, 2022-10-21 19:06:30.953
42.0, -127882.0860841377, -156801.1083365808, -32436.98566400834, -139130.75794348217, 65748.57273680839, -91451.82716272202, 56359.38720218983, -111818.87082086454, 0.018000000000000002, 0.964, -0.038, 192.0, 0.0, 0.0, 0.0, 0.0, 0.0, 0.0, 0.0, 0.0, 0.0, 1.6664043909538808E9, 0.0, 2022-10-21 19:06:30.953
43.0, -127891.76438948684, -156810.1607930852, -32441.008978010297, -139131.7861237271, 65742.38130359427, -91449.52493304313, 56368.327899971955, -111833.17593731594, 0.018000000000000002, 0.964, -0.038, 192.0, 0.0, 0.0, 0.0, 0.0, 0.0, 0.0, 0.0, 0.0, 0.0, 1.6664043909538968E9, 0.0, 2022-10-21 19:06:30.953
44.0, -127902.06854368074, -156820.04026413444, -32439.80198380971, -139143.4984378217, 65732.63594301176, -91441.99239516168, 56376.73215588715, -111842.78718743172, 0.018000000000000002, 0.964, -0.038, 192.0, 0.0, 0.0, 0.0, 0.0, 0.0, 0.0, 0.0, 0.0, 0.0, 1.6664043909539182E9, 0.0, 2022-10-21 19:06:30.953
45.0, -127897.28527036731, -156813.58060998688, -32440.696053587923, -139137.91050170787, 65735.87694595777, -91439.24313059368, 56378.63205416585, -111837.75804492927, 0.018000000000000002, 0.964, -0.038, 192.0, 0.0, 0.0, 0.0, 0.0, 0.0, 0.0, 0.0, 0.0, 0.0, 1.6664043909539423E9, 0.0, 2022-10-21 19:06:30.953
46.0, -127921.60396833468, -156839.95566844413, -32480.52686220728, -139172.5557056136, 65705.74679443202, -91472.86015425446, 56341.259937436575, -111869.0057836778, 0.026000000000000002, 0.96, -0.036000000000000004, 192.0, 0.0, 208.0, 30.0, 0.0, 254.0, 224.0, 0.0, 0.0, 0.0, 1.6664043909539552E9, 0.0, 2022-10-21 19:06:30.953
47.0, -127900.70508726897, -156821.2696100795, -32461.19260325344, -139141.0397459316, 65731.42894881117, -91453.6376540229, 56362.42703943575, -111842.76483568727, 0.026000000000000002, 0.96, -0.036000000000000004, 192.0, 0.0, 0.0, 0.0, 0.0, 0.0, 0.0, 0.0, 0.0, 0.0, 1.6664043909539688E9, 0.0, 2022-10-21 19:06:30.953
48.0, -127887.65166850707, -156807.8138599174, -32424.401631880002, -139120.1855683548, 65754.60770781133, -91440.74069747218, 56387.50569671461, -111820.7930708877, 0.026000000000000002, 0.96, -0.036000000000000004, 192.0, 0.0, 0.0, 0.0, 0.0, 0.0, 0.0, 0.0, 0.0, 0.0, 1.666404390953982E9, 0.0, 2022-10-21 19:06:30.953
49.0, -127897.66525002304, -156818.54269725594, -32427.575579592656, -139124.3876963124, 65752.2160711546, -91443.53466552909, 56384.35410074641, -111823.96701860035, 0.026000000000000002, 0.96, -0.036000000000000004, 192.0, 0.0, 0.0, 0.0, 0.0, 0.0, 0.0, 0.0, 0.0, 0.0, 1.6664043909539948E9, 0.0, 2022-10-21 19:06:30.953
50.0, -127911.36686937415, -156824.77883395896, -32445.479326901357, -139129.95328068177, 65743.99062919506, -91467.4957355852, 56360.59419639042, -111829.890230881, 0.026000000000000002, 0.96, -0.036000000000000004, 192.0, 0.0, 0.0, 0.0, 0.0, 0.0, 0.0, 0.0, 0.0, 0.0, 1.6664043909540093E9, 0.0, 2022-10-21 19:06:30.954
51.0, -127891.85379646467, -156820.10731936782, -32453.168326993982, -139126.9357951803, 65737.2180506251, -91468.23334315221, 56356.1014957549, -111844.82119617716, 0.026000000000000002, 0.96, -0.036000000000000004, 192.0, 0.0, 0.0, 0.0, 0.0, 0.0, 0.0, 0.0, 0.0, 0.0, 1.6664043909540222E9, 0.0, 2022-10-21 19:06:30.954
52.0, -127894.96068894396, -156826.67873223766, -32442.819469311176, -139128.76863822565, 65737.19569888063, -91441.76887771713, 56379.12379254387, -111836.93103038444, 0.026000000000000002, 0.96, -0.036000000000000004, 192.0, 0.0, 0.0, 0.0, 0.0, 0.0, 0.0, 0.0, 0.0, 0.0, 1.6664043909540348E9, 0.0, 2022-10-21 19:06:30.954
53.0, -127900.19099714649, -156822.65541823572, -32446.909838546497, -139134.6471470174, 65736.5698500359, -91448.6308632649, 56375.793382620024, -111824.95049535639, 0.026000000000000002, 0.96, -0.036000000000000004, 192.0, 0.0, 0.0, 0.0, 0.0, 0.0, 0.0, 0.0, 0.0, 0.0, 1.6664043909540477E9, 0.0, 2022-10-21 19:06:30.954
54.0, -127908.30468038378, -156828.80214796093, -32456.834013084655, -139138.9833854417, 65735.78753897996, -91474.71534904426, 56353.41928642026, -111834.13706232751, 0.026000000000000002, 0.96, -0.036000000000000004, 192.0, 0.0, 0.0, 0.0, 0.0, 0.0, 0.0, 0.0, 0.0, 0.0, 1.6664043909540603E9, 0.0, 2022-10-21 19:06:30.954
55.0, -127906.40478210508, -156833.85364220783, -32447.13335599105, -139138.849274975, 65738.58150703687, -91477.15168918988, 56355.00626027659, -111842.40720777598, 0.026000000000000002, 0.96, -0.036000000000000004, 192.0, 0.0, 0.0, 0.0, 0.0, 0.0, 0.0, 0.0, 0.0, 0.0, 1.666404390954074E9, 0.0, 2022-10-21 19:06:30.954
56.0, -127900.50392156887, -156831.23848810655, -32439.064376242684, -139127.51694053615, 65744.99645769554, -91460.52199131514, 56373.58055991895, -111841.78135893123, 0.022, 0.9580000000000001, -0.04, 192.0, 0.0, 176.0, 29.0, 240.0, 254.0, 192.0, 0.0, 0.0, 0.0, 1.6664043909540865E9, 0.0, 2022-10-21 19:06:30.954
57.0, -127908.3940873616, -156830.25501135053, -32445.769899579278, -139132.3896208274, 65742.24719312754, -91439.06431663803, 56383.37062399038, -111853.8513009371, 0.022, 0.9580000000000001, -0.04, 192.0, 0.0, 0.0, 0.0, 0.0, 0.0, 0.0, 0.0, 0.0, 0.0, 1.6664043909541E9, 0.0, 2022-10-21 19:06:30.954
58.0, -127923.41445963556, -156840.76033124453, -32463.695998632433, -139152.841467004, 65726.60097200882, -91456.72219475773, 56360.1024580124, -111862.76964697476, 0.022, 0.9580000000000001, -0.04, 192.0, 0.0, 0.0, 0.0, 0.0, 0.0, 0.0, 0.0, 0.0, 0.0, 1.6664043909541132E9, 0.0, 2022-10-21 19:06:30.954
59.0, -127898.24639537888, -156819.4144152897, -32423.41815512397, -139130.80264697107, 65747.23163214108, -91459.11383141445, 56371.16657151778, -111827.72211166885, 0.022, 0.9580000000000001, -0.04, 192.0, 0.0, 0.0, 0.0, 0.0, 0.0, 0.0, 0.0, 0.0, 0.0, 1.666404390954126E9, 0.0, 2022-10-21 19:06:30.954
60.0, -127919.949939245, -156832.55724102943, -32442.5065448888, -139130.75794348217, 65738.53680354796, -91453.0341569226, 56377.87209485437, -111832.41597800446, 0.022, 0.9580000000000001, -0.04, 192.0, 0.0, 0.0, 0.0, 0.0, 0.0, 0.0, 0.0, 0.0, 0.0, 1.6664043909541388E9, 0.0, 2022-10-21 19:06:30.954
61.0, -127890.15506388606, -156814.18410708715, -32430.36954764957, -139118.71035322075, 65752.97603046609, -91435.64449973637, 56396.82637415247, -111815.54041094071, 0.022, 0.9580000000000001, -0.04, 192.0, 0.0, 0.0, 0.0, 0.0, 0.0, 0.0, 0.0, 0.0, 0.0, 1.6664043909541628E9, 0.0, 2022-10-21 19:06:30.954
62.0, -127885.39414231708, -156806.8527349058, -32415.349175375602, -139124.65591724587, 65762.36376313731, -91455.64931102388, 56384.3093972575, -111807.76200387026, 0.022, 0.9580000000000001, -0.04, 192.0, 0.0, 0.0, 0.0, 0.0, 0.0, 0.0, 0.0, 0.0, 0.0, 1.6664043909541755E9, 0.0, 2022-10-21 19:06:30.954
63.0, -127890.02095341933, -156807.34447328383, -32418.098439943606, -139120.1855683548, 65764.33071664939, -91461.34900585997, 56376.240417509136, -111807.4937829368, 0.022, 0.9580000000000001, -0.04, 192.0, 0.0, 0.0, 0.0, 0.0, 0.0, 0.0, 0.0, 0.0, 0.0, 1.666404390954188E9, 0.0, 2022-10-21 19:06:30.954
64.0, -127899.07340992373, -156811.524249497, -32431.733004061345, -139121.8843009334, 65750.04795194244, -91447.3344620865, 56380.24137976663, -111808.81253585966, 0.022, 0.9580000000000001, -0.04, 192.0, 0.0, 0.0, 0.0, 0.0, 0.0, 0.0, 0.0, 0.0, 0.0, 1.6664043909542007E9, 0.0, 2022-10-21 19:06:30.954
65.0, -127907.25414839438, -156826.67873223766, -32441.05368149921, -139136.94937669628, 65732.59123952285, -91434.30339506906, 56387.2598275256, -111812.00883531677, 0.022, 0.9580000000000001, -0.04, 192.0, 0.0, 0.0, 0.0, 0.0, 0.0, 0.0, 0.0, 0.0, 0.0, 1.6664043909542136E9, 0.0, 2022-10-21 19:06:30.954
66.0, -127899.63220353512, -156818.20742108912, -32430.168381949472, -139135.6976790068, 65741.95662044962, -91437.00795614815, 56383.86236236839, -111800.7882596002, 0.016, 0.9560000000000001, -0.038, 192.0, 0.0, 128.0, 29.0, 224.0, 254.0, 208.0, 0.0, 0.0, 0.0, 1.666404390954226E9, 0.0, 2022-10-21 19:06:30.954
67.0, -127897.28527036731, -156817.17924084418, -32430.32484416066, -139129.0368591591, 65748.79625425294, -91450.41900282133, 56368.73023137215, -111807.35967247006, 0.016, 0.9560000000000001, -0.038, 192.0, 0.0, 0.0, 0.0, 0.0, 0.0, 0.0, 0.0, 0.0, 0.0, 1.6664043909542391E9, 0.0, 2022-10-21 19:06:30.954
68.0, -127909.66813679555, -156832.0655026514, -32446.57456237967, -139135.67532726232, 65735.58637327986, -91448.74262198718, 56365.64569063732, -111832.46068149336, 0.016, 0.9560000000000001, -0.038, 192.0, 0.0, 0.0, 0.0, 0.0, 0.0, 0.0, 0.0, 0.0, 0.0, 1.666404390954252E9, 0.0, 2022-10-21 19:06:30.954
69.0, -127902.26970938084, -156822.521307769, -32434.32580641816, -139127.56164402506, 65742.51541406101, -91440.58423526099, 56382.58831293444, -111821.70949241037, 0.016, 0.9560000000000001, -0.038, 192.0, 0.0, 0.0, 0.0, 0.0, 0.0, 0.0, 0.0, 0.0, 0.0, 1.6664043909542646E9, 0.0, 2022-10-21 19:06:30.954
70.0, -127909.75754377336, -156826.14229037074, -32435.778669807754, -139129.327431837, 65746.33756236287, -91431.46472352323, 56388.109193814904, -111822.84943137759, 0.016, 0.9560000000000001, -0.038, 192.0, 0.0, 0.0, 0.0, 0.0, 0.0, 0.0, 0.0, 0.0, 0.0, 1.6664043909542773E9, 0.0, 2022-10-21 19:06:30.954
71.0, -127918.7429450444, -156837.00523817603, -32448.295646702725, -139139.2292546307, 65737.68743725866, -91458.8903139699, 56360.37067894587, -111835.25464955029, 0.016, 0.9560000000000001, -0.038, 192.0, 0.0, 0.0, 0.0, 0.0, 0.0, 0.0, 0.0, 0.0, 0.0, 1.6664043909542913E9, 0.0, 2022-10-21 19:06:30.954
72.0, -127900.68273552452, -156824.97999965906, -32438.527934375757, -139132.61313827196, 65739.81085298191, -91469.52974433062, 56357.06262076648, -111829.26438203626, 0.016, 0.9560000000000001, -0.038, 192.0, 0.0, 0.0, 0.0, 0.0, 0.0, 0.0, 0.0, 0.0, 0.0, 1.666404390954304E9, 0.0, 2022-10-21 19:06:30.954
73.0, -127906.3377268717, -156825.24822059253, -32437.164477963983, -139123.82890270103, 65744.66118152872, -91437.09736312597, 56383.39297573483, -111816.54623944119, 0.016, 0.9560000000000001, -0.038, 192.0, 0.0, 0.0, 0.0, 0.0, 0.0, 0.0, 0.0, 0.0, 0.0, 1.6664043909543166E9, 0.0, 2022-10-21 19:06:30.954
74.0, -127910.96453797395, -156829.36094157232, -32442.23832395534, -139135.51886505116, 65739.27441111498, -91436.00212764766, 56381.962464089695, -111820.56955344314, 0.016, 0.9560000000000001, -0.038, 192.0, 0.0, 0.0, 0.0, 0.0, 0.0, 0.0, 0.0, 0.0, 0.0, 1.6664043909543293E9, 0.0, 2022-10-21 19:06:30.954
75.0, -127921.35809914567, -156845.23068013557, -32457.929248562963, -139150.15925766938, 65732.25596335602, -91450.84368596599, 56363.54462665852, -111839.25561180779, 0.02, 0.9580000000000001, -0.034, 192.0, 0.0, 160.0, 29.0, 240.0, 254.0, 240.0, 0.0, 0.0, 0.0, 1.666404390954342E9, 0.0, 2022-10-21 19:06:30.954
76.0, -127918.72059329995, -156844.58247954637, -32460.209126497404, -139147.85702799048, 65732.32301858938, -91449.16730513184, 56363.72344061416, -111834.18176581644, 0.02, 0.9580000000000001, -0.034, 192.0, 0.0, 0.0, 0.0, 0.0, 0.0, 0.0, 0.0, 0.0, 0.0, 1.6664043909543667E9, 0.0, 2022-10-21 19:06:30.954
77.0, -127904.28136638182, -156829.02566540547, -32439.80198380971, -139122.77837071163, 65750.56204206492, -91435.59979624746, 56382.4094989788, -111823.51998371125, 0.02, 0.9580000000000001, -0.034, 192.0, 0.0, 0.0, 0.0, 0.0, 0.0, 0.0, 0.0, 0.0, 0.0, 1.666404390954379E9, 0.0, 2022-10-21 19:06:30.954
78.0, -127906.00245070488, -156821.20255484612, -32444.69701584542, -139128.2321963587, 65749.51151007552, -91431.0847438675, 56385.650501924814, -111831.85718439308, 0.02, 0.9580000000000001, -0.034, 192.0, 0.0, 0.0, 0.0, 0.0, 0.0, 0.0, 0.0, 0.0, 0.0, 1.666404390954392E9, 0.0, 2022-10-21 19:06:30.954
79.0, -127892.74786624288, -156809.78081342948, -32431.7553558058, -139114.84350142998, 65765.04597247195, -91442.75235447317, 56381.180153033754, -111820.05546332068, 0.02, 0.9580000000000001, -0.034, 192.0, 0.0, 0.0, 0.0, 0.0, 0.0, 0.0, 0.0, 0.0, 0.0, 1.6664043909544048E9, 0.0, 2022-10-21 19:06:30.954
80.0, -127917.93828224401, -156835.97705793107, -32461.594934653633, -139138.22342613022, 65741.91191696071, -91466.37814836242, 56357.08497251094, -111838.8979838965, 0.02, 0.9580000000000001, -0.034, 192.0, 0.0, 0.0, 0.0, 0.0, 0.0, 0.0, 0.0, 0.0, 0.0, 1.6664043909544175E9, 0.0, 2022-10-21 19:06:30.954
81.0, -127924.82261953625, -156837.74284574305, -32467.5628504232, -139143.96782445526, 65731.54070753345, -91439.91368292733, 56372.172400018266, -111842.4519112649, 0.02, 0.9580000000000001, -0.034, 192.0, 0.0, 0.0, 0.0, 0.0, 0.0, 0.0, 0.0, 0.0, 0.0, 1.66640439095443E9, 0.0, 2022-10-21 19:06:30.954
82.0, -127903.85668323717, -156816.12870885478, -32439.80198380971, -139122.19722535578, 65757.2228619126, -91416.44435124927, 56397.966313119694, -111817.14973654148, 0.02, 0.9580000000000001, -0.034, 192.0, 0.0, 0.0, 0.0, 0.0, 0.0, 0.0, 0.0, 0.0, 0.0, 1.6664043909544425E9, 0.0, 2022-10-21 19:06:30.954
83.0, -127903.70022102598, -156816.35222629932, -32429.833105782644, -139132.52373129415, 65759.68155380269, -91442.75235447317, 56377.268597754075, -111815.67452140743, 0.02, 0.9580000000000001, -0.034, 192.0, 0.0, 0.0, 0.0, 0.0, 0.0, 0.0, 0.0, 0.0, 0.0, 1.6664043909544551E9, 0.0, 2022-10-21 19:06:30.954
84.0, -127904.25901463735, -156815.34639779883, -32435.26457968528, -139126.57816726904, 65762.98961198206, -91455.67166276833, 56369.78076336155, -111815.67452140743, 0.02, 0.9580000000000001, -0.034, 192.0, 0.0, 0.0, 0.0, 0.0, 0.0, 0.0, 0.0, 0.0, 0.0, 1.666404390954468E9, 0.0, 2022-10-21 19:06:30.954
85.0, -127920.86636076766, -156829.2715345945, -32449.61439962559, -139131.96493768276, 65744.92940246218, -91436.22564509221, 56379.526123944066, -111837.400417018, 0.02, 0.97, -0.034, 192.0, 0.0, 160.0, 30.0, 80.0, 254.0, 240.0, 0.0, 0.0, 0.0, 1.6664043909544804E9, 0.0, 2022-10-21 19:06:30.954
86.0, -127926.99073874841, -156837.36286608732, -32458.733911363353, -139148.52758032412, 65734.28997210145, -91436.49386602567, 56379.30260649951, -111837.62393446255, 0.02, 0.97, -0.034, 192.0, 0.0, 0.0, 0.0, 0.0, 0.0, 0.0, 0.0, 0.0, 0.0, 1.666404390954494E9, 0.0, 2022-10-21 19:06:30.954
87.0, -127915.7478112874, -156829.24918285004, -32452.050739771217, -139141.10680116498, 65748.12570191929, -91442.84176145098, 56375.48045819765, -111824.65992267847, 0.02, 0.97, -0.034, 192.0, 0.0, 0.0, 0.0, 0.0, 0.0, 0.0, 0.0, 0.0, 0.0, 1.6664043909545069E9, 0.0, 2022-10-21 19:06:30.954
88.0, -127927.32601491523, -156842.66022952323, -32453.74947234982, -139148.3487663685, 65741.19666113814, -91453.19061913379, 56362.11411501338, -111828.92910586944, 0.02, 0.97, -0.034, 192.0, 0.0, 0.0, 0.0, 0.0, 0.0, 0.0, 0.0, 0.0, 0.0, 1.6664043909545195E9, 0.0, 2022-10-21 19:06:30.954
89.0, -127920.06169796726, -156830.29971483944, -32445.14405073453, -139126.9357951803, 65751.59022230985, -91440.67364223882, 56374.2064087637, -111820.88247786553, 0.02, 0.97, -0.034, 192.0, 0.0, 0.0, 0.0, 0.0, 0.0, 0.0, 0.0, 0.0, 0.0, 1.666404390954532E9, 0.0, 2022-10-21 19:06:30.954
90.0, -127911.1433519296, -156817.64862747773, -32434.594027351624, -139112.31775430654, 65762.3190596484, -91424.64744146436, 56388.55622870401, -111817.46266096387, 0.02, 0.97, -0.034, 192.0, 0.0, 0.0, 0.0, 0.0, 0.0, 0.0, 0.0, 0.0, 0.0, 1.6664043909545448E9, 0.0, 2022-10-21 19:06:30.954
91.0, -127915.65840430956, -156822.767176958, -32436.672739585967, -139118.55389100956, 65759.34627763585, -91430.57065374502, 56380.04021406653, -111817.14973654148, 0.02, 0.97, -0.034, 192.0, 0.0, 0.0, 0.0, 0.0, 0.0, 0.0, 0.0, 0.0, 0.0, 1.6664043909545684E9, 0.0, 2022-10-21 19:06:30.954
92.0, -127920.53108460082, -156828.19865086064, -32443.020635011275, -139119.51501602115, 65759.25687065804, -91427.75433394365, 56373.02176630757, -111824.65992267847, 0.02, 0.97, -0.034, 192.0, 0.0, 0.0, 0.0, 0.0, 0.0, 0.0, 0.0, 0.0, 0.0, 1.6664043909545827E9, 0.0, 2022-10-21 19:06:30.954
93.0, -127932.60102660669, -156837.16170038722, -32449.301475203214, -139126.10878063546, 65742.47071057209, -91434.32574681351, 56364.17047550327, -111842.34015254262, 0.02, 0.97, -0.034, 192.0, 0.0, 0.0, 0.0, 0.0, 0.0, 0.0, 0.0, 0.0, 0.0, 1.6664043909545968E9, 0.0, 2022-10-21 19:06:30.954
94.0, -127929.49413412741, -156830.54558402844, -32449.189716480938, -139130.60148127098, 65739.74379774855, -91430.2800810671, 56373.58055991895, -111840.395550775, 0.02, 0.97, -0.034, 192.0, 0.0, 0.0, 0.0, 0.0, 0.0, 0.0, 0.0, 0.0, 0.0, 1.6664043909546096E9, 0.0, 2022-10-21 19:06:30.954
95.0, -127920.66519506756, -156828.80214796093, -32446.55221063521, -139138.4916470637, 65741.73310300507, -91430.41419153383, 56373.78172561905, -111835.20994606137, 0.02, 0.962, -0.032, 192.0, 0.0, 160.0, 30.0, 16.0, 255.0, 0.0, 0.0, 0.0, 0.0, 1.6664043909546225E9, 0.0, 2022-10-21 19:06:30.954
96.0, -127918.40766887757, -156821.80605194642, -32441.768937321776, -139136.6811557628, 65748.39392285275, -91439.06431663803, 56366.24918773761, -111827.25272503529, 0.02, 0.962, -0.032, 192.0, 0.0, 0.0, 0.0, 0.0, 0.0, 0.0, 0.0, 0.0, 0.0, 1.6664043909546356E9, 0.0, 2022-10-21 19:06:30.954
97.0, -127918.25120666638, -156820.8225751904, -32441.076033243662, -139123.44892304527, 65755.94881247864, -91444.16051437384, 56365.57863540395, -111821.70949241037, 0.02, 0.962, -0.032, 192.0, 0.0, 0.0, 0.0, 0.0, 0.0, 0.0, 0.0, 0.0, 0.0, 1.6664043909546485E9, 0.0, 2022-10-21 19:06:30.954
98.0, -127927.32601491523, -156829.24918285004, -32444.69701584542, -139116.07284737504, 65755.8147020119, -91413.18099655879, 56384.331749001954, -111825.91162036797, 0.02, 0.962, -0.032, 192.0, 0.0, 0.0, 0.0, 0.0, 0.0, 0.0, 0.0, 0.0, 0.0, 1.666404390954662E9, 0.0, 2022-10-21 19:06:30.954
99.0, -127928.17538120454, -156831.95374392913, -32441.076033243662, -139129.5285975371, 65750.42793159818, -91411.10228432444, 56383.4600309682, -111817.90969585297, 0.02, 0.962, -0.032, 192.0, 0.0, 0.0, 0.0, 0.0, 0.0, 0.0, 0.0, 0.0, 0.0, 1.6664043909546747E9, 0.0, 2022-10-21 19:06:30.954
100.0, -127928.73417481592, -156829.65151425023, -32442.998283266817, -139138.46929531926, 65751.8137397544, -91433.90106366886, 56367.61264414938, -111810.95830332737, 0.02, 0.962, -0.032, 192.0, 0.0, 0.0, 0.0, 0.0, 0.0, 0.0, 0.0, 0.0, 0.0, 1.666404390954687E9, 0.0, 2022-10-21 19:06:30.954
101.0, -127932.93630277352, -156833.67482825217, -32449.569696136678, -139139.2292546307, 65748.90801297523, -91428.62605197741, 56367.81380984948, -111816.76975688574, 0.02, 0.962, -0.032, 192.0, 0.0, 0.0, 0.0, 0.0, 0.0, 0.0, 0.0, 0.0, 0.0, 1.6664043909546995E9, 0.0, 2022-10-21 19:06:30.954
102.0, -127934.99266326342, -156838.14517714325, -32454.822356083678, -139138.4916470637, 65741.8672134718, -91428.04490662157, 56367.053850538, -111825.46458547885, 0.02, 0.962, -0.032, 192.0, 0.0, 0.0, 0.0, 0.0, 0.0, 0.0, 0.0, 0.0, 0.0, 1.6664043909547124E9, 0.0, 2022-10-21 19:06:30.954
103.0, -127948.94015180352, -156851.55622381644, -32460.075016030674, -139150.82981000302, 65729.97608542157, -91436.31505207003, 56357.48730391113, -111842.96600138737, 0.02, 0.962, -0.032, 192.0, 0.0, 0.0, 0.0, 0.0, 0.0, 0.0, 0.0, 0.0, 0.0, 1.666404390954725E9, 0.0, 2022-10-21 19:06:30.954
104.0, -127934.88090454113, -156841.87791846727, -32443.244152455827, -139140.30213836458, 65742.42600708318, -91436.02447939212, 56361.48826616863, -111827.05155933519, 0.02, 0.96, -0.028, 192.0, 0.0, 160.0, 30.0, 0.0, 255.0, 32.0, 0.0, 0.0, 0.0, 1.6664043909547377E9, 0.0, 2022-10-21 19:06:30.954
105.0, -127915.68075605402, -156821.64958973523, -32426.815620281177, -139124.7900277126, 65758.58631832436, -91440.42777304981, 56368.3055482275, -111806.6444166475, 0.02, 0.96, -0.028, 192.0, 0.0, 0.0, 0.0, 0.0, 0.0, 0.0, 0.0, 0.0, 0.0, 1.6664043909547505E9, 0.0, 2022-10-21 19:06:30.954
106.0, -127928.68947132702, -156835.19474687515, -32443.199448966916, -139130.71323999326, 65744.23649838407, -91420.5794239735, 56379.861400110894, -111815.09337605159, 0.02, 0.96, -0.028, 192.0, 0.0, 0.0, 0.0, 0.0, 0.0, 0.0, 0.0, 0.0, 0.0, 1.666404390954775E9, 0.0, 2022-10-21 19:06:30.954
107.0, -127935.10442198568, -156840.20153763314, -32449.055606014208, -139136.6364522739, 65737.79919598093, -91419.1265605839, 56380.911932100295, -111825.2410680343, 0.02, 0.96, -0.028, 192.0, 0.0, 0.0, 0.0, 0.0, 0.0, 0.0, 0.0, 0.0, 0.0, 1.6664043909547892E9, 0.0, 2022-10-21 19:06:30.954
108.0, -127937.78663132033, -156844.33661035736, -32448.27329495827, -139144.1913418998, 65739.43087332617, -91431.2859095676, 56372.530027929555, -111829.33143726963, 0.02, 0.96, -0.028, 192.0, 0.0, 0.0, 0.0, 0.0, 0.0, 0.0, 0.0, 0.0, 0.0, 1.6664043909548025E9, 0.0, 2022-10-21 19:06:30.954
109.0, -127925.00143349188, -156831.39495031774, -32435.08576572964, -139128.94745218128, 65753.98185896658, -91432.80582819055, 56375.21223726419, -111817.21679177484, 0.02, 0.96, -0.028, 192.0, 0.0, 0.0, 0.0, 0.0, 0.0, 0.0, 0.0, 0.0, 0.0, 1.666404390954816E9, 0.0, 2022-10-21 19:06:30.954
110.0, -127932.01988125085, -156837.18405213166, -32442.618303611078, -139120.47614103273, 65752.23842289906, -91417.38312451639, 56387.77391764807, -111812.90290509498, 0.02, 0.96, -0.028, 192.0, 0.0, 0.0, 0.0, 0.0, 0.0, 0.0, 0.0, 0.0, 0.0, 1.6664043909548287E9, 0.0, 2022-10-21 19:06:30.954
111.0, -127932.55632311778, -156838.97219168808, -32446.060472257195, -139117.19043459778, 65753.24425139955, -91411.77283665811, 56393.6077229509, -111819.13904179801, 0.02, 0.96, -0.028, 192.0, 0.0, 0.0, 0.0, 0.0, 0.0, 0.0, 0.0, 0.0, 0.0, 1.6664043909548428E9, 0.0, 2022-10-21 19:06:30.954
112.0, -127939.30654994329, -156846.12474991378, -32458.689207874446, -139140.41389708687, 65742.64952452773, -91428.26842406612, 56375.592216919926, -111834.82996640564, 0.02, 0.96, -0.028, 192.0, 0.0, 0.0, 0.0, 0.0, 0.0, 0.0, 0.0, 0.0, 0.0, 1.6664043909548578E9, 0.0, 2022-10-21 19:06:30.954
113.0, -127940.17826797704, -156849.87984298228, -32448.18388798045, -139140.4362488313, 65745.04116118446, -91454.57642729003, 56361.3541557019, -111837.89215539601, 0.02, 0.96, -0.028, 192.0, 0.0, 0.0, 0.0, 0.0, 0.0, 0.0, 0.0, 0.0, 0.0, 1.6664043909548707E9, 0.0, 2022-10-21 19:06:30.954
114.0, -127938.21131446498, -156846.28121212497, -32448.116832747084, -139131.80847547157, 65744.08003617288, -91454.10704065645, 56365.53393191504, -111836.7969199177, 0.022, 0.9560000000000001, -0.032, 192.0, 0.0, 176.0, 29.0, 224.0, 255.0, 0.0, 0.0, 0.0, 0.0, 1.666404390954885E9, 0.0, 2022-10-21 19:06:30.954
115.0, -127935.90908478608, -156846.3706191028, -32444.026463511764, -139121.45961778876, 65750.42793159818, -91432.69406946827, 56386.991606592135, -111826.91744886845, 0.022, 0.9560000000000001, -0.032, 192.0, 0.0, 0.0, 0.0, 0.0, 0.0, 0.0, 0.0, 0.0, 0.0, 1.6664043909548984E9, 0.0, 2022-10-21 19:06:30.954
116.0, -127940.31237844378, -156856.00422096305, -32452.14014674904, -139131.24968186018, 65749.80208275343, -91415.43852274878, 56389.852629882414, -111825.15166105649, 0.022, 0.9560000000000001, -0.032, 192.0, 0.0, 0.0, 0.0, 0.0, 0.0, 0.0, 0.0, 0.0, 0.0, 1.6664043909549115E9, 0.0, 2022-10-21 19:06:30.954
117.0, -127930.85759053918, -156833.00427591853, -32444.69701584542, -139129.34978358148, 65756.03821945646, -91429.52012175562, 56375.167533775275, -111816.61329467456, 0.022, 0.9560000000000001, -0.032, 192.0, 0.0, 0.0, 0.0, 0.0, 0.0, 0.0, 0.0, 0.0, 0.0, 1.666404390954924E9, 0.0, 2022-10-21 19:06:30.954
118.0, -127925.2473026809, -156833.47366255207, -32441.143088477027, -139119.80558869906, 65754.56300432241, -91449.6813952543, 56364.05871678099, -111820.01075983177, 0.022, 0.9560000000000001, -0.032, 192.0, 0.0, 0.0, 0.0, 0.0, 0.0, 0.0, 0.0, 0.0, 0.0, 1.6664043909549372E9, 0.0, 2022-10-21 19:06:30.954
119.0, -127922.40863113507, -156832.11020614032, -32427.575579592656, -139110.41785602784, 65758.0722282019, -91427.08378161, 56381.895408856326, -111822.55885869967, 0.022, 0.9560000000000001, -0.032, 192.0, 0.0, 0.0, 0.0, 0.0, 0.0, 0.0, 0.0, 0.0, 0.0, 1.66640439095495E9, 0.0, 2022-10-21 19:06:30.954
120.0, -127928.91298877157, -156834.50184279704, -32434.929303518453, -139121.07963813303, 65750.1150071758, -91424.3792205309, 56376.06160355349, -111826.38100700153, 0.022, 0.9560000000000001, -0.032, 192.0, 0.0, 0.0, 0.0, 0.0, 0.0, 0.0, 0.0, 0.0, 0.0, 1.6664043909549625E9, 0.0, 2022-10-21 19:06:30.954
121.0, -127939.55241913229, -156847.28704062547, -32454.867059572585, -139150.62864430292, 65727.7185592316, -91458.13035465841, 56340.835254291924, -111842.00487637578, 0.022, 0.9560000000000001, -0.032, 192.0, 0.0, 0.0, 0.0, 0.0, 0.0, 0.0, 0.0, 0.0, 0.0, 1.666404390955057E9, 0.0, 2022-10-21 19:06:30.955
122.0, -127938.50188714289, -156844.29190686846, -32454.867059572585, -139138.9386819528, 65733.08297790086, -91454.21879937874, 56344.32212642695, -111833.75708267179, 0.022, 0.9560000000000001, -0.032, 192.0, 0.0, 0.0, 0.0, 0.0, 0.0, 0.0, 0.0, 0.0, 0.0, 1.666404391432776E9, 0.0, 2022-10-21 19:06:31.432
123.0, -127932.73513707342, -156837.22875562057, -32450.195544981427, -139121.95135616677, 65742.91774546119, -91424.04394436406, 56369.512542428085, -111817.90969585297, 0.022, 0.9560000000000001, -0.032, 192.0, 0.0, 0.0, 0.0, 0.0, 0.0, 0.0, 0.0, 0.0, 0.0, 1.6664043914328227E9, 0.0, 2022-10-21 19:06:31.432
124.0, -127924.33088115822, -156832.28902009595, -32447.066300757684, -139128.85804520347, 65741.66604777171, -91418.81363616153, 56368.01497554958, -111829.4431959919, 0.018000000000000002, 0.9580000000000001, -0.03, 192.0, 0.0, 144.0, 29.0, 240.0, 255.0, 16.0, 0.0, 0.0, 0.0, 1.6664043914328735E9, 0.0, 2022-10-21 19:06:31.432
125.0, -127925.11319221416, -156830.59028751735, -32442.88652454454, -139127.36047832496, 65749.71267577562, -91421.00410711815, 56364.72926911465, -111823.65409417798, 0.018000000000000002, 0.9580000000000001, -0.03, 192.0, 0.0, 0.0, 0.0, 0.0, 0.0, 0.0, 0.0, 0.0, 0.0, 1.6664043914329226E9, 0.0, 2022-10-21 19:06:31.432
126.0, -127933.80802080728, -156835.46296780862, -32450.08378625915, -139131.4284958158, 65745.01880944, -91425.11682809792, 56358.761353345086, -111830.6948936814, 0.018000000000000002, 0.9580000000000001, -0.03, 192.0, 0.0, 0.0, 0.0, 0.0, 0.0, 0.0, 0.0, 0.0, 0.0, 1.6664043914329395E9, 0.0, 2022-10-21 19:06:31.432
127.0, -127936.69139584202, -156837.94401144315, -32449.793213581233, -139127.22636785824, 65740.79432973794, -91412.91277562533, 56369.60194940591, -111829.66671343645, 0.018000000000000002, 0.9580000000000001, -0.03, 192.0, 0.0, 0.0, 0.0, 0.0, 0.0, 0.0, 0.0, 0.0, 0.0, 1.6664043914329553E9, 0.0, 2022-10-21 19:06:31.432
128.0, -127925.42611663653, -156827.63985724925, -32436.31511167468, -139121.75019046667, 65752.6184025548, -91398.71941789621, 56382.8565338679, -111811.60650391657, 0.018000000000000002, 0.9580000000000001, -0.03, 192.0, 0.0, 0.0, 0.0, 0.0, 0.0, 0.0, 0.0, 0.0, 0.0, 1.6664043914329703E9, 0.0, 2022-10-21 19:06:31.432
129.0, -127925.69433757, -156825.516441526, -32435.823373296666, -139125.8852631909, 65758.56396657991, -91413.15864481434, 56371.83712385144, -111805.23625674681, 0.018000000000000002, 0.9580000000000001, -0.03, 192.0, 0.0, 0.0, 0.0, 0.0, 0.0, 0.0, 0.0, 0.0, 0.0, 1.6664043914329863E9, 0.0, 2022-10-21 19:06:31.432
130.0, -127928.39889864909, -156825.762310715, -32436.672739585967, -139121.0349346441, 65758.13928343526, -91418.76893267262, 56366.94209181573, -111815.31689349616, 0.018000000000000002, 0.9580000000000001, -0.03, 192.0, 0.0, 0.0, 0.0, 0.0, 0.0, 0.0, 0.0, 0.0, 0.0, 1.6664043914330015E9, 0.0, 2022-10-21 19:06:31.433
131.0, -127938.41248016508, -156834.18891837465, -32441.120736732573, -139121.07963813303, 65751.03142869848, -91410.78935990208, 56373.915836085784, -111814.62398941803, 0.018000000000000002, 0.9580000000000001, -0.03, 192.0, 0.0, 0.0, 0.0, 0.0, 0.0, 0.0, 0.0, 0.0, 0.0, 1.6664043914330168E9, 0.0, 2022-10-21 19:06:31.433
132.0, -127937.2948929423, -156833.69717999664, -32440.40548091, -139122.30898407806, 65749.95854496463, -91404.68733366577, 56381.38131873385, -111812.41116671696, 0.018000000000000002, 0.9580000000000001, -0.03, 192.0, 0.0, 0.0, 0.0, 0.0, 0.0, 0.0, 0.0, 0.0, 0.0, 1.6664043914330318E9, 0.0, 2022-10-21 19:06:31.433
133.0, -127933.8974277851, -156832.82546196287, -32440.40548091, -139125.6393940019, 65750.18206240918, -91408.15185405634, 56378.0062053211, -111820.56955344314, 0.018000000000000002, 0.9580000000000001, -0.03, 192.0, 0.0, 0.0, 0.0, 0.0, 0.0, 0.0, 0.0, 0.0, 0.0, 1.6664043914330473E9, 0.0, 2022-10-21 19:06:31.433
134.0, -127941.20644822199, -156840.87208996678, -32442.46184139989, -139128.90274869237, 65744.68353327317, -91431.35296480096, 56360.01305103458, -111826.00102734579, 0.026000000000000002, 0.9520000000000001, -0.03, 192.0, 0.0, 208.0, 29.0, 192.0, 255.0, 16.0, 0.0, 0.0, 0.0, 1.6664043914330623E9, 0.0, 2022-10-21 19:06:31.433
135.0, -127943.1957534785, -156844.02368593498, -32449.122661247573, -139129.37213532595, 65739.85555647082, -91429.47541826671, 56365.3551179594, -111820.83777437662, 0.026000000000000002, 0.9520000000000001, -0.03, 192.0, 0.0, 0.0, 0.0, 0.0, 0.0, 0.0, 0.0, 0.0, 0.0, 1.666404391433087E9, 0.0, 2022-10-21 19:06:31.433
136.0, -127937.36194817568, -156832.24431660704, -32436.672739585967, -139120.49849277717, 65747.18692865217, -91394.51728993861, 56391.461955483195, -111806.91263758096, 0.026000000000000002, 0.9520000000000001, -0.03, 192.0, 0.0, 0.0, 0.0, 0.0, 0.0, 0.0, 0.0, 0.0, 0.0, 1.6664043914331543E9, 0.0, 2022-10-21 19:06:31.433
137.0, -127936.95961677548, -156830.99261891755, -32430.973044749862, -139127.15931262486, 65749.98089670908, -91401.58044118648, 56386.11988855838, -111803.9398555684, 0.026000000000000002, 0.9520000000000001, -0.03, 192.0, 0.0, 0.0, 0.0, 0.0, 0.0, 0.0, 0.0, 0.0, 0.0, 1.6664043914331696E9, 0.0, 2022-10-21 19:06:31.433
138.0, -127927.59423584871, -156824.35415081432, -32427.061489470187, -139114.50822526315, 65761.71556254811, -91398.8758801074, 56387.2598275256, -111797.77077409874, 0.026000000000000002, 0.9520000000000001, -0.03, 192.0, 0.0, 0.0, 0.0, 0.0, 0.0, 0.0, 0.0, 0.0, 0.0, 1.6664043914331849E9, 0.0, 2022-10-21 19:06:31.433
139.0, -127924.46499162496, -156820.48729902355, -32418.746640532812, -139095.79981515405, 65772.08677197537, -91406.38606624438, 56386.097536813926, -111791.82521007363, 0.026000000000000002, 0.9520000000000001, -0.03, 192.0, 0.0, 0.0, 0.0, 0.0, 0.0, 0.0, 0.0, 0.0, 0.0, 1.6664043914332E9, 0.0, 2022-10-21 19:06:31.433
140.0, -127941.96640753346, -156837.07229340938, -32429.76605054928, -139111.87071941743, 65757.35697237933, -91383.5202316666, 56398.90508638681, -111806.53265792521, 0.026000000000000002, 0.9520000000000001, -0.03, 192.0, 0.0, 0.0, 0.0, 0.0, 0.0, 0.0, 0.0, 0.0, 0.0, 1.666404391433215E9, 0.0, 2022-10-21 19:06:31.433
141.0, -127944.15687849009, -156841.22971787807, -32430.257788927294, -139131.093219649, 65748.63979204175, -91401.69219990876, 56383.37062399038, -111812.7911463727, 0.026000000000000002, 0.9520000000000001, -0.03, 192.0, 0.0, 0.0, 0.0, 0.0, 0.0, 0.0, 0.0, 0.0, 0.0, 1.66640439143323E9, 0.0, 2022-10-21 19:06:31.433
142.0, -127938.05485225379, -156837.11699689832, -32423.99930047981, -139128.90274869237, 65753.75834152203, -91429.49777001116, 56361.622376635365, -111808.20903875936, 0.026000000000000002, 0.9520000000000001, -0.03, 192.0, 0.0, 0.0, 0.0, 0.0, 0.0, 0.0, 0.0, 0.0, 0.0, 1.6664043914332452E9, 0.0, 2022-10-21 19:06:31.433
143.0, -127931.93047427303, -156831.99844741804, -32422.814658023675, -139114.95526015226, 65758.40750436873, -91422.30050829655, 56368.327899971955, -111799.84948633309, 0.028, 0.966, -0.03, 192.0, 0.0, 224.0, 30.0, 48.0, 255.0, 16.0, 0.0, 0.0, 0.0, 1.66640439143326E9, 0.0, 2022-10-21 19:06:31.433
144.0, -127934.41151790757, -156837.54168004295, -32427.150896448005, -139117.57041425354, 65750.36087636482, -91399.83700511897, 56384.04117632403, -111805.9962160583, 0.028, 0.966, -0.03, 192.0, 0.0, 0.0, 0.0, 0.0, 0.0, 0.0, 0.0, 0.0, 0.0, 1.6664043914332857E9, 0.0, 2022-10-21 19:06:31.433
145.0, -127929.38237540513, -156836.04411316445, -32420.199503922406, -139122.42074280034, 65750.60674555383, -91395.16549052781, 56390.85845838291, -111802.10701252306, 0.028, 0.966, -0.03, 192.0, 0.0, 0.0, 0.0, 0.0, 0.0, 0.0, 0.0, 0.0, 0.0, 1.666404391433297E9, 0.0, 2022-10-21 19:06:31.433
146.0, -127930.99170100591, -156836.80407247593, -32424.021652224263, -139130.7355917377, 65748.46097808612, -91426.77085718761, 56370.49601918412, -111805.638588147, 0.028, 0.966, -0.03, 192.0, 0.0, 0.0, 0.0, 0.0, 0.0, 0.0, 0.0, 0.0, 0.0, 1.6664043914333084E9, 0.0, 2022-10-21 19:06:31.433
147.0, -127932.51161962887, -156843.35313360134, -32428.84962902661, -139125.52763527964, 65751.92549847669, -91429.27425256661, 56369.95957731719, -111811.51709693875, 0.028, 0.966, -0.03, 192.0, 0.0, 0.0, 0.0, 0.0, 0.0, 0.0, 0.0, 0.0, 0.0, 1.6664043914333196E9, 0.0, 2022-10-21 19:06:31.433
148.0, -127925.15789570307, -156837.80990097643, -32423.462858612882, -139120.16321661035, 65752.6631060437, -91410.18586280178, 56386.72338565867, -111806.6444166475, 0.028, 0.966, -0.03, 192.0, 0.0, 0.0, 0.0, 0.0, 0.0, 0.0, 0.0, 0.0, 0.0, 1.6664043914333313E9, 0.0, 2022-10-21 19:06:31.433
149.0, -127921.53691310131, -156828.93625842765, -32418.165495176974, -139115.62581248593, 65757.96046947961, -91389.68931313626, 56400.15678407631, -111795.78146884221, 0.028, 0.966, -0.03, 192.0, 0.0, 0.0, 0.0, 0.0, 0.0, 0.0, 0.0, 0.0, 0.0, 1.6664043914333425E9, 0.0, 2022-10-21 19:06:31.433
150.0, -127929.89646552759, -156836.51349979802, -32428.08966971513, -139124.2312341012, 65754.09361768885, -91397.4230167178, 56387.058661825504, -111795.24502697529, 0.028, 0.966, -0.03, 192.0, 0.0, 0.0, 0.0, 0.0, 0.0, 0.0, 0.0, 0.0, 0.0, 1.6664043914333537E9, 0.0, 2022-10-21 19:06:31.433
151.0, -127951.37649194915, -156860.6757355542, -32448.51916414728, -139148.7958012576, 65729.52905053247, -91413.76214191463, 56364.23753073663, -111813.30523649517, 0.028, 0.966, -0.03, 192.0, 0.0, 0.0, 0.0, 0.0, 0.0, 0.0, 0.0, 0.0, 0.0, 1.6664043914333785E9, 0.0, 2022-10-21 19:06:31.433
152.0, -127920.30756715627, -156829.3162380834, -32421.294739400717, -139118.97857415423, 65751.00907695403, -91402.04982782005, 56385.1587635468, -111791.42287867343, 0.028, 0.966, -0.03, 192.0, 0.0, 0.0, 0.0, 0.0, 0.0, 0.0, 0.0, 0.0, 0.0, 1.66640439143339E9, 0.0, 2022-10-21 19:06:31.433
153.0, -127917.11126769916, -156824.33179906986, -32425.60862608059, -139100.1807570673, 65761.04501021445, -91390.78454861457, 56393.697129928725, -111798.55308515466, 0.032, 0.972, -0.028, 192.0, 1.0, 0.0, 30.0, 96.0, 255.0, 32.0, 0.0, 0.0, 0.0, 1.666404391433402E9, 0.0, 2022-10-21 19:06:31.433
154.0, -127920.93341600102, -156830.65734275072, -32424.491038857825, -139112.42951302882, 65760.0168299695, -91388.14704276885, 56390.16555430479, -111802.93402706791, 0.032, 0.972, -0.028, 192.0, 0.0, 0.0, 0.0, 0.0, 0.0, 0.0, 0.0, 0.0, 0.0, 1.6664043914334152E9, 0.0, 2022-10-21 19:06:31.433
155.0, -127928.55536086028, -156843.35313360134, -32433.632902340047, -139132.94841443878, 65744.54942280643, -91403.01095283162, 56371.39008896233, -111808.70077713738, 0.032, 0.972, -0.028, 192.0, 0.0, 0.0, 0.0, 0.0, 0.0, 0.0, 0.0, 0.0, 0.0, 1.6664043914334269E9, 0.0, 2022-10-21 19:06:31.433
156.0, -127921.87218926815, -156840.76033124453, -32433.23057093985, -139124.34299282348, 65748.77390250849, -91407.03426683358, 56371.97123431817, -111811.27122774973, 0.032, 0.972, -0.028, 192.0, 0.0, 0.0, 0.0, 0.0, 0.0, 0.0, 0.0, 0.0, 0.0, 1.6664043914334383E9, 0.0, 2022-10-21 19:06:31.433
157.0, -127921.82748577923, -156835.01593291952, -32429.877809271555, -139123.06894338955, 65752.70780953263, -91402.63097317588, 56377.894446598824, -111809.14781202648, 0.032, 0.972, -0.028, 192.0, 0.0, 0.0, 0.0, 0.0, 0.0, 0.0, 0.0, 0.0, 0.0, 1.666404391433452E9, 0.0, 2022-10-21 19:06:31.433
158.0, -127921.33574740122, -156830.99261891755, -32430.257788927294, -139133.2836906056, 65749.2209373976, -91421.78641817409, 56363.92460631426, -111812.07589055013, 0.032, 0.972, -0.028, 192.0, 0.0, 0.0, 0.0, 0.0, 0.0, 0.0, 0.0, 0.0, 0.0, 1.6664043914334636E9, 0.0, 2022-10-21 19:06:31.433
159.0, -127929.78470680532, -156838.30163935444, -32437.76797506428, -139141.50913256517, 65742.26954487199, -91435.48803752518, 56353.016955020066, -111816.61329467456, 0.032, 0.972, -0.028, 192.0, 0.0, 0.0, 0.0, 0.0, 0.0, 0.0, 0.0, 0.0, 0.0, 1.666404391433475E9, 0.0, 2022-10-21 19:06:31.433
160.0, -127920.55343634528, -156828.24335434954, -32424.22281792436, -139124.34299282348, 65754.98768746706, -91433.40932529085, 56367.18796100473, -111791.3334716956, 0.032, 0.972, -0.028, 192.0, 0.0, 0.0, 0.0, 0.0, 0.0, 0.0, 0.0, 0.0, 0.0, 1.6664043914334865E9, 0.0, 2022-10-21 19:06:31.433
161.0, -127915.30077639829, -156822.25308683552, -32423.686376057434, -139121.12434162194, 65758.04987645744, -91426.90496765435, 56379.4590687107, -111789.70179435037, 0.032, 0.972, -0.028, 192.0, 0.0, 0.0, 0.0, 0.0, 0.0, 0.0, 0.0, 0.0, 0.0, 1.6664043914334977E9, 0.0, 2022-10-21 19:06:31.433
162.0, -127912.35034613019, -156823.1695083582, -32421.585312078634, -139128.65687950337, 65755.94881247864, -91444.02640390712, 56367.50088542711, -111794.52977115271, 0.032, 0.972, -0.028, 192.0, 0.0, 0.0, 0.0, 0.0, 0.0, 0.0, 0.0, 0.0, 0.0, 1.666404391433509E9, 0.0, 2022-10-21 19:06:31.433
163.0, -127914.25024440889, -156824.77883395896, -32426.03330922524, -139123.71714397875, 65758.54161483546, -91457.50450581366, 56356.83910332192, -111790.81938157314, 0.034, 0.964, -0.032, 192.0, 1.0, 16.0, 30.0, 32.0, 255.0, 0.0, 0.0, 0.0, 0.0, 1.6664043914335208E9, 0.0, 2022-10-21 19:06:31.433
164.0, -127917.0442124658, -156828.53392702746, -32429.386070893535, -139126.086428891, 65756.66406830121, -91449.50258129867, 56364.01401329208, -111790.55116063968, 0.034, 0.964, -0.032, 192.0, 0.0, 0.0, 0.0, 0.0, 0.0, 0.0, 0.0, 0.0, 0.0, 1.6664043914335327E9, 0.0, 2022-10-21 19:06:31.433
165.0, -127914.40670662007, -156828.4668717941, -32427.396765637015, -139122.37603931144, 65757.80400726844, -91439.69016548278, 56374.899312841815, -111788.20422747187, 0.034, 0.964, -0.032, 192.0, 0.0, 0.0, 0.0, 0.0, 0.0, 0.0, 0.0, 0.0, 0.0, 1.666404391433544E9, 0.0, 2022-10-21 19:06:31.433
166.0, -127923.5932735912, -156837.3181625984, -32439.779632065256, -139127.1369608804, 65753.33365837738, -91435.64449973637, 56375.23458900864, -111798.01664328774, 0.034, 0.964, -0.032, 192.0, 0.0, 0.0, 0.0, 0.0, 0.0, 0.0, 0.0, 0.0, 0.0, 1.6664043914335668E9, 0.0, 2022-10-21 19:06:31.433
167.0, -127924.37558464713, -156834.52419454147, -32432.64942558401, -139122.91248117835, 65760.24034741406, -91445.85924695244, 56366.69622262671, -111793.79216358569, 0.034, 0.964, -0.032, 192.0, 0.0, 0.0, 0.0, 0.0, 0.0, 0.0, 0.0, 0.0, 0.0, 1.6664043914335785E9, 0.0, 2022-10-21 19:06:31.433
168.0, -127930.92464577254, -156839.30746785493, -32440.40548091, -139131.60730977147, 65752.73016127708, -91462.26542738265, 56357.1520277443, -111803.00108230127, 0.034, 0.964, -0.032, 192.0, 0.0, 0.0, 0.0, 0.0, 0.0, 0.0, 0.0, 0.0, 0.0, 1.66640439143359E9, 0.0, 2022-10-21 19:06:31.433
169.0, -127931.10345972818, -156839.4192265772, -32443.825297811665, -139125.97467016874, 65754.54065257795, -91459.04677618109, 56368.64082439433, -111804.27513173522, 0.034, 0.964, -0.032, 192.0, 0.0, 0.0, 0.0, 0.0, 0.0, 0.0, 0.0, 0.0, 0.0, 1.6664043914336016E9, 0.0, 2022-10-21 19:06:31.433
170.0, -127927.46012538197, -156840.78268298897, -32445.32286469017, -139123.1359986229, 65761.8720247593, -91440.69599398327, 56381.13544954485, -111805.7950503582, 0.034, 0.964, -0.032, 192.0, 0.0, 0.0, 0.0, 0.0, 0.0, 0.0, 0.0, 0.0, 0.0, 1.6664043914336133E9, 0.0, 2022-10-21 19:06:31.433
171.0, -127930.58936960572, -156840.62622077778, -32440.964274521386, -139130.2438533597, 65763.14607419325, -91446.84272370848, 56369.512542428085, -111811.07006204964, 0.034, 0.964, -0.032, 192.0, 0.0, 0.0, 0.0, 0.0, 0.0, 0.0, 0.0, 0.0, 0.0, 1.6664043914336252E9, 0.0, 2022-10-21 19:06:31.433
172.0, -127929.78470680532, -156836.91583119822, -32438.103251231107, -139122.46544628925, 65766.38707713927, -91462.39953784937, 56360.59419639042, -111804.5880561576, 0.034, 0.9540000000000001, -0.032, 192.0, 1.0, 16.0, 29.0, 208.0, 255.0, 0.0, 0.0, 0.0, 0.0, 1.6664043914336371E9, 0.0, 2022-10-21 19:06:31.433
173.0, -127930.36585216117, -156840.87208996678, -32439.13143147605, -139111.49073976168, 65766.94587075066, -91456.4316220798, 56369.244321494625, -111796.11674500904, 0.034, 0.9540000000000001, -0.032, 192.0, 0.0, 0.0, 0.0, 0.0, 0.0, 0.0, 0.0, 0.0, 0.0, 1.6664043914336498E9, 0.0, 2022-10-21 19:06:31.433
174.0, -127934.88090454113, -156847.71172377013, -32449.770861836776, -139117.68217297582, 65761.04501021445, -91450.41900282133, 56372.77589711856, -111807.38202421452, 0.034, 0.9540000000000001, -0.032, 192.0, 0.0, 0.0, 0.0, 0.0, 0.0, 0.0, 0.0, 0.0, 0.0, 1.6664043914336612E9, 0.0, 2022-10-21 19:06:31.433
175.0, -127932.93630277352, -156847.33174411437, -32441.679530343954, -139128.6345277589, 65761.8273212704, -91464.05356693907, 56364.751620859104, -111812.72409113933, 0.034, 0.9540000000000001, -0.032, 192.0, 0.0, 0.0, 0.0, 0.0, 0.0, 0.0, 0.0, 0.0, 0.0, 1.666404391433673E9, 0.0, 2022-10-21 19:06:31.433
176.0, -127933.20452370698, -156849.1198836708, -32436.069242485675, -139129.6403562594, 65763.66016431572, -91473.15072693238, 56363.11994351387, -111815.85333536308, 0.034, 0.9540000000000001, -0.032, 192.0, 0.0, 0.0, 0.0, 0.0, 0.0, 0.0, 0.0, 0.0, 0.0, 1.6664043914336848E9, 0.0, 2022-10-21 19:06:31.433
177.0, -127924.26382592486, -156840.31329635542, -32432.671777328465, -139115.51405376365, 65767.79523703996, -91462.086613427, 56375.50280994211, -111811.07006204964, 0.034, 0.9540000000000001, -0.032, 192.0, 0.0, 0.0, 0.0, 0.0, 0.0, 0.0, 0.0, 0.0, 0.0, 1.6664043914336965E9, 0.0, 2022-10-21 19:06:31.433
178.0, -127936.11025048618, -156854.8642819958, -32445.971065279373, -139134.80360922858, 65754.60770781133, -91480.07976771353, 56359.83423707894, -111827.27507677974, 0.034, 0.9540000000000001, -0.032, 192.0, 0.0, 0.0, 0.0, 0.0, 0.0, 0.0, 0.0, 0.0, 0.0, 1.66640439143371E9, 0.0, 2022-10-21 19:06:31.433
179.0, -127927.99656724889, -156850.03630519347, -32442.52889663326, -139138.82692323052, 65757.89341424625, -91492.08265448603, 56346.87022529486, -111821.30716101018, 0.034, 0.9540000000000001, -0.032, 192.0, 0.0, 0.0, 0.0, 0.0, 0.0, 0.0, 0.0, 0.0, 0.0, 1.6664043914337215E9, 0.0, 2022-10-21 19:06:31.433
180.0, -127914.943148487, -156833.40660731873, -32427.106192959094, -139125.4829317907, 65770.58920509687, -91487.41113989486, 56353.352231186895, -111805.32566372462, 0.034, 0.9540000000000001, -0.032, 192.0, 0.0, 0.0, 0.0, 0.0, 0.0, 0.0, 0.0, 0.0, 0.0, 1.6664043914337332E9, 0.0, 2022-10-21 19:06:31.433
181.0, -127920.57578808973, -156838.43574982116, -32433.69995757341, -139126.7346294802, 65762.7213910486, -91475.81058452257, 56357.129675999844, -111813.03701556171, 0.034, 0.9540000000000001, -0.032, 192.0, 0.0, 0.0, 0.0, 0.0, 0.0, 0.0, 0.0, 0.0, 0.0, 1.6664043914337578E9, 0.0, 2022-10-21 19:06:31.433
182.0, -127940.31237844378, -156862.0615437104, -32457.03517878475, -139144.97365295573, 65740.19083263766, -91463.02538669412, 56355.36388818787, -111832.3489227711, 0.03, 0.962, -0.036000000000000004, 192.0, 0.0, 240.0, 30.0, 16.0, 254.0, 224.0, 0.0, 0.0, 0.0, 1.6664043914337697E9, 0.0, 2022-10-21 19:06:31.433
183.0, -127922.7439073019, -156847.04117143646, -32439.22083845387, -139136.1894173848, 65753.4677688441, -91462.19837214929, 56357.420248677765, -111809.1925155154, 0.03, 0.962, -0.036000000000000004, 192.0, 0.0, 0.0, 0.0, 0.0, 0.0, 0.0, 0.0, 0.0, 0.0, 1.6664043914337816E9, 0.0, 2022-10-21 19:06:31.433
184.0, -127908.79641876179, -156831.26083985102, -32418.65723355499, -139113.65885897385, 65773.24906268706, -91455.5375523016, 56367.903216827304, -111790.2382362173, 0.03, 0.962, -0.036000000000000004, 192.0, 0.0, 0.0, 0.0, 0.0, 0.0, 0.0, 0.0, 0.0, 0.0, 1.666404391433794E9, 0.0, 2022-10-21 19:06:31.433
185.0, -127914.78668627581, -156838.86043296583, -32426.03330922524, -139115.35759155246, 65763.10137070435, -91456.49867731318, 56365.82450459296, -111807.5384864257, 0.03, 0.962, -0.036000000000000004, 192.0, 0.0, 0.0, 0.0, 0.0, 0.0, 0.0, 0.0, 0.0, 0.0, 1.666404391433806E9, 0.0, 2022-10-21 19:06:31.433
186.0, -127928.73417481592, -156853.18790116167, -32445.70284434591, -139136.6811557628, 65745.75641700703, -91462.06426168255, 56359.43190567874, -111817.52971619723, 0.03, 0.962, -0.036000000000000004, 192.0, 0.0, 0.0, 0.0, 0.0, 0.0, 0.0, 0.0, 0.0, 0.0, 1.666404391433818E9, 0.0, 2022-10-21 19:06:31.433
187.0, -127926.9460352595, -156848.73990401506, -32437.27623668626, -139137.3964115854, 65752.88662348827, -91452.36360458894, 56365.42217319276, -111811.96413182786, 0.03, 0.962, -0.036000000000000004, 192.0, 0.0, 0.0, 0.0, 0.0, 0.0, 0.0, 0.0, 0.0, 0.0, 1.6664043914338298E9, 0.0, 2022-10-21 19:06:31.433
188.0, -127922.22981717942, -156845.61065979133, -32423.731079546345, -139139.4304203308, 65755.88175724528, -91453.25767436715, 56360.88476906834, -111817.82028887514, 0.03, 0.962, -0.036000000000000004, 192.0, 0.0, 0.0, 0.0, 0.0, 0.0, 0.0, 0.0, 0.0, 0.0, 1.6664043914338417E9, 0.0, 2022-10-21 19:06:31.433
189.0, -127914.45141010899, -156836.13352014226, -32416.891445743022, -139126.66757424685, 65760.5756235809, -91454.8893517124, 56360.1024580124, -111817.41795747494, 0.03, 0.962, -0.036000000000000004, 192.0, 0.0, 0.0, 0.0, 0.0, 0.0, 0.0, 0.0, 0.0, 0.0, 1.666404391433854E9, 0.0, 2022-10-21 19:06:31.433
190.0, -127921.40280263458, -156845.67771502468, -32424.535742346736, -139129.55094928158, 65752.08196068788, -91442.97587191772, 56367.545588916015, -111820.27898076523, 0.03, 0.962, -0.036000000000000004, 192.0, 0.0, 0.0, 0.0, 0.0, 0.0, 0.0, 0.0, 0.0, 0.0, 1.6664043914338655E9, 0.0, 2022-10-21 19:06:31.433
191.0, -127914.87609325364, -156837.47462480958, -32424.625149324558, -139129.10391439247, 65755.88175724528, -91444.13816262939, 56366.986795304634, -111816.70270165238, 0.03, 0.962, -0.036000000000000004, 192.0, 0.0, 0.0, 0.0, 0.0, 0.0, 0.0, 0.0, 0.0, 0.0, 1.6664043914338777E9, 0.0, 2022-10-21 19:06:31.433
192.0, -127924.06266022476, -156845.9682877026, -32437.14212621953, -139148.86285649097, 65743.49889081703, -91474.13420368842, 56338.890652524315, -111829.42084424745, 0.016, 0.9580000000000001, -0.032, 192.0, 0.0, 128.0, 29.0, 240.0, 255.0, 0.0, 0.0, 0.0, 0.0, 1.6664043914338892E9, 0.0, 2022-10-21 19:06:31.433
193.0, -127918.13944794411, -156841.16266264473, -32428.13437320404, -139136.12236215145, 65753.53482407748, -91482.7396253037, 56339.024762991045, -111814.17695452893, 0.016, 0.9580000000000001, -0.032, 192.0, 0.0, 0.0, 0.0, 0.0, 0.0, 0.0, 0.0, 0.0, 0.0, 1.6664043914339015E9, 0.0, 2022-10-21 19:06:31.433
194.0, -127917.96063398846, -156839.46393006612, -32425.47451561386, -139123.00188815617, 65757.6698968017, -91453.86117146745, 56363.09759176941, -111805.34801546908, 0.016, 0.9580000000000001, -0.032, 192.0, 0.0, 0.0, 0.0, 0.0, 0.0, 0.0, 0.0, 0.0, 0.0, 1.6664043914339132E9, 0.0, 2022-10-21 19:06:31.433
195.0, -127921.73807880141, -156842.16849114522, -32434.41521339598, -139123.31481257855, 65752.8642717438, -91450.55311328807, 56360.90712081279, -111812.1429457835, 0.016, 0.9580000000000001, -0.032, 192.0, 0.0, 0.0, 0.0, 0.0, 0.0, 0.0, 0.0, 0.0, 0.0, 1.6664043914339244E9, 0.0, 2022-10-21 19:06:31.433
196.0, -127914.25024440889, -156831.5737642734, -32424.960425491387, -139111.49073976168, 65768.28697541797, -91455.35873834595, 56355.050963765505, -111800.3859282, 0.016, 0.9580000000000001, -0.032, 192.0, 0.0, 0.0, 0.0, 0.0, 0.0, 0.0, 0.0, 0.0, 0.0, 1.666404391433952E9, 0.0, 2022-10-21 19:06:31.433
197.0, -127918.63118632212, -156837.63108702077, -32431.889466272532, -139123.44892304527, 65761.08971370336, -91460.74550875969, 56347.697239839705, -111809.34897772658, 0.016, 0.9580000000000001, -0.032, 192.0, 0.0, 0.0, 0.0, 0.0, 0.0, 0.0, 0.0, 0.0, 0.0, 1.6664043914339638E9, 0.0, 2022-10-21 19:06:31.433
198.0, -127928.01891899336, -156844.82834873538, -32440.293722187726, -139128.70158299227, 65751.18789090967, -91450.41900282133, 56352.882844553336, -111827.18566980193, 0.016, 0.9580000000000001, -0.032, 192.0, 0.0, 0.0, 0.0, 0.0, 0.0, 0.0, 0.0, 0.0, 0.0, 1.6664043914339757E9, 0.0, 2022-10-21 19:06:31.433
199.0, -127939.91004704358, -156856.25009015205, -32448.47446065837, -139134.2895191061, 65746.29285887395, -91438.95255791576, 56358.51548415607, -111836.66280945097, 0.016, 0.9580000000000001, -0.032, 192.0, 0.0, 0.0, 0.0, 0.0, 0.0, 0.0, 0.0, 0.0, 0.0, 1.6664043914339893E9, 0.0, 2022-10-21 19:06:31.433
200.0, -127928.22008469346, -156844.29190686846, -32439.399652409513, -139138.9386819528, 65751.52316707649, -91448.6308632649, 56347.2502049506, -111822.55885869967, 0.016, 0.9580000000000001, -0.032, 192.0, 0.0, 0.0, 0.0, 0.0, 0.0, 0.0, 0.0, 0.0, 0.0, 1.6664043914340026E9, 0.0, 2022-10-21 19:06:31.434
201.0, -127912.55151183029, -156827.70691248262, -32427.50852435929, -139125.79585621308, 65763.88368176027, -91459.11383141445, 56345.10443748289, -111805.12449802452, 0.016, 0.9580000000000001, -0.032, 192.0, 0.0, 0.0, 0.0, 0.0, 0.0, 0.0, 0.0, 0.0, 0.0, 1.6664043914340165E9, 0.0, 2022-10-21 19:06:31.434
202.0, -127917.42419212154, -156832.37842707377, -32433.074108728662, -139124.67826899033, 65761.6261555703, -91447.24505510868, 56357.73317310014, -111806.13032652502, 0.014, 0.96, -0.03, 192.0, 0.0, 112.0, 30.0, 0.0, 255.0, 16.0, 0.0, 0.0, 0.0, 1.666404391434028E9, 0.0, 2022-10-21 19:06:31.434
203.0, -127926.16372420356, -156841.49793881155, -32438.55028612021, -139133.50720805017, 65754.0712659444, -91427.7766856881, 56368.5067139276, -111818.49084120881, 0.014, 0.96, -0.03, 192.0, 0.0, 0.0, 0.0, 0.0, 0.0, 0.0, 0.0, 0.0, 0.0, 1.6664043914340403E9, 0.0, 2022-10-21 19:06:31.434
204.0, -127925.71668931446, -156839.08395041036, -32440.338425676637, -139141.41972558736, 65751.8137397544, -91444.42873530732, 56351.87701605285, -111818.66965516444, 0.014, 0.96, -0.03, 192.0, 0.0, 0.0, 0.0, 0.0, 0.0, 0.0, 0.0, 0.0, 0.0, 1.666404391434052E9, 0.0, 2022-10-21 19:06:31.434
205.0, -127921.22398867895, -156832.0655026514, -32435.28693142974, -139129.34978358148, 65758.36280087981, -91454.9340552013, 56346.356135172384, -111817.32855049713, 0.014, 0.96, -0.03, 192.0, 0.0, 0.0, 0.0, 0.0, 0.0, 0.0, 0.0, 0.0, 0.0, 1.6664043914340637E9, 0.0, 2022-10-21 19:06:31.434
206.0, -127927.68364282652, -156836.78172073147, -32438.818507053675, -139133.0378214166, 65749.04212344195, -91448.07206965353, 56353.91102479828, -111814.17695452893, 0.014, 0.96, -0.03, 192.0, 0.0, 0.0, 0.0, 0.0, 0.0, 0.0, 0.0, 0.0, 0.0, 1.6664043914340756E9, 0.0, 2022-10-21 19:06:31.434
207.0, -127931.25992193937, -156838.39104633225, -32443.870001300576, -139136.01060342917, 65746.78459725197, -91431.7329444567, 56366.67387088226, -111813.72991963982, 0.014, 0.96, -0.03, 192.0, 0.0, 0.0, 0.0, 0.0, 0.0, 0.0, 0.0, 0.0, 0.0, 1.666404391434087E9, 0.0, 2022-10-21 19:06:31.434
208.0, -127919.5923113337, -156828.33276132736, -32435.443393640926, -139131.093219649, 65759.5250915915, -91417.36077277194, 56375.055775053, -111801.90584682296, 0.014, 0.96, -0.03, 192.0, 0.0, 0.0, 0.0, 0.0, 0.0, 0.0, 0.0, 0.0, 0.0, 1.6664043914340985E9, 0.0, 2022-10-21 19:06:31.434
209.0, -127922.945073002, -156830.67969449516, -32439.287893687237, -139133.8871877059, 65759.3686293803, -91433.65519447986, 56360.281271968044, -111807.38202421452, 0.014, 0.96, -0.03, 192.0, 0.0, 0.0, 0.0, 0.0, 0.0, 0.0, 0.0, 0.0, 0.0, 1.6664043914341104E9, 0.0, 2022-10-21 19:06:31.434
210.0, -127938.41248016508, -156841.72145625608, -32454.84470782813, -139153.4449641043, 65738.0674169144, -91455.00111043468, 56341.03641999202, -111829.91258262546, 0.014, 0.96, -0.03, 192.0, 0.0, 0.0, 0.0, 0.0, 0.0, 0.0, 0.0, 0.0, 0.0, 1.6664043914341223E9, 0.0, 2022-10-21 19:06:31.434
211.0, -127930.94699751699, -156831.3725985733, -32447.915667046986, -139138.22342613022, 65746.11404491831, -91439.28783408258, 56355.54270214352, -111825.41988198995, 0.016, 0.9520000000000001, -0.03, 192.0, 0.0, 128.0, 29.0, 192.0, 255.0, 16.0, 0.0, 0.0, 0.0, 1.6664043914341471E9, 0.0, 2022-10-21 19:06:31.434
212.0, -127924.44263988051, -156823.43772929165, -32440.830164054652, -139143.27492037712, 65744.14709140624, -91452.2294941222, 56349.507731140584, -111816.85916386357, 0.016, 0.9520000000000001, -0.03, 192.0, 0.0, 0.0, 0.0, 0.0, 0.0, 0.0, 0.0, 0.0, 0.0, 1.6664043914341593E9, 0.0, 2022-10-21 19:06:31.434
213.0, -127922.0957067127, -156824.9129444257, -32441.813640810688, -139144.41485934437, 65746.15874840722, -91474.87181125543, 56334.353248399886, -111820.07781506513, 0.016, 0.9520000000000001, -0.03, 192.0, 0.0, 0.0, 0.0, 0.0, 0.0, 0.0, 0.0, 0.0, 0.0, 1.6664043914341705E9, 0.0, 2022-10-21 19:06:31.434
214.0, -127932.6457300956, -156834.50184279704, -32448.65327461401, -139143.76665875516, 65742.20248963863, -91465.95346521777, 56339.15887345778, -111825.0399023342, 0.016, 0.9520000000000001, -0.03, 192.0, 0.0, 0.0, 0.0, 0.0, 0.0, 0.0, 0.0, 0.0, 0.0, 1.666404391434182E9, 0.0, 2022-10-21 19:06:31.434
215.0, -127926.78957304831, -156830.00914216152, -32438.349120420116, -139128.45571380327, 65751.03142869848, -91447.49092429769, 56359.85658882339, -111821.97771334383, 0.016, 0.9520000000000001, -0.03, 192.0, 0.0, 0.0, 0.0, 0.0, 0.0, 0.0, 0.0, 0.0, 0.0, 1.6664043914341931E9, 0.0, 2022-10-21 19:06:31.434
216.0, -127925.82844803673, -156829.83032820586, -32445.32286469017, -139125.77350446864, 65756.12762643429, -91441.54536027258, 56363.72344061416, -111819.5413731982, 0.016, 0.9520000000000001, -0.03, 192.0, 0.0, 0.0, 0.0, 0.0, 0.0, 0.0, 0.0, 0.0, 0.0, 1.6664043914342043E9, 0.0, 2022-10-21 19:06:31.434
217.0, -127932.33280567323, -156832.0655026514, -32455.492908417335, -139148.57228381303, 65746.85165248533, -91462.46659308275, 56343.517463626566, -111820.14487029849, 0.016, 0.9520000000000001, -0.03, 192.0, 0.0, 0.0, 0.0, 0.0, 0.0, 0.0, 0.0, 0.0, 0.0, 1.666404391434216E9, 0.0, 2022-10-21 19:06:31.434
218.0, -127935.30558768578, -156834.74771198604, -32445.166402478982, -139140.77152499813, 65748.8186059974, -91469.57444781953, 56342.82455954845, -111812.70173939488, 0.016, 0.9520000000000001, -0.03, 192.0, 0.0, 0.0, 0.0, 0.0, 0.0, 0.0, 0.0, 0.0, 0.0, 1.6664043914342272E9, 0.0, 2022-10-21 19:06:31.434
219.0, -127946.68262561354, -156847.13057841428, -32458.242172985338, -139145.8453709895, 65735.7651872355, -91476.72700604523, 56339.42709439124, -111831.52190822625, 0.016, 0.9520000000000001, -0.03, 192.0, 0.0, 0.0, 0.0, 0.0, 0.0, 0.0, 0.0, 0.0, 0.0, 1.6664043914342384E9, 0.0, 2022-10-21 19:06:31.434
220.0, -127951.66706462706, -156853.03143895048, -32464.321847477182, -139146.02418494513, 65734.82641396837, -91472.23430540971, 56340.656440336286, -111843.45773976538, 0.016, 0.9520000000000001, -0.03, 192.0, 0.0, 0.0, 0.0, 0.0, 0.0, 0.0, 0.0, 0.0, 0.0, 1.66640439143425E9, 0.0, 2022-10-21 19:06:31.434
221.0, -127932.80219230679, -156831.70787474012, -32442.193620466427, -139128.1427893809, 65753.19954791064, -91460.03025293711, 56350.11122824088, -111820.05546332068, 0.024, 0.9580000000000001, -0.026000000000000002, 192.0, 0.0, 192.0, 29.0, 240.0, 255.0, 48.0, 0.0, 0.0, 0.0, 1.6664043914342637E9, 0.0, 2022-10-21 19:06:31.434
222.0, -127930.54466611681, -156830.25501135053, -32435.89042853003, -139136.3905830849, 65753.4230653552, -91463.96415996125, 56348.72542008465, -111812.92525683943, 0.024, 0.9580000000000001, -0.026000000000000002, 192.0, 0.0, 0.0, 0.0, 0.0, 0.0, 0.0, 0.0, 0.0, 0.0, 1.666404391434276E9, 0.0, 2022-10-21 19:06:31.434
223.0, -127925.80609629228, -156824.51061302552, -32426.256826669793, -139123.22540560074, 65758.02752471299, -91442.08180213951, 56370.38426046184, -111805.07979453562, 0.024, 0.9580000000000001, -0.026000000000000002, 192.0, 0.0, 0.0, 0.0, 0.0, 0.0, 0.0, 0.0, 0.0, 0.0, 1.6664043914342873E9, 0.0, 2022-10-21 19:06:31.434
224.0, -127924.88967476961, -156824.28709558095, -32436.94096051943, -139135.47416156222, 65749.75737926453, -91454.330558101, 56364.1034202699, -111819.20609703138, 0.024, 0.9580000000000001, -0.026000000000000002, 192.0, 0.0, 0.0, 0.0, 0.0, 0.0, 0.0, 0.0, 0.0, 0.0, 1.6664043914342988E9, 0.0, 2022-10-21 19:06:31.434
225.0, -127933.91977952955, -156834.3677323303, -32452.922457804976, -139147.7899727571, 65743.83416698387, -91449.6366917654, 56354.53687364303, -111841.04375136421, 0.024, 0.9580000000000001, -0.026000000000000002, 192.0, 0.0, 0.0, 0.0, 0.0, 0.0, 0.0, 0.0, 0.0, 0.0, 1.6664043914343102E9, 0.0, 2022-10-21 19:06:31.434
226.0, -127935.70791908598, -156841.54264230045, -32435.89042853003, -139135.0271266731, 65756.35114387884, -91455.7387180017, 56347.58548111743, -111824.97284710084, 0.024, 0.9580000000000001, -0.026000000000000002, 192.0, 0.0, 0.0, 0.0, 0.0, 0.0, 0.0, 0.0, 0.0, 0.0, 1.6664043914343348E9, 0.0, 2022-10-21 19:06:31.434
227.0, -127942.18992497801, -156851.2209476496, -32431.08480347214, -139121.4819695332, 65760.73208579209, -91434.99629914717, 56365.06454528148, -111812.50057369478, 0.024, 0.9580000000000001, -0.026000000000000002, 192.0, 0.0, 0.0, 0.0, 0.0, 0.0, 0.0, 0.0, 0.0, 0.0, 1.6664043914343464E9, 0.0, 2022-10-21 19:06:31.434
228.0, -127941.40761392209, -156852.9196802282, -32441.52306813277, -139135.45180981778, 65750.0703036869, -91410.61054594643, 56375.07812679746, -111817.26149526377, 0.024, 0.9580000000000001, -0.026000000000000002, 192.0, 0.0, 0.0, 0.0, 0.0, 0.0, 0.0, 0.0, 0.0, 0.0, 1.666404391434358E9, 0.0, 2022-10-21 19:06:31.434
229.0, -127935.43969815252, -156841.98967718956, -32445.18875422344, -139147.342937868, 65743.14126290576, -91439.57840676051, 56348.47955089564, -111825.71045466787, 0.024, 0.9580000000000001, -0.026000000000000002, 192.0, 0.0, 0.0, 0.0, 0.0, 0.0, 0.0, 0.0, 0.0, 0.0, 1.6664043914343693E9, 0.0, 2022-10-21 19:06:31.434
230.0, -127927.68364282652, -156829.24918285004, -32430.168381949472, -139132.5460830386, 65755.5688328229, -91445.34515682998, 56345.41736190527, -111819.29550400919, 0.024, 0.9580000000000001, -0.026000000000000002, 192.0, 0.0, 0.0, 0.0, 0.0, 0.0, 0.0, 0.0, 0.0, 0.0, 1.6664043914343808E9, 0.0, 2022-10-21 19:06:31.434
231.0, -127938.27836969834, -156845.67771502468, -32445.38991992354, -139140.2797866201, 65743.00715243902, -91444.92047368533, 56341.30464092549, -111831.07487333714, 0.022, 0.9580000000000001, -0.028, 192.0, 0.0, 176.0, 29.0, 240.0, 255.0, 32.0, 0.0, 0.0, 0.0, 1.666404391434392E9, 0.0, 2022-10-21 19:06:31.434
232.0, -127935.77497431934, -156838.92748819917, -32439.779632065256, -139125.75115272417, 65750.38322810928, -91419.01480186163, 56363.365812702876, -111819.67548366493, 0.022, 0.9580000000000001, -0.028, 192.0, 0.0, 0.0, 0.0, 0.0, 0.0, 0.0, 0.0, 0.0, 0.0, 1.666404391434404E9, 0.0, 2022-10-21 19:06:31.434
233.0, -127932.19869520649, -156832.51253754052, -32434.817544796177, -139127.22636785824, 65751.67962928768, -91428.89427291087, 56358.403725433796, -111807.0914515366, 0.022, 0.9580000000000001, -0.028, 192.0, 0.0, 0.0, 0.0, 0.0, 0.0, 0.0, 0.0, 0.0, 0.0, 1.6664043914344156E9, 0.0, 2022-10-21 19:06:31.434
234.0, -127922.56509334626, -156825.89642118174, -32432.8058877952, -139128.1874928698, 65755.43472235618, -91457.45980232475, 56342.13165547034, -111803.8951520795, 0.022, 0.9580000000000001, -0.028, 192.0, 0.0, 0.0, 0.0, 0.0, 0.0, 0.0, 0.0, 0.0, 0.0, 1.6664043914344273E9, 0.0, 2022-10-21 19:06:31.434
235.0, -127936.55728537528, -156843.33078185687, -32438.885562287043, -139122.64426024488, 65750.65144904274, -91452.76593598914, 56344.143312471315, -111816.99327433029, 0.022, 0.9580000000000001, -0.028, 192.0, 0.0, 0.0, 0.0, 0.0, 0.0, 0.0, 0.0, 0.0, 0.0, 1.6664043914344385E9, 0.0, 2022-10-21 19:06:31.434
236.0, -127934.99266326342, -156838.88278471027, -32437.678568086456, -139110.23904207218, 65756.10527468983, -91430.16832234482, 56362.874074324856, -111824.36935000055, 0.022, 0.9580000000000001, -0.028, 192.0, 0.0, 0.0, 0.0, 0.0, 0.0, 0.0, 0.0, 0.0, 0.0, 1.66640439143445E9, 0.0, 2022-10-21 19:06:31.434
237.0, -127941.27350345535, -156846.63884003626, -32448.161536235995, -139129.99798417068, 65747.05281818543, -91433.20815959075, 56356.369716688365, -111835.20994606137, 0.022, 0.9580000000000001, -0.028, 192.0, 0.0, 0.0, 0.0, 0.0, 0.0, 0.0, 0.0, 0.0, 0.0, 1.6664043914344614E9, 0.0, 2022-10-21 19:06:31.434
238.0, -127945.0956517572, -156852.20442440565, -32446.55221063521, -139135.60827202897, 65746.20345189613, -91443.53466552909, 56344.9479752717, -111833.69002743841, 0.022, 0.9580000000000001, -0.028, 192.0, 0.0, 0.0, 0.0, 0.0, 0.0, 0.0, 0.0, 0.0, 0.0, 1.6664043914344726E9, 0.0, 2022-10-21 19:06:31.434
239.0, -127937.27254119785, -156839.66509576622, -32434.929303518453, -139119.91734742135, 65752.64075429925, -91435.10805786945, 56356.88380681084, -111817.12738479703, 0.022, 0.9580000000000001, -0.028, 192.0, 0.0, 0.0, 0.0, 0.0, 0.0, 0.0, 0.0, 0.0, 0.0, 1.6664043914344845E9, 0.0, 2022-10-21 19:06:31.434
240.0, -127925.06848872526, -156819.3697118008, -32415.7515067758, -139098.52672797762, 65772.3773446533, -91407.97304010071, 56384.97994959116, -111798.41897468794, 0.022, 0.9560000000000001, -0.032, 192.0, 0.0, 176.0, 29.0, 224.0, 255.0, 0.0, 0.0, 0.0, 0.0, 1.666404391434507E9, 0.0, 2022-10-21 19:06:31.434
241.0, -127946.23559072443, -156841.27442136698, -32439.578466365158, -139126.39935331338, 65751.27729788749, -91415.03619134858, 56372.55237967401, -111814.33341674012, 0.022, 0.9560000000000001, -0.032, 192.0, 0.0, 0.0, 0.0, 0.0, 0.0, 0.0, 0.0, 0.0, 0.0, 1.6664043914345353E9, 0.0, 2022-10-21 19:06:31.434
242.0, -127938.30072144279, -156840.13448239976, -32441.344254177126, -139135.60827202897, 65744.21414663961, -91439.84662769397, 56355.252129465596, -111814.35576848457, 0.022, 0.9560000000000001, -0.032, 192.0, 0.0, 0.0, 0.0, 0.0, 0.0, 0.0, 0.0, 0.0, 0.0, 1.6664043914345508E9, 0.0, 2022-10-21 19:06:31.434
243.0, -127944.22393372345, -156847.6670202812, -32448.09448100263, -139132.4343243163, 65741.46488207161, -91473.12837518792, 56337.348382156895, -111820.74836739879, 0.022, 0.9560000000000001, -0.032, 192.0, 0.0, 0.0, 0.0, 0.0, 0.0, 0.0, 0.0, 0.0, 0.0, 1.6664043919122283E9, 0.0, 2022-10-21 19:06:31.912
244.0, -127936.73609933093, -156833.47366255207, -32449.726158347865, -139113.61415548495, 65748.05864668592, -91430.72711595621, 56371.79242036253, -111815.42865221843, 0.022, 0.9560000000000001, -0.032, 192.0, 0.0, 0.0, 0.0, 0.0, 0.0, 0.0, 0.0, 0.0, 0.0, 1.6664043919123073E9, 0.0, 2022-10-21 19:06:31.912
245.0, -127955.69037862902, -156857.0771046969, -32469.507452190814, -139144.6830802778, 65724.27639058548, -91432.69406946827, 56364.03636503653, -111836.21577456186, 0.022, 0.9560000000000001, -0.032, 192.0, 0.0, 0.0, 0.0, 0.0, 0.0, 0.0, 0.0, 0.0, 0.0, 1.6664043919123492E9, 0.0, 2022-10-21 19:06:31.912
246.0, -127944.0451197678, -156840.62622077778, -32444.6076088676, -139134.7812574841, 65747.00811469652, -91440.29366258308, 56365.310414470485, -111813.41699521746, 0.022, 0.9560000000000001, -0.032, 192.0, 0.0, 0.0, 0.0, 0.0, 0.0, 0.0, 0.0, 0.0, 0.0, 1.6664043919123983E9, 0.0, 2022-10-21 19:06:31.912
247.0, -127936.87020979765, -156833.3172003409, -32435.644559341024, -139116.25166133067, 65758.29574564645, -91442.41707830633, 56365.71274587068, -111795.80382058666, 0.022, 0.9560000000000001, -0.032, 192.0, 0.0, 0.0, 0.0, 0.0, 0.0, 0.0, 0.0, 0.0, 0.0, 1.6664043919124267E9, 0.0, 2022-10-21 19:06:31.912
248.0, -127963.04410255482, -156858.1723401752, -32460.23147824186, -139134.15540863937, 65732.72534998957, -91426.10030485396, 56368.886693583336, -111828.10209132459, 0.022, 0.9560000000000001, -0.032, 192.0, 0.0, 0.0, 0.0, 0.0, 0.0, 0.0, 0.0, 0.0, 0.0, 1.666404391912444E9, 0.0, 2022-10-21 19:06:31.912
249.0, -127989.75443717891, -156889.10715450134, -32493.28970829126, -139178.97065627226, 65694.16859080417, -91450.30724409905, 56338.331858912934, -111875.26427212528, 0.022, 0.9560000000000001, -0.032, 192.0, 0.0, 0.0, 0.0, 0.0, 0.0, 0.0, 0.0, 0.0, 0.0, 1.6664043919124608E9, 0.0, 2022-10-21 19:06:31.912
250.0, -127953.41050069458, -156853.1655494172, -32457.370454951582, -139152.77441177063, 65732.92651568967, -91461.66193028235, 56346.177321216746, -111822.51415521075, 0.022, 0.9540000000000001, -0.038, 192.0, 0.0, 176.0, 29.0, 208.0, 254.0, 208.0, 0.0, 0.0, 0.0, 1.666404391912478E9, 0.0, 2022-10-21 19:06:31.912
251.0, -127929.11415447167, -156830.25501135053, -32424.871018513564, -139124.76767596815, 65764.84480677186, -91459.9855494482, 56352.56992013096, -111807.06909979215, 0.022, 0.9540000000000001, -0.038, 192.0, 0.0, 0.0, 0.0, 0.0, 0.0, 0.0, 0.0, 0.0, 0.0, 1.6664043919124963E9, 0.0, 2022-10-21 19:06:31.912
252.0, -127938.23366620943, -156843.06256092343, -32431.733004061345, -139102.86296640194, 65772.44439988666, -91437.25382533716, 56369.26667323908, -111807.91846608145, 0.022, 0.9540000000000001, -0.038, 192.0, 0.0, 0.0, 0.0, 0.0, 0.0, 0.0, 0.0, 0.0, 0.0, 1.6664043919125128E9, 0.0, 2022-10-21 19:06:31.912
253.0, -127961.16655602057, -156860.765142532, -32456.297571217725, -139130.62383301544, 65745.46584432911, -91422.70283969675, 56368.28319648304, -111834.11471058306, 0.022, 0.9540000000000001, -0.038, 192.0, 0.0, 0.0, 0.0, 0.0, 0.0, 0.0, 0.0, 0.0, 0.0, 1.6664043919125297E9, 0.0, 2022-10-21 19:06:31.912
254.0, -127959.98191356444, -156857.23356690808, -32450.173193236973, -139134.088353406, 65750.517338576, -91430.2353775782, 56362.76231560258, -111822.51415521075, 0.022, 0.9540000000000001, -0.038, 192.0, 0.0, 0.0, 0.0, 0.0, 0.0, 0.0, 0.0, 0.0, 0.0, 1.6664043919125469E9, 0.0, 2022-10-21 19:06:31.912
255.0, -127967.35798923469, -156864.69904955616, -32455.112928761595, -139144.5489698111, 65743.43183558367, -91455.42579357933, 56345.57382411645, -111823.43057673343, 0.022, 0.9540000000000001, -0.038, 192.0, 0.0, 0.0, 0.0, 0.0, 0.0, 0.0, 0.0, 0.0, 0.0, 1.6664043919125633E9, 0.0, 2022-10-21 19:06:31.912
0.0, -127943.82160232325, -156846.05769468044, -32439.22083845387, -139120.11851312144, 65756.2170334121, -91441.18773236129, 56362.62820513585, -111811.98648357231, 0.022, 0.9540000000000001, -0.038, 192.0, 0.0, 0.0, 0.0, 0.0, 0.0, 0.0, 0.0, 0.0, 0.0, 1.6664043919126537E9, 0.0, 2022-10-21 19:06:31.912
1.0, -127953.2987419723, -156855.40072386275, -32456.386978195547, -139134.60244352848, 65739.72144600409, -91416.48905473818, 56372.97706281866, -111829.55495471419, 0.022, 0.9540000000000001, -0.038, 192.0, 0.0, 0.0, 0.0, 0.0, 0.0, 0.0, 0.0, 0.0, 0.0, 1.6664043919126701E9, 0.0, 2022-10-21 19:06:31.912
2.0, -127950.57182914876, -156853.50082558405, -32456.163460750995, -139147.16412391237, 65732.7700534785, -91444.20521786276, 56352.41345791978, -111815.69687315189, 0.022, 0.9540000000000001, -0.038, 192.0, 0.0, 0.0, 0.0, 0.0, 0.0, 0.0, 0.0, 0.0, 0.0, 1.6664043919126875E9, 0.0, 2022-10-21 19:06:31.912
3.0, -127940.96057903298, -156836.8711277093, -32432.358852906094, -139126.33229808, 65757.73695203506, -91444.04875565157, 56363.52227491406, -111788.94183503889, 0.022, 0.9540000000000001, -0.038, 192.0, 0.0, 0.0, 0.0, 0.0, 0.0, 0.0, 0.0, 0.0, 0.0, 1.6664043919127047E9, 0.0, 2022-10-21 19:06:31.912
4.0, -127960.31718973127, -156858.08293319738, -32447.647446113522, -139138.06696391906, 65742.13543440527, -91448.78732547609, 56355.14037074332, -111813.48405045082, 0.022, 0.9500000000000001, -0.03, 192.0, 0.0, 176.0, 29.0, 176.0, 255.0, 16.0, 0.0, 0.0, 0.0, 1.6664043919127216E9, 0.0, 2022-10-21 19:06:31.912
5.0, -127947.21906748046, -156848.38227610377, -32438.95261752041, -139118.7327049652, 65752.28312638798, -91417.6289937054, 56378.252074510114, -111820.05546332068, 0.022, 0.9500000000000001, -0.03, 192.0, 0.0, 0.0, 0.0, 0.0, 0.0, 0.0, 0.0, 0.0, 0.0, 1.6664043919127395E9, 0.0, 2022-10-21 19:06:31.912
6.0, -127939.48536389893, -156838.34634284335, -32437.656216342002, -139124.90178643487, 65752.70780953263, -91425.40740077585, 56372.172400018266, -111815.60746617407, 0.022, 0.9500000000000001, -0.03, 192.0, 0.0, 0.0, 0.0, 0.0, 0.0, 0.0, 0.0, 0.0, 0.0, 1.666404391912756E9, 0.0, 2022-10-21 19:06:31.912
7.0, -127946.63792212462, -156842.05673242293, -32450.933152548452, -139148.3040628796, 65736.3686843358, -91448.22853186472, 56346.87022529486, -111833.77943441624, 0.022, 0.9500000000000001, -0.03, 192.0, 0.0, 0.0, 0.0, 0.0, 0.0, 0.0, 0.0, 0.0, 0.0, 1.6664043919127796E9, 0.0, 2022-10-21 19:06:31.912
8.0, -127963.49113744393, -156864.00614547805, -32463.785405610255, -139157.08829845052, 65722.82352719588, -91445.07693589652, 56343.025725248546, -111839.16620482996, 0.022, 0.9500000000000001, -0.03, 192.0, 0.0, 0.0, 0.0, 0.0, 0.0, 0.0, 0.0, 0.0, 0.0, 1.666404391912796E9, 0.0, 2022-10-21 19:06:31.912
9.0, -127951.91293381607, -156842.45906382313, -32453.302437460716, -139142.87258897693, 65731.20543136662, -91427.75433394365, 56365.71274587068, -111819.98840808732, 0.022, 0.9500000000000001, -0.03, 192.0, 0.0, 0.0, 0.0, 0.0, 0.0, 0.0, 0.0, 0.0, 0.0, 1.6664043919128122E9, 0.0, 2022-10-21 19:06:31.912
10.0, -127964.16168977758, -156859.35698263135, -32456.789309595744, -139148.50522857968, 65725.90806793071, -91438.99726140467, 56357.19673123321, -111828.70558842488, 0.022, 0.9500000000000001, -0.03, 192.0, 0.0, 0.0, 0.0, 0.0, 0.0, 0.0, 0.0, 0.0, 0.0, 1.6664043919128287E9, 0.0, 2022-10-21 19:06:31.912
11.0, -127950.9071053156, -156847.89053772576, -32448.787385080745, -139141.57618779852, 65741.39782683823, -91448.85438070947, 56349.038344507026, -111828.10209132459, 0.022, 0.9500000000000001, -0.03, 192.0, 0.0, 0.0, 0.0, 0.0, 0.0, 0.0, 0.0, 0.0, 0.0, 1.6664043919128456E9, 0.0, 2022-10-21 19:06:31.912
12.0, -127940.2006197215, -156835.79824397544, -32444.8087745677, -139135.07183016205, 65745.6670100292, -91445.34515682998, 56350.222986963156, -111828.25855353578, 0.022, 0.9500000000000001, -0.03, 192.0, 0.0, 0.0, 0.0, 0.0, 0.0, 0.0, 0.0, 0.0, 0.0, 1.666404391912862E9, 0.0, 2022-10-21 19:06:31.912
13.0, -127931.75166031739, -156828.35511307183, -32423.12758244605, -139121.79489395558, 65753.7136380331, -91414.075066337, 56383.12475480137, -111804.5433526687, 0.016, 0.9560000000000001, -0.03, 192.0, 0.0, 128.0, 29.0, 224.0, 255.0, 16.0, 0.0, 0.0, 0.0, 1.6664043919128785E9, 0.0, 2022-10-21 19:06:31.912
14.0, -127928.51065737137, -156821.9178106687, -32415.70680328689, -139116.22930958623, 65761.53674859247, -91392.75150212664, 56398.43569975325, -111798.77660259922, 0.016, 0.9560000000000001, -0.03, 192.0, 0.0, 0.0, 0.0, 0.0, 0.0, 0.0, 0.0, 0.0, 0.0, 1.6664043919128964E9, 0.0, 2022-10-21 19:06:31.912
