%OpenBCI Raw EEG Data
%Number of channels = 8
%Sample Rate = 250 Hz
%Board = OpenBCI_GUI$BoardCytonSerial
Sample Index, EXG Channel 0, EXG Channel 1, EXG Channel 2, EXG Channel 3, EXG Channel 4, EXG Channel 5, EXG Channel 6, EXG Channel 7, Accel Channel 0, Accel Channel 1, Accel Channel 2, Other, Other, Other, Other, Other, Other, Other, Analog Channel 0, Analog Channel 1, Analog Channel 2, Timestamp, Other, Timestamp (Formatted)
238.0, -133882.47893839824, -159534.01142764228, -39412.0039834981, -109625.36002699853, 62355.354411048225, -62987.349985522036, 57241.208224440605, -118656.26944974298, 0.0, 0.0, 0.0, 192.0, 0.0, 0.0, 0.0, 0.0, 0.0, 0.0, 0.0, 0.0, 0.0, 1.6664049228581789E9, 0.0, 2022-10-21 19:15:22.858
239.0, -133890.79378733563, -159544.159119625, -39422.41989641427, -109638.30168703815, 62339.8646521407, -62971.16732253639, 57234.078017959364, -118658.0575892994, 0.0, 0.0, 0.0, 192.0, 0.0, 0.0, 0.0, 0.0, 0.0, 0.0, 0.0, 0.0, 0.0, 1.666404922858261E9, 0.0, 2022-10-21 19:15:22.858
240.0, -133883.86474655446, -159536.93950616595, -39418.888320790335, -109652.38328604499, 62345.564346976804, -62990.32276753459, 57225.42789285516, -118652.98374330804, 0.0, 0.0, 0.0, 192.0, 0.0, 0.0, 0.0, 0.0, 0.0, 0.0, 0.0, 0.0, 0.0, 1.6664049228583047E9, 0.0, 2022-10-21 19:15:22.858
241.0, -133879.08147324104, -159532.49150901934, -39418.530692879045, -109653.09854186757, 62354.75091394794, -63011.51222127822, 57223.885622487745, -118652.13437701874, 0.04, 0.966, 0.0, 192.0, 1.0, 64.0, 30.0, 48.0, 0.0, 0.0, 0.0, 0.0, 0.0, 1.6664049228583467E9, 0.0, 2022-10-21 19:15:22.858
242.0, -133883.84239481002, -159538.906459678, -39426.577320882956, -109637.89935563796, 62352.068704613295, -63003.75616595223, 57230.099407446316, -118657.67760964367, 0.04, 0.966, 0.0, 192.0, 0.0, 0.0, 0.0, 0.0, 0.0, 0.0, 0.0, 0.0, 0.0, 1.6664049228583963E9, 0.0, 2022-10-21 19:15:22.858
243.0, -133892.96190654777, -159548.49535804932, -39443.58699841345, -109634.79246315866, 62338.8141201513, -62971.07791555857, 57232.066360958386, -118673.23442378455, 0.04, 0.966, 0.0, 192.0, 0.0, 0.0, 0.0, 0.0, 0.0, 0.0, 0.0, 0.0, 0.0, 1.6664049228584392E9, 0.0, 2022-10-21 19:15:22.858
244.0, -133897.32049671657, -159553.03276217377, -39453.17589678477, -109664.34146932859, 62325.26896301138, -62981.22560754128, 57210.94396244812, -118686.53371173546, 0.04, 0.966, 0.0, 192.0, 0.0, 0.0, 0.0, 0.0, 0.0, 0.0, 0.0, 0.0, 0.0, 1.6664049228584716E9, 0.0, 2022-10-21 19:15:22.858
245.0, -133895.68881937134, -159547.98126792687, -39453.46646946269, -109679.76417300275, 62327.57119269028, -63017.34602658106, 57199.74573847601, -118677.52595871997, 0.04, 0.966, 0.0, 192.0, 0.0, 0.0, 0.0, 0.0, 0.0, 0.0, 0.0, 0.0, 0.0, 1.6664049228585064E9, 0.0, 2022-10-21 19:15:22.858
246.0, -133894.52652865966, -159542.97447716887, -39455.12049855239, -109666.6884024964, 62327.4147304791, -63019.60355277104, 57206.63007576825, -118671.93802260615, 0.04, 0.966, 0.0, 192.0, 0.0, 0.0, 0.0, 0.0, 0.0, 0.0, 0.0, 0.0, 0.0, 1.6664049228585346E9, 0.0, 2022-10-21 19:15:22.858
247.0, -133875.86282203946, -159522.54498273673, -39437.23910298814, -109636.44649224836, 62341.1163498302, -62989.428697756375, 57232.15576793621, -118654.70482763111, 0.04, 0.966, 0.0, 192.0, 0.0, 0.0, 0.0, 0.0, 0.0, 0.0, 0.0, 0.0, 0.0, 1.6664049228585622E9, 0.0, 2022-10-21 19:15:22.858
248.0, -133886.14462448892, -159532.33504680815, -39451.96890258419, -109656.94304191388, 62324.62076242218, -62981.49382847474, 57221.22576489756, -118679.44820874312, 0.04, 0.966, 0.0, 192.0, 0.0, 0.0, 0.0, 0.0, 0.0, 0.0, 0.0, 0.0, 0.0, 1.6664049228585904E9, 0.0, 2022-10-21 19:15:22.858
249.0, -133879.88613604143, -159524.40017752652, -39449.778431627565, -109679.9876904473, 62321.46916645398, -62996.782421682175, 57208.7534914915, -118675.89428137474, 0.04, 0.966, 0.0, 192.0, 0.0, 0.0, 0.0, 0.0, 0.0, 0.0, 0.0, 0.0, 0.0, 1.666404922858618E9, 0.0, 2022-10-21 19:15:22.858
250.0, -133883.9541535323, -159528.64700897303, -39455.56753344149, -109673.1927601329, 62320.03865480884, -62997.251808315734, 57206.115985645774, -118674.17319705167, 0.048, 0.968, 0.004, 192.0, 1.0, 128.0, 30.0, 64.0, 0.0, 32.0, 0.0, 0.0, 0.0, 1.666404922858646E9, 0.0, 2022-10-21 19:15:22.858
251.0, -133879.72967383024, -159525.22719207135, -39452.41593747329, -109654.10437036806, 62319.837489108744, -62974.49773246023, 57215.36960785027, -118673.99438309604, 0.048, 0.968, 0.004, 192.0, 0.0, 0.0, 0.0, 0.0, 0.0, 0.0, 0.0, 0.0, 0.0, 1.6664049228586764E9, 0.0, 2022-10-21 19:15:22.858
252.0, -133885.38466517744, -159529.74224445134, -39461.5130974666, -109666.4872367963, 62311.43323319355, -62975.57061619409, 57206.250096112504, -118693.10512460532, 0.048, 0.968, 0.004, 192.0, 0.0, 0.0, 0.0, 0.0, 0.0, 0.0, 0.0, 0.0, 0.0, 1.6664049228587048E9, 0.0, 2022-10-21 19:15:22.858
253.0, -133873.58294410503, -159516.08532858914, -39451.70068165072, -109680.68059452542, 62322.45264321002, -63001.78921244016, 57201.153898376695, -118687.65129895823, 0.048, 0.968, 0.004, 192.0, 0.0, 0.0, 0.0, 0.0, 0.0, 0.0, 0.0, 0.0, 0.0, 1.6664049228587332E9, 0.0, 2022-10-21 19:15:22.858
254.0, -133876.71218832876, -159517.33702627863, -39454.78522238555, -109671.44932406537, 62332.33211425926, -62998.95054089434, 57208.70878800259, -118683.60563321182, 0.048, 0.968, 0.004, 192.0, 0.0, 0.0, 0.0, 0.0, 0.0, 0.0, 0.0, 0.0, 0.0, 1.6664049228589056E9, 0.0, 2022-10-21 19:15:22.858
255.0, -133888.89388905693, -159527.3059043057, -39468.91152488131, -109662.77684721671, 62320.03865480884, -62969.53564519116, 57214.07320667186, -118691.09346760434, 0.048, 0.968, 0.004, 192.0, 0.0, 0.0, 0.0, 0.0, 0.0, 0.0, 0.0, 0.0, 0.0, 1.666404922858921E9, 0.0, 2022-10-21 19:15:22.858
0.0, -133883.3059529431, -159521.76267168077, -39464.329417267974, -109658.68647798139, 62325.67129441158, -62944.345229190025, 57218.81177649639, -118686.75722918002, 0.048, 0.968, 0.004, 192.0, 0.0, 0.0, 0.0, 0.0, 0.0, 0.0, 0.0, 0.0, 0.0, 1.6664049228589356E9, 0.0, 2022-10-21 19:15:22.858
1.0, -133870.14077545892, -159509.26804653025, -39454.047614818526, -109672.56691128814, 62335.75193116092, -62967.479284701265, 57212.28506711544, -118677.30244127542, 0.048, 0.968, 0.004, 192.0, 0.0, 0.0, 0.0, 0.0, 0.0, 0.0, 0.0, 0.0, 0.0, 1.66640492285895E9, 0.0, 2022-10-21 19:15:22.858
2.0, -133880.73550233073, -159519.39338676853, -39469.67148419279, -109689.26366439625, 62326.47595721197, -63003.44324152986, 57197.26469484147, -118686.44430475764, 0.048, 0.968, 0.004, 192.0, 0.0, 0.0, 0.0, 0.0, 0.0, 0.0, 0.0, 0.0, 0.0, 1.6664049228589644E9, 0.0, 2022-10-21 19:15:22.858
3.0, -133898.61689789497, -159537.52065152177, -39493.34198157096, -109674.44445782239, 62311.25441923791, -62989.83102915657, 57196.46003204108, -118699.47537177509, 0.048, 0.968, 0.004, 192.0, 0.0, 0.0, 0.0, 0.0, 0.0, 0.0, 0.0, 0.0, 0.0, 1.6664049228589792E9, 0.0, 2022-10-21 19:15:22.858
4.0, -133889.89971755742, -159529.67518921796, -39491.71030422572, -109662.4862745388, 62314.89775358412, -62960.6620026424, 57207.01005542398, -118697.75428745203, 0.044, 0.964, 0.0, 192.0, 1.0, 96.0, 30.0, 32.0, 0.0, 0.0, 0.0, 0.0, 0.0, 1.6664049228589978E9, 0.0, 2022-10-21 19:15:22.858
5.0, -133886.83752856703, -159527.01533162777, -39488.53635651307, -109681.86523698155, 62319.16693677509, -62976.442334227846, 57199.65633149819, -118700.95058690914, 0.044, 0.964, 0.0, 192.0, 0.0, 0.0, 0.0, 0.0, 0.0, 0.0, 0.0, 0.0, 0.0, 1.6664049228590133E9, 0.0, 2022-10-21 19:15:22.859
6.0, -133891.88902281394, -159530.52455550726, -39496.404170561334, -109691.49883884178, 62318.36227397469, -63010.1711166109, 57186.17822959164, -118704.25864508851, 0.044, 0.964, 0.0, 192.0, 0.0, 0.0, 0.0, 0.0, 0.0, 0.0, 0.0, 0.0, 0.0, 1.6664049228590276E9, 0.0, 2022-10-21 19:15:22.859
7.0, -133906.03767705415, -159542.48273879086, -39512.54213005807, -109684.61450154956, 62303.92304705657, -63008.248866587746, 57182.423136523146, -118706.40441255624, 0.044, 0.964, 0.0, 192.0, 0.0, 0.0, 0.0, 0.0, 0.0, 0.0, 0.0, 0.0, 0.0, 1.6664049228590417E9, 0.0, 2022-10-21 19:15:22.859
8.0, -133885.6528861109, -159523.48375600384, -39494.39251356036, -109666.01785016274, 62317.24468675193, -62995.97775888178, 57205.53484028993, -118676.67659243067, 0.044, 0.964, 0.0, 192.0, 0.0, 0.0, 0.0, 0.0, 0.0, 0.0, 0.0, 0.0, 0.0, 1.666404922859056E9, 0.0, 2022-10-21 19:15:22.859
9.0, -133877.22627845124, -159520.89095364703, -39491.77735945909, -109663.51445478374, 62325.42542522257, -62974.78830513815, 57216.80011949541, -118672.51916796199, 0.044, 0.964, 0.0, 192.0, 0.0, 0.0, 0.0, 0.0, 0.0, 0.0, 0.0, 0.0, 0.0, 1.6664049228590703E9, 0.0, 2022-10-21 19:15:22.859
10.0, -133875.43813889482, -159522.81320367017, -39495.30893508303, -109675.96437644535, 62323.056140310306, -62980.08566857406, 57207.01005542398, -118685.68434544616, 0.044, 0.964, 0.0, 192.0, 0.0, 0.0, 0.0, 0.0, 0.0, 0.0, 0.0, 0.0, 0.0, 1.6664049228590844E9, 0.0, 2022-10-21 19:15:22.859
11.0, -133869.9619615033, -159520.01923561326, -39492.58202225948, -109668.20832111935, 62322.8102711213, -62992.96027338032, 57207.7029595021, -118682.13041807777, 0.044, 0.964, 0.0, 192.0, 0.0, 0.0, 0.0, 0.0, 0.0, 0.0, 0.0, 0.0, 0.0, 1.666404922859099E9, 0.0, 2022-10-21 19:15:22.859
12.0, -133878.20975520727, -159528.55760199518, -39501.47801655269, -109654.41729479043, 62319.770433875376, -62982.454953486325, 57215.637828783736, -118678.017697098, 0.044, 0.964, 0.0, 192.0, 0.0, 0.0, 0.0, 0.0, 0.0, 0.0, 0.0, 0.0, 0.0, 1.666404922859113E9, 0.0, 2022-10-21 19:15:22.859
13.0, -133886.43519716684, -159537.54300326624, -39513.79382774756, -109678.0430886797, 62305.510020912894, -62970.496770202735, 57207.792366479924, -118684.61146171231, 0.044, 0.964, 0.0, 192.0, 0.0, 0.0, 0.0, 0.0, 0.0, 0.0, 0.0, 0.0, 0.0, 1.6664049228591723E9, 0.0, 2022-10-21 19:15:22.859
14.0, -133871.97361850424, -159521.13682283604, -39502.12621714189, -109682.44638233738, 62312.774337860865, -62975.8164853831, 57205.95952343458, -118678.30826977591, 0.038, 0.9560000000000001, -0.01, 192.0, 1.0, 48.0, 29.0, 224.0, 255.0, 176.0, 0.0, 0.0, 0.0, 1.666404922859187E9, 0.0, 2022-10-21 19:15:22.859
15.0, -133855.3439206295, -159504.395366239, -39488.42459779079, -109661.79337046068, 62324.21843102198, -62990.054546601124, 57214.855517727796, -118669.2558132715, 0.038, 0.9560000000000001, -0.01, 192.0, 0.0, 0.0, 0.0, 0.0, 0.0, 0.0, 0.0, 0.0, 0.0, 1.6664049228592024E9, 0.0, 2022-10-21 19:15:22.859
16.0, -133857.82496426403, -159508.77630815224, -39496.0241909056, -109636.625306204, 62323.056140310306, -62955.4093426954, 57232.200471425116, -118670.61926968329, 0.038, 0.9560000000000001, -0.01, 192.0, 0.0, 0.0, 0.0, 0.0, 0.0, 0.0, 0.0, 0.0, 0.0, 1.666404922859217E9, 0.0, 2022-10-21 19:15:22.859
17.0, -133873.62764759394, -159523.34964553712, -39513.65971728083, -109663.26858559473, 62299.81032607679, -62956.07989502906, 57216.17427065066, -118684.58910996786, 0.038, 0.9560000000000001, -0.01, 192.0, 0.0, 0.0, 0.0, 0.0, 0.0, 0.0, 0.0, 0.0, 0.0, 1.6664049228592317E9, 0.0, 2022-10-21 19:15:22.859
18.0, -133871.5042318707, -159518.23109605684, -39510.48576956818, -109681.70877477036, 62304.77241334587, -62984.31014827611, 57209.692264758625, -118676.45307498612, 0.038, 0.9560000000000001, -0.01, 192.0, 0.0, 0.0, 0.0, 0.0, 0.0, 0.0, 0.0, 0.0, 0.0, 1.6664049228592463E9, 0.0, 2022-10-21 19:15:22.859
19.0, -133866.2068684348, -159512.68786343193, -39504.6743160098, -109661.99453616078, 62316.909410585096, -62972.28490975916, 57223.61740155428, -118658.41521721068, 0.038, 0.9560000000000001, -0.01, 192.0, 0.0, 0.0, 0.0, 0.0, 0.0, 0.0, 0.0, 0.0, 0.0, 1.6664049228592603E9, 0.0, 2022-10-21 19:15:22.859
20.0, -133860.66363580988, -159505.37884299504, -39503.35556308694, -109642.01207661773, 62313.86957333918, -62954.98465955075, 57230.12175919077, -118659.06341779989, 0.038, 0.9560000000000001, -0.01, 192.0, 0.0, 0.0, 0.0, 0.0, 0.0, 0.0, 0.0, 0.0, 0.0, 1.666404922859275E9, 0.0, 2022-10-21 19:15:22.859
21.0, -133875.12521447244, -159520.48862224683, -39518.510045827636, -109661.8827774385, 62292.09897423971, -62957.331592718554, 57217.716541018075, -118678.95647036511, 0.038, 0.9560000000000001, -0.01, 192.0, 0.0, 0.0, 0.0, 0.0, 0.0, 0.0, 0.0, 0.0, 0.0, 1.6664049228592892E9, 0.0, 2022-10-21 19:15:22.859
22.0, -133861.66946431034, -159507.3457965071, -39506.79773173305, -109666.10725714055, 62304.37008194567, -62951.00604903771, 57225.696113788625, -118655.48713868704, 0.038, 0.9560000000000001, -0.01, 192.0, 0.0, 0.0, 0.0, 0.0, 0.0, 0.0, 0.0, 0.0, 0.0, 1.6664049228593037E9, 0.0, 2022-10-21 19:15:22.859
23.0, -133865.58101959003, -159511.65968318697, -39513.2797376251, -109658.39590530348, 62303.11838425617, -62926.64264758142, 57231.88754700274, -118653.11785377478, 0.038, 0.9560000000000001, -0.01, 192.0, 0.0, 0.0, 0.0, 0.0, 0.0, 0.0, 0.0, 0.0, 0.0, 1.666404922859318E9, 0.0, 2022-10-21 19:15:22.859
24.0, -133866.22922017923, -159512.88902913203, -39515.1796359038, -109651.33275405559, 62291.13784922813, -62913.47747009724, 57231.59697432482, -118661.76797887898, 0.02, 0.9580000000000001, -0.022, 192.0, 0.0, 160.0, 29.0, 240.0, 255.0, 80.0, 0.0, 0.0, 0.0, 1.6664049228593323E9, 0.0, 2022-10-21 19:15:22.859
25.0, -133866.87742076843, -159513.44782274342, -39515.693726026264, -109642.32500104011, 62289.573227116256, -62897.00423443368, 57235.73204704905, -118664.33842949134, 0.02, 0.9580000000000001, -0.022, 192.0, 0.0, 0.0, 0.0, 0.0, 0.0, 0.0, 0.0, 0.0, 0.0, 1.6664049228593495E9, 0.0, 2022-10-21 19:15:22.859
26.0, -133879.79672906362, -159525.4507095159, -39528.97066223272, -109665.05672515115, 62276.922139754555, -62888.0411849071, 57225.1596719217, -118666.1042173033, 0.02, 0.9580000000000001, -0.022, 192.0, 0.0, 0.0, 0.0, 0.0, 0.0, 0.0, 0.0, 0.0, 0.0, 1.6664049228593638E9, 0.0, 2022-10-21 19:15:22.859
27.0, -133913.1455317909, -159558.7101052654, -39566.92392431783, -109707.01094949376, 62236.42077880154, -62892.86916170945, 57193.48725002853, -118695.09442986184, 0.02, 0.9580000000000001, -0.022, 192.0, 0.0, 0.0, 0.0, 0.0, 0.0, 0.0, 0.0, 0.0, 0.0, 1.666404922859378E9, 0.0, 2022-10-21 19:15:22.859
28.0, -133870.72192081474, -159512.93373262094, -39526.28845289808, -109665.32494608461, 62261.90176748059, -62863.454266006265, 57226.56783182238, -118659.71161838909, 0.02, 0.9580000000000001, -0.022, 192.0, 0.0, 0.0, 0.0, 0.0, 0.0, 0.0, 0.0, 0.0, 0.0, 1.666404922859408E9, 0.0, 2022-10-21 19:15:22.859
29.0, -133848.839562993, -159487.87742708653, -39508.42940907829, -109631.5291084682, 62280.85604677869, -62828.00439930015, 57257.54734963743, -118637.69515010061, 0.02, 0.9580000000000001, -0.022, 192.0, 0.0, 0.0, 0.0, 0.0, 0.0, 0.0, 0.0, 0.0, 0.0, 1.6664049228594224E9, 0.0, 2022-10-21 19:15:22.859
30.0, -133850.76181301617, -159489.6879183874, -39517.07953418249, -109651.39980928897, 62277.3021194103, -62811.799384570055, 57257.14501823724, -118641.6514088692, 0.02, 0.9580000000000001, -0.022, 192.0, 0.0, 0.0, 0.0, 0.0, 0.0, 0.0, 0.0, 0.0, 0.0, 1.6664049228594384E9, 0.0, 2022-10-21 19:15:22.859
31.0, -133848.92896997082, -159489.33029047612, -39517.23599639368, -109661.30163208266, 62277.682099066034, -62826.328018466, 57247.33260242136, -118641.38318793575, 0.02, 0.9580000000000001, -0.022, 192.0, 0.0, 0.0, 0.0, 0.0, 0.0, 0.0, 0.0, 0.0, 0.0, 1.6664049228594532E9, 0.0, 2022-10-21 19:15:22.859
32.0, -133855.7909555186, -159499.2991685032, -39524.2767958971, -109646.70594295335, 62271.98240422993, -62804.244494944156, 57251.33356467886, -118639.9079728017, 0.02, 0.9580000000000001, -0.022, 192.0, 0.0, 0.0, 0.0, 0.0, 0.0, 0.0, 0.0, 0.0, 0.0, 1.66640492285947E9, 0.0, 2022-10-21 19:15:22.859
33.0, -133861.356539888, -159504.9988633393, -39535.47501986921, -109653.99261164578, 62256.11266566667, -62793.068622716506, 57250.372439667284, -118645.07122577087, 0.004, 0.9500000000000001, -0.032, 192.0, 0.0, 32.0, 29.0, 176.0, 255.0, 0.0, 0.0, 0.0, 0.0, 1.6664049228594851E9, 0.0, 2022-10-21 19:15:22.859
34.0, -133854.6957200403, -159499.36622373655, -39530.3788221334, -109659.82641694862, 62263.622851803644, -62777.64591904234, 57254.708678091614, -118634.32003668786, 0.004, 0.9500000000000001, -0.032, 192.0, 0.0, 0.0, 0.0, 0.0, 0.0, 0.0, 0.0, 0.0, 0.0, 1.666404922859501E9, 0.0, 2022-10-21 19:15:22.859
35.0, -133853.51107758417, -159499.03094756973, -39529.752973288654, -109676.47846656782, 62262.08058143623, -62783.45737260072, 57244.359820408805, -118637.09165300032, 0.004, 0.9500000000000001, -0.032, 192.0, 0.0, 0.0, 0.0, 0.0, 0.0, 0.0, 0.0, 0.0, 0.0, 1.666404922859516E9, 0.0, 2022-10-21 19:15:22.859
36.0, -133853.600484562, -159500.66262491496, -39529.82002852202, -109670.0858676536, 62258.92898546803, -62792.979215738684, 57241.65525932971, -118650.34623746232, 0.004, 0.9500000000000001, -0.032, 192.0, 0.0, 0.0, 0.0, 0.0, 0.0, 0.0, 0.0, 0.0, 0.0, 1.666404922859531E9, 0.0, 2022-10-21 19:15:22.859
37.0, -133863.3905486334, -159514.54305822172, -39541.68880482779, -109656.40660004695, 62250.7929504863, -62767.58763403745, 57244.51628261999, -118661.11977828978, 0.004, 0.9500000000000001, -0.032, 192.0, 0.0, 0.0, 0.0, 0.0, 0.0, 0.0, 0.0, 0.0, 0.0, 1.666404922859546E9, 0.0, 2022-10-21 19:15:22.859
38.0, -133880.28846744163, -159532.87148867507, -39565.5381161616, -109680.90411196997, 62229.64820023158, -62746.80051169402, 57227.68541904514, -118681.14694132173, 0.004, 0.9500000000000001, -0.032, 192.0, 0.0, 0.0, 0.0, 0.0, 0.0, 0.0, 0.0, 0.0, 0.0, 1.666404922859561E9, 0.0, 2022-10-21 19:15:22.859
39.0, -133884.35648493248, -159540.0016951563, -39577.161023278364, -109713.40354840798, 62219.947543137976, -62755.49534028713, 57207.56884903537, -118687.80776116942, 0.004, 0.9500000000000001, -0.032, 192.0, 0.0, 0.0, 0.0, 0.0, 0.0, 0.0, 0.0, 0.0, 0.0, 1.666404922859576E9, 0.0, 2022-10-21 19:15:22.859
40.0, -133867.57032484654, -159525.47306126036, -39564.420528938834, -109697.46675461135, 62234.09619737819, -62752.25433734112, 57219.57173580787, -118659.64456315573, 0.004, 0.9500000000000001, -0.032, 192.0, 0.0, 0.0, 0.0, 0.0, 0.0, 0.0, 0.0, 0.0, 0.0, 1.6664049228595908E9, 0.0, 2022-10-21 19:15:22.859
41.0, -133880.48963314173, -159537.43124454396, -39583.1959942813, -109696.81855402215, 62213.7337581794, -62747.202843094215, 57212.15095664871, -118674.95550810761, 0.004, 0.9500000000000001, -0.032, 192.0, 0.0, 0.0, 0.0, 0.0, 0.0, 0.0, 0.0, 0.0, 0.0, 1.6664049228596056E9, 0.0, 2022-10-21 19:15:22.859
42.0, -133849.6442257934, -159506.0493953287, -39554.988092778694, -109673.37157408852, 62241.13699688161, -62711.752976388096, 57242.63873608575, -118653.72135087507, 0.004, 0.9500000000000001, -0.032, 192.0, 0.0, 0.0, 0.0, 0.0, 0.0, 0.0, 0.0, 0.0, 0.0, 1.6664049228596208E9, 0.0, 2022-10-21 19:15:22.859
43.0, -133847.7443275147, -159504.64123542802, -39551.16594447684, -109694.80689702118, 62243.03689516031, -62731.62367720887, 57232.71456154759, -118649.83214733985, -0.004, 0.9560000000000001, -0.028, 192.0, 255.0, 224.0, 29.0, 224.0, 255.0, 32.0, 0.0, 0.0, 0.0, 1.6664049228596745E9, 0.0, 2022-10-21 19:15:22.859
44.0, -133855.96976947424, -159514.72187217735, -39547.030871752606, -109684.52509457173, 62252.02229643134, -62750.77912220707, 57233.49687260352, -118653.60959215279, -0.004, 0.9560000000000001, -0.028, 192.0, 0.0, 0.0, 0.0, 0.0, 0.0, 0.0, 0.0, 0.0, 0.0, 1.666404922859691E9, 0.0, 2022-10-21 19:15:22.859
45.0, -133847.07377518105, -159508.7539564078, -39531.11642970043, -109646.14714934197, 62264.338107626216, -62714.16696478927, 57262.84471307334, -118642.97016179207, -0.004, 0.9560000000000001, -0.028, 192.0, 0.0, 0.0, 0.0, 0.0, 0.0, 0.0, 0.0, 0.0, 0.0, 1.666404922859706E9, 0.0, 2022-10-21 19:15:22.859
46.0, -133842.4469640788, -159505.31178776166, -39529.261234910635, -109643.10731209605, 62263.153465170086, -62700.24182799362, 57265.43751543016, -118640.3550076908, -0.004, 0.9560000000000001, -0.028, 192.0, 0.0, 0.0, 0.0, 0.0, 0.0, 0.0, 0.0, 0.0, 0.0, 1.666404922859723E9, 0.0, 2022-10-21 19:15:22.859
47.0, -133847.4984583257, -159511.83849714263, -39536.123220458416, -109658.23944309229, 62265.098066937695, -62716.89387761282, 57255.46863740309, -118642.43371992515, -0.004, 0.9560000000000001, -0.028, 192.0, 0.0, 0.0, 0.0, 0.0, 0.0, 0.0, 0.0, 0.0, 0.0, 1.6664049228597388E9, 0.0, 2022-10-21 19:15:22.859
48.0, -133853.10874618398, -159519.46044200187, -39546.1368019744, -109681.66407128146, 62255.6432790331, -62748.2086715947, 57237.74370405003, -118645.0041705375, -0.004, 0.9560000000000001, -0.028, 192.0, 0.0, 0.0, 0.0, 0.0, 0.0, 0.0, 0.0, 0.0, 0.0, 1.6664049228597536E9, 0.0, 2022-10-21 19:15:22.859
49.0, -133854.7851270181, -159523.01436937027, -39550.89772354338, -109666.06255365165, 62253.81043598777, -62749.929755917765, 57245.14213146474, -118635.52703088845, -0.004, 0.9560000000000001, -0.028, 192.0, 0.0, 0.0, 0.0, 0.0, 0.0, 0.0, 0.0, 0.0, 0.0, 1.6664049228597689E9, 0.0, 2022-10-21 19:15:22.859
50.0, -133862.1388509439, -159529.87635491806, -39555.88216255691, -109653.94790815687, 62252.93871795401, -62715.50806945659, 57257.59205312635, -118643.37249319226, -0.004, 0.9560000000000001, -0.028, 192.0, 0.0, 0.0, 0.0, 0.0, 0.0, 0.0, 0.0, 0.0, 0.0, 1.666404922859784E9, 0.0, 2022-10-21 19:15:22.859
51.0, -133877.15922321787, -159544.0473609027, -39573.00359880967, -109690.04597545219, 62239.50531953637, -62747.64987798332, 57227.12662543376, -118672.94385110664, -0.004, 0.9560000000000001, -0.028, 192.0, 0.0, 0.0, 0.0, 0.0, 0.0, 0.0, 0.0, 0.0, 0.0, 1.6664049228597994E9, 0.0, 2022-10-21 19:15:22.859
52.0, -133864.48578411172, -159533.63144798655, -39565.471060928234, -109692.61642606455, 62254.27982262133, -62777.44475334224, 57227.596012067326, -118666.32773474786, -0.004, 0.9560000000000001, -0.028, 192.0, 0.0, 0.0, 0.0, 0.0, 0.0, 0.0, 0.0, 0.0, 0.0, 1.666404922859815E9, 0.0, 2022-10-21 19:15:22.859
53.0, -133844.2351036352, -159514.92303787745, -39546.56148511905, -109654.66316397944, 62281.07956422324, -62756.99290716564, 57263.29174796245, -118637.2034117226, -0.004, 0.978, -0.032, 192.0, 255.0, 224.0, 30.0, 144.0, 255.0, 0.0, 0.0, 0.0, 0.0, 1.6664049228598309E9, 0.0, 2022-10-21 19:15:22.859
54.0, -133865.22339167874, -159535.88897417655, -39570.14257551939, -109658.9323471704, 62260.627718046635, -62731.109587086394, 57259.35784093831, -118651.57558340736, -0.004, 0.978, -0.032, 192.0, 0.0, 0.0, 0.0, 0.0, 0.0, 0.0, 0.0, 0.0, 0.0, 1.6664049228598468E9, 0.0, 2022-10-21 19:15:22.859
55.0, -133854.9862927182, -159527.81999442817, -39564.46523242775, -109672.90218745497, 62264.60632855968, -62742.28545931405, 57255.826265314376, -118634.92353378815, -0.004, 0.978, -0.032, 192.0, 0.0, 0.0, 0.0, 0.0, 0.0, 0.0, 0.0, 0.0, 0.0, 1.6664049228598619E9, 0.0, 2022-10-21 19:15:22.859
56.0, -133850.71710952726, -159525.29424730473, -39565.22519173923, -109674.44445782239, 62275.446924620504, -62759.98804092265, 57253.456980402116, -118641.42789142465, -0.004, 0.978, -0.032, 192.0, 0.0, 0.0, 0.0, 0.0, 0.0, 0.0, 0.0, 0.0, 0.0, 1.6664049228598769E9, 0.0, 2022-10-21 19:15:22.859
57.0, -133854.6510165514, -159529.13874735104, -39573.40593020987, -109673.25981536625, 62265.7462675269, -62774.606081796424, 57245.343297164836, -118656.40356020971, -0.004, 0.978, -0.032, 192.0, 0.0, 0.0, 0.0, 0.0, 0.0, 0.0, 0.0, 0.0, 0.0, 1.6664049228598921E9, 0.0, 2022-10-21 19:15:22.859
58.0, -133855.16510667387, -159530.68101771845, -39574.81409011055, -109660.8322454491, 62263.24287214791, -62771.78976199505, 57250.05951524491, -118655.17421426467, -0.004, 0.978, -0.032, 192.0, 0.0, 0.0, 0.0, 0.0, 0.0, 0.0, 0.0, 0.0, 0.0, 1.6664049228599496E9, 0.0, 2022-10-21 19:15:22.859
59.0, -133856.46150785228, -159531.70919796338, -39580.17850877983, -109683.31810037114, 62255.531520310826, -62801.606989098436, 57236.51435810499, -118653.74370261953, -0.004, 0.978, -0.032, 192.0, 0.0, 0.0, 0.0, 0.0, 0.0, 0.0, 0.0, 0.0, 0.0, 1.6664049228599653E9, 0.0, 2022-10-21 19:15:22.859
60.0, -133859.61310382048, -159532.62561948606, -39585.02883732663, -109697.645568567, 62258.63841279011, -62836.878041848904, 57230.63584931324, -118650.23447874004, -0.004, 0.978, -0.032, 192.0, 0.0, 0.0, 0.0, 0.0, 0.0, 0.0, 0.0, 0.0, 0.0, 1.6664049228599808E9, 0.0, 2022-10-21 19:15:22.859
61.0, -133862.7423480442, -159535.73251196535, -39591.555546707576, -109699.25489416778, 62252.4916830649, -62856.72639092522, 57226.389017866735, -118650.63681014023, -0.004, 0.978, -0.032, 192.0, 0.0, 0.0, 0.0, 0.0, 0.0, 0.0, 0.0, 0.0, 0.0, 1.666404922859996E9, 0.0, 2022-10-21 19:15:22.859
62.0, -133863.0552724666, -159535.66545673198, -39594.72949442023, -109679.7418212583, 62254.36922959915, -62828.76435861163, 57242.72814306356, -118652.04497004092, -0.01, 0.972, -0.016, 192.0, 255.0, 176.0, 30.0, 96.0, 255.0, 128.0, 0.0, 0.0, 0.0, 1.6664049228600109E9, 0.0, 2022-10-21 19:15:22.860
63.0, -133853.01933920616, -159525.71893044937, -39587.24166002771, -109688.88368474052, 62258.63841279011, -62833.4805766917, 57242.16934945218, -118641.47259491356, -0.01, 0.972, -0.016, 192.0, 0.0, 0.0, 0.0, 0.0, 0.0, 0.0, 0.0, 0.0, 0.0, 1.6664049228600276E9, 0.0, 2022-10-21 19:15:22.860
64.0, -133845.46444958026, -159518.40991001247, -39579.17268027934, -109696.79620227769, 62272.56354958577, -62867.030545119116, 57236.91668950519, -118620.75252780349, -0.01, 0.972, -0.016, 192.0, 0.0, 0.0, 0.0, 0.0, 0.0, 0.0, 0.0, 0.0, 0.0, 1.6664049228600423E9, 0.0, 2022-10-21 19:15:22.860
65.0, -133864.57519108953, -159539.06292188918, -39600.33978227851, -109711.9506850184, 62253.96689819895, -62900.28994086861, 57218.208279396094, -118640.62322862426, -0.01, 0.972, -0.016, 192.0, 0.0, 0.0, 0.0, 0.0, 0.0, 0.0, 0.0, 0.0, 0.0, 1.6664049228600583E9, 0.0, 2022-10-21 19:15:22.860
66.0, -133864.06110096708, -159540.51578527878, -39599.1998433113, -109698.40552787848, 62255.68798252201, -62898.23358037873, 57229.540613834935, -118637.4045774227, -0.01, 0.972, -0.016, 192.0, 0.0, 0.0, 0.0, 0.0, 0.0, 0.0, 0.0, 0.0, 0.0, 1.6664049228600733E9, 0.0, 2022-10-21 19:15:22.860
67.0, -133871.68304582633, -159548.4506545604, -39606.71002944828, -109699.92544650144, 62257.11849416715, -62884.91194068336, 57236.42495112717, -118646.72525486056, -0.01, 0.972, -0.016, 192.0, 0.0, 0.0, 0.0, 0.0, 0.0, 0.0, 0.0, 0.0, 0.0, 1.66640492286009E9, 0.0, 2022-10-21 19:15:22.860
68.0, -133896.44877868282, -159574.17751242846, -39635.72259375126, -109750.52979594826, 62233.62681074462, -62928.07315922656, 57201.8020989659, -118675.44724648562, -0.01, 0.972, -0.016, 192.0, 0.0, 0.0, 0.0, 0.0, 0.0, 0.0, 0.0, 0.0, 0.0, 1.6664049228601072E9, 0.0, 2022-10-21 19:15:22.860
69.0, -133858.0484817086, -159537.34183756614, -39600.94327937881, -109714.00704550828, 62276.072773465254, -62911.71168228528, 57237.631945327754, -118633.247152954, -0.01, 0.972, -0.016, 192.0, 0.0, 0.0, 0.0, 0.0, 0.0, 0.0, 0.0, 0.0, 0.0, 1.666404922860122E9, 0.0, 2022-10-21 19:15:22.860
70.0, -133859.1437171869, -159536.87245093257, -39601.92675613484, -109697.71262380035, 62279.291424666815, -62906.43667059382, 57247.354954165814, -118635.92936228865, -0.01, 0.972, -0.016, 192.0, 0.0, 0.0, 0.0, 0.0, 0.0, 0.0, 0.0, 0.0, 0.0, 1.6664049228601372E9, 0.0, 2022-10-21 19:15:22.860
71.0, -133865.46926086774, -159541.6110207571, -39605.815959670064, -109703.27820816974, 62281.92893051254, -62900.73697575772, 57249.6124803558, -118641.07026351336, -0.01, 0.972, -0.016, 192.0, 0.0, 0.0, 0.0, 0.0, 0.0, 0.0, 0.0, 0.0, 0.0, 1.6664049228601522E9, 0.0, 2022-10-21 19:15:22.860
72.0, -133866.18451669032, -159541.83453820166, -39602.73141893523, -109726.05463576969, 62289.23795094943, -62923.31223765758, 57241.58820409635, -118632.88952504273, -0.002, 0.98, 0.006, 192.0, 255.0, 240.0, 30.0, 160.0, 0.0, 48.0, 0.0, 0.0, 0.0, 1.6664049228601675E9, 0.0, 2022-10-21 19:15:22.860
73.0, -133858.8978479979, -159536.49247127684, -39596.13765432092, -109730.79320559421, 62297.396337675615, -62948.63676412544, 57240.3588581513, -118618.51735335797, -0.002, 0.98, 0.006, 192.0, 0.0, 0.0, 0.0, 0.0, 0.0, 0.0, 0.0, 0.0, 0.0, 1.6664049228601987E9, 0.0, 2022-10-21 19:15:22.860
74.0, -133873.91822027185, -159552.58572728466, -39607.4476370153, -109717.62802811003, 62294.669424852065, -62967.00989806771, 57238.973049995075, -118624.06058598288, -0.002, 0.98, 0.006, 192.0, 0.0, 0.0, 0.0, 0.0, 0.0, 0.0, 0.0, 0.0, 0.0, 1.6664049228602145E9, 0.0, 2022-10-21 19:15:22.860
75.0, -133874.9464005168, -159550.39525632802, -39607.157064337385, -109722.05367351219, 62294.736480085434, -62978.92337786238, 57239.66595407319, -118628.50858312949, -0.002, 0.98, 0.006, 192.0, 0.0, 0.0, 0.0, 0.0, 0.0, 0.0, 0.0, 0.0, 0.0, 1.6664049228602295E9, 0.0, 2022-10-21 19:15:22.860
76.0, -133860.9542084878, -159533.63144798655, -39592.02493334114, -109711.57070536265, 62321.29035249834, -62967.27811900117, 57256.72033509259, -118612.01299572147, -0.002, 0.98, 0.006, 192.0, 0.0, 0.0, 0.0, 0.0, 0.0, 0.0, 0.0, 0.0, 0.0, 1.6664049228602452E9, 0.0, 2022-10-21 19:15:22.860
77.0, -133874.56642086105, -159542.8627184466, -39605.99477362571, -109730.36852244956, 62313.556648916805, -62986.09828783254, 57240.89530001823, -118628.50858312949, -0.002, 0.98, 0.006, 192.0, 0.0, 0.0, 0.0, 0.0, 0.0, 0.0, 0.0, 0.0, 0.0, 1.6664049228602605E9, 0.0, 2022-10-21 19:15:22.860
78.0, -133882.0542552536, -159545.6566865035, -39607.26882305966, -109728.26745847077, 62312.215544249484, -63003.622055485495, 57236.51435810499, -118639.48328965704, -0.002, 0.98, 0.006, 192.0, 0.0, 0.0, 0.0, 0.0, 0.0, 0.0, 0.0, 0.0, 0.0, 1.6664049228602755E9, 0.0, 2022-10-21 19:15:22.860
79.0, -133888.58096463454, -159538.3476660666, -39604.65366895839, -109719.66203685547, 62314.607180906205, -63008.874715432496, 57242.90695701921, -118628.50858312949, -0.002, 0.98, 0.006, 192.0, 0.0, 0.0, 0.0, 0.0, 0.0, 0.0, 0.0, 0.0, 0.0, 1.6664049228602908E9, 0.0, 2022-10-21 19:15:22.860
80.0, -133907.78111312166, -159544.650858003, -39616.723610964254, -109747.42290346896, 62306.09116626873, -63026.063206918625, 57231.95460223611, -118637.8516123118, -0.002, 0.98, 0.006, 192.0, 0.0, 0.0, 0.0, 0.0, 0.0, 0.0, 0.0, 0.0, 0.0, 1.6664049228603058E9, 0.0, 2022-10-21 19:15:22.860
81.0, -133901.27675548516, -159529.0046368843, -39602.664363701864, -109758.41996174098, 62319.457509453, -63054.89695726597, 57229.27239290147, -118622.56301910437, -0.002, 0.98, 0.006, 192.0, 0.0, 0.0, 0.0, 0.0, 0.0, 0.0, 0.0, 0.0, 0.0, 1.666404922860321E9, 0.0, 2022-10-21 19:15:22.860
82.0, -133910.4633224563, -159531.53038400775, -39601.56912822356, -109752.49674946032, 62319.16693677509, -63081.29436746769, 57226.03138995545, -118614.18111493363, 0.01, 0.9560000000000001, 0.028, 192.0, 0.0, 80.0, 29.0, 224.0, 0.0, 224.0, 0.0, 0.0, 0.0, 1.6664049228603363E9, 0.0, 2022-10-21 19:15:22.860
83.0, -133923.9637761073, -159541.23104110136, -39603.42432301334, -109745.43359821245, 62316.12709952916, -63083.328376213125, 57229.71942779058, -118624.28410342743, 0.01, 0.9560000000000001, 0.028, 192.0, 0.0, 0.0, 0.0, 0.0, 0.0, 0.0, 0.0, 0.0, 0.0, 1.666404922860352E9, 0.0, 2022-10-21 19:15:22.860
84.0, -133931.69747968882, -159547.62364001558, -39602.84317765751, -109756.96709835138, 62313.690759383535, -63088.51398092676, 57224.779692265955, -118634.87883029925, 0.01, 0.9560000000000001, 0.028, 192.0, 0.0, 0.0, 0.0, 0.0, 0.0, 0.0, 0.0, 0.0, 0.0, 1.6664049228603673E9, 0.0, 2022-10-21 19:15:22.860
85.0, -133935.18435182385, -159550.7081807504, -39606.307698048084, -109783.96800565338, 62304.28067496785, -63114.82198415065, 57208.015883924476, -118634.58825762133, 0.01, 0.9560000000000001, 0.028, 192.0, 0.0, 0.0, 0.0, 0.0, 0.0, 0.0, 0.0, 0.0, 0.0, 1.6664049228603823E9, 0.0, 2022-10-21 19:15:22.860
86.0, -133912.0055928237, -159524.22136357086, -39575.6411046554, -109762.1079995761, 62329.7616636469, -63133.84331868212, 57229.07122720138, -118590.488265811, 0.01, 0.9560000000000001, 0.028, 192.0, 0.0, 0.0, 0.0, 0.0, 0.0, 0.0, 0.0, 0.0, 0.0, 1.666404922860398E9, 0.0, 2022-10-21 19:15:22.860
87.0, -133918.3981917379, -159529.02698862876, -39572.66832264284, -109736.69406613041, 62336.7130561725, -63112.743271916304, 57250.014811755995, -118580.67584999512, 0.01, 0.9560000000000001, 0.028, 192.0, 0.0, 0.0, 0.0, 0.0, 0.0, 0.0, 0.0, 0.0, 0.0, 1.6664049228604133E9, 0.0, 2022-10-21 19:15:22.860
88.0, -133927.94238662033, -159538.63823874455, -39577.786872123106, -109749.4569122144, 62331.05806482531, -63095.19715251889, 57252.85348330182, -118587.53783554291, 0.01, 0.9560000000000001, 0.028, 192.0, 0.0, 0.0, 0.0, 0.0, 0.0, 0.0, 0.0, 0.0, 0.0, 1.666404922860444E9, 0.0, 2022-10-21 19:15:22.860
89.0, -133934.0220611122, -159543.53327078026, -39582.681904158824, -109777.10602010561, 62329.7616636469, -63118.688835941415, 57235.41912262668, -118595.80798099138, 0.01, 0.9560000000000001, 0.028, 192.0, 0.0, 0.0, 0.0, 0.0, 0.0, 0.0, 0.0, 0.0, 0.0, 1.666404922860463E9, 0.0, 2022-10-21 19:15:22.860
90.0, -133927.94238662033, -159542.0580556462, -39581.96664833625, -109780.03409862926, 62327.52648920137, -63132.479862270346, 57227.48425334505, -118593.08106816783, 0.01, 0.9560000000000001, 0.028, 192.0, 0.0, 0.0, 0.0, 0.0, 0.0, 0.0, 0.0, 0.0, 0.0, 1.666404922860478E9, 0.0, 2022-10-21 19:15:22.860
91.0, -133919.33696500506, -159537.76652071078, -39576.73634013371, -109770.24403455784, 62324.57605893327, -63132.52456575925, 57234.05566621491, -118578.0383441494, 0.01, 0.9480000000000001, 0.04, 192.0, 0.0, 80.0, 29.0, 160.0, 1.0, 64.0, 0.0, 0.0, 0.0, 1.666404922860494E9, 0.0, 2022-10-21 19:15:22.860
92.0, -133923.852017385, -159543.77913996927, -39582.592497181, -109778.93886315095, 62318.63049490816, -63109.748138159295, 57235.01679122649, -118594.55628330188, 0.01, 0.9480000000000001, 0.04, 192.0, 0.0, 0.0, 0.0, 0.0, 0.0, 0.0, 0.0, 0.0, 0.0, 1.6664049228605099E9, 0.0, 2022-10-21 19:15:22.860
93.0, -133922.42150573988, -159543.3097533357, -39580.513784946656, -109814.27697113478, 62315.72476812897, -63140.54884201871, 57216.04016018393, -118604.97219621805, 0.01, 0.9480000000000001, 0.04, 192.0, 0.0, 0.0, 0.0, 0.0, 0.0, 0.0, 0.0, 0.0, 0.0, 1.666404922860525E9, 0.0, 2022-10-21 19:15:22.860
94.0, -133914.0619533136, -159540.06875038968, -39566.92392431783, -109814.7687095128, 62323.10084379922, -63160.35248760611, 57221.56104106439, -118594.80215249088, 0.01, 0.9480000000000001, 0.04, 192.0, 0.0, 0.0, 0.0, 0.0, 0.0, 0.0, 0.0, 0.0, 0.0, 1.66640492286054E9, 0.0, 2022-10-21 19:15:22.860
95.0, -133921.52743596167, -159547.46717780438, -39574.63527615491, -109798.5189912938, 62317.870535596674, -63154.33986834763, 57227.9089364897, -118595.56211180236, 0.01, 0.9480000000000001, 0.04, 192.0, 0.0, 0.0, 0.0, 0.0, 0.0, 0.0, 0.0, 0.0, 0.0, 1.6664049228605547E9, 0.0, 2022-10-21 19:15:22.860
96.0, -133930.82576165508, -159560.29707912172, -39590.102683317986, -109810.87950597757, 62302.224314477964, -63132.72573145935, 57221.784558508945, -118610.51542884296, 0.01, 0.9480000000000001, 0.04, 192.0, 0.0, 0.0, 0.0, 0.0, 0.0, 0.0, 0.0, 0.0, 0.0, 1.66640492286057E9, 0.0, 2022-10-21 19:15:22.860
97.0, -133923.6508516849, -159554.7538464968, -39585.207651282275, -109838.86389003563, 62300.88320981064, -63166.36510686459, 57206.74183449052, -118610.67189105415, 0.01, 0.9480000000000001, 0.04, 192.0, 0.0, 0.0, 0.0, 0.0, 0.0, 0.0, 0.0, 0.0, 0.0, 1.6664049228605852E9, 0.0, 2022-10-21 19:15:22.860
98.0, -133928.70234593182, -159559.53711981024, -39589.678000173335, -109845.21178546092, 62302.98427378944, -63190.19206645394, 57201.51152628798, -118615.96925449006, 0.01, 0.9480000000000001, 0.04, 192.0, 0.0, 0.0, 0.0, 0.0, 0.0, 0.0, 0.0, 0.0, 0.0, 1.6664049228606E9, 0.0, 2022-10-21 19:15:22.860
99.0, -133938.40300302542, -159572.3223176387, -39599.8480439005, -109837.9698202574, 62297.35163418671, -63180.82668552717, 57208.7534914915, -118619.05379522489, 0.01, 0.9480000000000001, 0.04, 192.0, 0.0, 0.0, 0.0, 0.0, 0.0, 0.0, 0.0, 0.0, 0.0, 1.6664049228606155E9, 0.0, 2022-10-21 19:15:22.860
100.0, -133930.69165118833, -159563.44867508992, -39592.36020950797, -109829.96789574242, 62303.99010228993, -63171.55071157822, 57218.141224162726, -118608.07908869733, 0.01, 0.9480000000000001, 0.04, 192.0, 0.0, 0.0, 0.0, 0.0, 0.0, 0.0, 0.0, 0.0, 0.0, 1.6664049228606305E9, 0.0, 2022-10-21 19:15:22.860
101.0, -133925.1037150745, -159558.5536430542, -39592.51667171916, -109844.675343594, 62306.89582906912, -63184.26885417329, 57207.56884903537, -118613.30939689987, 0.018000000000000002, 0.9420000000000001, 0.056, 192.0, 0.0, 144.0, 29.0, 112.0, 1.0, 192.0, 0.0, 0.0, 0.0, 1.6664049228606455E9, 0.0, 2022-10-21 19:15:22.860
102.0, -133924.4555144853, -159560.74411401083, -39593.36603800846, -109862.26616648033, 62304.3030267123, -63203.44665091595, 57198.426985553146, -118614.35992888927, 0.018000000000000002, 0.9420000000000001, 0.056, 192.0, 0.0, 0.0, 0.0, 0.0, 0.0, 0.0, 0.0, 0.0, 0.0, 1.6664049228606615E9, 0.0, 2022-10-21 19:15:22.860
103.0, -133924.03083134067, -159561.63818378904, -39588.35924725047, -109858.13109375609, 62300.32441619926, -63218.802299356736, 57200.05866289839, -118610.15780093167, 0.018000000000000002, 0.9420000000000001, 0.056, 192.0, 0.0, 0.0, 0.0, 0.0, 0.0, 0.0, 0.0, 0.0, 0.0, 1.666404922860694E9, 0.0, 2022-10-21 19:15:22.860
104.0, -133932.99388086723, -159568.54487282573, -39595.91413687637, -109847.7822360733, 62295.80936381929, -63210.37569169709, 57206.07128215686, -118608.05673695287, 0.018000000000000002, 0.9420000000000001, 0.056, 192.0, 0.0, 0.0, 0.0, 0.0, 0.0, 0.0, 0.0, 0.0, 0.0, 1.6664049228607097E9, 0.0, 2022-10-21 19:15:22.860
0.0, 0.0, 0.0, 0.0, 0.0, 0.0, 0.0, 0.0, 0.0, 0.024, 0.9540000000000001, 0.04, 192.0, 0.0, 192.0, 29.0, 208.0, 1.0, 64.0, 0.0, 0.0, 0.0, 1.6664049229373784E9, 0.0, 2022-10-21 19:15:22.937
1.0, -134008.40866665944, -159647.60299296415, -39965.18730702249, -110306.37297706283, 62180.80963859674, -64483.19577970455, 57253.88166354677, -118766.82117781893, 0.024, 0.9540000000000001, 0.04, 192.0, 0.0, 0.0, 0.0, 0.0, 0.0, 0.0, 0.0, 0.0, 0.0, 1.6664049234156847E9, 0.0, 2022-10-21 19:15:23.415
2.0, -134004.7876840577, -159645.07724584072, -39962.773318621315, -110296.71702345813, 62179.177961251495, -64489.409564663125, 57257.077963003874, -118764.72011384013, 0.024, 0.9540000000000001, 0.04, 192.0, 0.0, 0.0, 0.0, 0.0, 0.0, 0.0, 0.0, 0.0, 0.0, 1.6664049234158869E9, 0.0, 2022-10-21 19:15:23.415
3.0, -134007.84987304805, -159652.49802499986, -39965.500231444865, -110286.97166287561, 62175.04288852726, -64472.28812841036, 57264.81166658541, -118770.95625054315, 0.024, 0.9540000000000001, 0.04, 192.0, 0.0, 0.0, 0.0, 0.0, 0.0, 0.0, 0.0, 0.0, 0.0, 1.666404923415915E9, 0.0, 2022-10-21 19:15:23.415
4.0, -134008.85570154854, -159652.74389418887, -39965.90256284506, -110295.71119495765, 62177.81450483972, -64460.30759338231, 57266.08571601936, -118767.42467491922, 0.024, 0.9540000000000001, 0.04, 192.0, 0.0, 0.0, 0.0, 0.0, 0.0, 0.0, 0.0, 0.0, 0.0, 1.6664049234159417E9, 0.0, 2022-10-21 19:15:23.415
5.0, -134006.128788725, -159648.31824878673, -39970.395263480576, -110310.2845323425, 62175.624033883105, -64486.70500358403, 57253.38992516875, -118767.75995108605, 0.024, 0.9540000000000001, 0.04, 192.0, 0.0, 0.0, 0.0, 0.0, 0.0, 0.0, 0.0, 0.0, 0.0, 1.6664049234159784E9, 0.0, 2022-10-21 19:15:23.415
6.0, -134009.6827160934, -159653.61561222264, -39973.6362664266, -110298.92984615921, 62172.83006582619, -64497.34443394476, 57253.6134426133, -118769.70455285365, 0.024, 0.9540000000000001, 0.04, 192.0, 0.0, 0.0, 0.0, 0.0, 0.0, 0.0, 0.0, 0.0, 0.0, 1.6664049234160044E9, 0.0, 2022-10-21 19:15:23.416
7.0, -134020.41155343194, -159666.82549319573, -39981.034693841306, -110295.66649146873, 62161.60949010962, -64478.27839592438, 57259.02256477148, -118786.75893387306, 0.026000000000000002, 0.96, 0.03, 192.0, 0.0, 208.0, 30.0, 0.0, 0.0, 240.0, 0.0, 0.0, 0.0, 1.66640492341603E9, 0.0, 2022-10-21 19:15:23.416
8.0, -134007.00050675875, -159654.01794362284, -39968.85299311316, -110295.10769785735, 62177.725097861905, -64455.65843053561, 57269.84080908785, -118771.40328543226, 0.026000000000000002, 0.96, 0.03, 192.0, 0.0, 0.0, 0.0, 0.0, 0.0, 0.0, 0.0, 0.0, 0.0, 1.6664049234160576E9, 0.0, 2022-10-21 19:15:23.416
9.0, -134008.5874806151, -159658.06360936924, -39975.357350749655, -110315.49248880059, 62175.8251995832, -64487.33085242878, 57249.388962911245, -118765.83770106289, 0.026000000000000002, 0.96, 0.03, 192.0, 0.0, 0.0, 0.0, 0.0, 0.0, 0.0, 0.0, 0.0, 0.0, 1.666404923416083E9, 0.0, 2022-10-21 19:15:23.416
10.0, -134027.18413200192, -159680.66122301357, -39996.7926736823, -110320.20870688066, 62157.787341807765, -64513.325931230305, 57236.581413338354, -118777.6394221353, 0.026000000000000002, 0.96, 0.03, 192.0, 0.0, 0.0, 0.0, 0.0, 0.0, 0.0, 0.0, 0.0, 0.0, 1.6664049234161084E9, 0.0, 2022-10-21 19:15:23.416
11.0, -134006.2405474473, -159661.84105418218, -39979.35831300716, -110288.71509894314, 62171.46660941442, -64490.5718553748, 57259.55900663841, -118776.92416631272, 0.026000000000000002, 0.96, 0.03, 192.0, 0.0, 0.0, 0.0, 0.0, 0.0, 0.0, 0.0, 0.0, 0.0, 1.6664049234161344E9, 0.0, 2022-10-21 19:15:23.416
12.0, -134001.6360880895, -159658.98003089192, -39977.01137983935, -110282.4789622401, 62183.804772353746, -64469.628270820176, 57269.99727129904, -118772.85614882185, 0.026000000000000002, 0.96, 0.03, 192.0, 0.0, 0.0, 0.0, 0.0, 0.0, 0.0, 0.0, 0.0, 0.0, 1.66640492341616E9, 0.0, 2022-10-21 19:15:23.416
13.0, -134017.79639933066, -159674.96152817746, -39994.40103702558, -110309.81514570894, 62170.59489138066, -64464.75559052892, 57251.7135443346, -118791.09517229738, 0.026000000000000002, 0.96, 0.03, 192.0, 0.0, 0.0, 0.0, 0.0, 0.0, 0.0, 0.0, 0.0, 0.0, 1.6664049234162743E9, 0.0, 2022-10-21 19:15:23.416
14.0, -134023.65255637796, -159682.7846387368, -40003.118217363146, -110326.57895405042, 62157.653231341035, -64493.14230598716, 57231.775788280465, -118791.83277986442, 0.026000000000000002, 0.96, 0.03, 192.0, 0.0, 0.0, 0.0, 0.0, 0.0, 0.0, 0.0, 0.0, 0.0, 1.6664049234163003E9, 0.0, 2022-10-21 19:15:23.416
15.0, -134016.94703304136, -159679.4765805574, -39999.05019987228, -110307.75878521905, 62162.34709767665, -64491.935311786576, 57244.069247730884, -118775.67246862322, 0.026000000000000002, 0.96, 0.03, 192.0, 0.0, 0.0, 0.0, 0.0, 0.0, 0.0, 0.0, 0.0, 0.0, 1.666404923416326E9, 0.0, 2022-10-21 19:15:23.416
16.0, -134009.36979167102, -159671.40760080906, -39993.81989166974, -110299.26512232603, 62168.694993101955, -64491.71179434202, 57252.92053853519, -118776.29831746797, 0.026000000000000002, 0.96, 0.03, 192.0, 0.0, 0.0, 0.0, 0.0, 0.0, 0.0, 0.0, 0.0, 0.0, 1.6664049234163516E9, 0.0, 2022-10-21 19:15:23.416
17.0, -134011.71672483883, -159672.36872582065, -39997.463226015956, -110312.05032015448, 62169.45495241344, -64493.41052692063, 57249.07603848887, -118783.87555883832, 0.028, 0.9580000000000001, 0.028, 192.0, 0.0, 224.0, 29.0, 240.0, 0.0, 224.0, 0.0, 0.0, 0.0, 1.666404923416377E9, 0.0, 2022-10-21 19:15:23.416
18.0, -133994.3717711415, -159654.97906863442, -39982.12992931961, -110312.81027946595, 62179.40147869605, -64517.84098361027, 57251.80295131242, -118767.24586096358, 0.028, 0.9580000000000001, 0.028, 192.0, 0.0, 0.0, 0.0, 0.0, 0.0, 0.0, 0.0, 0.0, 0.0, 1.6664049234164035E9, 0.0, 2022-10-21 19:15:23.416
19.0, -133986.66041930442, -159647.60299296415, -39974.70915016045, -110285.27293029701, 62188.31982473372, -64514.04118705287, 57265.50457066352, -118758.43927364818, 0.028, 0.9580000000000001, 0.028, 192.0, 0.0, 0.0, 0.0, 0.0, 0.0, 0.0, 0.0, 0.0, 0.0, 1.6664049234164283E9, 0.0, 2022-10-21 19:15:23.416
20.0, -133994.21530893032, -159656.09665585717, -39984.29804853178, -110280.60141570585, 62182.9777578089, -64486.48148613948, 57274.355861467826, -118767.49173015259, 0.028, 0.9580000000000001, 0.028, 192.0, 0.0, 0.0, 0.0, 0.0, 0.0, 0.0, 0.0, 0.0, 0.0, 1.666404923416454E9, 0.0, 2022-10-21 19:15:23.416
21.0, -134004.69827707985, -159667.36193506265, -39992.52349049133, -110311.96091317665, 62174.68526061598, -64488.62725360719, 57264.90107356323, -118780.6345558923, 0.028, 0.9580000000000001, 0.028, 192.0, 0.0, 0.0, 0.0, 0.0, 0.0, 0.0, 0.0, 0.0, 0.0, 1.6664049234164813E9, 0.0, 2022-10-21 19:15:23.416
22.0, -133997.61277408752, -159661.81870243774, -39986.84614739969, -110322.15330864827, 62180.89904557456, -64523.652437168654, 57257.68146010417, -118770.59862263186, 0.028, 0.9580000000000001, 0.028, 192.0, 0.0, 0.0, 0.0, 0.0, 0.0, 0.0, 0.0, 0.0, 0.0, 1.6664049234165072E9, 0.0, 2022-10-21 19:15:23.416
23.0, -133999.55737585513, -159662.0869233712, -39990.176557323524, -110301.29913107147, 62181.703708374946, -64520.6796551561, 57268.119724764794, -118766.44119816319, 0.028, 0.9580000000000001, 0.028, 192.0, 0.0, 0.0, 0.0, 0.0, 0.0, 0.0, 0.0, 0.0, 0.0, 1.6664049234165323E9, 0.0, 2022-10-21 19:15:23.416
24.0, -134010.55443412715, -159675.65443225557, -40004.25815633037, -110291.35260478886, 62172.338327448175, -64475.57383484529, 57277.44040220266, -118784.90373908327, 0.028, 0.9580000000000001, 0.028, 192.0, 0.0, 0.0, 0.0, 0.0, 0.0, 0.0, 0.0, 0.0, 0.0, 1.6664049234165573E9, 0.0, 2022-10-21 19:15:23.416
25.0, -134009.30273643765, -159675.52032178885, -40003.78876969681, -110315.80541322296, 62167.26448145682, -64489.20839896303, 57261.50360840603, -118787.40713446226, 0.028, 0.9580000000000001, 0.028, 192.0, 0.0, 0.0, 0.0, 0.0, 0.0, 0.0, 0.0, 0.0, 0.0, 1.6664049234165828E9, 0.0, 2022-10-21 19:15:23.416
26.0, -134007.02285850322, -159671.04997289777, -40000.77128419534, -110329.55173606297, 62168.53853089077, -64508.16267826113, 57252.1605792237, -118792.19040777569, 0.028, 0.9580000000000001, 0.028, 192.0, 0.0, 0.0, 0.0, 0.0, 0.0, 0.0, 0.0, 0.0, 0.0, 1.6664049234166083E9, 0.0, 2022-10-21 19:15:23.416
27.0, -134013.70603009535, -159679.61069102417, -40009.30965057727, -110326.46719532815, 62158.837873797165, -64508.0285677944, 57247.153788465715, -118808.37307076134, 0.03, 0.9560000000000001, 0.03, 192.0, 0.0, 240.0, 29.0, 224.0, 0.0, 240.0, 0.0, 0.0, 0.0, 1.666404923416637E9, 0.0, 2022-10-21 19:15:23.416
28.0, -134005.16766371342, -159673.15103687657, -40004.72754296393, -110308.36228231934, 62162.59296686566, -64492.069422253306, 57256.385058925756, -118802.87454162534, 0.03, 0.9560000000000001, 0.03, 192.0, 0.0, 0.0, 0.0, 0.0, 0.0, 0.0, 0.0, 0.0, 0.0, 1.6664049234166636E9, 0.0, 2022-10-21 19:15:23.416
29.0, -134008.7886463152, -159677.15199913408, -40010.4942930334, -110317.3923870793, 62162.414152910016, -64473.3163086553, 57256.22859671457, -118810.42943125122, 0.03, 0.9560000000000001, 0.03, 192.0, 0.0, 0.0, 0.0, 0.0, 0.0, 0.0, 0.0, 0.0, 0.0, 1.6664049234167151E9, 0.0, 2022-10-21 19:15:23.416
30.0, -134009.3921434155, -159675.49797004438, -40012.617708756654, -110338.62654431183, 62156.8709202851, -64478.45720988003, 57245.65622158721, -118811.68112894072, 0.03, 0.9560000000000001, 0.03, 192.0, 0.0, 0.0, 0.0, 0.0, 0.0, 0.0, 0.0, 0.0, 0.0, 1.6664049234167411E9, 0.0, 2022-10-21 19:15:23.416
31.0, -133989.00735247222, -159653.25798431135, -39991.31649629075, -110321.30394235897, 62173.99235653786, -64495.77981183289, 57257.68146010417, -118789.70936414116, 0.03, 0.9560000000000001, 0.03, 192.0, 0.0, 0.0, 0.0, 0.0, 0.0, 0.0, 0.0, 0.0, 0.0, 1.6664049234167671E9, 0.0, 2022-10-21 19:15:23.416
32.0, -133992.4718728628, -159657.63892622458, -39995.138644592604, -110305.74712821808, 62170.103153002645, -64500.33956770177, 57259.179026982674, -118797.46541946715, 0.03, 0.9560000000000001, 0.03, 192.0, 0.0, 0.0, 0.0, 0.0, 0.0, 0.0, 0.0, 0.0, 0.0, 1.666404923416793E9, 0.0, 2022-10-21 19:15:23.416
33.0, -133996.1822624424, -159664.14328386108, -40001.77711269583, -110323.96379994915, 62163.41998141051, -64511.69425388506, 57252.406448412716, -118797.10779155587, 0.03, 0.9560000000000001, 0.03, 192.0, 0.0, 0.0, 0.0, 0.0, 0.0, 0.0, 0.0, 0.0, 0.0, 1.6664049234168184E9, 0.0, 2022-10-21 19:15:23.416
34.0, -133992.24835541827, -159660.65641172606, -39999.273717316835, -110335.92198323274, 62171.51131290333, -64527.34047500378, 57248.42783789967, -118797.33130900042, 0.03, 0.9560000000000001, 0.03, 192.0, 0.0, 0.0, 0.0, 0.0, 0.0, 0.0, 0.0, 0.0, 0.0, 1.666404923416844E9, 0.0, 2022-10-21 19:15:23.416
35.0, -133995.04232347518, -159663.18215884952, -40000.614821984156, -110325.036683683, 62174.864074571626, -64534.18010880711, 57251.557082123414, -118802.0922305694, 0.03, 0.9560000000000001, 0.03, 192.0, 0.0, 0.0, 0.0, 0.0, 0.0, 0.0, 0.0, 0.0, 0.0, 1.66640492341687E9, 0.0, 2022-10-21 19:15:23.416
36.0, -134003.26776543472, -159669.7312199749, -40010.27077558885, -110309.30105558647, 62167.8232750682, -64508.45325093905, 57260.5648351389, -118807.47900098313, 0.026000000000000002, 0.9560000000000001, 0.03, 192.0, 0.0, 208.0, 29.0, 224.0, 0.0, 240.0, 0.0, 0.0, 0.0, 1.6664049234168956E9, 0.0, 2022-10-21 19:15:23.416
37.0, -134006.39700965845, -159671.96639442045, -40017.13276113663, -110315.35837833385, 62166.07983900069, -64491.28711119737, 57261.1683322392, -118799.5888351904, 0.026000000000000002, 0.9560000000000001, 0.03, 192.0, 0.0, 0.0, 0.0, 0.0, 0.0, 0.0, 0.0, 0.0, 0.0, 1.6664049234169233E9, 0.0, 2022-10-21 19:15:23.416
38.0, -134015.94120454087, -159681.37647883611, -40030.34264210971, -110342.78396878052, 62152.04294348275, -64505.547524159854, 57237.69900056112, -118820.62182672285, 0.026000000000000002, 0.9560000000000001, 0.03, 192.0, 0.0, 0.0, 0.0, 0.0, 0.0, 0.0, 0.0, 0.0, 0.0, 1.666404923416949E9, 0.0, 2022-10-21 19:15:23.416
39.0, -134005.5252916247, -159670.7817519643, -40019.81497047126, -110335.69846578818, 62161.922414532, -64517.438652210076, 57238.30249766142, -118815.9503121317, 0.026000000000000002, 0.9560000000000001, 0.03, 192.0, 0.0, 0.0, 0.0, 0.0, 0.0, 0.0, 0.0, 0.0, 0.0, 1.6664049234169743E9, 0.0, 2022-10-21 19:15:23.416
40.0, -134002.84308229008, -159668.21130135196, -40017.11040939217, -110307.51291603004, 62170.68429835848, -64502.35122470275, 57258.75434383802, -118806.92020737175, 0.026000000000000002, 0.9560000000000001, 0.03, 192.0, 0.0, 0.0, 0.0, 0.0, 0.0, 0.0, 0.0, 0.0, 0.0, 1.666404923417E9, 0.0, 2022-10-21 19:15:23.417
41.0, -134001.85960553403, -159668.61363275215, -40019.92672919354, -110306.90941892975, 62169.58906288017, -64482.10054422624, 57264.74461135204, -118810.9435213737, 0.026000000000000002, 0.9560000000000001, 0.03, 192.0, 0.0, 0.0, 0.0, 0.0, 0.0, 0.0, 0.0, 0.0, 0.0, 1.6664049234170256E9, 0.0, 2022-10-21 19:15:23.417
42.0, -133997.0316287317, -159664.36680130564, -40020.55257803829, -110325.93075346122, 62172.69595535946, -64501.61361713572, 57253.97107052459, -118812.06110859646, 0.026000000000000002, 0.9560000000000001, 0.03, 192.0, 0.0, 0.0, 0.0, 0.0, 0.0, 0.0, 0.0, 0.0, 0.0, 1.6664049234170513E9, 0.0, 2022-10-21 19:15:23.417
43.0, -133996.4281316314, -159663.33862106068, -40022.273662361345, -110332.61392505336, 62172.405382681536, -64532.324914017314, 57248.89722453323, -118808.61893995035, 0.026000000000000002, 0.9560000000000001, 0.03, 192.0, 0.0, 0.0, 0.0, 0.0, 0.0, 0.0, 0.0, 0.0, 0.0, 1.6664049234170768E9, 0.0, 2022-10-21 19:15:23.417
44.0, -134006.2405474473, -159672.10050488717, -40033.49423807791, -110322.60034353739, 62164.80578956674, -64537.778739664405, 57253.27816644647, -118812.97753011913, 0.026000000000000002, 0.9560000000000001, 0.03, 192.0, 0.0, 0.0, 0.0, 0.0, 0.0, 0.0, 0.0, 0.0, 0.0, 1.6664049234171257E9, 0.0, 2022-10-21 19:15:23.417
45.0, -134011.69437309436, -159677.30846134527, -40040.937368981526, -110316.3865585788, 62160.223681953394, -64506.15102126015, 57262.95647179562, -118815.05624235347, 0.026000000000000002, 0.9560000000000001, 0.03, 192.0, 0.0, 0.0, 0.0, 0.0, 0.0, 0.0, 0.0, 0.0, 0.0, 1.6664049234171517E9, 0.0, 2022-10-21 19:15:23.417
46.0, -134004.7429805688, -159670.02179265284, -40036.37761311264, -110322.37682609282, 62169.20908322443, -64497.90322755614, 57264.565797396404, -118804.70738467066, 0.018000000000000002, 0.9540000000000001, 0.02, 192.0, 0.0, 144.0, 29.0, 208.0, 0.0, 160.0, 0.0, 0.0, 0.0, 1.6664049234171772E9, 0.0, 2022-10-21 19:15:23.417
47.0, -134015.27065220723, -159678.80602822377, -40046.43589811753, -110343.45452111418, 62162.57061512121, -64509.615541650724, 57255.267471702995, -118809.37889926184, 0.018000000000000002, 0.9540000000000001, 0.02, 192.0, 0.0, 0.0, 0.0, 0.0, 0.0, 0.0, 0.0, 0.0, 0.0, 1.6664049234172E9, 0.0, 2022-10-21 19:15:23.417
48.0, -134018.82457957562, -159680.46005731347, -40053.49904936541, -110337.26308790006, 62154.702801072934, -64509.414375950626, 57251.825303056874, -118820.48771625612, 0.018000000000000002, 0.9540000000000001, 0.02, 192.0, 0.0, 0.0, 0.0, 0.0, 0.0, 0.0, 0.0, 0.0, 0.0, 1.6664049234172153E9, 0.0, 2022-10-21 19:15:23.417
49.0, -134006.9781550143, -159668.92655717453, -40044.580703327745, -110317.34768359039, 62162.83883605467, -64484.53688437187, 57267.67268987569, -118808.95421611718, 0.018000000000000002, 0.9540000000000001, 0.02, 192.0, 0.0, 0.0, 0.0, 0.0, 0.0, 0.0, 0.0, 0.0, 0.0, 1.6664049234172292E9, 0.0, 2022-10-21 19:15:23.417
50.0, -134003.51363462373, -159664.72442921693, -40044.24542716091, -110330.60226805237, 62166.21394946742, -64497.47854441149, 57265.28105321897, -118800.75112590208, 0.018000000000000002, 0.9540000000000001, 0.02, 192.0, 0.0, 0.0, 0.0, 0.0, 0.0, 0.0, 0.0, 0.0, 0.0, 1.6664049234172444E9, 0.0, 2022-10-21 19:15:23.417
51.0, -134009.25803294874, -159671.67582174254, -40052.85084877621, -110343.38746588082, 62160.78247556478, -64505.279303226394, 57257.65910835971, -118815.77149817605, 0.018000000000000002, 0.9540000000000001, 0.02, 192.0, 0.0, 0.0, 0.0, 0.0, 0.0, 0.0, 0.0, 0.0, 0.0, 1.6664049234172583E9, 0.0, 2022-10-21 19:15:23.417
52.0, -133992.09189320708, -159654.97906863442, -40037.383441613136, -110311.02213990953, 62180.60847289664, -64499.691367112566, 57278.73680338106, -118796.59370143339, 0.018000000000000002, 0.9540000000000001, 0.02, 192.0, 0.0, 0.0, 0.0, 0.0, 0.0, 0.0, 0.0, 0.0, 0.0, 1.666404923417272E9, 0.0, 2022-10-21 19:15:23.417
53.0, -133998.10451246554, -159661.66224022655, -40047.03939521783, -110304.00369215057, 62175.266405971815, -64479.15011395814, 57286.023472073495, -118797.73364040062, 0.018000000000000002, 0.9540000000000001, 0.02, 192.0, 0.0, 0.0, 0.0, 0.0, 0.0, 0.0, 0.0, 0.0, 0.0, 1.6664049234172862E9, 0.0, 2022-10-21 19:15:23.417
54.0, -134002.84308229008, -159664.09858037217, -40055.64481683312, -110325.28255287201, 62168.04679251275, -64474.74682030045, 57277.26158824701, -118803.45568698118, 0.018000000000000002, 0.9540000000000001, 0.02, 192.0, 0.0, 0.0, 0.0, 0.0, 0.0, 0.0, 0.0, 0.0, 0.0, 1.6664049234173E9, 0.0, 2022-10-21 19:15:23.417
55.0, -133999.06563747712, -159657.08013261322, -40054.61663658817, -110339.96764897916, 62167.26448145682, -64497.43384092258, 57263.85054157383, -118802.22634103613, 0.018000000000000002, 0.9540000000000001, 0.02, 192.0, 0.0, 0.0, 0.0, 0.0, 0.0, 0.0, 0.0, 0.0, 0.0, 1.666404923417314E9, 0.0, 2022-10-21 19:15:23.417
56.0, -134000.29498342218, -159659.42706578103, -40058.416433145576, -110332.32335237543, 62166.884501801076, -64511.917771329616, 57262.30827120641, -118802.11458231385, 0.018000000000000002, 0.96, 0.016, 192.0, 0.0, 144.0, 30.0, 0.0, 0.0, 128.0, 0.0, 0.0, 0.0, 1.666404923417328E9, 0.0, 2022-10-21 19:15:23.417
57.0, -133997.85864327653, -159661.46107452645, -40061.47862213595, -110321.3933493368, 62163.84466455516, -64496.897399055655, 57268.43264918717, -118807.23313179411, 0.018000000000000002, 0.96, 0.016, 192.0, 0.0, 0.0, 0.0, 0.0, 0.0, 0.0, 0.0, 0.0, 0.0, 1.6664049234173422E9, 0.0, 2022-10-21 19:15:23.417
58.0, -133996.36107639803, -159658.75651344736, -40060.67395933557, -110331.27282038603, 62162.99529826586, -64515.58345742029, 57261.1683322392, -118807.90368412778, 0.018000000000000002, 0.96, 0.016, 192.0, 0.0, 0.0, 0.0, 0.0, 0.0, 0.0, 0.0, 0.0, 0.0, 1.6664049234173555E9, 0.0, 2022-10-21 19:15:23.417
59.0, -134008.7886463152, -159670.51353103085, -40077.39306418813, -110352.86460552986, 62154.74750456185, -64532.92841111761, 57244.33746866435, -118826.00859713658, 0.018000000000000002, 0.96, 0.016, 192.0, 0.0, 0.0, 0.0, 0.0, 0.0, 0.0, 0.0, 0.0, 0.0, 1.6664049234173825E9, 0.0, 2022-10-21 19:15:23.417
60.0, -134002.26193693423, -159664.07622862773, -40076.70016011002, -110345.26501241507, 62156.49094062936, -64539.14219607618, 57242.77284655248, -118820.55477148948, 0.018000000000000002, 0.96, 0.016, 192.0, 0.0, 0.0, 0.0, 0.0, 0.0, 0.0, 0.0, 0.0, 0.0, 1.6664049234173963E9, 0.0, 2022-10-21 19:15:23.417
61.0, -134011.02382076072, -159673.3298508322, -40086.62433464817, -110338.98417222312, 62147.952574247436, -64534.783605907396, 57246.08090473186, -118834.77048096305, 0.018000000000000002, 0.96, 0.016, 192.0, 0.0, 0.0, 0.0, 0.0, 0.0, 0.0, 0.0, 0.0, 0.0, 1.66640492341741E9, 0.0, 2022-10-21 19:15:23.417
62.0, -133997.4786636208, -159660.14232160358, -40075.64962812062, -110328.68001802922, 62161.52008313181, -64514.19764926406, 57260.162503738706, -118830.45659428318, 0.018000000000000002, 0.96, 0.016, 192.0, 0.0, 0.0, 0.0, 0.0, 0.0, 0.0, 0.0, 0.0, 0.0, 1.6664049234174237E9, 0.0, 2022-10-21 19:15:23.417
63.0, -134011.31439343863, -159672.90516768757, -40089.597116660734, -110349.042457228, 62155.03807723976, -64523.25010576846, 57244.47157913108, -118831.88710592833, 0.018000000000000002, 0.96, 0.016, 192.0, 0.0, 0.0, 0.0, 0.0, 0.0, 0.0, 0.0, 0.0, 0.0, 1.6664049234174378E9, 0.0, 2022-10-21 19:15:23.417
64.0, -134000.4290938889, -159661.30461231526, -40082.533965412855, -110345.95791649318, 62157.87674878559, -64543.47843450051, 57240.67178257368, -118816.88908539881, 0.018000000000000002, 0.96, 0.016, 192.0, 0.0, 0.0, 0.0, 0.0, 0.0, 0.0, 0.0, 0.0, 0.0, 1.6664049234174516E9, 0.0, 2022-10-21 19:15:23.417
65.0, -133992.0695414626, -159653.32503954472, -40071.1569274851, -110305.90359042927, 62176.607510639136, -64525.99937033646, 57266.82332358639, -118808.01544285005, 0.018000000000000002, 0.96, 0.016, 192.0, 0.0, 0.0, 0.0, 0.0, 0.0, 0.0, 0.0, 0.0, 0.0, 1.6664049234174652E9, 0.0, 2022-10-21 19:15:23.417
66.0, -134005.7264573248, -159665.64085073958, -40085.41734044759, -110317.90647720176, 62159.97781276439, -64492.963492031515, 57266.35393695282, -118825.91919015876, 0.018000000000000002, 0.962, 0.026000000000000002, 192.0, 0.0, 144.0, 30.0, 16.0, 0.0, 208.0, 0.0, 0.0, 0.0, 1.66640492341748E9, 0.0, 2022-10-21 19:15:23.417
67.0, -134009.12392248202, -159668.99361240788, -40087.38429395966, -110350.51767236205, 62153.36169640562, -64500.585436890775, 57251.17710246767, -118833.20585885119, 0.018000000000000002, 0.962, 0.026000000000000002, 192.0, 0.0, 0.0, 0.0, 0.0, 0.0, 0.0, 0.0, 0.0, 0.0, 1.6664049234174943E9, 0.0, 2022-10-21 19:15:23.417
68.0, -134006.6428788475, -159665.37262980614, -40080.49995666742, -110355.52446312005, 62160.62601335359, -64529.41918723813, 57244.73980006454, -118819.43718426672, 0.018000000000000002, 0.962, 0.026000000000000002, 192.0, 0.0, 0.0, 0.0, 0.0, 0.0, 0.0, 0.0, 0.0, 0.0, 1.666404923417508E9, 0.0, 2022-10-21 19:15:23.417
69.0, -134007.1793207144, -159663.53978676078, -40081.50578516791, -110335.25143089908, 62161.073048242695, -64528.480413971, 57255.960375781106, -118820.57712323393, 0.018000000000000002, 0.962, 0.026000000000000002, 192.0, 0.0, 0.0, 0.0, 0.0, 0.0, 0.0, 0.0, 0.0, 0.0, 1.6664049234175236E9, 0.0, 2022-10-21 19:15:23.417
70.0, -133998.41743688792, -159653.52620524482, -40078.35418919971, -110321.81803248145, 62162.615318610115, -64505.45811718203, 57272.83594284487, -118818.34194878841, 0.018000000000000002, 0.962, 0.026000000000000002, 192.0, 0.0, 0.0, 0.0, 0.0, 0.0, 0.0, 0.0, 0.0, 0.0, 1.6664049234175375E9, 0.0, 2022-10-21 19:15:23.417
71.0, -134000.25027993324, -159656.74485644637, -40084.85854683621, -110342.26987865804, 62159.57548136419, -64511.58249516279, 57264.81166658541, -118820.95710288968, 0.018000000000000002, 0.962, 0.026000000000000002, 192.0, 0.0, 0.0, 0.0, 0.0, 0.0, 0.0, 0.0, 0.0, 0.0, 1.6664049234175508E9, 0.0, 2022-10-21 19:15:23.417
72.0, -134002.7760270567, -159660.58935649268, -40087.764273615394, -110355.01037299758, 62162.280042443286, -64516.00814056494, 57264.78931484096, -118810.40707950677, 0.018000000000000002, 0.962, 0.026000000000000002, 192.0, 0.0, 0.0, 0.0, 0.0, 0.0, 0.0, 0.0, 0.0, 0.0, 1.6664049234175646E9, 0.0, 2022-10-21 19:15:23.417
73.0, -134004.11713172402, -159662.39984779357, -40086.04318929234, -110337.64306755581, 62168.53853089077, -64514.26470449743, 57275.473448690595, -118809.62476845084, 0.018000000000000002, 0.962, 0.026000000000000002, 192.0, 0.0, 0.0, 0.0, 0.0, 0.0, 0.0, 0.0, 0.0, 0.0, 1.6664049234175782E9, 0.0, 2022-10-21 19:15:23.417
74.0, -134009.97328877132, -159669.0383158968, -40096.32499174178, -110328.5906110514, 62158.54730111925, -64493.65639610963, 57277.19453301365, -118828.75786170458, 0.018000000000000002, 0.962, 0.026000000000000002, 192.0, 0.0, 0.0, 0.0, 0.0, 0.0, 0.0, 0.0, 0.0, 0.0, 1.6664049234176047E9, 0.0, 2022-10-21 19:15:23.417
75.0, -134003.64774509045, -159660.8352256817, -40096.74967488643, -110341.71108504667, 62158.79317030826, -64490.68361409708, 57277.082774291375, -118821.98528313462, 0.024, 0.96, 0.026000000000000002, 192.0, 0.0, 192.0, 30.0, 0.0, 0.0, 208.0, 0.0, 0.0, 0.0, 1.6664049234176192E9, 0.0, 2022-10-21 19:15:23.417
76.0, -134005.6817538359, -159661.46107452645, -40102.15879704461, -110359.32425967745, 62154.68044932848, -64512.409509707635, 57267.38211719777, -118822.96875989066, 0.024, 0.96, 0.026000000000000002, 192.0, 0.0, 0.0, 0.0, 0.0, 0.0, 0.0, 0.0, 0.0, 0.0, 1.6664049234176335E9, 0.0, 2022-10-21 19:15:23.417
77.0, -134010.2862131937, -159666.7360862179, -40107.72438141399, -110348.1483874498, 62155.23924293986, -64504.362881703724, 57274.73584112357, -118819.86186741137, 0.024, 0.96, 0.026000000000000002, 192.0, 0.0, 0.0, 0.0, 0.0, 0.0, 0.0, 0.0, 0.0, 0.0, 1.6664049234176478E9, 0.0, 2022-10-21 19:15:23.417
78.0, -134002.0831229786, -159657.84009192468, -40098.15783478711, -110339.47591060113, 62158.54730111925, -64493.43287866508, 57284.45884996162, -118815.32446328695, 0.024, 0.96, 0.026000000000000002, 192.0, 0.0, 0.0, 0.0, 0.0, 0.0, 0.0, 0.0, 0.0, 0.0, 1.666404923417662E9, 0.0, 2022-10-21 19:15:23.417
79.0, -133998.39508514348, -159655.1355308456, -40091.94404982854, -110337.03957045551, 62167.711516345924, -64491.75649783093, 57287.498687207546, -118821.78411743452, 0.024, 0.96, 0.026000000000000002, 192.0, 0.0, 0.0, 0.0, 0.0, 0.0, 0.0, 0.0, 0.0, 0.0, 1.6664049234176755E9, 0.0, 2022-10-21 19:15:23.417
80.0, -134000.4737973778, -159658.55534774726, -40099.521291198886, -110355.47975963114, 62164.783437822276, -64513.035358552384, 57277.93214058068, -118825.47215526964, 0.024, 0.96, 0.026000000000000002, 192.0, 0.0, 0.0, 0.0, 0.0, 0.0, 0.0, 0.0, 0.0, 0.0, 1.6664049234176896E9, 0.0, 2022-10-21 19:15:23.417
81.0, -134012.27551845022, -159670.80410370877, -40115.92747162908, -110364.33105043543, 62150.9700597489, -64531.699065172565, 57266.443343930645, -118834.65872224078, 0.024, 0.96, 0.026000000000000002, 192.0, 0.0, 0.0, 0.0, 0.0, 0.0, 0.0, 0.0, 0.0, 0.0, 1.6664049234177034E9, 0.0, 2022-10-21 19:15:23.417
82.0, -134006.46406489183, -159665.90907167306, -40110.98773610446, -110344.48270135913, 62155.8203882957, -64510.867239340216, 57278.91561733671, -118828.60139949339, 0.024, 0.96, 0.026000000000000002, 192.0, 0.0, 0.0, 0.0, 0.0, 0.0, 0.0, 0.0, 0.0, 0.0, 1.6664049234177172E9, 0.0, 2022-10-21 19:15:23.417
83.0, -133994.41647463042, -159652.60978372215, -40097.71079989801, -110332.07748318643, 62171.131333247584, -64488.94017802956, 57293.13132681028, -118817.8949138993, 0.024, 0.96, 0.026000000000000002, 192.0, 0.0, 0.0, 0.0, 0.0, 0.0, 0.0, 0.0, 0.0, 0.0, 1.6664049234177308E9, 0.0, 2022-10-21 19:15:23.417
84.0, -133990.9296024954, -159651.26867905483, -40096.68261965306, -110344.61681182585, 62173.9253013045, -64511.04605329586, 57280.16731502621, -118820.73358544512, 0.024, 0.96, 0.026000000000000002, 192.0, 0.0, 0.0, 0.0, 0.0, 0.0, 0.0, 0.0, 0.0, 0.0, 1.6664049234177449E9, 0.0, 2022-10-21 19:15:23.417
85.0, -134002.41839914542, -159666.17729260653, -40114.25109079493, -110355.52446312005, 62161.58713836517, -64526.33464650329, 57265.63868113026, -118833.02704489554, 0.022, 0.962, 0.028, 192.0, 0.0, 176.0, 30.0, 16.0, 0.0, 224.0, 0.0, 0.0, 0.0, 1.666404923417759E9, 0.0, 2022-10-21 19:15:23.417
86.0, -134011.60496611655, -159672.41342930956, -40125.449314767044, -110348.41660838325, 62149.65130682604, -64512.09658528526, 57269.37142245429, -118837.51974553106, 0.022, 0.962, 0.028, 192.0, 0.0, 0.0, 0.0, 0.0, 0.0, 0.0, 0.0, 0.0, 0.0, 1.6664049234177735E9, 0.0, 2022-10-21 19:15:23.417
87.0, -134003.20071020134, -159663.40567629406, -40119.61550946421, -110343.43216936973, 62153.85343478363, -64500.943064802064, 57274.065288789905, -118831.50712627258, 0.022, 0.962, 0.028, 192.0, 0.0, 0.0, 0.0, 0.0, 0.0, 0.0, 0.0, 0.0, 0.0, 1.6664049234177876E9, 0.0, 2022-10-21 19:15:23.417
88.0, -134008.11809398152, -159668.56892926325, -40127.349213045745, -110364.01812601306, 62148.8689957701, -64503.78173634789, 57260.363669438804, -118842.45948105569, 0.022, 0.962, 0.028, 192.0, 0.0, 0.0, 0.0, 0.0, 0.0, 0.0, 0.0, 0.0, 0.0, 1.6664049234178019E9, 0.0, 2022-10-21 19:15:23.417
89.0, -134004.89944277995, -159663.40567629406, -40124.979928133485, -110370.47778016065, 62148.220795180896, -64529.955629105054, 57252.78642806845, -118839.1514228763, 0.022, 0.962, 0.028, 192.0, 0.0, 0.0, 0.0, 0.0, 0.0, 0.0, 0.0, 0.0, 0.0, 1.6664049234178288E9, 0.0, 2022-10-21 19:15:23.417
90.0, -134014.71185859584, -159673.39690606558, -40131.86426542572, -110351.18822469571, 62148.51136785882, -64528.16748954863, 57261.056573516915, -118844.31467584547, 0.022, 0.962, 0.028, 192.0, 0.0, 0.0, 0.0, 0.0, 0.0, 0.0, 0.0, 0.0, 0.0, 1.6664049234178429E9, 0.0, 2022-10-21 19:15:23.417
91.0, -134012.4319806614, -159669.8876821861, -40129.159704346624, -110346.47200661564, 62149.740713803854, -64502.03830028037, 57275.0711172904, -118844.4487863122, 0.022, 0.962, 0.028, 192.0, 0.0, 0.0, 0.0, 0.0, 0.0, 0.0, 0.0, 0.0, 0.0, 1.6664049234178584E9, 0.0, 2022-10-21 19:15:23.417
92.0, -133997.61277408752, -159657.63892622458, -40117.96148037451, -110356.64205034281, 62158.770818563804, -64510.84488759576, 57272.746535867045, -118839.1961263652, 0.022, 0.962, 0.028, 192.0, 0.0, 0.0, 0.0, 0.0, 0.0, 0.0, 0.0, 0.0, 0.0, 1.666404923417872E9, 0.0, 2022-10-21 19:15:23.417
93.0, -134001.09964622254, -159661.52812975983, -40122.81180892132, -110366.63328011433, 62155.574519106696, -64538.44929199807, 57260.766000839, -118839.50905078759, 0.022, 0.962, 0.028, 192.0, 0.0, 0.0, 0.0, 0.0, 0.0, 0.0, 0.0, 0.0, 0.0, 1.6664049234178855E9, 0.0, 2022-10-21 19:15:23.417
94.0, -134001.0772944781, -159660.32113555924, -40123.39295427716, -110345.17560543724, 62160.514254631315, -64526.5805156923, 57274.78054461248, -118838.25735309809, 0.022, 0.962, 0.028, 192.0, 0.0, 0.0, 0.0, 0.0, 0.0, 0.0, 0.0, 0.0, 0.0, 1.6664049234178991E9, 0.0, 2022-10-21 19:15:23.417
95.0, -133996.15991069793, -159655.60491747916, -40122.253015309936, -110339.52061409004, 62159.597833108644, -64510.33079747329, 57284.03416681697, -118830.7471669611, 0.022, 0.962, 0.018000000000000002, 192.0, 0.0, 176.0, 30.0, 16.0, 0.0, 144.0, 0.0, 0.0, 0.0, 1.6664049234179127E9, 0.0, 2022-10-21 19:15:23.417
96.0, -134000.31733516662, -159657.97420239143, -40125.89634965615, -110360.01716375556, 62153.026420238784, -64511.068405040314, 57279.89909409274, -118824.77925119153, 0.022, 0.962, 0.018000000000000002, 192.0, 0.0, 0.0, 0.0, 0.0, 0.0, 0.0, 0.0, 0.0, 0.0, 1.6664049234179282E9, 0.0, 2022-10-21 19:15:23.417
97.0, -134001.0772944781, -159657.34835354667, -40127.550378745844, -110371.41655342777, 62154.523987117296, -64527.96632384853, 57272.67948063368, -118821.00180637858, 0.022, 0.962, 0.018000000000000002, 192.0, 0.0, 0.0, 0.0, 0.0, 0.0, 0.0, 0.0, 0.0, 0.0, 1.6664049234179418E9, 0.0, 2022-10-21 19:15:23.417
98.0, -134004.9888497578, -159661.57283324873, -40130.29964331385, -110356.798512554, 62156.35683016263, -64522.7807191349, 57278.93796908116, -118823.37109129086, 0.022, 0.962, 0.018000000000000002, 192.0, 0.0, 0.0, 0.0, 0.0, 0.0, 0.0, 0.0, 0.0, 0.0, 1.6664049234179556E9, 0.0, 2022-10-21 19:15:23.417
99.0, -134007.11226548103, -159663.24921408287, -40133.87592242669, -110344.14742519229, 62149.94187950395, -64509.9284660731, 57285.263512762016, -118821.58295173442, 0.022, 0.962, 0.018000000000000002, 192.0, 0.0, 0.0, 0.0, 0.0, 0.0, 0.0, 0.0, 0.0, 0.0, 1.6664049234179697E9, 0.0, 2022-10-21 19:15:23.417
100.0, -134013.2813469507, -159668.81479845225, -40141.20729460804, -110356.9996782541, 62146.25384166883, -64495.89157055516, 57280.793163870956, -118830.9483326612, 0.022, 0.962, 0.018000000000000002, 192.0, 0.0, 0.0, 0.0, 0.0, 0.0, 0.0, 0.0, 0.0, 0.0, 1.6664049234179835E9, 0.0, 2022-10-21 19:15:23.417
101.0, -134011.71672483883, -159666.89254842908, -40143.42011730911, -110383.5982541559, 62146.186786435464, -64527.496937214964, 57261.213035728106, -118842.3030188445, 0.022, 0.962, 0.018000000000000002, 192.0, 0.0, 0.0, 0.0, 0.0, 0.0, 0.0, 0.0, 0.0, 0.0, 1.6664049234179976E9, 0.0, 2022-10-21 19:15:23.417
102.0, -133993.7235705523, -159647.5806412197, -40123.66117521062, -110351.9481840072, 62168.71734484642, -64533.82248089582, 57280.68140514868, -118817.00084412108, 0.022, 0.962, 0.018000000000000002, 192.0, 0.0, 0.0, 0.0, 0.0, 0.0, 0.0, 0.0, 0.0, 0.0, 1.6664049234180112E9, 0.0, 2022-10-21 19:15:23.418
103.0, -134005.25707069124, -159660.61170823715, -40131.50663751443, -110337.35249487788, 62161.721248831906, -64517.90803884364, 57286.82813487389, -118830.63540823883, 0.022, 0.962, 0.018000000000000002, 192.0, 0.0, 0.0, 0.0, 0.0, 0.0, 0.0, 0.0, 0.0, 0.0, 1.6664049234180248E9, 0.0, 2022-10-21 19:15:23.418
104.0, -134010.35326842705, -159666.0878856287, -40139.597969007256, -110359.79364631101, 62151.68531557147, -64529.08391107129, 57272.880646333775, -118841.8559839554, 0.016, 0.962, 0.018000000000000002, 192.0, 0.0, 128.0, 30.0, 16.0, 0.0, 144.0, 0.0, 0.0, 0.0, 1.6664049234180512E9, 0.0, 2022-10-21 19:15:23.418
105.0, -134006.15114046945, -159660.11996985914, -40136.96046316153, -110364.42045741326, 62163.12940873259, -64525.39587323617, 57275.49580043505, -118829.58487624943, 0.016, 0.962, 0.018000000000000002, 192.0, 0.0, 0.0, 0.0, 0.0, 0.0, 0.0, 0.0, 0.0, 0.0, 1.666404923418066E9, 0.0, 2022-10-21 19:15:23.418
106.0, -134013.50486439525, -159667.11606587365, -40146.39289932167, -110367.92968129274, 62153.96519350591, -64530.76029190544, 57267.225654986585, -118826.27681807004, 0.016, 0.962, 0.018000000000000002, 192.0, 0.0, 0.0, 0.0, 0.0, 0.0, 0.0, 0.0, 0.0, 0.0, 1.66640492341808E9, 0.0, 2022-10-21 19:15:23.418
107.0, -134010.5320823827, -159665.70790597296, -40144.269483598415, -110343.09689320289, 62157.161492963016, -64515.53875393138, 57278.826210358886, -118813.6480824528, 0.016, 0.962, 0.018000000000000002, 192.0, 0.0, 0.0, 0.0, 0.0, 0.0, 0.0, 0.0, 0.0, 0.0, 1.6664049234180934E9, 0.0, 2022-10-21 19:15:23.418
108.0, -134013.57191962862, -159668.94890891897, -40148.78453597838, -110348.8412915279, 62152.6687923275, -64506.262779982426, 57278.15565802523, -118831.52947801704, 0.016, 0.962, 0.018000000000000002, 192.0, 0.0, 0.0, 0.0, 0.0, 0.0, 0.0, 0.0, 0.0, 0.0, 1.6664049234181073E9, 0.0, 2022-10-21 19:15:23.418
109.0, -134016.29883245216, -159671.3405455757, -40155.937094204084, -110372.51178890608, 62149.7183620594, -64506.955684060544, 57267.15859975322, -118840.71604498816, 0.016, 0.962, 0.018000000000000002, 192.0, 0.0, 0.0, 0.0, 0.0, 0.0, 0.0, 0.0, 0.0, 0.0, 1.6664049234181209E9, 0.0, 2022-10-21 19:15:23.418
110.0, -134008.3416114261, -159661.97516464893, -40152.316111602326, -110376.64686163032, 62151.48414987137, -64530.96145760554, 57262.64354737324, -118822.23115232363, 0.016, 0.962, 0.018000000000000002, 192.0, 0.0, 0.0, 0.0, 0.0, 0.0, 0.0, 0.0, 0.0, 0.0, 1.6664049234181345E9, 0.0, 2022-10-21 19:15:23.418
111.0, -133999.60207934404, -159652.27450755532, -40143.71068998703, -110348.1483874498, 62161.52008313181, -64522.66896041262, 57280.94962608214, -118813.33515803042, 0.016, 0.962, 0.018000000000000002, 192.0, 0.0, 0.0, 0.0, 0.0, 0.0, 0.0, 0.0, 0.0, 0.0, 1.666404923418148E9, 0.0, 2022-10-21 19:15:23.418
112.0, -134006.06173349163, -159660.34348730367, -40151.71261450203, -110348.17073919425, 62155.127484217584, -64503.893495070166, 57284.14592553925, -118830.68011172774, 0.016, 0.962, 0.018000000000000002, 192.0, 0.0, 0.0, 0.0, 0.0, 0.0, 0.0, 0.0, 0.0, 0.0, 1.6664049234181647E9, 0.0, 2022-10-21 19:15:23.418
113.0, -134004.65357359094, -159657.37070529113, -40152.94196044707, -110361.58178586744, 62159.888405786565, -64488.69430884055, 57286.96224534062, -118823.52755350203, 0.016, 0.962, 0.018000000000000002, 192.0, 0.0, 0.0, 0.0, 0.0, 0.0, 0.0, 0.0, 0.0, 0.0, 1.6664049234181783E9, 0.0, 2022-10-21 19:15:23.418
114.0, -134012.74490508376, -159666.62432749564, -40166.44241409808, -110390.7061088927, 62141.31410614421, -64530.06738782733, 57259.98368978306, -118839.57610602095, 0.014, 0.964, 0.01, 192.0, 0.0, 112.0, 30.0, 32.0, 0.0, 80.0, 0.0, 0.0, 0.0, 1.666404923418192E9, 0.0, 2022-10-21 19:15:23.418
115.0, -134001.30081192264, -159655.35904829015, -40152.13729764668, -110359.301907933, 62153.56286210572, -64520.38908247818, 57278.44623070315, -118830.7471669611, 0.014, 0.964, 0.01, 192.0, 0.0, 0.0, 0.0, 0.0, 0.0, 0.0, 0.0, 0.0, 0.0, 1.6664049234182065E9, 0.0, 2022-10-21 19:15:23.418
116.0, -134001.14434971148, -159655.02377212333, -40152.98666393598, -110349.93652700623, 62152.40057139404, -64501.30069271335, 57286.090527306864, -118830.3448355609, 0.014, 0.964, 0.01, 192.0, 0.0, 0.0, 0.0, 0.0, 0.0, 0.0, 0.0, 0.0, 0.0, 1.6664049234182203E9, 0.0, 2022-10-21 19:15:23.418
117.0, -134023.25022497776, -159678.1354758901, -40179.29466715988, -110390.9519780817, 62125.73494025886, -64522.467794712524, 57254.61927111379, -118858.32921961896, 0.014, 0.964, 0.01, 192.0, 0.0, 0.0, 0.0, 0.0, 0.0, 0.0, 0.0, 0.0, 0.0, 1.666404923418234E9, 0.0, 2022-10-21 19:15:23.418
118.0, -134012.81196031714, -159667.60780425166, -40169.68341704409, -110401.6584636758, 62131.45698683942, -64547.41234152464, 57249.724239078074, -118847.84625146941, 0.014, 0.964, 0.01, 192.0, 0.0, 0.0, 0.0, 0.0, 0.0, 0.0, 0.0, 0.0, 0.0, 1.6664049234182477E9, 0.0, 2022-10-21 19:15:23.418
119.0, -133998.5738990991, -159649.81581566524, -40150.86324821273, -110366.32035569196, 62154.18871095046, -64554.45314102807, 57275.0711172904, -118818.47605925513, 0.014, 0.964, 0.01, 192.0, 0.0, 0.0, 0.0, 0.0, 0.0, 0.0, 0.0, 0.0, 0.0, 1.6664049234183419E9, 0.0, 2022-10-21 19:15:23.418
120.0, -134006.46406489183, -159654.64379246757, -40157.00997793794, -110354.60804159738, 62151.95353650493, -64531.58730645029, 57290.493820964555, -118818.9454458887, 0.014, 0.964, 0.01, 192.0, 0.0, 0.0, 0.0, 0.0, 0.0, 0.0, 0.0, 0.0, 0.0, 1.6664049234183574E9, 0.0, 2022-10-21 19:15:23.418
121.0, -134009.32508818211, -159656.58839423518, -40160.31803611732, -110373.74113485112, 62146.29854515774, -64524.72532090251, 57283.5200766945, -118819.23601856662, 0.014, 0.964, 0.01, 192.0, 0.0, 0.0, 0.0, 0.0, 0.0, 0.0, 0.0, 0.0, 0.0, 1.666404923894306E9, 0.0, 2022-10-21 19:15:23.894
122.0, -134005.21236720233, -159654.95671688995, -40161.70384427355, -110387.82273385796, 62149.45014112594, -64537.06348384184, 57274.825248101384, -118816.44205050971, 0.014, 0.964, 0.01, 192.0, 0.0, 0.0, 0.0, 0.0, 0.0, 0.0, 0.0, 0.0, 0.0, 1.6664049238943963E9, 0.0, 2022-10-21 19:15:23.894
123.0, -134006.06173349163, -159657.41540878004, -40165.81656525333, -110379.61964364287, 62148.220795180896, -64550.5862892373, 57276.07694579088, -118817.47023075465, 0.014, 0.964, 0.01, 192.0, 0.0, 0.0, 0.0, 0.0, 0.0, 0.0, 0.0, 0.0, 0.0, 1.66640492389448E9, 0.0, 2022-10-21 19:15:23.894
124.0, -134011.5379108832, -159660.41054253705, -40174.15376593516, -110365.38158242483, 62146.79028353576, -64530.022684338415, 57287.699852907645, -118821.60530347888, 0.016, 0.962, 0.01, 192.0, 0.0, 128.0, 30.0, 16.0, 0.0, 80.0, 0.0, 0.0, 0.0, 1.6664049238944983E9, 0.0, 2022-10-21 19:15:23.894
125.0, -134010.5320823827, -159659.31530705874, -40178.802928781864, -110377.42917268624, 62144.91273700151, -64526.111129058736, 57280.12261153729, -118823.19227733521, 0.016, 0.962, 0.01, 192.0, 0.0, 0.0, 0.0, 0.0, 0.0, 0.0, 0.0, 0.0, 0.0, 1.6664049238945174E9, 0.0, 2022-10-21 19:15:23.894
126.0, -134016.2317772188, -159667.8313216962, -40184.79319629588, -110394.4612019612, 62142.766969533805, -64535.87884138571, 57267.851503831334, -118830.05426288299, 0.016, 0.962, 0.01, 192.0, 0.0, 0.0, 0.0, 0.0, 0.0, 0.0, 0.0, 0.0, 0.0, 1.666404923894534E9, 0.0, 2022-10-21 19:15:23.894
127.0, -134015.8294458186, -159667.20547285146, -40182.42391138362, -110390.72846063715, 62142.342286389154, -64547.94878339157, 57266.57745439738, -118827.90849541528, 0.016, 0.962, 0.01, 192.0, 0.0, 0.0, 0.0, 0.0, 0.0, 0.0, 0.0, 0.0, 0.0, 1.6664049238945503E9, 0.0, 2022-10-21 19:15:23.894
128.0, -134009.05686724864, -159657.86244366915, -40169.52695483291, -110361.73824807862, 62150.67948707098, -64517.662169654635, 57292.05844307643, -118810.63059695132, 0.016, 0.962, 0.01, 192.0, 0.0, 0.0, 0.0, 0.0, 0.0, 0.0, 0.0, 0.0, 0.0, 1.666404923894567E9, 0.0, 2022-10-21 19:15:23.894
129.0, -134003.04424799018, -159650.21814706543, -40163.201411152055, -110358.94428002171, 62156.69210632946, -64503.2229427365, 57295.34414951136, -118810.85411439587, 0.016, 0.962, 0.01, 192.0, 0.0, 0.0, 0.0, 0.0, 0.0, 0.0, 0.0, 0.0, 0.0, 1.6664049238945837E9, 0.0, 2022-10-21 19:15:23.894
130.0, -134015.94120454087, -159663.09275187168, -40181.14986194967, -110388.3591757249, 62141.58232707767, -64523.00423657945, 57270.84663758834, -118834.3010943295, 0.016, 0.962, 0.01, 192.0, 0.0, 0.0, 0.0, 0.0, 0.0, 0.0, 0.0, 0.0, 0.0, 1.6664049238946004E9, 0.0, 2022-10-21 19:15:23.894
131.0, -134029.30754772516, -159674.35803107716, -40196.39375166819, -110407.49226897863, 62125.9137542145, -64554.16256835015, 57252.45115190162, -118845.63342876834, 0.016, 0.962, 0.01, 192.0, 0.0, 0.0, 0.0, 0.0, 0.0, 0.0, 0.0, 0.0, 0.0, 1.6664049238946168E9, 0.0, 2022-10-21 19:15:23.894
132.0, -134017.99756503076, -159662.77982744933, -40179.04879797087, -110369.36019293788, 62146.72322830239, -64514.085890541784, 57283.25185576104, -118824.84630642491, 0.016, 0.962, 0.01, 192.0, 0.0, 0.0, 0.0, 0.0, 0.0, 0.0, 0.0, 0.0, 0.0, 1.6664049238946333E9, 0.0, 2022-10-21 19:15:23.894
133.0, -134016.85762606355, -159665.17146410604, -40183.04976022837, -110372.80236158399, 62143.325763145185, -64489.9236547856, 57290.851448875845, -118825.47215526964, 0.016, 0.962, 0.01, 192.0, 0.0, 0.0, 0.0, 0.0, 0.0, 0.0, 0.0, 0.0, 0.0, 1.6664049238946595E9, 0.0, 2022-10-21 19:15:23.894
134.0, -134016.96938478583, -159666.35610656216, -40187.743626563984, -110392.49424844912, 62145.20330967943, -64503.111184014226, 57279.519114437004, -118824.15340234678, 0.02, 0.96, 0.012, 192.0, 0.0, 160.0, 30.0, 0.0, 0.0, 96.0, 0.0, 0.0, 0.0, 1.6664049238947532E9, 0.0, 2022-10-21 19:15:23.894
135.0, -134023.60785288905, -159671.6311182536, -40194.940888278594, -110393.50007694961, 62142.81167302271, -64522.64660866817, 57269.68434687667, -118821.22532382314, 0.02, 0.96, 0.012, 192.0, 0.0, 0.0, 0.0, 0.0, 0.0, 0.0, 0.0, 0.0, 0.0, 1.6664049238947709E9, 0.0, 2022-10-21 19:15:23.894
136.0, -134013.54956788415, -159661.99751639337, -40189.88939403169, -110376.46804767467, 62143.72809454538, -64525.03824532488, 57279.07207954789, -118809.71417542866, 0.02, 0.96, 0.012, 192.0, 0.0, 0.0, 0.0, 0.0, 0.0, 0.0, 0.0, 0.0, 0.0, 1.6664049238947878E9, 0.0, 2022-10-21 19:15:23.894
137.0, -134006.128788725, -159655.51551050134, -40183.87677477321, -110368.75669583758, 62148.89134751455, -64522.5795534348, 57288.05748081893, -118818.31959704396, 0.02, 0.96, 0.012, 192.0, 0.0, 0.0, 0.0, 0.0, 0.0, 0.0, 0.0, 0.0, 0.0, 1.6664049238948042E9, 0.0, 2022-10-21 19:15:23.894
138.0, -134010.42032366042, -159658.93532740299, -40189.30824867586, -110382.27950123305, 62149.271327170296, -64524.434748224594, 57283.31891099441, -118825.18158259173, 0.02, 0.96, 0.012, 192.0, 0.0, 0.0, 0.0, 0.0, 0.0, 0.0, 0.0, 0.0, 0.0, 1.6664049238948212E9, 0.0, 2022-10-21 19:15:23.894
139.0, -134019.53983539817, -159666.42316179554, -40198.5395191359, -110402.59723694292, 62143.50457710083, -64549.22283282553, 57272.29950097794, -118826.34387330341, 0.02, 0.96, 0.012, 192.0, 0.0, 0.0, 0.0, 0.0, 0.0, 0.0, 0.0, 0.0, 0.0, 1.6664049238948376E9, 0.0, 2022-10-21 19:15:23.894
140.0, -134032.10151578207, -159679.3871735796, -40211.95056580908, -110396.74107989563, 62134.92150722999, -64551.01097238195, 57272.07598353338, -118836.71508273068, 0.02, 0.96, 0.012, 192.0, 0.0, 0.0, 0.0, 0.0, 0.0, 0.0, 0.0, 0.0, 0.0, 1.6664049238948543E9, 0.0, 2022-10-21 19:15:23.894
141.0, -134034.91783558344, -159683.00815618137, -40214.92334782164, -110386.21340825719, 62136.68729504196, -64532.682541928596, 57280.68140514868, -118841.07367289945, 0.02, 0.96, 0.012, 192.0, 0.0, 0.0, 0.0, 0.0, 0.0, 0.0, 0.0, 0.0, 0.0, 1.6664049238948708E9, 0.0, 2022-10-21 19:15:23.894
142.0, -134038.40470771847, -159683.11991490365, -40220.57833916883, -110402.23960903163, 62132.127539173074, -64530.782643649894, 57273.640605645254, -118847.5556787915, 0.02, 0.96, 0.012, 192.0, 0.0, 0.0, 0.0, 0.0, 0.0, 0.0, 0.0, 0.0, 0.0, 1.6664049238948872E9, 0.0, 2022-10-21 19:15:23.894
143.0, -134017.75169584175, -159662.39984779357, -40200.95350753707, -110393.27655950506, 62151.90883301602, -64521.59607667877, 57288.70568140813, -118822.74524244611, 0.014, 0.96, 0.012, 192.0, 0.0, 112.0, 30.0, 0.0, 0.0, 96.0, 0.0, 0.0, 0.0, 1.666404923894904E9, 0.0, 2022-10-21 19:15:23.894
144.0, -134024.21134998935, -159670.17825486403, -40208.26252797396, -110386.2581117461, 62148.287850414265, -64520.14321328917, 57289.95737909763, -118826.27681807004, 0.014, 0.96, 0.012, 192.0, 0.0, 0.0, 0.0, 0.0, 0.0, 0.0, 0.0, 0.0, 0.0, 1.666404923894921E9, 0.0, 2022-10-21 19:15:23.894
145.0, -134023.04905927766, -159668.77009496334, -40208.016658784945, -110379.41847794277, 62145.51623410181, -64513.68355914159, 57294.18185879968, -118820.33125404493, 0.014, 0.96, 0.012, 192.0, 0.0, 0.0, 0.0, 0.0, 0.0, 0.0, 0.0, 0.0, 0.0, 1.6664049238949375E9, 0.0, 2022-10-21 19:15:23.894
146.0, -134024.18899824488, -159669.10537113016, -40211.727048364526, -110388.24741700261, 62145.87386201309, -64515.00231206445, 57291.9243326097, -118828.28847507102, 0.014, 0.96, 0.012, 192.0, 0.0, 0.0, 0.0, 0.0, 0.0, 0.0, 0.0, 0.0, 0.0, 1.666404923894954E9, 0.0, 2022-10-21 19:15:23.894
147.0, -134027.45235293536, -159671.72052523145, -40217.85142634528, -110402.01609158708, 62143.48222535637, -64521.61842842322, 57282.13426853827, -118831.95416116169, 0.014, 0.96, 0.012, 192.0, 0.0, 0.0, 0.0, 0.0, 0.0, 0.0, 0.0, 0.0, 0.0, 1.6664049238949704E9, 0.0, 2022-10-21 19:15:23.894
148.0, -134020.09862900956, -159663.9868216499, -40210.117722763745, -110383.30768147799, 62150.92535625999, -64515.38229172019, 57294.405376244235, -118816.50910574307, 0.014, 0.96, 0.012, 192.0, 0.0, 0.0, 0.0, 0.0, 0.0, 0.0, 0.0, 0.0, 0.0, 1.6664049238949869E9, 0.0, 2022-10-21 19:15:23.894
149.0, -134016.29883245216, -159658.82356868073, -40205.24504247249, -110369.38254468233, 62152.44527488295, -64509.682596884086, 57307.123518839304, -118810.56354171796, 0.014, 0.96, 0.012, 192.0, 0.0, 0.0, 0.0, 0.0, 0.0, 0.0, 0.0, 0.0, 0.0, 1.6664049238950036E9, 0.0, 2022-10-21 19:15:23.895
150.0, -134025.32893721212, -159667.27252808484, -40218.790199612406, -110389.4544112032, 62140.64355381055, -64508.140326516674, 57297.087585578876, -118832.6470652398, 0.014, 0.96, 0.012, 192.0, 0.0, 0.0, 0.0, 0.0, 0.0, 0.0, 0.0, 0.0, 0.0, 1.6664049238950367E9, 0.0, 2022-10-21 19:15:23.895
151.0, -134022.08793426608, -159662.89158617158, -40219.32664147933, -110410.37564401337, 62138.430731109474, -64515.44934695356, 57285.95641684013, -118832.87058268435, 0.014, 0.96, 0.012, 192.0, 0.0, 0.0, 0.0, 0.0, 0.0, 0.0, 0.0, 0.0, 0.0, 1.6664049238950531E9, 0.0, 2022-10-21 19:15:23.895
152.0, -134016.61175687454, -159656.25311806836, -40209.02248728544, -110395.28821650604, 62146.14208294655, -64516.65634115414, 57294.62889368879, -118810.63059695132, 0.014, 0.96, 0.012, 192.0, 0.0, 0.0, 0.0, 0.0, 0.0, 0.0, 0.0, 0.0, 0.0, 1.6664049238950696E9, 0.0, 2022-10-21 19:15:23.895
153.0, -134011.76142832774, -159650.32990578772, -40205.13328375021, -110371.37184993886, 62150.34421090415, -64496.20449497754, 57310.54333574097, -118803.1874660477, 0.02, 0.9580000000000001, 0.016, 192.0, 0.0, 160.0, 29.0, 240.0, 0.0, 128.0, 0.0, 0.0, 0.0, 1.666404923895086E9, 0.0, 2022-10-21 19:15:23.895
154.0, -134015.49416965176, -159655.91784190154, -40215.3927344552, -110388.806210614, 62138.34132413165, -64510.19668700656, 57298.540448968466, -118814.65391095328, 0.02, 0.9580000000000001, 0.016, 192.0, 0.0, 0.0, 0.0, 0.0, 0.0, 0.0, 0.0, 0.0, 0.0, 1.6664049238951037E9, 0.0, 2022-10-21 19:15:23.895
155.0, -134027.36294595755, -159667.36193506265, -40228.26733926145, -110419.98689412915, 62128.081873426665, -64536.43763499709, 57278.334471980874, -118827.28264657053, 0.02, 0.9580000000000001, 0.016, 192.0, 0.0, 0.0, 0.0, 0.0, 0.0, 0.0, 0.0, 0.0, 0.0, 1.666404923895123E9, 0.0, 2022-10-21 19:15:23.895
156.0, -134009.30273643765, -159650.30755404325, -40211.21295824205, -110403.44660323222, 62148.66783007, -64546.49592000198, 57289.33153025288, -118812.75401267457, 0.02, 0.9580000000000001, 0.016, 192.0, 0.0, 0.0, 0.0, 0.0, 0.0, 0.0, 0.0, 0.0, 0.0, 1.6664049238951397E9, 0.0, 2022-10-21 19:15:23.895
157.0, -134012.11905623903, -159655.35904829015, -40214.69983037708, -110382.39125995533, 62149.472492870394, -64539.09749258727, 57301.84850714785, -118817.60434122138, 0.02, 0.9580000000000001, 0.016, 192.0, 0.0, 0.0, 0.0, 0.0, 0.0, 0.0, 0.0, 0.0, 0.0, 1.6664049238951564E9, 0.0, 2022-10-21 19:15:23.895
158.0, -134022.80319008866, -159665.43968503948, -40226.09922004929, -110386.03459430154, 62141.69408579994, -64515.829326609295, 57304.91069613823, -118829.33900706042, 0.02, 0.9580000000000001, 0.016, 192.0, 0.0, 0.0, 0.0, 0.0, 0.0, 0.0, 0.0, 0.0, 0.0, 1.6664049238951724E9, 0.0, 2022-10-21 19:15:23.895
159.0, -134024.34546045607, -159665.99847865087, -40231.217769529554, -110408.20752480121, 62136.91081248651, -64523.85360286875, 57289.040957574965, -118828.75786170458, 0.02, 0.9580000000000001, 0.016, 192.0, 0.0, 0.0, 0.0, 0.0, 0.0, 0.0, 0.0, 0.0, 0.0, 1.66640492389519E9, 0.0, 2022-10-21 19:15:23.895
160.0, -134028.48053318032, -159668.4348187965, -40238.5491417109, -110410.7109201802, 62136.24026015285, -64536.57174546382, 57278.42387895869, -118835.30692282999, 0.02, 0.9580000000000001, 0.016, 192.0, 0.0, 0.0, 0.0, 0.0, 0.0, 0.0, 0.0, 0.0, 0.0, 1.6664049238952067E9, 0.0, 2022-10-21 19:15:23.895
161.0, -134024.12194301153, -159664.2326908389, -40232.11183930777, -110402.75369915411, 62134.63093455207, -64542.49495774448, 57284.92823659519, -118826.34387330341, 0.02, 0.9580000000000001, 0.016, 192.0, 0.0, 0.0, 0.0, 0.0, 0.0, 0.0, 0.0, 0.0, 0.0, 1.6664049238952231E9, 0.0, 2022-10-21 19:15:23.895
162.0, -134020.1880359874, -159661.72929545993, -40230.748382895996, -110391.04138505954, 62139.99535322134, -64528.16748954863, 57300.842678647365, -118815.63738770931, 0.02, 0.9580000000000001, 0.016, 192.0, 0.0, 0.0, 0.0, 0.0, 0.0, 0.0, 0.0, 0.0, 0.0, 1.6664049238952398E9, 0.0, 2022-10-21 19:15:23.895
163.0, -134015.94120454087, -159655.91784190154, -40228.244987517, -110401.50200146461, 62146.58911783566, -64533.08487332879, 57298.78631815748, -118812.4410882522, 0.02, 0.9580000000000001, 0.02, 192.0, 0.0, 160.0, 29.0, 240.0, 0.0, 160.0, 0.0, 0.0, 0.0, 1.6664049238952563E9, 0.0, 2022-10-21 19:15:23.895
164.0, -134015.89650105196, -159654.12970234512, -40228.93789159512, -110410.19683005773, 62146.455007368924, -64564.86905394424, 57286.314044751416, -118807.05431783848, 0.02, 0.9580000000000001, 0.02, 192.0, 0.0, 0.0, 0.0, 0.0, 0.0, 0.0, 0.0, 0.0, 0.0, 1.6664049238952737E9, 0.0, 2022-10-21 19:15:23.895
165.0, -134019.87511156502, -159658.75651344736, -40233.00590908598, -110392.71776589367, 62145.44917886844, -64559.795207952884, 57292.527829709994, -118806.36141376036, 0.02, 0.9580000000000001, 0.02, 192.0, 0.0, 0.0, 0.0, 0.0, 0.0, 0.0, 0.0, 0.0, 0.0, 1.6664049238953056E9, 0.0, 2022-10-21 19:15:23.895
166.0, -134023.74196335577, -159664.81383619475, -40238.996176600005, -110389.56616992549, 62141.11294044411, -64543.54548973388, 57296.081757078384, -118813.51397198606, 0.02, 0.9580000000000001, 0.02, 192.0, 0.0, 0.0, 0.0, 0.0, 0.0, 0.0, 0.0, 0.0, 0.0, 1.6664049238953223E9, 0.0, 2022-10-21 19:15:23.895
167.0, -134024.4348674339, -159666.1325891176, -40243.51122897997, -110396.71872815117, 62139.92829798798, -64525.9323151031, 57293.086623321375, -118831.7976989505, 0.02, 0.9580000000000001, 0.02, 192.0, 0.0, 0.0, 0.0, 0.0, 0.0, 0.0, 0.0, 0.0, 0.0, 1.6664049238953395E9, 0.0, 2022-10-21 19:15:23.895
168.0, -134018.91398655344, -159658.24242332487, -40238.48208647753, -110413.6613504483, 62139.77183577679, -64545.7359606905, 57286.314044751416, -118816.30794004297, 0.02, 0.9580000000000001, 0.02, 192.0, 0.0, 0.0, 0.0, 0.0, 0.0, 0.0, 0.0, 0.0, 0.0, 1.6664049238953562E9, 0.0, 2022-10-21 19:15:23.895
169.0, -134019.94216679837, -159657.41540878004, -40236.96216785457, -110402.10549856491, 62144.44335036795, -64552.86616717174, 57293.6230651883, -118812.7987161635, 0.02, 0.9580000000000001, 0.02, 192.0, 0.0, 0.0, 0.0, 0.0, 0.0, 0.0, 0.0, 0.0, 0.0, 1.6664049238953726E9, 0.0, 2022-10-21 19:15:23.895
170.0, -134027.51940816874, -159665.21616759495, -40244.74057492502, -110395.33291999495, 62133.93803047395, -64538.29282978688, 57299.38981525777, -118827.52851575954, 0.02, 0.9580000000000001, 0.02, 192.0, 0.0, 0.0, 0.0, 0.0, 0.0, 0.0, 0.0, 0.0, 0.0, 1.6664049238953893E9, 0.0, 2022-10-21 19:15:23.895
171.0, -134021.70795461035, -159658.08596111368, -40239.15263881119, -110397.18811478475, 62140.12946368808, -64518.44448071057, 57306.296504294456, -118820.51006800057, 0.02, 0.9580000000000001, 0.02, 192.0, 0.0, 0.0, 0.0, 0.0, 0.0, 0.0, 0.0, 0.0, 0.0, 1.6664049238954055E9, 0.0, 2022-10-21 19:15:23.895
172.0, -134021.0821057656, -159657.59422273567, -40241.58897895682, -110425.15014709833, 62129.557088560716, -64546.47356825753, 57286.60461742934, -118824.46632676916, 0.024, 0.96, 0.018000000000000002, 192.0, 0.0, 192.0, 30.0, 0.0, 0.0, 144.0, 0.0, 0.0, 0.0, 1.6664049238954222E9, 0.0, 2022-10-21 19:15:23.895
173.0, -134016.20942547434, -159654.26381281184, -40237.74447891051, -110412.38730101434, 62134.67563804098, -64565.24903359998, 57287.34222499636, -118819.01250112207, 0.024, 0.96, 0.018000000000000002, 192.0, 0.0, 0.0, 0.0, 0.0, 0.0, 0.0, 0.0, 0.0, 0.0, 1.6664049238954391E9, 0.0, 2022-10-21 19:15:23.895
174.0, -134020.6350708765, -159660.27643207033, -40241.67838593464, -110387.7556786246, 62139.50361484333, -64536.594097208275, 57306.05063510545, -118813.51397198606, 0.024, 0.96, 0.018000000000000002, 192.0, 0.0, 0.0, 0.0, 0.0, 0.0, 0.0, 0.0, 0.0, 0.0, 1.6664049238954556E9, 0.0, 2022-10-21 19:15:23.895
175.0, -134018.86928306453, -159657.92949890252, -40243.734746424525, -110400.67498691977, 62139.92829798798, -64536.795262908374, 57307.39173977277, -118807.7919254055, 0.024, 0.96, 0.018000000000000002, 192.0, 0.0, 0.0, 0.0, 0.0, 0.0, 0.0, 0.0, 0.0, 0.0, 1.666404923895474E9, 0.0, 2022-10-21 19:15:23.895
176.0, -134021.10445751005, -159661.72929545993, -40248.719185438065, -110416.74589118313, 62144.39864687904, -64545.400684523665, 57300.32858852489, -118805.22147479314, 0.024, 0.96, 0.018000000000000002, 192.0, 0.0, 0.0, 0.0, 0.0, 0.0, 0.0, 0.0, 0.0, 0.0, 1.666404923895497E9, 0.0, 2022-10-21 19:15:23.895
177.0, -134023.56314940014, -159664.72442921693, -40253.033072117934, -110425.35131279842, 62135.077969441176, -64572.938033692604, 57287.074004062895, -118814.43039350872, 0.024, 0.96, 0.018000000000000002, 192.0, 0.0, 0.0, 0.0, 0.0, 0.0, 0.0, 0.0, 0.0, 0.0, 1.666404923895509E9, 0.0, 2022-10-21 19:15:23.895
178.0, -134022.3338034551, -159661.8857576711, -40248.853295904795, -110397.74690839612, 62144.84568176814, -64547.68056245811, 57308.68814095118, -118803.790963148, 0.024, 0.96, 0.018000000000000002, 192.0, 0.0, 0.0, 0.0, 0.0, 0.0, 0.0, 0.0, 0.0, 0.0, 1.666404923895521E9, 0.0, 2022-10-21 19:15:23.895
179.0, -134041.86922810905, -159683.07521141472, -40269.3051420814, -110417.6623127058, 62122.09160591264, -64525.66409416963, 57298.65220769074, -118824.91336165827, 0.024, 0.96, 0.018000000000000002, 192.0, 0.0, 0.0, 0.0, 0.0, 0.0, 0.0, 0.0, 0.0, 0.0, 1.6664049238955328E9, 0.0, 2022-10-21 19:15:23.895
180.0, -134028.34642271357, -159669.21712985245, -40259.44802277661, -110441.35516182843, 62126.09256817014, -64549.08872235879, 57284.704719150635, -118827.95319890419, 0.024, 0.96, 0.018000000000000002, 192.0, 0.0, 0.0, 0.0, 0.0, 0.0, 0.0, 0.0, 0.0, 0.0, 1.6664049238955555E9, 0.0, 2022-10-21 19:15:23.895
181.0, -134006.4864166363, -159645.14430107406, -40238.41503124416, -110419.13752783985, 62150.67948707098, -64557.49297827399, 57298.65220769074, -118805.46734398215, 0.024, 0.96, 0.018000000000000002, 192.0, 0.0, 0.0, 0.0, 0.0, 0.0, 0.0, 0.0, 0.0, 0.0, 1.6664049238955672E9, 0.0, 2022-10-21 19:15:23.895
182.0, -134014.60009987355, -159653.86148141164, -40247.243970304015, -110404.18421079926, 62142.409341622515, -64539.85745189875, 57304.418957760216, -118811.50231498509, 0.02, 0.9560000000000001, 0.018000000000000002, 192.0, 0.0, 160.0, 29.0, 224.0, 0.0, 144.0, 0.0, 0.0, 0.0, 1.666404923895579E9, 0.0, 2022-10-21 19:15:23.895
183.0, -134021.75265809926, -159660.18702509248, -40256.07290936386, -110414.19779231523, 62132.39576010654, -64528.45806222655, 57301.08854783637, -118813.87159989735, 0.02, 0.9560000000000001, 0.018000000000000002, 192.0, 0.0, 0.0, 0.0, 0.0, 0.0, 0.0, 0.0, 0.0, 0.0, 1.6664049238955915E9, 0.0, 2022-10-21 19:15:23.895
184.0, -134023.25022497776, -159660.41054253705, -40258.978636143045, -110425.23955407615, 62136.6649432975, -64518.64564641067, 57298.09341407936, -118818.65487321078, 0.02, 0.9560000000000001, 0.018000000000000002, 192.0, 0.0, 0.0, 0.0, 0.0, 0.0, 0.0, 0.0, 0.0, 0.0, 1.6664049238956032E9, 0.0, 2022-10-21 19:15:23.895
185.0, -134019.85275982055, -159656.74485644637, -40256.810516930884, -110433.44264429125, 62135.01091420781, -64534.89536462967, 57291.18672504267, -118811.1446870738, 0.02, 0.9560000000000001, 0.018000000000000002, 192.0, 0.0, 0.0, 0.0, 0.0, 0.0, 0.0, 0.0, 0.0, 0.0, 1.6664049238956149E9, 0.0, 2022-10-21 19:15:23.895
186.0, -134022.44556217737, -159662.77982744933, -40262.04082513342, -110429.08405412246, 62124.68440826946, -64566.90306268967, 57283.31891099441, -118811.83759115191, 0.02, 0.9560000000000001, 0.018000000000000002, 192.0, 0.0, 0.0, 0.0, 0.0, 0.0, 0.0, 0.0, 0.0, 0.0, 1.6664049238956268E9, 0.0, 2022-10-21 19:15:23.895
187.0, -134019.36102144254, -159660.61170823715, -40259.78329894344, -110409.70509167972, 62133.84862349613, -64568.57944352382, 57292.9748645991, -118811.01057660706, 0.02, 0.9560000000000001, 0.018000000000000002, 192.0, 0.0, 0.0, 0.0, 0.0, 0.0, 0.0, 0.0, 0.0, 0.0, 1.6664049238956385E9, 0.0, 2022-10-21 19:15:23.895
188.0, -134030.17926575892, -159670.4911792864, -40271.18268861565, -110424.63605697585, 62130.78643450576, -64549.71457120354, 57293.73482391058, -118817.67139645475, 0.02, 0.9560000000000001, 0.018000000000000002, 192.0, 0.0, 0.0, 0.0, 0.0, 0.0, 0.0, 0.0, 0.0, 0.0, 1.66640492389565E9, 0.0, 2022-10-21 19:15:23.895
189.0, -134024.39016394498, -159665.59614725068, -40268.61223800328, -110430.60397274542, 62134.3180101297, -64547.45704501356, 57294.0253965885, -118814.78802142001, 0.02, 0.9560000000000001, 0.018000000000000002, 192.0, 0.0, 0.0, 0.0, 0.0, 0.0, 0.0, 0.0, 0.0, 0.0, 1.6664049238956618E9, 0.0, 2022-10-21 19:15:23.895
190.0, -134028.43582969139, -159668.65833624106, -40274.088415394835, -110431.92272566828, 62120.77285298978, -64549.28988805889, 57291.3208355094, -118825.42745178074, 0.02, 0.9560000000000001, 0.018000000000000002, 192.0, 0.0, 0.0, 0.0, 0.0, 0.0, 0.0, 0.0, 0.0, 0.0, 1.6664049238956735E9, 0.0, 2022-10-21 19:15:23.895
191.0, -134021.30562321015, -159662.15397860456, -40268.32166532537, -110418.22110631719, 62124.505594313814, -64538.002257108965, 57302.027321103495, -118825.71802445866, 0.02, 0.9560000000000001, 0.018000000000000002, 192.0, 0.0, 0.0, 0.0, 0.0, 0.0, 0.0, 0.0, 0.0, 0.0, 1.6664049238956857E9, 0.0, 2022-10-21 19:15:23.895
192.0, -134017.79639933066, -159657.54951924676, -40268.008740902995, -110425.79834768754, 62127.321914115186, -64545.95947813505, 57301.133251325286, -118819.03485286652, 0.016, 0.9580000000000001, 0.014, 192.0, 0.0, 128.0, 29.0, 240.0, 0.0, 112.0, 0.0, 0.0, 0.0, 1.666404923895697E9, 0.0, 2022-10-21 19:15:23.895
193.0, -134027.20648374635, -159666.60197575117, -40275.96596192908, -110444.88673745237, 62122.493937312836, -64564.422019055135, 57289.53269595298, -118817.58198947692, 0.016, 0.9580000000000001, 0.014, 192.0, 0.0, 0.0, 0.0, 0.0, 0.0, 0.0, 0.0, 0.0, 0.0, 1.6664049238957093E9, 0.0, 2022-10-21 19:15:23.895
194.0, -134033.7331931273, -159672.0781531427, -40280.07868290886, -110442.78567347357, 62117.9118296995, -64576.84958897228, 57286.649320918244, -118818.11843134386, 0.016, 0.9580000000000001, 0.014, 192.0, 0.0, 0.0, 0.0, 0.0, 0.0, 0.0, 0.0, 0.0, 0.0, 1.666404923895721E9, 0.0, 2022-10-21 19:15:23.895
195.0, -134045.44550722188, -159682.85169397018, -40291.38866560324, -110433.44264429125, 62114.044977908736, -64571.887501703204, 57288.28099826348, -118828.15436460428, 0.016, 0.9580000000000001, 0.014, 192.0, 0.0, 0.0, 0.0, 0.0, 0.0, 0.0, 0.0, 0.0, 0.0, 1.6664049238957436E9, 0.0, 2022-10-21 19:15:23.895
196.0, -134030.84981809257, -159667.9877839074, -40279.318723597375, -110425.75364419862, 62127.947762959935, -64542.80788216685, 57303.234315304086, -118810.65294869579, 0.016, 0.9580000000000001, 0.014, 192.0, 0.0, 0.0, 0.0, 0.0, 0.0, 0.0, 0.0, 0.0, 0.0, 1.6664049238957553E9, 0.0, 2022-10-21 19:15:23.895
197.0, -134025.64186163447, -159665.79731295077, -40276.23418286254, -110434.13554836936, 62133.736864773855, -64539.745693176475, 57299.70273968014, -118812.7987161635, 0.016, 0.9580000000000001, 0.014, 192.0, 0.0, 0.0, 0.0, 0.0, 0.0, 0.0, 0.0, 0.0, 0.0, 1.666404923895769E9, 0.0, 2022-10-21 19:15:23.895
198.0, -134029.12873376952, -159669.932385675, -40279.54224104193, -110434.09084488045, 62129.95941996091, -64549.24518456998, 57290.359710497825, -118815.92796038723, 0.016, 0.9580000000000001, 0.014, 192.0, 0.0, 0.0, 0.0, 0.0, 0.0, 0.0, 0.0, 0.0, 0.0, 1.6664049238957803E9, 0.0, 2022-10-21 19:15:23.895
199.0, -134043.41149847646, -159683.432839326, -40294.76377901599, -110430.22399308968, 62116.99540817683, -64547.41234152464, 57284.45884996162, -118828.62375123784, 0.016, 0.9580000000000001, 0.014, 192.0, 0.0, 0.0, 0.0, 0.0, 0.0, 0.0, 0.0, 0.0, 0.0, 1.666404923895792E9, 0.0, 2022-10-21 19:15:23.895
200.0, -134033.15204777147, -159673.30749908776, -40284.03494167745, -110426.58065874346, 62123.83504198016, -64539.52217573192, 57296.238219289575, -118816.77732667653, 0.016, 0.9580000000000001, 0.014, 192.0, 0.0, 0.0, 0.0, 0.0, 0.0, 0.0, 0.0, 0.0, 0.0, 1.6664049238958037E9, 0.0, 2022-10-21 19:15:23.895
201.0, -134035.27546349473, -159674.02275491034, -40284.30316261091, -110445.02084791909, 62125.01968443629, -64550.228661326015, 57291.56670469841, -118812.5975504634, 0.014, 0.962, 0.012, 192.0, 0.0, 112.0, 30.0, 16.0, 0.0, 96.0, 0.0, 0.0, 0.0, 1.6664049238958151E9, 0.0, 2022-10-21 19:15:23.895
202.0, -134030.91687332594, -159666.71373447345, -40278.53641254144, -110443.50092929613, 62130.16058566101, -64576.91664420565, 57285.35291973984, -118804.70738467066, 0.014, 0.962, 0.012, 192.0, 0.0, 0.0, 0.0, 0.0, 0.0, 0.0, 0.0, 0.0, 0.0, 1.6664049238958278E9, 0.0, 2022-10-21 19:15:23.895
203.0, -134034.38139371653, -159669.35124031917, -40281.33038059835, -110424.63605697585, 62129.33357111616, -64563.70676323256, 57296.171164056206, -118812.73166093012, 0.014, 0.962, 0.012, 192.0, 0.0, 0.0, 0.0, 0.0, 0.0, 0.0, 0.0, 0.0, 0.0, 1.6664049238958397E9, 0.0, 2022-10-21 19:15:23.895
204.0, -134033.2861582382, -159668.36776356315, -40281.62095327627, -110417.95288538373, 62130.83113799467, -64542.87493740022, 57305.24597230506, -118812.55284697447, 0.014, 0.962, 0.012, 192.0, 0.0, 0.0, 0.0, 0.0, 0.0, 0.0, 0.0, 0.0, 0.0, 1.6664049238958511E9, 0.0, 2022-10-21 19:15:23.895
205.0, -134040.99751007528, -159675.6320805111, -40291.768645258984, -110440.23757460566, 62121.0634256677, -64536.83996639729, 57294.36067275533, -118818.20783832167, 0.014, 0.962, 0.012, 192.0, 0.0, 0.0, 0.0, 0.0, 0.0, 0.0, 0.0, 0.0, 0.0, 1.6664049238958628E9, 0.0, 2022-10-21 19:15:23.895
206.0, -134036.01307106175, -159671.40760080906, -40290.78516850295, -110456.06260968001, 62119.09647215563, -64565.87488244473, 57280.703756893134, -118813.15634407477, 0.014, 0.962, 0.012, 192.0, 0.0, 0.0, 0.0, 0.0, 0.0, 0.0, 0.0, 0.0, 0.0, 1.6664049238958745E9, 0.0, 2022-10-21 19:15:23.895
207.0, -134033.59908266057, -159670.3347170752, -40289.89109872474, -110430.13458611186, 62124.84087048064, -64558.85643468576, 57293.53365821048, -118808.35071901689, 0.014, 0.962, 0.012, 192.0, 0.0, 0.0, 0.0, 0.0, 0.0, 0.0, 0.0, 0.0, 0.0, 1.6664049238958864E9, 0.0, 2022-10-21 19:15:23.895
208.0, -134040.79634437518, -159677.93431019, -40297.49069183954, -110425.30660930951, 62119.92348670048, -64526.08877731428, 57299.43451874668, -118805.6908614267, 0.014, 0.962, 0.012, 192.0, 0.0, 0.0, 0.0, 0.0, 0.0, 0.0, 0.0, 0.0, 0.0, 1.666404923895898E9, 0.0, 2022-10-21 19:15:23.895
209.0, -134042.3833182315, -159679.2307113684, -40305.02322972098, -110459.23655739267, 62109.50757378431, -64561.51629227595, 57273.4170882007, -118814.56450397546, 0.014, 0.962, 0.012, 192.0, 0.0, 0.0, 0.0, 0.0, 0.0, 0.0, 0.0, 0.0, 0.0, 1.66640492389591E9, 0.0, 2022-10-21 19:15:23.895
210.0, -134076.38032154803, -159713.13830770712, -40340.718965616106, -110489.61257810744, 62081.21026530389, -64602.33057765134, 57239.15186395072, -118856.60813529589, 0.014, 0.962, 0.012, 192.0, 0.0, 0.0, 0.0, 0.0, 0.0, 0.0, 0.0, 0.0, 0.0, 1.6664049238959327E9, 0.0, 2022-10-21 19:15:23.895
211.0, -134057.2472282943, -159694.02756619782, -40322.41288690721, -110458.90128122584, 62096.52121025577, -64575.195559882595, 57262.464733417604, -118837.72091123115, 0.018000000000000002, 0.9580000000000001, 0.01, 192.0, 0.0, 144.0, 29.0, 240.0, 0.0, 80.0, 0.0, 0.0, 0.0, 1.6664049238959446E9, 0.0, 2022-10-21 19:15:23.895
212.0, -134029.57576865863, -159665.0373536393, -40292.01451444799, -110424.27842906456, 62125.77964374777, -64542.763178677946, 57294.49478322206, -118805.40028874879, 0.018000000000000002, 0.9580000000000001, 0.01, 192.0, 0.0, 0.0, 0.0, 0.0, 0.0, 0.0, 0.0, 0.0, 0.0, 1.6664049238959572E9, 0.0, 2022-10-21 19:15:23.895
213.0, -134026.87120757953, -159663.80800769426, -40289.64522953573, -110439.36585657191, 62127.67954202647, -64555.235452084, 57289.465640719616, -118798.00186133408, 0.018000000000000002, 0.9580000000000001, 0.01, 192.0, 0.0, 0.0, 0.0, 0.0, 0.0, 0.0, 0.0, 0.0, 0.0, 1.6664049238959696E9, 0.0, 2022-10-21 19:15:23.895
214.0, -134032.36973671554, -159669.21712985245, -40293.28856388194, -110441.33281008397, 62133.78156826277, -64567.75242897897, 57286.91754185171, -118801.39932649129, 0.018000000000000002, 0.9580000000000001, 0.01, 192.0, 0.0, 0.0, 0.0, 0.0, 0.0, 0.0, 0.0, 0.0, 0.0, 1.6664049238959816E9, 0.0, 2022-10-21 19:15:23.895
215.0, -134043.88088511, -159679.90126370208, -40306.69961055513, -110450.34056309945, 62120.48228031186, -64578.34715585079, 57275.62991090178, -118825.00276863608, 0.018000000000000002, 0.9580000000000001, 0.01, 192.0, 0.0, 0.0, 0.0, 0.0, 0.0, 0.0, 0.0, 0.0, 0.0, 1.6664049238959935E9, 0.0, 2022-10-21 19:15:23.895
216.0, -134045.51256245526, -159683.16461839256, -40309.314764656396, -110444.23853686317, 62117.48714655485, -64570.61345226925, 57281.24019876006, -118832.40119605079, 0.018000000000000002, 0.9580000000000001, 0.01, 192.0, 0.0, 0.0, 0.0, 0.0, 0.0, 0.0, 0.0, 0.0, 0.0, 1.6664049238960056E9, 0.0, 2022-10-21 19:15:23.896
217.0, -134045.1772862884, -159682.3376038477, -40309.22535767858, -110446.78663573107, 62121.7116262569, -64559.14700736368, 57284.972940084095, -118820.89004765631, 0.018000000000000002, 0.9580000000000001, 0.01, 192.0, 0.0, 0.0, 0.0, 0.0, 0.0, 0.0, 0.0, 0.0, 0.0, 1.666404923896018E9, 0.0, 2022-10-21 19:15:23.896
218.0, -134047.2336467783, -159682.47171431445, -40312.24284318004, -110469.83128426448, 62117.82242272168, -64585.85734198777, 57268.052669531426, -118818.40900402177, 0.018000000000000002, 0.9580000000000001, 0.01, 192.0, 0.0, 0.0, 0.0, 0.0, 0.0, 0.0, 0.0, 0.0, 0.0, 1.66640492389603E9, 0.0, 2022-10-21 19:15:23.896
219.0, -134049.71469041286, -159683.41048758157, -40313.42748563617, -110460.10827542644, 62117.15187038802, -64594.84274325881, 57268.969091054096, -118816.50910574307, 0.018000000000000002, 0.9580000000000001, 0.01, 192.0, 0.0, 0.0, 0.0, 0.0, 0.0, 0.0, 0.0, 0.0, 0.0, 1.6664049238960438E9, 0.0, 2022-10-21 19:15:23.896
220.0, -134046.11605955556, -159680.14713289108, -40312.86869202479, -110441.31045833952, 62119.45410006692, -64570.52404529144, 57283.96711158361, -118816.88908539881, 0.018000000000000002, 0.9580000000000001, 0.01, 192.0, 0.0, 0.0, 0.0, 0.0, 0.0, 0.0, 0.0, 0.0, 0.0, 1.6664049238960557E9, 0.0, 2022-10-21 19:15:23.896
221.0, -134048.9770828458, -159681.8905689586, -40316.75789556002, -110448.88769970987, 62117.95653318841, -64540.52800423241, 57291.119669809304, -118824.93571340272, 0.024, 0.96, 0.012, 192.0, 0.0, 192.0, 30.0, 0.0, 0.0, 96.0, 0.0, 0.0, 0.0, 1.6664049238960674E9, 0.0, 2022-10-21 19:15:23.896
222.0, -134047.70303341188, -159680.01302242436, -40314.768590303494, -110468.06549645252, 62115.363730831596, -64556.01776313994, 57279.09443129235, -118816.6432162098, 0.024, 0.96, 0.012, 192.0, 0.0, 0.0, 0.0, 0.0, 0.0, 0.0, 0.0, 0.0, 0.0, 1.6664049238960798E9, 0.0, 2022-10-21 19:15:23.896
223.0, -134049.9382078574, -159681.5776445362, -40319.529511872475, -110468.89251099736, 62109.976960417865, -64582.70574601958, 57269.70669862112, -118806.16024806026, 0.024, 0.96, 0.012, 192.0, 0.0, 0.0, 0.0, 0.0, 0.0, 0.0, 0.0, 0.0, 0.0, 1.6664049238960917E9, 0.0, 2022-10-21 19:15:23.896
224.0, -134062.11990858553, -159692.70881327498, -40330.05718351092, -110460.84588299345, 62099.51634401278, -64594.46276360307, 57266.82332358639, -118821.00180637858, 0.024, 0.96, 0.012, 192.0, 0.0, 0.0, 0.0, 0.0, 0.0, 0.0, 0.0, 0.0, 0.0, 1.6664049238961043E9, 0.0, 2022-10-21 19:15:23.896
225.0, -134071.61939997904, -159701.87302850164, -40341.79184934996, -110463.43868535027, 62091.11208809759, -64575.888463960706, 57266.04101253045, -118841.20778336619, 0.024, 0.96, 0.012, 192.0, 0.0, 0.0, 0.0, 0.0, 0.0, 0.0, 0.0, 0.0, 0.0, 1.6664049238961272E9, 0.0, 2022-10-21 19:15:23.896
226.0, -134043.2326845208, -159672.189911865, -40320.17771246168, -110465.69621154026, 62111.56393427419, -64573.720344748544, 57276.21105625761, -118823.16992559076, 0.024, 0.96, 0.012, 192.0, 0.0, 0.0, 0.0, 0.0, 0.0, 0.0, 0.0, 0.0, 0.0, 1.6664049238961391E9, 0.0, 2022-10-21 19:15:23.896
227.0, -134048.61945493455, -159676.7943712228, -40320.89296828425, -110469.31719414202, 62114.00027441982, -64580.87290297424, 57274.57937891238, -118815.07859409793, 0.024, 0.96, 0.012, 192.0, 0.0, 0.0, 0.0, 0.0, 0.0, 0.0, 0.0, 0.0, 0.0, 1.6664049238961513E9, 0.0, 2022-10-21 19:15:23.896
228.0, -134047.4795159673, -159678.85073171268, -40320.33417467287, -110450.98876368866, 62112.212134863395, -64557.9400131631, 57286.157582540225, -118807.36724226085, 0.024, 0.96, 0.012, 192.0, 0.0, 0.0, 0.0, 0.0, 0.0, 0.0, 0.0, 0.0, 0.0, 1.666404923896163E9, 0.0, 2022-10-21 19:15:23.896
229.0, -134043.4785537098, -159678.04606891228, -40319.55186361693, -110456.28612712456, 62106.9594749164, -64564.22085335504, 57280.569646426404, -118815.5926842204, 0.024, 0.96, 0.012, 192.0, 0.0, 0.0, 0.0, 0.0, 0.0, 0.0, 0.0, 0.0, 0.0, 1.666404923896175E9, 0.0, 2022-10-21 19:15:23.896
230.0, -134042.71859439835, -159680.10242940218, -40321.42941015118, -110468.11019994142, 62111.40747206301, -64573.45212381508, 57274.24410274555, -118819.25837031107, 0.024, 0.96, 0.012, 192.0, 0.0, 0.0, 0.0, 0.0, 0.0, 0.0, 0.0, 0.0, 0.0, 1.6664049238961866E9, 0.0, 2022-10-21 19:15:23.896
231.0, -134044.55143744368, -159681.7788102363, -40326.12327648679, -110476.38034538989, 62108.81466970619, -64578.07893491733, 57266.800971841934, -118826.36622504787, 0.024, 0.968, 0.016, 192.0, 0.0, 192.0, 30.0, 64.0, 0.0, 128.0, 0.0, 0.0, 0.0, 1.6664049238961985E9, 0.0, 2022-10-21 19:15:23.896
232.0, -134045.95959734436, -159684.1480951486, -40325.92211078669, -110468.64664180836, 62101.2597800803, -64577.90012096168, 57267.650338131236, -118825.24863782509, 0.024, 0.968, 0.016, 192.0, 0.0, 0.0, 0.0, 0.0, 0.0, 0.0, 0.0, 0.0, 0.0, 1.6664049238962107E9, 0.0, 2022-10-21 19:15:23.896
233.0, -134040.32695774164, -159679.90126370208, -40320.17771246168, -110453.067475923, 62110.267533095786, -64564.287908588405, 57282.178972027184, -118811.36820451835, 0.024, 0.968, 0.016, 192.0, 0.0, 0.0, 0.0, 0.0, 0.0, 0.0, 0.0, 0.0, 0.0, 1.6664049238962224E9, 0.0, 2022-10-21 19:15:23.896
234.0, -134046.00430083327, -159685.1315719046, -40325.13979973076, -110461.65054579385, 62112.703873241415, -64552.97792589402, 57281.37430922679, -118812.82106790795, 0.024, 0.968, 0.016, 192.0, 0.0, 0.0, 0.0, 0.0, 0.0, 0.0, 0.0, 0.0, 0.0, 1.666404923896234E9, 0.0, 2022-10-21 19:15:23.896
235.0, -134043.143277543, -159685.0421649268, -40325.16215147521, -110470.61359532042, 62115.430786064964, -64559.54933876388, 57276.322814979896, -118812.7987161635, 0.024, 0.968, 0.016, 192.0, 0.0, 0.0, 0.0, 0.0, 0.0, 0.0, 0.0, 0.0, 0.0, 1.6664049238962457E9, 0.0, 2022-10-21 19:15:23.896
236.0, -134044.57378918814, -159690.63010104062, -40331.84532306735, -110461.33762137147, 62108.47939353936, -64537.39876000867, 57281.396660971244, -118816.82203016545, 0.024, 0.968, 0.016, 192.0, 0.0, 0.0, 0.0, 0.0, 0.0, 0.0, 0.0, 0.0, 0.0, 1.6664049238962576E9, 0.0, 2022-10-21 19:15:23.896
237.0, -134043.65736766547, -159690.4959905739, -40331.621805622795, -110458.74481901465, 62103.405547548005, -64525.37352149171, 57282.35778598283, -118813.91630338626, 0.024, 0.968, 0.016, 192.0, 0.0, 0.0, 0.0, 0.0, 0.0, 0.0, 0.0, 0.0, 0.0, 1.6664049238962693E9, 0.0, 2022-10-21 19:15:23.896
238.0, -134038.09178329608, -159687.0314701833, -40326.302090442434, -110464.55627257304, 62111.34041682964, -64536.23646929699, 57277.976844069584, -118813.17869581922, 0.024, 0.968, 0.016, 192.0, 0.0, 0.0, 0.0, 0.0, 0.0, 0.0, 0.0, 0.0, 0.0, 1.6664049238962812E9, 0.0, 2022-10-21 19:15:23.896
239.0, -134042.96446358736, -159691.72533651892, -40328.760782332516, -110482.34826115945, 62108.635855750545, -64572.20042612558, 57261.972995039585, -118813.17869581922, 0.024, 0.968, 0.016, 192.0, 0.0, 0.0, 0.0, 0.0, 0.0, 0.0, 0.0, 0.0, 0.0, 1.6664049238962927E9, 0.0, 2022-10-21 19:15:23.896
240.0, -134058.5883329616, -159708.82442102724, -40343.51293367302, -110487.28799668408, 62095.26951256627, -64598.26256016047, 57249.99246001154, -118820.59947497839, 0.018000000000000002, 0.968, 0.018000000000000002, 192.0, 0.0, 144.0, 30.0, 64.0, 0.0, 144.0, 0.0, 0.0, 0.0, 1.666404923896318E9, 0.0, 2022-10-21 19:15:23.896
241.0, -134033.46497219385, -159685.91388296057, -40322.92697702968, -110457.76134225861, 62116.481318054364, -64568.467684801544, 57279.04972780344, -118807.36724226085, 0.018000000000000002, 0.968, 0.018000000000000002, 192.0, 0.0, 0.0, 0.0, 0.0, 0.0, 0.0, 0.0, 0.0, 0.0, 1.6664049243738043E9, 0.0, 2022-10-21 19:15:24.373
242.0, -134024.94895755636, -159677.55433053427, -40318.3672211608, -110451.27933636658, 62127.187803648456, -64563.863225443754, 57281.79899237144, -118812.93282663022, 0.018000000000000002, 0.968, 0.018000000000000002, 192.0, 0.0, 0.0, 0.0, 0.0, 0.0, 0.0, 0.0, 0.0, 0.0, 1.666404924373862E9, 0.0, 2022-10-21 19:15:24.373
243.0, -134036.2812919952, -159689.82543824022, -40332.58293063437, -110474.25692966663, 62112.45800405241, -64573.11684764825, 57263.29174796245, -118836.8938966863, 0.018000000000000002, 0.968, 0.018000000000000002, 192.0, 0.0, 0.0, 0.0, 0.0, 0.0, 0.0, 0.0, 0.0, 0.0, 1.6664049243739042E9, 0.0, 2022-10-21 19:15:24.373
244.0, -134038.96350132985, -159695.61454005417, -40336.2709684695, -110481.18597044778, 62105.081928382155, -64576.581368038824, 57257.010907770506, -118836.4021583083, 0.018000000000000002, 0.968, 0.018000000000000002, 192.0, 0.0, 0.0, 0.0, 0.0, 0.0, 0.0, 0.0, 0.0, 0.0, 1.6664049243739858E9, 0.0, 2022-10-21 19:15:24.373
245.0, -134021.0821057656, -159678.8283799682, -40315.37208740379, -110445.15495838583, 62125.62318153658, -64556.0848183733, 57282.42484121619, -118808.26131203906, 0.018000000000000002, 0.968, 0.018000000000000002, 192.0, 0.0, 0.0, 0.0, 0.0, 0.0, 0.0, 0.0, 0.0, 0.0, 1.6664049243740027E9, 0.0, 2022-10-21 19:15:24.374
246.0, -134025.73126861232, -159682.22584512542, -40322.14466597375, -110454.69915326824, 62118.89530645553, -64553.35790554976, 57277.19453301365, -118811.43525975171, 0.018000000000000002, 0.968, 0.018000000000000002, 192.0, 0.0, 0.0, 0.0, 0.0, 0.0, 0.0, 0.0, 0.0, 0.0, 1.6664049243740196E9, 0.0, 2022-10-21 19:15:24.374
247.0, -134039.52229494124, -159695.61454005417, -40337.58972139236, -110487.7797350621, 62103.09262312563, -64576.804885483376, 57254.351050180325, -118827.66262622627, 0.018000000000000002, 0.968, 0.018000000000000002, 192.0, 0.0, 0.0, 0.0, 0.0, 0.0, 0.0, 0.0, 0.0, 0.0, 1.666404924374036E9, 0.0, 2022-10-21 19:15:24.374
248.0, -134040.52812344173, -159698.72143253344, -40337.902645814735, -110483.64466233787, 62101.75151845831, -64580.02353668494, 57253.50168389102, -118826.76855644806, 0.018000000000000002, 0.968, 0.018000000000000002, 192.0, 0.0, 0.0, 0.0, 0.0, 0.0, 0.0, 0.0, 0.0, 0.0, 1.6664049243740523E9, 0.0, 2022-10-21 19:15:24.374
249.0, -134031.74388787078, -159690.4959905739, -40327.33027068738, -110458.56600505901, 62109.14994587302, -64569.36175457976, 57270.53371316597, -118811.97170161865, 0.018000000000000002, 0.968, 0.018000000000000002, 192.0, 0.0, 0.0, 0.0, 0.0, 0.0, 0.0, 0.0, 0.0, 0.0, 1.6664049243740687E9, 0.0, 2022-10-21 19:15:24.374
250.0, -134031.22979774832, -159689.7360312624, -40327.30791894292, -110461.33762137147, 62109.77579471777, -64567.75242897897, 57272.23244574457, -118808.12720157234, 0.018000000000000002, 0.964, 0.014, 192.0, 0.0, 144.0, 30.0, 32.0, 0.0, 112.0, 0.0, 0.0, 0.0, 1.6664049243740857E9, 0.0, 2022-10-21 19:15:24.374
251.0, -134035.47662919483, -159693.2452551419, -40337.276796969985, -110486.5280373726, 62105.12663187106, -64584.203312898084, 57255.692154847646, -118820.17479183374, 0.018000000000000002, 0.964, 0.014, 192.0, 0.0, 0.0, 0.0, 0.0, 0.0, 0.0, 0.0, 0.0, 0.0, 1.6664049243741035E9, 0.0, 2022-10-21 19:15:24.374
252.0, -134032.45914369336, -159690.20541789598, -40335.041622524455, -110486.10335422795, 62104.880762682056, -64594.127487436235, 57253.166407724195, -118824.57808549143, 0.018000000000000002, 0.964, 0.014, 192.0, 0.0, 0.0, 0.0, 0.0, 0.0, 0.0, 0.0, 0.0, 0.0, 1.6664049243741217E9, 0.0, 2022-10-21 19:15:24.374
253.0, -134027.56411165764, -159686.07034517176, -40331.08536375587, -110467.48435109667, 62109.66403599549, -64590.26063564547, 57263.67172761819, -118820.13008834483, 0.018000000000000002, 0.964, 0.014, 192.0, 0.0, 0.0, 0.0, 0.0, 0.0, 0.0, 0.0, 0.0, 0.0, 1.666404924374138E9, 0.0, 2022-10-21 19:15:24.374
254.0, -134028.52523666923, -159686.182103894, -40333.74522134605, -110469.63011856438, 62108.05471039471, -64590.81942925685, 57266.82332358639, -118824.71219595817, 0.018000000000000002, 0.964, 0.014, 192.0, 0.0, 0.0, 0.0, 0.0, 0.0, 0.0, 0.0, 0.0, 0.0, 1.6664049243741546E9, 0.0, 2022-10-21 19:15:24.374
255.0, -134026.06654477914, -159684.01398468186, -40332.56057888992, -110482.03533673708, 62109.418166806485, -64595.71446129256, 57264.90107356323, -118823.75107094659, 0.018000000000000002, 0.964, 0.014, 192.0, 0.0, 0.0, 0.0, 0.0, 0.0, 0.0, 0.0, 0.0, 0.0, 1.6664049243742385E9, 0.0, 2022-10-21 19:15:24.374
0.0, -134028.25701573575, -159686.8303044832, -40333.588759134866, -110488.6291013514, 62114.26849535329, -64601.36945263976, 57264.90107356323, -118820.55477148948, 0.018000000000000002, 0.964, 0.014, 192.0, 0.0, 0.0, 0.0, 0.0, 0.0, 0.0, 0.0, 0.0, 0.0, 1.6664049243742552E9, 0.0, 2022-10-21 19:15:24.374
1.0, -134038.85174260757, -159698.11793543314, -40343.53528541748, -110480.58247334749, 62105.73012897136, -64587.35490886628, 57267.60563464232, -118821.78411743452, 0.018000000000000002, 0.964, 0.014, 192.0, 0.0, 0.0, 0.0, 0.0, 0.0, 0.0, 0.0, 0.0, 0.0, 1.6664049243742716E9, 0.0, 2022-10-21 19:15:24.374
2.0, -134026.60298664606, -159685.7350690049, -40333.70051785714, -110466.14324642936, 62113.396777319525, -64568.132408634716, 57279.38500397027, -118811.45761149617, 0.018000000000000002, 0.964, 0.014, 192.0, 0.0, 0.0, 0.0, 0.0, 0.0, 0.0, 0.0, 0.0, 0.0, 1.6664049243742886E9, 0.0, 2022-10-21 19:15:24.374
3.0, -134029.03932679168, -159691.7476882634, -40343.33411971738, -110491.49012464168, 62104.4113760485, -64577.38603083921, 57264.58814914086, -118826.9473704037, 0.018000000000000002, 0.964, 0.014, 192.0, 0.0, 0.0, 0.0, 0.0, 0.0, 0.0, 0.0, 0.0, 0.0, 1.6664049243743052E9, 0.0, 2022-10-21 19:15:24.374
4.0, -134037.62239666254, -159698.60967381118, -40353.772384378004, -110508.45509868326, 62100.276303324266, -64594.418060114156, 57250.6630123452, -118839.12907113184, 0.018000000000000002, 0.9540000000000001, 0.02, 192.0, 0.0, 144.0, 29.0, 208.0, 0.0, 160.0, 0.0, 0.0, 0.0, 1.666404924374322E9, 0.0, 2022-10-21 19:15:24.374
5.0, -134045.87019036655, -159706.72335704844, -40362.98130309359, -110503.94004630328, 62088.80985841869, -64597.18967642661, 57246.61734659879, -118846.88512645784, 0.018000000000000002, 0.9540000000000001, 0.02, 192.0, 0.0, 0.0, 0.0, 0.0, 0.0, 0.0, 0.0, 0.0, 0.0, 1.6664049243743472E9, 0.0, 2022-10-21 19:15:24.374
6.0, -134039.92462634144, -159700.86720000114, -40357.54982919095, -110488.04795599556, 62089.59216947463, -64580.53762680741, 57259.76017233851, -118840.06784439896, 0.018000000000000002, 0.9540000000000001, 0.02, 192.0, 0.0, 0.0, 0.0, 0.0, 0.0, 0.0, 0.0, 0.0, 0.0, 1.666404924374364E9, 0.0, 2022-10-21 19:15:24.374
7.0, -134019.02574527572, -159678.56015903477, -40334.192256235154, -110481.29772917007, 62115.25197210932, -64570.21112086906, 57278.334471980874, -118816.03971910951, 0.018000000000000002, 0.9540000000000001, 0.02, 192.0, 0.0, 0.0, 0.0, 0.0, 0.0, 0.0, 0.0, 0.0, 0.0, 1.6664049243743804E9, 0.0, 2022-10-21 19:15:24.374
8.0, -134018.31048945314, -159676.6379090116, -40337.23209348108, -110488.78556356259, 62122.73980650185, -64573.362716837255, 57278.6697481477, -118809.17773356174, 0.018000000000000002, 0.9540000000000001, 0.02, 192.0, 0.0, 0.0, 0.0, 0.0, 0.0, 0.0, 0.0, 0.0, 0.0, 1.6664049243743973E9, 0.0, 2022-10-21 19:15:24.374
9.0, -134019.09280050907, -159677.95666193447, -40345.36812846281, -110492.69711884226, 62110.7592714738, -64582.99631869749, 57273.05946028942, -118814.87742839783, 0.018000000000000002, 0.9540000000000001, 0.02, 192.0, 0.0, 0.0, 0.0, 0.0, 0.0, 0.0, 0.0, 0.0, 0.0, 1.6664049243744135E9, 0.0, 2022-10-21 19:15:24.374
10.0, -134025.10541976755, -159683.1422666481, -40353.39240472227, -110490.68546184129, 62098.085832367644, -64601.21299042857, 57265.90690206372, -118835.37397806335, 0.018000000000000002, 0.9540000000000001, 0.02, 192.0, 0.0, 0.0, 0.0, 0.0, 0.0, 0.0, 0.0, 0.0, 0.0, 1.66640492437443E9, 0.0, 2022-10-21 19:15:24.374
11.0, -134029.93339656992, -159687.5902637947, -40359.293265258464, -110499.1344212454, 62094.71071895489, -64605.236304430524, 57259.93898629415, -118842.12420488885, 0.018000000000000002, 0.9540000000000001, 0.02, 192.0, 0.0, 0.0, 0.0, 0.0, 0.0, 0.0, 0.0, 0.0, 0.0, 1.6664049243744464E9, 0.0, 2022-10-21 19:15:24.374
12.0, -134013.59427137306, -159671.11702813115, -40344.42935519569, -110498.39681367837, 62110.111070884595, -64610.757185310984, 57261.66007061721, -118827.26029482608, 0.018000000000000002, 0.9540000000000001, 0.02, 192.0, 0.0, 0.0, 0.0, 0.0, 0.0, 0.0, 0.0, 0.0, 0.0, 1.6664049243744652E9, 0.0, 2022-10-21 19:15:24.374
