%OpenBCI Raw EEG Data
%Number of channels = 8
%Sample Rate = 250 Hz
%Board = OpenBCI_GUI$BoardCytonSerial
Sample Index, EXG Channel 0, EXG Channel 1, EXG Channel 2, EXG Channel 3, EXG Channel 4, EXG Channel 5, EXG Channel 6, EXG Channel 7, Accel Channel 0, Accel Channel 1, Accel Channel 2, Other, Other, Other, Other, Other, Other, Other, Analog Channel 0, Analog Channel 1, Analog Channel 2, Timestamp, Other, Timestamp (Formatted)
102.0, -130800.5757094116, -157534.24555471487, -33671.18193759703, -140615.18199624802, 68625.80104181779, -109407.56462902602, 56784.74089917432, -110688.05136538165, 0.02, 0.962, -0.056, 192.0, 0.0, 160.0, 30.0, 16.0, 254.0, 64.0, 0.0, 0.0, 0.0, 1.66640452757537E9, 0.0, 2022-10-21 19:08:47.575
103.0, -130800.24043324476, -157531.20571746895, -33671.42780678604, -140625.75437137537, 68628.95263778599, -109405.06123364702, 56785.053823596696, -110686.48674326978, 0.02, 0.962, -0.056, 192.0, 0.0, 0.0, 0.0, 0.0, 0.0, 0.0, 0.0, 0.0, 0.0, 1.666404527575402E9, 0.0, 2022-10-21 19:08:47.575
104.0, -130797.35705821004, -157525.2825051883, -33667.449196272995, -140630.06825805525, 68635.90403031159, -109424.03786468958, 56773.0509368242, -110673.03099310768, 0.02, 0.962, -0.056, 192.0, 0.0, 0.0, 0.0, 0.0, 0.0, 0.0, 0.0, 0.0, 0.0, 1.6664045275754175E9, 0.0, 2022-10-21 19:08:47.575
105.0, -130795.70302912034, -157523.78493830978, -33665.45989101647, -140619.18295850552, 68640.66495188058, -109413.15256513984, 56781.835172395135, -110666.83955989356, 0.02, 0.962, -0.056, 192.0, 0.0, 0.0, 0.0, 0.0, 0.0, 0.0, 0.0, 0.0, 0.0, 1.6664045275754328E9, 0.0, 2022-10-21 19:08:47.575
106.0, -130804.12963678, -157530.53516513528, -33675.51817602136, -140621.97692656243, 68633.57944888824, -109390.91257940681, 56795.42503302396, -110678.39541177696, 0.02, 0.962, -0.056, 192.0, 0.0, 0.0, 0.0, 0.0, 0.0, 0.0, 0.0, 0.0, 0.0, 1.6664045275754476E9, 0.0, 2022-10-21 19:08:47.575
107.0, -130801.08979953406, -157529.46228140144, -33672.03130388633, -140631.92345284505, 68631.2995709538, -109391.8737044184, 56792.8545824116, -110685.123286858, 0.02, 0.962, -0.056, 192.0, 0.0, 0.0, 0.0, 0.0, 0.0, 0.0, 0.0, 0.0, 0.0, 1.666404527575462E9, 0.0, 2022-10-21 19:08:47.575
108.0, -130795.61362214251, -157524.85782204365, -33659.58138222473, -140629.82238886625, 68640.08380652474, -109408.34694008196, 56783.13157357354, -110680.29531005566, 0.02, 0.962, -0.056, 192.0, 0.0, 0.0, 0.0, 0.0, 0.0, 0.0, 0.0, 0.0, 0.0, 1.666404527575477E9, 0.0, 2022-10-21 19:08:47.575
109.0, -130798.36288671051, -157526.89183078907, -33663.93997239351, -140622.15574051806, 68636.93221055654, -109414.18074538479, 56780.87404738356, -110681.23408332278, 0.02, 0.962, -0.056, 192.0, 0.0, 0.0, 0.0, 0.0, 0.0, 0.0, 0.0, 0.0, 0.0, 1.66640452757551E9, 0.0, 2022-10-21 19:08:47.575
110.0, -130798.42994194389, -157525.77424356632, -33667.80682418428, -140618.31124047175, 68632.3501029432, -109407.51992553711, 56788.51834398727, -110679.35653678853, 0.02, 0.962, -0.056, 192.0, 0.0, 0.0, 0.0, 0.0, 0.0, 0.0, 0.0, 0.0, 0.0, 1.6664045275755367E9, 0.0, 2022-10-21 19:08:47.575
111.0, -130811.25984326123, -157538.85001407267, -33679.116806878665, -140635.70089765798, 68619.18492545902, -109412.72788199519, 56780.292902027715, -110689.21365609333, 0.02, 0.962, -0.056, 192.0, 0.0, 160.0, 30.0, 16.0, 254.0, 64.0, 0.0, 0.0, 0.0, 1.6664045275755568E9, 0.0, 2022-10-21 19:08:47.575
112.0, -130806.74479088126, -157533.77616808133, -33671.87484167515, -140630.4929411999, 68628.88558255263, -109417.68996926428, 56777.431878737436, -110684.31862405762, 0.02, 0.962, -0.056, 192.0, 0.0, 0.0, 0.0, 0.0, 0.0, 0.0, 0.0, 0.0, 0.0, 1.666404527575577E9, 0.0, 2022-10-21 19:08:47.575
113.0, -130801.1792065119, -157526.98123776692, -33666.06338811677, -140622.13338877363, 68635.07701576674, -109402.98252141268, 56788.36188177609, -110676.60727222053, 0.02, 0.962, -0.056, 192.0, 0.0, 0.0, 0.0, 0.0, 0.0, 0.0, 0.0, 0.0, 0.0, 1.6664045275755954E9, 0.0, 2022-10-21 19:08:47.575
114.0, -130801.76035186772, -157530.08813024618, -33667.40449278409, -140619.13825501662, 68628.81852731926, -109401.75317546765, 56790.61940796607, -110677.61310072102, 0.02, 0.962, -0.056, 192.0, 0.0, 0.0, 0.0, 0.0, 0.0, 0.0, 0.0, 0.0, 0.0, 1.6664045275756097E9, 0.0, 2022-10-21 19:08:47.575
115.0, -130798.0723140326, -157529.86461280164, -33664.56582123826, -140615.13729275911, 68634.67468436655, -109398.51217252162, 56796.34145454663, -110671.68988844036, 0.02, 0.962, -0.056, 192.0, 0.0, 0.0, 0.0, 0.0, 0.0, 0.0, 0.0, 0.0, 0.0, 1.6664045275756245E9, 0.0, 2022-10-21 19:08:47.575
116.0, -130794.80895934213, -157528.14352847857, -33657.39091126811, -140616.63485963762, 68641.31315246978, -109407.18464937028, 56788.965378876375, -110668.85121689455, 0.02, 0.962, -0.056, 192.0, 0.0, 0.0, 0.0, 0.0, 0.0, 0.0, 0.0, 0.0, 0.0, 1.6664045275756388E9, 0.0, 2022-10-21 19:08:47.575
117.0, -130798.0723140326, -157531.00455176886, -33662.93414389302, -140617.97596430493, 68637.02161753435, -109416.84060297497, 56780.516419472275, -110673.74624893026, 0.02, 0.962, -0.056, 192.0, 0.0, 0.0, 0.0, 0.0, 0.0, 0.0, 0.0, 0.0, 0.0, 1.6664045275757897E9, 0.0, 2022-10-21 19:08:47.575
118.0, -130809.09172404907, -157542.91803156355, -33675.38406555463, -140622.91569982955, 68624.77286157286, -109401.19438185626, 56789.54652423222, -110684.54214150217, 0.02, 0.962, -0.056, 192.0, 0.0, 0.0, 0.0, 0.0, 0.0, 0.0, 0.0, 0.0, 0.0, 1.666404527575806E9, 0.0, 2022-10-21 19:08:47.575
119.0, -130805.8283693586, -157540.21347048445, -33674.71351322097, -140622.80394110727, 68621.84478304921, -109397.03695738757, 56793.14515508952, -110685.01152813573, 0.02, 0.962, -0.056, 192.0, 0.0, 0.0, 0.0, 0.0, 0.0, 0.0, 0.0, 0.0, 0.0, 1.6664045275758212E9, 0.0, 2022-10-21 19:08:47.575
120.0, -130801.93916582337, -157538.8276623282, -33676.747521966405, -140632.5940051787, 68616.92739926904, -109421.10978616594, 56772.49214321282, -110690.375946805, 0.02, 0.962, -0.056, 192.0, 0.0, 0.0, 0.0, 0.0, 0.0, 0.0, 0.0, 0.0, 0.0, 1.6664045275758357E9, 0.0, 2022-10-21 19:08:47.575
121.0, -130794.0713517751, -157531.65275235806, -33672.947725409, -140626.13435103113, 68620.39191965961, -109427.5247368246, 56767.373593732555, -110686.86672292552, 0.018000000000000002, 0.9560000000000001, -0.054, 192.0, 0.0, 144.0, 29.0, 224.0, 254.0, 80.0, 0.0, 0.0, 0.0, 1.6664045275758502E9, 0.0, 2022-10-21 19:08:47.575
122.0, -130796.1724157539, -157533.41854017004, -33673.3500568092, -140618.44535093848, 68616.36860565766, -109410.67152150531, 56781.2540270393, -110685.36915604702, 0.018000000000000002, 0.9560000000000001, -0.054, 192.0, 0.0, 0.0, 0.0, 0.0, 0.0, 0.0, 0.0, 0.0, 0.0, 1.6664045275758734E9, 0.0, 2022-10-21 19:08:47.575
123.0, -130802.60971815702, -157542.09101701868, -33666.4433677725, -140620.00997305036, 68618.80494580328, -109400.41207080032, 56791.826402166655, -110684.83271418008, 0.018000000000000002, 0.9560000000000001, -0.054, 192.0, 0.0, 0.0, 0.0, 0.0, 0.0, 0.0, 0.0, 0.0, 0.0, 1.6664045275758884E9, 0.0, 2022-10-21 19:08:47.575
124.0, -130800.93333732289, -157537.1289297496, -33665.10226310519, -140621.28402248432, 68625.91280054007, -109405.21769585821, 56786.35022477511, -110683.64807172396, 0.018000000000000002, 0.9560000000000001, -0.054, 192.0, 0.0, 0.0, 0.0, 0.0, 0.0, 0.0, 0.0, 0.0, 0.0, 1.6664045275759065E9, 0.0, 2022-10-21 19:08:47.575
125.0, -130797.71468612131, -157533.01620876984, -33671.628972486134, -140623.78741786332, 68622.82825980523, -109406.89407669236, 56783.176277062455, -110678.55187398814, 0.018000000000000002, 0.9560000000000001, -0.054, 192.0, 0.0, 0.0, 0.0, 0.0, 0.0, 0.0, 0.0, 0.0, 0.0, 1.6664045275759208E9, 0.0, 2022-10-21 19:08:47.575
126.0, -130795.7253808648, -157536.30191520476, -33672.0983591197, -140621.37342946214, 68619.96723651496, -109400.54618126705, 56791.558181233195, -110676.42845826488, 0.018000000000000002, 0.9560000000000001, -0.054, 192.0, 0.0, 0.0, 0.0, 0.0, 0.0, 0.0, 0.0, 0.0, 0.0, 1.6664045275759354E9, 0.0, 2022-10-21 19:08:47.575
127.0, -130790.42801742889, -157528.83643255668, -33669.01381838487, -140616.72426661543, 68620.32486442625, -109397.1710678543, 56801.21413483789, -110675.69085069787, 0.018000000000000002, 0.9560000000000001, -0.054, 192.0, 0.0, 0.0, 0.0, 0.0, 0.0, 0.0, 0.0, 0.0, 0.0, 1.6664045275759497E9, 0.0, 2022-10-21 19:08:47.575
128.0, -130786.15883423793, -157520.38747315257, -33666.8456991727, -140621.41813295105, 68623.72232958346, -109423.56847805601, 56784.80795440769, -110685.01152813573, 0.018000000000000002, 0.9560000000000001, -0.054, 192.0, 0.0, 0.0, 0.0, 0.0, 0.0, 0.0, 0.0, 0.0, 0.0, 1.6664045275759642E9, 0.0, 2022-10-21 19:08:47.575
129.0, -130794.22781398629, -157528.76937732333, -33675.272306832354, -140627.18488302053, 68620.72719582645, -109435.2360886617, 56769.29584375571, -110691.76175496123, 0.018000000000000002, 0.9560000000000001, -0.054, 192.0, 0.0, 0.0, 0.0, 0.0, 0.0, 0.0, 0.0, 0.0, 0.0, 1.6664045275759788E9, 0.0, 2022-10-21 19:08:47.575
130.0, -130800.3745437115, -157535.13962449308, -33682.60367901369, -140631.87874935614, 68612.1441259556, -109438.76766428562, 56764.71373614237, -110689.05719388214, 0.018000000000000002, 0.9560000000000001, -0.054, 192.0, 0.0, 0.0, 0.0, 0.0, 0.0, 0.0, 0.0, 0.0, 0.0, 1.666404527575993E9, 0.0, 2022-10-21 19:08:47.575
131.0, -130794.49603491975, -157527.98706626738, -33677.48512953343, -140620.65817363956, 68615.31807366826, -109422.16031815534, 56781.16462006148, -110686.86672292552, 0.012, 0.966, -0.05, 192.0, 0.0, 96.0, 30.0, 48.0, 254.0, 112.0, 0.0, 0.0, 0.0, 1.6664045275760076E9, 0.0, 2022-10-21 19:08:47.576
132.0, -130797.4688169323, -157532.54682213627, -33676.79222545531, -140624.94970857498, 68616.1450882131, -109417.55585879754, 56781.544599717214, -110691.69469972787, 0.012, 0.966, -0.05, 192.0, 0.0, 0.0, 0.0, 0.0, 0.0, 0.0, 0.0, 0.0, 0.0, 1.666404527576095E9, 0.0, 2022-10-21 19:08:47.576
133.0, -130793.37844769699, -157525.97540926642, -33670.95842015248, -140623.87682484114, 68624.16936447256, -109420.23806813218, 56775.152000803, -110681.83758042307, 0.012, 0.966, -0.05, 192.0, 0.0, 0.0, 0.0, 0.0, 0.0, 0.0, 0.0, 0.0, 0.0, 1.6664045275761106E9, 0.0, 2022-10-21 19:08:47.576
134.0, -130793.69137211936, -157525.72954007742, -33669.90788816308, -140613.61737413614, 68627.87975405213, -109414.51602155162, 56778.683576426934, -110679.96003388883, 0.012, 0.966, -0.05, 192.0, 0.0, 0.0, 0.0, 0.0, 0.0, 0.0, 0.0, 0.0, 0.0, 1.6664045275761251E9, 0.0, 2022-10-21 19:08:47.576
135.0, -130795.1218837645, -157525.37191216613, -33667.33743755072, -140601.90506004155, 68631.32192269826, -109395.44998353125, 56794.19568707892, -110676.51786524271, 0.012, 0.966, -0.05, 192.0, 0.0, 0.0, 0.0, 0.0, 0.0, 0.0, 0.0, 0.0, 0.0, 1.6664045275761397E9, 0.0, 2022-10-21 19:08:47.576
136.0, -130791.65736337393, -157520.8345080417, -33666.398664283595, -140607.58240313322, 68631.88071630964, -109383.64826245884, 56800.11889935958, -110675.08735359757, 0.012, 0.966, -0.05, 192.0, 0.0, 0.0, 0.0, 0.0, 0.0, 0.0, 0.0, 0.0, 0.0, 1.6664045275761597E9, 0.0, 2022-10-21 19:08:47.576
137.0, -130792.88670931898, -157519.31458941873, -33671.83013818623, -140624.18974926352, 68630.33844594222, -109405.79884121405, 56780.80699215019, -110673.7238971858, 0.012, 0.966, -0.05, 192.0, 0.0, 0.0, 0.0, 0.0, 0.0, 0.0, 0.0, 0.0, 0.0, 1.6664045275762005E9, 0.0, 2022-10-21 19:08:47.576
138.0, -130799.368715211, -157527.02594125582, -33676.389894055115, -140626.04494405328, 68624.41523366157, -109405.15064062485, 56777.007195592785, -110680.6752897114, 0.012, 0.966, -0.05, 192.0, 0.0, 0.0, 0.0, 0.0, 0.0, 0.0, 0.0, 0.0, 0.0, 1.6664045275762415E9, 0.0, 2022-10-21 19:08:47.576
139.0, -130801.8274071011, -157531.71980759143, -33676.36754231066, -140618.44535093848, 68621.10717548218, -109401.14967836735, 56785.81378290818, -110679.96003388883, 0.012, 0.966, -0.05, 192.0, 0.0, 0.0, 0.0, 0.0, 0.0, 0.0, 0.0, 0.0, 0.0, 1.6664045275762835E9, 0.0, 2022-10-21 19:08:47.576
140.0, -130798.76521811071, -157524.85782204365, -33675.02643764334, -140616.72426661543, 68620.25780919287, -109401.64141674536, 56789.65828295449, -110680.4741240113, 0.004, 0.964, -0.04, 192.0, 0.0, 32.0, 30.0, 32.0, 254.0, 192.0, 0.0, 0.0, 0.0, 1.6664045275763245E9, 0.0, 2022-10-21 19:08:47.576
141.0, -130800.66511638941, -157526.02011275533, -33678.17803361154, -140625.93318533103, 68620.21310570397, -109408.97278892671, 56781.99163460632, -110679.40124027744, 0.004, 0.964, -0.04, 192.0, 0.0, 0.0, 0.0, 0.0, 0.0, 0.0, 0.0, 0.0, 0.0, 1.6664045275763795E9, 0.0, 2022-10-21 19:08:47.576
142.0, -130795.9265465649, -157522.71205457594, -33675.85345218819, -140624.18974926352, 68624.79521331731, -109412.30319885054, 56776.8507333816, -110678.66363271042, 0.004, 0.964, -0.04, 192.0, 0.0, 0.0, 0.0, 0.0, 0.0, 0.0, 0.0, 0.0, 0.0, 1.666404527576398E9, 0.0, 2022-10-21 19:08:47.576
143.0, -130791.61265988502, -157518.24170568486, -33668.41032128457, -140608.36471418914, 68633.80296633279, -109407.072890648, 56784.29386428522, -110671.53342622917, 0.004, 0.964, -0.04, 192.0, 0.0, 0.0, 0.0, 0.0, 0.0, 0.0, 0.0, 0.0, 0.0, 1.6664045275764143E9, 0.0, 2022-10-21 19:08:47.576
144.0, -130800.50865417824, -157525.34956042166, -33676.21108009948, -140621.57459516224, 68622.56003887177, -109397.86397193241, 56790.66411145498, -110675.78025767568, 0.004, 0.964, -0.04, 192.0, 0.0, 0.0, 0.0, 0.0, 0.0, 0.0, 0.0, 0.0, 0.0, 1.6664045275764308E9, 0.0, 2022-10-21 19:08:47.576
145.0, -130802.05092454565, -157527.60708661165, -33674.512347520875, -140634.98564183543, 68619.31903592576, -109408.41399531532, 56781.835172395135, -110678.03778386567, 0.004, 0.964, -0.04, 192.0, 0.0, 0.0, 0.0, 0.0, 0.0, 0.0, 0.0, 0.0, 0.0, 1.6664045275764496E9, 0.0, 2022-10-21 19:08:47.576
146.0, -130796.50769192073, -157521.95209526445, -33667.80682418428, -140626.15670277557, 68627.07509125174, -109425.04369319006, 56771.93334960144, -110669.78999016166, 0.004, 0.964, -0.04, 192.0, 0.0, 0.0, 0.0, 0.0, 0.0, 0.0, 0.0, 0.0, 0.0, 1.666404527576466E9, 0.0, 2022-10-21 19:08:47.576
147.0, -130798.45229368834, -157522.84616504266, -33670.310219563275, -140619.67469688354, 68622.58239061623, -109417.60056228645, 56778.14713456001, -110673.90271114145, 0.004, 0.964, -0.04, 192.0, 0.0, 0.0, 0.0, 0.0, 0.0, 0.0, 0.0, 0.0, 0.0, 1.6664045275765004E9, 0.0, 2022-10-21 19:08:47.576
148.0, -130802.65442164594, -157527.42827265602, -33668.67854221804, -140617.57363290474, 68623.2976464388, -109403.45190804625, 56790.70881494389, -110677.61310072102, 0.004, 0.964, -0.04, 192.0, 0.0, 0.0, 0.0, 0.0, 0.0, 0.0, 0.0, 0.0, 0.0, 1.666404527576517E9, 0.0, 2022-10-21 19:08:47.576
149.0, -130811.25984326123, -157536.45837741595, -33676.814577199766, -140632.30343250078, 68617.93322776952, -109407.72109123721, 56787.19959106441, -110685.50326651374, 0.004, 0.964, -0.04, 192.0, 0.0, 0.0, 0.0, 0.0, 0.0, 0.0, 0.0, 0.0, 0.0, 1.6664045275765338E9, 0.0, 2022-10-21 19:08:47.576
150.0, -130815.46197121883, -157536.72659834943, -33679.65324874559, -140634.91858660206, 68619.63196034812, -109420.21571638773, 56772.8497711241, -110693.14756311745, 0.012, 0.96, -0.038, 192.0, 0.0, 96.0, 30.0, 0.0, 254.0, 208.0, 0.0, 0.0, 0.0, 1.6664045275765505E9, 0.0, 2022-10-21 19:08:47.576
151.0, -130797.06648553211, -157518.84520278516, -33655.4463095005, -140602.12857748612, 68643.5036234264, -109413.97957968469, 56786.48433524184, -110673.63449020797, 0.012, 0.96, -0.038, 192.0, 0.0, 0.0, 0.0, 0.0, 0.0, 0.0, 0.0, 0.0, 0.0, 1.666404527576568E9, 0.0, 2022-10-21 19:08:47.576
152.0, -130798.94403206636, -157521.52741211982, -33657.92735313503, -140596.20536520547, 68646.4987571834, -109387.62687297189, 56807.18205060745, -110674.34974603055, 0.012, 0.96, -0.038, 192.0, 0.0, 0.0, 0.0, 0.0, 0.0, 0.0, 0.0, 0.0, 0.0, 1.6664045275765846E9, 0.0, 2022-10-21 19:08:47.576
153.0, -130800.86628208951, -157523.20379295395, -33663.26942005985, -140614.35498170316, 68645.4035217051, -109389.30325380604, 56801.057672626695, -110673.03099310768, 0.012, 0.96, -0.038, 192.0, 0.0, 0.0, 0.0, 0.0, 0.0, 0.0, 0.0, 0.0, 0.0, 1.6664045275766008E9, 0.0, 2022-10-21 19:08:47.576
154.0, -130799.0781425331, -157520.81215629724, -33662.30829504827, -140620.43465619502, 68645.98466706094, -109413.44313781777, 56781.67871018395, -110669.61117620602, 0.012, 0.96, -0.038, 192.0, 0.0, 0.0, 0.0, 0.0, 0.0, 0.0, 0.0, 0.0, 0.0, 1.6664045275766172E9, 0.0, 2022-10-21 19:08:47.576
155.0, -130797.51352042121, -157516.96765625093, -33659.961361880465, -140610.30931595675, 68648.97980081795, -109420.01455068763, 56778.3035967712, -110672.51690298521, 0.012, 0.96, -0.038, 192.0, 0.0, 0.0, 0.0, 0.0, 0.0, 0.0, 0.0, 0.0, 0.0, 1.6664045275766337E9, 0.0, 2022-10-21 19:08:47.576
156.0, -130803.59319491306, -157522.82381329822, -33665.906925905576, -140611.44925492397, 68645.13530077164, -109409.41982381581, 56786.037300352735, -110680.94351064487, 0.012, 0.96, -0.038, 192.0, 0.0, 0.0, 0.0, 0.0, 0.0, 0.0, 0.0, 0.0, 0.0, 1.66640452757665E9, 0.0, 2022-10-21 19:08:47.576
157.0, -130808.80115137115, -157525.99776101086, -33669.08087361823, -140621.21696725095, 68646.56581241677, -109409.97861742719, 56785.07617534116, -110680.00473737773, 0.012, 0.96, -0.038, 192.0, 0.0, 0.0, 0.0, 0.0, 0.0, 0.0, 0.0, 0.0, 0.0, 1.666404527576666E9, 0.0, 2022-10-21 19:08:47.576
158.0, -130807.63886065947, -157525.66248484404, -33667.22567882844, -140624.03328705233, 68652.42196946406, -109415.074815163, 56776.33664325913, -110679.60240597754, 0.012, 0.96, -0.038, 192.0, 0.0, 0.0, 0.0, 0.0, 0.0, 0.0, 0.0, 0.0, 0.0, 1.666404527576681E9, 0.0, 2022-10-21 19:08:47.576
159.0, -130806.54362518116, -157523.27084818733, -33663.02355087084, -140616.88072882663, 68654.94771658751, -109425.96011471274, 56768.91586409997, -110671.39931576245, 0.012, 0.96, -0.038, 192.0, 0.0, 0.0, 0.0, 0.0, 0.0, 0.0, 0.0, 0.0, 0.0, 1.666404527576696E9, 0.0, 2022-10-21 19:08:47.576
160.0, -130811.48336070578, -157526.46714764443, -33666.555126494786, -140614.93612705902, 68651.37143747466, -109411.67735000579, 56781.14226831702, -110669.9241006284, 0.022, 0.9560000000000001, -0.03, 192.0, 0.0, 176.0, 29.0, 224.0, 255.0, 16.0, 0.0, 0.0, 0.0, 1.6664045275767107E9, 0.0, 2022-10-21 19:08:47.576
161.0, -130817.00424158624, -157532.25624945835, -33673.84179518721, -140624.36856321915, 68646.14112927212, -109419.88044022089, 56775.17435254745, -110679.66946121091, 0.022, 0.9560000000000001, -0.03, 192.0, 0.0, 0.0, 0.0, 0.0, 0.0, 0.0, 0.0, 0.0, 0.0, 1.666404527576727E9, 0.0, 2022-10-21 19:08:47.576
162.0, -130814.97023284082, -157527.62943835612, -33670.801957941294, -140623.63095565213, 68653.02546656436, -109432.39741711586, 56765.76426813177, -110679.11066759953, 0.022, 0.9560000000000001, -0.03, 192.0, 0.0, 0.0, 0.0, 0.0, 0.0, 0.0, 0.0, 0.0, 0.0, 1.6664045275767837E9, 0.0, 2022-10-21 19:08:47.576
163.0, -130811.95274733935, -157524.2319731989, -33669.43850152952, -140611.51631015734, 68660.91563235708, -109427.36827461341, 56767.48535245483, -110674.64031870847, 0.022, 0.9560000000000001, -0.03, 192.0, 0.0, 0.0, 0.0, 0.0, 0.0, 0.0, 0.0, 0.0, 0.0, 1.6664045275767996E9, 0.0, 2022-10-21 19:08:47.576
164.0, -130807.03536355917, -157523.5837726097, -33671.60662074168, -140606.17424323253, 68659.93215560105, -109422.16031815534, 56776.04607058121, -110670.43819075087, 0.022, 0.9560000000000001, -0.03, 192.0, 0.0, 0.0, 0.0, 0.0, 0.0, 0.0, 0.0, 0.0, 0.0, 1.666404527576815E9, 0.0, 2022-10-21 19:08:47.576
165.0, -130810.43282871638, -157530.51281339084, -33671.360751552675, -140609.41524617854, 68655.81943462127, -109431.99508571567, 56775.42022173646, -110666.14665581545, 0.022, 0.9560000000000001, -0.03, 192.0, 0.0, 0.0, 0.0, 0.0, 0.0, 0.0, 0.0, 0.0, 0.0, 1.66640452757683E9, 0.0, 2022-10-21 19:08:47.576
166.0, -130806.63303215898, -157527.60708661165, -33667.96328639547, -140606.82244382173, 68661.67559166857, -109440.42169337532, 56770.83811412312, -110661.22927203529, 0.022, 0.9560000000000001, -0.03, 192.0, 0.0, 0.0, 0.0, 0.0, 0.0, 0.0, 0.0, 0.0, 0.0, 1.6664045275768464E9, 0.0, 2022-10-21 19:08:47.576
167.0, -130805.56014842512, -157524.79076681027, -33666.733940450424, -140595.95949601644, 68668.67168768308, -109433.40324561635, 56773.453268224395, -110664.0679435811, 0.022, 0.9560000000000001, -0.03, 192.0, 0.0, 0.0, 0.0, 0.0, 0.0, 0.0, 0.0, 0.0, 0.0, 1.6664045275768683E9, 0.0, 2022-10-21 19:08:47.576
168.0, -130823.21802654483, -157543.52152866384, -33688.37042908316, -140617.99831604937, 68646.34229497222, -109425.69189377928, 56770.435782722925, -110684.69860371335, 0.022, 0.9560000000000001, -0.03, 192.0, 0.0, 0.0, 0.0, 0.0, 0.0, 0.0, 0.0, 0.0, 0.0, 1.6664045275768833E9, 0.0, 2022-10-21 19:08:47.576
169.0, -130816.53485495268, -157536.0783977602, -33680.05558014579, -140616.56780440424, 68651.48319619695, -109416.86295471943, 56779.868218883064, -110670.28172853967, 0.024, 0.9480000000000001, -0.028, 192.0, 0.0, 192.0, 29.0, 160.0, 255.0, 32.0, 0.0, 0.0, 0.0, 1.666404527576898E9, 0.0, 2022-10-21 19:08:47.576
170.0, -130813.78559038468, -157533.48559540338, -33673.595925998205, -140621.06050503976, 68656.71350439948, -109434.72199853921, 56769.117029800065, -110661.16221680191, 0.024, 0.9480000000000001, -0.028, 192.0, 0.0, 0.0, 0.0, 0.0, 0.0, 0.0, 0.0, 0.0, 0.0, 1.666404527576914E9, 0.0, 2022-10-21 19:08:47.576
171.0, -130821.09461082157, -157541.10754026266, -33676.121673121655, -140619.89821432807, 68656.9593735885, -109462.95225178626, 56749.58160514613, -110666.83955989356, 0.024, 0.9480000000000001, -0.028, 192.0, 0.0, 0.0, 0.0, 0.0, 0.0, 0.0, 0.0, 0.0, 0.0, 1.666404527576929E9, 0.0, 2022-10-21 19:08:47.576
172.0, -130820.84874163257, -157542.67216237454, -33677.730998722436, -140608.8341008227, 68658.21107127798, -109430.09518743696, 56773.788544391224, -110666.45958023782, 0.024, 0.9480000000000001, -0.028, 192.0, 0.0, 0.0, 0.0, 0.0, 0.0, 0.0, 0.0, 0.0, 0.0, 1.666404527576944E9, 0.0, 2022-10-21 19:08:47.576
173.0, -130814.36673574052, -157531.67510410253, -33678.692123734014, -140611.0916270127, 68652.98076307545, -109408.54810578206, 56788.8536201541, -110663.95618485883, 0.024, 0.9480000000000001, -0.028, 192.0, 0.0, 0.0, 0.0, 0.0, 0.0, 0.0, 0.0, 0.0, 0.0, 1.666404527576959E9, 0.0, 2022-10-21 19:08:47.576
174.0, -130815.61843343002, -157536.01134252685, -33675.38406555463, -140613.7961880918, 68656.46763521047, -109408.25753310413, 56788.205419564896, -110658.54706270064, 0.024, 0.9480000000000001, -0.028, 192.0, 0.0, 0.0, 0.0, 0.0, 0.0, 0.0, 0.0, 0.0, 0.0, 1.6664045275769737E9, 0.0, 2022-10-21 19:08:47.576
175.0, -130807.63886065947, -157530.11048199065, -33670.75725445238, -140617.97596430493, 68656.7582078884, -109444.55676609956, 56763.77496287525, -110658.52471095619, 0.024, 0.9480000000000001, -0.028, 192.0, 0.0, 0.0, 0.0, 0.0, 0.0, 0.0, 0.0, 0.0, 0.0, 1.666404527576989E9, 0.0, 2022-10-21 19:08:47.576
176.0, -130808.73409613778, -157535.00551402636, -33673.104187620185, -140603.96142053144, 68653.91953634257, -109450.79290280258, 56761.47273319635, -110666.19135930436, 0.024, 0.9480000000000001, -0.028, 192.0, 0.0, 0.0, 0.0, 0.0, 0.0, 0.0, 0.0, 0.0, 0.0, 1.6664045275770037E9, 0.0, 2022-10-21 19:08:47.577
177.0, -130815.86430261903, -157542.44864492997, -33677.08279813323, -140604.27434495382, 68650.03033280735, -109417.68996926428, 56784.226809051856, -110671.28755704017, 0.024, 0.9480000000000001, -0.028, 192.0, 0.0, 0.0, 0.0, 0.0, 0.0, 0.0, 0.0, 0.0, 0.0, 1.6664045275770328E9, 0.0, 2022-10-21 19:08:47.577
178.0, -130814.67966016289, -157540.66050537355, -33677.641591744614, -140620.68052538403, 68643.9506583155, -109418.18170764229, 56781.701061928405, -110673.70154544135, 0.024, 0.9480000000000001, -0.028, 192.0, 0.0, 0.0, 0.0, 0.0, 0.0, 0.0, 0.0, 0.0, 0.0, 1.6664045275770478E9, 0.0, 2022-10-21 19:08:47.577
179.0, -130804.01787805771, -157529.64109535707, -33665.88457416112, -140611.96334504645, 68654.18775727603, -109443.66269632133, 56768.64764316651, -110660.73753365726, 0.022, 0.9460000000000001, -0.03, 192.0, 0.0, 176.0, 29.0, 144.0, 255.0, 16.0, 0.0, 0.0, 0.0, 1.6664045275770626E9, 0.0, 2022-10-21 19:08:47.577
180.0, -130809.85168336055, -157535.85488031566, -33674.26647833186, -140608.05178976676, 68647.7504548729, -109432.59858281596, 56773.0509368242, -110667.84538839405, 0.022, 0.9460000000000001, -0.03, 192.0, 0.0, 0.0, 0.0, 0.0, 0.0, 0.0, 0.0, 0.0, 0.0, 1.6664045275770783E9, 0.0, 2022-10-21 19:08:47.577
181.0, -130816.35604099704, -157543.40976994156, -33682.60367901369, -140612.7456561024, 68637.42394893455, -109418.2711146201, 56780.583474705636, -110671.622833207, 0.022, 0.9460000000000001, -0.03, 192.0, 0.0, 0.0, 0.0, 0.0, 0.0, 0.0, 0.0, 0.0, 0.0, 1.666404527577093E9, 0.0, 2022-10-21 19:08:47.577
182.0, -130814.83612237408, -157540.32522920673, -33679.98852491242, -140616.74661835987, 68638.0945012682, -109421.51211756613, 56777.7000996709, -110670.99698436225, 0.022, 0.9460000000000001, -0.03, 192.0, 0.0, 0.0, 0.0, 0.0, 0.0, 0.0, 0.0, 0.0, 0.0, 1.666404527577108E9, 0.0, 2022-10-21 19:08:47.577
183.0, -130807.50475019275, -157532.34565643617, -33675.94285916601, -140621.55224341777, 68641.2460972364, -109431.39158861537, 56769.94404434491, -110669.0747343391, 0.022, 0.9460000000000001, -0.03, 192.0, 0.0, 0.0, 0.0, 0.0, 0.0, 0.0, 0.0, 0.0, 0.0, 1.666404527577137E9, 0.0, 2022-10-21 19:08:47.577
184.0, -130802.11797977901, -157527.182403467, -33671.204289341484, -140618.6912201275, 68642.63190539264, -109436.82306251801, 56772.22392227935, -110660.37990574598, 0.022, 0.9460000000000001, -0.03, 192.0, 0.0, 0.0, 0.0, 0.0, 0.0, 0.0, 0.0, 0.0, 0.0, 1.6664045275771778E9, 0.0, 2022-10-21 19:08:47.577
185.0, -130799.5251774222, -157524.54489762126, -33664.18584158252, -140617.41717069354, 68634.60762913318, -109426.04952169055, 56783.019814851265, -110666.37017326, 0.022, 0.9460000000000001, -0.03, 192.0, 0.0, 0.0, 0.0, 0.0, 0.0, 0.0, 0.0, 0.0, 0.0, 1.6664045275772183E9, 0.0, 2022-10-21 19:08:47.577
186.0, -130801.11215127852, -157524.94722902146, -33667.00216138389, -140619.87586258363, 68632.43950992102, -109413.26432386212, 56793.905114401, -110666.48193198229, 0.022, 0.9460000000000001, -0.03, 192.0, 0.0, 0.0, 0.0, 0.0, 0.0, 0.0, 0.0, 0.0, 0.0, 1.6664045275772593E9, 0.0, 2022-10-21 19:08:47.577
187.0, -130797.64763088795, -157521.99679875336, -33666.4433677725, -140622.51336842935, 68635.85932682268, -109421.7803384996, 56788.22777130935, -110658.10002781154, 0.022, 0.9460000000000001, -0.03, 192.0, 0.0, 0.0, 0.0, 0.0, 0.0, 0.0, 0.0, 0.0, 0.0, 1.6664045275773E9, 0.0, 2022-10-21 19:08:47.577
188.0, -130796.66415413191, -157520.25336268585, -33665.214021827465, -140620.12173177264, 68638.4968326684, -109425.33426586799, 56784.830306152144, -110659.50818771223, 0.022, 0.9460000000000001, -0.03, 192.0, 0.0, 0.0, 0.0, 0.0, 0.0, 0.0, 0.0, 0.0, 0.0, 1.6664045275773456E9, 0.0, 2022-10-21 19:08:47.577
189.0, -130794.98777329776, -157519.1357754631, -33665.10226310519, -140615.89725207057, 68632.9983035324, -109424.86487923443, 56787.71368118688, -110664.31381277011, 0.006, 0.9480000000000001, -0.04, 192.0, 0.0, 48.0, 29.0, 160.0, 254.0, 192.0, 0.0, 0.0, 0.0, 1.666404527577386E9, 0.0, 2022-10-21 19:08:47.577
190.0, -130795.5242151647, -157520.38747315257, -33665.45989101647, -140614.91377531455, 68629.95846628648, -109401.99904465665, 56805.595076751124, -110668.6724029389, 0.006, 0.9480000000000001, -0.04, 192.0, 0.0, 0.0, 0.0, 0.0, 0.0, 0.0, 0.0, 0.0, 0.0, 1.666404527577413E9, 0.0, 2022-10-21 19:08:47.577
191.0, -130791.14327325145, -157513.14550794906, -33658.24027755741, -140613.97500204743, 68632.66302736558, -109411.67735000579, 56796.98965513583, -110661.49749296875, 0.006, 0.9480000000000001, -0.04, 192.0, 0.0, 0.0, 0.0, 0.0, 0.0, 0.0, 0.0, 0.0, 0.0, 1.666404527577428E9, 0.0, 2022-10-21 19:08:47.577
192.0, -130791.29973546264, -157513.21256318243, -33657.793242668304, -140619.80880735026, 68631.72425409844, -109424.3284373675, 56784.47267824086, -110660.6704784239, 0.006, 0.9480000000000001, -0.04, 192.0, 0.0, 0.0, 0.0, 0.0, 0.0, 0.0, 0.0, 0.0, 0.0, 1.6664045275774565E9, 0.0, 2022-10-21 19:08:47.577
193.0, -130797.24529948775, -157521.32624641972, -33662.218888070456, -140617.41717069354, 68624.61639936166, -109429.49169033667, 56780.40466075, -110665.36434475951, 0.006, 0.9480000000000001, -0.04, 192.0, 0.0, 0.0, 0.0, 0.0, 0.0, 0.0, 0.0, 0.0, 0.0, 1.6664045275774727E9, 0.0, 2022-10-21 19:08:47.577
194.0, -130799.9275088224, -157522.93557202048, -33662.64357121511, -140615.20434799246, 68626.47159415146, -109429.20111765875, 56784.070346840665, -110672.0251646072, 0.006, 0.9480000000000001, -0.04, 192.0, 0.0, 0.0, 0.0, 0.0, 0.0, 0.0, 0.0, 0.0, 0.0, 1.6664045275774882E9, 0.0, 2022-10-21 19:08:47.577
195.0, -130784.63891561497, -157506.5740950792, -33646.50561171837, -140611.02457177933, 68642.0507600368, -109425.73659726819, 56790.150021332505, -110659.84346387905, 0.006, 0.9480000000000001, -0.04, 192.0, 0.0, 0.0, 0.0, 0.0, 0.0, 0.0, 0.0, 0.0, 0.0, 1.6664045275775049E9, 0.0, 2022-10-21 19:08:47.577
196.0, -130790.87505231799, -157514.7324818054, -33652.40647225457, -140613.37150494714, 68635.00996053338, -109436.7336555402, 56779.71175667188, -110664.4702749813, 0.006, 0.9480000000000001, -0.04, 192.0, 0.0, 0.0, 0.0, 0.0, 0.0, 0.0, 0.0, 0.0, 0.0, 1.6664045275775204E9, 0.0, 2022-10-21 19:08:47.577
197.0, -130794.69720061985, -157519.15812720754, -33658.30733279078, -140617.21600499345, 68619.83312604822, -109443.21566143223, 56776.314291514675, -110668.89592038345, 0.006, 0.9480000000000001, -0.04, 192.0, 0.0, 0.0, 0.0, 0.0, 0.0, 0.0, 0.0, 0.0, 0.0, 1.6664045275775352E9, 0.0, 2022-10-21 19:08:47.577
198.0, -130792.28321221868, -157517.2805806733, -33655.37925426713, -140610.35401944566, 68626.09161449572, -109434.07379795001, 56789.07713759865, -110668.18066456089, 0.006, 0.9480000000000001, -0.04, 192.0, 0.0, 0.0, 0.0, 0.0, 0.0, 0.0, 0.0, 0.0, 0.0, 1.6664045275775504E9, 0.0, 2022-10-21 19:08:47.577
199.0, -130789.57865113959, -157514.19603993846, -33651.288885031805, -140616.3442869597, 68631.97012328746, -109439.10294045246, 56785.21028580789, -110667.75598141624, 0.008, 0.9540000000000001, -0.046, 192.0, 0.0, 64.0, 29.0, 208.0, 254.0, 144.0, 0.0, 0.0, 0.0, 1.6664045275775654E9, 0.0, 2022-10-21 19:08:47.577
200.0, -130795.5689186536, -157518.42051964052, -33653.94874262199, -140616.18782474851, 68634.47351866645, -109441.89690850937, 56781.85752413959, -110667.33129827159, 0.008, 0.9540000000000001, -0.046, 192.0, 0.0, 0.0, 0.0, 0.0, 0.0, 0.0, 0.0, 0.0, 0.0, 1.6664045275775816E9, 0.0, 2022-10-21 19:08:47.577
201.0, -130796.35122970954, -157522.89086853157, -33652.60763795467, -140614.42203693654, 68635.07701576674, -109430.38576011489, 56789.591227721125, -110666.5713389601, 0.008, 0.9540000000000001, -0.046, 192.0, 0.0, 0.0, 0.0, 0.0, 0.0, 0.0, 0.0, 0.0, 0.0, 1.6664045275775974E9, 0.0, 2022-10-21 19:08:47.577
202.0, -130796.91002332093, -157521.16978420853, -33654.28401878882, -140607.06831301074, 68635.63580937813, -109411.18561162778, 56805.30450407321, -110664.9173098704, 0.008, 0.9540000000000001, -0.046, 192.0, 0.0, 0.0, 0.0, 0.0, 0.0, 0.0, 0.0, 0.0, 0.0, 1.6664045275776124E9, 0.0, 2022-10-21 19:08:47.577
203.0, -130788.86339531702, -157509.74804279185, -33643.13049830562, -140608.43176942252, 68638.8991640686, -109418.8746117204, 56802.97992264986, -110662.27980402469, 0.008, 0.9540000000000001, -0.046, 192.0, 0.0, 0.0, 0.0, 0.0, 0.0, 0.0, 0.0, 0.0, 0.0, 1.666404527577628E9, 0.0, 2022-10-21 19:08:47.577
204.0, -130795.7700843537, -157519.76162430784, -33649.053710586275, -140624.86030159716, 68633.66885586607, -109446.47901612271, 56782.17044856196, -110670.39348726196, 0.008, 0.9540000000000001, -0.046, 192.0, 0.0, 0.0, 0.0, 0.0, 0.0, 0.0, 0.0, 0.0, 0.0, 1.6664045275776432E9, 0.0, 2022-10-21 19:08:47.577
205.0, -130793.15493025244, -157516.8782492731, -33645.209210539964, -140614.37733344763, 68634.80879483328, -109446.18844344479, 56784.18210556294, -110667.66657443841, 0.008, 0.9540000000000001, -0.046, 192.0, 0.0, 0.0, 0.0, 0.0, 0.0, 0.0, 0.0, 0.0, 0.0, 1.6664045275776584E9, 0.0, 2022-10-21 19:08:47.577
206.0, -130797.06648553211, -157516.85589752864, -33648.785489652815, -140601.72624608592, 68633.62415237715, -109418.13700415338, 56805.7068354734, -110665.49845522625, 0.008, 0.9540000000000001, -0.046, 192.0, 0.0, 0.0, 0.0, 0.0, 0.0, 0.0, 0.0, 0.0, 0.0, 1.6664045275776732E9, 0.0, 2022-10-21 19:08:47.577
207.0, -130802.76618036821, -157522.48853713137, -33655.625123456135, -140616.56780440424, 68619.72136732595, -109414.82894597399, 56806.15387036251, -110672.44984775185, 0.008, 0.9540000000000001, -0.046, 192.0, 0.0, 0.0, 0.0, 0.0, 0.0, 0.0, 0.0, 0.0, 0.0, 1.6664045275777023E9, 0.0, 2022-10-21 19:08:47.577
208.0, -130795.07718027559, -157514.2854469163, -33650.32776002023, -140622.44631319598, 68621.82243130475, -109457.54312962809, 56783.24333229582, -110667.06307733811, 0.01, 0.9580000000000001, -0.054, 192.0, 0.0, 80.0, 29.0, 240.0, 254.0, 80.0, 0.0, 0.0, 0.0, 1.6664045275777173E9, 0.0, 2022-10-21 19:08:47.577
209.0, -130790.53977615116, -157512.60906608214, -33654.61929495565, -140623.25097599637, 68617.82146904725, -109469.92599605632, 56777.40952699298, -110665.78902790416, 0.01, 0.9580000000000001, -0.054, 192.0, 0.0, 0.0, 0.0, 0.0, 0.0, 0.0, 0.0, 0.0, 0.0, 1.6664045275777352E9, 0.0, 2022-10-21 19:08:47.577
210.0, -130793.2666889747, -157518.0852434737, -33661.70479794798, -140614.8914235701, 68615.47453587945, -109465.47799890972, 56783.66801544047, -110670.1699698174, 0.01, 0.9580000000000001, -0.054, 192.0, 0.0, 0.0, 0.0, 0.0, 0.0, 0.0, 0.0, 0.0, 0.0, 1.6664045275777504E9, 0.0, 2022-10-21 19:08:47.577
211.0, -130804.55431992465, -157527.02594125582, -33668.25385907339, -140612.9468218025, 68619.6990155815, -109428.79878625856, 56804.79041395074, -110669.23119655027, 0.01, 0.9580000000000001, -0.054, 192.0, 0.0, 0.0, 0.0, 0.0, 0.0, 0.0, 0.0, 0.0, 0.0, 1.6664045275777652E9, 0.0, 2022-10-21 19:08:47.577
212.0, -130807.99648857076, -157525.01428425484, -33670.89136491911, -140621.8428160957, 68620.12369872615, -109426.40714960184, 56800.58828599314, -110667.84538839405, 0.01, 0.9580000000000001, -0.054, 192.0, 0.0, 0.0, 0.0, 0.0, 0.0, 0.0, 0.0, 0.0, 0.0, 1.6664045275777805E9, 0.0, 2022-10-21 19:08:47.577
213.0, -130804.08493329107, -157521.25919118634, -33668.007989884376, -140619.83115909473, 68621.88948653812, -109438.99118173018, 56792.34049228913, -110666.9736703603, 0.01, 0.9580000000000001, -0.054, 192.0, 0.0, 0.0, 0.0, 0.0, 0.0, 0.0, 0.0, 0.0, 0.0, 1.6664045275777955E9, 0.0, 2022-10-21 19:08:47.577
214.0, -130806.4765699478, -157526.33303717768, -33675.22760334344, -140620.23349049492, 68613.68639632301, -109444.62382133292, 56793.636893467534, -110676.96490013182, 0.01, 0.9580000000000001, -0.054, 192.0, 0.0, 0.0, 0.0, 0.0, 0.0, 0.0, 0.0, 0.0, 0.0, 1.6664045275778103E9, 0.0, 2022-10-21 19:08:47.577
215.0, -130806.878901348, -157528.99289476787, -33672.81361494227, -140619.25001373887, 68615.18396320152, -109440.42169337532, 56800.58828599314, -110672.4721994963, 0.01, 0.9580000000000001, -0.054, 192.0, 0.0, 0.0, 0.0, 0.0, 0.0, 0.0, 0.0, 0.0, 0.0, 1.6664045275778248E9, 0.0, 2022-10-21 19:08:47.577
216.0, -130806.2754042477, -157528.65761860105, -33667.22567882844, -140621.35107771767, 68618.6484835921, -109446.34490565598, 56797.19082083593, -110663.97853660329, 0.01, 0.9580000000000001, -0.054, 192.0, 0.0, 0.0, 0.0, 0.0, 0.0, 0.0, 0.0, 0.0, 0.0, 1.6664045275778396E9, 0.0, 2022-10-21 19:08:47.577
217.0, -130814.18792178488, -157538.49238616138, -33677.52983302234, -140633.86805461266, 68612.32293991125, -109459.75595232916, 56785.07617534116, -110667.53246397167, 0.01, 0.9580000000000001, -0.054, 192.0, 0.0, 0.0, 0.0, 0.0, 0.0, 0.0, 0.0, 0.0, 0.0, 1.666404527577856E9, 0.0, 2022-10-21 19:08:47.577
218.0, -130811.05867756113, -157533.66440935904, -33675.60758299918, -140619.65234513907, 68613.6416928341, -109456.91728078334, 56792.07227135567, -110663.84442613655, 0.018000000000000002, 0.9480000000000001, -0.062, 192.0, 0.0, 144.0, 29.0, 160.0, 254.0, 16.0, 0.0, 0.0, 0.0, 1.6664045275778825E9, 0.0, 2022-10-21 19:08:47.577
219.0, -130816.35604099704, -157536.41367392705, -33677.730998722436, -140615.7407898594, 68615.65334983509, -109440.10876895295, 56807.89730643002, -110663.35268775854, 0.018000000000000002, 0.9480000000000001, -0.062, 192.0, 0.0, 0.0, 0.0, 0.0, 0.0, 0.0, 0.0, 0.0, 0.0, 1.6664045275778987E9, 0.0, 2022-10-21 19:08:47.577
220.0, -130819.48528522078, -157540.21347048445, -33676.23343184393, -140624.74854287488, 68618.78259405882, -109430.13989092589, 56811.49593728733, -110667.66657443841, 0.018000000000000002, 0.9480000000000001, -0.062, 192.0, 0.0, 0.0, 0.0, 0.0, 0.0, 0.0, 0.0, 0.0, 0.0, 1.6664045275779145E9, 0.0, 2022-10-21 19:08:47.577
221.0, -130817.29481426417, -157536.57013613824, -33673.77473995385, -140628.32482198774, 68622.35887317167, -109443.79680678807, 56798.129594103055, -110671.0193361067, 0.018000000000000002, 0.9480000000000001, -0.062, 192.0, 0.0, 0.0, 0.0, 0.0, 0.0, 0.0, 0.0, 0.0, 0.0, 1.6664045275779293E9, 0.0, 2022-10-21 19:08:47.577
222.0, -130825.56495971263, -157545.15320600907, -33667.717417206455, -140618.60181314967, 68622.40357666058, -109441.74044629818, 56803.60577149461, -110667.77833316069, 0.018000000000000002, 0.9480000000000001, -0.062, 192.0, 0.0, 0.0, 0.0, 0.0, 0.0, 0.0, 0.0, 0.0, 0.0, 1.666404527577982E9, 0.0, 2022-10-21 19:08:47.577
223.0, -130829.38710801449, -157551.67991539, -33664.856393916176, -140615.31610671474, 68626.78451857383, -109427.50238508015, 56817.24033561234, -110664.78319940367, 0.018000000000000002, 0.9480000000000001, -0.062, 192.0, 0.0, 0.0, 0.0, 0.0, 0.0, 0.0, 0.0, 0.0, 0.0, 1.6664045275779977E9, 0.0, 2022-10-21 19:08:47.577
224.0, -130838.79719243017, -157557.02198231482, -33659.536678735814, -140614.8467200812, 68634.85349832219, -109421.89209722188, 56820.16841413599, -110658.25649002273, 0.018000000000000002, 0.9480000000000001, -0.062, 192.0, 0.0, 0.0, 0.0, 0.0, 0.0, 0.0, 0.0, 0.0, 0.0, 1.6664045275780127E9, 0.0, 2022-10-21 19:08:47.578
0.0, 0.0, 0.0, 0.0, 0.0, 0.0, 0.0, 0.0, 0.0, 0.02, 0.9520000000000001, -0.056, 192.0, 0.0, 160.0, 29.0, 192.0, 254.0, 64.0, 0.0, 0.0, 0.0, 1.6664045276925733E9, 0.0, 2022-10-21 19:08:47.692
1.0, -130859.04787290668, -157588.53794199682, -33716.53362709685, -140662.9029706601, 68634.36175994418, -109721.33841768962, 56747.81581733416, -110690.28653982718, 0.02, 0.9520000000000001, -0.056, 192.0, 0.0, 0.0, 0.0, 0.0, 0.0, 0.0, 0.0, 0.0, 0.0, 1.666404528177608E9, 0.0, 2022-10-21 19:08:48.177
2.0, -130852.09648038108, -157575.57393021273, -33724.44614463403, -140675.77757546635, 68625.62222786216, -109730.5473364052, 56734.27066019424, -110704.18932487837, 0.02, 0.9520000000000001, -0.056, 192.0, 0.0, 0.0, 0.0, 0.0, 0.0, 0.0, 0.0, 0.0, 0.0, 1.6664045281777008E9, 0.0, 2022-10-21 19:08:48.177
3.0, -130852.78938445919, -157582.21239831595, -33711.280967149854, -140661.71832820398, 68637.46865242347, -109732.35782770609, 56736.05879975067, -110697.66261549744, 0.02, 0.9520000000000001, -0.056, 192.0, 0.0, 0.0, 0.0, 0.0, 0.0, 0.0, 0.0, 0.0, 0.0, 1.6664045281777787E9, 0.0, 2022-10-21 19:08:48.177
4.0, -130871.63190503501, -157611.47083180796, -33702.09440017872, -140642.80875239478, 68649.71740838497, -109706.72037681585, 56761.38332621853, -110690.28653982718, 0.02, 0.9520000000000001, -0.056, 192.0, 0.0, 0.0, 0.0, 0.0, 0.0, 0.0, 0.0, 0.0, 0.0, 1.6664045281778424E9, 0.0, 2022-10-21 19:08:48.177
5.0, -130867.5415357997, -157606.08406139424, -33708.15172292611, -140650.52010423187, 68649.8515188517, -109697.15383018898, 56766.68068965444, -110691.56058926113, 0.02, 0.9520000000000001, -0.056, 192.0, 0.0, 0.0, 0.0, 0.0, 0.0, 0.0, 0.0, 0.0, 0.0, 1.666404528177874E9, 0.0, 2022-10-21 19:08:48.177
6.0, -130860.67955025191, -157596.24929383388, -33708.91168223759, -140662.5006392599, 68648.73393162894, -109711.48129838482, 56748.195796989894, -110690.13007761599, 0.02, 0.9520000000000001, -0.056, 192.0, 0.0, 0.0, 0.0, 0.0, 0.0, 0.0, 0.0, 0.0, 0.0, 1.6664045281778953E9, 0.0, 2022-10-21 19:08:48.177
7.0, -130855.15866937145, -157589.56612224175, -33706.47534209196, -140651.5035809879, 68652.42196946406, -109721.07019675616, 56742.25023296478, -110689.43717353788, 0.02, 0.9560000000000001, -0.05, 192.0, 0.0, 160.0, 29.0, 224.0, 254.0, 112.0, 0.0, 0.0, 0.0, 1.6664045281779168E9, 0.0, 2022-10-21 19:08:48.177
8.0, -130845.92739891142, -157583.62055821664, -33706.43063860305, -140644.86511288467, 68648.64452465111, -109694.96335923235, 56761.0480500517, -110696.32151083011, 0.02, 0.9560000000000001, -0.05, 192.0, 0.0, 0.0, 0.0, 0.0, 0.0, 0.0, 0.0, 0.0, 0.0, 1.6664045281779392E9, 0.0, 2022-10-21 19:08:48.177
9.0, -130840.00418663076, -157576.91503488005, -33699.255728632896, -140648.4413919975, 68650.38796071864, -109697.2432371668, 56763.55144543069, -110694.26515034023, 0.02, 0.9560000000000001, -0.05, 192.0, 0.0, 0.0, 0.0, 0.0, 0.0, 0.0, 0.0, 0.0, 0.0, 1.66640452817796E9, 0.0, 2022-10-21 19:08:48.177
10.0, -130837.70195695186, -157571.21534004394, -33702.34026936773, -140653.0458513553, 68651.0585130523, -109712.28596118522, 56751.45915168037, -110693.79576370666, 0.02, 0.9560000000000001, -0.05, 192.0, 0.0, 0.0, 0.0, 0.0, 0.0, 0.0, 0.0, 0.0, 0.0, 1.6664045281779811E9, 0.0, 2022-10-21 19:08:48.177
11.0, -130833.29866329416, -157565.40388648558, -33703.5025600794, -140646.7873629078, 68651.17027177456, -109722.18778397892, 56746.78763708921, -110685.21269383583, 0.02, 0.9560000000000001, -0.05, 192.0, 0.0, 0.0, 0.0, 0.0, 0.0, 0.0, 0.0, 0.0, 0.0, 1.6664045281780028E9, 0.0, 2022-10-21 19:08:48.178
12.0, -130840.04889011967, -157571.05887783278, -33708.57640607076, -140644.8874646291, 68645.24705949391, -109714.14115597501, 56754.23076799283, -110688.09606887057, 0.02, 0.9560000000000001, -0.05, 192.0, 0.0, 0.0, 0.0, 0.0, 0.0, 0.0, 0.0, 0.0, 0.0, 1.6664045281781797E9, 0.0, 2022-10-21 19:08:48.178
13.0, -130851.06830013613, -157581.96652912695, -33714.52197009587, -140659.28198805833, 68636.70869311198, -109707.52503961624, 56757.42706744994, -110698.71314748684, 0.02, 0.9560000000000001, -0.05, 192.0, 0.0, 0.0, 0.0, 0.0, 0.0, 0.0, 0.0, 0.0, 0.0, 1.6664045281782024E9, 0.0, 2022-10-21 19:08:48.178
14.0, -130854.64457924898, -157585.65456696207, -33716.243054418934, -140666.4121945396, 68638.42977743504, -109719.03618801072, 56744.8430353216, -110703.31760684462, 0.02, 0.9560000000000001, -0.05, 192.0, 0.0, 0.0, 0.0, 0.0, 0.0, 0.0, 0.0, 0.0, 0.0, 1.6664045281782238E9, 0.0, 2022-10-21 19:08:48.178
15.0, -130855.42689030492, -157587.12978209613, -33718.0088422309, -140660.77955493683, 68638.34037045723, -109715.9963507648, 56744.61951787705, -110702.51294404424, 0.02, 0.9560000000000001, -0.05, 192.0, 0.0, 0.0, 0.0, 0.0, 0.0, 0.0, 0.0, 0.0, 0.0, 1.6664045281782448E9, 0.0, 2022-10-21 19:08:48.178
16.0, -130848.67666347942, -157576.31153777975, -33710.297490393816, -140646.16151406307, 68643.14599551511, -109705.17810644844, 56756.1977215049, -110693.95222591785, 0.02, 0.9560000000000001, -0.05, 192.0, 0.0, 0.0, 0.0, 0.0, 0.0, 0.0, 0.0, 0.0, 0.0, 1.6664045281782691E9, 0.0, 2022-10-21 19:08:48.178
17.0, -130844.40748028846, -157570.3436220102, -33698.965155954975, -140642.65229018359, 68651.34908573021, -109702.20532443588, 56765.11606754256, -110682.95516764584, 0.022, 0.962, -0.05, 192.0, 0.0, 176.0, 30.0, 16.0, 254.0, 112.0, 0.0, 0.0, 0.0, 1.666404528178285E9, 0.0, 2022-10-21 19:08:48.178
18.0, -130852.72232922583, -157577.71969768044, -33705.24599614692, -140659.61726422518, 68648.33160022875, -109711.1013187291, 56755.28129998223, -110690.93474041639, 0.022, 0.962, -0.05, 192.0, 0.0, 0.0, 0.0, 0.0, 0.0, 0.0, 0.0, 0.0, 0.0, 1.6664045281783016E9, 0.0, 2022-10-21 19:08:48.178
19.0, -130851.67179723643, -157578.7925814143, -33707.794095014826, -140666.59100849522, 68641.96135305898, -109740.67267664346, 56732.32605842663, -110694.95805441834, 0.022, 0.962, -0.05, 192.0, 0.0, 0.0, 0.0, 0.0, 0.0, 0.0, 0.0, 0.0, 0.0, 1.6664045281783168E9, 0.0, 2022-10-21 19:08:48.178
20.0, -130845.90504716696, -157574.21047380095, -33702.94376646802, -140645.51331347387, 68651.79612061931, -109725.36173169158, 56746.809988833666, -110682.53048450119, 0.022, 0.962, -0.05, 192.0, 0.0, 0.0, 0.0, 0.0, 0.0, 0.0, 0.0, 0.0, 0.0, 1.666404528178332E9, 0.0, 2022-10-21 19:08:48.178
21.0, -130848.34138731258, -157578.21143605845, -33710.655118305105, -140650.40834550958, 68642.63190539264, -109705.62514133754, 56762.34445123011, -110689.25835958224, 0.022, 0.962, -0.05, 192.0, 0.0, 0.0, 0.0, 0.0, 0.0, 0.0, 0.0, 0.0, 0.0, 1.6664045281783473E9, 0.0, 2022-10-21 19:08:48.178
22.0, -130852.07412863662, -157584.26875880585, -33717.8076765308, -140667.28391257333, 68633.22182097695, -109715.9963507648, 56753.895491826, -110691.04649913865, 0.022, 0.962, -0.05, 192.0, 0.0, 0.0, 0.0, 0.0, 0.0, 0.0, 0.0, 0.0, 0.0, 1.6664045281783628E9, 0.0, 2022-10-21 19:08:48.178
23.0, -130848.40844254596, -157579.73135468143, -33714.074935206765, -140666.47924977294, 68639.05562627979, -109727.21692648137, 56745.960622544364, -110685.16799034692, 0.022, 0.962, -0.05, 192.0, 0.0, 0.0, 0.0, 0.0, 0.0, 0.0, 0.0, 0.0, 0.0, 1.6664045281783783E9, 0.0, 2022-10-21 19:08:48.178
24.0, -130843.66987272142, -157572.4893894779, -33707.458818848, -140645.8932931296, 68648.17513801756, -109724.95940029138, 56750.00628829078, -110688.23017933729, 0.022, 0.962, -0.05, 192.0, 0.0, 0.0, 0.0, 0.0, 0.0, 0.0, 0.0, 0.0, 0.0, 1.6664045281783955E9, 0.0, 2022-10-21 19:08:48.178
25.0, -130841.79232618718, -157572.8023139003, -33709.78340027135, -140645.4015547516, 68644.37534146015, -109727.50749915928, 56751.83913133611, -110693.125211373, 0.022, 0.962, -0.05, 192.0, 0.0, 0.0, 0.0, 0.0, 0.0, 0.0, 0.0, 0.0, 0.0, 1.6664045281784105E9, 0.0, 2022-10-21 19:08:48.178
26.0, -130851.35887281406, -157583.66526170555, -33718.29941490882, -140660.37722353663, 68635.36758844467, -109721.56193513417, 56752.66614588096, -110706.04451966817, 0.022, 0.962, -0.05, 192.0, 0.0, 0.0, 0.0, 0.0, 0.0, 0.0, 0.0, 0.0, 0.0, 1.6664045281784258E9, 0.0, 2022-10-21 19:08:48.178
27.0, -130849.57073325763, -157580.4019070151, -33714.87959800716, -140663.7523369494, 68636.7981000898, -109745.74652263481, 56735.45530265037, -110701.37300507701, 0.026000000000000002, 0.962, -0.05, 192.0, 0.0, 208.0, 30.0, 16.0, 254.0, 112.0, 0.0, 0.0, 0.0, 1.666404528178486E9, 0.0, 2022-10-21 19:08:48.178
28.0, -130852.27529433672, -157584.15700008356, -33719.7075748095, -140660.53368574783, 68638.51918441286, -109733.40835969549, 56741.66908760895, -110700.41188006544, 0.026000000000000002, 0.962, -0.05, 192.0, 0.0, 0.0, 0.0, 0.0, 0.0, 0.0, 0.0, 0.0, 0.0, 1.6664045281785033E9, 0.0, 2022-10-21 19:08:48.178
29.0, -130854.26459959324, -157586.92861639604, -33724.490848122936, -140658.1420490911, 68633.1994692325, -109717.73978683232, 56753.6943261259, -110703.40701382245, 0.026000000000000002, 0.962, -0.05, 192.0, 0.0, 0.0, 0.0, 0.0, 0.0, 0.0, 0.0, 0.0, 0.0, 1.6664045281785192E9, 0.0, 2022-10-21 19:08:48.178
30.0, -130849.66014023544, -157584.2017035725, -33720.5569410988, -140657.96323513548, 68637.82628033475, -109711.41424315146, 56759.9975180623, -110700.12130738751, 0.026000000000000002, 0.962, -0.05, 192.0, 0.0, 0.0, 0.0, 0.0, 0.0, 0.0, 0.0, 0.0, 0.0, 1.6664045281785345E9, 0.0, 2022-10-21 19:08:48.178
31.0, -130843.58046574361, -157576.0433168463, -33714.231397417956, -140661.33834854822, 68644.68826588253, -109737.43167369744, 56745.42418067744, -110689.61598749353, 0.026000000000000002, 0.962, -0.05, 192.0, 0.0, 0.0, 0.0, 0.0, 0.0, 0.0, 0.0, 0.0, 0.0, 1.6664045281785498E9, 0.0, 2022-10-21 19:08:48.178
32.0, -130842.75345119876, -157577.60793895816, -33709.112847937686, -140655.77276417887, 68644.30828622679, -109749.72513314786, 56740.529148641726, -110683.40220253494, 0.026000000000000002, 0.962, -0.05, 192.0, 0.0, 0.0, 0.0, 0.0, 0.0, 0.0, 0.0, 0.0, 0.0, 1.6664045281785653E9, 0.0, 2022-10-21 19:08:48.178
33.0, -130851.71650072534, -157586.36982278465, -33713.49378985093, -140649.8495518982, 68641.8048908478, -109728.42392068195, 56754.81191334867, -110694.04163289568, 0.026000000000000002, 0.962, -0.05, 192.0, 0.0, 0.0, 0.0, 0.0, 0.0, 0.0, 0.0, 0.0, 0.0, 1.6664045281785803E9, 0.0, 2022-10-21 19:08:48.178
34.0, -130851.80590770316, -157585.27458730634, -33714.074935206765, -140655.45983975648, 68640.84376583621, -109716.30927518717, 56763.90907334198, -110690.26418808273, 0.026000000000000002, 0.962, -0.05, 192.0, 0.0, 0.0, 0.0, 0.0, 0.0, 0.0, 0.0, 0.0, 0.0, 1.6664045281785955E9, 0.0, 2022-10-21 19:08:48.178
35.0, -130857.93028568392, -157591.28720656483, -33720.06520272079, -140667.93211316253, 68636.44047217852, -109751.62503142656, 56737.95869802937, -110688.4760485263, 0.026000000000000002, 0.962, -0.05, 192.0, 0.0, 0.0, 0.0, 0.0, 0.0, 0.0, 0.0, 0.0, 0.0, 1.6664045281786108E9, 0.0, 2022-10-21 19:08:48.178
36.0, -130857.39384381699, -157590.7954681868, -33714.47726660696, -140658.03029036883, 68642.6542571371, -109746.48413020185, 56741.490273653304, -110685.97265314731, 0.024, 0.9560000000000001, -0.046, 192.0, 0.0, 192.0, 29.0, 224.0, 254.0, 144.0, 0.0, 0.0, 0.0, 1.666404528178626E9, 0.0, 2022-10-21 19:08:48.178
37.0, -130848.00611114576, -157581.83241866023, -33705.84949324721, -140640.30535701578, 68651.01380956337, -109715.86224029807, 56767.641814666014, -110680.65293796694, 0.024, 0.9560000000000001, -0.046, 192.0, 0.0, 0.0, 0.0, 0.0, 0.0, 0.0, 0.0, 0.0, 0.0, 1.666404528178642E9, 0.0, 2022-10-21 19:08:48.178
38.0, -130848.25198033477, -157580.96070062646, -33702.76495251238, -140639.7465634044, 68650.99145781892, -109713.33649317462, 56771.061631567674, -110680.56353098912, 0.024, 0.9560000000000001, -0.046, 192.0, 0.0, 0.0, 0.0, 0.0, 0.0, 0.0, 0.0, 0.0, 0.0, 1.6664045281786573E9, 0.0, 2022-10-21 19:08:48.178
39.0, -130854.10813738205, -157586.05689836227, -33708.59875781521, -140656.4433165125, 68642.34133271473, -109730.52498466075, 56755.72833487134, -110683.58101649059, 0.024, 0.9560000000000001, -0.046, 192.0, 0.0, 0.0, 0.0, 0.0, 0.0, 0.0, 0.0, 0.0, 0.0, 1.6664045281786726E9, 0.0, 2022-10-21 19:08:48.178
40.0, -130849.61543674654, -157583.32998553873, -33706.25182464741, -140657.0915171017, 68639.88264082464, -109746.88646160203, 56745.893567311, -110684.29627231316, 0.024, 0.9560000000000001, -0.046, 192.0, 0.0, 0.0, 0.0, 0.0, 0.0, 0.0, 0.0, 0.0, 0.0, 1.666404528178688E9, 0.0, 2022-10-21 19:08:48.178
41.0, -130843.3345965546, -157577.56323546925, -33700.932109467045, -140638.38310699264, 68645.31411472728, -109733.72128411786, 56759.259910495275, -110683.62571997949, 0.024, 0.9560000000000001, -0.046, 192.0, 0.0, 0.0, 0.0, 0.0, 0.0, 0.0, 0.0, 0.0, 0.0, 1.6664045281787033E9, 0.0, 2022-10-21 19:08:48.178
42.0, -130845.14508785548, -157577.42912500253, -33699.591004799724, -140636.5949674362, 68647.59399266171, -109717.40451066548, 56771.218093778865, -110687.2243508368, 0.024, 0.9560000000000001, -0.046, 192.0, 0.0, 0.0, 0.0, 0.0, 0.0, 0.0, 0.0, 0.0, 0.0, 1.6664045281788049E9, 0.0, 2022-10-21 19:08:48.178
43.0, -130851.96236991434, -157583.46409600545, -33710.58806307174, -140662.70180496, 68634.78644308883, -109735.66588588546, 56754.20841624837, -110696.9250079304, 0.024, 0.9560000000000001, -0.046, 192.0, 0.0, 0.0, 0.0, 0.0, 0.0, 0.0, 0.0, 0.0, 0.0, 1.66640452817882E9, 0.0, 2022-10-21 19:08:48.178
44.0, -130848.69901522387, -157578.5020087364, -33709.045792704324, -140664.3558340497, 68639.16738500207, -109748.29462150272, 56745.93827079991, -110681.27878681169, 0.024, 0.9560000000000001, -0.046, 192.0, 0.0, 0.0, 0.0, 0.0, 0.0, 0.0, 0.0, 0.0, 0.0, 1.666404528178835E9, 0.0, 2022-10-21 19:08:48.178
45.0, -130846.57559950062, -157577.02679360233, -33703.88253973515, -140656.42096476807, 68641.13433851414, -109733.34130446211, 56758.87993083953, -110684.20686533533, 0.024, 0.9560000000000001, -0.046, 192.0, 0.0, 0.0, 0.0, 0.0, 0.0, 0.0, 0.0, 0.0, 0.0, 1.6664045281788497E9, 0.0, 2022-10-21 19:08:48.178
46.0, -130849.28016057971, -157579.28431979232, -33704.57544381326, -140651.12360133216, 68643.01188504839, -109719.59498162211, 56771.03927982322, -110693.0805078841, 0.02, 0.962, -0.05, 192.0, 0.0, 160.0, 30.0, 16.0, 254.0, 112.0, 0.0, 0.0, 0.0, 1.6664045281788647E9, 0.0, 2022-10-21 19:08:48.178
47.0, -130849.16840185743, -157579.3960785146, -33702.876711234654, -140653.22466531096, 68643.12364377065, -109722.9477432904, 56768.60293967759, -110693.63930149548, 0.02, 0.962, -0.05, 192.0, 0.0, 0.0, 0.0, 0.0, 0.0, 0.0, 0.0, 0.0, 0.0, 1.666404528178883E9, 0.0, 2022-10-21 19:08:48.178
48.0, -130848.11786986803, -157581.63125296013, -33703.77078101287, -140663.52881950483, 68641.78253910334, -109754.50840646129, 56745.692401610904, -110692.29819682815, 0.02, 0.962, -0.05, 192.0, 0.0, 0.0, 0.0, 0.0, 0.0, 0.0, 0.0, 0.0, 0.0, 1.666404528178901E9, 0.0, 2022-10-21 19:08:48.178
49.0, -130851.89531468098, -157584.31346229475, -33701.28973737833, -140652.93409263302, 68649.04685605131, -109738.45985394239, 56752.88966332551, -110685.65972872493, 0.02, 0.962, -0.05, 192.0, 0.0, 0.0, 0.0, 0.0, 0.0, 0.0, 0.0, 0.0, 0.0, 1.6664045281789165E9, 0.0, 2022-10-21 19:08:48.178
50.0, -130851.11300362504, -157581.02775585983, -33699.747467010915, -140641.46764772746, 68652.66783865307, -109705.42397563744, 56774.213227535874, -110684.89976941345, 0.02, 0.962, -0.05, 192.0, 0.0, 0.0, 0.0, 0.0, 0.0, 0.0, 0.0, 0.0, 0.0, 1.6664045281789317E9, 0.0, 2022-10-21 19:08:48.178
51.0, -130849.01193964624, -157581.2959767933, -33700.015687944375, -140652.01767111037, 68646.29759148331, -109708.5979233501, 56772.603901935094, -110686.44203978087, 0.02, 0.962, -0.05, 192.0, 0.0, 0.0, 0.0, 0.0, 0.0, 0.0, 0.0, 0.0, 0.0, 1.6664045281789467E9, 0.0, 2022-10-21 19:08:48.178
52.0, -130853.16936411493, -157586.1016018512, -33701.37914435615, -140662.6571014711, 68641.58137340324, -109744.96421157887, 56741.80319807568, -110693.10285962855, 0.02, 0.962, -0.05, 192.0, 0.0, 0.0, 0.0, 0.0, 0.0, 0.0, 0.0, 0.0, 0.0, 1.6664045281789627E9, 0.0, 2022-10-21 19:08:48.178
53.0, -130845.56977100013, -157578.7478779254, -33693.06429541878, -140648.3966885086, 68651.9078793416, -109741.4996911883, 56746.45236092238, -110678.93185364388, 0.02, 0.962, -0.05, 192.0, 0.0, 0.0, 0.0, 0.0, 0.0, 0.0, 0.0, 0.0, 0.0, 1.6664045281789784E9, 0.0, 2022-10-21 19:08:48.178
54.0, -130841.99349188728, -157576.57975871323, -33691.007934928886, -140635.96911859146, 68657.09348405522, -109710.31900767316, 56771.95570134589, -110672.6286617075, 0.02, 0.962, -0.05, 192.0, 0.0, 0.0, 0.0, 0.0, 0.0, 0.0, 0.0, 0.0, 0.0, 1.6664045281789932E9, 0.0, 2022-10-21 19:08:48.178
55.0, -130838.9313028969, -157574.9927848569, -33688.951574439, -140635.0974005577, 68661.27326026837, -109694.51632434325, 56783.936236373935, -110666.9736703603, 0.02, 0.962, -0.05, 192.0, 0.0, 0.0, 0.0, 0.0, 0.0, 0.0, 0.0, 0.0, 0.0, 1.6664045281790085E9, 0.0, 2022-10-21 19:08:48.179
56.0, -130840.85355292006, -157577.8985116361, -33693.71249600798, -140644.686298929, 68658.38988523363, -109710.58722860662, 56771.01692807877, -110668.51594072771, 0.018000000000000002, 0.964, -0.048, 192.0, 0.0, 144.0, 30.0, 32.0, 254.0, 128.0, 0.0, 0.0, 0.0, 1.6664045281790235E9, 0.0, 2022-10-21 19:08:48.179
57.0, -130848.43079429041, -157585.85573266217, -33702.31791762327, -140656.4433165125, 68646.09642578321, -109734.77181610726, 56755.16954125995, -110668.40418200544, 0.018000000000000002, 0.964, -0.048, 192.0, 0.0, 0.0, 0.0, 0.0, 0.0, 0.0, 0.0, 0.0, 0.0, 1.6664045281790564E9, 0.0, 2022-10-21 19:08:48.179
58.0, -130844.87686692202, -157584.53697973932, -33699.09926642171, -140642.96521460597, 68650.43266420755, -109736.8058248527, 56762.411506463475, -110664.04559183665, 0.018000000000000002, 0.964, -0.048, 192.0, 0.0, 0.0, 0.0, 0.0, 0.0, 0.0, 0.0, 0.0, 0.0, 1.666404528179072E9, 0.0, 2022-10-21 19:08:48.179
59.0, -130843.82633493262, -157585.87808440664, -33702.206158901, -140640.41711573806, 68655.64062066562, -109714.52113563076, 56775.129649058545, -110676.0261268647, 0.018000000000000002, 0.964, -0.048, 192.0, 0.0, 0.0, 0.0, 0.0, 0.0, 0.0, 0.0, 0.0, 0.0, 1.6664045281790867E9, 0.0, 2022-10-21 19:08:48.179
60.0, -130847.26850357873, -157589.72258445295, -33708.03996420383, -140658.52202874687, 68650.9020508411, -109717.02453100974, 56767.41829722146, -110687.31375781463, 0.018000000000000002, 0.964, -0.048, 192.0, 0.0, 0.0, 0.0, 0.0, 0.0, 0.0, 0.0, 0.0, 0.0, 1.6664045281791017E9, 0.0, 2022-10-21 19:08:48.179
61.0, -130839.91477965293, -157582.88295064963, -33705.62597580266, -140651.52593273236, 68658.21107127798, -109738.41515045347, 56755.95185231589, -110679.04361236616, 0.018000000000000002, 0.964, -0.048, 192.0, 0.0, 0.0, 0.0, 0.0, 0.0, 0.0, 0.0, 0.0, 0.0, 1.6664045281791167E9, 0.0, 2022-10-21 19:08:48.179
62.0, -130842.46287852085, -157587.3980030296, -33709.71634503798, -140642.62993843915, 68659.28395501184, -109736.38114170804, 56758.209378505875, -110676.98725187627, 0.018000000000000002, 0.964, -0.048, 192.0, 0.0, 0.0, 0.0, 0.0, 0.0, 0.0, 0.0, 0.0, 0.0, 1.6664045281791315E9, 0.0, 2022-10-21 19:08:48.179
63.0, -130841.09942210907, -157587.50976175186, -33710.18573167154, -140646.80971465228, 68652.73489388645, -109726.45696716988, 56765.831323365135, -110676.92019664291, 0.018000000000000002, 0.964, -0.048, 192.0, 0.0, 0.0, 0.0, 0.0, 0.0, 0.0, 0.0, 0.0, 0.0, 1.6664045281791463E9, 0.0, 2022-10-21 19:08:48.179
64.0, -130836.1820383289, -157581.83241866023, -33707.52587408136, -140652.3976507661, 68654.27716425386, -109730.36852244956, 56761.360974474075, -110669.99115586176, 0.018000000000000002, 0.964, -0.048, 192.0, 0.0, 0.0, 0.0, 0.0, 0.0, 0.0, 0.0, 0.0, 0.0, 1.6664045281791632E9, 0.0, 2022-10-21 19:08:48.179
65.0, -130840.56298024215, -157584.62638671714, -33712.599720072714, -140656.66683395708, 68652.93605958654, -109750.86507211508, 56743.85955856557, -110676.24964430925, 0.018000000000000002, 0.964, -0.048, 192.0, 0.0, 0.0, 0.0, 0.0, 0.0, 0.0, 0.0, 0.0, 0.0, 1.6664045281791787E9, 0.0, 2022-10-21 19:08:48.179
66.0, -130839.9818348863, -157584.82755241723, -33711.01274621639, -140648.5978542087, 68652.66783865307, -109740.78443536574, 56754.90132032649, -110672.00281286275, 0.018000000000000002, 0.9580000000000001, -0.05, 192.0, 0.0, 144.0, 29.0, 240.0, 254.0, 112.0, 0.0, 0.0, 0.0, 1.6664045281791947E9, 0.0, 2022-10-21 19:08:48.179
67.0, -130833.05279410516, -157579.08315409222, -33704.53074032435, -140638.83014188174, 68659.21689977848, -109731.64257188351, 56768.64764316651, -110664.31381277011, 0.018000000000000002, 0.9580000000000001, -0.05, 192.0, 0.0, 0.0, 0.0, 0.0, 0.0, 0.0, 0.0, 0.0, 0.0, 1.6664045281792111E9, 0.0, 2022-10-21 19:08:48.179
68.0, -130832.56105572714, -157581.0054041154, -33707.659984548096, -140652.57646472176, 68656.98172533295, -109738.92924057595, 56760.37749771804, -110670.99698436225, 0.018000000000000002, 0.9580000000000001, -0.05, 192.0, 0.0, 0.0, 0.0, 0.0, 0.0, 0.0, 0.0, 0.0, 0.0, 1.6664045281792266E9, 0.0, 2022-10-21 19:08:48.179
69.0, -130834.75152668376, -157584.2017035725, -33710.521007838375, -140656.08568860122, 68654.4559782095, -109745.43359821245, 56751.347392958094, -110676.54021698717, 0.018000000000000002, 0.9580000000000001, -0.05, 192.0, 0.0, 0.0, 0.0, 0.0, 0.0, 0.0, 0.0, 0.0, 0.0, 1.666404528179244E9, 0.0, 2022-10-21 19:08:48.179
70.0, -130839.64655871947, -157590.43784027552, -33710.61041481619, -140651.9059123881, 68652.93605958654, -109745.8582813571, 56752.21911099185, -110677.43428676538, 0.018000000000000002, 0.9580000000000001, -0.05, 192.0, 0.0, 0.0, 0.0, 0.0, 0.0, 0.0, 0.0, 0.0, 0.0, 1.6664045281792598E9, 0.0, 2022-10-21 19:08:48.179
71.0, -130845.54741925567, -157595.08700312223, -33716.667737563585, -140657.71736594648, 68643.5483269153, -109735.68823762993, 56760.869236096056, -110685.63737698048, 0.018000000000000002, 0.9580000000000001, -0.05, 192.0, 0.0, 0.0, 0.0, 0.0, 0.0, 0.0, 0.0, 0.0, 0.0, 1.6664045281792755E9, 0.0, 2022-10-21 19:08:48.179
72.0, -130829.76708767023, -157580.26779654835, -33702.116751923175, -140651.4365257545, 68656.37822823266, -109744.91950808997, 56762.36680297456, -110675.08735359757, 0.018000000000000002, 0.9580000000000001, -0.05, 192.0, 0.0, 0.0, 0.0, 0.0, 0.0, 0.0, 0.0, 0.0, 0.0, 1.666404528179306E9, 0.0, 2022-10-21 19:08:48.179
73.0, -130831.376413271, -157582.1006395937, -33704.86601649118, -140657.22562756846, 68659.70863815649, -109766.62305195608, 56743.16665448745, -110671.39931576245, 0.018000000000000002, 0.9580000000000001, -0.05, 192.0, 0.0, 0.0, 0.0, 0.0, 0.0, 0.0, 0.0, 0.0, 0.0, 1.6664045281793215E9, 0.0, 2022-10-21 19:08:48.179
74.0, -130844.02750063271, -157598.64093049063, -33719.9087405096, -140663.03708112682, 68644.50945192689, -109764.61139495509, 56738.22691896283, -110683.35749904603, 0.018000000000000002, 0.9580000000000001, -0.05, 192.0, 0.0, 0.0, 0.0, 0.0, 0.0, 0.0, 0.0, 0.0, 0.0, 1.6664045281793375E9, 0.0, 2022-10-21 19:08:48.179
75.0, -130840.1382970975, -157597.76921245686, -33718.76880154238, -140657.56090373528, 68645.15765251609, -109753.14495004952, 56752.08500052512, -110681.47995251179, 0.02, 0.9580000000000001, -0.044, 192.0, 0.0, 160.0, 29.0, 240.0, 254.0, 160.0, 0.0, 0.0, 0.0, 1.666404528179353E9, 0.0, 2022-10-21 19:08:48.179
76.0, -130844.13925935498, -157602.41837530356, -33721.65217657712, -140666.2557323284, 68645.42587344955, -109747.37819998006, 56753.26964298125, -110687.11259211453, 0.02, 0.9580000000000001, -0.044, 192.0, 0.0, 0.0, 0.0, 0.0, 0.0, 0.0, 0.0, 0.0, 0.0, 1.6664045281793697E9, 0.0, 2022-10-21 19:08:48.179
77.0, -130848.78842220169, -157604.94412242703, -33726.43544989055, -140680.13616563514, 68639.1003297687, -109757.28002277375, 56738.24927070729, -110698.46727829782, 0.02, 0.9580000000000001, -0.044, 192.0, 0.0, 0.0, 0.0, 0.0, 0.0, 0.0, 0.0, 0.0, 0.0, 1.6664045281793852E9, 0.0, 2022-10-21 19:08:48.179
78.0, -130840.87590466451, -157597.92567466805, -33715.95248174101, -140668.73677596293, 68648.37630371765, -109768.0088601123, 56733.48834913831, -110695.36038581854, 0.02, 0.9580000000000001, -0.044, 192.0, 0.0, 0.0, 0.0, 0.0, 0.0, 0.0, 0.0, 0.0, 0.0, 1.666404528179402E9, 0.0, 2022-10-21 19:08:48.179
79.0, -130837.8360674186, -157593.81295368826, -33708.91168223759, -140651.0565460988, 68656.19941427701, -109765.03607809974, 56744.61951787705, -110686.03970838067, 0.02, 0.9580000000000001, -0.044, 192.0, 0.0, 0.0, 0.0, 0.0, 0.0, 0.0, 0.0, 0.0, 0.0, 1.6664045281794176E9, 0.0, 2022-10-21 19:08:48.179
80.0, -130838.99835813027, -157593.74589845492, -33707.57057757027, -140648.26257804187, 68661.49677771292, -109756.14008380653, 56755.7953901047, -110678.79774317716, 0.02, 0.9580000000000001, -0.044, 192.0, 0.0, 0.0, 0.0, 0.0, 0.0, 0.0, 0.0, 0.0, 0.0, 1.666404528179433E9, 0.0, 2022-10-21 19:08:48.179
81.0, -130842.37347154302, -157595.04229963332, -33706.83297000325, -140650.1401245761, 68669.02931559435, -109757.88351987404, 56754.431933692926, -110675.8249611646, 0.02, 0.9580000000000001, -0.044, 192.0, 0.0, 0.0, 0.0, 0.0, 0.0, 0.0, 0.0, 0.0, 0.0, 1.66640452817945E9, 0.0, 2022-10-21 19:08:48.179
82.0, -130838.0372331187, -157590.01315713086, -33700.59683330022, -140645.71447917397, 68671.68917318454, -109761.54920596472, 56748.68753536791, -110676.42845826488, 0.02, 0.9580000000000001, -0.044, 192.0, 0.0, 0.0, 0.0, 0.0, 0.0, 0.0, 0.0, 0.0, 0.0, 1.666404528179466E9, 0.0, 2022-10-21 19:08:48.179
83.0, -130835.9361691399, -157592.60595948767, -33697.66875477657, -140627.31899348725, 68677.0088883649, -109740.04682779871, 56763.864369853065, -110671.39931576245, 0.02, 0.9580000000000001, -0.044, 192.0, 0.0, 0.0, 0.0, 0.0, 0.0, 0.0, 0.0, 0.0, 0.0, 1.6664045281794815E9, 0.0, 2022-10-21 19:08:48.179
84.0, -130844.29572156617, -157601.59136075873, -33709.738696782435, -140648.4860954864, 68662.2567370244, -109725.4958421583, 56768.80410537769, -110680.29531005566, 0.02, 0.9580000000000001, -0.044, 192.0, 0.0, 0.0, 0.0, 0.0, 0.0, 0.0, 0.0, 0.0, 0.0, 1.6664045281794972E9, 0.0, 2022-10-21 19:08:48.179
85.0, -130839.7806691862, -157597.63510199013, -33709.71634503798, -140667.5521335068, 68656.48998695493, -109761.45979898689, 56742.674916109434, -110684.18451359088, 0.02, 0.96, -0.044, 192.0, 0.0, 160.0, 30.0, 0.0, 254.0, 160.0, 0.0, 0.0, 0.0, 1.6664045281795127E9, 0.0, 2022-10-21 19:08:48.179
86.0, -130838.57367498562, -157593.18710484353, -33706.92237698107, -140665.31695906128, 68660.51330095688, -109773.14976133702, 56731.9907822598, -110688.61015899303, 0.02, 0.96, -0.044, 192.0, 0.0, 0.0, 0.0, 0.0, 0.0, 0.0, 0.0, 0.0, 0.0, 1.6664045281795292E9, 0.0, 2022-10-21 19:08:48.179
87.0, -130842.95461689886, -157597.03160488984, -33707.03413570335, -140660.3548717922, 68660.3568387457, -109752.78732213823, 56743.457227165374, -110695.11451662953, 0.02, 0.96, -0.044, 192.0, 0.0, 0.0, 0.0, 0.0, 0.0, 0.0, 0.0, 0.0, 0.0, 1.666404528179559E9, 0.0, 2022-10-21 19:08:48.179
88.0, -130843.20048608787, -157598.61857874616, -33709.470475848975, -140663.81939218278, 68651.55025143031, -109750.03805757023, 56747.592299889606, -110689.30306307114, 0.02, 0.96, -0.044, 192.0, 0.0, 0.0, 0.0, 0.0, 0.0, 0.0, 0.0, 0.0, 0.0, 1.666404528179575E9, 0.0, 2022-10-21 19:08:48.179
89.0, -130840.3394627976, -157599.08796537973, -33709.93986248253, -140663.7970404383, 68654.07599855376, -109758.97875535235, 56740.90912829747, -110686.19617059187, 0.02, 0.96, -0.044, 192.0, 0.0, 0.0, 0.0, 0.0, 0.0, 0.0, 0.0, 0.0, 0.0, 1.6664045281795912E9, 0.0, 2022-10-21 19:08:48.179
90.0, -130845.79328844468, -157604.72060498246, -33715.48309510745, -140670.18963935252, 68649.31507698477, -109771.07104910268, 56725.419369389936, -110694.04163289568, 0.02, 0.96, -0.044, 192.0, 0.0, 0.0, 0.0, 0.0, 0.0, 0.0, 0.0, 0.0, 0.0, 1.666404528179607E9, 0.0, 2022-10-21 19:08:48.179
91.0, -130846.2850268227, -157602.75365147038, -33714.29845265132, -140660.8466101702, 68647.3034199838, -109773.4626857594, 56729.554442114175, -110688.94543515987, 0.02, 0.96, -0.044, 192.0, 0.0, 0.0, 0.0, 0.0, 0.0, 0.0, 0.0, 0.0, 0.0, 1.6664045281796243E9, 0.0, 2022-10-21 19:08:48.179
92.0, -130839.75831744175, -157597.70215722348, -33710.72217353847, -140656.33155779022, 68648.1080827842, -109772.63567121455, 56736.23761370631, -110692.96874916182, 0.02, 0.96, -0.044, 192.0, 0.0, 0.0, 0.0, 0.0, 0.0, 0.0, 0.0, 0.0, 0.0, 1.66640452817964E9, 0.0, 2022-10-21 19:08:48.179
93.0, -130840.45122151986, -157596.20459034498, -33709.1575514266, -140657.449145013, 68654.18775727603, -109766.26542404479, 56740.37268643054, -110683.13398160148, 0.02, 0.96, -0.044, 192.0, 0.0, 0.0, 0.0, 0.0, 0.0, 0.0, 0.0, 0.0, 0.0, 1.6664045281796563E9, 0.0, 2022-10-21 19:08:48.179
94.0, -130842.8875616655, -157596.22694208944, -33709.314013637784, -140667.6638922291, 68652.53372818635, -109774.62497647107, 56730.82849154813, -110685.3244525581, 0.02, 0.96, -0.044, 192.0, 0.0, 0.0, 0.0, 0.0, 0.0, 0.0, 0.0, 0.0, 0.0, 1.666404528179672E9, 0.0, 2022-10-21 19:08:48.179
95.0, -130838.01488137424, -157589.52141875285, -33705.17894091355, -140656.21979906797, 68653.20428052, -109768.76881942379, 56737.64577360699, -110688.38664154848, 0.014, 0.9580000000000001, -0.042, 192.0, 0.0, 112.0, 29.0, 240.0, 254.0, 176.0, 0.0, 0.0, 0.0, 1.6664045281796875E9, 0.0, 2022-10-21 19:08:48.179
96.0, -130842.64169247648, -157594.37174729965, -33708.688164793035, -140648.01670885287, 68651.5055479414, -109755.73775240633, 56750.78859934671, -110693.01345265073, 0.014, 0.9580000000000001, -0.042, 192.0, 0.0, 0.0, 0.0, 0.0, 0.0, 0.0, 0.0, 0.0, 0.0, 1.666404528179706E9, 0.0, 2022-10-21 19:08:48.179
97.0, -130846.53089601171, -157599.44559329102, -33715.751316040914, -140661.22658982594, 68645.98466706094, -109745.99239182382, 56752.04029703621, -110696.83560095259, 0.014, 0.9580000000000001, -0.042, 192.0, 0.0, 0.0, 0.0, 0.0, 0.0, 0.0, 0.0, 0.0, 0.0, 1.666404528179722E9, 0.0, 2022-10-21 19:08:48.179
98.0, -130850.66596873594, -157601.01021540287, -33718.411173631095, -140675.03996789933, 68636.90985881208, -109752.92143260497, 56741.4455701644, -110703.60817952255, 0.014, 0.9580000000000001, -0.042, 192.0, 0.0, 0.0, 0.0, 0.0, 0.0, 0.0, 0.0, 0.0, 0.0, 1.666404528179738E9, 0.0, 2022-10-21 19:08:48.179
99.0, -130845.68152972241, -157595.60109324468, -33713.40438287311, -140669.58614225223, 68638.38507394613, -109780.50348526282, 56729.755607814266, -110696.14269687448, 0.014, 0.9580000000000001, -0.042, 192.0, 0.0, 0.0, 0.0, 0.0, 0.0, 0.0, 0.0, 0.0, 0.0, 1.666404528179754E9, 0.0, 2022-10-21 19:08:48.179
100.0, -130841.38999478698, -157591.80129668728, -33708.73286828195, -140651.97296762146, 68651.19262351902, -109757.34707800712, 56752.62144239205, -110685.65972872493, 0.014, 0.9580000000000001, -0.042, 192.0, 0.0, 0.0, 0.0, 0.0, 0.0, 0.0, 0.0, 0.0, 0.0, 1.6664045281797702E9, 0.0, 2022-10-21 19:08:48.179
101.0, -130837.97017788532, -157588.60499723017, -33704.709554279994, -140656.77859267933, 68652.62313516416, -109755.91656636198, 56756.28712848272, -110684.65390022444, 0.014, 0.9580000000000001, -0.042, 192.0, 0.0, 0.0, 0.0, 0.0, 0.0, 0.0, 0.0, 0.0, 0.0, 1.666404528179786E9, 0.0, 2022-10-21 19:08:48.179
102.0, -130837.92547439641, -157588.87321816364, -33706.34123162523, -140671.19546785302, 68649.53859442932, -109781.93399690796, 56737.28814569571, -110681.43524902288, 0.014, 0.9580000000000001, -0.042, 192.0, 0.0, 0.0, 0.0, 0.0, 0.0, 0.0, 0.0, 0.0, 0.0, 1.6664045281798162E9, 0.0, 2022-10-21 19:08:48.179
103.0, -130839.51244825275, -157588.26972106335, -33709.314013637784, -140667.82035444028, 68649.42683570705, -109775.65315671601, 56739.43391316342, -110682.46342926782, 0.014, 0.9580000000000001, -0.042, 192.0, 0.0, 0.0, 0.0, 0.0, 0.0, 0.0, 0.0, 0.0, 0.0, 1.6664045281798322E9, 0.0, 2022-10-21 19:08:48.179
104.0, -130844.00514888826, -157593.12004961015, -33715.0584119628, -140660.17605783654, 68647.86221359519, -109741.7008568884, 56759.03639305072, -110685.34680430256, 0.014, 0.96, -0.042, 192.0, 0.0, 112.0, 30.0, 0.0, 254.0, 176.0, 0.0, 0.0, 0.0, 1.666404528179848E9, 0.0, 2022-10-21 19:08:48.179
105.0, -130841.65821572045, -157588.6497007191, -33713.314975895286, -140660.8913136591, 68647.43753045054, -109741.34322897712, 56759.9975180623, -110680.13884784447, 0.014, 0.96, -0.042, 192.0, 0.0, 0.0, 0.0, 0.0, 0.0, 0.0, 0.0, 0.0, 0.0, 1.6664045281798642E9, 0.0, 2022-10-21 19:08:48.179
106.0, -130846.30737856716, -157589.85669491967, -33721.94274925503, -140676.1575551221, 68643.9059548266, -109769.12644733506, 56734.49417763879, -110693.99692940676, 0.014, 0.96, -0.042, 192.0, 0.0, 0.0, 0.0, 0.0, 0.0, 0.0, 0.0, 0.0, 0.0, 1.6664045281798823E9, 0.0, 2022-10-21 19:08:48.179
107.0, -130840.5853319866, -157584.4028692726, -33716.98066198595, -140672.0671858868, 68653.11487354217, -109775.7649154383, 56729.487386880806, -110690.08537412708, 0.014, 0.96, -0.042, 192.0, 0.0, 0.0, 0.0, 0.0, 0.0, 0.0, 0.0, 0.0, 0.0, 1.6664045281798995E9, 0.0, 2022-10-21 19:08:48.179
108.0, -130847.82729719012, -157593.56708449926, -33721.94274925503, -140663.23824682692, 68649.67270489606, -109738.05752254219, 56755.08013428213, -110693.23697009528, 0.014, 0.96, -0.042, 192.0, 0.0, 0.0, 0.0, 0.0, 0.0, 0.0, 0.0, 0.0, 0.0, 1.6664045281799169E9, 0.0, 2022-10-21 19:08:48.179
109.0, -130841.8370296761, -157588.8955699081, -33721.696880066025, -140669.58614225223, 68643.9506583155, -109751.3568104931, 56751.86148308057, -110691.89586542796, 0.014, 0.96, -0.042, 192.0, 0.0, 0.0, 0.0, 0.0, 0.0, 0.0, 0.0, 0.0, 0.0, 1.6664045281799328E9, 0.0, 2022-10-21 19:08:48.179
110.0, -130839.40068953046, -157585.02871811733, -33722.456839377504, -140675.5093545329, 68647.63869615064, -109761.28098503125, 56744.21718647685, -110682.50813275673, 0.014, 0.96, -0.042, 192.0, 0.0, 0.0, 0.0, 0.0, 0.0, 0.0, 0.0, 0.0, 0.0, 1.6664045281799486E9, 0.0, 2022-10-21 19:08:48.179
111.0, -130838.6854337079, -157581.72065993794, -33717.092420708235, -140666.76982245088, 68657.74168464442, -109769.61818571309, 56737.13168348452, -110686.55379850314, 0.014, 0.96, -0.042, 192.0, 0.0, 0.0, 0.0, 0.0, 0.0, 0.0, 0.0, 0.0, 0.0, 1.6664045281799648E9, 0.0, 2022-10-21 19:08:48.179
112.0, -130830.05766034815, -157575.26100579035, -33704.508388579896, -140652.196485066, 68663.01669633588, -109761.3033367757, 56750.095695268596, -110681.05526936713, 0.014, 0.96, -0.042, 192.0, 0.0, 0.0, 0.0, 0.0, 0.0, 0.0, 0.0, 0.0, 0.0, 1.666404528179984E9, 0.0, 2022-10-21 19:08:48.179
113.0, -130827.1295818245, -157572.55644471128, -33704.79896125782, -140652.86703739967, 68663.24021378043, -109751.64738317102, 56761.2492157518, -110675.69085069787, 0.014, 0.96, -0.042, 192.0, 0.0, 0.0, 0.0, 0.0, 0.0, 0.0, 0.0, 0.0, 0.0, 1.6664045281799998E9, 0.0, 2022-10-21 19:08:48.179
114.0, -130836.9867011293, -157582.45826750496, -33714.61137707369, -140668.5579620073, 68654.54538518732, -109756.60947044009, 56753.582567403624, -110679.51299899972, 0.02, 0.9520000000000001, -0.048, 192.0, 0.0, 160.0, 29.0, 192.0, 254.0, 128.0, 0.0, 0.0, 0.0, 1.6664045281800156E9, 0.0, 2022-10-21 19:08:48.180
115.0, -130838.70778545235, -157581.60890121566, -33713.449086362016, -140672.2012963535, 68655.01477182088, -109770.73577293585, 56740.28327945272, -110680.71999320031, 0.02, 0.9520000000000001, -0.048, 192.0, 0.0, 0.0, 0.0, 0.0, 0.0, 0.0, 0.0, 0.0, 0.0, 1.6664045281800327E9, 0.0, 2022-10-21 19:08:48.180
116.0, -130839.75831744175, -157582.63708146062, -33712.55501658381, -140660.6007409812, 68654.94771658751, -109760.54337746423, 56747.74876210079, -110686.53144675869, 0.02, 0.9520000000000001, -0.048, 192.0, 0.0, 0.0, 0.0, 0.0, 0.0, 0.0, 0.0, 0.0, 0.0, 1.6664045281800487E9, 0.0, 2022-10-21 19:08:48.180
117.0, -130839.3336342971, -157585.2969390508, -33710.43160086055, -140653.2917205443, 68655.37239973216, -109747.10997904658, 56759.885759340024, -110689.7277462158, 0.02, 0.9520000000000001, -0.048, 192.0, 0.0, 0.0, 0.0, 0.0, 0.0, 0.0, 0.0, 0.0, 0.0, 1.6664045281800792E9, 0.0, 2022-10-21 19:08:48.180
118.0, -130847.22380008982, -157589.61082573066, -33715.30428115181, -140667.1498021066, 68652.08669329724, -109755.76010415079, 56750.65448887998, -110690.44300203837, 0.02, 0.9520000000000001, -0.048, 192.0, 0.0, 0.0, 0.0, 0.0, 0.0, 0.0, 0.0, 0.0, 0.0, 1.6664045281800954E9, 0.0, 2022-10-21 19:08:48.180
119.0, -130851.60474200307, -157592.82947693224, -33718.32176665327, -140675.39759581062, 68646.36464671668, -109772.92624389246, 56732.37076191554, -110690.01831889372, 0.02, 0.9520000000000001, -0.048, 192.0, 0.0, 0.0, 0.0, 0.0, 0.0, 0.0, 0.0, 0.0, 0.0, 1.6664045281801112E9, 0.0, 2022-10-21 19:08:48.180
120.0, -130853.25877109275, -157597.14336361212, -33721.272196921374, -140671.7095579755, 68640.68730362503, -109778.7600491953, 56730.98495375931, -110695.29333058516, 0.02, 0.9520000000000001, -0.048, 192.0, 0.0, 0.0, 0.0, 0.0, 0.0, 0.0, 0.0, 0.0, 0.0, 1.666404528180127E9, 0.0, 2022-10-21 19:08:48.180
121.0, -130850.21893384683, -157593.92471241055, -33715.63955731864, -140660.37722353663, 68645.202356005, -109763.58321471015, 56746.00532603328, -110697.55085677515, 0.02, 0.9520000000000001, -0.048, 192.0, 0.0, 0.0, 0.0, 0.0, 0.0, 0.0, 0.0, 0.0, 0.0, 1.6664045286570573E9, 0.0, 2022-10-21 19:08:48.657
122.0, -130854.15284087097, -157595.93636941153, -33719.14878119812, -140664.6017032387, 68645.15765251609, -109752.36263899358, 56749.51454991276, -110701.23889461029, 0.02, 0.9520000000000001, -0.048, 192.0, 0.0, 0.0, 0.0, 0.0, 0.0, 0.0, 0.0, 0.0, 0.0, 1.6664045286571994E9, 0.0, 2022-10-21 19:08:48.657
123.0, -130851.04594839168, -157593.23180833244, -33716.734792796946, -140666.68041547303, 68648.33160022875, -109768.6123572126, 56733.17542471593, -110696.4779730413, 0.02, 0.9520000000000001, -0.048, 192.0, 0.0, 0.0, 0.0, 0.0, 0.0, 0.0, 0.0, 0.0, 0.0, 1.6664045286573246E9, 0.0, 2022-10-21 19:08:48.657
124.0, -130840.54062849768, -157583.30763379426, -33704.32957462425, -140650.07306934276, 68658.63575442263, -109785.46557253189, 56724.36883740054, -110682.70929845683, 0.016, 0.9560000000000001, -0.044, 192.0, 0.0, 128.0, 29.0, 224.0, 254.0, 160.0, 0.0, 0.0, 0.0, 1.6664045286573431E9, 0.0, 2022-10-21 19:08:48.657
125.0, -130844.63099773301, -157588.26972106335, -33707.61528105918, -140657.695014202, 68648.1527862731, -109779.02827012877, 56731.61080260406, -110688.56545550413, 0.016, 0.9560000000000001, -0.044, 192.0, 0.0, 0.0, 0.0, 0.0, 0.0, 0.0, 0.0, 0.0, 0.0, 1.6664045286573632E9, 0.0, 2022-10-21 19:08:48.657
126.0, -130848.58725650159, -157592.33773855423, -33709.872807249165, -140665.54047650582, 68646.92344032806, -109764.29847053273, 56742.31728819815, -110695.628606752, 0.016, 0.9560000000000001, -0.044, 192.0, 0.0, 0.0, 0.0, 0.0, 0.0, 0.0, 0.0, 0.0, 0.0, 1.6664045286573813E9, 0.0, 2022-10-21 19:08:48.657
127.0, -130853.75050947077, -157596.51751476736, -33716.39951663012, -140679.84559295722, 68639.61441989118, -109777.12837185006, 56729.196814202885, -110700.7248044878, 0.016, 0.9560000000000001, -0.044, 192.0, 0.0, 0.0, 0.0, 0.0, 0.0, 0.0, 0.0, 0.0, 0.0, 1.6664045286573985E9, 0.0, 2022-10-21 19:08:48.657
128.0, -130848.16257335694, -157592.00246238738, -33710.208083416, -140675.21878185496, 68641.55902165879, -109790.78528771226, 56724.34648565608, -110687.872551426, 0.016, 0.9560000000000001, -0.044, 192.0, 0.0, 0.0, 0.0, 0.0, 0.0, 0.0, 0.0, 0.0, 0.0, 1.6664045286574163E9, 0.0, 2022-10-21 19:08:48.657
129.0, -130839.64655871947, -157584.6934419505, -33697.62405128766, -140653.6493484556, 68656.91467009958, -109778.40242128402, 56741.53497714222, -110677.74721118776, 0.016, 0.9560000000000001, -0.044, 192.0, 0.0, 0.0, 0.0, 0.0, 0.0, 0.0, 0.0, 0.0, 0.0, 1.6664045286574345E9, 0.0, 2022-10-21 19:08:48.657
130.0, -130841.12177385352, -157580.82659015973, -33699.322783866264, -140649.8495518982, 68658.54634744482, -109754.39664773902, 56756.13066627153, -110687.8278479371, 0.016, 0.9560000000000001, -0.044, 192.0, 0.0, 0.0, 0.0, 0.0, 0.0, 0.0, 0.0, 0.0, 0.0, 1.666404528657452E9, 0.0, 2022-10-21 19:08:48.657
131.0, -130844.29572156617, -157582.90530239407, -33704.12840892415, -140667.61918874018, 68650.67853339655, -109767.2041973119, 56740.90912829747, -110693.9745776623, 0.016, 0.9560000000000001, -0.044, 192.0, 0.0, 0.0, 0.0, 0.0, 0.0, 0.0, 0.0, 0.0, 0.0, 1.66640452865747E9, 0.0, 2022-10-21 19:08:48.657
132.0, -130835.51148599524, -157573.1375900671, -33691.94670819601, -140662.3441770487, 68656.1547107881, -109777.59775848362, 56736.952869528875, -110682.26226356773, 0.016, 0.9560000000000001, -0.044, 192.0, 0.0, 0.0, 0.0, 0.0, 0.0, 0.0, 0.0, 0.0, 0.0, 1.6664045286575603E9, 0.0, 2022-10-21 19:08:48.657
133.0, -130837.8807709075, -157573.4952179784, -33690.315030850776, -140648.5978542087, 68661.00503933491, -109769.61818571309, 56747.81581733416, -110677.05430710963, 0.016, 0.9560000000000001, -0.044, 192.0, 0.0, 0.0, 0.0, 0.0, 0.0, 0.0, 0.0, 0.0, 0.0, 1.666404528657585E9, 0.0, 2022-10-21 19:08:48.657
134.0, -130833.96921562782, -157572.3552790112, -33686.872862204655, -140642.7416971614, 68667.08471382674, -109760.18574955294, 56757.06943953865, -110670.30408028414, 0.016, 0.96, -0.044, 192.0, 0.0, 128.0, 30.0, 0.0, 254.0, 160.0, 0.0, 0.0, 0.0, 1.6664045286576023E9, 0.0, 2022-10-21 19:08:48.657
135.0, -130827.24134054678, -157563.97337484043, -33687.4540075605, -140646.83206639672, 68666.2576992819, -109772.38980202554, 56745.22301497734, -110668.4265337499, 0.016, 0.96, -0.044, 192.0, 0.0, 0.0, 0.0, 0.0, 0.0, 0.0, 0.0, 0.0, 0.0, 1.666404528657622E9, 0.0, 2022-10-21 19:08:48.657
136.0, -130833.633939461, -157571.50591272188, -33698.47341757696, -140655.77276417887, 68656.84761486622, -109781.7104794634, 56731.65550609297, -110681.5246560007, 0.016, 0.96, -0.044, 192.0, 0.0, 0.0, 0.0, 0.0, 0.0, 0.0, 0.0, 0.0, 0.0, 1.6664045286576395E9, 0.0, 2022-10-21 19:08:48.657
137.0, -130833.18690457189, -157571.93059586652, -33700.19450190002, -140649.4919239869, 68652.91370784208, -109763.29264203223, 56744.775980088234, -110688.7219177153, 0.016, 0.96, -0.044, 192.0, 0.0, 0.0, 0.0, 0.0, 0.0, 0.0, 0.0, 0.0, 0.0, 1.6664045286576571E9, 0.0, 2022-10-21 19:08:48.657
138.0, -130835.64559646197, -157576.4009447576, -33701.31208912279, -140652.91174088858, 68648.33160022875, -109749.0545808142, 56755.90714882698, -110695.4721445408, 0.016, 0.96, -0.044, 192.0, 0.0, 0.0, 0.0, 0.0, 0.0, 0.0, 0.0, 0.0, 0.0, 1.6664045286576748E9, 0.0, 2022-10-21 19:08:48.657
139.0, -130837.05375636266, -157577.4067732581, -33703.34609786822, -140666.5463050063, 68643.7494926154, -109761.0574675867, 56744.440703921406, -110699.78603122069, 0.016, 0.96, -0.044, 192.0, 0.0, 0.0, 0.0, 0.0, 0.0, 0.0, 0.0, 0.0, 0.0, 1.666404528657692E9, 0.0, 2022-10-21 19:08:48.657
140.0, -130830.59410221508, -157571.3941539996, -33697.89227222112, -140664.89227591662, 68648.53276592885, -109786.87373243258, 56726.201680445876, -110700.09895564306, 0.016, 0.96, -0.044, 192.0, 0.0, 0.0, 0.0, 0.0, 0.0, 0.0, 0.0, 0.0, 0.0, 1.6664045286577094E9, 0.0, 2022-10-21 19:08:48.657
141.0, -130830.34823302606, -157571.52826446632, -33696.305298364794, -140651.9059123881, 68652.5113764419, -109779.43060152896, 56731.23082294832, -110696.65678699694, 0.016, 0.96, -0.044, 192.0, 0.0, 0.0, 0.0, 0.0, 0.0, 0.0, 0.0, 0.0, 0.0, 1.6664045286577268E9, 0.0, 2022-10-21 19:08:48.657
142.0, -130841.09942210907, -157581.78771517132, -33707.83879850373, -140665.3616625502, 68638.76505360188, -109781.75518295231, 56729.30857292516, -110705.77629873471, 0.016, 0.96, -0.044, 192.0, 0.0, 0.0, 0.0, 0.0, 0.0, 0.0, 0.0, 0.0, 0.0, 1.6664045286577446E9, 0.0, 2022-10-21 19:08:48.657
143.0, -130847.49202102328, -157587.1968373295, -33714.633728818146, -140677.2080871115, 68630.15963198658, -109777.77657243927, 56729.0403519917, -110708.63732202498, 0.016, 0.9560000000000001, -0.046, 192.0, 0.0, 128.0, 29.0, 224.0, 254.0, 144.0, 0.0, 0.0, 0.0, 1.6664045286577623E9, 0.0, 2022-10-21 19:08:48.657
144.0, -130838.05958486315, -157578.23378780292, -33704.68720253553, -140675.12937487714, 68639.32384721325, -109792.55107552423, 56720.859613521054, -110696.14269687448, 0.016, 0.9560000000000001, -0.046, 192.0, 0.0, 0.0, 0.0, 0.0, 0.0, 0.0, 0.0, 0.0, 0.0, 1.6664045286577833E9, 0.0, 2022-10-21 19:08:48.657
145.0, -130841.45705002036, -157579.66429944805, -33702.18380715654, -140662.52299100437, 68643.9506583155, -109785.17499985397, 56726.335790912606, -110695.0251096517, 0.016, 0.9560000000000001, -0.046, 192.0, 0.0, 0.0, 0.0, 0.0, 0.0, 0.0, 0.0, 0.0, 0.0, 1.6664045286577964E9, 0.0, 2022-10-21 19:08:48.657
146.0, -130837.12081159602, -157574.67986043452, -33692.97488844096, -140643.45695298398, 68651.01380956337, -109762.7562001653, 56748.218148734355, -110684.92212115791, 0.016, 0.9560000000000001, -0.046, 192.0, 0.0, 0.0, 0.0, 0.0, 0.0, 0.0, 0.0, 0.0, 0.0, 1.6664045286578097E9, 0.0, 2022-10-21 19:08:48.657
147.0, -130837.85841916305, -157576.1550755686, -33695.254766375394, -140652.17413332156, 68650.2538502519, -109754.91073786149, 56752.91201506997, -110686.66555722542, 0.016, 0.9560000000000001, -0.046, 192.0, 0.0, 0.0, 0.0, 0.0, 0.0, 0.0, 0.0, 0.0, 0.0, 1.6664045286578374E9, 0.0, 2022-10-21 19:08:48.657
148.0, -130836.80788717365, -157571.8858923776, -33696.595871042715, -140666.36749105068, 68648.53276592885, -109787.00784289931, 56726.87223277953, -110689.19130434887, 0.016, 0.9560000000000001, -0.046, 192.0, 0.0, 0.0, 0.0, 0.0, 0.0, 0.0, 0.0, 0.0, 0.0, 1.6664045286578505E9, 0.0, 2022-10-21 19:08:48.657
149.0, -130839.75831744175, -157577.0491453468, -33698.09343792122, -140659.57256073627, 68652.62313516416, -109796.59674127064, 56723.49711936678, -110682.57518799009, 0.016, 0.9560000000000001, -0.046, 192.0, 0.0, 0.0, 0.0, 0.0, 0.0, 0.0, 0.0, 0.0, 0.0, 1.6664045286578636E9, 0.0, 2022-10-21 19:08:48.657
150.0, -130847.87200067902, -157585.7439739399, -33706.56474906978, -140656.08568860122, 68648.3092484843, -109776.48017126086, 56736.08115149512, -110687.51492351473, 0.016, 0.9560000000000001, -0.046, 192.0, 0.0, 0.0, 0.0, 0.0, 0.0, 0.0, 0.0, 0.0, 0.0, 1.666404528657879E9, 0.0, 2022-10-21 19:08:48.657
151.0, -130840.02653837521, -157576.78092441332, -33700.932109467045, -140659.01376712488, 68648.9574490735, -109772.34509853664, 56739.00923001877, -110683.80453393514, 0.016, 0.9560000000000001, -0.046, 192.0, 0.0, 0.0, 0.0, 0.0, 0.0, 0.0, 0.0, 0.0, 0.0, 1.6664045286578925E9, 0.0, 2022-10-21 19:08:48.657
152.0, -130840.04889011967, -157577.76440116935, -33698.406362343594, -140663.193543338, 68652.57843167525, -109788.72892722237, 56727.81100604666, -110686.73261245879, 0.016, 0.9560000000000001, -0.046, 192.0, 0.0, 0.0, 0.0, 0.0, 0.0, 0.0, 0.0, 0.0, 0.0, 1.6664045286579053E9, 0.0, 2022-10-21 19:08:48.657
153.0, -130841.59116048708, -157581.11716283765, -33697.24407163192, -140659.57256073627, 68654.29951599831, -109785.59968299863, 56728.66037233596, -110685.61502523602, 0.018000000000000002, 0.9580000000000001, -0.042, 192.0, 0.0, 144.0, 29.0, 240.0, 254.0, 176.0, 0.0, 0.0, 0.0, 1.6664045286579187E9, 0.0, 2022-10-21 19:08:48.657
154.0, -130838.52897149671, -157576.87033139114, -33694.852434975204, -140645.2897960293, 68656.31117299928, -109771.45102875841, 56743.56898588765, -110679.26712981072, 0.018000000000000002, 0.9580000000000001, -0.042, 192.0, 0.0, 0.0, 0.0, 0.0, 0.0, 0.0, 0.0, 0.0, 0.0, 1.6664045286579328E9, 0.0, 2022-10-21 19:08:48.657
155.0, -130848.45314603487, -157583.8440756612, -33703.07787693475, -140648.6425576976, 68654.52303344286, -109757.77176115177, 56754.11900927055, -110687.89490317047, 0.018000000000000002, 0.9580000000000001, -0.042, 192.0, 0.0, 0.0, 0.0, 0.0, 0.0, 0.0, 0.0, 0.0, 0.0, 1.6664045286579473E9, 0.0, 2022-10-21 19:08:48.657
156.0, -130854.7339862268, -157589.20849433047, -33710.14102818263, -140667.57448525124, 68646.31994322776, -109780.14585735153, 56732.214299704356, -110705.0833946566, 0.018000000000000002, 0.9580000000000001, -0.042, 192.0, 0.0, 0.0, 0.0, 0.0, 0.0, 0.0, 0.0, 0.0, 0.0, 1.666404528657961E9, 0.0, 2022-10-21 19:08:48.657
157.0, -130852.47646003682, -157586.7945059293, -33708.688164793035, -140656.97975837943, 68653.07017005327, -109784.32563356467, 56730.64967759248, -110699.45075505385, 0.018000000000000002, 0.9580000000000001, -0.042, 192.0, 0.0, 0.0, 0.0, 0.0, 0.0, 0.0, 0.0, 0.0, 0.0, 1.6664045286579735E9, 0.0, 2022-10-21 19:08:48.657
158.0, -130853.07995713712, -157588.67205246355, -33715.39368812963, -140657.71736594648, 68643.41421644858, -109791.20997085691, 56727.7886543022, -110700.90361844345, 0.018000000000000002, 0.9580000000000001, -0.042, 192.0, 0.0, 0.0, 0.0, 0.0, 0.0, 0.0, 0.0, 0.0, 0.0, 1.6664045286579869E9, 0.0, 2022-10-21 19:08:48.657
159.0, -130858.04204440619, -157590.52724725334, -33721.272196921374, -140659.12552584714, 68639.92734431355, -109785.37616555407, 56731.54374737069, -110702.46824055532, 0.018000000000000002, 0.9580000000000001, -0.042, 192.0, 0.0, 0.0, 0.0, 0.0, 0.0, 0.0, 0.0, 0.0, 0.0, 1.666404528658E9, 0.0, 2022-10-21 19:08:48.658
160.0, -130856.81269846114, -157587.97914838544, -33719.14878119812, -140669.0049968964, 68644.1518240156, -109785.35381380962, 56730.98495375931, -110701.68592949939, 0.018000000000000002, 0.9580000000000001, -0.042, 192.0, 0.0, 0.0, 0.0, 0.0, 0.0, 0.0, 0.0, 0.0, 0.0, 1.666404528658013E9, 0.0, 2022-10-21 19:08:48.658
161.0, -130853.52699202622, -157582.41356401605, -33713.53849333984, -140668.58031375174, 68646.54346067231, -109794.71919473639, 56723.49711936678, -110695.40508930745, 0.018000000000000002, 0.9580000000000001, -0.042, 192.0, 0.0, 0.0, 0.0, 0.0, 0.0, 0.0, 0.0, 0.0, 0.0, 1.6664045286580265E9, 0.0, 2022-10-21 19:08:48.658
162.0, -130854.95750367135, -157586.7498024404, -33716.801848030314, -140660.46663051448, 68645.58233566074, -109783.69978471992, 56731.02965724822, -110694.66748174043, 0.018000000000000002, 0.9580000000000001, -0.042, 192.0, 0.0, 0.0, 0.0, 0.0, 0.0, 0.0, 0.0, 0.0, 0.0, 1.666404528658052E9, 0.0, 2022-10-21 19:08:48.658
163.0, -130857.39384381699, -157590.12491585314, -33719.037022475844, -140658.61143572468, 68641.4472629365, -109779.40824978451, 56736.192910217396, -110692.85699043954, 0.016, 0.9540000000000001, -0.046, 192.0, 0.0, 128.0, 29.0, 208.0, 254.0, 144.0, 0.0, 0.0, 0.0, 1.6664045286580656E9, 0.0, 2022-10-21 19:08:48.658
164.0, -130857.97498917283, -157590.66135772006, -33715.617205574184, -140660.28781655882, 68645.82820484975, -109789.10890687811, 56729.42033164744, -110692.56641776163, 0.016, 0.9540000000000001, -0.046, 192.0, 0.0, 0.0, 0.0, 0.0, 0.0, 0.0, 0.0, 0.0, 0.0, 1.6664045286580796E9, 0.0, 2022-10-21 19:08:48.658
165.0, -130849.97306465782, -157581.27362504884, -33706.52004558087, -140649.71544143147, 68656.64644916612, -109781.12933410757, 56733.667163093945, -110682.32931880109, 0.016, 0.9540000000000001, -0.046, 192.0, 0.0, 0.0, 0.0, 0.0, 0.0, 0.0, 0.0, 0.0, 0.0, 1.6664045286580927E9, 0.0, 2022-10-21 19:08:48.658
166.0, -130850.26363733574, -157582.61472971615, -33708.66581304858, -140648.95548211999, 68648.1080827842, -109773.73090669286, 56734.98591601681, -110691.18060960539, 0.016, 0.9540000000000001, -0.046, 192.0, 0.0, 0.0, 0.0, 0.0, 0.0, 0.0, 0.0, 0.0, 0.0, 1.666404528658106E9, 0.0, 2022-10-21 19:08:48.658
167.0, -130847.93905591239, -157581.60890121566, -33710.38689737164, -140650.6989181875, 68642.34133271473, -109767.405363012, 56741.82554982013, -110691.4711822833, 0.016, 0.9540000000000001, -0.046, 192.0, 0.0, 0.0, 0.0, 0.0, 0.0, 0.0, 0.0, 0.0, 0.0, 1.666404528658119E9, 0.0, 2022-10-21 19:08:48.658
168.0, -130848.38609080149, -157582.25710180486, -33708.48699909294, -140648.66490944207, 68647.88456533964, -109775.49669450482, 56740.93148004192, -110685.83854268058, 0.016, 0.9540000000000001, -0.046, 192.0, 0.0, 0.0, 0.0, 0.0, 0.0, 0.0, 0.0, 0.0, 0.0, 1.6664045286581323E9, 0.0, 2022-10-21 19:08:48.658
169.0, -130845.99445414478, -157578.189084314, -33707.011783958886, -140646.943825119, 68654.12070204267, -109769.99816536882, 56739.29980269669, -110685.70443221384, 0.016, 0.9540000000000001, -0.046, 192.0, 0.0, 0.0, 0.0, 0.0, 0.0, 0.0, 0.0, 0.0, 0.0, 1.6664045286581452E9, 0.0, 2022-10-21 19:08:48.658
170.0, -130848.05081463467, -157578.12202908064, -33712.66677530608, -140657.22562756846, 68641.4472629365, -109775.3625840381, 56732.616631104545, -110693.371080562, 0.016, 0.9540000000000001, -0.046, 192.0, 0.0, 0.0, 0.0, 0.0, 0.0, 0.0, 0.0, 0.0, 0.0, 1.6664045286581583E9, 0.0, 2022-10-21 19:08:48.658
171.0, -130845.14508785548, -157576.73622092442, -33707.61528105918, -140650.56480772077, 68643.97301005996, -109779.94469165143, 56734.7400468278, -110692.23114159479, 0.016, 0.9540000000000001, -0.046, 192.0, 0.0, 0.0, 0.0, 0.0, 0.0, 0.0, 0.0, 0.0, 0.0, 1.6664045286581717E9, 0.0, 2022-10-21 19:08:48.658
172.0, -130847.38026230101, -157578.43495350302, -33706.56474906978, -140654.0963833447, 68647.59399266171, -109776.83779917215, 56738.495139896295, -110688.58780724858, 0.018000000000000002, 0.9540000000000001, -0.046, 192.0, 0.0, 144.0, 29.0, 208.0, 254.0, 144.0, 0.0, 0.0, 0.0, 1.6664045286581843E9, 0.0, 2022-10-21 19:08:48.658
173.0, -130856.94680892788, -157588.8955699081, -33715.10311545171, -140670.27904633034, 68638.51918441286, -109776.59192998314, 56730.64967759248, -110693.25932183974, 0.018000000000000002, 0.9540000000000001, -0.046, 192.0, 0.0, 0.0, 0.0, 0.0, 0.0, 0.0, 0.0, 0.0, 0.0, 1.6664045286581984E9, 0.0, 2022-10-21 19:08:48.658
174.0, -130848.58725650159, -157581.18421807102, -33706.11771418068, -140669.22851434094, 68637.2451349789, -109787.45487778842, 56723.65358157797, -110689.5712840046, 0.018000000000000002, 0.9540000000000001, -0.046, 192.0, 0.0, 0.0, 0.0, 0.0, 0.0, 0.0, 0.0, 0.0, 0.0, 1.6664045286582117E9, 0.0, 2022-10-21 19:08:48.658
175.0, -130842.35111979856, -157571.46120923295, -33696.90879546509, -140652.28589204382, 68646.92344032806, -109780.54818875172, 56735.5894131171, -110688.34193805957, 0.018000000000000002, 0.9540000000000001, -0.046, 192.0, 0.0, 0.0, 0.0, 0.0, 0.0, 0.0, 0.0, 0.0, 0.0, 1.6664045286582248E9, 0.0, 2022-10-21 19:08:48.658
176.0, -130846.53089601171, -157576.57975871323, -33700.21685364447, -140654.31990078927, 68647.5045856839, -109766.7124589339, 56744.55246264368, -110687.09024037007, 0.018000000000000002, 0.9540000000000001, -0.046, 192.0, 0.0, 0.0, 0.0, 0.0, 0.0, 0.0, 0.0, 0.0, 0.0, 1.666404528658239E9, 0.0, 2022-10-21 19:08:48.658
177.0, -130847.42496578992, -157578.7031744365, -33700.82035074477, -140659.37139503617, 68651.84082410822, -109772.4568572589, 56739.29980269669, -110685.43621128038, 0.018000000000000002, 0.9540000000000001, -0.046, 192.0, 0.0, 0.0, 0.0, 0.0, 0.0, 0.0, 0.0, 0.0, 0.0, 1.666404528658264E9, 0.0, 2022-10-21 19:08:48.658
178.0, -130852.07412863662, -157583.06176460526, -33709.470475848975, -140662.16536309308, 68648.51041418439, -109773.75325843731, 56734.00243926078, -110698.02024340871, 0.018000000000000002, 0.9540000000000001, -0.046, 192.0, 0.0, 0.0, 0.0, 0.0, 0.0, 0.0, 0.0, 0.0, 0.0, 1.6664045286582773E9, 0.0, 2022-10-21 19:08:48.658
179.0, -130847.22380008982, -157580.4019070151, -33707.10119093671, -140648.57550246426, 68649.62800140715, -109771.65219445851, 56738.5398433852, -110697.17087711941, 0.018000000000000002, 0.9540000000000001, -0.046, 192.0, 0.0, 0.0, 0.0, 0.0, 0.0, 0.0, 0.0, 0.0, 0.0, 1.6664045286582906E9, 0.0, 2022-10-21 19:08:48.658
180.0, -130847.93905591239, -157580.82659015973, -33704.24016764643, -140643.7922291508, 68649.09155954022, -109773.23916831485, 56743.881910310025, -110691.96292066133, 0.018000000000000002, 0.9540000000000001, -0.046, 192.0, 0.0, 0.0, 0.0, 0.0, 0.0, 0.0, 0.0, 0.0, 0.0, 1.6664045286583045E9, 0.0, 2022-10-21 19:08:48.658
181.0, -130855.89627693848, -157587.1968373295, -33717.33828989724, -140668.5579620073, 68639.48030942444, -109792.0146336573, 56730.49321538129, -110696.83560095259, 0.018000000000000002, 0.9540000000000001, -0.046, 192.0, 0.0, 0.0, 0.0, 0.0, 0.0, 0.0, 0.0, 0.0, 0.0, 1.666404528658318E9, 0.0, 2022-10-21 19:08:48.658
182.0, -130853.07995713712, -157584.02288961684, -33716.22070267447, -140668.49090677392, 68644.26358273788, -109795.8144302147, 56724.860575778555, -110689.79480144917, 0.016, 0.9540000000000001, -0.048, 192.0, 0.0, 128.0, 29.0, 208.0, 254.0, 128.0, 0.0, 0.0, 0.0, 1.6664045286583312E9, 0.0, 2022-10-21 19:08:48.658
183.0, -130860.99247467429, -157591.3989652871, -33722.14391495513, -140665.09344161671, 68640.32967571374, -109782.53749400825, 56730.13558747001, -110698.1767056199, 0.016, 0.9540000000000001, -0.048, 192.0, 0.0, 0.0, 0.0, 0.0, 0.0, 0.0, 0.0, 0.0, 0.0, 1.6664045286583455E9, 0.0, 2022-10-21 19:08:48.658
184.0, -130853.52699202622, -157582.57002622724, -33709.06814444878, -140646.4967902299, 68654.81360612078, -109769.39466826853, 56743.90426205448, -110689.61598749353, 0.016, 0.9540000000000001, -0.048, 192.0, 0.0, 0.0, 0.0, 0.0, 0.0, 0.0, 0.0, 0.0, 0.0, 1.6664045286583586E9, 0.0, 2022-10-21 19:08:48.658
185.0, -130848.14022161248, -157580.37955527063, -33702.09440017872, -140643.56871170626, 68666.92825161557, -109766.64540370053, 56743.92661379893, -110687.17964734789, 0.016, 0.9540000000000001, -0.048, 192.0, 0.0, 0.0, 0.0, 0.0, 0.0, 0.0, 0.0, 0.0, 0.0, 1.6664045286583717E9, 0.0, 2022-10-21 19:08:48.658
186.0, -130846.84382043408, -157580.55836922626, -33702.541435067826, -140648.7543164199, 68667.01765859338, -109777.5083515058, 56730.582622359114, -110685.92794965839, 0.016, 0.9540000000000001, -0.048, 192.0, 0.0, 0.0, 0.0, 0.0, 0.0, 0.0, 0.0, 0.0, 0.0, 1.6664045286583853E9, 0.0, 2022-10-21 19:08:48.658
187.0, -130859.02552116223, -157591.04133737582, -33712.86794100618, -140652.97879612193, 68651.63965840812, -109777.88833116155, 56725.50877636776, -110701.2835980992, 0.016, 0.9540000000000001, -0.048, 192.0, 0.0, 0.0, 0.0, 0.0, 0.0, 0.0, 0.0, 0.0, 0.0, 1.6664045286583986E9, 0.0, 2022-10-21 19:08:48.658
188.0, -130859.45020430688, -157593.2988635658, -33717.29358640833, -140653.2470170554, 68647.39282696162, -109768.2547293013, 56734.49417763879, -110705.6868917569, 0.016, 0.9540000000000001, -0.048, 192.0, 0.0, 0.0, 0.0, 0.0, 0.0, 0.0, 0.0, 0.0, 0.0, 1.666404528658412E9, 0.0, 2022-10-21 19:08:48.658
189.0, -130856.85740195005, -157590.1472675976, -33717.092420708235, -140663.7970404383, 68647.32577172825, -109776.90485440551, 56725.642886834496, -110708.52556330271, 0.016, 0.9540000000000001, -0.048, 192.0, 0.0, 0.0, 0.0, 0.0, 0.0, 0.0, 0.0, 0.0, 0.0, 1.666404528658425E9, 0.0, 2022-10-21 19:08:48.658
190.0, -130858.2879135952, -157593.88000892164, -33717.74062129744, -140666.76982245088, 68648.71157988449, -109774.13323809305, 56719.31734315364, -110709.21846738082, 0.016, 0.9540000000000001, -0.048, 192.0, 0.0, 0.0, 0.0, 0.0, 0.0, 0.0, 0.0, 0.0, 0.0, 1.6664045286584387E9, 0.0, 2022-10-21 19:08:48.658
191.0, -130863.7417392423, -157600.47377353595, -33724.40144114512, -140664.7581654499, 68643.16834725956, -109768.90292989051, 56722.0889594661, -110709.24081912528, 0.016, 0.9540000000000001, -0.048, 192.0, 0.0, 0.0, 0.0, 0.0, 0.0, 0.0, 0.0, 0.0, 0.0, 1.666404528658452E9, 0.0, 2022-10-21 19:08:48.658
192.0, -130856.54447752768, -157596.24929383388, -33716.19835093002, -140655.97392987896, 68646.36464671668, -109775.85432241611, 56726.60401184607, -110702.69175799987, 0.02, 0.9560000000000001, -0.05, 192.0, 0.0, 160.0, 29.0, 224.0, 254.0, 112.0, 0.0, 0.0, 0.0, 1.6664045286584773E9, 0.0, 2022-10-21 19:08:48.658
193.0, -130856.32096008313, -157596.31634906726, -33720.44518237653, -140662.07595611524, 68645.49292868291, -109774.17794158196, 56727.296915924184, -110701.84239171057, 0.02, 0.9560000000000001, -0.05, 192.0, 0.0, 0.0, 0.0, 0.0, 0.0, 0.0, 0.0, 0.0, 0.0, 1.6664045286584916E9, 0.0, 2022-10-21 19:08:48.658
194.0, -130851.89531468098, -157590.90722690907, -33720.62399633217, -140671.9554271645, 68644.64356239361, -109780.90581666301, 56719.339694898095, -110697.2826358417, 0.02, 0.9560000000000001, -0.05, 192.0, 0.0, 0.0, 0.0, 0.0, 0.0, 0.0, 0.0, 0.0, 0.0, 1.6664045286585047E9, 0.0, 2022-10-21 19:08:48.658
195.0, -130851.53768676969, -157587.21918907395, -33720.91456901009, -140672.2012963535, 68640.17321350255, -109797.20023837093, 56707.64973254797, -110695.58390326309, 0.02, 0.9560000000000001, -0.05, 192.0, 0.0, 0.0, 0.0, 0.0, 0.0, 0.0, 0.0, 0.0, 0.0, 1.6664045286585186E9, 0.0, 2022-10-21 19:08:48.658
196.0, -130855.00220716027, -157587.97914838544, -33713.73965903994, -140660.28781655882, 68642.76601585938, -109776.88250266106, 56727.140453713, -110693.99692940676, 0.02, 0.9560000000000001, -0.05, 192.0, 0.0, 0.0, 0.0, 0.0, 0.0, 0.0, 0.0, 0.0, 0.0, 1.666404528658532E9, 0.0, 2022-10-21 19:08:48.658
197.0, -130854.0857856376, -157588.31442455226, -33706.4082868586, -140663.01472938238, 68643.3471612152, -109772.658022959, 56732.25900319326, -110697.59556026406, 0.02, 0.9560000000000001, -0.05, 192.0, 0.0, 0.0, 0.0, 0.0, 0.0, 0.0, 0.0, 0.0, 0.0, 1.6664045286585464E9, 0.0, 2022-10-21 19:08:48.658
198.0, -130845.56977100013, -157579.6419477036, -33699.99333619992, -140660.6454444701, 68652.64548690862, -109796.35087208163, 56719.071473964636, -110690.71122297183, 0.02, 0.9560000000000001, -0.05, 192.0, 0.0, 0.0, 0.0, 0.0, 0.0, 0.0, 0.0, 0.0, 0.0, 1.66640452865856E9, 0.0, 2022-10-21 19:08:48.658
199.0, -130855.27042809373, -157588.29207280782, -33709.470475848975, -140665.92045616158, 68648.37630371765, -109789.24301734484, 56722.84891877758, -110694.33220557359, 0.02, 0.9560000000000001, -0.05, 192.0, 0.0, 0.0, 0.0, 0.0, 0.0, 0.0, 0.0, 0.0, 0.0, 1.6664045286585732E9, 0.0, 2022-10-21 19:08:48.658
200.0, -130855.35983507155, -157587.37565128514, -33710.27513864936, -140665.58517999473, 68643.79419610431, -109787.27606383277, 56729.196814202885, -110695.24862709625, 0.02, 0.9560000000000001, -0.05, 192.0, 0.0, 0.0, 0.0, 0.0, 0.0, 0.0, 0.0, 0.0, 0.0, 1.6664045286585865E9, 0.0, 2022-10-21 19:08:48.658
201.0, -130854.13048912652, -157587.1521338406, -33708.822275259765, -140666.03221488383, 68646.6552193946, -109792.41696505749, 56731.94607877089, -110694.8239439516, 0.02, 0.9560000000000001, -0.05, 192.0, 0.0, 0.0, 0.0, 0.0, 0.0, 0.0, 0.0, 0.0, 0.0, 1.6664045286585999E9, 0.0, 2022-10-21 19:08:48.658
202.0, -130857.63971300599, -157588.26972106335, -33711.549188083314, -140675.82227895525, 68645.49292868291, -109796.95436918193, 56722.9383257554, -110696.70149048585, 0.014, 0.9560000000000001, -0.048, 192.0, 0.0, 112.0, 29.0, 224.0, 254.0, 128.0, 0.0, 0.0, 0.0, 1.6664045286586127E9, 0.0, 2022-10-21 19:08:48.658
203.0, -130857.81852696164, -157586.90626465157, -33707.928205481556, -140669.83201144123, 68650.87969909665, -109792.52872377977, 56725.10644496757, -110692.74523171726, 0.014, 0.9560000000000001, -0.048, 192.0, 0.0, 0.0, 0.0, 0.0, 0.0, 0.0, 0.0, 0.0, 0.0, 1.666404528658627E9, 0.0, 2022-10-21 19:08:48.658
204.0, -130860.54543978519, -157590.48254376443, -33708.21877815948, -140660.5113340034, 68649.06920779576, -109779.92233990697, 56734.7400468278, -110689.7277462158, 0.014, 0.9560000000000001, -0.048, 192.0, 0.0, 0.0, 0.0, 0.0, 0.0, 0.0, 0.0, 0.0, 0.0, 1.66640452865864E9, 0.0, 2022-10-21 19:08:48.658
205.0, -130855.20337286037, -157584.53697973932, -33706.38593511414, -140655.2586740564, 68653.07017005327, -109785.13029636507, 56732.10254098208, -110690.44300203837, 0.014, 0.9560000000000001, -0.048, 192.0, 0.0, 0.0, 0.0, 0.0, 0.0, 0.0, 0.0, 0.0, 0.0, 1.6664045286586533E9, 0.0, 2022-10-21 19:08:48.658
206.0, -130864.74756774279, -157594.12587811064, -33715.17017068507, -140671.12841261964, 68646.16348101659, -109787.63369174406, 56721.37370364353, -110701.75298473275, 0.014, 0.9560000000000001, -0.048, 192.0, 0.0, 0.0, 0.0, 0.0, 0.0, 0.0, 0.0, 0.0, 0.0, 1.6664045286586661E9, 0.0, 2022-10-21 19:08:48.658
207.0, -130862.11006189705, -157588.98497688593, -33709.40342061561, -140668.24503758491, 68650.81264386329, -109798.9660261829, 56712.343598883584, -110691.13590611648, 0.014, 0.9560000000000001, -0.048, 192.0, 0.0, 0.0, 0.0, 0.0, 0.0, 0.0, 0.0, 0.0, 0.0, 1.6664045286586914E9, 0.0, 2022-10-21 19:08:48.658
208.0, -130861.59597177459, -157585.34164253972, -33708.35288862621, -140654.3422525337, 68654.41127472058, -109777.0613166167, 56730.85084329258, -110687.96195840383, 0.014, 0.9560000000000001, -0.048, 192.0, 0.0, 0.0, 0.0, 0.0, 0.0, 0.0, 0.0, 0.0, 0.0, 1.6664045286587048E9, 0.0, 2022-10-21 19:08:48.658
209.0, -130858.55613452866, -157584.78284892833, -33700.82035074477, -140656.37626127916, 68654.12070204267, -109763.31499377669, 56745.893567311, -110686.19617059187, 0.014, 0.9560000000000001, -0.048, 192.0, 0.0, 0.0, 0.0, 0.0, 0.0, 0.0, 0.0, 0.0, 0.0, 1.6664045286587183E9, 0.0, 2022-10-21 19:08:48.658
210.0, -130859.27139035123, -157584.71579369495, -33701.04386818932, -140664.8475724277, 68657.83109162225, -109774.84849391562, 56736.37172417304, -110688.94543515987, 0.014, 0.9560000000000001, -0.048, 192.0, 0.0, 0.0, 0.0, 0.0, 0.0, 0.0, 0.0, 0.0, 0.0, 1.666404528658732E9, 0.0, 2022-10-21 19:08:48.658
211.0, -130855.18102111592, -157578.21143605845, -33698.80869374379, -140658.9914153804, 68665.2071672925, -109777.75422069481, 56731.1414159705, -110685.77148744721, 0.02, 0.96, -0.046, 192.0, 0.0, 160.0, 30.0, 0.0, 254.0, 144.0, 0.0, 0.0, 0.0, 1.6664045286587455E9, 0.0, 2022-10-21 19:08:48.658
212.0, -130857.14797462798, -157584.6040349727, -33700.73094376695, -140659.32669154723, 68656.04295206582, -109777.77657243927, 56728.146282213485, -110687.76079270373, 0.02, 0.96, -0.046, 192.0, 0.0, 0.0, 0.0, 0.0, 0.0, 0.0, 0.0, 0.0, 0.0, 1.6664045286587594E9, 0.0, 2022-10-21 19:08:48.658
213.0, -130856.6338845055, -157588.56029374126, -33698.629879788146, -140655.21397056748, 68652.5113764419, -109774.37910728206, 56733.15307297147, -110690.13007761599, 0.02, 0.96, -0.046, 192.0, 0.0, 0.0, 0.0, 0.0, 0.0, 0.0, 0.0, 0.0, 0.0, 1.6664045286587732E9, 0.0, 2022-10-21 19:08:48.658
214.0, -130859.9866461738, -157592.06951762075, -33702.63084204565, -140663.61822648268, 68647.63869615064, -109786.76197371031, 56725.17350020093, -110687.15729560344, 0.02, 0.96, -0.046, 192.0, 0.0, 0.0, 0.0, 0.0, 0.0, 0.0, 0.0, 0.0, 0.0, 1.6664045286587858E9, 0.0, 2022-10-21 19:08:48.658
215.0, -130865.46282356535, -157596.60692174517, -33706.90002523661, -140672.22364809795, 68644.97883856045, -109799.23424711636, 56711.293066894184, -110686.88907466998, 0.02, 0.96, -0.046, 192.0, 0.0, 0.0, 0.0, 0.0, 0.0, 0.0, 0.0, 0.0, 0.0, 1.6664045286587975E9, 0.0, 2022-10-21 19:08:48.658
216.0, -130866.26748636574, -157597.25512233438, -33705.84949324721, -140658.67849095803, 68648.48806243994, -109797.55786628222, 56711.874212250026, -110679.96003388883, 0.02, 0.96, -0.046, 192.0, 0.0, 0.0, 0.0, 0.0, 0.0, 0.0, 0.0, 0.0, 0.0, 1.6664045286588097E9, 0.0, 2022-10-21 19:08:48.658
217.0, -130871.05075967917, -157602.50778228138, -33715.03606021834, -140658.2538078134, 68640.46378618048, -109785.55497950972, 56720.70315130987, -110693.79576370666, 0.02, 0.96, -0.046, 192.0, 0.0, 0.0, 0.0, 0.0, 0.0, 0.0, 0.0, 0.0, 0.0, 1.6664045286588216E9, 0.0, 2022-10-21 19:08:48.658
218.0, -130870.96135270136, -157600.58553225824, -33719.68522306505, -140667.5521335068, 68635.41229193358, -109783.3645085531, 56720.74785479878, -110703.8316969671, 0.02, 0.96, -0.046, 192.0, 0.0, 0.0, 0.0, 0.0, 0.0, 0.0, 0.0, 0.0, 0.0, 1.6664045286588335E9, 0.0, 2022-10-21 19:08:48.658
219.0, -130867.69799801089, -157596.71868046746, -33711.280967149854, -140668.37914805164, 68643.83889959323, -109791.03115690127, 56716.45631986336, -110698.7802027202, 0.02, 0.96, -0.046, 192.0, 0.0, 0.0, 0.0, 0.0, 0.0, 0.0, 0.0, 0.0, 0.0, 1.6664045286588464E9, 0.0, 2022-10-21 19:08:48.658
220.0, -130868.05562592216, -157595.13170661114, -33705.06718219128, -140662.27712181534, 68647.63869615064, -109789.24301734484, 56718.0879972086, -110692.16408636143, 0.02, 0.96, -0.046, 192.0, 0.0, 0.0, 0.0, 0.0, 0.0, 0.0, 0.0, 0.0, 0.0, 1.6664045286588585E9, 0.0, 2022-10-21 19:08:48.658
221.0, -130868.34619860009, -157596.31634906726, -33705.78243801385, -140660.77955493683, 68641.96135305898, -109780.30231956272, 56727.855709535565, -110689.05719388214, 0.018000000000000002, 0.964, -0.044, 192.0, 0.0, 144.0, 30.0, 32.0, 254.0, 160.0, 0.0, 0.0, 0.0, 1.6664045286588717E9, 0.0, 2022-10-21 19:08:48.658
222.0, -130867.47448056634, -157594.97524439995, -33701.66971703407, -140663.1488398491, 68643.52597517085, -109774.98260438236, 56735.835282306114, -110683.98334789078, 0.018000000000000002, 0.964, -0.044, 192.0, 0.0, 0.0, 0.0, 0.0, 0.0, 0.0, 0.0, 0.0, 0.0, 1.6664045286588948E9, 0.0, 2022-10-21 19:08:48.658
223.0, -130867.45212882187, -157594.08117462174, -33697.84756873221, -140664.69111021652, 68648.3092484843, -109800.88827620605, 56718.289162908695, -110682.23991182327, 0.018000000000000002, 0.964, -0.044, 192.0, 0.0, 0.0, 0.0, 0.0, 0.0, 0.0, 0.0, 0.0, 0.0, 1.6664045286589067E9, 0.0, 2022-10-21 19:08:48.658
224.0, -130876.48223358182, -157602.73129972594, -33705.558920569296, -140667.97681665144, 68642.2966292258, -109800.8659244616, 56712.276543650216, -110685.61502523602, 0.018000000000000002, 0.964, -0.044, 192.0, 0.0, 0.0, 0.0, 0.0, 0.0, 0.0, 0.0, 0.0, 0.0, 1.6664045286589196E9, 0.0, 2022-10-21 19:08:48.658
225.0, -130882.76307377376, -157612.0966806527, -33711.52683633886, -140665.96515965048, 68636.90985881208, -109786.15847661001, 56722.42423563293, -110696.36621431903, 0.018000000000000002, 0.964, -0.044, 192.0, 0.0, 0.0, 0.0, 0.0, 0.0, 0.0, 0.0, 0.0, 0.0, 1.6664045286589315E9, 0.0, 2022-10-21 19:08:48.658
226.0, -130889.28978315472, -157621.41735809058, -33718.50058060892, -140671.62015099765, 68629.77965233084, -109787.09724987713, 56723.251250177775, -110697.01441490823, 0.018000000000000002, 0.964, -0.044, 192.0, 0.0, 0.0, 0.0, 0.0, 0.0, 0.0, 0.0, 0.0, 0.0, 1.6664045286589434E9, 0.0, 2022-10-21 19:08:48.658
227.0, -130886.29464939769, -157614.57772428726, -33715.37133638517, -140671.3072265753, 68635.25582972239, -109799.32365409419, 56717.663314063946, -110688.11842061502, 0.018000000000000002, 0.964, -0.044, 192.0, 0.0, 0.0, 0.0, 0.0, 0.0, 0.0, 0.0, 0.0, 0.0, 1.666404528658955E9, 0.0, 2022-10-21 19:08:48.658
228.0, -130890.00503897728, -157615.31533185428, -33718.545284097825, -140673.09536613172, 68635.05466402229, -109811.70652052242, 56708.789671515195, -110690.55476076064, 0.018000000000000002, 0.964, -0.044, 192.0, 0.0, 0.0, 0.0, 0.0, 0.0, 0.0, 0.0, 0.0, 0.0, 1.6664045286589668E9, 0.0, 2022-10-21 19:08:48.658
229.0, -130890.47442561084, -157618.73514875595, -33716.7571445414, -140659.81842992528, 68640.195565247, -109795.8144302147, 56722.826567033124, -110692.54406601717, 0.018000000000000002, 0.964, -0.044, 192.0, 0.0, 0.0, 0.0, 0.0, 0.0, 0.0, 0.0, 0.0, 0.0, 1.6664045286589787E9, 0.0, 2022-10-21 19:08:48.658
230.0, -130892.8437105231, -157621.57382030177, -33721.78628704385, -140654.81163916728, 68641.26844898086, -109778.84945617312, 56735.36589567255, -110690.93474041639, 0.018000000000000002, 0.964, -0.044, 192.0, 0.0, 0.0, 0.0, 0.0, 0.0, 0.0, 0.0, 0.0, 0.0, 1.6664045286589904E9, 0.0, 2022-10-21 19:08:48.658
231.0, -130897.649335581, -157625.53007907036, -33724.71436556749, -140663.64057822712, 68639.88264082464, -109782.3139765637, 56728.74977931378, -110695.2262753518, 0.022, 0.9560000000000001, -0.042, 192.0, 0.0, 176.0, 29.0, 224.0, 254.0, 176.0, 0.0, 0.0, 0.0, 1.6664045286590023E9, 0.0, 2022-10-21 19:08:48.659
232.0, -130908.22171070836, -157641.5115763559, -33728.04477549133, -140670.39080505262, 68635.21112623348, -109796.93201743747, 56716.50102335227, -110696.14269687448, 0.022, 0.9560000000000001, -0.042, 192.0, 0.0, 0.0, 0.0, 0.0, 0.0, 0.0, 0.0, 0.0, 0.0, 1.6664045286590147E9, 0.0, 2022-10-21 19:08:48.659
233.0, -130914.1002195001, -157650.5193293714, -33730.995205759435, -140668.73677596293, 68631.70190235399, -109794.92036043649, 56720.07730246512, -110694.1757433624, 0.022, 0.9560000000000001, -0.042, 192.0, 0.0, 0.0, 0.0, 0.0, 0.0, 0.0, 0.0, 0.0, 0.0, 1.6664045286590266E9, 0.0, 2022-10-21 19:08:48.659
234.0, -130912.24502471031, -157646.98775374744, -33728.20123770252, -140662.7465084489, 68632.9983035324, -109795.1662296255, 56726.00051474578, -110692.4770107838, 0.022, 0.9560000000000001, -0.042, 192.0, 0.0, 0.0, 0.0, 0.0, 0.0, 0.0, 0.0, 0.0, 0.0, 1.6664045286590383E9, 0.0, 2022-10-21 19:08:48.659
235.0, -130913.74259158882, -157653.15683521712, -33721.09338296573, -140658.03029036883, 68642.698960626, -109806.69972976444, 56721.55251759917, -110691.53823751668, 0.022, 0.9560000000000001, -0.042, 192.0, 0.0, 0.0, 0.0, 0.0, 0.0, 0.0, 0.0, 0.0, 0.0, 1.66640452865905E9, 0.0, 2022-10-21 19:08:48.659
236.0, -130932.69687088691, -157673.98866104946, -33729.27412143638, -140666.2110288395, 68642.52014667036, -109803.65989251851, 56717.596258830585, -110697.01441490823, 0.022, 0.9560000000000001, -0.042, 192.0, 0.0, 0.0, 0.0, 0.0, 0.0, 0.0, 0.0, 0.0, 0.0, 1.666404528659062E9, 0.0, 2022-10-21 19:08:48.659
237.0, -130937.61425466709, -157680.0683355413, -33727.19540920203, -140661.47245901497, 68638.4968326684, -109804.93394195246, 56716.70218905237, -110692.78993520618, 0.022, 0.9560000000000001, -0.042, 192.0, 0.0, 0.0, 0.0, 0.0, 0.0, 0.0, 0.0, 0.0, 0.0, 1.6664045286590843E9, 0.0, 2022-10-21 19:08:48.659
238.0, -130955.38389150905, -157700.65429218463, -33739.44416516354, -140670.39080505262, 68623.52116388336, -109806.1632878975, 56717.529203597216, -110704.34578708957, 0.022, 0.9560000000000001, -0.042, 192.0, 0.0, 0.0, 0.0, 0.0, 0.0, 0.0, 0.0, 0.0, 0.0, 1.6664045286590962E9, 0.0, 2022-10-21 19:08:48.659
239.0, -130968.07968235966, -157712.76893767942, -33739.62297911918, -140681.43256681354, 68626.06926275126, -109814.67930253498, 56711.427177360914, -110708.21263888033, 0.022, 0.9560000000000001, -0.042, 192.0, 0.0, 0.0, 0.0, 0.0, 0.0, 0.0, 0.0, 0.0, 0.0, 1.6664045286591077E9, 0.0, 2022-10-21 19:08:48.659
240.0, -130968.92904864896, -157719.85444067174, -33731.30813018181, -140674.7493952214, 68638.60859139069, -109812.35472111162, 56711.51658433874, -110701.127135888, 0.022, 0.9580000000000001, -0.046, 192.0, 0.0, 176.0, 29.0, 240.0, 254.0, 144.0, 0.0, 0.0, 0.0, 1.6664045286591218E9, 0.0, 2022-10-21 19:08:48.659
241.0, -130970.44896727194, -157726.8281849418, -33728.20123770252, -140673.4082905541, 68633.17711748804, -109810.81245074421, 56712.477709350314, -110696.05328989665, 0.022, 0.9580000000000001, -0.046, 192.0, 0.0, 0.0, 0.0, 0.0, 0.0, 0.0, 0.0, 0.0, 0.0, 1.666404529136407E9, 0.0, 2022-10-21 19:08:49.136
242.0, -130980.64136274355, -157736.86411820224, -33730.861095292705, -140671.97777890894, 68625.62222786216, -109816.6239043026, 56713.01415121724, -110695.1815718629, 0.022, 0.9580000000000001, -0.046, 192.0, 0.0, 0.0, 0.0, 0.0, 0.0, 0.0, 0.0, 0.0, 0.0, 1.6664045291365013E9, 0.0, 2022-10-21 19:08:49.136
243.0, -130987.39158956906, -157745.84951947327, -33736.024348261875, -140677.31984583376, 68621.50950688237, -109809.4713460769, 56716.72454079682, -110703.74228998927, 0.022, 0.9580000000000001, -0.046, 192.0, 0.0, 0.0, 0.0, 0.0, 0.0, 0.0, 0.0, 0.0, 0.0, 1.6664045291365607E9, 0.0, 2022-10-21 19:08:49.136
244.0, -130977.2662493308, -157735.56771702383, -33729.36352841419, -140676.91751443356, 68628.10327149669, -109812.80175600074, 56712.65652330596, -110702.71410974434, 0.022, 0.9580000000000001, -0.046, 192.0, 0.0, 0.0, 0.0, 0.0, 0.0, 0.0, 0.0, 0.0, 0.0, 1.6664045291366248E9, 0.0, 2022-10-21 19:08:49.136
245.0, -130972.32651380617, -157729.86802218773, -33722.6580050776, -140669.6531974856, 68630.71842559797, -109835.39936964505, 56700.34071211109, -110697.86378119753, 0.022, 0.9580000000000001, -0.046, 192.0, 0.0, 0.0, 0.0, 0.0, 0.0, 0.0, 0.0, 0.0, 0.0, 1.6664045291366456E9, 0.0, 2022-10-21 19:08:49.136
246.0, -130980.90958367701, -157736.35002807976, -33722.23332193295, -140665.94280790602, 68627.03038776283, -109837.65689583504, 56705.705130780356, -110690.68887122738, 0.022, 0.9580000000000001, -0.046, 192.0, 0.0, 0.0, 0.0, 0.0, 0.0, 0.0, 0.0, 0.0, 0.0, 1.6664045291366673E9, 0.0, 2022-10-21 19:08:49.136
247.0, -130987.52570003578, -157744.10608340576, -33728.71532782499, -140680.85142145772, 68620.72719582645, -109834.55000335575, 56708.297933137175, -110687.47022002582, 0.022, 0.9580000000000001, -0.046, 192.0, 0.0, 0.0, 0.0, 0.0, 0.0, 0.0, 0.0, 0.0, 0.0, 1.6664045291366885E9, 0.0, 2022-10-21 19:08:49.136
248.0, -130986.58692676866, -157740.88743220418, -33722.6580050776, -140677.94569467852, 68629.42202441956, -109830.03495097578, 56706.66625579193, -110691.91821717242, 0.022, 0.9580000000000001, -0.046, 192.0, 0.0, 0.0, 0.0, 0.0, 0.0, 0.0, 0.0, 0.0, 0.0, 1.6664045291367092E9, 0.0, 2022-10-21 19:08:49.136
249.0, -130988.64328725854, -157739.16634788114, -33725.98841500145, -140675.48700278843, 68629.15380348609, -109821.18366017147, 56706.7333110253, -110702.31177834414, 0.022, 0.9580000000000001, -0.046, 192.0, 0.0, 0.0, 0.0, 0.0, 0.0, 0.0, 0.0, 0.0, 0.0, 1.6664045291367302E9, 0.0, 2022-10-21 19:08:49.136
250.0, -130986.49751979084, -157736.01475191294, -33727.217760946485, -140666.32278756174, 68630.83018432024, -109796.50733429282, 56722.826567033124, -110702.62470276651, 0.014, 0.964, -0.052000000000000005, 192.0, 0.0, 112.0, 30.0, 32.0, 254.0, 96.0, 0.0, 0.0, 0.0, 1.6664045291367507E9, 0.0, 2022-10-21 19:08:49.136
251.0, -130986.72103723539, -157731.56675476633, -33729.162362714094, -140667.708595718, 68630.33844594222, -109767.27125254528, 56741.222052719844, -110705.5304295457, 0.014, 0.964, -0.052000000000000005, 192.0, 0.0, 0.0, 0.0, 0.0, 0.0, 0.0, 0.0, 0.0, 0.0, 1.6664045291367743E9, 0.0, 2022-10-21 19:08:49.136
252.0, -130980.417845299, -157724.16832735162, -33723.507371366904, -140679.42090981256, 68629.48907965292, -109787.09724987713, 56726.78282580171, -110698.46727829782, 0.014, 0.964, -0.052000000000000005, 192.0, 0.0, 0.0, 0.0, 0.0, 0.0, 0.0, 0.0, 0.0, 0.0, 1.6664045291368556E9, 0.0, 2022-10-21 19:08:49.136
253.0, -130968.52671724877, -157713.21597256852, -33714.74548754042, -140674.43647079903, 68635.21112623348, -109813.76288101231, 56710.62251456053, -110690.26418808273, 0.014, 0.964, -0.052000000000000005, 192.0, 0.0, 0.0, 0.0, 0.0, 0.0, 0.0, 0.0, 0.0, 0.0, 1.6664045291368806E9, 0.0, 2022-10-21 19:08:49.136
254.0, -130960.18951656694, -157705.3258067758, -33713.96317648449, -140660.46663051448, 68638.22861173494, -109811.10302342213, 56716.389264629994, -110686.15146710294, 0.014, 0.964, -0.052000000000000005, 192.0, 0.0, 0.0, 0.0, 0.0, 0.0, 0.0, 0.0, 0.0, 0.0, 1.666404529136897E9, 0.0, 2022-10-21 19:08:49.136
255.0, -130952.43346124096, -157700.29666427337, -33710.90098749411, -140654.8563426562, 68643.19069900403, -109795.43445055897, 56733.93538402741, -110684.38567929098, 0.014, 0.964, -0.052000000000000005, 192.0, 0.0, 0.0, 0.0, 0.0, 0.0, 0.0, 0.0, 0.0, 0.0, 1.6664045291369116E9, 0.0, 2022-10-21 19:08:49.136
0.0, -130946.64435942702, -157693.9711205925, -33710.38689737164, -140659.63961596962, 68644.06241703779, -109812.39942460055, 56725.30761066766, -110683.91629265742, 0.014, 0.964, -0.052000000000000005, 192.0, 0.0, 0.0, 0.0, 0.0, 0.0, 0.0, 0.0, 0.0, 0.0, 1.666404529136926E9, 0.0, 2022-10-21 19:08:49.136
1.0, -130943.06808031417, -157690.75246939092, -33712.64442356163, -140666.23338058393, 68640.21791699147, -109824.93875323997, 56715.562250085146, -110676.24964430925, 0.014, 0.964, -0.052000000000000005, 192.0, 0.0, 0.0, 0.0, 0.0, 0.0, 0.0, 0.0, 0.0, 0.0, 1.6664045291369407E9, 0.0, 2022-10-21 19:08:49.136
2.0, -130934.52971393225, -157682.6611378981, -33708.19642641502, -140651.57063622127, 68646.0070188054, -109812.8241077452, 56728.10157872458, -110663.88912962546, 0.014, 0.964, -0.052000000000000005, 192.0, 0.0, 0.0, 0.0, 0.0, 0.0, 0.0, 0.0, 0.0, 0.0, 1.6664045291369555E9, 0.0, 2022-10-21 19:08:49.136
3.0, -130933.63564415404, -157680.94005357506, -33712.19738867252, -140655.48219150092, 68642.36368445918, -109797.69197674895, 56738.31632594065, -110673.16510357441, 0.014, 0.964, -0.052000000000000005, 192.0, 0.0, 0.0, 0.0, 0.0, 0.0, 0.0, 0.0, 0.0, 0.0, 1.6664045291369703E9, 0.0, 2022-10-21 19:08:49.136
4.0, -130921.14101900352, -157671.08293427026, -33706.8553217477, -140659.9078369031, 68645.6046874052, -109805.0680524192, 56731.364933415054, -110681.39054553397, 0.018000000000000002, 0.964, -0.05, 192.0, 0.0, 144.0, 30.0, 32.0, 254.0, 112.0, 0.0, 0.0, 0.0, 1.6664045291369848E9, 0.0, 2022-10-21 19:08:49.136
5.0, -130920.73868760333, -157669.13833250265, -33710.498656093914, -140669.38497655213, 68640.97787630295, -109824.89404975106, 56714.33290414011, -110688.83367643759, 0.018000000000000002, 0.964, -0.05, 192.0, 0.0, 0.0, 0.0, 0.0, 0.0, 0.0, 0.0, 0.0, 0.0, 1.666404529137008E9, 0.0, 2022-10-21 19:08:49.137
6.0, -130916.49185615682, -157667.17137899058, -33708.21877815948, -140659.77372643637, 68645.09059728273, -109822.61417181662, 56717.61861057504, -110683.37985079049, 0.018000000000000002, 0.964, -0.05, 192.0, 0.0, 0.0, 0.0, 0.0, 0.0, 0.0, 0.0, 0.0, 0.0, 1.6664045291370225E9, 0.0, 2022-10-21 19:08:49.137
7.0, -130914.41314392247, -157661.27051845437, -33707.637632803635, -140647.7037844305, 68650.47736769645, -109794.69684299194, 56735.67882009492, -110676.83078966508, 0.018000000000000002, 0.964, -0.05, 192.0, 0.0, 0.0, 0.0, 0.0, 0.0, 0.0, 0.0, 0.0, 0.0, 1.6664045291370373E9, 0.0, 2022-10-21 19:08:49.137
8.0, -130914.21197822237, -157657.78364631935, -33710.25278690491, -140657.82912466873, 68643.72714087095, -109783.78919169775, 56740.529148641726, -110676.6743274539, 0.018000000000000002, 0.964, -0.05, 192.0, 0.0, 0.0, 0.0, 0.0, 0.0, 0.0, 0.0, 0.0, 0.0, 1.6664045291370513E9, 0.0, 2022-10-21 19:08:49.137
9.0, -130896.75526580279, -157642.29388741183, -33694.13717915263, -140654.76693567837, 68653.67366715356, -109814.1205089236, 56726.067569979146, -110660.2234435348, 0.018000000000000002, 0.964, -0.05, 192.0, 0.0, 0.0, 0.0, 0.0, 0.0, 0.0, 0.0, 0.0, 0.0, 1.6664045291370656E9, 0.0, 2022-10-21 19:08:49.137
10.0, -130898.05166698119, -157646.04898048032, -33701.93793796753, -140660.1537060921, 68649.42683570705, -109820.75897702682, 56718.98206698681, -110678.39541177696, 0.018000000000000002, 0.964, -0.05, 192.0, 0.0, 0.0, 0.0, 0.0, 0.0, 0.0, 0.0, 0.0, 0.0, 1.6664045291370804E9, 0.0, 2022-10-21 19:08:49.137
