%OpenBCI Raw EEG Data
%Number of channels = 8
%Sample Rate = 250 Hz
%Board = OpenBCI_GUI$BoardCytonSerial
Sample Index, EXG Channel 0, EXG Channel 1, EXG Channel 2, EXG Channel 3, EXG Channel 4, EXG Channel 5, EXG Channel 6, EXG Channel 7, Accel Channel 0, Accel Channel 1, Accel Channel 2, Other, Other, Other, Other, Other, Other, Other, Analog Channel 0, Analog Channel 1, Analog Channel 2, Timestamp, Other, Timestamp (Formatted)
224.0, -127485.09675086699, -156258.85501609507, -29058.452434355313, -135540.30782464836, 62995.441317014855, -69328.9645706373, 54129.91245149523, -112588.50843769414, 0.0, 0.0, 0.0, 192.0, 0.0, 0.0, 0.0, 0.0, 0.0, 0.0, 0.0, 0.0, 0.0, 1.666404313070226E9, 0.0, 2022-10-21 19:05:13.070
225.0, -127483.42037003284, -156253.9376323149, -29055.636114553945, -135544.2417316725, 63003.353834552036, -69333.2114020838, 54125.73267528209, -112586.65324290434, 0.0, 0.0, 0.0, 192.0, 0.0, 0.0, 0.0, 0.0, 0.0, 0.0, 0.0, 0.0, 0.0, 1.666404313070253E9, 0.0, 2022-10-21 19:05:13.070
226.0, -127478.90531765287, -156252.2388997363, -29054.987913964742, -135535.88217924623, 63011.04283464466, -69344.40962605592, 54118.69187577866, -112581.04295504605, 0.0, 0.0, 0.0, 192.0, 0.0, 0.0, 0.0, 0.0, 0.0, 0.0, 0.0, 0.0, 0.0, 1.6664043130702674E9, 0.0, 2022-10-21 19:05:13.070
227.0, -127486.88489042342, -156259.95025157338, -29061.335809390046, -135528.88608323172, 63004.20320084134, -69323.75661417922, 54133.33226839689, -112577.77960035558, 0.026000000000000002, 0.966, -0.002, 192.0, 0.0, 208.0, 30.0, 48.0, 255.0, 240.0, 0.0, 0.0, 0.0, 1.6664043130702877E9, 0.0, 2022-10-21 19:05:13.070
228.0, -127487.06370437905, -156258.9891265618, -29063.101597202018, -135536.75389727997, 63000.42575602839, -69289.1561137624, 54151.86186455034, -112584.28395799208, 0.026000000000000002, 0.966, -0.002, 192.0, 0.0, 0.0, 0.0, 0.0, 0.0, 0.0, 0.0, 0.0, 0.0, 1.6664043130703163E9, 0.0, 2022-10-21 19:05:13.070
229.0, -127481.52047175413, -156255.77047536022, -29060.21822216728, -135539.32434789234, 63009.09823287705, -69287.63619513944, 54144.75400981355, -112586.45207720425, 0.026000000000000002, 0.966, -0.002, 192.0, 0.0, 0.0, 0.0, 0.0, 0.0, 0.0, 0.0, 0.0, 0.0, 1.6664043130703406E9, 0.0, 2022-10-21 19:05:13.070
230.0, -127484.11327411096, -156263.25830975274, -29064.37564663597, -135553.741223066, 63000.24694207275, -69314.70415767482, 54122.89400373626, -112584.19455101425, 0.026000000000000002, 0.966, -0.002, 192.0, 0.0, 0.0, 0.0, 0.0, 0.0, 0.0, 0.0, 0.0, 0.0, 1.6664043130703576E9, 0.0, 2022-10-21 19:05:13.070
231.0, -127486.61666948994, -156262.85597835254, -29068.42131238238, -135555.81993530036, 62993.831991414074, -69318.70511993232, 54125.844434004364, -112586.11680103741, 0.026000000000000002, 0.966, -0.002, 192.0, 0.0, 0.0, 0.0, 0.0, 0.0, 0.0, 0.0, 0.0, 0.0, 1.6664043130703747E9, 0.0, 2022-10-21 19:05:13.070
232.0, -127481.69928570978, -156257.11158002753, -29060.620553567478, -135544.86758051725, 63002.03508162917, -69294.4534771983, 54147.74914357056, -112583.0769637915, 0.026000000000000002, 0.966, -0.002, 192.0, 0.0, 0.0, 0.0, 0.0, 0.0, 0.0, 0.0, 0.0, 0.0, 1.6664043130703917E9, 0.0, 2022-10-21 19:05:13.070
233.0, -127488.87419567993, -156266.49931269878, -29072.690495573344, -135560.78202256942, 62989.40634601192, -69322.90724788992, 54121.03880894647, -112599.48314422168, 0.026000000000000002, 0.966, -0.002, 192.0, 0.0, 0.0, 0.0, 0.0, 0.0, 0.0, 0.0, 0.0, 0.0, 1.666404313070408E9, 0.0, 2022-10-21 19:05:13.070
234.0, -127482.57100374353, -156250.8307398356, -29060.441739611833, -135553.1377259657, 63002.23624732927, -69337.1676608524, 54117.730750767085, -112582.65228064684, 0.026000000000000002, 0.966, -0.002, 192.0, 0.0, 0.0, 0.0, 0.0, 0.0, 0.0, 0.0, 0.0, 0.0, 1.6664043130704248E9, 0.0, 2022-10-21 19:05:13.070
235.0, -127486.37080030094, -156253.66941138142, -29067.504890859713, -135543.03473747193, 63003.44324152986, -69332.67496021689, 54123.09516943636, -112588.68725164978, 0.026000000000000002, 0.966, -0.002, 192.0, 0.0, 0.0, 0.0, 0.0, 0.0, 0.0, 0.0, 0.0, 0.0, 1.6664043130704415E9, 0.0, 2022-10-21 19:05:13.070
236.0, -127473.9879338727, -156246.11452175552, -29053.289181386135, -135533.60230131177, 63012.18277361188, -69323.35428277902, 54138.69668706616, -112579.63479514538, 0.026000000000000002, 0.966, -0.002, 192.0, 0.0, 0.0, 0.0, 0.0, 0.0, 0.0, 0.0, 0.0, 0.0, 1.666404313070458E9, 0.0, 2022-10-21 19:05:13.070
237.0, -127474.90435539537, -156246.7850740892, -29051.143413918428, -135547.4380311296, 63011.579276511584, -69329.34455029304, 54136.57327134291, -112574.35978345393, 0.028, 0.964, 0.002, 192.0, 0.0, 224.0, 30.0, 32.0, 0.0, 16.0, 0.0, 0.0, 0.0, 1.6664043130704749E9, 0.0, 2022-10-21 19:05:13.070
238.0, -127492.0928468815, -156258.8326643506, -29068.756588549208, -135560.67026384716, 63004.38201479698, -69341.28038183217, 54121.84347174686, -112574.40448694283, 0.028, 0.964, 0.002, 192.0, 0.0, 0.0, 0.0, 0.0, 0.0, 0.0, 0.0, 0.0, 0.0, 1.6664043130704927E9, 0.0, 2022-10-21 19:05:13.070
239.0, -127485.09675086699, -156257.89389108348, -29061.84989951252, -135539.43610661462, 63017.92717193689, -69335.6700939739, 54131.18650092918, -112568.86125431792, 0.028, 0.964, 0.002, 192.0, 0.0, 0.0, 0.0, 0.0, 0.0, 0.0, 0.0, 0.0, 0.0, 1.666404313070511E9, 0.0, 2022-10-21 19:05:13.070
240.0, -127480.51464325366, -156258.85501609507, -29070.388265894446, -135540.79956302638, 63014.5744102686, -69317.63223619846, 54144.441085391176, -112581.13236202388, 0.028, 0.964, 0.002, 192.0, 0.0, 0.0, 0.0, 0.0, 0.0, 0.0, 0.0, 0.0, 0.0, 1.6664043130706863E9, 0.0, 2022-10-21 19:05:13.070
241.0, -127481.00638163167, -156258.5867951616, -29070.008286238706, -135545.91811250665, 63020.16234638242, -69296.9568725773, 54158.47798090911, -112560.568757125, 0.028, 0.964, 0.002, 192.0, 0.0, 0.0, 0.0, 0.0, 0.0, 0.0, 0.0, 0.0, 0.0, 1.6664043130707045E9, 0.0, 2022-10-21 19:05:13.070
242.0, -127498.48544579571, -156270.85790286754, -29088.42612366988, -135577.2999617219, 62996.223628070795, -69317.49812573173, 54128.213718916624, -112595.9739203422, 0.028, 0.964, 0.002, 192.0, 0.0, 0.0, 0.0, 0.0, 0.0, 0.0, 0.0, 0.0, 0.0, 1.6664043130707211E9, 0.0, 2022-10-21 19:05:13.070
243.0, -127489.3882858024, -156260.8443213516, -29084.402809667925, -135570.52738315193, 62998.727023449785, -69345.72837897878, 54112.25457337553, -112591.63768191787, 0.028, 0.964, 0.002, 192.0, 0.0, 0.0, 0.0, 0.0, 0.0, 0.0, 0.0, 0.0, 0.0, 1.6664043130707383E9, 0.0, 2022-10-21 19:05:13.070
244.0, -127470.41165475985, -156242.65000136496, -29064.55446059161, -135536.6421385577, 63019.04475915966, -69330.97622763828, 54142.92116676822, -112558.73591407966, 0.028, 0.964, 0.002, 192.0, 0.0, 0.0, 0.0, 0.0, 0.0, 0.0, 0.0, 0.0, 0.0, 1.6664043130707555E9, 0.0, 2022-10-21 19:05:13.070
245.0, -127474.43496876181, -156249.132007257, -29071.70701881731, -135544.86758051725, 63011.93690442287, -69335.7147974628, 54140.21660568912, -112568.86125431792, 0.028, 0.964, 0.002, 192.0, 0.0, 0.0, 0.0, 0.0, 0.0, 0.0, 0.0, 0.0, 0.0, 1.666404313070772E9, 0.0, 2022-10-21 19:05:13.070
246.0, -127469.7858059151, -156245.89100431098, -29071.08116997256, -135542.78886828292, 63019.40238707094, -69362.17926289789, 54123.94453572566, -112569.55415839603, 0.028, 0.964, 0.002, 192.0, 0.0, 0.0, 0.0, 0.0, 0.0, 0.0, 0.0, 0.0, 0.0, 1.6664043130708015E9, 0.0, 2022-10-21 19:05:13.070
247.0, -127477.63126821892, -156251.50129216927, -29078.837225298554, -135549.96377825306, 63014.1720788684, -69371.34347812456, 54117.75310251154, -112576.14792301034, 0.028, 0.9560000000000001, 0.0, 192.0, 0.0, 224.0, 29.0, 224.0, 0.0, 0.0, 0.0, 0.0, 0.0, 1.666404313070819E9, 0.0, 2022-10-21 19:05:13.070
248.0, -127478.63709671941, -156256.9327660719, -29086.95090853583, -135550.27670267544, 63007.80183169864, -69371.61169905802, 54123.69866653665, -112581.40058295734, 0.028, 0.9560000000000001, 0.0, 192.0, 0.0, 0.0, 0.0, 0.0, 0.0, 0.0, 0.0, 0.0, 0.0, 1.666404313070836E9, 0.0, 2022-10-21 19:05:13.070
249.0, -127477.69832345228, -156256.3292689716, -29076.624402597477, -135537.46915310255, 63018.77653822619, -69369.51063507922, 54132.81817827442, -112569.12947525138, 0.028, 0.9560000000000001, 0.0, 192.0, 0.0, 0.0, 0.0, 0.0, 0.0, 0.0, 0.0, 0.0, 0.0, 1.6664043130708525E9, 0.0, 2022-10-21 19:05:13.070
250.0, -127478.57004148603, -156254.65288813747, -29079.12779797647, -135550.67903407564, 63018.12833763699, -69374.49507409276, 54121.66465779122, -112580.86414109042, 0.028, 0.9560000000000001, 0.0, 192.0, 0.0, 0.0, 0.0, 0.0, 0.0, 0.0, 0.0, 0.0, 0.0, 1.6664043130708687E9, 0.0, 2022-10-21 19:05:13.070
251.0, -127474.45732050626, -156252.2836032252, -29079.485425887757, -135553.42829864364, 63017.86011670353, -69387.10145796555, 54113.752140254044, -112581.28882423507, 0.028, 0.9560000000000001, 0.0, 192.0, 0.0, 0.0, 0.0, 0.0, 0.0, 0.0, 0.0, 0.0, 0.0, 1.6664043130708854E9, 0.0, 2022-10-21 19:05:13.070
252.0, -127477.18423332981, -156255.50225442677, -29081.98882126675, -135552.91420852116, 63012.98743641227, -69357.88772796247, 54135.58979458688, -112577.10904802193, 0.028, 0.9560000000000001, 0.0, 192.0, 0.0, 0.0, 0.0, 0.0, 0.0, 0.0, 0.0, 0.0, 0.0, 1.666404313070902E9, 0.0, 2022-10-21 19:05:13.070
253.0, -127477.340695541, -156253.80352184817, -29081.340620677547, -135555.97639751155, 63012.652160245445, -69340.67688473187, 54145.7821900585, -112582.9205015803, 0.028, 0.9560000000000001, 0.0, 192.0, 0.0, 0.0, 0.0, 0.0, 0.0, 0.0, 0.0, 0.0, 0.0, 1.6664043130709183E9, 0.0, 2022-10-21 19:05:13.070
254.0, -127479.08413160851, -156256.84335909408, -29084.402809667925, -135570.61679012977, 63007.84653518755, -69347.56122202412, 54133.19815793016, -112584.28395799208, 0.028, 0.9560000000000001, 0.0, 192.0, 0.0, 0.0, 0.0, 0.0, 0.0, 0.0, 0.0, 0.0, 0.0, 1.6664043130709348E9, 0.0, 2022-10-21 19:05:13.070
255.0, -127478.16771008584, -156251.30012646917, -29077.071437486582, -135553.0930224768, 63020.43056731589, -69377.31139389412, 54117.35077111135, -112574.49389392066, 0.028, 0.9560000000000001, 0.0, 192.0, 0.0, 0.0, 0.0, 0.0, 0.0, 0.0, 0.0, 0.0, 0.0, 1.6664043130710025E9, 0.0, 2022-10-21 19:05:13.071
0.0, -127488.56127125757, -156260.55374867367, -29088.38142018097, -135549.36028115277, 63016.966046925314, -69377.95959448333, 54121.91052698023, -112580.4171062013, 0.028, 0.9560000000000001, 0.0, 192.0, 0.0, 0.0, 0.0, 0.0, 0.0, 0.0, 0.0, 0.0, 0.0, 1.6664043130710187E9, 0.0, 2022-10-21 19:05:13.071
1.0, -127489.36593405795, -156263.9959173198, -29089.700173103833, -135553.36124341027, 63015.37907306899, -69347.44946330183, 54143.65877433524, -112574.76211485412, 0.03, 0.96, 0.0, 192.0, 0.0, 240.0, 30.0, 0.0, 0.0, 0.0, 0.0, 0.0, 0.0, 1.6664043130710351E9, 0.0, 2022-10-21 19:05:13.071
2.0, -127476.31251529606, -156252.01538229172, -29073.897489773928, -135543.14649619418, 63031.18175639889, -69351.45042555933, 54141.06597197842, -112563.29566994855, 0.03, 0.96, 0.0, 192.0, 0.0, 0.0, 0.0, 0.0, 0.0, 0.0, 0.0, 0.0, 0.0, 1.6664043130710528E9, 0.0, 2022-10-21 19:05:13.071
3.0, -127477.09482635198, -156250.69662936887, -29071.349390906023, -135543.1911996831, 63032.791081999676, -69375.79147527117, 54124.10099793685, -112564.52501589358, 0.03, 0.96, 0.0, 192.0, 0.0, 0.0, 0.0, 0.0, 0.0, 0.0, 0.0, 0.0, 0.0, 1.66640431307107E9, 0.0, 2022-10-21 19:05:13.071
4.0, -127497.92665218434, -156263.97356557532, -29090.46013241531, -135547.72860380754, 63017.03310215868, -69376.3279171381, 54122.4246171027, -112578.29369047805, 0.03, 0.96, 0.0, 192.0, 0.0, 0.0, 0.0, 0.0, 0.0, 0.0, 0.0, 0.0, 0.0, 1.6664043130710864E9, 0.0, 2022-10-21 19:05:13.071
5.0, -127497.05493415058, -156273.92009185793, -29100.585472653565, -135557.60807485678, 63005.007863641724, -69360.614640786, 54130.13596893978, -112583.85927484743, 0.03, 0.96, 0.0, 192.0, 0.0, 0.0, 0.0, 0.0, 0.0, 0.0, 0.0, 0.0, 0.0, 1.666404313071103E9, 0.0, 2022-10-21 19:05:13.071
6.0, -127493.9927451602, -156269.96383308934, -29100.76428660921, -135572.4049296862, 63002.54917175164, -69379.23364391728, 54113.61802978731, -112595.59394068646, 0.03, 0.96, 0.0, 192.0, 0.0, 0.0, 0.0, 0.0, 0.0, 0.0, 0.0, 0.0, 0.0, 1.6664043130711195E9, 0.0, 2022-10-21 19:05:13.071
7.0, -127480.40288453137, -156256.3739724605, -29099.803161597632, -135568.2475052175, 63010.126413121994, -69394.81280980264, 54104.94555293865, -112602.59003670097, 0.03, 0.96, 0.0, 192.0, 0.0, 0.0, 0.0, 0.0, 0.0, 0.0, 0.0, 0.0, 0.0, 1.6664043130711362E9, 0.0, 2022-10-21 19:05:13.071
8.0, -127473.0938640945, -156247.58973688958, -29109.436763457867, -135570.7061971076, 63002.146840351445, -69402.635920362, 54101.14575638125, -112600.80189714456, 0.03, 0.96, 0.0, 192.0, 0.0, 0.0, 0.0, 0.0, 0.0, 0.0, 0.0, 0.0, 0.0, 1.6664043130711524E9, 0.0, 2022-10-21 19:05:13.071
9.0, -127481.34165779849, -156246.11452175552, -29105.927539578384, -135570.41562442968, 63004.18084909688, -69390.8789027785, 54118.80363450094, -112585.04391730356, 0.03, 0.96, 0.0, 192.0, 0.0, 0.0, 0.0, 0.0, 0.0, 0.0, 0.0, 0.0, 0.0, 1.666404313071169E9, 0.0, 2022-10-21 19:05:13.071
10.0, -127486.46020727877, -156252.70828636986, -29085.69921084633, -135559.0832899908, 63029.907706964936, -69376.79730377166, 54140.39541964477, -112557.64067860135, 0.028, 0.964, 0.004, 192.0, 0.0, 224.0, 30.0, 32.0, 0.0, 32.0, 0.0, 0.0, 0.0, 1.6664043130711856E9, 0.0, 2022-10-21 19:05:13.071
11.0, -127487.6895532238, -156252.35065845857, -29079.55248112112, -135549.8967230197, 63043.274050149215, -69385.53683585368, 54136.03682947598, -112555.04787624454, 0.028, 0.964, 0.004, 192.0, 0.0, 0.0, 0.0, 0.0, 0.0, 0.0, 0.0, 0.0, 0.0, 1.6664043130712054E9, 0.0, 2022-10-21 19:05:13.071
12.0, -127478.65944846386, -156242.09120775358, -29080.42419915488, -135543.01238572746, 63042.849367004565, -69386.20738818734, 54140.596585344865, -112548.5658703525, 0.028, 0.964, 0.004, 192.0, 0.0, 0.0, 0.0, 0.0, 0.0, 0.0, 0.0, 0.0, 0.0, 1.6664043130712223E9, 0.0, 2022-10-21 19:05:13.071
13.0, -127472.60212571647, -156230.13302446998, -29082.23469045576, -135545.87340901775, 63033.28282037769, -69382.8769782635, 54149.20200696016, -112552.90210877683, 0.028, 0.964, 0.004, 192.0, 0.0, 0.0, 0.0, 0.0, 0.0, 0.0, 0.0, 0.0, 0.0, 1.666404313071239E9, 0.0, 2022-10-21 19:05:13.071
14.0, -127479.68762870881, -156235.25157395026, -29087.464998658303, -135552.40011839868, 63035.652105289955, -69375.05386770415, 54154.633480862794, -112559.94290828025, 0.028, 0.964, 0.004, 192.0, 0.0, 0.0, 0.0, 0.0, 0.0, 0.0, 0.0, 0.0, 0.0, 1.666404313071273E9, 0.0, 2022-10-21 19:05:13.071
15.0, -127466.2318785467, -156220.52177435422, -29073.048123484627, -135541.60422582677, 63055.76867529973, -69367.3201641226, 54158.85796056485, -112547.73885580765, 0.028, 0.964, 0.004, 192.0, 0.0, 0.0, 0.0, 0.0, 0.0, 0.0, 0.0, 0.0, 0.0, 1.6664043130712903E9, 0.0, 2022-10-21 19:05:13.071
16.0, -127457.71586390924, -156207.64716954794, -29067.124911203973, -135532.41765885564, 63061.781294558205, -69370.06942869061, 54158.2321117201, -112550.95750700921, 0.028, 0.964, 0.004, 192.0, 0.0, 0.0, 0.0, 0.0, 0.0, 0.0, 0.0, 0.0, 0.0, 1.6664043130713067E9, 0.0, 2022-10-21 19:05:13.071
17.0, -127465.27075353514, -156215.91731499642, -29081.832359055563, -135543.83940027232, 63047.029143217704, -69366.49314957776, 54160.9813762881, -112560.54640538055, 0.028, 0.964, 0.004, 192.0, 0.0, 0.0, 0.0, 0.0, 0.0, 0.0, 0.0, 0.0, 0.0, 1.6664043130713236E9, 0.0, 2022-10-21 19:05:13.071
18.0, -127464.4884424792, -156213.3245126396, -29087.55440563612, -135547.88506601873, 63039.496605336266, -69349.32700983608, 54169.43033569221, -112560.25583270262, 0.028, 0.964, 0.004, 192.0, 0.0, 0.0, 0.0, 0.0, 0.0, 0.0, 0.0, 0.0, 0.0, 1.66640431307134E9, 0.0, 2022-10-21 19:05:13.071
19.0, -127464.57784945701, -156206.70839628082, -29083.531091634166, -135551.75191780948, 63047.252660662256, -69357.57480354009, 54159.550864642966, -112554.13145472186, 0.028, 0.964, 0.004, 192.0, 0.0, 0.0, 0.0, 0.0, 0.0, 0.0, 0.0, 0.0, 0.0, 1.6664043130713568E9, 0.0, 2022-10-21 19:05:13.071
20.0, -127454.02782607412, -156194.5713990416, -29074.79155955214, -135549.06970847485, 63054.3828671435, -69371.54464382466, 54152.28654769499, -112548.1635389523, 0.028, 0.96, -0.008, 192.0, 0.0, 224.0, 30.0, 0.0, 255.0, 192.0, 0.0, 0.0, 0.0, 1.6664043130713732E9, 0.0, 2022-10-21 19:05:13.071
21.0, -127445.48945969218, -156182.367346569, -29068.689533315843, -135533.13291467822, 63065.40227715997, -69378.18311192788, 54162.76951584453, -112539.98280048167, 0.028, 0.96, -0.008, 192.0, 0.0, 0.0, 0.0, 0.0, 0.0, 0.0, 0.0, 0.0, 0.0, 1.6664043130713904E9, 0.0, 2022-10-21 19:05:13.071
22.0, -127450.74211963918, -156183.68609949187, -29071.841129284043, -135531.94827222207, 63065.5363876267, -69350.53400403667, 54188.02698707903, -112539.24519291463, 0.028, 0.96, -0.008, 192.0, 0.0, 0.0, 0.0, 0.0, 0.0, 0.0, 0.0, 0.0, 0.0, 1.6664043130714073E9, 0.0, 2022-10-21 19:05:13.071
23.0, -127454.3854539854, -156186.48006754878, -29070.611783338998, -135539.10083044777, 63069.135018484005, -69350.71281799232, 54185.903571355775, -112534.50662309011, 0.028, 0.96, -0.008, 192.0, 0.0, 0.0, 0.0, 0.0, 0.0, 0.0, 0.0, 0.0, 0.0, 1.6664043130714235E9, 0.0, 2022-10-21 19:05:13.071
24.0, -127449.53512543859, -156184.62487275898, -29075.171539207884, -135543.61588282775, 63066.43045740491, -69347.24829760173, 54181.00853932006, -112534.97600972367, 0.028, 0.96, -0.008, 192.0, 0.0, 0.0, 0.0, 0.0, 0.0, 0.0, 0.0, 0.0, 0.0, 1.66640431307144E9, 0.0, 2022-10-21 19:05:13.071
25.0, -127450.33978823898, -156183.0602506471, -29079.686591587855, -135534.63048155673, 63059.50141662377, -69352.67977150438, 54176.22526600662, -112541.36860863789, 0.028, 0.96, -0.008, 192.0, 0.0, 0.0, 0.0, 0.0, 0.0, 0.0, 0.0, 0.0, 0.0, 1.666404313071457E9, 0.0, 2022-10-21 19:05:13.071
26.0, -127440.59442765647, -156173.7619249537, -29071.170576950382, -135527.76849600894, 63068.777390572715, -69343.24733534425, 54192.318522014444, -112533.63490505636, 0.028, 0.96, -0.008, 192.0, 0.0, 0.0, 0.0, 0.0, 0.0, 0.0, 0.0, 0.0, 0.0, 1.6664043130714736E9, 0.0, 2022-10-21 19:05:13.071
27.0, -127440.43796544528, -156174.8124569431, -29071.32703916157, -135525.4886180745, 63076.24287322079, -69336.81003294111, 54198.33114127292, -112528.67281778727, 0.028, 0.96, -0.008, 192.0, 0.0, 0.0, 0.0, 0.0, 0.0, 0.0, 0.0, 0.0, 0.0, 1.66640431307149E9, 0.0, 2022-10-21 19:05:13.071
28.0, -127449.24455276068, -156183.6637477474, -29073.919841518386, -135535.14457167918, 63071.10197199607, -69348.81291971361, 54185.32242599993, -112528.22578289817, 0.028, 0.96, -0.008, 192.0, 0.0, 0.0, 0.0, 0.0, 0.0, 0.0, 0.0, 0.0, 0.0, 1.6664043130715067E9, 0.0, 2022-10-21 19:05:13.071
29.0, -127458.65463717635, -156192.85031471853, -29082.502911389223, -135533.71406003405, 63065.40227715997, -69348.90232669143, 54184.27189401053, -112536.71944579118, 0.028, 0.96, -0.008, 192.0, 0.0, 0.0, 0.0, 0.0, 0.0, 0.0, 0.0, 0.0, 0.0, 1.6664043130715573E9, 0.0, 2022-10-21 19:05:13.071
30.0, -127454.65367491887, -156189.9669396838, -29082.502911389223, -135532.08238268882, 63062.65301259197, -69330.14921309343, 54195.64893193829, -112536.22770741317, 0.028, 0.962, -0.004, 192.0, 0.0, 224.0, 30.0, 16.0, 255.0, 224.0, 0.0, 0.0, 0.0, 1.666404313071574E9, 0.0, 2022-10-21 19:05:13.071
31.0, -127455.90537260835, -156189.34109083904, -29085.69921084633, -135537.71502229155, 63061.62483234702, -69331.35620729401, 54192.452632481174, -112536.18300392426, 0.028, 0.962, -0.004, 192.0, 0.0, 0.0, 0.0, 0.0, 0.0, 0.0, 0.0, 0.0, 0.0, 1.6664043130715923E9, 0.0, 2022-10-21 19:05:13.071
32.0, -127455.4806894637, -156188.53642803867, -29090.527187648677, -135543.01238572746, 63062.04951549167, -69338.15113760842, 54179.77919337502, -112539.11108244791, 0.028, 0.962, -0.004, 192.0, 0.0, 0.0, 0.0, 0.0, 0.0, 0.0, 0.0, 0.0, 0.0, 1.666404313071638E9, 0.0, 2022-10-21 19:05:13.071
33.0, -127462.07445407803, -156195.75604149772, -29094.595205139543, -135544.82287702835, 63057.24389043378, -69359.56410879662, 54163.06008852245, -112548.20824244121, 0.028, 0.962, -0.004, 192.0, 0.0, 0.0, 0.0, 0.0, 0.0, 0.0, 0.0, 0.0, 0.0, 1.6664043130716803E9, 0.0, 2022-10-21 19:05:13.071
34.0, -127455.41363423034, -156191.1739338844, -29084.559271879112, -135530.67422278813, 63067.302175438665, -69336.45240502982, 54185.72475740013, -112541.43566387125, 0.028, 0.962, -0.004, 192.0, 0.0, 0.0, 0.0, 0.0, 0.0, 0.0, 0.0, 0.0, 0.0, 1.6664043130717235E9, 0.0, 2022-10-21 19:05:13.071
35.0, -127446.36117772594, -156181.38386981297, -29079.70894333231, -135531.12125767724, 63072.711297596856, -69330.73035844926, 54193.05612958147, -112530.05862594351, 0.028, 0.962, -0.004, 192.0, 0.0, 0.0, 0.0, 0.0, 0.0, 0.0, 0.0, 0.0, 0.0, 1.6664043130717654E9, 0.0, 2022-10-21 19:05:13.071
36.0, -127453.73725339619, -156188.13409663847, -29087.912033547407, -135545.82870552884, 63064.19528295938, -69347.60592551302, 54176.67230089573, -112546.08482671795, 0.028, 0.962, -0.004, 192.0, 0.0, 0.0, 0.0, 0.0, 0.0, 0.0, 0.0, 0.0, 0.0, 1.666404313071824E9, 0.0, 2022-10-21 19:05:13.071
37.0, -127443.65661664685, -156179.12634362298, -29081.452379399823, -135536.48567634652, 63071.638413862995, -69347.51651853521, 54178.19221951869, -112543.62613482788, 0.028, 0.962, -0.004, 192.0, 0.0, 0.0, 0.0, 0.0, 0.0, 0.0, 0.0, 0.0, 0.0, 1.666404313071865E9, 0.0, 2022-10-21 19:05:13.071
38.0, -127453.20081152927, -156182.79202971366, -29081.273565444182, -135523.40990584015, 63070.00673651776, -69348.29882959113, 54186.08238531141, -112528.89633523182, 0.028, 0.962, -0.004, 192.0, 0.0, 0.0, 0.0, 0.0, 0.0, 0.0, 0.0, 0.0, 0.0, 1.6664043130719075E9, 0.0, 2022-10-21 19:05:13.071
39.0, -127439.94622706727, -156185.25072160372, -29084.067533501093, -135535.21162691255, 63066.966899271836, -69342.06269288811, 54190.30686501347, -112530.19273641023, 0.022, 0.962, -0.002, 192.0, 0.0, 176.0, 30.0, 16.0, 255.0, 240.0, 0.0, 0.0, 0.0, 1.66640431307195E9, 0.0, 2022-10-21 19:05:13.071
40.0, -127440.70618637875, -156181.9650151688, -29084.76043757921, -135552.2883596764, 63064.84348354858, -69350.10932089202, 54180.360338730854, -112535.04306495703, 0.022, 0.962, -0.002, 192.0, 0.0, 0.0, 0.0, 0.0, 0.0, 0.0, 0.0, 0.0, 0.0, 1.6664043130719943E9, 0.0, 2022-10-21 19:05:13.071
41.0, -127440.4826689342, -156181.83090470207, -29086.36976317999, -135544.86758051725, 63064.2846899372, -69383.01108873023, 54163.99886178957, -112539.98280048167, 0.022, 0.962, -0.002, 192.0, 0.0, 0.0, 0.0, 0.0, 0.0, 0.0, 0.0, 0.0, 0.0, 1.666404313072036E9, 0.0, 2022-10-21 19:05:13.072
42.0, -127446.22706725921, -156184.7142797368, -29091.510664404712, -135537.6926705471, 63059.74728581277, -69381.04413521817, 54172.693690382686, -112541.23449817116, 0.022, 0.962, -0.002, 192.0, 0.0, 0.0, 0.0, 0.0, 0.0, 0.0, 0.0, 0.0, 0.0, 1.6664043130720787E9, 0.0, 2022-10-21 19:05:13.072
43.0, -127441.08616603448, -156179.0145849007, -29086.168597479893, -135535.43514435712, 63060.50724512425, -69362.76040825373, 54188.29520801249, -112534.97600972367, 0.022, 0.962, -0.002, 192.0, 0.0, 0.0, 0.0, 0.0, 0.0, 0.0, 0.0, 0.0, 0.0, 1.66640431307212E9, 0.0, 2022-10-21 19:05:13.072
44.0, -127443.58956141348, -156181.94266342436, -29089.543710892645, -135547.28156891844, 63058.54029161219, -69367.6777920339, 54178.57219917443, -112543.46967261669, 0.022, 0.962, -0.002, 192.0, 0.0, 0.0, 0.0, 0.0, 0.0, 0.0, 0.0, 0.0, 0.0, 1.6664043130721903E9, 0.0, 2022-10-21 19:05:13.072
45.0, -127444.57303816952, -156182.63556750247, -29089.99074578175, -135553.6965195771, 63058.5849951011, -69384.91098700893, 54165.92111181273, -112547.314172663, 0.022, 0.962, -0.002, 192.0, 0.0, 0.0, 0.0, 0.0, 0.0, 0.0, 0.0, 0.0, 0.0, 1.6664043130722053E9, 0.0, 2022-10-21 19:05:13.072
46.0, -127442.11434627943, -156181.45092504632, -29092.5164929052, -135549.44968813058, 63061.66953583593, -69379.34540263956, 54177.164039273746, -112539.5134138481, 0.022, 0.962, -0.002, 192.0, 0.0, 0.0, 0.0, 0.0, 0.0, 0.0, 0.0, 0.0, 0.0, 1.66640431307222E9, 0.0, 2022-10-21 19:05:13.072
47.0, -127437.7334043662, -156176.8017621996, -29090.504835904223, -135545.51578110646, 63064.06117249265, -69369.8235595016, 54187.44584172319, -112538.70875104771, 0.022, 0.962, -0.002, 192.0, 0.0, 0.0, 0.0, 0.0, 0.0, 0.0, 0.0, 0.0, 0.0, 1.666404313072235E9, 0.0, 2022-10-21 19:05:13.072
48.0, -127431.54197115207, -156170.6103289855, -29076.244422941738, -135538.09500194728, 63079.48387616681, -69364.72736176579, 54193.234943537114, -112527.84580324242, 0.022, 0.962, -0.002, 192.0, 0.0, 0.0, 0.0, 0.0, 0.0, 0.0, 0.0, 0.0, 0.0, 1.6664043130722497E9, 0.0, 2022-10-21 19:05:13.072
49.0, -127428.05509901704, -156167.19051208385, -29078.859577043007, -135543.72764155004, 63081.45082967888, -69391.79532430117, 54176.78405961801, -112526.2588293861, 0.022, 0.964, 0.004, 192.0, 0.0, 176.0, 30.0, 32.0, 0.0, 32.0, 0.0, 0.0, 0.0, 1.6664043130722642E9, 0.0, 2022-10-21 19:05:13.072
50.0, -127427.31749145001, -156165.3576690385, -29077.294954931138, -135536.57508332434, 63084.088335524604, -69417.16455425794, 54173.3865944608, -112528.00226545362, 0.022, 0.964, 0.004, 192.0, 0.0, 0.0, 0.0, 0.0, 0.0, 0.0, 0.0, 0.0, 0.0, 1.6664043130722797E9, 0.0, 2022-10-21 19:05:13.072
51.0, -127438.89569507787, -156177.8075907001, -29087.75557133622, -135540.03960371492, 63074.47708540882, -69413.29770246717, 54181.50027769808, -112534.88660274586, 0.022, 0.964, 0.004, 192.0, 0.0, 0.0, 0.0, 0.0, 0.0, 0.0, 0.0, 0.0, 0.0, 1.666404313072294E9, 0.0, 2022-10-21 19:05:13.072
52.0, -127442.40491895736, -156181.3168145796, -29093.23174872777, -135557.31750217886, 63067.14571322748, -69412.44833617787, 54178.259274752054, -112532.9643527227, 0.022, 0.964, 0.004, 192.0, 0.0, 0.0, 0.0, 0.0, 0.0, 0.0, 0.0, 0.0, 0.0, 1.6664043130723083E9, 0.0, 2022-10-21 19:05:13.072
53.0, -127436.99579679916, -156173.06902087558, -29083.933423034363, -135555.6858248336, 63077.69573661039, -69426.46287995134, 54171.93373107121, -112514.43475656924, 0.022, 0.964, 0.004, 192.0, 0.0, 0.0, 0.0, 0.0, 0.0, 0.0, 0.0, 0.0, 0.0, 1.6664043130723233E9, 0.0, 2022-10-21 19:05:13.072
54.0, -127458.47582322072, -156193.94555019683, -29106.46398144531, -135567.12991799472, 63057.802684045164, -69421.00905430426, 54165.47407692362, -112541.63682957135, 0.022, 0.964, 0.004, 192.0, 0.0, 0.0, 0.0, 0.0, 0.0, 0.0, 0.0, 0.0, 0.0, 1.6664043130723395E9, 0.0, 2022-10-21 19:05:13.072
55.0, -127448.97633182722, -156186.6588815044, -29101.27837673168, -135555.41760390016, 63060.21667244634, -69399.50667613825, 54178.259274752054, -112549.28112617508, 0.022, 0.964, 0.004, 192.0, 0.0, 0.0, 0.0, 0.0, 0.0, 0.0, 0.0, 0.0, 0.0, 1.666404313072354E9, 0.0, 2022-10-21 19:05:13.072
56.0, -127429.55266589555, -156167.54813999514, -29080.04421949914, -135541.06778395985, 63082.45665817936, -69400.19958021636, 54187.982283590114, -112536.31711439099, 0.022, 0.964, 0.004, 192.0, 0.0, 0.0, 0.0, 0.0, 0.0, 0.0, 0.0, 0.0, 0.0, 1.6664043130723689E9, 0.0, 2022-10-21 19:05:13.072
57.0, -127437.50988692165, -156174.2983668206, -29085.453341657325, -135560.17852546915, 63075.90759705396, -69429.70388289737, 54165.42937343471, -112543.24615517214, 0.022, 0.964, 0.004, 192.0, 0.0, 0.0, 0.0, 0.0, 0.0, 0.0, 0.0, 0.0, 0.0, 1.666404313072384E9, 0.0, 2022-10-21 19:05:13.072
58.0, -127444.41657595833, -156179.77454421218, -29088.60493762552, -135560.51380163597, 63074.454733664366, -69458.62704022253, 54156.734544841594, -112534.17134692328, 0.022, 0.964, 0.004, 192.0, 0.0, 0.0, 0.0, 0.0, 0.0, 0.0, 0.0, 0.0, 0.0, 1.6664043130723984E9, 0.0, 2022-10-21 19:05:13.072
59.0, -127444.86361084743, -156182.9037884359, -29091.510664404712, -135546.1416299512, 63078.54510289969, -69445.79713890518, 54176.113507284346, -112535.80302426852, 0.024, 0.9560000000000001, 0.0, 192.0, 0.0, 192.0, 29.0, 224.0, 0.0, 0.0, 0.0, 0.0, 0.0, 1.666404313072431E9, 0.0, 2022-10-21 19:05:13.072
60.0, -127449.04338706058, -156184.89309369243, -29092.27062371619, -135538.87731300324, 63085.16121925846, -69421.09846128208, 54190.91036211376, -112533.97018122318, 0.024, 0.9560000000000001, 0.0, 192.0, 0.0, 0.0, 0.0, 0.0, 0.0, 0.0, 0.0, 0.0, 0.0, 1.6664043130724468E9, 0.0, 2022-10-21 19:05:13.072
61.0, -127450.89858185037, -156183.57434076958, -29093.857597572518, -135557.11633647876, 63081.5402366567, -69437.39288299, 54172.827800849416, -112538.28406790306, 0.024, 0.9560000000000001, 0.0, 192.0, 0.0, 0.0, 0.0, 0.0, 0.0, 0.0, 0.0, 0.0, 0.0, 1.6664043130724611E9, 0.0, 2022-10-21 19:05:13.072
62.0, -127451.74794813967, -156184.64722450342, -29092.76236209421, -135555.7975835559, 63085.138867514004, -69449.37341801803, 54167.26221648005, -112539.44635861473, 0.024, 0.9560000000000001, 0.0, 192.0, 0.0, 0.0, 0.0, 0.0, 0.0, 0.0, 0.0, 0.0, 0.0, 1.6664043130724761E9, 0.0, 2022-10-21 19:05:13.072
63.0, -127451.27856150611, -156183.93196868087, -29089.23078647027, -135539.95019673707, 63088.82690534913, -69426.84285960709, 54185.23301902211, -112535.04306495703, 0.024, 0.9560000000000001, 0.0, 192.0, 0.0, 0.0, 0.0, 0.0, 0.0, 0.0, 0.0, 0.0, 0.0, 1.6664043130724912E9, 0.0, 2022-10-21 19:05:13.072
64.0, -127452.01616907313, -156184.7142797368, -29098.395001696947, -135559.53032487995, 63071.794876074186, -69427.49106019629, 54182.66256840975, -112541.63682957135, 0.024, 0.9560000000000001, 0.0, 192.0, 0.0, 0.0, 0.0, 0.0, 0.0, 0.0, 0.0, 0.0, 0.0, 1.6664043130725055E9, 0.0, 2022-10-21 19:05:13.072
65.0, -127446.11530853693, -156178.94752966732, -29090.393077181947, -135562.1901824701, 63082.72487911283, -69440.96916210285, 54175.30884448396, -112536.00418996862, 0.024, 0.9560000000000001, 0.0, 192.0, 0.0, 0.0, 0.0, 0.0, 0.0, 0.0, 0.0, 0.0, 0.0, 1.66640431307252E9, 0.0, 2022-10-21 19:05:13.072
66.0, -127447.65757890434, -156179.34986106752, -29088.023792269683, -135558.90447603518, 63093.5431234292, -69447.40646450597, 54173.90068458327, -112529.11985267638, 0.024, 0.9560000000000001, 0.0, 192.0, 0.0, 0.0, 0.0, 0.0, 0.0, 0.0, 0.0, 0.0, 0.0, 1.666404313072534E9, 0.0, 2022-10-21 19:05:13.072
67.0, -127450.16097428334, -156182.5685122691, -29090.504835904223, -135554.52353412195, 63089.65391989397, -69439.896278369, 54181.67909165372, -112527.21995439767, 0.024, 0.9560000000000001, 0.0, 192.0, 0.0, 0.0, 0.0, 0.0, 0.0, 0.0, 0.0, 0.0, 0.0, 1.6664043130725489E9, 0.0, 2022-10-21 19:05:13.072
68.0, -127454.02782607412, -156187.44119256033, -29093.90230106143, -135554.07649923285, 63088.33516697111, -69422.30545548267, 54195.738338916104, -112524.44833808522, 0.024, 0.9560000000000001, 0.0, 192.0, 0.0, 0.0, 0.0, 0.0, 0.0, 0.0, 0.0, 0.0, 0.0, 1.6664043130725632E9, 0.0, 2022-10-21 19:05:13.072
69.0, -127460.42042498833, -156192.4703350628, -29101.121914520492, -135571.2426389745, 63078.65686162197, -69422.37251071603, 54190.46332722466, -112528.94103872075, 0.034, 0.9580000000000001, -0.004, 192.0, 1.0, 16.0, 29.0, 240.0, 255.0, 224.0, 0.0, 0.0, 0.0, 1.6664043130725777E9, 0.0, 2022-10-21 19:05:13.072
70.0, -127442.76254686863, -156174.9689191543, -29084.402809667925, -135559.32915917985, 63092.693757139896, -69439.71746441335, 54183.26606551005, -112516.13348914785, 0.034, 0.9580000000000001, -0.004, 192.0, 0.0, 0.0, 0.0, 0.0, 0.0, 0.0, 0.0, 0.0, 0.0, 1.6664043130725944E9, 0.0, 2022-10-21 19:05:13.072
71.0, -127449.40101497187, -156183.35082332502, -29093.119990005493, -135558.68095859064, 63085.78706810321, -69451.13920583001, 54177.521667185036, -112530.77388176607, 0.034, 0.9580000000000001, -0.004, 192.0, 0.0, 0.0, 0.0, 0.0, 0.0, 0.0, 0.0, 0.0, 0.0, 1.66640431307261E9, 0.0, 2022-10-21 19:05:13.072
72.0, -127450.67506440582, -156183.12730588048, -29094.908129561918, -135566.68288310562, 63079.8415040781, -69436.3870544895, 54188.38461499031, -112533.94782947873, 0.034, 0.9580000000000001, -0.004, 192.0, 0.0, 0.0, 0.0, 0.0, 0.0, 0.0, 0.0, 0.0, 0.0, 1.6664043130726244E9, 0.0, 2022-10-21 19:05:13.072
73.0, -127436.81698284352, -156169.24687257374, -29083.28522244516, -135553.56240911037, 63096.27003625275, -69450.75922617427, 54186.35060624488, -112519.21802988269, 0.034, 0.9580000000000001, -0.004, 192.0, 0.0, 0.0, 0.0, 0.0, 0.0, 0.0, 0.0, 0.0, 0.0, 1.6664043130726388E9, 0.0, 2022-10-21 19:05:13.072
74.0, -127437.04050028807, -156171.32558480807, -29082.346449178036, -135548.91324626366, 63106.037748579714, -69474.0497438967, 54176.29232123999, -112519.57565779396, 0.034, 0.9580000000000001, -0.004, 192.0, 0.0, 0.0, 0.0, 0.0, 0.0, 0.0, 0.0, 0.0, 0.0, 1.6664043130726671E9, 0.0, 2022-10-21 19:05:13.072
75.0, -127448.21637251573, -156186.6141780155, -29097.52328366319, -135565.0959092493, 63091.777335617226, -69469.17706360544, 54179.734489886105, -112539.55811733702, 0.034, 0.9580000000000001, -0.004, 192.0, 0.0, 0.0, 0.0, 0.0, 0.0, 0.0, 0.0, 0.0, 0.0, 1.666404313072683E9, 0.0, 2022-10-21 19:05:13.072
76.0, -127459.01226508764, -156197.3206636096, -29107.53686517917, -135573.27664771993, 63078.76862034424, -69451.54153723021, 54186.57412368943, -112556.63485010086, 0.034, 0.9580000000000001, -0.004, 192.0, 0.0, 0.0, 0.0, 0.0, 0.0, 0.0, 0.0, 0.0, 0.0, 1.6664043130726976E9, 0.0, 2022-10-21 19:05:13.072
77.0, -127462.09680582248, -156199.3770240995, -29108.654452401934, -135584.8101478589, 63075.080582509116, -69454.96135413187, 54179.309806741454, -112551.80687329851, 0.034, 0.9580000000000001, -0.004, 192.0, 0.0, 0.0, 0.0, 0.0, 0.0, 0.0, 0.0, 0.0, 0.0, 1.6664043130727124E9, 0.0, 2022-10-21 19:05:13.072
78.0, -127445.332997481, -156181.54033202416, -29092.47178941629, -135562.92779003715, 63096.82882986413, -69470.20524385039, 54171.19612350418, -112528.22578289817, 0.042, 0.962, -0.006, 192.0, 1.0, 80.0, 30.0, 16.0, 255.0, 208.0, 0.0, 0.0, 0.0, 1.6664043130727267E9, 0.0, 2022-10-21 19:05:13.072
79.0, -127446.13766028138, -156179.34986106752, -29089.633117870468, -135554.92586552215, 63102.46146946686, -69472.57452876265, 54174.88416133931, -112520.04504442753, 0.042, 0.962, -0.006, 192.0, 0.0, 0.0, 0.0, 0.0, 0.0, 0.0, 0.0, 0.0, 0.0, 1.6664043130727425E9, 0.0, 2022-10-21 19:05:13.072
80.0, -127455.10070980797, -156189.29638735013, -29096.85273132953, -135559.8432493023, 63096.314739741654, -69450.31219128516, 54192.27381852554, -112529.67864628776, 0.042, 0.962, -0.006, 192.0, 0.0, 0.0, 0.0, 0.0, 0.0, 0.0, 0.0, 0.0, 0.0, 1.6664043130727568E9, 0.0, 2022-10-21 19:05:13.072
81.0, -127458.94520985428, -156196.38189034248, -29105.011118055718, -135571.6002668858, 63089.273940238236, -69445.73008367182, 54189.25633302407, -112542.01680922709, 0.042, 0.962, -0.006, 192.0, 0.0, 0.0, 0.0, 0.0, 0.0, 0.0, 0.0, 0.0, 0.0, 1.6664043130727713E9, 0.0, 2022-10-21 19:05:13.072
82.0, -127447.67993064881, -156186.4130123154, -29094.95283305083, -135569.61096162928, 63097.70054789788, -69480.10706664408, 54168.692728125185, -112535.02071321258, 0.042, 0.962, -0.006, 192.0, 0.0, 0.0, 0.0, 0.0, 0.0, 0.0, 0.0, 0.0, 0.0, 1.666404313072786E9, 0.0, 2022-10-21 19:05:13.072
83.0, -127455.65950341935, -156194.43728857487, -29104.85465584453, -135571.2426389745, 63090.97267281684, -69502.0564796992, 54160.71315535464, -112539.06637895899, 0.042, 0.962, -0.006, 192.0, 0.0, 0.0, 0.0, 0.0, 0.0, 0.0, 0.0, 0.0, 0.0, 1.666404313072822E9, 0.0, 2022-10-21 19:05:13.072
84.0, -127470.6351722044, -156209.63647480446, -29118.645682173454, -135569.9462377961, 63078.76862034424, -69480.10706664408, 54174.16890551674, -112548.5658703525, 0.042, 0.962, -0.006, 192.0, 0.0, 0.0, 0.0, 0.0, 0.0, 0.0, 0.0, 0.0, 0.0, 1.6664043130728364E9, 0.0, 2022-10-21 19:05:13.072
85.0, -127469.60699195946, -156211.96105622782, -29115.53878969417, -135569.499202907, 63087.88813208201, -69452.10033084158, 54192.20676329217, -112549.43758838625, 0.042, 0.962, -0.006, 192.0, 0.0, 0.0, 0.0, 0.0, 0.0, 0.0, 0.0, 0.0, 0.0, 1.6664043130728507E9, 0.0, 2022-10-21 19:05:13.072
86.0, -127459.6828174213, -156201.63455028945, -29110.040260558162, -135575.4447669321, 63097.47703045333, -69448.56875521765, 54188.16109754576, -112542.12856794937, 0.042, 0.962, -0.006, 192.0, 0.0, 0.0, 0.0, 0.0, 0.0, 0.0, 0.0, 0.0, 0.0, 1.6664043130728652E9, 0.0, 2022-10-21 19:05:13.072
87.0, -127459.41459648784, -156198.03591943215, -29099.75845810872, -135565.16296448268, 63108.45173698089, -69458.00119137779, 54180.650911408775, -112538.61934406988, 0.042, 0.962, -0.006, 192.0, 0.0, 0.0, 0.0, 0.0, 0.0, 0.0, 0.0, 0.0, 0.0, 1.6664043130728793E9, 0.0, 2022-10-21 19:05:13.072
88.0, -127458.4311197318, -156195.9125037089, -29095.779847595677, -135557.22809520105, 63109.614027692565, -69451.78740641921, 54189.949237102184, -112535.89243124634, 0.048, 0.962, -0.004, 192.0, 1.0, 128.0, 30.0, 16.0, 255.0, 224.0, 0.0, 0.0, 0.0, 1.6664043130728936E9, 0.0, 2022-10-21 19:05:13.072
89.0, -127462.36502675594, -156200.40520434442, -29105.23463550027, -135572.58374364182, 63100.71803339935, -69453.68730469792, 54190.88801036931, -112536.58533532446, 0.048, 0.962, -0.004, 192.0, 0.0, 0.0, 0.0, 0.0, 0.0, 0.0, 0.0, 0.0, 0.0, 1.6664043130729775E9, 0.0, 2022-10-21 19:05:13.072
90.0, -127464.37668375691, -156200.13698341095, -29108.27447274619, -135579.26691523398, 63100.449812465886, -69461.15278734599, 54182.99784457658, -112544.65431507282, 0.048, 0.962, -0.004, 192.0, 0.0, 0.0, 0.0, 0.0, 0.0, 0.0, 0.0, 0.0, 0.0, 1.6664043130729935E9, 0.0, 2022-10-21 19:05:13.072
0.0, 0.0, 0.0, 0.0, 0.0, 0.0, 0.0, 0.0, 0.0, 0.034, 0.964, -0.016, 192.0, 1.0, 16.0, 30.0, 32.0, 255.0, 128.0, 0.0, 0.0, 0.0, 1.6664043131645353E9, 0.0, 2022-10-21 19:05:13.164
1.0, -127765.52173680328, -156577.63559551665, -29390.040563349794, -135811.90387152482, 63540.175681135144, -70256.80783472155, 54447.24016752722, -112533.00905621161, 0.034, 0.964, -0.016, 192.0, 0.0, 0.0, 0.0, 0.0, 0.0, 0.0, 0.0, 0.0, 0.0, 1.666404313646428E9, 0.0, 2022-10-21 19:05:13.646
2.0, -127779.3574666211, -156592.47715383497, -29398.15424658707, -135808.21583368967, 63533.96189617657, -70243.17327060382, 54464.58512122454, -112532.91964923378, 0.034, 0.964, -0.016, 192.0, 0.0, 0.0, 0.0, 0.0, 0.0, 0.0, 0.0, 0.0, 0.0, 1.6664043136465244E9, 0.0, 2022-10-21 19:05:13.646
3.0, -127799.33992616415, -156607.8104505313, -29414.359261317168, -135816.17305471576, 63521.802547192885, -70226.74473842916, 54465.59094972503, -112551.62805934288, 0.034, 0.964, -0.016, 192.0, 0.0, 0.0, 0.0, 0.0, 0.0, 0.0, 0.0, 0.0, 0.0, 1.666404313646559E9, 0.0, 2022-10-21 19:05:13.646
4.0, -127800.166940709, -156607.63163657568, -29405.887950168606, -135811.79211280253, 63531.3467420753, -70218.60870344743, 54461.96996712327, -112560.9710885252, 0.034, 0.964, -0.016, 192.0, 0.0, 0.0, 0.0, 0.0, 0.0, 0.0, 0.0, 0.0, 0.0, 1.6664043136465745E9, 0.0, 2022-10-21 19:05:13.646
5.0, -127826.94433056646, -156641.60628814774, -29424.462249810967, -135838.68126138227, 63510.15728833167, -70252.40454106385, 54432.62212665345, -112570.73880085217, 0.034, 0.964, -0.016, 192.0, 0.0, 0.0, 0.0, 0.0, 0.0, 0.0, 0.0, 0.0, 0.0, 1.6664043136465957E9, 0.0, 2022-10-21 19:05:13.646
6.0, -127816.84134207266, -156633.62671537718, -29414.38161306162, -135829.4499909222, 63518.159212846665, -70251.95750617475, 54443.52977794764, -112555.78548381156, 0.034, 0.964, -0.016, 192.0, 0.0, 0.0, 0.0, 0.0, 0.0, 0.0, 0.0, 0.0, 0.0, 1.6664043136466107E9, 0.0, 2022-10-21 19:05:13.646
7.0, -127821.8704845751, -156632.66559036562, -29409.352470559177, -135820.39753441783, 63525.155308861176, -70238.21118333473, 54458.93012987735, -112545.34721915094, 0.028, 0.9580000000000001, -0.024, 192.0, 0.0, 224.0, 29.0, 240.0, 255.0, 64.0, 0.0, 0.0, 0.0, 1.666404313646628E9, 0.0, 2022-10-21 19:05:13.646
8.0, -127826.96668231091, -156643.41677944863, -29410.470057781942, -135832.22160723468, 63523.47892802703, -70258.01482892214, 54445.40732448189, -112544.43079762827, 0.028, 0.9580000000000001, -0.024, 192.0, 0.0, 0.0, 0.0, 0.0, 0.0, 0.0, 0.0, 0.0, 0.0, 1.6664043136466444E9, 0.0, 2022-10-21 19:05:13.646
9.0, -127829.44772594544, -156646.9260033281, -29412.52641827183, -135834.99322354715, 63520.28262856992, -70277.95258497627, 54434.633783654426, -112550.82339654249, 0.028, 0.9580000000000001, -0.024, 192.0, 0.0, 0.0, 0.0, 0.0, 0.0, 0.0, 0.0, 0.0, 0.0, 1.6664043136466596E9, 0.0, 2022-10-21 19:05:13.646
10.0, -127831.9734730689, -156648.71414288454, -29404.412735034555, -135825.47138040917, 63523.72479721604, -70269.28010812761, 54448.38010649444, -112546.75537905162, 0.028, 0.9580000000000001, -0.024, 192.0, 0.0, 0.0, 0.0, 0.0, 0.0, 0.0, 0.0, 0.0, 0.0, 1.6664043136466753E9, 0.0, 2022-10-21 19:05:13.646
11.0, -127839.46130746143, -156662.0804860688, -29402.646947222587, -135815.68131633775, 63530.609134508275, -70258.0818841555, 54461.545283978616, -112544.49785286163, 0.028, 0.9580000000000001, -0.024, 192.0, 0.0, 0.0, 0.0, 0.0, 0.0, 0.0, 0.0, 0.0, 0.0, 1.6664043136466904E9, 0.0, 2022-10-21 19:05:13.646
12.0, -127851.75476691185, -156671.4235152511, -29406.75966820236, -135830.07583976697, 63526.63052399523, -70248.98472416219, 54460.83002815605, -112550.93515526476, 0.028, 0.9580000000000001, -0.024, 192.0, 0.0, 0.0, 0.0, 0.0, 0.0, 0.0, 0.0, 0.0, 0.0, 1.6664043136467056E9, 0.0, 2022-10-21 19:05:13.646
13.0, -127855.39810125806, -156675.26801529742, -29405.217397834946, -135835.44025843625, 63527.25637283998, -70266.10616041496, 54444.87088261496, -112552.41037039881, 0.028, 0.9580000000000001, -0.024, 192.0, 0.0, 0.0, 0.0, 0.0, 0.0, 0.0, 0.0, 0.0, 0.0, 1.666404313646721E9, 0.0, 2022-10-21 19:05:13.646
14.0, -127863.10945309514, -156685.77333519142, -29404.72565945693, -135827.5053891546, 63532.1961083646, -70257.59014577749, 54456.62790019845, -112540.76511153759, 0.028, 0.9580000000000001, -0.024, 192.0, 0.0, 0.0, 0.0, 0.0, 0.0, 0.0, 0.0, 0.0, 0.0, 1.6664043136467776E9, 0.0, 2022-10-21 19:05:13.646
15.0, -127867.11041535264, -156691.1377538607, -29410.179485104025, -135835.9543485587, 63525.46823328355, -70239.61934323542, 54470.59774048302, -112541.14509119334, 0.028, 0.9580000000000001, -0.024, 192.0, 0.0, 0.0, 0.0, 0.0, 0.0, 0.0, 0.0, 0.0, 0.0, 1.666404313646793E9, 0.0, 2022-10-21 19:05:13.646
16.0, -127875.31350556774, -156696.2339515965, -29417.86848519665, -135846.83964810846, 63521.28845707041, -70241.47453802521, 54462.461705501286, -112555.74078032265, 0.028, 0.9580000000000001, -0.024, 192.0, 0.0, 0.0, 0.0, 0.0, 0.0, 0.0, 0.0, 0.0, 0.0, 1.666404313646808E9, 0.0, 2022-10-21 19:05:13.646
17.0, -127879.89561318107, -156697.485649286, -29415.722717728942, -135838.59185440445, 63525.40117805019, -70257.61249752194, 54447.68720241633, -112567.27428046158, 0.032, 0.9560000000000001, -0.022, 192.0, 1.0, 0.0, 29.0, 224.0, 255.0, 80.0, 0.0, 0.0, 0.0, 1.6664043136468232E9, 0.0, 2022-10-21 19:05:13.646
18.0, -127882.06373239325, -156705.30875984536, -29405.127990857127, -135827.03600252105, 63533.85013745429, -70273.92927097432, 54444.73677214823, -112559.20530071322, 0.032, 0.9560000000000001, -0.022, 192.0, 0.0, 0.0, 0.0, 0.0, 0.0, 0.0, 0.0, 0.0, 0.0, 1.6664043136468396E9, 0.0, 2022-10-21 19:05:13.646
19.0, -127884.88005219461, -156706.62751276823, -29406.893778669095, -135827.1030577544, 63535.705332244084, -70266.6873057708, 54459.1536473219, -112554.35497216642, 0.032, 0.9560000000000001, -0.022, 192.0, 0.0, 0.0, 0.0, 0.0, 0.0, 0.0, 0.0, 0.0, 0.0, 1.6664043136468549E9, 0.0, 2022-10-21 19:05:13.646
20.0, -127895.16185464406, -156714.60708553877, -29418.561389274764, -135842.39165096186, 63526.76463446196, -70257.12075914393, 54462.97579562376, -112561.28401294757, 0.032, 0.9560000000000001, -0.022, 192.0, 0.0, 0.0, 0.0, 0.0, 0.0, 0.0, 0.0, 0.0, 0.0, 1.6664043136468697E9, 0.0, 2022-10-21 19:05:13.646
21.0, -127904.66134603755, -156725.2465158995, -29418.04729915229, -135847.2643312531, 63530.22915485253, -70250.12466312942, 54459.01953685517, -112563.22861471518, 0.032, 0.9560000000000001, -0.022, 192.0, 0.0, 0.0, 0.0, 0.0, 0.0, 0.0, 0.0, 0.0, 0.0, 1.6664043136468935E9, 0.0, 2022-10-21 19:05:13.646
22.0, -127903.63316579262, -156726.3417513778, -29416.214456106958, -135848.6724911538, 63524.931791416624, -70263.37924759141, 54447.284871016134, -112568.50362640663, 0.032, 0.9560000000000001, -0.022, 192.0, 0.0, 0.0, 0.0, 0.0, 0.0, 0.0, 0.0, 0.0, 0.0, 1.6664043136469088E9, 0.0, 2022-10-21 19:05:13.646
23.0, -127897.62054653413, -156725.31357113287, -29406.670261224543, -135833.27213922408, 63532.12905313123, -70251.10813988544, 54467.60260672601, -112557.14894022334, 0.032, 0.9560000000000001, -0.022, 192.0, 0.0, 0.0, 0.0, 0.0, 0.0, 0.0, 0.0, 0.0, 0.0, 1.6664043136469238E9, 0.0, 2022-10-21 19:05:13.646
24.0, -127912.93149148602, -156737.31645790537, -29411.185313604514, -135845.1632672743, 63526.98815190651, -70238.72527345721, 54473.279949817654, -112562.82628331498, 0.032, 0.9560000000000001, -0.022, 192.0, 0.0, 0.0, 0.0, 0.0, 0.0, 0.0, 0.0, 0.0, 0.0, 1.6664043136469388E9, 0.0, 2022-10-21 19:05:13.646
25.0, -127919.3911456336, -156742.7032283191, -29411.565293260253, -135855.78034589058, 63524.90943967217, -70255.66789575433, 54458.326632777054, -112559.9652600247, 0.032, 0.9560000000000001, -0.022, 192.0, 0.0, 0.0, 0.0, 0.0, 0.0, 0.0, 0.0, 0.0, 0.0, 1.6664043136469545E9, 0.0, 2022-10-21 19:05:13.646
26.0, -127922.0957067127, -156744.4019608977, -29412.54877001629, -135851.93584584427, 63526.58582050632, -70275.60565180847, 54449.67650767285, -112549.88462327536, 0.032, 0.9560000000000001, -0.022, 192.0, 0.0, 0.0, 0.0, 0.0, 0.0, 0.0, 0.0, 0.0, 0.0, 1.6664043136469698E9, 0.0, 2022-10-21 19:05:13.646
27.0, -127932.75748881788, -156753.7002865911, -29415.052165395282, -135847.19727601972, 63523.92596291614, -70278.22080590973, 54452.49282747422, -112548.85644303042, 0.03, 0.96, -0.012, 192.0, 0.0, 240.0, 30.0, 0.0, 255.0, 160.0, 0.0, 0.0, 0.0, 1.6664043136469867E9, 0.0, 2022-10-21 19:05:13.646
28.0, -127942.56990463375, -156760.0034785275, -29422.271778854345, -135856.94263660224, 63517.175736090634, -70269.54832906107, 54454.146856563915, -112575.81264684352, 0.03, 0.96, -0.012, 192.0, 0.0, 0.0, 0.0, 0.0, 0.0, 0.0, 0.0, 0.0, 0.0, 1.6664043136470027E9, 0.0, 2022-10-21 19:05:13.647
29.0, -127929.40472714958, -156747.3970946547, -29410.939444415504, -135858.2166860362, 63526.58582050632, -70278.44432335428, 54447.977775094245, -112575.56677765452, 0.03, 0.96, -0.012, 192.0, 0.0, 0.0, 0.0, 0.0, 0.0, 0.0, 0.0, 0.0, 0.0, 1.6664043136470342E9, 0.0, 2022-10-21 19:05:13.647
30.0, -127931.14816321709, -156742.81498704138, -29395.06970585224, -135847.9572353312, 63540.108625901776, -70292.68238457231, 54451.24112978472, -112549.88462327536, 0.03, 0.96, -0.012, 192.0, 0.0, 0.0, 0.0, 0.0, 0.0, 0.0, 0.0, 0.0, 0.0, 1.6664043136470494E9, 0.0, 2022-10-21 19:05:13.647
31.0, -127936.26671269737, -156750.68280108963, -29394.712077940952, -135829.71821185568, 63544.75778874848, -70298.60559685297, 54460.83002815605, -112544.27433541708, 0.03, 0.96, -0.012, 192.0, 0.0, 0.0, 0.0, 0.0, 0.0, 0.0, 0.0, 0.0, 0.0, 1.6664043136470647E9, 0.0, 2022-10-21 19:05:13.647
32.0, -127945.34152094621, -156758.97529828254, -29404.47979026792, -135841.47522943918, 63536.06296015537, -70270.084770928, 54478.21968534228, -112559.02648675759, 0.03, 0.96, -0.012, 192.0, 0.0, 0.0, 0.0, 0.0, 0.0, 0.0, 0.0, 0.0, 0.0, 1.6664043136470797E9, 0.0, 2022-10-21 19:05:13.647
33.0, -127954.08105302825, -156765.07732451885, -29409.464229281453, -135847.1078690419, 63536.62175376675, -70275.69505878628, 54470.59774048302, -112562.17808272578, 0.03, 0.96, -0.012, 192.0, 0.0, 0.0, 0.0, 0.0, 0.0, 0.0, 0.0, 0.0, 0.0, 1.6664043136470952E9, 0.0, 2022-10-21 19:05:13.647
34.0, -127965.99453282292, -156778.28720549194, -29420.215418364456, -135861.99413084914, 63523.970666405046, -70309.17797198033, 54441.02638256865, -112574.49389392066, 0.03, 0.96, -0.012, 192.0, 0.0, 0.0, 0.0, 0.0, 0.0, 0.0, 0.0, 0.0, 0.0, 1.6664043136471105E9, 0.0, 2022-10-21 19:05:13.647
35.0, -127965.94982933401, -156778.24250200304, -29413.174618861034, -135855.48977321264, 63528.03868389591, -70317.33635870653, 54445.2508622707, -112574.35978345393, 0.03, 0.96, -0.012, 192.0, 0.0, 0.0, 0.0, 0.0, 0.0, 0.0, 0.0, 0.0, 0.0, 1.6664043136471255E9, 0.0, 2022-10-21 19:05:13.647
36.0, -127968.67674215755, -156779.36008922578, -29408.793676947796, -135848.44897370922, 63534.14071013221, -70299.7902393091, 54465.322728791565, -112560.94873678075, 0.028, 0.964, -0.018000000000000002, 192.0, 0.0, 224.0, 30.0, 32.0, 255.0, 112.0, 0.0, 0.0, 0.0, 1.6664043136471407E9, 0.0, 2022-10-21 19:05:13.647
37.0, -127981.73016091945, -156793.508743466, -29415.81212470676, -135858.70842441422, 63530.02798915243, -70286.87093101394, 54467.24497881472, -112567.67661186178, 0.028, 0.964, -0.018000000000000002, 192.0, 0.0, 0.0, 0.0, 0.0, 0.0, 0.0, 0.0, 0.0, 0.0, 1.666404313647157E9, 0.0, 2022-10-21 19:05:13.647
38.0, -127981.93132661955, -156795.74391791152, -29415.923883429037, -135857.5237819581, 63535.95120143309, -70298.44913464179, 54456.15851356489, -112553.25973668811, 0.028, 0.964, -0.018000000000000002, 192.0, 0.0, 0.0, 0.0, 0.0, 0.0, 0.0, 0.0, 0.0, 0.0, 1.6664043136471717E9, 0.0, 2022-10-21 19:05:13.647
39.0, -127987.42985575556, -156793.97813009957, -29411.364127560155, -135846.39261321933, 63540.28743985742, -70308.50741964667, 54459.175999066356, -112544.3637423949, 0.028, 0.964, -0.018000000000000002, 192.0, 0.0, 0.0, 0.0, 0.0, 0.0, 0.0, 0.0, 0.0, 0.0, 1.6664043136471868E9, 0.0, 2022-10-21 19:05:13.647
40.0, -127989.9108993901, -156797.8673336348, -29411.96762466045, -135839.68708988276, 63539.9968671795, -70283.27230015663, 54479.49373477623, -112563.09450424845, 0.028, 0.964, -0.018000000000000002, 192.0, 0.0, 0.0, 0.0, 0.0, 0.0, 0.0, 0.0, 0.0, 0.0, 1.6664043136472037E9, 0.0, 2022-10-21 19:05:13.647
41.0, -127983.98768710945, -156791.47473472057, -29410.06772638175, -135846.14674403032, 63539.39337007921, -70271.76115176216, 54483.76291796719, -112557.97595476819, 0.028, 0.964, -0.018000000000000002, 192.0, 0.0, 0.0, 0.0, 0.0, 0.0, 0.0, 0.0, 0.0, 0.0, 1.6664043136472187E9, 0.0, 2022-10-21 19:05:13.647
42.0, -127989.24034705645, -156792.07823182087, -29409.01719439235, -135854.6180551789, 63537.873451456246, -70301.26545444316, 54463.91456889088, -112547.314172663, 0.028, 0.964, -0.018000000000000002, 192.0, 0.0, 0.0, 0.0, 0.0, 0.0, 0.0, 0.0, 0.0, 0.0, 1.6664043136472342E9, 0.0, 2022-10-21 19:05:13.647
43.0, -128007.63583274315, -156806.5621622279, -29413.800467705783, -135851.08647955497, 63536.37588457774, -70302.36068992146, 54463.847513657514, -112552.6115360989, 0.028, 0.964, -0.018000000000000002, 192.0, 0.0, 0.0, 0.0, 0.0, 0.0, 0.0, 0.0, 0.0, 0.0, 1.6664043136472495E9, 0.0, 2022-10-21 19:05:13.647
44.0, -128008.55225426583, -156807.8138599174, -29411.63234849362, -135844.068031796, 63537.98521017852, -70283.22759666773, 54481.058356888105, -112554.2655651886, 0.028, 0.964, -0.018000000000000002, 192.0, 0.0, 0.0, 0.0, 0.0, 0.0, 0.0, 0.0, 0.0, 0.0, 1.6664043136472836E9, 0.0, 2022-10-21 19:05:13.647
45.0, -128011.79325721184, -156812.35126404182, -29412.280549082825, -135849.38774697637, 63537.76169273397, -70267.15669240436, 54491.5636767821, -112557.05953324551, 0.028, 0.964, -0.018000000000000002, 192.0, 0.0, 0.0, 0.0, 0.0, 0.0, 0.0, 0.0, 0.0, 0.0, 1.6664043136472988E9, 0.0, 2022-10-21 19:05:13.647
46.0, -128016.8671032032, -156815.3240460544, -29410.782982204317, -135857.68024416929, 63536.15236713319, -70274.59982330797, 54479.69490047633, -112558.40063791284, 0.022, 0.962, -0.02, 192.0, 0.0, 176.0, 30.0, 16.0, 255.0, 96.0, 0.0, 0.0, 0.0, 1.666404313647314E9, 0.0, 2022-10-21 19:05:13.647
47.0, -128014.92250143559, -156812.77594718648, -29406.089115868705, -135851.48881095514, 63538.52165204545, -70295.05166948459, 54469.32369104907, -112551.62805934288, 0.022, 0.962, -0.02, 192.0, 0.0, 0.0, 0.0, 0.0, 0.0, 0.0, 0.0, 0.0, 0.0, 1.6664043136473303E9, 0.0, 2022-10-21 19:05:13.647
48.0, -128013.38023106816, -156809.9149238962, -29401.171732088536, -135832.08749676796, 63544.08723641482, -70268.90012847187, 54494.49175530574, -112540.85451851542, 0.022, 0.962, -0.02, 192.0, 0.0, 0.0, 0.0, 0.0, 0.0, 0.0, 0.0, 0.0, 0.0, 1.6664043136473467E9, 0.0, 2022-10-21 19:05:13.647
49.0, -128022.00800442792, -156813.84883092032, -29404.748011201384, -135845.83381960797, 63536.24177411101, -70263.91568945834, 54496.03402567316, -112546.39775114034, 0.022, 0.962, -0.02, 192.0, 0.0, 0.0, 0.0, 0.0, 0.0, 0.0, 0.0, 0.0, 0.0, 1.6664043136473615E9, 0.0, 2022-10-21 19:05:13.647
50.0, -128029.67465277608, -156822.18603160215, -29407.050240880282, -135852.6734534113, 63539.1475008902, -70286.31213740255, 54481.684205732854, -112556.29957393404, 0.022, 0.962, -0.02, 192.0, 0.0, 0.0, 0.0, 0.0, 0.0, 0.0, 0.0, 0.0, 0.0, 1.6664043136473768E9, 0.0, 2022-10-21 19:05:13.647
51.0, -128025.78544924087, -156819.6155809898, -29405.86559842415, -135853.05343306702, 63542.45555906958, -70296.10220147399, 54476.31978706358, -112552.23155644316, 0.022, 0.962, -0.02, 192.0, 0.0, 0.0, 0.0, 0.0, 0.0, 0.0, 0.0, 0.0, 0.0, 1.666404313647392E9, 0.0, 2022-10-21 19:05:13.647
52.0, -128025.60663528522, -156818.7662147005, -29403.608072234165, -135845.8561713524, 63541.11445440227, -70281.30534664457, 54488.47913604727, -112547.98472499666, 0.022, 0.962, -0.02, 192.0, 0.0, 0.0, 0.0, 0.0, 0.0, 0.0, 0.0, 0.0, 0.0, 1.6664043136474068E9, 0.0, 2022-10-21 19:05:13.647
53.0, -128044.35974888323, -156835.68648525316, -29413.48754328341, -135858.50725871412, 63531.234983353024, -70269.74949476117, 54490.624903514974, -112567.14016999486, 0.022, 0.962, -0.02, 192.0, 0.0, 0.0, 0.0, 0.0, 0.0, 0.0, 0.0, 0.0, 0.0, 1.666404313647422E9, 0.0, 2022-10-21 19:05:13.647
54.0, -128038.52594358039, -156827.8633746938, -29403.853941423175, -135862.3741105049, 63537.42641656714, -70282.2888234006, 54483.80762145611, -112560.50170189163, 0.022, 0.962, -0.02, 192.0, 0.0, 0.0, 0.0, 0.0, 0.0, 0.0, 0.0, 0.0, 0.0, 1.6664043136474369E9, 0.0, 2022-10-21 19:05:13.647
55.0, -128038.66005404713, -156829.42799680567, -29396.835493664206, -135860.4295087373, 63540.28743985742, -70307.32277719055, 54471.961196894794, -112554.35497216642, 0.022, 0.962, -0.02, 192.0, 0.0, 0.0, 0.0, 0.0, 0.0, 0.0, 0.0, 0.0, 0.0, 1.6664043136474519E9, 0.0, 2022-10-21 19:05:13.647
56.0, -128041.90105699314, -156830.14325262824, -29397.34958378668, -135854.327482501, 63537.42641656714, -70319.28096047413, 54472.49763876172, -112554.53378612206, 0.022, 0.962, -0.026000000000000002, 192.0, 0.0, 176.0, 30.0, 16.0, 255.0, 48.0, 0.0, 0.0, 0.0, 1.6664043136474667E9, 0.0, 2022-10-21 19:05:13.647
57.0, -128034.23440864497, -156821.2696100795, -29392.856883151162, -135852.20406677772, 63537.158195633674, -70288.01086998115, 54494.02236867218, -112554.73495182216, 0.022, 0.962, -0.026000000000000002, 192.0, 0.0, 0.0, 0.0, 0.0, 0.0, 0.0, 0.0, 0.0, 0.0, 1.6664043136474829E9, 0.0, 2022-10-21 19:05:13.647
58.0, -128039.2188476585, -156820.55435425692, -29391.1357988281, -135853.47811621169, 63542.61202128077, -70301.37721316543, 54486.288665090644, -112546.15188195133, 0.022, 0.962, -0.026000000000000002, 192.0, 0.0, 0.0, 0.0, 0.0, 0.0, 0.0, 0.0, 0.0, 0.0, 1.6664043136474974E9, 0.0, 2022-10-21 19:05:13.647
59.0, -128051.04292047536, -156829.24918285004, -29396.611976219654, -135856.7191191577, 63547.21648063856, -70313.82713482704, 54479.650196987415, -112540.1616144373, 0.022, 0.962, -0.026000000000000002, 192.0, 0.0, 0.0, 0.0, 0.0, 0.0, 0.0, 0.0, 0.0, 0.0, 1.6664043136475267E9, 0.0, 2022-10-21 19:05:13.647
60.0, -128049.61240883022, -156828.6233340053, -29387.224243548426, -135843.2633689956, 63554.32433537536, -70321.96316980878, 54483.40529005591, -112537.41234986931, 0.022, 0.962, -0.026000000000000002, 192.0, 0.0, 0.0, 0.0, 0.0, 0.0, 0.0, 0.0, 0.0, 0.0, 1.6664043136475415E9, 0.0, 2022-10-21 19:05:13.647
61.0, -128039.68823429207, -156814.85465942082, -29375.467225964934, -135831.43929617875, 63563.77912327995, -70305.57934112303, 54508.34983686803, -112515.88761995884, 0.022, 0.962, -0.026000000000000002, 192.0, 0.0, 0.0, 0.0, 0.0, 0.0, 0.0, 0.0, 0.0, 0.0, 1.6664043136475568E9, 0.0, 2022-10-21 19:05:13.647
62.0, -128048.83009777429, -156822.40954904672, -29388.699458682473, -135848.3595667314, 63553.72083827506, -70287.49677985869, 54511.79200551415, -112534.23840215665, 0.022, 0.962, -0.026000000000000002, 192.0, 0.0, 0.0, 0.0, 0.0, 0.0, 0.0, 0.0, 0.0, 0.0, 1.666404313647572E9, 0.0, 2022-10-21 19:05:13.647
63.0, -128048.96420824101, -156823.59419150284, -29384.787903402797, -135848.42662196478, 63559.50994008898, -70300.57255036505, 54498.58212454106, -112540.94392549324, 0.022, 0.962, -0.026000000000000002, 192.0, 0.0, 0.0, 0.0, 0.0, 0.0, 0.0, 0.0, 0.0, 0.0, 1.6664043136475868E9, 0.0, 2022-10-21 19:05:13.647
64.0, -128051.86993502021, -156821.2696100795, -29388.565348215743, -135846.12439228588, 63557.99002146602, -70311.86018131497, 54494.759976239206, -112541.83799527145, 0.022, 0.962, -0.026000000000000002, 192.0, 0.0, 0.0, 0.0, 0.0, 0.0, 0.0, 0.0, 0.0, 0.0, 1.6664043136476016E9, 0.0, 2022-10-21 19:05:13.647
65.0, -128051.55701059784, -156820.2190780901, -29394.82383666323, -135846.88435159737, 63549.58576555083, -70272.90109072937, 54516.66468580541, -112545.4589778732, 0.022, 0.962, -0.026000000000000002, 192.0, 0.0, 0.0, 0.0, 0.0, 0.0, 0.0, 0.0, 0.0, 0.0, 1.6664043136476166E9, 0.0, 2022-10-21 19:05:13.647
66.0, -128045.65615006164, -156814.04999662042, -29389.213548804946, -135844.7162323852, 63553.13969291922, -70260.25000336766, 54520.4197788739, -112538.17230918078, 0.022, 0.9580000000000001, -0.026000000000000002, 192.0, 0.0, 176.0, 29.0, 240.0, 255.0, 48.0, 0.0, 0.0, 0.0, 1.6664043136476316E9, 0.0, 2022-10-21 19:05:13.647
67.0, -128049.36653964121, -156812.08304310837, -29392.409848262054, -135845.90087484132, 63552.066809185366, -70286.9379862473, 54496.97279894028, -112543.40261738333, 0.022, 0.9580000000000001, -0.026000000000000002, 192.0, 0.0, 0.0, 0.0, 0.0, 0.0, 0.0, 0.0, 0.0, 0.0, 1.6664043136476476E9, 0.0, 2022-10-21 19:05:13.647
68.0, -128065.34803692676, -156830.769101473, -29406.983185646917, -135861.43533723775, 63536.24177411101, -70314.2965214606, 54478.465554531285, -112553.84088204395, 0.022, 0.9580000000000001, -0.026000000000000002, 192.0, 0.0, 0.0, 0.0, 0.0, 0.0, 0.0, 0.0, 0.0, 0.0, 1.6664043136476624E9, 0.0, 2022-10-21 19:05:13.647
69.0, -128061.21296420252, -156825.62820024826, -29400.970566388438, -135856.8755813689, 63538.208727623074, -70287.89911125888, 54500.50437456422, -112547.89531801884, 0.022, 0.9580000000000001, -0.026000000000000002, 192.0, 0.0, 0.0, 0.0, 0.0, 0.0, 0.0, 0.0, 0.0, 0.0, 1.6664043136476786E9, 0.0, 2022-10-21 19:05:13.647
70.0, -128074.24403121998, -156833.63012476327, -29412.191142105003, -135861.9717791047, 63532.82195720935, -70284.14401819039, 54501.01846468669, -112551.53865236505, 0.022, 0.9580000000000001, -0.026000000000000002, 192.0, 0.0, 0.0, 0.0, 0.0, 0.0, 0.0, 0.0, 0.0, 0.0, 1.6664043136476936E9, 0.0, 2022-10-21 19:05:13.647
71.0, -128067.47145265002, -156828.6680374942, -29409.151304859082, -135859.3119215145, 63538.789872978916, -70302.2936346881, 54490.73666223725, -112544.58725983945, 0.022, 0.9580000000000001, -0.026000000000000002, 192.0, 0.0, 0.0, 0.0, 0.0, 0.0, 0.0, 0.0, 0.0, 0.0, 1.6664043136477087E9, 0.0, 2022-10-21 19:05:13.647
72.0, -128054.41803388811, -156814.273514065, -29400.523531499333, -135854.9086278568, 63544.69073351512, -70307.83686731302, 54494.5141070502, -112530.50566083261, 0.022, 0.9580000000000001, -0.026000000000000002, 192.0, 0.0, 0.0, 0.0, 0.0, 0.0, 0.0, 0.0, 0.0, 0.0, 1.6664043136477237E9, 0.0, 2022-10-21 19:05:13.647
73.0, -128046.39375762866, -156803.38821451526, -29388.185368560004, -135836.04375553655, 63557.63239355474, -70303.90296028888, 54509.19920315733, -112516.53582054804, 0.022, 0.9580000000000001, -0.026000000000000002, 192.0, 0.0, 0.0, 0.0, 0.0, 0.0, 0.0, 0.0, 0.0, 0.0, 1.6664043136477385E9, 0.0, 2022-10-21 19:05:13.647
74.0, -128056.6308565892, -156813.2676855645, -29390.35348777217, -135843.33042422897, 63554.52550107545, -70301.46662014326, 54511.680246791875, -112529.11985267638, 0.022, 0.9580000000000001, -0.026000000000000002, 192.0, 0.0, 0.0, 0.0, 0.0, 0.0, 0.0, 0.0, 0.0, 0.0, 1.6664043136477678E9, 0.0, 2022-10-21 19:05:13.647
75.0, -128061.19061245807, -156816.15106059922, -29391.940461628496, -135854.10396505642, 63553.40791385269, -70297.35389916347, 54509.288610135154, -112538.4628818587, 0.024, 0.96, -0.02, 192.0, 0.0, 192.0, 30.0, 0.0, 255.0, 96.0, 0.0, 0.0, 0.0, 1.6664043136477828E9, 0.0, 2022-10-21 19:05:13.647
76.0, -128064.56572587082, -156822.4766042801, -29394.220339562937, -135855.69093891274, 63551.68682952963, -70312.26251271517, 54498.380958840964, -112537.83703301396, 0.024, 0.96, -0.02, 192.0, 0.0, 0.0, 0.0, 0.0, 0.0, 0.0, 0.0, 0.0, 0.0, 1.6664043136477988E9, 0.0, 2022-10-21 19:05:13.647
77.0, -128070.7795108294, -156830.70204623963, -29400.300014054777, -135852.24877026663, 63548.423474839154, -70298.33737591951, 54510.94263922485, -112530.77388176607, 0.024, 0.96, -0.02, 192.0, 0.0, 0.0, 0.0, 0.0, 0.0, 0.0, 0.0, 0.0, 0.0, 1.6664043136478136E9, 0.0, 2022-10-21 19:05:13.647
78.0, -128067.18087997209, -156826.61167700432, -29396.76843843084, -135854.819220879, 63549.272841128455, -70293.82232353954, 54516.843499761046, -112528.18107940926, 0.024, 0.96, -0.02, 192.0, 0.0, 0.0, 0.0, 0.0, 0.0, 0.0, 0.0, 0.0, 0.0, 1.6664043136478288E9, 0.0, 2022-10-21 19:05:13.647
79.0, -128069.95249628455, -156828.75744447202, -29397.550749486778, -135861.99413084914, 63547.9987916945, -70301.01958525415, 54507.83574674556, -112542.84382377194, 0.024, 0.96, -0.02, 192.0, 0.0, 0.0, 0.0, 0.0, 0.0, 0.0, 0.0, 0.0, 0.0, 1.6664043136478436E9, 0.0, 2022-10-21 19:05:13.647
80.0, -128074.86988006473, -156833.80893871892, -29400.121200099136, -135867.1797355628, 63545.58480329333, -70325.11476577696, 54488.43443255835, -112551.04691398704, 0.024, 0.96, -0.02, 192.0, 0.0, 0.0, 0.0, 0.0, 0.0, 0.0, 0.0, 0.0, 0.0, 1.6664043136478584E9, 0.0, 2022-10-21 19:05:13.647
81.0, -128084.36937145823, -156846.10239816934, -29410.693575226498, -135871.94065713175, 63533.91719268766, -70333.2060972698, 54487.8085837136, -112550.5104721201, 0.024, 0.96, -0.02, 192.0, 0.0, 0.0, 0.0, 0.0, 0.0, 0.0, 0.0, 0.0, 0.0, 1.666404313647879E9, 0.0, 2022-10-21 19:05:13.647
82.0, -128075.227507976, -156834.50184279704, -29401.283490810813, -135862.79879364953, 63541.33797184682, -70295.38694565141, 54517.60345907253, -112546.04012322905, 0.024, 0.96, -0.02, 192.0, 0.0, 0.0, 0.0, 0.0, 0.0, 0.0, 0.0, 0.0, 0.0, 1.6664043136478937E9, 0.0, 2022-10-21 19:05:13.647
83.0, -128078.42380743311, -156840.64857252224, -29402.57989198922, -135872.41004376533, 63538.40989332317, -70288.10027695898, 54515.994133471744, -112552.47742563218, 0.024, 0.96, -0.02, 192.0, 0.0, 0.0, 0.0, 0.0, 0.0, 0.0, 0.0, 0.0, 0.0, 1.6664043136479087E9, 0.0, 2022-10-21 19:05:13.647
84.0, -128082.44712143506, -156838.48045331007, -29397.036659364305, -135872.54415423205, 63545.361285848776, -70313.60361738248, 54498.76093849671, -112536.83120451347, 0.024, 0.96, -0.02, 192.0, 0.0, 0.0, 0.0, 0.0, 0.0, 0.0, 0.0, 0.0, 0.0, 1.6664043136479237E9, 0.0, 2022-10-21 19:05:13.647
85.0, -128090.1361215277, -156845.27538362448, -29401.529359999822, -135869.30315128603, 63540.82388172435, -70305.08760274501, 54505.868793233494, -112534.26075390111, 0.026000000000000002, 0.9580000000000001, -0.024, 192.0, 0.0, 208.0, 29.0, 240.0, 255.0, 64.0, 0.0, 0.0, 0.0, 1.6664043136479387E9, 0.0, 2022-10-21 19:05:13.647
86.0, -128086.82806334831, -156844.0683894239, -29403.406906534066, -135867.29149428505, 63537.13584388922, -70284.03225946812, 54518.944563739846, -112529.94686722122, 0.026000000000000002, 0.9580000000000001, -0.024, 192.0, 0.0, 0.0, 0.0, 0.0, 0.0, 0.0, 0.0, 0.0, 0.0, 1.666404313647955E9, 0.0, 2022-10-21 19:05:13.647
87.0, -128075.94276379858, -156835.39591257524, -29395.71790644144, -135863.3799390054, 63542.38850383622, -70292.86119852796, 54511.97081946979, -112539.55811733702, 0.026000000000000002, 0.9580000000000001, -0.024, 192.0, 0.0, 0.0, 0.0, 0.0, 0.0, 0.0, 0.0, 0.0, 0.0, 1.6664043136479702E9, 0.0, 2022-10-21 19:05:13.647
88.0, -128071.29360095187, -156831.70787474012, -29393.303918040267, -135861.2118197932, 63544.46721607056, -70312.37427143744, 54498.55977279661, -112543.82730052798, 0.026000000000000002, 0.9580000000000001, -0.024, 192.0, 0.0, 0.0, 0.0, 0.0, 0.0, 0.0, 0.0, 0.0, 0.0, 1.6664043136479852E9, 0.0, 2022-10-21 19:05:13.647
89.0, -128076.43450217659, -156838.92748819917, -29398.75774368736, -135861.9717791047, 63544.4001608372, -70320.599713397, 54498.09038616304, -112551.7621698096, 0.026000000000000002, 0.9580000000000001, -0.024, 192.0, 0.0, 0.0, 0.0, 0.0, 0.0, 0.0, 0.0, 0.0, 0.0, 1.6664043136480148E9, 0.0, 2022-10-21 19:05:13.648
90.0, -128074.75812134244, -156841.09560741135, -29401.507008255365, -135861.54709596004, 63543.43903582562, -70306.0487277566, 54513.87071774849, -112548.27529767458, 0.026000000000000002, 0.9580000000000001, -0.024, 192.0, 0.0, 0.0, 0.0, 0.0, 0.0, 0.0, 0.0, 0.0, 0.0, 1.66640431364803E9, 0.0, 2022-10-21 19:05:13.648
91.0, -128075.49572890947, -156840.76033124453, -29406.424392035533, -135878.06503511252, 63536.71116074457, -70301.1983992098, 54514.76478752671, -112548.02942848558, 0.026000000000000002, 0.9580000000000001, -0.024, 192.0, 0.0, 0.0, 0.0, 0.0, 0.0, 0.0, 0.0, 0.0, 0.0, 1.666404313648046E9, 0.0, 2022-10-21 19:05:13.648
92.0, -128072.38883643018, -156836.15587188673, -29401.01526987735, -135874.3769972774, 63541.80735848038, -70318.67746337384, 54499.45384257482, -112547.89531801884, 0.026000000000000002, 0.9580000000000001, -0.024, 192.0, 0.0, 0.0, 0.0, 0.0, 0.0, 0.0, 0.0, 0.0, 0.0, 1.6664043136480625E9, 0.0, 2022-10-21 19:05:13.648
93.0, -128068.03024626139, -156834.01010441902, -29397.34958378668, -135863.11171807192, 63546.63533528273, -70326.38881521093, 54498.89504896344, -112545.36957089539, 0.026000000000000002, 0.9580000000000001, -0.024, 192.0, 0.0, 0.0, 0.0, 0.0, 0.0, 0.0, 0.0, 0.0, 0.0, 1.6664043136480775E9, 0.0, 2022-10-21 19:05:13.648
94.0, -128065.41509216012, -156830.21030786162, -29398.15424658707, -135854.2604272676, 63544.35545734828, -70303.72414633325, 54517.71521779481, -112551.24807968714, 0.026000000000000002, 0.9580000000000001, -0.024, 192.0, 0.0, 0.0, 0.0, 0.0, 0.0, 0.0, 0.0, 0.0, 0.0, 1.6664043136480925E9, 0.0, 2022-10-21 19:05:13.648
95.0, -128064.0292840039, -156826.90224968223, -29399.40594427657, -135858.23903778064, 63541.62854452474, -70283.67463155683, 54525.717142309804, -112551.62805934288, 0.028, 0.9580000000000001, -0.018000000000000002, 192.0, 0.0, 224.0, 29.0, 240.0, 255.0, 112.0, 0.0, 0.0, 0.0, 1.6664043136481075E9, 0.0, 2022-10-21 19:05:13.648
96.0, -128052.92046700961, -156825.1141101258, -29405.642080979596, -135877.72975894567, 63533.470157798554, -70308.01568126866, 54504.25946763271, -112544.02846622808, 0.028, 0.9580000000000001, -0.018000000000000002, 192.0, 0.0, 0.0, 0.0, 0.0, 0.0, 0.0, 0.0, 0.0, 0.0, 1.6664043136481247E9, 0.0, 2022-10-21 19:05:13.648
97.0, -128047.98073148499, -156815.34639779883, -29410.358299059666, -135885.88814567187, 63526.04937863939, -70321.82905934204, 54493.24005761625, -112556.94777452324, 0.028, 0.9580000000000001, -0.018000000000000002, 192.0, 0.0, 0.0, 0.0, 0.0, 0.0, 0.0, 0.0, 0.0, 0.0, 1.6664043136481397E9, 0.0, 2022-10-21 19:05:13.648
98.0, -128034.18970515607, -156798.2473132905, -29404.211569334457, -135877.50624150113, 63526.85404143978, -70312.75425109318, 54502.113700165, -112562.08867574796, 0.028, 0.9580000000000001, -0.018000000000000002, 192.0, 0.0, 0.0, 0.0, 0.0, 0.0, 0.0, 0.0, 0.0, 0.0, 1.6664043136481545E9, 0.0, 2022-10-21 19:05:13.648
99.0, -128019.6163677712, -156781.9528915826, -29400.702345454974, -135873.59468622145, 63530.34091357481, -70308.10508824648, 54506.9640287118, -112562.13337923687, 0.028, 0.9580000000000001, -0.018000000000000002, 192.0, 0.0, 0.0, 0.0, 0.0, 0.0, 0.0, 0.0, 0.0, 0.0, 1.6664043136481695E9, 0.0, 2022-10-21 19:05:13.648
100.0, -128010.02746939988, -156773.92861532315, -29411.58764500471, -135888.05626488404, 63524.08242512732, -70320.97969305274, 54491.98835992675, -112561.86515830341, 0.028, 0.9580000000000001, -0.018000000000000002, 192.0, 0.0, 0.0, 0.0, 0.0, 0.0, 0.0, 0.0, 0.0, 0.0, 1.6664043136481843E9, 0.0, 2022-10-21 19:05:13.648
101.0, -127981.86427138619, -156758.46120816006, -29409.643043237098, -135887.87745092838, 63523.3448175603, -70331.90969609139, 54483.1594208669, -112556.45603614522, 0.028, 0.9580000000000001, -0.018000000000000002, 192.0, 0.0, 0.0, 0.0, 0.0, 0.0, 0.0, 0.0, 0.0, 0.0, 1.6664043136481996E9, 0.0, 2022-10-21 19:05:13.648
102.0, -127975.6504864276, -156737.51762360547, -29405.10563911267, -135876.09808160044, 63524.57416350534, -70312.26251271517, 54500.05733967511, -112557.28305069006, 0.028, 0.9580000000000001, -0.018000000000000002, 192.0, 0.0, 0.0, 0.0, 0.0, 0.0, 0.0, 0.0, 0.0, 0.0, 1.6664043136482148E9, 0.0, 2022-10-21 19:05:13.648
103.0, -127969.07907355775, -156716.95401870657, -29398.62363322063, -135875.40517752233, 63527.032855395424, -70305.95932077877, 54507.88045023447, -112564.90499554932, 0.028, 0.9580000000000001, -0.018000000000000002, 192.0, 0.0, 0.0, 0.0, 0.0, 0.0, 0.0, 0.0, 0.0, 0.0, 1.6664043136482303E9, 0.0, 2022-10-21 19:05:13.648
104.0, -127953.23168673895, -156698.7373469755, -29386.643098192588, -135867.11268032942, 63542.45555906958, -70314.47533541624, 54504.97472345528, -112553.88558553286, 0.022, 0.964, -0.02, 192.0, 0.0, 176.0, 30.0, 32.0, 255.0, 96.0, 0.0, 0.0, 0.0, 1.6664043136482599E9, 0.0, 2022-10-21 19:05:13.648
105.0, -127931.14816321709, -156672.85402689624, -29377.836510877194, -135859.4683837257, 63551.61977429626, -70321.53848666413, 54501.59961004253, -112539.62517257038, 0.022, 0.964, -0.02, 192.0, 0.0, 0.0, 0.0, 0.0, 0.0, 0.0, 0.0, 0.0, 0.0, 1.666404313648276E9, 0.0, 2022-10-21 19:05:13.648
106.0, -127913.91496824205, -156653.8773958537, -29376.785978887798, -135856.8755813689, 63553.51967257496, -70310.47437315874, 54514.69773229334, -112536.71944579118, 0.022, 0.964, -0.02, 192.0, 0.0, 0.0, 0.0, 0.0, 0.0, 0.0, 0.0, 0.0, 0.0, 1.666404313648291E9, 0.0, 2022-10-21 19:05:13.648
107.0, -127903.74492451489, -156643.64029689317, -29374.170824786524, -135855.8697528684, 63556.24658539851, -70276.90205298687, 54541.63158436198, -112534.26075390111, 0.022, 0.964, -0.02, 192.0, 0.0, 0.0, 0.0, 0.0, 0.0, 0.0, 0.0, 0.0, 0.0, 1.666404313648306E9, 0.0, 2022-10-21 19:05:13.648
108.0, -127882.01902890432, -156623.50137513893, -29374.416693975534, -135866.84445939594, 63551.53036731844, -70277.08086694252, 54531.90857552393, -112547.9176697633, 0.022, 0.964, -0.02, 192.0, 0.0, 0.0, 0.0, 0.0, 0.0, 0.0, 0.0, 0.0, 0.0, 1.666404313648321E9, 0.0, 2022-10-21 19:05:13.648
109.0, -127859.48847049338, -156597.59570331522, -29365.47599619341, -135860.80948839302, 63560.381658122744, -70291.56479734955, 54519.1680811844, -112548.99055349715, 0.022, 0.964, -0.02, 192.0, 0.0, 0.0, 0.0, 0.0, 0.0, 0.0, 0.0, 0.0, 0.0, 1.666404313648336E9, 0.0, 2022-10-21 19:05:13.648
110.0, -127838.38842372758, -156579.24492111744, -29353.607219887643, -135843.57629341798, 63570.90932976119, -70279.04782045458, 54535.26133719222, -112538.99932372563, 0.022, 0.964, -0.02, 192.0, 0.0, 0.0, 0.0, 0.0, 0.0, 0.0, 0.0, 0.0, 0.0, 1.6664043136483521E9, 0.0, 2022-10-21 19:05:13.648
111.0, -127823.16688575351, -156567.44320004503, -29358.166975756525, -135852.09230805543, 63561.29807964541, -70270.84473023948, 54542.927985540395, -112546.37539939588, 0.022, 0.964, -0.02, 192.0, 0.0, 0.0, 0.0, 0.0, 0.0, 0.0, 0.0, 0.0, 0.0, 1.666404313648368E9, 0.0, 2022-10-21 19:05:13.648
112.0, -127803.34088842165, -156548.86890040265, -29353.629571632096, -135859.20016279223, 63561.38748662323, -70278.44432335428, 54536.55773837063, -112543.06734121649, 0.022, 0.964, -0.02, 192.0, 0.0, 0.0, 0.0, 0.0, 0.0, 0.0, 0.0, 0.0, 0.0, 1.666404313648384E9, 0.0, 2022-10-21 19:05:13.648
113.0, -127774.32832411866, -156516.5929814092, -29342.744272082364, -135856.18267729078, 63568.562396593385, -70297.91269277486, 54524.532499853674, -112539.28989640354, 0.022, 0.964, -0.02, 192.0, 0.0, 0.0, 0.0, 0.0, 0.0, 0.0, 0.0, 0.0, 0.0, 1.6664043136483989E9, 0.0, 2022-10-21 19:05:13.648
114.0, -127752.37891106356, -156497.21401896645, -29339.167992969513, -135847.554903931, 63570.28348091644, -70305.66874810086, 54524.532499853674, -112530.34919862142, 0.024, 0.966, -0.024, 192.0, 0.0, 192.0, 30.0, 48.0, 255.0, 64.0, 0.0, 0.0, 0.0, 1.6664043136484137E9, 0.0, 2022-10-21 19:05:13.648
115.0, -127731.12240208655, -156481.07605946972, -29336.172859212504, -135841.63169165037, 63568.09300995982, -70286.89328275839, 54541.76569482872, -112530.95269572172, 0.024, 0.966, -0.024, 192.0, 0.0, 0.0, 0.0, 0.0, 0.0, 0.0, 0.0, 0.0, 0.0, 1.6664043136484299E9, 0.0, 2022-10-21 19:05:13.648
116.0, -127721.75702115978, -156463.0829051832, -29337.022225501805, -135852.1593632888, 63566.05900121439, -70296.10220147399, 54536.781255815185, -112538.59699232543, 0.024, 0.966, -0.024, 192.0, 0.0, 0.0, 0.0, 0.0, 0.0, 0.0, 0.0, 0.0, 0.0, 1.666404313648445E9, 0.0, 2022-10-21 19:05:13.648
117.0, -127703.00390756178, -156440.95467817245, -29335.502306878843, -135854.0592615675, 63569.07648671586, -70304.75232657818, 54527.21470918831, -112542.32973364947, 0.024, 0.966, -0.024, 192.0, 0.0, 0.0, 0.0, 0.0, 0.0, 0.0, 0.0, 0.0, 0.0, 1.6664043136484597E9, 0.0, 2022-10-21 19:05:13.648
118.0, -127677.7911398162, -156415.20546855993, -29330.38375739858, -135840.64821489432, 63572.0045652395, -70328.95926582329, 54516.61998231649, -112526.99643695312, 0.024, 0.966, -0.024, 192.0, 0.0, 0.0, 0.0, 0.0, 0.0, 0.0, 0.0, 0.0, 0.0, 1.6664043136484745E9, 0.0, 2022-10-21 19:05:13.648
119.0, -127667.9340205114, -156408.8128696457, -29332.70833882193, -135843.2633689956, 63570.41759138317, -70326.9029053334, 54527.1700056994, -112518.23455312665, 0.024, 0.966, -0.024, 192.0, 0.0, 0.0, 0.0, 0.0, 0.0, 0.0, 0.0, 0.0, 0.0, 1.6664043136485672E9, 0.0, 2022-10-21 19:05:13.648
120.0, -127638.2285521303, -156380.67202337648, -29321.398356127545, -135832.8027525905, 63585.19209446813, -70306.67457660133, 54547.59950013155, -112514.54651529153, 0.024, 0.966, -0.024, 192.0, 0.0, 0.0, 0.0, 0.0, 0.0, 0.0, 0.0, 0.0, 0.0, 1.6664043136485827E9, 0.0, 2022-10-21 19:05:13.648
121.0, -127619.76601121022, -156357.26974693176, -29318.582036326177, -135834.38972644685, 63588.45544915861, -70316.79991683959, 54540.91632853942, -112519.1062711604, 0.024, 0.966, -0.024, 192.0, 0.0, 0.0, 0.0, 0.0, 0.0, 0.0, 0.0, 0.0, 0.0, 1.666404314125872E9, 0.0, 2022-10-21 19:05:14.125
122.0, -127616.99439489776, -156352.17354919596, -29318.98436772637, -135833.6521188798, 63588.45544915861, -70327.48405068924, 54532.62383134649, -112519.97798919416, 0.024, 0.966, -0.024, 192.0, 0.0, 0.0, 0.0, 0.0, 0.0, 0.0, 0.0, 0.0, 0.0, 1.666404314126035E9, 0.0, 2022-10-21 19:05:14.126
123.0, -127603.40453426894, -156340.2600694013, -29319.498457848844, -135827.6618513658, 63590.020071270475, -70329.18278326784, 54535.440151147865, -112525.18594565225, 0.024, 0.966, -0.024, 192.0, 0.0, 0.0, 0.0, 0.0, 0.0, 0.0, 0.0, 0.0, 0.0, 1.6664043141260593E9, 0.0, 2022-10-21 19:05:14.126
124.0, -127587.53479570567, -156327.18429889492, -29322.56064683922, -135826.9018920543, 63589.461277659095, -70317.29165521762, 54546.70543035334, -112524.5600968075, 0.028, 0.964, -0.022, 192.0, 0.0, 224.0, 30.0, 32.0, 255.0, 80.0, 0.0, 0.0, 0.0, 1.6664043141260824E9, 0.0, 2022-10-21 19:05:14.126
125.0, -127582.28213575867, -156322.37867383703, -29327.65684457503, -135838.6589096378, 63584.54389387893, -70321.91846631985, 54537.541215126665, -112526.4152915973, 0.028, 0.964, -0.022, 192.0, 0.0, 0.0, 0.0, 0.0, 0.0, 0.0, 0.0, 0.0, 0.0, 1.6664043141261077E9, 0.0, 2022-10-21 19:05:14.126
126.0, -127579.30935374611, -156316.7460342343, -29322.71710905041, -135836.1108107699, 63587.56137938039, -70326.67938788884, 54531.97563075729, -112516.93815194824, 0.028, 0.964, -0.022, 192.0, 0.0, 0.0, 0.0, 0.0, 0.0, 0.0, 0.0, 0.0, 0.0, 1.6664043141261303E9, 0.0, 2022-10-21 19:05:14.126
127.0, -127583.86910961499, -156319.2047261244, -29324.61700732911, -135830.34406070044, 63586.600254368816, -70337.74350139422, 54530.88039527898, -112512.37839607935, 0.028, 0.964, -0.022, 192.0, 0.0, 0.0, 0.0, 0.0, 0.0, 0.0, 0.0, 0.0, 0.0, 1.6664043141261525E9, 0.0, 2022-10-21 19:05:14.126
128.0, -127577.18593802286, -156313.9520661774, -29324.080565462184, -135824.77847633106, 63588.142524736235, -70314.05065227159, 54549.83467457708, -112512.62426526837, 0.028, 0.964, -0.022, 192.0, 0.0, 0.0, 0.0, 0.0, 0.0, 0.0, 0.0, 0.0, 0.0, 1.6664043141261752E9, 0.0, 2022-10-21 19:05:14.126
129.0, -127564.64660938343, -156301.54684800468, -29317.352690381136, -135825.98547053165, 63593.64105387224, -70319.75034710769, 54545.94547104186, -112516.71463450369, 0.028, 0.964, -0.022, 192.0, 0.0, 0.0, 0.0, 0.0, 0.0, 0.0, 0.0, 0.0, 0.0, 1.6664043141261976E9, 0.0, 2022-10-21 19:05:14.126
130.0, -127569.29577223014, -156309.2358480973, -29323.99115848436, -135835.73083111417, 63588.276635202965, -70342.32560900756, 54531.05920923463, -112534.68543704576, 0.028, 0.964, -0.022, 192.0, 0.0, 0.0, 0.0, 0.0, 0.0, 0.0, 0.0, 0.0, 0.0, 1.6664043141262197E9, 0.0, 2022-10-21 19:05:14.126
131.0, -127582.77387413668, -156322.8927639595, -29342.498402893354, -135848.4713254537, 63570.05996347189, -70354.90964113589, 54518.63163931747, -112555.49491113365, 0.028, 0.964, -0.022, 192.0, 0.0, 0.0, 0.0, 0.0, 0.0, 0.0, 0.0, 0.0, 0.0, 1.6664043141262422E9, 0.0, 2022-10-21 19:05:14.126
132.0, -127564.1101675165, -156299.64694972598, -29321.644225316555, -135834.23326423566, 63588.09782124732, -70325.09241403251, 54552.18160774489, -112532.00322771112, 0.028, 0.964, -0.022, 192.0, 0.0, 0.0, 0.0, 0.0, 0.0, 0.0, 0.0, 0.0, 0.0, 1.6664043141262643E9, 0.0, 2022-10-21 19:05:14.126
133.0, -127564.9595338058, -156299.53519100373, -29320.32547239369, -135835.0602787805, 63588.50015264752, -70320.89028607492, 54554.57324440161, -112532.02557945557, 0.028, 0.96, -0.022, 192.0, 0.0, 224.0, 30.0, 0.0, 255.0, 80.0, 0.0, 0.0, 0.0, 1.666404314126298E9, 0.0, 2022-10-21 19:05:14.126
134.0, -127556.3541121905, -156293.65668221196, -29319.587864826666, -135837.8095433485, 63589.260111958996, -70336.78237638265, 54539.910500038925, -112531.24326839963, 0.028, 0.96, -0.022, 192.0, 0.0, 0.0, 0.0, 0.0, 0.0, 0.0, 0.0, 0.0, 0.0, 1.666404314126497E9, 0.0, 2022-10-21 19:05:14.126
135.0, -127546.0052545077, -156285.87827514153, -29318.693795048453, -135840.1117730274, 63586.82377181337, -70358.41886501538, 54527.86290977751, -112521.18498339475, 0.028, 0.96, -0.022, 192.0, 0.0, 0.0, 0.0, 0.0, 0.0, 0.0, 0.0, 0.0, 0.0, 1.6664043141265209E9, 0.0, 2022-10-21 19:05:14.126
136.0, -127541.49020212772, -156282.81608615114, -29311.47418158939, -135822.63270886336, 63593.99868178352, -70355.96017312529, 54543.15150298495, -112510.54555303403, 0.028, 0.96, -0.022, 192.0, 0.0, 0.0, 0.0, 0.0, 0.0, 0.0, 0.0, 0.0, 0.0, 1.6664043141265428E9, 0.0, 2022-10-21 19:05:14.126
137.0, -127553.40368192241, -156290.70625194386, -29324.080565462184, -135833.27213922408, 63579.67121358767, -70346.72890266526, 54543.30796519613, -112533.56784982298, 0.028, 0.96, -0.022, 192.0, 0.0, 0.0, 0.0, 0.0, 0.0, 0.0, 0.0, 0.0, 0.0, 1.6664043141265657E9, 0.0, 2022-10-21 19:05:14.126
138.0, -127555.75061509022, -156287.48760074232, -29325.444021873955, -135851.7123283997, 63571.848103028315, -70380.18946411484, 54519.39159862895, -112531.77971026656, 0.028, 0.96, -0.022, 192.0, 0.0, 0.0, 0.0, 0.0, 0.0, 0.0, 0.0, 0.0, 0.0, 1.666404314126588E9, 0.0, 2022-10-21 19:05:14.126
139.0, -127541.78077480565, -156275.14943780296, -29313.776411268285, -135838.6142061489, 63584.38743166774, -70394.62869103298, 54522.07380796359, -112513.58539027994, 0.028, 0.96, -0.022, 192.0, 0.0, 0.0, 0.0, 0.0, 0.0, 0.0, 0.0, 0.0, 0.0, 1.6664043141266053E9, 0.0, 2022-10-21 19:05:14.126
140.0, -127540.86435328297, -156281.5420367172, -29319.498457848844, -135839.1506480158, 63575.91612051918, -70372.25459483321, 54538.41293316042, -112524.20246889621, 0.028, 0.96, -0.022, 192.0, 0.0, 0.0, 0.0, 0.0, 0.0, 0.0, 0.0, 0.0, 0.0, 1.6664043141266196E9, 0.0, 2022-10-21 19:05:14.126
141.0, -127537.17631544785, -156280.64796693897, -29314.066983946203, -135841.07289803898, 63577.77131530897, -70352.87563239047, 54547.86772106501, -112535.55715507951, 0.028, 0.96, -0.022, 192.0, 0.0, 0.0, 0.0, 0.0, 0.0, 0.0, 0.0, 0.0, 0.0, 1.666404314126634E9, 0.0, 2022-10-21 19:05:14.126
142.0, -127538.852696282, -156279.39626924947, -29311.98827171186, -135846.95140683072, 63579.06771648738, -70361.6598679614, 54534.30021218064, -112531.5114893331, 0.028, 0.96, -0.022, 192.0, 0.0, 0.0, 0.0, 0.0, 0.0, 0.0, 0.0, 0.0, 0.0, 1.666404314126649E9, 0.0, 2022-10-21 19:05:14.126
143.0, -127541.22198119426, -156282.72667917333, -29311.42947810048, -135846.12439228588, 63576.69843157512, -70373.17101635587, 54523.79489228665, -112519.5086025606, 0.028, 0.9540000000000001, -0.016, 192.0, 0.0, 224.0, 29.0, 208.0, 255.0, 128.0, 0.0, 0.0, 0.0, 1.6664043141266637E9, 0.0, 2022-10-21 19:05:14.126
144.0, -127537.26572242567, -156281.5867402061, -29310.535408322266, -135836.4013834478, 63578.33010892035, -70376.56848151308, 54528.2205376888, -112527.1081956754, 0.028, 0.9540000000000001, -0.016, 192.0, 0.0, 0.0, 0.0, 0.0, 0.0, 0.0, 0.0, 0.0, 0.0, 1.66640431412668E9, 0.0, 2022-10-21 19:05:14.126
145.0, -127538.606827093, -156281.81025765065, -29313.37407986809, -135842.14578177282, 63576.43021064165, -70361.77162668368, 54539.8210930611, -112531.39973061082, 0.028, 0.9540000000000001, -0.016, 192.0, 0.0, 0.0, 0.0, 0.0, 0.0, 0.0, 0.0, 0.0, 0.0, 1.666404314126695E9, 0.0, 2022-10-21 19:05:14.126
146.0, -127539.47854512675, -156279.17275180493, -29316.3692136251, -135858.1272790584, 63571.06579197238, -70383.27400484968, 54523.10198820853, -112542.28503016056, 0.028, 0.9540000000000001, -0.016, 192.0, 0.0, 0.0, 0.0, 0.0, 0.0, 0.0, 0.0, 0.0, 0.0, 1.6664043141267097E9, 0.0, 2022-10-21 19:05:14.126
147.0, -127532.61655957896, -156272.31076625714, -29306.534446064765, -135845.94557833023, 63580.34176592133, -70399.14374341295, 54520.82211027409, -112523.64367528484, 0.028, 0.9540000000000001, -0.016, 192.0, 0.0, 0.0, 0.0, 0.0, 0.0, 0.0, 0.0, 0.0, 0.0, 1.6664043141267238E9, 0.0, 2022-10-21 19:05:14.126
148.0, -127540.66318758288, -156283.10665882906, -29312.99410021235, -135844.62682540738, 63572.18337919514, -70406.47511559428, 54525.0689417206, -112519.21802988269, 0.028, 0.9540000000000001, -0.016, 192.0, 0.0, 0.0, 0.0, 0.0, 0.0, 0.0, 0.0, 0.0, 0.0, 1.6664043141267383E9, 0.0, 2022-10-21 19:05:14.126
149.0, -127554.07423425607, -156292.47203975584, -29321.420707872, -135855.89210461284, 63558.90644298869, -70392.88525496545, 54533.65201159144, -112535.57950682397, 0.028, 0.9540000000000001, -0.016, 192.0, 0.0, 0.0, 0.0, 0.0, 0.0, 0.0, 0.0, 0.0, 0.0, 1.6664043141268144E9, 0.0, 2022-10-21 19:05:14.126
150.0, -127532.05776596759, -156272.06489706814, -29301.348841351133, -135844.20214226271, 63576.83254204185, -70373.4615890338, 54547.28657570918, -112515.52999204755, 0.028, 0.9540000000000001, -0.016, 192.0, 0.0, 0.0, 0.0, 0.0, 0.0, 0.0, 0.0, 0.0, 0.0, 1.6664043141268296E9, 0.0, 2022-10-21 19:05:14.126
151.0, -127532.81772527906, -156272.4895802128, -29301.28178611777, -135847.80077312002, 63576.96665250858, -70382.15641762692, 54536.11070348152, -112525.54357356353, 0.028, 0.9540000000000001, -0.016, 192.0, 0.0, 0.0, 0.0, 0.0, 0.0, 0.0, 0.0, 0.0, 0.0, 1.6664043141268444E9, 0.0, 2022-10-21 19:05:14.126
152.0, -127534.33764390204, -156271.52845520122, -29294.41980056999, -135840.5588079165, 63579.894731032226, -70380.27887109267, 54541.40806691743, -112521.87788747286, 0.028, 0.9540000000000001, -0.016, 192.0, 0.0, 0.0, 0.0, 0.0, 0.0, 0.0, 0.0, 0.0, 0.0, 1.6664043141268592E9, 0.0, 2022-10-21 19:05:14.126
153.0, -127539.2550276822, -156278.21162679335, -29301.32648960668, -135835.97670030317, 63580.453524643606, -70368.8124261871, 54552.628642633994, -112524.29187587404, 0.026000000000000002, 0.9560000000000001, -0.022, 192.0, 0.0, 208.0, 29.0, 224.0, 255.0, 80.0, 0.0, 0.0, 0.0, 1.666404314126875E9, 0.0, 2022-10-21 19:05:14.126
154.0, -127546.78756556363, -156289.72277518784, -29314.08933569066, -135854.327482501, 63567.24364367052, -70358.79884467111, 54547.331279198086, -112539.49106210364, 0.026000000000000002, 0.9560000000000001, -0.022, 192.0, 0.0, 0.0, 0.0, 0.0, 0.0, 0.0, 0.0, 0.0, 0.0, 1.666404314126891E9, 0.0, 2022-10-21 19:05:14.126
155.0, -127525.75457403119, -156274.21066453584, -29301.102972162127, -135857.5237819581, 63571.088143716835, -70383.20694961632, 54526.58886034356, -112532.74083527813, 0.026000000000000002, 0.9560000000000001, -0.022, 192.0, 0.0, 0.0, 0.0, 0.0, 0.0, 0.0, 0.0, 0.0, 0.0, 1.6664043141269088E9, 0.0, 2022-10-21 19:05:14.126
156.0, -127522.46886759627, -156269.91912960043, -29299.56070179471, -135843.28572074007, 63579.268882187476, -70395.1651328999, 54528.39935164444, -112527.6669892868, 0.026000000000000002, 0.9560000000000001, -0.022, 192.0, 0.0, 0.0, 0.0, 0.0, 0.0, 0.0, 0.0, 0.0, 0.0, 1.6664043141269233E9, 0.0, 2022-10-21 19:05:14.126
157.0, -127536.23754218074, -156279.57508320513, -29313.999928712838, -135854.23807552314, 63565.29904190291, -70369.4159232874, 54541.96686052882, -112541.10038770443, 0.026000000000000002, 0.9560000000000001, -0.022, 192.0, 0.0, 0.0, 0.0, 0.0, 0.0, 0.0, 0.0, 0.0, 0.0, 1.6664043141269376E9, 0.0, 2022-10-21 19:05:14.126
158.0, -127530.2025711778, -156269.60620517805, -29303.60636754112, -135855.04273832354, 63571.557530350394, -70363.49271100674, 54544.58201463008, -112537.21118416921, 0.026000000000000002, 0.9560000000000001, -0.022, 192.0, 0.0, 0.0, 0.0, 0.0, 0.0, 0.0, 0.0, 0.0, 0.0, 1.6664043141269522E9, 0.0, 2022-10-21 19:05:14.126
159.0, -127529.1520391884, -156268.2427487663, -29301.55000705123, -135861.8823721269, 63572.8539315288, -70382.26817634919, 54531.90857552393, -112534.17134692328, 0.026000000000000002, 0.9560000000000001, -0.022, 192.0, 0.0, 0.0, 0.0, 0.0, 0.0, 0.0, 0.0, 0.0, 0.0, 1.6664043141269667E9, 0.0, 2022-10-21 19:05:14.126
160.0, -127527.11803044297, -156269.1815220334, -29299.203073883426, -135856.9649883467, 63574.06092572939, -70380.65885074841, 54537.45180814884, -112522.88371597335, 0.026000000000000002, 0.9560000000000001, -0.022, 192.0, 0.0, 0.0, 0.0, 0.0, 0.0, 0.0, 0.0, 0.0, 0.0, 1.6664043141269813E9, 0.0, 2022-10-21 19:05:14.126
161.0, -127526.60394032049, -156272.17665579042, -29299.068963416692, -135851.04177606603, 63576.96665250858, -70366.24197557474, 54554.70735486834, -112521.31909386149, 0.026000000000000002, 0.9560000000000001, -0.022, 192.0, 0.0, 0.0, 0.0, 0.0, 0.0, 0.0, 0.0, 0.0, 0.0, 1.6664043141269956E9, 0.0, 2022-10-21 19:05:14.126
162.0, -127520.97130071776, -156268.46626621083, -29297.481989560365, -135851.7570318886, 63578.553626364905, -70359.8046731716, 54557.098991525054, -112517.98868393764, 0.026000000000000002, 0.9560000000000001, -0.022, 192.0, 0.0, 0.0, 0.0, 0.0, 0.0, 0.0, 0.0, 0.0, 0.0, 1.66640431412701E9, 0.0, 2022-10-21 19:05:14.127
163.0, -127517.28326288263, -156268.66743191093, -29298.912501205505, -135854.19337203423, 63577.301928675406, -70375.07091463458, 54539.1728924719, -112520.1120996609, 0.026000000000000002, 0.9540000000000001, -0.026000000000000002, 192.0, 0.0, 208.0, 29.0, 208.0, 255.0, 48.0, 0.0, 0.0, 0.0, 1.666404314127025E9, 0.0, 2022-10-21 19:05:14.127
164.0, -127524.36876587497, -156273.96479534684, -29303.42755358548, -135850.8629621104, 63577.61485309778, -70395.18748464435, 54527.01354348821, -112528.69516953173, 0.026000000000000002, 0.9540000000000001, -0.026000000000000002, 192.0, 0.0, 0.0, 0.0, 0.0, 0.0, 0.0, 0.0, 0.0, 0.0, 1.6664043141270764E9, 0.0, 2022-10-21 19:05:14.127
165.0, -127525.1957804198, -156270.7461441453, -29301.818227984695, -135838.6589096378, 63580.43117289915, -70382.84932170503, 54544.60436637454, -112527.04114044204, 0.026000000000000002, 0.9540000000000001, -0.026000000000000002, 192.0, 0.0, 0.0, 0.0, 0.0, 0.0, 0.0, 0.0, 0.0, 0.0, 1.666404314127091E9, 0.0, 2022-10-21 19:05:14.127
166.0, -127516.03156519313, -156264.42060046442, -29296.632623271063, -135837.1166392704, 63585.10268749031, -70373.37218205597, 54553.187436245375, -112516.84874497041, 0.026000000000000002, 0.9540000000000001, -0.026000000000000002, 192.0, 0.0, 0.0, 0.0, 0.0, 0.0, 0.0, 0.0, 0.0, 0.0, 1.666404314127106E9, 0.0, 2022-10-21 19:05:14.127
167.0, -127515.96450995977, -156268.6897836554, -29302.958166951918, -135850.03594756557, 63580.095896732324, -70383.98926067224, 54542.23508146228, -112522.2578671286, 0.026000000000000002, 0.9540000000000001, -0.026000000000000002, 192.0, 0.0, 0.0, 0.0, 0.0, 0.0, 0.0, 0.0, 0.0, 0.0, 1.6664043141271207E9, 0.0, 2022-10-21 19:05:14.127
168.0, -127527.02862346514, -156271.4837517123, -29308.07671643218, -135857.54613370253, 63573.23391118454, -70402.94353997035, 54531.61800284601, -112518.36866359338, 0.026000000000000002, 0.9540000000000001, -0.026000000000000002, 192.0, 0.0, 0.0, 0.0, 0.0, 0.0, 0.0, 0.0, 0.0, 0.0, 1.6664043141271355E9, 0.0, 2022-10-21 19:05:14.127
169.0, -127533.10829795699, -156272.0872488126, -29311.384774611568, -135858.50725871412, 63569.50116986051, -70389.28662410815, 54543.64324136296, -112527.86815498688, 0.026000000000000002, 0.9540000000000001, -0.026000000000000002, 192.0, 0.0, 0.0, 0.0, 0.0, 0.0, 0.0, 0.0, 0.0, 0.0, 1.6664043141271503E9, 0.0, 2022-10-21 19:05:14.127
170.0, -127532.59420783451, -156268.46626621083, -29307.204998398425, -135855.15449704582, 63575.08910597434, -70374.62387974547, 54557.814247347625, -112524.85066948541, 0.026000000000000002, 0.9540000000000001, -0.026000000000000002, 192.0, 0.0, 0.0, 0.0, 0.0, 0.0, 0.0, 0.0, 0.0, 0.0, 1.6664043141271653E9, 0.0, 2022-10-21 19:05:14.127
171.0, -127530.31432990008, -156272.4895802128, -29313.79876301274, -135861.10006107093, 63573.524483862464, -70381.41881005988, 54551.82397983361, -112518.52512580456, 0.026000000000000002, 0.9540000000000001, -0.026000000000000002, 192.0, 0.0, 0.0, 0.0, 0.0, 0.0, 0.0, 0.0, 0.0, 0.0, 1.6664043141271791E9, 0.0, 2022-10-21 19:05:14.127
172.0, -127539.09856547101, -156279.66449018294, -29320.48193460488, -135869.28079954156, 63567.26599541498, -70423.75301405824, 54523.280802164176, -112514.18888738024, 0.026000000000000002, 0.962, -0.02, 192.0, 0.0, 208.0, 30.0, 16.0, 255.0, 96.0, 0.0, 0.0, 0.0, 1.6664043141272175E9, 0.0, 2022-10-21 19:05:14.127
173.0, -127547.10048998601, -156286.392365264, -29325.98046374088, -135861.5247442156, 63569.054134971404, -70427.35164491554, 54527.59468884405, -112530.59506781043, 0.026000000000000002, 0.962, -0.02, 192.0, 0.0, 0.0, 0.0, 0.0, 0.0, 0.0, 0.0, 0.0, 0.0, 1.6664043141272628E9, 0.0, 2022-10-21 19:05:14.127
174.0, -127532.97418749025, -156269.91912960043, -29310.580111811178, -135848.1584010313, 63580.56528336588, -70397.69088002335, 54555.33320371309, -112532.1149864334, 0.026000000000000002, 0.962, -0.02, 192.0, 0.0, 0.0, 0.0, 0.0, 0.0, 0.0, 0.0, 0.0, 0.0, 1.666404314127306E9, 0.0, 2022-10-21 19:05:14.127
175.0, -127532.21422817878, -156269.9414813449, -29310.98244321137, -135856.7191191577, 63574.932643763146, -70418.07567096659, 54537.965898271315, -112537.47940510267, 0.026000000000000002, 0.962, -0.02, 192.0, 0.0, 0.0, 0.0, 0.0, 0.0, 0.0, 0.0, 0.0, 0.0, 1.6664043141273513E9, 0.0, 2022-10-21 19:05:14.127
176.0, -127530.6496060669, -156270.634385423, -29307.540274565254, -135848.6724911538, 63585.72853633506, -70427.93279027138, 54535.35074417004, -112525.96825670818, 0.026000000000000002, 0.962, -0.02, 192.0, 0.0, 0.0, 0.0, 0.0, 0.0, 0.0, 0.0, 0.0, 0.0, 1.6664043141273985E9, 0.0, 2022-10-21 19:05:14.127
177.0, -127528.72735604375, -156267.7286586438, -29305.32745186418, -135839.8659038384, 63585.2591497015, -70422.05428147964, 54544.35849718553, -112518.23455312665, 0.026000000000000002, 0.962, -0.02, 192.0, 0.0, 0.0, 0.0, 0.0, 0.0, 0.0, 0.0, 0.0, 0.0, 1.6664043141274407E9, 0.0, 2022-10-21 19:05:14.127
178.0, -127522.87119899645, -156267.147513288, -29306.914425720504, -135845.8561713524, 63579.045364742924, -70403.10000218154, 54560.45175319335, -112517.54164904854, 0.026000000000000002, 0.962, -0.02, 192.0, 0.0, 0.0, 0.0, 0.0, 0.0, 0.0, 0.0, 0.0, 0.0, 1.6664043141274827E9, 0.0, 2022-10-21 19:05:14.127
179.0, -127522.17829491834, -156269.1368185445, -29311.965919967406, -135854.43924122324, 63579.78297230995, -70414.23117092028, 54551.98044204479, -112510.67966350075, 0.026000000000000002, 0.962, -0.02, 192.0, 0.0, 0.0, 0.0, 0.0, 0.0, 0.0, 0.0, 0.0, 0.0, 1.6664043141276245E9, 0.0, 2022-10-21 19:05:14.127
180.0, -127531.9013037564, -156271.12612380102, -29311.541236822755, -135859.49073547014, 63577.0560594864, -70429.4750606388, 54538.100008738045, -112528.91868697628, 0.026000000000000002, 0.962, -0.02, 192.0, 0.0, 0.0, 0.0, 0.0, 0.0, 0.0, 0.0, 0.0, 0.0, 1.6664043141276667E9, 0.0, 2022-10-21 19:05:14.127
181.0, -127531.87895201195, -156271.86373136804, -29309.261358888314, -135857.23320928018, 63576.09493447482, -70426.68109258189, 54538.27882269369, -112536.54063183554, 0.026000000000000002, 0.962, -0.02, 192.0, 0.0, 0.0, 0.0, 0.0, 0.0, 0.0, 0.0, 0.0, 0.0, 1.66640431412771E9, 0.0, 2022-10-21 19:05:14.127
182.0, -127535.72345205826, -156280.15622856095, -29315.18457116897, -135862.329407016, 63569.881149516244, -70404.06112719311, 54550.63933737747, -112541.4133121268, 0.028, 0.962, -0.024, 192.0, 0.0, 224.0, 30.0, 16.0, 255.0, 64.0, 0.0, 0.0, 0.0, 1.6664043141277509E9, 0.0, 2022-10-21 19:05:14.127
183.0, -127533.98001599075, -156279.99976634976, -29311.764754267308, -135864.29636052804, 63574.68677457414, -70389.86776946399, 54557.121343269515, -112534.64073355684, 0.028, 0.962, -0.024, 192.0, 0.0, 0.0, 0.0, 0.0, 0.0, 0.0, 0.0, 0.0, 0.0, 1.6664043141277947E9, 0.0, 2022-10-21 19:05:14.127
184.0, -127531.14134444493, -156280.75972566125, -29313.150562423536, -135864.1175465724, 63580.386469410245, -70409.38084237347, 54541.34101168407, -112528.53870732055, 0.028, 0.962, -0.024, 192.0, 0.0, 0.0, 0.0, 0.0, 0.0, 0.0, 0.0, 0.0, 0.0, 1.6664043141278234E9, 0.0, 2022-10-21 19:05:14.127
185.0, -127529.53201884414, -156281.00559485026, -29316.637434558565, -135858.30609301402, 63582.42047815568, -70414.27587440918, 54541.117494239516, -112530.14803292132, 0.028, 0.962, -0.024, 192.0, 0.0, 0.0, 0.0, 0.0, 0.0, 0.0, 0.0, 0.0, 0.0, 1.66640431412784E9, 0.0, 2022-10-21 19:05:14.127
186.0, -127522.71473678527, -156272.9366151019, -29312.390603112057, -135851.53351444408, 63581.43700139964, -70407.41388886141, 54553.79093334567, -112519.84387872744, 0.028, 0.962, -0.024, 192.0, 0.0, 0.0, 0.0, 0.0, 0.0, 0.0, 0.0, 0.0, 0.0, 1.6664043141278567E9, 0.0, 2022-10-21 19:05:14.127
187.0, -127531.00723397819, -156281.63144369502, -29321.420707872, -135854.819220879, 63580.0064897545, -70385.93386243987, 54564.78799161768, -112520.9614659502, 0.028, 0.962, -0.024, 192.0, 0.0, 0.0, 0.0, 0.0, 0.0, 0.0, 0.0, 0.0, 0.0, 1.666404314127874E9, 0.0, 2022-10-21 19:05:14.127
188.0, -127534.0023677352, -156284.69363268538, -29322.13596369457, -135866.7774041626, 63582.57694036686, -70411.19133367436, 54544.89493905246, -112535.26658240159, 0.028, 0.962, -0.024, 192.0, 0.0, 0.0, 0.0, 0.0, 0.0, 0.0, 0.0, 0.0, 0.0, 1.6664043141278925E9, 0.0, 2022-10-21 19:05:14.127
189.0, -127528.70500429929, -156274.47888546932, -29306.735611764863, -135859.6248459369, 63591.40587942671, -70448.02700853671, 54533.51790112471, -112523.9118962183, 0.028, 0.962, -0.024, 192.0, 0.0, 0.0, 0.0, 0.0, 0.0, 0.0, 0.0, 0.0, 0.0, 1.6664043141279092E9, 0.0, 2022-10-21 19:05:14.127
190.0, -127527.22978916524, -156275.641176181, -29304.5674925527, -135843.17396201778, 63595.07156551738, -70443.91428755692, 54549.901729810445, -112522.68255027325, 0.028, 0.962, -0.024, 192.0, 0.0, 0.0, 0.0, 0.0, 0.0, 0.0, 0.0, 0.0, 0.0, 1.666404314127926E9, 0.0, 2022-10-21 19:05:14.127
191.0, -127525.21813216427, -156269.0921150556, -29296.78908548225, -135840.87173233888, 63602.98408305456, -70402.83178124807, 54579.85306738056, -112514.56886703598, 0.028, 0.962, -0.024, 192.0, 0.0, 0.0, 0.0, 0.0, 0.0, 0.0, 0.0, 0.0, 0.0, 1.6664043141279428E9, 0.0, 2022-10-21 19:05:14.127
192.0, -127538.51742011517, -156277.60812969305, -29310.781277511272, -135864.4751744837, 63591.94232129364, -70408.53147608417, 54566.26320675173, -112524.5153933186, 0.024, 0.962, -0.024, 192.0, 0.0, 192.0, 30.0, 16.0, 255.0, 64.0, 0.0, 0.0, 0.0, 1.66640431412796E9, 0.0, 2022-10-21 19:05:14.127
193.0, -127539.18797244882, -156278.97158610483, -29313.128210679082, -135867.73852917415, 63585.77323982397, -70418.3215401556, 54554.50618916824, -112523.68837877375, 0.024, 0.962, -0.024, 192.0, 0.0, 0.0, 0.0, 0.0, 0.0, 0.0, 0.0, 0.0, 0.0, 1.666404314127978E9, 0.0, 2022-10-21 19:05:14.127
194.0, -127528.36972813246, -156271.12612380102, -29303.85223673013, -135854.70746215672, 63587.76254508049, -70415.90755175443, 54561.36817471602, -112505.96344542068, 0.024, 0.962, -0.024, 192.0, 0.0, 0.0, 0.0, 0.0, 0.0, 0.0, 0.0, 0.0, 0.0, 1.6664043141280384E9, 0.0, 2022-10-21 19:05:14.128
195.0, -127521.08305944003, -156264.55471093114, -29296.207940126413, -135839.44122069376, 63603.90050457722, -70401.2224556473, 54578.3331487576, -112498.72148021717, 0.024, 0.962, -0.024, 192.0, 0.0, 0.0, 0.0, 0.0, 0.0, 0.0, 0.0, 0.0, 0.0, 1.6664043141280553E9, 0.0, 2022-10-21 19:05:14.128
196.0, -127522.82649550754, -156269.1815220334, -29299.918329705994, -135851.9134940998, 63599.810135341904, -70415.75108954324, 54565.21267476233, -112501.15782036279, 0.024, 0.962, -0.024, 192.0, 0.0, 0.0, 0.0, 0.0, 0.0, 0.0, 0.0, 0.0, 0.0, 1.6664043141280715E9, 0.0, 2022-10-21 19:05:14.128
197.0, -127523.22882690774, -156269.1815220334, -29299.292480861248, -135857.45672672472, 63596.23385622905, -70434.5265548857, 54552.53923565617, -112516.7593379926, 0.024, 0.962, -0.024, 192.0, 0.0, 0.0, 0.0, 0.0, 0.0, 0.0, 0.0, 0.0, 0.0, 1.6664043141280868E9, 0.0, 2022-10-21 19:05:14.128
198.0, -127519.98782396172, -156263.7947516197, -29293.12339939158, -135846.2137992637, 63600.994777798034, -70420.95904600133, 54566.53142768519, -112517.18402113725, 0.024, 0.962, -0.024, 192.0, 0.0, 0.0, 0.0, 0.0, 0.0, 0.0, 0.0, 0.0, 0.0, 1.6664043141281004E9, 0.0, 2022-10-21 19:05:14.128
199.0, -127522.67003329637, -156267.1922167769, -29296.900844204527, -135850.14770628783, 63592.81403932739, -70413.98530173127, 54570.9794248318, -112516.53582054804, 0.024, 0.962, -0.024, 192.0, 0.0, 0.0, 0.0, 0.0, 0.0, 0.0, 0.0, 0.0, 0.0, 1.6664043141281145E9, 0.0, 2022-10-21 19:05:14.128
200.0, -127523.07236469655, -156267.70630689934, -29298.4654663164, -135856.2273807797, 63592.34465269383, -70415.57227558759, 54566.10674454054, -112527.1081956754, 0.024, 0.962, -0.024, 192.0, 0.0, 0.0, 0.0, 0.0, 0.0, 0.0, 0.0, 0.0, 0.0, 1.6664043141281278E9, 0.0, 2022-10-21 19:05:14.128
201.0, -127523.31823388557, -156267.0804580546, -29298.018431427296, -135863.2681802831, 63589.193056725635, -70438.19224097636, 54545.83371231958, -112524.94007646324, 0.024, 0.964, -0.02, 192.0, 0.0, 192.0, 30.0, 32.0, 255.0, 96.0, 0.0, 0.0, 0.0, 1.6664043141281414E9, 0.0, 2022-10-21 19:05:14.128
202.0, -127527.36389963198, -156272.5342837017, -29304.522789063787, -135861.45768898222, 63585.14739097922, -70441.85792706703, 54544.47025590781, -112526.30353287501, 0.024, 0.964, -0.02, 192.0, 0.0, 0.0, 0.0, 0.0, 0.0, 0.0, 0.0, 0.0, 0.0, 1.6664043141281557E9, 0.0, 2022-10-21 19:05:14.128
203.0, -127517.95381521629, -156268.39921097748, -29300.432419828467, -135849.9241888433, 63591.22706547107, -70409.91728424041, 54567.89488409697, -112520.78265199455, 0.024, 0.964, -0.02, 192.0, 0.0, 0.0, 0.0, 0.0, 0.0, 0.0, 0.0, 0.0, 0.0, 1.6664043141281693E9, 0.0, 2022-10-21 19:05:14.128
204.0, -127509.50485581218, -156260.30787948464, -29292.65401275802, -135844.1127352849, 63603.96755981059, -70425.58585710358, 54562.99985206126, -112504.44352679772, 0.024, 0.964, -0.02, 192.0, 0.0, 0.0, 0.0, 0.0, 0.0, 0.0, 0.0, 0.0, 0.0, 1.6664043141281824E9, 0.0, 2022-10-21 19:05:14.128
205.0, -127518.64671929441, -156272.91426335744, -29303.896940219038, -135858.8648866254, 63598.64784463023, -70443.40019743446, 54548.33710769858, -112517.38518683735, 0.024, 0.964, -0.02, 192.0, 0.0, 0.0, 0.0, 0.0, 0.0, 0.0, 0.0, 0.0, 0.0, 1.6664043141281958E9, 0.0, 2022-10-21 19:05:14.128
206.0, -127535.2987689136, -156283.57604546263, -29312.65882404552, -135860.7647849041, 63588.09782124732, -70428.73745307178, 54553.969747301315, -112524.94007646324, 0.024, 0.964, -0.02, 192.0, 0.0, 0.0, 0.0, 0.0, 0.0, 0.0, 0.0, 0.0, 0.0, 1.666404314128209E9, 0.0, 2022-10-21 19:05:14.128
207.0, -127549.08979524253, -156293.50022000077, -29324.594655584653, -135868.61024720792, 63578.1065914758, -70406.22924640527, 54564.98915731778, -112531.22091665518, 0.024, 0.964, -0.02, 192.0, 0.0, 0.0, 0.0, 0.0, 0.0, 0.0, 0.0, 0.0, 0.0, 1.6664043141282227E9, 0.0, 2022-10-21 19:05:14.128
208.0, -127530.0461089666, -156276.35643200355, -29309.261358888314, -135856.1156220574, 63597.865533574295, -70387.23026361827, 54579.383680747, -112516.8040414815, 0.024, 0.964, -0.02, 192.0, 0.0, 0.0, 0.0, 0.0, 0.0, 0.0, 0.0, 0.0, 0.0, 1.666404314128236E9, 0.0, 2022-10-21 19:05:14.128
209.0, -127520.9489489733, -156268.55567318865, -29298.867797716597, -135851.89114235534, 63610.62837965827, -70412.30892089712, 54565.23502650679, -112507.32690183246, 0.024, 0.964, -0.02, 192.0, 0.0, 0.0, 0.0, 0.0, 0.0, 0.0, 0.0, 0.0, 0.0, 1.666404314128281E9, 0.0, 2022-10-21 19:05:14.128
210.0, -127526.51453334268, -156270.5449784452, -29301.170027395492, -135852.18171503328, 63609.35433022432, -70428.60334260504, 54559.22240724831, -112516.02173042558, 0.024, 0.964, -0.02, 192.0, 0.0, 0.0, 0.0, 0.0, 0.0, 0.0, 0.0, 0.0, 0.0, 1.6664043141282947E9, 0.0, 2022-10-21 19:05:14.128
211.0, -127526.22396066475, -156269.3379842446, -29298.756038994317, -135848.5160289426, 63608.81788835739, -70411.86188600802, 54578.3331487576, -112517.809869982, 0.022, 0.97, -0.018000000000000002, 192.0, 0.0, 176.0, 30.0, 80.0, 255.0, 112.0, 0.0, 0.0, 0.0, 1.6664043141283083E9, 0.0, 2022-10-21 19:05:14.128
212.0, -127528.39207987692, -156275.12708605852, -29307.249701887336, -135855.5121249571, 63602.38058595426, -70394.04754567714, 54584.099898827066, -112521.43085258376, 0.022, 0.97, -0.018000000000000002, 192.0, 0.0, 0.0, 0.0, 0.0, 0.0, 0.0, 0.0, 0.0, 0.0, 1.6664043141283224E9, 0.0, 2022-10-21 19:05:14.128
213.0, -127530.42608862235, -156278.16692330444, -29314.558722324222, -135872.54415423205, 63591.22706547107, -70406.85509525002, 54565.88322709599, -112529.03044569856, 0.022, 0.97, -0.018000000000000002, 192.0, 0.0, 0.0, 0.0, 0.0, 0.0, 0.0, 0.0, 0.0, 0.0, 1.666404314128336E9, 0.0, 2022-10-21 19:05:14.128
214.0, -127517.93146347183, -156265.22526326482, -29302.913463463006, -135858.2613895251, 63599.34074870834, -70417.09219421056, 54565.52559918471, -112516.04408217003, 0.022, 0.97, -0.018000000000000002, 192.0, 0.0, 0.0, 0.0, 0.0, 0.0, 0.0, 0.0, 0.0, 0.0, 1.6664043141283493E9, 0.0, 2022-10-21 19:05:14.128
215.0, -127523.76526877467, -156269.2932807557, -29314.201094412936, -135852.04760456653, 63594.1104405058, -70404.35169987103, 54576.61206443454, -112511.35021583442, 0.022, 0.97, -0.018000000000000002, 192.0, 0.0, 0.0, 0.0, 0.0, 0.0, 0.0, 0.0, 0.0, 0.0, 1.6664043141283627E9, 0.0, 2022-10-21 19:05:14.128
216.0, -127508.7448965007, -156254.4740741818, -29324.3711381401, -135869.54902047504, 63582.1075537333, -70407.30213013913, 54569.43715446439, -112523.57662005146, 0.022, 0.97, -0.018000000000000002, 192.0, 0.0, 0.0, 0.0, 0.0, 0.0, 0.0, 0.0, 0.0, 0.0, 1.666404314128376E9, 0.0, 2022-10-21 19:05:14.128
217.0, -127501.05589640808, -156251.81421659162, -29311.04949844474, -135864.13989831685, 63597.75377485201, -70433.40896766294, 54560.675270637905, -112505.06937564247, 0.022, 0.97, -0.018000000000000002, 192.0, 0.0, 0.0, 0.0, 0.0, 0.0, 0.0, 0.0, 0.0, 0.0, 1.6664043141283896E9, 0.0, 2022-10-21 19:05:14.128
218.0, -127525.84398100902, -156281.5867402061, -29308.054364687727, -135856.38384299088, 63607.096804034336, -70443.10962475653, 54560.69762238236, -112513.78655598004, 0.022, 0.97, -0.018000000000000002, 192.0, 0.0, 0.0, 0.0, 0.0, 0.0, 0.0, 0.0, 0.0, 0.0, 1.6664043141284027E9, 0.0, 2022-10-21 19:05:14.128
219.0, -127521.08305944003, -156280.13387681652, -29310.110725177616, -135855.89210461284, 63602.961731310104, -70445.0765782686, 54565.167971273426, -112517.78751823754, 0.022, 0.97, -0.018000000000000002, 192.0, 0.0, 0.0, 0.0, 0.0, 0.0, 0.0, 0.0, 0.0, 0.0, 1.6664043141284175E9, 0.0, 2022-10-21 19:05:14.128
220.0, -127514.84692273701, -156274.4341819804, -29307.964957709904, -135851.80173537752, 63601.88884757624, -70442.50612765625, 54573.0804888106, -112517.04991067051, 0.022, 0.97, -0.018000000000000002, 192.0, 0.0, 0.0, 0.0, 0.0, 0.0, 0.0, 0.0, 0.0, 0.0, 1.666404314128431E9, 0.0, 2022-10-21 19:05:14.128
221.0, -127517.68559428283, -156272.3331180016, -29312.85998974562, -135859.826011637, 63597.262036474, -70435.80060431965, 54573.9298550999, -112526.37058810837, 0.024, 0.966, -0.022, 192.0, 0.0, 192.0, 30.0, 48.0, 255.0, 80.0, 0.0, 0.0, 0.0, 1.6664043141284444E9, 0.0, 2022-10-21 19:05:14.128
222.0, -127520.52426582864, -156276.71405991484, -29318.671443303996, -135867.6267704519, 63593.372832938774, -70461.885090099, 54553.36625020102, -112528.38224510936, 0.024, 0.966, -0.022, 192.0, 0.0, 0.0, 0.0, 0.0, 0.0, 0.0, 0.0, 0.0, 0.0, 1.6664043141284585E9, 0.0, 2022-10-21 19:05:14.128
223.0, -127520.99365246222, -156280.3350425166, -29320.772507282796, -135860.13893605935, 63593.9092748057, -70459.26993599773, 54559.55768341514, -112522.68255027325, 0.024, 0.966, -0.022, 192.0, 0.0, 0.0, 0.0, 0.0, 0.0, 0.0, 0.0, 0.0, 0.0, 1.666404314128472E9, 0.0, 2022-10-21 19:05:14.128
224.0, -127522.82649550754, -156281.85496113956, -29325.734594551875, -135867.33619777396, 63588.29898694742, -70441.00856077773, 54572.924026599416, -112520.22385838316, 0.024, 0.966, -0.022, 192.0, 0.0, 0.0, 0.0, 0.0, 0.0, 0.0, 0.0, 0.0, 0.0, 1.6664043141285188E9, 0.0, 2022-10-21 19:05:14.128
225.0, -127539.03151023765, -156297.16590609145, -29341.80549881524, -135885.46346252723, 63570.55170184991, -70433.83365080759, 54564.69858463986, -112539.78163478157, 0.024, 0.966, -0.022, 192.0, 0.0, 0.0, 0.0, 0.0, 0.0, 0.0, 0.0, 0.0, 0.0, 1.6664043141285324E9, 0.0, 2022-10-21 19:05:14.128
226.0, -127531.6554345674, -156290.70625194386, -29333.736519066875, -135885.1728898493, 63578.710088576096, -70446.77531084721, 54552.98627054528, -112539.44635861473, 0.024, 0.966, -0.022, 192.0, 0.0, 0.0, 0.0, 0.0, 0.0, 0.0, 0.0, 0.0, 0.0, 1.6664043141285455E9, 0.0, 2022-10-21 19:05:14.128
227.0, -127509.88483546792, -156270.41086797844, -29315.34103338016, -135857.45672672472, 63601.30770222041, -70433.83365080759, 54571.11353529854, -112516.42406182576, 0.024, 0.966, -0.022, 192.0, 0.0, 0.0, 0.0, 0.0, 0.0, 0.0, 0.0, 0.0, 0.0, 1.6664043141285589E9, 0.0, 2022-10-21 19:05:14.128
228.0, -127506.93440519982, -156267.37103073252, -29313.731707779374, -135852.807563878, 63601.77708885397, -70419.70734831183, 54585.55276221666, -112511.43962281224, 0.024, 0.966, -0.022, 192.0, 0.0, 0.0, 0.0, 0.0, 0.0, 0.0, 0.0, 0.0, 0.0, 1.666404314128572E9, 0.0, 2022-10-21 19:05:14.128
229.0, -127510.68949826832, -156269.5391499447, -29314.245797901847, -135856.18267729078, 63602.44764118763, -70412.39832787494, 54588.61495120704, -112519.1062711604, 0.024, 0.966, -0.022, 192.0, 0.0, 0.0, 0.0, 0.0, 0.0, 0.0, 0.0, 0.0, 0.0, 1.666404314128585E9, 0.0, 2022-10-21 19:05:14.128
230.0, -127505.9509284438, -156261.85014985208, -29309.596635055143, -135863.7822704056, 63603.98991155504, -70431.88904903996, 54571.96290158784, -112506.87986694335, 0.024, 0.966, -0.022, 192.0, 0.0, 0.0, 0.0, 0.0, 0.0, 0.0, 0.0, 0.0, 0.0, 1.6664043141285992E9, 0.0, 2022-10-21 19:05:14.128
231.0, -127507.18027438883, -156262.20777776334, -29309.529579821778, -135862.8658488829, 63603.90050457722, -70449.88220332649, 54564.98915731778, -112512.46780305718, 0.02, 0.962, -0.02, 192.0, 0.0, 160.0, 30.0, 16.0, 255.0, 96.0, 0.0, 0.0, 0.0, 1.6664043141286125E9, 0.0, 2022-10-21 19:05:14.128
232.0, -127506.57677728854, -156262.1854260189, -29304.41103034151, -135850.8182586215, 63609.35433022432, -70428.69274958286, 54582.40116624846, -112523.64367528484, 0.02, 0.962, -0.02, 192.0, 0.0, 0.0, 0.0, 0.0, 0.0, 0.0, 0.0, 0.0, 0.0, 1.6664043141286263E9, 0.0, 2022-10-21 19:05:14.128
233.0, -127508.9013587119, -156266.29814699868, -29301.639414029054, -135861.74826166013, 63609.64490290224, -70416.75691804373, 54587.8326401511, -112521.07322467247, 0.02, 0.962, -0.02, 192.0, 0.0, 0.0, 0.0, 0.0, 0.0, 0.0, 0.0, 0.0, 0.0, 1.6664043141286397E9, 0.0, 2022-10-21 19:05:14.128
234.0, -127504.5427685431, -156263.66064115294, -29303.963995452406, -135869.48196524166, 63609.15316452422, -70452.18443300539, 54565.59265441808, -112518.2122013822, 0.02, 0.962, -0.02, 192.0, 0.0, 0.0, 0.0, 0.0, 0.0, 0.0, 0.0, 0.0, 0.0, 1.6664043141286528E9, 0.0, 2022-10-21 19:05:14.128
235.0, -127506.06268716606, -156261.5819289186, -29305.88624547556, -135864.45282273923, 63607.1638592677, -70469.77525589171, 54558.35068921455, -112514.21123912469, 0.02, 0.962, -0.02, 192.0, 0.0, 0.0, 0.0, 0.0, 0.0, 0.0, 0.0, 0.0, 0.0, 1.666404314128666E9, 0.0, 2022-10-21 19:05:14.128
236.0, -127515.29395762611, -156273.9871470913, -29312.45765834542, -135860.4295087373, 63600.32422546438, -70446.82001433612, 54576.00856733425, -112516.24524787013, 0.02, 0.962, -0.02, 192.0, 0.0, 0.0, 0.0, 0.0, 0.0, 0.0, 0.0, 0.0, 0.0, 1.6664043141286795E9, 0.0, 2022-10-21 19:05:14.128
237.0, -127508.56608254506, -156270.20970227834, -29305.595672797645, -135862.2176482937, 63600.994777798034, -70433.34191242956, 54585.932741872406, -112516.82639322596, 0.02, 0.962, -0.02, 192.0, 0.0, 0.0, 0.0, 0.0, 0.0, 0.0, 0.0, 0.0, 0.0, 1.6664043141286926E9, 0.0, 2022-10-21 19:05:14.128
238.0, -127510.91301571287, -156274.32242325813, -29313.2176176569, -135870.53249723106, 63601.01712954249, -70436.76172933122, 54577.61789293503, -112526.79527125302, 0.02, 0.962, -0.02, 192.0, 0.0, 0.0, 0.0, 0.0, 0.0, 0.0, 0.0, 0.0, 0.0, 1.666404314128706E9, 0.0, 2022-10-21 19:05:14.128
239.0, -127508.9013587119, -156274.65769942495, -29313.731707779374, -135871.6277327094, 63600.97242605358, -70441.2767817112, 54569.41480271993, -112513.04894841302, 0.02, 0.962, -0.02, 192.0, 0.0, 0.0, 0.0, 0.0, 0.0, 0.0, 0.0, 0.0, 0.0, 1.666404314128751E9, 0.0, 2022-10-21 19:05:14.128
240.0, -127499.35716382947, -156271.55080694566, -29313.999928712838, -135862.59762794944, 63600.34657720883, -70442.39436893396, 54574.9803870893, -112501.04606164052, 0.02, 0.966, -0.018000000000000002, 192.0, 0.0, 160.0, 30.0, 48.0, 255.0, 112.0, 0.0, 0.0, 0.0, 1.666404314128766E9, 0.0, 2022-10-21 19:05:14.128
241.0, -127493.12102712644, -156271.97549009032, -29316.592731069653, -135863.29053202755, 63596.34561495133, -70433.23015370729, 54580.85889588105, -112518.14514614883, 0.02, 0.966, -0.018000000000000002, 192.0, 0.0, 0.0, 0.0, 0.0, 0.0, 0.0, 0.0, 0.0, 0.0, 1.6664043146053967E9, 0.0, 2022-10-21 19:05:14.605
242.0, -127507.8955302114, -156279.17275180493, -29318.582036326177, -135869.41491000832, 63597.999644041025, -70436.56056363112, 54574.28748301119, -112524.7612625076, 0.02, 0.966, -0.018000000000000002, 192.0, 0.0, 0.0, 0.0, 0.0, 0.0, 0.0, 0.0, 0.0, 0.0, 1.6664043146055925E9, 0.0, 2022-10-21 19:05:14.605
243.0, -127500.02771616314, -156267.4827894548, -29307.13794316506, -135864.6763401838, 63607.096804034336, -70451.67034288292, 54565.927930584905, -112511.66314025679, 0.02, 0.966, -0.018000000000000002, 192.0, 0.0, 0.0, 0.0, 0.0, 0.0, 0.0, 0.0, 0.0, 0.0, 1.6664043146056235E9, 0.0, 2022-10-21 19:05:14.605
244.0, -127491.22112884774, -156259.391457962, -29301.885283218064, -135840.9611393167, 63617.49036520605, -70452.27383998322, 54575.71799465633, -112504.44352679772, 0.02, 0.966, -0.018000000000000002, 192.0, 0.0, 0.0, 0.0, 0.0, 0.0, 0.0, 0.0, 0.0, 0.0, 1.6664043146056528E9, 0.0, 2022-10-21 19:05:14.605
245.0, -127501.48057955274, -156269.0921150556, -29311.161257167016, -135849.5218574431, 63610.67308314718, -70455.6266016515, 54578.914294113434, -112514.56886703598, 0.02, 0.966, -0.018000000000000002, 192.0, 0.0, 0.0, 0.0, 0.0, 0.0, 0.0, 0.0, 0.0, 0.0, 1.6664043146056812E9, 0.0, 2022-10-21 19:05:14.605
246.0, -127507.58260578902, -156273.0483738242, -29317.822077014695, -135864.00578785012, 63602.313530720894, -70454.95604931784, 54572.99108183278, -112520.55913455, 0.02, 0.966, -0.018000000000000002, 192.0, 0.0, 0.0, 0.0, 0.0, 0.0, 0.0, 0.0, 0.0, 0.0, 1.66640431460571E9, 0.0, 2022-10-21 19:05:14.605
247.0, -127507.11321915546, -156273.0930773131, -29311.496533333844, -135863.2234767942, 63610.62837965827, -70468.21063377985, 54566.822000363114, -112507.304550088, 0.02, 0.966, -0.018000000000000002, 192.0, 0.0, 0.0, 0.0, 0.0, 0.0, 0.0, 0.0, 0.0, 0.0, 1.6664043146057382E9, 0.0, 2022-10-21 19:05:14.605
248.0, -127510.42127733486, -156283.91132162945, -29313.396431612546, -135865.65981693982, 63606.00156855602, -70470.31169775865, 54570.3312242426, -112503.90708493079, 0.02, 0.966, -0.018000000000000002, 192.0, 0.0, 0.0, 0.0, 0.0, 0.0, 0.0, 0.0, 0.0, 0.0, 1.6664043146057656E9, 0.0, 2022-10-21 19:05:14.605
249.0, -127506.8002947331, -156281.69849892837, -29314.51401883531, -135860.071880826, 63604.19107725514, -70461.34864823206, 54577.528485957206, -112503.97414016417, 0.02, 0.966, -0.018000000000000002, 192.0, 0.0, 0.0, 0.0, 0.0, 0.0, 0.0, 0.0, 0.0, 0.0, 1.6664043146057942E9, 0.0, 2022-10-21 19:05:14.605
250.0, -127506.1967976328, -156281.18440880592, -29315.22927465788, -135864.05049133903, 63604.74987086652, -70452.05032253866, 54579.696605169374, -112499.74966046211, 0.016, 0.96, -0.012, 192.0, 0.0, 128.0, 30.0, 0.0, 255.0, 160.0, 0.0, 0.0, 0.0, 1.666404314605822E9, 0.0, 2022-10-21 19:05:14.605
251.0, -127503.0452016646, -156280.2903390277, -29313.508190334822, -135864.49752622814, 63610.33780698035, -70462.10860754355, 54568.453677708356, -112504.73409947564, 0.016, 0.96, -0.012, 192.0, 0.0, 0.0, 0.0, 0.0, 0.0, 0.0, 0.0, 0.0, 0.0, 1.666404314605852E9, 0.0, 2022-10-21 19:05:14.605
252.0, -127500.00536441868, -156280.58091170562, -29308.680213532476, -135863.7152151722, 63607.499135434526, -70488.59542472308, 54555.55672115764, -112497.71565171667, 0.016, 0.96, -0.012, 192.0, 0.0, 0.0, 0.0, 0.0, 0.0, 0.0, 0.0, 0.0, 0.0, 1.6664043146058805E9, 0.0, 2022-10-21 19:05:14.605
253.0, -127490.72939046973, -156273.36129824654, -29299.583053539165, -135857.68024416929, 63613.95878958211, -70487.14256133349, 54572.924026599416, -112494.07231737046, 0.016, 0.96, -0.012, 192.0, 0.0, 0.0, 0.0, 0.0, 0.0, 0.0, 0.0, 0.0, 0.0, 1.6664043146059086E9, 0.0, 2022-10-21 19:05:14.605
254.0, -127490.14824511389, -156269.56150168914, -29298.4654663164, -135861.6812064268, 63617.11038555031, -70469.2835175137, 54588.45848899585, -112501.67191048527, 0.016, 0.96, -0.012, 192.0, 0.0, 0.0, 0.0, 0.0, 0.0, 0.0, 0.0, 0.0, 0.0, 1.6664043146060994E9, 0.0, 2022-10-21 19:05:14.606
255.0, -127491.2881840811, -156270.70144065635, -29295.60444302612, -135866.10685182892, 63619.1667460402, -70493.40104978098, 54569.12423004201, -112506.36577682088, 0.016, 0.96, -0.012, 192.0, 0.0, 0.0, 0.0, 0.0, 0.0, 0.0, 0.0, 0.0, 0.0, 1.6664043146061125E9, 0.0, 2022-10-21 19:05:14.606
0.0, -127489.9917829027, -156268.62272842202, -29292.296384846733, -135863.2234767942, 63622.318342008395, -70517.74209949281, 54560.809381104635, -112502.09659362992, 0.016, 0.96, -0.012, 192.0, 0.0, 0.0, 0.0, 0.0, 0.0, 0.0, 0.0, 0.0, 0.0, 1.6664043146061249E9, 0.0, 2022-10-21 19:05:14.606
1.0, -127497.7925417176, -156274.47888546932, -29302.399373340533, -135865.65981693982, 63613.04236805945, -70512.89177094601, 54568.856009108546, -112507.88569544384, 0.016, 0.96, -0.012, 192.0, 0.0, 0.0, 0.0, 0.0, 0.0, 0.0, 0.0, 0.0, 0.0, 1.6664043146061368E9, 0.0, 2022-10-21 19:05:14.606
2.0, -127495.71382948325, -156274.32242325813, -29301.460600073413, -135858.28374126958, 63616.037501816456, -70487.16491307794, 54585.82098315013, -112506.07520414297, 0.016, 0.96, -0.012, 192.0, 0.0, 0.0, 0.0, 0.0, 0.0, 0.0, 0.0, 0.0, 0.0, 1.6664043146061492E9, 0.0, 2022-10-21 19:05:14.606
3.0, -127495.0879806385, -156274.30007151366, -29301.594710540143, -135863.44699423874, 63617.713882650605, -70497.9384539054, 54574.242779522276, -112505.87403844287, 0.016, 0.96, -0.012, 192.0, 0.0, 0.0, 0.0, 0.0, 0.0, 0.0, 0.0, 0.0, 0.0, 1.666404314606161E9, 0.0, 2022-10-21 19:05:14.606
4.0, -127506.68853601081, -156286.1911995639, -29315.028108957784, -135882.89301191486, 63601.151240009225, -70516.42334656994, 54555.80259034665, -112519.73212000515, 0.018000000000000002, 0.9560000000000001, -0.02, 192.0, 0.0, 144.0, 29.0, 224.0, 255.0, 96.0, 0.0, 0.0, 0.0, 1.6664043146061733E9, 0.0, 2022-10-21 19:05:14.606
5.0, -127505.77211448815, -156284.40306000746, -29314.89399849105, -135882.49068051466, 63597.6643678742, -70512.53414303472, 54561.97167181631, -112525.07418692997, 0.018000000000000002, 0.9560000000000001, -0.02, 192.0, 0.0, 0.0, 0.0, 0.0, 0.0, 0.0, 0.0, 0.0, 0.0, 1.666404314606193E9, 0.0, 2022-10-21 19:05:14.606
6.0, -127502.82168422005, -156281.96671986184, -29314.022280457295, -135880.47902351368, 63600.95007430913, -70487.56724447814, 54576.969692345825, -112524.89537297432, 0.018000000000000002, 0.9560000000000001, -0.02, 192.0, 0.0, 0.0, 0.0, 0.0, 0.0, 0.0, 0.0, 0.0, 0.0, 1.6664043146062052E9, 0.0, 2022-10-21 19:05:14.606
7.0, -127504.56512028756, -156286.90645538646, -29316.480972347377, -135889.35266606245, 63599.09487951933, -70491.12117184653, 54567.604311419054, -112529.74570152113, 0.018000000000000002, 0.9560000000000001, -0.02, 192.0, 0.0, 0.0, 0.0, 0.0, 0.0, 0.0, 0.0, 0.0, 0.0, 1.6664043146062171E9, 0.0, 2022-10-21 19:05:14.606
8.0, -127499.53597778511, -156278.90453087146, -29307.584978054165, -135875.71810194472, 63611.18717326965, -70503.1911138524, 54561.54698867166, -112521.07322467247, 0.018000000000000002, 0.9560000000000001, -0.02, 192.0, 0.0, 0.0, 0.0, 0.0, 0.0, 0.0, 0.0, 0.0, 0.0, 1.6664043146062293E9, 0.0, 2022-10-21 19:05:14.606
9.0, -127490.99761140319, -156267.6839551549, -29300.164198895003, -135861.70355817123, 63618.607952428814, -70529.32030312065, 54556.54019791367, -112508.69035824423, 0.018000000000000002, 0.9560000000000001, -0.02, 192.0, 0.0, 0.0, 0.0, 0.0, 0.0, 0.0, 0.0, 0.0, 0.0, 1.6664043146062407E9, 0.0, 2022-10-21 19:05:14.606
10.0, -127506.62148077745, -156282.99490010677, -29316.07864094718, -135867.96204661872, 63611.09776629183, -70495.54681724869, 54579.24957028026, -112519.7097682607, 0.018000000000000002, 0.9560000000000001, -0.02, 192.0, 0.0, 0.0, 0.0, 0.0, 0.0, 0.0, 0.0, 0.0, 0.0, 1.666404314606253E9, 0.0, 2022-10-21 19:05:14.606
11.0, -127502.77698073114, -156279.01628959374, -29313.977576968384, -135879.6743607133, 63608.95199882412, -70502.9899481523, 54568.27486375271, -112515.26177111409, 0.018000000000000002, 0.9560000000000001, -0.02, 192.0, 0.0, 0.0, 0.0, 0.0, 0.0, 0.0, 0.0, 0.0, 0.0, 1.6664043146062648E9, 0.0, 2022-10-21 19:05:14.606
12.0, -127497.27845159514, -156273.6965744134, -29306.400335598035, -135877.28272405657, 63615.50105994953, -70538.57392532515, 54548.024183276204, -112513.0042449241, 0.018000000000000002, 0.9560000000000001, -0.02, 192.0, 0.0, 0.0, 0.0, 0.0, 0.0, 0.0, 0.0, 0.0, 0.0, 1.6664043146062784E9, 0.0, 2022-10-21 19:05:14.606
13.0, -127503.22401562025, -156280.91618787244, -29311.13890542256, -135870.57720072, 63614.3164174934, -70535.48938459031, 54555.98140430229, -112517.83222172645, 0.024, 0.962, -0.02, 192.0, 0.0, 192.0, 30.0, 16.0, 255.0, 96.0, 0.0, 0.0, 0.0, 1.666404314606336E9, 0.0, 2022-10-21 19:05:14.606
14.0, -127505.77211448815, -156286.57117921964, -29316.726841536387, -135871.4265670093, 63609.08610929085, -70512.62355001253, 54573.0804888106, -112519.01686418259, 0.024, 0.962, -0.02, 192.0, 0.0, 0.0, 0.0, 0.0, 0.0, 0.0, 0.0, 0.0, 0.0, 1.6664043146063497E9, 0.0, 2022-10-21 19:05:14.606
15.0, -127506.12974239943, -156287.50995248675, -29318.783202026276, -135885.06113112703, 63600.503039420015, -70509.0472708997, 54567.671366652416, -112525.47651833016, 0.024, 0.962, -0.02, 192.0, 0.0, 0.0, 0.0, 0.0, 0.0, 0.0, 0.0, 0.0, 0.0, 1.6664043146063616E9, 0.0, 2022-10-21 19:05:14.606
