%OpenBCI Raw EEG Data
%Number of channels = 8
%Sample Rate = 250 Hz
%Board = OpenBCI_GUI$BoardCytonSerial
Sample Index, EXG Channel 0, EXG Channel 1, EXG Channel 2, EXG Channel 3, EXG Channel 4, EXG Channel 5, EXG Channel 6, EXG Channel 7, Accel Channel 0, Accel Channel 1, Accel Channel 2, Other, Other, Other, Other, Other, Other, Other, Analog Channel 0, Analog Channel 1, Analog Channel 2, Timestamp, Other, Timestamp (Formatted)
225.0, -156022.35120801345, -150520.98340046208, 63913.427461794316, -62067.91097735298, 77160.2558684654, -82522.7299359715, 86851.97226428655, -128562.71905454625, 0.0, 0.0, 0.0, 192.0, 0.0, 0.0, 0.0, 0.0, 0.0, 0.0, 0.0, 0.0, 0.0, 1.6664085794217849E9, 0.0, 2022-10-21 20:16:19.421
226.0, -156021.68065567978, -150519.26231613904, 63911.661673982344, -62056.60099465859, 77161.64167662164, -82516.51615101293, 86878.12380529927, -128561.66852255685, 0.0, 0.0, 0.0, 192.0, 0.0, 0.0, 0.0, 0.0, 0.0, 0.0, 0.0, 0.0, 0.0, 1.6664085794218187E9, 0.0, 2022-10-21 20:16:19.421
227.0, -156015.71273991023, -150511.30509511294, 63909.27003732563, -62062.9488900839, 77157.14897598613, -82515.6220812347, 86894.39587526272, -128564.8424702695, 0.0, 0.0, 0.0, 192.0, 0.0, 0.0, 0.0, 0.0, 0.0, 0.0, 0.0, 0.0, 0.0, 1.6664085794218402E9, 0.0, 2022-10-21 20:16:19.421
228.0, -155995.59616990044, -150490.0709378804, 63920.334150831004, -62071.040221576724, 77164.12272025619, -82513.16338934463, 86879.06257856639, -128560.48388010073, -0.02, 0.9420000000000001, -0.146, 192.0, 255.0, 96.0, 29.0, 112.0, 251.0, 112.0, 0.0, 0.0, 0.0, 1.666408579421861E9, 0.0, 2022-10-21 20:16:19.421
229.0, -155986.3201959515, -150481.4208127762, 63930.10186315798, -62069.11797155356, 77173.30928722731, -82504.04387760686, 86865.11509002627, -128554.56066782007, -0.02, 0.9420000000000001, -0.146, 192.0, 0.0, 0.0, 0.0, 0.0, 0.0, 0.0, 0.0, 0.0, 0.0, 1.6664085794218867E9, 0.0, 2022-10-21 20:16:19.421
230.0, -155974.8537510459, -150469.0602980924, 63935.33217136052, -62049.18021549943, 77181.22180476449, -82490.61047918921, 86895.0664275964, -128545.99994969368, -0.02, 0.9420000000000001, -0.146, 192.0, 0.0, 0.0, 0.0, 0.0, 0.0, 0.0, 0.0, 0.0, 0.0, 1.6664085794219089E9, 0.0, 2022-10-21 20:16:19.421
231.0, -155970.67397483278, -150462.28771952246, 63932.98523819271, -62047.66029687647, 77178.74076112996, -82488.59882218824, 86922.76023897651, -128544.10005141498, -0.02, 0.9420000000000001, -0.146, 192.0, 0.0, 0.0, 0.0, 0.0, 0.0, 0.0, 0.0, 0.0, 0.0, 1.6664085794219303E9, 0.0, 2022-10-21 20:16:19.421
232.0, -155964.8178177855, -150459.1584752987, 63930.548898047084, -62063.820608117654, 77174.04689479434, -82497.9194996261, 86901.99546837753, -128548.92802821733, -0.02, 0.9420000000000001, -0.146, 192.0, 0.0, 0.0, 0.0, 0.0, 0.0, 0.0, 0.0, 0.0, 0.0, 1.666408579421952E9, 0.0, 2022-10-21 20:16:19.421
233.0, -155953.01609671308, -150447.49086469304, 63932.80642423707, -62063.88766335102, 77177.6678773961, -82498.9253281266, 86872.58057267434, -128553.53248757512, -0.02, 0.9420000000000001, -0.146, 192.0, 0.0, 0.0, 0.0, 0.0, 0.0, 0.0, 0.0, 0.0, 0.0, 1.6664085794219732E9, 0.0, 2022-10-21 20:16:19.421
234.0, -155947.04818094353, -150442.81935010187, 63932.024113181134, -62063.32886973964, 77176.84086285126, -82495.59491820275, 86886.14808155871, -128548.03395843912, -0.02, 0.9420000000000001, -0.146, 192.0, 0.0, 0.0, 0.0, 0.0, 0.0, 0.0, 0.0, 0.0, 0.0, 1.6664085794219887E9, 0.0, 2022-10-21 20:16:19.421
235.0, -155943.27073613057, -150438.37135295526, 63933.74519750419, -62062.367744728064, 77178.85251985223, -82483.27910700788, 86923.60960526581, -128538.75798449016, -0.02, 0.9420000000000001, -0.146, 192.0, 0.0, 0.0, 0.0, 0.0, 0.0, 0.0, 0.0, 0.0, 0.0, 1.666408579422004E9, 0.0, 2022-10-21 20:16:19.422
236.0, -155930.32907609094, -150423.93212603714, 63936.02507543863, -62065.295823251705, 77176.70675238452, -82490.23049953349, 86913.10428537182, -128544.45767932627, -0.02, 0.9420000000000001, -0.146, 192.0, 0.0, 0.0, 0.0, 0.0, 0.0, 0.0, 0.0, 0.0, 0.0, 1.66640857942202E9, 0.0, 2022-10-21 20:16:19.422
237.0, -155919.82375619694, -150414.2985241769, 63934.28163937112, -62070.392020987514, 77175.52210992838, -82501.83105490578, 86879.1072820553, -128549.77739450663, -0.02, 0.9420000000000001, -0.146, 192.0, 0.0, 0.0, 0.0, 0.0, 0.0, 0.0, 0.0, 0.0, 0.0, 1.6664085794220355E9, 0.0, 2022-10-21 20:16:19.422
238.0, -155907.79851768, -150403.6367420717, 63936.5391655611, -62059.19379701541, 77176.70675238452, -82494.45497923554, 86883.73409315755, -128543.49655431468, -0.026000000000000002, 0.9460000000000001, -0.152, 192.0, 255.0, 48.0, 29.0, 144.0, 251.0, 64.0, 0.0, 0.0, 0.0, 1.6664085794220507E9, 0.0, 2022-10-21 20:16:19.422
239.0, -155904.62456996736, -150398.16056468018, 63941.56830806355, -62041.871195062544, 77183.14405478764, -82481.17804302908, 86919.98862266405, -128536.5451617891, -0.026000000000000002, 0.9460000000000001, -0.152, 192.0, 0.0, 0.0, 0.0, 0.0, 0.0, 0.0, 0.0, 0.0, 0.0, 1.6664085794220676E9, 0.0, 2022-10-21 20:16:19.422
240.0, -155901.16004957678, -150394.51723033396, 63936.80738649457, -62054.63404114653, 77178.09256054075, -82494.79025540236, 86911.1149801153, -128544.18945839281, -0.026000000000000002, 0.9460000000000001, -0.152, 192.0, 0.0, 0.0, 0.0, 0.0, 0.0, 0.0, 0.0, 0.0, 0.0, 1.6664085794220831E9, 0.0, 2022-10-21 20:16:19.422
241.0, -155889.40303199328, -150383.47546857304, 63930.86182246946, -62073.63302393354, 77167.1178540132, -82518.70662196954, 86864.6009999038, -128559.88038300043, -0.026000000000000002, 0.9460000000000001, -0.152, 192.0, 0.0, 0.0, 0.0, 0.0, 0.0, 0.0, 0.0, 0.0, 0.0, 1.6664085794222553E9, 0.0, 2022-10-21 20:16:19.422
242.0, -155872.66157539625, -150367.47161954304, 63936.80738649457, -62063.395924973, 77168.2130894915, -82513.78923818938, 86861.71762486907, -128553.77835676413, -0.026000000000000002, 0.9460000000000001, -0.152, 192.0, 0.0, 0.0, 0.0, 0.0, 0.0, 0.0, 0.0, 0.0, 0.0, 1.6664085794222715E9, 0.0, 2022-10-21 20:16:19.422
243.0, -155867.297156727, -150360.60963399525, 63942.61884005295, -62031.56704086865, 77180.28303149737, -82495.19258680256, 86907.38223879127, -128538.40035657887, -0.026000000000000002, 0.9460000000000001, -0.152, 192.0, 0.0, 0.0, 0.0, 0.0, 0.0, 0.0, 0.0, 0.0, 0.0, 1.6664085794222872E9, 0.0, 2022-10-21 20:16:19.422
244.0, -155862.87151132483, -150355.37932579272, 63940.271906885144, -62034.76334032576, 77179.41131346361, -82501.60753746123, 86912.47843652708, -128545.86583922696, -0.026000000000000002, 0.9460000000000001, -0.152, 192.0, 0.0, 0.0, 0.0, 0.0, 0.0, 0.0, 0.0, 0.0, 0.0, 1.6664085794223027E9, 0.0, 2022-10-21 20:16:19.422
245.0, -155859.31758395644, -150350.4395902681, 63937.969677206245, -62052.75649461228, 77172.86225233821, -82512.93987190007, 86878.21321227709, -128549.33035961752, -0.026000000000000002, 0.9460000000000001, -0.152, 192.0, 0.0, 0.0, 0.0, 0.0, 0.0, 0.0, 0.0, 0.0, 0.0, 1.6664085794223187E9, 0.0, 2022-10-21 20:16:19.422
246.0, -155852.61206061984, -150342.3259070308, 63942.015342952654, -62042.47469216284, 77182.16057803162, -82498.43358974857, 86875.68746515363, -128538.55681879006, -0.026000000000000002, 0.9460000000000001, -0.152, 192.0, 0.0, 0.0, 0.0, 0.0, 0.0, 0.0, 0.0, 0.0, 0.0, 1.6664085794223342E9, 0.0, 2022-10-21 20:16:19.422
247.0, -155845.05717099397, -150339.55429071837, 63948.85497675598, -62023.9897994983, 77189.93898510207, -82481.33450524027, 86912.72430571608, -128530.77841171961, -0.024, 0.9500000000000001, -0.152, 192.0, 255.0, 64.0, 29.0, 176.0, 251.0, 64.0, 0.0, 0.0, 0.0, 1.6664085794223528E9, 0.0, 2022-10-21 20:16:19.422
248.0, -155841.3914849033, -150336.91678487265, 63949.59258432301, -62024.99562799879, 77189.24608102394, -82480.06045580632, 86926.53768378946, -128531.27015009764, -0.024, 0.9500000000000001, -0.152, 192.0, 0.0, 0.0, 0.0, 0.0, 0.0, 0.0, 0.0, 0.0, 0.0, 1.66640857942237E9, 0.0, 2022-10-21 20:16:19.422
249.0, -155836.8764325233, -150330.0324475804, 63951.06779945705, -62022.98397099781, 77191.97299384749, -82488.0176768324, 86901.52608174397, -128533.90765594336, -0.024, 0.9500000000000001, -0.152, 192.0, 0.0, 0.0, 0.0, 0.0, 0.0, 0.0, 0.0, 0.0, 0.0, 1.666408579422386E9, 0.0, 2022-10-21 20:16:19.422
250.0, -155834.66360982225, -150328.06549406835, 63949.52552908964, -62022.51458436425, 77192.28591826987, -82492.35391525674, 86880.18016578915, -128533.3935658209, -0.024, 0.9500000000000001, -0.152, 192.0, 0.0, 0.0, 0.0, 0.0, 0.0, 0.0, 0.0, 0.0, 0.0, 1.6664085794224017E9, 0.0, 2022-10-21 20:16:19.422
251.0, -155833.74718829957, -150329.09367431328, 63948.96673547826, -62007.56126732365, 77197.62798519469, -82482.20622327403, 86909.84093068134, -128524.56462676104, -0.024, 0.9500000000000001, -0.152, 192.0, 0.0, 0.0, 0.0, 0.0, 0.0, 0.0, 0.0, 0.0, 0.0, 1.6664085794224167E9, 0.0, 2022-10-21 20:16:19.422
252.0, -155833.61307783285, -150327.81962487934, 63947.58092732203, -62005.75077602277, 77195.32575551579, -82480.19456627304, 86931.14214314726, -128522.64237673789, -0.024, 0.9500000000000001, -0.152, 192.0, 0.0, 0.0, 0.0, 0.0, 0.0, 0.0, 0.0, 0.0, 0.0, 1.6664085794224324E9, 0.0, 2022-10-21 20:16:19.422
253.0, -155825.275877151, -150319.66123815314, 63953.191215180304, -62014.959694738354, 77198.14207531716, -82484.2625837639, 86914.40068655023, -128521.14480985938, -0.024, 0.9500000000000001, -0.152, 192.0, 0.0, 0.0, 0.0, 0.0, 0.0, 0.0, 0.0, 0.0, 0.0, 1.6664085794224474E9, 0.0, 2022-10-21 20:16:19.422
254.0, -155823.44303410567, -150311.94988631606, 63956.45456987078, -62014.356197638066, 77201.2713195409, -82488.8670431217, 86888.94204961564, -128521.10010637048, -0.024, 0.9500000000000001, -0.152, 192.0, 0.0, 0.0, 0.0, 0.0, 0.0, 0.0, 0.0, 0.0, 0.0, 1.6664085794224627E9, 0.0, 2022-10-21 20:16:19.422
255.0, -155823.48773759458, -150311.23463049348, 63954.80054078109, -62005.393148111485, 77200.35489801824, -82485.62604017569, 86906.15289284622, -128525.2351790947, -0.024, 0.9500000000000001, -0.152, 192.0, 0.0, 0.0, 0.0, 0.0, 0.0, 0.0, 0.0, 0.0, 0.0, 1.6664085794224784E9, 0.0, 2022-10-21 20:16:19.422
0.0, -155819.24090614807, -150309.11121477024, 63960.43318038383, -61996.854781729555, 77204.64643295365, -82471.05270279082, 86939.36758510681, -128517.50147551317, -0.024, 0.9500000000000001, -0.152, 192.0, 0.0, 0.0, 0.0, 0.0, 0.0, 0.0, 0.0, 0.0, 0.0, 1.6664085794225483E9, 0.0, 2022-10-21 20:16:19.422
1.0, -155809.27202812102, -150299.90229605464, 63969.910320032875, -61989.90338920396, 77212.60365397975, -82469.4657289345, 86931.18684663616, -128510.32656554302, -0.026000000000000002, 0.9480000000000001, -0.146, 192.0, 255.0, 48.0, 29.0, 160.0, 251.0, 112.0, 0.0, 0.0, 0.0, 1.6664085794225636E9, 0.0, 2022-10-21 20:16:19.422
2.0, -155798.94552218265, -150290.5369151279, 63978.38163118144, -61990.59629328207, 77220.31500581682, -82470.38215045717, 86907.78457019146, -128505.69975444076, -0.026000000000000002, 0.9480000000000001, -0.146, 192.0, 0.0, 0.0, 0.0, 0.0, 0.0, 0.0, 0.0, 0.0, 0.0, 1.6664085794225807E9, 0.0, 2022-10-21 20:16:19.422
3.0, -155803.46057456263, -150293.88967679616, 63975.34179393552, -61997.07829917411, 77210.5249417454, -82470.82918534627, 86909.46095102561, -128511.66767021033, -0.026000000000000002, 0.9480000000000001, -0.146, 192.0, 0.0, 0.0, 0.0, 0.0, 0.0, 0.0, 0.0, 0.0, 0.0, 1.6664085794225962E9, 0.0, 2022-10-21 20:16:19.422
4.0, -155807.72975775358, -150300.81871757732, 63971.67610784485, -61985.85772345755, 77212.53659874637, -82468.30343822282, 86940.68633802967, -128516.24977782367, -0.026000000000000002, 0.9480000000000001, -0.146, 192.0, 0.0, 0.0, 0.0, 0.0, 0.0, 0.0, 0.0, 0.0, 0.0, 1.6664085794226117E9, 0.0, 2022-10-21 20:16:19.422
5.0, -155807.46153682013, -150302.76331934493, 63969.10565723249, -61994.2843311172, 77205.20522656504, -82482.38503722967, 86926.96236693411, -128522.95530116025, -0.026000000000000002, 0.9480000000000001, -0.146, 192.0, 0.0, 0.0, 0.0, 0.0, 0.0, 0.0, 0.0, 0.0, 0.0, 1.6664085794226267E9, 0.0, 2022-10-21 20:16:19.422
6.0, -155802.09711815085, -150294.7837465744, 63971.162017722374, -62001.86157248755, 77201.33837477426, -82493.38209550169, 86890.37256126077, -128527.91738842934, -0.026000000000000002, 0.9480000000000001, -0.146, 192.0, 0.0, 0.0, 0.0, 0.0, 0.0, 0.0, 0.0, 0.0, 0.0, 1.666408579422642E9, 0.0, 2022-10-21 20:16:19.422
7.0, -155804.68992050766, -150299.65642686564, 63971.0502590001, -61994.39608983947, 77200.53371197388, -82492.1751013011, 86892.1607008172, -128528.02914715161, -0.026000000000000002, 0.9480000000000001, -0.146, 192.0, 0.0, 0.0, 0.0, 0.0, 0.0, 0.0, 0.0, 0.0, 0.0, 1.6664085794226575E9, 0.0, 2022-10-21 20:16:19.422
8.0, -155800.73366173907, -150299.25409546544, 63972.86075030098, -61986.371813580015, 77199.25966253993, -82479.25579300593, 86928.03525066796, -128522.44121103779, -0.026000000000000002, 0.9480000000000001, -0.146, 192.0, 0.0, 0.0, 0.0, 0.0, 0.0, 0.0, 0.0, 0.0, 0.0, 1.666408579422673E9, 0.0, 2022-10-21 20:16:19.422
9.0, -155796.91151343723, -150295.34254018575, 63975.54295963561, -61987.19882812486, 77201.78540966337, -82483.32381049679, 86928.68345125717, -128522.17299010433, -0.026000000000000002, 0.9480000000000001, -0.146, 192.0, 0.0, 0.0, 0.0, 0.0, 0.0, 0.0, 0.0, 0.0, 0.0, 1.6664085794226885E9, 0.0, 2022-10-21 20:16:19.422
10.0, -155791.9717779126, -150287.74294707095, 63976.25821545818, -61988.472877558816, 77201.31602302981, -82493.73972341296, 86894.52998572946, -128526.4868767842, -0.026000000000000002, 0.9480000000000001, -0.146, 192.0, 0.0, 0.0, 0.0, 0.0, 0.0, 0.0, 0.0, 0.0, 0.0, 1.6664085794227057E9, 0.0, 2022-10-21 20:16:19.422
11.0, -155790.6306732453, -150289.75460407193, 63976.52643639165, -61987.847028714066, 77200.19843580705, -82491.8174733898, 86884.3599420023, -128527.1350773734, -0.022, 0.9480000000000001, -0.146, 192.0, 255.0, 80.0, 29.0, 160.0, 251.0, 112.0, 0.0, 0.0, 0.0, 1.6664085794227211E9, 0.0, 2022-10-21 20:16:19.422
12.0, -155797.4256035597, -150297.35419718674, 63971.60905261148, -61987.623511269514, 77196.8233223943, -82483.21205177452, 86911.09262837084, -128530.21961810824, -0.022, 0.9480000000000001, -0.146, 192.0, 0.0, 0.0, 0.0, 0.0, 0.0, 0.0, 0.0, 0.0, 0.0, 1.6664085794227397E9, 0.0, 2022-10-21 20:16:19.422
13.0, -155800.21957161662, -150300.7740140884, 63968.859788043475, -61988.338767092086, 77197.69504042805, -82486.63186867618, 86917.0158406515, -128532.56655127605, -0.022, 0.9480000000000001, -0.146, 192.0, 0.0, 0.0, 0.0, 0.0, 0.0, 0.0, 0.0, 0.0, 0.0, 1.6664085794227552E9, 0.0, 2022-10-21 20:16:19.422
14.0, -155795.90568493673, -150298.29297045385, 63970.670279344355, -61994.9325317064, 77197.38211600568, -82497.11483682571, 86887.17626180366, -128534.2429321102, -0.022, 0.9480000000000001, -0.146, 192.0, 0.0, 0.0, 0.0, 0.0, 0.0, 0.0, 0.0, 0.0, 0.0, 1.6664085794227705E9, 0.0, 2022-10-21 20:16:19.422
15.0, -155793.55875176893, -150297.95769428703, 63973.687764845825, -61991.758583993746, 77201.78540966337, -82496.53369146987, 86873.58640117483, -128533.41591756535, -0.022, 0.9480000000000001, -0.146, 192.0, 0.0, 0.0, 0.0, 0.0, 0.0, 0.0, 0.0, 0.0, 0.0, 1.666408579422804E9, 0.0, 2022-10-21 20:16:19.422
16.0, -155798.16321112672, -150301.71278735553, 63972.212549711774, -61980.69447048837, 77206.36751727671, -82474.89720283714, 86914.5124452725, -128526.4868767842, -0.022, 0.9480000000000001, -0.146, 192.0, 0.0, 0.0, 0.0, 0.0, 0.0, 0.0, 0.0, 0.0, 0.0, 1.666408579422825E9, 0.0, 2022-10-21 20:16:19.422
17.0, -155798.83376346037, -150301.3328076998, 63975.67707010235, -61980.20273211035, 77205.31698528731, -82469.04104578985, 86934.89723621575, -128520.98834764819, -0.022, 0.9480000000000001, -0.146, 192.0, 0.0, 0.0, 0.0, 0.0, 0.0, 0.0, 0.0, 0.0, 0.0, 1.66640857942285E9, 0.0, 2022-10-21 20:16:19.422
18.0, -155799.25844660503, -150301.55632514434, 63974.805352068586, -61989.858685715044, 77205.2275783095, -82483.23440351897, 86906.30935505741, -128532.94653093179, -0.022, 0.9480000000000001, -0.146, 192.0, 0.0, 0.0, 0.0, 0.0, 0.0, 0.0, 0.0, 0.0, 0.0, 1.666408579422874E9, 0.0, 2022-10-21 20:16:19.422
19.0, -155796.59858901484, -150300.5281448994, 63976.03469801363, -61994.03846192819, 77206.03224110988, -82488.97880184399, 86882.97413384607, -128532.87947569841, -0.022, 0.9480000000000001, -0.146, 192.0, 0.0, 0.0, 0.0, 0.0, 0.0, 0.0, 0.0, 0.0, 0.0, 1.666408579422899E9, 0.0, 2022-10-21 20:16:19.422
20.0, -155789.1778098557, -150292.83914480676, 63984.84128532902, -61968.53512150468, 77217.09635461526, -82465.80004284382, 86914.33363131687, -128520.89894067038, -0.018000000000000002, 0.9480000000000001, -0.14, 192.0, 255.0, 112.0, 29.0, 160.0, 251.0, 160.0, 0.0, 0.0, 0.0, 1.6664085794229214E9, 0.0, 2022-10-21 20:16:19.422
21.0, -155800.24192336106, -150301.66808386662, 63976.682898602834, -61967.88692091548, 77218.14688660466, -82461.84378407524, 86938.11588741731, -128527.67151924034, -0.018000000000000002, 0.9480000000000001, -0.14, 192.0, 0.0, 0.0, 0.0, 0.0, 0.0, 0.0, 0.0, 0.0, 0.0, 1.666408579422945E9, 0.0, 2022-10-21 20:16:19.422
22.0, -155802.20887687313, -150302.60685713374, 63975.788828824625, -61985.27657810171, 77211.48606675697, -82473.93607782557, 86916.1664743622, -128532.49949604267, -0.018000000000000002, 0.9480000000000001, -0.14, 192.0, 0.0, 0.0, 0.0, 0.0, 0.0, 0.0, 0.0, 0.0, 0.0, 1.6664085794229555E9, 0.0, 2022-10-21 20:16:19.422
23.0, -155794.76574596952, -150295.58840937476, 63982.74022135022, -61981.09680188857, 77209.94379638956, -82481.6697814071, 86886.79628214793, -128527.22448435123, -0.018000000000000002, 0.9480000000000001, -0.14, 192.0, 0.0, 0.0, 0.0, 0.0, 0.0, 0.0, 0.0, 0.0, 0.0, 1.6664085794229653E9, 0.0, 2022-10-21 20:16:19.422
24.0, -155796.24096110355, -150295.8789820527, 63982.87433181696, -61970.926758161404, 77207.26158705492, -82478.40642671662, 86898.95563113161, -128525.72691747273, -0.018000000000000002, 0.9480000000000001, -0.14, 192.0, 0.0, 0.0, 0.0, 0.0, 0.0, 0.0, 0.0, 0.0, 0.0, 1.6664085794229753E9, 0.0, 2022-10-21 20:16:19.422
25.0, -155799.50431579404, -150297.51065939793, 63982.27083471666, -61966.79168543717, 77211.59782547926, -82470.33744696826, 86933.8243524819, -128527.55976051805, -0.018000000000000002, 0.9480000000000001, -0.14, 192.0, 0.0, 0.0, 0.0, 0.0, 0.0, 0.0, 0.0, 0.0, 0.0, 1.6664085794229848E9, 0.0, 2022-10-21 20:16:19.422
26.0, -155800.28662684996, -150301.3328076998, 63973.88893054592, -61983.24256935628, 77206.23340680997, -82486.22953727598, 86915.40651505072, -128537.1933623783, -0.018000000000000002, 0.9480000000000001, -0.14, 192.0, 0.0, 0.0, 0.0, 0.0, 0.0, 0.0, 0.0, 0.0, 0.0, 1.6664085794229944E9, 0.0, 2022-10-21 20:16:19.422
27.0, -155798.18556287116, -150295.78957507486, 63975.4535526578, -61988.74109849228, 77202.85829339724, -82492.95741235703, 86882.08006406785, -128532.49949604267, -0.018000000000000002, 0.9480000000000001, -0.14, 192.0, 0.0, 0.0, 0.0, 0.0, 0.0, 0.0, 0.0, 0.0, 0.0, 1.666408579423004E9, 0.0, 2022-10-21 20:16:19.423
28.0, -155794.38576631376, -150296.90716229763, 63978.87336955946, -61972.58078725109, 77209.13913358917, -82480.4180837176, 86896.13931133025, -128526.50922852865, -0.018000000000000002, 0.9480000000000001, -0.14, 192.0, 0.0, 0.0, 0.0, 0.0, 0.0, 0.0, 0.0, 0.0, 0.0, 1.666408579423014E9, 0.0, 2022-10-21 20:16:19.423
29.0, -155802.0300629175, -150305.84786007975, 63971.83257005603, -61970.21150233883, 77204.57937772029, -82473.84667084774, 86927.81173322341, -128525.70456572826, -0.018000000000000002, 0.9480000000000001, -0.14, 192.0, 0.0, 0.0, 0.0, 0.0, 0.0, 0.0, 0.0, 0.0, 0.0, 1.6664085794230235E9, 0.0, 2022-10-21 20:16:19.423
30.0, -155798.85611520484, -150301.1763454886, 63976.32527069155, -61976.26882508622, 77208.73680218897, -82468.70576962302, 86925.64361401125, -128521.65889998185, -0.016, 0.9460000000000001, -0.136, 192.0, 255.0, 128.0, 29.0, 144.0, 251.0, 192.0, 0.0, 0.0, 0.0, 1.6664085794230676E9, 0.0, 2022-10-21 20:16:19.423
31.0, -155801.06893790592, -150304.0820722678, 63972.99486076771, -61990.61864502652, 77203.39473526416, -82491.07986582279, 86885.23166003605, -128537.61804552295, -0.016, 0.9460000000000001, -0.136, 192.0, 0.0, 0.0, 0.0, 0.0, 0.0, 0.0, 0.0, 0.0, 0.0, 1.6664085794230783E9, 0.0, 2022-10-21 20:16:19.423
32.0, -155796.44212680365, -150297.24243846445, 63978.47103815926, -61983.22021761182, 77204.89230214266, -82487.99532508795, 86880.62720067825, -128535.31581584405, -0.016, 0.9460000000000001, -0.136, 192.0, 0.0, 0.0, 0.0, 0.0, 0.0, 0.0, 0.0, 0.0, 0.0, 1.6664085794230883E9, 0.0, 2022-10-21 20:16:19.423
33.0, -155797.15738262623, -150297.19773497555, 63981.91320680538, -61958.0745050996, 77216.53756100388, -82467.78934810036, 86928.45993381261, -128525.92808317281, -0.016, 0.9460000000000001, -0.136, 192.0, 0.0, 0.0, 0.0, 0.0, 0.0, 0.0, 0.0, 0.0, 0.0, 1.6664085794230995E9, 0.0, 2022-10-21 20:16:19.423
34.0, -155798.38672857126, -150299.45526116554, 63972.771343323155, -61978.906330931946, 77203.68530794207, -82474.38311271467, 86927.9681954346, -128531.00192916417, -0.016, 0.9460000000000001, -0.136, 192.0, 0.0, 0.0, 0.0, 0.0, 0.0, 0.0, 0.0, 0.0, 0.0, 1.6664085794231093E9, 0.0, 2022-10-21 20:16:19.423
35.0, -155783.70163246413, -150279.04811847783, 63978.314575948076, -61985.16481937943, 77204.57937772029, -82481.49096745145, 86898.77681717597, -128529.30319658556, -0.016, 0.9460000000000001, -0.136, 192.0, 0.0, 0.0, 0.0, 0.0, 0.0, 0.0, 0.0, 0.0, 0.0, 1.6664085794231188E9, 0.0, 2022-10-21 20:16:19.423
36.0, -155784.5733504979, -150280.21040918952, 63977.398154425406, -61979.08514488759, 77208.26741555541, -82477.42294996059, 86887.89151762624, -128533.79589722109, -0.016, 0.9460000000000001, -0.136, 192.0, 0.0, 0.0, 0.0, 0.0, 0.0, 0.0, 0.0, 0.0, 0.0, 1.6664085794231288E9, 0.0, 2022-10-21 20:16:19.423
37.0, -155800.24192336106, -150299.8352408213, 63973.46424740127, -61966.590519737074, 77212.13426734618, -82471.49973767993, 86920.97209942009, -128532.45479255376, -0.016, 0.9460000000000001, -0.136, 192.0, 0.0, 0.0, 0.0, 0.0, 0.0, 0.0, 0.0, 0.0, 0.0, 1.6664085794231384E9, 0.0, 2022-10-21 20:16:19.423
38.0, -155794.6316355028, -150298.65059836514, 63978.38163118144, -61961.85194991255, 77210.3237760453, -82469.0186940454, 86934.31609085991, -128525.0340133946, -0.016, 0.9460000000000001, -0.136, 192.0, 0.0, 0.0, 0.0, 0.0, 0.0, 0.0, 0.0, 0.0, 0.0, 1.666408579423148E9, 0.0, 2022-10-21 20:16:19.423
39.0, -155785.4674202761, -150288.1229267267, 63982.31553820557, -61968.84804592706, 77209.92144464511, -82473.22082200299, 86906.39876203523, -128526.084545384, -0.016, 0.9460000000000001, -0.136, 192.0, 0.0, 0.0, 0.0, 0.0, 0.0, 0.0, 0.0, 0.0, 0.0, 1.6664085794231577E9, 0.0, 2022-10-21 20:16:19.423
40.0, -155785.19919934263, -150285.39601390314, 63977.62167186996, -61973.92189191841, 77203.61825270871, -82480.55219418433, 86884.67286642468, -128530.53254253061, -0.02, 0.9440000000000001, -0.126, 192.0, 255.0, 96.0, 29.0, 128.0, 252.0, 16.0, 0.0, 0.0, 0.0, 1.6664085794231677E9, 0.0, 2022-10-21 20:16:19.423
41.0, -155776.83964691637, -150276.4106126321, 63978.22516897025, -61959.5720719781, 77202.99240386396, -82471.61149640221, 86913.95365166113, -128525.01166165015, -0.02, 0.9440000000000001, -0.126, 192.0, 0.0, 0.0, 0.0, 0.0, 0.0, 0.0, 0.0, 0.0, 0.0, 1.666408579423178E9, 0.0, 2022-10-21 20:16:19.423
42.0, -155779.90183590673, -150278.9810632445, 63973.44189565682, -61956.15225507644, 77206.54633123236, -82473.82431910328, 86936.19363739416, -128531.00192916417, -0.02, 0.9440000000000001, -0.126, 192.0, 0.0, 0.0, 0.0, 0.0, 0.0, 0.0, 0.0, 0.0, 0.0, 1.6664085794231875E9, 0.0, 2022-10-21 20:16:19.423
43.0, -155780.1253533513, -150277.25997892141, 63973.71011659028, -61962.254281312744, 77209.2732440559, -82475.61245865971, 86915.74179121754, -128531.82894370901, -0.02, 0.9440000000000001, -0.126, 192.0, 0.0, 0.0, 0.0, 0.0, 0.0, 0.0, 0.0, 0.0, 0.0, 1.666408579423198E9, 0.0, 2022-10-21 20:16:19.423
44.0, -155774.04567885943, -150268.90042649515, 63976.839360814025, -61964.22123482481, 77208.69209870006, -82471.09740627973, 86894.7087996851, -128522.79883894908, -0.02, 0.9440000000000001, -0.126, 192.0, 0.0, 0.0, 0.0, 0.0, 0.0, 0.0, 0.0, 0.0, 0.0, 1.6664085794232073E9, 0.0, 2022-10-21 20:16:19.423
45.0, -155779.8794841623, -150275.8294672763, 63970.22324445525, -61965.38352553648, 77198.47735148399, -82473.35493246972, 86906.57757599087, -128528.56558901854, -0.02, 0.9440000000000001, -0.126, 192.0, 0.0, 0.0, 0.0, 0.0, 0.0, 0.0, 0.0, 0.0, 0.0, 1.6664085794232273E9, 0.0, 2022-10-21 20:16:19.423
46.0, -155783.85809467532, -150278.35521439972, 63968.859788043475, -61961.762542934724, 77199.21495905101, -82468.63871438966, 86934.98664319357, -128525.34693781698, -0.02, 0.9440000000000001, -0.126, 192.0, 0.0, 0.0, 0.0, 0.0, 0.0, 0.0, 0.0, 0.0, 0.0, 1.666408579423237E9, 0.0, 2022-10-21 20:16:19.423
47.0, -155778.00193762803, -150275.8294672763, 63970.06678224407, -61962.43309526838, 77200.57841546279, -82475.99243831544, 86916.68056448468, -128530.95722567526, -0.02, 0.9440000000000001, -0.126, 192.0, 0.0, 0.0, 0.0, 0.0, 0.0, 0.0, 0.0, 0.0, 0.0, 1.6664085794232469E9, 0.0, 2022-10-21 20:16:19.423
48.0, -155774.8279899154, -150278.28815916638, 63966.624613597945, -61972.469028528816, 77194.34227875975, -82489.53759545536, 86883.22000303508, -128535.76285073315, -0.02, 0.9440000000000001, -0.126, 192.0, 0.0, 0.0, 0.0, 0.0, 0.0, 0.0, 0.0, 0.0, 0.0, 1.6664085794232566E9, 0.0, 2022-10-21 20:16:19.423
49.0, -155775.8114666714, -150280.34451965627, 63966.915186275866, -61965.00354588075, 77192.44238048105, -82482.60855467423, 86893.50180548451, -128531.337205331, -0.02, 0.9440000000000001, -0.126, 192.0, 0.0, 0.0, 0.0, 0.0, 0.0, 0.0, 0.0, 0.0, 0.0, 1.6664085794232666E9, 0.0, 2022-10-21 20:16:19.423
50.0, -155781.84643767434, -150282.3785284017, 63963.36125890747, -61950.9219468739, 77199.14790381765, -82468.34814171173, 86928.01289892351, -128532.07481289802, -0.026000000000000002, 0.9420000000000001, -0.136, 192.0, 255.0, 48.0, 29.0, 112.0, 251.0, 192.0, 0.0, 0.0, 0.0, 1.6664085794232764E9, 0.0, 2022-10-21 20:16:19.423
51.0, -155783.41105978622, -150283.56317085781, 63959.94144200581, -61962.09781910155, 77193.0682293258, -82480.77571162888, 86909.32684055888, -128539.89792345738, -0.026000000000000002, 0.9420000000000001, -0.136, 192.0, 0.0, 0.0, 0.0, 0.0, 0.0, 0.0, 0.0, 0.0, 0.0, 1.666408579423287E9, 0.0, 2022-10-21 20:16:19.423
52.0, -155780.75120219603, -150284.45724063602, 63963.42831414084, -61968.02103138221, 77197.56092996133, -82488.39765648815, 86880.2025175336, -128542.13309790292, -0.026000000000000002, 0.9420000000000001, -0.136, 192.0, 0.0, 0.0, 0.0, 0.0, 0.0, 0.0, 0.0, 0.0, 0.0, 1.6664085794232967E9, 0.0, 2022-10-21 20:16:19.423
53.0, -155783.45576327512, -150288.5699616158, 63960.679049572835, -61957.158083576935, 77201.49483698545, -82484.53080469738, 86888.89734612672, -128536.25458911117, -0.026000000000000002, 0.9420000000000001, -0.136, 192.0, 0.0, 0.0, 0.0, 0.0, 0.0, 0.0, 0.0, 0.0, 0.0, 1.6664085794233065E9, 0.0, 2022-10-21 20:16:19.423
54.0, -155785.44506853164, -150288.234685449, 63956.208700681775, -61954.54292947566, 77202.9253486306, -82470.87388883518, 86922.73788723206, -128534.0417664101, -0.026000000000000002, 0.9420000000000001, -0.136, 192.0, 0.0, 0.0, 0.0, 0.0, 0.0, 0.0, 0.0, 0.0, 0.0, 1.6664085794233162E9, 0.0, 2022-10-21 20:16:19.423
55.0, -155782.33817605238, -150283.8760952802, 63957.48275011573, -61962.70131620185, 77199.43847649556, -82476.90885983812, 86920.27919534198, -128541.73076650272, -0.026000000000000002, 0.9420000000000001, -0.136, 192.0, 0.0, 0.0, 0.0, 0.0, 0.0, 0.0, 0.0, 0.0, 0.0, 1.6664085794233277E9, 0.0, 2022-10-21 20:16:19.423
56.0, -155776.70553644962, -150279.4728016225, 63963.674183329844, -61960.91317664542, 77198.70086892854, -82479.25579300593, 86889.97022986058, -128535.2934640996, -0.026000000000000002, 0.9420000000000001, -0.136, 192.0, 0.0, 0.0, 0.0, 0.0, 0.0, 0.0, 0.0, 0.0, 0.0, 1.6664085794233372E9, 0.0, 2022-10-21 20:16:19.423
57.0, -155777.84547541683, -150278.6234353332, 63961.84134028451, -61955.816978909614, 77201.09250558526, -82480.10515929523, 86883.53292745745, -128534.51115304366, -0.026000000000000002, 0.9420000000000001, -0.136, 192.0, 0.0, 0.0, 0.0, 0.0, 0.0, 0.0, 0.0, 0.0, 0.0, 1.6664085794233468E9, 0.0, 2022-10-21 20:16:19.423
58.0, -155785.0650888759, -150285.44071739208, 63952.99004948021, -61962.321336546105, 77192.8223601368, -82481.82624361828, 86911.13733185975, -128537.4392315673, -0.026000000000000002, 0.9420000000000001, -0.136, 192.0, 0.0, 0.0, 0.0, 0.0, 0.0, 0.0, 0.0, 0.0, 0.0, 1.6664085794233563E9, 0.0, 2022-10-21 20:16:19.423
59.0, -155786.16032435422, -150288.726423827, 63949.81610176756, -61973.27369132921, 77187.03325832287, -82486.83303437628, 86914.7136109726, -128539.76381299066, -0.034, 0.9460000000000001, -0.14200000000000002, 192.0, 254.0, 240.0, 29.0, 144.0, 251.0, 144.0, 0.0, 0.0, 0.0, 1.6664085794233668E9, 0.0, 2022-10-21 20:16:19.423
60.0, -155778.94071089517, -150282.19971444603, 63954.6440785699, -61978.86162744303, 77187.39088623416, -82494.67849668009, 86883.04118907943, -128541.2390281247, -0.034, 0.9460000000000001, -0.14200000000000002, 192.0, 0.0, 0.0, 0.0, 0.0, 0.0, 0.0, 0.0, 0.0, 0.0, 1.6664085794233882E9, 0.0, 2022-10-21 20:16:19.423
61.0, -155778.78424868398, -150275.7624120429, 63958.08624721602, -61967.082258115086, 77195.88454912718, -82487.28006926538, 86876.04509306492, -128539.92027520185, -0.034, 0.9460000000000001, -0.14200000000000002, 192.0, 0.0, 0.0, 0.0, 0.0, 0.0, 0.0, 0.0, 0.0, 0.0, 1.666408579423398E9, 0.0, 2022-10-21 20:16:19.423
62.0, -155778.85130391733, -150276.23179867648, 63964.00945949668, -61948.08327532808, 77199.84080789576, -82464.34717945423, 86914.40068655023, -128526.26335933965, -0.034, 0.9460000000000001, -0.14200000000000002, 192.0, 0.0, 0.0, 0.0, 0.0, 0.0, 0.0, 0.0, 0.0, 0.0, 1.6664085794234076E9, 0.0, 2022-10-21 20:16:19.423
63.0, -155784.64040573125, -150283.54081911338, 63959.38264839443, -61957.783932421684, 77199.28201428438, -82460.32386545227, 86934.69607051565, -128527.42565005133, -0.034, 0.9460000000000001, -0.14200000000000002, 192.0, 0.0, 0.0, 0.0, 0.0, 0.0, 0.0, 0.0, 0.0, 0.0, 1.6664085794234176E9, 0.0, 2022-10-21 20:16:19.423
64.0, -155778.60543472832, -150273.9742724865, 63963.964756007765, -61971.68671747288, 77192.88941537015, -82474.00313305893, 86904.78943643444, -128535.24876061067, -0.034, 0.9460000000000001, -0.14200000000000002, 192.0, 0.0, 0.0, 0.0, 0.0, 0.0, 0.0, 0.0, 0.0, 0.0, 1.666408579423427E9, 0.0, 2022-10-21 20:16:19.423
65.0, -155777.59960622783, -150272.9237404971, 63966.6469653424, -61973.94424366287, 77194.63285143768, -82479.3675517282, 86886.0586745809, -128534.53350478811, -0.034, 0.9460000000000001, -0.14200000000000002, 192.0, 0.0, 0.0, 0.0, 0.0, 0.0, 0.0, 0.0, 0.0, 0.0, 1.6664085794234369E9, 0.0, 2022-10-21 20:16:19.423
66.0, -155784.4168882867, -150282.982025502, 63961.21549143976, -61971.53025526169, 77189.76017114642, -82478.5181854389, 86904.67767771217, -128538.0427286676, -0.034, 0.9460000000000001, -0.14200000000000002, 192.0, 0.0, 0.0, 0.0, 0.0, 0.0, 0.0, 0.0, 0.0, 0.0, 1.6664085794234462E9, 0.0, 2022-10-21 20:16:19.423
67.0, -155780.7288504516, -150278.466973122, 63967.608090353984, -61964.60121448055, 77200.4219532516, -82465.30830446581, 86935.67954727168, -128528.76675471864, -0.034, 0.9460000000000001, -0.14200000000000002, 192.0, 0.0, 0.0, 0.0, 0.0, 0.0, 0.0, 0.0, 0.0, 0.0, 1.6664085794234557E9, 0.0, 2022-10-21 20:16:19.423
68.0, -155779.83478067338, -150277.34938589923, 63971.40788691138, -61966.2775953147, 77208.13330508868, -82466.42589168857, 86916.97113716259, -128527.40329830686, -0.034, 0.9460000000000001, -0.14200000000000002, 192.0, 0.0, 0.0, 0.0, 0.0, 0.0, 0.0, 0.0, 0.0, 0.0, 1.6664085794234653E9, 0.0, 2022-10-21 20:16:19.423
69.0, -155775.9679288826, -150276.18709518758, 63973.37484042345, -61961.427266767896, 77210.65905221213, -82468.34814171173, 86893.99354386254, -128524.00583314965, -0.026000000000000002, 0.9560000000000001, -0.14400000000000002, 192.0, 255.0, 48.0, 29.0, 224.0, 251.0, 128.0, 0.0, 0.0, 0.0, 1.6664085794234748E9, 0.0, 2022-10-21 20:16:19.423
70.0, -155790.89889417874, -150288.99464476045, 63960.70140131729, -61966.76933369271, 77203.7747149199, -82471.83501384676, 86905.19176783464, -128536.09812689997, -0.026000000000000002, 0.9560000000000001, -0.14400000000000002, 192.0, 0.0, 0.0, 0.0, 0.0, 0.0, 0.0, 0.0, 0.0, 0.0, 1.6664085794234853E9, 0.0, 2022-10-21 20:16:19.423
71.0, -155791.18946685665, -150286.9829877595, 63960.18731119482, -61966.12113310351, 77200.6678224406, -82465.77769109937, 86931.38801233626, -128534.06411815455, -0.026000000000000002, 0.9560000000000001, -0.14400000000000002, 192.0, 0.0, 0.0, 0.0, 0.0, 0.0, 0.0, 0.0, 0.0, 0.0, 1.6664085794234946E9, 0.0, 2022-10-21 20:16:19.423
72.0, -155785.4227167872, -150282.51263886841, 63962.53424436263, -61969.00450813824, 77201.56189221882, -82467.90110682262, 86918.0663726409, -128530.66665299734, -0.026000000000000002, 0.9560000000000001, -0.14400000000000002, 192.0, 0.0, 0.0, 0.0, 0.0, 0.0, 0.0, 0.0, 0.0, 0.0, 1.6664085794235044E9, 0.0, 2022-10-21 20:16:19.423
73.0, -155783.9251499087, -150281.64092083467, 63959.2485379277, -61982.86258970053, 77194.40933399313, -82481.78154012938, 86880.4036832337, -128539.98733043521, -0.026000000000000002, 0.9560000000000001, -0.14400000000000002, 192.0, 0.0, 0.0, 0.0, 0.0, 0.0, 0.0, 0.0, 0.0, 0.0, 1.666408579423514E9, 0.0, 2022-10-21 20:16:19.423
74.0, -155787.25555983253, -150285.3289586698, 63953.12415994694, -61982.259092600245, 77183.65814491012, -82488.48706346596, 86882.2588780235, -128542.80365023657, -0.026000000000000002, 0.9560000000000001, -0.14400000000000002, 192.0, 0.0, 0.0, 0.0, 0.0, 0.0, 0.0, 0.0, 0.0, 0.0, 1.666408579423524E9, 0.0, 2022-10-21 20:16:19.423
75.0, -155790.1165831228, -150284.6807580806, 63956.208700681775, -61973.20663609584, 77188.55317694583, -82474.89720283714, 86915.85354993983, -128541.21667638025, -0.026000000000000002, 0.9560000000000001, -0.14400000000000002, 192.0, 0.0, 0.0, 0.0, 0.0, 0.0, 0.0, 0.0, 0.0, 0.0, 1.666408579423545E9, 0.0, 2022-10-21 20:16:19.423
76.0, -155790.1836383562, -150284.0772609803, 63959.38264839443, -61978.50399953175, 77195.83984563826, -82470.56096441281, 86914.44539003914, -128539.2944263571, -0.026000000000000002, 0.9560000000000001, -0.14400000000000002, 192.0, 0.0, 0.0, 0.0, 0.0, 0.0, 0.0, 0.0, 0.0, 0.0, 1.666408579423556E9, 0.0, 2022-10-21 20:16:19.423
77.0, -155788.66371973322, -150281.6632725791, 63961.19313969531, -61981.208560610845, 77198.5220549729, -82471.61149640221, 86888.74088391554, -128535.9863681777, -0.026000000000000002, 0.9560000000000001, -0.14400000000000002, 192.0, 0.0, 0.0, 0.0, 0.0, 0.0, 0.0, 0.0, 0.0, 0.0, 1.6664085794235656E9, 0.0, 2022-10-21 20:16:19.423
78.0, -155788.95429241113, -150282.55734235732, 63955.38168613693, -61979.867455943524, 77189.42489497959, -82479.43460696157, 86882.43769197914, -128537.1933623783, -0.026000000000000002, 0.9560000000000001, -0.14400000000000002, 192.0, 0.0, 0.0, 0.0, 0.0, 0.0, 0.0, 0.0, 0.0, 0.0, 1.6664085794235756E9, 0.0, 2022-10-21 20:16:19.423
79.0, -155795.8833331923, -150291.98977851745, 63945.39045636541, -61980.69447048837, 77184.12753154368, -82478.65229590563, 86908.34336380284, -128544.52473455963, -0.022, 0.9540000000000001, -0.15, 192.0, 255.0, 80.0, 29.0, 208.0, 251.0, 80.0, 0.0, 0.0, 0.0, 1.6664085794235852E9, 0.0, 2022-10-21 20:16:19.423
80.0, -155796.75505122603, -150292.10153723974, 63942.305915630575, -61992.42913632741, 77180.4171419641, -82480.82041511779, 86907.18107309117, -128549.15154566188, -0.022, 0.9540000000000001, -0.15, 192.0, 0.0, 0.0, 0.0, 0.0, 0.0, 0.0, 0.0, 0.0, 0.0, 1.6664085794235954E9, 0.0, 2022-10-21 20:16:19.423
81.0, -155790.74243196755, -150286.6700633371, 63948.34088663351, -61995.89365671798, 77183.05464780983, -82486.02837157589, 86878.41437797718, -128543.5412578036, -0.022, 0.9540000000000001, -0.15, 192.0, 0.0, 0.0, 0.0, 0.0, 0.0, 0.0, 0.0, 0.0, 0.0, 1.6664085794236052E9, 0.0, 2022-10-21 20:16:19.423
82.0, -155787.769649955, -150280.29981616733, 63956.02988672613, -61984.762487979235, 77188.91080485712, -82481.714484896, 86878.503784955, -128541.17197289133, -0.022, 0.9540000000000001, -0.15, 192.0, 0.0, 0.0, 0.0, 0.0, 0.0, 0.0, 0.0, 0.0, 0.0, 1.6664085794236147E9, 0.0, 2022-10-21 20:16:19.423
83.0, -155791.5247430235, -150284.5689993583, 63954.4429128698, -61976.112362875036, 77186.69798215604, -82475.79127261534, 86909.39389579224, -128541.55195254707, -0.022, 0.9540000000000001, -0.15, 192.0, 0.0, 0.0, 0.0, 0.0, 0.0, 0.0, 0.0, 0.0, 0.0, 1.6664085794236248E9, 0.0, 2022-10-21 20:16:19.423
84.0, -155787.1661528547, -150283.719633069, 63957.348639649, -61983.26492110073, 77186.40740947812, -82472.72908362497, 86918.17813136318, -128541.28373161361, -0.022, 0.9540000000000001, -0.15, 192.0, 0.0, 0.0, 0.0, 0.0, 0.0, 0.0, 0.0, 0.0, 0.0, 1.6664085794236348E9, 0.0, 2022-10-21 20:16:19.423
85.0, -155785.75799295402, -150282.33382491278, 63957.46039837127, -61994.2843311172, 77185.35687748872, -82481.44626396254, 86886.23748853654, -128544.03299618162, -0.022, 0.9540000000000001, -0.15, 192.0, 0.0, 0.0, 0.0, 0.0, 0.0, 0.0, 0.0, 0.0, 0.0, 1.6664085794236443E9, 0.0, 2022-10-21 20:16:19.423
86.0, -155787.99316739955, -150280.99272024547, 63955.06876171455, -61989.76927873722, 77186.89914785614, -82485.93896459806, 86871.77590987396, -128544.41297583736, -0.022, 0.9540000000000001, -0.15, 192.0, 0.0, 0.0, 0.0, 0.0, 0.0, 0.0, 0.0, 0.0, 0.0, 1.666408579423654E9, 0.0, 2022-10-21 20:16:19.423
87.0, -155789.781306956, -150281.0821272233, 63954.867596014454, -61978.57105476512, 77185.22276702199, -82475.52305168188, 86901.70489569962, -128542.02133918063, -0.022, 0.9540000000000001, -0.15, 192.0, 0.0, 0.0, 0.0, 0.0, 0.0, 0.0, 0.0, 0.0, 0.0, 1.6664085794236636E9, 0.0, 2022-10-21 20:16:19.423
88.0, -155791.1224116233, -150281.35034815673, 63953.839415769515, -61982.43790655588, 77189.13432230167, -82473.10906328072, 86919.18395986366, -128540.27790311312, -0.02, 0.9500000000000001, -0.156, 192.0, 255.0, 96.0, 29.0, 176.0, 251.0, 32.0, 0.0, 0.0, 0.0, 1.666408579423674E9, 0.0, 2022-10-21 20:16:19.423
89.0, -155789.781306956, -150277.39408938817, 63954.57702333654, -61993.926703205914, 77187.61440367872, -82481.08863605127, 86893.36769501779, -128539.16031589036, -0.02, 0.9500000000000001, -0.156, 192.0, 0.0, 0.0, 0.0, 0.0, 0.0, 0.0, 0.0, 0.0, 0.0, 1.6664085794236841E9, 0.0, 2022-10-21 20:16:19.423
90.0, -155785.53447550948, -150274.84599052026, 63962.24367168471, -61987.55645603615, 77189.93898510207, -82477.64646740514, 86877.83323262134, -128529.10203088546, -0.02, 0.9500000000000001, -0.156, 192.0, 0.0, 0.0, 0.0, 0.0, 0.0, 0.0, 0.0, 0.0, 0.0, 1.6664085794237313E9, 0.0, 2022-10-21 20:16:19.423
1.0, -156169.112762107, -150734.26374605464, 63891.63451095039, -62038.04904676069, 77118.59221680072, -82377.62241096764, 86862.32112196936, -128570.9444965058, -0.024, 0.9480000000000001, -0.156, 192.0, 255.0, 64.0, 29.0, 160.0, 251.0, 32.0, 0.0, 0.0, 0.0, 1.6664085799983962E9, 0.0, 2022-10-21 20:16:19.998
2.0, -156160.64145095844, -150726.84296689546, 63894.87551389641, -62046.47565442034, 77117.29581562232, -82388.06067562827, 86828.25706341947, -128570.87744127245, -0.024, 0.9480000000000001, -0.156, 192.0, 0.0, 0.0, 0.0, 0.0, 0.0, 0.0, 0.0, 0.0, 0.0, 1.666408579998507E9, 0.0, 2022-10-21 20:16:19.998
3.0, -156158.16040732389, -150728.60875470744, 63899.25645580965, -62040.66420086196, 77121.00620520189, -82385.26670757135, 86821.30567089387, -128561.78028127913, -0.024, 0.9480000000000001, -0.156, 192.0, 0.0, 0.0, 0.0, 0.0, 0.0, 0.0, 0.0, 0.0, 0.0, 1.6664085799985285E9, 0.0, 2022-10-21 20:16:19.998
4.0, -156164.08361960456, -150735.56014723305, 63896.61894996392, -62030.47180539034, 77120.04508019032, -82383.43386452603, 86847.32310143985, -128566.83177552604, -0.024, 0.9480000000000001, -0.156, 192.0, 0.0, 0.0, 0.0, 0.0, 0.0, 0.0, 0.0, 0.0, 0.0, 1.6664085799985557E9, 0.0, 2022-10-21 20:16:19.998
5.0, -156171.19147434135, -150744.3220310595, 63884.280787024596, -62040.44068341741, 77110.12090565216, -82400.95763217898, 86841.73516532603, -128582.58975536702, -0.024, 0.9480000000000001, -0.156, 192.0, 0.0, 0.0, 0.0, 0.0, 0.0, 0.0, 0.0, 0.0, 0.0, 1.6664085799985707E9, 0.0, 2022-10-21 20:16:19.998
6.0, -156170.3644597965, -150744.6349554819, 63883.431420735295, -62046.341543953604, 77108.62333877366, -82408.78074273834, 86810.33096436632, -128587.08245600254, -0.024, 0.9480000000000001, -0.156, 192.0, 0.0, 0.0, 0.0, 0.0, 0.0, 0.0, 0.0, 0.0, 0.0, 1.666408579998585E9, 0.0, 2022-10-21 20:16:19.998
7.0, -156165.8047039276, -150738.71174320125, 63888.90759812685, -62043.45816891887, 77109.58446378523, -82400.28707984532, 86798.14926363817, -128579.86284254347, -0.024, 0.9480000000000001, -0.156, 192.0, 0.0, 0.0, 0.0, 0.0, 0.0, 0.0, 0.0, 0.0, 0.0, 1.6664085799986057E9, 0.0, 2022-10-21 20:16:19.998
8.0, -156169.33627955156, -150741.84098742498, 63887.901769626355, -62029.510680378764, 77116.69231852202, -82386.4960535164, 86831.07338322085, -128575.59365935251, -0.024, 0.9440000000000001, -0.154, 192.0, 255.0, 64.0, 29.0, 128.0, 251.0, 48.0, 0.0, 0.0, 0.0, 1.66640857999862E9, 0.0, 2022-10-21 20:16:19.998
9.0, -156167.99517488424, -150739.31524030154, 63888.058231837545, -62026.649657088485, 77117.51933306687, -82384.8420244267, 86848.999482274, -128574.43136864083, -0.024, 0.9440000000000001, -0.154, 192.0, 0.0, 0.0, 0.0, 0.0, 0.0, 0.0, 0.0, 0.0, 0.0, 1.6664085799986491E9, 0.0, 2022-10-21 20:16:19.998
10.0, -156164.84357891604, -150733.3249727875, 63892.662691195335, -62021.64286633049, 77122.81669650278, -82390.698181474, 86826.62538607424, -128576.33126691953, -0.024, 0.9440000000000001, -0.154, 192.0, 0.0, 0.0, 0.0, 0.0, 0.0, 0.0, 0.0, 0.0, 0.0, 1.6664085799986637E9, 0.0, 2022-10-21 20:16:19.998
11.0, -156159.92619513586, -150725.43480699477, 63896.95422613076, -62020.79350004119, 77123.71076628099, -82395.61556525416, 86803.04429567388, -128573.80551979608, -0.024, 0.9440000000000001, -0.154, 192.0, 0.0, 0.0, 0.0, 0.0, 0.0, 0.0, 0.0, 0.0, 0.0, 1.666408579998678E9, 0.0, 2022-10-21 20:16:19.998
12.0, -156167.101105106, -150732.6767721983, 63894.94256912978, -62009.304703391164, 77128.0023012164, -82384.93143140453, 86828.16765644166, -128568.95519124929, -0.024, 0.9440000000000001, -0.154, 192.0, 0.0, 0.0, 0.0, 0.0, 0.0, 0.0, 0.0, 0.0, 0.0, 1.6664085799986923E9, 0.0, 2022-10-21 20:16:19.998
13.0, -156170.23034932977, -150735.15781583285, 63891.83567665049, -62006.443680100885, 77134.707824553, -82374.35905627717, 86861.53881091342, -128567.43527262632, -0.024, 0.9440000000000001, -0.154, 192.0, 0.0, 0.0, 0.0, 0.0, 0.0, 0.0, 0.0, 0.0, 0.0, 1.6664085799987087E9, 0.0, 2022-10-21 20:16:19.998
14.0, -156170.7667911967, -150736.14129258887, 63887.611196948434, -62024.99562799879, 77120.22389414597, -82391.01110589637, 86832.03450823242, -128574.61018259647, -0.024, 0.9440000000000001, -0.154, 192.0, 0.0, 0.0, 0.0, 0.0, 0.0, 0.0, 0.0, 0.0, 0.0, 1.6664085799987247E9, 0.0, 2022-10-21 20:16:19.998
15.0, -156171.34793655254, -150738.66703971234, 63890.94160687228, -62021.84403203059, 77120.33565286823, -82395.16853036506, 86806.37470559773, -128567.21175518176, -0.024, 0.9440000000000001, -0.154, 192.0, 0.0, 0.0, 0.0, 0.0, 0.0, 0.0, 0.0, 0.0, 0.0, 1.666408579998778E9, 0.0, 2022-10-21 20:16:19.998
16.0, -156181.7638494687, -150749.5299875176, 63885.48778122518, -62021.64286633049, 77118.12283016717, -82384.37263779315, 86824.77019128445, -128568.82108078255, -0.024, 0.9440000000000001, -0.154, 192.0, 0.0, 0.0, 0.0, 0.0, 0.0, 0.0, 0.0, 0.0, 0.0, 1.6664085799987931E9, 0.0, 2022-10-21 20:16:19.998
17.0, -156178.63460524497, -150745.66313572685, 63888.10293532645, -62018.31245640665, 77120.82739124625, -82366.44653873998, 86864.66805513717, -128562.00379872369, -0.024, 0.9460000000000001, -0.15, 192.0, 255.0, 64.0, 29.0, 144.0, 251.0, 80.0, 0.0, 0.0, 0.0, 1.666408579998808E9, 0.0, 2022-10-21 20:16:19.998
18.0, -156178.03110814467, -150745.32785956, 63883.69964166876, -62031.47763389083, 77117.11700166667, -82378.27061155684, 86849.22299971855, -128570.34099940551, -0.024, 0.9460000000000001, -0.15, 192.0, 0.0, 0.0, 0.0, 0.0, 0.0, 0.0, 0.0, 0.0, 0.0, 1.6664085799988232E9, 0.0, 2022-10-21 20:16:19.998
19.0, -156176.53354126617, -150743.49501651467, 63884.68311842479, -62043.16759624095, 77111.59612078621, -82394.60973675367, 86815.06953419084, -128571.81621453956, -0.024, 0.9460000000000001, -0.15, 192.0, 0.0, 0.0, 0.0, 0.0, 0.0, 0.0, 0.0, 0.0, 0.0, 1.666408579998838E9, 0.0, 2022-10-21 20:16:19.998
20.0, -156174.0524976316, -150742.55624324756, 63889.28757778258, -62031.254116446275, 77115.68649002153, -82379.07527435724, 86828.7935052864, -128564.26132491366, -0.024, 0.9460000000000001, -0.15, 192.0, 0.0, 0.0, 0.0, 0.0, 0.0, 0.0, 0.0, 0.0, 0.0, 1.6664085799988525E9, 0.0, 2022-10-21 20:16:19.998
21.0, -156177.6511284889, -150745.79724619357, 63889.17581906031, -62028.48250013382, 77113.07133592026, -82366.98298060692, 86862.499935925, -128564.73071154724, -0.024, 0.9460000000000001, -0.15, 192.0, 0.0, 0.0, 0.0, 0.0, 0.0, 0.0, 0.0, 0.0, 0.0, 1.6664085799988668E9, 0.0, 2022-10-21 20:16:19.998
22.0, -156174.2983668206, -150739.24818506817, 63893.087374339986, -62036.305610693176, 77112.49019056442, -82372.68267544302, 86858.23075273405, -128566.22827842574, -0.024, 0.9460000000000001, -0.15, 192.0, 0.0, 0.0, 0.0, 0.0, 0.0, 0.0, 0.0, 0.0, 0.0, 1.666408579998881E9, 0.0, 2022-10-21 20:16:19.998
23.0, -156168.2633958177, -150734.71078094374, 63895.36725227443, -62044.888680564014, 77114.03246093183, -82383.5456232483, 86822.02092671645, -128571.01155173917, -0.024, 0.9460000000000001, -0.15, 192.0, 0.0, 0.0, 0.0, 0.0, 0.0, 0.0, 0.0, 0.0, 0.0, 1.6664085799988956E9, 0.0, 2022-10-21 20:16:19.998
24.0, -156171.1020673635, -150740.2316618242, 63894.763755174135, -62033.82456705863, 77118.70397552299, -82385.26670757135, 86814.33192662382, -128577.27004018666, -0.024, 0.9460000000000001, -0.15, 192.0, 0.0, 0.0, 0.0, 0.0, 0.0, 0.0, 0.0, 0.0, 0.0, 1.6664085799989114E9, 0.0, 2022-10-21 20:16:19.998
25.0, -156171.0573638746, -150743.00327813666, 63893.95909237374, -62026.582601855116, 77115.66413827708, -82375.9907336224, 86844.08209849383, -128574.18549945182, -0.024, 0.9460000000000001, -0.15, 192.0, 0.0, 0.0, 0.0, 0.0, 0.0, 0.0, 0.0, 0.0, 0.0, 1.6664085799989257E9, 0.0, 2022-10-21 20:16:19.998
26.0, -156172.0631923751, -150745.2831560711, 63891.07571733901, -62031.61174435756, 77111.97610044196, -82379.61171622417, 86844.43972640512, -128574.63253434093, -0.024, 0.9460000000000001, -0.15, 192.0, 0.0, 0.0, 0.0, 0.0, 0.0, 0.0, 0.0, 0.0, 0.0, 1.66640857999894E9, 0.0, 2022-10-21 20:16:19.998
27.0, -156170.49857026324, -150743.7185339592, 63889.801667905056, -62038.89841304999, 77112.35608009768, -82396.17435886555, 86808.83339748782, -128583.75204607869, -0.016, 0.9460000000000001, -0.15, 192.0, 255.0, 128.0, 29.0, 144.0, 251.0, 80.0, 0.0, 0.0, 0.0, 1.666408579998956E9, 0.0, 2022-10-21 20:16:19.998
28.0, -156170.34210805205, -150743.15974034785, 63888.84054289348, -62035.724465337335, 77109.47270506296, -82399.19184436701, 86797.34460083778, -128585.02609551264, -0.016, 0.9460000000000001, -0.15, 192.0, 0.0, 0.0, 0.0, 0.0, 0.0, 0.0, 0.0, 0.0, 0.0, 1.6664085799989715E9, 0.0, 2022-10-21 20:16:19.998
29.0, -156173.22548308678, -150750.15583636236, 63887.342976014974, -62029.42127340094, 77107.61751027316, -82386.71957096095, 86828.39117388621, -128581.11454023297, -0.016, 0.9460000000000001, -0.15, 192.0, 0.0, 0.0, 0.0, 0.0, 0.0, 0.0, 0.0, 0.0, 0.0, 1.6664085799989874E9, 0.0, 2022-10-21 20:16:19.998
30.0, -156176.6005964995, -150754.0226881531, 63883.38671724639, -62041.02182877324, 77104.89059744962, -82393.69331523101, 86837.08600247932, -128585.74135133522, -0.016, 0.9460000000000001, -0.15, 192.0, 0.0, 0.0, 0.0, 0.0, 0.0, 0.0, 0.0, 0.0, 0.0, 1.6664085799990036E9, 0.0, 2022-10-21 20:16:19.999
31.0, -156181.49562853522, -150758.40363006637, 63876.83765612098, -62054.2987649797, 77099.05679214679, -82411.26178637288, 86801.23380437301, -128595.30789796209, -0.016, 0.9460000000000001, -0.15, 192.0, 0.0, 0.0, 0.0, 0.0, 0.0, 0.0, 0.0, 0.0, 0.0, 1.6664085799990325E9, 0.0, 2022-10-21 20:16:19.999
32.0, -156174.79010519866, -150750.28994682909, 63882.35853700144, -62044.195776485896, 77111.7525829974, -82394.67679198705, 86794.99766766997, -128586.25544145769, -0.016, 0.9460000000000001, -0.15, 192.0, 0.0, 0.0, 0.0, 0.0, 0.0, 0.0, 0.0, 0.0, 0.0, 1.666408579999047E9, 0.0, 2022-10-21 20:16:19.999
33.0, -156177.38290755547, -150753.1286183749, 63880.97272884521, -62031.47763389083, 77115.10534466569, -82385.4902250159, 86820.81393251586, -128586.00957226868, -0.016, 0.9460000000000001, -0.15, 192.0, 0.0, 0.0, 0.0, 0.0, 0.0, 0.0, 0.0, 0.0, 0.0, 1.6664085799990616E9, 0.0, 2022-10-21 20:16:19.999
34.0, -156178.83577094506, -150752.30160383007, 63880.81626663402, -62028.48250013382, 77121.69910928, -82378.78470167932, 86843.63506360473, -128584.46730190127, -0.016, 0.9460000000000001, -0.15, 192.0, 0.0, 0.0, 0.0, 0.0, 0.0, 0.0, 0.0, 0.0, 0.0, 1.6664085799990757E9, 0.0, 2022-10-21 20:16:19.999
35.0, -156174.857160432, -150748.8370834395, 63881.64328117887, -62038.07139850514, 77119.79921100131, -82387.9936203949, 86818.15407492568, -128584.1990809678, -0.016, 0.9460000000000001, -0.15, 192.0, 0.0, 0.0, 0.0, 0.0, 0.0, 0.0, 0.0, 0.0, 0.0, 1.6664085799990911E9, 0.0, 2022-10-21 20:16:19.999
36.0, -156170.8114946856, -150749.26176658415, 63884.7278219137, -62034.78569207021, 77126.01299595989, -82385.4902250159, 86798.95392643857, -128574.2972581741, -0.016, 0.9460000000000001, -0.15, 192.0, 0.0, 0.0, 0.0, 0.0, 0.0, 0.0, 0.0, 0.0, 0.0, 1.6664085799991057E9, 0.0, 2022-10-21 20:16:19.999
37.0, -156165.69294520534, -150743.76323744815, 63891.768621417126, -62012.4339476149, 77136.07128096477, -82372.54856497628, 86829.7993337869, -128566.83177552604, -0.014, 0.9380000000000001, -0.148, 192.0, 255.0, 144.0, 29.0, 80.0, 251.0, 96.0, 0.0, 0.0, 0.0, 1.66640857999912E9, 0.0, 2022-10-21 20:16:19.999
38.0, -156168.48691326226, -150746.0207636381, 63887.700603926256, -62022.91691576444, 77128.71755703898, -82372.21328880946, 86853.76040384299, -128570.74333080571, -0.014, 0.9380000000000001, -0.148, 192.0, 0.0, 0.0, 0.0, 0.0, 0.0, 0.0, 0.0, 0.0, 0.0, 1.6664085799991353E9, 0.0, 2022-10-21 20:16:19.999
39.0, -156182.4120500579, -150760.3258800895, 63875.943586342764, -62041.44651191789, 77120.96150171298, -82385.11024536018, 86834.8955315227, -128581.00278151069, -0.014, 0.9380000000000001, -0.148, 192.0, 0.0, 0.0, 0.0, 0.0, 0.0, 0.0, 0.0, 0.0, 0.0, 1.6664085799991496E9, 0.0, 2022-10-21 20:16:19.999
40.0, -156177.24879708872, -150756.3919730654, 63883.16319980183, -62044.79927358619, 77120.29094937933, -82383.3891610371, 86813.32609812333, -128572.97850525125, -0.014, 0.9380000000000001, -0.148, 192.0, 0.0, 0.0, 0.0, 0.0, 0.0, 0.0, 0.0, 0.0, 0.0, 1.666408579999164E9, 0.0, 2022-10-21 20:16:19.999
41.0, -156176.13120986597, -150753.1733218638, 63887.07475508151, -62037.02086651574, 77119.5533418123, -82374.58257372172, 86826.17835118512, -128565.91535400336, -0.014, 0.9380000000000001, -0.148, 192.0, 0.0, 0.0, 0.0, 0.0, 0.0, 0.0, 0.0, 0.0, 0.0, 1.666408579999178E9, 0.0, 2022-10-21 20:16:19.999
42.0, -156185.7648117262, -150760.3258800895, 63883.923159113314, -62038.49608164979, 77119.75450751239, -82367.65353294057, 86859.52715391245, -128569.82690928305, -0.014, 0.9380000000000001, -0.148, 192.0, 0.0, 0.0, 0.0, 0.0, 0.0, 0.0, 0.0, 0.0, 0.0, 1.6664085799991925E9, 0.0, 2022-10-21 20:16:19.999
43.0, -156184.5131140367, -150759.76708647812, 63886.53831321458, -62049.649602132995, 77118.81573424528, -82372.14623357609, 86851.12289799725, -128574.18549945182, -0.014, 0.9380000000000001, -0.148, 192.0, 0.0, 0.0, 0.0, 0.0, 0.0, 0.0, 0.0, 0.0, 0.0, 1.6664085799992063E9, 0.0, 2022-10-21 20:16:19.999
44.0, -156180.9144831794, -150753.50859803066, 63891.321586528014, -62052.95766031238, 77120.42505984605, -82374.80609116628, 86821.95387148309, -128569.26811567166, -0.014, 0.9380000000000001, -0.148, 192.0, 0.0, 0.0, 0.0, 0.0, 0.0, 0.0, 0.0, 0.0, 0.0, 1.6664085799992204E9, 0.0, 2022-10-21 20:16:19.999
45.0, -156177.38290755547, -150749.0829526285, 63893.48970574018, -62045.96156429787, 77120.17919065704, -82369.41932075254, 86827.43004887462, -128565.60242958099, -0.014, 0.9380000000000001, -0.148, 192.0, 0.0, 0.0, 0.0, 0.0, 0.0, 0.0, 0.0, 0.0, 0.0, 1.666408579999235E9, 0.0, 2022-10-21 20:16:19.999
46.0, -156177.852294189, -150749.8205601955, 63889.22052254922, -62038.27256420524, 77114.34538535422, -82362.6914456715, 86857.53784865592, -128567.43527262632, -0.012, 0.9420000000000001, -0.146, 192.0, 255.0, 160.0, 29.0, 112.0, 251.0, 112.0, 0.0, 0.0, 0.0, 1.6664085799992676E9, 0.0, 2022-10-21 20:16:19.999
47.0, -156185.18366637037, -150757.46485679923, 63875.965938087225, -62058.43383770393, 77096.55339676779, -82379.7905301798, 86839.79056355842, -128582.07566524454, -0.012, 0.9420000000000001, -0.146, 192.0, 0.0, 0.0, 0.0, 0.0, 0.0, 0.0, 0.0, 0.0, 0.0, 1.6664085799992828E9, 0.0, 2022-10-21 20:16:19.999
48.0, -156178.29932907812, -150749.8205601955, 63883.49847596866, -62063.30651799519, 77095.86049268968, -82391.68165823004, 86802.79842648488, -128584.37789492344, -0.012, 0.9420000000000001, -0.146, 192.0, 0.0, 0.0, 0.0, 0.0, 0.0, 0.0, 0.0, 0.0, 0.0, 1.6664085799992971E9, 0.0, 2022-10-21 20:16:19.999
49.0, -156172.84550343105, -150743.9196996593, 63889.39933650486, -62055.9974975583, 77096.93337642353, -82389.78175995134, 86798.35042933827, -128576.48772913072, -0.012, 0.9420000000000001, -0.146, 192.0, 0.0, 0.0, 0.0, 0.0, 0.0, 0.0, 0.0, 0.0, 0.0, 1.666408579999312E9, 0.0, 2022-10-21 20:16:19.999
50.0, -156181.83090470207, -150750.0217258956, 63882.872627123914, -62042.40763692947, 77103.28127184884, -82381.53396624733, 86830.76045879847, -128580.44398789931, -0.012, 0.9420000000000001, -0.146, 192.0, 0.0, 0.0, 0.0, 0.0, 0.0, 0.0, 0.0, 0.0, 0.0, 1.6664085799993281E9, 0.0, 2022-10-21 20:16:19.999
51.0, -156189.7657739837, -150758.40363006637, 63875.16127528683, -62055.97514581384, 77099.43677180252, -82391.63695474112, 86832.45919137707, -128591.44104617133, -0.012, 0.9420000000000001, -0.146, 192.0, 0.0, 0.0, 0.0, 0.0, 0.0, 0.0, 0.0, 0.0, 0.0, 1.6664085799993432E9, 0.0, 2022-10-21 20:16:19.999
52.0, -156188.40231757192, -150756.86135969893, 63879.98925208918, -62066.61457617457, 77095.81578920076, -82393.0004111529, 86799.2892026054, -128589.38468568143, -0.012, 0.9420000000000001, -0.146, 192.0, 0.0, 0.0, 0.0, 0.0, 0.0, 0.0, 0.0, 0.0, 0.0, 1.6664085799993572E9, 0.0, 2022-10-21 20:16:19.999
53.0, -156188.33526233857, -150755.74377247618, 63885.93481611429, -62053.73997136831, 77108.46687656247, -82382.47273951444, 86793.90243219167, -128584.26613620117, -0.012, 0.9420000000000001, -0.146, 192.0, 0.0, 0.0, 0.0, 0.0, 0.0, 0.0, 0.0, 0.0, 0.0, 1.6664085799993715E9, 0.0, 2022-10-21 20:16:19.999
54.0, -156191.4645065623, -150760.25882485617, 63880.905673611844, -62049.359029455074, 77110.97027194146, -82378.4941290014, 86824.92665349564, -128585.47313040175, -0.012, 0.9420000000000001, -0.146, 192.0, 0.0, 0.0, 0.0, 0.0, 0.0, 0.0, 0.0, 0.0, 0.0, 1.666408579999386E9, 0.0, 2022-10-21 20:16:19.999
55.0, -156185.3177768371, -150755.52025503162, 63885.28661552509, -62050.78954110021, 77112.08785916422, -82374.58257372172, 86841.31048218138, -128576.82300529756, -0.012, 0.9420000000000001, -0.146, 192.0, 0.0, 0.0, 0.0, 0.0, 0.0, 0.0, 0.0, 0.0, 0.0, 1.6664085799994E9, 0.0, 2022-10-21 20:16:19.999
56.0, -156186.2118466153, -150759.29769984458, 63889.46639173823, -62052.66708763446, 77121.56499881328, -82373.55439347678, 86820.29984239339, -128579.66167684337, -0.016, 0.9440000000000001, -0.14200000000000002, 192.0, 255.0, 128.0, 29.0, 128.0, 251.0, 144.0, 0.0, 0.0, 0.0, 1.6664085799994144E9, 0.0, 2022-10-21 20:16:19.999
57.0, -156191.7774309847, -150765.66794701433, 63886.1806853033, -62062.300689494696, 77116.69231852202, -82383.00918138138, 86796.76345548195, -128583.37206642296, -0.016, 0.9440000000000001, -0.14200000000000002, 192.0, 0.0, 0.0, 0.0, 0.0, 0.0, 0.0, 0.0, 0.0, 0.0, 1.6664085799994297E9, 0.0, 2022-10-21 20:16:19.999
58.0, -156195.15254439742, -150767.12081040393, 63887.141810314875, -62050.767189355756, 77121.02855694634, -82366.37948350662, 86828.9499674976, -128573.96198200727, -0.016, 0.9440000000000001, -0.14200000000000002, 192.0, 0.0, 0.0, 0.0, 0.0, 0.0, 0.0, 0.0, 0.0, 0.0, 1.666408579999444E9, 0.0, 2022-10-21 20:16:19.999
59.0, -156199.6228932885, -150771.50175231718, 63880.10101081146, -62056.288070236216, 77117.16170515558, -82365.6418759396, 86850.42999391914, -128579.348752421, -0.016, 0.9440000000000001, -0.14200000000000002, 192.0, 0.0, 0.0, 0.0, 0.0, 0.0, 0.0, 0.0, 0.0, 0.0, 1.6664085799994583E9, 0.0, 2022-10-21 20:16:19.999
60.0, -156194.6608060194, -150765.39972608088, 63882.58205444599, -62066.41341047447, 77110.65734751908, -82376.77304467834, 86827.60886283027, -128579.50521463218, -0.016, 0.9440000000000001, -0.14200000000000002, 192.0, 0.0, 0.0, 0.0, 0.0, 0.0, 0.0, 0.0, 0.0, 0.0, 1.6664085799994726E9, 0.0, 2022-10-21 20:16:19.999
61.0, -156192.33622459607, -150760.99643242318, 63887.05240333705, -62068.76034364228, 77113.04898417581, -82376.14719583359, 86808.34165910979, -128569.6033918385, -0.016, 0.9440000000000001, -0.14200000000000002, 192.0, 0.0, 0.0, 0.0, 0.0, 0.0, 0.0, 0.0, 0.0, 0.0, 1.6664085799995008E9, 0.0, 2022-10-21 20:16:19.999
62.0, -156196.24777987573, -150767.1878656373, 63883.76669690212, -62057.02567780324, 77116.4017458441, -82367.85469864067, 86830.53694135392, -128566.38474063692, -0.016, 0.9440000000000001, -0.14200000000000002, 192.0, 0.0, 0.0, 0.0, 0.0, 0.0, 0.0, 0.0, 0.0, 0.0, 1.6664085799995148E9, 0.0, 2022-10-21 20:16:19.999
63.0, -156193.4761635633, -150765.8914644589, 63886.381851003396, -62042.452340418386, 77124.6048360592, -82358.66813166955, 86868.28903773893, -128561.15443243438, -0.016, 0.9440000000000001, -0.14200000000000002, 192.0, 0.0, 0.0, 0.0, 0.0, 0.0, 0.0, 0.0, 0.0, 0.0, 1.6664085799995291E9, 0.0, 2022-10-21 20:16:19.999
64.0, -156192.58209378508, -150764.8856359584, 63886.40420274785, -62048.46495967686, 77123.5990075587, -82359.0928148142, 86855.1462119992, -128559.5451068336, -0.016, 0.9440000000000001, -0.14200000000000002, 192.0, 0.0, 0.0, 0.0, 0.0, 0.0, 0.0, 0.0, 0.0, 0.0, 1.6664085799995432E9, 0.0, 2022-10-21 20:16:19.999
65.0, -156193.6773292634, -150768.4842668157, 63885.62189169192, -62065.0499540627, 77114.41244058758, -82367.22884979592, 86820.3892493712, -128566.31768540356, -0.016, 0.9440000000000001, -0.14200000000000002, 192.0, 0.0, 0.0, 0.0, 0.0, 0.0, 0.0, 0.0, 0.0, 0.0, 1.6664085799995573E9, 0.0, 2022-10-21 20:16:19.999
66.0, -156195.376061842, -150770.22770288322, 63890.628682449904, -62052.309459723176, 77115.44062083252, -82364.72545441693, 86834.02381348894, -128562.7414062907, -0.016, 0.9500000000000001, -0.148, 192.0, 255.0, 128.0, 29.0, 176.0, 251.0, 96.0, 0.0, 0.0, 0.0, 1.6664085799995692E9, 0.0, 2022-10-21 20:16:19.999
67.0, -156199.9805211998, -150775.50271457466, 63889.42168824932, -62047.973221298846, 77115.86530397717, -82359.51749795885, 86866.0538632934, -128567.83760402651, -0.016, 0.9500000000000001, -0.148, 192.0, 0.0, 0.0, 0.0, 0.0, 0.0, 0.0, 0.0, 0.0, 0.0, 1.6664085799995804E9, 0.0, 2022-10-21 20:16:19.999
68.0, -156191.6656722624, -150767.25492087068, 63896.26132205264, -62057.51741618126, 77118.34634761172, -82356.85764036866, 86860.46592717957, -128567.5470313486, -0.016, 0.9500000000000001, -0.148, 192.0, 0.0, 0.0, 0.0, 0.0, 0.0, 0.0, 0.0, 0.0, 0.0, 1.6664085799995909E9, 0.0, 2022-10-21 20:16:19.999
69.0, -156182.7696779692, -150759.96825217822, 63900.68696745479, -62062.34539298361, 77118.949844712, -82365.03837883931, 86828.23471167502, -128567.0999964595, -0.016, 0.9500000000000001, -0.148, 192.0, 0.0, 0.0, 0.0, 0.0, 0.0, 0.0, 0.0, 0.0, 0.0, 1.6664085799996028E9, 0.0, 2022-10-21 20:16:19.999
70.0, -156188.93875943887, -150769.80301973858, 63891.25453129465, -62062.7477243838, 77110.25501611888, -82371.56508822026, 86820.25513890448, -128573.93963026282, -0.016, 0.9500000000000001, -0.148, 192.0, 0.0, 0.0, 0.0, 0.0, 0.0, 0.0, 0.0, 0.0, 0.0, 1.6664085799996133E9, 0.0, 2022-10-21 20:16:19.999
71.0, -156192.9620734408, -150773.51340931814, 63886.6277201924, -62058.299727237194, 77105.56114978327, -82368.3911405076, 86846.87606655074, -128578.05235124259, -0.016, 0.9500000000000001, -0.148, 192.0, 0.0, 0.0, 0.0, 0.0, 0.0, 0.0, 0.0, 0.0, 0.0, 1.6664085799996245E9, 0.0, 2022-10-21 20:16:19.999
72.0, -156190.70454725082, -150771.65821452835, 63885.75600215865, -62068.80504713119, 77099.92851018054, -82378.15885283457, 86843.41154616018, -128580.95807802178, -0.016, 0.9500000000000001, -0.148, 192.0, 0.0, 0.0, 0.0, 0.0, 0.0, 0.0, 0.0, 0.0, 0.0, 1.6664085799996355E9, 0.0, 2022-10-21 20:16:19.999
73.0, -156183.9543204253, -150765.10915340294, 63886.247740536666, -62076.695212923914, 77097.15689386809, -82387.948916906, 86805.86061547526, -128580.95807802178, -0.016, 0.9500000000000001, -0.148, 192.0, 0.0, 0.0, 0.0, 0.0, 0.0, 0.0, 0.0, 0.0, 0.0, 1.6664085799996457E9, 0.0, 2022-10-21 20:16:19.999
74.0, -156190.615140273, -150771.61351103944, 63881.01743233412, -62072.04605007721, 77099.45912354699, -82389.49118727341, 86797.85869096026, -128582.56740362257, -0.016, 0.9500000000000001, -0.148, 192.0, 0.0, 0.0, 0.0, 0.0, 0.0, 0.0, 0.0, 0.0, 0.0, 1.6664085799996564E9, 0.0, 2022-10-21 20:16:19.999
75.0, -156197.99121594324, -150779.3919181099, 63876.34591774296, -62066.52516919675, 77097.33570782372, -82385.53492850483, 86825.48544710701, -128588.08828450303, -0.02, 0.9460000000000001, -0.148, 192.0, 255.0, 96.0, 29.0, 144.0, 251.0, 96.0, 0.0, 0.0, 0.0, 1.6664085799996667E9, 0.0, 2022-10-21 20:16:19.999
76.0, -156198.39354734344, -150782.56586582254, 63875.56360668703, -62065.720506396356, 77100.06262064727, -82379.7905301798, 86835.47667687853, -128586.76953158017, -0.02, 0.9460000000000001, -0.148, 192.0, 0.0, 0.0, 0.0, 0.0, 0.0, 0.0, 0.0, 0.0, 0.0, 1.6664085799996881E9, 0.0, 2022-10-21 20:16:19.999
77.0, -156196.58305604258, -150781.0906506885, 63874.1777985308, -62073.700079166905, 77101.62724275915, -82389.49118727341, 86804.09482766328, -128588.37885718094, -0.02, 0.9460000000000001, -0.148, 192.0, 0.0, 0.0, 0.0, 0.0, 0.0, 0.0, 0.0, 0.0, 0.0, 1.6664085799997005E9, 0.0, 2022-10-21 20:16:19.999
78.0, -156199.60054154403, -150781.82825825553, 63872.4790659522, -62085.41239326148, 77099.21325435796, -82396.37552456565, 86788.5380135224, -128592.08924676053, -0.02, 0.9460000000000001, -0.148, 192.0, 0.0, 0.0, 0.0, 0.0, 0.0, 0.0, 0.0, 0.0, 0.0, 1.6664085799997115E9, 0.0, 2022-10-21 20:16:19.999
79.0, -156194.07966066358, -150776.75441226416, 63882.98438584619, -62069.006212831286, 77106.67873700605, -82373.71085568797, 86827.0500692189, -128578.4993861317, -0.02, 0.9460000000000001, -0.148, 192.0, 0.0, 0.0, 0.0, 0.0, 0.0, 0.0, 0.0, 0.0, 0.0, 1.6664085799997225E9, 0.0, 2022-10-21 20:16:19.999
80.0, -156190.07869840608, -150773.9380924628, 63887.74530741517, -62067.24042501932, 77113.02663243136, -82363.69727417198, 86846.31727293937, -128577.0018192532, -0.02, 0.9460000000000001, -0.148, 192.0, 0.0, 0.0, 0.0, 0.0, 0.0, 0.0, 0.0, 0.0, 0.0, 1.6664085799997332E9, 0.0, 2022-10-21 20:16:19.999
81.0, -156195.80074498663, -150781.78355476662, 63883.11849631292, -62085.14417232802, 77104.8011904718, -82382.67390521454, 86812.56613881185, -128588.96000253678, -0.02, 0.9460000000000001, -0.148, 192.0, 0.0, 0.0, 0.0, 0.0, 0.0, 0.0, 0.0, 0.0, 0.0, 1.666408579999744E9, 0.0, 2022-10-21 20:16:19.999
82.0, -156194.30317810812, -150779.59308381, 63888.10293532645, -62082.5513699712, 77111.39495508611, -82378.44942551249, 86799.22214737203, -128578.07470298705, -0.02, 0.9460000000000001, -0.148, 192.0, 0.0, 0.0, 0.0, 0.0, 0.0, 0.0, 0.0, 0.0, 0.0, 1.6664085799997547E9, 0.0, 2022-10-21 20:16:19.999
83.0, -156197.20890488732, -150781.82825825553, 63887.85706613745, -62070.03439307623, 77114.88182722114, -82368.32408527423, 86828.97231924205, -128573.62670584045, -0.02, 0.9460000000000001, -0.148, 192.0, 0.0, 0.0, 0.0, 0.0, 0.0, 0.0, 0.0, 0.0, 0.0, 1.6664085799997652E9, 0.0, 2022-10-21 20:16:19.999
84.0, -156197.5218293097, -150779.97306346573, 63884.81722889152, -62074.392983245016, 77109.62916727415, -82368.7934719078, 86852.70987185359, -128578.76760706517, -0.02, 0.9460000000000001, -0.148, 192.0, 0.0, 0.0, 0.0, 0.0, 0.0, 0.0, 0.0, 0.0, 0.0, 1.666408579999776E9, 0.0, 2022-10-21 20:16:19.999
85.0, -156191.84448621803, -150769.87007497193, 63890.51692372763, -62078.08102108014, 77114.5018475654, -82357.55054444677, 86843.76917407145, -128571.1456622059, -0.022, 0.9500000000000001, -0.148, 192.0, 255.0, 80.0, 29.0, 176.0, 251.0, 96.0, 0.0, 0.0, 0.0, 1.6664085799997864E9, 0.0, 2022-10-21 20:16:19.999
86.0, -156184.9601489258, -150766.8972929594, 63893.60146446246, -62087.02171886226, 77113.18309464253, -82360.09864331468, 86817.37176386974, -128566.83177552604, -0.022, 0.9500000000000001, -0.148, 192.0, 0.0, 0.0, 0.0, 0.0, 0.0, 0.0, 0.0, 0.0, 0.0, 1.6664085799997983E9, 0.0, 2022-10-21 20:16:19.999
87.0, -156190.43632631737, -150771.16647615033, 63888.661728937834, -62076.359936757086, 77112.4007835866, -82354.35424498966, 86833.37561289973, -128565.96005749227, -0.022, 0.9500000000000001, -0.148, 192.0, 0.0, 0.0, 0.0, 0.0, 0.0, 0.0, 0.0, 0.0, 0.0, 1.6664085799998093E9, 0.0, 2022-10-21 20:16:19.999
88.0, -156195.13019265298, -150777.2908541311, 63884.906635869345, -62071.82253263266, 77108.28806260682, -82354.0413205673, 86860.30946496839, -128571.9503250063, -0.022, 0.9500000000000001, -0.148, 192.0, 0.0, 0.0, 0.0, 0.0, 0.0, 0.0, 0.0, 0.0, 0.0, 1.6664085799998195E9, 0.0, 2022-10-21 20:16:19.999
89.0, -156193.7667362412, -150776.75441226416, 63885.331319013996, -62084.29480603872, 77099.7496962249, -82366.2900765288, 86842.29395893741, -128579.21464195427, -0.022, 0.9500000000000001, -0.148, 192.0, 0.0, 0.0, 0.0, 0.0, 0.0, 0.0, 0.0, 0.0, 0.0, 1.6664085799998305E9, 0.0, 2022-10-21 20:16:19.999
90.0, -156191.24098911774, -150772.86520872894, 63887.298272526066, -62092.497896253815, 77094.92171942255, -82375.63310571112, 86811.2920893779, -128579.57226986556, -0.022, 0.9500000000000001, -0.148, 192.0, 0.0, 0.0, 0.0, 0.0, 0.0, 0.0, 0.0, 0.0, 0.0, 1.666408579999841E9, 0.0, 2022-10-21 20:16:19.999
91.0, -156189.22933211678, -150769.46774357173, 63891.902731883856, -62086.93231188445, 77094.87701593364, -82369.26285854136, 86819.07049644834, -128573.6490575849, -0.022, 0.9500000000000001, -0.148, 192.0, 0.0, 0.0, 0.0, 0.0, 0.0, 0.0, 0.0, 0.0, 0.0, 1.6664085799998608E9, 0.0, 2022-10-21 20:16:19.999
92.0, -156196.65011127593, -150775.81563899704, 63890.65103419436, -62076.80697164619, 77095.81578920076, -82362.91496311605, 86853.0004445315, -128575.16897620786, -0.022, 0.9500000000000001, -0.148, 192.0, 0.0, 0.0, 0.0, 0.0, 0.0, 0.0, 0.0, 0.0, 0.0, 1.6664085799998715E9, 0.0, 2022-10-21 20:16:19.999
93.0, -156194.68315776388, -150776.70970877525, 63888.77348766011, -62086.86525665108, 77089.40083854209, -82373.66615219906, 86841.82457230384, -128583.97556352324, -0.022, 0.9500000000000001, -0.148, 192.0, 0.0, 0.0, 0.0, 0.0, 0.0, 0.0, 0.0, 0.0, 0.0, 1.6664085799998832E9, 0.0, 2022-10-21 20:16:19.999
94.0, -156189.29638735013, -150773.42400234033, 63892.595635961974, -62093.57077998767, 77088.90910016408, -82382.96447789246, 86806.30765036437, -128582.67916234484, -0.022, 0.9500000000000001, -0.148, 192.0, 0.0, 0.0, 0.0, 0.0, 0.0, 0.0, 0.0, 0.0, 0.0, 1.6664085799998937E9, 0.0, 2022-10-21 20:16:19.999
95.0, -156197.3206636096, -150782.27529314463, 63885.93481611429, -62090.44153576393, 77087.3444780522, -82384.08206511523, 86802.37374334023, -128579.5499181211, -0.014, 0.9500000000000001, -0.148, 192.0, 255.0, 144.0, 29.0, 176.0, 251.0, 96.0, 0.0, 0.0, 0.0, 1.6664085799999042E9, 0.0, 2022-10-21 20:16:19.999
96.0, -156203.19917240134, -150788.39967112537, 63880.145714300364, -62087.13347758454, 77087.65740247458, -82378.2929633013, 86829.68757506461, -128590.45756941529, -0.014, 0.9500000000000001, -0.148, 192.0, 0.0, 0.0, 0.0, 0.0, 0.0, 0.0, 0.0, 0.0, 0.0, 1.666408579999916E9, 0.0, 2022-10-21 20:16:19.999
97.0, -156196.65011127593, -150783.50463908966, 63882.47029572372, -62086.26175955078, 77093.82648394424, -82379.41055052407, 86834.35908965577, -128590.77049383766, -0.014, 0.9500000000000001, -0.148, 192.0, 0.0, 0.0, 0.0, 0.0, 0.0, 0.0, 0.0, 0.0, 0.0, 1.6664085799999273E9, 0.0, 2022-10-21 20:16:19.999
98.0, -156195.73368975328, -150783.4375838563, 63878.73755439968, -62097.10235561161, 77086.11513210717, -82393.98388790892, 86798.75276073847, -128594.57029039506, -0.014, 0.9500000000000001, -0.148, 192.0, 0.0, 0.0, 0.0, 0.0, 0.0, 0.0, 0.0, 0.0, 0.0, 1.6664085799999382E9, 0.0, 2022-10-21 20:16:19.999
99.0, -156193.5208670522, -150781.0906506885, 63879.028127077596, -62094.62131197707, 77083.07529486124, -82381.4892627584, 86788.76153096695, -128586.05427575759, -0.014, 0.9500000000000001, -0.148, 192.0, 0.0, 0.0, 0.0, 0.0, 0.0, 0.0, 0.0, 0.0, 0.0, 1.6664085799999487E9, 0.0, 2022-10-21 20:16:19.999
100.0, -156196.94068395384, -150786.23155191322, 63879.83278987799, -62077.03048909074, 77091.30073682079, -82366.44653873998, 86822.80323777239, -128580.3992844104, -0.014, 0.9500000000000001, -0.148, 192.0, 0.0, 0.0, 0.0, 0.0, 0.0, 0.0, 0.0, 0.0, 0.0, 1.6664085799999592E9, 0.0, 2022-10-21 20:16:19.999
101.0, -156204.7190910243, -150794.83697352852, 63871.24972000715, -62094.7554224438, 77082.13652159412, -82381.08693135822, 86822.40090637219, -128592.91626130538, -0.014, 0.9500000000000001, -0.148, 192.0, 0.0, 0.0, 0.0, 0.0, 0.0, 0.0, 0.0, 0.0, 0.0, 1.66640857999997E9, 0.0, 2022-10-21 20:16:19.999
102.0, -156198.48295432128, -150787.81852576954, 63875.2283305202, -62096.94589340042, 77083.20940532797, -82387.85950992817, 86792.06958914633, -128594.25736597269, -0.014, 0.9500000000000001, -0.148, 192.0, 0.0, 0.0, 0.0, 0.0, 0.0, 0.0, 0.0, 0.0, 0.0, 1.6664085799999807E9, 0.0, 2022-10-21 20:16:19.999
103.0, -156190.123401895, -150778.76606926514, 63883.297310268565, -62087.13347758454, 77095.1452368671, -82379.36584703515, 86783.91120242015, -128585.58488912403, -0.014, 0.9500000000000001, -0.148, 192.0, 0.0, 0.0, 0.0, 0.0, 0.0, 0.0, 0.0, 0.0, 0.0, 1.6664085799999914E9, 0.0, 2022-10-21 20:16:19.999
104.0, -156191.2186373733, -150779.48132508772, 63884.57135970252, -62074.14711405601, 77098.96738516896, -82368.72641667443, 86814.242519646, -128581.78509256663, -0.014, 0.9500000000000001, -0.148, 192.0, 0.0, 0.0, 0.0, 0.0, 0.0, 0.0, 0.0, 0.0, 0.0, 1.666408580000002E9, 0.0, 2022-10-21 20:16:20.000
105.0, -156195.68898626434, -150783.16936292284, 63883.0290893351, -62075.085887323134, 77102.52131253736, -82363.5408119608, 86835.9460635121, -128579.46051114328, -0.02, 0.9440000000000001, -0.154, 192.0, 255.0, 96.0, 29.0, 128.0, 251.0, 48.0, 0.0, 0.0, 0.0, 1.6664085800000129E9, 0.0, 2022-10-21 20:16:20.000
106.0, -156197.25360837622, -150784.66692980134, 63883.364365501926, -62074.90707336749, 77109.22683587395, -82369.62048645264, 86815.22599640203, -128585.98722052423, -0.02, 0.9440000000000001, -0.154, 192.0, 0.0, 0.0, 0.0, 0.0, 0.0, 0.0, 0.0, 0.0, 0.0, 1.6664085800000336E9, 0.0, 2022-10-21 20:16:20.000
107.0, -156201.5227915672, -150788.6902438033, 63880.9280253563, -62083.37838451605, 77104.86824570516, -82377.91298364557, 86788.89564143369, -128590.3011072041, -0.02, 0.9440000000000001, -0.154, 192.0, 0.0, 0.0, 0.0, 0.0, 0.0, 0.0, 0.0, 0.0, 0.0, 1.666408580000044E9, 0.0, 2022-10-21 20:16:20.000
108.0, -156210.1282131825, -150801.38603465393, 63878.11170555493, -62079.846808892114, 77103.52714103785, -82364.36782650565, 86817.55057782539, -128588.42356066985, -0.02, 0.9440000000000001, -0.154, 192.0, 0.0, 0.0, 0.0, 0.0, 0.0, 0.0, 0.0, 0.0, 0.0, 1.6664085800000548E9, 0.0, 2022-10-21 20:16:20.000
109.0, -156202.23804738975, -150793.33940665002, 63882.33618525699, -62081.947872870915, 77105.91877769456, -82351.00148332138, 86851.3017119529, -128580.55574662158, -0.02, 0.9440000000000001, -0.154, 192.0, 0.0, 0.0, 0.0, 0.0, 0.0, 0.0, 0.0, 0.0, 0.0, 1.6664085800000656E9, 0.0, 2022-10-21 20:16:20.000
110.0, -156192.73855599624, -150782.31999663354, 63888.7287841712, -62087.64756770701, 77104.22004511596, -82356.56706769075, 86837.17540945714, -128577.82883379803, -0.02, 0.9440000000000001, -0.154, 192.0, 0.0, 0.0, 0.0, 0.0, 0.0, 0.0, 0.0, 0.0, 0.0, 1.666408580000076E9, 0.0, 2022-10-21 20:16:20.000
111.0, -156194.30317810812, -150783.12465943393, 63891.72391792821, -62101.10331786911, 77095.1452368671, -82364.88191662812, 86802.39609508468, -128578.72290357626, -0.02, 0.9440000000000001, -0.154, 192.0, 0.0, 0.0, 0.0, 0.0, 0.0, 0.0, 0.0, 0.0, 0.0, 1.6664085800000868E9, 0.0, 2022-10-21 20:16:20.000
112.0, -156198.84058223254, -150784.8904472459, 63892.88620863989, -62091.313253797685, 77094.67585023354, -82357.3940822356, 86818.4446476036, -128574.38666515192, -0.02, 0.9440000000000001, -0.154, 192.0, 0.0, 0.0, 0.0, 0.0, 0.0, 0.0, 0.0, 0.0, 0.0, 1.666408580000098E9, 0.0, 2022-10-21 20:16:20.000
113.0, -156201.366329356, -150787.03621471362, 63888.12528707091, -62092.94493114292, 77089.40083854209, -82354.39894847859, 86849.2006479741, -128574.52077561866, -0.02, 0.9440000000000001, -0.154, 192.0, 0.0, 0.0, 0.0, 0.0, 0.0, 0.0, 0.0, 0.0, 0.0, 1.6664085800001087E9, 0.0, 2022-10-21 20:16:20.000
114.0, -156199.9805211998, -150789.0925752035, 63882.20207479025, -62107.250047594316, 77077.26384130286, -82372.07917834273, 86830.55929309837, -128583.3497146785, -0.016, 0.9420000000000001, -0.152, 192.0, 255.0, 128.0, 29.0, 112.0, 251.0, 64.0, 0.0, 0.0, 0.0, 1.6664085800001202E9, 0.0, 2022-10-21 20:16:20.000
115.0, -156197.5218293097, -150787.72911879173, 63882.98438584619, -62107.22769584986, 77080.03545761532, -82379.36584703515, 86801.56908053983, -128583.30501118959, -0.016, 0.9420000000000001, -0.152, 192.0, 0.0, 0.0, 0.0, 0.0, 0.0, 0.0, 0.0, 0.0, 0.0, 1.6664085800001314E9, 0.0, 2022-10-21 20:16:20.000
116.0, -156208.85416374853, -150798.43560438583, 63875.89888285386, -62109.39581506203, 77077.17443432503, -82374.82844291073, 86806.93349920912, -128584.62376411245, -0.016, 0.9420000000000001, -0.152, 192.0, 0.0, 0.0, 0.0, 0.0, 0.0, 0.0, 0.0, 0.0, 0.0, 1.666408580000142E9, 0.0, 2022-10-21 20:16:20.000
117.0, -156210.39643411594, -150796.93803750732, 63881.41976373432, -62089.56981773017, 77090.58548099823, -82345.34649197418, 86854.92269455465, -128566.20592668129, -0.016, 0.9420000000000001, -0.152, 192.0, 0.0, 0.0, 0.0, 0.0, 0.0, 0.0, 0.0, 0.0, 0.0, 1.6664085800001523E9, 0.0, 2022-10-21 20:16:20.000
118.0, -156211.37991087197, -150797.83210728553, 63875.89888285386, -62091.62617822006, 77089.8925769201, -82351.42616646603, 86848.44068866262, -128571.23506918372, -0.016, 0.9420000000000001, -0.152, 192.0, 0.0, 0.0, 0.0, 0.0, 0.0, 0.0, 0.0, 0.0, 0.0, 1.666408580000163E9, 0.0, 2022-10-21 20:16:20.000
119.0, -156211.31285563862, -150796.84863052948, 63874.33426074198, -62096.61061723359, 77086.20453908498, -82367.56412596276, 86806.15118815318, -128583.14854897841, -0.016, 0.9420000000000001, -0.152, 192.0, 0.0, 0.0, 0.0, 0.0, 0.0, 0.0, 0.0, 0.0, 0.0, 1.6664085800001736E9, 0.0, 2022-10-21 20:16:20.000
120.0, -156214.53150684017, -150800.33550266453, 63870.86974035141, -62094.77777418826, 77082.09181810521, -82371.09570158669, 86797.12108339323, -128587.28362170263, -0.016, 0.9420000000000001, -0.152, 192.0, 0.0, 0.0, 0.0, 0.0, 0.0, 0.0, 0.0, 0.0, 0.0, 1.666408580000184E9, 0.0, 2022-10-21 20:16:20.000
121.0, -156213.5256783397, -150798.68147357483, 63873.507246197136, -62091.24619856432, 77079.87899540413, -82367.96645736296, 86825.1501709402, -128586.79188332462, -0.016, 0.9420000000000001, -0.152, 192.0, 0.0, 0.0, 0.0, 0.0, 0.0, 0.0, 0.0, 0.0, 0.0, 1.6664085804777412E9, 0.0, 2022-10-21 20:16:20.477
122.0, -156214.01741671772, -150797.5415346076, 63875.72006889821, -62099.44928877942, 77084.30464080628, -82372.68267544302, 86829.73227855352, -128590.3011072041, -0.016, 0.9420000000000001, -0.152, 192.0, 0.0, 0.0, 0.0, 0.0, 0.0, 0.0, 0.0, 0.0, 0.0, 1.666408580477887E9, 0.0, 2022-10-21 20:16:20.477
123.0, -156197.94651245433, -150781.22476115523, 63889.42168824932, -62097.19176258943, 77087.7915129413, -82372.52621323183, 86798.84216771628, -128582.81327281157, -0.016, 0.9420000000000001, -0.152, 192.0, 0.0, 0.0, 0.0, 0.0, 0.0, 0.0, 0.0, 0.0, 0.0, 1.6664085804780247E9, 0.0, 2022-10-21 20:16:20.478
124.0, -156203.84737299054, -150789.18198218133, 63883.140848057374, -62102.60088474761, 77092.97711765494, -82374.02378011034, 86786.36989431024, -128589.09411300352, -0.022, 0.9480000000000001, -0.156, 192.0, 255.0, 80.0, 29.0, 160.0, 251.0, 32.0, 0.0, 0.0, 0.0, 1.6664085804782293E9, 0.0, 2022-10-21 20:16:20.478
125.0, -156211.6704835499, -150797.38507239643, 63879.45281022225, -62094.91188465499, 77092.26186183238, -82370.31339053076, 86819.62929005973, -128590.83754907103, -0.022, 0.9480000000000001, -0.156, 192.0, 0.0, 0.0, 0.0, 0.0, 0.0, 0.0, 0.0, 0.0, 0.0, 1.666408580478278E9, 0.0, 2022-10-21 20:16:20.478
126.0, -156210.88817249396, -150795.842802029, 63882.514999212624, -62092.006157875796, 77090.25020483139, -82369.88870738611, 86831.40865938767, -128589.4517409148, -0.022, 0.9480000000000001, -0.156, 192.0, 0.0, 0.0, 0.0, 0.0, 0.0, 0.0, 0.0, 0.0, 0.0, 1.6664085804783175E9, 0.0, 2022-10-21 20:16:20.478
127.0, -156212.5198498392, -150799.15086020838, 63884.0796213245, -62105.03722489324, 77089.8478734312, -82377.01891386734, 86800.74206599499, -128587.82006356957, -0.022, 0.9480000000000001, -0.156, 192.0, 0.0, 0.0, 0.0, 0.0, 0.0, 0.0, 0.0, 0.0, 0.0, 1.6664085804783275E9, 0.0, 2022-10-21 20:16:20.478
128.0, -156212.36338762802, -150800.00022649768, 63887.81236264853, -62106.02070164928, 77092.12775136564, -82383.03153312583, 86781.40780704115, -128582.83562455603, -0.022, 0.9480000000000001, -0.156, 192.0, 0.0, 0.0, 0.0, 0.0, 0.0, 0.0, 0.0, 0.0, 0.0, 1.6664085804783375E9, 0.0, 2022-10-21 20:16:20.478
129.0, -156211.1787451719, -150799.4414328863, 63892.77444991761, -62089.279245052254, 77104.3541555827, -82365.39600675058, 86817.30470863638, -128580.01930475466, -0.022, 0.9480000000000001, -0.156, 192.0, 0.0, 0.0, 0.0, 0.0, 0.0, 0.0, 0.0, 0.0, 0.0, 1.6664085804783485E9, 0.0, 2022-10-21 20:16:20.478
130.0, -156207.64716954794, -150795.14989795088, 63894.56258947404, -62091.603826475606, 77103.9965276714, -82354.26483801185, 86847.05488050639, -128575.99599075271, -0.022, 0.9480000000000001, -0.156, 192.0, 0.0, 0.0, 0.0, 0.0, 0.0, 0.0, 0.0, 0.0, 0.0, 1.6664085804783583E9, 0.0, 2022-10-21 20:16:20.478
131.0, -156200.1146316665, -150785.42688911283, 63900.10582209895, -62095.13540209954, 77107.79632422881, -82354.35424498966, 86829.28524366442, -128573.62670584045, -0.022, 0.9480000000000001, -0.156, 192.0, 0.0, 0.0, 0.0, 0.0, 0.0, 0.0, 0.0, 0.0, 0.0, 1.6664085804783683E9, 0.0, 2022-10-21 20:16:20.478
132.0, -156198.617064788, -150783.95167397877, 63897.334205786494, -62100.79039344673, 77102.87894044865, -82365.30659977277, 86797.27754560442, -128577.11357797547, -0.022, 0.9480000000000001, -0.156, 192.0, 0.0, 0.0, 0.0, 0.0, 0.0, 0.0, 0.0, 0.0, 0.0, 1.6664085804783783E9, 0.0, 2022-10-21 20:16:20.478
133.0, -156199.7793554997, -150783.28112164512, 63897.15539183086, -62082.46196299338, 77108.64569051811, -82352.40964322205, 86821.90916799416, -128571.57034535056, -0.022, 0.9480000000000001, -0.156, 192.0, 0.0, 0.0, 0.0, 0.0, 0.0, 0.0, 0.0, 0.0, 0.0, 1.6664085804783883E9, 0.0, 2022-10-21 20:16:20.478
134.0, -156197.3206636096, -150780.4424500993, 63894.607292962944, -62079.73505016984, 77110.38912658562, -82347.02287280833, 86852.82163057585, -128571.86091802847, -0.022, 0.9500000000000001, -0.152, 192.0, 255.0, 80.0, 29.0, 176.0, 251.0, 64.0, 0.0, 0.0, 0.0, 1.6664085804783986E9, 0.0, 2022-10-21 20:16:20.478
135.0, -156195.53252405318, -150780.6436157994, 63891.70156618376, -62097.035300378244, 77102.00722241489, -82359.31633225875, 86831.81099078787, -128577.51590937567, -0.022, 0.9500000000000001, -0.152, 192.0, 0.0, 0.0, 0.0, 0.0, 0.0, 0.0, 0.0, 0.0, 0.0, 1.6664085804784153E9, 0.0, 2022-10-21 20:16:20.478
136.0, -156192.33622459607, -150781.5376855776, 63889.578150460504, -62110.08871914014, 77092.93241416603, -82369.84400389719, 86799.44566481658, -128580.55574662158, -0.022, 0.9500000000000001, -0.152, 192.0, 0.0, 0.0, 0.0, 0.0, 0.0, 0.0, 0.0, 0.0, 0.0, 1.6664085804785397E9, 0.0, 2022-10-21 20:16:20.478
137.0, -156189.7210704948, -150777.51437157564, 63892.372118517414, -62104.23256209285, 77091.97128915445, -82361.95383810447, 86813.08022893433, -128572.17384245085, -0.022, 0.9500000000000001, -0.152, 192.0, 0.0, 0.0, 0.0, 0.0, 0.0, 0.0, 0.0, 0.0, 0.0, 1.6664085804785504E9, 0.0, 2022-10-21 20:16:20.478
138.0, -156192.78325948518, -150781.40357511086, 63892.30506328405, -62087.75932642929, 77096.95572816799, -82344.92180882953, 86849.245351463, -128565.75889179217, -0.022, 0.9500000000000001, -0.152, 192.0, 0.0, 0.0, 0.0, 0.0, 0.0, 0.0, 0.0, 0.0, 0.0, 1.6664085804785604E9, 0.0, 2022-10-21 20:16:20.478
139.0, -156194.0126054302, -150786.65623505786, 63889.444039993774, -62090.01685261928, 77096.32987932324, -82354.37659673412, 86840.01408100297, -128568.48580461572, -0.022, 0.9500000000000001, -0.152, 192.0, 0.0, 0.0, 0.0, 0.0, 0.0, 0.0, 0.0, 0.0, 0.0, 1.6664085804785705E9, 0.0, 2022-10-21 20:16:20.478
140.0, -156192.40327982942, -150787.81852576954, 63888.035880093084, -62093.01198637629, 77093.17828335504, -82371.22981205343, 86803.91601370764, -128579.05817974308, -0.022, 0.9500000000000001, -0.152, 192.0, 0.0, 0.0, 0.0, 0.0, 0.0, 0.0, 0.0, 0.0, 0.0, 1.6664085804785805E9, 0.0, 2022-10-21 20:16:20.478
141.0, -156191.79978272913, -150790.12075544844, 63886.49360972567, -62090.50859099729, 77092.30656532128, -82367.20649805147, 86804.92184220813, -128578.43233089833, -0.022, 0.9500000000000001, -0.152, 192.0, 0.0, 0.0, 0.0, 0.0, 0.0, 0.0, 0.0, 0.0, 0.0, 1.6664085804785905E9, 0.0, 2022-10-21 20:16:20.478
142.0, -156192.0680036626, -150790.1431071929, 63886.76183065913, -62074.28122452274, 77096.32987932324, -82350.44268970999, 86838.44945889109, -128575.19132795231, -0.022, 0.9500000000000001, -0.152, 192.0, 0.0, 0.0, 0.0, 0.0, 0.0, 0.0, 0.0, 0.0, 0.0, 1.6664085804786017E9, 0.0, 2022-10-21 20:16:20.478
143.0, -156189.2069803723, -150789.24903741467, 63883.20790329074, -62079.53388446974, 77091.25603333188, -82362.35616950467, 86828.32411865285, -128581.02513325516, -0.02, 0.9440000000000001, -0.148, 192.0, 255.0, 96.0, 29.0, 128.0, 251.0, 96.0, 0.0, 0.0, 0.0, 1.6664085804786117E9, 0.0, 2022-10-21 20:16:20.478
144.0, -156188.84935246102, -150786.96915948024, 63883.31966201302, -62085.658262450495, 77090.8984054206, -82380.7963586803, 86790.90729843466, -128588.53531939213, -0.02, 0.9440000000000001, -0.148, 192.0, 0.0, 0.0, 0.0, 0.0, 0.0, 0.0, 0.0, 0.0, 0.0, 1.666408580478623E9, 0.0, 2022-10-21 20:16:20.478
145.0, -156193.2749978632, -150789.60666532596, 63885.93481611429, -62075.644680934514, 77096.88867293461, -82368.90523063007, 86791.84607170177, -128583.05914200058, -0.02, 0.9440000000000001, -0.148, 192.0, 0.0, 0.0, 0.0, 0.0, 0.0, 0.0, 0.0, 0.0, 0.0, 1.6664085804786332E9, 0.0, 2022-10-21 20:16:20.478
146.0, -156201.18751540035, -150795.90985726236, 63881.129191056396, -62072.62719543305, 77089.51259726437, -82363.38434974961, 86819.22695865954, -128582.65681060038, -0.02, 0.9440000000000001, -0.148, 192.0, 0.0, 0.0, 0.0, 0.0, 0.0, 0.0, 0.0, 0.0, 0.0, 1.6664085804786437E9, 0.0, 2022-10-21 20:16:20.478
147.0, -156204.09324217954, -150796.80392704057, 63877.73172589919, -62080.49500948132, 77084.77402743984, -82368.63700969661, 86820.7915807714, -128586.59071762452, -0.02, 0.9440000000000001, -0.148, 192.0, 0.0, 0.0, 0.0, 0.0, 0.0, 0.0, 0.0, 0.0, 0.0, 1.666408580478654E9, 0.0, 2022-10-21 20:16:20.478
148.0, -156200.74048051125, -150790.72425254874, 63884.86193238044, -62082.7525356713, 77090.67488797604, -82372.57091672074, 86793.47774904702, -128582.03096175563, -0.02, 0.9440000000000001, -0.148, 192.0, 0.0, 0.0, 0.0, 0.0, 0.0, 0.0, 0.0, 0.0, 0.0, 1.666408580478664E9, 0.0, 2022-10-21 20:16:20.478
149.0, -156196.98538744278, -150784.80104026807, 63892.97561561771, -62065.63109941854, 77104.66708000506, -82363.02672183832, 86788.87328968922, -128573.53729886262, -0.02, 0.9440000000000001, -0.148, 192.0, 0.0, 0.0, 0.0, 0.0, 0.0, 0.0, 0.0, 0.0, 0.0, 1.6664085804786744E9, 0.0, 2022-10-21 20:16:20.478
150.0, -156203.4226898459, -150792.40063338287, 63887.633548692895, -62060.266680749264, 77100.21908285846, -82360.36686424815, 86814.0860574348, -128574.52077561866, -0.02, 0.9440000000000001, -0.148, 192.0, 0.0, 0.0, 0.0, 0.0, 0.0, 0.0, 0.0, 0.0, 0.0, 1.666408580478685E9, 0.0, 2022-10-21 20:16:20.478
151.0, -156208.34007362605, -150796.49100261822, 63885.957167858745, -62060.78077087174, 77103.3036235933, -82360.12099505914, 86831.14043845421, -128576.57713610855, -0.02, 0.9440000000000001, -0.148, 192.0, 0.0, 0.0, 0.0, 0.0, 0.0, 0.0, 0.0, 0.0, 0.0, 1.6664085804787369E9, 0.0, 2022-10-21 20:16:20.478
152.0, -156203.132117168, -150790.47838335973, 63894.54023772958, -62057.964451070366, 77109.69622250751, -82363.07142532725, 86811.51560682245, -128574.99016225222, -0.02, 0.9440000000000001, -0.148, 192.0, 0.0, 0.0, 0.0, 0.0, 0.0, 0.0, 0.0, 0.0, 0.0, 1.666408580478748E9, 0.0, 2022-10-21 20:16:20.478
153.0, -156196.53835255365, -150783.48228734522, 63901.02224362162, -62049.51549166626, 77113.13839115362, -82359.89747761459, 86792.44956880207, -128570.47510987225, -0.012, 0.9420000000000001, -0.15, 192.0, 255.0, 160.0, 29.0, 112.0, 251.0, 80.0, 0.0, 0.0, 0.0, 1.6664085804787583E9, 0.0, 2022-10-21 20:16:20.478
154.0, -156201.79101250065, -150792.84766827198, 63895.948397630265, -62042.98878228531, 77115.48532432143, -82352.02966356631, 86818.95873772606, -128569.26811567166, -0.012, 0.9420000000000001, -0.15, 192.0, 0.0, 0.0, 0.0, 0.0, 0.0, 0.0, 0.0, 0.0, 0.0, 1.66640858047877E9, 0.0, 2022-10-21 20:16:20.478
155.0, -156204.58498055756, -150794.56875259505, 63894.31672028503, -62045.55923289767, 77114.39008884312, -82350.17446877653, 86842.85275254879, -128573.69376107381, -0.012, 0.9420000000000001, -0.15, 192.0, 0.0, 0.0, 0.0, 0.0, 0.0, 0.0, 0.0, 0.0, 0.0, 1.6664085804787805E9, 0.0, 2022-10-21 20:16:20.478
156.0, -156198.43825083235, -150784.73398503472, 63899.368214531925, -62056.95862256988, 77108.3998213291, -82357.79641363579, 86818.91403423715, -128575.25838318568, -0.012, 0.9420000000000001, -0.15, 192.0, 0.0, 0.0, 0.0, 0.0, 0.0, 0.0, 0.0, 0.0, 0.0, 1.6664085804787912E9, 0.0, 2022-10-21 20:16:20.478
157.0, -156199.10880316602, -150783.66110130085, 63902.653920966855, -62059.95375632689, 77109.13742889612, -82355.9859223349, 86796.47288280402, -128574.6995895743, -0.012, 0.9420000000000001, -0.15, 192.0, 0.0, 0.0, 0.0, 0.0, 0.0, 0.0, 0.0, 0.0, 0.0, 1.6664085804788036E9, 0.0, 2022-10-21 20:16:20.478
158.0, -156200.628721789, -150782.05177570006, 63907.70541521376, -62047.23561373182, 77111.73023125294, -82343.51364892884, 86819.31636563735, -128567.81525228206, -0.012, 0.9420000000000001, -0.15, 192.0, 0.0, 0.0, 0.0, 0.0, 0.0, 0.0, 0.0, 0.0, 0.0, 1.666408580478814E9, 0.0, 2022-10-21 20:16:20.478
159.0, -156201.7239572673, -150783.9963774677, 63906.54312450208, -62043.7934450857, 77107.61751027316, -82342.41841345053, 86844.41737466067, -128568.351694149, -0.012, 0.9420000000000001, -0.15, 192.0, 0.0, 0.0, 0.0, 0.0, 0.0, 0.0, 0.0, 0.0, 0.0, 1.6664085804788244E9, 0.0, 2022-10-21 20:16:20.478
160.0, -156202.75213751223, -150788.17615368083, 63900.485801754694, -62053.73997136831, 77100.04026890281, -82360.92565785952, 86822.37855462774, -128577.0018192532, -0.012, 0.9420000000000001, -0.15, 192.0, 0.0, 0.0, 0.0, 0.0, 0.0, 0.0, 0.0, 0.0, 0.0, 1.6664085804788349E9, 0.0, 2022-10-21 20:16:20.478
161.0, -156207.93774222585, -150794.05466247257, 63893.914388884834, -62066.48046570784, 77095.68167873404, -82375.70016094449, 86785.5875832543, -128585.69664784631, -0.012, 0.9420000000000001, -0.15, 192.0, 0.0, 0.0, 0.0, 0.0, 0.0, 0.0, 0.0, 0.0, 0.0, 1.666408580478845E9, 0.0, 2022-10-21 20:16:20.478
162.0, -156202.30510262313, -150787.34913913597, 63900.97754013271, -62051.594203900604, 77099.68264099154, -82360.09864331468, 86801.41261832866, -128576.26421168617, -0.012, 0.9420000000000001, -0.15, 192.0, 0.0, 0.0, 0.0, 0.0, 0.0, 0.0, 0.0, 0.0, 0.0, 1.6664085804788551E9, 0.0, 2022-10-21 20:16:20.478
163.0, -156199.9134659664, -150783.16936292284, 63903.83856342299, -62040.12775899503, 77100.3531933252, -82349.01217806485, 86834.02381348894, -128570.2515924277, -0.014, 0.9460000000000001, -0.146, 192.0, 255.0, 144.0, 29.0, 144.0, 251.0, 112.0, 0.0, 0.0, 0.0, 1.6664085804788654E9, 0.0, 2022-10-21 20:16:20.478
164.0, -156206.7307480253, -150791.46186011576, 63892.0815458395, -62054.745799868804, 77095.07818163374, -82364.65839918357, 86822.80323777239, -128584.37789492344, -0.014, 0.9460000000000001, -0.146, 192.0, 0.0, 0.0, 0.0, 0.0, 0.0, 0.0, 0.0, 0.0, 0.0, 1.6664085804788764E9, 0.0, 2022-10-21 20:16:20.478
165.0, -156207.20013465884, -150793.69703456128, 63887.09710682597, -62069.81087563168, 77089.69141122, -82375.56605047775, 86792.04723740187, -128589.71996184827, -0.014, 0.9460000000000001, -0.146, 192.0, 0.0, 0.0, 0.0, 0.0, 0.0, 0.0, 0.0, 0.0, 0.0, 1.6664085804788868E9, 0.0, 2022-10-21 20:16:20.478
166.0, -156203.69091077935, -150793.67468281684, 63891.38864176138, -62058.724410381845, 77093.91589092206, -82362.87025962715, 86796.62934501522, -128578.99112450972, -0.014, 0.9460000000000001, -0.146, 192.0, 0.0, 0.0, 0.0, 0.0, 0.0, 0.0, 0.0, 0.0, 0.0, 1.666408580478912E9, 0.0, 2022-10-21 20:16:20.478
167.0, -156205.70256778033, -150793.80879328356, 63888.16999055982, -62047.816759087655, 77089.6467077311, -82358.82459388072, 86822.62442381674, -128583.41676991187, -0.014, 0.9460000000000001, -0.146, 192.0, 0.0, 0.0, 0.0, 0.0, 0.0, 0.0, 0.0, 0.0, 0.0, 1.6664085804789224E9, 0.0, 2022-10-21 20:16:20.478
168.0, -156208.9212189819, -150798.54736310808, 63881.889150367875, -62055.66222139147, 77083.20940532797, -82367.5417742183, 86813.3931533567, -128593.76562759468, -0.014, 0.9460000000000001, -0.146, 192.0, 0.0, 0.0, 0.0, 0.0, 0.0, 0.0, 0.0, 0.0, 0.0, 1.6664085804789326E9, 0.0, 2022-10-21 20:16:20.478
169.0, -156208.00479745923, -150797.63094158543, 63886.35949925894, -62050.543671911204, 77096.88867293461, -82371.29686728679, 86792.0919408908, -128583.90850828988, -0.014, 0.9460000000000001, -0.146, 192.0, 0.0, 0.0, 0.0, 0.0, 0.0, 0.0, 0.0, 0.0, 0.0, 1.666408580478943E9, 0.0, 2022-10-21 20:16:20.478
170.0, -156209.68117829337, -150799.37437765294, 63885.73365041419, -62050.051933533185, 77096.10636187869, -82372.66032369857, 86779.57496399582, -128589.8987758039, -0.014, 0.9460000000000001, -0.146, 192.0, 0.0, 0.0, 0.0, 0.0, 0.0, 0.0, 0.0, 0.0, 0.0, 1.6664085804789534E9, 0.0, 2022-10-21 20:16:20.478
171.0, -156211.20109691634, -150802.21304919876, 63886.11363006993, -62034.80804381467, 77095.43580954503, -82358.690483414, 86811.3367928668, -128587.10480774699, -0.014, 0.9460000000000001, -0.146, 192.0, 0.0, 0.0, 0.0, 0.0, 0.0, 0.0, 0.0, 0.0, 0.0, 1.6664085804789636E9, 0.0, 2022-10-21 20:16:20.478
172.0, -156209.7258817823, -150798.97204625275, 63887.298272526066, -62033.31047693616, 77094.76525721136, -82366.40183525108, 86819.3387173818, -128588.71413334778, -0.016, 0.9500000000000001, -0.134, 192.0, 255.0, 128.0, 29.0, 176.0, 251.0, 208.0, 0.0, 0.0, 0.0, 1.666408580478974E9, 0.0, 2022-10-21 20:16:20.478
173.0, -156208.40712885943, -150796.20042994028, 63886.00187134765, -62042.27352646274, 77098.60975725767, -82375.92367838904, 86790.12498737872, -128593.92208980586, -0.016, 0.9500000000000001, -0.134, 192.0, 0.0, 0.0, 0.0, 0.0, 0.0, 0.0, 0.0, 0.0, 0.0, 1.6664085804789853E9, 0.0, 2022-10-21 20:16:20.478
174.0, -156198.88528572148, -150785.40453736836, 63894.51788598513, -62038.00434327178, 77101.58253927024, -82368.32408527423, 86776.1327953497, -128584.75787457918, -0.016, 0.9500000000000001, -0.134, 192.0, 0.0, 0.0, 0.0, 0.0, 0.0, 0.0, 0.0, 0.0, 0.0, 1.6664085804789956E9, 0.0, 2022-10-21 20:16:20.478
175.0, -156205.9260852249, -150793.51822060565, 63894.09320284048, -62025.75558731027, 77107.03636491732, -82356.03062582381, 86807.15701665367, -128582.65681060038, -0.016, 0.9500000000000001, -0.134, 192.0, 0.0, 0.0, 0.0, 0.0, 0.0, 0.0, 0.0, 0.0, 0.0, 1.666408580479006E9, 0.0, 2022-10-21 20:16:20.479
176.0, -156208.09420443705, -150797.49683111868, 63892.90856038434, -62024.682703576414, 77110.76910624137, -82353.92956184501, 86827.251234919, -128581.4498163998, -0.016, 0.9500000000000001, -0.134, 192.0, 0.0, 0.0, 0.0, 0.0, 0.0, 0.0, 0.0, 0.0, 0.0, 1.6664085804790163E9, 0.0, 2022-10-21 20:16:20.479
177.0, -156202.3274543676, -150788.93611299232, 63898.00475812016, -62028.638962345, 77113.00428068689, -82356.5447159463, 86803.73719975201, -128579.25934544318, -0.016, 0.9500000000000001, -0.134, 192.0, 0.0, 0.0, 0.0, 0.0, 0.0, 0.0, 0.0, 0.0, 0.0, 1.6664085804790263E9, 0.0, 2022-10-21 20:16:20.479
178.0, -156201.6792537784, -150786.47742110223, 63900.19522907677, -62022.49223261979, 77122.25790289139, -82357.66230316905, 86787.487481533, -128576.599487853, -0.016, 0.9500000000000001, -0.134, 192.0, 0.0, 0.0, 0.0, 0.0, 0.0, 0.0, 0.0, 0.0, 0.0, 1.6664085804790375E9, 0.0, 2022-10-21 20:16:20.479
179.0, -156208.04950094814, -150793.49586886118, 63891.545103972574, -62016.97135173933, 77116.75937375538, -82351.71673914394, 86808.96750795454, -128581.69568558881, -0.016, 0.9500000000000001, -0.134, 192.0, 0.0, 0.0, 0.0, 0.0, 0.0, 0.0, 0.0, 0.0, 0.0, 1.666408580479048E9, 0.0, 2022-10-21 20:16:20.479
180.0, -156212.0281114612, -150796.93803750732, 63887.74530741517, -62020.41352038545, 77111.61847253067, -82343.89362858458, 86834.13557221122, -128583.21560421177, -0.016, 0.9500000000000001, -0.134, 192.0, 0.0, 0.0, 0.0, 0.0, 0.0, 0.0, 0.0, 0.0, 0.0, 1.666408580479058E9, 0.0, 2022-10-21 20:16:20.479
181.0, -156206.08254743606, -150792.11006070496, 63894.92021738532, -62018.4912703623, 77118.3016441228, -82341.41258495004, 86826.2007029296, -128574.07374072955, -0.016, 0.9500000000000001, -0.134, 192.0, 0.0, 0.0, 0.0, 0.0, 0.0, 0.0, 0.0, 0.0, 0.0, 1.6664085804790795E9, 0.0, 2022-10-21 20:16:20.479
182.0, -156207.08837593655, -150792.66885431635, 63892.41682200633, -62033.26577344725, 77110.21031262998, -82352.23082926641, 86793.7906734694, -128576.64419134191, -0.02, 0.9460000000000001, -0.136, 192.0, 255.0, 96.0, 29.0, 144.0, 251.0, 192.0, 0.0, 0.0, 0.0, 1.66640858047909E9, 0.0, 2022-10-21 20:16:20.479
183.0, -156211.37991087197, -150793.58527583902, 63888.952301615755, -62038.18315722742, 77095.5475682673, -82353.37076823364, 86800.94323169508, -128582.25447920019, -0.02, 0.9460000000000001, -0.136, 192.0, 0.0, 0.0, 0.0, 0.0, 0.0, 0.0, 0.0, 0.0, 0.0, 1.666408580479101E9, 0.0, 2022-10-21 20:16:20.479
184.0, -156211.2681521497, -150790.88071475993, 63888.77348766011, -62036.439721159906, 77092.93241416603, -82350.64385541009, 86829.06172621986, -128580.82396755506, -0.02, 0.9460000000000001, -0.136, 192.0, 0.0, 0.0, 0.0, 0.0, 0.0, 0.0, 0.0, 0.0, 0.0, 1.6664085804791112E9, 0.0, 2022-10-21 20:16:20.479
185.0, -156209.68117829337, -150788.77965078113, 63889.108763826946, -62047.30266896519, 77087.85856817468, -82360.7468439039, 86818.13172318121, -128584.71317109028, -0.02, 0.9460000000000001, -0.136, 192.0, 0.0, 0.0, 0.0, 0.0, 0.0, 0.0, 0.0, 0.0, 0.0, 1.6664085804791217E9, 0.0, 2022-10-21 20:16:20.479
186.0, -156199.5781897996, -150780.17422916583, 63900.284636054595, -62053.80702660168, 77086.04807687379, -82364.03255033882, 86788.42625480011, -128575.99599075271, -0.02, 0.9460000000000001, -0.136, 192.0, 0.0, 0.0, 0.0, 0.0, 0.0, 0.0, 0.0, 0.0, 0.0, 1.6664085804791317E9, 0.0, 2022-10-21 20:16:20.479
187.0, -156199.89111422194, -150782.90114198936, 63901.670444210824, -62040.53009039523, 77093.08887637721, -82355.06950081224, 86800.38443808371, -128571.88326977292, -0.02, 0.9460000000000001, -0.136, 192.0, 0.0, 0.0, 0.0, 0.0, 0.0, 0.0, 0.0, 0.0, 0.0, 1.666408580479142E9, 0.0, 2022-10-21 20:16:20.479
188.0, -156211.44696610534, -150791.66302581585, 63894.16025807384, -62032.8410903026, 77090.9431089095, -82351.64968391058, 86833.8449995333, -128575.30308667458, -0.02, 0.9460000000000001, -0.136, 192.0, 0.0, 0.0, 0.0, 0.0, 0.0, 0.0, 0.0, 0.0, 0.0, 1.6664085804791524E9, 0.0, 2022-10-21 20:16:20.479
189.0, -156212.96688472832, -150793.09353746098, 63888.192342304275, -62043.32405845214, 77085.53398675132, -82357.14821304659, 86827.31829015235, -128579.92989777683, -0.02, 0.9460000000000001, -0.136, 192.0, 0.0, 0.0, 0.0, 0.0, 0.0, 0.0, 0.0, 0.0, 0.0, 1.6664085804791627E9, 0.0, 2022-10-21 20:16:20.479
190.0, -156211.89400099445, -150792.64650257188, 63883.45377247975, -62050.61072714457, 77080.23662331542, -82367.49707072938, 86786.61576349924, -128584.42259841236, -0.02, 0.9460000000000001, -0.136, 192.0, 0.0, 0.0, 0.0, 0.0, 0.0, 0.0, 0.0, 0.0, 0.0, 1.6664085804791727E9, 0.0, 2022-10-21 20:16:20.479
191.0, -156215.49263185175, -150793.04883397208, 63880.32452825601, -62039.636020617014, 77083.87995766163, -82364.3454747612, 86783.35240880876, -128585.42842691284, -0.02, 0.9460000000000001, -0.136, 192.0, 0.0, 0.0, 0.0, 0.0, 0.0, 0.0, 0.0, 0.0, 0.0, 1.6664085804791832E9, 0.0, 2022-10-21 20:16:20.479
192.0, -156219.94062899836, -150796.46865087375, 63877.46350496573, -62026.89552627749, 77085.48928326242, -82356.16473629055, 86813.75078126798, -128589.07176125905, -0.018000000000000002, 0.9480000000000001, -0.14, 192.0, 255.0, 112.0, 29.0, 160.0, 251.0, 160.0, 0.0, 0.0, 0.0, 1.6664085804791937E9, 0.0, 2022-10-21 20:16:20.479
193.0, -156222.66754182192, -150798.50265961917, 63874.66953690881, -62030.42710190143, 77084.97519313994, -82361.30563751527, 86811.02386844443, -128595.5537671511, -0.018000000000000002, 0.9480000000000001, -0.14, 192.0, 0.0, 0.0, 0.0, 0.0, 0.0, 0.0, 0.0, 0.0, 0.0, 1.6664085804792044E9, 0.0, 2022-10-21 20:16:20.479
194.0, -156220.70058830985, -150796.31218866256, 63877.776429388105, -62033.39988391398, 77090.92075716505, -82373.24146905441, 86781.74308320798, -128594.92791830635, -0.018000000000000002, 0.9480000000000001, -0.14, 192.0, 0.0, 0.0, 0.0, 0.0, 0.0, 0.0, 0.0, 0.0, 0.0, 1.6664085804792159E9, 0.0, 2022-10-21 20:16:20.479
195.0, -156224.7239023118, -150798.90499101937, 63875.29538575356, -62027.85665128907, 77095.25699558939, -82372.23564055392, 86772.73533019249, -128591.9551362938, -0.018000000000000002, 0.9480000000000001, -0.14, 192.0, 0.0, 0.0, 0.0, 0.0, 0.0, 0.0, 0.0, 0.0, 0.0, 1.666408580479226E9, 0.0, 2022-10-21 20:16:20.479
196.0, -156227.42846339088, -150799.77670905314, 63873.5295979416, -62026.47084313284, 77091.12192286515, -82358.0869863137, 86798.19396712708, -128594.48088341724, -0.018000000000000002, 0.9480000000000001, -0.14, 192.0, 0.0, 0.0, 0.0, 0.0, 0.0, 0.0, 0.0, 0.0, 0.0, 1.6664085804792476E9, 0.0, 2022-10-21 20:16:20.479
197.0, -156227.40611164644, -150802.23540094323, 63872.85904560793, -62038.76430258326, 77091.81482694326, -82354.91303860105, 86811.06857193334, -128595.28554621764, -0.018000000000000002, 0.9480000000000001, -0.14, 192.0, 0.0, 0.0, 0.0, 0.0, 0.0, 0.0, 0.0, 0.0, 0.0, 1.666408580479258E9, 0.0, 2022-10-21 20:16:20.479
198.0, -156220.70058830985, -150795.48517411773, 63878.84931312196, -62041.33475319562, 77100.17437936955, -82356.27649501282, 86791.17551936812, -128590.56932813757, -0.018000000000000002, 0.9480000000000001, -0.14, 192.0, 0.0, 0.0, 0.0, 0.0, 0.0, 0.0, 0.0, 0.0, 0.0, 1.6664085804792688E9, 0.0, 2022-10-21 20:16:20.479
199.0, -156224.63449533397, -150794.94873225078, 63876.32356599851, -62040.99947702879, 77099.48147529144, -82359.40573923656, 86774.41171102664, -128589.63055487044, -0.018000000000000002, 0.9480000000000001, -0.14, 192.0, 0.0, 0.0, 0.0, 0.0, 0.0, 0.0, 0.0, 0.0, 0.0, 1.6664085804792795E9, 0.0, 2022-10-21 20:16:20.479
200.0, -156231.16120471494, -150795.75339505117, 63872.814342119025, -62025.06268323216, 77100.82257995875, -82349.41450946504, 86799.75858923896, -128586.92599379134, -0.018000000000000002, 0.9480000000000001, -0.14, 192.0, 0.0, 0.0, 0.0, 0.0, 0.0, 0.0, 0.0, 0.0, 0.0, 1.66640858047929E9, 0.0, 2022-10-21 20:16:20.479
201.0, -156229.93185876988, -150793.78644153912, 63872.43436246328, -62020.23470642981, 77101.98487067042, -82350.44268970999, 86818.06466794785, -128586.41190366888, -0.018000000000000002, 0.9480000000000001, -0.14, 192.0, 0.0, 0.0, 0.0, 0.0, 0.0, 0.0, 0.0, 0.0, 0.0, 1.6664085804793012E9, 0.0, 2022-10-21 20:16:20.479
202.0, -156219.94062899836, -150785.96333097975, 63882.20207479025, -62015.809061027656, 77105.47174280546, -82354.6895211565, 86798.59629852728, -128580.95807802178, -0.01, 0.9420000000000001, -0.146, 192.0, 255.0, 176.0, 29.0, 112.0, 251.0, 112.0, 0.0, 0.0, 0.0, 1.6664085804793115E9, 0.0, 2022-10-21 20:16:20.479
203.0, -156219.09126270906, -150788.01969146964, 63880.637452678384, -62024.32507566513, 77109.47270506296, -82358.2881520138, 86776.26690581643, -128586.74717983571, -0.01, 0.9420000000000001, -0.146, 192.0, 0.0, 0.0, 0.0, 0.0, 0.0, 0.0, 0.0, 0.0, 0.0, 1.6664085804793227E9, 0.0, 2022-10-21 20:16:20.479
204.0, -156220.16414644293, -150792.24417117168, 63881.30800501204, -62019.81002328516, 77111.79728648631, -82344.54182917379, 86801.50202530647, -128583.32736293404, -0.01, 0.9420000000000001, -0.146, 192.0, 0.0, 0.0, 0.0, 0.0, 0.0, 0.0, 0.0, 0.0, 0.0, 1.666408580479333E9, 0.0, 2022-10-21 20:16:20.479
205.0, -156222.35461739954, -150795.03813922862, 63884.12432481341, -62014.22208717133, 77111.03732717482, -82333.92475055752, 86834.02381348894, -128577.22533669775, -0.01, 0.9420000000000001, -0.146, 192.0, 0.0, 0.0, 0.0, 0.0, 0.0, 0.0, 0.0, 0.0, 0.0, 1.6664085804793434E9, 0.0, 2022-10-21 20:16:20.479
206.0, -156216.7219777968, -150787.68441530282, 63887.11945857042, -62023.47570937583, 77105.22587361645, -82342.686634384, 86817.32706038083, -128576.71124657527, -0.01, 0.9420000000000001, -0.146, 192.0, 0.0, 0.0, 0.0, 0.0, 0.0, 0.0, 0.0, 0.0, 0.0, 1.6664085804793537E9, 0.0, 2022-10-21 20:16:20.479
207.0, -156211.4246143609, -150784.46576410125, 63887.16416205933, -62046.0956747646, 77091.30073682079, -82354.8906868566, 86780.44668202958, -128584.69081934582, -0.01, 0.9420000000000001, -0.146, 192.0, 0.0, 0.0, 0.0, 0.0, 0.0, 0.0, 0.0, 0.0, 0.0, 1.6664085804793642E9, 0.0, 2022-10-21 20:16:20.479
208.0, -156217.59369583055, -150790.70190080427, 63885.398374247365, -62042.094712507096, 77087.18801584102, -82353.21430602245, 86794.6847432476, -128582.83562455603, -0.01, 0.9420000000000001, -0.146, 192.0, 0.0, 0.0, 0.0, 0.0, 0.0, 0.0, 0.0, 0.0, 0.0, 1.666408580479375E9, 0.0, 2022-10-21 20:16:20.479
209.0, -156221.63936157696, -150794.36758689495, 63882.89497886837, -62041.17829098443, 77081.68948670501, -82352.27553275533, 86823.45143836159, -128585.56253737958, -0.01, 0.9420000000000001, -0.146, 192.0, 0.0, 0.0, 0.0, 0.0, 0.0, 0.0, 0.0, 0.0, 0.0, 1.666408580479385E9, 0.0, 2022-10-21 20:16:20.479
210.0, -156217.34782664155, -150790.63484557092, 63885.532484714095, -62048.82258758815, 77083.74584719489, -82355.42712872352, 86813.30374637888, -128587.21656646927, -0.01, 0.9420000000000001, -0.146, 192.0, 0.0, 0.0, 0.0, 0.0, 0.0, 0.0, 0.0, 0.0, 0.0, 1.6664085804793952E9, 0.0, 2022-10-21 20:16:20.479
211.0, -156212.40809111693, -150783.01290071165, 63891.14277257238, -62055.19283475791, 77086.67392571854, -82354.86833511214, 86785.67699023211, -128582.47799664474, -0.014, 0.9460000000000001, -0.148, 192.0, 255.0, 144.0, 29.0, 144.0, 251.0, 96.0, 0.0, 0.0, 0.0, 1.6664085804794056E9, 0.0, 2022-10-21 20:16:20.479
212.0, -156218.15248944194, -150788.15380193637, 63887.007699848145, -62054.83520684663, 77085.15400709558, -82352.34258798869, 86790.236746101, -128582.34388617802, -0.014, 0.9460000000000001, -0.148, 192.0, 0.0, 0.0, 0.0, 0.0, 0.0, 0.0, 0.0, 0.0, 0.0, 1.666408580479426E9, 0.0, 2022-10-21 20:16:20.479
213.0, -156221.79582378815, -150795.32871190654, 63884.43724923579, -62047.5932416431, 77080.86247216017, -82344.69829138498, 86821.14920868269, -128582.03096175563, -0.014, 0.9460000000000001, -0.148, 192.0, 0.0, 0.0, 0.0, 0.0, 0.0, 0.0, 0.0, 0.0, 0.0, 1.666408580479436E9, 0.0, 2022-10-21 20:16:20.479
214.0, -156223.69572206686, -150797.69799681878, 63882.47029572372, -62054.03054404623, 77080.50484424888, -82350.26387575435, 86817.05883944736, -128584.98139202374, -0.014, 0.9460000000000001, -0.148, 192.0, 0.0, 0.0, 0.0, 0.0, 0.0, 0.0, 0.0, 0.0, 0.0, 1.6664085804794462E9, 0.0, 2022-10-21 20:16:20.479
215.0, -156218.19719293085, -150792.40063338287, 63884.750173658154, -62060.132570282534, 77081.42126577154, -82359.71866365895, 86784.64880998716, -128584.93668853483, -0.014, 0.9460000000000001, -0.148, 192.0, 0.0, 0.0, 0.0, 0.0, 0.0, 0.0, 0.0, 0.0, 0.0, 1.6664085804794564E9, 0.0, 2022-10-21 20:16:20.479
216.0, -156222.77930054418, -150796.42394738484, 63879.00577533314, -62056.13160802503, 77079.43196051502, -82366.78181490682, 86774.29995230437, -128587.59654612502, -0.014, 0.9460000000000001, -0.148, 192.0, 0.0, 0.0, 0.0, 0.0, 0.0, 0.0, 0.0, 0.0, 0.0, 1.6664085804794664E9, 0.0, 2022-10-21 20:16:20.479
217.0, -156223.09222496656, -150795.23930492872, 63879.519865455615, -62044.8439770751, 77082.47179776094, -82350.15211703208, 86811.51560682245, -128581.24865069971, -0.014, 0.9460000000000001, -0.148, 192.0, 0.0, 0.0, 0.0, 0.0, 0.0, 0.0, 0.0, 0.0, 0.0, 1.6664085804794767E9, 0.0, 2022-10-21 20:16:20.479
218.0, -156222.39932088845, -150794.21112468376, 63876.70354565425, -62046.96739279835, 77087.9926786414, -82352.92373334453, 86820.00926971546, -128587.28362170263, -0.014, 0.9460000000000001, -0.148, 192.0, 0.0, 0.0, 0.0, 0.0, 0.0, 0.0, 0.0, 0.0, 0.0, 1.666408580479487E9, 0.0, 2022-10-21 20:16:20.479
219.0, -156218.66657956442, -150791.57361883804, 63875.56360668703, -62046.31919220915, 77089.06556237525, -82363.58551544971, 86789.70030423407, -128590.39051418193, -0.014, 0.9460000000000001, -0.148, 192.0, 0.0, 0.0, 0.0, 0.0, 0.0, 0.0, 0.0, 0.0, 0.0, 1.6664085804794972E9, 0.0, 2022-10-21 20:16:20.479
220.0, -156223.58396334457, -150797.18390669633, 63870.51211244013, -62042.69820960739, 77084.90813790658, -82366.64770444008, 86768.35438827926, -128590.36816243747, -0.014, 0.9460000000000001, -0.148, 192.0, 0.0, 0.0, 0.0, 0.0, 0.0, 0.0, 0.0, 0.0, 0.0, 1.6664085804795077E9, 0.0, 2022-10-21 20:16:20.479
221.0, -156235.05040825016, -150809.36560742446, 63860.11855126841, -62038.71959909435, 77082.85177741668, -82359.71866365895, 86789.87911818971, -128600.22528174226, -0.018000000000000002, 0.9460000000000001, -0.148, 192.0, 255.0, 112.0, 29.0, 144.0, 251.0, 96.0, 0.0, 0.0, 0.0, 1.6664085804795187E9, 0.0, 2022-10-21 20:16:20.479
222.0, -156232.09997798206, -150806.86221204547, 63861.07967627999, -62040.75360783978, 77089.445542031, -82347.00052106388, 86807.55934805387, -128597.4536654298, -0.018000000000000002, 0.9460000000000001, -0.148, 192.0, 0.0, 0.0, 0.0, 0.0, 0.0, 0.0, 0.0, 0.0, 0.0, 1.6664085804795296E9, 0.0, 2022-10-21 20:16:20.479
223.0, -156227.78609130217, -150799.55319160857, 63866.868778093914, -62045.13454975302, 77092.194806599, -82353.95191358947, 86777.20567908355, -128598.19127299683, -0.018000000000000002, 0.9460000000000001, -0.148, 192.0, 0.0, 0.0, 0.0, 0.0, 0.0, 0.0, 0.0, 0.0, 0.0, 1.6664085804795396E9, 0.0, 2022-10-21 20:16:20.479
224.0, -156229.46247213634, -150803.17417421035, 63864.85712109294, -62043.011134029766, 77099.28030959134, -82349.90624784306, 86759.6819114306, -128595.53141540664, -0.018000000000000002, 0.9460000000000001, -0.148, 192.0, 0.0, 0.0, 0.0, 0.0, 0.0, 0.0, 0.0, 0.0, 0.0, 1.66640858047955E9, 0.0, 2022-10-21 20:16:20.479
225.0, -156233.1728617159, -150811.62313361446, 63863.00192630314, -62024.258020431764, 77109.91973995206, -82339.82561109372, 86791.9354786796, -128592.13395024944, -0.018000000000000002, 0.9460000000000001, -0.148, 192.0, 0.0, 0.0, 0.0, 0.0, 0.0, 0.0, 0.0, 0.0, 0.0, 1.666408580479561E9, 0.0, 2022-10-21 20:16:20.479
226.0, -156237.30793444015, -150811.42196791436, 63861.25849023563, -62025.48736637681, 77109.2044841295, -82339.89266632708, 86814.15311266818, -128592.2457089717, -0.018000000000000002, 0.9460000000000001, -0.148, 192.0, 0.0, 0.0, 0.0, 0.0, 0.0, 0.0, 0.0, 0.0, 0.0, 1.666408580479572E9, 0.0, 2022-10-21 20:16:20.479
227.0, -156234.0222280052, -150805.11877597796, 63862.10785652493, -62034.7409885813, 77104.7564869829, -82352.96843683344, 86789.00740015596, -128596.76076135169, -0.018000000000000002, 0.9460000000000001, -0.148, 192.0, 0.0, 0.0, 0.0, 0.0, 0.0, 0.0, 0.0, 0.0, 0.0, 1.6664085804795914E9, 0.0, 2022-10-21 20:16:20.479
228.0, -156231.25061169275, -150803.97883701074, 63861.45965593573, -62037.691418849405, 77102.81188521527, -82360.23275378141, 86760.9336091201, -128600.0017642977, -0.018000000000000002, 0.9460000000000001, -0.148, 192.0, 0.0, 0.0, 0.0, 0.0, 0.0, 0.0, 0.0, 0.0, 0.0, 1.666408580479602E9, 0.0, 2022-10-21 20:16:20.479
229.0, -156230.33419017008, -150803.55415386608, 63862.800760603044, -62027.968410011345, 77104.33180383824, -82348.8333641092, 86787.71099897755, -128594.36912469496, -0.018000000000000002, 0.9460000000000001, -0.148, 192.0, 0.0, 0.0, 0.0, 0.0, 0.0, 0.0, 0.0, 0.0, 0.0, 1.666408580479612E9, 0.0, 2022-10-21 20:16:20.479
230.0, -156226.64615233496, -150797.31801716305, 63864.94652807076, -62023.67687507593, 77100.57671076975, -82344.5865326627, 86821.50683659397, -128588.66942985887, -0.018000000000000002, 0.9460000000000001, -0.148, 192.0, 0.0, 0.0, 0.0, 0.0, 0.0, 0.0, 0.0, 0.0, 0.0, 1.6664085804796221E9, 0.0, 2022-10-21 20:16:20.479
231.0, -156228.65780933594, -150800.38020615344, 63860.34206871296, -62037.825529316135, 77090.6972397205, -82358.8916491141, 86802.50785380696, -128596.31372646258, -0.024, 0.9400000000000001, -0.152, 192.0, 255.0, 64.0, 29.0, 96.0, 251.0, 64.0, 0.0, 0.0, 0.0, 1.6664085804796324E9, 0.0, 2022-10-21 20:16:20.479
232.0, -156232.85993729354, -150804.67174108885, 63857.68221112278, -62059.97610807134, 77077.57676572523, -82367.09473932919, 86764.08520508828, -128602.57221491006, -0.024, 0.9400000000000001, -0.152, 192.0, 0.0, 0.0, 0.0, 0.0, 0.0, 0.0, 0.0, 0.0, 0.0, 1.666408580479643E9, 0.0, 2022-10-21 20:16:20.479
233.0, -156233.06110299364, -150805.23053470024, 63860.00679254613, -62051.48244517833, 77078.71670469246, -82356.25414326836, 86777.98799013949, -128597.14074100743, -0.024, 0.9400000000000001, -0.152, 192.0, 0.0, 0.0, 0.0, 0.0, 0.0, 0.0, 0.0, 0.0, 0.0, 1.6664085804796536E9, 0.0, 2022-10-21 20:16:20.479
234.0, -156232.0776262376, -150802.9953602547, 63859.98444080168, -62046.498006164795, 77074.55928022377, -82353.08019555571, 86808.31930736534, -128597.6548311299, -0.024, 0.9400000000000001, -0.152, 192.0, 0.0, 0.0, 0.0, 0.0, 0.0, 0.0, 0.0, 0.0, 0.0, 1.6664085804796636E9, 0.0, 2022-10-21 20:16:20.479
235.0, -156231.74235007077, -150804.13529922193, 63859.47035067921, -62060.66901214946, 77068.7925301543, -82364.12195731663, 86794.86355720325, -128607.78017136815, -0.024, 0.9400000000000001, -0.152, 192.0, 0.0, 0.0, 0.0, 0.0, 0.0, 0.0, 0.0, 0.0, 0.0, 1.6664085804796736E9, 0.0, 2022-10-21 20:16:20.479
236.0, -156225.88619302347, -150801.38603465393, 63866.086467037974, -62066.90514885249, 77070.40185575507, -82369.88870738611, 86764.68870218858, -128606.48377018975, -0.024, 0.9400000000000001, -0.152, 192.0, 0.0, 0.0, 0.0, 0.0, 0.0, 0.0, 0.0, 0.0, 0.0, 1.6664085804796836E9, 0.0, 2022-10-21 20:16:20.479
237.0, -156224.54508835616, -150800.98370325373, 63872.12143804091, -62058.81381735967, 77076.34741978018, -82361.48445147091, 86771.729501692, -128595.77728459565, -0.024, 0.9400000000000001, -0.152, 192.0, 0.0, 0.0, 0.0, 0.0, 0.0, 0.0, 0.0, 0.0, 0.0, 1.666408580479694E9, 0.0, 2022-10-21 20:16:20.479
238.0, -156236.14564372847, -150811.98076152575, 63862.44313269176, -62056.846863847604, 77070.96064936646, -82358.91400085855, 86802.46315031806, -128602.01342129869, -0.024, 0.9400000000000001, -0.152, 192.0, 0.0, 0.0, 0.0, 0.0, 0.0, 0.0, 0.0, 0.0, 0.0, 1.666408580479705E9, 0.0, 2022-10-21 20:16:20.479
239.0, -156230.46830063683, -150805.7893283116, 63862.21961524721, -62062.032468561236, 77066.22207954194, -82360.03158808131, 86801.1891008841, -128601.6557933874, -0.024, 0.9400000000000001, -0.152, 192.0, 0.0, 0.0, 0.0, 0.0, 0.0, 0.0, 0.0, 0.0, 0.0, 1.6664085804797192E9, 0.0, 2022-10-21 20:16:20.479
240.0, -156222.64519007746, -150799.39672939738, 63868.7239728837, -62054.388171957515, 77079.72253319294, -82359.04811132529, 86779.30674306235, -128596.62665088495, -0.024, 0.9440000000000001, -0.148, 192.0, 255.0, 64.0, 29.0, 128.0, 251.0, 96.0, 0.0, 0.0, 0.0, 1.6664085804797301E9, 0.0, 2022-10-21 20:16:20.479
241.0, -156228.23312619128, -150805.7893283116, 63864.767714115114, -62052.398866701, 77082.47179776094, -82357.34937874669, 86774.18819358209, -128595.82198808456, -0.024, 0.9440000000000001, -0.148, 192.0, 0.0, 0.0, 0.0, 0.0, 0.0, 0.0, 0.0, 0.0, 0.0, 1.6664085808684788E9, 0.0, 2022-10-21 20:16:20.868
242.0, -156233.99987626076, -150811.55607838108, 63859.76092335713, -62043.346410196595, 77083.18705358352, -82349.19099202049, 86807.35818235377, -128595.86669157348, -0.024, 0.9440000000000001, -0.148, 192.0, 0.0, 0.0, 0.0, 0.0, 0.0, 0.0, 0.0, 0.0, 0.0, 1.6664085808686163E9, 0.0, 2022-10-21 20:16:20.868
243.0, -156233.50813788275, -150808.96327602427, 63856.944603555756, -62045.80510208668, 77082.4941495054, -82349.66037865405, 86812.85671148977, -128598.66065963039, -0.024, 0.9440000000000001, -0.148, 192.0, 0.0, 0.0, 0.0, 0.0, 0.0, 0.0, 0.0, 0.0, 0.0, 1.6664085808686304E9, 0.0, 2022-10-21 20:16:20.868
244.0, -156227.2720011797, -150804.33646492203, 63860.0738477795, -62048.867291077055, 77082.96353613897, -82362.06559682675, 86777.98799013949, -128601.78990385414, -0.024, 0.9440000000000001, -0.148, 192.0, 0.0, 0.0, 0.0, 0.0, 0.0, 0.0, 0.0, 0.0, 0.0, 1.6664085808686438E9, 0.0, 2022-10-21 20:16:20.868
245.0, -156233.95517277185, -150810.4384911583, 63856.9222518113, -62049.33667771062, 77084.86343441767, -82368.05586434077, 86759.05606258585, -128607.78017136815, -0.024, 0.9440000000000001, -0.148, 192.0, 0.0, 0.0, 0.0, 0.0, 0.0, 0.0, 0.0, 0.0, 0.0, 1.666408580868657E9, 0.0, 2022-10-21 20:16:20.868
246.0, -156237.93378328488, -150814.46180516027, 63857.92808031179, -62043.74874159679, 77085.73515245142, -82354.91303860105, 86789.65560074516, -128603.9580230663, -0.024, 0.9440000000000001, -0.148, 192.0, 0.0, 0.0, 0.0, 0.0, 0.0, 0.0, 0.0, 0.0, 0.0, 1.6664085808686702E9, 0.0, 2022-10-21 20:16:20.868
247.0, -156242.65000136496, -150821.21203198578, 63853.658897120826, -62049.0461050327, 77087.67975421903, -82348.7886606203, 86808.87810097673, -128605.03090680015, -0.024, 0.9440000000000001, -0.148, 192.0, 0.0, 0.0, 0.0, 0.0, 0.0, 0.0, 0.0, 0.0, 0.0, 1.666408580868683E9, 0.0, 2022-10-21 20:16:20.868
248.0, -156235.7209605838, -150815.51233714967, 63860.45382743524, -62050.87894807803, 77091.5913094987, -82354.66716941205, 86785.92285942112, -128607.93663357935, -0.024, 0.9440000000000001, -0.148, 192.0, 0.0, 0.0, 0.0, 0.0, 0.0, 0.0, 0.0, 0.0, 0.0, 1.666408580868698E9, 0.0, 2022-10-21 20:16:20.868
249.0, -156233.53048962718, -150814.6853226048, 63860.40912394633, -62050.58837540012, 77091.90423392109, -82358.62342818064, 86762.38647250968, -128606.55082542311, -0.024, 0.9440000000000001, -0.148, 192.0, 0.0, 0.0, 0.0, 0.0, 0.0, 0.0, 0.0, 0.0, 0.0, 1.6664085808687108E9, 0.0, 2022-10-21 20:16:20.868
250.0, -156238.872556552, -150819.33448545152, 63856.67638262229, -62042.54174739621, 77097.11219037916, -82345.32414022973, 86787.0851501328, -128604.42740969986, -0.018000000000000002, 0.9460000000000001, -0.148, 192.0, 255.0, 112.0, 29.0, 144.0, 251.0, 96.0, 0.0, 0.0, 0.0, 1.666408580868724E9, 0.0, 2022-10-21 20:16:20.868
251.0, -156238.89490829647, -150817.45693891728, 63858.84450183446, -62041.08888400661, 77100.01791715836, -82336.47284942542, 86814.4436853461, -128599.77824685315, -0.018000000000000002, 0.9460000000000001, -0.148, 192.0, 0.0, 0.0, 0.0, 0.0, 0.0, 0.0, 0.0, 0.0, 0.0, 1.6664085808687384E9, 0.0, 2022-10-21 20:16:20.868
252.0, -156236.95030652886, -150818.8874505624, 63861.01262104662, -62050.208395744376, 77101.42607705905, -82344.54182917379, 86798.32807759382, -128599.93470906434, -0.018000000000000002, 0.9460000000000001, -0.148, 192.0, 0.0, 0.0, 0.0, 0.0, 0.0, 0.0, 0.0, 0.0, 0.0, 1.6664085808687515E9, 0.0, 2022-10-21 20:16:20.868
253.0, -156236.19034721737, -150818.01573252867, 63861.21378674672, -62062.32304123915, 77098.60975725767, -82354.19778277849, 86768.73436793499, -128602.61691839897, -0.018000000000000002, 0.9460000000000001, -0.148, 192.0, 0.0, 0.0, 0.0, 0.0, 0.0, 0.0, 0.0, 0.0, 0.0, 1.6664085808687642E9, 0.0, 2022-10-21 20:16:20.868
254.0, -156237.15147222896, -150814.46180516027, 63859.805626846035, -62054.14230276851, 77094.11705662216, -82345.14532627408, 86784.91703092064, -128599.51002591969, -0.018000000000000002, 0.9460000000000001, -0.148, 192.0, 0.0, 0.0, 0.0, 0.0, 0.0, 0.0, 0.0, 0.0, 0.0, 1.6664085808687792E9, 0.0, 2022-10-21 20:16:20.868
255.0, -156235.40803616145, -150811.33256093654, 63859.91738556831, -62047.01209628727, 77094.0947048777, -82333.14243950158, 86816.7906185139, -128596.2019677403, -0.018000000000000002, 0.9460000000000001, -0.148, 192.0, 0.0, 0.0, 0.0, 0.0, 0.0, 0.0, 0.0, 0.0, 0.0, 1.666408580868792E9, 0.0, 2022-10-21 20:16:20.868
0.0, -156233.68695183838, -150809.20914521327, 63859.98444080168, -62057.07038129216, 77091.68071647653, -82343.69246288449, 86800.58560378381, -128600.49350267572, -0.018000000000000002, 0.9460000000000001, -0.148, 192.0, 0.0, 0.0, 0.0, 0.0, 0.0, 0.0, 0.0, 0.0, 0.0, 1.6664085808688047E9, 0.0, 2022-10-21 20:16:20.868
1.0, -156230.93768727037, -150805.92343877835, 63860.67734487979, -62072.06840182166, 77087.05390537428, -82359.71866365895, 86769.33786503528, -128603.9580230663, -0.018000000000000002, 0.9460000000000001, -0.148, 192.0, 0.0, 0.0, 0.0, 0.0, 0.0, 0.0, 0.0, 0.0, 0.0, 1.6664085808688312E9, 0.0, 2022-10-21 20:16:20.868
2.0, -156230.35654191455, -150804.31411317756, 63863.27014723661, -62063.64179416202, 77087.63505073012, -82353.59428567819, 86782.61480124174, -128597.96775555226, -0.018000000000000002, 0.9460000000000001, -0.148, 192.0, 0.0, 0.0, 0.0, 0.0, 0.0, 0.0, 0.0, 0.0, 0.0, 1.6664085808688445E9, 0.0, 2022-10-21 20:16:20.868
3.0, -156232.79288206017, -150807.71157833477, 63865.21474900422, -62044.955735797375, 77093.02182114385, -82338.64096863758, 86818.33288888131, -128593.87738631695, -0.018000000000000002, 0.9460000000000001, -0.148, 192.0, 0.0, 0.0, 0.0, 0.0, 0.0, 0.0, 0.0, 0.0, 0.0, 1.6664085808688576E9, 0.0, 2022-10-21 20:16:20.868
4.0, -156234.31280068314, -150812.60661037048, 63862.197263502756, -62061.94306158341, 77088.81969318625, -82347.64872165308, 86808.3863625987, -128600.78407535364, -0.02, 0.9440000000000001, -0.148, 192.0, 255.0, 96.0, 29.0, 128.0, 251.0, 96.0, 0.0, 0.0, 0.0, 1.6664085808688707E9, 0.0, 2022-10-21 20:16:20.868
5.0, -156233.21756520483, -150813.76890108216, 63865.14769377085, -62072.31427101068, 77089.95963215348, -82358.71283515845, 86774.8810976602, -128602.57221491006, -0.02, 0.9440000000000001, -0.148, 192.0, 0.0, 0.0, 0.0, 0.0, 0.0, 0.0, 0.0, 0.0, 0.0, 1.6664085808688855E9, 0.0, 2022-10-21 20:16:20.868
6.0, -156239.00666701875, -150816.07113076106, 63864.99123155967, -62071.599015188105, 77085.4445797735, -82358.2434485249, 86771.30481854735, -128601.4099241984, -0.02, 0.9440000000000001, -0.148, 192.0, 0.0, 0.0, 0.0, 0.0, 0.0, 0.0, 0.0, 0.0, 0.0, 1.6664085808688984E9, 0.0, 2022-10-21 20:16:20.868
7.0, -156243.633478121, -150821.07792151906, 63860.81145534652, -62061.808951116676, 77080.86247216017, -82355.36007349016, 86802.08317066231, -128604.58387191105, -0.02, 0.9440000000000001, -0.148, 192.0, 0.0, 0.0, 0.0, 0.0, 0.0, 0.0, 0.0, 0.0, 0.0, 1.6664085808689132E9, 0.0, 2022-10-21 20:16:20.868
