%OpenBCI Raw EEG Data
%Number of channels = 8
%Sample Rate = 250 Hz
%Board = OpenBCI_GUI$BoardCytonSerial
Sample Index, EXG Channel 0, EXG Channel 1, EXG Channel 2, EXG Channel 3, EXG Channel 4, EXG Channel 5, EXG Channel 6, EXG Channel 7, Accel Channel 0, Accel Channel 1, Accel Channel 2, Other, Other, Other, Other, Other, Other, Other, Analog Channel 0, Analog Channel 1, Analog Channel 2, Timestamp, Other, Timestamp (Formatted)
142.0, -131856.69563492486, -145114.2081754456, -13129.772320958653, -112923.35992137909, 74729.61541767305, -174340.23163798233, 67622.02890181886, -123029.07532800143, 0.0, 0.0, 0.0, 192.0, 0.0, 0.0, 0.0, 0.0, 0.0, 0.0, 0.0, 0.0, 0.0, 1.6664065729806228E9, 0.0, 2022-10-21 19:42:52.980
143.0, -131857.79087040317, -145114.9457830126, -13126.307800568082, -112904.74091824781, 74734.39869098648, -174435.13714493957, 67619.50315469541, -123014.6361010833, 0.0, 0.0, 0.0, 192.0, 0.0, 0.0, 0.0, 0.0, 0.0, 0.0, 0.0, 0.0, 0.0, 1.6664065729806647E9, 0.0, 2022-10-21 19:42:52.980
144.0, -131860.7636524157, -145120.69018133762, -13126.866594179464, -112891.75455471929, 74731.80588862966, -174340.16458274898, 67689.26294914042, -122994.85480724035, 0.0, 0.0, 0.0, 192.0, 0.0, 0.0, 0.0, 0.0, 0.0, 0.0, 0.0, 0.0, 0.0, 1.6664065729806907E9, 0.0, 2022-10-21 19:42:52.980
145.0, -131864.60815246202, -145127.7086290966, -13132.923916926851, -112901.54461879071, 74727.82727811662, -174233.25618901924, 67704.23861792548, -123009.11522020283, 0.0, 0.0, 0.0, 192.0, 0.0, 0.0, 0.0, 0.0, 0.0, 0.0, 0.0, 0.0, 0.0, 1.6664065729807107E9, 0.0, 2022-10-21 19:42:52.980
146.0, -131862.5294402277, -145124.9593645286, -13125.5478412566, -112915.33564511963, 74727.11202229405, -174319.6009778501, 67638.01039910442, -123027.44365065619, 0.0, 0.0, 0.0, 192.0, 0.0, 0.0, 0.0, 0.0, 0.0, 0.0, 0.0, 0.0, 0.0, 1.6664065729807308E9, 0.0, 2022-10-21 19:42:52.980
147.0, -131856.2262482913, -145117.71739932508, -13110.885096893919, -112893.18506636443, 74741.30538002317, -174431.35970012663, 67627.59448618823, -123006.50006610157, 0.0, 0.0, 0.0, 192.0, 0.0, 0.0, 0.0, 0.0, 0.0, 0.0, 0.0, 0.0, 0.0, 1.6664065729807513E9, 0.0, 2022-10-21 19:42:52.980
148.0, -131874.26410606672, -145133.6541931217, -13125.83841393452, -112888.98293840683, 74731.42590897392, -174357.71070214637, 67683.20562639304, -122998.98987996459, 0.0, 0.0, 0.0, 192.0, 0.0, 0.0, 0.0, 0.0, 0.0, 0.0, 0.0, 0.0, 0.0, 1.6664065729807713E9, 0.0, 2022-10-21 19:42:52.980
149.0, -131872.3195042991, -145129.18384423063, -13120.026960376139, -112890.68167098543, 74732.5881996856, -174203.48366540478, 67723.99756002397, -122998.85576949785, -0.032, 0.9540000000000001, -0.078, 192.0, 255.0, 0.0, 29.0, 208.0, 253.0, 144.0, 0.0, 0.0, 0.0, 1.6664065729807885E9, 0.0, 2022-10-21 19:42:52.980
150.0, -131875.71696945632, -145130.97198378708, -13121.345713299002, -112908.0489764272, 74726.95556008286, -174271.65648599344, 67654.55069000134, -123029.47765940163, -0.032, 0.9540000000000001, -0.078, 192.0, 0.0, 0.0, 0.0, 0.0, 0.0, 0.0, 0.0, 0.0, 0.0, 1.6664065729808064E9, 0.0, 2022-10-21 19:42:52.980
151.0, -131876.09694911205, -145135.28587046693, -13118.730559197731, -112905.9032089595, 74727.04496706069, -174409.25382486032, 67613.60229415921, -123025.32023493294, -0.032, 0.9540000000000001, -0.078, 192.0, 0.0, 0.0, 0.0, 0.0, 0.0, 0.0, 0.0, 0.0, 0.0, 1.6664065729808211E9, 0.0, 2022-10-21 19:42:52.980
152.0, -131872.09598685455, -145130.27907970894, -13113.813175417565, -112884.98197614933, 74733.48226946381, -174363.47745221586, 67674.93548094458, -122995.43595259619, -0.032, 0.9540000000000001, -0.078, 192.0, 0.0, 0.0, 0.0, 0.0, 0.0, 0.0, 0.0, 0.0, 0.0, 1.6664065729808362E9, 0.0, 2022-10-21 19:42:52.980
153.0, -131870.4196060204, -145125.0487715064, -13112.203849816782, -112876.13068534502, 74739.27137127773, -174221.27565399118, 67730.01017928246, -122986.85288272535, -0.032, 0.9540000000000001, -0.078, 192.0, 0.0, 0.0, 0.0, 0.0, 0.0, 0.0, 0.0, 0.0, 0.0, 1.6664065729808512E9, 0.0, 2022-10-21 19:42:52.980
154.0, -131862.39532976097, -145121.6513063492, -13105.45362299128, -112892.0451273972, 74738.22083928833, -174255.20560207436, 67677.93061470159, -123012.7362028046, -0.032, 0.9540000000000001, -0.078, 192.0, 0.0, 0.0, 0.0, 0.0, 0.0, 0.0, 0.0, 0.0, 0.0, 1.6664065729808664E9, 0.0, 2022-10-21 19:42:52.980
155.0, -131856.38271050248, -145118.499710381, -13096.468221720246, -112896.06844139915, 74739.04785383318, -174417.30045286423, 67621.29129425185, -123014.6361010833, -0.032, 0.9540000000000001, -0.078, 192.0, 0.0, 0.0, 0.0, 0.0, 0.0, 0.0, 0.0, 0.0, 0.0, 1.6664065729808817E9, 0.0, 2022-10-21 19:42:52.980
156.0, -131859.93663787088, -145122.83594880532, -13103.509021223668, -112869.13458933051, 74746.62509520353, -174401.6095282566, 67666.59828026274, -122996.41942935223, -0.032, 0.9540000000000001, -0.078, 192.0, 0.0, 0.0, 0.0, 0.0, 0.0, 0.0, 0.0, 0.0, 0.0, 1.6664065729808965E9, 0.0, 2022-10-21 19:42:52.980
157.0, -131867.60328621903, -145128.1109604968, -13114.30491379558, -112861.4902927268, 74746.35687427007, -174242.35334901256, 67728.84788857077, -122990.04918218245, -0.032, 0.9540000000000001, -0.078, 192.0, 0.0, 0.0, 0.0, 0.0, 0.0, 0.0, 0.0, 0.0, 0.0, 1.6664065729810436E9, 0.0, 2022-10-21 19:42:52.981
158.0, -131859.31078902612, -145116.08572197982, -13113.455547506279, -112885.56312150517, 74742.15474631247, -174235.40195648695, 67692.74982127546, -123005.02485096751, -0.032, 0.9540000000000001, -0.078, 192.0, 0.0, 0.0, 0.0, 0.0, 0.0, 0.0, 0.0, 0.0, 0.0, 1.6664065729810605E9, 0.0, 2022-10-21 19:42:52.981
159.0, -131851.93471335588, -145102.76408228447, -13122.060969121572, -112907.46783107136, 74732.63290317451, -174390.74658045132, 67618.11734653919, -123022.45921164265, -0.046, 0.9540000000000001, -0.078, 192.0, 254.0, 144.0, 29.0, 208.0, 253.0, 144.0, 0.0, 0.0, 0.0, 1.6664065729810755E9, 0.0, 2022-10-21 19:42:52.981
160.0, -131849.54307669916, -145103.88166950725, -13125.5478412566, -112889.58643550712, 74736.7903276432, -174410.75139173883, 67645.1629573301, -123009.47284811412, -0.046, 0.9540000000000001, -0.078, 192.0, 0.0, 0.0, 0.0, 0.0, 0.0, 0.0, 0.0, 0.0, 0.0, 1.6664065729810922E9, 0.0, 2022-10-21 19:42:52.981
161.0, -131875.2252310783, -145138.8621495798, -13125.458434278778, -112870.05101085317, 74745.75337716978, -174236.69835766536, 67723.46111815705, -122994.38542060679, -0.046, 0.9540000000000001, -0.078, 192.0, 0.0, 0.0, 0.0, 0.0, 0.0, 0.0, 0.0, 0.0, 0.0, 1.6664065729811077E9, 0.0, 2022-10-21 19:42:52.981
162.0, -131882.60130674855, -145148.13812352874, -13127.827719191042, -112896.76134547727, 74733.01288283025, -174197.98513626878, 67697.35428063326, -123019.24056044109, -0.046, 0.9540000000000001, -0.078, 192.0, 0.0, 0.0, 0.0, 0.0, 0.0, 0.0, 0.0, 0.0, 0.0, 1.6664065729811237E9, 0.0, 2022-10-21 19:42:52.981
163.0, -131869.4361292644, -145131.9107570542, -13120.004608631685, -112901.20934262387, 74738.71257766636, -174344.8137455957, 67631.12606181217, -123025.29788318848, -0.046, 0.9540000000000001, -0.078, 192.0, 0.0, 0.0, 0.0, 0.0, 0.0, 0.0, 0.0, 0.0, 0.0, 1.6664065729811387E9, 0.0, 2022-10-21 19:42:52.981
164.0, -131871.5371932432, -145131.262556465, -13120.384588287425, -112884.28907207122, 74744.97106611384, -174428.43162160297, 67640.24557354994, -123007.0365079685, -0.046, 0.9540000000000001, -0.078, 192.0, 0.0, 0.0, 0.0, 0.0, 0.0, 0.0, 0.0, 0.0, 0.0, 1.6664065729811575E9, 0.0, 2022-10-21 19:42:52.981
165.0, -131870.3301990426, -145136.62697513425, -13132.07455063755, -112877.31532780116, 74736.00801658726, -174309.386230634, 67707.39021389368, -122999.50397008705, -0.046, 0.9540000000000001, -0.078, 192.0, 0.0, 0.0, 0.0, 0.0, 0.0, 0.0, 0.0, 0.0, 0.0, 1.6664065729811723E9, 0.0, 2022-10-21 19:42:52.981
166.0, -131875.4263967784, -145146.0147078055, -13139.60708851899, -112891.32987157464, 74730.06245256215, -174213.49724692074, 67710.89943777317, -123018.21238019614, -0.046, 0.9540000000000001, -0.078, 192.0, 0.0, 0.0, 0.0, 0.0, 0.0, 0.0, 0.0, 0.0, 0.0, 1.666406572981187E9, 0.0, 2022-10-21 19:42:52.981
167.0, -131880.16496660293, -145152.3626032308, -13144.770341488165, -112906.7525752488, 74728.00609207226, -174325.1889139639, 67638.52448922688, -123033.97036003714, -0.046, 0.9540000000000001, -0.078, 192.0, 0.0, 0.0, 0.0, 0.0, 0.0, 0.0, 0.0, 0.0, 0.0, 1.6664065729812021E9, 0.0, 2022-10-21 19:42:52.981
168.0, -131866.95508562983, -145139.8679780803, -13142.26694610917, -112892.38040356404, 74731.42590897392, -174426.91170298003, 67626.70041641002, -123017.05008948447, -0.058, 0.9540000000000001, -0.078, 192.0, 254.0, 48.0, 29.0, 208.0, 253.0, 144.0, 0.0, 0.0, 0.0, 1.6664065729812171E9, 0.0, 2022-10-21 19:42:52.981
169.0, -131862.39532976097, -145134.59296638882, -13140.41175131938, -112867.45820849636, 74734.86807762005, -174324.96539651937, 67698.60597832274, -122990.56327230493, -0.058, 0.9540000000000001, -0.078, 192.0, 0.0, 0.0, 0.0, 0.0, 0.0, 0.0, 0.0, 0.0, 0.0, 1.6664065729812331E9, 0.0, 2022-10-21 19:42:52.981
170.0, -131874.59938223354, -145146.10411478332, -13154.69451602632, -112889.6981942294, 74720.74177512429, -174212.1784939979, 67709.11129821674, -123013.45145862717, -0.058, 0.9540000000000001, -0.078, 192.0, 0.0, 0.0, 0.0, 0.0, 0.0, 0.0, 0.0, 0.0, 0.0, 1.666406572981248E9, 0.0, 2022-10-21 19:42:52.981
171.0, -131871.40308277644, -145145.34415547183, -13155.141550915427, -112906.26083687077, 74718.46189718985, -174302.61365206406, 67638.47978573797, -123037.77015659455, -0.058, 0.9540000000000001, -0.078, 192.0, 0.0, 0.0, 0.0, 0.0, 0.0, 0.0, 0.0, 0.0, 0.0, 1.666406572981263E9, 0.0, 2022-10-21 19:42:52.981
172.0, -131869.59259147558, -145142.08080078135, -13151.945251458319, -112893.67680474244, 74728.31901649464, -174431.82908676018, 67613.53523892585, -123023.6885575877, -0.058, 0.9540000000000001, -0.078, 192.0, 0.0, 0.0, 0.0, 0.0, 0.0, 0.0, 0.0, 0.0, 0.0, 1.666406572981326E9, 0.0, 2022-10-21 19:42:52.981
173.0, -131873.39238803298, -145147.35581247282, -13155.096847426516, -112874.49900799978, 74730.62124617354, -174349.5076119313, 67683.0715159263, -123004.10842944485, -0.058, 0.9540000000000001, -0.078, 192.0, 0.0, 0.0, 0.0, 0.0, 0.0, 0.0, 0.0, 0.0, 0.0, 1.6664065729813414E9, 0.0, 2022-10-21 19:42:52.981
174.0, -131883.56243176013, -145156.43062072166, -13166.719754543275, -112887.23950233932, 74719.64653964598, -174181.8695285165, 67717.00146400946, -123023.04035699849, -0.058, 0.9540000000000001, -0.078, 192.0, 0.0, 0.0, 0.0, 0.0, 0.0, 0.0, 0.0, 0.0, 0.0, 1.6664065729813561E9, 0.0, 2022-10-21 19:42:52.981
175.0, -131869.7267019423, -145142.2149112481, -13151.878196224952, -112905.9479124484, 74720.74177512429, -174230.81984887362, 67656.24942257995, -123035.26676121555, -0.058, 0.9540000000000001, -0.078, 192.0, 0.0, 0.0, 0.0, 0.0, 0.0, 0.0, 0.0, 0.0, 0.0, 1.6664065729813707E9, 0.0, 2022-10-21 19:42:52.981
176.0, -131857.25442853622, -145134.52591115545, -13144.435065321335, -112897.92363618895, 74731.02357757374, -174398.70380147742, 67610.49540167993, -123019.44172614119, -0.058, 0.9540000000000001, -0.078, 192.0, 0.0, 0.0, 0.0, 0.0, 0.0, 0.0, 0.0, 0.0, 0.0, 1.666406572981386E9, 0.0, 2022-10-21 19:42:52.981
177.0, -131876.81220493463, -145147.42286770616, -13159.276623639658, -112887.57477850614, 74727.11202229405, -174360.63878067004, 67659.71394297051, -123008.7352405471, -0.058, 0.9540000000000001, -0.078, 192.0, 0.0, 0.0, 0.0, 0.0, 0.0, 0.0, 0.0, 0.0, 0.0, 1.6664065729814005E9, 0.0, 2022-10-21 19:42:52.981
178.0, -131880.0755596251, -145147.57932991735, -13158.851940495008, -112884.26672032676, 74722.9322460809, -174208.31164220712, 67717.62731285421, -123002.70026954416, -0.056, 0.9560000000000001, -0.074, 192.0, 254.0, 64.0, 29.0, 224.0, 253.0, 176.0, 0.0, 0.0, 0.0, 1.666406572981416E9, 0.0, 2022-10-21 19:42:52.981
179.0, -131873.2359258218, -145141.74552461453, -13146.804350233597, -112885.98780464982, 74732.29762700769, -174229.45639246184, 67679.58464379128, -123016.82657203992, -0.056, 0.9560000000000001, -0.074, 192.0, 0.0, 0.0, 0.0, 0.0, 0.0, 0.0, 0.0, 0.0, 0.0, 1.6664065729814312E9, 0.0, 2022-10-21 19:42:52.981
180.0, -131879.8296904361, -145148.18282701765, -13150.514739813178, -112898.03539491122, 74729.10132755057, -174370.11592031908, 67618.85495410621, -123026.70604308916, -0.056, 0.9560000000000001, -0.074, 192.0, 0.0, 0.0, 0.0, 0.0, 0.0, 0.0, 0.0, 0.0, 0.0, 1.6664065729814448E9, 0.0, 2022-10-21 19:42:52.981
181.0, -131887.96572541783, -145153.18961777564, -13155.275661382158, -112884.73610696032, 74726.70969089385, -174370.8088243972, 67652.53903300036, -123013.83143828291, -0.056, 0.9560000000000001, -0.074, 192.0, 0.0, 0.0, 0.0, 0.0, 0.0, 0.0, 0.0, 0.0, 0.0, 1.6664065729814587E9, 0.0, 2022-10-21 19:42:52.981
182.0, -131889.57505101862, -145159.42575447867, -13159.611899806489, -112877.44943826788, 74724.02748155921, -174217.56526441162, 67715.86152504224, -123012.19976093767, -0.056, 0.9560000000000001, -0.074, 192.0, 0.0, 0.0, 0.0, 0.0, 0.0, 0.0, 0.0, 0.0, 0.0, 1.6664065729814725E9, 0.0, 2022-10-21 19:42:52.981
183.0, -131885.26116433874, -145156.02828932146, -13159.142513172927, -112898.48242980034, 74718.2383797453, -174182.6071360835, 67685.35139386075, -123031.51166814705, -0.056, 0.9560000000000001, -0.074, 192.0, 0.0, 0.0, 0.0, 0.0, 0.0, 0.0, 0.0, 0.0, 0.0, 1.666406572981486E9, 0.0, 2022-10-21 19:42:52.981
184.0, -131880.90257416994, -145146.6629083947, -13153.17459740336, -112901.54461879071, 74722.37345246953, -174337.12474550304, 67615.79276511584, -123035.33381644891, -0.056, 0.9560000000000001, -0.074, 192.0, 0.0, 0.0, 0.0, 0.0, 0.0, 0.0, 0.0, 0.0, 0.0, 1.6664065729815E9, 0.0, 2022-10-21 19:42:52.981
185.0, -131885.21646084983, -145151.24501600803, -13154.69451602632, -112883.99849939329, 74729.72717639532, -174375.43563549945, 67639.08328283827, -123016.22307493963, -0.056, 0.9560000000000001, -0.074, 192.0, 0.0, 0.0, 0.0, 0.0, 0.0, 0.0, 0.0, 0.0, 0.0, 1.6664065729815152E9, 0.0, 2022-10-21 19:42:52.981
186.0, -131897.35345808906, -145162.80086789143, -13163.858731252996, -112874.90133939998, 74729.66012116196, -174218.14640976745, 67716.0850424868, -123004.30959514495, -0.056, 0.9560000000000001, -0.074, 192.0, 0.0, 0.0, 0.0, 0.0, 0.0, 0.0, 0.0, 0.0, 0.0, 1.666406572981529E9, 0.0, 2022-10-21 19:42:52.981
187.0, -131897.26405111124, -145163.71728941408, -13170.072516211572, -112900.42703156795, 74717.59017915609, -174151.18058337935, 67700.05884171234, -123033.3892146813, -0.056, 0.9560000000000001, -0.074, 192.0, 0.0, 0.0, 0.0, 0.0, 0.0, 0.0, 0.0, 0.0, 0.0, 1.666406572981585E9, 0.0, 2022-10-21 19:42:52.981
188.0, -131883.9871149048, -145152.69787939763, -13155.767399760176, -112898.90711294499, 74729.74952813977, -174290.25313738026, 67633.33888451324, -123035.66909261575, -0.046, 0.968, -0.07200000000000001, 192.0, 254.0, 144.0, 30.0, 64.0, 253.0, 192.0, 0.0, 0.0, 0.0, 1.666406572981599E9, 0.0, 2022-10-21 19:42:52.981
189.0, -131891.1843766194, -145157.83878062235, -13157.041449194128, -112885.33960406062, 74734.08576656411, -174373.20046105393, 67632.37775950167, -123019.32996741892, -0.046, 0.968, -0.07200000000000001, 192.0, 0.0, 0.0, 0.0, 0.0, 0.0, 0.0, 0.0, 0.0, 0.0, 1.666406572981614E9, 0.0, 2022-10-21 19:42:52.981
190.0, -131913.49141758578, -145182.09042335636, -13182.701251828821, -112899.8011827232, 74710.54937965267, -174262.8275469336, 67682.8256467373, -123031.53401989151, -0.046, 0.968, -0.07200000000000001, 192.0, 0.0, 0.0, 0.0, 0.0, 0.0, 0.0, 0.0, 0.0, 0.0, 1.6664065729816282E9, 0.0, 2022-10-21 19:42:52.981
191.0, -131902.3826005915, -145170.93690287316, -13173.693498813333, -112900.22586586785, 74719.22185650133, -174146.86669669946, 67702.60694058024, -123041.1452700073, -0.046, 0.968, -0.07200000000000001, 192.0, 0.0, 0.0, 0.0, 0.0, 0.0, 0.0, 0.0, 0.0, 0.0, 1.666406572981642E9, 0.0, 2022-10-21 19:42:52.981
192.0, -131896.12411214403, -145162.42088823568, -13167.435010365845, -112911.22292413986, 74723.5357431812, -174244.45441299136, 67638.14450957114, -123055.11511029187, -0.046, 0.968, -0.07200000000000001, 192.0, 0.0, 0.0, 0.0, 0.0, 0.0, 0.0, 0.0, 0.0, 0.0, 1.6664065729816644E9, 0.0, 2022-10-21 19:42:52.981
193.0, -131890.04443765216, -145158.15170504473, -13165.848036509518, -112904.71856650336, 74729.54836243969, -174355.87785910105, 67623.88409660866, -123037.5913426389, -0.046, 0.968, -0.07200000000000001, 192.0, 0.0, 0.0, 0.0, 0.0, 0.0, 0.0, 0.0, 0.0, 0.0, 1.666406572981678E9, 0.0, 2022-10-21 19:42:52.981
194.0, -131899.05219066766, -145168.8134871499, -13171.74889704572, -112887.23950233932, 74735.56098169816, -174245.86257289205, 67697.68955680008, -123018.59235985189, -0.046, 0.968, -0.07200000000000001, 192.0, 0.0, 0.0, 0.0, 0.0, 0.0, 0.0, 0.0, 0.0, 0.0, 1.6664065729816918E9, 0.0, 2022-10-21 19:42:52.981
195.0, -131908.97636520583, -145171.94273137365, -13182.36597566199, -112901.52226704625, 74728.27431300574, -174107.37116424696, 67722.49999314547, -123030.39408092429, -0.046, 0.968, -0.07200000000000001, 192.0, 0.0, 0.0, 0.0, 0.0, 0.0, 0.0, 0.0, 0.0, 0.0, 1.6664065729817052E9, 0.0, 2022-10-21 19:42:52.981
196.0, -131905.9365279599, -145167.62884469377, -13180.287263427648, -112921.05769170019, 74730.77770838472, -174175.32046739108, 67658.32813481428, -123045.9955985541, -0.046, 0.968, -0.07200000000000001, 192.0, 0.0, 0.0, 0.0, 0.0, 0.0, 0.0, 0.0, 0.0, 0.0, 1.6664065729817188E9, 0.0, 2022-10-21 19:42:52.981
197.0, -131909.9821937063, -145173.0603185964, -13183.03652799565, -112915.22388639736, 74732.07410956312, -174290.34254435808, 67619.79372737334, -123052.74582537959, -0.046, 0.968, -0.07200000000000001, 192.0, 0.0, 0.0, 0.0, 0.0, 0.0, 0.0, 0.0, 0.0, 0.0, 1.6664065729817326E9, 0.0, 2022-10-21 19:42:52.981
198.0, -131915.90540598697, -145183.2750658125, -13198.727452603276, -112903.77979323624, 74725.61445541555, -174228.24939826125, 67671.38155357618, -123040.47471767363, -0.024, 0.964, -0.07, 192.0, 255.0, 64.0, 30.0, 32.0, 253.0, 208.0, 0.0, 0.0, 0.0, 1.6664065729817462E9, 0.0, 2022-10-21 19:42:52.981
199.0, -131914.877225742, -145183.49858325705, -13204.449499183835, -112910.26179912828, 74717.41136520045, -174099.16807403186, 67710.8770860287, -123044.02864504202, -0.024, 0.964, -0.07, 192.0, 0.0, 0.0, 0.0, 0.0, 0.0, 0.0, 0.0, 0.0, 0.0, 1.6664065729817607E9, 0.0, 2022-10-21 19:42:52.981
200.0, -131914.49724608628, -145176.8601151538, -13205.835307340063, -112926.7573865363, 74719.15480126796, -174119.0387748526, 67663.44668429455, -123063.56406969596, -0.024, 0.964, -0.07, 192.0, 0.0, 0.0, 0.0, 0.0, 0.0, 0.0, 0.0, 0.0, 0.0, 1.6664065729817746E9, 0.0, 2022-10-21 19:42:52.981
201.0, -131910.47393208434, -145176.34602503135, -13206.036473040162, -112930.89245926053, 74719.84770534608, -174261.06175912163, 67611.2106575025, -123062.58059293994, -0.024, 0.964, -0.07, 192.0, 0.0, 0.0, 0.0, 0.0, 0.0, 0.0, 0.0, 0.0, 0.0, 1.6664065729817884E9, 0.0, 2022-10-21 19:42:52.981
202.0, -131920.0851822001, -145188.2148013371, -13218.173470279393, -112914.06159568568, 74721.0323478022, -174273.66814299443, 67646.66052420861, -123049.52717417803, -0.024, 0.964, -0.07, 192.0, 0.0, 0.0, 0.0, 0.0, 0.0, 0.0, 0.0, 0.0, 0.0, 1.6664065729818165E9, 0.0, 2022-10-21 19:42:52.981
203.0, -131914.7878187642, -145184.1691355907, -13217.413510967912, -112898.30361584469, 74728.83310661711, -174126.72777494523, 67712.82168779633, -123034.81972632644, -0.024, 0.964, -0.07, 192.0, 0.0, 0.0, 0.0, 0.0, 0.0, 0.0, 0.0, 0.0, 0.0, 1.6664065729818306E9, 0.0, 2022-10-21 19:42:52.981
204.0, -131904.66247852595, -145170.98160636207, -13206.148231762438, -112910.59707529511, 74734.37633924202, -174132.53922850362, 67681.7751147479, -123046.17441250973, -0.024, 0.964, -0.07, 192.0, 0.0, 0.0, 0.0, 0.0, 0.0, 0.0, 0.0, 0.0, 0.0, 1.6664065729818444E9, 0.0, 2022-10-21 19:42:52.981
205.0, -131906.92000471594, -145174.58023721937, -13212.205554509826, -112927.98673248134, 74728.76605138375, -174286.25217512276, 67613.13290752565, -123058.8925551048, -0.024, 0.964, -0.07, 192.0, 0.0, 0.0, 0.0, 0.0, 0.0, 0.0, 0.0, 0.0, 0.0, 1.666406572981858E9, 0.0, 2022-10-21 19:42:52.981
206.0, -131920.19694092238, -145192.14870836123, -13228.455272728834, -112914.82155499716, 74727.11202229405, -174293.96352695985, 67642.03371310637, -123042.59813339688, -0.024, 0.964, -0.07, 192.0, 0.0, 0.0, 0.0, 0.0, 0.0, 0.0, 0.0, 0.0, 0.0, 1.6664065729818733E9, 0.0, 2022-10-21 19:42:52.981
207.0, -131925.80722878067, -145199.8824119428, -13237.284211788681, -112910.84294448412, 74721.90406583596, -174126.2583883117, 67709.49127787248, -123037.45723217216, -0.02, 0.962, -0.07, 192.0, 255.0, 96.0, 30.0, 16.0, 253.0, 208.0, 0.0, 0.0, 0.0, 1.6664065729818869E9, 0.0, 2022-10-21 19:42:52.981
208.0, -131925.7401735473, -145195.277952585, -13240.636973456976, -112924.32104639067, 74717.97015881183, -174084.1924052468, 67685.5749113053, -123058.06554055995, -0.02, 0.962, -0.07, 192.0, 0.0, 0.0, 0.0, 0.0, 0.0, 0.0, 0.0, 0.0, 0.0, 1.666406572981901E9, 0.0, 2022-10-21 19:42:52.981
209.0, -131921.24747291178, -145187.87952517028, -13241.486339746278, -112932.79235753923, 74720.67471989093, -174221.09684003555, 67617.58090467226, -123059.33958999392, -0.02, 0.962, -0.07, 192.0, 0.0, 0.0, 0.0, 0.0, 0.0, 0.0, 0.0, 0.0, 0.0, 1.6664065729819145E9, 0.0, 2022-10-21 19:42:52.981
210.0, -131925.1813799359, -145185.77846119148, -13244.883804903486, -112916.92261897596, 74725.21212401535, -174271.880003438, 67631.93072461257, -123044.27451423103, -0.02, 0.962, -0.07, 192.0, 0.0, 0.0, 0.0, 0.0, 0.0, 0.0, 0.0, 0.0, 0.0, 1.666406572981928E9, 0.0, 2022-10-21 19:42:52.981
211.0, -131939.53119987622, -145198.94363867564, -13261.982889411795, -112911.82642124016, 74714.70680412135, -174126.9512923898, 67699.16477193413, -123040.83234558492, -0.02, 0.962, -0.07, 192.0, 0.0, 0.0, 0.0, 0.0, 0.0, 0.0, 0.0, 0.0, 0.0, 1.666406572981942E9, 0.0, 2022-10-21 19:42:52.981
212.0, -131931.7304410613, -145195.85909794082, -13257.736057965287, -112921.39296786702, 74713.99154829879, -174052.05059672007, 67698.36010913373, -123048.90132533328, -0.02, 0.962, -0.07, 192.0, 0.0, 0.0, 0.0, 0.0, 0.0, 0.0, 0.0, 0.0, 0.0, 1.6664065729819555E9, 0.0, 2022-10-21 19:42:52.981
213.0, -131922.70033630138, -145188.93005715968, -13251.477569517801, -112929.9089825045, 74720.00416755726, -174184.9540692513, 67628.9132391111, -123061.30654350598, -0.02, 0.962, -0.07, 192.0, 0.0, 0.0, 0.0, 0.0, 0.0, 0.0, 0.0, 0.0, 0.0, 1.6664065729819696E9, 0.0, 2022-10-21 19:42:52.981
214.0, -131918.8334845106, -145186.94075190317, -13249.354153794546, -112920.07421494416, 74724.67568214843, -174273.15405287195, 67624.55464894231, -123048.70015963318, -0.02, 0.962, -0.07, 192.0, 0.0, 0.0, 0.0, 0.0, 0.0, 0.0, 0.0, 0.0, 0.0, 1.6664065729819832E9, 0.0, 2022-10-21 19:42:52.981
215.0, -131929.7411358048, -145198.9212869312, -13262.899310934463, -112910.26179912828, 74717.59017915609, -174158.57901079406, 67689.88879798517, -123037.9936740391, -0.02, 0.962, -0.07, 192.0, 0.0, 0.0, 0.0, 0.0, 0.0, 0.0, 0.0, 0.0, 0.0, 1.6664065729819968E9, 0.0, 2022-10-21 19:42:52.981
216.0, -131930.81401953867, -145202.1175863883, -13264.218063857326, -112919.71658703288, 74713.52216166523, -174035.8232302455, 67707.0325859824, -123050.98003756763, -0.02, 0.962, -0.07, 192.0, 0.0, 0.0, 0.0, 0.0, 0.0, 0.0, 0.0, 0.0, 0.0, 1.6664065729820104E9, 0.0, 2022-10-21 19:42:52.982
217.0, -131911.85974024056, -145183.78915593497, -13251.656383473442, -112924.85748825759, 74719.3336152236, -174139.3565105625, 67638.74800667143, -123067.78854939801, -0.022, 0.9520000000000001, -0.07, 192.0, 255.0, 80.0, 29.0, 192.0, 253.0, 208.0, 0.0, 0.0, 0.0, 1.6664065729820364E9, 0.0, 2022-10-21 19:42:52.982
218.0, -131913.24554839678, -145188.6618362262, -13255.34442130857, -112918.64370329902, 74724.67568214843, -174248.0753955931, 67617.5585529278, -123057.3949882263, -0.022, 0.9520000000000001, -0.07, 192.0, 0.0, 0.0, 0.0, 0.0, 0.0, 0.0, 0.0, 0.0, 0.0, 1.666406572982051E9, 0.0, 2022-10-21 19:42:52.982
219.0, -131931.0375369832, -145198.74247297557, -13262.09464813407, -112908.96539794987, 74720.7864786132, -174165.32923761956, 67684.2785101269, -123037.81486008345, -0.022, 0.9520000000000001, -0.07, 192.0, 0.0, 0.0, 0.0, 0.0, 0.0, 0.0, 0.0, 0.0, 0.0, 1.6664065729820645E9, 0.0, 2022-10-21 19:42:52.982
220.0, -131941.27463594373, -145201.31292358792, -13265.939148180385, -112916.45323234239, 74715.44441168838, -174034.23625638918, 67719.0801762438, -123044.87801133133, -0.022, 0.9520000000000001, -0.07, 192.0, 0.0, 0.0, 0.0, 0.0, 0.0, 0.0, 0.0, 0.0, 0.0, 1.666406572982078E9, 0.0, 2022-10-21 19:42:52.982
221.0, -131935.06085098517, -145193.512164773, -13261.222930100314, -112929.61840982658, 74721.74760362478, -174078.60446913296, 67663.37962906118, -123060.77010163905, -0.022, 0.9520000000000001, -0.07, 192.0, 0.0, 0.0, 0.0, 0.0, 0.0, 0.0, 0.0, 0.0, 0.0, 1.6664065729820917E9, 0.0, 2022-10-21 19:42:52.982
222.0, -131929.47291487132, -145185.28672281347, -13259.81477019963, -112927.4055871255, 74725.21212401535, -174204.377735183, 67619.32434073977, -123058.6913894047, -0.022, 0.9520000000000001, -0.07, 192.0, 0.0, 0.0, 0.0, 0.0, 0.0, 0.0, 0.0, 0.0, 0.0, 1.666406572982105E9, 0.0, 2022-10-21 19:42:52.982
223.0, -131937.40778415298, -145195.4120630517, -13263.10047663456, -112915.53681081973, 74718.66306288994, -174177.86856625899, 67662.39615230515, -123042.86635433036, -0.022, 0.9520000000000001, -0.07, 192.0, 0.0, 0.0, 0.0, 0.0, 0.0, 0.0, 0.0, 0.0, 0.0, 1.6664065729821184E9, 0.0, 2022-10-21 19:42:52.982
224.0, -131945.5885226236, -145202.49756604404, -13265.380354569, -112909.18891539442, 74721.79230711369, -174025.38496558488, 67720.30952218885, -123037.1890112387, -0.022, 0.9520000000000001, -0.07, 192.0, 0.0, 0.0, 0.0, 0.0, 0.0, 0.0, 0.0, 0.0, 0.0, 1.666406572982132E9, 0.0, 2022-10-21 19:42:52.982
225.0, -131940.2017522099, -145199.9271154317, -13261.334688822591, -112931.92063950546, 74721.00999605775, -174028.71537550873, 67679.0258501799, -123056.76913938155, -0.022, 0.9520000000000001, -0.07, 192.0, 0.0, 0.0, 0.0, 0.0, 0.0, 0.0, 0.0, 0.0, 0.0, 1.6664065729821455E9, 0.0, 2022-10-21 19:42:52.982
226.0, -131933.20565619538, -145194.29447582897, -13256.77493295371, -112929.14902319301, 74725.01095831525, -174191.9054617769, 67621.42540471857, -123052.23173525713, -0.022, 0.9520000000000001, -0.07, 192.0, 0.0, 0.0, 0.0, 0.0, 0.0, 0.0, 0.0, 0.0, 0.0, 1.6664065729821591E9, 0.0, 2022-10-21 19:42:52.982
227.0, -131940.1346969765, -145200.44120555418, -13261.401744055956, -112911.66995902896, 74727.44729846089, -174206.7693718397, 67654.52833825687, -123038.26189497256, -0.022, 0.9460000000000001, -0.07, 192.0, 255.0, 80.0, 29.0, 144.0, 253.0, 208.0, 0.0, 0.0, 0.0, 1.6664065729821725E9, 0.0, 2022-10-21 19:42:52.982
228.0, -131943.77803132273, -145203.21282186662, -13267.012031914239, -112905.34441534811, 74726.57558042713, -174026.48020106318, 67725.1374989912, -123032.65160711428, -0.022, 0.9460000000000001, -0.07, 192.0, 0.0, 0.0, 0.0, 0.0, 0.0, 0.0, 0.0, 0.0, 0.0, 1.6664065729821885E9, 0.0, 2022-10-21 19:42:52.982
229.0, -131935.12790621852, -145195.65793224072, -13259.43479054389, -112916.2520666423, 74727.26848450524, -173985.08477033197, 67700.41646962363, -123051.36001722337, -0.022, 0.9460000000000001, -0.07, 192.0, 0.0, 0.0, 0.0, 0.0, 0.0, 0.0, 0.0, 0.0, 0.0, 1.666406572982202E9, 0.0, 2022-10-21 19:42:52.982
230.0, -131936.35725216358, -145196.84257469687, -13260.842950444574, -112932.7029505614, 74724.74273738179, -174140.38469080743, 67626.54395419883, -123066.0004098416, -0.022, 0.9460000000000001, -0.07, 192.0, 0.0, 0.0, 0.0, 0.0, 0.0, 0.0, 0.0, 0.0, 0.0, 1.666406572982216E9, 0.0, 2022-10-21 19:42:52.982
231.0, -131940.31351093214, -145196.5296502745, -13261.267633589225, -112921.52707833375, 74725.2344757598, -174197.2251769573, 67644.1124253407, -123043.045168286, -0.022, 0.9460000000000001, -0.07, 192.0, 0.0, 0.0, 0.0, 0.0, 0.0, 0.0, 0.0, 0.0, 0.0, 1.6664065729822292E9, 0.0, 2022-10-21 19:42:52.982
232.0, -131941.6993190884, -145196.64140899677, -13262.899310934463, -112907.73605200482, 74726.37441472703, -174049.01075947413, 67716.35326342026, -123028.62829311233, -0.022, 0.9460000000000001, -0.07, 192.0, 0.0, 0.0, 0.0, 0.0, 0.0, 0.0, 0.0, 0.0, 0.0, 1.6664065729822588E9, 0.0, 2022-10-21 19:42:52.982
233.0, -131954.93155180593, -145212.51114756003, -13281.697128021375, -112926.28799990274, 74709.94588255238, -173979.54153770706, 67690.67110904111, -123063.47466271814, -0.022, 0.9460000000000001, -0.07, 192.0, 0.0, 0.0, 0.0, 0.0, 0.0, 0.0, 0.0, 0.0, 0.0, 1.6664065729822724E9, 0.0, 2022-10-21 19:42:52.982
234.0, -131953.88101981653, -145212.7346650046, -13277.405593085956, -112934.69225581792, 74706.41430692843, -174104.91247235687, 67616.82094536079, -123077.3550960249, -0.022, 0.9460000000000001, -0.07, 192.0, 0.0, 0.0, 0.0, 0.0, 0.0, 0.0, 0.0, 0.0, 0.0, 1.6664065729822853E9, 0.0, 2022-10-21 19:42:52.982
235.0, -131949.7012436034, -145205.5821067789, -13269.023688915217, -112918.151964921, 74715.51146692174, -174184.57408959558, 67626.94628559903, -123049.90715383377, -0.022, 0.9460000000000001, -0.07, 192.0, 0.0, 0.0, 0.0, 0.0, 0.0, 0.0, 0.0, 0.0, 0.0, 1.666406572982298E9, 0.0, 2022-10-21 19:42:52.982
236.0, -131951.154106993, -145206.4761765571, -13271.616491272032, -112909.32302586116, 74716.80786810015, -174067.65211434985, 67701.75757429094, -123030.37172917984, -0.022, 0.9520000000000001, -0.076, 192.0, 255.0, 80.0, 29.0, 192.0, 253.0, 160.0, 0.0, 0.0, 0.0, 1.6664065729823105E9, 0.0, 2022-10-21 19:42:52.982
237.0, -131948.62835986953, -145209.5830690364, -13277.383241341502, -112922.51055508979, 74714.19271399888, -173978.4686539732, 67704.01510048093, -123050.77887186753, -0.022, 0.9520000000000001, -0.076, 192.0, 0.0, 0.0, 0.0, 0.0, 0.0, 0.0, 0.0, 0.0, 0.0, 1.6664065729823244E9, 0.0, 2022-10-21 19:42:52.982
238.0, -131938.48066788682, -145200.15063287623, -13269.046040659672, -112925.12570919105, 74724.31805423714, -174076.7939778321, 67644.78297767436, -123058.2443545156, -0.022, 0.9520000000000001, -0.076, 192.0, 0.0, 0.0, 0.0, 0.0, 0.0, 0.0, 0.0, 0.0, 0.0, 1.6664065729823368E9, 0.0, 2022-10-21 19:42:52.982
239.0, -131944.96267377885, -145202.6763799997, -13272.15293313896, -112921.46002310039, 74726.59793217159, -174172.9064789899, 67628.33209375526, -123052.29879049049, -0.022, 0.9520000000000001, -0.076, 192.0, 0.0, 0.0, 0.0, 0.0, 0.0, 0.0, 0.0, 0.0, 0.0, 1.6664065729823499E9, 0.0, 2022-10-21 19:42:52.982
240.0, -131956.87615357354, -145212.71231326013, -13280.423078587422, -112906.39494733751, 74726.95556008286, -174070.82606206252, 67693.50978058693, -123034.55150539298, -0.022, 0.9520000000000001, -0.076, 192.0, 0.0, 0.0, 0.0, 0.0, 0.0, 0.0, 0.0, 0.0, 0.0, 1.6664065729823625E9, 0.0, 2022-10-21 19:42:52.982
241.0, -131960.74300536432, -145215.68509527267, -13286.502753079267, -112918.84486899912, 74716.96433031134, -173939.7554325766, 67713.69340583008, -123052.63406665732, -0.022, 0.9520000000000001, -0.076, 192.0, 0.0, 0.0, 0.0, 0.0, 0.0, 0.0, 0.0, 0.0, 0.0, 1.6664065729823756E9, 0.0, 2022-10-21 19:42:52.982
242.0, -131952.0481767712, -145210.81241498142, -13282.948825710873, -112939.49788087582, 74712.47162967583, -174021.22754111618, 67644.53710848535, -123076.5504332245, -0.022, 0.9520000000000001, -0.076, 192.0, 0.0, 0.0, 0.0, 0.0, 0.0, 0.0, 0.0, 0.0, 0.0, 1.6664065729823883E9, 0.0, 2022-10-21 19:42:52.982
243.0, -131945.87909530153, -145199.74830147604, -13272.823485472618, -112925.46098535789, 74725.4356414599, -174157.10379566002, 67621.80538437431, -123055.2939242475, -0.022, 0.9520000000000001, -0.076, 192.0, 0.0, 0.0, 0.0, 0.0, 0.0, 0.0, 0.0, 0.0, 0.0, 1.666406572982401E9, 0.0, 2022-10-21 19:42:52.982
244.0, -131955.33388320613, -145209.5830690364, -13280.467782076334, -112901.67872925744, 74731.85059211857, -174054.59869558798, 67691.8781032417, -123035.40087168229, -0.022, 0.9520000000000001, -0.076, 192.0, 0.0, 0.0, 0.0, 0.0, 0.0, 0.0, 0.0, 0.0, 0.0, 1.6664065729824133E9, 0.0, 2022-10-21 19:42:52.982
245.0, -131962.06175828716, -145217.36147610683, -13287.553285068667, -112915.69327303092, 74720.56296116865, -173893.46496980966, 67731.6865601166, -123039.71475836216, -0.022, 0.9520000000000001, -0.076, 192.0, 0.0, 0.0, 0.0, 0.0, 0.0, 0.0, 0.0, 0.0, 0.0, 1.666406572982426E9, 0.0, 2022-10-21 19:42:52.982
246.0, -131957.7478716073, -145210.0301039255, -13278.366718097535, -112935.18399419595, 74723.26752224774, -173956.49688917364, 67675.18135013359, -123052.45525270168, -0.022, 0.9580000000000001, -0.082, 192.0, 255.0, 80.0, 29.0, 240.0, 253.0, 112.0, 0.0, 0.0, 0.0, 1.6664065729824386E9, 0.0, 2022-10-21 19:42:52.982
247.0, -131961.72648212034, -145210.99122893705, -13282.121811166027, -112935.34045640714, 74725.21212401535, -174103.97369908975, 67625.60518093171, -123061.68652316173, -0.022, 0.9580000000000001, -0.082, 192.0, 0.0, 0.0, 0.0, 0.0, 0.0, 0.0, 0.0, 0.0, 0.0, 1.666406572982464E9, 0.0, 2022-10-21 19:42:52.982
248.0, -131961.65942688697, -145214.12047316082, -13286.078069934616, -112921.9517614784, 74721.90406583596, -174080.41496043385, 67668.36406807472, -123046.48733693211, -0.022, 0.9580000000000001, -0.082, 192.0, 0.0, 0.0, 0.0, 0.0, 0.0, 0.0, 0.0, 0.0, 0.0, 1.6664065729824765E9, 0.0, 2022-10-21 19:42:52.982
249.0, -131960.8994675755, -145215.39452259475, -13288.20148565787, -112917.34730212062, 74721.12175478003, -173937.8555342979, 67724.51165014645, -123038.97715079512, -0.022, 0.9580000000000001, -0.082, 192.0, 0.0, 0.0, 0.0, 0.0, 0.0, 0.0, 0.0, 0.0, 0.0, 1.66640657298249E9, 0.0, 2022-10-21 19:42:52.982
250.0, -131953.903371561, -145207.1243771463, -13286.189828656892, -112926.10918594709, 74725.25682750426, -173923.21514167968, 67687.74303051746, -123058.08789230442, -0.022, 0.9580000000000001, -0.082, 192.0, 0.0, 0.0, 0.0, 0.0, 0.0, 0.0, 0.0, 0.0, 0.0, 1.6664065729825025E9, 0.0, 2022-10-21 19:42:52.982
251.0, -131955.73621460632, -145208.6219440248, -13293.655311304965, -112937.1062442191, 74720.40649895745, -174068.0320940056, 67618.65378840611, -123071.6554011888, -0.022, 0.9580000000000001, -0.082, 192.0, 0.0, 0.0, 0.0, 0.0, 0.0, 0.0, 0.0, 0.0, 0.0, 1.666406572982515E9, 0.0, 2022-10-21 19:42:52.982
252.0, -131967.76145312327, -145219.30607787444, -13298.796212529685, -112921.7505957783, 74721.85936234705, -174075.5869836315, 67650.50502425492, -123054.46690970266, -0.022, 0.9580000000000001, -0.082, 192.0, 0.0, 0.0, 0.0, 0.0, 0.0, 0.0, 0.0, 0.0, 0.0, 1.6664065729825287E9, 0.0, 2022-10-21 19:42:52.982
253.0, -131972.03063631424, -145223.55290932095, -13307.356930656068, -112912.65343578499, 74716.80786810015, -173933.4522406402, 67713.35812966325, -123046.50968867657, -0.022, 0.9580000000000001, -0.082, 192.0, 0.0, 0.0, 0.0, 0.0, 0.0, 0.0, 0.0, 0.0, 0.0, 1.6664065729825416E9, 0.0, 2022-10-21 19:42:52.982
254.0, -131968.02967405674, -145225.25164189955, -13305.30057016618, -112921.9517614784, 74718.4842489343, -173887.87703369584, 67695.45438235455, -123060.77010163905, -0.022, 0.9580000000000001, -0.082, 192.0, 0.0, 0.0, 0.0, 0.0, 0.0, 0.0, 0.0, 0.0, 0.0, 1.6664065729825542E9, 0.0, 2022-10-21 19:42:52.982
255.0, -131972.14239503653, -145229.72199079063, -13308.765090556752, -112946.06929374568, 74709.56590289663, -174038.43838434678, 67617.24562850544, -123084.10532285039, -0.022, 0.9580000000000001, -0.082, 192.0, 0.0, 0.0, 0.0, 0.0, 0.0, 0.0, 0.0, 0.0, 0.0, 1.6664065729825666E9, 0.0, 2022-10-21 19:42:52.982
0.0, -131971.33773223613, -145225.51986283303, -13306.887544022507, -112927.36088363659, 74716.49494367778, -174085.57821340303, 67635.6634659366, -123059.67486616074, -0.018000000000000002, 0.9580000000000001, -0.076, 192.0, 255.0, 112.0, 29.0, 240.0, 253.0, 160.0, 0.0, 0.0, 0.0, 1.6664065729825792E9, 0.0, 2022-10-21 19:42:52.982
1.0, -131976.63509567204, -145231.10779894685, -13312.67664583643, -112913.50280207429, 74724.20629551486, -173923.3492521464, 67718.0296442544, -123039.80416533997, -0.018000000000000002, 0.9580000000000001, -0.076, 192.0, 0.0, 0.0, 0.0, 0.0, 0.0, 0.0, 0.0, 0.0, 0.0, 1.6664065729825926E9, 0.0, 2022-10-21 19:42:52.982
2.0, -131979.2055462844, -145230.14667393526, -13315.269448193247, -112931.04892147171, 74719.71359487934, -173830.00836730105, 67712.91109477414, -123057.26087775957, -0.018000000000000002, 0.9580000000000001, -0.076, 192.0, 0.0, 0.0, 0.0, 0.0, 0.0, 0.0, 0.0, 0.0, 0.0, 1.6664065729826055E9, 0.0, 2022-10-21 19:42:52.982
3.0, -131967.91791533446, -145218.32260111842, -13307.82631728963, -112940.59311635412, 74721.30056873568, -173962.97889506567, 67642.83837590675, -123060.85950861688, -0.018000000000000002, 0.9580000000000001, -0.076, 192.0, 0.0, 0.0, 0.0, 0.0, 0.0, 0.0, 0.0, 0.0, 0.0, 1.666406572982618E9, 0.0, 2022-10-21 19:42:52.982
4.0, -131969.48253744634, -145222.54708082046, -13313.838936548107, -112925.05865395769, 74723.96042632585, -174044.76392802762, 67637.85393689323, -123051.42707245673, -0.018000000000000002, 0.9580000000000001, -0.076, 192.0, 0.0, 0.0, 0.0, 0.0, 0.0, 0.0, 0.0, 0.0, 0.0, 1.6664065729826312E9, 0.0, 2022-10-21 19:42:52.982
5.0, -131985.01699984277, -145237.4780461166, -13329.172233244448, -112920.72241553337, 74708.18009474041, -173924.89152251382, 67695.36497537672, -123052.25408700158, -0.018000000000000002, 0.9580000000000001, -0.076, 192.0, 0.0, 0.0, 0.0, 0.0, 0.0, 0.0, 0.0, 0.0, 0.0, 1.666406572982644E9, 0.0, 2022-10-21 19:42:52.982
6.0, -131990.67199118997, -145245.05528748696, -13336.771826359252, -112937.9556105084, 74702.45804815985, -173817.46903866163, 67705.60207433726, -123066.0004098416, -0.018000000000000002, 0.9580000000000001, -0.076, 192.0, 0.0, 0.0, 0.0, 0.0, 0.0, 0.0, 0.0, 0.0, 0.0, 1.6664065729827018E9, 0.0, 2022-10-21 19:42:52.982
7.0, -131974.71284564887, -145230.28078440198, -13324.25484946428, -112942.44831114392, 74717.32195822263, -173913.6038915639, 67647.59929747574, -123067.2521075311, -0.018000000000000002, 0.9580000000000001, -0.076, 192.0, 0.0, 0.0, 0.0, 0.0, 0.0, 0.0, 0.0, 0.0, 0.0, 1.6664065729827147E9, 0.0, 2022-10-21 19:42:52.982
0.0, 0.0, 0.0, 0.0, 0.0, 0.0, 0.0, 0.0, 0.0, -0.018000000000000002, 0.9580000000000001, -0.076, 192.0, 0.0, 0.0, 0.0, 0.0, 0.0, 0.0, 0.0, 0.0, 0.0, 1.666406573062806E9, 0.0, 2022-10-21 19:42:53.062
1.0, -140055.02492845355, -147342.2747662395, -21970.468398388435, -110939.91082190405, 76449.11276687536, -73860.84781418418, 68972.99068844208, -106145.90867112979, -0.014, 0.96, -0.062, 192.0, 255.0, 144.0, 30.0, 0.0, 254.0, 16.0, 0.0, 0.0, 0.0, 1.666406573551182E9, 0.0, 2022-10-21 19:42:53.551
2.0, -140045.5477888045, -147330.9871352896, -21970.647212344076, -110941.07311261572, 76448.8445459419, -73798.1735227315, 68990.17917992821, -106154.64820321182, -0.014, 0.96, -0.062, 192.0, 0.0, 0.0, 0.0, 0.0, 0.0, 0.0, 0.0, 0.0, 0.0, 1.66640657355132E9, 0.0, 2022-10-21 19:42:53.551
3.0, -140037.23293986713, -147324.281611953, -21968.50144487637, -110954.21593835544, 76448.21869709715, -73893.10138143318, 68928.57777220938, -106191.28271237406, -0.014, 0.96, -0.062, 192.0, 0.0, 0.0, 0.0, 0.0, 0.0, 0.0, 0.0, 0.0, 0.0, 1.6664065735514107E9, 0.0, 2022-10-21 19:42:53.551
4.0, -140043.53613180353, -147332.14942600124, -21969.417866399035, -110951.98076390992, 76453.91839193326, -73962.74941715592, 68910.98694932305, -106181.15737213581, -0.014, 0.96, -0.062, 192.0, 0.0, 0.0, 0.0, 0.0, 0.0, 0.0, 0.0, 0.0, 0.0, 1.6664065735514345E9, 0.0, 2022-10-21 19:42:53.551
5.0, -140049.28053012854, -147337.8267690929, -21968.97083150993, -110932.1324148336, 76461.24976411459, -73871.71076198945, 68972.92363320872, -106143.60644145089, -0.014, 0.96, -0.062, 192.0, 0.0, 0.0, 0.0, 0.0, 0.0, 0.0, 0.0, 0.0, 0.0, 1.6664065735514584E9, 0.0, 2022-10-21 19:42:53.551
6.0, -140054.7120040312, -147345.91810058572, -21974.715229834943, -110945.56581325125, 76451.07972038742, -73792.3620691731, 68993.97897648561, -106155.18464507874, -0.014, 0.96, -0.062, 192.0, 0.0, 0.0, 0.0, 0.0, 0.0, 0.0, 0.0, 0.0, 0.0, 1.6664065735514913E9, 0.0, 2022-10-21 19:42:53.551
7.0, -140053.3038441305, -147345.2251965076, -21969.39551465458, -110954.66297324456, 76453.98544716662, -73862.94887816298, 68939.21720257011, -106191.77445075208, -0.014, 0.96, -0.062, 192.0, 0.0, 0.0, 0.0, 0.0, 0.0, 0.0, 0.0, 0.0, 0.0, 1.666406573551515E9, 0.0, 2022-10-21 19:42:53.551
8.0, -140051.64981504082, -147344.10760928484, -21964.34402040768, -110947.0857318742, 76464.33430484943, -73936.91080056559, 68908.48355394407, -106190.3662908514, -0.014, 0.9580000000000001, -0.052000000000000005, 192.0, 255.0, 144.0, 29.0, 240.0, 254.0, 96.0, 0.0, 0.0, 0.0, 1.6664065735515392E9, 0.0, 2022-10-21 19:42:53.551
9.0, -140057.08128894345, -147350.99194657707, -21964.81340704124, -110937.69799920298, 76460.86978445886, -73890.64268954309, 68945.3192288064, -106167.54515976252, -0.014, 0.9580000000000001, -0.052000000000000005, 192.0, 0.0, 0.0, 0.0, 0.0, 0.0, 0.0, 0.0, 0.0, 0.0, 1.666406573551565E9, 0.0, 2022-10-21 19:42:53.551
10.0, -140054.17556216425, -147344.9793273186, -21961.12536920612, -110933.13824333409, 76460.42274956976, -73789.38928716055, 68986.87112174883, -106159.74440094763, -0.014, 0.9580000000000001, -0.052000000000000005, 192.0, 0.0, 0.0, 0.0, 0.0, 0.0, 0.0, 0.0, 0.0, 0.0, 1.6664065735515893E9, 0.0, 2022-10-21 19:42:53.551
11.0, -140056.1201639319, -147349.20380702065, -21967.00387799786, -110948.5385952638, 76453.13608087732, -73841.20063080796, 68931.63996119976, -106202.45858460171, -0.014, 0.9580000000000001, -0.052000000000000005, 192.0, 0.0, 0.0, 0.0, 0.0, 0.0, 0.0, 0.0, 0.0, 0.0, 1.6664065735516129E9, 0.0, 2022-10-21 19:42:53.551
12.0, -140055.02492845355, -147351.39427797726, -21962.846453529175, -110942.0342376273, 76460.69097050322, -73948.93603908253, 68880.58857686384, -106215.19907894124, -0.014, 0.9580000000000001, -0.052000000000000005, 192.0, 0.0, 0.0, 0.0, 0.0, 0.0, 0.0, 0.0, 0.0, 0.0, 1.6664065735516367E9, 0.0, 2022-10-21 19:42:53.551
13.0, -140055.58372206494, -147352.95890008914, -21956.096226703674, -110913.73692914688, 76476.11367417738, -73914.13437296562, 68924.71092041861, -106173.37896506536, -0.014, 0.9580000000000001, -0.052000000000000005, 192.0, 0.0, 0.0, 0.0, 0.0, 0.0, 0.0, 0.0, 0.0, 0.0, 1.666406573551723E9, 0.0, 2022-10-21 19:42:53.551
14.0, -140064.0103297246, -147361.89959787126, -21963.025267484816, -110912.86521111312, 76471.66567703077, -73798.91113029851, 68977.68455477769, -106163.43243878275, -0.014, 0.9580000000000001, -0.052000000000000005, 192.0, 0.0, 0.0, 0.0, 0.0, 0.0, 0.0, 0.0, 0.0, 0.0, 1.6664065735517364E9, 0.0, 2022-10-21 19:42:53.551
15.0, -140061.52928609005, -147355.26112976804, -21963.472302373924, -110926.38801650859, 76469.6987235187, -73812.5233426718, 68948.13554860778, -106194.814287998, -0.014, 0.9580000000000001, -0.052000000000000005, 192.0, 0.0, 0.0, 0.0, 0.0, 0.0, 0.0, 0.0, 0.0, 0.0, 1.6664065735517485E9, 0.0, 2022-10-21 19:42:53.551
16.0, -140063.47388785766, -147354.59057743437, -21965.171034952527, -110937.31801954724, 76467.50825256208, -73935.1003092647, 68883.65076585421, -106218.97652375419, -0.014, 0.9580000000000001, -0.052000000000000005, 192.0, 0.0, 0.0, 0.0, 0.0, 0.0, 0.0, 0.0, 0.0, 0.0, 1.6664065735517604E9, 0.0, 2022-10-21 19:42:53.551
17.0, -140062.42335586826, -147354.031783823, -21958.890194760585, -110921.91766761753, 76474.1020171764, -73935.7485098539, 68909.04234755544, -106183.90663670382, -0.014, 0.966, -0.046, 192.0, 255.0, 144.0, 30.0, 48.0, 254.0, 144.0, 0.0, 0.0, 0.0, 1.6664065735517726E9, 0.0, 2022-10-21 19:42:53.551
18.0, -140061.32812038995, -147351.05900181044, -21954.978639480905, -110913.40165298006, 76477.36537186686, -73823.5204009438, 68978.10923792234, -106149.84257815393, -0.014, 0.966, -0.046, 192.0, 0.0, 0.0, 0.0, 0.0, 0.0, 0.0, 0.0, 0.0, 0.0, 1.6664065735517857E9, 0.0, 2022-10-21 19:42:53.551
19.0, -140054.60024530892, -147346.4768941971, -21950.284773145293, -110919.2801617718, 76480.807540513, -73800.85573206613, 68974.22003438712, -106168.64039524084, -0.014, 0.966, -0.046, 192.0, 0.0, 0.0, 0.0, 0.0, 0.0, 0.0, 0.0, 0.0, 0.0, 1.6664065735517974E9, 0.0, 2022-10-21 19:42:53.551
20.0, -140048.2076463947, -147344.2864232405, -21948.76485452233, -110923.34817926267, 76484.27206090356, -73909.82048628575, 68915.52435344749, -106193.29436937504, -0.014, 0.966, -0.046, 192.0, 0.0, 0.0, 0.0, 0.0, 0.0, 0.0, 0.0, 0.0, 0.0, 1.6664065735518093E9, 0.0, 2022-10-21 19:42:53.551
21.0, -140044.87723647084, -147340.9783650611, -21949.658924300544, -110916.50854545935, 76485.74727603761, -73942.49873667941, 68925.64969368574, -106162.89599691583, -0.014, 0.966, -0.046, 192.0, 0.0, 0.0, 0.0, 0.0, 0.0, 0.0, 0.0, 0.0, 0.0, 1.6664065735518212E9, 0.0, 2022-10-21 19:42:53.551
22.0, -140053.28149238604, -147348.86853085383, -21961.080665717207, -110914.80981288075, 76479.6005463124, -73844.88866864308, 68987.34050838239, -106135.49275821362, -0.014, 0.966, -0.046, 192.0, 0.0, 0.0, 0.0, 0.0, 0.0, 0.0, 0.0, 0.0, 0.0, 1.6664065735518332E9, 0.0, 2022-10-21 19:42:53.551
23.0, -140060.50110584512, -147358.03274608048, -21979.34204093719, -110937.67564745851, 76465.31778160547, -73800.90043555504, 68984.39007811429, -106166.51697951759, -0.014, 0.966, -0.046, 192.0, 0.0, 0.0, 0.0, 0.0, 0.0, 0.0, 0.0, 0.0, 0.0, 1.666406573551845E9, 0.0, 2022-10-21 19:42:53.551
24.0, -140053.48265808614, -147347.70624014214, -21978.604433370165, -110946.8845661741, 76469.16228165178, -73887.51344531935, 68927.14726056425, -106195.35072986493, -0.014, 0.966, -0.046, 192.0, 0.0, 0.0, 0.0, 0.0, 0.0, 0.0, 0.0, 0.0, 0.0, 1.6664065735518568E9, 0.0, 2022-10-21 19:42:53.551
25.0, -140052.14155341883, -147349.40497272075, -21982.270119460838, -110940.11198760415, 76471.93389796423, -73943.34810296871, 68916.15020229224, -106180.37506107987, -0.014, 0.966, -0.046, 192.0, 0.0, 0.0, 0.0, 0.0, 0.0, 0.0, 0.0, 0.0, 0.0, 1.666406573551869E9, 0.0, 2022-10-21 19:42:53.551
26.0, -140047.44768708321, -147346.45454245264, -21984.17001773954, -110923.14701356257, 76469.9445927077, -73855.34928504817, 68979.11506642283, -106142.71237167268, -0.014, 0.966, -0.046, 192.0, 0.0, 0.0, 0.0, 0.0, 0.0, 0.0, 0.0, 0.0, 0.0, 1.6664065735518804E9, 0.0, 2022-10-21 19:42:53.551
27.0, -140043.82670448147, -147342.2300627506, -21987.813352085752, -110923.34817926267, 76466.99416243962, -73783.13079871307, 68999.74572655508, -106155.49756950112, -0.01, 0.964, -0.044, 192.0, 255.0, 176.0, 30.0, 32.0, 254.0, 160.0, 0.0, 0.0, 0.0, 1.6664065735518975E9, 0.0, 2022-10-21 19:42:53.551
28.0, -140048.565274306, -147348.3767924758, -21997.961044068463, -110953.63479299961, 76451.77262446555, -73869.76616022184, 68930.88000188828, -106204.29142764705, -0.01, 0.964, -0.044, 192.0, 0.0, 0.0, 0.0, 0.0, 0.0, 0.0, 0.0, 0.0, 0.0, 1.6664065735520053E9, 0.0, 2022-10-21 19:42:53.552
29.0, -140040.98803293562, -147342.40887670623, -21994.697689377987, -110945.92344116252, 76455.28184834502, -73958.27906826485, 68907.43302195467, -106190.79097399605, -0.01, 0.964, -0.044, 192.0, 0.0, 0.0, 0.0, 0.0, 0.0, 0.0, 0.0, 0.0, 0.0, 1.6664065735520473E9, 0.0, 2022-10-21 19:42:53.552
30.0, -140042.1503236473, -147344.50994068503, -21999.525666180332, -110928.24321129838, 76460.80272922548, -73889.48039883142, 68965.16757788272, -106156.83867416844, -0.01, 0.964, -0.044, 192.0, 0.0, 0.0, 0.0, 0.0, 0.0, 0.0, 0.0, 0.0, 0.0, 1.6664065735520883E9, 0.0, 2022-10-21 19:42:53.552
31.0, -140047.02300393858, -147350.81313262144, -22012.713195408964, -110926.4327199975, 76458.67931350223, -73789.411638905, 69001.37740390032, -106157.37511603536, -0.01, 0.964, -0.044, 192.0, 0.0, 0.0, 0.0, 0.0, 0.0, 0.0, 0.0, 0.0, 0.0, 1.6664065735521295E9, 0.0, 2022-10-21 19:42:53.552
32.0, -140045.52543706007, -147350.32139424342, -22022.324445524748, -110941.47544401592, 76451.77262446555, -73845.76038667683, 68941.9217636492, -106202.43623285726, -0.01, 0.964, -0.044, 192.0, 0.0, 0.0, 0.0, 0.0, 0.0, 0.0, 0.0, 0.0, 0.0, 1.666406573552172E9, 0.0, 2022-10-21 19:42:53.552
33.0, -140036.33887008892, -147337.8714725818, -22013.204933786983, -110934.97108637943, 76459.48397630262, -73953.58520192924, 68894.82663808187, -106201.18453516776, -0.01, 0.964, -0.044, 192.0, 0.0, 0.0, 0.0, 0.0, 0.0, 0.0, 0.0, 0.0, 0.0, 1.6664065735522132E9, 0.0, 2022-10-21 19:42:53.552
34.0, -140040.6527567688, -147341.1348272723, -22016.289474521815, -110914.58629543618, 76464.42371182724, -73917.66594858957, 68932.80225191143, -106171.99315690913, -0.01, 0.964, -0.044, 192.0, 0.0, 0.0, 0.0, 0.0, 0.0, 0.0, 0.0, 0.0, 0.0, 1.6664065735522547E9, 0.0, 2022-10-21 19:42:53.552
35.0, -140038.28347185653, -147343.59351916236, -22016.31182626627, -110900.21412375143, 76467.06121767298, -73806.77894434678, 68983.65247054725, -106160.7055259592, -0.01, 0.964, -0.044, 192.0, 0.0, 0.0, 0.0, 0.0, 0.0, 0.0, 0.0, 0.0, 0.0, 1.666406573552296E9, 0.0, 2022-10-21 19:42:53.552
36.0, -140038.9540241902, -147345.4263622077, -22024.15728857008, -110925.98568510839, 76457.09233964591, -73843.92754363151, 68933.98689436757, -106204.2243724137, -0.01, 0.964, -0.044, 192.0, 0.0, 0.0, 0.0, 0.0, 0.0, 0.0, 0.0, 0.0, 0.0, 1.6664065735523443E9, 0.0, 2022-10-21 19:42:53.552
37.0, -140031.5555967755, -147341.8277313504, -22019.731643167932, -110918.6319611826, 76469.6987235187, -73945.47151869196, 68889.75279209051, -106209.20881142722, -0.014, 0.9540000000000001, -0.044, 192.0, 255.0, 144.0, 29.0, 208.0, 254.0, 160.0, 0.0, 0.0, 0.0, 1.666406573552405E9, 0.0, 2022-10-21 19:42:53.552
38.0, -140031.041506653, -147340.44192319416, -22019.374015256646, -110890.89344631357, 76486.08255220445, -73918.47061138996, 68926.5214117195, -106179.63745351286, -0.014, 0.9540000000000001, -0.044, 192.0, 0.0, 0.0, 0.0, 0.0, 0.0, 0.0, 0.0, 0.0, 0.0, 1.6664065735524516E9, 0.0, 2022-10-21 19:42:53.552
39.0, -140038.88696895682, -147346.58865291937, -22027.666512449567, -110882.46683865391, 76483.48974984762, -73797.45826690891, 68981.01496470154, -106166.74049696214, -0.014, 0.9540000000000001, -0.044, 192.0, 0.0, 0.0, 0.0, 0.0, 0.0, 0.0, 0.0, 0.0, 0.0, 1.666406573552493E9, 0.0, 2022-10-21 19:42:53.552
40.0, -140038.77521023457, -147345.1804930187, -22032.20391657399, -110897.55426616124, 76472.2468223866, -73808.85765658112, 68946.81679568492, -106202.43623285726, -0.014, 0.9540000000000001, -0.044, 192.0, 0.0, 0.0, 0.0, 0.0, 0.0, 0.0, 0.0, 0.0, 0.0, 1.666406573552535E9, 0.0, 2022-10-21 19:42:53.552
41.0, -140033.32138458747, -147339.16787376022, -22026.347759526703, -110899.85649584014, 76481.47809284665, -73920.61637885767, 68891.38446943575, -106213.85797427392, -0.014, 0.9540000000000001, -0.044, 192.0, 0.0, 0.0, 0.0, 0.0, 0.0, 0.0, 0.0, 0.0, 0.0, 1.6664065735525763E9, 0.0, 2022-10-21 19:42:53.552
42.0, -140030.2591955971, -147335.14455975825, -22017.87644837814, -110885.97606253339, 76490.5529010955, -73926.98662602743, 68912.8644958573, -106179.99508142413, -0.014, 0.9540000000000001, -0.044, 192.0, 0.0, 0.0, 0.0, 0.0, 0.0, 0.0, 0.0, 0.0, 0.0, 1.6664065735526175E9, 0.0, 2022-10-21 19:42:53.552
43.0, -140040.11631490188, -147345.26989999652, -22025.319579281757, -110888.16653349002, 76478.25944164509, -73832.3269882592, 68964.49702554906, -106162.4042585378, -0.014, 0.9540000000000001, -0.044, 192.0, 0.0, 0.0, 0.0, 0.0, 0.0, 0.0, 0.0, 0.0, 0.0, 1.6664065735526977E9, 0.0, 2022-10-21 19:42:53.552
44.0, -140044.4972568151, -147351.77425763302, -22031.42160551806, -110899.45416443994, 76471.7997874975, -73809.01411879231, 68952.96352541013, -106190.27688387358, -0.014, 0.9540000000000001, -0.044, 192.0, 0.0, 0.0, 0.0, 0.0, 0.0, 0.0, 0.0, 0.0, 0.0, 1.6664065735527308E9, 0.0, 2022-10-21 19:42:53.552
45.0, -140040.4962945576, -147346.58865291937, -22026.50422173789, -110905.80205986525, 76471.1962903972, -73917.93416952303, 68888.76931533449, -106220.89877377734, -0.014, 0.9540000000000001, -0.044, 192.0, 0.0, 0.0, 0.0, 0.0, 0.0, 0.0, 0.0, 0.0, 0.0, 1.6664065735527458E9, 0.0, 2022-10-21 19:42:53.552
46.0, -140043.22320738118, -147347.9297575867, -22026.12424208215, -110901.64463539656, 76474.66081078778, -73963.9564113565, 68887.09293450034, -106200.29046538955, -0.012, 0.9560000000000001, -0.04, 192.0, 255.0, 160.0, 29.0, 224.0, 254.0, 192.0, 0.0, 0.0, 0.0, 1.6664065735527608E9, 0.0, 2022-10-21 19:42:53.552
47.0, -140045.1007539154, -147349.33791748737, -22026.727739182443, -110892.88275157008, 76478.19238641171, -73858.90321241655, 68952.53884226548, -106170.20501735271, -0.012, 0.9560000000000001, -0.04, 192.0, 0.0, 0.0, 0.0, 0.0, 0.0, 0.0, 0.0, 0.0, 0.0, 1.6664065735527773E9, 0.0, 2022-10-21 19:42:53.552
48.0, -140040.4068875798, -147343.034725551, -22026.392463015614, -110902.04696679676, 76474.48199683214, -73791.98208951738, 68970.01790642952, -106177.1117063894, -0.012, 0.9560000000000001, -0.04, 192.0, 0.0, 0.0, 0.0, 0.0, 0.0, 0.0, 0.0, 0.0, 0.0, 1.6664065735527923E9, 0.0, 2022-10-21 19:42:53.552
49.0, -140029.02984965206, -147331.6800393677, -22021.4974309799, -110911.36764423462, 76475.68899103273, -73882.84193072819, 68909.62349291128, -106207.93476199327, -0.012, 0.9560000000000001, -0.04, 192.0, 0.0, 0.0, 0.0, 0.0, 0.0, 0.0, 0.0, 0.0, 0.0, 1.666406573552809E9, 0.0, 2022-10-21 19:42:53.552
50.0, -140035.4000968218, -147339.2796324825, -22028.247657805405, -110915.45801346995, 76470.01164794108, -73943.21399250197, 68885.01422226599, -106208.4712038602, -0.012, 0.9560000000000001, -0.04, 192.0, 0.0, 0.0, 0.0, 0.0, 0.0, 0.0, 0.0, 0.0, 0.0, 1.666406573552824E9, 0.0, 2022-10-21 19:42:53.552
51.0, -140039.78103873503, -147343.74998137355, -22030.102852595195, -110910.11594654512, 76464.04373217151, -73867.6874479875, 68941.51943224901, -106172.93193017626, -0.012, 0.9560000000000001, -0.04, 192.0, 0.0, 0.0, 0.0, 0.0, 0.0, 0.0, 0.0, 0.0, 0.0, 1.666406573552839E9, 0.0, 2022-10-21 19:42:53.552
52.0, -140037.16588463378, -147340.8889580833, -22028.78409967233, -110909.28893200027, 76466.50242406159, -73782.34848765713, 68974.71177276513, -106172.37313656487, -0.012, 0.9560000000000001, -0.04, 192.0, 0.0, 0.0, 0.0, 0.0, 0.0, 0.0, 0.0, 0.0, 0.0, 1.666406573552854E9, 0.0, 2022-10-21 19:42:53.552
53.0, -140031.86852119787, -147335.34572545835, -22027.197125816005, -110920.44245248348, 76463.86491821587, -73846.69915994396, 68921.96165585061, -106213.41093938482, -0.012, 0.9560000000000001, -0.04, 192.0, 0.0, 0.0, 0.0, 0.0, 0.0, 0.0, 0.0, 0.0, 0.0, 1.666406573552869E9, 0.0, 2022-10-21 19:42:53.552
54.0, -140031.91322468678, -147337.0891615259, -22027.241829304916, -110913.51341170233, 76463.86491821587, -73943.59397215772, 68883.85193155431, -106214.21560218521, -0.012, 0.9560000000000001, -0.04, 192.0, 0.0, 0.0, 0.0, 0.0, 0.0, 0.0, 0.0, 0.0, 0.0, 1.6664065735528843E9, 0.0, 2022-10-21 19:42:53.552
55.0, -140041.97150969168, -147345.09108604086, -22033.187393330027, -110891.72046085841, 76467.08356941743, -73888.09459067519, 68932.95871412262, -106182.00673842512, -0.012, 0.9560000000000001, -0.04, 192.0, 0.0, 0.0, 0.0, 0.0, 0.0, 0.0, 0.0, 0.0, 0.0, 1.6664065735528996E9, 0.0, 2022-10-21 19:42:53.552
56.0, -140057.1706959213, -147360.98317634859, -22051.895803439118, -110911.72527214591, 76448.5986767529, -73798.32998494268, 68961.05485690295, -106192.93674146375, -0.016, 0.96, -0.04, 192.0, 255.0, 128.0, 30.0, 0.0, 254.0, 192.0, 0.0, 0.0, 0.0, 1.6664065735529149E9, 0.0, 2022-10-21 19:42:53.552
57.0, -140047.22416963868, -147351.90836809974, -22046.88901268113, -110916.55324894826, 76452.10790063237, -73854.54462224778, 68915.3678912363, -106223.33511392298, -0.016, 0.96, -0.04, 192.0, 0.0, 0.0, 0.0, 0.0, 0.0, 0.0, 0.0, 0.0, 0.0, 1.6664065735529308E9, 0.0, 2022-10-21 19:42:53.552
58.0, -140041.59153003592, -147344.42053370722, -22042.418663790068, -110903.63394065309, 76465.18367113873, -73948.71252163798, 68874.66536458318, -106229.571250626, -0.016, 0.96, -0.04, 192.0, 0.0, 0.0, 0.0, 0.0, 0.0, 0.0, 0.0, 0.0, 0.0, 1.6664065735529597E9, 0.0, 2022-10-21 19:42:53.552
59.0, -140048.67703302825, -147347.75094363105, -22047.716027225975, -110896.1237545161, 76466.39066533932, -73920.99635851341, 68905.60017890933, -106206.25838115912, -0.016, 0.96, -0.04, 192.0, 0.0, 0.0, 0.0, 0.0, 0.0, 0.0, 0.0, 0.0, 0.0, 1.666406573552975E9, 0.0, 2022-10-21 19:42:53.552
60.0, -140053.03562319704, -147351.55074018845, -22048.83361444874, -110886.08782125567, 76472.31387761998, -73804.38730769006, 68963.80412147095, -106184.39837508183, -0.016, 0.96, -0.04, 192.0, 0.0, 0.0, 0.0, 0.0, 0.0, 0.0, 0.0, 0.0, 0.0, 1.6664065735529914E9, 0.0, 2022-10-21 19:42:53.552
61.0, -140053.2591406416, -147353.47299021162, -22051.895803439118, -110893.24037948137, 76472.98442995363, -73812.59039790517, 68932.75754842252, -106217.52366036459, -0.016, 0.96, -0.04, 192.0, 0.0, 0.0, 0.0, 0.0, 0.0, 0.0, 0.0, 0.0, 0.0, 1.666406573553006E9, 0.0, 2022-10-21 19:42:53.553
62.0, -140050.44282084022, -147351.282519255, -22052.342838328226, -110904.9303418315, 76466.43536882823, -73928.9982830284, 68866.37286739027, -106242.84818683246, -0.016, 0.96, -0.04, 192.0, 0.0, 0.0, 0.0, 0.0, 0.0, 0.0, 0.0, 0.0, 0.0, 1.6664065735530205E9, 0.0, 2022-10-21 19:42:53.553
63.0, -140051.44864934072, -147351.21546402163, -22053.259259850893, -110889.17236199051, 76471.30804911949, -73929.6017801287, 68890.15512349071, -106208.49355560465, -0.016, 0.96, -0.04, 192.0, 0.0, 0.0, 0.0, 0.0, 0.0, 0.0, 0.0, 0.0, 0.0, 1.6664065735530348E9, 0.0, 2022-10-21 19:42:53.553
64.0, -140050.19695165122, -147350.32139424342, -22053.102797639705, -110876.63303335107, 76475.30901137699, -73811.65162463803, 68955.91395567822, -106182.02909016957, -0.016, 0.96, -0.04, 192.0, 0.0, 0.0, 0.0, 0.0, 0.0, 0.0, 0.0, 0.0, 0.0, 1.6664065735530488E9, 0.0, 2022-10-21 19:42:53.553
65.0, -140039.06578291248, -147339.6819638827, -22051.918155183575, -110890.08878351317, 76469.81048224098, -73810.28816822627, 68937.47376650259, -106210.54991609453, -0.016, 0.96, -0.04, 192.0, 0.0, 0.0, 0.0, 0.0, 0.0, 0.0, 0.0, 0.0, 0.0, 1.6664065735530632E9, 0.0, 2022-10-21 19:42:53.553
66.0, -140031.6897072422, -147329.89189981128, -22047.738378970433, -110886.64661486706, 76478.28179338954, -73920.28110269083, 68878.62162335178, -106231.89583204935, -0.016, 0.96, -0.044, 192.0, 255.0, 128.0, 30.0, 0.0, 254.0, 160.0, 0.0, 0.0, 0.0, 1.6664065735530777E9, 0.0, 2022-10-21 19:42:53.553
67.0, -140040.80921898, -147336.66447838122, -22055.337972085235, -110883.80794332123, 76478.28179338954, -73943.63867564662, 68883.18137922065, -106214.03678822957, -0.016, 0.96, -0.044, 192.0, 0.0, 0.0, 0.0, 0.0, 0.0, 0.0, 0.0, 0.0, 0.0, 1.6664065735530927E9, 0.0, 2022-10-21 19:42:53.553
68.0, -140045.92776846024, -147346.29808024145, -22063.049323922318, -110884.27732995478, 76470.32457236345, -73836.79733715026, 68942.5699642384, -106187.79584023904, -0.016, 0.96, -0.044, 192.0, 0.0, 0.0, 0.0, 0.0, 0.0, 0.0, 0.0, 0.0, 0.0, 1.6664065735531073E9, 0.0, 2022-10-21 19:42:53.553
69.0, -140042.73146900313, -147344.30877498494, -22064.03280067835, -110889.15001024604, 76466.52477580604, -73785.83535979217, 68944.49221426157, -106210.3711021389, -0.016, 0.96, -0.044, 192.0, 0.0, 0.0, 0.0, 0.0, 0.0, 0.0, 0.0, 0.0, 0.0, 1.6664065735531213E9, 0.0, 2022-10-21 19:42:53.553
70.0, -140041.72564050267, -147344.01820230702, -22063.161082644594, -110901.75639411884, 76468.31291536248, -73885.34532610718, 68881.28148094195, -106241.39532344286, -0.016, 0.96, -0.044, 192.0, 0.0, 0.0, 0.0, 0.0, 0.0, 0.0, 0.0, 0.0, 0.0, 1.666406573553137E9, 0.0, 2022-10-21 19:42:53.553
71.0, -140046.21834113818, -147344.06290579593, -22061.97644018846, -110893.44154518147, 76474.9960869546, -73944.13041402465, 68871.71493431508, -106224.83268080148, -0.016, 0.96, -0.044, 192.0, 0.0, 0.0, 0.0, 0.0, 0.0, 0.0, 0.0, 0.0, 0.0, 1.6664065735531514E9, 0.0, 2022-10-21 19:42:53.553
72.0, -140050.42046909578, -147347.59448141986, -22063.004620433407, -110880.7234025864, 76472.8950229758, -73857.36094204914, 68933.09282458936, -106192.04267168554, -0.016, 0.96, -0.044, 192.0, 0.0, 0.0, 0.0, 0.0, 0.0, 0.0, 0.0, 0.0, 0.0, 1.6664065735531657E9, 0.0, 2022-10-21 19:42:53.553
73.0, -140048.83349523944, -147346.029859308, -22063.429303578057, -110890.28994921327, 76465.56365079447, -73801.10160125514, 68949.81192944193, -106200.4692793452, -0.016, 0.96, -0.044, 192.0, 0.0, 0.0, 0.0, 0.0, 0.0, 0.0, 0.0, 0.0, 0.0, 1.6664065735531929E9, 0.0, 2022-10-21 19:42:53.553
74.0, -140046.73243126064, -147341.7830278615, -22067.586728046743, -110905.06445229823, 76464.49076706062, -73882.79722723928, 68892.27853921396, -106233.63926811687, -0.016, 0.96, -0.044, 192.0, 0.0, 0.0, 0.0, 0.0, 0.0, 0.0, 0.0, 0.0, 0.0, 1.6664065735532072E9, 0.0, 2022-10-21 19:42:53.553
75.0, -140047.9617772057, -147343.034725551, -22072.52646357137, -110907.0314058103, 76459.01458966907, -73964.91753636808, 68863.60125107781, -106228.38660816988, -0.01, 0.962, -0.038, 192.0, 255.0, 176.0, 30.0, 16.0, 254.0, 208.0, 0.0, 0.0, 0.0, 1.6664065735532212E9, 0.0, 2022-10-21 19:42:53.553
76.0, -140054.77905926455, -147348.84617910936, -22071.140655415136, -110888.83708582367, 76464.28960136052, -73887.91577671954, 68924.73327216307, -106191.2156571407, -0.01, 0.962, -0.038, 192.0, 0.0, 0.0, 0.0, 0.0, 0.0, 0.0, 0.0, 0.0, 0.0, 1.6664065735532367E9, 0.0, 2022-10-21 19:42:53.553
77.0, -140052.2533121411, -147344.95697557414, -22066.960879201997, -110882.28802469827, 76468.29056361802, -73782.01321149031, 68970.35318259636, -106188.24287512814, -0.01, 0.962, -0.038, 192.0, 0.0, 0.0, 0.0, 0.0, 0.0, 0.0, 0.0, 0.0, 0.0, 1.666406573553251E9, 0.0, 2022-10-21 19:42:53.553
78.0, -140048.2523498836, -147340.75484761654, -22074.247547894425, -110894.15680100404, 76461.85326121488, -73843.72637793141, 68916.2619610145, -106227.53724188058, -0.01, 0.962, -0.038, 192.0, 0.0, 0.0, 0.0, 0.0, 0.0, 0.0, 0.0, 0.0, 0.0, 1.666406573553265E9, 0.0, 2022-10-21 19:42:53.553
79.0, -140041.546826547, -147331.79179808998, -22071.09595192623, -110885.14904798855, 76468.08939791792, -73938.52012616636, 68878.33105067385, -106226.8666895469, -0.01, 0.962, -0.038, 192.0, 0.0, 0.0, 0.0, 0.0, 0.0, 0.0, 0.0, 0.0, 0.0, 1.6664065735532796E9, 0.0, 2022-10-21 19:42:53.553
80.0, -140054.80141100902, -147344.50994068503, -22085.42342012208, -110885.08199275518, 76456.91352569027, -73906.55713159527, 68908.90823708872, -106208.38179688237, -0.01, 0.962, -0.038, 192.0, 0.0, 0.0, 0.0, 0.0, 0.0, 0.0, 0.0, 0.0, 0.0, 1.6664065735532937E9, 0.0, 2022-10-21 19:42:53.553
81.0, -140062.53511459054, -147354.50117045655, -22098.029803994872, -110898.44833593945, 76445.71530171816, -73813.86444733912, 68945.22982182859, -106209.70054980523, -0.01, 0.962, -0.038, 192.0, 0.0, 0.0, 0.0, 0.0, 0.0, 0.0, 0.0, 0.0, 0.0, 1.6664065735533094E9, 0.0, 2022-10-21 19:42:53.553
82.0, -140058.98118722215, -147353.22712102262, -22102.366042419202, -110908.37251047761, 76445.2459150846, -73845.04513085427, 68901.44275444064, -106245.79861710056, -0.01, 0.962, -0.038, 192.0, 0.0, 0.0, 0.0, 0.0, 0.0, 0.0, 0.0, 0.0, 0.0, 1.6664065735533235E9, 0.0, 2022-10-21 19:42:53.553
83.0, -140052.6109400524, -147346.40983896374, -22099.99675750694, -110903.38807146408, 76452.53258377702, -73950.00892281639, 68852.49243408351, -106252.30297473705, -0.01, 0.962, -0.038, 192.0, 0.0, 0.0, 0.0, 0.0, 0.0, 0.0, 0.0, 0.0, 0.0, 1.666406573553338E9, 0.0, 2022-10-21 19:42:53.553
84.0, -140058.57885582195, -147350.09787679886, -22100.600254607234, -110891.83221958068, 76452.8455081994, -73929.98175978444, 68881.9073297867, -106225.10090173494, -0.01, 0.962, -0.038, 192.0, 0.0, 0.0, 0.0, 0.0, 0.0, 0.0, 0.0, 0.0, 0.0, 1.6664065735533526E9, 0.0, 2022-10-21 19:42:53.553
85.0, -140065.39613788083, -147357.31749025793, -22106.3670046767, -110891.22872248039, 76446.0952813739, -73828.41543297953, 68932.64578970025, -106211.15341319483, -0.01, 0.9560000000000001, -0.044, 192.0, 255.0, 176.0, 29.0, 224.0, 254.0, 160.0, 0.0, 0.0, 0.0, 1.666406573553367E9, 0.0, 2022-10-21 19:42:53.553
86.0, -140070.51468736108, -147363.19599904967, -22114.41363268061, -110905.01974880931, 76442.16137434976, -73831.11999405861, 68903.29794923043, -106247.18442525678, -0.01, 0.9560000000000001, -0.044, 192.0, 0.0, 0.0, 0.0, 0.0, 0.0, 0.0, 0.0, 0.0, 0.0, 1.6664065735533824E9, 0.0, 2022-10-21 19:42:53.553
87.0, -140060.03171921155, -147353.54004544497, -22109.406841922624, -110908.21604826642, 76447.7493104636, -73935.1003092647, 68846.18924214713, -106266.89866386636, -0.01, 0.9560000000000001, -0.044, 192.0, 0.0, 0.0, 0.0, 0.0, 0.0, 0.0, 0.0, 0.0, 0.0, 1.6664065735533967E9, 0.0, 2022-10-21 19:42:53.553
88.0, -140058.57885582195, -147352.3330512444, -22108.177495977583, -110895.22968473789, 76452.1973076102, -73944.06335879127, 68863.95887898908, -106239.89775656436, -0.01, 0.9560000000000001, -0.044, 192.0, 0.0, 0.0, 0.0, 0.0, 0.0, 0.0, 0.0, 0.0, 0.0, 1.666406573553424E9, 0.0, 2022-10-21 19:42:53.553
89.0, -140064.27855065805, -147355.75286814605, -22113.027824524383, -110888.25594046783, 76451.7502727211, -73817.21720900742, 68931.50585073302, -106216.49548011964, -0.01, 0.9560000000000001, -0.044, 192.0, 0.0, 0.0, 0.0, 0.0, 0.0, 0.0, 0.0, 0.0, 0.0, 1.6664065735534387E9, 0.0, 2022-10-21 19:42:53.553
90.0, -140059.22705641115, -147350.72372564362, -22113.00547277993, -110898.2248184949, 76446.47526102964, -73798.06176400921, 68919.50296396053, -106243.11640776592, -0.01, 0.9560000000000001, -0.044, 192.0, 0.0, 0.0, 0.0, 0.0, 0.0, 0.0, 0.0, 0.0, 0.0, 1.6664065735534525E9, 0.0, 2022-10-21 19:42:53.553
91.0, -140047.73825976113, -147339.14552201575, -22098.342728417247, -110891.85457132514, 76461.29446760351, -73902.4444106155, 68864.003582478, -106257.22035851722, -0.01, 0.9560000000000001, -0.044, 192.0, 0.0, 0.0, 0.0, 0.0, 0.0, 0.0, 0.0, 0.0, 0.0, 1.666406573553467E9, 0.0, 2022-10-21 19:42:53.553
92.0, -140053.9520447197, -147346.65570815274, -22098.81211505081, -110888.34534744566, 76465.22837462764, -73936.68728312103, 68866.23875692353, -106240.2777362201, -0.01, 0.9560000000000001, -0.044, 192.0, 0.0, 0.0, 0.0, 0.0, 0.0, 0.0, 0.0, 0.0, 0.0, 1.6664065735534825E9, 0.0, 2022-10-21 19:42:53.553
93.0, -140065.23967566964, -147358.14450480277, -22109.384490178167, -110881.23749270887, 76456.13121463433, -73840.17245056301, 68923.68274017367, -106215.28848591907, -0.01, 0.9560000000000001, -0.044, 192.0, 0.0, 0.0, 0.0, 0.0, 0.0, 0.0, 0.0, 0.0, 0.0, 1.6664065735534968E9, 0.0, 2022-10-21 19:42:53.553
94.0, -140066.04433847003, -147357.85393212485, -22108.64688261114, -110889.15001024604, 76452.53258377702, -73806.6224821356, 68929.18126930967, -106223.58098311198, -0.01, 0.9560000000000001, -0.044, 192.0, 0.0, 0.0, 0.0, 0.0, 0.0, 0.0, 0.0, 0.0, 0.0, 1.666406573553511E9, 0.0, 2022-10-21 19:42:53.553
95.0, -140061.2610651566, -147354.56822568993, -22101.382565663167, -110886.31133870022, 76466.81534848397, -73892.20731165497, 68876.31939367288, -106250.38072471389, -0.014, 0.96, -0.046, 192.0, 255.0, 144.0, 30.0, 0.0, 254.0, 144.0, 0.0, 0.0, 0.0, 1.6664065735535252E9, 0.0, 2022-10-21 19:42:53.553
96.0, -140059.18235292225, -147354.74703964556, -22100.935530774062, -110882.33272818718, 76471.48686307513, -73947.23730650393, 68866.19405343462, -106235.80738732904, -0.014, 0.96, -0.046, 192.0, 0.0, 0.0, 0.0, 0.0, 0.0, 0.0, 0.0, 0.0, 0.0, 1.6664065735535405E9, 0.0, 2022-10-21 19:42:53.553
97.0, -140067.02781522606, -147365.2300077951, -22106.970501776996, -110871.93916701546, 76467.17297639525, -73868.5368142768, 68922.45339422864, -106201.13983167885, -0.014, 0.96, -0.046, 192.0, 0.0, 0.0, 0.0, 0.0, 0.0, 0.0, 0.0, 0.0, 0.0, 1.6664065735535567E9, 0.0, 2022-10-21 19:42:53.553
98.0, -140069.15123094933, -147364.87237988383, -22112.37962393518, -110882.55624563173, 76460.37804608083, -73793.47965639588, 68944.53691775048, -106210.77343353909, -0.014, 0.96, -0.046, 192.0, 0.0, 0.0, 0.0, 0.0, 0.0, 0.0, 0.0, 0.0, 0.0, 1.666406573553571E9, 0.0, 2022-10-21 19:42:53.553
99.0, -140058.4670970997, -147355.46229546814, -22107.819868066297, -110895.94494056045, 76459.72984549163, -73879.44446557098, 68889.48457115705, -106241.50708216515, -0.014, 0.96, -0.046, 192.0, 0.0, 0.0, 0.0, 0.0, 0.0, 0.0, 0.0, 0.0, 0.0, 1.6664065735535948E9, 0.0, 2022-10-21 19:42:53.553
100.0, -140059.3611668779, -147357.78687689148, -22110.546780889843, -110892.10044051414, 76464.66958101626, -73952.64642866212, 68863.44478886662, -106238.1319687524, -0.014, 0.96, -0.046, 192.0, 0.0, 0.0, 0.0, 0.0, 0.0, 0.0, 0.0, 0.0, 0.0, 1.666406573553609E9, 0.0, 2022-10-21 19:42:53.553
101.0, -140061.55163783452, -147361.36315600434, -22113.05017626884, -110880.90221654203, 76463.88726996032, -73879.8915004601, 68917.33484474836, -106204.98433172517, -0.014, 0.96, -0.046, 192.0, 0.0, 0.0, 0.0, 0.0, 0.0, 0.0, 0.0, 0.0, 0.0, 1.666406573553623E9, 0.0, 2022-10-21 19:42:53.553
102.0, -140059.78585002254, -147356.19990303516, -22115.017129780907, -110883.74088808786, 76461.65209551479, -73772.82664451917, 68957.45622604564, -106201.54216307905, -0.014, 0.96, -0.046, 192.0, 0.0, 0.0, 0.0, 0.0, 0.0, 0.0, 0.0, 0.0, 0.0, 1.6664065735536375E9, 0.0, 2022-10-21 19:42:53.553
103.0, -140054.6673005423, -147348.10857154234, -22111.038519267862, -110895.74377486037, 76460.53450829202, -73828.28132251279, 68908.48355394407, -106232.83460531649, -0.014, 0.96, -0.046, 192.0, 0.0, 0.0, 0.0, 0.0, 0.0, 0.0, 0.0, 0.0, 0.0, 1.6664065735536652E9, 0.0, 2022-10-21 19:42:53.553
104.0, -140062.89274250183, -147357.25043502456, -22118.7722228494, -110905.95852207644, 76452.55493552148, -73939.36949245566, 68856.35928587429, -106248.43612294628, -0.014, 0.96, -0.046, 192.0, 0.0, 0.0, 0.0, 0.0, 0.0, 0.0, 0.0, 0.0, 0.0, 1.6664065735536797E9, 0.0, 2022-10-21 19:42:53.553
105.0, -140063.58564657994, -147361.6313769378, -22121.65559788413, -110890.53581840228, 76454.34307507791, -73906.11009670616, 68896.88299857176, -106219.73648306567, -0.01, 0.9580000000000001, -0.05, 192.0, 255.0, 176.0, 29.0, 240.0, 254.0, 112.0, 0.0, 0.0, 0.0, 1.666406573553694E9, 0.0, 2022-10-21 19:42:53.553
106.0, -140072.03460598405, -147371.1755718202, -22135.75954863543, -110895.81083009373, 76445.62589474034, -73796.40773491953, 68940.98299038208, -106219.42355864329, -0.01, 0.9580000000000001, -0.05, 192.0, 0.0, 0.0, 0.0, 0.0, 0.0, 0.0, 0.0, 0.0, 0.0, 1.6664065735537095E9, 0.0, 2022-10-21 19:42:53.553
107.0, -140067.47485011516, -147367.30872002945, -22132.451490456046, -110907.00905406584, 76446.67642672974, -73824.19095327747, 68902.85091434132, -106253.15234102635, -0.01, 0.9580000000000001, -0.05, 192.0, 0.0, 0.0, 0.0, 0.0, 0.0, 0.0, 0.0, 0.0, 0.0, 1.666406573553724E9, 0.0, 2022-10-21 19:42:53.553
108.0, -140050.73339351814, -147350.79078087697, -22120.56036240582, -110896.63784463858, 76455.50536578958, -73939.68241687804, 68846.79273924741, -106264.50702720965, -0.01, 0.9580000000000001, -0.05, 192.0, 0.0, 0.0, 0.0, 0.0, 0.0, 0.0, 0.0, 0.0, 0.0, 1.666406573553738E9, 0.0, 2022-10-21 19:42:53.553
109.0, -140048.9005504728, -147349.3826209763, -22119.353368205237, -110877.05771649572, 76463.46258681567, -73935.5026406649, 68872.74311456003, -106235.96384954022, -0.01, 0.9580000000000001, -0.05, 192.0, 0.0, 0.0, 0.0, 0.0, 0.0, 0.0, 0.0, 0.0, 0.0, 1.6664065735537524E9, 0.0, 2022-10-21 19:42:53.553
110.0, -140066.17844893676, -147365.81115315095, -22131.557420677833, -110885.3725654331, 76455.41595881176, -73817.35131947414, 68928.55542046492, -106223.04454124505, -0.01, 0.9580000000000001, -0.05, 192.0, 0.0, 0.0, 0.0, 0.0, 0.0, 0.0, 0.0, 0.0, 0.0, 1.6664065735537667E9, 0.0, 2022-10-21 19:42:53.553
111.0, -140056.6119023099, -147355.75286814605, -22128.584638665277, -110889.90996955753, 76456.42178731225, -73810.71285137092, 68909.04234755544, -106250.04544854707, -0.01, 0.9580000000000001, -0.05, 192.0, 0.0, 0.0, 0.0, 0.0, 0.0, 0.0, 0.0, 0.0, 0.0, 1.6664065735537813E9, 0.0, 2022-10-21 19:42:53.553
112.0, -140048.2076463947, -147346.56630117493, -22126.908257831128, -110893.73211785938, 76463.41788332677, -73914.67081483256, 68850.7042945271, -106272.17367555782, -0.01, 0.9580000000000001, -0.05, 192.0, 0.0, 0.0, 0.0, 0.0, 0.0, 0.0, 0.0, 0.0, 0.0, 1.6664065735537963E9, 0.0, 2022-10-21 19:42:53.553
113.0, -140054.309672631, -147349.33791748737, -22128.294065987357, -110884.18792297697, 76465.78716823903, -73928.70771035049, 68864.13769294473, -106247.27383223461, -0.01, 0.9580000000000001, -0.05, 192.0, 0.0, 0.0, 0.0, 0.0, 0.0, 0.0, 0.0, 0.0, 0.0, 1.6664065735538123E9, 0.0, 2022-10-21 19:42:53.553
114.0, -140064.94910299173, -147357.31749025793, -22134.083167801284, -110879.73992583036, 76458.38874082432, -73831.16469754753, 68922.7216151621, -106218.64124758737, -0.014, 0.964, -0.048, 192.0, 255.0, 144.0, 30.0, 32.0, 254.0, 128.0, 0.0, 0.0, 0.0, 1.6664065735538263E9, 0.0, 2022-10-21 19:42:53.553
115.0, -140065.6643588143, -147358.79270539197, -22136.541859691366, -110890.02172827981, 76456.77941522353, -73796.34067968615, 68925.80615589692, -106236.0309047736, -0.014, 0.964, -0.048, 192.0, 0.0, 0.0, 0.0, 0.0, 0.0, 0.0, 0.0, 0.0, 0.0, 1.6664065735538416E9, 0.0, 2022-10-21 19:42:53.553
116.0, -140058.8694284999, -147352.10953379984, -22139.04525507036, -110894.40267019304, 76463.82021472696, -73882.70782026146, 68866.93166100164, -106266.27281502161, -0.014, 0.964, -0.048, 192.0, 0.0, 0.0, 0.0, 0.0, 0.0, 0.0, 0.0, 0.0, 0.0, 1.666406573553856E9, 0.0, 2022-10-21 19:42:53.553
117.0, -140063.65270181332, -147354.59057743437, -22144.163804550626, -110882.95857703192, 76464.11078740488, -73930.6523121181, 68854.83936725132, -106253.37585847091, -0.014, 0.964, -0.048, 192.0, 0.0, 0.0, 0.0, 0.0, 0.0, 0.0, 0.0, 0.0, 0.0, 1.6664065735538704E9, 0.0, 2022-10-21 19:42:53.553
118.0, -140063.9656262357, -147355.99873733506, -22141.213374282524, -110865.6136233346, 76468.55878455148, -73841.5359069748, 68916.59723718134, -106215.62376208589, -0.014, 0.964, -0.048, 192.0, 0.0, 0.0, 0.0, 0.0, 0.0, 0.0, 0.0, 0.0, 0.0, 1.666406573553978E9, 0.0, 2022-10-21 19:42:53.553
119.0, -140068.07834721546, -147360.55849320395, -22147.51656621892, -110877.81767580721, 76465.63070602783, -73791.49035113935, 68927.8178128979, -106227.69370409175, -0.014, 0.964, -0.048, 192.0, 0.0, 0.0, 0.0, 0.0, 0.0, 0.0, 0.0, 0.0, 0.0, 1.6664065735539925E9, 0.0, 2022-10-21 19:42:53.553
120.0, -140065.28437915855, -147356.93751060218, -22145.370798751213, -110878.0188415073, 76475.48782533263, -73870.1908433665, 68878.93454777414, -106256.86273060594, -0.014, 0.964, -0.048, 192.0, 0.0, 0.0, 0.0, 0.0, 0.0, 0.0, 0.0, 0.0, 0.0, 1.6664065735540073E9, 0.0, 2022-10-21 19:42:53.554
121.0, -140063.69740530223, -147355.9316821017, -22141.99568533846, -110871.11215247061, 76477.4994823336, -73944.17511751356, 68861.14255918772, -106247.13972176788, -0.014, 0.964, -0.048, 192.0, 0.0, 0.0, 0.0, 0.0, 0.0, 0.0, 0.0, 0.0, 0.0, 1.6664065740305288E9, 0.0, 2022-10-21 19:42:54.030
122.0, -140068.25716117112, -147364.51475197254, -22145.080226073293, -110862.6184895776, 76477.58888931143, -73866.18988110899, 68918.47478371559, -106213.34388415146, -0.014, 0.964, -0.048, 192.0, 0.0, 0.0, 0.0, 0.0, 0.0, 0.0, 0.0, 0.0, 0.0, 1.666406574030622E9, 0.0, 2022-10-21 19:42:54.030
123.0, -140079.63419909886, -147376.5399904895, -22157.731313434997, -110877.70591708492, 76466.39066533932, -73780.91797601199, 68944.11223460583, -106224.22918370119, -0.014, 0.964, -0.048, 192.0, 0.0, 0.0, 0.0, 0.0, 0.0, 0.0, 0.0, 0.0, 0.0, 1.6664065740306857E9, 0.0, 2022-10-21 19:42:54.030
124.0, -140082.65168460034, -147378.50694400156, -22166.00145888346, -110897.10723127214, 76458.14287163531, -73845.15688957655, 68883.58371062085, -106267.41275398884, -0.01, 0.96, -0.048, 192.0, 255.0, 176.0, 30.0, 0.0, 254.0, 128.0, 0.0, 0.0, 0.0, 1.666406574030718E9, 0.0, 2022-10-21 19:42:54.030
125.0, -140070.93937050574, -147365.1853043062, -22157.708961690543, -110890.2228939799, 76463.70845600468, -73937.17902149905, 68852.33597187234, -106259.0308498181, -0.01, 0.96, -0.048, 192.0, 0.0, 0.0, 0.0, 0.0, 0.0, 0.0, 0.0, 0.0, 0.0, 1.6664065740307372E9, 0.0, 2022-10-21 19:42:54.030
126.0, -140069.08417571595, -147366.81698165144, -22160.43587451409, -110879.73992583036, 76459.93101119173, -73890.37446860963, 68896.90535031621, -106222.97748601169, -0.01, 0.96, -0.048, 192.0, 0.0, 0.0, 0.0, 0.0, 0.0, 0.0, 0.0, 0.0, 0.0, 1.666406574030754E9, 0.0, 2022-10-21 19:42:54.030
127.0, -140070.35822514992, -147371.42144100924, -22158.111293090737, -110880.54458863076, 76458.16522337976, -73789.83632204967, 68946.74974045155, -106210.32639864998, -0.01, 0.96, -0.048, 192.0, 0.0, 0.0, 0.0, 0.0, 0.0, 0.0, 0.0, 0.0, 0.0, 1.6664065740307708E9, 0.0, 2022-10-21 19:42:54.030
128.0, -140065.23967566964, -147366.61581595134, -22156.367857023222, -110889.93232130198, 76462.25559261508, -73828.43778472398, 68908.93058883317, -106241.46237867622, -0.01, 0.96, -0.048, 192.0, 0.0, 0.0, 0.0, 0.0, 0.0, 0.0, 0.0, 0.0, 0.0, 1.6664065740307872E9, 0.0, 2022-10-21 19:42:54.030
129.0, -140061.79750702353, -147363.15129556076, -22160.2794123029, -110894.40267019304, 76460.24393561411, -73936.41906218756, 68858.19212891962, -106250.78305611409, -0.01, 0.96, -0.048, 192.0, 0.0, 0.0, 0.0, 0.0, 0.0, 0.0, 0.0, 0.0, 0.0, 1.6664065740308037E9, 0.0, 2022-10-21 19:42:54.030
130.0, -140069.08417571595, -147370.66148169775, -22170.315345563336, -110888.36769919012, 76451.52675527654, -73908.81465778526, 68884.79070482144, -106231.0688175045, -0.01, 0.96, -0.048, 192.0, 0.0, 0.0, 0.0, 0.0, 0.0, 0.0, 0.0, 0.0, 0.0, 1.6664065740308201E9, 0.0, 2022-10-21 19:42:54.030
131.0, -140072.32517866197, -147372.1366968318, -22172.751685708965, -110881.72923108688, 76448.26340058606, -73799.13464774306, 68936.89262114676, -106214.70734056323, -0.01, 0.96, -0.048, 192.0, 0.0, 0.0, 0.0, 0.0, 0.0, 0.0, 0.0, 0.0, 0.0, 1.6664065740308363E9, 0.0, 2022-10-21 19:42:54.030
132.0, -140065.77611753656, -147363.50892347205, -22166.3814385392, -110883.36090843212, 76451.48205178762, -73812.25512173833, 68906.31543473189, -106250.47013169172, -0.01, 0.96, -0.048, 192.0, 0.0, 0.0, 0.0, 0.0, 0.0, 0.0, 0.0, 0.0, 0.0, 1.6664065740308528E9, 0.0, 2022-10-21 19:42:54.030
133.0, -140066.15609719232, -147365.20765605065, -22169.622441485222, -110898.00130105035, 76446.7434819631, -73920.23639920192, 68843.30586711239, -106278.81214366105, -0.01, 0.96, -0.048, 192.0, 0.0, 0.0, 0.0, 0.0, 0.0, 0.0, 0.0, 0.0, 0.0, 1.6664065740310557E9, 0.0, 2022-10-21 19:42:54.031
134.0, -140061.10460294542, -147358.27861526952, -22163.38630478219, -110885.10434449963, 76450.76679596506, -73932.44045167453, 68864.45061736711, -106245.5303961671, -0.01, 0.9560000000000001, -0.048, 192.0, 255.0, 176.0, 29.0, 224.0, 254.0, 128.0, 0.0, 0.0, 0.0, 1.6664065740310793E9, 0.0, 2022-10-21 19:42:54.031
135.0, -140066.24550417013, -147366.0346705955, -22165.599127483267, -110879.82933280818, 76450.45387154268, -73829.08598531318, 68924.6215134408, -106215.71316906372, -0.01, 0.9560000000000001, -0.048, 192.0, 0.0, 0.0, 0.0, 0.0, 0.0, 0.0, 0.0, 0.0, 0.0, 1.666406574031098E9, 0.0, 2022-10-21 19:42:54.031
136.0, -140066.9607599927, -147369.96857761964, -22171.410581041644, -110892.9721585479, 76446.60937149636, -73799.78284833227, 68909.511734189, -106244.4798641777, -0.01, 0.9560000000000001, -0.048, 192.0, 0.0, 0.0, 0.0, 0.0, 0.0, 0.0, 0.0, 0.0, 0.0, 1.6664065740311143E9, 0.0, 2022-10-21 19:42:54.031
137.0, -140065.77611753656, -147368.22514155213, -22174.182197354105, -110905.28796974279, 76438.89801965929, -73927.59012312772, 68830.92300068415, -106282.65664370736, -0.01, 0.9560000000000001, -0.048, 192.0, 0.0, 0.0, 0.0, 0.0, 0.0, 0.0, 0.0, 0.0, 0.0, 1.666406574031131E9, 0.0, 2022-10-21 19:42:54.031
138.0, -140060.88108550085, -147362.83837113838, -22161.66522045913, -110884.29968169925, 76455.3489035784, -73961.36360899969, 68841.92005895615, -106255.4769224497, -0.01, 0.9560000000000001, -0.048, 192.0, 0.0, 0.0, 0.0, 0.0, 0.0, 0.0, 0.0, 0.0, 0.0, 1.6664065740311477E9, 0.0, 2022-10-21 19:42:54.031
139.0, -140067.63131232635, -147369.49919098607, -22165.48736876099, -110872.78853330476, 76457.18174662373, -73849.58253497869, 68908.93058883317, -106226.1737854688, -0.01, 0.9560000000000001, -0.048, 192.0, 0.0, 0.0, 0.0, 0.0, 0.0, 0.0, 0.0, 0.0, 0.0, 1.666406574031164E9, 0.0, 2022-10-21 19:42:54.031
140.0, -140072.2134199397, -147371.64495845378, -22171.745857208476, -110883.29385319876, 76451.16912736525, -73803.60499663412, 68908.50590568852, -106250.62659390291, -0.01, 0.9560000000000001, -0.048, 192.0, 0.0, 0.0, 0.0, 0.0, 0.0, 0.0, 0.0, 0.0, 0.0, 1.6664065740311806E9, 0.0, 2022-10-21 19:42:54.031
141.0, -140061.55163783452, -147361.76548740454, -22165.19679608307, -110884.85847531063, 76462.74733099311, -73901.70680304847, 68851.5536608164, -106273.91711162533, -0.01, 0.9560000000000001, -0.048, 192.0, 0.0, 0.0, 0.0, 0.0, 0.0, 0.0, 0.0, 0.0, 0.0, 1.6664065740311973E9, 0.0, 2022-10-21 19:42:54.031
142.0, -140062.64687331283, -147363.06188858295, -22169.24246182948, -110878.30941418522, 76468.15645315128, -73956.78150138634, 68840.6460095222, -106261.44483821928, -0.01, 0.9560000000000001, -0.048, 192.0, 0.0, 0.0, 0.0, 0.0, 0.0, 0.0, 0.0, 0.0, 0.0, 1.666406574031214E9, 0.0, 2022-10-21 19:42:54.031
143.0, -140070.53703910555, -147368.49336248558, -22175.322136321323, -110865.09953321214, 76466.41301708377, -73866.16752936454, 68898.33586196136, -106233.95219253925, -0.01, 0.9580000000000001, -0.048, 192.0, 255.0, 176.0, 29.0, 240.0, 254.0, 128.0, 0.0, 0.0, 0.0, 1.6664065740312304E9, 0.0, 2022-10-21 19:42:54.031
144.0, -140068.92771350476, -147366.52640897353, -22172.125836864216, -110866.99943149084, 76466.59183103942, -73786.8635400371, 68925.96261810811, -106237.59552688546, -0.01, 0.9580000000000001, -0.048, 192.0, 0.0, 0.0, 0.0, 0.0, 0.0, 0.0, 0.0, 0.0, 0.0, 1.666406574031248E9, 0.0, 2022-10-21 19:42:54.031
145.0, -140058.4670970997, -147355.9316821017, -22165.48736876099, -110872.49796062685, 76472.71620902017, -73861.76423570684, 68872.49724537102, -106264.5293789541, -0.01, 0.9580000000000001, -0.048, 192.0, 0.0, 0.0, 0.0, 0.0, 0.0, 0.0, 0.0, 0.0, 0.0, 1.6664065740312643E9, 0.0, 2022-10-21 19:42:54.031
146.0, -140064.72558554716, -147361.51961821553, -22171.499988019466, -110878.48822814086, 76466.45772057268, -73956.3568182417, 68838.67905601014, -106261.5342451971, -0.01, 0.9580000000000001, -0.048, 192.0, 0.0, 0.0, 0.0, 0.0, 0.0, 0.0, 0.0, 0.0, 0.0, 1.666406574031281E9, 0.0, 2022-10-21 19:42:54.031
147.0, -140075.94616126374, -147370.46031599765, -22180.798313712876, -110876.34246067316, 76462.63557227082, -73883.84775922868, 68892.77027759198, -106233.7286750947, -0.01, 0.9580000000000001, -0.048, 192.0, 0.0, 0.0, 0.0, 0.0, 0.0, 0.0, 0.0, 0.0, 0.0, 1.666406574031299E9, 0.0, 2022-10-21 19:42:54.031
148.0, -140072.99573099564, -147364.1347723168, -22181.558273024355, -110877.14712347355, 76458.14287163531, -73797.21239771991, 68931.12587107728, -106228.45366340324, -0.01, 0.9580000000000001, -0.048, 192.0, 0.0, 0.0, 0.0, 0.0, 0.0, 0.0, 0.0, 0.0, 0.0, 1.6664065740313833E9, 0.0, 2022-10-21 19:42:54.031
149.0, -140066.80429778152, -147357.71982165813, -22178.049049144873, -110885.73019334438, 76462.94849669319, -73851.05775011274, 68888.38933567874, -106258.65087016235, -0.01, 0.9580000000000001, -0.048, 192.0, 0.0, 0.0, 0.0, 0.0, 0.0, 0.0, 0.0, 0.0, 0.0, 1.6664065740314004E9, 0.0, 2022-10-21 19:42:54.031
150.0, -140071.90049551733, -147360.53614145948, -22185.268662603936, -110892.9721585479, 76459.21575536916, -73953.87577460716, 68842.43414907863, -106264.4846754652, -0.01, 0.9580000000000001, -0.048, 192.0, 0.0, 0.0, 0.0, 0.0, 0.0, 0.0, 0.0, 0.0, 0.0, 1.666406574031417E9, 0.0, 2022-10-21 19:42:54.031
151.0, -140089.98305678167, -147379.11044110186, -22201.898360478684, -110888.16653349002, 76452.4431767992, -73909.26169267436, 68878.17458846267, -106242.91524206582, -0.01, 0.9580000000000001, -0.048, 192.0, 0.0, 0.0, 0.0, 0.0, 0.0, 0.0, 0.0, 0.0, 0.0, 1.6664065740314333E9, 0.0, 2022-10-21 19:42:54.031
152.0, -140082.87520204487, -147373.5895602214, -22197.763287754453, -110886.02076602231, 76452.35376982138, -73804.00732803432, 68931.41644375521, -106224.40799765683, -0.01, 0.9580000000000001, -0.048, 192.0, 0.0, 0.0, 0.0, 0.0, 0.0, 0.0, 0.0, 0.0, 0.0, 1.66640657403145E9, 0.0, 2022-10-21 19:42:54.031
153.0, -140074.73916706315, -147369.09685958587, -22192.488276063, -110888.50180965684, 76461.98737168162, -73833.48927897088, 68901.12983001827, -106249.24078574668, -0.01, 0.9580000000000001, -0.05, 192.0, 255.0, 176.0, 29.0, 240.0, 254.0, 112.0, 0.0, 0.0, 0.0, 1.6664065740314665E9, 0.0, 2022-10-21 19:42:54.031
154.0, -140084.39512066785, -147377.65757771226, -22200.691366278097, -110898.425984195, 76457.96405767967, -73938.07309127726, 68845.85396598029, -106271.4807714797, -0.01, 0.9580000000000001, -0.05, 192.0, 0.0, 0.0, 0.0, 0.0, 0.0, 0.0, 0.0, 0.0, 0.0, 1.6664065740314844E9, 0.0, 2022-10-21 19:42:54.031
155.0, -140082.98696076716, -147371.1308683313, -22195.48340982001, -110884.5231991438, 76460.48980480312, -73931.27816096284, 68876.34174541733, -106236.45558791824, -0.01, 0.9580000000000001, -0.05, 192.0, 0.0, 0.0, 0.0, 0.0, 0.0, 0.0, 0.0, 0.0, 0.0, 1.6664065740315008E9, 0.0, 2022-10-21 19:42:54.031
156.0, -140078.98599850966, -147367.68869968518, -22193.91878770814, -110868.20642569143, 76466.90475546179, -73806.8236478357, 68944.53691775048, -106213.16507019581, -0.01, 0.9580000000000001, -0.05, 192.0, 0.0, 0.0, 0.0, 0.0, 0.0, 0.0, 0.0, 0.0, 0.0, 1.6664065740315194E9, 0.0, 2022-10-21 19:42:54.031
157.0, -140077.39902465334, -147370.16974331974, -22197.226845887526, -110884.21027472142, 76463.95432519368, -73802.91209255601, 68920.75466165003, -106253.577024171, -0.01, 0.9580000000000001, -0.05, 192.0, 0.0, 0.0, 0.0, 0.0, 0.0, 0.0, 0.0, 0.0, 0.0, 1.666406574031536E9, 0.0, 2022-10-21 19:42:54.031
158.0, -140076.08027173046, -147369.05215609696, -22193.5388080524, -110882.17626597598, 76471.86684273087, -73909.32874790773, 68862.72953304405, -106270.81021914605, -0.01, 0.9580000000000001, -0.05, 192.0, 0.0, 0.0, 0.0, 0.0, 0.0, 0.0, 0.0, 0.0, 0.0, 1.6664065740315523E9, 0.0, 2022-10-21 19:42:54.031
159.0, -140080.97530376617, -147373.52250498804, -22196.086906920304, -110870.48630362586, 76474.63845904333, -73924.12560273714, 68872.8548732823, -106249.84428284697, -0.01, 0.9580000000000001, -0.05, 192.0, 0.0, 0.0, 0.0, 0.0, 0.0, 0.0, 0.0, 0.0, 0.0, 1.666406574031569E9, 0.0, 2022-10-21 19:42:54.031
160.0, -140093.04524577205, -147389.57105750692, -22209.38619487121, -110879.82933280818, 76463.88726996032, -73808.09769726965, 68927.34842626435, -106235.40505592884, -0.01, 0.9580000000000001, -0.05, 192.0, 0.0, 0.0, 0.0, 0.0, 0.0, 0.0, 0.0, 0.0, 0.0, 1.6664065740315857E9, 0.0, 2022-10-21 19:42:54.031
161.0, -140088.8654695589, -147388.8334499399, -22209.296787893392, -110892.41336493652, 76456.48884254562, -73782.90728126852, 68915.2114290251, -106262.29420450858, -0.01, 0.9580000000000001, -0.05, 192.0, 0.0, 0.0, 0.0, 0.0, 0.0, 0.0, 0.0, 0.0, 0.0, 1.666406574031602E9, 0.0, 2022-10-21 19:42:54.031
162.0, -140078.7624810651, -147376.24941781157, -22198.277377876926, -110893.32978645919, 76465.11661590537, -73891.26853838784, 68854.72760852905, -106282.23196056271, -0.01, 0.9580000000000001, -0.05, 192.0, 0.0, 0.0, 0.0, 0.0, 0.0, 0.0, 0.0, 0.0, 0.0, 1.6664065740316184E9, 0.0, 2022-10-21 19:42:54.031
163.0, -140083.76927182308, -147380.29508355798, -22206.391061114202, -110886.71367010042, 76461.56268853697, -73944.13041402465, 68840.37778858874, -106275.12410582592, -0.006, 0.96, -0.048, 192.0, 255.0, 208.0, 30.0, 0.0, 254.0, 128.0, 0.0, 0.0, 0.0, 1.666406574031653E9, 0.0, 2022-10-21 19:42:54.031
164.0, -140088.4184346698, -147387.42529003922, -22216.650511819185, -110880.05285025273, 76454.81246171147, -73851.08010185721, 68891.65269036921, -106255.18634977179, -0.006, 0.96, -0.048, 192.0, 0.0, 0.0, 0.0, 0.0, 0.0, 0.0, 0.0, 0.0, 0.0, 1.6664065740316715E9, 0.0, 2022-10-21 19:42:54.031
165.0, -140085.66917010178, -147386.95590340567, -22216.650511819185, -110889.86526606862, 76450.20800235367, -73799.04524076525, 68902.13565851876, -106270.49729472367, -0.006, 0.96, -0.048, 192.0, 0.0, 0.0, 0.0, 0.0, 0.0, 0.0, 0.0, 0.0, 0.0, 1.666406574031688E9, 0.0, 2022-10-21 19:42:54.031
166.0, -140079.58949560995, -147382.19498183668, -22208.715642537554, -110893.03921378127, 76463.50729030458, -73879.10918940416, 68852.93946897262, -106291.86556242294, -0.006, 0.96, -0.048, 192.0, 0.0, 0.0, 0.0, 0.0, 0.0, 0.0, 0.0, 0.0, 0.0, 1.6664065740317042E9, 0.0, 2022-10-21 19:42:54.031
167.0, -140087.12203349138, -147389.8839819293, -22212.761308283963, -110892.1227922586, 76464.55782229398, -73943.07988203525, 68832.53232628493, -106279.79562041708, -0.006, 0.96, -0.048, 192.0, 0.0, 0.0, 0.0, 0.0, 0.0, 0.0, 0.0, 0.0, 0.0, 1.6664065740317209E9, 0.0, 2022-10-21 19:42:54.031
168.0, -140087.90434454734, -147387.76056620607, -22212.023700716938, -110872.85558853814, 76469.65402002979, -73852.77883443581, 68895.9665770491, -106244.79278860007, -0.006, 0.96, -0.048, 192.0, 0.0, 0.0, 0.0, 0.0, 0.0, 0.0, 0.0, 0.0, 0.0, 1.666406574031737E9, 0.0, 2022-10-21 19:42:54.031
169.0, -140082.3164084335, -147383.3796242928, -22214.92942749613, -110875.40368740604, 76466.45772057268, -73763.61772580359, 68924.73327216307, -106252.37002997042, -0.006, 0.96, -0.048, 192.0, 0.0, 0.0, 0.0, 0.0, 0.0, 0.0, 0.0, 0.0, 0.0, 1.666406574031754E9, 0.0, 2022-10-21 19:42:54.031
170.0, -140073.66628332928, -147375.9364933892, -22212.73895653951, -110889.73115560188, 76461.22741237014, -73849.35901753414, 68861.32137314336, -106290.36799554444, -0.006, 0.96, -0.048, 192.0, 0.0, 0.0, 0.0, 0.0, 0.0, 0.0, 0.0, 0.0, 0.0, 1.6664065740317702E9, 0.0, 2022-10-21 19:42:54.031
171.0, -140071.36405365038, -147370.57207471994, -22208.15684892617, -110888.77003059031, 76463.01555192657, -73948.1537280266, 68828.35255007178, -106283.48365825221, -0.006, 0.96, -0.048, 192.0, 0.0, 0.0, 0.0, 0.0, 0.0, 0.0, 0.0, 0.0, 0.0, 1.666406574031787E9, 0.0, 2022-10-21 19:42:54.031
172.0, -140076.77317580857, -147375.1318305888, -22207.15102042568, -110876.74479207335, 76467.32943860644, -73882.97604119492, 68885.505960644, -106243.11640776592, -0.006, 0.96, -0.048, 192.0, 0.0, 0.0, 0.0, 0.0, 0.0, 0.0, 0.0, 0.0, 0.0, 1.6664065740318031E9, 0.0, 2022-10-21 19:42:54.031
173.0, -140081.77996656657, -147382.2396853256, -22208.11214543726, -110885.5737311332, 76460.31099084747, -73789.23282494937, 68928.8236413984, -106241.79765484306, -0.002, 0.9560000000000001, -0.04, 192.0, 255.0, 240.0, 29.0, 224.0, 254.0, 192.0, 0.0, 0.0, 0.0, 1.66640657403182E9, 0.0, 2022-10-21 19:42:54.031
174.0, -140078.29309443154, -147378.529295746, -22208.693290793097, -110898.38128070609, 76459.90865944728, -73838.07138658421, 68881.57205361988, -106282.56723672953, -0.002, 0.9560000000000001, -0.04, 192.0, 0.0, 0.0, 0.0, 0.0, 0.0, 0.0, 0.0, 0.0, 0.0, 1.6664065740318391E9, 0.0, 2022-10-21 19:42:54.031
175.0, -140078.7624810651, -147377.94815039018, -22210.503782093976, -110901.21995225191, 76462.65792401528, -73929.91470455108, 68837.248544365, -106292.06672812304, -0.002, 0.9560000000000001, -0.04, 192.0, 0.0, 0.0, 0.0, 0.0, 0.0, 0.0, 0.0, 0.0, 0.0, 1.6664065740318553E9, 0.0, 2022-10-21 19:42:54.031
176.0, -140077.17550720877, -147374.41657476625, -22208.737994282008, -110892.56982714772, 76459.01458966907, -73917.48713463392, 68872.51959711548, -106261.73541089719, -0.002, 0.9560000000000001, -0.04, 192.0, 0.0, 0.0, 0.0, 0.0, 0.0, 0.0, 0.0, 0.0, 0.0, 1.6664065740318718E9, 0.0, 2022-10-21 19:42:54.031
177.0, -140085.1103764904, -147384.05017662648, -22213.47656410653, -110884.41144042152, 76461.92031644826, -73792.42912440648, 68943.08405436088, -106243.60814614393, -0.002, 0.9560000000000001, -0.04, 192.0, 0.0, 0.0, 0.0, 0.0, 0.0, 0.0, 0.0, 0.0, 0.0, 1.6664065740318904E9, 0.0, 2022-10-21 19:42:54.031
178.0, -140079.07540548747, -147374.6847956997, -22211.73312803902, -110897.33074871669, 76461.27211585906, -73801.45922916642, 68922.90042911774, -106274.02887034761, -0.002, 0.9560000000000001, -0.04, 192.0, 0.0, 0.0, 0.0, 0.0, 0.0, 0.0, 0.0, 0.0, 0.0, 1.666406574031923E9, 0.0, 2022-10-21 19:42:54.031
179.0, -140072.36988215087, -147364.73826941708, -22202.747726767986, -110893.01686203682, 76472.93972646473, -73908.21116068496, 68882.57788212036, -106277.336928527, -0.002, 0.9560000000000001, -0.04, 192.0, 0.0, 0.0, 0.0, 0.0, 0.0, 0.0, 0.0, 0.0, 0.0, 1.6664065740319395E9, 0.0, 2022-10-21 19:42:54.031
180.0, -140079.25421944313, -147369.8791706418, -22207.888627992706, -110885.26080671082, 76469.25168862959, -73917.28596893382, 68905.26490274249, -106249.03962004658, -0.002, 0.9560000000000001, -0.04, 192.0, 0.0, 0.0, 0.0, 0.0, 0.0, 0.0, 0.0, 0.0, 0.0, 1.666406574031957E9, 0.0, 2022-10-21 19:42:54.031
181.0, -140089.69248410375, -147379.44571726868, -22213.990654229005, -110877.25888219582, 76466.36831359487, -73809.81878159271, 68967.82743547291, -106230.3759134264, -0.002, 0.9560000000000001, -0.04, 192.0, 0.0, 0.0, 0.0, 0.0, 0.0, 0.0, 0.0, 0.0, 0.0, 1.6664065740319734E9, 0.0, 2022-10-21 19:42:54.031
182.0, -140086.02679801307, -147376.8752666563, -22214.54944784039, -110877.48239964037, 76473.34205786492, -73779.06278122221, 68962.50772029255, -106255.49927419417, -0.012, 0.964, -0.04, 192.0, 255.0, 160.0, 30.0, 32.0, 254.0, 192.0, 0.0, 0.0, 0.0, 1.6664065740319896E9, 0.0, 2022-10-21 19:42:54.031
183.0, -140081.53409737756, -147372.67313869874, -22214.437689118113, -110892.50277191434, 76469.56461305197, -73890.55328256528, 68901.77803060747, -106281.91903614033, -0.012, 0.964, -0.04, 192.0, 0.0, 0.0, 0.0, 0.0, 0.0, 0.0, 0.0, 0.0, 0.0, 1.6664065740320077E9, 0.0, 2022-10-21 19:42:54.032
184.0, -140076.72847231966, -147367.62164445184, -22207.73216578152, -110868.54170185825, 76480.807540513, -73918.09063173422, 68913.04330981294, -106254.67225964932, -0.012, 0.964, -0.04, 192.0, 0.0, 0.0, 0.0, 0.0, 0.0, 0.0, 0.0, 0.0, 0.0, 1.666406574032024E9, 0.0, 2022-10-21 19:42:54.032
185.0, -140089.64778061485, -147378.99868237958, -22215.82349727434, -110854.77302727378, 76482.1486451803, -73803.89556931205, 68981.19377865718, -106224.40799765683, -0.012, 0.964, -0.04, 192.0, 0.0, 0.0, 0.0, 0.0, 0.0, 0.0, 0.0, 0.0, 0.0, 1.6664065740320408E9, 0.0, 2022-10-21 19:42:54.032
186.0, -140097.78381559657, -147386.75473770557, -22229.3463026698, -110881.23749270887, 76470.77160725255, -73755.10171116612, 68976.29874662147, -106258.15913178434, -0.012, 0.964, -0.04, 192.0, 0.0, 0.0, 0.0, 0.0, 0.0, 0.0, 0.0, 0.0, 0.0, 1.666406574032056E9, 0.0, 2022-10-21 19:42:54.032
187.0, -140086.9655712802, -147376.3835282783, -22227.26759043546, -110893.84387658167, 76466.5471275505, -73866.61456425364, 68904.72846087557, -106294.50306826868, -0.012, 0.964, -0.04, 192.0, 0.0, 0.0, 0.0, 0.0, 0.0, 0.0, 0.0, 0.0, 0.0, 1.6664065740320685E9, 0.0, 2022-10-21 19:42:54.032
188.0, -140085.0656730015, -147378.05990911246, -22222.037282232915, -110880.29871944175, 76472.91737472026, -73922.96331202547, 68898.02293753898, -106275.8840651374, -0.012, 0.964, -0.04, 192.0, 0.0, 0.0, 0.0, 0.0, 0.0, 0.0, 0.0, 0.0, 0.0, 1.6664065740320811E9, 0.0, 2022-10-21 19:42:54.032
189.0, -140094.0063707836, -147386.2406475831, -22222.819593288852, -110868.25112918034, 76471.88919447533, -73834.76332840484, 68961.12191213631, -106240.81417808702, -0.012, 0.964, -0.04, 192.0, 0.0, 0.0, 0.0, 0.0, 0.0, 0.0, 0.0, 0.0, 0.0, 1.6664065740320947E9, 0.0, 2022-10-21 19:42:54.032
190.0, -140098.78964409707, -147391.8956389303, -22230.73211082603, -110879.15878047452, 76465.27307811654, -73767.37281887207, 68977.46103733314, -106255.65573640534, -0.012, 0.964, -0.04, 192.0, 0.0, 0.0, 0.0, 0.0, 0.0, 0.0, 0.0, 0.0, 0.0, 1.6664065740321076E9, 0.0, 2022-10-21 19:42:54.032
191.0, -140083.56810612298, -147378.14931609028, -22225.92648576814, -110885.64078636657, 76468.75995025158, -73860.42313103953, 68918.67594941569, -106284.06480360804, -0.012, 0.964, -0.04, 192.0, 0.0, 0.0, 0.0, 0.0, 0.0, 0.0, 0.0, 0.0, 0.0, 1.66640657403212E9, 0.0, 2022-10-21 19:42:54.032
192.0, -140080.93060027726, -147374.9306648887, -22225.30063692339, -110872.90029202704, 76477.38772361133, -73945.69503613652, 68894.35725144831, -106277.71690818273, -0.014, 0.9580000000000001, -0.04, 192.0, 255.0, 144.0, 29.0, 240.0, 254.0, 192.0, 0.0, 0.0, 0.0, 1.6664065740321324E9, 0.0, 2022-10-21 19:42:54.032
193.0, -140102.34357146546, -147397.4388715552, -22246.44538717811, -110887.83125732318, 76460.13217689183, -73875.17528238002, 68938.03256011398, -106259.50023645165, -0.014, 0.9580000000000001, -0.04, 192.0, 0.0, 0.0, 0.0, 0.0, 0.0, 0.0, 0.0, 0.0, 0.0, 1.6664065740321581E9, 0.0, 2022-10-21 19:42:54.032
194.0, -140107.14919652333, -147401.66335125724, -22254.715532626575, -110892.50277191434, 76451.50440353208, -73779.77803704477, 68971.20254888566, -106259.25436726265, -0.014, 0.9580000000000001, -0.04, 192.0, 0.0, 0.0, 0.0, 0.0, 0.0, 0.0, 0.0, 0.0, 0.0, 1.6664065740321712E9, 0.0, 2022-10-21 19:42:54.032
195.0, -140092.55350739404, -147385.5924469939, -22246.15481450019, -110907.0761092992, 76449.22452559764, -73851.88476465759, 68918.54183894895, -106295.30773106906, -0.014, 0.9580000000000001, -0.04, 192.0, 0.0, 0.0, 0.0, 0.0, 0.0, 0.0, 0.0, 0.0, 0.0, 1.6664065740321844E9, 0.0, 2022-10-21 19:42:54.032
196.0, -140085.93739103526, -147377.2328945676, -22240.790395830918, -110899.20829525094, 76461.31681934797, -73948.86898384917, 68882.24260595354, -106294.25719907966, -0.014, 0.9580000000000001, -0.04, 192.0, 0.0, 0.0, 0.0, 0.0, 0.0, 0.0, 0.0, 0.0, 0.0, 1.6664065740321972E9, 0.0, 2022-10-21 19:42:54.032
197.0, -140095.0121992841, -147383.40197603728, -22246.177166244648, -110890.82639108019, 76459.90865944728, -73900.92449199254, 68926.2755425305, -106262.67418416431, -0.014, 0.9580000000000001, -0.04, 192.0, 0.0, 0.0, 0.0, 0.0, 0.0, 0.0, 0.0, 0.0, 0.0, 1.66640657403221E9, 0.0, 2022-10-21 19:42:54.032
198.0, -140103.43880694377, -147394.6896069872, -22247.294753467413, -110887.78655383427, 76458.56755477996, -73794.418429663, 68977.57279605542, -106248.70434387974, -0.014, 0.9580000000000001, -0.04, 192.0, 0.0, 0.0, 0.0, 0.0, 0.0, 0.0, 0.0, 0.0, 0.0, 1.6664065740322244E9, 0.0, 2022-10-21 19:42:54.032
199.0, -140098.47671967468, -147393.8402406979, -22239.851622563794, -110895.20733299344, 76463.64140077132, -73819.29592124176, 68944.35810379483, -106280.39911751737, -0.014, 0.9580000000000001, -0.04, 192.0, 0.0, 0.0, 0.0, 0.0, 0.0, 0.0, 0.0, 0.0, 0.0, 1.6664065740322368E9, 0.0, 2022-10-21 19:42:54.032
200.0, -140092.2629347161, -147385.61479873836, -22238.957552785585, -110895.40849869353, 76462.94849669319, -73923.96914052597, 68896.4136119382, -106289.51862925514, -0.014, 0.9580000000000001, -0.04, 192.0, 0.0, 0.0, 0.0, 0.0, 0.0, 0.0, 0.0, 0.0, 0.0, 1.6664065740322497E9, 0.0, 2022-10-21 19:42:54.032
201.0, -140094.38635043937, -147386.7323859611, -22243.897288310207, -110884.07616425469, 76461.89796470379, -73906.26655891736, 68928.55542046492, -106256.7286201392, -0.014, 0.9580000000000001, -0.04, 192.0, 0.0, 0.0, 0.0, 0.0, 0.0, 0.0, 0.0, 0.0, 0.0, 1.666406574032262E9, 0.0, 2022-10-21 19:42:54.032
202.0, -140101.1589290093, -147390.46512728516, -22253.933221570638, -110891.63105388058, 76450.0515401425, -73803.76145884531, 68976.8798919773, -106248.88315783539, -0.008, 0.96, -0.046, 192.0, 255.0, 192.0, 30.0, 0.0, 254.0, 144.0, 0.0, 0.0, 0.0, 1.6664065740322747E9, 0.0, 2022-10-21 19:42:54.032
203.0, -140106.65745814532, -147396.6342087548, -22263.92445134216, -110907.9254755885, 76442.56370574996, -73808.54473215876, 68947.15207185174, -106287.77519318763, -0.008, 0.96, -0.046, 192.0, 0.0, 0.0, 0.0, 0.0, 0.0, 0.0, 0.0, 0.0, 0.0, 1.6664065740322886E9, 0.0, 2022-10-21 19:42:54.032
204.0, -140104.3775802109, -147397.26005759957, -22261.97984957455, -110916.39678673707, 76445.0447493845, -73922.85155330319, 68886.53414088895, -106310.55162078758, -0.008, 0.96, -0.046, 192.0, 0.0, 0.0, 0.0, 0.0, 0.0, 0.0, 0.0, 0.0, 0.0, 1.666406574032303E9, 0.0, 2022-10-21 19:42:54.032
205.0, -140085.1103764904, -147379.22219982411, -22237.080006251337, -110873.41438214951, 76479.22056665666, -73908.47938161842, 68935.64092345726, -106253.53232068209, -0.008, 0.96, -0.046, 192.0, 0.0, 0.0, 0.0, 0.0, 0.0, 0.0, 0.0, 0.0, 0.0, 1.6664065740323155E9, 0.0, 2022-10-21 19:42:54.032
206.0, -140098.4096644413, -147392.1415081193, -22249.708741868584, -110886.31133870022, 76466.97181069515, -73791.42329590599, 68994.5824735859, -106237.84139607447, -0.008, 0.96, -0.046, 192.0, 0.0, 0.0, 0.0, 0.0, 0.0, 0.0, 0.0, 0.0, 0.0, 1.6664065740323288E9, 0.0, 2022-10-21 19:42:54.032
207.0, -140099.4601964307, -147390.3310168184, -22255.4531401936, -110901.55522841874, 76456.3994355678, -73764.69060953744, 68980.2326536456, -106270.4302394903, -0.008, 0.96, -0.046, 192.0, 0.0, 0.0, 0.0, 0.0, 0.0, 0.0, 0.0, 0.0, 0.0, 1.6664065740323412E9, 0.0, 2022-10-21 19:42:54.032
208.0, -140093.22405972768, -147383.1337551038, -22258.78355011744, -110907.50079244385, 76453.42665355525, -73885.52414006283, 68905.28725448696, -106309.5457922871, -0.008, 0.96, -0.046, 192.0, 0.0, 0.0, 0.0, 0.0, 0.0, 0.0, 0.0, 0.0, 0.0, 1.6664065740323792E9, 0.0, 2022-10-21 19:42:54.032
209.0, -140088.57489688098, -147377.99285387908, -22252.748579114508, -110889.32882420169, 76461.56268853697, -73944.5550971693, 68901.39805095173, -106288.37869028792, -0.008, 0.96, -0.046, 192.0, 0.0, 0.0, 0.0, 0.0, 0.0, 0.0, 0.0, 0.0, 0.0, 1.666406574032395E9, 0.0, 2022-10-21 19:42:54.032
210.0, -140089.87129805938, -147380.6750632137, -22253.530890170445, -110870.1733792035, 76469.18463339623, -73831.924656859, 68976.07522917692, -106250.67129739182, -0.008, 0.96, -0.046, 192.0, 0.0, 0.0, 0.0, 0.0, 0.0, 0.0, 0.0, 0.0, 0.0, 1.6664065740324078E9, 0.0, 2022-10-21 19:42:54.032
211.0, -140097.42618768528, -147389.16872610673, -22261.73398038554, -110889.75350734634, 76458.72401699115, -73763.12598742556, 68987.7875432715, -106268.03860283359, -0.012, 0.9580000000000001, -0.042, 192.0, 255.0, 160.0, 29.0, 240.0, 254.0, 176.0, 0.0, 0.0, 0.0, 1.6664065740324297E9, 0.0, 2022-10-21 19:42:54.032
212.0, -140092.48645216067, -147385.9277231607, -22261.085779796336, -110898.85066733965, 76460.89213620331, -73867.26276484285, 68920.4640889721, -106302.92967592832, -0.012, 0.9580000000000001, -0.042, 192.0, 0.0, 0.0, 0.0, 0.0, 0.0, 0.0, 0.0, 0.0, 0.0, 1.666406574032443E9, 0.0, 2022-10-21 19:42:54.032
213.0, -140092.24058297166, -147383.6925487152, -22267.187806032634, -110893.84387658167, 76465.51894730557, -73918.38120441213, 68905.10844053132, -106298.32521657053, -0.012, 0.9580000000000001, -0.042, 192.0, 0.0, 0.0, 0.0, 0.0, 0.0, 0.0, 0.0, 0.0, 0.0, 1.6664065740324557E9, 0.0, 2022-10-21 19:42:54.032
214.0, -140100.30956272, -147389.2357813401, -22274.273309024968, -110889.35117594614, 76457.36056057937, -73837.69140692847, 68959.46788304661, -106272.84422789147, -0.012, 0.9580000000000001, -0.042, 192.0, 0.0, 0.0, 0.0, 0.0, 0.0, 0.0, 0.0, 0.0, 0.0, 1.666406574032468E9, 0.0, 2022-10-21 19:42:54.032
215.0, -140083.47869914517, -147369.90152238627, -22263.432712964146, -110879.0693734967, 76467.21767988417, -73751.39132158653, 68997.15292419826, -106265.24463477668, -0.012, 0.9580000000000001, -0.042, 192.0, 0.0, 0.0, 0.0, 0.0, 0.0, 0.0, 0.0, 0.0, 0.0, 1.6664065740324805E9, 0.0, 2022-10-21 19:42:54.032
216.0, -140064.09973670242, -147352.7800861335, -22262.762160630486, -110886.64661486706, 76468.17880489574, -73828.5718951907, 68938.16667058071, -106301.7450334722, -0.012, 0.9580000000000001, -0.042, 192.0, 0.0, 0.0, 0.0, 0.0, 0.0, 0.0, 0.0, 0.0, 0.0, 1.666406574032493E9, 0.0, 2022-10-21 19:42:54.032
217.0, -140050.44282084022, -147337.9832313041, -22256.950707072105, -110881.28219619778, 76467.62001128435, -73925.91374229357, 68901.66627188519, -106297.16292585885, -0.012, 0.9580000000000001, -0.042, 192.0, 0.0, 0.0, 0.0, 0.0, 0.0, 0.0, 0.0, 0.0, 0.0, 1.6664065740325055E9, 0.0, 2022-10-21 19:42:54.032
218.0, -140044.8995882153, -147329.3331061999, -22248.792320345918, -110861.07621921018, 76477.58888931143, -73857.74092170488, 68965.25698486055, -106247.25148049016, -0.012, 0.9580000000000001, -0.042, 192.0, 0.0, 0.0, 0.0, 0.0, 0.0, 0.0, 0.0, 0.0, 0.0, 1.6664065740325215E9, 0.0, 2022-10-21 19:42:54.032
219.0, -140048.47586732815, -147328.23787072158, -22258.805901861895, -110873.1238094716, 76470.92806946374, -73745.89279245053, 69006.92063652523, -106249.88898633588, -0.012, 0.9580000000000001, -0.042, 192.0, 0.0, 0.0, 0.0, 0.0, 0.0, 0.0, 0.0, 0.0, 0.0, 1.666406574032534E9, 0.0, 2022-10-21 19:42:54.032
220.0, -140042.7091172587, -147323.94633578617, -22265.89140485423, -110908.99835932236, 76455.5947727674, -73813.90915082803, 68943.57579273889, -106296.64883573639, -0.012, 0.9580000000000001, -0.042, 192.0, 0.0, 0.0, 0.0, 0.0, 0.0, 0.0, 0.0, 0.0, 0.0, 1.666406574032548E9, 0.0, 2022-10-21 19:42:54.032
221.0, -140034.2601578546, -147311.33995191337, -22256.12369252726, -110900.25882724034, 76464.46841531617, -73921.71161433597, 68900.95101606262, -106297.90053342588, -0.014, 0.968, -0.044, 192.0, 255.0, 144.0, 30.0, 64.0, 254.0, 160.0, 0.0, 0.0, 0.0, 1.6664065740325613E9, 0.0, 2022-10-21 19:42:54.032
222.0, -140029.23101535215, -147304.65678032124, -22252.92739307015, -110883.18209447648, 76468.4470258292, -73882.17137839453, 68944.64867647275, -106264.328213254, -0.014, 0.968, -0.044, 192.0, 0.0, 0.0, 0.0, 0.0, 0.0, 0.0, 0.0, 0.0, 0.0, 1.6664065740325875E9, 0.0, 2022-10-21 19:42:54.032
223.0, -140024.2912798275, -147302.28749540896, -22256.63778264973, -110883.69618459896, 76464.06608391597, -73776.93936549895, 68995.09656370837, -106250.06780029152, -0.014, 0.968, -0.044, 192.0, 0.0, 0.0, 0.0, 0.0, 0.0, 0.0, 0.0, 0.0, 0.0, 1.6664065740326004E9, 0.0, 2022-10-21 19:42:54.032
224.0, -140008.19802381968, -147281.79094574344, -22256.771893116464, -110896.88371382758, 76459.01458966907, -73805.54959840175, 68958.95379292415, -106284.55654198606, -0.014, 0.968, -0.044, 192.0, 0.0, 0.0, 0.0, 0.0, 0.0, 0.0, 0.0, 0.0, 0.0, 1.666406574032613E9, 0.0, 2022-10-21 19:42:54.032
225.0, -140000.01728534905, -147272.49262005003, -22257.196576261114, -110897.75543186134, 76462.25559261508, -73906.02068972835, 68904.79551610893, -106306.03656840761, -0.014, 0.968, -0.044, 192.0, 0.0, 0.0, 0.0, 0.0, 0.0, 0.0, 0.0, 0.0, 0.0, 1.666406574032627E9, 0.0, 2022-10-21 19:42:54.032
226.0, -139993.46822422364, -147268.64812000372, -22247.093587767315, -110887.69714685646, 76464.78133973853, -73896.185922168, 68935.23859205707, -106268.66445167834, -0.014, 0.968, -0.044, 192.0, 0.0, 0.0, 0.0, 0.0, 0.0, 0.0, 0.0, 0.0, 0.0, 1.6664065740326397E9, 0.0, 2022-10-21 19:42:54.032
227.0, -139978.15727927178, -147250.8561314173, -22240.41041617518, -110869.83810303666, 76472.73856076463, -73783.04139173524, 69004.59605510188, -106234.26511696161, -0.014, 0.968, -0.044, 192.0, 0.0, 0.0, 0.0, 0.0, 0.0, 0.0, 0.0, 0.0, 0.0, 1.6664065740326526E9, 0.0, 2022-10-21 19:42:54.032
228.0, -139962.5781133864, -147231.92420386366, -22240.857451064283, -110879.04702175225, 76471.73273226414, -73772.44666486343, 68989.8886072503, -106259.7237538962, -0.014, 0.968, -0.044, 192.0, 0.0, 0.0, 0.0, 0.0, 0.0, 0.0, 0.0, 0.0, 0.0, 1.6664065740326653E9, 0.0, 2022-10-21 19:42:54.032
229.0, -139946.1272294673, -147215.83094785584, -22231.693235837607, -110891.83221958068, 76472.8950229758, -73882.05961967226, 68932.08699608887, -106279.75091692817, -0.014, 0.968, -0.044, 192.0, 0.0, 0.0, 0.0, 0.0, 0.0, 0.0, 0.0, 0.0, 0.0, 1.666406574032678E9, 0.0, 2022-10-21 19:42:54.032
230.0, -139934.50432235055, -147206.42086344014, -22224.38421540072, -110876.18599846197, 76480.82989225745, -73902.66792806005, 68946.68268521818, -106256.75097188365, -0.014, 0.968, -0.044, 192.0, 0.0, 0.0, 0.0, 0.0, 0.0, 0.0, 0.0, 0.0, 0.0, 1.6664065740326903E9, 0.0, 2022-10-21 19:42:54.032
231.0, -139929.6316420593, -147195.4461569126, -22218.371596142246, -110854.39304761804, 76485.07672370395, -73796.29597619725, 69014.92256104024, -106222.19517495575, -0.014, 0.964, -0.052000000000000005, 192.0, 255.0, 144.0, 30.0, 32.0, 254.0, 96.0, 0.0, 0.0, 0.0, 1.6664065740327032E9, 0.0, 2022-10-21 19:42:54.032
232.0, -139932.33620313837, -147198.68715985861, -22229.949799770093, -110880.61164386412, 76473.6996857762, -73755.12406291057, 69007.97116851463, -106256.63921316138, -0.014, 0.964, -0.052000000000000005, 192.0, 0.0, 0.0, 0.0, 0.0, 0.0, 0.0, 0.0, 0.0, 0.0, 1.6664065740327168E9, 0.0, 2022-10-21 19:42:54.032
233.0, -139907.99515342654, -147179.0846799713, -22221.277322921436, -110887.02659452279, 76482.01453471357, -73852.71177920244, 68953.16469111021, -106282.47782975172, -0.014, 0.964, -0.052000000000000005, 192.0, 0.0, 0.0, 0.0, 0.0, 0.0, 0.0, 0.0, 0.0, 0.0, 1.6664065740327291E9, 0.0, 2022-10-21 19:42:54.032
234.0, -139893.6676852307, -147167.19355192108, -22212.515439094954, -110867.58057684668, 76495.35852615339, -73893.77193376684, 68957.43387430119, -106257.53328293959, -0.014, 0.964, -0.052000000000000005, 192.0, 0.0, 0.0, 0.0, 0.0, 0.0, 0.0, 0.0, 0.0, 0.0, 1.666406574032742E9, 0.0, 2022-10-21 19:42:54.032
235.0, -139891.87954567428, -147162.6337960522, -22215.868200763252, -110855.86826275209, 76493.65979357478, -73797.65943260901, 69018.543543642, -106224.00566625663, -0.014, 0.964, -0.052000000000000005, 192.0, 0.0, 0.0, 0.0, 0.0, 0.0, 0.0, 0.0, 0.0, 0.0, 1.666406574032755E9, 0.0, 2022-10-21 19:42:54.032
236.0, -139885.17402233768, -147157.24702563847, -22219.06450022036, -110857.63405056407, 76496.38670639833, -73728.1008038641, 69036.00025606158, -106235.13683499537, -0.014, 0.964, -0.052000000000000005, 192.0, 0.0, 0.0, 0.0, 0.0, 0.0, 0.0, 0.0, 0.0, 0.0, 1.6664065740327673E9, 0.0, 2022-10-21 19:42:54.032
237.0, -139871.47240298658, -147147.34520284476, -22212.761308283963, -110863.02082097779, 76499.91828202228, -73818.29009274127, 68972.49895006407, -106274.1406290699, -0.014, 0.964, -0.052000000000000005, 192.0, 0.0, 0.0, 0.0, 0.0, 0.0, 0.0, 0.0, 0.0, 0.0, 1.6664065740327933E9, 0.0, 2022-10-21 19:42:54.032
238.0, -139876.99328386705, -147150.04976392386, -22224.20540144508, -110858.93045174248, 76501.54995936752, -73881.92550920552, 68944.15693809473, -106277.7839634161, -0.014, 0.964, -0.052000000000000005, 192.0, 0.0, 0.0, 0.0, 0.0, 0.0, 0.0, 0.0, 0.0, 0.0, 1.6664065740328064E9, 0.0, 2022-10-21 19:42:54.032
239.0, -139885.12931884878, -147154.45305758156, -22233.704892838585, -110863.40080063354, 76485.9037382488, -73810.98107230438, 68992.034374718, -106247.92203282382, -0.014, 0.964, -0.052000000000000005, 192.0, 0.0, 0.0, 0.0, 0.0, 0.0, 0.0, 0.0, 0.0, 0.0, 1.6664065740328195E9, 0.0, 2022-10-21 19:42:54.032
240.0, -139880.30134204644, -147151.52497905793, -22231.02268350395, -110857.96932673089, 76487.96009873868, -73737.86851619107, 69020.71166285416, -106249.88898633588, -0.014, 0.964, -0.052000000000000005, 192.0, 0.0, 0.0, 0.0, 0.0, 0.0, 0.0, 0.0, 0.0, 0.0, 1.666406574032833E9, 0.0, 2022-10-21 19:42:54.032
241.0, -139873.79698440994, -147148.19456913407, -22231.87204979325, -110871.00039374834, 76489.32355515046, -73800.9227872995, 68964.65348776025, -106291.61969323394, -0.018000000000000002, 0.96, -0.056, 192.0, 255.0, 112.0, 30.0, 0.0, 254.0, 64.0, 0.0, 0.0, 0.0, 1.6664065745101688E9, 0.0, 2022-10-21 19:42:54.510
242.0, -139875.58512396636, -147152.19553139157, -22239.091663252315, -110884.56790263271, 76483.93678473674, -73905.70776530597, 68919.45826047161, -106296.42531829183, -0.018000000000000002, 0.96, -0.056, 192.0, 0.0, 0.0, 0.0, 0.0, 0.0, 0.0, 0.0, 0.0, 0.0, 1.6664065745103724E9, 0.0, 2022-10-21 19:42:54.510
243.0, -139868.72313841857, -147144.88651095468, -22232.520250382455, -110863.19963493344, 76491.804598785, -73845.51451748783, 68974.9799936986, -106251.54301542557, -0.018000000000000002, 0.96, -0.056, 192.0, 0.0, 0.0, 0.0, 0.0, 0.0, 0.0, 0.0, 0.0, 0.0, 1.6664065745105836E9, 0.0, 2022-10-21 19:42:54.510
244.0, -139863.69399591614, -147141.01965916393, -22230.620352103753, -110867.84879778014, 76488.4518371167, -73746.94332443993, 69020.01875877604, -106240.99299204267, -0.018000000000000002, 0.96, -0.056, 192.0, 0.0, 0.0, 0.0, 0.0, 0.0, 0.0, 0.0, 0.0, 0.0, 1.6664065745106337E9, 0.0, 2022-10-21 19:42:54.510
245.0, -139855.04387081193, -147131.85544393724, -22223.82542178934, -110875.9177775285, 76491.75989529608, -73793.18908371795, 68982.73604902459, -106265.91518711034, -0.018000000000000002, 0.96, -0.056, 192.0, 0.0, 0.0, 0.0, 0.0, 0.0, 0.0, 0.0, 0.0, 0.0, 1.6664065745106835E9, 0.0, 2022-10-21 19:42:54.510
246.0, -139844.67266138468, -147122.9370978996, -22221.92552351064, -110872.05092573774, 76496.45376163171, -73896.7894192683, 68936.15501357973, -106276.15228607086, -0.018000000000000002, 0.96, -0.056, 192.0, 0.0, 0.0, 0.0, 0.0, 0.0, 0.0, 0.0, 0.0, 0.0, 1.6664065745107331E9, 0.0, 2022-10-21 19:42:54.510
247.0, -139851.42288821016, -147125.6863624676, -22227.044072990906, -110860.33861164315, 76495.51498836458, -73861.36190430664, 68974.86823497633, -106245.93272756728, -0.018000000000000002, 0.96, -0.056, 192.0, 0.0, 0.0, 0.0, 0.0, 0.0, 0.0, 0.0, 0.0, 0.0, 1.666406574510783E9, 0.0, 2022-10-21 19:42:54.510
248.0, -139852.6075306663, -147125.10521711173, -22229.994503259004, -110868.00525999133, 76487.46836036067, -73751.50308030882, 69029.13827051381, -106233.95219253925, -0.018000000000000002, 0.96, -0.056, 192.0, 0.0, 0.0, 0.0, 0.0, 0.0, 0.0, 0.0, 0.0, 0.0, 1.666406574510832E9, 0.0, 2022-10-21 19:42:54.510
249.0, -139849.4559346981, -147124.8816996672, -22232.20732596008, -110881.7739345758, 76482.84154925842, -73764.44474034844, 68997.8905317653, -106262.85299811995, -0.018000000000000002, 0.96, -0.056, 192.0, 0.0, 0.0, 0.0, 0.0, 0.0, 0.0, 0.0, 0.0, 0.0, 1.6664065745108783E9, 0.0, 2022-10-21 19:42:54.510
250.0, -139838.34711770382, -147114.3763797732, -22229.234543947525, -110888.25594046783, 76484.58498532594, -73877.56691903675, 68940.69241770417, -106276.80048666007, -0.016, 0.9540000000000001, -0.054, 192.0, 255.0, 128.0, 29.0, 208.0, 254.0, 80.0, 0.0, 0.0, 0.0, 1.6664065745109055E9, 0.0, 2022-10-21 19:42:54.510
251.0, -139835.84372232482, -147111.8282809053, -22229.21219220307, -110875.40368740604, 76483.91443299227, -73891.11207617665, 68957.65739174574, -106255.0298875606, -0.016, 0.9540000000000001, -0.054, 192.0, 0.0, 0.0, 0.0, 0.0, 0.0, 0.0, 0.0, 0.0, 0.0, 1.6664065745109355E9, 0.0, 2022-10-21 19:42:54.510
252.0, -139836.58132989184, -147109.79427215987, -22231.02268350395, -110859.93628024297, 76484.92026149276, -73782.25908067932, 69023.4385756777, -106226.576116869, -0.016, 0.9540000000000001, -0.054, 192.0, 0.0, 0.0, 0.0, 0.0, 0.0, 0.0, 0.0, 0.0, 0.0, 1.6664065745110462E9, 0.0, 2022-10-21 19:42:54.511
253.0, -139844.7173648736, -147118.6232112197, -22249.798148846407, -110880.54458863076, 76473.23029914264, -73770.5691183292, 69001.4891626226, -106257.64504166188, -0.016, 0.9540000000000001, -0.054, 192.0, 0.0, 0.0, 0.0, 0.0, 0.0, 0.0, 0.0, 0.0, 0.0, 1.6664065745110624E9, 0.0, 2022-10-21 19:42:54.511
254.0, -139837.34128920332, -147108.49787098146, -22251.92156456966, -110892.65923412553, 76475.01843869906, -73865.85460494216, 68941.78765318247, -106285.9870536312, -0.016, 0.9540000000000001, -0.054, 192.0, 0.0, 0.0, 0.0, 0.0, 0.0, 0.0, 0.0, 0.0, 0.0, 1.6664065745110776E9, 0.0, 2022-10-21 19:42:54.511
255.0, -139837.0507165254, -147105.3239232688, -22254.290849481924, -110884.67966135498, 76473.63263054284, -73905.30543390577, 68939.77599618149, -106271.16784705734, -0.016, 0.9540000000000001, -0.054, 192.0, 0.0, 0.0, 0.0, 0.0, 0.0, 0.0, 0.0, 0.0, 0.0, 1.6664065745110931E9, 0.0, 2022-10-21 19:42:54.511
0.0, -139831.82040832288, -147101.8594028782, -22253.083855281337, -110873.74965831634, 76476.4489503442, -73793.83728430716, 69006.16067721376, -106237.7743408411, -0.016, 0.9540000000000001, -0.054, 192.0, 0.0, 0.0, 0.0, 0.0, 0.0, 0.0, 0.0, 0.0, 0.0, 1.6664065745111084E9, 0.0, 2022-10-21 19:42:54.511
1.0, -139820.9574605176, -147093.20927777403, -22241.46094816458, -110873.1238094716, 76486.61899407137, -73731.38651029904, 69026.29959896799, -106243.04935253256, -0.016, 0.9540000000000001, -0.054, 192.0, 0.0, 0.0, 0.0, 0.0, 0.0, 0.0, 0.0, 0.0, 0.0, 1.6664065745111234E9, 0.0, 2022-10-21 19:42:54.511
2.0, -139814.27428892546, -147087.50958293793, -22241.349189442302, -110888.34534744566, 76483.22152891416, -73830.96353184743, 68955.84690044486, -106282.45547800726, -0.016, 0.9540000000000001, -0.054, 192.0, 0.0, 0.0, 0.0, 0.0, 0.0, 0.0, 0.0, 0.0, 0.0, 1.666406574511139E9, 0.0, 2022-10-21 19:42:54.511
3.0, -139816.33064941535, -147087.75545212693, -22249.01583779047, -110891.96633004742, 76475.57723231045, -73913.10619272068, 68925.69439717465, -106284.35537628597, -0.016, 0.9540000000000001, -0.054, 192.0, 0.0, 0.0, 0.0, 0.0, 0.0, 0.0, 0.0, 0.0, 0.0, 1.6664065745111544E9, 0.0, 2022-10-21 19:42:54.511
4.0, -139814.92248951466, -147083.03923404685, -22243.763177843473, -110868.58640534716, 76484.49557834811, -73821.5757991762, 68993.5319415965, -106243.74225661067, -0.012, 0.962, -0.05, 192.0, 255.0, 160.0, 30.0, 16.0, 254.0, 112.0, 0.0, 0.0, 0.0, 1.666406574511168E9, 0.0, 2022-10-21 19:42:54.511
5.0, -139820.0410389949, -147090.08003355027, -22248.188823245626, -110870.24043443686, 76484.67439230376, -73728.43608003094, 69021.47162216564, -106252.0794572925, -0.012, 0.962, -0.05, 192.0, 0.0, 0.0, 0.0, 0.0, 0.0, 0.0, 0.0, 0.0, 0.0, 1.6664065745111833E9, 0.0, 2022-10-21 19:42:54.511
6.0, -139817.4482366381, -147089.05185330534, -22249.284058723933, -110889.39587943506, 76476.47130208866, -73820.03352880878, 68950.79540619795, -106302.4379375503, -0.012, 0.962, -0.05, 192.0, 0.0, 0.0, 0.0, 0.0, 0.0, 0.0, 0.0, 0.0, 0.0, 1.6664065745112028E9, 0.0, 2022-10-21 19:42:54.511
7.0, -139814.56486160337, -147083.46391719152, -22241.751520842496, -110878.77880081878, 76484.54028183702, -73910.53574210832, 68922.02871108399, -106296.06769038054, -0.012, 0.962, -0.05, 192.0, 0.0, 0.0, 0.0, 0.0, 0.0, 0.0, 0.0, 0.0, 0.0, 1.6664065745112169E9, 0.0, 2022-10-21 19:42:54.511
8.0, -139815.01189649248, -147081.78753635735, -22238.890497552216, -110864.78660878976, 76489.68118306175, -73836.95379936145, 68983.27249089153, -106252.70530613724, -0.012, 0.962, -0.05, 192.0, 0.0, 0.0, 0.0, 0.0, 0.0, 0.0, 0.0, 0.0, 0.0, 1.6664065745112305E9, 0.0, 2022-10-21 19:42:54.511
9.0, -139808.32872490035, -147074.21029498702, -22231.87204979325, -110864.25016692284, 76489.88234876185, -73741.31068483718, 69028.13244201332, -106242.80348334355, -0.012, 0.962, -0.05, 192.0, 0.0, 0.0, 0.0, 0.0, 0.0, 0.0, 0.0, 0.0, 0.0, 1.666406574511244E9, 0.0, 2022-10-21 19:42:54.511
10.0, -139810.31803015686, -147077.85362933323, -22235.515384139468, -110891.60870213613, 76479.1535114233, -73802.95679604492, 68965.56990928292, -106292.46905952324, -0.012, 0.962, -0.05, 192.0, 0.0, 0.0, 0.0, 0.0, 0.0, 0.0, 0.0, 0.0, 0.0, 1.6664065745112576E9, 0.0, 2022-10-21 19:42:54.511
11.0, -139817.26942268247, -147086.12377478168, -22241.662113864677, -110904.05862379774, 76467.95528745119, -73906.13244845062, 68911.23281851207, -106307.6905974973, -0.012, 0.962, -0.05, 192.0, 0.0, 0.0, 0.0, 0.0, 0.0, 0.0, 0.0, 0.0, 0.0, 1.6664065745112863E9, 0.0, 2022-10-21 19:42:54.511
12.0, -139818.07408548286, -147087.464879449, -22237.370578929258, -110884.36673693261, 76474.68316253224, -73858.83615718319, 68960.2278423581, -106266.3845737439, -0.012, 0.962, -0.05, 192.0, 0.0, 0.0, 0.0, 0.0, 0.0, 0.0, 0.0, 0.0, 0.0, 1.6664065745113015E9, 0.0, 2022-10-21 19:42:54.511
13.0, -139817.31412617138, -147084.76031836992, -22235.984770773026, -110881.39395492006, 76474.25847938759, -73743.27763834926, 69015.77192732954, -106250.35837296944, -0.012, 0.962, -0.05, 192.0, 0.0, 0.0, 0.0, 0.0, 0.0, 0.0, 0.0, 0.0, 0.0, 1.666406574511315E9, 0.0, 2022-10-21 19:42:54.511
14.0, -139803.32193414235, -147070.7681263409, -22228.943971269604, -110888.05477476773, 76471.55391830849, -73794.70900234091, 68974.22003438712, -106281.09202159548, -0.014, 0.968, -0.052000000000000005, 192.0, 255.0, 144.0, 30.0, 64.0, 254.0, 96.0, 0.0, 0.0, 0.0, 1.666406574511329E9, 0.0, 2022-10-21 19:42:54.511
15.0, -139801.82436726385, -147071.8633618192, -22222.707834566576, -110888.54651314576, 76478.25944164509, -73901.7962100263, 68929.00245535403, -106288.89278041039, -0.014, 0.968, -0.052000000000000005, 192.0, 0.0, 0.0, 0.0, 0.0, 0.0, 0.0, 0.0, 0.0, 0.0, 1.666406574511344E9, 0.0, 2022-10-21 19:42:54.511
