%OpenBCI Raw EEG Data
%Number of channels = 8
%Sample Rate = 250 Hz
%Board = OpenBCI_GUI$BoardCytonSerial
Sample Index, EXG Channel 0, EXG Channel 1, EXG Channel 2, EXG Channel 3, EXG Channel 4, EXG Channel 5, EXG Channel 6, EXG Channel 7, Accel Channel 0, Accel Channel 1, Accel Channel 2, Other, Other, Other, Other, Other, Other, Other, Analog Channel 0, Analog Channel 1, Analog Channel 2, Timestamp, Other, Timestamp (Formatted)
154.0, -142834.5090549599, -154388.2375226304, 54844.25185254239, -82409.2501293719, 70323.1925157538, -74101.97843336803, 85294.23448970729, -127441.44379394577, 0.0, 0.0, 0.0, 192.0, 0.0, 0.0, 0.0, 0.0, 0.0, 0.0, 0.0, 0.0, 0.0, 1.666407844612653E9, 0.0, 2022-10-21 20:04:04.612
155.0, -142824.65193565513, -154376.45815330246, 54855.65124221459, -82415.26274863038, 70329.33924547902, -74104.32536653584, 85284.62323959151, -127424.322357693, 0.0, 0.0, 0.0, 192.0, 0.0, 0.0, 0.0, 0.0, 0.0, 0.0, 0.0, 0.0, 0.0, 1.6664078446126719E9, 0.0, 2022-10-21 20:04:04.612
156.0, -142814.59365065023, -154367.38334505362, 54866.447134786504, -82410.77004799487, 70338.83873687252, -74120.53038126593, 85266.76419577173, -127427.20573272774, 0.0, 0.0, 0.0, 192.0, 0.0, 0.0, 0.0, 0.0, 0.0, 0.0, 0.0, 0.0, 0.0, 1.666407844612682E9, 0.0, 2022-10-21 20:04:04.612
157.0, -142819.13105477465, -154372.90422593406, 54862.73674520692, -82408.4007630826, 70335.93301009334, -74122.36322431127, 85277.13540519899, -127433.88890431989, 0.0, 0.0, 0.0, 192.0, 0.0, 0.0, 29.0, 80.0, 251.0, 240.0, 0.0, 0.0, 0.0, 1.6664078446126916E9, 0.0, 2022-10-21 20:04:04.612
158.0, -142827.46825545648, -154379.8332667152, 54857.90876840458, -82412.49113231793, 70337.98937058322, -74095.45172398708, 85308.96428930335, -127434.33593920899, 0.0, 0.0, 0.0, 192.0, 0.0, 0.0, 0.0, 0.0, 0.0, 0.0, 0.0, 0.0, 0.0, 1.666407844612703E9, 0.0, 2022-10-21 20:04:04.612
159.0, -142827.24473801194, -154380.3920603266, 54859.51809400536, -82418.16847540958, 70337.49763220521, -74094.06591583084, 85299.46479790984, -127433.64303513087, 0.0, 0.0, 0.0, 192.0, 0.0, 0.0, 0.0, 0.0, 0.0, 0.0, 0.0, 0.0, 0.0, 1.6664078446127129E9, 0.0, 2022-10-21 20:04:04.612
160.0, -142823.46729319898, -154384.61654002866, 54859.875721916644, -82429.0090714704, 70335.53067869315, -74122.00559639998, 85266.60773356054, -127428.1221542504, 0.0, 0.0, 0.0, 192.0, 0.0, 0.0, 0.0, 0.0, 0.0, 0.0, 0.0, 0.0, 0.0, 1.6664078446127224E9, 0.0, 2022-10-21 20:04:04.612
161.0, -142820.69567688653, -154383.67776676154, 54859.696907961006, -82429.94784473751, 70333.80959437009, -74123.10083187828, 85268.59703881705, -127433.30775896405, 0.0, 0.0, 0.0, 192.0, 0.0, 0.0, 0.0, 0.0, 0.0, 0.0, 0.0, 0.0, 0.0, 1.6664078446127324E9, 0.0, 2022-10-21 20:04:04.612
162.0, -142818.54990941883, -154371.11608637765, 54869.37521331015, -82411.3511933507, 70344.02434158616, -74090.48963671799, 85307.4890741693, -127430.08910776248, 0.0, 0.0, 0.0, 192.0, 0.0, 0.0, 0.0, 0.0, 0.0, 0.0, 0.0, 0.0, 0.0, 1.6664078446127417E9, 0.0, 2022-10-21 20:04:04.612
163.0, -142821.79091236484, -154376.30169109127, 54860.50157076139, -82423.84581850121, 70337.38587348293, -74097.21751179904, 85298.21310022034, -127440.12504102291, 0.0, 0.0, 0.0, 192.0, 0.0, 0.0, 0.0, 0.0, 0.0, 0.0, 0.0, 0.0, 0.0, 1.6664078446127512E9, 0.0, 2022-10-21 20:04:04.612
164.0, -142812.22436573796, -154371.85369394466, 54865.32954756374, -82431.73598429395, 70339.62104792846, -74115.38948004121, 85274.4308441199, -127434.4253461868, 0.0, 0.0, 0.0, 192.0, 0.0, 0.0, 0.0, 0.0, 0.0, 0.0, 0.0, 0.0, 0.0, 1.6664078446127603E9, 0.0, 2022-10-21 20:04:04.612
165.0, -142803.9542202895, -154365.08111537472, 54877.511248291885, -82418.5037515764, 70352.36154226799, -74105.10767759176, 85284.3326669136, -127424.41176467083, 0.0, 0.0, 0.0, 192.0, 0.0, 0.0, 0.0, 0.0, 0.0, 0.0, 0.0, 0.0, 0.0, 1.6664078446127703E9, 0.0, 2022-10-21 20:04:04.612
166.0, -142816.22532799546, -154368.21035959845, 54872.258588344885, -82408.06548691577, 70351.24395504523, -74084.34290699278, 85310.70772537086, -127427.6304158724, 0.0, 0.0, 0.0, 192.0, 0.0, 0.0, 0.0, 0.0, 0.0, 0.0, 0.0, 0.0, 0.0, 1.6664078446127796E9, 0.0, 2022-10-21 20:04:04.612
167.0, -142824.02608681037, -154372.65835674506, 54870.29163483282, -82417.98966145393, 70347.66767593237, -74080.47605520202, 85312.40645794946, -127429.44090717328, -0.006, 0.9480000000000001, -0.126, 192.0, 255.0, 208.0, 29.0, 160.0, 252.0, 16.0, 0.0, 0.0, 0.0, 1.666407844612789E9, 0.0, 2022-10-21 20:04:04.612
168.0, -142828.13880779015, -154378.24629285888, 54863.452001029495, -82429.38905112614, 70342.77264389666, -74112.81902942885, 85277.00129473225, -127436.16878225432, -0.006, 0.9480000000000001, -0.126, 192.0, 0.0, 0.0, 0.0, 0.0, 0.0, 0.0, 0.0, 0.0, 0.0, 1.6664078446128004E9, 0.0, 2022-10-21 20:04:04.612
169.0, -142829.92694734657, -154379.72150799294, 54857.52878874884, -82434.21702792848, 70335.68714090432, -74134.23200061703, 85260.14807941295, -127439.27567473361, -0.006, 0.9480000000000001, -0.126, 192.0, 0.0, 0.0, 0.0, 0.0, 0.0, 0.0, 0.0, 0.0, 0.0, 1.6664078446128101E9, 0.0, 2022-10-21 20:04:04.612
170.0, -142822.95320307653, -154373.57477826774, 54863.85433242969, -82412.82640848475, 70343.97963809725, -74102.40311651268, 85297.6319548645, -127427.2280844722, -0.006, 0.9480000000000001, -0.126, 192.0, 0.0, 0.0, 0.0, 0.0, 0.0, 0.0, 0.0, 0.0, 0.0, 1.666407844612916E9, 0.0, 2022-10-21 20:04:04.612
171.0, -142825.38954322215, -154377.35222308067, 54860.747439950406, -82413.72047826297, 70345.70072242031, -74075.49161618849, 85316.87680684052, -127420.29904369105, -0.006, 0.9480000000000001, -0.126, 192.0, 0.0, 0.0, 0.0, 0.0, 0.0, 0.0, 0.0, 0.0, 0.0, 1.6664078446129265E9, 0.0, 2022-10-21 20:04:04.612
172.0, -142822.32735423176, -154374.24533060138, 54864.435477785526, -82418.45904808749, 70345.29839102011, -74093.61888094174, 85291.46287339483, -127424.30000594855, -0.006, 0.9480000000000001, -0.126, 192.0, 0.0, 0.0, 0.0, 0.0, 0.0, 0.0, 0.0, 0.0, 0.0, 1.6664078446129365E9, 0.0, 2022-10-21 20:04:04.612
173.0, -142816.60530765122, -154370.84786544417, 54865.01662314137, -82421.27536788885, 70343.17497529686, -74121.17858185513, 85270.83221326259, -127436.99579679916, -0.006, 0.9480000000000001, -0.126, 192.0, 0.0, 0.0, 0.0, 0.0, 0.0, 0.0, 0.0, 0.0, 0.0, 1.6664078446129463E9, 0.0, 2022-10-21 20:04:04.612
174.0, -142821.76856062037, -154375.56408352425, 54857.305271304285, -82419.93426322154, 70337.38587348293, -74111.9473113951, 85291.93226002839, -127433.24070373067, -0.006, 0.9480000000000001, -0.126, 192.0, 0.0, 0.0, 0.0, 0.0, 0.0, 0.0, 0.0, 0.0, 0.0, 1.6664078446129558E9, 0.0, 2022-10-21 20:04:04.612
175.0, -142817.67819138506, -154375.47467654644, 54857.52878874884, -82421.36477486668, 70335.84360311551, -74092.70245941907, 85309.45602768136, -127431.56432289653, -0.006, 0.9480000000000001, -0.126, 192.0, 0.0, 0.0, 0.0, 0.0, 0.0, 0.0, 0.0, 0.0, 0.0, 1.6664078446129668E9, 0.0, 2022-10-21 20:04:04.612
176.0, -142807.21757498, -154371.7866387113, 54862.826152184745, -82421.99062371143, 70342.88440261893, -74095.49642747598, 85294.36860017403, -127433.0842415195, -0.006, 0.9520000000000001, -0.126, 192.0, 255.0, 208.0, 29.0, 192.0, 252.0, 16.0, 0.0, 0.0, 0.0, 1.666407844612982E9, 0.0, 2022-10-21 20:04:04.612
177.0, -142815.95710706201, -154373.68653699, 54859.58514923873, -82439.00030124192, 70336.08947230452, -74127.37001506926, 85266.60773356054, -127436.0793752765, -0.006, 0.9520000000000001, -0.126, 192.0, 0.0, 0.0, 0.0, 0.0, 0.0, 0.0, 0.0, 0.0, 0.0, 1.6664078446129963E9, 0.0, 2022-10-21 20:04:04.612
178.0, -142826.08244730026, -154378.89449344808, 54857.640547471114, -82431.13248719365, 70336.08947230452, -74122.43027954463, 85284.64559133597, -127431.74313685216, -0.006, 0.9520000000000001, -0.126, 192.0, 0.0, 0.0, 0.0, 0.0, 0.0, 0.0, 0.0, 0.0, 0.0, 1.6664078446130066E9, 0.0, 2022-10-21 20:04:04.613
179.0, -142826.99886882294, -154380.52617079334, 54855.78535268133, -82425.49984759091, 70337.47528046076, -74092.92597686363, 85312.92054807194, -127432.99483454166, -0.006, 0.9520000000000001, -0.126, 192.0, 0.0, 0.0, 0.0, 0.0, 0.0, 0.0, 0.0, 0.0, 0.0, 1.6664078446130166E9, 0.0, 2022-10-21 20:04:04.613
180.0, -142817.27585998486, -154373.15009512307, 54864.32371906325, -82424.67283304606, 70342.86205087448, -74093.70828791957, 85302.16935898893, -127428.45743041724, -0.006, 0.9520000000000001, -0.126, 192.0, 0.0, 0.0, 0.0, 0.0, 0.0, 0.0, 0.0, 0.0, 0.0, 1.6664078446130264E9, 0.0, 2022-10-21 20:04:04.613
181.0, -142808.60338313621, -154368.05389738726, 54868.48114353194, -82430.41723137107, 70342.12444330746, -74118.20579984257, 85275.23550692029, -127430.84906707396, -0.006, 0.9520000000000001, -0.126, 192.0, 0.0, 0.0, 0.0, 0.0, 0.0, 0.0, 0.0, 0.0, 0.0, 1.6664078446130364E9, 0.0, 2022-10-21 20:04:04.613
182.0, -142792.9571620175, -154356.90037690406, 54866.178913853044, -82416.4473910865, 70344.87370787546, -74115.72475620804, 85285.15968145845, -127434.85002933146, -0.006, 0.9520000000000001, -0.126, 192.0, 0.0, 0.0, 0.0, 0.0, 0.0, 0.0, 0.0, 0.0, 0.0, 1.6664078446130462E9, 0.0, 2022-10-21 20:04:04.613
183.0, -142788.57622010427, -154357.95090889346, 54848.364573522165, -82417.74379226493, 70330.00979781269, -74103.40894501316, 85302.10230375556, -127445.28829399208, -0.006, 0.9520000000000001, -0.126, 192.0, 0.0, 0.0, 0.0, 0.0, 0.0, 0.0, 0.0, 0.0, 0.0, 1.666407844613056E9, 0.0, 2022-10-21 20:04:04.613
184.0, -142797.1592899751, -154371.40665905556, 54855.0477451143, -82425.49984759091, 70329.94274257931, -74104.4371252581, 85295.21796646333, -127440.95205556776, -0.006, 0.9520000000000001, -0.126, 192.0, 0.0, 0.0, 0.0, 0.0, 0.0, 0.0, 0.0, 0.0, 0.0, 1.6664078446130655E9, 0.0, 2022-10-21 20:04:04.613
185.0, -142810.52563315936, -154377.66514750305, 54869.554027265796, -82425.29868189081, 70344.42667298636, -74122.25146558898, 85277.85066102156, -127424.50117164865, -0.006, 0.9520000000000001, -0.126, 192.0, 0.0, 0.0, 0.0, 0.0, 0.0, 0.0, 0.0, 0.0, 0.0, 1.6664078446131046E9, 0.0, 2022-10-21 20:04:04.613
186.0, -142815.77829310636, -154379.16271438156, 54868.19057085402, -82423.7564115234, 70350.104016078, -74119.03281438742, 85286.81371054813, -127418.39914541235, -0.01, 0.9420000000000001, -0.13, 192.0, 255.0, 176.0, 29.0, 112.0, 251.0, 240.0, 0.0, 0.0, 0.0, 1.6664078446131144E9, 0.0, 2022-10-21 20:04:04.613
187.0, -142824.60723216622, -154383.3424905947, 54858.10993410468, -82427.66796680307, 70339.12930955045, -74100.25734904497, 85308.40549569196, -127439.38743345588, -0.01, 0.9420000000000001, -0.13, 192.0, 0.0, 0.0, 0.0, 0.0, 0.0, 0.0, 0.0, 0.0, 0.0, 1.6664078446131256E9, 0.0, 2022-10-21 20:04:04.613
188.0, -142815.82299659526, -154375.60878701316, 54859.65220447209, -82435.06639421778, 70337.58703918302, -74093.61888094174, 85308.76312360325, -127434.64886363136, -0.01, 0.9420000000000001, -0.13, 192.0, 0.0, 0.0, 0.0, 0.0, 0.0, 0.0, 0.0, 0.0, 0.0, 1.666407844613135E9, 0.0, 2022-10-21 20:04:04.613
189.0, -142803.99892377842, -154363.49414151837, 54867.85529468719, -82433.59117908373, 70345.43250148684, -74111.5449799949, 85282.27630642371, -127430.60319788495, -0.01, 0.9420000000000001, -0.13, 192.0, 0.0, 0.0, 0.0, 0.0, 0.0, 0.0, 0.0, 0.0, 0.0, 1.666407844613145E9, 0.0, 2022-10-21 20:04:04.613
190.0, -142804.17773773405, -154364.07528687423, 54871.789201711326, -82428.91966449257, 70349.29935327762, -74123.16788711166, 85279.81761453362, -127424.59057862648, -0.01, 0.9420000000000001, -0.13, 192.0, 0.0, 0.0, 0.0, 0.0, 0.0, 0.0, 0.0, 0.0, 0.0, 1.6664078446131551E9, 0.0, 2022-10-21 20:04:04.613
191.0, -142804.93769704553, -154372.30072883377, 54867.520018520365, -82418.3472893652, 70350.86397538948, -74093.70828791957, 85314.17224576142, -127420.74607858015, -0.01, 0.9420000000000001, -0.13, 192.0, 0.0, 0.0, 0.0, 0.0, 0.0, 0.0, 0.0, 0.0, 0.0, 1.6664078446131692E9, 0.0, 2022-10-21 20:04:04.613
192.0, -142803.1048540002, -154367.47275203143, 54868.32468132075, -82414.05575442979, 70354.39555101343, -74076.51979643344, 85327.40447847897, -127417.81800005652, -0.01, 0.9420000000000001, -0.13, 192.0, 0.0, 0.0, 0.0, 0.0, 0.0, 0.0, 0.0, 0.0, 0.0, 1.6664078446132114E9, 0.0, 2022-10-21 20:04:04.613
193.0, -142801.69669409952, -154369.52911252133, 54865.64247198612, -82424.0022807124, 70348.82996664404, -74106.739354937, 85294.05567575166, -127428.70329960625, -0.01, 0.9420000000000001, -0.13, 192.0, 0.0, 0.0, 0.0, 0.0, 0.0, 0.0, 0.0, 0.0, 0.0, 1.6664078446132543E9, 0.0, 2022-10-21 20:04:04.613
194.0, -142789.8949730271, -154366.08694387518, 54867.363556309174, -82425.49984759091, 70345.16428055338, -74134.88020120624, 85269.73697778428, -127435.16295375384, -0.01, 0.9420000000000001, -0.13, 192.0, 0.0, 0.0, 0.0, 0.0, 0.0, 0.0, 0.0, 0.0, 0.0, 1.6664078446132977E9, 0.0, 2022-10-21 20:04:04.613
195.0, -142796.37697891914, -154370.22201659944, 54864.435477785526, -82418.3472893652, 70349.63462944444, -74109.01923287145, 85297.18491997539, -127433.7771455976, -0.01, 0.9420000000000001, -0.13, 192.0, 0.0, 0.0, 0.0, 0.0, 0.0, 0.0, 0.0, 0.0, 0.0, 1.66640784461334E9, 0.0, 2022-10-21 20:04:04.613
196.0, -142809.1174732587, -154380.8837987046, 54860.21099808348, -82429.38905112614, 70338.54816419461, -74092.1883692966, 85312.96525156085, -127434.76062235364, -0.012, 0.9480000000000001, -0.124, 192.0, 255.0, 160.0, 29.0, 160.0, 252.0, 32.0, 0.0, 0.0, 0.0, 1.6664078446133823E9, 0.0, 2022-10-21 20:04:04.613
197.0, -142812.09025527124, -154383.92363595054, 54856.21003582598, -82445.23643794494, 70333.74253913671, -74112.32729105084, 85284.42207389142, -127440.14739276737, -0.012, 0.9480000000000001, -0.124, 192.0, 0.0, 0.0, 0.0, 0.0, 0.0, 0.0, 0.0, 0.0, 0.0, 1.666407844613434E9, 0.0, 2022-10-21 20:04:04.613
198.0, -142801.07084525478, -154368.63504274312, 54872.72797497845, -82435.06639421778, 70350.7522166672, -74122.00559639998, 85274.60965807554, -127430.6255496294, -0.012, 0.9480000000000001, -0.124, 192.0, 0.0, 0.0, 0.0, 0.0, 0.0, 0.0, 0.0, 0.0, 0.0, 1.6664078446134765E9, 0.0, 2022-10-21 20:04:04.613
199.0, -142809.22923198095, -154370.84786544417, 54874.53846627933, -82419.37546961015, 70355.73665568074, -74102.38076476823, 85300.3812194325, -127427.56336063903, -0.012, 0.9480000000000001, -0.124, 192.0, 0.0, 0.0, 0.0, 0.0, 0.0, 0.0, 0.0, 0.0, 0.0, 1.6664078446135137E9, 0.0, 2022-10-21 20:04:04.613
200.0, -142804.64712436762, -154366.44457178647, 54875.49959129091, -82413.16168465158, 70356.09428359203, -74081.77245638042, 85322.39768772098, -127433.68773861979, -0.012, 0.9480000000000001, -0.124, 192.0, 0.0, 0.0, 0.0, 0.0, 0.0, 0.0, 0.0, 0.0, 0.0, 1.6664078446135352E9, 0.0, 2022-10-21 20:04:04.613
201.0, -142798.4109876646, -154361.95187115096, 54878.02533841436, -82431.64657731612, 70353.34501902403, -74091.47311347403, 85301.878786311, -127424.85879955994, -0.012, 0.9480000000000001, -0.124, 192.0, 0.0, 0.0, 0.0, 0.0, 0.0, 0.0, 0.0, 0.0, 0.0, 1.6664078446135457E9, 0.0, 2022-10-21 20:04:04.613
202.0, -142793.6500660956, -154357.07919085972, 54882.272169860866, -82426.88565574714, 70361.9057371504, -74106.56054098136, 85284.48912912478, -127416.34278492247, -0.012, 0.9480000000000001, -0.124, 192.0, 0.0, 0.0, 0.0, 0.0, 0.0, 0.0, 0.0, 0.0, 0.0, 1.666407844613556E9, 0.0, 2022-10-21 20:04:04.613
203.0, -142800.08736849873, -154361.92951940652, 54878.18180062554, -82418.81667599878, 70360.13994933844, -74105.30884329186, 85293.74275132928, -127424.76939258211, -0.012, 0.9480000000000001, -0.124, 192.0, 0.0, 0.0, 0.0, 0.0, 0.0, 0.0, 0.0, 0.0, 0.0, 1.666407844613566E9, 0.0, 2022-10-21 20:04:04.613
204.0, -142811.21853723747, -154374.35708932366, 54868.57055050976, -82423.01880395637, 70353.63559170194, -74087.5392064499, 85316.25095799577, -127426.53518039409, -0.012, 0.9480000000000001, -0.124, 192.0, 0.0, 0.0, 0.0, 0.0, 0.0, 0.0, 0.0, 0.0, 0.0, 1.666407844613576E9, 0.0, 2022-10-21 20:04:04.613
205.0, -142817.72289487396, -154384.81770572875, 54855.561835236775, -82444.6105891002, 70339.84456537302, -74106.2923200479, 85294.8826902965, -127444.46127944723, -0.016, 0.962, -0.122, 192.0, 255.0, 128.0, 30.0, 16.0, 252.0, 48.0, 0.0, 0.0, 0.0, 1.6664078446135864E9, 0.0, 2022-10-21 20:04:04.613
206.0, -142807.21757498, -154379.92267369304, 54858.71343120497, -82450.53380138085, 70337.98937058322, -74135.75191923999, 85265.89247773797, -127443.94718932477, -0.016, 0.962, -0.122, 192.0, 0.0, 0.0, 0.0, 0.0, 0.0, 0.0, 0.0, 0.0, 0.0, 1.6664078446135972E9, 0.0, 2022-10-21 20:04:04.613
207.0, -142803.08250225574, -154378.64862425908, 54862.04384112881, -82434.41819362857, 70345.87953637594, -74132.48856454952, 85276.01781797622, -127440.97440731221, -0.016, 0.962, -0.122, 192.0, 0.0, 0.0, 0.0, 0.0, 0.0, 0.0, 0.0, 0.0, 0.0, 1.6664078446136072E9, 0.0, 2022-10-21 20:04:04.613
208.0, -142803.6189441227, -154380.6379295156, 54863.116724862666, -82422.2588446449, 70348.44998698831, -74100.03383160042, 85311.60179514906, -127436.01232004314, -0.016, 0.962, -0.122, 192.0, 0.0, 0.0, 0.0, 0.0, 0.0, 0.0, 0.0, 0.0, 0.0, 1.6664078446136177E9, 0.0, 2022-10-21 20:04:04.613
209.0, -142806.32350520176, -154384.95181619548, 54856.43355327053, -82437.12275470767, 70338.59286768352, -74105.73352643651, 85301.27528921072, -127439.49919217816, -0.016, 0.962, -0.122, 192.0, 0.0, 0.0, 0.0, 0.0, 0.0, 0.0, 0.0, 0.0, 0.0, 1.6664078446136277E9, 0.0, 2022-10-21 20:04:04.613
210.0, -142808.1116447582, -154381.57670278274, 54856.2994428038, -82440.96725475398, 70343.51025146368, -74130.76748022647, 85271.41335861843, -127444.88596259188, -0.016, 0.962, -0.122, 192.0, 0.0, 0.0, 0.0, 0.0, 0.0, 0.0, 0.0, 0.0, 0.0, 1.6664078446136377E9, 0.0, 2022-10-21 20:04:04.613
211.0, -142805.67530461255, -154379.07330740374, 54861.86502717317, -82428.11500169217, 70357.5024434927, -74123.77138421196, 85280.9799052453, -127432.36898569691, -0.016, 0.962, -0.122, 192.0, 0.0, 0.0, 0.0, 0.0, 0.0, 0.0, 0.0, 0.0, 0.0, 1.666407844613648E9, 0.0, 2022-10-21 20:04:04.613
212.0, -142807.3069819578, -154379.11801089265, 54860.38981203912, -82417.76614400938, 70357.0554086036, -74105.35354678078, 85309.0313445367, -127425.70816584924, -0.016, 0.962, -0.122, 192.0, 0.0, 0.0, 0.0, 0.0, 0.0, 0.0, 0.0, 0.0, 0.0, 1.666407844613658E9, 0.0, 2022-10-21 20:04:04.613
213.0, -142813.72193261646, -154385.5776650402, 54850.465637500965, -82426.23745515794, 70351.62393470097, -74106.47113400354, 85306.86322532455, -127432.57015139701, -0.016, 0.962, -0.122, 192.0, 0.0, 0.0, 0.0, 0.0, 0.0, 0.0, 0.0, 0.0, 0.0, 1.6664078446136684E9, 0.0, 2022-10-21 20:04:04.613
214.0, -142815.04068553934, -154388.17046739705, 54844.162445564565, -82442.39776639912, 70343.28673401913, -74131.50508779348, 85272.39683537446, -127443.09782303547, -0.016, 0.962, -0.122, 192.0, 0.0, 0.0, 0.0, 0.0, 0.0, 0.0, 0.0, 0.0, 0.0, 1.6664078446136787E9, 0.0, 2022-10-21 20:04:04.613
215.0, -142806.77054009086, -154382.64958651658, 54845.7941229098, -82432.3618331387, 70352.04861784562, -74133.91907619465, 85270.51928884021, -127430.44673567376, -0.012, 0.96, -0.12, 192.0, 255.0, 160.0, 30.0, 0.0, 252.0, 64.0, 0.0, 0.0, 0.0, 1.666407844613721E9, 0.0, 2022-10-21 20:04:04.613
216.0, -142806.27880171285, -154387.9469499525, 54846.48702698792, -82416.38033585314, 70357.32362953707, -74105.21943631404, 85304.60569913455, -127427.98804378368, -0.012, 0.96, -0.12, 192.0, 0.0, 0.0, 0.0, 0.0, 0.0, 0.0, 0.0, 0.0, 0.0, 1.6664078446137319E9, 0.0, 2022-10-21 20:04:04.613
217.0, -142811.37499944866, -154387.3434528522, 54847.8951868886, -82426.28215864685, 70352.56270796809, -74095.00468909797, 85314.21694925035, -127440.39326195637, -0.012, 0.96, -0.12, 192.0, 0.0, 0.0, 0.0, 0.0, 0.0, 0.0, 0.0, 0.0, 0.0, 1.666407844613742E9, 0.0, 2022-10-21 20:04:04.613
218.0, -142806.59172613523, -154383.3424905947, 54848.990422366915, -82434.37349013967, 70351.17689981185, -74119.993939399, 85284.60088784706, -127442.69549163527, -0.012, 0.96, -0.12, 192.0, 0.0, 0.0, 0.0, 0.0, 0.0, 0.0, 0.0, 0.0, 0.0, 1.6664078446137533E9, 0.0, 2022-10-21 20:04:04.613
219.0, -142793.4489003955, -154382.96251093896, 54849.7950851673, -82437.23451342995, 70354.99904811372, -74132.37680582724, 85272.93327724139, -127433.03953803059, -0.012, 0.96, -0.12, 192.0, 0.0, 0.0, 0.0, 0.0, 0.0, 0.0, 0.0, 0.0, 0.0, 1.6664078446137643E9, 0.0, 2022-10-21 20:04:04.613
220.0, -142787.1010049702, -154379.31917659275, 54850.175064823045, -82415.3968590971, 70365.7055337078, -74104.88416014721, 85303.84573982308, -127427.54100889458, -0.012, 0.96, -0.12, 192.0, 0.0, 0.0, 0.0, 0.0, 0.0, 0.0, 0.0, 0.0, 0.0, 1.6664078446137745E9, 0.0, 2022-10-21 20:04:04.613
221.0, -142810.8609093262, -154389.22099938645, 54838.46275072846, -82422.81763825627, 70358.08358884855, -74091.80838964086, 85313.21112074985, -127443.81307885803, -0.012, 0.96, -0.12, 192.0, 0.0, 0.0, 0.0, 0.0, 0.0, 0.0, 0.0, 0.0, 0.0, 1.6664078446137848E9, 0.0, 2022-10-21 20:04:04.613
222.0, -142803.2613162114, -154381.91197894956, 54853.43841951352, -82418.5484550653, 70364.31972555158, -74099.65385194468, 85300.31416419914, -127434.47004967571, -0.012, 0.96, -0.12, 192.0, 0.0, 0.0, 0.0, 0.0, 0.0, 0.0, 0.0, 0.0, 0.0, 1.6664078446137955E9, 0.0, 2022-10-21 20:04:04.613
223.0, -142796.93577253053, -154372.56894976724, 54863.27318707385, -82418.25788238739, 70369.75119945421, -74121.58091325533, 85283.17037620192, -127425.7752210826, -0.012, 0.96, -0.12, 192.0, 0.0, 0.0, 0.0, 0.0, 0.0, 0.0, 0.0, 0.0, 0.0, 1.6664078446138072E9, 0.0, 2022-10-21 20:04:04.613
224.0, -142804.73653134544, -154374.0888683902, 54863.47435277395, -82408.91485320507, 70372.32165006657, -74108.92982589362, 85308.3384404586, -127418.55560762354, -0.012, 0.96, -0.12, 192.0, 0.0, 0.0, 0.0, 0.0, 0.0, 0.0, 0.0, 0.0, 0.0, 1.666407844613818E9, 0.0, 2022-10-21 20:04:04.613
225.0, -142802.94839178902, -154375.09469689068, 54863.0496696293, -82404.42215256956, 70372.96985065578, -74079.42552321262, 85336.25576928328, -127414.86756978842, -0.016, 0.9500000000000001, -0.12, 192.0, 255.0, 128.0, 29.0, 176.0, 252.0, 64.0, 0.0, 0.0, 0.0, 1.6664078446138287E9, 0.0, 2022-10-21 20:04:04.613
226.0, -142797.1145864862, -154373.2842055898, 54869.24110284342, -82406.72438224846, 70380.59179551504, -74075.84924409977, 85327.7397546458, -127415.98515701118, -0.016, 0.9500000000000001, -0.12, 192.0, 0.0, 0.0, 0.0, 0.0, 0.0, 0.0, 0.0, 0.0, 0.0, 1.66640784461384E9, 0.0, 2022-10-21 20:04:04.613
227.0, -142803.77540633385, -154380.21324637096, 54864.72605046345, -82413.47460907395, 70378.93776642536, -74104.45947700256, 85298.34721068708, -127423.96472978173, -0.016, 0.9500000000000001, -0.12, 192.0, 0.0, 0.0, 0.0, 0.0, 0.0, 0.0, 0.0, 0.0, 0.0, 1.666407844613851E9, 0.0, 2022-10-21 20:04:04.613
228.0, -142804.468310412, -154380.10148764867, 54863.876684174145, -82404.75742873638, 70376.74729546873, -74104.235959558, 85304.15866424545, -127423.09301174797, -0.016, 0.9500000000000001, -0.12, 192.0, 0.0, 0.0, 0.0, 0.0, 0.0, 0.0, 0.0, 0.0, 0.0, 1.666407844613862E9, 0.0, 2022-10-21 20:04:04.613
229.0, -142807.1058162577, -154384.0800981617, 54858.914596905066, -82410.23360612793, 70365.75023719671, -74093.48477047501, 85320.76601037575, -127429.64207287336, -0.016, 0.9500000000000001, -0.12, 192.0, 0.0, 0.0, 0.0, 0.0, 0.0, 0.0, 0.0, 0.0, 0.0, 1.6664078446138728E9, 0.0, 2022-10-21 20:04:04.613
230.0, -142800.02031326538, -154377.8886649476, 54865.19543709701, -82411.53000730634, 70372.09813262202, -74091.92014836313, 85318.26261499675, -127429.1726862398, -0.016, 0.9500000000000001, -0.12, 192.0, 0.0, 0.0, 0.0, 0.0, 0.0, 0.0, 0.0, 0.0, 0.0, 1.6664078446138937E9, 0.0, 2022-10-21 20:04:04.613
231.0, -142781.98245548992, -154364.05293512976, 54883.38975708363, -82402.54460603531, 70385.82210371758, -74103.74422118, 85302.14700724448, -127402.55175859354, -0.016, 0.9500000000000001, -0.12, 192.0, 0.0, 0.0, 0.0, 0.0, 0.0, 0.0, 0.0, 0.0, 0.0, 1.6664078446139047E9, 0.0, 2022-10-21 20:04:04.613
232.0, -142774.56167633078, -154360.96839439493, 54886.4072425851, -82392.03928614131, 70394.00284218823, -74100.6373287007, 85313.88167308351, -127400.76361903711, -0.016, 0.9500000000000001, -0.12, 192.0, 0.0, 0.0, 0.0, 0.0, 0.0, 0.0, 0.0, 0.0, 0.0, 1.6664078446139157E9, 0.0, 2022-10-21 20:04:04.613
233.0, -142799.3497609317, -154381.19672312698, 54866.76005920888, -82401.40466706808, 70374.93680416785, -74093.32830826382, 85326.42100172293, -127426.2222559717, -0.016, 0.9500000000000001, -0.12, 192.0, 0.0, 0.0, 0.0, 0.0, 0.0, 0.0, 0.0, 0.0, 0.0, 1.666407844613927E9, 0.0, 2022-10-21 20:04:04.613
234.0, -142819.01929605237, -154390.45034533148, 54863.34024230722, -82406.43380957053, 70370.57821399906, -74096.56931120984, 85316.29566148468, -127444.79655561407, -0.016, 0.9500000000000001, -0.12, 192.0, 0.0, 0.0, 0.0, 0.0, 0.0, 0.0, 0.0, 0.0, 0.0, 1.6664078446139386E9, 0.0, 2022-10-21 20:04:04.613
235.0, -142796.93577253053, -154380.2355981154, 54872.5044575339, -82405.56209153678, 70378.42367630287, -74114.36129979626, 85292.96044027334, -127442.74019512418, -0.016, 0.9500000000000001, -0.11800000000000001, 192.0, 255.0, 128.0, 29.0, 176.0, 252.0, 80.0, 0.0, 0.0, 0.0, 1.6664078446139498E9, 0.0, 2022-10-21 20:04:04.613
236.0, -142798.03100800884, -154386.31527260726, 54867.028280142345, -82408.02078342687, 70374.04273438963, -74127.59353251381, 85284.39972214696, -127443.92483758031, -0.016, 0.9500000000000001, -0.11800000000000001, 192.0, 0.0, 0.0, 0.0, 0.0, 0.0, 0.0, 0.0, 0.0, 0.0, 1.6664078446139617E9, 0.0, 2022-10-21 20:04:04.613
237.0, -142797.82984230874, -154381.66610976055, 54866.98357665343, -82395.88378618762, 70378.55778676961, -74092.07661057432, 85321.25774875376, -127431.25139847415, -0.016, 0.9500000000000001, -0.11800000000000001, 192.0, 0.0, 0.0, 0.0, 0.0, 0.0, 0.0, 0.0, 0.0, 0.0, 1.666407844613974E9, 0.0, 2022-10-21 20:04:04.613
238.0, -142797.82984230874, -154377.55338878077, 54872.37034706716, -82396.3978763101, 70381.73173448227, -74073.52466267641, 85333.57355994864, -127429.79853508456, -0.016, 0.9500000000000001, -0.11800000000000001, 192.0, 0.0, 0.0, 0.0, 0.0, 0.0, 0.0, 0.0, 0.0, 0.0, 1.6664078446139848E9, 0.0, 2022-10-21 20:04:04.613
239.0, -142791.97368526147, -154376.14522888008, 54879.14292563712, -82406.23264387043, 70380.90471993742, -74098.64802344418, 85306.63970788, -127428.16685773933, -0.016, 0.9500000000000001, -0.11800000000000001, 192.0, 0.0, 0.0, 0.0, 0.0, 0.0, 0.0, 0.0, 0.0, 0.0, 1.666407844613996E9, 0.0, 2022-10-21 20:04:04.613
240.0, -142783.36826364617, -154361.81776068424, 54891.995178698926, -82391.1452163631, 70392.92995845438, -74106.42643051464, 85306.10326601306, -127415.80634305553, -0.016, 0.9500000000000001, -0.11800000000000001, 192.0, 0.0, 0.0, 0.0, 0.0, 0.0, 0.0, 0.0, 0.0, 0.0, 1.6664078446140122E9, 0.0, 2022-10-21 20:04:04.614
241.0, -142793.18067946204, -154375.20645561296, 54880.640492515624, -82375.81191966677, 70390.7171357533, -74087.89683436118, 85327.91856860144, -127418.51090413463, -0.016, 0.9500000000000001, -0.11800000000000001, 192.0, 0.0, 0.0, 0.0, 0.0, 0.0, 0.0, 0.0, 0.0, 0.0, 1.6664078446140232E9, 0.0, 2022-10-21 20:04:04.614
242.0, -142804.64712436762, -154388.8410197307, 54866.02245164185, -82389.37942855114, 70376.65788849091, -74081.05720055786, 85333.2382837818, -127429.9326455513, -0.016, 0.9500000000000001, -0.11800000000000001, 192.0, 0.0, 0.0, 0.0, 0.0, 0.0, 0.0, 0.0, 0.0, 0.0, 1.666407844614034E9, 0.0, 2022-10-21 20:04:04.614
243.0, -142801.42847316604, -154388.10341216368, 54863.98844289642, -82400.84587345671, 70369.03594363165, -74106.15820958116, 85301.72232409983, -127445.64592190337, -0.016, 0.9500000000000001, -0.11800000000000001, 192.0, 0.0, 0.0, 0.0, 0.0, 0.0, 0.0, 0.0, 0.0, 0.0, 1.666407844614045E9, 0.0, 2022-10-21 20:04:04.614
244.0, -142789.17971720453, -154381.06261266026, 54871.09629763321, -82402.09757114621, 70374.37801055647, -74117.60230274228, 85286.34432391457, -127437.5322386661, -0.018000000000000002, 0.9560000000000001, -0.116, 192.0, 255.0, 112.0, 29.0, 224.0, 252.0, 96.0, 0.0, 0.0, 0.0, 1.6664078446140568E9, 0.0, 2022-10-21 20:04:04.614
245.0, -142784.9552375025, -154373.44066780098, 54878.02533841436, -82377.8459284122, 70391.23122587577, -74090.82491288483, 85321.36950747603, -127425.41759317133, -0.018000000000000002, 0.9560000000000001, -0.116, 192.0, 0.0, 0.0, 0.0, 0.0, 0.0, 0.0, 0.0, 0.0, 0.0, 1.6664078446140783E9, 0.0, 2022-10-21 20:04:04.614
246.0, -142787.8609642817, -154376.0334701578, 54875.92427443556, -82370.11222483066, 70388.2137403743, -74070.6859911306, 85340.3908420075, -127417.7732965676, -0.018000000000000002, 0.9560000000000001, -0.116, 192.0, 0.0, 0.0, 0.0, 0.0, 0.0, 0.0, 0.0, 0.0, 0.0, 1.6664078446140895E9, 0.0, 2022-10-21 20:04:04.614
247.0, -142795.03587425183, -154368.54563576527, 54876.70658549149, -82373.48733824342, 70390.09128690854, -74083.24767151447, 85319.62607140852, -127430.60319788495, -0.018000000000000002, 0.9560000000000001, -0.116, 192.0, 0.0, 0.0, 0.0, 0.0, 0.0, 0.0, 0.0, 0.0, 0.0, 1.6664078446141005E9, 0.0, 2022-10-21 20:04:04.614
248.0, -142796.2652201969, -154367.38334505362, 54877.511248291885, -82384.01500988186, 70387.94551944084, -74109.242750316, 85296.64847810847, -127438.22514274421, -0.018000000000000002, 0.9560000000000001, -0.116, 192.0, 0.0, 0.0, 0.0, 0.0, 0.0, 0.0, 0.0, 0.0, 0.0, 1.6664078446141112E9, 0.0, 2022-10-21 20:04:04.614
249.0, -142797.06988299728, -154383.20838012797, 54867.74353596492, -82378.96351563497, 70384.50335079472, -74107.87929390423, 85306.77381834673, -127444.14835502487, -0.018000000000000002, 0.9560000000000001, -0.116, 192.0, 0.0, 0.0, 0.0, 0.0, 0.0, 0.0, 0.0, 0.0, 0.0, 1.6664078446141224E9, 0.0, 2022-10-21 20:04:04.614
250.0, -142794.2982666848, -154390.11506916466, 54859.42868702754, -82376.54952723379, 70380.70355423732, -74082.86769185873, 85331.7407169033, -127440.57207591202, -0.018000000000000002, 0.9560000000000001, -0.116, 192.0, 0.0, 0.0, 0.0, 0.0, 0.0, 0.0, 0.0, 0.0, 0.0, 1.666407844614133E9, 0.0, 2022-10-21 20:04:04.614
251.0, -142801.98726677743, -154393.17725815502, 54856.63471897063, -82392.24045184141, 70379.11658038099, -74084.05233431487, 85319.9389958309, -127436.36994795442, -0.018000000000000002, 0.9560000000000001, -0.116, 192.0, 0.0, 0.0, 0.0, 0.0, 0.0, 0.0, 0.0, 0.0, 0.0, 1.666407844614144E9, 0.0, 2022-10-21 20:04:04.614
252.0, -142802.0543220108, -154384.21420862846, 54866.469486530965, -82395.25793734287, 70385.88915895094, -74105.95704388106, 85297.65430660895, -127429.35150019545, -0.018000000000000002, 0.9560000000000001, -0.116, 192.0, 0.0, 0.0, 0.0, 0.0, 0.0, 0.0, 0.0, 0.0, 0.0, 1.6664078446141546E9, 0.0, 2022-10-21 20:04:04.614
253.0, -142806.50231915741, -154386.7846592408, 54860.99330913941, -82391.05580938529, 70382.20112111582, -74115.70240446358, 85298.45896940934, -127443.76837536912, -0.018000000000000002, 0.9560000000000001, -0.116, 192.0, 0.0, 0.0, 0.0, 0.0, 0.0, 0.0, 0.0, 0.0, 0.0, 1.6664078446141655E9, 0.0, 2022-10-21 20:04:04.614
254.0, -142813.87839482765, -154391.52322906535, 54856.16533233706, -82384.41734128205, 70381.66467924889, -74091.13783730721, 85325.99631857828, -127447.32230273752, -0.02, 0.9560000000000001, -0.114, 192.0, 255.0, 96.0, 29.0, 224.0, 252.0, 112.0, 0.0, 0.0, 0.0, 1.6664078446141765E9, 0.0, 2022-10-21 20:04:04.614
255.0, -142801.6519906106, -154385.22003712895, 54865.95539640849, -82386.80897793878, 70383.83279846107, -74082.0853808028, 85326.75627788977, -127439.40978520035, -0.02, 0.9560000000000001, -0.114, 192.0, 0.0, 0.0, 0.0, 0.0, 0.0, 0.0, 0.0, 0.0, 0.0, 1.6664078446141877E9, 0.0, 2022-10-21 20:04:04.614
0.0, -142791.3031329278, -154375.42997305753, 54873.37617556765, -82376.75069293389, 70391.54415029814, -74107.05227935938, 85303.24224272279, -127429.61972112891, -0.02, 0.9560000000000001, -0.114, 192.0, 0.0, 0.0, 0.0, 0.0, 0.0, 0.0, 0.0, 0.0, 0.0, 1.6664078446141987E9, 0.0, 2022-10-21 20:04:04.614
1.0, -142808.84925232522, -154388.14811565258, 54861.75326845089, -82393.4027425531, 70376.12144662398, -74127.63823600272, 85286.59019310358, -127451.18915452829, -0.02, 0.9560000000000001, -0.114, 192.0, 0.0, 0.0, 0.0, 0.0, 0.0, 0.0, 0.0, 0.0, 0.0, 1.6664078446142092E9, 0.0, 2022-10-21 20:04:04.614
2.0, -142806.4129121796, -154385.9799964404, 54871.09629763321, -82369.66518994156, 70389.2642723637, -74082.95709883656, 85328.07503081263, -127444.68479689179, -0.02, 0.9560000000000001, -0.114, 192.0, 0.0, 0.0, 0.0, 0.0, 0.0, 0.0, 0.0, 0.0, 0.0, 1.6664078446142201E9, 0.0, 2022-10-21 20:04:04.614
3.0, -142795.37115041868, -154378.96154868146, 54880.39462332662, -82356.92469560202, 70400.1719236579, -74060.47124391452, 85341.48607748581, -127428.23391297269, -0.02, 0.9560000000000001, -0.114, 192.0, 0.0, 0.0, 0.0, 0.0, 0.0, 0.0, 0.0, 0.0, 0.0, 1.666407844614231E9, 0.0, 2022-10-21 20:04:04.614
4.0, -142796.5557928748, -154385.26474061786, 54876.01368141338, -82373.82261441024, 70393.35464159903, -74093.14949430818, 85305.41036193495, -127431.4749159187, -0.02, 0.9560000000000001, -0.114, 192.0, 0.0, 0.0, 0.0, 0.0, 0.0, 0.0, 0.0, 0.0, 0.0, 1.6664078446142545E9, 0.0, 2022-10-21 20:04:04.614
5.0, -142811.55381340432, -154393.26666513286, 54865.93304466404, -82387.85950992817, 70383.31870833859, -74115.9482736526, 85288.71360882683, -127448.70811089374, -0.02, 0.9560000000000001, -0.114, 192.0, 0.0, 0.0, 0.0, 0.0, 0.0, 0.0, 0.0, 0.0, 0.0, 1.6664078446142662E9, 0.0, 2022-10-21 20:04:04.614
6.0, -142813.25254598292, -154392.81963024376, 54870.157524366085, -82374.91784988854, 70387.00674617372, -74086.55572969386, 85323.44821971038, -127443.54485792457, -0.02, 0.9560000000000001, -0.114, 192.0, 0.0, 0.0, 0.0, 0.0, 0.0, 0.0, 0.0, 0.0, 0.0, 1.666407844614277E9, 0.0, 2022-10-21 20:04:04.614
7.0, -142812.47023492696, -154393.9372174665, 54866.33537606423, -82375.58840222222, 70390.5159700532, -74068.31670621833, 85336.1887140499, -127437.48753517718, -0.02, 0.9560000000000001, -0.114, 192.0, 0.0, 0.0, 0.0, 0.0, 0.0, 0.0, 0.0, 0.0, 0.0, 1.6664078446142876E9, 0.0, 2022-10-21 20:04:04.614
8.0, -142803.9095168006, -154391.5455808098, 54864.68134697454, -82380.86341391366, 70387.8114089741, -74095.04939258688, 85303.3316497006, -127443.09782303547, -0.022, 0.9560000000000001, -0.116, 192.0, 255.0, 80.0, 29.0, 224.0, 252.0, 96.0, 0.0, 0.0, 0.0, 1.6664078446142983E9, 0.0, 2022-10-21 20:04:04.614
9.0, -142790.4984701274, -154379.45328705947, 54871.85625694469, -82377.8906319011, 70389.01840317469, -74110.18152358312, 85293.31806818463, -127435.0288432871, -0.022, 0.9560000000000001, -0.116, 192.0, 0.0, 0.0, 0.0, 0.0, 0.0, 0.0, 0.0, 0.0, 0.0, 1.66640784461431E9, 0.0, 2022-10-21 20:04:04.614
10.0, -142795.9969992634, -154374.80412421277, 54872.951492423, -82362.66909392705, 70390.3148043531, -74095.47407573153, 85320.92247258693, -127436.10172702096, -0.022, 0.9560000000000001, -0.116, 192.0, 0.0, 0.0, 0.0, 0.0, 0.0, 0.0, 0.0, 0.0, 0.0, 1.6664078446143205E9, 0.0, 2022-10-21 20:04:04.614
11.0, -142805.09415925673, -154382.5825312832, 54867.00592839789, -82364.32312301673, 70384.81627521709, -74077.4362179561, 85336.45693498338, -127440.57207591202, -0.022, 0.9560000000000001, -0.116, 192.0, 0.0, 0.0, 0.0, 0.0, 0.0, 0.0, 0.0, 0.0, 0.0, 1.6664078446143317E9, 0.0, 2022-10-21 20:04:04.614
12.0, -142800.73556908793, -154386.04705167378, 54868.36938480967, -82373.82261441024, 70386.17973162887, -74090.08730531781, 85315.6921643844, -127435.4758781762, -0.022, 0.9560000000000001, -0.116, 192.0, 0.0, 0.0, 0.0, 0.0, 0.0, 0.0, 0.0, 0.0, 0.0, 1.6664078446143425E9, 0.0, 2022-10-21 20:04:04.614
13.0, -142795.9522957745, -154382.7389934944, 54871.94566392251, -82375.87897490013, 70388.50431305222, -74112.66256721766, 85293.42982690691, -127439.45448868925, -0.022, 0.9560000000000001, -0.116, 192.0, 0.0, 0.0, 0.0, 0.0, 0.0, 0.0, 0.0, 0.0, 0.0, 1.6664078446143532E9, 0.0, 2022-10-21 20:04:04.614
14.0, -142800.5120516434, -154390.07036567575, 54867.296501075805, -82373.86731789914, 70385.10684789502, -74103.11837233524, 85309.32191721463, -127437.46518343272, -0.022, 0.9560000000000001, -0.116, 192.0, 0.0, 0.0, 0.0, 0.0, 0.0, 0.0, 0.0, 0.0, 0.0, 1.666407844614364E9, 0.0, 2022-10-21 20:04:04.614
15.0, -142794.1641562181, -154370.06555438825, 54862.110896362174, -82368.99463760789, 70386.06797290659, -74075.67043014414, 85336.8369146391, -127438.24749448866, -0.022, 0.9560000000000001, -0.116, 192.0, 0.0, 0.0, 0.0, 0.0, 0.0, 0.0, 0.0, 0.0, 0.0, 1.6664078446143744E9, 0.0, 2022-10-21 20:04:04.614
16.0, -142796.84636555272, -154361.90716766205, 54851.40441076808, -82392.97805940844, 70368.52185350917, -74100.77143916744, 85305.09743751258, -127452.5302591956, -0.022, 0.9560000000000001, -0.116, 192.0, 0.0, 0.0, 0.0, 0.0, 0.0, 0.0, 0.0, 0.0, 0.0, 1.6664078446143851E9, 0.0, 2022-10-21 20:04:04.614
17.0, -142796.958124275, -154380.10148764867, 54855.87475965915, -82396.93431817702, 70371.74050471075, -74124.41958480116, 85279.41528313342, -127448.64105566038, -0.024, 0.9520000000000001, -0.112, 192.0, 255.0, 64.0, 29.0, 192.0, 252.0, 128.0, 0.0, 0.0, 0.0, 1.6664078446143963E9, 0.0, 2022-10-21 20:04:04.614
18.0, -142811.73262735995, -154399.1898774135, 54859.249873071894, -82381.2880970583, 70382.67050774938, -74108.2369218155, 85301.31999269963, -127435.81115434304, -0.024, 0.9520000000000001, -0.112, 192.0, 0.0, 0.0, 0.0, 0.0, 0.0, 0.0, 0.0, 0.0, 0.0, 1.666407844614408E9, 0.0, 2022-10-21 20:04:04.614
19.0, -142817.67819138506, -154405.3366071387, 54857.39467828211, -82371.27451554233, 70382.93872868284, -74083.65000291467, 85332.3889174925, -127443.27663699111, -0.024, 0.9520000000000001, -0.112, 192.0, 0.0, 0.0, 0.0, 0.0, 0.0, 0.0, 0.0, 0.0, 0.0, 1.66640784461445E9, 0.0, 2022-10-21 20:04:04.614
20.0, -142827.53531068985, -154410.7457292969, 54855.87475965915, -82377.55535573428, 70379.92124318138, -74089.05912507286, 85319.40255396397, -127446.98702657068, -0.024, 0.9520000000000001, -0.112, 192.0, 0.0, 0.0, 0.0, 0.0, 0.0, 0.0, 0.0, 0.0, 0.0, 1.6664078446144612E9, 0.0, 2022-10-21 20:04:04.614
0.0, 0.0, 0.0, 0.0, 0.0, 0.0, 0.0, 0.0, 0.0, -0.024, 0.9520000000000001, -0.112, 192.0, 0.0, 0.0, 0.0, 0.0, 0.0, 0.0, 0.0, 0.0, 0.0, 1.6664078447243197E9, 0.0, 2022-10-21 20:04:04.724
1.0, -143253.62661524137, -154953.11080850492, 54307.5194129371, -82925.55307454504, 70547.93930625192, -75176.20327189009, 85097.76265594515, -127519.36197511698, -0.02, 0.9520000000000001, -0.11, 192.0, 255.0, 96.0, 29.0, 192.0, 252.0, 144.0, 0.0, 0.0, 0.0, 1.666407845211338E9, 0.0, 2022-10-21 20:04:05.211
2.0, -143259.68393798877, -154959.65986963033, 54298.51165992161, -82931.81156299253, 70541.61376257107, -75172.33642009931, 85100.9366036578, -127529.57672233305, -0.02, 0.9520000000000001, -0.11, 192.0, 0.0, 0.0, 0.0, 0.0, 0.0, 0.0, 0.0, 0.0, 0.0, 1.666407845211387E9, 0.0, 2022-10-21 20:04:05.211
3.0, -143259.23690309966, -154959.0340207856, 54297.79640409904, -82929.03994668007, 70544.69830330591, -75189.61431856327, 85072.37107424391, -127533.95766424629, -0.02, 0.9520000000000001, -0.11, 192.0, 0.0, 0.0, 0.0, 0.0, 0.0, 0.0, 0.0, 0.0, 0.0, 1.6664078452114315E9, 0.0, 2022-10-21 20:04:05.211
4.0, -143266.50122004762, -154969.36052672393, 54291.672026118285, -82937.06422293953, 70541.36789338206, -75210.13321997324, 85052.07569027849, -127539.43384163785, -0.02, 0.9520000000000001, -0.11, 192.0, 0.0, 0.0, 0.0, 0.0, 0.0, 0.0, 0.0, 0.0, 0.0, 1.666407845211449E9, 0.0, 2022-10-21 20:04:05.211
5.0, -143269.89868520483, -154974.74729713766, 54286.218200471194, -82936.86305723943, 70535.93641947942, -75195.20225467709, 85076.41673999032, -127541.62431259446, -0.02, 0.9520000000000001, -0.11, 192.0, 0.0, 0.0, 0.0, 0.0, 0.0, 0.0, 0.0, 0.0, 0.0, 1.6664078452114744E9, 0.0, 2022-10-21 20:04:05.211
6.0, -143263.2602171016, -154966.1865790113, 54289.81683132849, -82928.9728914467, 70539.93738173692, -75178.70666726907, 85095.95216464427, -127541.06551898307, -0.02, 0.9520000000000001, -0.11, 192.0, 0.0, 0.0, 0.0, 0.0, 0.0, 0.0, 0.0, 0.0, 0.0, 1.666407845211491E9, 0.0, 2022-10-21 20:04:05.211
7.0, -143264.37780432438, -154966.56655866702, 54286.82169757148, -82933.48794382668, 70541.56905908216, -75189.94959473009, 85075.14269055637, -127547.21224870828, -0.02, 0.9560000000000001, -0.12, 192.0, 255.0, 96.0, 29.0, 224.0, 252.0, 64.0, 0.0, 0.0, 0.0, 1.666407845211507E9, 0.0, 2022-10-21 20:04:05.211
8.0, -143258.14166762136, -154959.1234277634, 54289.906238306314, -82931.9233217148, 70544.51948935026, -75211.69784208511, 85053.57325715701, -127543.97124576227, -0.02, 0.9560000000000001, -0.12, 192.0, 0.0, 0.0, 0.0, 0.0, 0.0, 0.0, 0.0, 0.0, 0.0, 1.6664078452115257E9, 0.0, 2022-10-21 20:04:05.211
9.0, -143259.32631007748, -154961.04567778655, 54287.73811909415, -82918.57933027498, 70547.98400974083, -75195.38106863273, 85076.86377487943, -127536.59517009201, -0.02, 0.9560000000000001, -0.12, 192.0, 0.0, 0.0, 0.0, 0.0, 0.0, 0.0, 0.0, 0.0, 0.0, 1.6664078452115421E9, 0.0, 2022-10-21 20:04:05.211
10.0, -143260.68976648926, -154964.0855150325, 54287.38049118286, -82919.92043494231, 70547.46991961836, -75178.3490393578, 85098.27674606763, -127536.28224566964, -0.02, 0.9560000000000001, -0.12, 192.0, 0.0, 0.0, 0.0, 0.0, 0.0, 0.0, 0.0, 0.0, 0.0, 1.6664078452115583E9, 0.0, 2022-10-21 20:04:05.211
11.0, -143256.37587980938, -154960.15160800834, 54288.20750572771, -82928.27998736859, 70551.2026609424, -75181.76885625946, 85084.28455403859, -127534.98584449124, -0.02, 0.9560000000000001, -0.12, 192.0, 0.0, 0.0, 0.0, 0.0, 0.0, 0.0, 0.0, 0.0, 0.0, 1.666407845211575E9, 0.0, 2022-10-21 20:04:05.211
12.0, -143258.02990889907, -154961.51506442012, 54282.731328336165, -82937.95829271774, 70548.47574811886, -75202.62303383625, 85059.74233862667, -127538.89739977091, -0.02, 0.9560000000000001, -0.12, 192.0, 0.0, 0.0, 0.0, 0.0, 0.0, 0.0, 0.0, 0.0, 0.0, 1.6664078452115915E9, 0.0, 2022-10-21 20:04:05.211
13.0, -143256.62174899838, -154959.41400044132, 54278.84212480094, -82934.71728977171, 70545.92764925095, -75200.81254253538, 85068.30305675305, -127538.24919918171, -0.02, 0.9560000000000001, -0.12, 192.0, 0.0, 0.0, 0.0, 0.0, 0.0, 0.0, 0.0, 0.0, 0.0, 1.666407845211686E9, 0.0, 2022-10-21 20:04:05.211
14.0, -143248.37395529437, -154948.95338403623, 54283.80421207002, -82918.98166167518, 70551.64969583151, -75172.87286196624, 85100.62367923543, -127526.15690543139, -0.02, 0.9560000000000001, -0.12, 192.0, 0.0, 0.0, 0.0, 0.0, 0.0, 0.0, 0.0, 0.0, 0.0, 1.6664078452117014E9, 0.0, 2022-10-21 20:04:05.211
15.0, -143250.22915008417, -154950.38389568139, 54281.79255506904, -82926.20127513424, 70552.56611735417, -75170.61533577625, 85093.04643786508, -127528.03445196564, -0.02, 0.9560000000000001, -0.12, 192.0, 0.0, 0.0, 0.0, 0.0, 0.0, 0.0, 0.0, 0.0, 0.0, 1.666407845211717E9, 0.0, 2022-10-21 20:04:05.211
16.0, -143255.23594084216, -154954.831892828, 54275.17643871027, -82938.24886539565, 70543.04427421621, -75209.7979438064, 85055.38374845788, -127532.25893166769, -0.02, 0.9560000000000001, -0.12, 192.0, 0.0, 0.0, 0.0, 0.0, 0.0, 0.0, 0.0, 0.0, 0.0, 1.6664078452117317E9, 0.0, 2022-10-21 20:04:05.211
17.0, -143249.5585977505, -154949.33336369199, 54280.339691679445, -82921.21683612072, 70549.28041091924, -75214.46945839757, 85060.74816712715, -127529.50966709969, -0.014, 0.9520000000000001, -0.122, 192.0, 255.0, 144.0, 29.0, 192.0, 252.0, 48.0, 0.0, 0.0, 0.0, 1.6664078452117465E9, 0.0, 2022-10-21 20:04:05.211
18.0, -143250.11739136188, -154951.4791311597, 54280.764374824095, -82911.9185104273, 70556.14239646702, -75165.1391583847, 85099.50609201266, -127526.0451467091, -0.014, 0.9520000000000001, -0.122, 192.0, 0.0, 0.0, 0.0, 0.0, 0.0, 0.0, 0.0, 0.0, 0.0, 1.666407845211761E9, 0.0, 2022-10-21 20:04:05.211
19.0, -143248.39630703884, -154947.9699072802, 54278.864476545394, -82917.50644654113, 70555.74006506683, -75158.83596644831, 85095.0357431216, -127529.24144616623, -0.014, 0.9520000000000001, -0.122, 192.0, 0.0, 0.0, 0.0, 0.0, 0.0, 0.0, 0.0, 0.0, 0.0, 1.6664078452117727E9, 0.0, 2022-10-21 20:04:05.211
20.0, -143243.30010930303, -154941.10792173241, 54282.6642731028, -82920.56863553151, 70558.22110870137, -75191.17894067513, 85062.60336191695, -127527.56506533208, -0.014, 0.9520000000000001, -0.122, 192.0, 0.0, 0.0, 0.0, 0.0, 0.0, 0.0, 0.0, 0.0, 0.0, 1.6664078452117844E9, 0.0, 2022-10-21 20:04:05.211
21.0, -143239.50031274563, -154937.9116222753, 54283.491287647645, -82909.03513539257, 70559.4057511575, -75204.2547111815, 85059.31765548202, -127527.2968443986, -0.014, 0.9520000000000001, -0.122, 192.0, 0.0, 0.0, 0.0, 0.0, 0.0, 0.0, 0.0, 0.0, 0.0, 1.666407845211796E9, 0.0, 2022-10-21 20:04:05.211
22.0, -143248.12808610537, -154946.5617473795, 54275.33290092146, -82905.25769057962, 70554.95775401089, -75173.72222825554, 85091.37005703093, -127533.48827761273, -0.014, 0.9520000000000001, -0.122, 192.0, 0.0, 0.0, 0.0, 0.0, 0.0, 0.0, 0.0, 0.0, 0.0, 1.6664078452118075E9, 0.0, 2022-10-21 20:04:05.211
23.0, -143248.12808610537, -154946.04765725706, 54276.76341256659, -82908.81161794801, 70556.16474821148, -75158.63480074822, 85097.51678675614, -127533.68944331283, -0.014, 0.9520000000000001, -0.122, 192.0, 0.0, 0.0, 0.0, 0.0, 0.0, 0.0, 0.0, 0.0, 0.0, 1.6664078452118194E9, 0.0, 2022-10-21 20:04:05.211
24.0, -143248.17278959427, -154944.7736078231, 54279.69149109024, -82909.1245423704, 70559.96454476888, -75183.62405104925, 85067.58780093049, -127533.24240842371, -0.014, 0.9520000000000001, -0.122, 192.0, 0.0, 0.0, 0.0, 0.0, 0.0, 0.0, 0.0, 0.0, 0.0, 1.666407845211831E9, 0.0, 2022-10-21 20:04:05.211
25.0, -143253.02311814108, -154948.50634914712, 54274.86351428789, -82907.24699583615, 70558.04229474573, -75196.23043492204, 85054.66849263532, -127540.14909746041, -0.014, 0.9520000000000001, -0.122, 192.0, 0.0, 0.0, 0.0, 0.0, 0.0, 0.0, 0.0, 0.0, 0.0, 1.6664078452118428E9, 0.0, 2022-10-21 20:04:05.211
26.0, -143253.7607257081, -154949.4227706698, 54280.18322946826, -82897.54633874254, 70560.43393140244, -75170.66003926516, 85085.93858312829, -127533.30946365709, -0.014, 0.9520000000000001, -0.122, 192.0, 0.0, 0.0, 0.0, 0.0, 0.0, 0.0, 0.0, 0.0, 0.0, 1.6664078452118545E9, 0.0, 2022-10-21 20:04:05.211
27.0, -143249.5138942616, -154944.19246246727, 54283.066604502994, -82895.93701314175, 70562.17736746995, -75153.29273382339, 85103.39529554789, -127526.4027746204, -0.018000000000000002, 0.9440000000000001, -0.11800000000000001, 192.0, 255.0, 112.0, 29.0, 128.0, 252.0, 80.0, 0.0, 0.0, 0.0, 1.666407845211868E9, 0.0, 2022-10-21 20:04:05.211
28.0, -143238.40507726732, -154932.52485186158, 54294.06366277501, -82885.61050720341, 70574.02379203126, -75164.0886263953, 85084.41866450533, -127516.38919310442, -0.018000000000000002, 0.9440000000000001, -0.11800000000000001, 192.0, 0.0, 0.0, 0.0, 0.0, 0.0, 0.0, 0.0, 0.0, 0.0, 1.6664078452118804E9, 0.0, 2022-10-21 20:04:05.211
29.0, -143240.59554822394, -154933.97771525118, 54288.565133639, -82897.50163525363, 70570.71573385189, -75187.49090284001, 85060.65876014934, -127525.08402169753, -0.018000000000000002, 0.9440000000000001, -0.11800000000000001, 192.0, 0.0, 0.0, 0.0, 0.0, 0.0, 0.0, 0.0, 0.0, 0.0, 1.6664078452119045E9, 0.0, 2022-10-21 20:04:05.211
30.0, -143244.9094349038, -154937.44223564176, 54282.150182980324, -82892.27132705109, 70567.8547105616, -75179.28781262491, 85081.93762087078, -127530.11316419998, -0.018000000000000002, 0.9440000000000001, -0.11800000000000001, 192.0, 0.0, 0.0, 0.0, 0.0, 0.0, 0.0, 0.0, 0.0, 0.0, 1.6664078452119164E9, 0.0, 2022-10-21 20:04:05.211
31.0, -143249.3574320504, -154943.34309617797, 54276.47283988868, -82891.82429216198, 70563.56317562619, -75157.71837922554, 85103.55175775907, -127535.4552311248, -0.018000000000000002, 0.9440000000000001, -0.11800000000000001, 192.0, 0.0, 0.0, 0.0, 0.0, 0.0, 0.0, 0.0, 0.0, 0.0, 1.6664078452119284E9, 0.0, 2022-10-21 20:04:05.211
32.0, -143244.97649013717, -154938.20219495325, 54278.05981374501, -82895.7134956972, 70565.93246053845, -75161.40641706067, 85088.12905408491, -127532.9518357458, -0.018000000000000002, 0.9440000000000001, -0.11800000000000001, 192.0, 0.0, 0.0, 0.0, 0.0, 0.0, 0.0, 0.0, 0.0, 0.0, 1.66640784521194E9, 0.0, 2022-10-21 20:04:05.211
33.0, -143243.74714419214, -154933.7094943177, 54278.90918003431, -82899.62505097689, 70561.64092560303, -75195.98456573303, 85058.1777165148, -127537.37748114795, -0.018000000000000002, 0.9440000000000001, -0.11800000000000001, 192.0, 0.0, 0.0, 0.0, 0.0, 0.0, 0.0, 0.0, 0.0, 0.0, 1.666407845211952E9, 0.0, 2022-10-21 20:04:05.211
34.0, -143252.1514001073, -154940.28090718758, 54271.57780785296, -82891.08668459496, 70559.58456511314, -75193.48117035403, 85069.35358874245, -127540.77494630516, -0.018000000000000002, 0.9440000000000001, -0.11800000000000001, 192.0, 0.0, 0.0, 0.0, 0.0, 0.0, 0.0, 0.0, 0.0, 0.0, 1.6664078452119656E9, 0.0, 2022-10-21 20:04:05.211
35.0, -143253.58191175247, -154939.85622404292, 54271.533104364054, -82885.20817580321, 70564.74781808231, -75152.62218148973, 85102.68003972531, -127535.94696950281, -0.018000000000000002, 0.9440000000000001, -0.11800000000000001, 192.0, 0.0, 0.0, 0.0, 0.0, 0.0, 0.0, 0.0, 0.0, 0.0, 1.6664078452119775E9, 0.0, 2022-10-21 20:04:05.211
36.0, -143246.47405701567, -154934.9611920072, 54276.20461895521, -82886.90690838182, 70565.21720471588, -75164.26744035094, 85085.40214126137, -127535.83521078054, -0.018000000000000002, 0.9440000000000001, -0.11800000000000001, 192.0, 0.0, 0.0, 0.0, 0.0, 0.0, 0.0, 0.0, 0.0, 0.0, 1.6664078452119894E9, 0.0, 2022-10-21 20:04:05.211
37.0, -143250.18444659526, -154939.54329962056, 54271.37664215286, -82894.93118464127, 70565.59718437161, -75190.62014706376, 85056.97072231422, -127540.64083583842, -0.014, 0.9480000000000001, -0.11, 192.0, 255.0, 144.0, 29.0, 160.0, 252.0, 144.0, 0.0, 0.0, 0.0, 1.666407845212001E9, 0.0, 2022-10-21 20:04:05.212
38.0, -143251.52555126257, -154941.75612232162, 54271.13077296386, -82885.96813511469, 70569.26287046229, -75171.73292299901, 85076.32733301251, -127531.16369618938, -0.014, 0.9480000000000001, -0.11, 192.0, 0.0, 0.0, 0.0, 0.0, 0.0, 0.0, 0.0, 0.0, 0.0, 1.666407845212014E9, 0.0, 2022-10-21 20:04:05.212
39.0, -143249.84917042844, -154937.53164261958, 54274.21531369869, -82878.50265246662, 70569.62049837357, -75144.91082965265, 85106.03280139361, -127522.13359142943, -0.014, 0.9480000000000001, -0.11, 192.0, 0.0, 0.0, 0.0, 0.0, 0.0, 0.0, 0.0, 0.0, 0.0, 1.6664078452120264E9, 0.0, 2022-10-21 20:04:05.212
40.0, -143253.04546988555, -154938.5151193756, 54267.17451419527, -82891.9136991398, 70566.08892274964, -75157.45015829208, 85093.56052798755, -127529.62142582196, -0.014, 0.9480000000000001, -0.11, 192.0, 0.0, 0.0, 0.0, 0.0, 0.0, 0.0, 0.0, 0.0, 0.0, 1.666407845212038E9, 0.0, 2022-10-21 20:04:05.212
41.0, -143256.1076588759, -154940.95145952125, 54261.56422633699, -82904.49773126814, 70557.93053602344, -75196.38689713323, 85054.22145774621, -127544.66414984038, -0.014, 0.9480000000000001, -0.11, 192.0, 0.0, 0.0, 0.0, 0.0, 0.0, 0.0, 0.0, 0.0, 0.0, 1.6664078452120495E9, 0.0, 2022-10-21 20:04:05.212
42.0, -143256.2641210871, -154941.2196804547, 54266.861589772896, -82886.10224558142, 70568.74878033981, -75187.22268190655, 85069.55475444255, -127534.49410611321, -0.014, 0.9480000000000001, -0.11, 192.0, 0.0, 0.0, 0.0, 0.0, 0.0, 0.0, 0.0, 0.0, 0.0, 1.6664078452120612E9, 0.0, 2022-10-21 20:04:05.212
43.0, -143268.93756019327, -154951.7250003487, 54254.16579892228, -82889.11973108289, 70562.08796049214, -75159.10418738177, 85098.85789142345, -127542.58543760605, -0.014, 0.9480000000000001, -0.11, 192.0, 0.0, 0.0, 0.0, 0.0, 0.0, 0.0, 0.0, 0.0, 0.0, 1.666407845212073E9, 0.0, 2022-10-21 20:04:05.212
44.0, -143264.73543223567, -154946.40528516832, 54254.43401985574, -82888.62799270487, 70557.48350113434, -75162.47930079453, 85093.29230705409, -127544.19476320682, -0.014, 0.9480000000000001, -0.11, 192.0, 0.0, 0.0, 0.0, 0.0, 0.0, 0.0, 0.0, 0.0, 0.0, 1.666407845212096E9, 0.0, 2022-10-21 20:04:05.212
45.0, -143258.52164727708, -154941.73377057718, 54253.4058396108, -82897.1663590868, 70558.51168137928, -75184.22754814953, 85064.43620496229, -127543.81478355108, -0.014, 0.9480000000000001, -0.11, 192.0, 0.0, 0.0, 0.0, 0.0, 0.0, 0.0, 0.0, 0.0, 0.0, 1.6664078452121077E9, 0.0, 2022-10-21 20:04:05.212
46.0, -143255.32534781998, -154940.30325893205, 54255.32808963396, -82894.32768754098, 70561.3056494362, -75194.53170234343, 85061.821050861, -127538.51742011517, -0.014, 0.9540000000000001, -0.116, 192.0, 255.0, 144.0, 29.0, 208.0, 252.0, 96.0, 0.0, 0.0, 0.0, 1.6664078452121193E9, 0.0, 2022-10-21 20:04:05.212
47.0, -143258.63340599937, -154941.10792173241, 54252.77999076605, -82886.77279791508, 70562.8032163147, -75163.28396359492, 85100.4895687687, -127525.44164960882, -0.014, 0.9540000000000001, -0.116, 192.0, 0.0, 0.0, 0.0, 0.0, 0.0, 0.0, 0.0, 0.0, 0.0, 1.666407845212132E9, 0.0, 2022-10-21 20:04:05.212
48.0, -143258.6110542549, -154940.79499731006, 54251.751810521106, -82888.67269619378, 70560.23276570234, -75148.93414365461, 85108.4914932837, -127532.79537353461, -0.014, 0.9540000000000001, -0.116, 192.0, 0.0, 0.0, 0.0, 0.0, 0.0, 0.0, 0.0, 0.0, 0.0, 1.6664078452121446E9, 0.0, 2022-10-21 20:04:05.212
49.0, -143258.6110542549, -154940.75029382115, 54247.92966221925, -82897.4122282758, 70553.86251853258, -75182.21589114856, 85068.4818707087, -127547.03343475265, -0.014, 0.9540000000000001, -0.116, 192.0, 0.0, 0.0, 0.0, 0.0, 0.0, 0.0, 0.0, 0.0, 0.0, 1.6664078452121568E9, 0.0, 2022-10-21 20:04:05.212
50.0, -143249.58094949496, -154933.0612937285, 54252.534121577046, -82892.69601019574, 70560.94802152492, -75190.24016740802, 85060.4799461937, -127537.01985323666, -0.014, 0.9540000000000001, -0.116, 192.0, 0.0, 0.0, 0.0, 0.0, 0.0, 0.0, 0.0, 0.0, 0.0, 1.6664078452121685E9, 0.0, 2022-10-21 20:04:05.212
51.0, -143246.65287097133, -154932.10016871695, 54253.808171011, -82879.24026003365, 70565.23955646034, -75162.41224556115, 85092.2864785536, -127530.850771767, -0.014, 0.9540000000000001, -0.116, 192.0, 0.0, 0.0, 0.0, 0.0, 0.0, 0.0, 0.0, 0.0, 0.0, 1.6664078452121804E9, 0.0, 2022-10-21 20:04:05.212
52.0, -143250.2067983397, -154935.1176542184, 54245.91800521827, -82880.42490248977, 70563.0043820148, -75149.3364750548, 85105.36224905995, -127543.77008006217, -0.014, 0.9540000000000001, -0.116, 192.0, 0.0, 0.0, 0.0, 0.0, 0.0, 0.0, 0.0, 0.0, 0.0, 1.666407845212192E9, 0.0, 2022-10-21 20:04:05.212
53.0, -143248.88804541685, -154935.89996527435, 54248.22023489717, -82884.53762346956, 70561.32800118065, -75173.07402766634, 85074.11451031142, -127548.01691150868, -0.014, 0.9540000000000001, -0.116, 192.0, 0.0, 0.0, 0.0, 0.0, 0.0, 0.0, 0.0, 0.0, 0.0, 1.6664078452122035E9, 0.0, 2022-10-21 20:04:05.212
54.0, -143249.67035647278, -154937.19636645276, 54248.48845583063, -82884.38116125837, 70567.4523791614, -75192.20712092008, 85055.94254206927, -127546.2064202078, -0.014, 0.9540000000000001, -0.116, 192.0, 0.0, 0.0, 0.0, 0.0, 0.0, 0.0, 0.0, 0.0, 0.0, 1.6664078452122157E9, 0.0, 2022-10-21 20:04:05.212
55.0, -143254.38657455286, -154940.1244449764, 54242.677002272256, -82881.11780656788, 70565.41837041598, -75181.90296672618, 85073.48866146669, -127544.61944635147, -0.014, 0.9540000000000001, -0.116, 192.0, 0.0, 0.0, 0.0, 0.0, 0.0, 0.0, 0.0, 0.0, 0.0, 1.666407845212227E9, 0.0, 2022-10-21 20:04:05.212
56.0, -143261.7626502231, -154947.9252037913, 54236.26205161358, -82885.52110022558, 70559.94219302443, -75164.98269617352, 85089.76073143014, -127549.76034757619, -0.012, 0.962, -0.112, 192.0, 255.0, 160.0, 30.0, 16.0, 252.0, 128.0, 0.0, 0.0, 0.0, 1.6664078452122388E9, 0.0, 2022-10-21 20:04:05.212
57.0, -143263.43903105726, -154946.6735061018, 54233.222214367655, -82891.9136991398, 70561.84209130313, -75172.2917166104, 85073.22044053322, -127552.84488831102, -0.012, 0.962, -0.112, 192.0, 0.0, 0.0, 0.0, 0.0, 0.0, 0.0, 0.0, 0.0, 0.0, 1.6664078452122517E9, 0.0, 2022-10-21 20:04:05.212
58.0, -143252.19610359624, -154935.98937225217, 54243.16874065027, -82887.68921943774, 70571.87802456356, -75186.82035050636, 85059.76469037113, -127542.58543760605, -0.012, 0.962, -0.112, 192.0, 0.0, 0.0, 0.0, 0.0, 0.0, 0.0, 0.0, 0.0, 0.0, 1.666407845212263E9, 0.0, 2022-10-21 20:04:05.212
59.0, -143262.50025779012, -154946.20411946822, 54238.20665338119, -82877.04978907702, 70572.03448677475, -75182.3500016153, 85073.35455099995, -127542.6077893505, -0.012, 0.962, -0.112, 192.0, 0.0, 0.0, 0.0, 0.0, 0.0, 0.0, 0.0, 0.0, 0.0, 1.6664078452122862E9, 0.0, 2022-10-21 20:04:05.212
60.0, -143265.2718741026, -154949.53452939208, 54234.205691123694, -82874.70285590921, 70570.46986466287, -75156.84666119178, 85100.3331065575, -127545.13353647395, -0.012, 0.962, -0.112, 192.0, 0.0, 0.0, 0.0, 0.0, 0.0, 0.0, 0.0, 0.0, 0.0, 1.666407845212298E9, 0.0, 2022-10-21 20:04:05.212
61.0, -143262.8578857014, -154948.43929391378, 54228.5506997765, -82887.15277757082, 70563.09378899263, -75172.53758579941, 85078.09312082447, -127551.79435632162, -0.012, 0.962, -0.112, 192.0, 0.0, 0.0, 0.0, 0.0, 0.0, 0.0, 0.0, 0.0, 0.0, 1.6664078452123098E9, 0.0, 2022-10-21 20:04:05.212
62.0, -143265.78596422507, -154950.8309305705, 54222.046342140005, -82898.28394630956, 70557.63996334553, -75205.19348444861, 85047.62769313189, -127552.73312958874, -0.012, 0.962, -0.112, 192.0, 0.0, 0.0, 0.0, 0.0, 0.0, 0.0, 0.0, 0.0, 0.0, 1.6664078452123213E9, 0.0, 2022-10-21 20:04:05.212
63.0, -143263.1037548904, -154945.84649155696, 54227.47781604264, -82886.57163221498, 70572.0121350303, -75179.6454405362, 85069.19712653126, -127543.56891436207, -0.012, 0.962, -0.112, 192.0, 0.0, 0.0, 0.0, 0.0, 0.0, 0.0, 0.0, 0.0, 0.0, 1.666407845212333E9, 0.0, 2022-10-21 20:04:05.212
64.0, -143261.85205720091, -154944.39362816737, 54225.71202823067, -82876.84862337692, 70575.8119315877, -75148.55416399887, 85104.26701358164, -127541.62431259446, -0.012, 0.962, -0.112, 192.0, 0.0, 0.0, 0.0, 0.0, 0.0, 0.0, 0.0, 0.0, 0.0, 1.6664078452123451E9, 0.0, 2022-10-21 20:04:05.212
65.0, -143268.60228402642, -154949.82510207, 54218.09008337141, -82882.03422809056, 70568.56996638418, -75155.08087337982, 85095.99686813318, -127547.2569521972, -0.012, 0.962, -0.112, 192.0, 0.0, 0.0, 0.0, 0.0, 0.0, 0.0, 0.0, 0.0, 0.0, 1.6664078452123568E9, 0.0, 2022-10-21 20:04:05.212
66.0, -143263.64019675736, -154938.93980252027, 54221.889879928814, -82883.08476007996, 70569.93342279595, -75182.32764987083, 85067.6325044194, -127540.12674571596, -0.016, 0.9520000000000001, -0.114, 192.0, 255.0, 128.0, 29.0, 192.0, 252.0, 112.0, 0.0, 0.0, 0.0, 1.6664078452123685E9, 0.0, 2022-10-21 20:04:05.212
67.0, -143265.62950201388, -154940.30325893205, 54218.02302813805, -82880.64841993432, 70570.42516117396, -75190.06135345237, 85068.21364977524, -127537.17631544785, -0.016, 0.9520000000000001, -0.114, 192.0, 0.0, 0.0, 0.0, 0.0, 0.0, 0.0, 0.0, 0.0, 0.0, 1.6664078452123811E9, 0.0, 2022-10-21 20:04:05.212
68.0, -143267.7752694816, -154945.13123573438, 54217.86656592686, -82877.74269315515, 70570.24634721832, -75155.14792861318, 85103.10472286996, -127537.3551294035, -0.016, 0.9520000000000001, -0.114, 192.0, 0.0, 0.0, 0.0, 0.0, 0.0, 0.0, 0.0, 0.0, 0.0, 1.6664078452123928E9, 0.0, 2022-10-21 20:04:05.212
69.0, -143266.9706066812, -154943.38779966687, 54216.234888581625, -82881.27426877907, 70570.33575419614, -75147.01189363145, 85104.80345544856, -127538.38330964844, -0.016, 0.9520000000000001, -0.114, 192.0, 0.0, 0.0, 0.0, 0.0, 0.0, 0.0, 0.0, 0.0, 0.0, 1.666407845212406E9, 0.0, 2022-10-21 20:04:05.212
70.0, -143266.83649621447, -154941.89023278837, 54213.88795541382, -82893.8135974185, 70571.2074722299, -75168.33545784181, 85077.1319958129, -127538.98680674874, -0.016, 0.9520000000000001, -0.114, 192.0, 0.0, 0.0, 0.0, 0.0, 0.0, 0.0, 0.0, 0.0, 0.0, 1.6664078452124178E9, 0.0, 2022-10-21 20:04:05.212
71.0, -143265.1601153803, -154941.19732871026, 54214.96083914767, -82891.39960901733, 70572.4591699194, -75178.43844633561, 85068.95125734225, -127536.59517009201, -0.016, 0.9520000000000001, -0.114, 192.0, 0.0, 0.0, 0.0, 0.0, 0.0, 0.0, 0.0, 0.0, 0.0, 1.6664078452124295E9, 0.0, 2022-10-21 20:04:05.212
72.0, -143270.07749916048, -154946.78526482408, 54212.3456850464, -82877.85445187741, 70575.49900716532, -75147.3918732872, 85102.65768798086, -127536.5504666031, -0.016, 0.9520000000000001, -0.114, 192.0, 0.0, 0.0, 0.0, 0.0, 0.0, 0.0, 0.0, 0.0, 0.0, 1.6664078452124412E9, 0.0, 2022-10-21 20:04:05.212
73.0, -143271.8656387169, -154947.00878226862, 54209.43995826721, -82885.45404499222, 70570.00047802931, -75135.59015221479, 85110.88312994041, -127542.22780969476, -0.016, 0.9520000000000001, -0.114, 192.0, 0.0, 0.0, 0.0, 0.0, 0.0, 0.0, 0.0, 0.0, 0.0, 1.6664078452124531E9, 0.0, 2022-10-21 20:04:05.212
74.0, -143270.9268654498, -154946.9193752908, 54210.423435023244, -82896.83108291998, 70564.03256225974, -75165.42973106263, 85077.579030702, -127545.02177775167, -0.016, 0.9520000000000001, -0.114, 192.0, 0.0, 0.0, 0.0, 0.0, 0.0, 0.0, 0.0, 0.0, 0.0, 1.6664078452124753E9, 0.0, 2022-10-21 20:04:05.212
75.0, -143274.43608932928, -154950.24978521463, 54204.72374018714, -82898.8650916654, 70560.903318036, -75189.72607728554, 85056.16605951382, -127546.69815858582, -0.016, 0.9460000000000001, -0.11800000000000001, 192.0, 255.0, 128.0, 29.0, 144.0, 252.0, 80.0, 0.0, 0.0, 0.0, 1.6664078452124872E9, 0.0, 2022-10-21 20:04:05.212
76.0, -143272.35737709492, -154948.39459042487, 54206.73539718812, -82882.54831821303, 70564.3007831932, -75173.02932417743, 85082.67522843782, -127547.81574580858, -0.016, 0.9460000000000001, -0.11800000000000001, 192.0, 0.0, 0.0, 0.0, 0.0, 0.0, 0.0, 0.0, 0.0, 0.0, 1.6664078452125E9, 0.0, 2022-10-21 20:04:05.212
77.0, -143278.2135341422, -154954.6307271279, 54201.5944959634, -82884.09058858044, 70565.88775704954, -75150.74463495548, 85105.07167638204, -127549.82740280956, -0.016, 0.9460000000000001, -0.11800000000000001, 192.0, 0.0, 0.0, 0.0, 0.0, 0.0, 0.0, 0.0, 0.0, 0.0, 1.666407845212512E9, 0.0, 2022-10-21 20:04:05.212
78.0, -143273.34085385094, -154949.8698055589, 54206.19895532119, -82883.93412636926, 70573.17442574196, -75156.19846060258, 85089.76073143014, -127545.8040888076, -0.016, 0.9460000000000001, -0.11800000000000001, 192.0, 0.0, 0.0, 0.0, 0.0, 0.0, 0.0, 0.0, 0.0, 0.0, 1.6664078452125242E9, 0.0, 2022-10-21 20:04:05.212
79.0, -143268.24465611513, -154945.2206427122, 54211.02693212354, -82883.0624083355, 70577.44360893292, -75179.73484751402, 85069.80062363156, -127542.58543760605, -0.016, 0.9460000000000001, -0.11800000000000001, 192.0, 0.0, 0.0, 0.0, 0.0, 0.0, 0.0, 0.0, 0.0, 0.0, 1.666407845212536E9, 0.0, 2022-10-21 20:04:05.212
80.0, -143273.09498466193, -154950.04861951456, 54205.260182054066, -82884.78349265856, 70569.06170476219, -75176.247975379, 85081.02119934812, -127544.77590856266, -0.016, 0.9460000000000001, -0.11800000000000001, 192.0, 0.0, 0.0, 0.0, 0.0, 0.0, 0.0, 0.0, 0.0, 0.0, 1.666407845212548E9, 0.0, 2022-10-21 20:04:05.212
81.0, -143277.18535389728, -154955.1671689948, 54202.55562097498, -82884.5152717251, 70567.87706230606, -75152.84569893428, 85105.5857665045, -127543.6583213399, -0.016, 0.9460000000000001, -0.11800000000000001, 192.0, 0.0, 0.0, 0.0, 0.0, 0.0, 0.0, 0.0, 0.0, 0.0, 1.6664078452125597E9, 0.0, 2022-10-21 20:04:05.212
82.0, -143273.09498466193, -154947.74638983567, 54204.52257448704, -82890.8631671504, 70569.01700127329, -75157.76308271446, 85090.4312837638, -127545.98290276325, -0.016, 0.9460000000000001, -0.11800000000000001, 192.0, 0.0, 0.0, 0.0, 0.0, 0.0, 0.0, 0.0, 0.0, 0.0, 1.6664078452125716E9, 0.0, 2022-10-21 20:04:05.212
83.0, -143275.5760282965, -154951.99322128217, 54203.53909773101, -82895.17705383028, 70568.2570419618, -75182.23824289301, 85062.40219621685, -127549.71564408728, -0.016, 0.9460000000000001, -0.11800000000000001, 192.0, 0.0, 0.0, 0.0, 0.0, 0.0, 0.0, 0.0, 0.0, 0.0, 1.6664078452125833E9, 0.0, 2022-10-21 20:04:05.212
84.0, -143288.4729848472, -154966.81242785603, 54188.697539412686, -82896.7193241977, 70558.44462614592, -75186.46272259507, 85066.06788230751, -127557.73992034674, -0.016, 0.9460000000000001, -0.11800000000000001, 192.0, 0.0, 0.0, 0.0, 0.0, 0.0, 0.0, 0.0, 0.0, 0.0, 1.6664078452125952E9, 0.0, 2022-10-21 20:04:05.212
85.0, -143286.14840342384, -154963.61612839892, 54188.94340860169, -82893.54537648504, 70554.48836737733, -75168.67073400864, 85091.81709192003, -127556.22000172378, -0.016, 0.9560000000000001, -0.12, 192.0, 255.0, 128.0, 29.0, 224.0, 252.0, 64.0, 0.0, 0.0, 0.0, 1.666407845212607E9, 0.0, 2022-10-21 20:04:05.212
86.0, -143275.7771939966, -154951.9708695377, 54200.47690874063, -82889.67852469427, 70567.72060009486, -75155.50555652447, 85094.40989427685, -127540.41731839387, -0.016, 0.9560000000000001, -0.12, 192.0, 0.0, 0.0, 0.0, 0.0, 0.0, 0.0, 0.0, 0.0, 0.0, 1.6664078452126193E9, 0.0, 2022-10-21 20:04:05.212
87.0, -143276.7159672637, -154955.10011376144, 54198.08527208392, -82897.50163525363, 70572.41446643049, -75175.1974433896, 85066.29139975208, -127542.6077893505, -0.016, 0.9560000000000001, -0.12, 192.0, 0.0, 0.0, 0.0, 0.0, 0.0, 0.0, 0.0, 0.0, 0.0, 1.6664078452126312E9, 0.0, 2022-10-21 20:04:05.212
88.0, -143277.6770922753, -154956.84354982898, 54192.83261213692, -82891.24314680614, 70573.57675714216, -75182.75233301548, 85067.92307709731, -127544.35122541801, -0.016, 0.9560000000000001, -0.12, 192.0, 0.0, 0.0, 0.0, 0.0, 0.0, 0.0, 0.0, 0.0, 0.0, 1.666407845212643E9, 0.0, 2022-10-21 20:04:05.212
89.0, -143280.8733917324, -154959.21283474122, 54187.62465567883, -82884.24705079163, 70573.08501876415, -75154.23150709052, 85100.31075481305, -127545.20059170731, -0.016, 0.9560000000000001, -0.12, 192.0, 0.0, 0.0, 0.0, 0.0, 0.0, 0.0, 0.0, 0.0, 0.0, 1.6664078452126658E9, 0.0, 2022-10-21 20:04:05.212
90.0, -143280.6275225434, -154957.31293646252, 54190.53038245802, -82888.76210317161, 70574.157902498, -75142.94387614059, 85100.44486527979, -127544.9547225183, -0.016, 0.9560000000000001, -0.12, 192.0, 0.0, 0.0, 0.0, 0.0, 0.0, 0.0, 0.0, 0.0, 0.0, 1.6664078452126777E9, 0.0, 2022-10-21 20:04:05.212
91.0, -143284.2708568896, -154962.9902795542, 54187.19997253418, -82906.0176498911, 70570.44751291841, -75176.40443759019, 85063.83270786199, -127550.05092025411, -0.016, 0.9560000000000001, -0.12, 192.0, 0.0, 0.0, 0.0, 0.0, 0.0, 0.0, 0.0, 0.0, 0.0, 1.6664078452126904E9, 0.0, 2022-10-21 20:04:05.212
92.0, -143282.86269698892, -154961.1797882533, 54189.34574000189, -82901.74846670014, 70575.14137925404, -75181.1430074147, 85064.9279433403, -127543.21128645078, -0.016, 0.9560000000000001, -0.12, 192.0, 0.0, 0.0, 0.0, 0.0, 0.0, 0.0, 0.0, 0.0, 0.0, 1.6664078452127023E9, 0.0, 2022-10-21 20:04:05.212
93.0, -143286.10369993493, -154961.04567778655, 54189.70336791317, -82884.73878916966, 70582.74097236883, -75147.1907075871, 85103.4847025257, -127537.8021642926, -0.016, 0.9560000000000001, -0.12, 192.0, 0.0, 0.0, 0.0, 0.0, 0.0, 0.0, 0.0, 0.0, 0.0, 1.666407845212714E9, 0.0, 2022-10-21 20:04:05.212
94.0, -143286.4166243573, -154959.41400044132, 54191.58091444742, -82884.53762346956, 70587.70305963792, -75130.44925099007, 85114.97349917573, -127534.4494026243, -0.016, 0.9560000000000001, -0.12, 192.0, 0.0, 0.0, 0.0, 0.0, 0.0, 0.0, 0.0, 0.0, 0.0, 1.6664078452127259E9, 0.0, 2022-10-21 20:04:05.212
95.0, -143285.09787143444, -154959.3245934635, 54186.75293764508, -82897.1663590868, 70578.09180952213, -75165.40737931817, 85077.02023709062, -127538.11508871497, -0.012, 0.9540000000000001, -0.122, 192.0, 255.0, 160.0, 29.0, 208.0, 252.0, 48.0, 0.0, 0.0, 0.0, 1.6664078452127385E9, 0.0, 2022-10-21 20:04:05.212
96.0, -143283.2650283891, -154958.56463415202, 54187.781117890016, -82894.50650149662, 70582.29393747973, -75173.27519336644, 85071.16408004334, -127532.32598690105, -0.012, 0.9540000000000001, -0.122, 192.0, 0.0, 0.0, 0.0, 0.0, 0.0, 0.0, 0.0, 0.0, 0.0, 1.6664078452127512E9, 0.0, 2022-10-21 20:04:05.212
97.0, -143284.2261534007, -154960.79980859754, 54186.037681822505, -82888.69504793824, 70583.18800725794, -75146.36369304225, 85104.46817928174, -127527.9003414989, -0.012, 0.9540000000000001, -0.122, 192.0, 0.0, 0.0, 0.0, 0.0, 0.0, 0.0, 0.0, 0.0, 0.0, 1.666407845212763E9, 0.0, 2022-10-21 20:04:05.212
98.0, -143285.07551969, -154960.79980859754, 54185.00950157756, -82889.65617294982, 70583.45622819141, -75124.4813352205, 85123.10953415747, -127524.90520774189, -0.012, 0.9540000000000001, -0.122, 192.0, 0.0, 0.0, 0.0, 0.0, 0.0, 0.0, 0.0, 0.0, 0.0, 1.6664078452127745E9, 0.0, 2022-10-21 20:04:05.212
99.0, -143278.63821728685, -154954.1166370054, 54189.72571965763, -82888.9632688717, 70584.93144332546, -75143.36855928524, 85096.2874408111, -127530.69430955581, -0.012, 0.9540000000000001, -0.122, 192.0, 0.0, 0.0, 0.0, 0.0, 0.0, 0.0, 0.0, 0.0, 0.0, 1.6664078452127864E9, 0.0, 2022-10-21 20:04:05.212
100.0, -143289.45646160323, -154964.21962549922, 54177.67812939622, -82903.04486787855, 70578.29297522223, -75175.10803641177, 85066.44786196326, -127544.23946669573, -0.012, 0.9540000000000001, -0.122, 192.0, 0.0, 0.0, 0.0, 0.0, 0.0, 0.0, 0.0, 0.0, 0.0, 1.666407845212798E9, 0.0, 2022-10-21 20:04:05.212
101.0, -143300.65468557534, -154974.97081458222, 54165.16115250125, -82908.94572841475, 70563.74198958183, -75173.2975451109, 85076.95318185726, -127552.91194354439, -0.012, 0.9540000000000001, -0.122, 192.0, 0.0, 0.0, 0.0, 0.0, 0.0, 0.0, 0.0, 0.0, 0.0, 1.6664078452128098E9, 0.0, 2022-10-21 20:04:05.212
102.0, -143292.0716157045, -154969.0252505571, 54167.91041706925, -82900.94380389975, 70564.77016982678, -75150.40935878866, 85098.72378095673, -127546.69815858582, -0.012, 0.9540000000000001, -0.122, 192.0, 0.0, 0.0, 0.0, 0.0, 0.0, 0.0, 0.0, 0.0, 0.0, 1.6664078452128215E9, 0.0, 2022-10-21 20:04:05.212
103.0, -143290.35053138144, -154966.70066913374, 54170.99495780408, -82902.0166876336, 70567.92176579496, -75160.08766413781, 85079.30011502506, -127548.75451907571, -0.012, 0.9540000000000001, -0.122, 192.0, 0.0, 0.0, 0.0, 0.0, 0.0, 0.0, 0.0, 0.0, 0.0, 1.6664078452128332E9, 0.0, 2022-10-21 20:04:05.212
104.0, -143283.1309179224, -154958.40817194083, 54180.583856175406, -82895.28881255255, 70580.2599287343, -75172.35877184376, 85061.99986481665, -127540.7078910718, -0.012, 0.9540000000000001, -0.122, 192.0, 0.0, 0.0, 0.0, 0.0, 0.0, 0.0, 0.0, 0.0, 0.0, 1.6664078452128563E9, 0.0, 2022-10-21 20:04:05.212
105.0, -143284.04733944504, -154960.4198289418, 54178.14751602978, -82890.03615260556, 70580.93048106796, -75159.66298099315, 85081.26706853713, -127545.58057136305, -0.016, 0.9520000000000001, -0.128, 192.0, 255.0, 128.0, 29.0, 192.0, 252.0, 0.0, 0.0, 0.0, 0.0, 1.666407845212868E9, 0.0, 2022-10-21 20:04:05.212
106.0, -143293.09979594944, -154968.1311807789, 54166.01051879055, -82898.08278060947, 70564.72546633786, -75151.97398090053, 85094.29813555458, -127554.02953076716, -0.016, 0.9520000000000001, -0.128, 192.0, 0.0, 0.0, 0.0, 0.0, 0.0, 0.0, 0.0, 0.0, 0.0, 1.6664078452128804E9, 0.0, 2022-10-21 20:04:05.212
107.0, -143289.1211854364, -154964.95723306623, 54169.20681824766, -82905.6153184909, 70564.2560797043, -75161.58523101632, 85076.86377487943, -127552.37550167747, -0.016, 0.9520000000000001, -0.128, 192.0, 0.0, 0.0, 0.0, 0.0, 0.0, 0.0, 0.0, 0.0, 0.0, 1.6664078452128923E9, 0.0, 2022-10-21 20:04:05.212
108.0, -143282.79564175554, -154958.25170972964, 54177.923998585225, -82902.79899868954, 70574.91786180947, -75174.63864977821, 85060.14467002687, -127540.32791141605, -0.016, 0.9520000000000001, -0.128, 192.0, 0.0, 0.0, 0.0, 0.0, 0.0, 0.0, 0.0, 0.0, 0.0, 1.6664078452129042E9, 0.0, 2022-10-21 20:04:05.212
109.0, -143285.99194121265, -154959.25753823013, 54176.96287357365, -82890.34907702793, 70579.410562445, -75162.1887281166, 85077.35551325745, -127542.83130679505, -0.016, 0.9520000000000001, -0.128, 192.0, 0.0, 0.0, 0.0, 0.0, 0.0, 0.0, 0.0, 0.0, 0.0, 1.666407845212916E9, 0.0, 2022-10-21 20:04:05.212
110.0, -143289.54586858104, -154965.31486097752, 54175.77823111752, -82891.82429216198, 70572.72739085286, -75142.25097206247, 85099.6402024794, -127550.76617607668, -0.016, 0.9520000000000001, -0.128, 192.0, 0.0, 0.0, 0.0, 0.0, 0.0, 0.0, 0.0, 0.0, 0.0, 1.666407845212927E9, 0.0, 2022-10-21 20:04:05.212
111.0, -143292.04926396004, -154969.31582323503, 54173.61011190536, -82904.87771092389, 70567.6535448615, -75158.50069028148, 85081.55764121505, -127558.29871395812, -0.016, 0.9520000000000001, -0.128, 192.0, 0.0, 0.0, 0.0, 0.0, 0.0, 0.0, 0.0, 0.0, 0.0, 1.6664078452129395E9, 0.0, 2022-10-21 20:04:05.212
112.0, -143289.5682203255, -154966.32068947802, 54176.40407996227, -82908.2751760811, 70570.53691989624, -75182.86409173776, 85051.40513794484, -127555.52709764567, -0.016, 0.9520000000000001, -0.128, 192.0, 0.0, 0.0, 0.0, 0.0, 0.0, 0.0, 0.0, 0.0, 0.0, 1.6664078452129505E9, 0.0, 2022-10-21 20:04:05.212
113.0, -143292.38454012686, -154968.42175345682, 54173.09602178288, -82897.94867014274, 70575.25313797631, -75176.15856840117, 85060.41289096033, -127557.82932732455, -0.016, 0.9520000000000001, -0.128, 192.0, 0.0, 0.0, 0.0, 0.0, 0.0, 0.0, 0.0, 0.0, 0.0, 1.6664078452129588E9, 0.0, 2022-10-21 20:04:05.212
114.0, -143293.34566513845, -154971.19336976926, 54174.213609005645, -82898.99920213214, 70572.59328038612, -75149.89526866618, 85092.06296110904, -127552.68842609983, -0.018000000000000002, 0.9580000000000001, -0.126, 192.0, 255.0, 112.0, 29.0, 240.0, 252.0, 16.0, 0.0, 0.0, 0.0, 1.6664078452129686E9, 0.0, 2022-10-21 20:04:05.212
115.0, -143289.94819998124, -154965.89600633335, 54180.941484086696, -82899.02155387659, 70582.42804794647, -75131.231562046, 85102.3894670474, -127544.93237077385, -0.018000000000000002, 0.9580000000000001, -0.126, 192.0, 0.0, 0.0, 0.0, 0.0, 0.0, 0.0, 0.0, 0.0, 0.0, 1.666407845212978E9, 0.0, 2022-10-21 20:04:05.212
116.0, -143285.34374062344, -154959.8833870749, 54183.82485912143, -82898.4627602652, 70587.65835614901, -75151.39283554468, 85077.75784465765, -127543.61361785098, -0.018000000000000002, 0.9580000000000001, -0.126, 192.0, 0.0, 0.0, 0.0, 0.0, 0.0, 0.0, 0.0, 0.0, 0.0, 1.6664078452129867E9, 0.0, 2022-10-21 20:04:05.212
117.0, -143289.16588892532, -154964.1302185214, 54174.95121657267, -82906.0176498911, 70584.61851890308, -75167.39668457469, 85066.29139975208, -127548.84392605352, -0.018000000000000002, 0.9580000000000001, -0.126, 192.0, 0.0, 0.0, 0.0, 0.0, 0.0, 0.0, 0.0, 0.0, 0.0, 1.666407845212998E9, 0.0, 2022-10-21 20:04:05.212
118.0, -143293.25625816063, -154966.94653832275, 54175.95704507316, -82895.48997825265, 70588.53007418277, -75142.04980636237, 85102.88120542541, -127541.82547829456, -0.018000000000000002, 0.9580000000000001, -0.126, 192.0, 0.0, 0.0, 0.0, 0.0, 0.0, 0.0, 0.0, 0.0, 0.0, 1.6664078452130072E9, 0.0, 2022-10-21 20:04:05.213
119.0, -143296.6760750623, -154968.9358435793, 54173.36424271634, -82905.50355976864, 70582.49510317983, -75134.31610278084, 85107.15038861637, -127548.06161499758, -0.018000000000000002, 0.9580000000000001, -0.126, 192.0, 0.0, 0.0, 0.0, 0.0, 0.0, 0.0, 0.0, 0.0, 0.0, 1.666407845213106E9, 0.0, 2022-10-21 20:04:05.213
120.0, -143299.85002277495, -154973.07091630352, 54168.51391416954, -82919.00401341963, 70574.53788215375, -75161.7416932275, 85072.4828329662, -127553.87306855597, -0.018000000000000002, 0.9580000000000001, -0.126, 192.0, 0.0, 0.0, 0.0, 0.0, 0.0, 0.0, 0.0, 0.0, 0.0, 1.6664078452131157E9, 0.0, 2022-10-21 20:04:05.213
121.0, -143293.25625816063, -154963.45966618773, 54179.466268952645, -82908.23047259217, 70586.11608578158, -75166.8378909633, 85072.10285331045, -127541.110222472, -0.018000000000000002, 0.9580000000000001, -0.126, 192.0, 0.0, 0.0, 0.0, 0.0, 0.0, 0.0, 0.0, 0.0, 0.0, 1.6664078456905968E9, 0.0, 2022-10-21 20:04:05.690
122.0, -143297.14546169585, -154967.30416623404, 54177.34285322939, -82898.8650916654, 70586.42901020397, -75150.63287623321, 85098.00852513415, -127540.93140851635, -0.018000000000000002, 0.9580000000000001, -0.126, 192.0, 0.0, 0.0, 0.0, 0.0, 0.0, 0.0, 0.0, 0.0, 0.0, 1.6664078456907365E9, 0.0, 2022-10-21 20:04:05.690
123.0, -143303.76157805463, -154974.41202097083, 54170.369108959334, -82903.82717893449, 70585.84786484813, -75130.29278877888, 85115.39818232038, -127544.15005971791, -0.018000000000000002, 0.9580000000000001, -0.126, 192.0, 0.0, 0.0, 0.0, 0.0, 0.0, 0.0, 0.0, 0.0, 0.0, 1.6664078456907685E9, 0.0, 2022-10-21 20:04:05.690
124.0, -143297.39133088486, -154965.76189586663, 54172.537228171495, -82909.41511504831, 70586.11608578158, -75143.72618719652, 85092.37588553142, -127540.9537602608, -0.014, 0.9520000000000001, -0.11800000000000001, 192.0, 255.0, 144.0, 29.0, 192.0, 252.0, 80.0, 0.0, 0.0, 0.0, 1.6664078456907847E9, 0.0, 2022-10-21 20:04:05.690
125.0, -143291.0210837151, -154958.74344810768, 54180.092117797394, -82907.13523711386, 70591.27933875077, -75165.20621361808, 85074.9862283452, -127532.84007702353, -0.014, 0.9520000000000001, -0.11800000000000001, 192.0, 0.0, 0.0, 0.0, 0.0, 0.0, 0.0, 0.0, 0.0, 0.0, 1.6664078456908016E9, 0.0, 2022-10-21 20:04:05.690
126.0, -143297.41368262933, -154966.54420692255, 54175.21943750614, -82906.57644350249, 70592.2628155068, -75156.15375711367, 85093.80639717655, -127538.58447534854, -0.014, 0.9520000000000001, -0.11800000000000001, 192.0, 0.0, 0.0, 0.0, 0.0, 0.0, 0.0, 0.0, 0.0, 0.0, 1.666407845690816E9, 0.0, 2022-10-21 20:04:05.690
127.0, -143306.46613913373, -154974.99316632666, 54165.787001346, -82912.14202787186, 70589.02181256078, -75133.51143998044, 85115.06290615356, -127543.14423121742, -0.014, 0.9520000000000001, -0.11800000000000001, 192.0, 0.0, 0.0, 0.0, 0.0, 0.0, 0.0, 0.0, 0.0, 0.0, 1.666407845690828E9, 0.0, 2022-10-21 20:04:05.690
128.0, -143299.80531928604, -154968.1311807789, 54174.12420202782, -82915.62890000688, 70590.51937943928, -75138.42882376061, 85099.17081584584, -127541.60196085, -0.014, 0.9520000000000001, -0.11800000000000001, 192.0, 0.0, 0.0, 0.0, 0.0, 0.0, 0.0, 0.0, 0.0, 0.0, 1.66640784569084E9, 0.0, 2022-10-21 20:04:05.690
129.0, -143300.09589196395, -154968.75702962364, 54172.49252468259, -82923.22849312169, 70589.69236489444, -75166.1896903741, 85071.2758387656, -127543.72537657326, -0.014, 0.9520000000000001, -0.11800000000000001, 192.0, 0.0, 0.0, 0.0, 0.0, 0.0, 0.0, 0.0, 0.0, 0.0, 1.666407845690852E9, 0.0, 2022-10-21 20:04:05.690
130.0, -143307.96370601223, -154977.87654136142, 54164.04356527848, -82920.97096693171, 70584.17148401398, -75162.99339091699, 85082.1834900598, -127548.53100163116, -0.014, 0.9520000000000001, -0.11800000000000001, 192.0, 0.0, 0.0, 0.0, 0.0, 0.0, 0.0, 0.0, 0.0, 0.0, 1.666407845690864E9, 0.0, 2022-10-21 20:04:05.690
131.0, -143307.13669146737, -154976.75895413864, 54163.730640856105, -82914.93599592877, 70585.51258868129, -75140.46283250605, 85110.68196424031, -127548.39689116442, -0.014, 0.9520000000000001, -0.11800000000000001, 192.0, 0.0, 0.0, 0.0, 0.0, 0.0, 0.0, 0.0, 0.0, 0.0, 1.666407845690876E9, 0.0, 2022-10-21 20:04:05.690
132.0, -143307.80724380104, -154976.02134657162, 54161.651928621766, -82925.95540594523, 70576.10250426561, -75158.36657981474, 85088.12905408491, -127551.63789411043, -0.014, 0.9520000000000001, -0.11800000000000001, 192.0, 0.0, 0.0, 0.0, 0.0, 0.0, 0.0, 0.0, 0.0, 0.0, 1.666407845690888E9, 0.0, 2022-10-21 20:04:05.690
133.0, -143297.50308960714, -154966.34304122246, 54173.05131829397, -82915.96417617371, 70590.72054513938, -75171.10707415428, 85067.45369046375, -127541.53490561665, -0.014, 0.9520000000000001, -0.11800000000000001, 192.0, 0.0, 0.0, 0.0, 0.0, 0.0, 0.0, 0.0, 0.0, 0.0, 1.666407845690907E9, 0.0, 2022-10-21 20:04:05.690
134.0, -143301.70521756474, -154969.89696859085, 54167.4857339246, -82916.21004536272, 70592.24046376234, -75162.43459730562, 85075.99205684567, -127542.29486492812, -0.01, 0.9540000000000001, -0.122, 192.0, 255.0, 176.0, 29.0, 208.0, 252.0, 48.0, 0.0, 0.0, 0.0, 1.6664078456909902E9, 0.0, 2022-10-21 20:04:05.690
135.0, -143307.71783682323, -154973.71911689272, 54163.21655073363, -82918.31110934152, 70587.77011487128, -75132.3267975243, 85106.47983628271, -127541.64666433891, -0.01, 0.9540000000000001, -0.122, 192.0, 0.0, 0.0, 0.0, 0.0, 0.0, 0.0, 0.0, 0.0, 0.0, 1.6664078456910045E9, 0.0, 2022-10-21 20:04:05.691
136.0, -143301.61581058693, -154966.20893075573, 54166.591664146385, -82920.25571110913, 70589.33473698316, -75120.92740785211, 85109.18439736181, -127534.89643751341, -0.01, 0.9540000000000001, -0.122, 192.0, 0.0, 0.0, 0.0, 0.0, 0.0, 0.0, 0.0, 0.0, 0.0, 1.666407845691017E9, 0.0, 2022-10-21 20:04:05.691
137.0, -143299.24652567465, -154965.1807505108, 54167.57514090242, -82930.58221704749, 70587.59130091564, -75149.67175122163, 85076.6849609238, -127538.78564104864, -0.01, 0.9540000000000001, -0.122, 192.0, 0.0, 0.0, 0.0, 0.0, 0.0, 0.0, 0.0, 0.0, 0.0, 1.6664078456910293E9, 0.0, 2022-10-21 20:04:05.691
138.0, -143293.99386572765, -154961.44800918674, 54177.05228055147, -82924.94957744474, 70591.6593184065, -75161.67463799413, 85076.75201615716, -127537.44453638131, -0.01, 0.9540000000000001, -0.122, 192.0, 0.0, 0.0, 0.0, 0.0, 0.0, 0.0, 0.0, 0.0, 0.0, 1.6664078456910417E9, 0.0, 2022-10-21 20:04:05.691
139.0, -143302.82280478752, -154970.29929999105, 54166.56931240193, -82924.23432162218, 70586.65252764852, -75140.6863499506, 85104.95991765975, -127541.28903642762, -0.01, 0.9540000000000001, -0.122, 192.0, 0.0, 0.0, 0.0, 0.0, 0.0, 0.0, 0.0, 0.0, 0.0, 1.6664078456910536E9, 0.0, 2022-10-21 20:04:05.691
140.0, -143310.71297058024, -154974.90375934885, 54158.32151869792, -82929.59874029145, 70584.10442878061, -75134.29375103638, 85104.17760660381, -127549.76034757619, -0.01, 0.9540000000000001, -0.122, 192.0, 0.0, 0.0, 0.0, 0.0, 0.0, 0.0, 0.0, 0.0, 0.0, 1.666407845691066E9, 0.0, 2022-10-21 20:04:05.691
141.0, -143314.73628458218, -154979.12823905091, 54153.85116980686, -82940.59579856346, 70579.25410023381, -75160.89232693819, 85070.11354805394, -127559.48335641425, -0.01, 0.9540000000000001, -0.122, 192.0, 0.0, 0.0, 0.0, 0.0, 0.0, 0.0, 0.0, 0.0, 0.0, 1.6664078456910777E9, 0.0, 2022-10-21 20:04:05.691
142.0, -143301.21347918673, -154965.9854133112, 54167.41867869123, -82931.25276938114, 70587.83717010464, -75169.85537646478, 85065.95612358525, -127546.67580684136, -0.01, 0.9540000000000001, -0.122, 192.0, 0.0, 0.0, 0.0, 0.0, 0.0, 0.0, 0.0, 0.0, 0.0, 1.6664078456910899E9, 0.0, 2022-10-21 20:04:05.691
143.0, -143305.57206935552, -154968.7346778792, 54163.84239957838, -82922.31207159902, 70588.26185324929, -75150.5881727443, 85095.34866754398, -127544.9547225183, -0.004, 0.9480000000000001, -0.12, 192.0, 255.0, 224.0, 29.0, 160.0, 252.0, 64.0, 0.0, 0.0, 0.0, 1.6664078456911018E9, 0.0, 2022-10-21 20:04:05.691
144.0, -143309.9753630132, -154974.81435237103, 54162.16601874424, -82924.99428093366, 70590.56408292819, -75126.02360558792, 85112.85008345247, -127541.60196085, -0.004, 0.9480000000000001, -0.12, 192.0, 0.0, 0.0, 0.0, 0.0, 0.0, 0.0, 0.0, 0.0, 0.0, 1.6664078456911151E9, 0.0, 2022-10-21 20:04:05.691
145.0, -143309.70714207974, -154977.11658204993, 54165.071745523426, -82930.6269205364, 70595.07913530817, -75140.95457088406, 85087.70437094026, -127543.12187947296, -0.004, 0.9480000000000001, -0.12, 192.0, 0.0, 0.0, 0.0, 0.0, 0.0, 0.0, 0.0, 0.0, 0.0, 1.6664078456911273E9, 0.0, 2022-10-21 20:04:05.691
146.0, -143303.20278444325, -154970.94750058025, 54172.71604212714, -82922.93792044377, 70606.411469747, -75148.91179191016, 85081.37882725941, -127534.22588517975, -0.004, 0.9480000000000001, -0.12, 192.0, 0.0, 0.0, 0.0, 0.0, 0.0, 0.0, 0.0, 0.0, 0.0, 1.6664078456911438E9, 0.0, 2022-10-21 20:04:05.691
147.0, -143304.74505481066, -154971.70745989174, 54175.10767878386, -82901.6143562334, 70613.1169930836, -75127.72233816652, 85113.3418218305, -127532.25893166769, -0.004, 0.9480000000000001, -0.12, 192.0, 0.0, 0.0, 0.0, 0.0, 0.0, 0.0, 0.0, 0.0, 0.0, 1.666407845691156E9, 0.0, 2022-10-21 20:04:05.691
148.0, -143315.45154040476, -154983.84445713097, 54159.01442277604, -82921.17213263181, 70595.2132457749, -75120.90505610766, 85118.30390909957, -127549.58153362056, -0.004, 0.9480000000000001, -0.12, 192.0, 0.0, 0.0, 0.0, 0.0, 0.0, 0.0, 0.0, 0.0, 0.0, 1.666407845691168E9, 0.0, 2022-10-21 20:04:05.691
149.0, -143313.73045608168, -154984.93969260927, 54154.67818435171, -82937.69007178427, 70590.22880676137, -75145.82725117532, 85087.23498430669, -127556.73409184624, -0.004, 0.9480000000000001, -0.12, 192.0, 0.0, 0.0, 0.0, 0.0, 0.0, 0.0, 0.0, 0.0, 0.0, 1.6664078456911924E9, 0.0, 2022-10-21 20:04:05.691
150.0, -143319.4301509178, -154989.49944847816, 54152.91239653974, -82943.61328406492, 70589.29003349424, -75167.35198108578, 85062.51395493913, -127562.12086225998, -0.004, 0.9480000000000001, -0.12, 192.0, 0.0, 0.0, 0.0, 0.0, 0.0, 0.0, 0.0, 0.0, 0.0, 1.6664078456912043E9, 0.0, 2022-10-21 20:04:05.691
151.0, -143312.88108979238, -154979.03883207307, 54159.99789953207, -82927.45297282374, 70594.2074172744, -75151.90692566716, 85083.05520809356, -127549.96151327628, -0.004, 0.9480000000000001, -0.12, 192.0, 0.0, 0.0, 0.0, 0.0, 0.0, 0.0, 0.0, 0.0, 0.0, 1.666407845691216E9, 0.0, 2022-10-21 20:04:05.691
152.0, -143314.11043573744, -154981.05048907406, 54155.66166110774, -82923.00497567713, 70595.50381845282, -75126.69415792158, 85110.74901947367, -127547.48046964176, -0.004, 0.9480000000000001, -0.12, 192.0, 0.0, 0.0, 0.0, 0.0, 0.0, 0.0, 0.0, 0.0, 0.0, 1.666407845691228E9, 0.0, 2022-10-21 20:04:05.691
153.0, -143318.80430207305, -154986.16903855433, 54150.27489069401, -82941.64633055286, 70586.22784450387, -75148.55416399887, 85086.98911511769, -127556.71174010179, -0.006, 0.9480000000000001, -0.116, 192.0, 255.0, 208.0, 29.0, 160.0, 252.0, 96.0, 0.0, 0.0, 0.0, 1.6664078456912396E9, 0.0, 2022-10-21 20:04:05.691
154.0, -143325.55452889856, -154992.06989909054, 54144.82106504692, -82947.79306027807, 70584.70792588091, -75179.26546088046, 85054.78025135759, -127560.7574058482, -0.006, 0.9480000000000001, -0.116, 192.0, 0.0, 0.0, 0.0, 0.0, 0.0, 0.0, 0.0, 0.0, 0.0, 1.6664078456912525E9, 0.0, 2022-10-21 20:04:05.691
155.0, -143325.1298457539, -154994.17096306934, 54143.882291779795, -82937.69007178427, 70588.08303929366, -75165.1391583847, 85071.00761783215, -127556.28705695714, -0.006, 0.9480000000000001, -0.116, 192.0, 0.0, 0.0, 0.0, 0.0, 0.0, 0.0, 0.0, 0.0, 0.0, 1.6664078456912656E9, 0.0, 2022-10-21 20:04:05.691
156.0, -143320.14540674037, -154987.13016356592, 54153.113562239836, -82923.87669371089, 70598.63306267656, -75118.11108805073, 85116.13578988741, -127541.33373991655, -0.006, 0.9480000000000001, -0.116, 192.0, 0.0, 0.0, 0.0, 0.0, 0.0, 0.0, 0.0, 0.0, 0.0, 1.6664078456912775E9, 0.0, 2022-10-21 20:04:05.691
157.0, -143316.94910728326, -154981.49752396316, 54158.567387886935, -82923.54141754407, 70605.5621034577, -75112.34433798127, 85114.23589160871, -127536.86339102549, -0.006, 0.9480000000000001, -0.116, 192.0, 0.0, 0.0, 0.0, 0.0, 0.0, 0.0, 0.0, 0.0, 0.0, 1.6664078456912892E9, 0.0, 2022-10-21 20:04:05.691
158.0, -143319.25133696216, -154985.76670715414, 54154.924053540715, -82935.38784210538, 70599.4600772214, -75148.33064655431, 85077.9813621022, -127545.33470217403, -0.006, 0.9480000000000001, -0.116, 192.0, 0.0, 0.0, 0.0, 0.0, 0.0, 0.0, 0.0, 0.0, 0.0, 1.6664078456913009E9, 0.0, 2022-10-21 20:04:05.691
159.0, -143324.79456958707, -154991.60051245696, 54151.45953315015, -82937.7794787621, 70595.83909461965, -75159.39476005969, 85077.86960337992, -127546.38523416343, -0.006, 0.9480000000000001, -0.116, 192.0, 0.0, 0.0, 0.0, 0.0, 0.0, 0.0, 0.0, 0.0, 0.0, 1.6664078456913128E9, 0.0, 2022-10-21 20:04:05.691
160.0, -143337.7809331156, -155003.26812306265, 54139.054314977446, -82943.99326372067, 70584.35029796962, -75142.42978601811, 85101.60715599146, -127555.99648427923, -0.006, 0.9480000000000001, -0.116, 192.0, 0.0, 0.0, 0.0, 0.0, 0.0, 0.0, 0.0, 0.0, 0.0, 1.6664078456913245E9, 0.0, 2022-10-21 20:04:05.691
161.0, -143335.836331348, -155000.80943117256, 54145.491617380576, -82944.01561546512, 70588.08303929366, -75133.01970160243, 85104.22231009274, -127554.29775170062, -0.006, 0.9480000000000001, -0.116, 192.0, 0.0, 0.0, 0.0, 0.0, 0.0, 0.0, 0.0, 0.0, 0.0, 1.6664078456913364E9, 0.0, 2022-10-21 20:04:05.691
162.0, -143321.03947651858, -154984.78323039808, 54166.949292057674, -82933.71146127123, 70604.64568193504, -75142.80976567385, 85090.65480120837, -127530.69430955581, -0.006, 0.9480000000000001, -0.116, 192.0, 0.0, 0.0, 0.0, 0.0, 0.0, 0.0, 0.0, 0.0, 0.0, 1.666407845691348E9, 0.0, 2022-10-21 20:04:05.691
163.0, -143322.76056084165, -154984.76087865364, 54167.016347291035, -82931.6774525258, 70607.39494650305, -75148.8894401657, 85089.24664130768, -127529.5543705886, -0.008, 0.9500000000000001, -0.114, 192.0, 255.0, 192.0, 29.0, 176.0, 252.0, 112.0, 0.0, 0.0, 0.0, 1.66640784569136E9, 0.0, 2022-10-21 20:04:05.691
164.0, -143327.81205508855, -154990.4829252342, 54159.126181498315, -82924.79311523357, 70600.33179525516, -75131.79035565739, 85111.12899912942, -127536.52811485865, -0.008, 0.9500000000000001, -0.114, 192.0, 0.0, 0.0, 0.0, 0.0, 0.0, 0.0, 0.0, 0.0, 0.0, 1.6664078456913831E9, 0.0, 2022-10-21 20:04:05.691
165.0, -143331.05305803457, -154995.95910262575, 54152.62182386182, -82926.78242049008, 70601.62819643358, -75121.70971890804, 85117.23102536572, -127540.3055596716, -0.008, 0.9500000000000001, -0.114, 192.0, 0.0, 0.0, 0.0, 0.0, 0.0, 0.0, 0.0, 0.0, 0.0, 1.666407845691395E9, 0.0, 2022-10-21 20:04:05.691
166.0, -143335.14342726988, -154999.11069859396, 54147.83855054838, -82943.2333044092, 70596.37553648658, -75145.35786454176, 85083.39048426038, -127546.13936497443, -0.008, 0.9500000000000001, -0.114, 192.0, 0.0, 0.0, 0.0, 0.0, 0.0, 0.0, 0.0, 0.0, 0.0, 1.6664078456914067E9, 0.0, 2022-10-21 20:04:05.691
167.0, -143332.34945921297, -154994.41683225834, 54151.772457572515, -82943.41211836482, 70599.79535338824, -75157.36075131426, 85078.13782431338, -127538.22684743725, -0.008, 0.9500000000000001, -0.114, 192.0, 0.0, 0.0, 0.0, 0.0, 0.0, 0.0, 0.0, 0.0, 0.0, 1.6664078456914184E9, 0.0, 2022-10-21 20:04:05.691
168.0, -143336.9762703152, -154999.8259544165, 54148.39734415977, -82939.83583925199, 70594.83326611915, -75145.46962326404, 85101.65185948036, -127542.29486492812, -0.008, 0.9500000000000001, -0.114, 192.0, 0.0, 0.0, 0.0, 0.0, 0.0, 0.0, 0.0, 0.0, 0.0, 1.66640784569143E9, 0.0, 2022-10-21 20:04:05.691
169.0, -143337.04332554858, -154998.82012591604, 54153.09121049538, -82939.0758799405, 70598.25308302083, -75121.41914623012, 85121.72372600123, -127539.5008968712, -0.008, 0.9500000000000001, -0.114, 192.0, 0.0, 0.0, 0.0, 0.0, 0.0, 0.0, 0.0, 0.0, 0.0, 1.6664078456914415E9, 0.0, 2022-10-21 20:04:05.691
170.0, -143329.0861045225, -154992.69574793527, 54160.48963791009, -82941.9816067197, 70605.5173999688, -75127.58822769979, 85104.75875195966, -127536.86339102549, -0.008, 0.9500000000000001, -0.114, 192.0, 0.0, 0.0, 0.0, 0.0, 0.0, 0.0, 0.0, 0.0, 0.0, 1.6664078456914535E9, 0.0, 2022-10-21 20:04:05.691
171.0, -143335.25518599217, -154997.99311137118, 54150.67722209421, -82958.61130459444, 70595.03443181925, -75157.56191701436, 85075.54502195657, -127543.18893470633, -0.008, 0.9500000000000001, -0.114, 192.0, 0.0, 0.0, 0.0, 0.0, 0.0, 0.0, 0.0, 0.0, 0.0, 1.6664078456914651E9, 0.0, 2022-10-21 20:04:05.691
172.0, -143330.82954059, -154994.43918400278, 54154.298204695966, -82947.59189457797, 70593.93919634094, -75150.90109716667, 85095.95216464427, -127540.43967013832, -0.012, 0.9480000000000001, -0.11, 192.0, 255.0, 160.0, 29.0, 160.0, 252.0, 144.0, 0.0, 0.0, 0.0, 1.6664078456914768E9, 0.0, 2022-10-21 20:04:05.691
173.0, -143329.80136034507, -154992.1816578128, 54159.70732685415, -82941.10988868594, 70599.75064989933, -75119.22867527351, 85122.81896147954, -127542.11605097247, -0.012, 0.9480000000000001, -0.11, 192.0, 0.0, 0.0, 0.0, 0.0, 0.0, 0.0, 0.0, 0.0, 0.0, 1.6664078456914892E9, 0.0, 2022-10-21 20:04:05.691
174.0, -143332.26005223516, -154994.4838874917, 54156.28750995249, -82951.30228415756, 70599.99651908834, -75122.00029158597, 85102.7917984476, -127543.54656261762, -0.012, 0.9480000000000001, -0.11, 192.0, 0.0, 0.0, 0.0, 0.0, 0.0, 0.0, 0.0, 0.0, 0.0, 1.666407845691501E9, 0.0, 2022-10-21 20:04:05.691
175.0, -143329.26491847812, -154993.76863166914, 54158.00859427555, -82951.65991206883, 70600.35414699963, -75151.90692566716, 85074.56154520054, -127542.71954807277, -0.012, 0.9480000000000001, -0.11, 192.0, 0.0, 0.0, 0.0, 0.0, 0.0, 0.0, 0.0, 0.0, 0.0, 1.6664078456915123E9, 0.0, 2022-10-21 20:04:05.691
176.0, -143333.10941852446, -154996.92022763734, 54156.28750995249, -82952.57633359151, 70596.55435044222, -75153.96328615706, 85086.25150755067, -127543.47950738425, -0.012, 0.9480000000000001, -0.11, 192.0, 0.0, 0.0, 0.0, 0.0, 0.0, 0.0, 0.0, 0.0, 0.0, 1.6664078456915252E9, 0.0, 2022-10-21 20:04:05.691
177.0, -143336.46218019273, -154998.17192532684, 54156.28750995249, -82947.94952248926, 70599.16950454349, -75124.10135556477, 85115.68875499831, -127542.0042922502, -0.012, 0.9480000000000001, -0.11, 192.0, 0.0, 0.0, 0.0, 0.0, 0.0, 0.0, 0.0, 0.0, 0.0, 1.666407845691537E9, 0.0, 2022-10-21 20:04:05.691
178.0, -143339.16674127182, -155001.50233525067, 54156.91335879724, -82948.01657772262, 70602.27639702278, -75127.27530327742, 85105.16108335985, -127541.02081549416, -0.012, 0.9480000000000001, -0.11, 192.0, 0.0, 0.0, 0.0, 0.0, 0.0, 0.0, 0.0, 0.0, 0.0, 1.6664078456915483E9, 0.0, 2022-10-21 20:04:05.691
179.0, -143344.82173261902, -155007.5373062536, 54145.15634121375, -82964.9815517642, 70589.89353059453, -75169.9894869315, 85066.13493754089, -127550.27443769867, -0.012, 0.9480000000000001, -0.11, 192.0, 0.0, 0.0, 0.0, 0.0, 0.0, 0.0, 0.0, 0.0, 0.0, 1.6664078456915734E9, 0.0, 2022-10-21 20:04:05.691
180.0, -143341.60308141747, -155002.95519864027, 54146.05041099196, -82954.72210105922, 70591.03346956176, -75166.14498688519, 85077.087292324, -127549.98386502074, -0.012, 0.9480000000000001, -0.11, 192.0, 0.0, 0.0, 0.0, 0.0, 0.0, 0.0, 0.0, 0.0, 0.0, 1.6664078456915855E9, 0.0, 2022-10-21 20:04:05.691
181.0, -143340.35138372798, -155000.31769279455, 54151.75010582806, -82938.38297586239, 70597.85075162063, -75131.231562046, 85115.10760964247, -127540.93140851635, -0.012, 0.9480000000000001, -0.11, 192.0, 0.0, 0.0, 0.0, 0.0, 0.0, 0.0, 0.0, 0.0, 0.0, 1.666407845691599E9, 0.0, 2022-10-21 20:04:05.691
182.0, -143354.85766587945, -155016.4333005468, 54132.95228874115, -82969.31779018854, 70575.94604205442, -75151.90692566716, 85087.57026047353, -127560.66799887038, -0.016, 0.9420000000000001, -0.106, 192.0, 255.0, 128.0, 29.0, 112.0, 252.0, 176.0, 0.0, 0.0, 0.0, 1.6664078456916108E9, 0.0, 2022-10-21 20:04:05.691
183.0, -143344.06177330753, -155006.576181242, 54140.50717836704, -82968.42372041033, 70580.0587630342, -75185.30043188338, 85055.71902462472, -127561.27149597068, -0.016, 0.9420000000000001, -0.106, 192.0, 0.0, 0.0, 0.0, 0.0, 0.0, 0.0, 0.0, 0.0, 0.0, 1.6664078456916237E9, 0.0, 2022-10-21 20:04:05.691
184.0, -143343.838255863, -155004.11748935195, 54146.94448077017, -82955.45970862624, 70591.03346956176, -75179.243109136, 85066.55962068554, -127550.60971386549, -0.016, 0.9420000000000001, -0.106, 192.0, 0.0, 0.0, 0.0, 0.0, 0.0, 0.0, 0.0, 0.0, 0.0, 1.6664078456916354E9, 0.0, 2022-10-21 20:04:05.691
185.0, -143350.81200013304, -155010.4430330328, 54146.117466225325, -82943.43447010929, 70600.4659057219, -75127.92350386662, 85114.90644394237, -127542.38427190595, -0.016, 0.9420000000000001, -0.106, 192.0, 0.0, 0.0, 0.0, 0.0, 0.0, 0.0, 0.0, 0.0, 0.0, 1.6664078456916473E9, 0.0, 2022-10-21 20:04:05.691
186.0, -143353.27069202313, -155011.71708246676, 54148.218530204125, -82949.40238587886, 70604.7127371684, -75108.05280304585, 85124.67415626934, -127535.36582414697, -0.016, 0.9420000000000001, -0.106, 192.0, 0.0, 0.0, 0.0, 0.0, 0.0, 0.0, 0.0, 0.0, 0.0, 1.6664078456916592E9, 0.0, 2022-10-21 20:04:05.691
187.0, -143344.5311599411, -155003.2904748071, 54161.54016989949, -82947.61424632242, 70614.43574600646, -75126.76121315494, 85102.81415019205, -127527.67682405435, -0.016, 0.9420000000000001, -0.106, 192.0, 0.0, 0.0, 0.0, 0.0, 0.0, 0.0, 0.0, 0.0, 0.0, 1.6664078456916711E9, 0.0, 2022-10-21 20:04:05.691
188.0, -143343.7935523741, -155003.02225387364, 54161.24959722157, -82949.04475796757, 70611.70883318291, -75143.4356145186, 85091.43711226429, -127531.6554345674, -0.016, 0.9420000000000001, -0.106, 192.0, 0.0, 0.0, 0.0, 0.0, 0.0, 0.0, 0.0, 0.0, 0.0, 1.6664078456916833E9, 0.0, 2022-10-21 20:04:05.691
189.0, -143355.17059030183, -155017.21561160276, 54145.826893547404, -82954.74445280367, 70599.50478071033, -75133.39968125818, 85108.24562409469, -127544.88766728493, -0.016, 0.9420000000000001, -0.106, 192.0, 0.0, 0.0, 0.0, 0.0, 0.0, 0.0, 0.0, 0.0, 0.0, 1.6664078456916952E9, 0.0, 2022-10-21 20:04:05.691
190.0, -143358.76922115913, -155019.31667558153, 54143.72582956861, -82957.20314469376, 70600.667071422, -75116.25589326095, 85122.26016786817, -127546.72051033027, -0.016, 0.9420000000000001, -0.106, 192.0, 0.0, 0.0, 0.0, 0.0, 0.0, 0.0, 0.0, 0.0, 0.0, 1.666407845691707E9, 0.0, 2022-10-21 20:04:05.691
191.0, -143354.6341484349, -155015.15925111287, 54147.12329472582, -82960.91353427334, 70599.97416734388, -75141.22279181752, 85092.46529250924, -127544.21711495127, -0.016, 0.9420000000000001, -0.106, 192.0, 0.0, 0.0, 0.0, 0.0, 0.0, 0.0, 0.0, 0.0, 0.0, 1.6664078456917188E9, 0.0, 2022-10-21 20:04:05.691
192.0, -143357.80809614755, -155018.17673661432, 54146.34098366988, -82959.17009820582, 70601.5164377113, -75156.66784723614, 85076.2826295236, -127543.77008006217, -0.014, 0.9440000000000001, -0.11, 192.0, 255.0, 144.0, 29.0, 128.0, 252.0, 144.0, 0.0, 0.0, 0.0, 1.6664078456917305E9, 0.0, 2022-10-21 20:04:05.691
193.0, -143368.20165731927, -155026.9386204408, 54141.87063477882, -82957.73958656068, 70594.05095506323, -75141.02162611744, 85098.8802431679, -127542.2054579503, -0.014, 0.9440000000000001, -0.11, 192.0, 0.0, 0.0, 0.0, 0.0, 0.0, 0.0, 0.0, 0.0, 0.0, 1.6664078456917431E9, 0.0, 2022-10-21 20:04:05.691
194.0, -143377.1423551014, -155038.4944723242, 54130.873576506805, -82966.70263608726, 70585.78080961476, -75131.70094867957, 85106.14456011589, -127551.39202492143, -0.014, 0.9440000000000001, -0.11, 192.0, 0.0, 0.0, 0.0, 0.0, 0.0, 0.0, 0.0, 0.0, 0.0, 1.666407845691765E9, 0.0, 2022-10-21 20:04:05.691
195.0, -143378.75168070217, -155042.56248981506, 54127.63257356079, -82974.81631932454, 70586.18314101496, -75150.56582099985, 85081.20001330377, -127555.28122845665, -0.014, 0.9440000000000001, -0.11, 192.0, 0.0, 0.0, 0.0, 0.0, 0.0, 0.0, 0.0, 0.0, 0.0, 1.6664078456917772E9, 0.0, 2022-10-21 20:04:05.691
196.0, -143381.52329701465, -155040.7967020031, 54129.30895439493, -82978.12437750392, 70584.35029796962, -75182.50646382647, 85055.07082403552, -127562.2549727267, -0.014, 0.9440000000000001, -0.11, 192.0, 0.0, 0.0, 0.0, 0.0, 0.0, 0.0, 0.0, 0.0, 0.0, 1.666407845691789E9, 0.0, 2022-10-21 20:04:05.691
197.0, -143388.92172442935, -155049.13390268493, 54127.09613169386, -82971.3294471895, 70586.56312067069, -75155.25968733546, 85083.32342902702, -127556.30940870159, -0.014, 0.9440000000000001, -0.11, 192.0, 0.0, 0.0, 0.0, 0.0, 0.0, 0.0, 0.0, 0.0, 0.0, 1.6664078456918018E9, 0.0, 2022-10-21 20:04:05.691
198.0, -143392.16272737537, -155051.63729806393, 54130.314782895424, -82967.30613318755, 70591.16758002849, -75113.30546299285, 85118.01333642166, -127545.42410915186, -0.014, 0.9440000000000001, -0.11, 192.0, 0.0, 0.0, 0.0, 0.0, 0.0, 0.0, 0.0, 0.0, 0.0, 1.6664078456918144E9, 0.0, 2022-10-21 20:04:05.691
199.0, -143411.63109679593, -155072.02208900717, 54132.840530018875, -82980.91834556083, 70590.42997246147, -75124.97307359852, 85097.71795245624, -127544.82061205157, -0.014, 0.9440000000000001, -0.11, 192.0, 0.0, 0.0, 0.0, 0.0, 0.0, 0.0, 0.0, 0.0, 0.0, 1.6664078456918259E9, 0.0, 2022-10-21 20:04:05.691
200.0, -143428.0596289706, -155085.38843219142, 54135.209814931135, -82985.52280491863, 70592.57573992918, -75150.07408262182, 85069.19712653126, -127546.58639986353, -0.014, 0.9440000000000001, -0.11, 192.0, 0.0, 0.0, 0.0, 0.0, 0.0, 0.0, 0.0, 0.0, 0.0, 1.6664078456918373E9, 0.0, 2022-10-21 20:04:05.691
201.0, -143439.07903898705, -155096.78782186363, 54129.35365788385, -82976.7385693477, 70588.97710907187, -75157.71837922554, 85074.40508298935, -127548.93333303134, -0.014, 0.9440000000000001, -0.11, 192.0, 0.0, 0.0, 0.0, 0.0, 0.0, 0.0, 0.0, 0.0, 0.0, 1.6664078456918492E9, 0.0, 2022-10-21 20:04:05.691
202.0, -143460.46965843078, -155124.66044719942, 54113.48391932058, -82991.02133405463, 70577.66712637748, -75138.67469294961, 85096.4886065112, -127560.109205259, -0.012, 0.9460000000000001, -0.112, 192.0, 255.0, 160.0, 29.0, 144.0, 252.0, 128.0, 0.0, 0.0, 0.0, 1.666407845691861E9, 0.0, 2022-10-21 20:04:05.691
203.0, -143469.54446667962, -155134.07053161509, 54119.764759512516, -82996.40810446837, 70582.3609927131, -75128.25878003344, 85092.55469948707, -127552.21903946628, -0.012, 0.9460000000000001, -0.112, 192.0, 0.0, 0.0, 0.0, 0.0, 0.0, 0.0, 0.0, 0.0, 0.0, 1.6664078456918733E9, 0.0, 2022-10-21 20:04:05.691
204.0, -143489.0128361002, -155153.65065975793, 54118.06602693391, -83002.75599989368, 70578.89647232252, -75155.75142571348, 85059.42941420429, -127555.95178079032, -0.012, 0.9460000000000001, -0.112, 192.0, 0.0, 0.0, 0.0, 0.0, 0.0, 0.0, 0.0, 0.0, 0.0, 1.6664078456918848E9, 0.0, 2022-10-21 20:04:05.691
205.0, -143508.23533633177, -155171.86733148902, 54113.14864315375, -82997.45863645777, 70576.0578007767, -75163.73099848402, 85061.93280958329, -127557.09171975753, -0.012, 0.9460000000000001, -0.112, 192.0, 0.0, 0.0, 0.0, 0.0, 0.0, 0.0, 0.0, 0.0, 0.0, 1.666407845691897E9, 0.0, 2022-10-21 20:04:05.691
206.0, -143530.54237729817, -155196.18602945638, 54107.02426517299, -82993.07769454453, 70570.08988500714, -75146.00606513096, 85086.87735639542, -127564.91483031689, -0.012, 0.9460000000000001, -0.112, 192.0, 0.0, 0.0, 0.0, 0.0, 0.0, 0.0, 0.0, 0.0, 0.0, 1.6664078456919084E9, 0.0, 2022-10-21 20:04:05.691
207.0, -143536.39853434547, -155202.9362562819, 54111.40520708623, -82993.97176432273, 70573.15207399751, -75140.90986739515, 85085.11156858344, -127563.6631326274, -0.012, 0.9460000000000001, -0.112, 192.0, 0.0, 0.0, 0.0, 0.0, 0.0, 0.0, 0.0, 0.0, 0.0, 1.66640784569192E9, 0.0, 2022-10-21 20:04:05.691
208.0, -143537.69493552388, -155205.01496851625, 54122.80459675844, -82995.49168294569, 70583.52328342477, -75155.43850129111, 85067.54309744156, -127551.99552202172, -0.012, 0.9460000000000001, -0.112, 192.0, 0.0, 0.0, 0.0, 0.0, 0.0, 0.0, 0.0, 0.0, 0.0, 1.6664078456919317E9, 0.0, 2022-10-21 20:04:05.691
209.0, -143548.91551124043, -155214.69327386538, 54122.40226535824, -82991.84834859948, 70585.95962357041, -75167.4860915525, 85065.84436486296, -127553.71660634478, -0.012, 0.9460000000000001, -0.112, 192.0, 0.0, 0.0, 0.0, 0.0, 0.0, 0.0, 0.0, 0.0, 0.0, 1.666407845691956E9, 0.0, 2022-10-21 20:04:05.691
210.0, -143559.0855549676, -155226.31618098213, 54117.84250948936, -82983.33233396201, 70586.76428637079, -75138.00414061596, 85095.61688847744, -127557.58345813554, -0.012, 0.9460000000000001, -0.112, 192.0, 0.0, 0.0, 0.0, 0.0, 0.0, 0.0, 0.0, 0.0, 0.0, 1.6664078456919699E9, 0.0, 2022-10-21 20:04:05.691
211.0, -143563.4888486253, -155229.66894265043, 54114.95913445463, -82984.85225258497, 70584.2608909918, -75128.50464922245, 85097.62854547841, -127561.1597372484, -0.014, 0.9560000000000001, -0.114, 192.0, 255.0, 144.0, 29.0, 224.0, 252.0, 112.0, 0.0, 0.0, 0.0, 1.666407845691982E9, 0.0, 2022-10-21 20:04:05.691
212.0, -143569.21089520585, -155231.05475080668, 54118.289544378466, -82990.82016835453, 70588.01598406029, -75148.2412395765, 85072.4828329662, -127554.90124880092, -0.014, 0.9560000000000001, -0.114, 192.0, 0.0, 0.0, 0.0, 0.0, 0.0, 0.0, 0.0, 0.0, 0.0, 1.6664078456919951E9, 0.0, 2022-10-21 20:04:05.691
213.0, -143576.40815692046, -155238.20730903238, 54114.48974782107, -82986.93096481932, 70589.13357128306, -75166.61437351875, 85059.96585607123, -127558.38812093594, -0.014, 0.9560000000000001, -0.114, 192.0, 0.0, 0.0, 0.0, 0.0, 0.0, 0.0, 0.0, 0.0, 0.0, 1.6664078456920044E9, 0.0, 2022-10-21 20:04:05.692
214.0, -143583.85128782407, -155243.68348642392, 54107.82892797339, -82981.11951126093, 70585.87021659258, -75150.96815240003, 85083.83751914949, -127557.4046441799, -0.014, 0.9560000000000001, -0.114, 192.0, 0.0, 0.0, 0.0, 0.0, 0.0, 0.0, 0.0, 0.0, 0.0, 1.6664078456920128E9, 0.0, 2022-10-21 20:04:05.692
215.0, -143593.95427631788, -155251.50659698326, 54102.4198058152, -82983.77936885112, 70585.19966425892, -75134.6290272032, 85095.2369088217, -127561.04797852613, -0.014, 0.9560000000000001, -0.114, 192.0, 0.0, 0.0, 0.0, 0.0, 0.0, 0.0, 0.0, 0.0, 0.0, 1.6664078456920211E9, 0.0, 2022-10-21 20:04:05.692
216.0, -143587.31580821465, -155244.55520445766, 54102.19628837065, -82989.70258113177, 70586.31725148168, -75152.06338787836, 85067.92307709731, -127566.4571006843, -0.014, 0.9560000000000001, -0.114, 192.0, 0.0, 0.0, 0.0, 0.0, 0.0, 0.0, 0.0, 0.0, 0.0, 1.6664078456920297E9, 0.0, 2022-10-21 20:04:05.692
217.0, -143577.63750286552, -155230.9429920844, 54103.00095117104, -82991.28955498809, 70588.15009452702, -75181.52298707045, 85047.56063789852, -127562.54554540463, -0.014, 0.9560000000000001, -0.114, 192.0, 0.0, 0.0, 0.0, 0.0, 0.0, 0.0, 0.0, 0.0, 0.0, 1.6664078456920376E9, 0.0, 2022-10-21 20:04:05.692
218.0, -143581.39259593398, -155231.1441577845, 54103.49268954906, -82981.47713917222, 70590.89935909503, -75167.21787061905, 85075.94735335677, -127556.06353951259, -0.014, 0.9560000000000001, -0.114, 192.0, 0.0, 0.0, 0.0, 0.0, 0.0, 0.0, 0.0, 0.0, 0.0, 1.666407845692046E9, 0.0, 2022-10-21 20:04:05.692
219.0, -143582.21961047885, -155230.47360545082, 54103.87266920479, -82979.7337031047, 70596.93433009795, -75126.09066082128, 85109.7431909732, -127547.74869057522, -0.014, 0.9560000000000001, -0.114, 192.0, 0.0, 0.0, 0.0, 0.0, 0.0, 0.0, 0.0, 0.0, 0.0, 1.6664078456920552E9, 0.0, 2022-10-21 20:04:05.692
220.0, -143576.05052900917, -155221.95759081337, 54100.58696276986, -82988.00384855317, 70599.16950454349, -75126.91767536613, 85094.05226636557, -127547.4581178973, -0.014, 0.9560000000000001, -0.114, 192.0, 0.0, 0.0, 0.0, 0.0, 0.0, 0.0, 0.0, 0.0, 0.0, 1.6664078456920636E9, 0.0, 2022-10-21 20:04:05.692
221.0, -143563.71236606984, -155206.1772592279, 54098.55295402443, -82997.16806377984, 70592.03929806224, -75159.79709145988, 85062.69276889478, -127550.27443769867, -0.008, 0.9580000000000001, -0.11800000000000001, 192.0, 255.0, 192.0, 29.0, 240.0, 252.0, 80.0, 0.0, 0.0, 0.0, 1.666407845692072E9, 0.0, 2022-10-21 20:04:05.692
222.0, -143560.4937148683, -155201.66220684795, 54092.339169065854, -82994.79877886758, 70586.71958288188, -75154.5891350018, 85076.95318185726, -127549.24625745372, -0.008, 0.9580000000000001, -0.11800000000000001, 192.0, 0.0, 0.0, 0.0, 0.0, 0.0, 0.0, 0.0, 0.0, 0.0, 1.6664078456920807E9, 0.0, 2022-10-21 20:04:05.692
223.0, -143552.22356941982, -155192.72150906583, 54089.72401496459, -82992.54125267759, 70587.68070789347, -75128.16937305563, 85102.56828100304, -127550.85558305451, -0.008, 0.9580000000000001, -0.11800000000000001, 192.0, 0.0, 0.0, 0.0, 0.0, 0.0, 0.0, 0.0, 0.0, 0.0, 1.66640784569209E9, 0.0, 2022-10-21 20:04:05.692
224.0, -143530.20710113135, -155167.79931399814, 54105.25847736102, -82981.74536010568, 70600.5106092108, -75125.21894278753, 85098.54496700109, -127534.38234739094, -0.008, 0.9580000000000001, -0.11800000000000001, 192.0, 0.0, 0.0, 0.0, 0.0, 0.0, 0.0, 0.0, 0.0, 0.0, 1.6664078456920981E9, 0.0, 2022-10-21 20:04:05.692
225.0, -143528.620127275, -155164.5359593077, 54105.41493957221, -82993.25650850017, 70601.42703073348, -75151.77281520043, 85069.3759404869, -127541.42314689436, -0.008, 0.9580000000000001, -0.11800000000000001, 192.0, 0.0, 0.0, 0.0, 0.0, 0.0, 0.0, 0.0, 0.0, 0.0, 1.666407845692114E9, 0.0, 2022-10-21 20:04:05.692
226.0, -143521.33345858258, -155154.23180511378, 54106.063140161416, -82982.99705779518, 70603.93042611246, -75149.02355063242, 85081.71410342623, -127537.93627475934, -0.008, 0.9580000000000001, -0.11800000000000001, 192.0, 0.0, 0.0, 0.0, 0.0, 0.0, 0.0, 0.0, 0.0, 0.0, 1.6664078456921225E9, 0.0, 2022-10-21 20:04:05.692
227.0, -143515.16437711293, -155143.10063637505, 54100.13992788076, -82977.87850831491, 70602.07523132268, -75128.32583526682, 85109.340859573, -127535.63404508044, -0.008, 0.9580000000000001, -0.11800000000000001, 192.0, 0.0, 0.0, 0.0, 0.0, 0.0, 0.0, 0.0, 0.0, 0.0, 1.6664078456921306E9, 0.0, 2022-10-21 20:04:05.692
228.0, -143503.98850488526, -155131.1648048359, 54105.23612561657, -82981.00775253866, 70605.29388252425, -75124.74955615397, 85105.85398743796, -127532.72831830125, -0.008, 0.9580000000000001, -0.11800000000000001, 192.0, 0.0, 0.0, 0.0, 0.0, 0.0, 0.0, 0.0, 0.0, 0.0, 1.666407845692139E9, 0.0, 2022-10-21 20:04:05.692
229.0, -143491.96326636832, -155121.10651983102, 54112.94747745365, -82981.23126998321, 70612.82642040568, -75148.71062621006, 85077.24375453517, -127535.20936193579, -0.008, 0.9580000000000001, -0.11800000000000001, 192.0, 0.0, 0.0, 0.0, 0.0, 0.0, 0.0, 0.0, 0.0, 0.0, 1.6664078456921468E9, 0.0, 2022-10-21 20:04:05.692
230.0, -143482.374367997, -155109.32715050306, 54110.64524777475, -82978.4373019263, 70610.70300468242, -75151.1916698446, 85080.9317923703, -127535.41052763589, -0.008, 0.9580000000000001, -0.11800000000000001, 192.0, 0.0, 0.0, 0.0, 0.0, 0.0, 0.0, 0.0, 0.0, 0.0, 1.6664078456921551E9, 0.0, 2022-10-21 20:04:05.692
231.0, -143482.08379531908, -155108.1648597914, 54108.298314606945, -82969.76482507764, 70606.45617323591, -75128.9293323671, 85107.70918222776, -127537.69040557032, -0.01, 0.9440000000000001, -0.114, 192.0, 255.0, 176.0, 29.0, 128.0, 252.0, 112.0, 0.0, 0.0, 0.0, 1.6664078456921632E9, 0.0, 2022-10-21 20:04:05.692
232.0, -143476.7640801387, -155099.73825213173, 54117.306067622434, -82969.36249367744, 70614.10046983963, -75117.0829078058, 85114.41470556436, -127532.7506700457, -0.01, 0.9440000000000001, -0.114, 192.0, 0.0, 0.0, 0.0, 0.0, 0.0, 0.0, 0.0, 0.0, 0.0, 1.666407845692172E9, 0.0, 2022-10-21 20:04:05.692
233.0, -143466.9516643228, -155089.67996712687, 54125.66562004872, -82968.9825140217, 70620.53777224277, -75132.34914926878, 85093.51582449864, -127526.60394032049, -0.01, 0.9440000000000001, -0.114, 192.0, 0.0, 0.0, 0.0, 0.0, 0.0, 0.0, 0.0, 0.0, 0.0, 1.6664078456921804E9, 0.0, 2022-10-21 20:04:05.692
234.0, -143462.34720496502, -155085.2543217247, 54122.24580314706, -82973.60932512395, 70619.97897863138, -75144.39673953017, 85086.78794941759, -127530.2025711778, -0.01, 0.9440000000000001, -0.114, 192.0, 0.0, 0.0, 0.0, 0.0, 0.0, 0.0, 0.0, 0.0, 0.0, 1.6664078456921885E9, 0.0, 2022-10-21 20:04:05.692
235.0, -143454.18881823885, -155075.08427799755, 54126.47028284911, -82959.57242960602, 70621.96828388791, -75123.60961718674, 85119.26503411116, -127524.01113796368, -0.01, 0.9440000000000001, -0.114, 192.0, 0.0, 0.0, 0.0, 0.0, 0.0, 0.0, 0.0, 0.0, 0.0, 1.6664078456921968E9, 0.0, 2022-10-21 20:04:05.692
236.0, -143446.90214954643, -155066.03182149315, 54136.28269866499, -82948.083632956, 70632.65241773754, -75094.79821858385, 85139.0463279541, -127518.15498091638, -0.01, 0.9440000000000001, -0.114, 192.0, 0.0, 0.0, 0.0, 0.0, 0.0, 0.0, 0.0, 0.0, 0.0, 1.6664078456922047E9, 0.0, 2022-10-21 20:04:05.692
237.0, -143439.45901864278, -155057.13582719993, 54144.57519585791, -82952.73279580269, 70634.10528112714, -75109.9303495801, 85115.75581023167, -127511.11418141297, -0.01, 0.9440000000000001, -0.114, 192.0, 0.0, 0.0, 0.0, 0.0, 0.0, 0.0, 0.0, 0.0, 0.0, 1.6664078456922133E9, 0.0, 2022-10-21 20:04:05.692
238.0, -143436.62034709696, -155056.71114405527, 54142.67529757921, -82952.64338882487, 70633.09945262664, -75134.09258533629, 85095.95216464427, -127518.75847801668, -0.01, 0.9440000000000001, -0.114, 192.0, 0.0, 0.0, 0.0, 0.0, 0.0, 0.0, 0.0, 0.0, 0.0, 1.6664078456922212E9, 0.0, 2022-10-21 20:04:05.692
239.0, -143436.03920174114, -155058.00754523368, 54137.444989376665, -82948.19539167827, 70627.77973744628, -75121.10622180776, 85115.68875499831, -127526.02279496465, -0.01, 0.9440000000000001, -0.114, 192.0, 0.0, 0.0, 0.0, 0.0, 0.0, 0.0, 0.0, 0.0, 0.0, 1.6664078456922293E9, 0.0, 2022-10-21 20:04:05.692
240.0, -143444.28699544515, -155067.28351918265, 54124.793902014964, -82959.77359530612, 70614.59220821765, -75119.36278574023, 85119.55560678907, -127540.77494630516, -0.01, 0.9460000000000001, -0.114, 192.0, 255.0, 176.0, 29.0, 144.0, 252.0, 112.0, 0.0, 0.0, 0.0, 1.666407845692247E9, 0.0, 2022-10-21 20:04:05.692
241.0, -143443.19175996684, -155067.32822267155, 54121.75406476904, -82964.69097908628, 70614.43574600646, -75139.16643132764, 85095.46042626625, -127546.58639986353, -0.01, 0.9460000000000001, -0.114, 192.0, 0.0, 0.0, 0.0, 0.0, 0.0, 0.0, 0.0, 0.0, 0.0, 1.6664078461698964E9, 0.0, 2022-10-21 20:04:06.169
242.0, -143428.9089952599, -155052.79958877558, 54133.24286141907, -82954.78915629258, 70626.57274324569, -75139.54641098338, 85087.0338186066, -127533.68944331283, -0.01, 0.9460000000000001, -0.114, 192.0, 0.0, 0.0, 0.0, 0.0, 0.0, 0.0, 0.0, 0.0, 0.0, 1.6664078461699872E9, 0.0, 2022-10-21 20:04:06.169
243.0, -143424.7515707912, -155048.66451605136, 54136.86384402083, -82941.1769439193, 70634.19468810495, -75112.56785542582, 85117.70041199928, -127525.21813216427, -0.01, 0.9460000000000001, -0.114, 192.0, 0.0, 0.0, 0.0, 0.0, 0.0, 0.0, 0.0, 0.0, 0.0, 1.666407846170009E9, 0.0, 2022-10-21 20:04:06.170
244.0, -143431.61355633897, -155054.36421088746, 54129.53247183949, -82952.1292987024, 70624.89636241154, -75100.38615469768, 85130.77618250564, -127534.53880960213, -0.01, 0.9460000000000001, -0.114, 192.0, 0.0, 0.0, 0.0, 0.0, 0.0, 0.0, 0.0, 0.0, 0.0, 1.6664078461700263E9, 0.0, 2022-10-21 20:04:06.170
245.0, -143428.61842258196, -155051.30202189708, 54128.9736782281, -82955.39265339288, 70625.1198798561, -75116.41235547213, 85111.10664738496, -127534.33764390204, -0.01, 0.9460000000000001, -0.114, 192.0, 0.0, 0.0, 0.0, 0.0, 0.0, 0.0, 0.0, 0.0, 0.0, 1.6664078461700437E9, 0.0, 2022-10-21 20:04:06.170
246.0, -143423.96925973526, -155045.55762357207, 54129.130140439294, -82955.52676385961, 70627.69033046847, -75139.72522493901, 85085.13392032789, -127535.74580380271, -0.01, 0.9460000000000001, -0.114, 192.0, 0.0, 0.0, 0.0, 0.0, 0.0, 0.0, 0.0, 0.0, 0.0, 1.6664078461700613E9, 0.0, 2022-10-21 20:04:06.170
247.0, -143419.67772479984, -155042.16015841486, 54132.10292245185, -82941.22164740821, 70633.25591483784, -75128.95168411157, 85102.68003972531, -127532.66126306789, -0.01, 0.9460000000000001, -0.114, 192.0, 0.0, 0.0, 0.0, 0.0, 0.0, 0.0, 0.0, 0.0, 0.0, 1.6664078461700783E9, 0.0, 2022-10-21 20:04:06.170
248.0, -143422.4046376234, -155045.4011613609, 54127.83373926089, -82940.86401949692, 70630.79722294775, -75107.8292856013, 85130.10563017198, -127535.00819623569, -0.01, 0.9460000000000001, -0.114, 192.0, 0.0, 0.0, 0.0, 0.0, 0.0, 0.0, 0.0, 0.0, 0.0, 1.6664078461700954E9, 0.0, 2022-10-21 20:04:06.170
249.0, -143418.2025096658, -155042.4507310928, 54128.1243119388, -82953.44805162527, 70630.35018805864, -75115.40652697165, 85116.06873465404, -127537.82451603706, -0.01, 0.9460000000000001, -0.114, 192.0, 0.0, 0.0, 0.0, 0.0, 0.0, 0.0, 0.0, 0.0, 0.0, 1.6664078461701128E9, 0.0, 2022-10-21 20:04:06.170
250.0, -143416.81670150958, -155037.77921650163, 54126.44793110465, -82962.09817672947, 70629.34435955815, -75135.76896617044, 85091.39240877538, -127537.73510905924, -0.01, 0.9520000000000001, -0.114, 192.0, 255.0, 176.0, 29.0, 192.0, 252.0, 112.0, 0.0, 0.0, 0.0, 1.6664078461701295E9, 0.0, 2022-10-21 20:04:06.170
251.0, -143414.08978868602, -155033.8900129664, 54127.2749456495, -82951.32463590201, 70631.75834795933, -75135.65720744815, 85102.7917984476, -127526.06749845357, -0.01, 0.9520000000000001, -0.114, 192.0, 0.0, 0.0, 0.0, 0.0, 0.0, 0.0, 0.0, 0.0, 0.0, 1.6664078461701484E9, 0.0, 2022-10-21 20:04:06.170
252.0, -143417.37549512094, -155038.80739674656, 54122.71518978062, -82947.14485968887, 70625.49985951184, -75119.8321723738, 85122.79660973509, -127534.4046991354, -0.01, 0.9520000000000001, -0.114, 192.0, 0.0, 0.0, 0.0, 0.0, 0.0, 0.0, 0.0, 0.0, 0.0, 1.6664078461701653E9, 0.0, 2022-10-21 20:04:06.170
253.0, -143414.6932857863, -155035.20876588926, 54121.82112000241, -82944.7308712877, 70626.52803975678, -75119.47454446252, 85112.31364158556, -127542.02664399466, -0.01, 0.9520000000000001, -0.114, 192.0, 0.0, 0.0, 0.0, 0.0, 0.0, 0.0, 0.0, 0.0, 0.0, 1.6664078461701825E9, 0.0, 2022-10-21 20:04:06.170
254.0, -143408.32303861657, -155030.02316117563, 54121.150567668745, -82954.45388012576, 70625.61161823412, -75145.71549245305, 85080.37299875892, -127543.6583213399, -0.01, 0.9520000000000001, -0.114, 192.0, 0.0, 0.0, 0.0, 0.0, 0.0, 0.0, 0.0, 0.0, 0.0, 1.6664078461701992E9, 0.0, 2022-10-21 20:04:06.170
255.0, -143405.2384978817, -155026.4468820628, 54125.59856481535, -82950.94465624627, 70630.35018805864, -75142.3403790403, 85090.81126341954, -127531.81189677858, -0.01, 0.9520000000000001, -0.114, 192.0, 0.0, 0.0, 0.0, 0.0, 0.0, 0.0, 0.0, 0.0, 0.0, 1.6664078461702905E9, 0.0, 2022-10-21 20:04:06.170
0.0, -143409.1053496725, -155029.598478031, 54122.71518978062, -82944.57440907651, 70628.20442059093, -75118.89339910667, 85122.75190624618, -127532.81772527906, -0.01, 0.9520000000000001, -0.114, 192.0, 0.0, 0.0, 0.0, 0.0, 0.0, 0.0, 0.0, 0.0, 0.0, 1.6664078461703072E9, 0.0, 2022-10-21 20:04:06.170
1.0, -143414.42506485284, -155033.73355075522, 54109.684122763174, -82964.82508955302, 70612.64760645005, -75126.33653001029, 85111.75484797417, -127552.86724005548, -0.01, 0.9520000000000001, -0.114, 192.0, 0.0, 0.0, 0.0, 0.0, 0.0, 0.0, 0.0, 0.0, 0.0, 1.6664078461703238E9, 0.0, 2022-10-21 20:04:06.170
2.0, -143408.59125955, -155029.2408501197, 54112.88042222028, -82962.14288021838, 70616.62621696308, -75146.5872104868, 85083.2340220492, -127554.78949007863, -0.01, 0.9520000000000001, -0.114, 192.0, 0.0, 0.0, 0.0, 0.0, 0.0, 0.0, 0.0, 0.0, 0.0, 1.6664078461703413E9, 0.0, 2022-10-21 20:04:06.170
3.0, -143403.51741355867, -155025.6422192624, 54118.781282756485, -82955.83968828198, 70625.87983916758, -75148.82238493233, 85086.58678371749, -127543.56891436207, -0.01, 0.9520000000000001, -0.114, 192.0, 0.0, 0.0, 0.0, 0.0, 0.0, 0.0, 0.0, 0.0, 0.0, 1.6664078461703584E9, 0.0, 2022-10-21 20:04:06.170
4.0, -143400.81285247958, -155019.76371047067, 54118.04367518946, -82947.0331009666, 70627.15388860153, -75121.28503576339, 85120.65084226738, -127530.94017874483, -0.012, 0.9540000000000001, -0.112, 192.0, 255.0, 160.0, 29.0, 208.0, 252.0, 128.0, 0.0, 0.0, 0.0, 1.666407846170375E9, 0.0, 2022-10-21 20:04:06.170
5.0, -143402.42217808036, -155019.45078604828, 54112.85807047583, -82946.60841782195, 70628.74086245785, -75106.08584953379, 85130.61972029445, -127541.22198119426, -0.012, 0.9540000000000001, -0.112, 192.0, 0.0, 0.0, 0.0, 0.0, 0.0, 0.0, 0.0, 0.0, 0.0, 1.6664078461704025E9, 0.0, 2022-10-21 20:04:06.170
6.0, -143401.8410327245, -155020.12133838193, 54108.5218320515, -82960.53355461759, 70620.22484782038, -75136.66303594864, 85093.62758322092, -127547.81574580858, -0.012, 0.9540000000000001, -0.112, 192.0, 0.0, 0.0, 0.0, 0.0, 0.0, 0.0, 0.0, 0.0, 0.0, 1.6664078461704192E9, 0.0, 2022-10-21 20:04:06.170
7.0, -143397.4377390668, -155014.30988482357, 54110.734654752574, -82958.92422901682, 70621.07421410969, -75157.56191701436, 85079.94831561427, -127539.43384163785, -0.012, 0.9540000000000001, -0.112, 192.0, 0.0, 0.0, 0.0, 0.0, 0.0, 0.0, 0.0, 0.0, 0.0, 1.6664078461704357E9, 0.0, 2022-10-21 20:04:06.170
8.0, -143398.75649198968, -155015.00278890168, 54111.18168964168, -82947.14485968887, 70626.95272290143, -75128.99638760048, 85113.25241485267, -127535.83521078054, -0.012, 0.9540000000000001, -0.112, 192.0, 0.0, 0.0, 0.0, 0.0, 0.0, 0.0, 0.0, 0.0, 0.0, 1.666407846170452E9, 0.0, 2022-10-21 20:04:06.170
9.0, -143401.4387013243, -155017.5955912585, 54108.74534949605, -82944.21678116522, 70629.59022874715, -75101.66020413164, 85133.68190928483, -127537.9586265038, -0.012, 0.9540000000000001, -0.112, 192.0, 0.0, 0.0, 0.0, 0.0, 0.0, 0.0, 0.0, 0.0, 0.0, 1.6664078461704683E9, 0.0, 2022-10-21 20:04:06.170
10.0, -143396.1860413773, -155013.12524236742, 54111.8745937198, -82946.07197595501, 70633.05474913774, -75116.21118977203, 85112.11247588546, -127539.38913814892, -0.012, 0.9540000000000001, -0.112, 192.0, 0.0, 0.0, 0.0, 0.0, 0.0, 0.0, 0.0, 0.0, 0.0, 1.666407846170498E9, 0.0, 2022-10-21 20:04:06.170
