%OpenBCI Raw EEG Data
%Number of channels = 8
%Sample Rate = 250 Hz
%Board = OpenBCI_GUI$BoardCytonSerial
Sample Index, EXG Channel 0, EXG Channel 1, EXG Channel 2, EXG Channel 3, EXG Channel 4, EXG Channel 5, EXG Channel 6, EXG Channel 7, Accel Channel 0, Accel Channel 1, Accel Channel 2, Other, Other, Other, Other, Other, Other, Other, Analog Channel 0, Analog Channel 1, Analog Channel 2, Timestamp, Other, Timestamp (Formatted)
28.0, -140934.78959021444, -148547.27966156957, -27506.079078445327, -110463.84101675046, 76641.67304535783, -72635.88281105552, 70406.9668539723, -108460.9458995993, 0.0, 0.0, 0.0, 192.0, 0.0, 0.0, 0.0, 0.0, 0.0, 0.0, 0.0, 0.0, 0.0, 1.666406645802224E9, 0.0, 2022-10-21 19:44:05.802
29.0, -140930.9227384237, -148540.32826904397, -27500.513494075956, -110456.24142363566, 76646.43396692681, -72734.5657628257, 70376.63553674646, -108451.87109135045, 0.0, 0.0, 0.0, 192.0, 0.0, 0.0, 0.0, 0.0, 0.0, 0.0, 0.0, 0.0, 0.0, 1.666406645802274E9, 0.0, 2022-10-21 19:44:05.802
30.0, -140930.3639448123, -148540.0600481105, -27497.339546363302, -110427.7653011996, 76656.62636239844, -72650.50085192929, 70448.51874691472, -108401.64672155937, 0.0, 0.0, 0.0, 192.0, 0.0, 0.0, 0.0, 0.0, 0.0, 0.0, 0.0, 0.0, 0.0, 1.6664066458023112E9, 0.0, 2022-10-21 19:44:05.802
31.0, -140939.90813969471, -148549.7160017152, -27511.845828514797, -110439.61172576091, 76645.11521400395, -72552.95783912633, 70481.21934905283, -108411.45913737526, 0.0, 0.0, 0.0, 192.0, 0.0, 0.0, 0.0, 0.0, 0.0, 0.0, 0.0, 0.0, 0.0, 1.666406645802348E9, 0.0, 2022-10-21 19:44:05.802
32.0, -140939.90813969471, -148548.7101732147, -27518.081965217825, -110471.68647905427, 76634.92281853233, -72621.80121204868, 70415.66168256542, -108465.88563512394, 0.0, 0.0, 0.0, 192.0, 0.0, 0.0, 0.0, 0.0, 0.0, 0.0, 0.0, 0.0, 0.0, 1.6664066458023844E9, 0.0, 2022-10-21 19:44:05.802
33.0, -140922.5631859974, -148530.11352182788, -27501.40756385417, -110460.15297891534, 76650.92666756234, -72712.10225964812, 70385.33036533957, -108455.02268731865, 0.0, 0.0, 0.0, 192.0, 0.0, 0.0, 0.0, 0.0, 0.0, 0.0, 0.0, 0.0, 0.0, 1.66640664580242E9, 0.0, 2022-10-21 19:44:05.802
34.0, -140928.73226746707, -148535.88027189736, -27504.335642377813, -110440.05876065002, 76654.52529841964, -72648.89152632852, 70437.6781508539, -108415.05776823257, 0.0, 0.0, 0.0, 192.0, 0.0, 0.0, 0.0, 0.0, 0.0, 0.0, 0.0, 0.0, 0.0, 1.6664066458024397E9, 0.0, 2022-10-21 19:44:05.802
35.0, -140928.39699130022, -148531.96871661767, -27502.502799332477, -110430.9168971678, 76652.71480711875, -72523.1182602785, 70494.11630560354, -108399.0315674581, 0.0, 0.0, 0.0, 192.0, 0.0, 0.0, 0.0, 0.0, 0.0, 0.0, 0.0, 0.0, 0.0, 1.6664066458024597E9, 0.0, 2022-10-21 19:44:05.802
36.0, -140922.5631859974, -148526.09020782594, -27502.68161328812, -110448.37360958739, 76647.0374640271, -72577.81297896063, 70443.22138347881, -108442.81863484606, -0.022, 0.9460000000000001, -0.112, 192.0, 255.0, 80.0, 29.0, 144.0, 252.0, 128.0, 0.0, 0.0, 0.0, 1.6664066458024793E9, 0.0, 2022-10-21 19:44:05.802
37.0, -140925.64772673222, -148532.21458580668, -27506.97314822354, -110467.05966795202, 76642.20948722475, -72707.58720726815, 70381.2623478487, -108465.19273104581, -0.022, 0.9460000000000001, -0.112, 192.0, 0.0, 0.0, 0.0, 0.0, 0.0, 0.0, 0.0, 0.0, 0.0, 1.6664066458024983E9, 0.0, 2022-10-21 19:44:05.802
38.0, -140927.48056977757, -148532.75102767363, -27503.6427382997, -110450.04999042154, 76644.087033759, -72684.43080001244, 70420.69082506787, -108425.31721893755, -0.022, 0.9460000000000001, -0.112, 192.0, 0.0, 0.0, 0.0, 0.0, 0.0, 0.0, 0.0, 0.0, 0.0, 1.6664066458025131E9, 0.0, 2022-10-21 19:44:05.802
39.0, -140929.73809596756, -148532.43810325125, -27503.39686911069, -110443.54563278504, 76642.16478373585, -72554.63421996048, 70486.15908457746, -108404.19482042728, -0.022, 0.9460000000000001, -0.112, 192.0, 0.0, 0.0, 0.0, 0.0, 0.0, 0.0, 0.0, 0.0, 0.0, 1.6664066458025277E9, 0.0, 2022-10-21 19:44:05.802
40.0, -140917.84696791734, -148525.15143455882, -27496.646642285188, -110449.31238285452, 76645.45049017078, -72568.40289454495, 70458.44292145288, -108438.28123072162, -0.022, 0.9460000000000001, -0.112, 192.0, 0.0, 0.0, 0.0, 0.0, 0.0, 0.0, 0.0, 0.0, 0.0, 1.666406645802542E9, 0.0, 2022-10-21 19:44:05.802
41.0, -140907.69927593463, -148519.27292576706, -27492.71273526105, -110449.89352821035, 76653.67593213034, -72686.64362271353, 70397.869693979, -108456.40849547488, -0.022, 0.9460000000000001, -0.112, 192.0, 0.0, 0.0, 0.0, 0.0, 0.0, 0.0, 0.0, 0.0, 0.0, 1.6664066458025565E9, 0.0, 2022-10-21 19:44:05.802
42.0, -140911.92375563667, -148519.11646355587, -27495.238482384502, -110445.22201361919, 76649.11617626145, -72706.53667527875, 70414.27587440918, -108422.29973343608, -0.022, 0.9460000000000001, -0.112, 192.0, 0.0, 0.0, 0.0, 0.0, 0.0, 0.0, 0.0, 0.0, 0.0, 1.6664066458025708E9, 0.0, 2022-10-21 19:44:05.802
43.0, -140929.0675436339, -148535.32147828597, -27508.940101735607, -110444.95379268573, 76640.35429243497, -72581.14338888448, 70475.85493038356, -108408.12872745142, -0.022, 0.9460000000000001, -0.112, 192.0, 0.0, 0.0, 0.0, 0.0, 0.0, 0.0, 0.0, 0.0, 0.0, 1.666406645802585E9, 0.0, 2022-10-21 19:44:05.802
44.0, -140918.5622237399, -148525.59846944793, -27507.06255520136, -110458.65541203684, 76637.58267612252, -72553.0695978486, 70465.5284244452, -108434.48143416422, -0.022, 0.9460000000000001, -0.112, 192.0, 0.0, 0.0, 0.0, 0.0, 0.0, 0.0, 0.0, 0.0, 0.0, 1.666406645802752E9, 0.0, 2022-10-21 19:44:05.802
45.0, -140911.29790679194, -148517.64124842183, -27502.323985376835, -110466.43381910727, 76641.02484476863, -72671.57854695065, 70394.98631894425, -108464.9468618568, -0.022, 0.9460000000000001, -0.112, 192.0, 0.0, 0.0, 0.0, 0.0, 0.0, 0.0, 0.0, 0.0, 0.0, 1.666406645802767E9, 0.0, 2022-10-21 19:44:05.802
46.0, -140910.91792713618, -148515.89781235432, -27498.904168475172, -110446.83133921998, 76647.3950919384, -72705.10616363361, 70399.18844690186, -108436.56014639857, -0.016, 0.9480000000000001, -0.112, 192.0, 255.0, 128.0, 29.0, 160.0, 252.0, 128.0, 0.0, 0.0, 0.0, 1.6664066458027816E9, 0.0, 2022-10-21 19:44:05.802
47.0, -140919.59040398485, -148524.14560605833, -27503.128648177226, -110433.17442335778, 76649.4961559172, -72581.50101679577, 70474.20090129387, -108396.41641335684, -0.016, 0.9480000000000001, -0.112, 192.0, 0.0, 0.0, 0.0, 0.0, 0.0, 0.0, 0.0, 0.0, 0.0, 1.6664066458027978E9, 0.0, 2022-10-21 19:44:05.802
48.0, -140924.32897380937, -148531.0075916061, -27506.637872056708, -110451.21228113322, 76640.6895686018, -72531.38840572696, 70476.8384071396, -108422.56795436954, -0.016, 0.9480000000000001, -0.112, 192.0, 0.0, 0.0, 0.0, 0.0, 0.0, 0.0, 0.0, 0.0, 0.0, 1.6664066458028126E9, 0.0, 2022-10-21 19:44:05.802
49.0, -140916.12588359427, -148526.29137352604, -27505.095601689292, -110468.33371738598, 76636.30862668857, -72656.06643629867, 70398.80846724611, -108467.11498106897, -0.016, 0.9480000000000001, -0.112, 192.0, 0.0, 0.0, 0.0, 0.0, 0.0, 0.0, 0.0, 0.0, 0.0, 1.6664066458028271E9, 0.0, 2022-10-21 19:44:05.802
50.0, -140921.8032266859, -148532.03577185105, -27509.00715696897, -110459.21420564821, 76640.0860715015, -72713.59982652662, 70388.30314735213, -108452.07225705055, -0.016, 0.9480000000000001, -0.112, 192.0, 0.0, 0.0, 0.0, 0.0, 0.0, 0.0, 0.0, 0.0, 0.0, 1.6664066458028445E9, 0.0, 2022-10-21 19:44:05.802
51.0, -140933.38143031378, -148541.803484178, -27515.802087283384, -110452.39692358935, 76632.82175455353, -72618.0908224691, 70450.06101728213, -108420.46689039074, -0.016, 0.9480000000000001, -0.112, 192.0, 0.0, 0.0, 0.0, 0.0, 0.0, 0.0, 0.0, 0.0, 0.0, 1.6664066458028677E9, 0.0, 2022-10-21 19:44:05.802
52.0, -140929.13459886727, -148539.27773705457, -27513.25398841548, -110450.94406019975, 76635.05692899907, -72529.64496965945, 70479.54296821868, -108425.47368114874, -0.016, 0.9480000000000001, -0.112, 192.0, 0.0, 0.0, 0.0, 0.0, 0.0, 0.0, 0.0, 0.0, 0.0, 1.66640664580292E9, 0.0, 2022-10-21 19:44:05.802
53.0, -140919.23277607356, -148527.43131249325, -27508.20249416858, -110473.47461861071, 76632.79940280908, -72622.85174403808, 70416.86867676601, -108462.53287345564, -0.016, 0.9480000000000001, -0.112, 192.0, 0.0, 0.0, 0.0, 0.0, 0.0, 0.0, 0.0, 0.0, 0.0, 1.666406645802963E9, 0.0, 2022-10-21 19:44:05.802
54.0, -140907.0063718565, -148512.23212626364, -27494.456171328566, -110454.65444977934, 76650.63609488441, -72714.85152421612, 70397.19914164534, -108440.76227435617, -0.016, 0.9480000000000001, -0.112, 192.0, 0.0, 0.0, 0.0, 0.0, 0.0, 0.0, 0.0, 0.0, 0.0, 1.6664066458030057E9, 0.0, 2022-10-21 19:44:05.803
55.0, -140916.7070289501, -148524.36912350287, -27500.87112198724, -110435.3201908255, 76654.03356004161, -72637.73800584531, 70455.58189816259, -108401.62436981492, -0.016, 0.9480000000000001, -0.112, 192.0, 0.0, 0.0, 0.0, 0.0, 0.0, 0.0, 0.0, 0.0, 0.0, 1.666406645803048E9, 0.0, 2022-10-21 19:44:05.803
56.0, -140922.69729646412, -148529.19710030523, -27504.469752844543, -110441.82454846198, 76647.48449891621, -72537.19985928535, 70495.50211375978, -108404.35128263847, -0.018000000000000002, 0.9480000000000001, -0.11, 192.0, 255.0, 112.0, 29.0, 160.0, 252.0, 144.0, 0.0, 0.0, 0.0, 1.6664066458030908E9, 0.0, 2022-10-21 19:44:05.803
57.0, -140916.93054639467, -148522.64803917982, -27506.079078445327, -110460.55531031554, 76642.85768781397, -72597.77308675922, 70437.78990957617, -108454.03921056262, -0.018000000000000002, 0.9480000000000001, -0.11, 192.0, 0.0, 0.0, 0.0, 0.0, 0.0, 0.0, 0.0, 0.0, 0.0, 1.666406645803135E9, 0.0, 2022-10-21 19:44:05.803
58.0, -140908.59334571284, -148512.94738208622, -27496.758401007464, -110457.6719352808, 76646.70218786028, -72713.75628873782, 70391.32063285359, -108457.101399553, -0.018000000000000002, 0.9480000000000001, -0.11, 192.0, 0.0, 0.0, 0.0, 0.0, 0.0, 0.0, 0.0, 0.0, 0.0, 1.6664066458031769E9, 0.0, 2022-10-21 19:44:05.803
59.0, -140913.3542672818, -148517.7083036552, -27495.752572506975, -110448.73123749868, 76647.21627798275, -72670.01392483877, 70440.382711933, -108414.27545717663, -0.018000000000000002, 0.9480000000000001, -0.11, 192.0, 0.0, 0.0, 0.0, 0.0, 0.0, 0.0, 0.0, 0.0, 0.0, 1.6664066458033495E9, 0.0, 2022-10-21 19:44:05.803
60.0, -140911.4543690031, -148518.66942866676, -27493.025659683426, -110443.00919091812, 76649.89848731739, -72549.33685652458, 70500.95593940686, -108390.69436677628, -0.018000000000000002, 0.9480000000000001, -0.11, 192.0, 0.0, 0.0, 0.0, 0.0, 0.0, 0.0, 0.0, 0.0, 0.0, 1.6664066458033917E9, 0.0, 2022-10-21 19:44:05.803
61.0, -140903.72066542157, -148511.49451869662, -27491.550444549375, -110454.74385675715, 76650.68079837332, -72577.38829581598, 70458.42056970843, -108437.52127141015, -0.018000000000000002, 0.9480000000000001, -0.11, 192.0, 0.0, 0.0, 0.0, 0.0, 0.0, 0.0, 0.0, 0.0, 0.0, 1.666406645803434E9, 0.0, 2022-10-21 19:44:05.803
62.0, -140906.44757824513, -148513.84145186443, -27493.40563933917, -110463.95277547275, 76650.92666756234, -72698.69121297494, 70394.1146009105, -108463.73986765623, -0.018000000000000002, 0.9480000000000001, -0.11, 192.0, 0.0, 0.0, 0.0, 0.0, 0.0, 0.0, 0.0, 0.0, 0.0, 1.6664066458034763E9, 0.0, 2022-10-21 19:44:05.803
63.0, -140910.73911318055, -148518.13298679984, -27497.183084152115, -110457.33665911396, 76645.87517331543, -72692.38802103854, 70419.86381052302, -108428.02178001664, -0.018000000000000002, 0.9480000000000001, -0.11, 192.0, 0.0, 0.0, 0.0, 0.0, 0.0, 0.0, 0.0, 0.0, 0.0, 1.6664066458035069E9, 0.0, 2022-10-21 19:44:05.803
64.0, -140920.39506678525, -148526.26902178157, -27507.263720901457, -110452.77690324509, 76639.28140870112, -72560.7809496857, 70483.96861362083, -108407.90521000687, -0.018000000000000002, 0.9480000000000001, -0.11, 192.0, 0.0, 0.0, 0.0, 0.0, 0.0, 0.0, 0.0, 0.0, 0.0, 1.6664066458035235E9, 0.0, 2022-10-21 19:44:05.803
65.0, -140917.89167140625, -148523.74327465813, -27506.950796479083, -110467.84197900796, 76634.36402492094, -72558.14344383996, 70461.5274621877, -108441.87986157893, -0.018000000000000002, 0.9480000000000001, -0.11, 192.0, 0.0, 0.0, 0.0, 0.0, 0.0, 0.0, 0.0, 0.0, 0.0, 1.6664066458035407E9, 0.0, 2022-10-21 19:44:05.803
66.0, -140904.2571072885, -148509.30404774, -27496.467828329543, -110470.5241883426, 76642.96944653624, -72681.65918369999, 70400.6636620359, -108456.22968151924, -0.022, 0.9520000000000001, -0.11800000000000001, 192.0, 255.0, 80.0, 29.0, 192.0, 252.0, 80.0, 0.0, 0.0, 0.0, 1.6664066458035574E9, 0.0, 2022-10-21 19:44:05.803
67.0, -140906.58168871186, -148510.82396636295, -27501.63108129872, -110463.93042372829, 76637.98500752272, -72712.90692244851, 70404.46345859331, -108436.18016674282, -0.022, 0.9520000000000001, -0.11800000000000001, 192.0, 0.0, 0.0, 0.0, 0.0, 0.0, 0.0, 0.0, 0.0, 0.0, 1.6664066458035753E9, 0.0, 2022-10-21 19:44:05.803
68.0, -140916.1035318498, -148517.2612687661, -27511.2423314145, -110454.29682186805, 76633.22408595373, -72606.62437756352, 70466.1319215455, -108408.62046582943, -0.022, 0.9520000000000001, -0.11800000000000001, 192.0, 0.0, 0.0, 0.0, 0.0, 0.0, 0.0, 0.0, 0.0, 0.0, 1.666406645803592E9, 0.0, 2022-10-21 19:44:05.803
69.0, -140911.78964516995, -148513.5061756976, -27507.710755790566, -110457.44841783625, 76643.37177793644, -72558.41166477343, 70472.70333441536, -108426.52421313814, -0.022, 0.9520000000000001, -0.11800000000000001, 192.0, 0.0, 0.0, 0.0, 0.0, 0.0, 0.0, 0.0, 0.0, 0.0, 1.6664066458036091E9, 0.0, 2022-10-21 19:44:05.803
70.0, -140905.44174974464, -148510.19811751822, -27501.184046409613, -110462.0752289385, 76653.78769085261, -72654.27829674224, 70417.56158084412, -108447.26663199266, -0.022, 0.9520000000000001, -0.11800000000000001, 192.0, 0.0, 0.0, 0.0, 0.0, 0.0, 0.0, 0.0, 0.0, 0.0, 1.6664066458036256E9, 0.0, 2022-10-21 19:44:05.803
71.0, -140910.4038370137, -148516.52366119905, -27507.420183112645, -110452.35222010044, 76648.8926588169, -72702.37925081006, 70407.90562723942, -108435.3978556869, -0.022, 0.9520000000000001, -0.11800000000000001, 192.0, 0.0, 0.0, 0.0, 0.0, 0.0, 0.0, 0.0, 0.0, 0.0, 1.6664066458036442E9, 0.0, 2022-10-21 19:44:05.803
72.0, -140907.56516546788, -148515.18255653174, -27501.027584198426, -110423.42906277526, 76650.50198441769, -72607.56315083065, 70473.91032861595, -108400.0820994475, -0.022, 0.9520000000000001, -0.11800000000000001, 192.0, 0.0, 0.0, 0.0, 0.0, 0.0, 0.0, 0.0, 0.0, 0.0, 1.6664066458036609E9, 0.0, 2022-10-21 19:44:05.803
73.0, -140912.1025695923, -148519.65290542282, -27505.743802278495, -110440.55049902803, 76646.16574599335, -72540.68673142037, 70489.26597705674, -108420.64570434639, -0.022, 0.9520000000000001, -0.11800000000000001, 192.0, 0.0, 0.0, 0.0, 0.0, 0.0, 0.0, 0.0, 0.0, 0.0, 1.6664066458036776E9, 0.0, 2022-10-21 19:44:05.803
74.0, -140916.4611597611, -148525.64317293683, -27515.042127971905, -110479.59899659146, 76631.48064988622, -72654.50181418679, 70411.45955460782, -108473.03819334962, -0.022, 0.9520000000000001, -0.11800000000000001, 192.0, 0.0, 0.0, 0.0, 0.0, 0.0, 0.0, 0.0, 0.0, 0.0, 1.6664066458037128E9, 0.0, 2022-10-21 19:44:05.803
75.0, -140910.18031956916, -148518.22239377766, -27506.146133678692, -110464.60097606195, 76640.77897557963, -72732.57645756919, 70393.93578695485, -108454.46389370727, -0.028, 0.9520000000000001, -0.116, 192.0, 255.0, 32.0, 29.0, 192.0, 252.0, 96.0, 0.0, 0.0, 0.0, 1.6664066458037295E9, 0.0, 2022-10-21 19:44:05.803
76.0, -140911.14144458075, -148516.09897805442, -27498.568892308343, -110433.95673441372, 76654.86057458646, -72625.82452605064, 70470.42345648092, -108400.52913433661, -0.028, 0.9520000000000001, -0.116, 192.0, 0.0, 0.0, 0.0, 0.0, 0.0, 0.0, 0.0, 0.0, 0.0, 1.6664066458037465E9, 0.0, 2022-10-21 19:44:05.803
77.0, -140914.27068880448, -148515.96486758767, -27501.072287687337, -110437.84593794894, 76653.20654549677, -72519.67609163238, 70507.30383483217, -108402.65255005987, -0.028, 0.9520000000000001, -0.116, 192.0, 0.0, 0.0, 0.0, 0.0, 0.0, 0.0, 0.0, 0.0, 0.0, 1.6664066458037603E9, 0.0, 2022-10-21 19:44:05.803
78.0, -140908.9062701352, -148514.46730070916, -27500.20056965358, -110462.54461557206, 76647.01511228265, -72608.1889996754, 70440.76269158872, -108445.56789941406, -0.028, 0.9520000000000001, -0.116, 192.0, 0.0, 0.0, 0.0, 0.0, 0.0, 0.0, 0.0, 0.0, 0.0, 1.666406645803774E9, 0.0, 2022-10-21 19:44:05.803
79.0, -140906.38052301176, -148512.36623673036, -27496.333717862814, -110461.73995277166, 76647.0374640271, -72716.46084981691, 70399.63548179096, -108444.91969882486, -0.028, 0.9520000000000001, -0.116, 192.0, 0.0, 0.0, 0.0, 0.0, 0.0, 0.0, 0.0, 0.0, 0.0, 1.6664066458037877E9, 0.0, 2022-10-21 19:44:05.803
80.0, -140912.7060666926, -148518.84824262242, -27501.698136532086, -110439.83524320547, 76649.27263847264, -72646.74575886081, 70456.25245049625, -108404.32893089401, -0.028, 0.9520000000000001, -0.116, 192.0, 0.0, 0.0, 0.0, 0.0, 0.0, 0.0, 0.0, 0.0, 0.0, 1.6664066458038018E9, 0.0, 2022-10-21 19:44:05.803
81.0, -140914.98594462706, -148521.57515544596, -27506.593168567797, -110443.07624615148, 76638.61085636746, -72537.04339707416, 70500.4865527733, -108401.1326314369, -0.028, 0.9520000000000001, -0.116, 192.0, 0.0, 0.0, 0.0, 0.0, 0.0, 0.0, 0.0, 0.0, 0.0, 1.6664066458038156E9, 0.0, 2022-10-21 19:44:05.803
82.0, -140917.93637489516, -148524.2573647806, -27512.650491315188, -110467.26083365212, 76632.19590570878, -72593.90623496845, 70444.47308116831, -108452.22871926174, -0.028, 0.9520000000000001, -0.116, 192.0, 0.0, 0.0, 0.0, 0.0, 0.0, 0.0, 0.0, 0.0, 0.0, 1.6664066458038294E9, 0.0, 2022-10-21 19:44:05.803
83.0, -140914.04717135994, -148516.2554402656, -27511.890532003705, -110469.69717379776, 76637.18034472232, -72703.7650589663, 70395.05337417763, -108463.8963298674, -0.028, 0.9520000000000001, -0.116, 192.0, 0.0, 0.0, 0.0, 0.0, 0.0, 0.0, 0.0, 0.0, 0.0, 1.6664066458038428E9, 0.0, 2022-10-21 19:44:05.803
84.0, -140919.59040398485, -148523.85503338042, -27512.73989829301, -110448.8653479654, 76638.7896703231, -72669.41042773849, 70435.19710721936, -108421.89740203589, -0.028, 0.9520000000000001, -0.116, 192.0, 0.0, 0.0, 0.0, 0.0, 0.0, 0.0, 0.0, 0.0, 0.0, 1.6664066458038568E9, 0.0, 2022-10-21 19:44:05.803
85.0, -140919.83627317386, -148526.69370492623, -27506.48140984552, -110435.7672257146, 76643.46118491425, -72554.74597868275, 70497.60317773858, -108398.96451222475, -0.04, 0.9480000000000001, -0.116, 192.0, 254.0, 192.0, 29.0, 160.0, 252.0, 96.0, 0.0, 0.0, 0.0, 1.666406645803871E9, 0.0, 2022-10-21 19:44:05.803
86.0, -140912.14727308124, -148519.09411181143, -27502.793372010397, -110435.3201908255, 76653.45241468579, -72561.876185164, 70472.8374448821, -108432.55918414106, -0.04, 0.9480000000000001, -0.116, 192.0, 0.0, 0.0, 0.0, 0.0, 0.0, 0.0, 0.0, 0.0, 0.0, 1.6664066458038855E9, 0.0, 2022-10-21 19:44:05.803
87.0, -140915.07535160487, -148520.83754787894, -27509.677709302632, -110462.81283650552, 76641.67304535783, -72686.80008492472, 70400.30603412462, -108460.14123679893, -0.04, 0.9480000000000001, -0.116, 192.0, 0.0, 0.0, 0.0, 0.0, 0.0, 0.0, 0.0, 0.0, 0.0, 1.6664066458038993E9, 0.0, 2022-10-21 19:44:05.803
88.0, -140914.51655799348, -148517.61889667736, -27502.68161328812, -110449.11121715442, 76645.83046982653, -72685.21311106838, 70428.80450830514, -108415.88478277742, -0.04, 0.9480000000000001, -0.116, 192.0, 0.0, 0.0, 0.0, 0.0, 0.0, 0.0, 0.0, 0.0, 0.0, 1.666406645803913E9, 0.0, 2022-10-21 19:44:05.803
89.0, -140919.1657208402, -148520.39051298983, -27505.96731972305, -110436.21426060371, 76646.1433942489, -72560.98211538579, 70495.2338928263, -108391.58843655449, -0.04, 0.9480000000000001, -0.116, 192.0, 0.0, 0.0, 0.0, 0.0, 0.0, 0.0, 0.0, 0.0, 0.0, 1.666406645803957E9, 0.0, 2022-10-21 19:44:05.803
90.0, -140914.82948241587, -148517.03775132154, -27504.760325522464, -110446.98780143117, 76645.27167621514, -72550.83442340308, 70478.93947111838, -108425.36192242645, -0.04, 0.9480000000000001, -0.116, 192.0, 0.0, 0.0, 0.0, 0.0, 0.0, 0.0, 0.0, 0.0, 0.0, 1.6664066458039713E9, 0.0, 2022-10-21 19:44:05.803
91.0, -140912.23668005905, -148515.62959142085, -27504.492104589, -110456.06260968001, 76649.02676928364, -72658.97216307785, 70412.77830753068, -108456.16262628588, -0.04, 0.9480000000000001, -0.116, 192.0, 0.0, 0.0, 0.0, 0.0, 0.0, 0.0, 0.0, 0.0, 0.0, 1.666406645803985E9, 0.0, 2022-10-21 19:44:05.803
92.0, -140912.5049009925, -148519.0047048336, -27498.814761497353, -110440.75166472813, 76652.53599316311, -72685.39192502403, 70420.75788030123, -108426.8371375605, -0.04, 0.9480000000000001, -0.116, 192.0, 0.0, 0.0, 0.0, 0.0, 0.0, 0.0, 0.0, 0.0, 0.0, 1.6664066458040009E9, 0.0, 2022-10-21 19:44:05.804
93.0, -140917.42228477268, -148526.82781539296, -27501.83224699882, -110427.98881864415, 76653.1394902634, -72567.62058348901, 70492.97636663633, -108391.72254702123, -0.04, 0.9480000000000001, -0.116, 192.0, 0.0, 0.0, 0.0, 0.0, 0.0, 0.0, 0.0, 0.0, 0.0, 1.6664066458040147E9, 0.0, 2022-10-21 19:44:05.804
94.0, -140919.9480318961, -148526.44783573723, -27510.504723847476, -110449.44649332124, 76646.65748437136, -72519.3184637211, 70492.73049744732, -108421.29390493559, -0.04, 0.9480000000000001, -0.116, 192.0, 0.0, 0.0, 0.0, 0.0, 0.0, 0.0, 0.0, 0.0, 0.0, 1.6664066458040283E9, 0.0, 2022-10-21 19:44:05.804
95.0, -140913.510729493, -148520.99401009013, -27509.16361918016, -110466.23265340718, 76642.76828083614, -72640.82254658015, 70414.25352266473, -108465.41624849036, -0.044, 0.9500000000000001, -0.11800000000000001, 192.0, 254.0, 160.0, 29.0, 176.0, 252.0, 80.0, 0.0, 0.0, 0.0, 1.666406645804042E9, 0.0, 2022-10-21 19:44:05.804
96.0, -140914.67302020467, -148520.79284439003, -27504.134476677715, -110442.53980428456, 76654.32413271954, -72700.36759380909, 70408.86675225101, -108438.5494516551, -0.044, 0.9500000000000001, -0.11800000000000001, 192.0, 0.0, 0.0, 0.0, 0.0, 0.0, 0.0, 0.0, 0.0, 0.0, 1.6664066458040571E9, 0.0, 2022-10-21 19:44:05.804
97.0, -140916.39410452775, -148520.23405077864, -27506.05672670087, -110423.18319358626, 76654.7488158642, -72603.24926415077, 70475.67611642792, -108397.66811104634, -0.044, 0.9500000000000001, -0.11800000000000001, 192.0, 0.0, 0.0, 0.0, 0.0, 0.0, 0.0, 0.0, 0.0, 0.0, 1.666406645804071E9, 0.0, 2022-10-21 19:44:05.804
98.0, -140925.1559883542, -148524.14560605833, -27522.5970175978, -110450.7205427552, 76635.25809469917, -72536.1269755515, 70483.58863396509, -108424.26668694815, -0.044, 0.9500000000000001, -0.11800000000000001, 192.0, 0.0, 0.0, 0.0, 0.0, 0.0, 0.0, 0.0, 0.0, 0.0, 1.6664066458040848E9, 0.0, 2022-10-21 19:44:05.804
99.0, -140907.36399976778, -148504.02903604854, -27525.145116465705, -110461.0246969491, 76632.59823710898, -72633.6923400989, 70411.79483077466, -108468.79136190312, -0.044, 0.9500000000000001, -0.11800000000000001, 192.0, 0.0, 0.0, 0.0, 0.0, 0.0, 0.0, 0.0, 0.0, 0.0, 1.6664066458040988E9, 0.0, 2022-10-21 19:44:05.804
100.0, -140899.92086886417, -148500.96684705818, -27521.233561186025, -110452.03929567806, 76636.4874406442, -72716.34909109463, 70382.42463856038, -108464.9468618568, -0.044, 0.9500000000000001, -0.11800000000000001, 192.0, 0.0, 0.0, 0.0, 0.0, 0.0, 0.0, 0.0, 0.0, 0.0, 1.6664066458041124E9, 0.0, 2022-10-21 19:44:05.804
101.0, -140923.8148836869, -148532.16988231777, -27523.35697690928, -110442.13747288437, 76637.60502786697, -72630.36193017506, 70447.69173236987, -108418.7905095566, -0.044, 0.9500000000000001, -0.11800000000000001, 192.0, 0.0, 0.0, 0.0, 0.0, 0.0, 0.0, 0.0, 0.0, 0.0, 1.6664066458041265E9, 0.0, 2022-10-21 19:44:05.804
102.0, -140931.63799424627, -148541.22233882218, -27524.519267620955, -110445.42317931929, 76634.7887080656, -72532.72951039427, 70486.69552644438, -108417.44940488928, -0.044, 0.9500000000000001, -0.11800000000000001, 192.0, 0.0, 0.0, 0.0, 0.0, 0.0, 0.0, 0.0, 0.0, 0.0, 1.6664066458041403E9, 0.0, 2022-10-21 19:44:05.804
103.0, -140929.4698750341, -148542.5634434895, -27523.40168039819, -110459.68359228178, 76637.49326914469, -72607.87607525302, 70427.64221759346, -108459.94007109883, -0.044, 0.9500000000000001, -0.11800000000000001, 192.0, 0.0, 0.0, 0.0, 0.0, 0.0, 0.0, 0.0, 0.0, 0.0, 1.6664066458041544E9, 0.0, 2022-10-21 19:44:05.804
104.0, -140939.8634362058, -148555.79567620702, -27534.085814247825, -110468.89251099736, 76634.25226619867, -72705.10616363361, 70382.04465890463, -108473.12760032745, -0.046, 0.9500000000000001, -0.11800000000000001, 192.0, 254.0, 144.0, 29.0, 176.0, 252.0, 80.0, 0.0, 0.0, 0.0, 1.666406645804181E9, 0.0, 2022-10-21 19:44:05.804
105.0, -140943.14914264073, -148563.32821408848, -27535.292808448412, -110455.74968525764, 76629.69251032978, -72665.32005850316, 70425.7199675703, -108433.095626008, -0.046, 0.9500000000000001, -0.11800000000000001, 192.0, 0.0, 0.0, 0.0, 0.0, 0.0, 0.0, 0.0, 0.0, 0.0, 1.666406645804196E9, 0.0, 2022-10-21 19:44:05.804
106.0, -140944.0655641634, -148568.44676356873, -27530.35307292379, -110450.5193770551, 76630.51952487463, -72561.33974329708, 70478.09010482908, -108412.42026238683, -0.046, 0.9500000000000001, -0.11800000000000001, 192.0, 0.0, 0.0, 0.0, 0.0, 0.0, 0.0, 0.0, 0.0, 0.0, 1.6664066458042097E9, 0.0, 2022-10-21 19:44:05.804
107.0, -140939.72932573908, -148568.8267432245, -27527.000311255495, -110462.34344987196, 76638.23087671172, -72591.11226691154, 70442.64023812297, -108456.87788210844, -0.046, 0.9500000000000001, -0.11800000000000001, 192.0, 0.0, 0.0, 0.0, 0.0, 0.0, 0.0, 0.0, 0.0, 0.0, 1.6664066458042238E9, 0.0, 2022-10-21 19:44:05.804
108.0, -140940.77985772848, -148574.03469968255, -27529.391947912212, -110465.98678421817, 76640.6895686018, -72695.71843096238, 70389.04075491914, -108479.87782715296, -0.046, 0.9500000000000001, -0.11800000000000001, 192.0, 0.0, 0.0, 0.0, 0.0, 0.0, 0.0, 0.0, 0.0, 0.0, 1.6664066458042376E9, 0.0, 2022-10-21 19:44:05.804
109.0, -140949.74290725504, -148583.06480444252, -27531.269494446457, -110447.72540899819, 76641.96361803575, -72676.2053580529, 70421.69665356835, -108441.70104762328, -0.046, 0.9500000000000001, -0.11800000000000001, 192.0, 0.0, 0.0, 0.0, 0.0, 0.0, 0.0, 0.0, 0.0, 0.0, 1.6664066458042517E9, 0.0, 2022-10-21 19:44:05.804
110.0, -140944.53495079695, -148577.6780340288, -27527.045014744406, -110427.3629697994, 76647.66331287185, -72551.99671411475, 70488.48366600081, -108411.97322749773, -0.046, 0.9500000000000001, -0.11800000000000001, 192.0, 0.0, 0.0, 0.0, 0.0, 0.0, 0.0, 0.0, 0.0, 0.0, 1.6664066458042655E9, 0.0, 2022-10-21 19:44:05.804
111.0, -140954.39207010175, -148589.9714934792, -27541.998331785006, -110462.5222638276, 76631.99474000868, -72569.38637130098, 70446.28357246918, -108468.34432701401, -0.046, 0.9500000000000001, -0.11800000000000001, 192.0, 0.0, 0.0, 0.0, 0.0, 0.0, 0.0, 0.0, 0.0, 0.0, 1.6664066458042793E9, 0.0, 2022-10-21 19:44:05.804
112.0, -140957.99070095905, -148595.89470575986, -27540.344302695314, -110481.81181929253, 76631.90533303087, -72693.5056082613, 70378.96011816981, -108492.61832149248, -0.046, 0.9500000000000001, -0.11800000000000001, 192.0, 0.0, 0.0, 0.0, 0.0, 0.0, 0.0, 0.0, 0.0, 0.0, 1.6664066458042932E9, 0.0, 2022-10-21 19:44:05.804
113.0, -140953.58740730135, -148591.53611559107, -27534.93518053713, -110462.1199324274, 76637.22504821123, -72701.2616635873, 70401.31186262511, -108456.38614373043, -0.046, 0.9500000000000001, -0.11800000000000001, 192.0, 0.0, 0.0, 0.0, 0.0, 0.0, 0.0, 0.0, 0.0, 0.0, 1.666406645804307E9, 0.0, 2022-10-21 19:44:05.804
114.0, -140959.77884051547, -148601.46029012924, -27538.936142794628, -110446.78663573107, 76639.6390366124, -72581.34455458458, 70469.30586925815, -108422.74676832519, -0.042, 0.9500000000000001, -0.12, 192.0, 254.0, 176.0, 29.0, 176.0, 252.0, 64.0, 0.0, 0.0, 0.0, 1.666406645804322E9, 0.0, 2022-10-21 19:44:05.804
115.0, -140968.00428247504, -148612.30088619006, -27546.893363820716, -110463.7739615171, 76633.84993479848, -72541.51374596522, 70459.96284007584, -108455.93910884132, -0.042, 0.9500000000000001, -0.12, 192.0, 0.0, 0.0, 0.0, 0.0, 0.0, 0.0, 0.0, 0.0, 0.0, 1.666406645804337E9, 0.0, 2022-10-21 19:44:05.804
116.0, -140963.4221748617, -148608.23286869918, -27548.54739291041, -110482.70588907074, 76623.94811200477, -72673.2549277848, 70380.18946411484, -108498.65329249541, -0.042, 0.9500000000000001, -0.12, 192.0, 0.0, 0.0, 0.0, 0.0, 0.0, 0.0, 0.0, 0.0, 0.0, 1.6664066458043509E9, 0.0, 2022-10-21 19:44:05.804
117.0, -140974.39688138926, -148618.89465080437, -27554.35884646879, -110472.58054883248, 76624.35044340497, -72719.00894868482, 70377.6637169914, -108478.46966725227, -0.042, 0.9500000000000001, -0.12, 192.0, 0.0, 0.0, 0.0, 0.0, 0.0, 0.0, 0.0, 0.0, 0.0, 1.6664066458043647E9, 0.0, 2022-10-21 19:44:05.804
118.0, -140985.88567803928, -148630.29404047658, -27564.88651810724, -110462.0752289385, 76619.7906875361, -72608.47957235332, 70444.85306082405, -108445.65730639188, -0.042, 0.9500000000000001, -0.12, 192.0, 0.0, 0.0, 0.0, 0.0, 0.0, 0.0, 0.0, 0.0, 0.0, 1.6664066458043785E9, 0.0, 2022-10-21 19:44:05.804
119.0, -140976.85557327935, -148620.41456942732, -27562.003143072507, -110465.53974932907, 76619.7906875361, -72544.12890006648, 70461.7286278878, -108458.68837340933, -0.042, 0.9500000000000001, -0.12, 192.0, 0.0, 0.0, 0.0, 0.0, 0.0, 0.0, 0.0, 0.0, 0.0, 1.6664066458044057E9, 0.0, 2022-10-21 19:44:05.804
120.0, -140965.88086675177, -148609.75278732216, -27556.482262192043, -110474.81572327802, 76620.46123986975, -72654.81473860917, 70394.94161545535, -108488.77382144617, -0.042, 0.9500000000000001, -0.12, 192.0, 0.0, 0.0, 0.0, 0.0, 0.0, 0.0, 0.0, 0.0, 0.0, 1.6664066458044195E9, 0.0, 2022-10-21 19:44:05.804
121.0, -140968.58542783087, -148608.6799035883, -27562.114901794783, -110474.52515060011, 76616.99671947917, -72731.14594592404, 70368.27598432016, -108489.60083599102, -0.042, 0.9500000000000001, -0.12, 192.0, 0.0, 0.0, 0.0, 0.0, 0.0, 0.0, 0.0, 0.0, 0.0, 1.6664066458044336E9, 0.0, 2022-10-21 19:44:05.804
122.0, -140970.5747330874, -148611.36211292294, -27560.952611083107, -110455.72733351319, 76622.87522827092, -72627.88088654053, 70441.52265090021, -108445.83612034752, -0.042, 0.9500000000000001, -0.12, 192.0, 0.0, 0.0, 0.0, 0.0, 0.0, 0.0, 0.0, 0.0, 0.0, 1.666406645804448E9, 0.0, 2022-10-21 19:44:05.804
123.0, -140961.522276583, -148604.3213134195, -27555.543488924923, -110446.85369096443, 76631.57005686403, -72524.369957968, 70483.38746826499, -108443.71270462427, -0.042, 0.9500000000000001, -0.12, 192.0, 0.0, 0.0, 0.0, 0.0, 0.0, 0.0, 0.0, 0.0, 0.0, 1.6664066458044617E9, 0.0, 2022-10-21 19:44:05.804
124.0, -140950.14523865524, -148590.73145279067, -27549.88849757773, -110462.7234295277, 76633.69347258729, -72614.49219161179, 70417.82980177758, -108487.63388247894, -0.032, 0.9460000000000001, -0.122, 192.0, 255.0, 0.0, 29.0, 144.0, 252.0, 48.0, 0.0, 0.0, 0.0, 1.6664066458044755E9, 0.0, 2022-10-21 19:44:05.804
125.0, -140961.58933181636, -148603.4719471302, -27564.327724495855, -110488.38323216239, 76619.50011485817, -72721.64645453054, 70366.107865108, -108501.06728089659, -0.032, 0.9460000000000001, -0.122, 192.0, 0.0, 0.0, 0.0, 0.0, 0.0, 0.0, 0.0, 0.0, 0.0, 1.6664066458044906E9, 0.0, 2022-10-21 19:44:05.804
126.0, -140958.46008759263, -148600.65562732884, -27560.505576194, -110471.41825812082, 76620.4388881253, -72650.23263099583, 70425.63056059249, -108453.30160299559, -0.032, 0.9460000000000001, -0.122, 192.0, 0.0, 0.0, 0.0, 0.0, 0.0, 0.0, 0.0, 0.0, 0.0, 1.6664066458045044E9, 0.0, 2022-10-21 19:44:05.804
127.0, -140954.70499452413, -148596.14057494886, -27553.26361099048, -110465.74091502916, 76624.26103642715, -72544.1736035554, 70478.62654669602, -108441.67869587883, -0.032, 0.9460000000000001, -0.122, 192.0, 0.0, 0.0, 0.0, 0.0, 0.0, 0.0, 0.0, 0.0, 0.0, 1.6664066458045182E9, 0.0, 2022-10-21 19:44:05.804
128.0, -140958.50479108153, -148597.34756914945, -27558.292753492922, -110486.0810024835, 76624.6410160829, -72588.00537443225, 70429.13978447196, -108487.36566154548, -0.032, 0.9460000000000001, -0.122, 192.0, 0.0, 0.0, 0.0, 0.0, 0.0, 0.0, 0.0, 0.0, 0.0, 1.666406645804532E9, 0.0, 2022-10-21 19:44:05.804
129.0, -140947.1277531538, -148587.40104286684, -27550.02260804446, -110484.20345594925, 76630.96655976374, -72703.54154152174, 70377.28373733566, -108491.14310635843, -0.032, 0.9460000000000001, -0.122, 192.0, 0.0, 0.0, 0.0, 0.0, 0.0, 0.0, 0.0, 0.0, 0.0, 1.666406645804546E9, 0.0, 2022-10-21 19:44:05.804
130.0, -140947.64184327624, -148588.49627834515, -27549.799090599907, -110466.50087434065, 76633.20173420927, -72672.53967196222, 70418.74622330024, -108450.64174540542, -0.032, 0.9460000000000001, -0.122, 192.0, 0.0, 0.0, 0.0, 0.0, 0.0, 0.0, 0.0, 0.0, 0.0, 1.6664066458045597E9, 0.0, 2022-10-21 19:44:05.804
131.0, -140958.30362538144, -148598.66632207233, -27557.242221503526, -110462.85753999442, 76628.17259170683, -72551.54967922565, 70475.81022689465, -108436.02370453165, -0.032, 0.9460000000000001, -0.122, 192.0, 0.0, 0.0, 0.0, 0.0, 0.0, 0.0, 0.0, 0.0, 0.0, 1.6664066458045735E9, 0.0, 2022-10-21 19:44:05.804
132.0, -140957.00722420303, -148596.87818251588, -27558.11393953728, -110480.67188032532, 76625.333920161, -72574.97430741481, 70437.63344736499, -108480.19075157533, -0.032, 0.9460000000000001, -0.122, 192.0, 0.0, 0.0, 0.0, 0.0, 0.0, 0.0, 0.0, 0.0, 0.0, 1.6664066458045871E9, 0.0, 2022-10-21 19:44:05.804
133.0, -140952.93920671215, -148592.76546153612, -27561.064369805383, -110488.51734262913, 76620.93062650331, -72706.9613584234, 70364.69970520731, -108509.24801936722, -0.032, 0.9460000000000001, -0.122, 192.0, 0.0, 0.0, 0.0, 0.0, 0.0, 0.0, 0.0, 0.0, 0.0, 1.6664066458046138E9, 0.0, 2022-10-21 19:44:05.804
134.0, -140949.85466597733, -148589.88208650137, -27554.045922046414, -110463.08105743899, 76630.96655976374, -72698.62415774156, 70394.87456022199, -108465.66211767939, -0.034, 0.9480000000000001, -0.124, 192.0, 254.0, 240.0, 29.0, 160.0, 252.0, 32.0, 0.0, 0.0, 0.0, 1.666406645804628E9, 0.0, 2022-10-21 19:44:05.804
135.0, -140946.63601477575, -148587.11047018893, -27550.31318072238, -110435.43194954777, 76643.32707444753, -72555.50593799424, 70473.95503210486, -108429.56405038406, -0.034, 0.9480000000000001, -0.124, 192.0, 0.0, 0.0, 0.0, 0.0, 0.0, 0.0, 0.0, 0.0, 0.0, 1.6664066458046436E9, 0.0, 2022-10-21 19:44:05.804
136.0, -140949.2288171326, -148590.91026674633, -27560.84085236083, -110474.52515060011, 76627.09970797297, -72547.21344080132, 70444.6295433795, -108476.59212071802, -0.034, 0.9480000000000001, -0.124, 192.0, 0.0, 0.0, 0.0, 0.0, 0.0, 0.0, 0.0, 0.0, 0.0, 1.6664066458046572E9, 0.0, 2022-10-21 19:44:05.804
137.0, -140942.63505251828, -148581.9695689642, -27557.152814525703, -110490.081964741, 76624.37279514942, -72680.47454124386, 70372.23224308876, -108505.80585072111, -0.034, 0.9480000000000001, -0.124, 192.0, 0.0, 0.0, 0.0, 0.0, 0.0, 0.0, 0.0, 0.0, 0.0, 1.6664066458046713E9, 0.0, 2022-10-21 19:44:05.804
138.0, -140943.8643984633, -148583.80241200954, -27556.102282536303, -110476.29093841207, 76625.5350858611, -72714.91857944948, 70381.59762401553, -108473.61933870547, -0.034, 0.9480000000000001, -0.124, 192.0, 0.0, 0.0, 0.0, 0.0, 0.0, 0.0, 0.0, 0.0, 0.0, 1.666406645804686E9, 0.0, 2022-10-21 19:44:05.804
139.0, -140958.66125329272, -148598.35339764995, -27564.12655879576, -110464.64567955086, 76621.44471662577, -72600.65646179396, 70449.65868588194, -108442.86333833497, -0.034, 0.9480000000000001, -0.124, 192.0, 0.0, 0.0, 0.0, 0.0, 0.0, 0.0, 0.0, 0.0, 0.0, 1.6664066458047E9, 0.0, 2022-10-21 19:44:05.804
140.0, -140957.83423874786, -148597.45932787174, -27565.579422185354, -110481.36478440343, 76614.00158572216, -72569.14050211197, 70443.1766799899, -108477.08385909603, -0.034, 0.9480000000000001, -0.124, 192.0, 0.0, 0.0, 0.0, 0.0, 0.0, 0.0, 0.0, 0.0, 0.0, 1.6664066458047137E9, 0.0, 2022-10-21 19:44:05.804
141.0, -140945.65253801973, -148586.70813878873, -27558.672733148665, -110491.26660719713, 76620.12596370291, -72683.73789593433, 70375.54030126813, -108511.32673160157, -0.034, 0.9480000000000001, -0.124, 192.0, 0.0, 0.0, 0.0, 0.0, 0.0, 0.0, 0.0, 0.0, 0.0, 1.6664066458047273E9, 0.0, 2022-10-21 19:44:05.804
142.0, -140947.95476769863, -148589.14447893435, -27557.957477326094, -110482.9294065153, 76622.40584163736, -72734.38694887006, 70368.34303955354, -108490.04787088012, -0.034, 0.9480000000000001, -0.124, 192.0, 0.0, 0.0, 0.0, 0.0, 0.0, 0.0, 0.0, 0.0, 0.0, 1.6664066458047411E9, 0.0, 2022-10-21 19:44:05.804
143.0, -140950.34640435534, -148590.26206615713, -27554.64941914671, -110462.0752289385, 76629.31253067405, -72617.12969745752, 70449.65868588194, -108434.10145450849, -0.036000000000000004, 0.9480000000000001, -0.124, 192.0, 254.0, 224.0, 29.0, 160.0, 252.0, 32.0, 0.0, 0.0, 0.0, 1.6664066458047657E9, 0.0, 2022-10-21 19:44:05.804
144.0, -140951.75456425603, -148591.51376384663, -27560.282058749446, -110474.59220583347, 76624.41749863834, -72531.88014410497, 70470.60227043656, -108453.77098962915, -0.036000000000000004, 0.9480000000000001, -0.124, 192.0, 0.0, 0.0, 0.0, 0.0, 0.0, 0.0, 0.0, 0.0, 0.0, 1.6664066458047802E9, 0.0, 2022-10-21 19:44:05.804
145.0, -140941.98685192905, -148582.90834223133, -27555.27526799146, -110492.98769152019, 76621.1317922034, -72641.20252623588, 70399.83664749106, -108498.4074233064, -0.036000000000000004, 0.9480000000000001, -0.124, 192.0, 0.0, 0.0, 0.0, 0.0, 0.0, 0.0, 0.0, 0.0, 0.0, 1.6664066458047938E9, 0.0, 2022-10-21 19:44:05.804
146.0, -140926.83236918837, -148568.64792926883, -27539.047901516904, -110462.25404289414, 76646.90335356038, -72706.1119921341, 70395.88038872246, -108464.0527920786, -0.036000000000000004, 0.9480000000000001, -0.124, 192.0, 0.0, 0.0, 0.0, 0.0, 0.0, 0.0, 0.0, 0.0, 0.0, 1.666406645804808E9, 0.0, 2022-10-21 19:44:05.804
147.0, -140948.24534037654, -148587.78102252257, -27561.39964597221, -110470.30067089805, 76629.17842020732, -72623.142316716, 70446.23886898028, -108439.22000398875, -0.036000000000000004, 0.9480000000000001, -0.124, 192.0, 0.0, 0.0, 0.0, 0.0, 0.0, 0.0, 0.0, 0.0, 0.0, 1.6664066458048215E9, 0.0, 2022-10-21 19:44:05.804
148.0, -140944.8702269638, -148584.54001957655, -27564.3053727514, -110472.53584534358, 76621.60117883697, -72541.20082154284, 70475.89963387247, -108445.12086452496, -0.036000000000000004, 0.9480000000000001, -0.124, 192.0, 0.0, 0.0, 0.0, 0.0, 0.0, 0.0, 0.0, 0.0, 0.0, 1.666406645804875E9, 0.0, 2022-10-21 19:44:05.804
149.0, -140939.84108446134, -148580.18142940776, -27567.07698906386, -110493.34531943146, 76620.26007416965, -72623.92462777194, 70411.75012728573, -108496.3063593276, -0.036000000000000004, 0.9480000000000001, -0.124, 192.0, 0.0, 0.0, 0.0, 0.0, 0.0, 0.0, 0.0, 0.0, 0.0, 1.6664066458048887E9, 0.0, 2022-10-21 19:44:05.804
150.0, -140939.1258286388, -148579.35441486293, -27563.88068960675, -110493.4794298982, 76625.57978935001, -72722.38406209757, 70376.45672279081, -108493.28887382614, -0.036000000000000004, 0.9480000000000001, -0.124, 192.0, 0.0, 0.0, 0.0, 0.0, 0.0, 0.0, 0.0, 0.0, 0.0, 1.6664066458049035E9, 0.0, 2022-10-21 19:44:05.804
0.0, 0.0, 0.0, 0.0, 0.0, 0.0, 0.0, 0.0, 0.0, -0.036000000000000004, 0.9480000000000001, -0.124, 192.0, 0.0, 0.0, 0.0, 0.0, 0.0, 0.0, 0.0, 0.0, 0.0, 1.6664066459145105E9, 0.0, 2022-10-21 19:44:05.914
1.0, -140961.522276583, -149705.25648656566, 436.88719712343186, -109969.71100207699, 77085.08695186222, -71400.9042264109, 72681.01098311078, -110404.02774858807, -0.044, 0.9500000000000001, -0.134, 192.0, 254.0, 160.0, 29.0, 176.0, 251.0, 208.0, 0.0, 0.0, 0.0, 1.6664066463947055E9, 0.0, 2022-10-21 19:44:06.394
2.0, -140966.95375048564, -149703.17777433133, 420.43631320432587, -109982.00446152741, 77077.50971049187, -71361.05106604709, 72678.39582900952, -110436.92951642627, -0.044, 0.9500000000000001, -0.134, 192.0, 0.0, 0.0, 0.0, 0.0, 0.0, 0.0, 0.0, 0.0, 0.0, 1.6664066463950348E9, 0.0, 2022-10-21 19:44:06.395
3.0, -140968.98775923107, -149710.01740813465, 416.1671300133622, -109999.95291232502, 77074.4922249904, -71470.19463422235, 72599.31535712664, -110479.01785123562, -0.044, 0.9500000000000001, -0.134, 192.0, 0.0, 0.0, 0.0, 0.0, 0.0, 0.0, 0.0, 0.0, 0.0, 1.6664066463950684E9, 0.0, 2022-10-21 19:44:06.395
4.0, -140969.39009063126, -149708.05045462257, 421.8221213605549, -109984.19493248402, 77087.09860886319, -71526.90100990546, 72585.90431045345, -110473.98870873317, -0.044, 0.9500000000000001, -0.134, 192.0, 0.0, 0.0, 0.0, 0.0, 0.0, 0.0, 0.0, 0.0, 0.0, 1.6664066463950996E9, 0.0, 2022-10-21 19:44:06.395
5.0, -140971.98289298808, -149712.74432095818, 421.75506612718897, -109973.42139165658, 77087.50094026339, -71417.10924114099, 72665.0965410586, -110425.9101064098, -0.044, 0.9500000000000001, -0.134, 192.0, 0.0, 0.0, 0.0, 0.0, 0.0, 0.0, 0.0, 0.0, 0.0, 1.6664066463951435E9, 0.0, 2022-10-21 19:44:06.395
6.0, -140984.79044256097, -149716.92409717132, 415.2283567462393, -109993.1132785217, 77075.31923953525, -71333.60312385597, 72692.81270418319, -110428.99464714465, -0.044, 0.9500000000000001, -0.134, 192.0, 0.0, 0.0, 0.0, 0.0, 0.0, 0.0, 0.0, 0.0, 0.0, 1.666406646395174E9, 0.0, 2022-10-21 19:44:06.395
7.0, -140973.45810812214, -149703.60245747596, 422.5150254386694, -109995.28139773387, 77082.65061171658, -71423.0101016772, 72629.8478400526, -110453.69332476775, -0.048, 0.9440000000000001, -0.146, 192.0, 254.0, 128.0, 29.0, 128.0, 251.0, 112.0, 0.0, 0.0, 0.0, 1.6664066463952048E9, 0.0, 2022-10-21 19:44:06.395
8.0, -140967.73606154157, -149698.32744578453, 426.2477667627057, -109981.17744698256, 77095.25699558939, -71514.09346033257, 72592.2298541343, -110464.04218245056, -0.048, 0.9440000000000001, -0.146, 192.0, 0.0, 0.0, 0.0, 0.0, 0.0, 0.0, 0.0, 0.0, 0.0, 1.6664066463952377E9, 0.0, 2022-10-21 19:44:06.395
9.0, -140976.40853839024, -149706.30701855506, 421.08451379352977, -109977.86938880318, 77089.4902455199, -71437.06934893958, 72649.40561645098, -110433.4202925468, -0.048, 0.9440000000000001, -0.146, 192.0, 0.0, 0.0, 0.0, 0.0, 0.0, 0.0, 0.0, 0.0, 0.0, 1.6664066463952675E9, 0.0, 2022-10-21 19:44:06.395
10.0, -140976.78851804597, -149711.4255680353, 420.592775415513, -109973.48844688994, 77088.7973414418, -71332.95492326676, 72700.14407636454, -110415.91887663829, -0.048, 0.9440000000000001, -0.146, 192.0, 0.0, 0.0, 0.0, 0.0, 0.0, 0.0, 0.0, 0.0, 0.0, 1.6664066463952973E9, 0.0, 2022-10-21 19:44:06.395
11.0, -140967.02080571902, -149697.50043123966, 420.1233887819516, -109987.70415636351, 77087.83621643022, -71403.854656679, 72642.83420358112, -110454.49798756815, -0.048, 0.9440000000000001, -0.146, 192.0, 0.0, 0.0, 0.0, 0.0, 0.0, 0.0, 0.0, 0.0, 0.0, 1.6664066463953278E9, 0.0, 2022-10-21 19:44:06.395
12.0, -140976.0732622234, -149712.07376862454, 412.2332229892282, -109992.55448491032, 77088.32795480824, -71512.64059694298, 72588.877092466, -110452.6651445228, -0.048, 0.9440000000000001, -0.146, 192.0, 0.0, 0.0, 0.0, 0.0, 0.0, 0.0, 0.0, 0.0, 0.0, 1.666406646395358E9, 0.0, 2022-10-21 19:44:06.395
13.0, -140988.45612865165, -149720.2321553507, 401.6831996063232, -109979.79163882634, 77089.57965249773, -71462.34917191854, 72629.37845341903, -110440.32698158348, -0.048, 0.9440000000000001, -0.146, 192.0, 0.0, 0.0, 0.0, 0.0, 0.0, 0.0, 0.0, 0.0, 0.0, 1.666406646395593E9, 0.0, 2022-10-21 19:44:06.395
14.0, -140996.8827363113, -149727.71998974323, 393.12248147994063, -109993.40385119962, 77075.85568140217, -71349.02582753013, 72681.07803834416, -110449.55825204353, -0.048, 0.9440000000000001, -0.146, 192.0, 0.0, 0.0, 0.0, 0.0, 0.0, 0.0, 0.0, 0.0, 0.0, 1.6664066463956244E9, 0.0, 2022-10-21 19:44:06.395
15.0, -140992.14416648677, -149730.06692291104, 400.2303362167283, -110002.99274957094, 77074.8945563906, -71382.15111281289, 72646.32107571616, -110464.44451385076, -0.048, 0.9440000000000001, -0.146, 192.0, 0.0, 0.0, 0.0, 0.0, 0.0, 0.0, 0.0, 0.0, 0.0, 1.666406646395655E9, 0.0, 2022-10-21 19:44:06.395
16.0, -140991.80889031995, -149732.5926700345, 401.9067170508763, -110009.3629967407, 77074.08989359021, -71508.61728294102, 72583.35621158555, -110487.48916238418, -0.048, 0.9440000000000001, -0.146, 192.0, 0.0, 0.0, 0.0, 0.0, 0.0, 0.0, 0.0, 0.0, 0.0, 1.6664066463956923E9, 0.0, 2022-10-21 19:44:06.395
17.0, -140985.90802978375, -149726.46829205373, 402.8454903179992, -109997.11424077919, 77074.42516975703, -71496.3238234906, 72616.8391247796, -110447.72540899819, -0.05, 0.9400000000000001, -0.14400000000000002, 192.0, 254.0, 112.0, 29.0, 96.0, 251.0, 128.0, 0.0, 0.0, 0.0, 1.6664066463957236E9, 0.0, 2022-10-21 19:44:06.395
18.0, -140973.23459067757, -149716.2758965821, 412.12146426695165, -109970.202740455, 77093.02182114385, -71351.48451942022, 72706.20139911192, -110407.08993757844, -0.05, 0.9400000000000001, -0.14400000000000002, 192.0, 0.0, 0.0, 0.0, 0.0, 0.0, 0.0, 0.0, 0.0, 0.0, 1.6664066463957567E9, 0.0, 2022-10-21 19:44:06.395
19.0, -140980.40950064774, -149718.26520183866, 400.3420949390048, -109998.50004893543, 77077.15208258058, -71353.40676944338, 72674.99836385231, -110455.3697056019, -0.05, 0.9400000000000001, -0.14400000000000002, 192.0, 0.0, 0.0, 0.0, 0.0, 0.0, 0.0, 0.0, 0.0, 0.0, 1.666406646395789E9, 0.0, 2022-10-21 19:44:06.395
20.0, -140976.3191314124, -149705.81528017705, 398.1516239823847, -110017.722549167, 77064.21042254096, -71500.19067528137, 72590.9781564448, -110479.84486578047, -0.05, 0.9400000000000001, -0.14400000000000002, 192.0, 0.0, 0.0, 0.0, 0.0, 0.0, 0.0, 0.0, 0.0, 0.0, 1.66640664639582E9, 0.0, 2022-10-21 19:44:06.395
21.0, -140976.00620699005, -149712.90078316937, 392.9660192687535, -110004.04328156034, 77066.46794873095, -71522.36360578104, 72602.44460135039, -110448.84299622095, -0.05, 0.9400000000000001, -0.14400000000000002, 192.0, 0.0, 0.0, 0.0, 0.0, 0.0, 0.0, 0.0, 0.0, 0.0, 1.6664066463958511E9, 0.0, 2022-10-21 19:44:06.395
22.0, -140983.024654749, -149721.7967774626, 391.9378390238093, -109995.50491517842, 77066.71381791995, -71387.2473105487, 72679.33460227663, -110427.60883898841, -0.05, 0.9400000000000001, -0.14400000000000002, 192.0, 0.0, 0.0, 0.0, 0.0, 0.0, 0.0, 0.0, 0.0, 0.0, 1.6664066463958824E9, 0.0, 2022-10-21 19:44:06.395
23.0, -140986.1315472283, -149725.37305657542, 395.0000280141864, -110013.02868283137, 77058.55543119376, -71352.44564443179, 72674.5066254743, -110448.10538865393, -0.05, 0.9400000000000001, -0.14400000000000002, 192.0, 0.0, 0.0, 0.0, 0.0, 0.0, 0.0, 0.0, 0.0, 0.0, 1.666406646395913E9, 0.0, 2022-10-21 19:44:06.395
24.0, -140983.98577976058, -149721.95323967378, 390.08264423401886, -110024.80805215932, 77056.14144279259, -71481.97400355029, 72589.99467968878, -110502.62129338042, -0.05, 0.9400000000000001, -0.14400000000000002, 192.0, 0.0, 0.0, 0.0, 0.0, 0.0, 0.0, 0.0, 0.0, 0.0, 1.6664066463959427E9, 0.0, 2022-10-21 19:44:06.395
25.0, -140976.45324187915, -149715.47123378175, 392.2954669350943, -110006.59138042825, 77068.32314352074, -71533.22655358631, 72584.89848195297, -110478.07907796849, -0.05, 0.9400000000000001, -0.14400000000000002, 192.0, 0.0, 0.0, 0.0, 0.0, 0.0, 0.0, 0.0, 0.0, 0.0, 1.666406646395973E9, 0.0, 2022-10-21 19:44:06.395
26.0, -140985.1257187278, -149721.08152164, 380.44904237378154, -109994.09675527773, 77070.33480052171, -71412.68359573884, 72659.30743924469, -110435.85663269242, -0.05, 0.9400000000000001, -0.14400000000000002, 192.0, 0.0, 0.0, 0.0, 0.0, 0.0, 0.0, 0.0, 0.0, 0.0, 1.6664066463960035E9, 0.0, 2022-10-21 19:44:06.396
27.0, -140984.7233873276, -149718.6898849833, 394.4188826583484, -110004.04328156034, 77064.97038185244, -71353.71969386574, 72683.13439883404, -110436.46012979271, -0.046, 0.9460000000000001, -0.14400000000000002, 192.0, 254.0, 144.0, 29.0, 144.0, 251.0, 128.0, 0.0, 0.0, 0.0, 1.6664066463960388E9, 0.0, 2022-10-21 19:44:06.396
28.0, -140992.01005602005, -149726.088312398, 379.8008417845776, -110022.10349108023, 77057.8848788601, -71465.3219539311, 72603.45042985087, -110490.75251707465, -0.046, 0.9460000000000001, -0.14400000000000002, 192.0, 0.0, 0.0, 0.0, 0.0, 0.0, 0.0, 0.0, 0.0, 0.0, 1.6664066463962426E9, 0.0, 2022-10-21 19:44:06.396
29.0, -140988.38907341828, -149720.343914073, 374.3470161374827, -110011.79933688634, 77069.12780632112, -71528.46563201734, 72581.38925807348, -110490.66311009684, -0.046, 0.9460000000000001, -0.14400000000000002, 192.0, 0.0, 0.0, 0.0, 0.0, 0.0, 0.0, 0.0, 0.0, 0.0, 1.6664066463962736E9, 0.0, 2022-10-21 19:44:06.396
30.0, -140985.23747745008, -149713.9289634143, 379.1302894509184, -109992.26391223239, 77076.41447501356, -71431.83904073705, 72651.03729379622, -110433.68851348026, -0.046, 0.9460000000000001, -0.14400000000000002, 192.0, 0.0, 0.0, 0.0, 0.0, 0.0, 0.0, 0.0, 0.0, 0.0, 1.6664066463963032E9, 0.0, 2022-10-21 19:44:06.396
31.0, -140991.16068973075, -149719.85217569498, 382.41599588584853, -110003.23861875995, 77072.03353310032, -71333.06668198905, 72687.89532040303, -110435.34254256995, -0.046, 0.9460000000000001, -0.14400000000000002, 192.0, 0.0, 0.0, 0.0, 0.0, 0.0, 0.0, 0.0, 0.0, 0.0, 1.6664066463963337E9, 0.0, 2022-10-21 19:44:06.396
32.0, -140981.9741227596, -149710.41973953485, 393.52481288013615, -110018.32604626728, 77071.00535285537, -71424.93235170035, 72628.30556968518, -110458.4765980812, -0.046, 0.9460000000000001, -0.14400000000000002, 192.0, 0.0, 0.0, 0.0, 0.0, 0.0, 0.0, 0.0, 0.0, 0.0, 1.666406646396364E9, 0.0, 2022-10-21 19:44:06.396
33.0, -140983.96342801614, -149710.19622209028, 390.39556865639315, -110012.62635143119, 77075.72157093544, -71533.67358847542, 72581.97040342932, -110477.31911865702, -0.046, 0.9460000000000001, -0.14400000000000002, 192.0, 0.0, 0.0, 0.0, 0.0, 0.0, 0.0, 0.0, 0.0, 0.0, 1.6664066463963938E9, 0.0, 2022-10-21 19:44:06.396
34.0, -140999.2296694791, -149727.00473392068, 370.9719027247313, -110010.50293570793, 77065.41741674155, -71479.15768374893, 72622.96350276035, -110456.39788584685, -0.046, 0.9460000000000001, -0.14400000000000002, 192.0, 0.0, 0.0, 0.0, 0.0, 0.0, 0.0, 0.0, 0.0, 0.0, 1.666406646396424E9, 0.0, 2022-10-21 19:44:06.396
35.0, -140992.05475950896, -149721.5285565291, 381.11959470744074, -109999.61763615819, 77075.07337034623, -71350.52339440864, 72687.96237563639, -110438.78471121607, -0.046, 0.9460000000000001, -0.14400000000000002, 192.0, 0.0, 0.0, 0.0, 0.0, 0.0, 0.0, 0.0, 0.0, 0.0, 1.6664066463964543E9, 0.0, 2022-10-21 19:44:06.396
36.0, -140983.7175588271, -149713.81720469205, 385.0758534760301, -110011.30759850831, 77074.98396336842, -71395.71862169726, 72640.12964250203, -110475.35216514494, -0.046, 0.9460000000000001, -0.14400000000000002, 192.0, 0.0, 0.0, 0.0, 0.0, 0.0, 0.0, 0.0, 0.0, 0.0, 1.6664066463964844E9, 0.0, 2022-10-21 19:44:06.396
37.0, -140993.59702987637, -149726.11066414247, 376.2692661606391, -110021.63410444667, 77068.85958538766, -71516.26157954473, 72575.17547311491, -110495.31227294354, -0.046, 0.9480000000000001, -0.14200000000000002, 192.0, 254.0, 144.0, 29.0, 160.0, 251.0, 144.0, 0.0, 0.0, 0.0, 1.6664066463965147E9, 0.0, 2022-10-21 19:44:06.396
38.0, -140997.39682643377, -149731.11745490044, 372.24595215868385, -110014.34743575424, 77063.18224229601, -71494.49098044526, 72609.84302876508, -110468.89251099736, -0.046, 0.9480000000000001, -0.14200000000000002, 192.0, 0.0, 0.0, 0.0, 0.0, 0.0, 0.0, 0.0, 0.0, 0.0, 1.6664066463965464E9, 0.0, 2022-10-21 19:44:06.396
39.0, -140995.65339036626, -149728.6811147548, 371.2177719137397, -110010.5699909413, 77061.30469576176, -71377.25608077718, 72680.42983775496, -110430.55926925651, -0.046, 0.9480000000000001, -0.14200000000000002, 192.0, 0.0, 0.0, 0.0, 0.0, 0.0, 0.0, 0.0, 0.0, 0.0, 1.666406646396577E9, 0.0, 2022-10-21 19:44:06.396
40.0, -140993.4852711541, -149722.91436468536, 364.9145799773431, -110024.87510739268, 77057.8848788601, -71393.41639201836, 72645.09172977111, -110468.98191797518, -0.046, 0.9480000000000001, -0.14200000000000002, 192.0, 0.0, 0.0, 0.0, 0.0, 0.0, 0.0, 0.0, 0.0, 0.0, 1.6664066463966067E9, 0.0, 2022-10-21 19:44:06.396
41.0, -140989.46195715215, -149718.2428500942, 369.6307980574129, -110028.85371790573, 77062.17641379553, -71508.50552421875, 72585.97136568683, -110489.7243368297, -0.046, 0.9480000000000001, -0.14200000000000002, 192.0, 0.0, 0.0, 0.0, 0.0, 0.0, 0.0, 0.0, 0.0, 0.0, 1.6664066463966365E9, 0.0, 2022-10-21 19:44:06.396
42.0, -140992.9264775427, -149723.92019318583, 365.1828009108068, -110012.9169241091, 77066.19972779749, -71509.62311144151, 72614.53689510071, -110458.02956319209, -0.046, 0.9480000000000001, -0.14200000000000002, 192.0, 0.0, 0.0, 0.0, 0.0, 0.0, 0.0, 0.0, 0.0, 0.0, 1.6664066463966663E9, 0.0, 2022-10-21 19:44:06.396
43.0, -141000.21314623512, -149735.4983968137, 354.4539635722594, -110006.88195310616, 77067.87610863162, -71373.34452549751, 72686.19658782442, -110433.19677510225, -0.046, 0.9480000000000001, -0.14200000000000002, 192.0, 0.0, 0.0, 0.0, 0.0, 0.0, 0.0, 0.0, 0.0, 0.0, 1.6664066463967023E9, 0.0, 2022-10-21 19:44:06.396
44.0, -141008.90797482824, -149739.81228349355, 334.73972496267857, -110033.5699359858, 77051.80520436827, -71360.38051371343, 72656.31230548768, -110476.87208376791, -0.046, 0.9480000000000001, -0.14200000000000002, 192.0, 0.0, 0.0, 0.0, 0.0, 0.0, 0.0, 0.0, 0.0, 0.0, 1.6664066463967147E9, 0.0, 2022-10-21 19:44:06.396
45.0, -140984.6786838387, -149719.1816233613, 358.49962931867, -110030.46304350652, 77061.37175099514, -71484.11977101801, 72590.21819713333, -110493.30061594256, -0.046, 0.9480000000000001, -0.14200000000000002, 192.0, 0.0, 0.0, 0.0, 0.0, 0.0, 0.0, 0.0, 0.0, 0.0, 1.666406646396727E9, 0.0, 2022-10-21 19:44:06.396
46.0, -140982.5776198599, -149717.840518694, 364.64635904387944, -110004.57972342728, 77075.56510872426, -71510.4277742419, 72604.7915345182, -110454.47563582369, -0.04, 0.9480000000000001, -0.14400000000000002, 192.0, 254.0, 192.0, 29.0, 160.0, 251.0, 128.0, 0.0, 0.0, 0.0, 1.666406646396739E9, 0.0, 2022-10-21 19:44:06.396
47.0, -140991.80889031995, -149724.76955947513, 356.1526961508627, -109997.22599950148, 77075.22983255742, -71396.43387751984, 72676.83120689765, -110440.86342345041, -0.04, 0.9480000000000001, -0.14400000000000002, 192.0, 0.0, 0.0, 0.0, 0.0, 0.0, 0.0, 0.0, 0.0, 0.0, 1.666406646396752E9, 0.0, 2022-10-21 19:44:06.396
48.0, -141000.34725670188, -149735.7442660027, 345.08858264548576, -110022.52817422488, 77063.9869050964, -71347.39415018489, 72678.1052563316, -110462.43285684977, -0.04, 0.9480000000000001, -0.14400000000000002, 192.0, 0.0, 0.0, 0.0, 0.0, 0.0, 0.0, 0.0, 0.0, 0.0, 1.6664066463967664E9, 0.0, 2022-10-21 19:44:06.396
49.0, -141000.74958810207, -149734.38080959092, 339.2994808315612, -110035.08985460877, 77061.17058529504, -71450.68156131287, 72603.9421682289, -110506.89047657138, -0.04, 0.9480000000000001, -0.14400000000000002, 192.0, 0.0, 0.0, 0.0, 0.0, 0.0, 0.0, 0.0, 0.0, 0.0, 1.6664066463967788E9, 0.0, 2022-10-21 19:44:06.396
50.0, -140999.69905611267, -149733.5537950461, 338.45011454225954, -110033.63699121917, 77058.75659689386, -71517.02153885622, 72583.04328716318, -110501.12372650192, -0.04, 0.9480000000000001, -0.14400000000000002, 192.0, 0.0, 0.0, 0.0, 0.0, 0.0, 0.0, 0.0, 0.0, 0.0, 1.6664066463967915E9, 0.0, 2022-10-21 19:44:06.396
51.0, -140997.5309369005, -149734.11258865747, 345.04387915657514, -110007.37369148419, 77070.11128307716, -71407.31917706957, 72663.17429103545, -110443.25506010713, -0.04, 0.9480000000000001, -0.14400000000000002, 192.0, 0.0, 0.0, 0.0, 0.0, 0.0, 0.0, 0.0, 0.0, 0.0, 1.6664066463968036E9, 0.0, 2022-10-21 19:44:06.396
52.0, -140994.08876825438, -149730.0445711666, 352.5093618046477, -110013.47571772049, 77064.1433673076, -71336.57590586852, 72685.95071863542, -110451.9722404447, -0.04, 0.9480000000000001, -0.14400000000000002, 192.0, 0.0, 0.0, 0.0, 0.0, 0.0, 0.0, 0.0, 0.0, 0.0, 1.6664066463968155E9, 0.0, 2022-10-21 19:44:06.396
53.0, -140990.80306181946, -149732.81618747904, 355.63860602839065, -110031.02183711789, 77060.45532947246, -71438.00812220671, 72610.51358109876, -110499.5814561345, -0.04, 0.9480000000000001, -0.14400000000000002, 192.0, 0.0, 0.0, 0.0, 0.0, 0.0, 0.0, 0.0, 0.0, 0.0, 1.6664066463968277E9, 0.0, 2022-10-21 19:44:06.396
54.0, -140999.8778700683, -149748.90944348686, 353.4257833273153, -110026.77500567138, 77064.21042254096, -71517.84855340107, 72581.32220284012, -110495.89341829937, -0.04, 0.9480000000000001, -0.14400000000000002, 192.0, 0.0, 0.0, 0.0, 0.0, 0.0, 0.0, 0.0, 0.0, 0.0, 1.66640664639684E9, 0.0, 2022-10-21 19:44:06.396
55.0, -141004.59408814838, -149745.7578475187, 355.95153045076495, -110014.66036017661, 77063.65162892958, -71442.8137472646, 72645.2481919823, -110456.93432771378, -0.04, 0.9480000000000001, -0.14400000000000002, 192.0, 0.0, 0.0, 0.0, 0.0, 0.0, 0.0, 0.0, 0.0, 0.0, 1.666406646396852E9, 0.0, 2022-10-21 19:44:06.396
56.0, -141004.3258672149, -149740.7957602496, 355.30332986156105, -110014.7721188989, 77063.07048357374, -71342.27560070463, 72689.61640472608, -110456.15201665784, -0.048, 0.9440000000000001, -0.154, 192.0, 254.0, 128.0, 29.0, 128.0, 251.0, 48.0, 0.0, 0.0, 0.0, 1.6664066463968644E9, 0.0, 2022-10-21 19:44:06.396
57.0, -140996.0780735109, -149736.3924665919, 359.2595886301504, -110029.27840105038, 77060.7906056393, -71406.603921247, 72629.33374993011, -110501.07902301301, -0.048, 0.9440000000000001, -0.154, 192.0, 0.0, 0.0, 0.0, 0.0, 0.0, 0.0, 0.0, 0.0, 0.0, 1.6664066463968773E9, 0.0, 2022-10-21 19:44:06.396
58.0, -140987.78557631798, -149729.083446155, 370.77073702463355, -110021.7235114245, 77067.22790804242, -71518.18382956789, 72589.4805895663, -110479.84486578047, -0.048, 0.9440000000000001, -0.154, 192.0, 0.0, 0.0, 0.0, 0.0, 0.0, 0.0, 0.0, 0.0, 0.0, 1.666406646396901E9, 0.0, 2022-10-21 19:44:06.396
59.0, -140998.06737876742, -149734.1349404019, 363.6405305433906, -110010.59234268575, 77067.04909408679, -71463.8690905415, 72642.52127915875, -110437.62242050438, -0.048, 0.9440000000000001, -0.154, 192.0, 0.0, 0.0, 0.0, 0.0, 0.0, 0.0, 0.0, 0.0, 0.0, 1.6664066463969133E9, 0.0, 2022-10-21 19:44:06.396
60.0, -140997.30741945596, -149732.90559445688, 360.7795072531113, -109999.77409836938, 77067.69729467599, -71343.61670537194, 72700.70286997591, -110436.4154263038, -0.048, 0.9440000000000001, -0.154, 192.0, 0.0, 0.0, 0.0, 0.0, 0.0, 0.0, 0.0, 0.0, 0.0, 1.6664066463969252E9, 0.0, 2022-10-21 19:44:06.396
61.0, -141006.0916550269, -149743.9920597067, 350.4306495703041, -110027.19968881604, 77051.49227994589, -71390.82358966155, 72642.61068613657, -110497.05570901105, -0.048, 0.9440000000000001, -0.154, 192.0, 0.0, 0.0, 0.0, 0.0, 0.0, 0.0, 0.0, 0.0, 0.0, 1.6664066463969371E9, 0.0, 2022-10-21 19:44:06.396
62.0, -141010.5843556624, -149751.81517026605, 349.7600972366449, -110043.53881401286, 77043.95974206446, -71534.61236174255, 72570.9286416684, -110512.79133710758, -0.048, 0.9440000000000001, -0.154, 192.0, 0.0, 0.0, 0.0, 0.0, 0.0, 0.0, 0.0, 0.0, 0.0, 1.6664066463969493E9, 0.0, 2022-10-21 19:44:06.396
63.0, -141011.94781207418, -149749.11060918696, 345.66972800132373, -110023.0199126029, 77055.64970441458, -71503.36462299402, 72610.89356075448, -110471.37355463191, -0.048, 0.9440000000000001, -0.154, 192.0, 0.0, 0.0, 0.0, 0.0, 0.0, 0.0, 0.0, 0.0, 0.0, 1.6664066463969612E9, 0.0, 2022-10-21 19:44:06.396
64.0, -141013.60184116385, -149749.62469930944, 338.53952152008077, -110017.58843870026, 77055.80616662576, -71372.53986269711, 72678.9546226209, -110446.33960084197, -0.048, 0.9440000000000001, -0.154, 192.0, 0.0, 0.0, 0.0, 0.0, 0.0, 0.0, 0.0, 0.0, 0.0, 1.6664066463969731E9, 0.0, 2022-10-21 19:44:06.396
65.0, -141010.60670740684, -149750.67523129884, 338.15954186434055, -110031.58063072928, 77052.74397763539, -71374.12683655343, 72649.71854087336, -110484.24815943815, -0.048, 0.9440000000000001, -0.154, 192.0, 0.0, 0.0, 0.0, 0.0, 0.0, 0.0, 0.0, 0.0, 0.0, 1.6664066463969853E9, 0.0, 2022-10-21 19:44:06.396
66.0, -141008.1927190057, -149750.22819640973, 335.9020156743545, -110034.218136575, 77053.01219856885, -71500.30243400365, 72577.43299930489, -110509.28211322811, -0.052000000000000005, 0.9420000000000001, -0.148, 192.0, 254.0, 96.0, 29.0, 112.0, 251.0, 96.0, 0.0, 0.0, 0.0, 1.666406646396997E9, 0.0, 2022-10-21 19:44:06.396
67.0, -141010.71846612912, -149750.98815572122, 320.94869863375413, -110021.03060734637, 77055.56029743675, -71507.6785096739, 72592.54277855669, -110483.26468268213, -0.052000000000000005, 0.9420000000000001, -0.148, 192.0, 0.0, 0.0, 0.0, 0.0, 0.0, 0.0, 0.0, 0.0, 0.0, 1.6664066463970098E9, 0.0, 2022-10-21 19:44:06.397
68.0, -141009.9361550732, -149751.47989409923, 316.56775672051396, -110012.8722206202, 77058.84600387169, -71376.58552844352, 72672.13734056203, -110445.73610374167, -0.052000000000000005, 0.9420000000000001, -0.148, 192.0, 0.0, 0.0, 0.0, 0.0, 0.0, 0.0, 0.0, 0.0, 0.0, 1.666406646397022E9, 0.0, 2022-10-21 19:44:06.397
69.0, -141011.545480674, -149754.65384181187, 308.7669979056118, -110024.69629343705, 77053.70510264697, -71340.30864719256, 72663.91189860248, -110477.11795295692, -0.052000000000000005, 0.9420000000000001, -0.148, 192.0, 0.0, 0.0, 0.0, 0.0, 0.0, 0.0, 0.0, 0.0, 0.0, 1.666406646397035E9, 0.0, 2022-10-21 19:44:06.397
70.0, -140999.5872973904, -149741.86864398344, 312.6114979519246, -110030.19482257306, 77054.688579403, -71468.29473594365, 72593.50390356826, -110502.24131372468, -0.052000000000000005, 0.9420000000000001, -0.148, 192.0, 0.0, 0.0, 0.0, 0.0, 0.0, 0.0, 0.0, 0.0, 0.0, 1.666406646397047E9, 0.0, 2022-10-21 19:44:06.397
71.0, -141008.34918121688, -149752.41866736635, 297.56877393350294, -110031.62533421819, 77050.46409970094, -71518.29558829017, 72588.94414769938, -110478.70492681324, -0.052000000000000005, 0.9420000000000001, -0.148, 192.0, 0.0, 0.0, 0.0, 0.0, 0.0, 0.0, 0.0, 0.0, 0.0, 1.6664066463970587E9, 0.0, 2022-10-21 19:44:06.397
72.0, -141006.1363585158, -149745.8472544965, 295.44535821024874, -110013.63217993166, 77054.84504161419, -71400.9042264109, 72670.21509053887, -110450.16174914382, -0.052000000000000005, 0.9420000000000001, -0.148, 192.0, 0.0, 0.0, 0.0, 0.0, 0.0, 0.0, 0.0, 0.0, 0.0, 1.666406646397071E9, 0.0, 2022-10-21 19:44:06.397
73.0, -140993.95465778766, -149735.5878037915, 295.244192510151, -110010.07825256328, 77058.5330794493, -71335.16774596785, 72690.86810241558, -110466.61263306292, -0.052000000000000005, 0.9420000000000001, -0.148, 192.0, 0.0, 0.0, 0.0, 0.0, 0.0, 0.0, 0.0, 0.0, 0.0, 1.6664066463970935E9, 0.0, 2022-10-21 19:44:06.397
74.0, -140982.10823322635, -149726.9823821762, 299.0886925564638, -110003.95387458253, 77068.30079177627, -71440.73503503026, 72621.42123239294, -110496.54161888857, -0.052000000000000005, 0.9420000000000001, -0.148, 192.0, 0.0, 0.0, 0.0, 0.0, 0.0, 0.0, 0.0, 0.0, 0.0, 1.6664066463971057E9, 0.0, 2022-10-21 19:44:06.397
75.0, -140982.28704718198, -149727.22825136522, 290.95265757473203, -110003.55154318233, 77066.19972779749, -71516.48509698929, 72593.50390356826, -110491.5795316195, -0.054, 0.9380000000000001, -0.15, 192.0, 254.0, 80.0, 29.0, 80.0, 251.0, 80.0, 0.0, 0.0, 0.0, 1.6664066463971179E9, 0.0, 2022-10-21 19:44:06.397
76.0, -140993.8205473209, -149736.45952182528, 268.69032009724623, -110010.97232234149, 77048.34068397769, -71438.85748849601, 72649.13739551752, -110459.5718335595, -0.054, 0.9380000000000001, -0.15, 192.0, 0.0, 0.0, 0.0, 0.0, 0.0, 0.0, 0.0, 0.0, 0.0, 1.6664066463971307E9, 0.0, 2022-10-21 19:44:06.397
77.0, -140998.0226752785, -149740.8404637385, 261.82833454946694, -110009.00536882943, 77051.93931483499, -71343.97433328323, 72686.5542157357, -110467.66316505232, -0.054, 0.9380000000000001, -0.15, 192.0, 0.0, 0.0, 0.0, 0.0, 0.0, 0.0, 0.0, 0.0, 0.0, 1.666406646397143E9, 0.0, 2022-10-21 19:44:06.397
78.0, -140995.56398338842, -149738.71704801524, 256.0392327355424, -110027.22204056049, 77043.22213449742, -71440.80209026362, 72615.92270325693, -110507.82924983851, -0.054, 0.9380000000000001, -0.15, 192.0, 0.0, 0.0, 0.0, 0.0, 0.0, 0.0, 0.0, 0.0, 0.0, 1.6664066463971553E9, 0.0, 2022-10-21 19:44:06.397
79.0, -140981.68355008168, -149728.591707777, 262.4318316497602, -110007.82072637329, 77056.65553291506, -71542.03314090171, 72580.18226387289, -110499.11206950094, -0.054, 0.9380000000000001, -0.15, 192.0, 0.0, 0.0, 0.0, 0.0, 0.0, 0.0, 0.0, 0.0, 0.0, 1.6664066463971672E9, 0.0, 2022-10-21 19:44:06.397
80.0, -140987.3832449178, -149733.1961671348, 254.0946309679307, -109983.54673189482, 77067.11614932015, -71449.65338106792, 72647.34925596109, -110468.89251099736, -0.054, 0.9380000000000001, -0.15, 192.0, 0.0, 0.0, 0.0, 0.0, 0.0, 0.0, 0.0, 0.0, 0.0, 1.6664066463971794E9, 0.0, 2022-10-21 19:44:06.397
81.0, -140985.6174571058, -149731.92211770083, 249.35606114340558, -109989.58170289776, 77063.36105625166, -71342.18619372681, 72699.71939321989, -110458.58835680346, -0.054, 0.9380000000000001, -0.15, 192.0, 0.0, 0.0, 0.0, 0.0, 0.0, 0.0, 0.0, 0.0, 0.0, 1.6664066463971915E9, 0.0, 2022-10-21 19:44:06.397
82.0, -140978.01786399103, -149723.80843446357, 248.7525640431123, -110000.39994721413, 77063.36105625166, -71405.57574100206, 72644.75645360428, -110493.63589210939, -0.054, 0.9380000000000001, -0.15, 192.0, 0.0, 0.0, 0.0, 0.0, 0.0, 0.0, 0.0, 0.0, 0.0, 1.666406646397204E9, 0.0, 2022-10-21 19:44:06.397
83.0, -140974.50864011154, -149721.2379838512, 243.3881453738386, -109997.87420009068, 77066.13267256411, -71513.98170161029, 72593.16862740144, -110486.34922341695, -0.054, 0.9380000000000001, -0.15, 192.0, 0.0, 0.0, 0.0, 0.0, 0.0, 0.0, 0.0, 0.0, 0.0, 1.666406646397216E9, 0.0, 2022-10-21 19:44:06.397
84.0, -140978.50960236904, -149725.7977397201, 233.88865398033312, -109981.64683361612, 77067.04909408679, -71483.33745996207, 72634.40759592147, -110450.9217084553, -0.054, 0.9380000000000001, -0.15, 192.0, 0.0, 0.0, 0.0, 0.0, 0.0, 0.0, 0.0, 0.0, 0.0, 1.6664066463972285E9, 0.0, 2022-10-21 19:44:06.397
85.0, -140991.16068973075, -149738.47117882624, 213.19093861471876, -109985.78190634036, 77059.27068701634, -71359.66525789085, 72689.906977404, -110461.2705661381, -0.056, 0.936, -0.154, 192.0, 254.0, 64.0, 29.0, 64.0, 251.0, 48.0, 0.0, 0.0, 0.0, 1.6664066463972404E9, 0.0, 2022-10-21 19:44:06.397
86.0, -140985.10336698336, -149732.4362078233, 212.56508976997017, -109998.6118076577, 77053.34747473568, -71379.22303428924, 72651.88666008553, -110493.39002292039, -0.056, 0.936, -0.154, 192.0, 0.0, 0.0, 0.0, 0.0, 0.0, 0.0, 0.0, 0.0, 0.0, 1.6664066463972535E9, 0.0, 2022-10-21 19:44:06.397
87.0, -140967.35608188584, -149714.5771640035, 217.90715669478854, -109986.49716216292, 77066.60205919767, -71499.6765851589, 72595.69437452489, -110496.11693574392, -0.056, 0.936, -0.154, 192.0, 0.0, 0.0, 0.0, 0.0, 0.0, 0.0, 0.0, 0.0, 0.0, 1.666406646397266E9, 0.0, 2022-10-21 19:44:06.397
88.0, -140984.29870418296, -149734.2466991242, 198.17056634075243, -109989.80522034231, 77062.98107659591, -71491.85347459954, 72619.54368585869, -110472.53584534358, -0.056, 0.936, -0.154, 192.0, 0.0, 0.0, 0.0, 0.0, 0.0, 0.0, 0.0, 0.0, 0.0, 1.666406646397278E9, 0.0, 2022-10-21 19:44:06.397
89.0, -140988.85846005185, -149737.1971293923, 185.87710689033352, -109990.07344127577, 77058.0860445602, -71359.2405747462, 72693.99734663933, -110458.45424633674, -0.056, 0.936, -0.154, 192.0, 0.0, 0.0, 0.0, 0.0, 0.0, 0.0, 0.0, 0.0, 0.0, 1.6664066463973012E9, 0.0, 2022-10-21 19:44:06.397
90.0, -140978.01786399103, -149726.9376786873, 179.32804576492856, -109994.99082505594, 77059.87418411663, -71358.16769101235, 72674.46192198538, -110489.21024670724, -0.056, 0.936, -0.154, 192.0, 0.0, 0.0, 0.0, 0.0, 0.0, 0.0, 0.0, 0.0, 0.0, 1.6664066463973136E9, 0.0, 2022-10-21 19:44:06.397
91.0, -140976.8779250238, -149723.80843446357, 170.2308857716186, -110001.85281060373, 77060.7906056393, -71479.60471863803, 72600.81292400515, -110512.76898536313, -0.056, 0.936, -0.154, 192.0, 0.0, 0.0, 0.0, 0.0, 0.0, 0.0, 0.0, 0.0, 0.0, 1.666406646397327E9, 0.0, 2022-10-21 19:44:06.397
92.0, -140985.84097455037, -149734.42551307983, 152.39419369628357, -109997.67303439058, 77052.81103286875, -71516.66391094493, 72600.4329443494, -110497.05570901105, -0.056, 0.936, -0.154, 192.0, 0.0, 0.0, 0.0, 0.0, 0.0, 0.0, 0.0, 0.0, 0.0, 1.666406646397339E9, 0.0, 2022-10-21 19:44:06.397
93.0, -140992.70296009816, -149743.43326609532, 132.5681963644262, -109993.33679596626, 77049.79354736728, -71408.74968871471, 72669.72335216086, -110472.42408662131, -0.056, 0.936, -0.154, 192.0, 0.0, 0.0, 0.0, 0.0, 0.0, 0.0, 0.0, 0.0, 0.0, 1.6664066463973525E9, 0.0, 2022-10-21 19:44:06.397
94.0, -140988.9255152852, -149740.23696663821, 126.91320501723351, -109996.95777856802, 77051.11230029014, -71366.57194692755, 72669.8574626276, -110495.22286596571, -0.056, 0.936, -0.154, 192.0, 0.0, 0.0, 0.0, 0.0, 0.0, 0.0, 0.0, 0.0, 0.0, 1.6664066463973646E9, 0.0, 2022-10-21 19:44:06.397
95.0, -140984.5669251164, -149734.42551307983, 124.52156836051564, -110002.6127699152, 77055.69440790349, -71475.82727382508, 72596.70020302536, -110516.30056098707, -0.054, 0.936, -0.148, 192.0, 254.0, 80.0, 29.0, 64.0, 251.0, 96.0, 0.0, 0.0, 0.0, 1.6664066463973768E9, 0.0, 2022-10-21 19:44:06.397
96.0, -140982.68937858217, -149733.66555376834, 114.15035893325317, -109991.63806338765, 77061.95289635097, -71520.46370750233, 72590.44171457789, -110499.93908404579, -0.054, 0.936, -0.148, 192.0, 0.0, 0.0, 0.0, 0.0, 0.0, 0.0, 0.0, 0.0, 0.0, 1.6664066463973908E9, 0.0, 2022-10-21 19:44:06.397
97.0, -140986.35506467285, -149735.61015553598, 106.14843441825325, -109977.24353995844, 77061.93054460651, -71417.60097951902, 72665.83414862564, -110471.46296160972, -0.054, 0.936, -0.148, 192.0, 0.0, 0.0, 0.0, 0.0, 0.0, 0.0, 0.0, 0.0, 0.0, 1.666406646397403E9, 0.0, 2022-10-21 19:44:06.397
98.0, -140983.58344836038, -149730.55866128908, 95.41959707970585, -109979.6128248707, 77059.94123935, -71349.65167637488, 72688.61057622559, -110485.79042980558, -0.054, 0.936, -0.148, 192.0, 0.0, 0.0, 0.0, 0.0, 0.0, 0.0, 0.0, 0.0, 0.0, 1.6664066463974154E9, 0.0, 2022-10-21 19:44:06.397
99.0, -140983.78461406048, -149730.60336477798, 81.60621900632609, -109992.42037444358, 77061.46115797295, -71441.31618038609, 72619.61074109207, -110522.91667734584, -0.054, 0.936, -0.148, 192.0, 0.0, 0.0, 0.0, 0.0, 0.0, 0.0, 0.0, 0.0, 0.0, 1.666406646397428E9, 0.0, 2022-10-21 19:44:06.397
100.0, -140979.13545121378, -149724.5907455195, 75.45948928111665, -109982.965586539, 77063.9869050964, -71525.11287034904, 72592.8333512346, -110506.33168296001, -0.054, 0.936, -0.148, 192.0, 0.0, 0.0, 0.0, 0.0, 0.0, 0.0, 0.0, 0.0, 0.0, 1.6664066463974404E9, 0.0, 2022-10-21 19:44:06.397
101.0, -140992.6806083537, -149738.87351022643, 47.94449185663365, -109980.10456324871, 77053.41452996904, -71445.36184613251, 72646.45518618288, -110487.73503157319, -0.054, 0.936, -0.148, 192.0, 0.0, 0.0, 0.0, 0.0, 0.0, 0.0, 0.0, 0.0, 0.0, 1.6664066463974524E9, 0.0, 2022-10-21 19:44:06.397
102.0, -140997.06155026692, -149748.12713243093, 34.24287250553042, -109995.90724657862, 77041.38929145208, -71360.35816196896, 72676.2053580529, -110506.82342133802, -0.054, 0.936, -0.148, 192.0, 0.0, 0.0, 0.0, 0.0, 0.0, 0.0, 0.0, 0.0, 0.0, 1.6664066463974652E9, 0.0, 2022-10-21 19:44:06.397
103.0, -140987.6291141068, -149740.52753931613, 30.845407348323747, -109999.0141390579, 77048.18422176651, -71430.8108604921, 72624.32695917213, -110534.0925495735, -0.054, 0.936, -0.148, 192.0, 0.0, 0.0, 0.0, 0.0, 0.0, 0.0, 0.0, 0.0, 0.0, 1.6664066463974776E9, 0.0, 2022-10-21 19:44:06.397
104.0, -140989.75252983006, -149741.9580509613, 15.579165885349022, -110002.12103153719, 77042.75274786387, -71536.44520478787, 72572.94029866937, -110539.9934101097, -0.054, 0.936, -0.148, 192.0, 0.0, 0.0, 0.0, 0.0, 0.0, 0.0, 0.0, 0.0, 0.0, 1.6664066463975008E9, 0.0, 2022-10-21 19:44:06.397
105.0, -140997.64269562278, -149749.62469930944, 1.1399389672206601, -109988.62057788618, 77041.29988447427, -71474.30735520212, 72626.45037489539, -110505.0352817816, -0.058, 0.9500000000000001, -0.13, 192.0, 254.0, 48.0, 29.0, 176.0, 251.0, 240.0, 0.0, 0.0, 0.0, 1.6664066463975132E9, 0.0, 2022-10-21 19:44:06.397
106.0, -141005.2422887376, -149753.08921970002, -16.517939152471918, -109989.89462732013, 77034.2367332264, -71366.86251960546, 72675.3559917636, -110500.31906370152, -0.058, 0.9500000000000001, -0.13, 192.0, 0.0, 0.0, 0.0, 0.0, 0.0, 0.0, 0.0, 0.0, 0.0, 1.6664066463975265E9, 0.0, 2022-10-21 19:44:06.397
107.0, -140989.8195850634, -149740.61694629394, -21.345915954818246, -109998.43299370207, 77034.66141637105, -71416.52809578516, 72627.00916850676, -110542.98854386671, -0.058, 0.9500000000000001, -0.13, 192.0, 0.0, 0.0, 0.0, 0.0, 0.0, 0.0, 0.0, 0.0, 0.0, 1.666406646397539E9, 0.0, 2022-10-21 19:44:06.397
108.0, -140985.05866349445, -149740.86281548295, -27.671459635670143, -109993.91794132208, 77046.19491650998, -71518.02736735671, 72580.42813306191, -110536.03715134111, -0.058, 0.9500000000000001, -0.13, 192.0, 0.0, 0.0, 0.0, 0.0, 0.0, 0.0, 0.0, 0.0, 0.0, 1.6664066463975513E9, 0.0, 2022-10-21 19:44:06.397
109.0, -140992.94882928717, -149745.6013853075, -42.04363132043258, -109982.27268246087, 77043.40094845307, -71494.13335253399, 72615.92270325693, -110499.67086311232, -0.058, 0.9500000000000001, -0.13, 192.0, 0.0, 0.0, 0.0, 0.0, 0.0, 0.0, 0.0, 0.0, 0.0, 1.6664066463975637E9, 0.0, 2022-10-21 19:44:06.397
110.0, -140996.16748048872, -149747.97067021974, -54.58295995985985, -109975.81302831329, 77043.91503857553, -71373.97037434226, 72678.17231156497, -110492.96533977574, -0.058, 0.9500000000000001, -0.13, 192.0, 0.0, 0.0, 0.0, 0.0, 0.0, 0.0, 0.0, 0.0, 0.0, 1.6664066463975756E9, 0.0, 2022-10-21 19:44:06.397
111.0, -140995.0275415215, -149746.83073125253, -64.77535543147987, -109989.00055754192, 77042.66334088604, -71391.27062455066, 72643.1471280035, -110526.20238378076, -0.058, 0.9500000000000001, -0.13, 192.0, 0.0, 0.0, 0.0, 0.0, 0.0, 0.0, 0.0, 0.0, 0.0, 1.6664066463975887E9, 0.0, 2022-10-21 19:44:06.397
112.0, -140988.63494260728, -149744.48379808472, -70.20682933411949, -109994.16381051109, 77045.65847464306, -71513.04292834317, 72577.09772313807, -110547.74946543569, -0.058, 0.9500000000000001, -0.13, 192.0, 0.0, 0.0, 0.0, 0.0, 0.0, 0.0, 0.0, 0.0, 0.0, 1.666406646397602E9, 0.0, 2022-10-21 19:44:06.397
113.0, -140987.1150239843, -149742.2039201503, -72.21848633509713, -109970.06862998828, 77057.32608524873, -71505.10805906155, 72606.98200547481, -110525.42007272484, -0.058, 0.9500000000000001, -0.13, 192.0, 0.0, 0.0, 0.0, 0.0, 0.0, 0.0, 0.0, 0.0, 0.0, 1.666406646397614E9, 0.0, 2022-10-21 19:44:06.397
114.0, -140994.49109965458, -149747.61304230845, -88.40114932073944, -109969.3533741657, 77052.00637006837, -71374.90914760937, 72678.99932610981, -110496.25104621066, -0.056, 0.9540000000000001, -0.136, 192.0, 254.0, 64.0, 29.0, 208.0, 251.0, 192.0, 0.0, 0.0, 0.0, 1.6664066463976262E9, 0.0, 2022-10-21 19:44:06.397
115.0, -140991.272448453, -149743.43326609532, -101.2757541269963, -109982.5632551388, 77038.75178560636, -71370.1482260404, 72658.43572121093, -110531.9914855947, -0.056, 0.9540000000000001, -0.136, 192.0, 0.0, 0.0, 0.0, 0.0, 0.0, 0.0, 0.0, 0.0, 0.0, 1.6664066463976393E9, 0.0, 2022-10-21 19:44:06.397
116.0, -140990.15486123026, -149743.81324575105, -110.50702458703812, -109991.66041513211, 77036.85188732766, -71502.49290496027, 72582.81976971863, -110549.76112243667, -0.056, 0.9540000000000001, -0.136, 192.0, 0.0, 0.0, 0.0, 0.0, 0.0, 0.0, 0.0, 0.0, 0.0, 1.6664066463976514E9, 0.0, 2022-10-21 19:44:06.397
117.0, -141000.39196019078, -149753.8491790115, -130.73535331909102, -109989.7605168534, 77038.21534373943, -71530.52199250723, 72585.56903428663, -110533.53375596211, -0.056, 0.9540000000000001, -0.136, 192.0, 0.0, 0.0, 0.0, 0.0, 0.0, 0.0, 0.0, 0.0, 0.0, 1.6664066463976636E9, 0.0, 2022-10-21 19:44:06.397
118.0, -141004.4376259372, -149756.44198136832, -139.251367956563, -109972.5049701339, 77042.57393390822, -71417.22099986328, 72657.20637526589, -110505.86229632644, -0.056, 0.9540000000000001, -0.136, 192.0, 0.0, 0.0, 0.0, 0.0, 0.0, 0.0, 0.0, 0.0, 0.0, 1.6664066463976758E9, 0.0, 2022-10-21 19:44:06.397
119.0, -141006.4939864271, -149758.85596976947, -153.8694088303338, -109977.712926592, 77038.66237862855, -71372.42810397483, 72663.46486371338, -110523.34136049049, -0.056, 0.9540000000000001, -0.136, 192.0, 0.0, 0.0, 0.0, 0.0, 0.0, 0.0, 0.0, 0.0, 0.0, 1.6664066463976996E9, 0.0, 2022-10-21 19:44:06.397
120.0, -141002.4259689362, -149753.80447552257, -163.23478975710748, -109993.33679596626, 77038.01417803935, -71477.59306163706, 72597.08018268111, -110554.36558179445, -0.056, 0.9540000000000001, -0.136, 192.0, 0.0, 0.0, 0.0, 0.0, 0.0, 0.0, 0.0, 0.0, 0.0, 1.666406646397712E9, 0.0, 2022-10-21 19:44:06.397
121.0, -141000.2354979796, -149748.88709174242, -169.6273886713253, -109974.76249632389, 77056.05203581478, -71529.7843849402, 72592.5874820456, -110529.13046230441, -0.056, 0.9540000000000001, -0.136, 192.0, 0.0, 0.0, 0.0, 0.0, 0.0, 0.0, 0.0, 0.0, 0.0, 1.6664066468741128E9, 0.0, 2022-10-21 19:44:06.874
122.0, -141017.289878999, -149763.48278087174, -199.7575401970792, -109973.06376374529, 77048.65360840007, -71420.17143013138, 72657.0946165436, -110500.98961603518, -0.056, 0.9540000000000001, -0.136, 192.0, 0.0, 0.0, 0.0, 0.0, 0.0, 0.0, 0.0, 0.0, 0.0, 1.6664066468741903E9, 0.0, 2022-10-21 19:44:06.874
123.0, -141028.0857715709, -149776.603254867, -227.2501858771069, -110001.20461001452, 77021.74210807588, -71365.7002288938, 72662.3472764906, -110533.8913838734, -0.056, 0.9540000000000001, -0.136, 192.0, 0.0, 0.0, 0.0, 0.0, 0.0, 0.0, 0.0, 0.0, 0.0, 1.6664066468742328E9, 0.0, 2022-10-21 19:44:06.874
124.0, -141013.66889639723, -149767.90842627388, -221.99752593010976, -110002.79158387084, 77033.14149774809, -71446.34532288853, 72604.56801707365, -110564.78149471064, -0.054, 0.9500000000000001, -0.14200000000000002, 192.0, 254.0, 80.0, 29.0, 176.0, 251.0, 144.0, 0.0, 0.0, 0.0, 1.6664066468742852E9, 0.0, 2022-10-21 19:44:06.874
125.0, -140997.1286055003, -149750.51876908765, -213.48151129263775, -109980.12691499316, 77052.27459100183, -71523.4811930038, 72586.39604883148, -110546.31895379054, -0.054, 0.9500000000000001, -0.14200000000000002, 192.0, 0.0, 0.0, 0.0, 0.0, 0.0, 0.0, 0.0, 0.0, 0.0, 1.6664066468743236E9, 0.0, 2022-10-21 19:44:06.874
126.0, -141008.46093993913, -149759.99590873672, -231.27349987906217, -109972.72848757845, 77047.73718687739, -71454.14608170344, 72641.96248554737, -110515.13827027539, -0.054, 0.9500000000000001, -0.14200000000000002, 192.0, 0.0, 0.0, 0.0, 0.0, 0.0, 0.0, 0.0, 0.0, 0.0, 1.6664066468743398E9, 0.0, 2022-10-21 19:44:06.874
127.0, -141002.56007940293, -149753.15627493337, -237.12965692635262, -109964.30187991881, 77052.7886811243, -71341.67210360433, 72695.40550654, -110498.30740670055, -0.054, 0.9500000000000001, -0.14200000000000002, 192.0, 0.0, 0.0, 0.0, 0.0, 0.0, 0.0, 0.0, 0.0, 0.0, 1.666406646874356E9, 0.0, 2022-10-21 19:44:06.874
128.0, -140987.7185210846, -149739.4546555823, -235.00624120309845, -109970.67212708858, 77054.37565498063, -71414.53879052863, 72638.78853783471, -110534.15960480686, -0.054, 0.9500000000000001, -0.14200000000000002, 192.0, 0.0, 0.0, 0.0, 0.0, 0.0, 0.0, 0.0, 0.0, 0.0, 1.666406646874372E9, 0.0, 2022-10-21 19:44:06.874
129.0, -141000.3249049574, -149751.7034115438, -254.18403794575192, -109990.25225523142, 77047.82659385522, -71530.58904774059, 72579.64582200597, -110553.27034631615, -0.054, 0.9500000000000001, -0.14200000000000002, 192.0, 0.0, 0.0, 0.0, 0.0, 0.0, 0.0, 0.0, 0.0, 0.0, 1.666406646874388E9, 0.0, 2022-10-21 19:44:06.874
130.0, -141013.8924138418, -149760.97938549274, -273.87592481087745, -109983.457324917, 77041.8363263412, -71478.46477967082, 72625.01986325024, -110524.30248550206, -0.054, 0.9500000000000001, -0.14200000000000002, 192.0, 0.0, 0.0, 0.0, 0.0, 0.0, 0.0, 0.0, 0.0, 0.0, 1.6664066468744037E9, 0.0, 2022-10-21 19:44:06.874
131.0, -141026.49879771456, -149769.96478676377, -287.95752381772087, -109977.19883646951, 77041.65751238556, -71348.95877229677, 72687.69415470293, -110510.55616266206, -0.054, 0.9500000000000001, -0.14200000000000002, 192.0, 0.0, 0.0, 0.0, 0.0, 0.0, 0.0, 0.0, 0.0, 0.0, 1.6664066468744192E9, 0.0, 2022-10-21 19:44:06.874
132.0, -141030.92444311673, -149774.9939292662, -301.502680957637, -110000.17642976958, 77025.45249765545, -71395.96449088627, 72631.41246216446, -110562.3004510761, -0.054, 0.9500000000000001, -0.14200000000000002, 192.0, 0.0, 0.0, 0.0, 0.0, 0.0, 0.0, 0.0, 0.0, 0.0, 1.6664066468744347E9, 0.0, 2022-10-21 19:44:06.874
133.0, -141022.22961452362, -149769.74126931923, -306.017733337609, -110004.33385423826, 77025.6313116111, -71528.39857678396, 72565.13953985447, -110564.2003493548, -0.054, 0.9500000000000001, -0.14200000000000002, 192.0, 0.0, 0.0, 0.0, 0.0, 0.0, 0.0, 0.0, 0.0, 0.0, 1.666406646874458E9, 0.0, 2022-10-21 19:44:06.874
134.0, -141019.1897772777, -149764.86858902796, -309.1022740724414, -109980.77511558236, 77039.57880015121, -71497.88844560247, 72608.03253746421, -110524.54835469108, -0.054, 0.9500000000000001, -0.146, 192.0, 254.0, 80.0, 29.0, 176.0, 251.0, 112.0, 0.0, 0.0, 0.0, 1.6664066468745413E9, 0.0, 2022-10-21 19:44:06.874
135.0, -141022.3860767348, -149770.3000629306, -320.21109106672895, -109982.58560688325, 77030.95102679146, -71380.85471163449, 72673.903128374, -110519.47450869973, -0.054, 0.9500000000000001, -0.146, 192.0, 0.0, 0.0, 0.0, 0.0, 0.0, 0.0, 0.0, 0.0, 0.0, 1.6664066468745584E9, 0.0, 2022-10-21 19:44:06.874
136.0, -141017.35693423235, -149767.50609487368, -328.0118498816311, -109992.64389188813, 77029.60992212415, -71390.26479605018, 72647.81864259466, -110557.67363997384, -0.054, 0.9500000000000001, -0.146, 192.0, 0.0, 0.0, 0.0, 0.0, 0.0, 0.0, 0.0, 0.0, 0.0, 1.666406646874574E9, 0.0, 2022-10-21 19:44:06.874
137.0, -141009.0867887839, -149758.45363836928, -324.01088762413116, -109992.64389188813, 77037.03070128331, -71507.45499222935, 72585.92666219792, -110555.4384655283, -0.054, 0.9500000000000001, -0.146, 192.0, 0.0, 0.0, 0.0, 0.0, 0.0, 0.0, 0.0, 0.0, 0.0, 1.6664066468745902E9, 0.0, 2022-10-21 19:44:06.874
138.0, -141010.36083821784, -149759.68298431434, -333.71154471773445, -109981.73624059395, 77040.04818678477, -71524.82229767113, 72598.86832223754, -110534.9419158628, -0.054, 0.9500000000000001, -0.146, 192.0, 0.0, 0.0, 0.0, 0.0, 0.0, 0.0, 0.0, 0.0, 0.0, 1.6664066468746057E9, 0.0, 2022-10-21 19:44:06.874
139.0, -141013.2889167415, -149764.33214716104, -345.44621055677067, -109968.63811834314, 77046.66430314354, -71389.63894720543, 72680.09456158812, -110508.20922949426, -0.054, 0.9500000000000001, -0.146, 192.0, 0.0, 0.0, 0.0, 0.0, 0.0, 0.0, 0.0, 0.0, 0.0, 1.6664066468746212E9, 0.0, 2022-10-21 19:44:06.874
140.0, -141014.11593128633, -149764.91329251687, -357.5832077960024, -109978.27172020337, 77042.79745135277, -71357.00540030068, 72674.1042940741, -110535.1877850518, -0.054, 0.9500000000000001, -0.146, 192.0, 0.0, 0.0, 0.0, 0.0, 0.0, 0.0, 0.0, 0.0, 0.0, 1.666406646874637E9, 0.0, 2022-10-21 19:44:06.874
141.0, -141014.16063477524, -149756.01729822365, -369.0496527015749, -109988.59822614172, 77039.10941351765, -71481.97400355029, 72591.40283958946, -110579.73481175123, -0.054, 0.9500000000000001, -0.146, 192.0, 0.0, 0.0, 0.0, 0.0, 0.0, 0.0, 0.0, 0.0, 0.0, 1.6664066468746526E9, 0.0, 2022-10-21 19:44:06.874
142.0, -141017.80396912145, -149763.10280121598, -383.9135627643541, -109977.33294693625, 77041.07636702972, -71523.59295172608, 72586.19488313138, -110561.92047142035, -0.054, 0.9500000000000001, -0.146, 192.0, 0.0, 0.0, 0.0, 0.0, 0.0, 0.0, 0.0, 0.0, 0.0, 1.6664066468746684E9, 0.0, 2022-10-21 19:44:06.874
143.0, -141032.46671348414, -149788.8520108285, -407.27113572014997, -109982.45149641651, 77026.95006453396, -71431.07908142556, 72646.43283443843, -110540.82042465454, -0.052000000000000005, 0.9560000000000001, -0.154, 192.0, 254.0, 96.0, 29.0, 224.0, 251.0, 48.0, 0.0, 0.0, 0.0, 1.6664066468746865E9, 0.0, 2022-10-21 19:44:06.874
144.0, -141027.75049540406, -149776.69266184483, -400.2973914500942, -109978.09290624774, 77038.81884083973, -71361.9898393142, 72673.41138999598, -110549.60466022548, -0.052000000000000005, 0.9560000000000001, -0.154, 192.0, 0.0, 0.0, 0.0, 0.0, 0.0, 0.0, 0.0, 0.0, 0.0, 1.6664066468747034E9, 0.0, 2022-10-21 19:44:06.874
145.0, -141019.70386740015, -149766.27674892865, -399.62683911643495, -109981.15509523811, 77047.64777989958, -71458.34820966104, 72609.93243574291, -110572.47049480326, -0.052000000000000005, 0.9560000000000001, -0.154, 192.0, 0.0, 0.0, 0.0, 0.0, 0.0, 0.0, 0.0, 0.0, 0.0, 1.6664066468747191E9, 0.0, 2022-10-21 19:44:06.874
146.0, -141018.22865226612, -149766.67908032885, -412.3002782225941, -109978.98697602595, 77046.82076535473, -71534.634713487, 72586.59721453158, -110564.15564586589, -0.052000000000000005, 0.9560000000000001, -0.154, 192.0, 0.0, 0.0, 0.0, 0.0, 0.0, 0.0, 0.0, 0.0, 0.0, 1.666406646874735E9, 0.0, 2022-10-21 19:44:06.874
147.0, -141020.6873441562, -149771.73057457575, -417.3517724694935, -109962.82666478476, 77054.77798638082, -71434.99063670525, 72666.28118351474, -110519.40745346635, -0.052000000000000005, 0.9560000000000001, -0.154, 192.0, 0.0, 0.0, 0.0, 0.0, 0.0, 0.0, 0.0, 0.0, 0.0, 1.6664066468747509E9, 0.0, 2022-10-21 19:44:06.874
148.0, -141021.11202730084, -149772.37877516495, -425.15253128439565, -109964.79361829683, 77055.02385556983, -71345.06956876154, 72703.31802407719, -110519.51921218864, -0.052000000000000005, 0.9560000000000001, -0.154, 192.0, 0.0, 0.0, 0.0, 0.0, 0.0, 0.0, 0.0, 0.0, 0.0, 1.6664066468747666E9, 0.0, 2022-10-21 19:44:06.874
149.0, -141006.96337306063, -149759.61592908096, -427.0300778186414, -109972.0579352448, 77061.34939925068, -71418.4056423194, 72647.30455247218, -110549.090570103, -0.052000000000000005, 0.9560000000000001, -0.154, 192.0, 0.0, 0.0, 0.0, 0.0, 0.0, 0.0, 0.0, 0.0, 0.0, 1.6664066468747976E9, 0.0, 2022-10-21 19:44:06.874
150.0, -141005.64462013778, -149757.69367905782, -441.5363599701357, -109981.42331617157, 77055.09091080319, -71518.00501561225, 72604.41155486245, -110550.9904683817, -0.052000000000000005, 0.9560000000000001, -0.154, 192.0, 0.0, 0.0, 0.0, 0.0, 0.0, 0.0, 0.0, 0.0, 0.0, 1.6664066468748133E9, 0.0, 2022-10-21 19:44:06.874
151.0, -141019.4356464667, -149768.73544081874, -460.62474973496796, -109970.76153406639, 77050.01706481184, -71451.9109072579, 72655.48529094283, -110528.52696520412, -0.052000000000000005, 0.9560000000000001, -0.154, 192.0, 0.0, 0.0, 0.0, 0.0, 0.0, 0.0, 0.0, 0.0, 0.0, 1.6664066468748283E9, 0.0, 2022-10-21 19:44:06.874
152.0, -141028.82337913793, -149776.67031010037, -482.86473546799846, -109980.57394988227, 77036.09192801618, -71344.73429259472, 72695.45021002891, -110527.342322748, -0.052000000000000005, 0.9560000000000001, -0.154, 192.0, 0.0, 0.0, 0.0, 0.0, 0.0, 0.0, 0.0, 0.0, 0.0, 1.666406646874844E9, 0.0, 2022-10-21 19:44:06.874
153.0, -141023.16838779073, -149774.099859488, -492.4536338393252, -110002.52336293738, 77022.16679122053, -71416.81866846308, 72634.13937498801, -110561.4957882757, -0.054, 0.9520000000000001, -0.146, 192.0, 254.0, 80.0, 29.0, 192.0, 251.0, 112.0, 0.0, 0.0, 0.0, 1.666406646874861E9, 0.0, 2022-10-21 19:44:06.874
154.0, -141021.8943383568, -149774.59159786603, -499.9861717207637, -109997.44951694603, 77027.71002384544, -71532.46659427484, 72576.1813016154, -110570.81646571356, -0.054, 0.9520000000000001, -0.146, 192.0, 0.0, 0.0, 0.0, 0.0, 0.0, 0.0, 0.0, 0.0, 0.0, 1.6664066468748755E9, 0.0, 2022-10-21 19:44:06.874
155.0, -141025.89530061427, -149776.33503393354, -513.9336602608753, -109986.49716216292, 77030.99573028037, -71488.45600944234, 72618.9401887584, -110539.05463684257, -0.054, 0.9520000000000001, -0.146, 192.0, 0.0, 0.0, 0.0, 0.0, 0.0, 0.0, 0.0, 0.0, 0.0, 1.6664066468748908E9, 0.0, 2022-10-21 19:44:06.874
156.0, -141033.07021058444, -149780.58186538005, -525.6459743554562, -109987.05595577431, 77027.1288784896, -71376.02673483214, 72680.69805868842, -110526.20238378076, -0.054, 0.9520000000000001, -0.146, 192.0, 0.0, 0.0, 0.0, 0.0, 0.0, 0.0, 0.0, 0.0, 0.0, 1.6664066468749044E9, 0.0, 2022-10-21 19:44:06.874
157.0, -141030.45505648316, -149780.73832759124, -535.3466314490595, -109993.51560992189, 77030.66045411355, -71392.2988047956, 72646.9469245609, -110565.76497146666, -0.054, 0.9520000000000001, -0.146, 192.0, 0.0, 0.0, 0.0, 0.0, 0.0, 0.0, 0.0, 0.0, 0.0, 1.6664066468749182E9, 0.0, 2022-10-21 19:44:06.874
158.0, -141023.90599535775, -149772.46818214277, -543.1250385195063, -109992.24156048794, 77032.85092507016, -71517.22270455632, 72575.08606613708, -110590.73187002324, -0.054, 0.9520000000000001, -0.146, 192.0, 0.0, 0.0, 0.0, 0.0, 0.0, 0.0, 0.0, 0.0, 0.0, 1.6664066468749316E9, 0.0, 2022-10-21 19:44:06.874
159.0, -141024.12951280232, -149771.86468504247, -546.5448554211683, -109978.09290624774, 77038.61767513963, -71516.12746907801, 72605.59619731858, -110552.73390444923, -0.054, 0.9520000000000001, -0.146, 192.0, 0.0, 0.0, 0.0, 0.0, 0.0, 0.0, 0.0, 0.0, 0.0, 1.6664066468749452E9, 0.0, 2022-10-21 19:44:06.874
160.0, -141033.49489372908, -149781.58769388054, -554.3456142360704, -109975.09777249071, 77040.27170422932, -71383.2463482912, 72681.68153544444, -110524.838927369, -0.054, 0.9520000000000001, -0.146, 192.0, 0.0, 0.0, 0.0, 0.0, 0.0, 0.0, 0.0, 0.0, 0.0, 1.6664066468749588E9, 0.0, 2022-10-21 19:44:06.874
161.0, -141038.36757402035, -149785.43219392686, -569.7236144213217, -109992.64389188813, 77031.35335819166, -71384.47569423624, 72655.23942175382, -110556.26548007315, -0.054, 0.9520000000000001, -0.146, 192.0, 0.0, 0.0, 0.0, 0.0, 0.0, 0.0, 0.0, 0.0, 0.0, 1.666406646874972E9, 0.0, 2022-10-21 19:44:06.874
162.0, -141036.62413795284, -149780.73832759124, -573.6575214454558, -109994.34262446674, 77036.00252103836, -71498.06725955811, 72583.95970868584, -110587.58027405504, -0.054, 0.9520000000000001, -0.146, 192.0, 0.0, 0.0, 0.0, 0.0, 0.0, 0.0, 0.0, 0.0, 0.0, 1.6664066468749857E9, 0.0, 2022-10-21 19:44:06.874
163.0, -141023.45896046865, -149768.91425477437, -536.1512942494505, -109971.43208640005, 77051.84990785718, -71518.34029177908, 72606.22204616333, -110542.76502642216, -0.054, 0.9480000000000001, -0.14, 192.0, 254.0, 80.0, 29.0, 160.0, 251.0, 160.0, 0.0, 0.0, 0.0, 1.6664066468749995E9, 0.0, 2022-10-21 19:44:06.874
164.0, -141027.92930935972, -149773.20578970978, -514.8053782946323, -109963.29605141832, 77051.60403866817, -71396.92561589785, 72682.08386684464, -110513.64070339689, -0.054, 0.9480000000000001, -0.14, 192.0, 0.0, 0.0, 0.0, 0.0, 0.0, 0.0, 0.0, 0.0, 0.0, 1.6664066468750265E9, 0.0, 2022-10-21 19:44:06.875
165.0, -141033.40548675126, -149781.27476945816, -499.4944333427469, -109973.53315037885, 77047.26780024383, -71347.03652227361, 72681.36861102207, -110541.15570082137, -0.054, 0.9480000000000001, -0.14, 192.0, 0.0, 0.0, 0.0, 0.0, 0.0, 0.0, 0.0, 0.0, 0.0, 1.66640664687504E9, 0.0, 2022-10-21 19:44:06.875
166.0, -141020.66499241174, -149768.69073732983, -466.23503759325, -109976.41652541359, 77052.60986716865, -71461.54450911815, 72607.60785431956, -110564.93795692181, -0.054, 0.9480000000000001, -0.14, 192.0, 0.0, 0.0, 0.0, 0.0, 0.0, 0.0, 0.0, 0.0, 0.0, 1.666406646875054E9, 0.0, 2022-10-21 19:44:06.875
167.0, -141027.1917017927, -149775.5974263665, -455.1485723434177, -109973.60020561221, 77054.91209684755, -71507.96908235182, 72589.90527271095, -110556.10901786198, -0.054, 0.9480000000000001, -0.14, 192.0, 0.0, 0.0, 0.0, 0.0, 0.0, 0.0, 0.0, 0.0, 0.0, 1.6664066468750672E9, 0.0, 2022-10-21 19:44:06.875
168.0, -141031.39382975028, -149781.31947294707, -437.55774945709106, -109963.18429269604, 77054.59917242518, -71401.57477874456, 72663.24134626881, -110528.05757857056, -0.054, 0.9480000000000001, -0.14, 192.0, 0.0, 0.0, 0.0, 0.0, 0.0, 0.0, 0.0, 0.0, 0.0, 1.6664066468750808E9, 0.0, 2022-10-21 19:44:06.875
169.0, -141030.83503613892, -149782.52646714766, -417.61999340295716, -109964.43599038554, 77055.5826491812, -71329.80332729856, 72690.42106752648, -110537.2888490306, -0.054, 0.9480000000000001, -0.14, 192.0, 0.0, 0.0, 0.0, 0.0, 0.0, 0.0, 0.0, 0.0, 0.0, 1.6664066468750947E9, 0.0, 2022-10-21 19:44:06.875
170.0, -141028.13047505982, -149775.88799904444, -404.6559816188791, -109979.16578998159, 77051.89461134608, -71426.8546017235, 72619.07429922513, -110579.15366639539, -0.054, 0.9480000000000001, -0.14, 192.0, 0.0, 0.0, 0.0, 0.0, 0.0, 0.0, 0.0, 0.0, 0.0, 1.6664066468751082E9, 0.0, 2022-10-21 19:44:06.875
171.0, -141035.19362630768, -149781.02890026916, -395.3129524365607, -109978.38347892565, 77052.05107355728, -71506.96325385133, 72588.1841883879, -110576.00207042719, -0.054, 0.9480000000000001, -0.14, 192.0, 0.0, 0.0, 0.0, 0.0, 0.0, 0.0, 0.0, 0.0, 0.0, 1.6664066468751216E9, 0.0, 2022-10-21 19:44:06.875
172.0, -141028.041068082, -149776.0444612556, -373.87762950392124, -109955.51764434787, 77058.84600387169, -71429.33564535805, 72658.90510784449, -110533.53375596211, -0.056, 0.9420000000000001, -0.14400000000000002, 192.0, 254.0, 64.0, 29.0, 112.0, 251.0, 128.0, 0.0, 0.0, 0.0, 1.6664066468751352E9, 0.0, 2022-10-21 19:44:06.875
173.0, -141046.01187062406, -149794.3505399645, -378.2809231616167, -109970.24744394392, 77044.25031474237, -71349.69637986379, 72686.68832620243, -110548.26355555817, -0.056, 0.9420000000000001, -0.14400000000000002, 192.0, 0.0, 0.0, 0.0, 0.0, 0.0, 0.0, 0.0, 0.0, 0.0, 1.6664066468751497E9, 0.0, 2022-10-21 19:44:06.875
174.0, -141026.16352154774, -149775.7538885777, -354.4316118278041, -109976.17065622458, 77050.17352702303, -71413.35414807251, 72635.48047965532, -110573.72219249276, -0.056, 0.9420000000000001, -0.14400000000000002, 192.0, 0.0, 0.0, 0.0, 0.0, 0.0, 0.0, 0.0, 0.0, 0.0, 1.6664066468751636E9, 0.0, 2022-10-21 19:44:06.875
175.0, -141020.21795752263, -149772.31171993157, -339.21007385373997, -109968.41460089858, 77058.42132072704, -71508.50552421875, 72593.45920007935, -110572.93988143682, -0.056, 0.9420000000000001, -0.14400000000000002, 192.0, 0.0, 0.0, 0.0, 0.0, 0.0, 0.0, 0.0, 0.0, 0.0, 1.666406646875177E9, 0.0, 2022-10-21 19:44:06.875
176.0, -141023.48131221312, -149775.10568798849, -333.5997859954579, -109960.72560080596, 77054.71093114745, -71449.89925025693, 72646.70105537189, -110535.67952342982, -0.056, 0.9420000000000001, -0.14400000000000002, 192.0, 0.0, 0.0, 0.0, 0.0, 0.0, 0.0, 0.0, 0.0, 0.0, 1.666406646875192E9, 0.0, 2022-10-21 19:44:06.875
177.0, -141021.76022789004, -149772.6022926095, -322.06628585651947, -109959.0045164829, 77053.74980613588, -71337.46997564673, 72705.17321886697, -110521.4861657007, -0.056, 0.9420000000000001, -0.14400000000000002, 192.0, 0.0, 0.0, 0.0, 0.0, 0.0, 0.0, 0.0, 0.0, 0.0, 1.6664066468752055E9, 0.0, 2022-10-21 19:44:06.875
178.0, -141017.9827830771, -149769.51775187466, -312.72325667420114, -109971.0521067443, 77054.26389625834, -71378.41837148886, 72659.01686656677, -110561.80871269808, -0.056, 0.9420000000000001, -0.14400000000000002, 192.0, 0.0, 0.0, 0.0, 0.0, 0.0, 0.0, 0.0, 0.0, 0.0, 1.666406646875219E9, 0.0, 2022-10-21 19:44:06.875
179.0, -141017.781617377, -149769.36128966347, -311.4268554957933, -109989.93933080905, 77042.35041646367, -71507.00795734025, 72590.26290062224, -110582.61818678597, -0.056, 0.9420000000000001, -0.14400000000000002, 192.0, 0.0, 0.0, 0.0, 0.0, 0.0, 0.0, 0.0, 0.0, 0.0, 1.666406646875245E9, 0.0, 2022-10-21 19:44:06.875
180.0, -141030.49975997207, -149781.6994526028, -312.3656287629162, -109986.96654879648, 77033.45442217046, -71500.16832353691, 72618.89548526949, -110555.52787250614, -0.056, 0.9420000000000001, -0.14400000000000002, 192.0, 0.0, 0.0, 0.0, 0.0, 0.0, 0.0, 0.0, 0.0, 0.0, 1.6664066468752596E9, 0.0, 2022-10-21 19:44:06.875
181.0, -141024.82241688043, -149770.41182165287, -296.7641111331119, -109965.82179854177, 77045.07732928722, -71361.5428044251, 72698.9594339084, -110530.1362908049, -0.056, 0.9420000000000001, -0.14400000000000002, 192.0, 0.0, 0.0, 0.0, 0.0, 0.0, 0.0, 0.0, 0.0, 0.0, 1.6664066468752732E9, 0.0, 2022-10-21 19:44:06.875
182.0, -141017.7369138881, -149763.75100180518, -279.68737836925726, -109974.11429573469, 77043.17743100852, -71377.30078426609, 72670.0586283277, -110558.00891614068, -0.06, 0.9460000000000001, -0.14400000000000002, 192.0, 254.0, 32.0, 29.0, 144.0, 251.0, 128.0, 0.0, 0.0, 0.0, 1.6664066468752873E9, 0.0, 2022-10-21 19:44:06.875
183.0, -141034.18779780722, -149786.43802242732, -294.50658494312586, -110000.01996755839, 77025.00546276635, -71520.10607959105, 72581.43396156239, -110590.64246304543, -0.06, 0.9460000000000001, -0.14400000000000002, 192.0, 0.0, 0.0, 0.0, 0.0, 0.0, 0.0, 0.0, 0.0, 0.0, 1.6664066468753018E9, 0.0, 2022-10-21 19:44:06.875
184.0, -141015.3899807203, -149767.39433615142, -269.8302590644669, -109971.96852826698, 77047.11133803264, -71514.09346033257, 72620.79538354819, -110543.23441305572, -0.06, 0.9460000000000001, -0.14400000000000002, 192.0, 0.0, 0.0, 0.0, 0.0, 0.0, 0.0, 0.0, 0.0, 0.0, 1.6664066468753154E9, 0.0, 2022-10-21 19:44:06.875
185.0, -141022.9895738351, -149771.9987955092, -272.2218957211847, -109964.81597004128, 77052.27459100183, -71373.34452549751, 72697.908901919, -110526.15768029186, -0.06, 0.9460000000000001, -0.14400000000000002, 192.0, 0.0, 0.0, 0.0, 0.0, 0.0, 0.0, 0.0, 0.0, 0.0, 1.6664066468753293E9, 0.0, 2022-10-21 19:44:06.875
186.0, -141026.23057678112, -149773.87634204346, -272.46776491019307, -109984.4631534175, 77042.26100948585, -71352.5350514096, 72680.89922438851, -110561.00404989769, -0.06, 0.9460000000000001, -0.14400000000000002, 192.0, 0.0, 0.0, 0.0, 0.0, 0.0, 0.0, 0.0, 0.0, 0.0, 1.666406646875343E9, 0.0, 2022-10-21 19:44:06.875
187.0, -141027.37051574833, -149779.01724326817, -268.4220991637825, -109997.89655183513, 77035.80135533826, -71478.77770409318, 72600.54470307169, -110595.13516368094, -0.06, 0.9460000000000001, -0.14400000000000002, 192.0, 0.0, 0.0, 0.0, 0.0, 0.0, 0.0, 0.0, 0.0, 0.0, 1.666406646875357E9, 0.0, 2022-10-21 19:44:06.875
188.0, -141027.41521923724, -149777.13969673394, -262.3647764163943, -109986.27364471837, 77041.07636702972, -71518.630864457, 72602.06462169465, -110568.17895986784, -0.06, 0.9460000000000001, -0.14400000000000002, 192.0, 0.0, 0.0, 0.0, 0.0, 0.0, 0.0, 0.0, 0.0, 0.0, 1.6664066468753705E9, 0.0, 2022-10-21 19:44:06.875
189.0, -141029.82920763842, -149776.62560661146, -255.88277052435527, -109970.6050718552, 77046.01610255433, -71403.63113923445, 72679.69223018792, -110535.09837807398, -0.06, 0.9460000000000001, -0.14400000000000002, 192.0, 0.0, 0.0, 0.0, 0.0, 0.0, 0.0, 0.0, 0.0, 0.0, 1.666406646875384E9, 0.0, 2022-10-21 19:44:06.875
190.0, -141020.46382671164, -149768.55662686308, -239.40953486079394, -109967.453475887, 77053.90626834707, -71343.68376060532, 72699.4064687975, -110541.82625315503, -0.06, 0.9460000000000001, -0.14400000000000002, 192.0, 0.0, 0.0, 0.0, 0.0, 0.0, 0.0, 0.0, 0.0, 0.0, 1.666406646875398E9, 0.0, 2022-10-21 19:44:06.875
191.0, -141014.78648362, -149764.19803669432, -231.698183023713, -109968.2581386874, 77062.7352074069, -71447.70877930032, 72630.5407441307, -110573.87865470393, -0.06, 0.9460000000000001, -0.14400000000000002, 192.0, 0.0, 0.0, 0.0, 0.0, 0.0, 0.0, 0.0, 0.0, 0.0, 1.666406646875412E9, 0.0, 2022-10-21 19:44:06.875
192.0, -141019.74857088906, -149768.13194371844, -234.96153771418784, -109973.9578335235, 77056.54377419279, -71515.47926848881, 72607.80902001966, -110567.46370404527, -0.052000000000000005, 0.9540000000000001, -0.14400000000000002, 192.0, 254.0, 96.0, 29.0, 208.0, 251.0, 128.0, 0.0, 0.0, 0.0, 1.666406646875426E9, 0.0, 2022-10-21 19:44:06.875
193.0, -141028.97984134912, -149778.07847000106, -238.56016857149228, -109971.8567695447, 77048.74301537788, -71424.19474413333, 72668.73987540482, -110538.56289846456, -0.052000000000000005, 0.9540000000000001, -0.14400000000000002, 192.0, 0.0, 0.0, 0.0, 0.0, 0.0, 0.0, 0.0, 0.0, 0.0, 1.6664066468754413E9, 0.0, 2022-10-21 19:44:06.875
194.0, -141028.91278611575, -149781.99002528074, -236.3920493593275, -109977.77998182536, 77041.50105017437, -71347.99764728518, 72692.99151813884, -110551.3927997819, -0.052000000000000005, 0.9540000000000001, -0.14400000000000002, 192.0, 0.0, 0.0, 0.0, 0.0, 0.0, 0.0, 0.0, 0.0, 0.0, 1.6664066468754668E9, 0.0, 2022-10-21 19:44:06.875
195.0, -141030.54446346097, -149781.02890026916, -236.0791249369532, -109992.19685699903, 77040.94225656298, -71433.42601459337, 72623.25407543828, -110590.21777990078, -0.052000000000000005, 0.9540000000000001, -0.14400000000000002, 192.0, 0.0, 0.0, 0.0, 0.0, 0.0, 0.0, 0.0, 0.0, 0.0, 1.6664066468754811E9, 0.0, 2022-10-21 19:44:06.875
196.0, -141032.73493441762, -149783.97933053726, -238.76133427159004, -109990.1628482536, 77039.39998619557, -71519.03319585719, 72584.49615055278, -110585.5015618207, -0.052000000000000005, 0.9540000000000001, -0.14400000000000002, 192.0, 0.0, 0.0, 0.0, 0.0, 0.0, 0.0, 0.0, 0.0, 0.0, 1.6664066468754969E9, 0.0, 2022-10-21 19:44:06.875
197.0, -141037.56291121995, -149789.0084730397, -237.80020926001183, -109979.6575283596, 77033.78969833729, -71448.66990431189, 72641.4483954249, -110555.90785216188, -0.052000000000000005, 0.9540000000000001, -0.14400000000000002, 192.0, 0.0, 0.0, 0.0, 0.0, 0.0, 0.0, 0.0, 0.0, 0.0, 1.6664066468755116E9, 0.0, 2022-10-21 19:44:06.875
198.0, -141035.05951584096, -149785.83452532705, -232.14521791281916, -109978.24936845891, 77034.14732624857, -71348.77995834113, 72690.17519833747, -110543.54733747808, -0.052000000000000005, 0.9540000000000001, -0.14400000000000002, 192.0, 0.0, 0.0, 0.0, 0.0, 0.0, 0.0, 0.0, 0.0, 0.0, 1.6664066468755255E9, 0.0, 2022-10-21 19:44:06.875
199.0, -141038.88166414283, -149788.33792070602, -235.22975864765152, -109998.43299370207, 77029.58757037969, -71410.42606954886, 72631.7477383313, -110590.73187002324, -0.052000000000000005, 0.9540000000000001, -0.14400000000000002, 192.0, 0.0, 0.0, 0.0, 0.0, 0.0, 0.0, 0.0, 0.0, 0.0, 1.6664066468755388E9, 0.0, 2022-10-21 19:44:06.875
200.0, -141040.02160311004, -149783.06290901458, -231.6534795348024, -110006.47962170598, 77022.61382610963, -71527.16923083893, 72576.09189463758, -110599.44905036081, -0.052000000000000005, 0.9540000000000001, -0.14400000000000002, 192.0, 0.0, 0.0, 0.0, 0.0, 0.0, 0.0, 0.0, 0.0, 0.0, 1.6664066468755522E9, 0.0, 2022-10-21 19:44:06.875
201.0, -141030.05272508296, -149771.23883619774, -210.441674046716, -109969.5545398658, 77041.72456761892, -71477.5707098926, 72641.56015414717, -110534.45017748477, -0.052000000000000005, 0.9540000000000001, -0.14400000000000002, 192.0, 0.0, 0.0, 0.0, 0.0, 0.0, 0.0, 0.0, 0.0, 0.0, 1.6664066468755658E9, 0.0, 2022-10-21 19:44:06.875
202.0, -141030.61151869435, -149773.92104553236, -204.7866826995233, -109957.46224611548, 77052.90043984658, -71349.47286241924, 72713.42101257098, -110505.95170330426, -0.052000000000000005, 0.9520000000000001, -0.148, 192.0, 254.0, 96.0, 29.0, 192.0, 251.0, 96.0, 0.0, 0.0, 0.0, 1.6664066468755796E9, 0.0, 2022-10-21 19:44:06.875
203.0, -141032.62317569533, -149778.21258046778, -211.87218569185563, -109986.78773484085, 77043.11037577516, -71372.2492900192, 72667.48817771532, -110563.17216910985, -0.052000000000000005, 0.9520000000000001, -0.148, 192.0, 0.0, 0.0, 0.0, 0.0, 0.0, 0.0, 0.0, 0.0, 0.0, 1.666406646875594E9, 0.0, 2022-10-21 19:44:06.875
204.0, -141027.54932970396, -149774.1445629769, -212.56508976997017, -109996.62250240118, 77034.12497450411, -71501.5764834376, 72594.35326985756, -110589.03313744464, -0.052000000000000005, 0.9520000000000001, -0.148, 192.0, 0.0, 0.0, 0.0, 0.0, 0.0, 0.0, 0.0, 0.0, 0.0, 1.6664066468756077E9, 0.0, 2022-10-21 19:44:06.875
205.0, -141034.94775711867, -149783.5546473926, -214.71085723767965, -109988.03943253035, 77033.32031170372, -71495.60856766804, 72621.62239809304, -110552.75625619368, -0.052000000000000005, 0.9520000000000001, -0.148, 192.0, 0.0, 0.0, 0.0, 0.0, 0.0, 0.0, 0.0, 0.0, 0.0, 1.6664066468756216E9, 0.0, 2022-10-21 19:44:06.875
206.0, -141043.8884549008, -149788.06969977258, -213.54856652600367, -109980.35043243771, 77034.75082334886, -71363.8003306151, 72694.1091053616, -110537.4453112418, -0.052000000000000005, 0.9520000000000001, -0.148, 192.0, 0.0, 0.0, 0.0, 0.0, 0.0, 0.0, 0.0, 0.0, 0.0, 1.666406646875635E9, 0.0, 2022-10-21 19:44:06.875
207.0, -141034.50072222957, -149776.4467926558, -196.8741651623446, -109977.64587135863, 77044.36207346464, -71354.50200492168, 72684.72137269037, -110549.80582592558, -0.052000000000000005, 0.9520000000000001, -0.148, 192.0, 0.0, 0.0, 0.0, 0.0, 0.0, 0.0, 0.0, 0.0, 0.0, 1.6664066468756485E9, 0.0, 2022-10-21 19:44:06.875
208.0, -141043.19555082268, -149781.99002528074, -204.22788908814064, -109992.10745002121, 77035.30961696025, -71492.41226821093, 72599.71768852684, -110585.3003961206, -0.052000000000000005, 0.9520000000000001, -0.148, 192.0, 0.0, 0.0, 0.0, 0.0, 0.0, 0.0, 0.0, 0.0, 0.0, 1.6664066468756623E9, 0.0, 2022-10-21 19:44:06.875
209.0, -141056.42778354025, -149793.83644984203, -215.82844446044498, -110000.08702279175, 77022.61382610963, -71520.68722494689, 72595.44850533588, -110568.8048087126, -0.052000000000000005, 0.9520000000000001, -0.148, 192.0, 0.0, 0.0, 0.0, 0.0, 0.0, 0.0, 0.0, 0.0, 0.0, 1.6664066468756893E9, 0.0, 2022-10-21 19:44:06.875
210.0, -141055.1313823618, -149792.31653121908, -206.57482225594788, -109982.67501386107, 77033.36501519264, -71390.57772047255, 72679.28989878773, -110532.41616873935, -0.052000000000000005, 0.9520000000000001, -0.148, 192.0, 0.0, 0.0, 0.0, 0.0, 0.0, 0.0, 0.0, 0.0, 0.0, 1.6664066468757033E9, 0.0, 2022-10-21 19:44:06.875
211.0, -141048.91759740326, -149786.1027462605, -199.64578147480267, -109992.84505758823, 77031.55452389175, -71359.57585091304, 72676.51828247527, -110564.15564586589, -0.05, 0.9500000000000001, -0.14400000000000002, 192.0, 254.0, 112.0, 29.0, 176.0, 251.0, 128.0, 0.0, 0.0, 0.0, 1.6664066468757172E9, 0.0, 2022-10-21 19:44:06.875
212.0, -141039.2392920541, -149776.37973742245, -192.29205754900667, -109996.24252274544, 77034.86258207115, -71479.96234654932, 72602.64576705048, -110594.21874215826, -0.05, 0.9500000000000001, -0.14400000000000002, 192.0, 0.0, 0.0, 0.0, 0.0, 0.0, 0.0, 0.0, 0.0, 0.0, 1.666406646875732E9, 0.0, 2022-10-21 19:44:06.875
213.0, -141041.83209441093, -149777.8996560454, -191.97913312663235, -109985.46898191798, 77042.05984378576, -71515.65808244444, 72602.8916362395, -110575.08564890453, -0.05, 0.9500000000000001, -0.14400000000000002, 192.0, 0.0, 0.0, 0.0, 0.0, 0.0, 0.0, 0.0, 0.0, 0.0, 1.6664066468757465E9, 0.0, 2022-10-21 19:44:06.875
214.0, -141049.16346659226, -149782.5041154032, -194.0354936165206, -109981.13274349365, 77035.86841057162, -71414.73995622873, 72671.73500916184, -110541.42392175483, -0.05, 0.9500000000000001, -0.14400000000000002, 192.0, 0.0, 0.0, 0.0, 0.0, 0.0, 0.0, 0.0, 0.0, 0.0, 1.66640664687576E9, 0.0, 2022-10-21 19:44:06.875
215.0, -141042.86027465586, -149778.9054845459, -184.08896733390895, -109976.97531902496, 77043.24448624188, -71344.39901642788, 72698.84767518613, -110544.44140725631, -0.05, 0.9500000000000001, -0.14400000000000002, 192.0, 0.0, 0.0, 0.0, 0.0, 0.0, 0.0, 0.0, 0.0, 0.0, 1.666406646875774E9, 0.0, 2022-10-21 19:44:06.875
216.0, -141041.9885566221, -149780.42540316886, -186.16767956825254, -109992.88976107714, 77039.51174491785, -71446.81470952209, 72622.80704054917, -110589.63663454494, -0.05, 0.9500000000000001, -0.14400000000000002, 192.0, 0.0, 0.0, 0.0, 0.0, 0.0, 0.0, 0.0, 0.0, 0.0, 1.6664066468757875E9, 0.0, 2022-10-21 19:44:06.875
217.0, -141041.09448684388, -149782.593522381, -187.46408074666033, -109995.50491517842, 77040.1375937626, -71525.53755349369, 72597.2366448923, -110578.23724487273, -0.05, 0.9500000000000001, -0.14400000000000002, 192.0, 0.0, 0.0, 0.0, 0.0, 0.0, 0.0, 0.0, 0.0, 0.0, 1.666406646875801E9, 0.0, 2022-10-21 19:44:06.875
218.0, -141043.8884549008, -149787.57796139456, -185.4971272345933, -109982.78677258335, 77041.54575366327, -71435.63883729445, 72666.81762538166, -110535.16543330735, -0.05, 0.9500000000000001, -0.14400000000000002, 192.0, 0.0, 0.0, 0.0, 0.0, 0.0, 0.0, 0.0, 0.0, 0.0, 1.666406646875815E9, 0.0, 2022-10-21 19:44:06.875
219.0, -141067.2907313455, -149809.68383666084, -207.73711296762383, -110006.27845600588, 77016.04241323977, -71362.05689454757, 72682.15092207801, -110565.83202670002, -0.05, 0.9500000000000001, -0.14400000000000002, 192.0, 0.0, 0.0, 0.0, 0.0, 0.0, 0.0, 0.0, 0.0, 0.0, 1.6664066468758297E9, 0.0, 2022-10-21 19:44:06.875
220.0, -141036.87000714184, -149777.60908336748, -181.3397027659062, -109994.85671458922, 77040.51757341833, -71418.11506964148, 72639.83906982411, -110584.40632634239, -0.05, 0.9500000000000001, -0.14400000000000002, 192.0, 0.0, 0.0, 0.0, 0.0, 0.0, 0.0, 0.0, 0.0, 0.0, 1.6664066468758435E9, 0.0, 2022-10-21 19:44:06.875
221.0, -141026.5435012035, -149770.61298735297, -171.34847299438394, -109987.70415636351, 77043.06567228623, -71529.136184351, 72595.09087742459, -110570.72705873575, -0.048, 0.9460000000000001, -0.15, 192.0, 254.0, 128.0, 29.0, 144.0, 251.0, 80.0, 0.0, 0.0, 0.0, 1.666406646875857E9, 0.0, 2022-10-21 19:44:06.875
222.0, -141041.45211475517, -149786.03569102715, -179.32804576492856, -109979.34460393724, 77043.42330019752, -71463.4220556524, 72651.52903217424, -110532.4385204838, -0.048, 0.9460000000000001, -0.15, 192.0, 0.0, 0.0, 0.0, 0.0, 0.0, 0.0, 0.0, 0.0, 0.0, 1.666406646875872E9, 0.0, 2022-10-21 19:44:06.875
223.0, -141049.3869840368, -149790.595446896, -186.21238305716315, -109991.61571164319, 77035.66724487153, -71348.04235077409, 72700.03231764225, -110545.24607005669, -0.048, 0.9460000000000001, -0.15, 192.0, 0.0, 0.0, 0.0, 0.0, 0.0, 0.0, 0.0, 0.0, 0.0, 1.6664066468758855E9, 0.0, 2022-10-21 19:44:06.875
224.0, -141040.82626591044, -149782.48176365875, -182.2784760330291, -110003.70800539352, 77033.85675357065, -71401.39596478891, 72651.46197694087, -110578.23724487273, -0.048, 0.9460000000000001, -0.15, 192.0, 0.0, 0.0, 0.0, 0.0, 0.0, 0.0, 0.0, 0.0, 0.0, 1.666406646875913E9, 0.0, 2022-10-21 19:44:06.875
225.0, -141035.26068154105, -149778.1008217455, -174.92475210723308, -110003.2609705044, 77034.61671288213, -71521.5812947251, 72593.6827175239, -110585.5015618207, -0.048, 0.9460000000000001, -0.15, 192.0, 0.0, 0.0, 0.0, 0.0, 0.0, 0.0, 0.0, 0.0, 0.0, 1.6664066468759265E9, 0.0, 2022-10-21 19:44:06.875
226.0, -141043.82139966745, -149786.08039451606, -176.71289166365764, -109991.213380243, 77035.44372742697, -71489.46183794283, 72635.01109302176, -110550.7893026816, -0.048, 0.9460000000000001, -0.15, 192.0, 0.0, 0.0, 0.0, 0.0, 0.0, 0.0, 0.0, 0.0, 0.0, 1.6664066468759403E9, 0.0, 2022-10-21 19:44:06.875
227.0, -141051.59980673788, -149793.16589750838, -186.92763887973297, -109993.09092677724, 77029.11818374613, -71363.06272304806, 72697.4618670299, -110536.77475890813, -0.048, 0.9460000000000001, -0.15, 192.0, 0.0, 0.0, 0.0, 0.0, 0.0, 0.0, 0.0, 0.0, 0.0, 1.666406646875954E9, 0.0, 2022-10-21 19:44:06.875
228.0, -141041.83209441093, -149786.41567068288, -179.99859809858776, -110003.73035713797, 77028.31352094574, -71381.77113315715, 72667.30936375969, -110563.90977667687, -0.048, 0.9460000000000001, -0.15, 192.0, 0.0, 0.0, 0.0, 0.0, 0.0, 0.0, 0.0, 0.0, 0.0, 1.6664066468759675E9, 0.0, 2022-10-21 19:44:06.875
229.0, -141037.13822807532, -149778.3019874456, -179.61861844284755, -110007.19487752854, 77028.24646571236, -71501.84470437106, 72597.90719722596, -110585.63567228743, -0.048, 0.9460000000000001, -0.15, 192.0, 0.0, 0.0, 0.0, 0.0, 0.0, 0.0, 0.0, 0.0, 0.0, 1.6664066468759809E9, 0.0, 2022-10-21 19:44:06.875
230.0, -141048.15763809177, -149787.1532782499, -185.27360979004024, -109999.34941522473, 77026.5253813893, -71508.57257945211, 72614.31337765616, -110557.96421265176, -0.048, 0.9460000000000001, -0.15, 192.0, 0.0, 0.0, 0.0, 0.0, 0.0, 0.0, 0.0, 0.0, 0.0, 1.6664066468759944E9, 0.0, 2022-10-21 19:44:06.875
231.0, -141060.67461498675, -149798.23974349973, -192.58263022692566, -109998.43299370207, 77022.36795692063, -71386.50970298168, 72681.59212846663, -110544.88844214541, -0.054, 0.9440000000000001, -0.14, 192.0, 254.0, 80.0, 29.0, 128.0, 251.0, 160.0, 0.0, 0.0, 0.0, 1.666406646876008E9, 0.0, 2022-10-21 19:44:06.876
232.0, -141056.1819143512, -149793.27765623067, -187.84406040240054, -110001.62929315917, 77027.30769244525, -71366.32607773854, 72671.89147137302, -110567.351945323, -0.054, 0.9440000000000001, -0.14, 192.0, 0.0, 0.0, 0.0, 0.0, 0.0, 0.0, 0.0, 0.0, 0.0, 1.6664066468760223E9, 0.0, 2022-10-21 19:44:06.876
233.0, -141048.9846526366, -149789.56726665108, -185.0947958343978, -110008.9606653405, 77028.60409362365, -71491.54055017717, 72597.54956931467, -110587.58027405504, -0.054, 0.9440000000000001, -0.14, 192.0, 0.0, 0.0, 0.0, 0.0, 0.0, 0.0, 0.0, 0.0, 0.0, 1.666406646876036E9, 0.0, 2022-10-21 19:44:06.876
234.0, -141050.72808870414, -149790.23781898472, -185.89945863478883, -110000.80227861433, 77028.9840732794, -71519.81550691313, 72606.26674965225, -110557.00308764019, -0.054, 0.9440000000000001, -0.14, 192.0, 0.0, 0.0, 0.0, 0.0, 0.0, 0.0, 0.0, 0.0, 0.0, 1.6664066468760495E9, 0.0, 2022-10-21 19:44:06.876
235.0, -141051.9350829047, -149792.02595854117, -184.8489266453894, -109990.94515930953, 77028.49233490138, -71405.57574100206, 72683.49202674533, -110532.99731409519, -0.054, 0.9440000000000001, -0.14, 192.0, 0.0, 0.0, 0.0, 0.0, 0.0, 0.0, 0.0, 0.0, 0.0, 1.666406646876063E9, 0.0, 2022-10-21 19:44:06.876
236.0, -141056.6960044737, -149795.5128306762, -190.4592145036715, -109998.47769719097, 77026.57008487823, -71355.08315027753, 72684.47550350137, -110563.5968522545, -0.054, 0.9440000000000001, -0.14, 192.0, 0.0, 0.0, 0.0, 0.0, 0.0, 0.0, 0.0, 0.0, 0.0, 1.6664066468760767E9, 0.0, 2022-10-21 19:44:06.876
237.0, -141060.36169056437, -149800.2514005007, -194.99661862809882, -110019.73420616797, 77020.5798173642, -71480.02940178268, 72598.98008095981, -110602.62299807346, -0.054, 0.9440000000000001, -0.14, 192.0, 0.0, 0.0, 0.0, 0.0, 0.0, 0.0, 0.0, 0.0, 0.0, 1.6664066468760903E9, 0.0, 2022-10-21 19:44:06.876
238.0, -141053.20913233867, -149791.48951667422, -182.5914004554034, -109994.02970004437, 77040.9869600519, -71523.5258964927, 72599.65063329347, -110578.17018963936, -0.054, 0.9440000000000001, -0.14, 192.0, 0.0, 0.0, 0.0, 0.0, 0.0, 0.0, 0.0, 0.0, 0.0, 1.666406646876104E9, 0.0, 2022-10-21 19:44:06.876
239.0, -141060.0934696309, -149797.83741209953, -189.2522203030849, -109985.37957494016, 77035.75665184935, -71416.21517136278, 72669.0080963383, -110543.72615143373, -0.054, 0.9440000000000001, -0.14, 192.0, 0.0, 0.0, 0.0, 0.0, 0.0, 0.0, 0.0, 0.0, 0.0, 1.666406646876132E9, 0.0, 2022-10-21 19:44:06.876
240.0, -141064.5414667775, -149802.57598192408, -194.0131418720653, -110002.45630770402, 77024.02198601031, -71347.72942635173, 72687.67180295847, -110556.80192194009, -0.054, 0.9480000000000001, -0.138, 192.0, 254.0, 80.0, 29.0, 160.0, 251.0, 176.0, 0.0, 0.0, 0.0, 1.666406646876145E9, 0.0, 2022-10-21 19:44:06.876
241.0, -141059.9370074197, -149795.5128306762, -185.87710689033352, -110015.44267123255, 77026.2348087114, -71437.5610873176, 72621.8906190265, -110593.34702412451, -0.054, 0.9480000000000001, -0.138, 192.0, 0.0, 0.0, 0.0, 0.0, 0.0, 0.0, 0.0, 0.0, 0.0, 1.666406647354454E9, 0.0, 2022-10-21 19:44:07.354
242.0, -141060.1828766087, -149791.7130341188, -182.9043248777777, -110007.99954032894, 77030.10166050216, -71523.83882091509, 72590.03938317769, -110583.78047749764, -0.054, 0.9480000000000001, -0.138, 192.0, 0.0, 0.0, 0.0, 0.0, 0.0, 0.0, 0.0, 0.0, 0.0, 1.666406647354682E9, 0.0, 2022-10-21 19:44:07.354
243.0, -141062.17218186526, -149791.9141998189, -179.57391495393694, -109988.82174358628, 77033.0297390258, -71453.45317762533, 72652.44545369691, -110542.27328804413, -0.054, 0.9480000000000001, -0.138, 192.0, 0.0, 0.0, 0.0, 0.0, 0.0, 0.0, 0.0, 0.0, 0.0, 1.6664066473547776E9, 0.0, 2022-10-21 19:44:07.354
244.0, -141075.96320819418, -149804.0064935692, -189.52044123654858, -109992.75565061042, 77026.63714011159, -71360.06758929105, 72690.7563436933, -110547.23537531322, -0.054, 0.9480000000000001, -0.138, 192.0, 0.0, 0.0, 0.0, 0.0, 0.0, 0.0, 0.0, 0.0, 0.0, 1.6664066473547974E9, 0.0, 2022-10-21 19:44:07.354
245.0, -141066.53077203402, -149795.69164463182, -188.2463918025961, -110008.44657521804, 77027.93354129, -71420.43965106484, 72638.7438343458, -110578.32665185054, -0.054, 0.9480000000000001, -0.138, 192.0, 0.0, 0.0, 0.0, 0.0, 0.0, 0.0, 0.0, 0.0, 0.0, 1.6664066473548172E9, 0.0, 2022-10-21 19:44:07.354
246.0, -141066.41901331177, -149794.77522310917, -195.46600526166026, -110016.58261019977, 77023.17261972101, -71524.71053894884, 72585.70314475337, -110587.46851533277, -0.054, 0.9480000000000001, -0.138, 192.0, 0.0, 0.0, 0.0, 0.0, 0.0, 0.0, 0.0, 0.0, 0.0, 1.6664066473548365E9, 0.0, 2022-10-21 19:44:07.354
247.0, -141073.3480540929, -149803.8053278691, -198.59524948540326, -110003.0598048043, 77025.89953254456, -71458.8622997835, 72640.55432564668, -110558.92533766334, -0.054, 0.9480000000000001, -0.138, 192.0, 0.0, 0.0, 0.0, 0.0, 0.0, 0.0, 0.0, 0.0, 0.0, 1.666406647354856E9, 0.0, 2022-10-21 19:44:07.354
248.0, -141073.795088982, -149804.43117671384, -205.34547631090598, -110007.08311880626, 77018.54580861877, -71347.93059205182, 72694.64554722853, -110546.60952646847, -0.054, 0.9480000000000001, -0.138, 192.0, 0.0, 0.0, 0.0, 0.0, 0.0, 0.0, 0.0, 0.0, 0.0, 1.666406647354876E9, 0.0, 2022-10-21 19:44:07.354
249.0, -141074.26447561558, -149808.18626978234, -213.70502873719082, -110025.05392134833, 77011.16973294852, -71397.88674090944, 72643.19183149241, -110579.35483209549, -0.054, 0.9480000000000001, -0.138, 192.0, 0.0, 0.0, 0.0, 0.0, 0.0, 0.0, 0.0, 0.0, 0.0, 1.666406647354895E9, 0.0, 2022-10-21 19:44:07.354
250.0, -141068.38596682381, -149801.2572290012, -204.7866826995233, -110018.72837766747, 77024.4243174105, -71514.40638475494, 72591.55930180065, -110581.43354432983, -0.052000000000000005, 0.936, -0.14200000000000002, 192.0, 254.0, 96.0, 29.0, 64.0, 251.0, 144.0, 0.0, 0.0, 0.0, 1.666406647354915E9, 0.0, 2022-10-21 19:44:07.354
251.0, -141079.53948730702, -149806.5545924371, -205.83721468892273, -110002.45630770402, 77031.55452389175, -71471.98277377877, 72639.50379365728, -110543.88261364492, -0.052000000000000005, 0.936, -0.14200000000000002, 192.0, 0.0, 0.0, 0.0, 0.0, 0.0, 0.0, 0.0, 0.0, 0.0, 1.6664066473549368E9, 0.0, 2022-10-21 19:44:07.354
252.0, -141090.42478685675, -149815.7188076638, -220.5223107960595, -110002.1657350261, 77019.03754699678, -71358.81589160155, 72695.11493386209, -110536.01479959665, -0.052000000000000005, 0.936, -0.14200000000000002, 192.0, 0.0, 0.0, 0.0, 0.0, 0.0, 0.0, 0.0, 0.0, 0.0, 1.6664066473549566E9, 0.0, 2022-10-21 19:44:07.354
253.0, -141088.3013711335, -149817.30578152012, -224.74679049811252, -110019.28717127886, 77010.61093933713, -71383.6486796914, 72656.51347118778, -110575.66679426037, -0.052000000000000005, 0.936, -0.14200000000000002, 192.0, 0.0, 0.0, 0.0, 0.0, 0.0, 0.0, 0.0, 0.0, 0.0, 1.6664066473549764E9, 0.0, 2022-10-21 19:44:07.354
254.0, -141083.4063390978, -149813.03659832914, -220.09762765140866, -110026.10445333773, 77016.91413127353, -71506.76208815123, 72592.20750238985, -110594.352852625, -0.052000000000000005, 0.936, -0.14200000000000002, 192.0, 0.0, 0.0, 0.0, 0.0, 0.0, 0.0, 0.0, 0.0, 0.0, 1.6664066473550673E9, 0.0, 2022-10-21 19:44:07.355
255.0, -141091.67648454625, -149818.3116100206, -228.8148079889784, -110016.42614798859, 77018.70227082995, -71510.80775389764, 72609.61951132053, -110574.03511691513, -0.052000000000000005, 0.936, -0.14200000000000002, 192.0, 0.0, 0.0, 0.0, 0.0, 0.0, 0.0, 0.0, 0.0, 0.0, 1.666406647355087E9, 0.0, 2022-10-21 19:44:07.355
0.0, -141100.41601662827, -149823.25134554523, -236.83908424843364, -110009.92179035209, 77017.13764871808, -71372.62926967493, 72684.43080001244, -110546.34130553501, -0.052000000000000005, 0.936, -0.14200000000000002, 192.0, 0.0, 0.0, 0.0, 0.0, 0.0, 0.0, 0.0, 0.0, 0.0, 1.6664066473551064E9, 0.0, 2022-10-21 19:44:07.355
1.0, -141085.93208622123, -149809.3709122385, -224.344459097917, -110015.8226508883, 77019.3281196747, -71354.65846713287, 72677.07707608666, -110554.72320970574, -0.052000000000000005, 0.936, -0.14200000000000002, 192.0, 0.0, 0.0, 0.0, 0.0, 0.0, 0.0, 0.0, 0.0, 0.0, 1.6664066473551257E9, 0.0, 2022-10-21 19:44:07.355
