%OpenBCI Raw EEG Data
%Number of channels = 8
%Sample Rate = 250 Hz
%Board = OpenBCI_GUI$BoardCytonSerial
Sample Index, EXG Channel 0, EXG Channel 1, EXG Channel 2, EXG Channel 3, EXG Channel 4, EXG Channel 5, EXG Channel 6, EXG Channel 7, Accel Channel 0, Accel Channel 1, Accel Channel 2, Other, Other, Other, Other, Other, Other, Other, Analog Channel 0, Analog Channel 1, Analog Channel 2, Timestamp, Other, Timestamp (Formatted)
40.0, -142737.05544913476, -150673.310538925, -9298.526859107837, -110550.9904683817, 76310.263730319, -71139.9923133841, 73350.9151161808, -111574.11921907893, -0.03, 0.9460000000000001, -0.152, 192.0, 255.0, 16.0, 29.0, 144.0, 251.0, 64.0, 0.0, 0.0, 0.0, 1.666406681476925E9, 0.0, 2022-10-21 19:44:41.476
41.0, -142745.25853934986, -150682.98884427416, -9310.373283669149, -110563.06041038757, 76296.18213131215, -71195.13406695535, 73335.26889506208, -111572.37578301142, -0.03, 0.9460000000000001, -0.152, 192.0, 0.0, 0.0, 0.0, 0.0, 0.0, 0.0, 0.0, 0.0, 0.0, 1.6664066814769564E9, 0.0, 2022-10-21 19:44:41.476
42.0, -142752.14287664212, -150693.2706467236, -9318.956353539987, -110553.9408986498, 76290.95182310962, -71088.91857730372, 73400.31247142702, -111549.42054145582, -0.03, 0.9460000000000001, -0.152, 192.0, 0.0, 0.0, 0.0, 0.0, 0.0, 0.0, 0.0, 0.0, 0.0, 1.666406681476972E9, 0.0, 2022-10-21 19:44:41.476
43.0, -142749.68418475203, -150691.03547227808, -9316.140033738619, -110560.93699466431, 76290.68360217614, -71032.07809115387, 73413.56705588903, -111565.87142537492, -0.03, 0.9460000000000001, -0.152, 192.0, 0.0, 0.0, 0.0, 0.0, 0.0, 0.0, 0.0, 0.0, 0.0, 1.6664066814769912E9, 0.0, 2022-10-21 19:44:41.476
44.0, -142746.57729227273, -150684.15113498582, -9306.752301067389, -110575.51033204918, 76294.63986094474, -71135.11963309284, 73349.95399116921, -111589.60897798646, -0.03, 0.9460000000000001, -0.152, 192.0, 0.0, 0.0, 0.0, 0.0, 0.0, 0.0, 0.0, 0.0, 0.0, 1.666406681477016E9, 0.0, 2022-10-21 19:44:41.477
45.0, -142745.66087075006, -150682.63121636288, -9303.041911487808, -110565.51910227766, 76297.09855283482, -71203.56067461499, 73332.13965083833, -111573.73923942319, -0.03, 0.9460000000000001, -0.152, 192.0, 0.0, 0.0, 0.0, 0.0, 0.0, 0.0, 0.0, 0.0, 0.0, 1.6664066814770405E9, 0.0, 2022-10-21 19:44:41.477
46.0, -142756.92614995554, -150694.8799723244, -9311.200298213995, -110552.77860793813, 76292.49409347703, -71098.64158614178, 73400.15600921583, -111536.9259163053, -0.03, 0.9460000000000001, -0.152, 192.0, 0.0, 0.0, 0.0, 0.0, 0.0, 0.0, 0.0, 0.0, 0.0, 1.6664066814770644E9, 0.0, 2022-10-21 19:44:41.477
47.0, -142759.67541452355, -150696.93633281428, -9305.992341755908, -110554.96907889475, 76292.82936964386, -71009.0557943649, 73433.6836258988, -111537.52941340559, -0.03, 0.9460000000000001, -0.152, 192.0, 0.0, 0.0, 0.0, 0.0, 0.0, 0.0, 0.0, 0.0, 0.0, 1.6664066814770885E9, 0.0, 2022-10-21 19:44:41.477
48.0, -142744.7444492274, -150680.55250412851, -9290.7931555263, -110561.42873304234, 76297.97027086858, -71097.74751636357, 73373.98211645868, -111578.94719588128, -0.03, 0.9460000000000001, -0.152, 192.0, 0.0, 0.0, 0.0, 0.0, 0.0, 0.0, 0.0, 0.0, 0.0, 1.6664066814771128E9, 0.0, 2022-10-21 19:44:41.477
49.0, -142743.85037944917, -150678.42908840528, -9290.636693315113, -110567.3966488119, 76297.03149760145, -71191.11075295339, 73332.67609270527, -111584.42337327283, -0.03, 0.9460000000000001, -0.152, 192.0, 0.0, 0.0, 0.0, 0.0, 0.0, 0.0, 0.0, 0.0, 0.0, 1.6664066814771369E9, 0.0, 2022-10-21 19:44:41.477
50.0, -142748.72305974044, -150685.98397803117, -9294.235324172418, -110556.51134926217, 76293.34345976633, -71122.37913875331, 73384.53213984158, -111554.4273322138, -0.034, 0.9540000000000001, -0.162, 192.0, 254.0, 240.0, 29.0, 208.0, 250.0, 240.0, 0.0, 0.0, 0.0, 1.6664066814771605E9, 0.0, 2022-10-21 19:44:41.477
51.0, -142746.3984783171, -150684.307597197, -9287.932132236021, -110553.0468288716, 76292.89642487722, -71015.60485549031, 73435.5835241775, -111550.94046007878, -0.034, 0.9540000000000001, -0.162, 192.0, 0.0, 0.0, 0.0, 0.0, 0.0, 0.0, 0.0, 0.0, 0.0, 1.666406681477181E9, 0.0, 2022-10-21 19:44:41.477
52.0, -142735.6472892341, -150673.556408114, -9276.689204775, -110561.60754699798, 76295.48922723404, -71085.2305394686, 73384.28627065256, -111577.60609121397, -0.034, 0.9540000000000001, -0.162, 192.0, 0.0, 0.0, 0.0, 0.0, 0.0, 0.0, 0.0, 0.0, 0.0, 1.666406681477198E9, 0.0, 2022-10-21 19:44:41.477
53.0, -142736.36254505665, -150676.6185971044, -9274.632844285112, -110564.15564586589, 76293.32110802188, -71198.41977339027, 73330.97736012666, -111578.34369878098, -0.034, 0.9540000000000001, -0.162, 192.0, 0.0, 0.0, 0.0, 0.0, 0.0, 0.0, 0.0, 0.0, 0.0, 1.6664066814772148E9, 0.0, 2022-10-21 19:44:41.477
54.0, -142747.27019635084, -150689.1132222549, -9278.700861775978, -110556.60075623999, 76293.0081835995, -71152.33047632343, 73375.97142171519, -111553.95794558024, -0.034, 0.9540000000000001, -0.162, 192.0, 0.0, 0.0, 0.0, 0.0, 0.0, 0.0, 0.0, 0.0, 0.0, 1.6664066814772315E9, 0.0, 2022-10-21 19:44:41.477
55.0, -142749.23714986292, -150693.6282746349, -9277.896198975588, -110553.42680852734, 76294.01401209999, -71018.89056192525, 73440.81383238004, -111541.15039600736, -0.034, 0.9540000000000001, -0.162, 192.0, 0.0, 0.0, 0.0, 0.0, 0.0, 0.0, 0.0, 0.0, 0.0, 1.6664066814772484E9, 0.0, 2022-10-21 19:44:41.477
56.0, -142742.15164687057, -150686.38630943137, -9270.296605860784, -110569.36360232397, 76290.46008473159, -71065.78452179248, 73395.93152951378, -111574.11921907893, -0.034, 0.9540000000000001, -0.162, 192.0, 0.0, 0.0, 0.0, 0.0, 0.0, 0.0, 0.0, 0.0, 0.0, 1.666406681477425E9, 0.0, 2022-10-21 19:44:41.477
57.0, -142737.90481542406, -150681.20070471772, -9264.149876135574, -110565.2508813442, 76301.16657032569, -71189.83670351944, 73337.61582822989, -111583.8869314059, -0.034, 0.9540000000000001, -0.162, 192.0, 0.0, 0.0, 0.0, 0.0, 0.0, 0.0, 0.0, 0.0, 0.0, 1.6664066814774425E9, 0.0, 2022-10-21 19:44:41.477
58.0, -142736.22843458992, -150678.1608674718, -9261.132390634108, -110534.9419158628, 76317.97508215607, -71155.12444438034, 73382.54283458505, -111541.35156170746, -0.034, 0.9540000000000001, -0.162, 192.0, 0.0, 0.0, 0.0, 0.0, 0.0, 0.0, 0.0, 0.0, 0.0, 1.66640668147746E9, 0.0, 2022-10-21 19:44:41.477
59.0, -142749.01363241835, -150691.9742455452, -9277.516219319847, -110536.2383170412, 76310.55430299691, -71018.82350669189, 73446.11119581595, -111524.2748289436, -0.04, 0.9560000000000001, -0.154, 192.0, 254.0, 192.0, 29.0, 224.0, 251.0, 48.0, 0.0, 0.0, 0.0, 1.666406681477477E9, 0.0, 2022-10-21 19:44:41.477
60.0, -142754.66862376555, -150698.9703415597, -9288.826202014232, -110560.28879407511, 76298.23849180204, -71019.9187421702, 73412.4271169218, -111567.70426842026, -0.04, 0.9560000000000001, -0.154, 192.0, 0.0, 0.0, 0.0, 0.0, 0.0, 0.0, 0.0, 0.0, 0.0, 1.6664066814774957E9, 0.0, 2022-10-21 19:44:41.477
61.0, -142753.55103654278, -150698.14332701484, -9293.900048005587, -110570.63765175792, 76293.20934929959, -71168.11080790887, 73332.58668572744, -111592.06766987655, -0.04, 0.9560000000000001, -0.154, 192.0, 0.0, 0.0, 0.0, 0.0, 0.0, 0.0, 0.0, 0.0, 0.0, 1.6664066814775126E9, 0.0, 2022-10-21 19:44:41.477
62.0, -142754.10983015416, -150696.75751885862, -9300.247943430895, -110550.92341314834, 76297.83616040184, -71193.94942449921, 73345.97538065618, -111561.51283520614, -0.04, 0.9560000000000001, -0.154, 192.0, 0.0, 0.0, 0.0, 0.0, 0.0, 0.0, 0.0, 0.0, 0.0, 1.666406681477533E9, 0.0, 2022-10-21 19:44:41.477
63.0, -142755.98737668843, -150701.13846077185, -9310.865022047165, -110538.9428781203, 76298.08202959085, -71055.83799550986, 73421.65838738185, -111536.03184652708, -0.04, 0.9560000000000001, -0.154, 192.0, 0.0, 0.0, 0.0, 0.0, 0.0, 0.0, 0.0, 0.0, 0.0, 1.6664066814775496E9, 0.0, 2022-10-21 19:44:41.477
64.0, -142759.04956567878, -150705.072367796, -9318.978705284442, -110548.42001776934, 76297.54558772393, -71016.90125666872, 73418.35032920245, -111562.11633230644, -0.04, 0.9560000000000001, -0.154, 192.0, 0.0, 0.0, 0.0, 0.0, 0.0, 0.0, 0.0, 0.0, 0.0, 1.6664066814775665E9, 0.0, 2022-10-21 19:44:41.477
65.0, -142751.82995221973, -150696.4669461807, -9317.972876783953, -110554.85732017248, 76299.28902379144, -71135.76783368204, 73343.74020621064, -111594.97339665574, -0.04, 0.9560000000000001, -0.154, 192.0, 0.0, 0.0, 0.0, 0.0, 0.0, 0.0, 0.0, 0.0, 0.0, 1.6664066814775834E9, 0.0, 2022-10-21 19:44:41.477
66.0, -142757.03790867783, -150703.99948406214, -9329.841653089721, -110553.40445678288, 76293.11994232178, -71187.78034302955, 73332.51963049408, -111576.51085573564, -0.04, 0.9560000000000001, -0.154, 192.0, 0.0, 0.0, 0.0, 0.0, 0.0, 0.0, 0.0, 0.0, 0.0, 1.6664066814776E9, 0.0, 2022-10-21 19:44:41.477
67.0, -142764.52574307035, -150709.1180335424, -9335.921327581564, -110542.04977059958, 76289.65542193121, -71076.71452483113, 73405.40866916283, -111534.22135522621, -0.04, 0.9560000000000001, -0.154, 192.0, 0.0, 0.0, 0.0, 0.0, 0.0, 0.0, 0.0, 0.0, 0.0, 1.6664066814776165E9, 0.0, 2022-10-21 19:44:41.477
68.0, -142766.33623437124, -150709.90034459834, -9343.386810229636, -110549.20232882528, 76285.45329397361, -71020.09755612584, 73416.56218964604, -111556.30487874805, -0.04, 0.9560000000000001, -0.154, 192.0, 0.0, 0.0, 0.0, 0.0, 0.0, 0.0, 0.0, 0.0, 0.0, 1.6664066814776335E9, 0.0, 2022-10-21 19:44:41.477
69.0, -142757.46259182246, -150702.59132416145, -9340.883414850643, -110558.9923928967, 76287.93433760814, -71136.19251682669, 73343.13670911035, -111598.5943792575, -0.04, 0.9440000000000001, -0.148, 192.0, 254.0, 192.0, 29.0, 128.0, 251.0, 96.0, 0.0, 0.0, 0.0, 1.66640668147765E9, 0.0, 2022-10-21 19:44:41.477
70.0, -142750.33238534123, -150696.69046362524, -9335.362533970181, -110540.01576185416, 76301.88182614825, -71209.72975608466, 73329.94917988172, -111575.59443421298, -0.04, 0.9440000000000001, -0.148, 192.0, 0.0, 0.0, 0.0, 0.0, 0.0, 0.0, 0.0, 0.0, 0.0, 1.666406681477668E9, 0.0, 2022-10-21 19:44:41.477
71.0, -142760.61418779066, -150705.318236985, -9345.912557353087, -110524.86127911345, 76305.2122360721, -71107.31406299044, 73400.69245108277, -111537.86468957242, -0.04, 0.9440000000000001, -0.148, 192.0, 0.0, 0.0, 0.0, 0.0, 0.0, 0.0, 0.0, 0.0, 0.0, 1.6664066814777417E9, 0.0, 2022-10-21 19:44:41.477
72.0, -142769.77840301735, -150714.21423127822, -9359.547121470825, -110531.1868227943, 76296.74092492354, -71008.78757343144, 73432.38722472038, -111545.35252396495, -0.04, 0.9440000000000001, -0.148, 192.0, 0.0, 0.0, 0.0, 0.0, 0.0, 0.0, 0.0, 0.0, 0.0, 1.6664066814777584E9, 0.0, 2022-10-21 19:44:41.477
73.0, -142763.2963971253, -150714.05776906703, -9362.072868594274, -110547.63770671342, 76286.79439864092, -71105.41416471174, 73358.76057848461, -111587.083230863, -0.04, 0.9440000000000001, -0.148, 192.0, 0.0, 0.0, 0.0, 0.0, 0.0, 0.0, 0.0, 0.0, 0.0, 1.666406681477775E9, 0.0, 2022-10-21 19:44:41.477
74.0, -142760.5471325573, -150714.43774872276, -9362.721069183477, -110546.40836076837, 76288.69429691962, -71210.06503225148, 73316.98516809764, -111587.30674830756, -0.04, 0.9440000000000001, -0.148, 192.0, 0.0, 0.0, 0.0, 0.0, 0.0, 0.0, 0.0, 0.0, 0.0, 1.666406681477792E9, 0.0, 2022-10-21 19:44:41.477
75.0, -142761.95529245798, -150715.84590862345, -9361.245854049428, -110520.65915115585, 76302.28415754845, -71127.5423917225, 73385.33680264196, -111540.99393379617, -0.04, 0.9440000000000001, -0.148, 192.0, 0.0, 0.0, 0.0, 0.0, 0.0, 0.0, 0.0, 0.0, 0.0, 1.6664066814778085E9, 0.0, 2022-10-21 19:44:41.477
76.0, -142772.41590886307, -150722.01499009313, -9371.95233964352, -110527.342322748, 76295.28806153394, -71015.7166142126, 73432.70014914277, -111536.79180583857, -0.04, 0.9440000000000001, -0.148, 192.0, 0.0, 0.0, 0.0, 0.0, 0.0, 0.0, 0.0, 0.0, 0.0, 1.666406681477825E9, 0.0, 2022-10-21 19:44:41.477
77.0, -142774.4946210974, -150721.36678950393, -9373.651072222123, -110546.63187821292, 76289.70012542012, -71072.15476896224, 73378.09483743845, -111582.74699243868, -0.04, 0.9440000000000001, -0.148, 192.0, 0.0, 0.0, 0.0, 0.0, 0.0, 0.0, 0.0, 0.0, 0.0, 1.6664066814778411E9, 0.0, 2022-10-21 19:44:41.477
78.0, -142776.05924320928, -150723.51255697163, -9370.074793109274, -110548.17414858034, 76290.95182310962, -71196.6539855783, 73323.57893271196, -111592.6935187213, -0.04, 0.9440000000000001, -0.148, 192.0, 0.0, 0.0, 0.0, 0.0, 0.0, 0.0, 0.0, 0.0, 0.0, 1.6664066814778578E9, 0.0, 2022-10-21 19:44:41.477
79.0, -142776.9980164764, -150722.23850753767, -9365.246816306928, -110521.01677906714, 76302.01593661499, -71148.86595593285, 73376.53021532658, -111543.78790185308, -0.056, 0.934, -0.15, 192.0, 254.0, 64.0, 29.0, 48.0, 251.0, 80.0, 0.0, 0.0, 0.0, 1.6664066814778748E9, 0.0, 2022-10-21 19:44:41.477
80.0, -142780.48488861142, -150728.92167912982, -9367.817266919288, -110514.333607475, 76304.27346280498, -71010.01691937649, 73442.15493704737, -111526.35354117794, -0.056, 0.934, -0.15, 192.0, 0.0, 0.0, 0.0, 0.0, 0.0, 0.0, 0.0, 0.0, 0.0, 1.6664066814778886E9, 0.0, 2022-10-21 19:44:41.477
81.0, -142769.57723731725, -150722.64083893786, -9359.725935426466, -110525.33066574701, 76304.89931164973, -71040.14707090224, 73405.09574474047, -111559.90350960536, -0.056, 0.934, -0.15, 192.0, 0.0, 0.0, 0.0, 0.0, 0.0, 0.0, 0.0, 0.0, 0.0, 1.6664066814778996E9, 0.0, 2022-10-21 19:44:41.477
82.0, -142773.0417577078, -150725.39010350587, -9356.350822013716, -110529.75631114916, 76307.42505877317, -71164.44512181821, 73337.34760729643, -111580.75768718217, -0.056, 0.934, -0.15, 192.0, 0.0, 0.0, 0.0, 0.0, 0.0, 0.0, 0.0, 0.0, 0.0, 1.6664066814779105E9, 0.0, 2022-10-21 19:44:41.477
83.0, -142784.73172005793, -150739.0246676236, -9356.864912136187, -110511.49493592918, 76311.62718673077, -71155.10209263589, 73366.31546811051, -111546.40305595435, -0.056, 0.934, -0.15, 192.0, 0.0, 0.0, 0.0, 0.0, 0.0, 0.0, 0.0, 0.0, 0.0, 1.6664066814779222E9, 0.0, 2022-10-21 19:44:41.477
84.0, -142792.33131317273, -150748.077124128, -9356.104952824708, -110503.89534281437, 76309.16849484069, -71035.90023945573, 73441.37262599143, -111514.01537823862, -0.056, 0.934, -0.15, 192.0, 0.0, 0.0, 0.0, 0.0, 0.0, 0.0, 0.0, 0.0, 0.0, 1.6664066814779332E9, 0.0, 2022-10-21 19:44:41.477
85.0, -142803.7083511005, -150758.47068529972, -9364.33039478426, -110522.42493896783, 76300.04898310293, -71025.70784398411, 73416.51748615713, -111553.68972464679, -0.056, 0.934, -0.15, 192.0, 0.0, 0.0, 0.0, 0.0, 0.0, 0.0, 0.0, 0.0, 0.0, 1.6664066814779437E9, 0.0, 2022-10-21 19:44:41.477
86.0, -142807.1058162577, -150756.16845562082, -9363.212807561495, -110533.66786642885, 76295.28806153394, -71161.67350550575, 73335.85004041792, -111590.50304776467, -0.056, 0.934, -0.15, 192.0, 0.0, 0.0, 0.0, 0.0, 0.0, 0.0, 0.0, 0.0, 0.0, 1.666406681477986E9, 0.0, 2022-10-21 19:44:41.477
87.0, -142816.47119718447, -150767.3890313374, -9369.89597915363, -110529.01870358214, 76292.42703824367, -71196.49752336711, 73336.11826135138, -111577.9860708697, -0.056, 0.934, -0.15, 192.0, 0.0, 0.0, 0.0, 0.0, 0.0, 0.0, 0.0, 0.0, 0.0, 1.6664066814779973E9, 0.0, 2022-10-21 19:44:41.477
88.0, -142833.95026134854, -150792.22181942724, -9374.120458855685, -110519.47450869973, 76289.78953239793, -71070.00900149453, 73409.23081746469, -111550.47107344522, -0.056, 0.9400000000000001, -0.15, 192.0, 254.0, 64.0, 29.0, 96.0, 251.0, 80.0, 0.0, 0.0, 0.0, 1.666406681478008E9, 0.0, 2022-10-21 19:44:41.478
89.0, -142846.4672382435, -150806.57163936755, -9373.494610010936, -110527.00704658116, 76287.53200620796, -71025.43962305065, 73413.5223524001, -111569.22418704322, -0.056, 0.9400000000000001, -0.15, 192.0, 0.0, 0.0, 0.0, 0.0, 0.0, 0.0, 0.0, 0.0, 0.0, 1.6664066814780197E9, 0.0, 2022-10-21 19:44:41.478
90.0, -142855.1173633477, -150817.6357528729, -9380.37894730317, -110543.43557875582, 76282.4581602166, -71143.72505470813, 73333.99484562813, -111611.0443009191, -0.056, 0.9400000000000001, -0.15, 192.0, 0.0, 0.0, 0.0, 0.0, 0.0, 0.0, 0.0, 0.0, 0.0, 1.6664066814780304E9, 0.0, 2022-10-21 19:44:41.478
91.0, -142865.3768140527, -150829.7056948788, -9381.42947929257, -110533.66786642885, 76285.52034920697, -71207.27106419457, 73320.53909546604, -111596.00157690067, -0.056, 0.9400000000000001, -0.15, 192.0, 0.0, 0.0, 0.0, 0.0, 0.0, 0.0, 0.0, 0.0, 0.0, 1.6664066814780412E9, 0.0, 2022-10-21 19:44:41.478
92.0, -142887.03565442987, -150850.49281722223, -9386.771546217387, -110517.39579646538, 76288.60488994181, -71093.50068491706, 73395.14921845785, -111560.86463461694, -0.056, 0.9400000000000001, -0.15, 192.0, 0.0, 0.0, 0.0, 0.0, 0.0, 0.0, 0.0, 0.0, 0.0, 1.666406681478052E9, 0.0, 2022-10-21 19:44:41.478
93.0, -142894.45643358905, -150859.99230861574, -9383.597598504735, -110523.36371223495, 76286.36971549627, -71025.43962305065, 73419.24439898066, -111566.92195736432, -0.056, 0.9400000000000001, -0.15, 192.0, 0.0, 0.0, 0.0, 0.0, 0.0, 0.0, 0.0, 0.0, 0.0, 1.6664066814780629E9, 0.0, 2022-10-21 19:44:41.478
94.0, -142902.70422729306, -150871.57051224358, -9382.301197326327, -110533.06436932855, 76293.29875627742, -71117.59586543989, 73351.07157839199, -111604.74110898271, -0.056, 0.9400000000000001, -0.15, 192.0, 0.0, 0.0, 0.0, 0.0, 0.0, 0.0, 0.0, 0.0, 0.0, 1.6664066814780736E9, 0.0, 2022-10-21 19:44:41.478
95.0, -142905.00645697195, -150879.28186408067, -9380.200133347527, -110520.97207557823, 76297.99262261303, -71204.65591009331, 73319.57797045445, -111598.3932135574, -0.056, 0.9400000000000001, -0.15, 192.0, 0.0, 0.0, 0.0, 0.0, 0.0, 0.0, 0.0, 0.0, 0.0, 1.6664066814780843E9, 0.0, 2022-10-21 19:44:41.478
96.0, -142933.90726255265, -150910.68606504035, -9394.460546310014, -110511.47258418472, 76292.06941033238, -71111.1809147812, 73381.40289561784, -111567.52545446462, -0.056, 0.9400000000000001, -0.15, 192.0, 0.0, 0.0, 0.0, 0.0, 0.0, 0.0, 0.0, 0.0, 0.0, 1.666406681478095E9, 0.0, 2022-10-21 19:44:41.478
97.0, -142958.87416110924, -150932.54607111766, -9408.318627872304, -110538.45113974228, 76272.91396533418, -71019.73992821455, 73413.79057333358, -111578.74603018118, -0.056, 0.9400000000000001, -0.15, 192.0, 0.0, 0.0, 0.0, 0.0, 0.0, 0.0, 0.0, 0.0, 0.0, 1.6664066814781055E9, 0.0, 2022-10-21 19:44:41.478
98.0, -142961.62342567724, -150933.12721647348, -9406.061101682319, -110555.12554110594, 76269.47179668806, -71114.95835959415, 73348.1658516128, -111618.15215565589, -0.05, 0.9480000000000001, -0.148, 192.0, 254.0, 112.0, 29.0, 160.0, 251.0, 96.0, 0.0, 0.0, 0.0, 1.6664066814781165E9, 0.0, 2022-10-21 19:44:41.478
99.0, -142962.24927452198, -150938.98337352078, -9406.374026104693, -110552.48803526022, 76278.92658459266, -71223.67724462476, 73303.93174933574, -111615.80522248808, -0.05, 0.9480000000000001, -0.148, 192.0, 0.0, 0.0, 0.0, 0.0, 0.0, 0.0, 0.0, 0.0, 0.0, 1.666406681478128E9, 0.0, 2022-10-21 19:44:41.478
100.0, -142978.65545495218, -150958.51879817471, -9412.72192153, -110531.85737512796, 76288.62724168626, -71144.79793844199, 73365.75667449912, -111568.19600679827, -0.05, 0.9480000000000001, -0.148, 192.0, 0.0, 0.0, 0.0, 0.0, 0.0, 0.0, 0.0, 0.0, 0.0, 1.6664066814781387E9, 0.0, 2022-10-21 19:44:41.478
101.0, -142993.96639990408, -150973.3827082375, -9423.316648401815, -110532.99731409519, 76282.0111253275, -71026.51250678451, 73416.09280301248, -111565.42439048582, -0.05, 0.9480000000000001, -0.148, 192.0, 0.0, 0.0, 0.0, 0.0, 0.0, 0.0, 0.0, 0.0, 0.0, 1.66640668147816E9, 0.0, 2022-10-21 19:44:41.478
102.0, -142984.06457711037, -150962.65387089897, -9419.941534989064, -110549.22468056974, 76280.02182007096, -71088.31508020342, 73361.39808433033, -111614.46411782077, -0.05, 0.9480000000000001, -0.148, 192.0, 0.0, 0.0, 0.0, 0.0, 0.0, 0.0, 0.0, 0.0, 0.0, 1.666406681478171E9, 0.0, 2022-10-21 19:44:41.478
103.0, -142984.37750153276, -150964.21849301082, -9418.265154154917, -110545.06725610104, 76283.508692206, -71215.76472708759, 73299.88608358933, -111626.82463250455, -0.05, 0.9480000000000001, -0.148, 192.0, 0.0, 0.0, 0.0, 0.0, 0.0, 0.0, 0.0, 0.0, 0.0, 1.6664066814781816E9, 0.0, 2022-10-21 19:44:41.478
104.0, -142998.07912088383, -150979.0824030736, -9431.005648494442, -110533.71256991776, 76281.16175903818, -71186.77451452905, 73335.64887471782, -111593.40877454386, -0.05, 0.9480000000000001, -0.148, 192.0, 0.0, 0.0, 0.0, 0.0, 0.0, 0.0, 0.0, 0.0, 0.0, 1.6664066814781933E9, 0.0, 2022-10-21 19:44:41.478
105.0, -143014.9546879476, -150998.93075214993, -9448.708230103044, -110535.41130249636, 76273.4057037122, -71060.19658567866, 73394.9257010133, -111581.40588777137, -0.05, 0.9480000000000001, -0.148, 192.0, 0.0, 0.0, 0.0, 0.0, 0.0, 0.0, 0.0, 0.0, 0.0, 1.666406681478204E9, 0.0, 2022-10-21 19:44:41.478
106.0, -143010.64080126773, -150996.00267362627, -9448.954099292052, -110547.34713403549, 76272.77985486745, -71061.82826302388, 73369.57882280098, -111612.38540558642, -0.05, 0.9480000000000001, -0.148, 192.0, 0.0, 0.0, 0.0, 0.0, 0.0, 0.0, 0.0, 0.0, 0.0, 1.6664066814782147E9, 0.0, 2022-10-21 19:44:41.478
107.0, -143008.94206868912, -150996.27089455974, -9448.238843469482, -110556.75721845118, 76272.22106125606, -71187.08743895144, 73299.59551091141, -111639.52042335516, -0.05, 0.9480000000000001, -0.148, 192.0, 0.0, 0.0, 0.0, 0.0, 0.0, 0.0, 0.0, 0.0, 0.0, 1.6664066814782255E9, 0.0, 2022-10-21 19:44:41.478
108.0, -143013.99356293603, -151000.80829868416, -9446.540110890879, -110535.9924478522, 76278.23368051455, -71191.4013256313, 73328.56337172548, -111601.90243743687, -0.038, 0.9480000000000001, -0.14400000000000002, 192.0, 254.0, 208.0, 29.0, 160.0, 251.0, 128.0, 0.0, 0.0, 0.0, 1.6664066814782362E9, 0.0, 2022-10-21 19:44:41.478
109.0, -143020.18499615014, -151006.68680747593, -9452.575081893812, -110528.12463380393, 76278.256032259, -71058.14022518876, 73404.22402670671, -111574.23097780121, -0.038, 0.9480000000000001, -0.14400000000000002, 192.0, 0.0, 0.0, 0.0, 0.0, 0.0, 0.0, 0.0, 0.0, 0.0, 1.6664066814782476E9, 0.0, 2022-10-21 19:44:41.478
110.0, -143020.54262406143, -151008.5420022657, -9458.29712847437, -110553.7397329497, 76267.5495466649, -71040.63880928025, 73383.74982878564, -111615.42524283234, -0.038, 0.9480000000000001, -0.14400000000000002, 192.0, 0.0, 0.0, 0.0, 0.0, 0.0, 0.0, 0.0, 0.0, 0.0, 1.6664066814782584E9, 0.0, 2022-10-21 19:44:41.478
111.0, -143019.9614787056, -151010.33014182214, -9462.007518053952, -110565.83202670002, 76265.26966873046, -71164.13219739583, 73303.46236270218, -111650.74099907173, -0.038, 0.9480000000000001, -0.14400000000000002, 192.0, 0.0, 0.0, 0.0, 0.0, 0.0, 0.0, 0.0, 0.0, 0.0, 1.666406681478269E9, 0.0, 2022-10-21 19:44:41.478
112.0, -143025.28119388595, -151014.30875233517, -9464.510913432947, -110552.73390444923, 76270.81290135538, -71199.33619491293, 73305.36226098088, -111626.13172842644, -0.038, 0.9480000000000001, -0.14400000000000002, 192.0, 0.0, 0.0, 0.0, 0.0, 0.0, 0.0, 0.0, 0.0, 0.0, 1.6664066814782803E9, 0.0, 2022-10-21 19:44:41.478
113.0, -143029.41626661018, -151016.40981631397, -9468.377765223715, -110537.40060775288, 76269.29298273241, -71082.88360630079, 73377.82661650499, -111591.2406553317, -0.038, 0.9480000000000001, -0.14400000000000002, 192.0, 0.0, 0.0, 0.0, 0.0, 0.0, 0.0, 0.0, 0.0, 0.0, 1.6664066814782908E9, 0.0, 2022-10-21 19:44:41.478
114.0, -143020.45321708362, -151008.1396708655, -9471.976396081018, -110547.19067182431, 76266.18609025313, -71028.3677015743, 73385.4709131087, -111608.60796077347, -0.038, 0.9480000000000001, -0.14400000000000002, 192.0, 0.0, 0.0, 0.0, 0.0, 0.0, 0.0, 0.0, 0.0, 0.0, 1.6664066814783013E9, 0.0, 2022-10-21 19:44:41.478
115.0, -143009.07617915585, -150997.90257190497, -9465.427334955613, -110556.51134926217, 76272.51163393399, -71135.76783368204, 73321.99195885562, -111631.22792616225, -0.038, 0.9480000000000001, -0.14400000000000002, 192.0, 0.0, 0.0, 0.0, 0.0, 0.0, 0.0, 0.0, 0.0, 0.0, 1.666406681478312E9, 0.0, 2022-10-21 19:44:41.478
116.0, -143008.49503380002, -150996.7402811933, -9463.750954121466, -110540.10516883197, 76286.257956774, -71196.07284022246, 73311.9560255952, -111611.22311487474, -0.038, 0.9480000000000001, -0.14400000000000002, 192.0, 0.0, 0.0, 0.0, 0.0, 0.0, 0.0, 0.0, 0.0, 0.0, 1.666406681478332E9, 0.0, 2022-10-21 19:44:41.478
117.0, -143012.58540303534, -150999.95893239486, -9470.21060826905, -110526.22473552523, 76289.54366320893, -71089.2315017261, 73384.30862239703, -111568.26306203165, -0.038, 0.9480000000000001, -0.14400000000000002, 192.0, 0.0, 0.0, 0.0, 0.0, 0.0, 0.0, 0.0, 0.0, 0.0, 1.6664066814783423E9, 0.0, 2022-10-21 19:44:41.478
118.0, -143010.9090222012, -150998.66253121645, -9479.754803151465, -110541.0439420991, 76280.04417181542, -71012.92264615568, 73404.04521275107, -111596.71683272325, -0.028, 0.9420000000000001, -0.14, 192.0, 255.0, 32.0, 29.0, 112.0, 251.0, 160.0, 0.0, 0.0, 0.0, 1.6664066814783533E9, 0.0, 2022-10-21 19:44:41.478
119.0, -142995.0616353824, -150985.139725821, -9475.195047282583, -110554.7902649391, 76276.04320955792, -71119.3393015074, 73333.95014213922, -111635.8994407534, -0.028, 0.9420000000000001, -0.14, 192.0, 0.0, 0.0, 0.0, 0.0, 0.0, 0.0, 0.0, 0.0, 0.0, 1.6664066814783645E9, 0.0, 2022-10-21 19:44:41.478
120.0, -142990.12189985777, -150978.97064435133, -9473.093983303785, -110536.4394827413, 76283.44163697262, -71221.4644219237, 73300.84720860091, -111624.2988853811, -0.028, 0.9420000000000001, -0.14, 192.0, 0.0, 0.0, 0.0, 0.0, 0.0, 0.0, 0.0, 0.0, 0.0, 1.666406681478375E9, 0.0, 2022-10-21 19:44:41.478
121.0, -143001.02955115194, -150987.53136247772, -9488.919018378141, -110532.2373547837, 76277.51842469197, -71143.97092389714, 73356.23483136116, -111593.1852570993, -0.028, 0.9420000000000001, -0.14, 192.0, 0.0, 0.0, 0.0, 0.0, 0.0, 0.0, 0.0, 0.0, 0.0, 1.6664066814783857E9, 0.0, 2022-10-21 19:44:41.478
122.0, -143004.89640294272, -150990.34768227907, -9503.760576696466, -110554.16441609435, 76259.18999423862, -71042.65046628124, 73389.96361374421, -111607.22215261724, -0.028, 0.9420000000000001, -0.14, 192.0, 0.0, 0.0, 0.0, 0.0, 0.0, 0.0, 0.0, 0.0, 0.0, 1.6664066814783962E9, 0.0, 2022-10-21 19:44:41.478
123.0, -142987.238524823, -150972.22041752582, -9493.255256802471, -110559.37237255245, 76268.13069202074, -71101.39085070978, 73344.2095928442, -111635.0500744641, -0.028, 0.9420000000000001, -0.14, 192.0, 0.0, 0.0, 0.0, 0.0, 0.0, 0.0, 0.0, 0.0, 0.0, 1.6664066814784067E9, 0.0, 2022-10-21 19:44:41.478
124.0, -142972.37461476025, -150959.74814411977, -9485.029814842917, -110558.63476498543, 76274.99267756852, -71211.27202645208, 73296.33215622093, -111633.12782444095, -0.028, 0.9420000000000001, -0.14, 192.0, 0.0, 0.0, 0.0, 0.0, 0.0, 0.0, 0.0, 0.0, 0.0, 1.6664066814784172E9, 0.0, 2022-10-21 19:44:41.478
125.0, -142972.73224267154, -150957.35650746306, -9485.610960198755, -110540.48514848771, 76278.4571979591, -71166.45677881918, 73343.94137191074, -111591.73239370971, -0.028, 0.9420000000000001, -0.14, 192.0, 0.0, 0.0, 0.0, 0.0, 0.0, 0.0, 0.0, 0.0, 0.0, 1.666406681478428E9, 0.0, 2022-10-21 19:44:41.478
126.0, -142973.76042291647, -150957.28945222968, -9488.06965208884, -110538.18291880882, 76277.02668631395, -71043.03044593698, 73405.00633776264, -111581.83057091602, -0.028, 0.9420000000000001, -0.14, 192.0, 0.0, 0.0, 0.0, 0.0, 0.0, 0.0, 0.0, 0.0, 0.0, 1.6664066814784396E9, 0.0, 2022-10-21 19:44:41.478
127.0, -142971.16762055966, -150958.54114991918, -9493.814050413854, -110562.81454119856, 76269.69531413261, -71087.7339348476, 73356.19012787225, -111623.98596095873, -0.022, 0.9420000000000001, -0.138, 192.0, 255.0, 80.0, 29.0, 112.0, 251.0, 176.0, 0.0, 0.0, 0.0, 1.66640668147845E9, 0.0, 2022-10-21 19:44:41.478
128.0, -142964.52915245644, -150954.7860568507, -9495.6915969481, -110568.51423603467, 76269.49414843251, -71208.4557066507, 73290.92303406275, -111644.59426934652, -0.022, 0.9420000000000001, -0.138, 192.0, 0.0, 0.0, 0.0, 0.0, 0.0, 0.0, 0.0, 0.0, 0.0, 1.6664066814784613E9, 0.0, 2022-10-21 19:44:41.478
129.0, -142957.37659423074, -150945.130103246, -9491.377710268225, -110542.09447408849, 76279.53008169295, -71179.46549409218, 73333.25723806111, -111605.63517876092, -0.022, 0.9420000000000001, -0.138, 192.0, 0.0, 0.0, 0.0, 0.0, 0.0, 0.0, 0.0, 0.0, 0.0, 1.6664066814784718E9, 0.0, 2022-10-21 19:44:41.478
130.0, -142954.31440524035, -150940.68210609938, -9488.650797444678, -110527.94581984829, 76281.72055264957, -71047.41138785021, 73406.43684940778, -111580.71298369324, -0.022, 0.9420000000000001, -0.138, 192.0, 0.0, 0.0, 0.0, 0.0, 0.0, 0.0, 0.0, 0.0, 0.0, 1.6664066814784825E9, 0.0, 2022-10-21 19:44:41.478
131.0, -142958.98591983152, -150947.2758707137, -9497.815012671354, -110555.4384655283, 76270.254107744, -71064.10814095833, 73370.62935479038, -111624.097719681, -0.022, 0.9420000000000001, -0.138, 192.0, 0.0, 0.0, 0.0, 0.0, 0.0, 0.0, 0.0, 0.0, 0.0, 1.6664066814785028E9, 0.0, 2022-10-21 19:44:41.478
132.0, -142951.11810578324, -150936.61408860853, -9504.051149374383, -110573.65513725938, 76264.55441290789, -71194.9552529997, 73291.61593814087, -111650.49512988272, -0.022, 0.9420000000000001, -0.138, 192.0, 0.0, 0.0, 0.0, 0.0, 0.0, 0.0, 0.0, 0.0, 0.0, 1.6664066814785132E9, 0.0, 2022-10-21 19:44:41.478
133.0, -142949.48642843802, -150932.79194030666, -9511.002541899985, -110560.15468360839, 76264.66617163018, -71214.7588985871, 73300.75780162308, -111625.48352783723, -0.022, 0.9420000000000001, -0.138, 192.0, 0.0, 0.0, 0.0, 0.0, 0.0, 0.0, 0.0, 0.0, 0.0, 1.6664066814785237E9, 0.0, 2022-10-21 19:44:41.478
134.0, -142951.36397497225, -150935.78707406367, -9509.683788977121, -110543.52498573363, 76274.16566302367, -71075.1722544637, 73387.48257010969, -111585.51860875114, -0.022, 0.9420000000000001, -0.138, 192.0, 0.0, 0.0, 0.0, 0.0, 0.0, 0.0, 0.0, 0.0, 0.0, 1.6664066814785345E9, 0.0, 2022-10-21 19:44:41.478
135.0, -142940.5457306559, -150925.99700999225, -9507.247448831493, -110553.82913992753, 76272.17635776715, -71040.19177439115, 73387.48257010969, -111607.75859448417, -0.022, 0.9420000000000001, -0.138, 192.0, 0.0, 0.0, 0.0, 0.0, 0.0, 0.0, 0.0, 0.0, 0.0, 1.6664066814785447E9, 0.0, 2022-10-21 19:44:41.478
136.0, -142920.04918099038, -150908.49559408374, -9501.704216206577, -110567.32959357854, 76268.1530437652, -71176.82798824644, 73306.36808948137, -111640.01216173318, -0.022, 0.9420000000000001, -0.138, 192.0, 0.0, 0.0, 0.0, 0.0, 0.0, 0.0, 0.0, 0.0, 0.0, 1.6664066814785564E9, 0.0, 2022-10-21 19:44:41.478
137.0, -142920.71973332402, -150907.04273069414, -9498.999655127485, -110549.40349452538, 76275.97615432455, -71229.77927086107, 73301.67422314576, -111617.88393472243, -0.026000000000000002, 0.9440000000000001, -0.136, 192.0, 255.0, 48.0, 29.0, 128.0, 251.0, 192.0, 0.0, 0.0, 0.0, 1.666406681478567E9, 0.0, 2022-10-21 19:44:41.478
138.0, -142935.31542245334, -150920.38672213396, -9508.588553498812, -110539.68048568732, 76276.44554095811, -71108.2304845131, 73375.14440717034, -111585.74212619569, -0.026000000000000002, 0.9440000000000001, -0.136, 192.0, 0.0, 0.0, 0.0, 0.0, 0.0, 0.0, 0.0, 0.0, 0.0, 1.666406681478578E9, 0.0, 2022-10-21 19:44:41.478
139.0, -142925.8829862932, -150910.7307685293, -9509.750844210488, -110544.55316597858, 76276.91492759167, -71031.25107660903, 73396.28915742507, -111595.37572805592, -0.026000000000000002, 0.9440000000000001, -0.136, 192.0, 0.0, 0.0, 0.0, 0.0, 0.0, 0.0, 0.0, 0.0, 0.0, 1.6664066814785888E9, 0.0, 2022-10-21 19:44:41.478
140.0, -142905.8781750057, -150894.123422399, -9502.17360284014, -110549.62701196993, 76282.12288404976, -71129.77756616802, 73330.28445604855, -111633.32899014105, -0.026000000000000002, 0.9440000000000001, -0.136, 192.0, 0.0, 0.0, 0.0, 0.0, 0.0, 0.0, 0.0, 0.0, 0.0, 1.6664066814785993E9, 0.0, 2022-10-21 19:44:41.478
141.0, -142897.20569815705, -150883.99808216075, -9502.017140628952, -110544.79903516758, 76281.72055264957, -71214.93771254274, 73300.17665626726, -111627.00344646019, -0.026000000000000002, 0.9440000000000001, -0.136, 192.0, 0.0, 0.0, 0.0, 0.0, 0.0, 0.0, 0.0, 0.0, 0.0, 1.6664066814786098E9, 0.0, 2022-10-21 19:44:41.478
142.0, -142903.44183486007, -150887.77552697368, -9507.515669764956, -110534.27136352914, 76281.76525613847, -71126.536563222, 73368.52829081158, -111585.25038781768, -0.026000000000000002, 0.9440000000000001, -0.136, 192.0, 0.0, 0.0, 0.0, 0.0, 0.0, 0.0, 0.0, 0.0, 0.0, 1.6664066814786203E9, 0.0, 2022-10-21 19:44:41.478
143.0, -142910.9296692526, -150895.08454741057, -9517.439844303113, -110550.1411020924, 76275.61852641327, -71029.64175100825, 73402.36883191692, -111600.40487055837, -0.026000000000000002, 0.9440000000000001, -0.136, 192.0, 0.0, 0.0, 0.0, 0.0, 0.0, 0.0, 0.0, 0.0, 0.0, 1.6664066814786308E9, 0.0, 2022-10-21 19:44:41.478
144.0, -142900.91608773664, -150886.27796009518, -9517.126919880739, -110565.74261972221, 76271.7516746225, -71103.84954259987, 73339.82865093097, -111639.67688556635, -0.026000000000000002, 0.9440000000000001, -0.136, 192.0, 0.0, 0.0, 0.0, 0.0, 0.0, 0.0, 0.0, 0.0, 0.0, 1.6664066814786415E9, 0.0, 2022-10-21 19:44:41.478
145.0, -142881.1794973826, -150865.66965170737, -9504.051149374383, -110557.15954985138, 76277.29490724741, -71211.36143342989, 73298.09794403291, -111633.7536732857, -0.026000000000000002, 0.9440000000000001, -0.136, 192.0, 0.0, 0.0, 0.0, 0.0, 0.0, 0.0, 0.0, 0.0, 0.0, 1.666406681478652E9, 0.0, 2022-10-21 19:44:41.478
146.0, -142878.65375025914, -150859.14294232643, -9502.911210407163, -110531.72326466124, 76289.49895972002, -71142.56276399647, 73361.55454654152, -111590.2348268312, -0.026000000000000002, 0.9440000000000001, -0.136, 192.0, 0.0, 0.0, 0.0, 0.0, 0.0, 0.0, 0.0, 0.0, 0.0, 1.6664066814786725E9, 0.0, 2022-10-21 19:44:41.478
147.0, -142881.31360784933, -150859.88054989345, -9510.26493433296, -110534.04784608458, 76288.22491028607, -71028.68062599667, 73410.61662562093, -111589.72073670874, -0.026000000000000002, 0.9480000000000001, -0.146, 192.0, 255.0, 48.0, 29.0, 160.0, 251.0, 112.0, 0.0, 0.0, 0.0, 1.666406681478684E9, 0.0, 2022-10-21 19:44:41.478
148.0, -142870.3836048107, -150851.07396257806, -9507.470966276047, -110550.56578523705, 76285.34153525133, -71085.8340365689, 73355.78779647205, -111630.02093196166, -0.026000000000000002, 0.9480000000000001, -0.146, 192.0, 0.0, 0.0, 0.0, 0.0, 0.0, 0.0, 0.0, 0.0, 0.0, 1.6664066814786956E9, 0.0, 2022-10-21 19:44:41.478
149.0, -142865.64503498614, -150844.6590119194, -9512.097777378294, -110557.96421265176, 76281.54173869392, -71208.16513397278, 73293.47113293066, -111640.28038266663, -0.026000000000000002, 0.9480000000000001, -0.146, 192.0, 0.0, 0.0, 0.0, 0.0, 0.0, 0.0, 0.0, 0.0, 0.0, 1.6664066814787064E9, 0.0, 2022-10-21 19:44:41.478
150.0, -142870.54006702185, -150846.08952356453, -9520.926716438142, -110544.08377934502, 76274.2550700015, -71175.93391846823, 73329.4574415037, -111613.30182710908, -0.026000000000000002, 0.9480000000000001, -0.146, 192.0, 0.0, 0.0, 0.0, 0.0, 0.0, 0.0, 0.0, 0.0, 0.0, 1.666406681478717E9, 0.0, 2022-10-21 19:44:41.478
151.0, -142867.25436058693, -150839.5628141836, -9519.40679781518, -110526.26943901414, 76282.63697417223, -71042.3151901144, 73402.65940459483, -111586.30091980708, -0.026000000000000002, 0.9480000000000001, -0.146, 192.0, 0.0, 0.0, 0.0, 0.0, 0.0, 0.0, 0.0, 0.0, 0.0, 1.666406681478728E9, 0.0, 2022-10-21 19:44:41.478
152.0, -142861.71112796201, -150836.03123855963, -9527.565184541367, -110553.0915323605, 76277.63018341425, -71064.97985899208, 73362.02393317508, -111625.10354818149, -0.026000000000000002, 0.9480000000000001, -0.146, 192.0, 0.0, 0.0, 0.0, 0.0, 0.0, 0.0, 0.0, 0.0, 0.0, 1.6664066814787383E9, 0.0, 2022-10-21 19:44:41.478
153.0, -142856.90550290412, -150832.0526280466, -9530.605021787289, -110564.4015150549, 76273.83038685685, -71191.37897388685, 73292.28649047452, -111648.52817637064, -0.026000000000000002, 0.9480000000000001, -0.146, 192.0, 0.0, 0.0, 0.0, 0.0, 0.0, 0.0, 0.0, 0.0, 0.0, 1.6664066814787495E9, 0.0, 2022-10-21 19:44:41.478
154.0, -142857.6207587267, -150832.7455321247, -9534.270707877959, -110552.30922130457, 76272.06459904488, -71195.89402626682, 73317.14163030883, -111614.01708293165, -0.026000000000000002, 0.9480000000000001, -0.146, 192.0, 0.0, 0.0, 0.0, 0.0, 0.0, 0.0, 0.0, 0.0, 0.0, 1.66640668147876E9, 0.0, 2022-10-21 19:44:41.478
155.0, -142840.58872945176, -150820.87675581896, -9528.615716530767, -110531.5891541945, 76280.69237240462, -71074.88168178579, 73397.49615162566, -111579.59539647048, -0.026000000000000002, 0.9480000000000001, -0.146, 192.0, 0.0, 0.0, 0.0, 0.0, 0.0, 0.0, 0.0, 0.0, 0.0, 1.6664066814787705E9, 0.0, 2022-10-21 19:44:41.478
156.0, -142838.35355500624, -150814.9535435383, -9524.659457762178, -110539.18874730931, 76283.17341603916, -71056.84382401036, 73387.75079104315, -111609.09969915148, -0.032, 0.9540000000000001, -0.138, 192.0, 255.0, 0.0, 29.0, 208.0, 251.0, 176.0, 0.0, 0.0, 0.0, 1.6664066814787812E9, 0.0, 2022-10-21 19:44:41.478
157.0, -142838.8676451287, -150814.17123248236, -9524.994733929007, -110547.95063113578, 76285.16272129568, -71179.01845920307, 73312.91715060678, -111640.28038266663, -0.032, 0.9540000000000001, -0.138, 192.0, 0.0, 0.0, 0.0, 0.0, 0.0, 0.0, 0.0, 0.0, 0.0, 1.6664066814787927E9, 0.0, 2022-10-21 19:44:41.478
158.0, -142842.7568486639, -150814.9982470272, -9531.163815398671, -110540.90983163237, 76286.54852945192, -71203.53832287053, 73318.81801114297, -111617.01221668867, -0.032, 0.9540000000000001, -0.138, 192.0, 0.0, 0.0, 0.0, 0.0, 0.0, 0.0, 0.0, 0.0, 0.0, 1.6664066814788036E9, 0.0, 2022-10-21 19:44:41.478
159.0, -142842.82390389728, -150816.02642727215, -9535.142425911716, -110525.17420353583, 76288.33666900833, -71068.62319333831, 73400.4242301493, -111581.94232963829, -0.032, 0.9540000000000001, -0.138, 192.0, 0.0, 0.0, 0.0, 0.0, 0.0, 0.0, 0.0, 0.0, 0.0, 1.666406681478814E9, 0.0, 2022-10-21 19:44:41.478
160.0, -142832.3632874922, -150813.0983487485, -9533.331934610836, -110535.32189551853, 76284.8050933844, -71017.013015391, 73402.19001796127, -111599.93548392481, -0.032, 0.9540000000000001, -0.138, 192.0, 0.0, 0.0, 0.0, 0.0, 0.0, 0.0, 0.0, 0.0, 0.0, 1.6664066814788244E9, 0.0, 2022-10-21 19:44:41.478
161.0, -142827.1106275452, -150802.43656664333, -9533.041361932917, -110550.40932302587, 76283.91102360618, -71131.67746444672, 73323.17660131176, -111629.77506277265, -0.032, 0.9540000000000001, -0.138, 192.0, 0.0, 0.0, 0.0, 0.0, 0.0, 0.0, 0.0, 0.0, 0.0, 1.6664066814788663E9, 0.0, 2022-10-21 19:44:41.478
162.0, -142819.17575826356, -150783.30347338956, -9525.21825137356, -110525.66594191385, 76292.89642487722, -71196.76574430057, 73315.77817389705, -111604.9422746828, -0.032, 0.9540000000000001, -0.138, 192.0, 0.0, 0.0, 0.0, 0.0, 0.0, 0.0, 0.0, 0.0, 0.0, 1.6664066814788792E9, 0.0, 2022-10-21 19:44:41.478
0.0, 0.0, 0.0, 0.0, 0.0, 0.0, 0.0, 0.0, 0.0, -0.04, 0.9500000000000001, -0.14200000000000002, 192.0, 254.0, 192.0, 29.0, 176.0, 251.0, 144.0, 0.0, 0.0, 0.0, 1.6664066815528295E9, 0.0, 2022-10-21 19:44:41.552
1.0, -143327.9238138108, -151203.98565578292, -11397.757994861364, -110643.59374566004, 76150.00172257444, -71102.08375478789, 73384.55449158604, -111783.33154718061, -0.04, 0.9500000000000001, -0.14200000000000002, 192.0, 0.0, 0.0, 0.0, 0.0, 0.0, 0.0, 0.0, 0.0, 0.0, 1.6664066820344243E9, 0.0, 2022-10-21 19:44:42.034
2.0, -143340.2843284946, -151213.41809194305, -11404.955256575973, -110633.84838507752, 76148.34769348476, -71137.66773196074, 73387.28140440959, -111762.99145972628, -0.04, 0.9500000000000001, -0.14200000000000002, 192.0, 0.0, 0.0, 0.0, 0.0, 0.0, 0.0, 0.0, 0.0, 0.0, 1.66640668203447E9, 0.0, 2022-10-21 19:44:42.034
3.0, -143345.5816919305, -151223.76694962586, -11412.219573523947, -110622.91838203889, 76148.75002488495, -71012.6097217333, 73460.32690528952, -111731.18492736637, -0.04, 0.9500000000000001, -0.14200000000000002, 192.0, 0.0, 0.0, 0.0, 0.0, 0.0, 0.0, 0.0, 0.0, 0.0, 1.6664066820344977E9, 0.0, 2022-10-21 19:44:42.034
4.0, -143334.7410958697, -151221.3976647136, -11414.342989247203, -110639.07869328007, 76142.469184693, -70978.72447713905, 73456.77297792114, -111756.91178523444, -0.04, 0.9500000000000001, -0.14200000000000002, 192.0, 0.0, 0.0, 0.0, 0.0, 0.0, 0.0, 0.0, 0.0, 0.0, 1.6664066820345244E9, 0.0, 2022-10-21 19:44:42.034
5.0, -143327.6779446218, -151211.71935936445, -11413.82889912473, -110646.29830673913, 76143.81028936032, -71098.70864137515, 73381.00056421764, -111790.50645715075, -0.04, 0.9500000000000001, -0.14200000000000002, 192.0, 0.0, 0.0, 0.0, 0.0, 0.0, 0.0, 0.0, 0.0, 0.0, 1.6664066820345628E9, 0.0, 2022-10-21 19:44:42.034
6.0, -143327.4767789217, -151207.47252791794, -11411.25844851237, -110631.32263795409, 76152.23689701998, -71153.6939327352, 73374.25033739214, -111763.77377078221, -0.04, 0.9500000000000001, -0.14200000000000002, 192.0, 0.0, 0.0, 0.0, 0.0, 0.0, 0.0, 0.0, 0.0, 0.0, 1.666406682034588E9, 0.0, 2022-10-21 19:44:42.034
7.0, -143339.1890930163, -151217.2402402449, -11414.007713080373, -110606.22162893077, 76164.70917042604, -71027.00424516252, 73459.41048376686, -111721.88660167297, -0.036000000000000004, 0.9460000000000001, -0.14200000000000002, 192.0, 254.0, 224.0, 29.0, 144.0, 251.0, 144.0, 0.0, 0.0, 0.0, 1.666406682034614E9, 0.0, 2022-10-21 19:44:42.034
8.0, -143343.8829593519, -151223.23050775894, -11419.662704427565, -110616.61519010249, 76158.45068197855, -70954.67400010515, 73481.04697239959, -111740.43854957087, -0.036000000000000004, 0.9460000000000001, -0.14200000000000002, 192.0, 0.0, 0.0, 0.0, 0.0, 0.0, 0.0, 0.0, 0.0, 0.0, 1.666406682034642E9, 0.0, 2022-10-21 19:44:42.034
9.0, -143339.81494186103, -151221.50942343587, -11428.201070809493, -110642.40910320391, 76151.16401328612, -71058.98959147806, 73403.21819820622, -111786.63960535999, -0.036000000000000004, 0.9460000000000001, -0.14200000000000002, 192.0, 0.0, 0.0, 0.0, 0.0, 0.0, 0.0, 0.0, 0.0, 0.0, 1.6664066820346684E9, 0.0, 2022-10-21 19:44:42.034
10.0, -143336.90921508183, -151216.72615012244, -11425.474157985946, -110626.53936464064, 76160.84231863527, -71131.52100223553, 73384.53213984158, -111762.879701004, -0.036000000000000004, 0.9460000000000001, -0.14200000000000002, 192.0, 0.0, 0.0, 0.0, 0.0, 0.0, 0.0, 0.0, 0.0, 0.0, 1.6664066820346935E9, 0.0, 2022-10-21 19:44:42.034
11.0, -143352.66719492283, -151232.66294391907, -11437.924079647551, -110619.38680641494, 76156.61783893322, -71043.74570175954, 73450.17921330681, -111725.5746395081, -0.036000000000000004, 0.9460000000000001, -0.14200000000000002, 192.0, 0.0, 0.0, 0.0, 0.0, 0.0, 0.0, 0.0, 0.0, 0.0, 1.6664066820347188E9, 0.0, 2022-10-21 19:44:42.034
12.0, -143355.30470076855, -151236.61920268767, -11445.41191404008, -110633.0660740216, 76144.05615854933, -70964.59817464331, 73479.92938517683, -111730.35791282154, -0.036000000000000004, 0.9460000000000001, -0.14200000000000002, 192.0, 0.0, 0.0, 0.0, 0.0, 0.0, 0.0, 0.0, 0.0, 0.0, 1.6664066820347445E9, 0.0, 2022-10-21 19:44:42.034
13.0, -143353.22598853422, -151232.5511851968, -11446.484797773934, -110645.20307126082, 76146.35838822823, -71042.60576279233, 73415.7798785901, -111778.01183200024, -0.036000000000000004, 0.9460000000000001, -0.14200000000000002, 192.0, 0.0, 0.0, 0.0, 0.0, 0.0, 0.0, 0.0, 0.0, 0.0, 1.6664066820348613E9, 0.0, 2022-10-21 19:44:42.034
14.0, -143354.7906106461, -151233.75817939738, -11450.262242586881, -110641.96206831481, 76150.64992316366, -71135.38785402631, 73371.00933444612, -111784.62794835902, -0.036000000000000004, 0.9460000000000001, -0.14200000000000002, 192.0, 0.0, 0.0, 0.0, 0.0, 0.0, 0.0, 0.0, 0.0, 0.0, 1.666406682034894E9, 0.0, 2022-10-21 19:44:42.034
15.0, -143350.27555826612, -151234.71930440897, -11453.100914132705, -110631.72496935427, 76150.15818478563, -71071.10423697284, 73423.87121008291, -111743.76895949472, -0.036000000000000004, 0.9460000000000001, -0.14200000000000002, 192.0, 0.0, 0.0, 0.0, 0.0, 0.0, 0.0, 0.0, 0.0, 0.0, 1.6664066820349307E9, 0.0, 2022-10-21 19:44:42.034
16.0, -143351.348442, -151231.5900601852, -11446.59655649621, -110628.41691117489, 76154.09209180977, -70955.97040128356, 73484.2879753456, -111725.64169474145, -0.036000000000000004, 0.9460000000000001, -0.14200000000000002, 192.0, 0.0, 0.0, 0.0, 0.0, 0.0, 0.0, 0.0, 0.0, 0.0, 1.6664066820349782E9, 0.0, 2022-10-21 19:44:42.034
17.0, -143351.1919797888, -151226.6950281495, -11444.249623328404, -110642.34204797055, 76150.85108886374, -71013.81671593389, 73432.07430029802, -111769.76403829624, -0.04, 0.9440000000000001, -0.14200000000000002, 192.0, 254.0, 192.0, 29.0, 128.0, 251.0, 144.0, 0.0, 0.0, 0.0, 1.6664066820350106E9, 0.0, 2022-10-21 19:44:42.035
18.0, -143351.594311189, -151224.4375019595, -11445.903652418096, -110647.10296953953, 76147.85595510673, -71144.8426419309, 73364.70614250972, -111785.47731464832, -0.04, 0.9440000000000001, -0.14200000000000002, 192.0, 0.0, 0.0, 0.0, 0.0, 0.0, 0.0, 0.0, 0.0, 0.0, 1.6664066820350385E9, 0.0, 2022-10-21 19:44:42.035
19.0, -143352.8907123674, -151222.67171414755, -11444.137864606128, -110635.8153385896, 76150.09112955227, -71111.49383920358, 73408.6273203644, -111746.85350022954, -0.04, 0.9440000000000001, -0.14200000000000002, 192.0, 0.0, 0.0, 0.0, 0.0, 0.0, 0.0, 0.0, 0.0, 0.0, 1.6664066820350645E9, 0.0, 2022-10-21 19:44:42.035
20.0, -143347.3474797425, -151219.25189724588, -11435.063056357272, -110624.72887333976, 76152.01337957542, -70985.69822140911, 73483.01392591165, -111714.26465681371, -0.04, 0.9440000000000001, -0.14200000000000002, 192.0, 0.0, 0.0, 0.0, 0.0, 0.0, 0.0, 0.0, 0.0, 0.0, 1.6664066820350897E9, 0.0, 2022-10-21 19:44:42.035
21.0, -143344.6876221523, -151220.54829842428, -11435.420684268556, -110638.05051303512, 76153.19802203156, -70992.13552381225, 73458.47171049974, -111745.26652637322, -0.04, 0.9440000000000001, -0.14200000000000002, 192.0, 0.0, 0.0, 0.0, 0.0, 0.0, 0.0, 0.0, 0.0, 0.0, 1.666406682035112E9, 0.0, 2022-10-21 19:44:42.035
22.0, -143337.75858137113, -151212.52402216484, -11431.486777244423, -110644.59957416053, 76150.94049584157, -71120.05455732996, 73388.10841895443, -111770.92632900791, -0.04, 0.9440000000000001, -0.14200000000000002, 192.0, 0.0, 0.0, 0.0, 0.0, 0.0, 0.0, 0.0, 0.0, 0.0, 1.6664066820351248E9, 0.0, 2022-10-21 19:44:42.035
23.0, -143349.8955786104, -151225.75625488238, -11440.494530259912, -110642.65497239292, 76144.81611786081, -71130.51517373505, 73403.15114297286, -111744.9759536953, -0.04, 0.9440000000000001, -0.14200000000000002, 192.0, 0.0, 0.0, 0.0, 0.0, 0.0, 0.0, 0.0, 0.0, 0.0, 1.6664066820351372E9, 0.0, 2022-10-21 19:44:42.035
24.0, -143353.56126470104, -151227.00795257188, -11443.02027738336, -110631.52380365419, 76144.19026901606, -70993.4095732462, 73478.27535608714, -111718.44443302685, -0.04, 0.9440000000000001, -0.14200000000000002, 192.0, 0.0, 0.0, 0.0, 0.0, 0.0, 0.0, 0.0, 0.0, 0.0, 1.6664066820351503E9, 0.0, 2022-10-21 19:44:42.035
25.0, -143347.1463140424, -151222.31408623626, -11439.22048082596, -110645.78421661667, 76138.98231255797, -70973.56122416988, 73462.5397279906, -111751.77088400972, -0.04, 0.9440000000000001, -0.14200000000000002, 192.0, 0.0, 0.0, 0.0, 0.0, 0.0, 0.0, 0.0, 0.0, 0.0, 1.6664066820351627E9, 0.0, 2022-10-21 19:44:42.035
26.0, -143342.11717153993, -151220.1459670241, -11434.459559256979, -110653.58497543157, 76142.0221498039, -71103.82719085542, 73384.93447124178, -111782.48218089131, -0.04, 0.9440000000000001, -0.14200000000000002, 192.0, 0.0, 0.0, 0.0, 0.0, 0.0, 0.0, 0.0, 0.0, 0.0, 1.6664066820351756E9, 0.0, 2022-10-21 19:44:42.035
27.0, -143340.46314245023, -151219.67658039054, -11428.513995231868, -110640.77742585867, 76146.04546380586, -71141.06519711795, 73389.65068932185, -111754.72131427782, -0.04, 0.9480000000000001, -0.14, 192.0, 254.0, 192.0, 29.0, 160.0, 251.0, 160.0, 0.0, 0.0, 0.0, 1.666406682035191E9, 0.0, 2022-10-21 19:44:42.035
28.0, -143343.77120062962, -151222.60465891418, -11428.536346976322, -110625.84646056253, 76148.57121092931, -71025.95371317312, 73467.23359432622, -111716.5668864926, -0.04, 0.9480000000000001, -0.14, 192.0, 0.0, 0.0, 0.0, 0.0, 0.0, 0.0, 0.0, 0.0, 0.0, 1.6664066820352273E9, 0.0, 2022-10-21 19:44:42.035
29.0, -143345.11230529693, -151222.42584495855, -11429.341009776714, -110638.54225141315, 76143.40795796012, -70972.98007881404, 73473.04504788459, -111744.23834612827, -0.04, 0.9480000000000001, -0.14, 192.0, 0.0, 0.0, 0.0, 0.0, 0.0, 0.0, 0.0, 0.0, 0.0, 1.6664066820352397E9, 0.0, 2022-10-21 19:44:42.035
30.0, -143343.1453517849, -151224.25868800387, -11429.810396410276, -110649.58401317407, 76145.66548415011, -71078.56971962091, 73399.68662258227, -111777.29657617767, -0.04, 0.9480000000000001, -0.14, 192.0, 0.0, 0.0, 0.0, 0.0, 0.0, 0.0, 0.0, 0.0, 0.0, 1.6664066820352523E9, 0.0, 2022-10-21 19:44:42.035
31.0, -143347.8839216094, -151228.90785085058, -11428.02225685385, -110642.18558575936, 76148.95119058505, -71138.58415348342, 73384.10745669693, -111757.98466896829, -0.04, 0.9480000000000001, -0.14, 192.0, 0.0, 0.0, 0.0, 0.0, 0.0, 0.0, 0.0, 0.0, 0.0, 1.6664066820352647E9, 0.0, 2022-10-21 19:44:42.035
32.0, -143341.7371918842, -151222.939935081, -11420.266201527858, -110617.59866685852, 76160.976429102, -71025.6631404952, 73465.4454547698, -111714.06349111361, -0.04, 0.9480000000000001, -0.14, 192.0, 0.0, 0.0, 0.0, 0.0, 0.0, 0.0, 0.0, 0.0, 0.0, 1.6664066820352774E9, 0.0, 2022-10-21 19:44:42.035
33.0, -143340.7760668726, -151221.75529262488, -11424.334219018725, -110624.4606524063, 76157.89188836717, -70953.1987849711, 73490.03237367063, -111731.43079655539, -0.04, 0.9480000000000001, -0.14, 192.0, 0.0, 0.0, 0.0, 0.0, 0.0, 0.0, 0.0, 0.0, 0.0, 1.66640668203529E9, 0.0, 2022-10-21 19:44:42.035
34.0, -143337.2891947376, -151220.3471327242, -11430.59270746621, -110636.0612077786, 76155.85787962173, -71048.23840239506, 73417.7244803577, -111776.80483779966, -0.04, 0.9480000000000001, -0.14, 192.0, 0.0, 0.0, 0.0, 0.0, 0.0, 0.0, 0.0, 0.0, 0.0, 1.6664066820353024E9, 0.0, 2022-10-21 19:44:42.035
35.0, -143331.0307062901, -151214.22275474344, -11428.513995231868, -110621.97960877176, 76161.78109190239, -71133.35384528087, 73385.44856136425, -111767.23829117279, -0.04, 0.9480000000000001, -0.14, 192.0, 0.0, 0.0, 0.0, 0.0, 0.0, 0.0, 0.0, 0.0, 0.0, 1.666406682035315E9, 0.0, 2022-10-21 19:44:42.035
36.0, -143346.92279659782, -151227.7455601389, -11447.624736741154, -110618.13510872544, 76154.8744028657, -71054.16161467572, 73441.50673645816, -111732.48132854479, -0.04, 0.9480000000000001, -0.14, 192.0, 0.0, 0.0, 0.0, 0.0, 0.0, 0.0, 0.0, 0.0, 0.0, 1.6664066820353277E9, 0.0, 2022-10-21 19:44:42.035
37.0, -143351.75077340018, -151231.6347636741, -11457.83948395723, -110632.57433564357, 76141.46335619251, -70955.41160767217, 73479.30353633208, -111744.21599438382, -0.046, 0.9500000000000001, -0.136, 192.0, 254.0, 144.0, 29.0, 176.0, 251.0, 192.0, 0.0, 0.0, 0.0, 1.6664066820353403E9, 0.0, 2022-10-21 19:44:42.035
38.0, -143345.5816919305, -151229.95838283998, -11451.446885043011, -110640.10687352502, 76146.4254434616, -71027.63009400727, 73425.25701823915, -111777.72125932232, -0.046, 0.9500000000000001, -0.136, 192.0, 0.0, 0.0, 0.0, 0.0, 0.0, 0.0, 0.0, 0.0, 0.0, 1.666406682035354E9, 0.0, 2022-10-21 19:44:42.035
39.0, -143348.15214254288, -151235.8368916317, -11456.811303712286, -110638.69871362433, 76150.24759176346, -71131.31983653543, 73378.36305837192, -111775.30727092116, -0.046, 0.9500000000000001, -0.136, 192.0, 0.0, 0.0, 0.0, 0.0, 0.0, 0.0, 0.0, 0.0, 0.0, 1.6664066820353668E9, 0.0, 2022-10-21 19:44:42.035
40.0, -143345.2911192526, -151230.27130726236, -11460.052306658305, -110618.80566105912, 76154.94145809907, -71072.80296955144, 73436.70111140027, -111725.03819764116, -0.046, 0.9500000000000001, -0.136, 192.0, 0.0, 0.0, 0.0, 0.0, 0.0, 0.0, 0.0, 0.0, 0.0, 1.6664066820353792E9, 0.0, 2022-10-21 19:44:42.035
41.0, -143343.45827620724, -151226.0468275603, -11467.003699183906, -110621.06318724909, 76149.66644640762, -70959.70314260758, 73495.97793769574, -111710.91189514541, -0.046, 0.9500000000000001, -0.136, 192.0, 0.0, 0.0, 0.0, 0.0, 0.0, 0.0, 0.0, 0.0, 0.0, 1.666406682035392E9, 0.0, 2022-10-21 19:44:42.035
42.0, -143338.49618893818, -151219.5424699238, -11467.65189977311, -110632.99901878822, 76151.56634468632, -70996.40470700321, 73454.89543138689, -111747.23347988528, -0.046, 0.9500000000000001, -0.136, 192.0, 0.0, 0.0, 0.0, 0.0, 0.0, 0.0, 0.0, 0.0, 0.0, 1.6664066820354047E9, 0.0, 2022-10-21 19:44:42.035
43.0, -143335.14342726988, -151220.01185655736, -11462.019260170373, -110631.90378330991, 76158.51773721192, -71116.94766485068, 73396.89265452536, -111759.37047712451, -0.046, 0.9500000000000001, -0.136, 192.0, 0.0, 0.0, 0.0, 0.0, 0.0, 0.0, 0.0, 0.0, 0.0, 1.6664066820354297E9, 0.0, 2022-10-21 19:44:42.035
44.0, -143340.843122106, -151228.46081596147, -11465.84140847223, -110613.88827727894, 76162.63045819169, -71097.12166751882, 73433.2812944986, -111723.74179646275, -0.046, 0.9500000000000001, -0.136, 192.0, 0.0, 0.0, 0.0, 0.0, 0.0, 0.0, 0.0, 0.0, 0.0, 1.6664066820354424E9, 0.0, 2022-10-21 19:44:42.035
45.0, -143342.36304072893, -151229.6901619065, -11471.831675986252, -110605.3052074081, 76158.38362674518, -70974.07531429235, 73498.63779528592, -111712.27535155718, -0.046, 0.9500000000000001, -0.136, 192.0, 0.0, 0.0, 0.0, 0.0, 0.0, 0.0, 0.0, 0.0, 0.0, 1.6664066820354552E9, 0.0, 2022-10-21 19:44:42.035
46.0, -143330.65072663437, -151216.05559778877, -11469.797667240819, -110607.49567836472, 76160.35058025725, -70970.02964854594, 73478.87885318743, -111739.32096234811, -0.038, 0.9420000000000001, -0.138, 192.0, 254.0, 208.0, 29.0, 112.0, 251.0, 176.0, 0.0, 0.0, 0.0, 1.6664066820354693E9, 0.0, 2022-10-21 19:44:42.035
47.0, -143336.328069726, -151219.87774609064, -11483.543990080832, -110632.44022517685, 76144.5255451829, -71106.57645542342, 73391.23766317817, -111770.6804598189, -0.038, 0.9420000000000001, -0.138, 192.0, 0.0, 0.0, 0.0, 0.0, 0.0, 0.0, 0.0, 0.0, 0.0, 1.666406682035484E9, 0.0, 2022-10-21 19:44:42.035
48.0, -143341.40191571738, -151225.55508918228, -11487.276731404869, -110624.84063206204, 76141.75392887044, -71121.59682769739, 73402.32412842801, -111754.2742793887, -0.038, 0.9420000000000001, -0.138, 192.0, 0.0, 0.0, 0.0, 0.0, 0.0, 0.0, 0.0, 0.0, 0.0, 1.6664066820354984E9, 0.0, 2022-10-21 19:44:42.035
49.0, -143336.10455228147, -151220.48124319094, -11484.974501725972, -110605.39461438592, 76148.16887952911, -70990.30268076691, 73482.25396660018, -111725.97697090829, -0.038, 0.9420000000000001, -0.138, 192.0, 0.0, 0.0, 0.0, 0.0, 0.0, 0.0, 0.0, 0.0, 0.0, 1.666406682035511E9, 0.0, 2022-10-21 19:44:42.035
50.0, -143334.2717092361, -151220.5930019132, -11487.477897104967, -110618.49273663673, 76144.74906262745, -70961.60304088629, 73476.35310606398, -111751.23444214278, -0.038, 0.9420000000000001, -0.138, 192.0, 0.0, 0.0, 0.0, 0.0, 0.0, 0.0, 0.0, 0.0, 0.0, 1.666406682035525E9, 0.0, 2022-10-21 19:44:42.035
51.0, -143330.94129931228, -151217.01672280036, -11487.433193616056, -110622.7619198277, 76148.43710046257, -71081.20722546664, 73402.77116331711, -111776.38015465501, -0.038, 0.9420000000000001, -0.138, 192.0, 0.0, 0.0, 0.0, 0.0, 0.0, 0.0, 0.0, 0.0, 0.0, 1.6664066820355375E9, 0.0, 2022-10-21 19:44:42.035
52.0, -143332.9753080577, -151215.87678383314, -11491.814135529297, -110610.82608828857, 76152.48276620898, -71117.97584509561, 73399.46310513772, -111756.55415732315, -0.038, 0.9420000000000001, -0.138, 192.0, 0.0, 0.0, 0.0, 0.0, 0.0, 0.0, 0.0, 0.0, 0.0, 1.6664066820355504E9, 0.0, 2022-10-21 19:44:42.035
53.0, -143332.5729766575, -151217.55316466728, -11490.27186516188, -110594.62107355846, 76152.77333888691, -71011.91681765519, 73475.05670488557, -111713.95173239133, -0.038, 0.9420000000000001, -0.138, 192.0, 0.0, 0.0, 0.0, 0.0, 0.0, 0.0, 0.0, 0.0, 0.0, 1.666406682035563E9, 0.0, 2022-10-21 19:44:42.035
54.0, -143332.99765980217, -151222.4929001919, -11494.295179163835, -110605.08168996355, 76147.6771411511, -70958.00441002898, 73485.56202477956, -111738.62805827, -0.038, 0.9420000000000001, -0.138, 192.0, 0.0, 0.0, 0.0, 0.0, 0.0, 0.0, 0.0, 0.0, 0.0, 1.6664066820355756E9, 0.0, 2022-10-21 19:44:42.035
55.0, -143331.3883342014, -151215.18387975503, -11493.602275085721, -110619.96795177078, 76147.38656847317, -71072.02065849552, 73408.15793373084, -111780.24700644577, -0.038, 0.9420000000000001, -0.138, 192.0, 0.0, 0.0, 0.0, 0.0, 0.0, 0.0, 0.0, 0.0, 0.0, 1.6664066820355885E9, 0.0, 2022-10-21 19:44:42.035
56.0, -143329.3766772004, -151209.59594364118, -11487.835525016251, -110602.73475679575, 76158.96477210103, -71142.3392465519, 73393.04815447905, -111754.76601776673, -0.038, 0.9440000000000001, -0.138, 192.0, 254.0, 208.0, 29.0, 128.0, 251.0, 176.0, 0.0, 0.0, 0.0, 1.666406682035601E9, 0.0, 2022-10-21 19:44:42.035
57.0, -143327.85675857746, -151212.50167042037, -11488.059042460805, -110579.37718383994, 76168.62072570571, -71028.79238471895, 73473.51443451816, -111712.05183411263, -0.038, 0.9440000000000001, -0.138, 192.0, 0.0, 0.0, 0.0, 0.0, 0.0, 0.0, 0.0, 0.0, 0.0, 1.6664066820356147E9, 0.0, 2022-10-21 19:44:42.035
58.0, -143327.2309097327, -151212.9934087984, -11490.137754695148, -110590.37424211195, 76165.08915008178, -70937.8431365303, 73506.81853375657, -111720.18786909437, -0.038, 0.9440000000000001, -0.138, 192.0, 0.0, 0.0, 0.0, 0.0, 0.0, 0.0, 0.0, 0.0, 0.0, 1.6664066820356398E9, 0.0, 2022-10-21 19:44:42.035
59.0, -143328.34849695547, -151212.12169076464, -11493.959902997007, -110611.87662027797, 76157.66837092262, -71035.05087316643, 73429.45914619675, -111777.85536978906, -0.038, 0.9440000000000001, -0.138, 192.0, 0.0, 0.0, 0.0, 0.0, 0.0, 0.0, 0.0, 0.0, 0.0, 1.6664066820356522E9, 0.0, 2022-10-21 19:44:42.035
60.0, -143329.3766772004, -151210.04297853028, -11493.98225474146, -110607.92036150937, 76156.9754668445, -71141.40047328478, 73387.54962534305, -111774.94964300987, -0.038, 0.9440000000000001, -0.138, 192.0, 0.0, 0.0, 0.0, 0.0, 0.0, 0.0, 0.0, 0.0, 0.0, 1.6664066820356648E9, 0.0, 2022-10-21 19:44:42.035
61.0, -143346.69927915328, -151222.64936240308, -11508.443833404046, -110598.93496023834, 76149.46528070752, -71067.37149564881, 73442.42315798083, -111739.11979664801, -0.038, 0.9440000000000001, -0.138, 192.0, 0.0, 0.0, 0.0, 0.0, 0.0, 0.0, 0.0, 0.0, 0.0, 1.6664066820356777E9, 0.0, 2022-10-21 19:44:42.035
62.0, -143335.90338658137, -151215.04976928828, -11504.644036846643, -110597.7503177822, 76149.55468768533, -70948.1472907242, 73499.1965888973, -111723.29476157365, -0.038, 0.9440000000000001, -0.138, 192.0, 0.0, 0.0, 0.0, 0.0, 0.0, 0.0, 0.0, 0.0, 0.0, 1.6664066820356903E9, 0.0, 2022-10-21 19:44:42.035
63.0, -143330.65072663437, -151205.68438836152, -11500.218391444492, -110618.47038489228, 76144.10086203825, -71013.2579223225, 73443.92072485933, -111771.84275053057, -0.038, 0.9440000000000001, -0.138, 192.0, 0.0, 0.0, 0.0, 0.0, 0.0, 0.0, 0.0, 0.0, 0.0, 1.6664066820357034E9, 0.0, 2022-10-21 19:44:42.035
64.0, -143328.25908997766, -151202.97982728243, -11494.362234397202, -110619.90089653742, 76142.75975737092, -71140.19347908419, 73387.30375615404, -111782.8845122915, -0.038, 0.9440000000000001, -0.138, 192.0, 0.0, 0.0, 0.0, 0.0, 0.0, 0.0, 0.0, 0.0, 0.0, 1.6664066820357163E9, 0.0, 2022-10-21 19:44:42.035
65.0, -143326.40389518786, -151201.52696389283, -11490.025995972872, -110597.19152417082, 76151.14166154167, -71088.85152207036, 73437.84105036748, -111736.70580824684, -0.038, 0.9440000000000001, -0.138, 192.0, 0.0, 0.0, 0.0, 0.0, 0.0, 0.0, 0.0, 0.0, 0.0, 1.6664066820357292E9, 0.0, 2022-10-21 19:44:42.035
66.0, -143335.7245726257, -151212.32285646474, -11503.191173457048, -110606.17692544186, 76138.89290558016, -70965.00050604349, 73488.2442341142, -111736.16936637991, -0.036000000000000004, 0.9480000000000001, -0.14400000000000002, 192.0, 254.0, 224.0, 29.0, 160.0, 251.0, 128.0, 0.0, 0.0, 0.0, 1.6664066820357416E9, 0.0, 2022-10-21 19:44:42.035
67.0, -143331.075409779, -151211.11586226415, -11491.836487273751, -110620.32557968207, 76141.64217014816, -70996.73998317003, 73452.81671915254, -111766.92536675041, -0.036000000000000004, 0.9480000000000001, -0.14400000000000002, 192.0, 0.0, 0.0, 0.0, 0.0, 0.0, 0.0, 0.0, 0.0, 0.0, 1.6664066820357552E9, 0.0, 2022-10-21 19:44:42.035
68.0, -143328.6837731223, -151207.89721106258, -11488.327263394269, -110616.4587278913, 76150.62757141919, -71118.66874917374, 73393.98692774617, -111775.06140173215, -0.036000000000000004, 0.9480000000000001, -0.14400000000000002, 192.0, 0.0, 0.0, 0.0, 0.0, 0.0, 0.0, 0.0, 0.0, 0.0, 1.666406682035768E9, 0.0, 2022-10-21 19:44:42.035
69.0, -143327.8791103219, -151206.77962383983, -11493.356405896713, -110602.73475679575, 76151.70045515304, -71101.59201640988, 73422.82067809351, -111747.90403221894, -0.036000000000000004, 0.9480000000000001, -0.14400000000000002, 192.0, 0.0, 0.0, 0.0, 0.0, 0.0, 0.0, 0.0, 0.0, 0.0, 1.6664066820357819E9, 0.0, 2022-10-21 19:44:42.035
70.0, -143321.5312148966, -151201.57166738174, -11496.060966975805, -110584.27221587567, 76154.36031274323, -70963.23471823153, 73495.03916442861, -111725.14995636344, -0.036000000000000004, 0.9480000000000001, -0.14400000000000002, 192.0, 0.0, 0.0, 0.0, 0.0, 0.0, 0.0, 0.0, 0.0, 0.0, 1.6664066820357943E9, 0.0, 2022-10-21 19:44:42.035
71.0, -143321.71002885225, -151206.71256860645, -11502.587676356754, -110608.76972779867, 76140.23401024747, -70962.92179380916, 73463.43379776881, -111767.26064291724, -0.036000000000000004, 0.9480000000000001, -0.14400000000000002, 192.0, 0.0, 0.0, 0.0, 0.0, 0.0, 0.0, 0.0, 0.0, 0.0, 1.6664066820358067E9, 0.0, 2022-10-21 19:44:42.035
72.0, -143332.3718109574, -151217.53081292284, -11509.382606671168, -110630.92030655389, 76127.73938509695, -71111.00210082557, 73375.1667589148, -111803.4928206793, -0.036000000000000004, 0.9480000000000001, -0.14400000000000002, 192.0, 0.0, 0.0, 0.0, 0.0, 0.0, 0.0, 0.0, 0.0, 0.0, 1.6664066820358195E9, 0.0, 2022-10-21 19:44:42.035
73.0, -143337.91504358232, -151223.16345252556, -11515.194060229547, -110613.57535285657, 76134.78018460039, -71131.789223169, 73388.24252942116, -111772.11097146405, -0.036000000000000004, 0.9480000000000001, -0.14400000000000002, 192.0, 0.0, 0.0, 0.0, 0.0, 0.0, 0.0, 0.0, 0.0, 0.0, 1.666406682035844E9, 0.0, 2022-10-21 19:44:42.035
74.0, -143342.4300959623, -151226.35975198267, -11522.525432410888, -110601.0583759616, 76137.66355963511, -70998.72928842656, 73469.13349260492, -111737.73398849177, -0.036000000000000004, 0.9480000000000001, -0.14400000000000002, 192.0, 0.0, 0.0, 0.0, 0.0, 0.0, 0.0, 0.0, 0.0, 0.0, 1.6664066820358567E9, 0.0, 2022-10-21 19:44:42.035
75.0, -143337.6915261378, -151224.4375019595, -11525.922897568094, -110609.79790804362, 76135.40603344514, -70963.86056707628, 73463.9925913802, -111772.35684065305, -0.042, 0.9480000000000001, -0.138, 192.0, 254.0, 176.0, 29.0, 160.0, 251.0, 176.0, 0.0, 0.0, 0.0, 1.6664066820358696E9, 0.0, 2022-10-21 19:44:42.035
76.0, -143324.4816451647, -151213.46279543196, -11513.249458461936, -110610.5578673551, 76144.0785102938, -71091.44432442717, 73392.69052656776, -111792.16048624045, -0.042, 0.9480000000000001, -0.138, 192.0, 0.0, 0.0, 0.0, 0.0, 0.0, 0.0, 0.0, 0.0, 0.0, 1.666406682035885E9, 0.0, 2022-10-21 19:44:42.035
77.0, -143329.3766772004, -151213.59690589868, -11511.99776077244, -110594.33050088055, 76157.73542615598, -71125.2848655325, 73399.70897432673, -111762.4326661149, -0.042, 0.9480000000000001, -0.138, 192.0, 0.0, 0.0, 0.0, 0.0, 0.0, 0.0, 0.0, 0.0, 0.0, 1.6664066820358977E9, 0.0, 2022-10-21 19:44:42.035
78.0, -143330.94129931228, -151213.28398147633, -11512.623609617187, -110581.12061990747, 76159.34475175677, -71007.93820714214, 73480.75639972168, -111725.619342997, -0.042, 0.9480000000000001, -0.138, 192.0, 0.0, 0.0, 0.0, 0.0, 0.0, 0.0, 0.0, 0.0, 0.0, 1.6664066820359104E9, 0.0, 2022-10-21 19:44:42.035
79.0, -143326.09097076548, -151211.5405454088, -11512.847127061741, -110584.62984378694, 76158.0259988339, -70941.97820925454, 73501.14119066492, -111741.77965423818, -0.042, 0.9480000000000001, -0.138, 192.0, 0.0, 0.0, 0.0, 0.0, 0.0, 0.0, 0.0, 0.0, 0.0, 1.666406682035923E9, 0.0, 2022-10-21 19:44:42.035
80.0, -143322.827616075, -151208.52305990734, -11515.551688140833, -110604.43348937435, 76151.87926910869, -71057.73789378857, 73421.7254426152, -111788.20422747187, -0.042, 0.9480000000000001, -0.138, 192.0, 0.0, 0.0, 0.0, 0.0, 0.0, 0.0, 0.0, 0.0, 0.0, 1.6664066820359356E9, 0.0, 2022-10-21 19:44:42.035
81.0, -143322.84996781946, -151205.57262963924, -11513.964714284506, -110592.40825085739, 76160.48469072398, -71141.93691515172, 73396.44561963626, -111768.08765746209, -0.042, 0.9480000000000001, -0.138, 192.0, 0.0, 0.0, 0.0, 0.0, 0.0, 0.0, 0.0, 0.0, 0.0, 1.6664066820359483E9, 0.0, 2022-10-21 19:44:42.035
82.0, -143335.2328342477, -151216.97201931145, -11528.51569992491, -110577.47728556124, 76161.1775948021, -71049.64656229575, 73458.87404189994, -111732.48132854479, -0.042, 0.9480000000000001, -0.138, 192.0, 0.0, 0.0, 0.0, 0.0, 0.0, 0.0, 0.0, 0.0, 0.0, 1.666406682035961E9, 0.0, 2022-10-21 19:44:42.035
83.0, -143336.6856976373, -151220.9953333134, -11532.80723486033, -110583.42284958636, 76157.28839126688, -70948.16964246865, 73496.31321386257, -111742.36079959403, -0.042, 0.9480000000000001, -0.138, 192.0, 0.0, 0.0, 0.0, 0.0, 0.0, 0.0, 0.0, 0.0, 0.0, 1.6664066820359735E9, 0.0, 2022-10-21 19:44:42.035
84.0, -143344.1958837743, -151232.3947229856, -11541.47971170899, -110616.81635580258, 76140.54693466985, -71032.34631208733, 73420.25022748116, -111801.4364601894, -0.042, 0.9480000000000001, -0.138, 192.0, 0.0, 0.0, 0.0, 0.0, 0.0, 0.0, 0.0, 0.0, 0.0, 1.6664066820359864E9, 0.0, 2022-10-21 19:44:42.035
85.0, -143332.84119759098, -151222.31408623626, -11534.729484883486, -110616.70459708032, 76140.18930675856, -71149.51415652205, 73373.49037808066, -111798.37427119903, -0.04, 0.9400000000000001, -0.14200000000000002, 192.0, 254.0, 192.0, 29.0, 96.0, 251.0, 144.0, 0.0, 0.0, 0.0, 1.666406682035999E9, 0.0, 2022-10-21 19:44:42.035
86.0, -143333.08706678, -151219.7436356239, -11532.94134532706, -110591.33536712354, 76151.63339991968, -71074.00996375203, 73438.24338176768, -111752.66495378793, -0.04, 0.9400000000000001, -0.14200000000000002, 192.0, 0.0, 0.0, 0.0, 0.0, 0.0, 0.0, 0.0, 0.0, 0.0, 1.666406682036013E9, 0.0, 2022-10-21 19:44:42.036
87.0, -143331.09776152347, -151218.15666176757, -11535.534147683877, -110598.86790500497, 76144.16791727161, -70959.18905248512, 73489.9429666928, -111745.69120951787, -0.04, 0.9400000000000001, -0.14200000000000002, 192.0, 0.0, 0.0, 0.0, 0.0, 0.0, 0.0, 0.0, 0.0, 0.0, 1.6664066820360255E9, 0.0, 2022-10-21 19:44:42.036
88.0, -143327.34266845498, -151215.02741754384, -11537.679915151586, -110619.76678607069, 76134.40020494464, -71019.02467239197, 73435.7846898776, -111785.94670128188, -0.04, 0.9400000000000001, -0.14200000000000002, 192.0, 0.0, 0.0, 0.0, 0.0, 0.0, 0.0, 0.0, 0.0, 0.0, 1.6664066820360503E9, 0.0, 2022-10-21 19:44:42.036
89.0, -143319.20663347325, -151203.35980693816, -11529.499176680943, -110615.74347206873, 76139.42934744709, -71131.76687142455, 73384.8674160084, -111792.67457636293, -0.04, 0.9400000000000001, -0.14200000000000002, 192.0, 0.0, 0.0, 0.0, 0.0, 0.0, 0.0, 0.0, 0.0, 0.0, 1.6664066820360627E9, 0.0, 2022-10-21 19:44:42.036
90.0, -143328.2814417221, -151208.25483897387, -11534.304801738836, -110605.01463473018, 76143.40795796012, -71096.78639135198, 73427.15691651785, -111753.87194798852, -0.04, 0.9400000000000001, -0.14200000000000002, 192.0, 0.0, 0.0, 0.0, 0.0, 0.0, 0.0, 0.0, 0.0, 0.0, 1.6664066820360756E9, 0.0, 2022-10-21 19:44:42.036
91.0, -143341.06663955052, -151220.21302225746, -11550.688630424576, -110617.19633545833, 76126.0183007739, -70981.33963124033, 73479.81762645455, -111750.74270376477, -0.04, 0.9400000000000001, -0.14200000000000002, 192.0, 0.0, 0.0, 0.0, 0.0, 0.0, 0.0, 0.0, 0.0, 0.0, 1.6664066820360901E9, 0.0, 2022-10-21 19:44:42.036
92.0, -143331.79066560158, -151215.72032162195, -11549.258118779437, -110625.68999835134, 76125.86183856272, -70994.86243663578, 73447.02761733862, -111776.80483779966, -0.04, 0.9400000000000001, -0.14200000000000002, 192.0, 0.0, 0.0, 0.0, 0.0, 0.0, 0.0, 0.0, 0.0, 0.0, 1.6664066820361032E9, 0.0, 2022-10-21 19:44:42.036
93.0, -143329.3319737115, -151211.58524889773, -11549.57104320181, -110633.44605367734, 76127.40410893013, -71115.85242937236, 73378.63127930538, -111793.94862579688, -0.04, 0.9400000000000001, -0.14200000000000002, 192.0, 0.0, 0.0, 0.0, 0.0, 0.0, 0.0, 0.0, 0.0, 0.0, 1.6664066820361156E9, 0.0, 2022-10-21 19:44:42.036
94.0, -143335.74692437018, -151214.20040299898, -11556.38832526068, -110622.33723668304, 76125.25834146242, -71128.48116498961, 73393.31637541251, -111776.17898895491, -0.04, 0.9400000000000001, -0.14200000000000002, 192.0, 0.0, 0.0, 0.0, 0.0, 0.0, 0.0, 0.0, 0.0, 0.0, 1.6664066820361285E9, 0.0, 2022-10-21 19:44:42.036
95.0, -143335.29988948107, -151213.39574019858, -11554.197854304059, -110595.89512299241, 76136.1659927566, -70990.9061778672, 73478.76709446515, -111740.75147399325, -0.044, 0.9380000000000001, -0.14400000000000002, 192.0, 254.0, 160.0, 29.0, 80.0, 251.0, 128.0, 0.0, 0.0, 0.0, 1.6664066820361412E9, 0.0, 2022-10-21 19:44:42.036
96.0, -143336.5292354261, -151214.44627218798, -11555.963642116028, -110611.09430922203, 76134.04257703335, -70972.28717473593, 73467.88179491542, -111764.64548881596, -0.044, 0.9380000000000001, -0.14400000000000002, 192.0, 0.0, 0.0, 0.0, 0.0, 0.0, 0.0, 0.0, 0.0, 0.0, 1.666406682036156E9, 0.0, 2022-10-21 19:44:42.036
97.0, -143337.06567729302, -151214.55803091027, -11560.635156707187, -110628.84159431954, 76131.58388514328, -71106.46469670114, 73390.18713118877, -111795.37913744201, -0.044, 0.9380000000000001, -0.14400000000000002, 192.0, 0.0, 0.0, 0.0, 0.0, 0.0, 0.0, 0.0, 0.0, 0.0, 1.6664066820361686E9, 0.0, 2022-10-21 19:44:42.036
98.0, -143339.45731394974, -151214.26745823235, -11557.640022950176, -110611.09430922203, 76142.0221498039, -71142.83098492993, 73398.74784931516, -111765.85248301656, -0.044, 0.9380000000000001, -0.14400000000000002, 192.0, 0.0, 0.0, 0.0, 0.0, 0.0, 0.0, 0.0, 0.0, 0.0, 1.6664066820361812E9, 0.0, 2022-10-21 19:44:42.036
99.0, -143346.56516868653, -151222.64936240308, -11562.713868941531, -110593.07880319105, 76146.82777486178, -71019.02467239197, 73475.12376011894, -111732.99541866725, -0.044, 0.9380000000000001, -0.14400000000000002, 192.0, 0.0, 0.0, 0.0, 0.0, 0.0, 0.0, 0.0, 0.0, 0.0, 1.6664066820361936E9, 0.0, 2022-10-21 19:44:42.036
100.0, -143347.97332858722, -151225.13040603764, -11567.899473655161, -110599.38199512745, 76143.74323412696, -70968.04034328942, 73480.82345495504, -111759.21401491333, -0.044, 0.9380000000000001, -0.14400000000000002, 192.0, 0.0, 0.0, 0.0, 0.0, 0.0, 0.0, 0.0, 0.0, 0.0, 1.6664066820362062E9, 0.0, 2022-10-21 19:44:42.036
101.0, -143345.40287797488, -151219.31895247925, -11563.540883486377, -110607.65214057591, 76148.3253417403, -71075.95456551964, 73410.9742535322, -111794.95445429736, -0.044, 0.9380000000000001, -0.14400000000000002, 192.0, 0.0, 0.0, 0.0, 0.0, 0.0, 0.0, 0.0, 0.0, 0.0, 1.666406682036219E9, 0.0, 2022-10-21 19:44:42.036
102.0, -143340.4854941947, -151214.44627218798, -11556.56713921632, -110592.4529543463, 76159.68002792359, -71134.73965343711, 73406.07922149649, -111764.95841323835, -0.044, 0.9380000000000001, -0.14400000000000002, 192.0, 0.0, 0.0, 0.0, 0.0, 0.0, 0.0, 0.0, 0.0, 0.0, 1.6664066820362315E9, 0.0, 2022-10-21 19:44:42.036
103.0, -143355.32705251302, -151235.03222883132, -11576.10256387026, -110595.3586811255, 76146.85012660625, -71034.33561734387, 73467.09948385948, -111735.94584893536, -0.044, 0.9380000000000001, -0.14400000000000002, 192.0, 0.0, 0.0, 0.0, 0.0, 0.0, 0.0, 0.0, 0.0, 0.0, 1.6664066820362556E9, 0.0, 2022-10-21 19:44:42.036
104.0, -143346.3863547309, -151226.51621419386, -11576.549598759366, -110600.6560445614, 76142.06685329281, -70951.85768030377, 73490.76998123765, -111755.95066022285, -0.042, 0.9400000000000001, -0.14400000000000002, 192.0, 254.0, 176.0, 29.0, 96.0, 251.0, 128.0, 0.0, 0.0, 0.0, 1.666406682036268E9, 0.0, 2022-10-21 19:44:42.036
105.0, -143335.00931680316, -151208.07602501824, -11569.441744022579, -110614.26825693468, 76141.08337653677, -71049.73596927356, 73418.26092222464, -111800.87766657802, -0.042, 0.9400000000000001, -0.14400000000000002, 192.0, 0.0, 0.0, 0.0, 0.0, 0.0, 0.0, 0.0, 0.0, 0.0, 1.6664066820362816E9, 0.0, 2022-10-21 19:44:42.036
106.0, -143340.66430815033, -151208.18778374052, -11574.649700480664, -110612.99420750073, 76140.23401024747, -71143.65799947477, 73374.67502053679, -111800.67650087792, -0.042, 0.9400000000000001, -0.14400000000000002, 192.0, 0.0, 0.0, 0.0, 0.0, 0.0, 0.0, 0.0, 0.0, 0.0, 1.666406682036294E9, 0.0, 2022-10-21 19:44:42.036
107.0, -143347.74981114268, -151217.73197862293, -11576.661357481642, -110597.07976544855, 76143.40795796012, -71051.43470185217, 73440.88088761341, -111757.78350326819, -0.042, 0.9400000000000001, -0.14400000000000002, 192.0, 0.0, 0.0, 0.0, 0.0, 0.0, 0.0, 0.0, 0.0, 0.0, 1.6664066820363064E9, 0.0, 2022-10-21 19:44:42.036
108.0, -143343.95001458528, -151222.2917344918, -11565.95487188755, -110582.95346295279, 76153.89092610967, -70930.55646783787, 73502.68346103233, -111739.65623851493, -0.042, 0.9400000000000001, -0.14400000000000002, 192.0, 0.0, 0.0, 0.0, 0.0, 0.0, 0.0, 0.0, 0.0, 0.0, 1.6664066820363193E9, 0.0, 2022-10-21 19:44:42.036
109.0, -143344.62056691892, -151225.01864731536, -11569.397040533668, -110614.33531216804, 76138.33411196877, -71025.57373351738, 73429.41444270783, -111785.27614894822, -0.042, 0.9400000000000001, -0.14400000000000002, 192.0, 0.0, 0.0, 0.0, 0.0, 0.0, 0.0, 0.0, 0.0, 0.0, 1.6664066820363317E9, 0.0, 2022-10-21 19:44:42.036
110.0, -143341.7818953731, -151218.84956584568, -11570.134648100693, -110620.4596901488, 76141.23983874796, -71134.15850808127, 73380.91115723983, -111785.38790767049, -0.042, 0.9400000000000001, -0.14400000000000002, 192.0, 0.0, 0.0, 0.0, 0.0, 0.0, 0.0, 0.0, 0.0, 0.0, 1.6664066820363455E9, 0.0, 2022-10-21 19:44:42.036
111.0, -143347.7945146316, -151219.65422864608, -11573.308595813347, -110610.20023944382, 76137.23887649046, -71079.79906556595, 73429.30268398556, -111754.94483172237, -0.042, 0.9400000000000001, -0.14400000000000002, 192.0, 0.0, 0.0, 0.0, 0.0, 0.0, 0.0, 0.0, 0.0, 0.0, 1.666406682036358E9, 0.0, 2022-10-21 19:44:42.036
112.0, -143357.31635776954, -151226.42680721605, -11576.057860381348, -110608.16623069838, 76133.46143167751, -70963.63704963172, 73489.60769052598, -111745.73591300678, -0.042, 0.9400000000000001, -0.14400000000000002, 192.0, 0.0, 0.0, 0.0, 0.0, 0.0, 0.0, 0.0, 0.0, 0.0, 1.666406682036377E9, 0.0, 2022-10-21 19:44:42.036
113.0, -143350.0967443105, -151225.44333046, -11575.275549325414, -110620.48204189325, 76131.62858863219, -70998.03638434844, 73446.40176849387, -111783.15273322497, -0.042, 0.9400000000000001, -0.14400000000000002, 192.0, 0.0, 0.0, 0.0, 0.0, 0.0, 0.0, 0.0, 0.0, 0.0, 1.666406682036389E9, 0.0, 2022-10-21 19:44:42.036
114.0, -143344.4417529633, -151222.1352722806, -11580.237636594491, -110629.7580158422, 76124.40897517312, -71125.97776961062, 73375.03264844808, -111804.3868904575, -0.038, 0.9440000000000001, -0.14200000000000002, 192.0, 254.0, 208.0, 29.0, 128.0, 251.0, 144.0, 0.0, 0.0, 0.0, 1.6664066820364006E9, 0.0, 2022-10-21 19:44:42.036
115.0, -143347.2357210202, -151221.8894030916, -11583.925674429616, -110614.53647786814, 76128.72286185299, -71102.64254839928, 73410.14723898737, -111766.79125628369, -0.038, 0.9440000000000001, -0.14200000000000002, 192.0, 0.0, 0.0, 0.0, 0.0, 0.0, 0.0, 0.0, 0.0, 0.0, 1.6664066820364132E9, 0.0, 2022-10-21 19:44:42.036
116.0, -143356.7352124137, -151228.684333406, -11589.625369265721, -110605.95340799731, 76129.05813801983, -70971.16958751317, 73484.35503057898, -111738.2257268698, -0.038, 0.9440000000000001, -0.14200000000000002, 192.0, 0.0, 0.0, 0.0, 0.0, 0.0, 0.0, 0.0, 0.0, 0.0, 1.6664066820364249E9, 0.0, 2022-10-21 19:44:42.036
117.0, -143355.95290135776, -151229.4889962064, -11593.425165823122, -110616.19050695784, 76125.75007984044, -70975.43877070413, 73456.34829477649, -111774.2343871873, -0.038, 0.9440000000000001, -0.14200000000000002, 192.0, 0.0, 0.0, 0.0, 0.0, 0.0, 0.0, 0.0, 0.0, 0.0, 1.6664066820364363E9, 0.0, 2022-10-21 19:44:42.036
118.0, -143348.6885844098, -151222.42584495855, -11592.486392556, -110616.27991393566, 76126.19711472954, -71121.14979280827, 73376.10553218193, -111801.52586716722, -0.038, 0.9440000000000001, -0.14200000000000002, 192.0, 0.0, 0.0, 0.0, 0.0, 0.0, 0.0, 0.0, 0.0, 0.0, 1.666406682036522E9, 0.0, 2022-10-21 19:44:42.036
119.0, -143370.10155559797, -151240.21783354497, -11610.323084631334, -110614.35766391251, 76123.96194028402, -71140.4393482732, 73381.5146543401, -111782.28101519121, -0.038, 0.9440000000000001, -0.14200000000000002, 192.0, 0.0, 0.0, 0.0, 0.0, 0.0, 0.0, 0.0, 0.0, 0.0, 1.666406682036534E9, 0.0, 2022-10-21 19:44:42.036
120.0, -143366.97231137424, -151237.06623757677, -11600.91300021565, -110592.31884387956, 76143.63147540468, -70987.59811968781, 73484.51149279016, -111731.45314829984, -0.038, 0.9440000000000001, -0.14200000000000002, 192.0, 0.0, 0.0, 0.0, 0.0, 0.0, 0.0, 0.0, 0.0, 0.0, 1.6664066820365465E9, 0.0, 2022-10-21 19:44:42.036
121.0, -143357.80809614755, -151229.46664446197, -11603.706968272563, -110605.34991089701, 76146.44779520606, -70950.02483725845, 73486.03141141313, -111753.73783752178, -0.038, 0.9440000000000001, -0.14200000000000002, 192.0, 0.0, 0.0, 0.0, 0.0, 0.0, 0.0, 0.0, 0.0, 0.0, 1.6664066825136657E9, 0.0, 2022-10-21 19:44:42.513
122.0, -143353.1812850453, -151227.11971129416, -11607.573820063331, -110616.41402440239, 76142.4244812041, -71075.59693760835, 73405.14044822937, -111788.53950363869, -0.038, 0.9440000000000001, -0.14200000000000002, 192.0, 0.0, 0.0, 0.0, 0.0, 0.0, 0.0, 0.0, 0.0, 0.0, 1.6664066825139081E9, 0.0, 2022-10-21 19:44:42.513
123.0, -143362.41255550535, -151235.23339453142, -11612.424148610133, -110608.72502430977, 76139.38464395817, -71128.77173766753, 73397.4737998812, -111769.09348596257, -0.038, 0.9440000000000001, -0.14200000000000002, 192.0, 0.0, 0.0, 0.0, 0.0, 0.0, 0.0, 0.0, 0.0, 0.0, 1.666406682513935E9, 0.0, 2022-10-21 19:44:42.513
124.0, -143366.92760788533, -151236.17216779856, -11614.68167480012, -110591.849457246, 76144.81611786081, -71011.22391357708, 73476.39780955289, -111731.05081689965, -0.04, 0.9440000000000001, -0.14200000000000002, 192.0, 254.0, 192.0, 29.0, 128.0, 251.0, 144.0, 0.0, 0.0, 0.0, 1.6664066825139604E9, 0.0, 2022-10-21 19:44:42.513
125.0, -143368.35811953046, -151238.96613585547, -11620.53783184741, -110603.89704750742, 76141.03867304786, -70948.77313956895, 73486.12081839095, -111756.55415732315, -0.04, 0.9440000000000001, -0.14200000000000002, 192.0, 0.0, 0.0, 0.0, 0.0, 0.0, 0.0, 0.0, 0.0, 0.0, 1.6664066825139887E9, 0.0, 2022-10-21 19:44:42.513
126.0, -143350.0296890771, -151221.71058913597, -11606.299770629379, -110606.98158824226, 76152.52746969789, -71050.85355649634, 73421.0325385371, -111784.11385823654, -0.04, 0.9440000000000001, -0.14200000000000002, 192.0, 0.0, 0.0, 0.0, 0.0, 0.0, 0.0, 0.0, 0.0, 0.0, 1.6664066825140142E9, 0.0, 2022-10-21 19:44:42.514
127.0, -143349.09091581, -151221.0400368023, -11604.668093284143, -110596.76684102617, 76160.30587676834, -71125.41897599924, 73399.9771952602, -111777.52009362222, -0.04, 0.9440000000000001, -0.14200000000000002, 192.0, 0.0, 0.0, 0.0, 0.0, 0.0, 0.0, 0.0, 0.0, 0.0, 1.66640668251404E9, 0.0, 2022-10-21 19:44:42.514
128.0, -143359.0374420926, -151228.1478915391, -11609.96545672005, -110583.601663542, 76159.7247314125, -71019.89639042574, 73468.59705073798, -111745.55709905113, -0.04, 0.9440000000000001, -0.14200000000000002, 192.0, 0.0, 0.0, 0.0, 0.0, 0.0, 0.0, 0.0, 0.0, 0.0, 1.6664066825140643E9, 0.0, 2022-10-21 19:44:42.514
129.0, -143351.05786932205, -151219.76598736836, -11605.562163062354, -110584.09340192002, 76158.45068197855, -70933.01515972796, 73501.23059764273, -111747.97108745232, -0.04, 0.9440000000000001, -0.14200000000000002, 192.0, 0.0, 0.0, 0.0, 0.0, 0.0, 0.0, 0.0, 0.0, 0.0, 1.666406682514089E9, 0.0, 2022-10-21 19:44:42.514
130.0, -143344.17353202982, -151213.70866462096, -11606.836212496306, -110599.53845733864, 76157.64601917817, -71017.10242236881, 73434.89062009938, -111786.6843088489, -0.04, 0.9440000000000001, -0.14200000000000002, 192.0, 0.0, 0.0, 0.0, 0.0, 0.0, 0.0, 0.0, 0.0, 0.0, 1.6664066825141141E9, 0.0, 2022-10-21 19:44:42.514
131.0, -143341.44661920628, -151214.0439407878, -11610.412491609155, -110608.88148652096, 76151.67810340859, -71115.11482180534, 73392.10938121192, -111786.52784663772, -0.04, 0.9440000000000001, -0.14200000000000002, 192.0, 0.0, 0.0, 0.0, 0.0, 0.0, 0.0, 0.0, 0.0, 0.0, 1.6664066825141392E9, 0.0, 2022-10-21 19:44:42.514
132.0, -143343.9947180742, -151216.05559778877, -11609.384311364212, -110600.54428583912, 76146.04546380586, -71048.59603030635, 73447.31819001654, -111750.42977934239, -0.04, 0.9440000000000001, -0.14200000000000002, 192.0, 0.0, 0.0, 0.0, 0.0, 0.0, 0.0, 0.0, 0.0, 0.0, 1.6664066825141633E9, 0.0, 2022-10-21 19:44:42.514
133.0, -143348.59917743198, -151219.92244957955, -11611.977113721028, -110602.33242539555, 76141.95509457053, -70938.0443022304, 73492.60282428299, -111744.126587406, -0.04, 0.9440000000000001, -0.14200000000000002, 192.0, 0.0, 0.0, 0.0, 0.0, 0.0, 0.0, 0.0, 0.0, 0.0, 1.6664066825142832E9, 0.0, 2022-10-21 19:44:42.514
134.0, -143348.46506696523, -151219.07308329025, -11613.5417358329, -110625.86881230699, 76129.214600231, -71009.79340193194, 73428.29685548507, -111788.27128270523, -0.04, 0.9500000000000001, -0.14400000000000002, 192.0, 254.0, 192.0, 29.0, 176.0, 251.0, 128.0, 0.0, 0.0, 0.0, 1.6664066825143085E9, 0.0, 2022-10-21 19:44:42.514
135.0, -143335.0316685476, -151203.71743484944, -11601.561200804854, -110624.23713496175, 76133.79670784435, -71122.44619398669, 73380.24060490615, -111787.28780594919, -0.04, 0.9500000000000001, -0.14400000000000002, 192.0, 0.0, 0.0, 0.0, 0.0, 0.0, 0.0, 0.0, 0.0, 0.0, 1.6664066825143409E9, 0.0, 2022-10-21 19:44:42.514
136.0, -143341.1336947839, -151210.91469656405, -11607.842040996795, -110610.60257084401, 76129.97455954249, -71084.47058015711, 73422.59716064896, -111753.33550612158, -0.04, 0.9500000000000001, -0.14400000000000002, 192.0, 0.0, 0.0, 0.0, 0.0, 0.0, 0.0, 0.0, 0.0, 0.0, 1.666406682514356E9, 0.0, 2022-10-21 19:44:42.514
137.0, -143346.92279659782, -151215.85443208867, -11615.128709689227, -110605.4616696193, 76124.14075423965, -70968.62148864527, 73480.19760611029, -111741.75730249373, -0.04, 0.9500000000000001, -0.14400000000000002, 192.0, 0.0, 0.0, 0.0, 0.0, 0.0, 0.0, 0.0, 0.0, 0.0, 1.6664066825143712E9, 0.0, 2022-10-21 19:44:42.514
138.0, -143344.2405872632, -151213.57455415424, -11616.000427722982, -110619.83384130405, 76124.09605075074, -70993.45427673511, 73443.11606205894, -111779.41999190093, -0.04, 0.9500000000000001, -0.14400000000000002, 192.0, 0.0, 0.0, 0.0, 0.0, 0.0, 0.0, 0.0, 0.0, 0.0, 1.6664066825143864E9, 0.0, 2022-10-21 19:44:42.514
139.0, -143343.12300004042, -151214.13334776563, -11619.979038236028, -110632.97666704377, 76120.07273674879, -71121.86504863085, 73372.28338388007, -111805.7950503582, -0.04, 0.9500000000000001, -0.14400000000000002, 192.0, 0.0, 0.0, 0.0, 0.0, 0.0, 0.0, 0.0, 0.0, 0.0, 1.6664066825144017E9, 0.0, 2022-10-21 19:44:42.514
140.0, -143348.2862530096, -151220.6377054021, -11622.996523737494, -110617.84453604753, 76121.39148967165, -71109.59394092488, 73402.63705285038, -111769.71933480732, -0.04, 0.9500000000000001, -0.14400000000000002, 192.0, 0.0, 0.0, 0.0, 0.0, 0.0, 0.0, 0.0, 0.0, 0.0, 1.6664066825144167E9, 0.0, 2022-10-21 19:44:42.514
141.0, -143352.95776760075, -151224.72807463745, -11623.06357897086, -110603.00297772921, 76126.77826008538, -70974.499997437, 73481.33754507752, -111741.33261934908, -0.04, 0.9500000000000001, -0.14400000000000002, 192.0, 0.0, 0.0, 0.0, 0.0, 0.0, 0.0, 0.0, 0.0, 0.0, 1.6664066825144315E9, 0.0, 2022-10-21 19:44:42.514
142.0, -143344.0394215631, -151218.91662107906, -11617.676808557131, -110609.7085010658, 76128.65580661963, -70975.01408755948, 73465.66897221435, -111763.97493648231, -0.04, 0.9500000000000001, -0.14400000000000002, 192.0, 0.0, 0.0, 0.0, 0.0, 0.0, 0.0, 0.0, 0.0, 0.0, 1.6664066825144467E9, 0.0, 2022-10-21 19:44:42.514
143.0, -143344.1288285409, -151220.52594667985, -11622.035398725915, -110617.64337034743, 76131.76269909891, -71103.89424608878, 73392.66817482331, -111800.83296308911, -0.04, 0.9540000000000001, -0.146, 192.0, 254.0, 192.0, 29.0, 208.0, 251.0, 112.0, 0.0, 0.0, 0.0, 1.6664066825144615E9, 0.0, 2022-10-21 19:44:42.514
144.0, -143358.21042754775, -151231.88063286312, -11636.139349477215, -110616.97281801378, 76128.85697231973, -71136.70660694917, 73397.25028243665, -111779.71056457884, -0.04, 0.9540000000000001, -0.146, 192.0, 0.0, 0.0, 0.0, 0.0, 0.0, 0.0, 0.0, 0.0, 0.0, 1.666406682514478E9, 0.0, 2022-10-21 19:44:42.514
145.0, -143360.98204386022, -151231.5006532074, -11635.289983187913, -110598.26440790469, 76136.38951020116, -70999.24337854903, 73484.35503057898, -111736.05760765763, -0.04, 0.9540000000000001, -0.146, 192.0, 0.0, 0.0, 0.0, 0.0, 0.0, 0.0, 0.0, 0.0, 0.0, 1.6664066825144932E9, 0.0, 2022-10-21 19:44:42.514
146.0, -143367.2405323077, -151241.58128995672, -11643.82834956984, -110611.34017841103, 76128.99108278645, -70965.49224442152, 73475.83901594151, -111770.05461097416, -0.04, 0.9540000000000001, -0.146, 192.0, 0.0, 0.0, 0.0, 0.0, 0.0, 0.0, 0.0, 0.0, 0.0, 1.6664066825145085E9, 0.0, 2022-10-21 19:44:42.514
147.0, -143363.66425319485, -151241.2460137899, -11644.521253647954, -110622.7619198277, 76129.75104209794, -71080.60372836635, 73400.40187840485, -111803.31400672365, -0.04, 0.9540000000000001, -0.146, 192.0, 0.0, 0.0, 0.0, 0.0, 0.0, 0.0, 0.0, 0.0, 0.0, 1.6664066825145233E9, 0.0, 2022-10-21 19:44:42.514
148.0, -143358.88097988142, -151232.32766775222, -11637.25693669998, -110599.8066782721, 76145.3749114722, -71119.49576371859, 73401.07243073851, -111775.01669824323, -0.04, 0.9540000000000001, -0.146, 192.0, 0.0, 0.0, 0.0, 0.0, 0.0, 0.0, 0.0, 0.0, 0.0, 1.6664066825145547E9, 0.0, 2022-10-21 19:44:42.514
149.0, -143369.9897968757, -151241.98362135692, -11643.046038513905, -110592.72117527976, 76144.65965564962, -71000.74094542753, 73473.64854498488, -111737.39871232495, -0.04, 0.9540000000000001, -0.146, 192.0, 0.0, 0.0, 0.0, 0.0, 0.0, 0.0, 0.0, 0.0, 0.0, 1.6664066825145698E9, 0.0, 2022-10-21 19:44:42.514
150.0, -143370.39212827588, -151236.61920268767, -11643.895404803206, -110606.66866381987, 76136.38951020116, -70931.69640680509, 73487.68544050281, -111762.38796262599, -0.04, 0.9540000000000001, -0.146, 192.0, 0.0, 0.0, 0.0, 0.0, 0.0, 0.0, 0.0, 0.0, 0.0, 1.6664066825145853E9, 0.0, 2022-10-21 19:44:42.514
151.0, -143363.01605260564, -151228.2372985169, -11641.503768146487, -110620.61615235999, 76130.73451885398, -71051.45705359663, 73407.01799476362, -111808.56666667065, -0.04, 0.9540000000000001, -0.146, 192.0, 0.0, 0.0, 0.0, 0.0, 0.0, 0.0, 0.0, 0.0, 0.0, 1.6664066825146005E9, 0.0, 2022-10-21 19:44:42.514
152.0, -143358.29983452556, -151227.3879322276, -11632.54071861991, -110608.18858244283, 76139.49640268045, -71133.0409208585, 73383.86158750791, -111792.29459670719, -0.04, 0.9540000000000001, -0.146, 192.0, 0.0, 0.0, 0.0, 0.0, 0.0, 0.0, 0.0, 0.0, 0.0, 1.6664066825146153E9, 0.0, 2022-10-21 19:44:42.514
153.0, -143356.01995659113, -151228.438464217, -11627.39981739519, -110586.90972172139, 76147.31951323981, -71040.57175404689, 73459.7904634226, -111740.84088097107, -0.046, 0.9560000000000001, -0.154, 192.0, 254.0, 144.0, 29.0, 224.0, 251.0, 48.0, 0.0, 0.0, 0.0, 1.66640668251463E9, 0.0, 2022-10-21 19:44:42.514
154.0, -143356.2881775246, -151227.4996909499, -11634.105340731781, -110603.33825389604, 76137.66355963511, -70943.52047962195, 73497.92253946335, -111749.15572990844, -0.046, 0.9560000000000001, -0.154, 192.0, 0.0, 0.0, 0.0, 0.0, 0.0, 0.0, 0.0, 0.0, 0.0, 1.6664066825146468E9, 0.0, 2022-10-21 19:44:42.514
155.0, -143339.2784999941, -151208.29954246277, -11622.817709781852, -110620.75026282672, 76137.93178056859, -71029.23941960806, 73437.95280908977, -111784.33737568109, -0.046, 0.9560000000000001, -0.154, 192.0, 0.0, 0.0, 0.0, 0.0, 0.0, 0.0, 0.0, 0.0, 0.0, 1.6664066825146637E9, 0.0, 2022-10-21 19:44:42.514
156.0, -143339.5243691831, -151204.45504241646, -11619.86727951375, -110615.22938194626, 76143.96675157151, -71141.10990060687, 73393.91987251281, -111767.4841603618, -0.046, 0.9560000000000001, -0.154, 192.0, 0.0, 0.0, 0.0, 0.0, 0.0, 0.0, 0.0, 0.0, 0.0, 1.6664066825146792E9, 0.0, 2022-10-21 19:44:42.514
157.0, -143345.62639541941, -151211.24997273088, -11625.96930575005, -110599.27023640517, 76145.95605682803, -71069.40550439424, 73451.16269006285, -111726.73693021976, -0.046, 0.9560000000000001, -0.154, 192.0, 0.0, 0.0, 0.0, 0.0, 0.0, 0.0, 0.0, 0.0, 0.0, 1.666406682514694E9, 0.0, 2022-10-21 19:44:42.514
158.0, -143351.66136642234, -151221.2859059913, -11635.91583203266, -110601.84068701752, 76137.55180091284, -70951.61181111477, 73500.4482865868, -111737.86809895851, -0.046, 0.9560000000000001, -0.154, 192.0, 0.0, 0.0, 0.0, 0.0, 0.0, 0.0, 0.0, 0.0, 0.0, 1.6664066825147095E9, 0.0, 2022-10-21 19:44:42.514
159.0, -143348.4874187097, -151221.26355424686, -11632.943050020105, -110623.54423088364, 76131.13685025416, -71004.71955594058, 73449.37455050643, -111773.8320557871, -0.046, 0.9560000000000001, -0.154, 192.0, 0.0, 0.0, 0.0, 0.0, 0.0, 0.0, 0.0, 0.0, 0.0, 1.6664066825147245E9, 0.0, 2022-10-21 19:44:42.514
160.0, -143344.35234598548, -151218.84956584568, -11633.121863975748, -110631.56850714309, 76126.10770775173, -71140.19347908419, 73379.05596245003, -111790.99819552878, -0.046, 0.9560000000000001, -0.154, 192.0, 0.0, 0.0, 0.0, 0.0, 0.0, 0.0, 0.0, 0.0, 0.0, 1.6664066825147395E9, 0.0, 2022-10-21 19:44:42.514
161.0, -143348.59917743198, -151221.57647866925, -11637.59221286681, -110608.30034116512, 76132.29914096584, -71102.10610653236, 73422.46305018224, -111751.18973865388, -0.046, 0.9560000000000001, -0.154, 192.0, 0.0, 0.0, 0.0, 0.0, 0.0, 0.0, 0.0, 0.0, 0.0, 1.6664066825147543E9, 0.0, 2022-10-21 19:44:42.514
162.0, -143362.1890380608, -151229.13136829511, -11653.68546887463, -110613.10596622301, 76124.27486470639, -70975.21525325958, 73484.4891410457, -111742.62902052749, -0.046, 0.9560000000000001, -0.154, 192.0, 0.0, 0.0, 0.0, 0.0, 0.0, 0.0, 0.0, 0.0, 0.0, 1.6664066825147693E9, 0.0, 2022-10-21 19:44:42.514
163.0, -143356.15406705785, -151222.55995542527, -11648.745733350008, -110627.29932395213, 76122.2185042165, -70990.99558484502, 73454.71661743124, -111777.69890757787, -0.04, 0.9460000000000001, -0.14400000000000002, 192.0, 254.0, 192.0, 29.0, 144.0, 251.0, 128.0, 0.0, 0.0, 0.0, 1.6664066825147998E9, 0.0, 2022-10-21 19:44:42.514
164.0, -143354.2318170347, -151222.80582461428, -11642.643707113708, -110621.04083550464, 76130.13102175368, -71110.286845003, 73394.7245353132, -111788.47244840533, -0.04, 0.9460000000000001, -0.14400000000000002, 192.0, 0.0, 0.0, 0.0, 0.0, 0.0, 0.0, 0.0, 0.0, 0.0, 1.6664066825148156E9, 0.0, 2022-10-21 19:44:42.514
165.0, -143366.99466311868, -151237.35681025469, -11655.697125875608, -110619.72208258178, 76120.67623384908, -71118.82521138492, 73407.01799476362, -111766.6347940725, -0.04, 0.9460000000000001, -0.14400000000000002, 192.0, 0.0, 0.0, 0.0, 0.0, 0.0, 0.0, 0.0, 0.0, 0.0, 1.66640668251483E9, 0.0, 2022-10-21 19:44:42.514
166.0, -143369.76627943115, -151241.8942143791, -11661.620338156265, -110610.49081212173, 76123.58196062827, -70981.76431438499, 73484.46678930125, -111740.14797689296, -0.04, 0.9460000000000001, -0.14400000000000002, 192.0, 0.0, 0.0, 0.0, 0.0, 0.0, 0.0, 0.0, 0.0, 0.0, 1.666406682514845E9, 0.0, 2022-10-21 19:44:42.514
167.0, -143362.09963108297, -151233.22173753046, -11658.602852654798, -110620.6608558489, 76126.77826008538, -70958.20557572908, 73477.42598979783, -111768.66880281792, -0.04, 0.9460000000000001, -0.14400000000000002, 192.0, 0.0, 0.0, 0.0, 0.0, 0.0, 0.0, 0.0, 0.0, 0.0, 1.6664066825148597E9, 0.0, 2022-10-21 19:44:42.514
168.0, -143352.77895364512, -151222.76112112537, -11652.277308973946, -110620.07971049307, 76134.2660944779, -71087.68923135869, 73408.85083780895, -111791.46758216234, -0.04, 0.9460000000000001, -0.14400000000000002, 192.0, 0.0, 0.0, 0.0, 0.0, 0.0, 0.0, 0.0, 0.0, 0.0, 1.6664066825148742E9, 0.0, 2022-10-21 19:44:42.514
169.0, -143355.3494042575, -151224.8398333597, -11653.752524107997, -110601.72892829526, 76145.66548415011, -71114.39956598278, 73420.65255888135, -111760.42100911391, -0.04, 0.9460000000000001, -0.14400000000000002, 192.0, 0.0, 0.0, 0.0, 0.0, 0.0, 0.0, 0.0, 0.0, 0.0, 1.666406682514891E9, 0.0, 2022-10-21 19:44:42.514
170.0, -143366.1900003183, -151232.81940613026, -11663.07320154586, -110596.6550823039, 76145.1737457721, -70991.17439880066, 73493.2957283611, -111728.30155233164, -0.04, 0.9460000000000001, -0.14400000000000002, 192.0, 0.0, 0.0, 0.0, 0.0, 0.0, 0.0, 0.0, 0.0, 0.0, 1.666406682514906E9, 0.0, 2022-10-21 19:44:42.514
171.0, -143367.2405323077, -151237.4462172325, -11671.745678394518, -110612.97185575627, 76137.55180091284, -70940.9947324985, 73491.30642310459, -111762.61148007054, -0.04, 0.9460000000000001, -0.14400000000000002, 192.0, 0.0, 0.0, 0.0, 0.0, 0.0, 0.0, 0.0, 0.0, 0.0, 1.6664066825149207E9, 0.0, 2022-10-21 19:44:42.514
172.0, -143354.2988722681, -151224.7951298708, -11663.341422479323, -110627.70165535231, 76136.70243462354, -71072.24417594007, 73409.36492793143, -111803.91750382395, -0.034, 0.9460000000000001, -0.14400000000000002, 192.0, 254.0, 240.0, 29.0, 144.0, 251.0, 128.0, 0.0, 0.0, 0.0, 1.6664066825149355E9, 0.0, 2022-10-21 19:44:42.514
173.0, -143361.20556130476, -151229.75721713988, -11663.274367245956, -110617.08457673604, 76143.63147540468, -71141.51223200707, 73389.51657885511, -111788.15952398295, -0.034, 0.9460000000000001, -0.14400000000000002, 192.0, 0.0, 0.0, 0.0, 0.0, 0.0, 0.0, 0.0, 0.0, 0.0, 1.666406682514952E9, 0.0, 2022-10-21 19:44:42.514
174.0, -143378.93049465783, -151244.66583069158, -11673.153838295202, -110604.67935856336, 76144.74906262745, -71024.65731199471, 73463.05381811307, -111753.15669216594, -0.034, 0.9460000000000001, -0.14400000000000002, 192.0, 0.0, 0.0, 0.0, 0.0, 0.0, 0.0, 0.0, 0.0, 0.0, 1.6664066825149674E9, 0.0, 2022-10-21 19:44:42.514
175.0, -143380.27159932515, -151244.06233359128, -11669.868131860272, -110611.47428887777, 76139.45169919154, -70950.42716865864, 73490.16648413736, -111759.9739742248, -0.034, 0.9460000000000001, -0.14400000000000002, 192.0, 0.0, 0.0, 0.0, 0.0, 0.0, 0.0, 0.0, 0.0, 0.0, 1.666406682514983E9, 0.0, 2022-10-21 19:44:42.514
176.0, -143369.05102360857, -151234.9428218535, -11660.145123022214, -110628.19339373034, 76140.99396955896, -71047.70196052814, 73425.59229440597, -111785.52201813723, -0.034, 0.9460000000000001, -0.14400000000000002, 192.0, 0.0, 0.0, 0.0, 0.0, 0.0, 0.0, 0.0, 0.0, 0.0, 1.666406682515E9, 0.0, 2022-10-21 19:44:42.515
177.0, -143367.06171835205, -151232.81940613026, -11657.261747987479, -110626.24879196273, 76140.23401024747, -71138.24887731658, 73392.04232597856, -111787.64543386048, -0.034, 0.9460000000000001, -0.14400000000000002, 192.0, 0.0, 0.0, 0.0, 0.0, 0.0, 0.0, 0.0, 0.0, 0.0, 1.6664066825150151E9, 0.0, 2022-10-21 19:44:42.515
178.0, -143375.86830566745, -151240.3966475006, -11662.82733235685, -110609.46263187678, 76140.94926607005, -71051.47940534109, 73456.75062617667, -111751.25679388724, -0.034, 0.9460000000000001, -0.14400000000000002, 192.0, 0.0, 0.0, 0.0, 0.0, 0.0, 0.0, 0.0, 0.0, 0.0, 1.6664066825150473E9, 0.0, 2022-10-21 19:44:42.515
179.0, -143380.98685514773, -151247.5939092152, -11666.805942869896, -110619.69973083732, 76133.79670784435, -70941.4417673876, 73500.53769356462, -111744.126587406, -0.034, 0.9460000000000001, -0.14400000000000002, 192.0, 0.0, 0.0, 0.0, 0.0, 0.0, 0.0, 0.0, 0.0, 0.0, 1.666406682515062E9, 0.0, 2022-10-21 19:44:42.515
180.0, -143367.73227068572, -151234.16051079758, -11656.837064842828, -110630.1603472424, 76134.69077762256, -71011.67094846618, 73445.37358824893, -111781.25283494627, -0.034, 0.9460000000000001, -0.14400000000000002, 192.0, 0.0, 0.0, 0.0, 0.0, 0.0, 0.0, 0.0, 0.0, 0.0, 1.6664066825150766E9, 0.0, 2022-10-21 19:44:42.515
181.0, -143359.17155255933, -151220.05656004627, -11648.857492072284, -110621.37611167147, 76141.23983874796, -71123.1390980648, 73400.51363712712, -111778.79414305618, -0.034, 0.9460000000000001, -0.14400000000000002, 192.0, 0.0, 0.0, 0.0, 0.0, 0.0, 0.0, 0.0, 0.0, 0.0, 1.6664066825150912E9, 0.0, 2022-10-21 19:44:42.515
182.0, -143367.53110498562, -151229.22077527296, -11654.668945630663, -110613.44124238983, 76139.11642302471, -71074.88168178579, 73446.7817481496, -111741.93611644937, -0.036000000000000004, 0.9540000000000001, -0.146, 192.0, 254.0, 224.0, 29.0, 208.0, 251.0, 112.0, 0.0, 0.0, 0.0, 1.666406682515106E9, 0.0, 2022-10-21 19:44:42.515
183.0, -143375.53302950063, -151239.5919847002, -11665.30837599139, -110615.609361602, 76133.26026597741, -70956.1492152392, 73500.53769356462, -111737.39871232495, -0.036000000000000004, 0.9540000000000001, -0.146, 192.0, 0.0, 0.0, 0.0, 0.0, 0.0, 0.0, 0.0, 0.0, 0.0, 1.6664066825151231E9, 0.0, 2022-10-21 19:44:42.515
184.0, -143372.20261957677, -151233.17703404152, -11668.750544637507, -110639.48102468027, 76124.54308563985, -70998.37166051527, 73449.82158539553, -111787.5336751382, -0.036000000000000004, 0.9540000000000001, -0.146, 192.0, 0.0, 0.0, 0.0, 0.0, 0.0, 0.0, 0.0, 0.0, 0.0, 1.6664066825151386E9, 0.0, 2022-10-21 19:44:42.515
185.0, -143359.99856710416, -151226.91854559406, -11659.899253833206, -110636.2176699898, 76129.72869035348, -71123.51907772054, 73389.51657885511, -111795.78146884221, -0.036000000000000004, 0.9540000000000001, -0.146, 192.0, 0.0, 0.0, 0.0, 0.0, 0.0, 0.0, 0.0, 0.0, 0.0, 1.6664066825151532E9, 0.0, 2022-10-21 19:44:42.515
186.0, -143363.12781132793, -151234.9428218535, -11660.21217825558, -110615.98934125774, 76133.99787354445, -71100.76500186503, 73428.90035258536, -111752.68730553238, -0.036000000000000004, 0.9540000000000001, -0.146, 192.0, 0.0, 0.0, 0.0, 0.0, 0.0, 0.0, 0.0, 0.0, 0.0, 1.6664066825151677E9, 0.0, 2022-10-21 19:44:42.515
187.0, -143379.44458478029, -151248.86795864918, -11671.768030138974, -110622.06901574958, 76126.82296357429, -70972.84596834732, 73495.1956266398, -111737.48811930277, -0.036000000000000004, 0.9540000000000001, -0.146, 192.0, 0.0, 0.0, 0.0, 0.0, 0.0, 0.0, 0.0, 0.0, 0.0, 1.6664066825151825E9, 0.0, 2022-10-21 19:44:42.515
188.0, -143387.35710231747, -151258.38980178713, -11678.607663942297, -110643.30317298212, 76122.46437340551, -70981.29492775141, 73463.72437044673, -111777.43068664441, -0.036000000000000004, 0.9540000000000001, -0.146, 192.0, 0.0, 0.0, 0.0, 0.0, 0.0, 0.0, 0.0, 0.0, 0.0, 1.666406682515197E9, 0.0, 2022-10-21 19:44:42.515
189.0, -143371.53206724313, -151242.60947020169, -11663.296718990412, -110637.2682019792, 76135.2719229784, -71093.45598142815, 73406.77212557461, -111786.6843088489, -0.036000000000000004, 0.9540000000000001, -0.146, 192.0, 0.0, 0.0, 0.0, 0.0, 0.0, 0.0, 0.0, 0.0, 0.0, 1.6664066825152116E9, 0.0, 2022-10-21 19:44:42.515
190.0, -143374.12486959994, -151244.91169988058, -11671.723326650063, -110620.54909712663, 76135.00370204494, -71114.35486249386, 73420.6302071369, -111756.62121255652, -0.036000000000000004, 0.9540000000000001, -0.146, 192.0, 0.0, 0.0, 0.0, 0.0, 0.0, 0.0, 0.0, 0.0, 0.0, 1.666406682515226E9, 0.0, 2022-10-21 19:44:42.515
191.0, -143377.1423551014, -151251.37135402815, -11679.345271509323, -110610.58021909956, 76131.29331246535, -70998.46106749309, 73492.42401032735, -111734.6717995014, -0.036000000000000004, 0.9540000000000001, -0.146, 192.0, 0.0, 0.0, 0.0, 0.0, 0.0, 0.0, 0.0, 0.0, 0.0, 1.6664066825152407E9, 0.0, 2022-10-21 19:44:42.515
192.0, -143378.4387562798, -151254.0535633628, -11680.619320943275, -110622.22547796078, 76130.8686293207, -70970.61079390178, 73488.80302772559, -111755.41421835593, -0.036000000000000004, 0.9540000000000001, -0.14400000000000002, 192.0, 254.0, 224.0, 29.0, 208.0, 251.0, 128.0, 0.0, 0.0, 0.0, 1.6664066825152555E9, 0.0, 2022-10-21 19:44:42.515
193.0, -143372.38143353243, -151248.2421098044, -11673.913797606683, -110627.09815825203, 76140.90456258114, -71076.58041436439, 73423.7818031051, -111785.05263150367, -0.036000000000000004, 0.9540000000000001, -0.14400000000000002, 192.0, 0.0, 0.0, 0.0, 0.0, 0.0, 0.0, 0.0, 0.0, 0.0, 1.666406682515285E9, 0.0, 2022-10-21 19:44:42.515
194.0, -143369.65452070886, -151248.37622027114, -11675.143143551726, -110613.32948366756, 76146.33603648377, -71121.30625501946, 73417.61272163544, -111777.60950060005, -0.036000000000000004, 0.9540000000000001, -0.14400000000000002, 192.0, 0.0, 0.0, 0.0, 0.0, 0.0, 0.0, 0.0, 0.0, 0.0, 1.6664066825153003E9, 0.0, 2022-10-21 19:44:42.515
195.0, -143382.79734644858, -151258.3003948093, -11689.671777447675, -110611.67545457787, 76137.8200218463, -71018.0635473804, 73477.4930450312, -111751.63677354298, -0.036000000000000004, 0.9540000000000001, -0.14400000000000002, 192.0, 0.0, 0.0, 0.0, 0.0, 0.0, 0.0, 0.0, 0.0, 0.0, 1.6664066825153155E9, 0.0, 2022-10-21 19:44:42.515
196.0, -143381.81386969256, -151256.26638606386, -11688.822411158373, -110615.69876857982, 76139.33994046926, -70956.32802919485, 73491.9993271827, -111765.00311672725, -0.036000000000000004, 0.9540000000000001, -0.14400000000000002, 192.0, 0.0, 0.0, 0.0, 0.0, 0.0, 0.0, 0.0, 0.0, 0.0, 1.6664066825153303E9, 0.0, 2022-10-21 19:44:42.515
197.0, -143385.65836973887, -151260.3120518103, -11694.812678672395, -110640.93388806986, 76131.65094037664, -71067.86323402682, 73413.50000065565, -111809.08075679312, -0.036000000000000004, 0.9540000000000001, -0.14400000000000002, 192.0, 0.0, 0.0, 0.0, 0.0, 0.0, 0.0, 0.0, 0.0, 0.0, 1.6664066825153468E9, 0.0, 2022-10-21 19:44:42.515
198.0, -143384.80900344957, -151254.9029296521, -11693.292760049435, -110638.92223106888, 76133.43907993306, -71133.37619702533, 73393.89752076835, -111793.3898321855, -0.036000000000000004, 0.9540000000000001, -0.14400000000000002, 192.0, 0.0, 0.0, 0.0, 0.0, 0.0, 0.0, 0.0, 0.0, 0.0, 1.6664066825153613E9, 0.0, 2022-10-21 19:44:42.515
199.0, -143390.62045700796, -151257.98747038693, -11697.718405451586, -110627.79106233014, 76131.09214676525, -71029.61939926379, 73462.00328612367, -111751.77088400972, -0.036000000000000004, 0.9540000000000001, -0.14400000000000002, 192.0, 0.0, 0.0, 0.0, 0.0, 0.0, 0.0, 0.0, 0.0, 0.0, 1.666406682515376E9, 0.0, 2022-10-21 19:44:42.515
200.0, -143385.09957612748, -151254.72411569644, -11695.393824028233, -110630.33916119805, 76128.1193647527, -70941.86645053225, 73494.5027225617, -111754.29663113317, -0.036000000000000004, 0.9540000000000001, -0.14400000000000002, 192.0, 0.0, 0.0, 0.0, 0.0, 0.0, 0.0, 0.0, 0.0, 0.0, 1.6664066825153904E9, 0.0, 2022-10-21 19:44:42.515
201.0, -143369.69922419777, -151240.97779285643, -11685.98373961255, -110639.63748689146, 76132.1650304991, -71033.10627139882, 73431.94018983128, -111781.45400064636, -0.036000000000000004, 0.9540000000000001, -0.14400000000000002, 192.0, 0.0, 0.0, 0.0, 0.0, 0.0, 0.0, 0.0, 0.0, 0.0, 1.6664066825154052E9, 0.0, 2022-10-21 19:44:42.515
202.0, -143367.50875324116, -151235.6357259316, -11682.675681433164, -110636.8211670901, 76135.09310902275, -71135.00787437057, 73391.48353236717, -111782.45982914684, -0.04, 0.9520000000000001, -0.15, 192.0, 254.0, 192.0, 29.0, 192.0, 251.0, 80.0, 0.0, 0.0, 0.0, 1.6664066825154197E9, 0.0, 2022-10-21 19:44:42.515
203.0, -143375.71184345626, -151243.2576707909, -11690.945826881627, -110622.24782970523, 76134.48961192246, -71058.43079786668, 73452.66025694135, -111747.52405256321, -0.04, 0.9520000000000001, -0.15, 192.0, 0.0, 0.0, 0.0, 0.0, 0.0, 0.0, 0.0, 0.0, 0.0, 1.6664066825154357E9, 0.0, 2022-10-21 19:44:42.515
204.0, -143379.55634350257, -151247.12452258164, -11695.527934494965, -110621.17494597138, 76133.08145202178, -70929.70710154857, 73509.21017041328, -111745.11006416203, -0.04, 0.9520000000000001, -0.15, 192.0, 0.0, 0.0, 0.0, 0.0, 0.0, 0.0, 0.0, 0.0, 0.0, 1.6664066825154505E9, 0.0, 2022-10-21 19:44:42.515
205.0, -143374.08016611103, -151240.08372307822, -11689.202390814113, -110642.18558575936, 76128.02995777488, -70993.18605580165, 73451.69913192978, -111786.61725361554, -0.04, 0.9520000000000001, -0.15, 192.0, 0.0, 0.0, 0.0, 0.0, 0.0, 0.0, 0.0, 0.0, 0.0, 1.6664066825154648E9, 0.0, 2022-10-21 19:44:42.515
206.0, -143365.67591019583, -151231.32183925176, -11683.16741981118, -110641.04564679213, 76127.94055079705, -71128.1905923117, 73391.19295968926, -111795.87087582004, -0.04, 0.9520000000000001, -0.15, 192.0, 0.0, 0.0, 0.0, 0.0, 0.0, 0.0, 0.0, 0.0, 0.0, 1.666406682515479E9, 0.0, 2022-10-21 19:44:42.515
207.0, -143364.82654390653, -151228.57257468376, -11681.69220467713, -110607.85330627601, 76145.44196670556, -71072.75826606253, 73450.26862028464, -111742.78548273868, -0.04, 0.9520000000000001, -0.15, 192.0, 0.0, 0.0, 0.0, 0.0, 0.0, 0.0, 0.0, 0.0, 0.0, 1.6664066825155065E9, 0.0, 2022-10-21 19:44:42.515
208.0, -143373.34255854398, -151238.2508800329, -11692.622207715774, -110613.84357379003, 76135.98717880096, -70949.73426458052, 73510.23835065823, -111736.99638092476, -0.04, 0.9520000000000001, -0.15, 192.0, 0.0, 0.0, 0.0, 0.0, 0.0, 0.0, 0.0, 0.0, 0.0, 1.666406682515522E9, 0.0, 2022-10-21 19:44:42.515
209.0, -143381.23272433673, -151245.78341791432, -11705.40740554421, -110650.18751027437, 76112.98723375646, -70993.23075929056, 73454.26958254214, -111791.80285832917, -0.04, 0.9520000000000001, -0.15, 192.0, 0.0, 0.0, 0.0, 0.0, 0.0, 0.0, 0.0, 0.0, 0.0, 1.6664066825155375E9, 0.0, 2022-10-21 19:44:42.515
210.0, -143376.24828532318, -151237.33445851022, -11703.909838665706, -110650.12045504099, 76116.65291984713, -71122.62500794232, 73388.24252942116, -111796.1838002424, -0.04, 0.9520000000000001, -0.15, 192.0, 0.0, 0.0, 0.0, 0.0, 0.0, 0.0, 0.0, 0.0, 0.0, 1.6664066825155528E9, 0.0, 2022-10-21 19:44:42.515
211.0, -143382.35031155948, -151243.9058713801, -11709.989513157549, -110638.13992001295, 76120.60917861572, -71108.58811242439, 73421.12194551491, -111749.40159909744, -0.038, 0.9480000000000001, -0.15, 192.0, 254.0, 208.0, 29.0, 160.0, 251.0, 80.0, 0.0, 0.0, 0.0, 1.666406682515568E9, 0.0, 2022-10-21 19:44:42.515
212.0, -143385.6360179944, -151245.78341791432, -11710.101271879825, -110624.8629838065, 76121.86087630522, -70970.4990351795, 73495.95558595129, -111732.3695698225, -0.038, 0.9480000000000001, -0.15, 192.0, 0.0, 0.0, 0.0, 0.0, 0.0, 0.0, 0.0, 0.0, 0.0, 1.6664066825155835E9, 0.0, 2022-10-21 19:44:42.515
213.0, -143383.17732610434, -151243.01180160188, -11706.703806722619, -110631.79202458764, 76123.2690362059, -70959.32316295186, 73479.41529505435, -111769.71933480732, -0.038, 0.9480000000000001, -0.15, 192.0, 0.0, 0.0, 0.0, 0.0, 0.0, 0.0, 0.0, 0.0, 0.0, 1.6664066825155988E9, 0.0, 2022-10-21 19:44:42.515
214.0, -143381.23272433673, -151240.53075796732, -11706.770861955985, -110642.29734448163, 76124.54308563985, -71092.36074594985, 73403.32995692849, -111793.90392230796, -0.038, 0.9480000000000001, -0.15, 192.0, 0.0, 0.0, 0.0, 0.0, 0.0, 0.0, 0.0, 0.0, 0.0, 1.6664066825156136E9, 0.0, 2022-10-21 19:44:42.515
215.0, -143384.56313426056, -151245.02345860284, -11710.235382346556, -110630.49562340924, 76129.50517290893, -71112.09733630388, 73415.35519544545, -111766.90301500596, -0.038, 0.9480000000000001, -0.15, 192.0, 0.0, 0.0, 0.0, 0.0, 0.0, 0.0, 0.0, 0.0, 0.0, 1.6664066825156283E9, 0.0, 2022-10-21 19:44:42.515
216.0, -143390.17342211885, -151246.58808071472, -11710.570658513387, -110615.05056799062, 76135.58484740077, -70976.71282013808, 73499.53186506413, -111729.15091862094, -0.038, 0.9480000000000001, -0.15, 192.0, 0.0, 0.0, 0.0, 0.0, 0.0, 0.0, 0.0, 0.0, 0.0, 1.6664066825156431E9, 0.0, 2022-10-21 19:44:42.515
217.0, -143388.6982069848, -151246.96806037048, -11714.348103326334, -110632.32846645456, 76124.85601006223, -70941.93350576563, 73491.55229229359, -111756.08477068959, -0.038, 0.9480000000000001, -0.15, 192.0, 0.0, 0.0, 0.0, 0.0, 0.0, 0.0, 0.0, 0.0, 0.0, 1.666406682515658E9, 0.0, 2022-10-21 19:44:42.515
218.0, -143384.11609937146, -151246.07399059224, -11713.610495759309, -110647.63941140646, 76120.38566117117, -71077.63094635379, 73410.37075643192, -111792.74163159629, -0.038, 0.9480000000000001, -0.15, 192.0, 0.0, 0.0, 0.0, 0.0, 0.0, 0.0, 0.0, 0.0, 0.0, 1.6664066825156727E9, 0.0, 2022-10-21 19:44:42.515
219.0, -143379.6904539693, -151239.3014120223, -11706.547344511431, -110620.0573587486, 76141.06102479232, -71118.91461836275, 73418.1268117579, -111757.1800061679, -0.038, 0.9480000000000001, -0.15, 192.0, 0.0, 0.0, 0.0, 0.0, 0.0, 0.0, 0.0, 0.0, 0.0, 1.666406682515689E9, 0.0, 2022-10-21 19:44:42.515
220.0, -143388.47468954025, -151250.4549325055, -11716.538574282953, -110614.73764356824, 76140.41282420311, -71005.63597746324, 73490.7476294932, -111723.60768599603, -0.038, 0.9480000000000001, -0.15, 192.0, 0.0, 0.0, 0.0, 0.0, 0.0, 0.0, 0.0, 0.0, 0.0, 1.6664066825157037E9, 0.0, 2022-10-21 19:44:42.515
221.0, -143394.57671577655, -151261.69785996652, -11728.876737222283, -110639.70454212482, 76124.20780947302, -70945.08510173381, 73498.63779528592, -111751.32384912061, -0.04, 0.9460000000000001, -0.146, 192.0, 254.0, 192.0, 29.0, 144.0, 251.0, 112.0, 0.0, 0.0, 0.0, 1.6664066825157185E9, 0.0, 2022-10-21 19:44:42.515
222.0, -143390.50869828567, -151256.17697908604, -11727.580336043875, -110655.26135626572, 76119.15631522612, -71046.763187261, 73423.826506594, -111800.20711424436, -0.04, 0.9460000000000001, -0.146, 192.0, 0.0, 0.0, 0.0, 0.0, 0.0, 0.0, 0.0, 0.0, 0.0, 1.6664066825157473E9, 0.0, 2022-10-21 19:44:42.515
223.0, -143384.11609937146, -151249.1585313271, -11722.171213885691, -110649.09227479604, 76122.24085596095, -71130.04578710148, 73398.30081442605, -111786.14786698198, -0.04, 0.9460000000000001, -0.146, 192.0, 0.0, 0.0, 0.0, 0.0, 0.0, 0.0, 0.0, 0.0, 0.0, 1.666406682515762E9, 0.0, 2022-10-21 19:44:42.515
224.0, -143389.65933199637, -151254.14297034062, -11724.473443564588, -110635.74828335622, 76124.00664377293, -71043.1645564037, 73465.0431233696, -111745.24417462877, -0.04, 0.9460000000000001, -0.146, 192.0, 0.0, 0.0, 0.0, 0.0, 0.0, 0.0, 0.0, 0.0, 0.0, 1.666406682515778E9, 0.0, 2022-10-21 19:44:42.515
225.0, -143392.0509686531, -151256.1546273416, -11727.557984299421, -110641.24681249223, 76121.01151001592, -70939.83244178683, 73501.07413543155, -111762.32090739261, -0.04, 0.9460000000000001, -0.146, 192.0, 0.0, 0.0, 0.0, 0.0, 0.0, 0.0, 0.0, 0.0, 0.0, 1.6664066825157928E9, 0.0, 2022-10-21 19:44:42.515
226.0, -143389.21229710727, -151251.32665053924, -11723.445263319643, -110655.08254231008, 76122.35261468323, -71011.64859672173, 73439.42802422382, -111800.07300377764, -0.04, 0.9460000000000001, -0.146, 192.0, 0.0, 0.0, 0.0, 0.0, 0.0, 0.0, 0.0, 0.0, 0.0, 1.6664066825158079E9, 0.0, 2022-10-21 19:44:42.515
227.0, -143386.4406807948, -151249.42675226054, -11720.092501651348, -110658.07767606709, 76121.90557979413, -71114.3325107494, 73395.64095683586, -111787.75719258275, -0.04, 0.9460000000000001, -0.146, 192.0, 0.0, 0.0, 0.0, 0.0, 0.0, 0.0, 0.0, 0.0, 0.0, 1.6664066825158222E9, 0.0, 2022-10-21 19:44:42.515
228.0, -143378.66227372436, -151242.60947020169, -11714.75043472653, -110632.73079785476, 76123.78312632837, -71056.06151295442, 73451.4309109963, -111747.21112814083, -0.04, 0.9460000000000001, -0.146, 192.0, 0.0, 0.0, 0.0, 0.0, 0.0, 0.0, 0.0, 0.0, 0.0, 1.6664066825158396E9, 0.0, 2022-10-21 19:44:42.515
229.0, -143376.69532021228, -151241.22366204544, -11716.739739983052, -110624.19243147284, 76122.68789085007, -70944.25808718898, 73505.09744943351, -111744.39480833946, -0.04, 0.9460000000000001, -0.146, 192.0, 0.0, 0.0, 0.0, 0.0, 0.0, 0.0, 0.0, 0.0, 0.0, 1.6664066825158544E9, 0.0, 2022-10-21 19:44:42.515
230.0, -143383.91493367136, -151247.23628130392, -11729.65904827822, -110664.89495812595, 76103.2642249184, -71011.42507927718, 73440.94794284677, -111795.84852407558, -0.04, 0.9460000000000001, -0.146, 192.0, 0.0, 0.0, 0.0, 0.0, 0.0, 0.0, 0.0, 0.0, 0.0, 1.6664066825158694E9, 0.0, 2022-10-21 19:44:42.515
231.0, -143382.68558772633, -151247.5939092152, -11731.916574468205, -110670.75111517325, 76100.38084988366, -71139.32176105044, 73377.89367173835, -111810.2430475048, -0.04, 0.9460000000000001, -0.14200000000000002, 192.0, 254.0, 192.0, 29.0, 144.0, 251.0, 144.0, 0.0, 0.0, 0.0, 1.6664066825158856E9, 0.0, 2022-10-21 19:44:42.515
232.0, -143384.22785809374, -151250.16435982758, -11731.760112257018, -110643.16906251539, 76117.68110009207, -71084.7835045795, 73432.99072182068, -111762.54442483716, -0.04, 0.9460000000000001, -0.14200000000000002, 192.0, 0.0, 0.0, 0.0, 0.0, 0.0, 0.0, 0.0, 0.0, 0.0, 1.6664066825159016E9, 0.0, 2022-10-21 19:44:42.515
233.0, -143390.06166339657, -151254.23237731843, -11737.929193726683, -110640.24098399175, 76115.42357390208, -70953.24348846001, 73497.60961504097, -111748.19460489687, -0.04, 0.9460000000000001, -0.14200000000000002, 192.0, 0.0, 0.0, 0.0, 0.0, 0.0, 0.0, 0.0, 0.0, 0.0, 1.6664066825159163E9, 0.0, 2022-10-21 19:44:42.515
234.0, -143393.01209366467, -151256.22168257495, -11745.104103696836, -110662.48096972478, 76101.65489931761, -70980.1549887842, 73451.1403383184, -111803.22459974582, -0.04, 0.9460000000000001, -0.14200000000000002, 192.0, 0.0, 0.0, 0.0, 0.0, 0.0, 0.0, 0.0, 0.0, 0.0, 1.6664066825159316E9, 0.0, 2022-10-21 19:44:42.515
235.0, -143373.27550331064, -151238.2955835218, -11725.121644153793, -110658.39060048945, 76110.77441105538, -71115.07011831643, 73385.9179479978, -111810.93595158291, -0.04, 0.9460000000000001, -0.14200000000000002, 192.0, 0.0, 0.0, 0.0, 0.0, 0.0, 0.0, 0.0, 0.0, 0.0, 1.6664066825159469E9, 0.0, 2022-10-21 19:44:42.515
236.0, -143376.62826497894, -151243.9058713801, -11729.077902922381, -110644.15253927142, 76113.63543434566, -71125.8436591439, 73403.93345402878, -111778.43651514489, -0.04, 0.9460000000000001, -0.14200000000000002, 192.0, 0.0, 0.0, 0.0, 0.0, 0.0, 0.0, 0.0, 0.0, 0.0, 1.666406682515962E9, 0.0, 2022-10-21 19:44:42.515
237.0, -143385.25603833867, -151250.14200808312, -11736.386923359267, -110635.23419323376, 76115.17770471307, -70993.8566081353, 73477.53774852012, -111759.25871840224, -0.04, 0.9460000000000001, -0.14200000000000002, 192.0, 0.0, 0.0, 0.0, 0.0, 0.0, 0.0, 0.0, 0.0, 0.0, 1.66640668251599E9, 0.0, 2022-10-21 19:44:42.515
238.0, -143378.52816325764, -151242.18478705702, -11734.978763458583, -110642.9678968153, 76117.77050706989, -70969.67202063467, 73466.89831815938, -111786.55019838217, -0.04, 0.9460000000000001, -0.14200000000000002, 192.0, 0.0, 0.0, 0.0, 0.0, 0.0, 0.0, 0.0, 0.0, 0.0, 1.6664066825160055E9, 0.0, 2022-10-21 19:44:42.516
239.0, -143368.55928523056, -151231.5006532074, -11726.820376732396, -110641.04564679213, 76127.09118450775, -71095.26647272902, 73400.80420980504, -111799.35774795506, -0.04, 0.9460000000000001, -0.14200000000000002, 192.0, 0.0, 0.0, 0.0, 0.0, 0.0, 0.0, 0.0, 0.0, 0.0, 1.6664066825160203E9, 0.0, 2022-10-21 19:44:42.516
240.0, -143389.36875931846, -151251.5948714727, -11751.496702611053, -110653.83084462058, 76115.71414658001, -71133.73382493661, 73395.70801206923, -111785.49966639277, -0.036000000000000004, 0.9420000000000001, -0.138, 192.0, 254.0, 224.0, 29.0, 112.0, 251.0, 176.0, 0.0, 0.0, 0.0, 1.6664066825160372E9, 0.0, 2022-10-21 19:44:42.516
241.0, -143392.0509686531, -151251.706630195, -11758.291632925468, -110643.90667008242, 76110.93087326657, -71024.03146314996, 73467.74768444868, -111750.83211074259, -0.036000000000000004, 0.9420000000000001, -0.138, 192.0, 0.0, 0.0, 0.0, 0.0, 0.0, 0.0, 0.0, 0.0, 0.0, 1.6664066829931407E9, 0.0, 2022-10-21 19:44:42.993
242.0, -143384.36196856046, -151242.2071388015, -11757.554025358442, -110649.02521956268, 76112.67430933408, -70969.82848284584, 73480.19760611029, -111767.64062257299, -0.036000000000000004, 0.9420000000000001, -0.138, 192.0, 0.0, 0.0, 0.0, 0.0, 0.0, 0.0, 0.0, 0.0, 0.0, 1.6664066829933465E9, 0.0, 2022-10-21 19:44:42.993
243.0, -143380.22689583624, -151242.60947020169, -11759.163350959225, -110667.89009188296, 76106.1699516976, -71088.53859764799, 73405.05104125154, -111803.11284102355, -0.036000000000000004, 0.9420000000000001, -0.138, 192.0, 0.0, 0.0, 0.0, 0.0, 0.0, 0.0, 0.0, 0.0, 0.0, 1.6664066829933753E9, 0.0, 2022-10-21 19:44:42.993
244.0, -143383.0879191265, -151249.33734528272, -11764.684231839685, -110663.75501915874, 76102.8618935182, -71160.26534560506, 73383.1686834298, -111792.8310385741, -0.036000000000000004, 0.9420000000000001, -0.138, 192.0, 0.0, 0.0, 0.0, 0.0, 0.0, 0.0, 0.0, 0.0, 0.0, 1.6664066829933968E9, 0.0, 2022-10-21 19:44:42.993
245.0, -143393.36972157596, -151255.19350233002, -11772.216769721124, -110656.80362663313, 76103.57714934077, -71043.27631512599, 73456.10242558747, -111749.69217177537, -0.036000000000000004, 0.9420000000000001, -0.138, 192.0, 0.0, 0.0, 0.0, 0.0, 0.0, 0.0, 0.0, 0.0, 0.0, 1.666406682993418E9, 0.0, 2022-10-21 19:44:42.993
246.0, -143389.16759361836, -151246.02928710333, -11766.785295818485, -110659.77640864569, 76106.25935867541, -70958.29498270691, 73486.3443358355, -111754.96718346683, -0.036000000000000004, 0.9420000000000001, -0.138, 192.0, 0.0, 0.0, 0.0, 0.0, 0.0, 0.0, 0.0, 0.0, 0.0, 1.66640668299344E9, 0.0, 2022-10-21 19:44:42.993
247.0, -143386.01599765016, -151244.8446446472, -11757.79989454745, -110669.00767910572, 76109.7685825549, -71056.12856818779, 73419.04323328058, -111801.1905910004, -0.036000000000000004, 0.9420000000000001, -0.138, 192.0, 0.0, 0.0, 0.0, 0.0, 0.0, 0.0, 0.0, 0.0, 0.0, 1.6664066829934611E9, 0.0, 2022-10-21 19:44:42.993
248.0, -143392.40859656438, -151249.203234816, -11757.554025358442, -110661.40808599093, 76114.19422795704, -71134.76200518156, 73389.56128234402, -111800.3412247111, -0.036000000000000004, 0.9420000000000001, -0.138, 192.0, 0.0, 0.0, 0.0, 0.0, 0.0, 0.0, 0.0, 0.0, 0.0, 1.666406682993482E9, 0.0, 2022-10-21 19:44:42.993
249.0, -143405.596125793, -151263.3071855673, -11768.796952819463, -110654.14376904294, 76107.75692555391, -71057.35791413282, 73446.89350687189, -111765.00311672725, -0.036000000000000004, 0.9420000000000001, -0.138, 192.0, 0.0, 0.0, 0.0, 0.0, 0.0, 0.0, 0.0, 0.0, 0.0, 1.6664066829935036E9, 0.0, 2022-10-21 19:44:42.993
250.0, -143410.8934892289, -151268.42573504755, -11767.545255129964, -110657.02714407769, 76108.20396044302, -70953.71287509357, 73495.91088246237, -111755.2801078892, -0.036000000000000004, 0.9460000000000001, -0.14200000000000002, 192.0, 254.0, 224.0, 29.0, 144.0, 251.0, 144.0, 0.0, 0.0, 0.0, 1.6664066829935246E9, 0.0, 2022-10-21 19:44:42.993
251.0, -143403.51741355867, -151258.99329888742, -11753.776580545495, -110656.40129523294, 76118.55281812583, -71016.45422177961, 73446.5358789606, -111788.1818757274, -0.036000000000000004, 0.9460000000000001, -0.14200000000000002, 192.0, 0.0, 0.0, 0.0, 0.0, 0.0, 0.0, 0.0, 0.0, 0.0, 1.666406682993548E9, 0.0, 2022-10-21 19:44:42.993
252.0, -143399.2035268788, -151256.959290142, -11753.08367646738, -110659.6199464345, 76115.17770471307, -71130.7386911796, 73393.45048587925, -111792.9875007853, -0.036000000000000004, 0.9460000000000001, -0.14200000000000002, 192.0, 0.0, 0.0, 0.0, 0.0, 0.0, 0.0, 0.0, 0.0, 0.0, 1.6664066829936633E9, 0.0, 2022-10-21 19:44:42.993
253.0, -143406.46784382677, -151264.2012553455, -11761.08560098238, -110655.50722545473, 76107.55575985381, -71085.90109180225, 73436.32113174452, -111759.81751201363, -0.036000000000000004, 0.9460000000000001, -0.14200000000000002, 192.0, 0.0, 0.0, 0.0, 0.0, 0.0, 0.0, 0.0, 0.0, 0.0, 1.6664066829936848E9, 0.0, 2022-10-21 19:44:42.993
254.0, -143410.11117817299, -151264.91651116806, -11755.85529277984, -110645.94067882786, 76112.62960584517, -70956.03745651692, 73502.37053660996, -111747.52405256321, -0.036000000000000004, 0.9460000000000001, -0.14200000000000002, 192.0, 0.0, 0.0, 0.0, 0.0, 0.0, 0.0, 0.0, 0.0, 0.0, 1.6664066829937055E9, 0.0, 2022-10-21 19:44:42.993
