%OpenBCI Raw EEG Data
%Number of channels = 8
%Sample Rate = 250 Hz
%Board = OpenBCI_GUI$BoardCytonSerial
Sample Index, EXG Channel 0, EXG Channel 1, EXG Channel 2, EXG Channel 3, EXG Channel 4, EXG Channel 5, EXG Channel 6, EXG Channel 7, Accel Channel 0, Accel Channel 1, Accel Channel 2, Other, Other, Other, Other, Other, Other, Other, Analog Channel 0, Analog Channel 1, Analog Channel 2, Timestamp, Other, Timestamp (Formatted)
237.0, -156014.90807710984, -166961.67492409647, 63399.516153277895, -72169.84893916237, 78860.39660696943, -88991.77181622646, 85050.84634433346, -127934.1432969741, 0.0, 0.0, 0.0, 192.0, 0.0, 0.0, 0.0, 0.0, 0.0, 0.0, 0.0, 0.0, 0.0, 1.6664082969188924E9, 0.0, 2022-10-21 20:11:36.918
238.0, -156023.69231268077, -166971.04030502323, 63385.16633333759, -72175.21335783164, 78846.4044149404, -88989.06725514737, 85070.31471375404, -127944.33569244573, -0.012, 0.9460000000000001, -0.148, 192.0, 255.0, 160.0, 29.0, 144.0, 251.0, 96.0, 0.0, 0.0, 0.0, 1.6664082969189155E9, 0.0, 2022-10-21 20:11:36.918
239.0, -156027.29094353807, -166976.89646207052, 63373.096391331725, -72196.11223889736, 78835.04972875712, -89000.60075528632, 85059.54117292658, -127960.16072752008, -0.012, 0.9460000000000001, -0.148, 192.0, 0.0, 0.0, 0.0, 0.0, 0.0, 0.0, 0.0, 0.0, 0.0, 1.666408296918932E9, 0.0, 2022-10-21 20:11:36.918
240.0, -156010.90711485234, -166959.9091362845, 63386.999176382924, -72195.06170690796, 78844.75038585073, -89004.22173788807, 85040.072803506, -127949.34248320371, -0.012, 0.9460000000000001, -0.148, 192.0, 0.0, 0.0, 0.0, 0.0, 0.0, 0.0, 0.0, 0.0, 0.0, 1.6664082969189532E9, 0.0, 2022-10-21 20:11:36.918
241.0, -156004.55921942703, -166952.8012815477, 63395.805763698314, -72180.80129394548, 78854.42869119986, -88991.83887145983, 85047.76180359862, -127940.08886099923, -0.012, 0.9460000000000001, -0.148, 192.0, 0.0, 0.0, 0.0, 0.0, 0.0, 0.0, 0.0, 0.0, 0.0, 1.6664082969189758E9, 0.0, 2022-10-21 20:11:36.918
242.0, -156008.20255377324, -166957.3610374166, 63390.03901362885, -72168.84311066188, 78849.84658358654, -88973.04105437292, 85077.51197546865, -127941.87700055564, -0.012, 0.9460000000000001, -0.148, 192.0, 0.0, 0.0, 0.0, 0.0, 0.0, 0.0, 0.0, 0.0, 0.0, 1.666408296918994E9, 0.0, 2022-10-21 20:11:36.918
243.0, -156013.54462069806, -166966.3017351987, 63378.281996045356, -72185.07047713644, 78837.57547588057, -88984.48514753404, 85073.24279227767, -127951.26473322687, -0.012, 0.9460000000000001, -0.148, 192.0, 0.0, 0.0, 0.0, 0.0, 0.0, 0.0, 0.0, 0.0, 0.0, 1.6664082969190087E9, 0.0, 2022-10-21 20:11:36.919
244.0, -156007.35318748394, -166960.04324675124, 63378.81843791228, -72196.80514297547, 78833.77567932317, -89004.73582801054, 85039.69282385026, -127954.05870128378, -0.012, 0.9460000000000001, -0.148, 192.0, 0.0, 0.0, 0.0, 0.0, 0.0, 0.0, 0.0, 0.0, 0.0, 1.6664082969190235E9, 0.0, 2022-10-21 20:11:36.919
245.0, -156000.826478103, -166952.19778444743, 63384.24991181492, -72197.07336390893, 78833.01572001168, -89015.17409267118, 85024.94067250975, -127950.7059396155, -0.012, 0.9460000000000001, -0.148, 192.0, 0.0, 0.0, 0.0, 0.0, 0.0, 0.0, 0.0, 0.0, 0.0, 1.6664082969190385E9, 0.0, 2022-10-21 20:11:36.919
246.0, -156007.59905667295, -166957.29398218324, 63379.77956292386, -72181.96358465715, 78835.07208050157, -89002.61241228729, 85051.38278620038, -127952.38232044964, -0.012, 0.9460000000000001, -0.148, 192.0, 0.0, 0.0, 0.0, 0.0, 0.0, 0.0, 0.0, 0.0, 0.0, 1.6664082969190536E9, 0.0, 2022-10-21 20:11:36.919
247.0, -156006.19089677226, -166956.73518857185, 63377.097353589226, -72185.56221551445, 78834.91561829038, -88993.62701101626, 85067.2301730192, -127956.67385538506, -0.012, 0.9460000000000001, -0.148, 192.0, 0.0, 0.0, 0.0, 0.0, 0.0, 0.0, 0.0, 0.0, 0.0, 1.6664082969190686E9, 0.0, 2022-10-21 20:11:36.919
248.0, -155995.99850130064, -166949.44851987943, 63382.10414434721, -72201.25314012208, 78832.65809210039, -89010.74844726903, 85042.44208841826, -127957.09853852971, -0.03, 0.9440000000000001, -0.148, 192.0, 255.0, 16.0, 29.0, 128.0, 251.0, 96.0, 0.0, 0.0, 0.0, 1.6664082969190853E9, 0.0, 2022-10-21 20:11:36.919
249.0, -155991.23757973165, -166942.20655467588, 63390.17312409558, -72195.6428522638, 78841.73290034925, -89012.78245601445, 85029.03104174508, -127946.72732910245, -0.03, 0.9440000000000001, -0.148, 192.0, 0.0, 0.0, 0.0, 0.0, 0.0, 0.0, 0.0, 0.0, 0.0, 1.6664082969191017E9, 0.0, 2022-10-21 20:11:36.919
250.0, -155982.34158543847, -166933.91405748297, 63399.47144978899, -72165.84797690487, 78851.92529582087, -88993.71641799407, 85057.48481243668, -127941.38526217763, -0.03, 0.9440000000000001, -0.148, 192.0, 0.0, 0.0, 0.0, 0.0, 0.0, 0.0, 0.0, 0.0, 0.0, 1.6664082969191167E9, 0.0, 2022-10-21 20:11:36.919
251.0, -155992.1316495099, -166947.81684253417, 63388.899074661625, -72185.60691900336, 78835.36265317949, -88994.05169416091, 85069.01831257562, -127950.7506431044, -0.03, 0.9440000000000001, -0.148, 192.0, 0.0, 0.0, 0.0, 0.0, 0.0, 0.0, 0.0, 0.0, 0.0, 1.6664082969191315E9, 0.0, 2022-10-21 20:11:36.919
252.0, -155990.43291693128, -166946.07340646666, 63392.944740408035, -72198.92855869872, 78832.23340895574, -89001.27130761997, 85052.07569027849, -127948.98485529244, -0.03, 0.9440000000000001, -0.148, 192.0, 0.0, 0.0, 0.0, 0.0, 0.0, 0.0, 0.0, 0.0, 0.0, 1.6664082969191468E9, 0.0, 2022-10-21 20:11:36.919
253.0, -155986.5213616516, -166943.34649364313, 63393.16825785259, -72203.48831456761, 78835.92144679088, -89011.15077866922, 85029.94746326774, -127951.26473322687, -0.03, 0.9440000000000001, -0.148, 192.0, 0.0, 0.0, 0.0, 0.0, 0.0, 0.0, 0.0, 0.0, 0.0, 1.6664082969193237E9, 0.0, 2022-10-21 20:11:36.919
254.0, -155991.1705244983, -166950.52140361327, 63386.44038277154, -72191.6418900063, 78830.89230428843, -88999.88549946374, 85047.2253617317, -127946.21323897997, -0.03, 0.9440000000000001, -0.148, 192.0, 0.0, 0.0, 0.0, 0.0, 0.0, 0.0, 0.0, 0.0, 0.0, 1.6664082969193392E9, 0.0, 2022-10-21 20:11:36.919
255.0, -155990.70113786473, -166945.42520587746, 63392.1624293521, -72179.12491311133, 78838.60365612552, -88974.91860090717, 85083.2340220492, -127935.17147721905, -0.03, 0.9440000000000001, -0.148, 192.0, 0.0, 0.0, 0.0, 0.0, 0.0, 0.0, 0.0, 0.0, 0.0, 1.666408296919355E9, 0.0, 2022-10-21 20:11:36.919
0.0, -155991.23757973165, -166946.63220007805, 63390.68721421805, -72193.69825049618, 78838.20132472532, -88984.79807195641, 85068.10189105295, -127944.42509942355, -0.03, 0.9440000000000001, -0.148, 192.0, 0.0, 0.0, 0.0, 0.0, 0.0, 0.0, 0.0, 0.0, 0.0, 1.6664082969193728E9, 0.0, 2022-10-21 20:11:36.919
1.0, -155985.80610582902, -166945.8051855332, 63389.68138571756, -72202.32602385593, 78838.91658054788, -88999.32670585236, 85038.9775680277, -127952.29291347181, -0.03, 0.9440000000000001, -0.148, 192.0, 0.0, 0.0, 0.0, 0.0, 0.0, 0.0, 0.0, 0.0, 0.0, 1.666408296919388E9, 0.0, 2022-10-21 20:11:36.919
2.0, -155982.29688194953, -166941.13367094204, 63395.15756310911, -72185.07047713644, 78843.4092811834, -88990.6095255148, 85050.93575131128, -127947.73315760294, -0.046, 0.9420000000000001, -0.148, 192.0, 254.0, 144.0, 29.0, 112.0, 251.0, 96.0, 0.0, 0.0, 0.0, 1.6664082969194036E9, 0.0, 2022-10-21 20:11:36.919
3.0, -155992.80220184353, -166947.7050838119, 63392.00596714091, -72177.15795959925, 78837.59782762502, -88987.03324640194, 85074.3827312449, -127951.53295416034, -0.046, 0.9420000000000001, -0.148, 192.0, 0.0, 0.0, 0.0, 0.0, 0.0, 0.0, 0.0, 0.0, 0.0, 1.6664082969194224E9, 0.0, 2022-10-21 20:11:36.919
4.0, -155995.7749838561, -166955.1482147155, 63384.83105717076, -72199.19677963218, 78831.62991185546, -88997.51621455148, 85061.66458864983, -127962.59706766572, -0.046, 0.9420000000000001, -0.148, 192.0, 0.0, 0.0, 0.0, 0.0, 0.0, 0.0, 0.0, 0.0, 0.0, 1.666408296919438E9, 0.0, 2022-10-21 20:11:36.919
5.0, -155995.66322513382, -166952.48835712534, 63384.294615303836, -72212.6972332832, 78833.75332757871, -89008.69208677913, 85034.06018424752, -127960.54070717582, -0.046, 0.9420000000000001, -0.148, 192.0, 0.0, 0.0, 0.0, 0.0, 0.0, 0.0, 0.0, 0.0, 0.0, 1.666408296919453E9, 0.0, 2022-10-21 20:11:36.919
6.0, -155984.88968430637, -166940.77604303075, 63400.23140910047, -72192.60301501787, 78849.19838299733, -88990.4083598147, 85049.86286757742, -127945.07330001275, -0.046, 0.9420000000000001, -0.148, 192.0, 0.0, 0.0, 0.0, 0.0, 0.0, 0.0, 0.0, 0.0, 0.0, 1.666408296919468E9, 0.0, 2022-10-21 20:11:36.919
7.0, -155980.15111448182, -166943.59236283213, 63400.96901666749, -72179.0355061335, 78846.13619400695, -88975.23152532954, 85081.37882725941, -127940.40178542159, -0.046, 0.9420000000000001, -0.148, 192.0, 0.0, 0.0, 0.0, 0.0, 0.0, 0.0, 0.0, 0.0, 0.0, 1.666408296919483E9, 0.0, 2022-10-21 20:11:36.919
8.0, -155977.0218702581, -166947.88389776755, 63393.54823750833, -72191.10544813937, 78842.98459803875, -88986.96619116857, 85078.09312082447, -127946.83908782472, -0.046, 0.9420000000000001, -0.148, 192.0, 0.0, 0.0, 0.0, 0.0, 0.0, 0.0, 0.0, 0.0, 0.0, 1.666408296919498E9, 0.0, 2022-10-21 20:11:36.919
9.0, -155980.24052145967, -166944.59819133262, 63393.90586541961, -72212.80899200548, 78838.96128403679, -89003.68529602114, 85047.06889952051, -127946.704977358, -0.046, 0.9420000000000001, -0.148, 192.0, 0.0, 0.0, 0.0, 0.0, 0.0, 0.0, 0.0, 0.0, 0.0, 1.6664082969195132E9, 0.0, 2022-10-21 20:11:36.919
10.0, -155987.3707279409, -166944.97817098835, 63394.21878984199, -72205.23175063512, 78839.6541881149, -89003.12650240977, 85043.64908261885, -127951.57765764925, -0.046, 0.9420000000000001, -0.148, 192.0, 0.0, 0.0, 0.0, 0.0, 0.0, 0.0, 0.0, 0.0, 0.0, 1.6664082969195282E9, 0.0, 2022-10-21 20:11:36.919
11.0, -155991.1258210094, -166949.91790651297, 63390.19547584003, -72196.11223889736, 78831.49580138872, -88995.2586883615, 85065.7326061407, -127953.83518383923, -0.048, 0.9440000000000001, -0.14400000000000002, 192.0, 254.0, 128.0, 29.0, 128.0, 251.0, 128.0, 0.0, 0.0, 0.0, 1.6664082969195435E9, 0.0, 2022-10-21 20:11:36.919
12.0, -155989.7623645976, -166948.1074152121, 63389.6143304842, -72202.59424478939, 78832.21105721129, -88998.25382211851, 85076.79671964607, -127952.91876231656, -0.048, 0.9440000000000001, -0.14400000000000002, 192.0, 0.0, 0.0, 0.0, 0.0, 0.0, 0.0, 0.0, 0.0, 0.0, 1.666408296919604E9, 0.0, 2022-10-21 20:11:36.919
13.0, -155986.18608548478, -166945.44755762193, 63391.201304340524, -72216.45232635169, 78834.15565897891, -89007.82036874538, 85051.36043445593, -127954.3045704728, -0.048, 0.9440000000000001, -0.14400000000000002, 192.0, 0.0, 0.0, 0.0, 0.0, 0.0, 0.0, 0.0, 0.0, 0.0, 1.666408296919619E9, 0.0, 2022-10-21 20:11:36.919
14.0, -155981.78279182708, -166942.98886573184, 63395.93987416505, -72211.87021873835, 78844.52686840616, -88994.38697032773, 85045.23605647517, -127947.71080585849, -0.048, 0.9440000000000001, -0.14400000000000002, 192.0, 0.0, 0.0, 0.0, 0.0, 0.0, 0.0, 0.0, 0.0, 0.0, 1.6664082969196303E9, 0.0, 2022-10-21 20:11:36.919
15.0, -155976.99951851362, -166942.20655467588, 63397.079813132266, -72191.6418900063, 78848.61723764149, -88975.16447009618, 85077.42256849082, -127940.6923580995, -0.048, 0.9440000000000001, -0.14400000000000002, 192.0, 0.0, 0.0, 0.0, 0.0, 0.0, 0.0, 0.0, 0.0, 0.0, 1.6664082969196403E9, 0.0, 2022-10-21 20:11:36.919
16.0, -155975.52430337959, -166941.60305757562, 63392.3635950522, -72195.59814877488, 78836.92727529137, -88977.13142360824, 85086.22915580621, -127943.50867790089, -0.048, 0.9440000000000001, -0.14400000000000002, 192.0, 0.0, 0.0, 0.0, 0.0, 0.0, 0.0, 0.0, 0.0, 0.0, 1.66640829691965E9, 0.0, 2022-10-21 20:11:36.919
17.0, -155978.54178888106, -166951.61663909158, 63387.557969994305, -72208.02571869204, 78835.11678399048, -89000.13136865276, 85054.89201007987, -127950.52712565985, -0.048, 0.9440000000000001, -0.14400000000000002, 192.0, 0.0, 0.0, 0.0, 0.0, 0.0, 0.0, 0.0, 0.0, 0.0, 1.66640829691966E9, 0.0, 2022-10-21 20:11:36.919
18.0, -155982.1627714828, -166959.61856360658, 63379.041955356835, -72222.35318688789, 78826.93604551983, -89026.90875851021, 85020.87265501889, -127959.87015484217, -0.048, 0.9440000000000001, -0.14400000000000002, 192.0, 0.0, 0.0, 0.0, 0.0, 0.0, 0.0, 0.0, 0.0, 0.0, 1.66640829691967E9, 0.0, 2022-10-21 20:11:36.919
19.0, -155976.1054487354, -166948.97913324586, 63387.66972871658, -72195.93342494172, 78835.47441190177, -89004.82523498837, 85048.65587337683, -127947.91197155857, -0.048, 0.9440000000000001, -0.14400000000000002, 192.0, 0.0, 0.0, 0.0, 0.0, 0.0, 0.0, 0.0, 0.0, 0.0, 1.6664082969196796E9, 0.0, 2022-10-21 20:11:36.919
20.0, -155970.24929168812, -166940.12784244155, 63400.45492654502, -72176.55446249897, 78851.99235105424, -88972.68342646163, 85088.084350596, -127941.92170404455, -0.048, 0.9440000000000001, -0.14400000000000002, 192.0, 0.0, 0.0, 0.0, 0.0, 0.0, 0.0, 0.0, 0.0, 0.0, 1.6664082969196894E9, 0.0, 2022-10-21 20:11:36.919
21.0, -155977.89358829186, -166944.66524656597, 63394.37525205318, -72202.43778257821, 78840.36944393748, -88988.68727549164, 85066.827841619, -127950.1471460041, -0.056, 0.9420000000000001, -0.15, 192.0, 254.0, 64.0, 29.0, 112.0, 251.0, 80.0, 0.0, 0.0, 0.0, 1.6664082969196992E9, 0.0, 2022-10-21 20:11:36.919
22.0, -155987.2142657297, -166957.1598717165, 63380.47246700198, -72225.68359681172, 78823.29271117362, -89017.07399094988, 85025.79003879905, -127962.88764034363, -0.056, 0.9420000000000001, -0.15, 192.0, 0.0, 0.0, 0.0, 0.0, 0.0, 0.0, 0.0, 0.0, 0.0, 1.6664082969197097E9, 0.0, 2022-10-21 20:11:36.919
23.0, -155994.00919604412, -166968.13457824406, 63372.22467329797, -72224.7001200557, 78810.44045811183, -89026.8193515324, 85026.84057078845, -127972.58829743724, -0.056, 0.9420000000000001, -0.15, 192.0, 0.0, 0.0, 0.0, 0.0, 0.0, 0.0, 0.0, 0.0, 0.0, 1.6664082969197197E9, 0.0, 2022-10-21 20:11:36.919
24.0, -155992.1763529988, -166965.54177588725, 63379.98072862396, -72207.57868380293, 78822.5551036066, -88996.19746162862, 85067.92307709731, -127963.33467523273, -0.056, 0.9420000000000001, -0.15, 192.0, 0.0, 0.0, 0.0, 0.0, 0.0, 0.0, 0.0, 0.0, 0.0, 1.6664082969197307E9, 0.0, 2022-10-21 20:11:36.919
25.0, -155984.80027732853, -166960.5573368737, 63384.24991181492, -72214.93240772873, 78829.86412404348, -88990.07308364786, 85065.06205380704, -127961.94886707651, -0.056, 0.9420000000000001, -0.15, 192.0, 0.0, 0.0, 0.0, 0.0, 0.0, 0.0, 0.0, 0.0, 0.0, 1.6664082969197412E9, 0.0, 2022-10-21 20:11:36.919
26.0, -155977.29009119156, -166954.7011798264, 63390.68721421805, -72221.41441362076, 78834.02154851217, -89005.24991813302, 85034.2166464587, -127960.54070717582, -0.056, 0.9420000000000001, -0.15, 192.0, 0.0, 0.0, 0.0, 0.0, 0.0, 0.0, 0.0, 0.0, 0.0, 1.666408296919751E9, 0.0, 2022-10-21 20:11:36.919
27.0, -155977.60301561392, -166955.5505461157, 63393.861161930705, -72208.47275358114, 78836.07790900207, -89002.16537739818, 85041.3245011955, -127956.71855887397, -0.056, 0.9420000000000001, -0.15, 192.0, 0.0, 0.0, 0.0, 0.0, 0.0, 0.0, 0.0, 0.0, 0.0, 1.6664082969197707E9, 0.0, 2022-10-21 20:11:36.919
28.0, -155974.9208062793, -166954.79058680424, 63396.54337126534, -72191.53013128402, 78839.38596718144, -88983.21109810009, 85076.90847836835, -127953.74577686141, -0.056, 0.9420000000000001, -0.15, 192.0, 0.0, 0.0, 0.0, 0.0, 0.0, 0.0, 0.0, 0.0, 0.0, 1.6664082969197805E9, 0.0, 2022-10-21 20:11:36.919
29.0, -155970.09282947695, -166955.3046769267, 63398.15269686612, -72200.24731162158, 78840.21298172629, -88989.71545573657, 85071.81228063254, -127957.18794550753, -0.056, 0.9420000000000001, -0.15, 192.0, 0.0, 0.0, 0.0, 0.0, 0.0, 0.0, 0.0, 0.0, 0.0, 1.66640829691979E9, 0.0, 2022-10-21 20:11:36.919
30.0, -155965.64483233035, -166951.46017688038, 63403.36065332421, -72213.45719259468, 78842.00112128272, -89008.60267980132, 85037.68116684929, -127953.63401813913, -0.056, 0.9420000000000001, -0.15, 192.0, 0.0, 0.0, 0.0, 0.0, 0.0, 0.0, 0.0, 0.0, 0.0, 1.6664082969198E9, 0.0, 2022-10-21 20:11:36.919
31.0, -155971.92567252228, -166952.42130189197, 63407.20515337052, -72210.77498326004, 78846.47147017378, -89006.38985710024, 85037.85998080492, -127955.73508211793, -0.062, 0.9560000000000001, -0.148, 192.0, 254.0, 16.0, 29.0, 224.0, 251.0, 96.0, 0.0, 0.0, 0.0, 1.6664082969198096E9, 0.0, 2022-10-21 20:11:36.919
32.0, -155975.3678411684, -166953.6059443481, 63409.529734793876, -72193.60884351836, 78849.39954869742, -88978.91956316466, 85073.89099286687, -127954.32692221725, -0.062, 0.9560000000000001, -0.148, 192.0, 0.0, 0.0, 0.0, 0.0, 0.0, 0.0, 0.0, 0.0, 0.0, 1.6664082969198203E9, 0.0, 2022-10-21 20:11:36.919
33.0, -155975.7701725686, -166959.12682522857, 63404.32177833579, -72205.18704714622, 78845.97973179576, -88983.99340915601, 85078.96483885823, -127960.36189322018, -0.062, 0.9560000000000001, -0.148, 192.0, 0.0, 0.0, 0.0, 0.0, 0.0, 0.0, 0.0, 0.0, 0.0, 1.66640829691983E9, 0.0, 2022-10-21 20:11:36.919
34.0, -155971.74685856665, -166955.0588077377, 63401.59486551224, -72221.9955589766, 78838.53660089214, -89016.62695606076, 85038.08349824947, -127965.59220142273, -0.062, 0.9560000000000001, -0.148, 192.0, 0.0, 0.0, 0.0, 0.0, 0.0, 0.0, 0.0, 0.0, 0.0, 1.6664082969198399E9, 0.0, 2022-10-21 20:11:36.919
35.0, -155959.49810260514, -166937.78090927374, 63405.50642079192, -72220.25212290909, 78844.57157189508, -89013.92239498168, 85034.39546041435, -127954.28221872835, -0.062, 0.9560000000000001, -0.148, 192.0, 0.0, 0.0, 0.0, 0.0, 0.0, 0.0, 0.0, 0.0, 0.0, 1.6664082969198496E9, 0.0, 2022-10-21 20:11:36.919
36.0, -155963.07438171798, -166940.28430465274, 63396.45396428752, -72218.46398335266, 78839.8106503261, -88991.72711273756, 85060.63640840488, -127962.93234383254, -0.062, 0.9560000000000001, -0.148, 192.0, 0.0, 0.0, 0.0, 0.0, 0.0, 0.0, 0.0, 0.0, 0.0, 1.6664082969198592E9, 0.0, 2022-10-21 20:11:36.919
37.0, -155973.37853591188, -166962.97132527488, 63400.65609224512, -72218.68750079721, 78840.95058929332, -88986.92148767966, 85074.36037950045, -127963.66995139957, -0.062, 0.9560000000000001, -0.148, 192.0, 0.0, 0.0, 0.0, 0.0, 0.0, 0.0, 0.0, 0.0, 0.0, 1.6664082969198687E9, 0.0, 2022-10-21 20:11:36.919
38.0, -155981.60397787142, -166976.09179927013, 63405.84169695875, -72229.21517243567, 78843.83396432805, -89006.97100245608, 85050.15344025534, -127962.08297754324, -0.062, 0.9560000000000001, -0.148, 192.0, 0.0, 0.0, 0.0, 0.0, 0.0, 0.0, 0.0, 0.0, 0.0, 1.66640829691988E9, 0.0, 2022-10-21 20:11:36.919
39.0, -155983.4144691723, -166976.67294462599, 63412.524868550885, -72231.4503468812, 78849.2654382307, -89003.68529602114, 85041.0786320065, -127954.32692221725, -0.062, 0.9560000000000001, -0.148, 192.0, 0.0, 0.0, 0.0, 0.0, 0.0, 0.0, 0.0, 0.0, 0.0, 1.6664082969198897E9, 0.0, 2022-10-21 20:11:36.919
40.0, -155979.4582104037, -166972.02378177928, 63408.814478971304, -72219.96155023116, 78849.33249346406, -88986.09447313481, 85063.81035611754, -127957.12089027416, -0.062, 0.9560000000000001, -0.148, 192.0, 0.0, 0.0, 0.0, 0.0, 0.0, 0.0, 0.0, 0.0, 0.0, 1.6664082969198995E9, 0.0, 2022-10-21 20:11:36.919
41.0, -155971.92567252228, -166964.04420900872, 63405.819345214295, -72222.86727701036, 78847.52200216318, -88981.22179284356, 85078.96483885823, -127958.28318098583, -0.064, 0.964, -0.134, 192.0, 254.0, 0.0, 30.0, 32.0, 251.0, 208.0, 0.0, 0.0, 0.0, 1.6664082969199095E9, 0.0, 2022-10-21 20:11:36.919
42.0, -155980.1064109929, -166974.63893588053, 63405.70758649202, -72235.60777134988, 78849.2654382307, -88996.13040639526, 85060.99403631617, -127957.94790481901, -0.064, 0.964, -0.134, 192.0, 0.0, 0.0, 0.0, 0.0, 0.0, 0.0, 0.0, 0.0, 0.0, 1.6664082969199452E9, 0.0, 2022-10-21 20:11:36.919
43.0, -155987.1695622408, -166986.99945056433, 63395.26932183139, -72249.08587325644, 78843.4092811834, -89013.52006358148, 85031.53443712408, -127968.96731483548, -0.064, 0.964, -0.134, 192.0, 0.0, 0.0, 0.0, 0.0, 0.0, 0.0, 0.0, 0.0, 0.0, 1.6664082969199553E9, 0.0, 2022-10-21 20:11:36.919
44.0, -155982.02866101608, -166985.6136424081, 63388.51909500588, -72237.26180043958, 78840.83883057104, -89004.33349661034, 85051.89687632286, -127963.89346884412, -0.064, 0.964, -0.134, 192.0, 0.0, 0.0, 0.0, 0.0, 0.0, 0.0, 0.0, 0.0, 0.0, 1.6664082969199653E9, 0.0, 2022-10-21 20:11:36.919
45.0, -155987.7283558522, -166987.37943022008, 63379.109010590204, -72232.05384398148, 78834.82621131257, -88996.89036570673, 85074.44978647826, -127966.39686422312, -0.064, 0.964, -0.134, 192.0, 0.0, 0.0, 0.0, 0.0, 0.0, 0.0, 0.0, 0.0, 0.0, 1.6664082969199765E9, 0.0, 2022-10-21 20:11:36.919
46.0, -155986.14138199584, -166983.5572819182, 63379.39958326812, -72242.8497365534, 78833.06042350059, -89008.40151410122, 85055.07082403552, -127966.86625085668, -0.064, 0.964, -0.134, 192.0, 0.0, 0.0, 0.0, 0.0, 0.0, 0.0, 0.0, 0.0, 0.0, 1.666408296919986E9, 0.0, 2022-10-21 20:11:36.919
47.0, -155983.07919300548, -166980.13746501654, 63380.31600479079, -72251.6563238688, 78829.73001357676, -89028.7192498111, 85023.42075388679, -127970.59899218072, -0.064, 0.964, -0.134, 192.0, 0.0, 0.0, 0.0, 0.0, 0.0, 0.0, 0.0, 0.0, 0.0, 1.666408296919996E9, 0.0, 2022-10-21 20:11:36.919
48.0, -155980.7099080932, -166978.6622498825, 63380.20424606851, -72233.10437597088, 78836.10026074652, -89011.7095722806, 85039.64812036135, -127970.57664043625, -0.064, 0.964, -0.134, 192.0, 0.0, 0.0, 0.0, 0.0, 0.0, 0.0, 0.0, 0.0, 0.0, 1.666408296920006E9, 0.0, 2022-10-21 20:11:36.920
49.0, -155975.59135861296, -166974.59423239162, 63383.62406297017, -72217.97224497465, 78843.92337130588, -88977.51140326398, 85080.12712956991, -127961.41242520958, -0.064, 0.964, -0.134, 192.0, 0.0, 0.0, 0.0, 0.0, 0.0, 0.0, 0.0, 0.0, 0.0, 1.6664082969200156E9, 0.0, 2022-10-21 20:11:36.920
50.0, -155973.89262603436, -166975.5106539143, 63378.326699534264, -72231.42799513674, 78842.42580442737, -88974.98565614053, 85075.29915276756, -127956.56209666278, -0.054, 0.9480000000000001, -0.126, 192.0, 254.0, 80.0, 29.0, 160.0, 252.0, 16.0, 0.0, 0.0, 0.0, 1.6664082969200253E9, 0.0, 2022-10-21 20:11:36.920
51.0, -155968.84113178746, -166969.63214512257, 63376.11387683319, -72242.42505340875, 78840.48120265975, -88999.17024364117, 85038.9775680277, -127961.99357056542, -0.054, 0.9480000000000001, -0.126, 192.0, 0.0, 0.0, 0.0, 0.0, 0.0, 0.0, 0.0, 0.0, 0.0, 1.6664082969200366E9, 0.0, 2022-10-21 20:11:36.920
52.0, -155993.1821814993, -166987.670002898, 63354.58914692273, -72258.6524198833, 78820.27522567216, -89025.29943290942, 85022.50433236413, -127976.96923935048, -0.054, 0.9480000000000001, -0.126, 192.0, 0.0, 0.0, 0.0, 0.0, 0.0, 0.0, 0.0, 0.0, 0.0, 1.666408296920046E9, 0.0, 2022-10-21 20:11:36.920
53.0, -155990.41056518682, -166980.74096211683, 63361.697001659515, -72232.88085852633, 78825.75140306371, -89003.77470299897, 85059.31765548202, -127969.57081193577, -0.054, 0.9480000000000001, -0.126, 192.0, 0.0, 0.0, 0.0, 0.0, 0.0, 0.0, 0.0, 0.0, 0.0, 1.666408296920056E9, 0.0, 2022-10-21 20:11:36.920
54.0, -155985.314367451, -166977.63406963757, 63364.20039703851, -72237.41826265077, 78831.33933917753, -88995.52690929496, 85063.6315421619, -127971.24719276992, -0.054, 0.9480000000000001, -0.126, 192.0, 0.0, 0.0, 0.0, 0.0, 0.0, 0.0, 0.0, 0.0, 0.0, 1.666408296920066E9, 0.0, 2022-10-21 20:11:36.920
55.0, -155990.812896587, -166981.74679061733, 63356.600803923706, -72263.43569319675, 78821.88455127295, -89017.3645636278, 85024.15836145382, -127984.6135359542, -0.054, 0.9480000000000001, -0.126, 192.0, 0.0, 0.0, 0.0, 0.0, 0.0, 0.0, 0.0, 0.0, 0.0, 1.666408296920076E9, 0.0, 2022-10-21 20:11:36.920
56.0, -155991.19287624274, -166986.6194709086, 63355.43851321203, -72265.71557113118, 78822.77862105115, -89015.46466534909, 85019.64330907384, -127979.29382077383, -0.054, 0.9480000000000001, -0.126, 192.0, 0.0, 0.0, 0.0, 0.0, 0.0, 0.0, 0.0, 0.0, 0.0, 1.6664082969200857E9, 0.0, 2022-10-21 20:11:36.920
57.0, -155984.1744284838, -166980.42803769448, 63365.83207438375, -72240.81572780797, 78832.09929848902, -88991.48124354855, 85058.02125430362, -127962.08297754324, -0.054, 0.9480000000000001, -0.126, 192.0, 0.0, 0.0, 0.0, 0.0, 0.0, 0.0, 0.0, 0.0, 0.0, 1.6664082969201226E9, 0.0, 2022-10-21 20:11:36.920
58.0, -155990.5223239091, -166982.2161772509, 63361.67464991506, -72246.18014647724, 78827.98657750923, -88993.49290054952, 85058.825917104, -127968.72144564647, -0.054, 0.9480000000000001, -0.126, 192.0, 0.0, 0.0, 0.0, 0.0, 0.0, 0.0, 0.0, 0.0, 0.0, 1.6664082969201329E9, 0.0, 2022-10-21 20:11:36.920
59.0, -155983.90620755032, -166974.43777018046, 63369.07307732977, -72261.46873968467, 78833.19453396733, -88998.58909828533, 85040.13985873936, -127959.44547169752, -0.054, 0.9480000000000001, -0.126, 192.0, 0.0, 0.0, 0.0, 0.0, 0.0, 0.0, 0.0, 0.0, 0.0, 1.6664082969201424E9, 0.0, 2022-10-21 20:11:36.920
60.0, -155974.18319871227, -166968.5592613887, 63374.996289610426, -72265.44735019772, 78837.53077239165, -88995.19163312812, 85036.29535869305, -127949.700111115, -0.042, 0.936, -0.136, 192.0, 254.0, 176.0, 29.0, 64.0, 251.0, 192.0, 0.0, 0.0, 0.0, 1.666408296920152E9, 0.0, 2022-10-21 20:11:36.920
61.0, -155968.2152829427, -166973.54370040222, 63373.05168784281, -72250.87401281286, 78837.17314448037, -88983.88165043374, 85061.03873980508, -127952.94111406102, -0.042, 0.936, -0.136, 192.0, 0.0, 0.0, 0.0, 0.0, 0.0, 0.0, 0.0, 0.0, 0.0, 1.666408296920163E9, 0.0, 2022-10-21 20:11:36.920
62.0, -155974.98786151267, -166977.70112487092, 63372.314080275784, -72247.051864511, 78836.34612993553, -88980.43948178763, 85071.11937655442, -127958.19377400802, -0.042, 0.936, -0.136, 192.0, 0.0, 0.0, 0.0, 0.0, 0.0, 0.0, 0.0, 0.0, 0.0, 1.6664082969201736E9, 0.0, 2022-10-21 20:11:36.920
63.0, -155978.5641406255, -166973.3201829577, 63374.146923321125, -72266.96726882068, 78827.53954262013, -88998.8573192188, 85040.4751349062, -127966.37451247867, -0.042, 0.936, -0.136, 192.0, 0.0, 0.0, 0.0, 0.0, 0.0, 0.0, 0.0, 0.0, 0.0, 1.666408296920184E9, 0.0, 2022-10-21 20:11:36.920
64.0, -155986.74487909614, -166979.6233748941, 63370.458885486, -72277.29377475903, 78821.59397859502, -89011.19548215813, 85019.33038465148, -127974.1529195491, -0.042, 0.936, -0.136, 192.0, 0.0, 0.0, 0.0, 0.0, 0.0, 0.0, 0.0, 0.0, 0.0, 1.666408296920194E9, 0.0, 2022-10-21 20:11:36.920
65.0, -155996.71375712322, -166986.6641743975, 63366.2567575284, -72265.08972228643, 78821.6610338284, -88997.3597523403, 85040.69865235075, -127977.52803296185, -0.042, 0.936, -0.136, 192.0, 0.0, 0.0, 0.0, 0.0, 0.0, 0.0, 0.0, 0.0, 0.0, 1.6664082969202037E9, 0.0, 2022-10-21 20:11:36.920
66.0, -155988.08598376348, -166979.84689233862, 63376.44915300002, -72250.18110873475, 78836.59199912453, -88977.04201663042, 85071.38759748789, -127968.81085262429, -0.042, 0.936, -0.136, 192.0, 0.0, 0.0, 0.0, 0.0, 0.0, 0.0, 0.0, 0.0, 0.0, 1.6664082969202132E9, 0.0, 2022-10-21 20:11:36.920
67.0, -155985.8284575735, -166979.6233748941, 63381.92533039157, -72261.42403619576, 78834.93797003484, -88993.00116217151, 85047.67239662081, -127972.58829743724, -0.042, 0.936, -0.136, 192.0, 0.0, 0.0, 0.0, 0.0, 0.0, 0.0, 0.0, 0.0, 0.0, 1.666408296920224E9, 0.0, 2022-10-21 20:11:36.920
68.0, -155986.4766581627, -166981.54562491723, 63382.23825481394, -72269.47066419967, 78833.79803106762, -89008.11094142329, 85020.24680617414, -127975.76224514989, -0.042, 0.936, -0.136, 192.0, 0.0, 0.0, 0.0, 0.0, 0.0, 0.0, 0.0, 0.0, 0.0, 1.6664082969202335E9, 0.0, 2022-10-21 20:11:36.920
69.0, -155983.5709313835, -166979.69043012743, 63385.38985078214, -72258.4065506943, 78832.88160954496, -89000.10901690829, 85038.03879476056, -127971.89539335913, -0.042, 0.936, -0.136, 192.0, 0.0, 0.0, 0.0, 0.0, 0.0, 0.0, 0.0, 0.0, 0.0, 1.6664082969202435E9, 0.0, 2022-10-21 20:11:36.920
70.0, -155985.5155331511, -166982.03736329524, 63387.87089441668, -72248.5494313895, 78834.80385956811, -88988.21788885807, 85068.45951896424, -127968.74379739093, -0.028, 0.934, -0.124, 192.0, 255.0, 32.0, 29.0, 48.0, 252.0, 32.0, 0.0, 0.0, 0.0, 1.666408296920254E9, 0.0, 2022-10-21 20:11:36.920
71.0, -155993.20453324373, -166987.0218023088, 63380.24894955742, -72276.86909161438, 78824.2538361852, -89000.53370005294, 85050.42166118881, -127978.64562018463, -0.028, 0.934, -0.124, 192.0, 0.0, 0.0, 0.0, 0.0, 0.0, 0.0, 0.0, 0.0, 0.0, 1.6664082969202645E9, 0.0, 2022-10-21 20:11:36.920
72.0, -155979.0558790035, -166971.48733991236, 63391.53658050735, -72281.6076614389, 78828.858295543, -89004.57936579936, 85029.92511152329, -127971.1577857921, -0.028, 0.934, -0.124, 192.0, 0.0, 0.0, 0.0, 0.0, 0.0, 0.0, 0.0, 0.0, 0.0, 1.6664082969202833E9, 0.0, 2022-10-21 20:11:36.920
73.0, -155965.7118875637, -166957.71866532788, 63408.72507199348, -72250.6504953683, 78847.09731901853, -88983.97105741156, 85054.22145774621, -127953.0528727833, -0.028, 0.934, -0.124, 192.0, 0.0, 0.0, 0.0, 0.0, 0.0, 0.0, 0.0, 0.0, 0.0, 1.666408296920293E9, 0.0, 2022-10-21 20:11:36.920
74.0, -155988.84594307494, -166977.67877312648, 63388.340281050245, -72259.99352455062, 78831.04876649962, -88987.83790920234, 85067.38663523039, -127972.87887011515, -0.028, 0.934, -0.124, 192.0, 0.0, 0.0, 0.0, 0.0, 0.0, 0.0, 0.0, 0.0, 0.0, 1.6664082969203029E9, 0.0, 2022-10-21 20:11:36.920
75.0, -155999.68653913576, -166987.0218023088, 63373.54342622083, -72282.94876610623, 78816.16250469239, -89014.41413335969, 85045.61603613092, -127990.64850695712, -0.028, 0.934, -0.124, 192.0, 0.0, 0.0, 0.0, 0.0, 0.0, 0.0, 0.0, 0.0, 0.0, 1.6664082969203126E9, 0.0, 2022-10-21 20:11:36.920
76.0, -155987.6165971299, -166977.58936614863, 63383.89228390364, -72292.38120226636, 78816.4530773703, -89032.22847369057, 85013.317765393, -127980.2549457854, -0.028, 0.934, -0.124, 192.0, 0.0, 0.0, 0.0, 0.0, 0.0, 0.0, 0.0, 0.0, 0.0, 1.666408296920322E9, 0.0, 2022-10-21 20:11:36.920
77.0, -155985.38142268438, -166974.84010158063, 63391.201304340524, -72280.02068758258, 78830.08764148803, -89005.67460127767, 85028.94163476725, -127970.42017822507, -0.028, 0.934, -0.124, 192.0, 0.0, 0.0, 0.0, 0.0, 0.0, 0.0, 0.0, 0.0, 0.0, 1.666408296920332E9, 0.0, 2022-10-21 20:11:36.920
78.0, -155990.83524833148, -166981.3668109616, 63386.82036242728, -72267.52606243207, 78832.65809210039, -88979.63481898724, 85066.58197243, -127975.11404456069, -0.028, 0.934, -0.124, 192.0, 0.0, 0.0, 0.0, 0.0, 0.0, 0.0, 0.0, 0.0, 0.0, 1.6664082969203415E9, 0.0, 2022-10-21 20:11:36.920
79.0, -155991.10346926493, -166985.2113110079, 63378.416106512086, -72280.44537072723, 78822.01866173967, -88995.52690929496, 85057.52951592559, -127985.32879177676, -0.024, 0.9380000000000001, -0.134, 192.0, 255.0, 64.0, 29.0, 80.0, 251.0, 208.0, 0.0, 0.0, 0.0, 1.6664082969203515E9, 0.0, 2022-10-21 20:11:36.920
80.0, -155981.04518426003, -166971.12971200107, 63387.155638594115, -72288.98373710916, 78826.46665888627, -89007.68625827864, 85029.85805628993, -127976.09752131673, -0.024, 0.9380000000000001, -0.134, 192.0, 0.0, 0.0, 0.0, 0.0, 0.0, 0.0, 0.0, 0.0, 0.0, 1.6664082969203615E9, 0.0, 2022-10-21 20:11:36.920
81.0, -155978.83236155898, -166966.14527298752, 63390.843676429235, -72280.98181259415, 78833.44040315633, -89002.56770879838, 85029.34396616745, -127967.11212004568, -0.024, 0.9380000000000001, -0.134, 192.0, 0.0, 0.0, 0.0, 0.0, 0.0, 0.0, 0.0, 0.0, 0.0, 1.6664082969203713E9, 0.0, 2022-10-21 20:11:36.920
82.0, -155978.45238190322, -166966.12292124308, 63391.424821785076, -72265.53675717553, 78834.20036246782, -88986.27328709046, 85059.83174560449, -127968.07324505727, -0.024, 0.9380000000000001, -0.134, 192.0, 0.0, 0.0, 0.0, 0.0, 0.0, 0.0, 0.0, 0.0, 0.0, 1.666408296920381E9, 0.0, 2022-10-21 20:11:36.920
83.0, -155975.1219719794, -166967.39697067701, 63387.17799033857, -72272.62226016787, 78829.55119962111, -88980.5512405099, 85068.43716721979, -127976.38809399464, -0.024, 0.9380000000000001, -0.134, 192.0, 0.0, 0.0, 0.0, 0.0, 0.0, 0.0, 0.0, 0.0, 0.0, 1.6664082969203904E9, 0.0, 2022-10-21 20:11:36.920
84.0, -155975.72546907968, -166966.9499357879, 63385.03222287086, -72285.09453357394, 78824.79027805213, -89002.94768845412, 85039.33519593897, -127975.53872770534, -0.024, 0.9380000000000001, -0.134, 192.0, 0.0, 0.0, 0.0, 0.0, 0.0, 0.0, 0.0, 0.0, 0.0, 1.6664082969204001E9, 0.0, 2022-10-21 20:11:36.920
85.0, -155974.4067161568, -166962.52429038577, 63388.72026070598, -72280.78064689405, 78827.56189436458, -89009.51910132398, 85022.92901550878, -127969.77197763587, -0.024, 0.9380000000000001, -0.134, 192.0, 0.0, 0.0, 0.0, 0.0, 0.0, 0.0, 0.0, 0.0, 0.0, 1.6664082969204097E9, 0.0, 2022-10-21 20:11:36.920
86.0, -155983.10154474992, -166968.5145578998, 63381.85827515821, -72268.62129791037, 78822.59980709551, -88997.20329012911, 85041.81623957351, -127975.6057829387, -0.024, 0.9380000000000001, -0.134, 192.0, 0.0, 0.0, 0.0, 0.0, 0.0, 0.0, 0.0, 0.0, 0.0, 1.6664082969204192E9, 0.0, 2022-10-21 20:11:36.920
87.0, -155987.6165971299, -166973.0519620242, 63377.700850689514, -72263.34628621892, 78823.89620827392, -88990.38600807024, 85058.37888221489, -127979.42793124056, -0.024, 0.9380000000000001, -0.134, 192.0, 0.0, 0.0, 0.0, 0.0, 0.0, 0.0, 0.0, 0.0, 0.0, 1.6664082969204376E9, 0.0, 2022-10-21 20:11:36.920
88.0, -155989.04710877503, -166978.4610841824, 63370.19066455253, -72286.77091440809, 78813.56970233556, -89014.92822348216, 85026.14766671034, -127992.61546046918, -0.024, 0.9380000000000001, -0.134, 192.0, 0.0, 0.0, 0.0, 0.0, 0.0, 0.0, 0.0, 0.0, 0.0, 1.6664082969204483E9, 0.0, 2022-10-21 20:11:36.920
89.0, -155979.90524529282, -166967.73224684387, 63378.57256872328, -72284.84866438493, 78821.54927510611, -89009.76497051299, 85014.32359389348, -127974.93523060504, -0.026000000000000002, 0.936, -0.14400000000000002, 192.0, 255.0, 48.0, 29.0, 64.0, 251.0, 128.0, 0.0, 0.0, 0.0, 1.6664082969204583E9, 0.0, 2022-10-21 20:11:36.920
90.0, -155982.54275113854, -166970.83913932316, 63377.03029835586, -72269.85064385542, 78827.02545249766, -88992.7552929825, 85040.40807967282, -127973.61647768218, -0.026000000000000002, 0.936, -0.14400000000000002, 192.0, 0.0, 0.0, 0.0, 0.0, 0.0, 0.0, 0.0, 0.0, 0.0, 1.6664082969204688E9, 0.0, 2022-10-21 20:11:36.920
91.0, -155989.7176611087, -166979.64572663853, 63371.26354828639, -72277.87492011487, 78818.19651343781, -88988.3072958359, 85060.65876014934, -127981.01490509689, -0.026000000000000002, 0.936, -0.14400000000000002, 192.0, 0.0, 0.0, 0.0, 0.0, 0.0, 0.0, 0.0, 0.0, 0.0, 1.6664082969204783E9, 0.0, 2022-10-21 20:11:36.920
92.0, -155987.34837619643, -166980.24922373882, 63375.86800764418, -72284.13340856235, 78822.08571697304, -88999.43846457463, 85044.94548379726, -127984.27825978736, -0.026000000000000002, 0.936, -0.14400000000000002, 192.0, 0.0, 0.0, 0.0, 0.0, 0.0, 0.0, 0.0, 0.0, 0.0, 1.6664082969204884E9, 0.0, 2022-10-21 20:11:36.920
93.0, -155994.3668239554, -166986.99945056433, 63364.982708094445, -72303.62412972738, 78810.23929241173, -89027.60166258832, 85003.05831468801, -127999.16452159459, -0.026000000000000002, 0.936, -0.14400000000000002, 192.0, 0.0, 0.0, 0.0, 0.0, 0.0, 0.0, 0.0, 0.0, 0.0, 1.666408296920498E9, 0.0, 2022-10-21 20:11:36.920
94.0, -156005.0733095495, -166995.8730931131, 63356.243176012424, -72302.01480412661, 78801.05272544059, -89028.42867713317, 85005.60641355591, -128008.0158123989, -0.026000000000000002, 0.936, -0.14400000000000002, 192.0, 0.0, 0.0, 0.0, 0.0, 0.0, 0.0, 0.0, 0.0, 0.0, 1.666408296920508E9, 0.0, 2022-10-21 20:11:36.920
95.0, -156003.75455662663, -166995.98485183535, 63357.74074289093, -72290.05662084301, 78804.852521998, -89010.30141237992, 85038.26231220512, -127998.18104483857, -0.026000000000000002, 0.936, -0.14400000000000002, 192.0, 0.0, 0.0, 0.0, 0.0, 0.0, 0.0, 0.0, 0.0, 0.0, 1.6664082969205177E9, 0.0, 2022-10-21 20:11:36.920
96.0, -155987.3707279409, -166981.18799700594, 63367.32964126225, -72290.28013828756, 78817.83888552654, -89009.42969434615, 85037.18942847126, -127991.63198371316, -0.026000000000000002, 0.936, -0.14400000000000002, 192.0, 0.0, 0.0, 0.0, 0.0, 0.0, 0.0, 0.0, 0.0, 0.0, 1.6664082969205275E9, 0.0, 2022-10-21 20:11:36.920
97.0, -155978.7206028367, -166973.67781086898, 63373.43166749855, -72298.97496688068, 78820.09641171651, -89023.7124590531, 85009.89794849133, -127990.17912032356, -0.026000000000000002, 0.936, -0.14400000000000002, 192.0, 0.0, 0.0, 0.0, 0.0, 0.0, 0.0, 0.0, 0.0, 0.0, 1.6664082969205368E9, 0.0, 2022-10-21 20:11:36.920
98.0, -155981.33575693797, -166972.87314806858, 63374.52690297686, -72284.558091707, 78817.79418203761, -89017.07399094988, 85017.22932067268, -127986.40167551061, -0.026000000000000002, 0.936, -0.14400000000000002, 192.0, 0.0, 0.0, 0.0, 0.0, 0.0, 0.0, 0.0, 0.0, 0.0, 1.6664082969205463E9, 0.0, 2022-10-21 20:11:36.920
99.0, -155987.14721049633, -166976.9635173039, 63379.91367339059, -72266.74375137613, 78826.98074900876, -88979.65717073169, 85063.45272820625, -127971.53776544784, -0.022, 0.936, -0.152, 192.0, 255.0, 80.0, 29.0, 64.0, 251.0, 64.0, 0.0, 0.0, 0.0, 1.666408296920556E9, 0.0, 2022-10-21 20:11:36.920
100.0, -155984.39794592833, -166974.92950855847, 63380.986557124445, -72283.23933878414, 78823.18095245135, -88981.89234517723, 85058.4235857038, -127974.28703001584, -0.022, 0.936, -0.152, 192.0, 0.0, 0.0, 0.0, 0.0, 0.0, 0.0, 0.0, 0.0, 0.0, 1.6664082969205666E9, 0.0, 2022-10-21 20:11:36.920
101.0, -155974.63023360138, -166968.62631662207, 63383.445249014534, -72293.8117139115, 78822.3092344176, -89006.32280186687, 85024.02425098709, -127980.56787020779, -0.022, 0.936, -0.152, 192.0, 0.0, 0.0, 0.0, 0.0, 0.0, 0.0, 0.0, 0.0, 0.0, 1.6664082969205766E9, 0.0, 2022-10-21 20:11:36.920
102.0, -155971.38923065536, -166967.9110607995, 63389.50257176192, -72286.36858300789, 78826.39960365291, -89005.22756638857, 85025.43241088778, -127973.5047189599, -0.022, 0.936, -0.152, 192.0, 0.0, 0.0, 0.0, 0.0, 0.0, 0.0, 0.0, 0.0, 0.0, 1.6664082969205947E9, 0.0, 2022-10-21 20:11:36.920
103.0, -155973.62440510088, -166970.8614910676, 63390.866028173696, -72268.04015255453, 78831.71931883327, -88980.32772306535, 85058.91532408183, -127973.14709104862, -0.022, 0.936, -0.152, 192.0, 0.0, 0.0, 0.0, 0.0, 0.0, 0.0, 0.0, 0.0, 0.0, 1.666408296920605E9, 0.0, 2022-10-21 20:11:36.920
0.0, 0.0, 0.0, 0.0, 0.0, 0.0, 0.0, 0.0, 0.0, -0.016, 0.9440000000000001, -0.15, 192.0, 255.0, 128.0, 29.0, 128.0, 251.0, 80.0, 0.0, 0.0, 0.0, 1.6664082970204687E9, 0.0, 2022-10-21 20:11:37.020
1.0, -155939.33682910644, -167886.3218887236, 64480.02183199189, -61084.344814341646, 79359.06402576734, -80145.77837536078, 91898.8844035726, -127757.76568147728, -0.016, 0.9440000000000001, -0.15, 192.0, 0.0, 0.0, 0.0, 0.0, 0.0, 0.0, 0.0, 0.0, 0.0, 1.6664082975113068E9, 0.0, 2022-10-21 20:11:37.511
2.0, -155929.52441329055, -167876.10714150753, 64498.61848337871, -61059.5120262518, 79377.79478762088, -80112.04959297772, 91955.65783448909, -127731.12240208655, -0.016, 0.9440000000000001, -0.15, 192.0, 0.0, 0.0, 0.0, 0.0, 0.0, 0.0, 0.0, 0.0, 0.0, 1.6664082975114424E9, 0.0, 2022-10-21 20:11:37.511
3.0, -155937.2134133832, -167888.35589746904, 64496.20449497754, -61070.75495371282, 79375.42550270862, -80115.04472673473, 91959.88231419114, -127745.38281504904, -0.016, 0.9440000000000001, -0.15, 192.0, 0.0, 0.0, 0.0, 0.0, 0.0, 0.0, 0.0, 0.0, 0.0, 1.6664082975114765E9, 0.0, 2022-10-21 20:11:37.511
4.0, -155924.4058638103, -167881.4268566879, 64510.017873050914, -61071.9172444245, 79377.21364226505, -80131.3167966982, 91929.10396207619, -127736.06213761118, -0.016, 0.9440000000000001, -0.15, 192.0, 0.0, 0.0, 0.0, 0.0, 0.0, 0.0, 0.0, 0.0, 0.0, 1.6664082975115073E9, 0.0, 2022-10-21 20:11:37.511
5.0, -155928.563288279, -167883.8408450891, 64507.69329162757, -61069.436200789954, 79379.11354054375, -80135.22835197787, 91917.01166832587, -127737.4479457674, -0.016, 0.9440000000000001, -0.15, 192.0, 0.0, 0.0, 0.0, 0.0, 0.0, 0.0, 0.0, 0.0, 0.0, 1.6664082975115469E9, 0.0, 2022-10-21 20:11:37.511
6.0, -155934.2629831151, -167889.6746503919, 64502.686500869575, -61065.43523853246, 79376.14075853118, -80119.44802039243, 91949.28758731933, -127740.7560039468, -0.016, 0.9440000000000001, -0.15, 192.0, 0.0, 0.0, 0.0, 0.0, 0.0, 0.0, 0.0, 0.0, 0.0, 1.6664082975115771E9, 0.0, 2022-10-21 20:11:37.511
7.0, -155941.2590791296, -167890.76988587022, 64495.26572171041, -61078.22043636089, 79370.6869328841, -80116.89992152453, 91959.36822406868, -127748.08737612813, -0.018000000000000002, 0.9480000000000001, -0.15, 192.0, 255.0, 112.0, 29.0, 160.0, 251.0, 80.0, 0.0, 0.0, 0.0, 1.6664082975116072E9, 0.0, 2022-10-21 20:11:37.511
8.0, -155932.72071274766, -167880.86806307652, 64500.56308514632, -61077.19225611595, 79374.26321199695, -80129.8192298197, 91929.97568010994, -127742.2535708253, -0.018000000000000002, 0.9480000000000001, -0.15, 192.0, 0.0, 0.0, 0.0, 0.0, 0.0, 0.0, 0.0, 0.0, 0.0, 1.6664082975116403E9, 0.0, 2022-10-21 20:11:37.511
9.0, -155938.26394537257, -167889.71935388082, 64497.70206185604, -61069.4138490455, 79379.94055508859, -80136.90473281202, 91908.0486187993, -127744.04171038172, -0.018000000000000002, 0.9480000000000001, -0.15, 192.0, 0.0, 0.0, 0.0, 0.0, 0.0, 0.0, 0.0, 0.0, 0.0, 1.6664082975116704E9, 0.0, 2022-10-21 20:11:37.511
10.0, -155946.37762860986, -167895.70962139484, 64495.24336996596, -61066.12814261057, 79379.80644462186, -80118.68806108095, 91937.86584590266, -127745.51692551577, -0.018000000000000002, 0.9480000000000001, -0.15, 192.0, 0.0, 0.0, 0.0, 0.0, 0.0, 0.0, 0.0, 0.0, 0.0, 1.6664082975116844E9, 0.0, 2022-10-21 20:11:37.511
11.0, -155937.6604482723, -167885.20430150084, 64506.10631777124, -61066.21754958839, 79380.11936904423, -80107.93687199794, 91965.82787821625, -127744.01935863726, -0.018000000000000002, 0.9480000000000001, -0.15, 192.0, 0.0, 0.0, 0.0, 0.0, 0.0, 0.0, 0.0, 0.0, 0.0, 1.666408297511694E9, 0.0, 2022-10-21 20:11:37.511
12.0, -155933.27950635905, -167880.9798217988, 64514.66703589762, -61063.11065710911, 79389.99884009348, -80117.61517734709, 91945.93482565104, -127737.42559402295, -0.018000000000000002, 0.9480000000000001, -0.15, 192.0, 0.0, 0.0, 0.0, 0.0, 0.0, 0.0, 0.0, 0.0, 0.0, 1.6664082975117035E9, 0.0, 2022-10-21 20:11:37.511
13.0, -155946.26586988757, -167893.16152252693, 64506.64275963817, -61069.927939167974, 79391.60816569426, -80136.34593920063, 91916.02819156983, -127740.46543126887, -0.018000000000000002, 0.9480000000000001, -0.15, 192.0, 0.0, 0.0, 0.0, 0.0, 0.0, 0.0, 0.0, 0.0, 0.0, 1.6664082975117128E9, 0.0, 2022-10-21 20:11:37.511
14.0, -155969.73520156567, -167917.5249239832, 64478.59132034676, -61085.95413994243, 79372.31861022933, -80145.0631195382, 91924.52185446284, -127758.92797218896, -0.018000000000000002, 0.9480000000000001, -0.15, 192.0, 0.0, 0.0, 0.0, 0.0, 0.0, 0.0, 0.0, 0.0, 0.0, 1.6664082975117817E9, 0.0, 2022-10-21 20:11:37.511
15.0, -155949.73039027816, -167897.85538886255, 64493.9246170431, -61072.20781710241, 79379.80644462186, -80121.07969773766, 91967.12427939467, -127741.15833534699, -0.018000000000000002, 0.9480000000000001, -0.15, 192.0, 0.0, 0.0, 0.0, 0.0, 0.0, 0.0, 0.0, 0.0, 0.0, 1.6664082975117915E9, 0.0, 2022-10-21 20:11:37.511
16.0, -155939.38153259535, -167887.75240036874, 64505.05578578184, -61065.77051469929, 79389.8870813712, -80121.81730530469, 91960.68697699154, -127738.4537742679, -0.018000000000000002, 0.9480000000000001, -0.15, 192.0, 0.0, 0.0, 0.0, 0.0, 0.0, 0.0, 0.0, 0.0, 0.0, 1.666408297511801E9, 0.0, 2022-10-21 20:11:37.511
17.0, -155942.9578117082, -167893.58620567157, 64499.08787001227, -61070.93376766846, 79386.78018889192, -80137.53058165677, 91922.30903176178, -127746.74627146081, -0.016, 0.9480000000000001, -0.146, 192.0, 255.0, 128.0, 29.0, 160.0, 251.0, 112.0, 0.0, 0.0, 0.0, 1.6664082975118108E9, 0.0, 2022-10-21 20:11:37.511
18.0, -155941.95198320772, -167893.0274120602, 64503.602922392245, -61067.782171700266, 79391.63051743872, -80117.23519769135, 91941.91151164909, -127730.07187009715, -0.016, 0.9480000000000001, -0.146, 192.0, 0.0, 0.0, 0.0, 0.0, 0.0, 0.0, 0.0, 0.0, 0.0, 1.6664082975118213E9, 0.0, 2022-10-21 20:11:37.511
19.0, -155942.77899775255, -167890.70283063684, 64502.03830028037, -61068.09509612264, 79388.21070053705, -80098.48208409335, 91979.61890454519, -127719.85712288108, -0.016, 0.9480000000000001, -0.146, 192.0, 0.0, 0.0, 0.0, 0.0, 0.0, 0.0, 0.0, 0.0, 0.0, 1.6664082975118308E9, 0.0, 2022-10-21 20:11:37.511
20.0, -155938.59922153942, -167886.3218887236, 64503.24529448096, -61077.10284913813, 79383.29331675688, -80108.98740398734, 91971.21464862999, -127727.63552995153, -0.016, 0.9480000000000001, -0.146, 192.0, 0.0, 0.0, 0.0, 0.0, 0.0, 0.0, 0.0, 0.0, 0.0, 1.6664082975118403E9, 0.0, 2022-10-21 20:11:37.511
21.0, -155940.6108785404, -167889.80876085864, 64500.160753746124, -61087.36229984312, 79373.68206664111, -80139.40812819102, 91922.95723235098, -127740.48778301333, -0.016, 0.9480000000000001, -0.146, 192.0, 0.0, 0.0, 0.0, 0.0, 0.0, 0.0, 0.0, 0.0, 0.0, 1.66640829751185E9, 0.0, 2022-10-21 20:11:37.511
22.0, -155935.5146808046, -167885.00313580074, 64503.64762588115, -61073.19129385845, 79381.61693592274, -80135.1165932556, 91930.62388069915, -127737.98438763434, -0.016, 0.9480000000000001, -0.146, 192.0, 0.0, 0.0, 0.0, 0.0, 0.0, 0.0, 0.0, 0.0, 0.0, 1.6664082975118597E9, 0.0, 2022-10-21 20:11:37.511
23.0, -155938.84509072843, -167886.45599919034, 64503.13353575868, -61064.31765130969, 79384.96969759103, -80110.66378482149, 91975.0144451874, -127732.55291373169, -0.016, 0.9480000000000001, -0.146, 192.0, 0.0, 0.0, 0.0, 0.0, 0.0, 0.0, 0.0, 0.0, 0.0, 1.6664082975118692E9, 0.0, 2022-10-21 20:11:37.511
24.0, -155939.71680876217, -167889.629946903, 64503.84879158125, -61069.54795951223, 79385.72965690252, -80105.27701440777, 91979.84242198974, -127740.7560039468, -0.016, 0.9480000000000001, -0.146, 192.0, 0.0, 0.0, 0.0, 0.0, 0.0, 0.0, 0.0, 0.0, 0.0, 1.6664082975118804E9, 0.0, 2022-10-21 20:11:37.511
25.0, -155931.78193948054, -167881.20333924334, 64508.38619570568, -61069.57031125669, 79384.03092432392, -80127.58405537416, 91938.51404649188, -127741.35950104709, -0.016, 0.9480000000000001, -0.146, 192.0, 0.0, 0.0, 0.0, 0.0, 0.0, 0.0, 0.0, 0.0, 0.0, 1.66640829751189E9, 0.0, 2022-10-21 20:11:37.511
26.0, -155921.2095643532, -167863.9254407794, 64518.33272198829, -61048.62672670207, 79399.96771812055, -80120.58795935965, 91938.82697091425, -127727.12143982905, -0.016, 0.9480000000000001, -0.146, 192.0, 0.0, 0.0, 0.0, 0.0, 0.0, 0.0, 0.0, 0.0, 0.0, 1.6664082975118997E9, 0.0, 2022-10-21 20:11:37.511
27.0, -155932.0054569251, -167875.34718219604, 64506.86627708272, -61046.235090045346, 79397.17375006364, -80105.99227023033, 91978.30015162232, -127732.03882360923, -0.014, 0.9460000000000001, -0.14, 192.0, 255.0, 144.0, 29.0, 144.0, 251.0, 160.0, 0.0, 0.0, 0.0, 1.6664082975119104E9, 0.0, 2022-10-21 20:11:37.511
28.0, -155936.25228837162, -167880.24221423178, 64499.28903571237, -61050.34781102512, 79393.4857122285, -80101.09723819462, 91998.10379720973, -127723.61221594957, -0.014, 0.9460000000000001, -0.14, 192.0, 0.0, 0.0, 0.0, 0.0, 0.0, 0.0, 0.0, 0.0, 0.0, 1.6664082975119205E9, 0.0, 2022-10-21 20:11:37.511
29.0, -155936.90048896082, -167883.0361822887, 64496.80799207783, -61048.80554065771, 79394.71505817355, -80119.82800004816, 91967.34779683923, -127730.11657358607, -0.014, 0.9460000000000001, -0.14, 192.0, 0.0, 0.0, 0.0, 0.0, 0.0, 0.0, 0.0, 0.0, 0.0, 1.6664082975119395E9, 0.0, 2022-10-21 20:11:37.511
30.0, -155934.15122439282, -167883.14794101095, 64498.81964907881, -61038.8590143751, 79405.01921236745, -80121.07969773766, 91958.27298859037, -127736.93385564494, -0.014, 0.9460000000000001, -0.14, 192.0, 0.0, 0.0, 0.0, 0.0, 0.0, 0.0, 0.0, 0.0, 0.0, 1.6664082975119493E9, 0.0, 2022-10-21 20:11:37.511
31.0, -155929.43500631273, -167878.16350199742, 64503.55821890333, -61027.5043281918, 79408.17080833565, -80104.22648241837, 91994.12518669668, -127734.54221898821, -0.014, 0.9460000000000001, -0.14, 192.0, 0.0, 0.0, 0.0, 0.0, 0.0, 0.0, 0.0, 0.0, 0.0, 1.6664082975119586E9, 0.0, 2022-10-21 20:11:37.511
32.0, -155930.93257319124, -167877.0682665191, 64503.737032858975, -61023.793938612216, 79413.98226189402, -80086.18862464293, 92020.65670736512, -127731.41297476448, -0.014, 0.9460000000000001, -0.14, 192.0, 0.0, 0.0, 0.0, 0.0, 0.0, 0.0, 0.0, 0.0, 0.0, 1.666408297511968E9, 0.0, 2022-10-21 20:11:37.511
33.0, -155936.3640470939, -167882.2762229772, 64498.506724656436, -61037.4061509855, 79406.60618622377, -80108.45096212042, 91988.04551220483, -127733.98342537683, -0.014, 0.9460000000000001, -0.14, 192.0, 0.0, 0.0, 0.0, 0.0, 0.0, 0.0, 0.0, 0.0, 0.0, 1.6664082975119774E9, 0.0, 2022-10-21 20:11:37.511
34.0, -155937.056951172, -167882.7903130997, 64497.09856475575, -61041.898851621016, 79403.87927340022, -80123.87366579457, 91959.68114849104, -127731.43532650893, -0.014, 0.9460000000000001, -0.14, 192.0, 0.0, 0.0, 0.0, 0.0, 0.0, 0.0, 0.0, 0.0, 0.0, 1.6664082975119867E9, 0.0, 2022-10-21 20:11:37.511
35.0, -155934.3523900929, -167876.06243801862, 64500.451326424045, -61027.16905202497, 79411.07653511483, -80100.71725853888, 91997.34383789824, -127723.36634676057, -0.014, 0.9460000000000001, -0.14, 192.0, 0.0, 0.0, 0.0, 0.0, 0.0, 0.0, 0.0, 0.0, 0.0, 1.6664082975119963E9, 0.0, 2022-10-21 20:11:37.511
36.0, -155940.09678841793, -167883.3267549666, 64491.4212216641, -61038.63549693055, 79398.67131694214, -80095.79987475871, 92017.14748348565, -127733.894018399, -0.014, 0.9460000000000001, -0.14, 192.0, 0.0, 0.0, 0.0, 0.0, 0.0, 0.0, 0.0, 0.0, 0.0, 1.6664082975120056E9, 0.0, 2022-10-21 20:11:37.512
37.0, -155930.03850341303, -167875.54834789614, 64500.183105490585, -61037.18263354095, 79406.53913099041, -80099.97965097186, 92005.4128176466, -127722.47227698236, -0.008, 0.9460000000000001, -0.138, 192.0, 255.0, 192.0, 29.0, 144.0, 251.0, 176.0, 0.0, 0.0, 0.0, 1.6664082975120149E9, 0.0, 2022-10-21 20:11:37.512
38.0, -155921.6118957534, -167870.69801934934, 64509.66024513963, -61031.86291836059, 79412.08236361532, -80109.36738364308, 91978.74718651142, -127718.51601821376, -0.008, 0.9460000000000001, -0.138, 192.0, 0.0, 0.0, 0.0, 0.0, 0.0, 0.0, 0.0, 0.0, 0.0, 1.666408297512025E9, 0.0, 2022-10-21 20:11:37.512
39.0, -155924.78584346603, -167875.43658917389, 64505.16754450412, -61030.18653752644, 79411.09888685928, -80092.51416832377, 92000.24956467743, -127720.57237870365, -0.008, 0.9460000000000001, -0.138, 192.0, 0.0, 0.0, 0.0, 0.0, 0.0, 0.0, 0.0, 0.0, 0.0, 1.666408297512035E9, 0.0, 2022-10-21 20:11:37.512
40.0, -155932.34073309193, -167875.3248304516, 64499.80312583484, -61034.96981083987, 79403.1416658332, -80081.96414494088, 92031.87728308169, -127727.5461229737, -0.008, 0.9460000000000001, -0.138, 192.0, 0.0, 0.0, 0.0, 0.0, 0.0, 0.0, 0.0, 0.0, 0.0, 1.6664082975120444E9, 0.0, 2022-10-21 20:11:37.512
41.0, -155939.49329131763, -167883.41616194442, 64492.404698420134, -61050.437218002946, 79391.04937208288, -80106.41695337498, 92006.6645153361, -127739.7501754463, -0.008, 0.9460000000000001, -0.138, 192.0, 0.0, 0.0, 0.0, 0.0, 0.0, 0.0, 0.0, 0.0, 0.0, 1.6664082975120535E9, 0.0, 2022-10-21 20:11:37.512
42.0, -155925.4116923108, -167869.73689433778, 64506.30748347133, -61037.74142715233, 79399.11835183125, -80119.24685469233, 91978.1660411556, -127722.02524209324, -0.008, 0.9460000000000001, -0.138, 192.0, 0.0, 0.0, 0.0, 0.0, 0.0, 0.0, 0.0, 0.0, 0.0, 1.666408297512063E9, 0.0, 2022-10-21 20:11:37.512
43.0, -155922.72948297614, -167868.3287344371, 64510.55431491785, -61023.45866244539, 79408.5954914803, -80106.88634000854, 91994.84044251924, -127720.08064032563, -0.008, 0.9460000000000001, -0.138, 192.0, 0.0, 0.0, 0.0, 0.0, 0.0, 0.0, 0.0, 0.0, 0.0, 1.6664082975120723E9, 0.0, 2022-10-21 20:11:37.512
44.0, -155936.38639883834, -167882.9244235664, 64497.74676534496, -61030.4547584599, 79399.56538672035, -80087.06034267669, 92029.59740514724, -127727.36730901807, -0.008, 0.9460000000000001, -0.138, 192.0, 0.0, 0.0, 0.0, 0.0, 0.0, 0.0, 0.0, 0.0, 0.0, 1.6664082975120904E9, 0.0, 2022-10-21 20:11:37.512
45.0, -155928.49623304562, -167876.06243801862, 64498.95375954554, -61034.38866548403, 79395.07268608484, -80093.408238102, 92021.34961144323, -127724.21571304987, -0.008, 0.9460000000000001, -0.138, 192.0, 0.0, 0.0, 0.0, 0.0, 0.0, 0.0, 0.0, 0.0, 0.0, 1.6664082975120995E9, 0.0, 2022-10-21 20:11:37.512
46.0, -155927.13277663384, -167868.9322315374, 64500.2725124684, -61038.90371786401, 79393.59747095079, -80118.3080814252, 91980.13299466766, -127740.26426556877, -0.01, 0.9480000000000001, -0.13, 192.0, 255.0, 176.0, 29.0, 160.0, 251.0, 240.0, 0.0, 0.0, 0.0, 1.6664082975121093E9, 0.0, 2022-10-21 20:11:37.512
47.0, -155923.89177368782, -167864.10425473502, 64509.66024513963, -61026.856127602594, 79402.40405826617, -80106.59576733063, 91988.40314011612, -127732.41880326495, -0.01, 0.9480000000000001, -0.13, 192.0, 0.0, 0.0, 0.0, 0.0, 0.0, 0.0, 0.0, 0.0, 0.0, 1.6664082975121193E9, 0.0, 2022-10-21 20:11:37.512
48.0, -155921.88011668684, -167866.6747053474, 64514.24235275297, -61011.36636869507, 79408.01434612446, -80079.01371467278, 92030.26795748092, -127724.32747177214, -0.01, 0.9480000000000001, -0.13, 192.0, 0.0, 0.0, 0.0, 0.0, 0.0, 0.0, 0.0, 0.0, 0.0, 1.6664082975121295E9, 0.0, 2022-10-21 20:11:37.512
49.0, -155923.02005565408, -167867.34525768107, 64513.48239344149, -61011.09814776161, 79410.33892754781, -80080.31011585119, 92033.218387749, -127725.95914911738, -0.01, 0.9480000000000001, -0.13, 192.0, 0.0, 0.0, 0.0, 0.0, 0.0, 0.0, 0.0, 0.0, 0.0, 1.666408297512139E9, 0.0, 2022-10-21 20:11:37.512
50.0, -155925.59050626642, -167873.20141472833, 64504.13936425917, -61026.654961902495, 79402.0911338438, -80112.31781391118, 91989.18545117206, -127742.16416384747, -0.01, 0.9480000000000001, -0.13, 192.0, 0.0, 0.0, 0.0, 0.0, 0.0, 0.0, 0.0, 0.0, 0.0, 1.6664082975121489E9, 0.0, 2022-10-21 20:11:37.512
51.0, -155925.07641614394, -167872.84378681707, 64503.4241084366, -61025.11269153508, 79398.15722681966, -80122.04082274924, 91976.93669521055, -127736.10684110009, -0.01, 0.9480000000000001, -0.13, 192.0, 0.0, 0.0, 0.0, 0.0, 0.0, 0.0, 0.0, 0.0, 0.0, 1.666408297512158E9, 0.0, 2022-10-21 20:11:37.512
52.0, -155928.27271560105, -167873.5813943841, 64501.30069271335, -61010.80757508369, 79401.2417675545, -80099.86789224957, 92017.3710009302, -127729.13309683003, -0.01, 0.9480000000000001, -0.13, 192.0, 0.0, 0.0, 0.0, 0.0, 0.0, 0.0, 0.0, 0.0, 0.0, 1.6664082975121677E9, 0.0, 2022-10-21 20:11:37.512
53.0, -155927.33394233393, -167873.35787693952, 64498.506724656436, -61012.30514196219, 79403.1416658332, -80093.36353461308, 92032.25726273743, -127732.30704454269, -0.01, 0.9480000000000001, -0.13, 192.0, 0.0, 0.0, 0.0, 0.0, 0.0, 0.0, 0.0, 0.0, 0.0, 1.6664082975121772E9, 0.0, 2022-10-21 20:11:37.512
54.0, -155922.7518347206, -167870.34039143808, 64504.13936425917, -61008.79591808271, 79411.56827349286, -80097.76682827077, 92009.30202118184, -127728.64135845202, -0.01, 0.9480000000000001, -0.13, 192.0, 0.0, 0.0, 0.0, 0.0, 0.0, 0.0, 0.0, 0.0, 0.0, 1.6664082975121863E9, 0.0, 2022-10-21 20:11:37.512
55.0, -155931.62547726935, -167879.50460666473, 64492.24823620895, -61013.109804762586, 79406.15915133466, -80115.22354069038, 91982.36816911318, -127731.144753831, -0.01, 0.9480000000000001, -0.13, 192.0, 0.0, 0.0, 0.0, 0.0, 0.0, 0.0, 0.0, 0.0, 0.0, 1.6664082975121956E9, 0.0, 2022-10-21 20:11:37.512
56.0, -155950.62446005637, -167895.39669697246, 64474.322137155796, -61023.01162755628, 79388.8365493818, -80120.163276215, 91999.19903268803, -127747.46152728338, -0.014, 0.9500000000000001, -0.126, 192.0, 255.0, 144.0, 29.0, 176.0, 252.0, 16.0, 0.0, 0.0, 0.0, 1.6664082975122051E9, 0.0, 2022-10-21 20:11:37.512
57.0, -155938.04042792803, -167882.0750572771, 64490.884779797176, -61011.36636869507, 79400.12418033174, -80094.95050846941, 92037.24170175096, -127734.00577712129, -0.014, 0.9500000000000001, -0.126, 192.0, 0.0, 0.0, 0.0, 0.0, 0.0, 0.0, 0.0, 0.0, 0.0, 1.6664082975122151E9, 0.0, 2022-10-21 20:11:37.512
58.0, -155936.54286104953, -167881.873891577, 64490.08011699678, -61016.26140073078, 79393.86569188425, -80109.90382551002, 92005.54692811334, -127736.28565505573, -0.014, 0.9500000000000001, -0.126, 192.0, 0.0, 0.0, 0.0, 0.0, 0.0, 0.0, 0.0, 0.0, 0.0, 1.6664082975122247E9, 0.0, 2022-10-21 20:11:37.512
59.0, -155928.02684641205, -167870.630964116, 64494.59516937676, -61013.087453018125, 79398.26898554194, -80123.9630727724, 91980.0659394343, -127736.37506203355, -0.014, 0.9500000000000001, -0.126, 192.0, 0.0, 0.0, 0.0, 0.0, 0.0, 0.0, 0.0, 0.0, 0.0, 1.6664082975122428E9, 0.0, 2022-10-21 20:11:37.512
60.0, -155936.78873023854, -167883.01383054422, 64488.38138441818, -61014.83088908564, 79394.37978200673, -80106.95339524192, 92008.98909675945, -127739.25843706829, -0.014, 0.9500000000000001, -0.126, 192.0, 0.0, 0.0, 0.0, 0.0, 0.0, 0.0, 0.0, 0.0, 0.0, 1.666408297512252E9, 0.0, 2022-10-21 20:11:37.512
61.0, -155952.39024786834, -167899.1294382965, 64470.70115455403, -61033.31578175018, 79373.57030791882, -80106.97574698637, 92024.03182077788, -127752.75889071928, -0.014, 0.9500000000000001, -0.126, 192.0, 0.0, 0.0, 0.0, 0.0, 0.0, 0.0, 0.0, 0.0, 0.0, 1.6664082975122616E9, 0.0, 2022-10-21 20:11:37.512
62.0, -155946.46703558767, -167891.7757143707, 64476.132628456675, -61031.415883471476, 79381.12519754472, -80105.50053185232, 92015.40404741812, -127747.97561740586, -0.014, 0.9500000000000001, -0.126, 192.0, 0.0, 0.0, 0.0, 0.0, 0.0, 0.0, 0.0, 0.0, 0.0, 1.666408297512271E9, 0.0, 2022-10-21 20:11:37.512
63.0, -155932.67600925875, -167877.60470838603, 64493.254064709436, -61024.93387757944, 79392.85986338375, -80110.97670924387, 91999.0649222213, -127734.22929456584, -0.014, 0.9500000000000001, -0.126, 192.0, 0.0, 0.0, 0.0, 0.0, 0.0, 0.0, 0.0, 0.0, 0.0, 1.6664082975122805E9, 0.0, 2022-10-21 20:11:37.512
64.0, -155930.39613132432, -167875.54834789614, 64503.044128780864, -61011.67929311744, 79397.37491576374, -80101.81249401718, 92018.8685678087, -127724.72980317233, -0.014, 0.9500000000000001, -0.126, 192.0, 0.0, 0.0, 0.0, 0.0, 0.0, 0.0, 0.0, 0.0, 0.0, 1.6664082975122895E9, 0.0, 2022-10-21 20:11:37.512
65.0, -155930.3514278354, -167875.86127231852, 64504.42993693709, -61006.62779887054, 79401.6440989547, -80085.22749963135, 92053.93845485908, -127725.22154155035, -0.014, 0.9500000000000001, -0.126, 192.0, 0.0, 0.0, 0.0, 0.0, 0.0, 0.0, 0.0, 0.0, 0.0, 1.666408297512299E9, 0.0, 2022-10-21 20:11:37.512
66.0, -155928.58564002343, -167874.0731327621, 64505.838096837775, -61006.650150615, 79406.22620656803, -80092.84944449061, 92042.49436169796, -127729.93775963043, -0.014, 0.9480000000000001, -0.114, 192.0, 255.0, 144.0, 29.0, 160.0, 252.0, 112.0, 0.0, 0.0, 0.0, 1.6664082975123084E9, 0.0, 2022-10-21 20:11:37.512
67.0, -155926.1492998778, -167869.9827635268, 64507.648588138654, -61010.13702275003, 79408.28256705792, -80099.84554050512, 92011.60425086072, -127729.06604159667, -0.014, 0.9480000000000001, -0.114, 192.0, 0.0, 0.0, 0.0, 0.0, 0.0, 0.0, 0.0, 0.0, 0.0, 1.6664082975123184E9, 0.0, 2022-10-21 20:11:37.512
68.0, -155940.14149190683, -167885.11489452302, 64493.47758215399, -61016.77549085325, 79398.82777915333, -80106.72987779736, 92007.29036418085, -127738.07379461215, -0.014, 0.9480000000000001, -0.114, 192.0, 0.0, 0.0, 0.0, 0.0, 0.0, 0.0, 0.0, 0.0, 0.0, 1.666408297512328E9, 0.0, 2022-10-21 20:11:37.512
69.0, -155946.24351814314, -167888.89233933596, 64487.95670127353, -61013.445080929414, 79397.17375006364, -80091.26247063429, 92047.43409722259, -127739.3478440461, -0.014, 0.9480000000000001, -0.114, 192.0, 0.0, 0.0, 0.0, 0.0, 0.0, 0.0, 0.0, 0.0, 0.0, 1.6664082975123382E9, 0.0, 2022-10-21 20:11:37.512
70.0, -155927.62451501185, -167870.2733362047, 64502.30652121384, -61002.604484868585, 79405.86857865675, -80087.44032233243, 92051.0327280799, -127732.21763756486, -0.014, 0.9480000000000001, -0.114, 192.0, 0.0, 0.0, 0.0, 0.0, 0.0, 0.0, 0.0, 0.0, 0.0, 1.6664082975123477E9, 0.0, 2022-10-21 20:11:37.512
71.0, -155922.68477948723, -167868.373437926, 64505.01108229293, -61004.5490866362, 79403.07461059984, -80108.02627897577, 92008.00562000342, -127736.12919284454, -0.014, 0.9480000000000001, -0.114, 192.0, 0.0, 0.0, 0.0, 0.0, 0.0, 0.0, 0.0, 0.0, 0.0, 1.666408297512357E9, 0.0, 2022-10-21 20:11:37.512
72.0, -155928.0491981565, -167872.64262111697, 64502.08300376929, -61005.42080466996, 79398.85013089779, -80110.86495052159, 92002.73060831198, -127733.22346606535, -0.014, 0.9480000000000001, -0.114, 192.0, 0.0, 0.0, 0.0, 0.0, 0.0, 0.0, 0.0, 0.0, 0.0, 1.6664082975123663E9, 0.0, 2022-10-21 20:11:37.512
73.0, -155934.307686604, -167880.0186967872, 64491.220055964004, -61010.36054019458, 79390.95996510505, -80098.16915967097, 92036.19116976157, -127734.38575677703, -0.014, 0.9480000000000001, -0.114, 192.0, 0.0, 0.0, 0.0, 0.0, 0.0, 0.0, 0.0, 0.0, 0.0, 1.6664082975123758E9, 0.0, 2022-10-21 20:11:37.512
74.0, -155947.83049199946, -167890.30049923665, 64477.250215679436, -61028.66661890347, 79373.235031752, -80117.16814245799, 92024.27768996688, -127757.76568147728, -0.014, 0.9480000000000001, -0.114, 192.0, 0.0, 0.0, 0.0, 0.0, 0.0, 0.0, 0.0, 0.0, 0.0, 1.666408297512395E9, 0.0, 2022-10-21 20:11:37.512
75.0, -155931.44666331372, -167874.5201676512, 64499.266683967915, -61013.98152279634, 79387.24957552548, -80118.62100584758, 92000.45073037753, -127746.8580301831, -0.01, 0.9400000000000001, -0.124, 192.0, 255.0, 176.0, 29.0, 96.0, 252.0, 32.0, 0.0, 0.0, 0.0, 1.6664082975124044E9, 0.0, 2022-10-21 20:11:37.512
76.0, -155924.71878823268, -167866.7194088363, 64511.71660562952, -60997.93297027743, 79405.8909304012, -80110.57437784367, 92003.44586413454, -127733.87166665455, -0.01, 0.9400000000000001, -0.124, 192.0, 0.0, 0.0, 0.0, 0.0, 0.0, 0.0, 0.0, 0.0, 0.0, 1.6664082975124145E9, 0.0, 2022-10-21 20:11:37.512
77.0, -155932.07251215845, -167875.90597580743, 64503.312349714324, -60999.117612733564, 79400.75002917649, -80097.18568291493, 92038.69456514055, -127733.80461142119, -0.01, 0.9400000000000001, -0.124, 192.0, 0.0, 0.0, 0.0, 0.0, 0.0, 0.0, 0.0, 0.0, 0.0, 1.6664082975124247E9, 0.0, 2022-10-21 20:11:37.512
78.0, -155947.49521583263, -167893.4297434604, 64482.5699308598, -61021.424653699956, 79381.16990103363, -80102.41599111748, 92042.20378902004, -127753.76471921978, -0.01, 0.9400000000000001, -0.124, 192.0, 0.0, 0.0, 0.0, 0.0, 0.0, 0.0, 0.0, 0.0, 0.0, 1.6664082975124345E9, 0.0, 2022-10-21 20:11:37.512
79.0, -155940.90145121832, -167885.20430150084, 64494.32694844329, -61014.31679896317, 79391.45170348308, -80104.74057254083, 92020.88022480968, -127748.93674241743, -0.01, 0.9400000000000001, -0.124, 192.0, 0.0, 0.0, 0.0, 0.0, 0.0, 0.0, 0.0, 0.0, 0.0, 1.6664082975124435E9, 0.0, 2022-10-21 20:11:37.512
80.0, -155942.15314890782, -167882.6338508885, 64496.65152986664, -61008.21477272687, 79400.34769777629, -80104.94173824093, 92009.8161113043, -127739.25843706829, -0.01, 0.9400000000000001, -0.124, 192.0, 0.0, 0.0, 0.0, 0.0, 0.0, 0.0, 0.0, 0.0, 0.0, 1.666408297512453E9, 0.0, 2022-10-21 20:11:37.512
81.0, -155947.67402978826, -167886.85833059053, 64489.0742884963, -61005.97959828134, 79392.72575291703, -80091.46363633437, 92039.0745447963, -127734.34105328812, -0.01, 0.9400000000000001, -0.124, 192.0, 0.0, 0.0, 0.0, 0.0, 0.0, 0.0, 0.0, 0.0, 0.0, 1.6664082975124624E9, 0.0, 2022-10-21 20:11:37.512
82.0, -155944.41067509778, -167886.14307476796, 64492.65056760915, -61009.51117390528, 79391.47405522753, -80079.7513222398, 92066.99187362098, -127738.47612601235, -0.01, 0.9400000000000001, -0.124, 192.0, 0.0, 0.0, 0.0, 0.0, 0.0, 0.0, 0.0, 0.0, 0.0, 1.6664082975124717E9, 0.0, 2022-10-21 20:11:37.512
83.0, -155950.73621877865, -167896.60369117305, 64486.9732245175, -61024.017456056776, 79379.1358922882, -80103.15359868451, 92032.27961448189, -127748.02032089476, -0.01, 0.9400000000000001, -0.124, 192.0, 0.0, 0.0, 0.0, 0.0, 0.0, 0.0, 0.0, 0.0, 0.0, 1.6664082975124807E9, 0.0, 2022-10-21 20:11:37.512
84.0, -155939.85091922892, -167889.1829120139, 64492.00236701994, -61017.75896760929, 79382.15337778967, -80119.47037213689, 92002.70825656751, -127742.14181210301, -0.01, 0.9400000000000001, -0.124, 192.0, 0.0, 0.0, 0.0, 0.0, 0.0, 0.0, 0.0, 0.0, 0.0, 1.6664082975124934E9, 0.0, 2022-10-21 20:11:37.512
85.0, -155949.37276236687, -167894.54733068316, 64483.06166923782, -61021.11172927758, 79375.47020619753, -80113.7036220674, 92019.472064909, -127751.93187617445, -0.016, 0.9400000000000001, -0.126, 192.0, 255.0, 128.0, 29.0, 96.0, 252.0, 16.0, 0.0, 0.0, 0.0, 1.6664082975125036E9, 0.0, 2022-10-21 20:11:37.512
86.0, -155943.82952974195, -167887.7747521132, 64491.98001527548, -61014.83088908564, 79382.39924697868, -80081.36064784059, 92062.23095205199, -127746.96978890536, -0.016, 0.9400000000000001, -0.126, 192.0, 0.0, 0.0, 0.0, 0.0, 0.0, 0.0, 0.0, 0.0, 0.0, 1.6664082975125144E9, 0.0, 2022-10-21 20:11:37.512
87.0, -155933.83829997043, -167880.80100784314, 64507.04509103836, -61002.962112779875, 79398.82777915333, -80075.79506347122, 92061.31453052933, -127725.31094852817, -0.016, 0.9400000000000001, -0.126, 192.0, 0.0, 0.0, 0.0, 0.0, 0.0, 0.0, 0.0, 0.0, 0.0, 1.666408297512524E9, 0.0, 2022-10-21 20:11:37.512
88.0, -155938.39805583932, -167886.12072302352, 64501.41245143562, -61015.903772819496, 79386.33315400282, -80105.70169755242, 92019.74028584246, -127737.02326262275, -0.016, 0.9400000000000001, -0.126, 192.0, 0.0, 0.0, 0.0, 0.0, 0.0, 0.0, 0.0, 0.0, 0.0, 1.6664082975125332E9, 0.0, 2022-10-21 20:11:37.512
89.0, -155941.88492797434, -167889.85346434754, 64497.83617232277, -61006.98542678183, 79386.46726446954, -80097.74447652632, 92031.54200691487, -127736.88915215603, -0.016, 0.9400000000000001, -0.126, 192.0, 0.0, 0.0, 0.0, 0.0, 0.0, 0.0, 0.0, 0.0, 0.0, 1.6664082975125632E9, 0.0, 2022-10-21 20:11:37.512
90.0, -155949.17159666677, -167897.56481618463, 64492.60586412023, -61002.38096742403, 79390.11059881575, -80075.32567683765, 92072.11042310124, -127731.144753831, -0.016, 0.9400000000000001, -0.126, 192.0, 0.0, 0.0, 0.0, 0.0, 0.0, 0.0, 0.0, 0.0, 0.0, 1.6664082975125723E9, 0.0, 2022-10-21 20:11:37.512
91.0, -155949.95390772272, -167898.05655456265, 64487.442611151055, -61007.007778526284, 79384.50031095748, -80084.91457520898, 92059.03465259488, -127743.3488063036, -0.016, 0.9400000000000001, -0.126, 192.0, 0.0, 0.0, 0.0, 0.0, 0.0, 0.0, 0.0, 0.0, 0.0, 1.6664082975125823E9, 0.0, 2022-10-21 20:11:37.512
92.0, -155944.81300649798, -167892.71448763783, 64491.84590480875, -61012.59571464011, 79378.86767135473, -80112.8095522892, 92015.56050962931, -127754.88230644254, -0.016, 0.9400000000000001, -0.126, 192.0, 0.0, 0.0, 0.0, 0.0, 0.0, 0.0, 0.0, 0.0, 0.0, 1.6664082975125918E9, 0.0, 2022-10-21 20:11:37.512
93.0, -155959.5651578385, -167909.45594423485, 64477.607843590726, -61022.810461856185, 79365.59073514829, -80123.5607413722, 92004.7646170574, -127764.42650132497, -0.016, 0.9400000000000001, -0.126, 192.0, 0.0, 0.0, 0.0, 0.0, 0.0, 0.0, 0.0, 0.0, 0.0, 1.6664082975126011E9, 0.0, 2022-10-21 20:11:37.512
94.0, -155947.60697455492, -167897.00602257324, 64492.628215864686, -61010.89698206151, 79375.82783410882, -80090.0554764337, 92056.24068453797, -127747.34976856111, -0.016, 0.9400000000000001, -0.126, 192.0, 0.0, 0.0, 0.0, 0.0, 0.0, 0.0, 0.0, 0.0, 0.0, 1.6664082975126112E9, 0.0, 2022-10-21 20:11:37.512
95.0, -155941.12496866286, -167891.23927250376, 64493.36582343171, -61011.23225822834, 79378.26417425444, -80086.79212174322, 92059.0793560838, -127750.43430929593, -0.01, 0.9400000000000001, -0.126, 192.0, 255.0, 176.0, 29.0, 96.0, 252.0, 16.0, 0.0, 0.0, 0.0, 1.6664082975126204E9, 0.0, 2022-10-21 20:11:37.512
96.0, -155941.77316925206, -167892.40156321545, 64493.54463738736, -61017.96013330938, 79378.26417425444, -80108.74153479833, 92023.54008239986, -127748.98144590635, -0.01, 0.9400000000000001, -0.126, 192.0, 0.0, 0.0, 0.0, 0.0, 0.0, 0.0, 0.0, 0.0, 0.0, 1.6664082975126305E9, 0.0, 2022-10-21 20:11:37.512
97.0, -155940.25325062912, -167887.35006896855, 64501.45715492454, -61005.01847326976, 79392.234014539, -80101.61132831709, 92029.30683246933, -127740.3536725466, -0.01, 0.9400000000000001, -0.126, 192.0, 0.0, 0.0, 0.0, 0.0, 0.0, 0.0, 0.0, 0.0, 0.0, 1.6664082975126395E9, 0.0, 2022-10-21 20:11:37.512
98.0, -155953.41842811328, -167898.97297608532, 64487.174390217595, -61009.466470416366, 79381.48282545601, -80089.96606945587, 92058.76643166142, -127757.78803322173, -0.01, 0.9400000000000001, -0.126, 192.0, 0.0, 0.0, 0.0, 0.0, 0.0, 0.0, 0.0, 0.0, 0.0, 1.666408297512649E9, 0.0, 2022-10-21 20:11:37.512
99.0, -155947.69638153273, -167894.63673766097, 64491.80120131984, -61013.13215650704, 79378.26417425444, -80086.85917697659, 92067.48361199899, -127756.26811459877, -0.01, 0.9400000000000001, -0.126, 192.0, 0.0, 0.0, 0.0, 0.0, 0.0, 0.0, 0.0, 0.0, 0.0, 1.666408297512658E9, 0.0, 2022-10-21 20:11:37.512
100.0, -155937.19106163873, -167882.3879816995, 64500.63014037969, -61013.55683965169, 79379.20294752157, -80109.0097557318, 92034.31362322732, -127749.27201858426, -0.01, 0.9400000000000001, -0.126, 192.0, 0.0, 0.0, 0.0, 0.0, 0.0, 0.0, 0.0, 0.0, 0.0, 1.6664082975126677E9, 0.0, 2022-10-21 20:11:37.512
101.0, -155943.18132915275, -167886.79127535716, 64494.10343099874, -61015.25557223029, 79377.72773238752, -80116.94462501344, 92015.15817822912, -127750.88134418505, -0.01, 0.9400000000000001, -0.126, 192.0, 0.0, 0.0, 0.0, 0.0, 0.0, 0.0, 0.0, 0.0, 0.0, 1.6664082975126767E9, 0.0, 2022-10-21 20:11:37.512
102.0, -155958.26875666008, -167899.28590050768, 64486.21326520602, -61016.88724957553, 79371.24572649547, -80094.0117352023, 92047.4788007115, -127751.12721337406, -0.01, 0.9400000000000001, -0.126, 192.0, 0.0, 0.0, 0.0, 0.0, 0.0, 0.0, 0.0, 0.0, 0.0, 1.666408297512686E9, 0.0, 2022-10-21 20:11:37.512
103.0, -155943.47190183066, -167884.44434218935, 64500.25016072395, -61007.723034348855, 79380.63345916671, -80074.00692391479, 92075.95492314755, -127737.80557367869, -0.01, 0.9400000000000001, -0.126, 192.0, 0.0, 0.0, 0.0, 0.0, 0.0, 0.0, 0.0, 0.0, 0.0, 1.6664082975126956E9, 0.0, 2022-10-21 20:11:37.512
104.0, -155942.62253554136, -167883.2820514777, 64494.70692809903, -61016.46256643088, 79378.24182250998, -80094.2576043913, 92045.66830941061, -127735.23512306633, -0.012, 0.9480000000000001, -0.132, 192.0, 255.0, 160.0, 29.0, 160.0, 251.0, 224.0, 0.0, 0.0, 0.0, 1.6664082975127132E9, 0.0, 2022-10-21 20:11:37.512
105.0, -155939.22507038416, -167878.78935084218, 64500.00429153494, -61018.273057731756, 79377.83949110979, -80103.66768880698, 92023.71889635551, -127726.85321889559, -0.012, 0.9480000000000001, -0.132, 192.0, 0.0, 0.0, 0.0, 0.0, 0.0, 0.0, 0.0, 0.0, 0.0, 1.6664082975127232E9, 0.0, 2022-10-21 20:11:37.512
106.0, -155940.05208492902, -167877.29178396368, 64504.027605536896, -61007.61127562658, 79384.99204933549, -80073.15755762548, 92063.19207706358, -127730.54125673072, -0.012, 0.9480000000000001, -0.132, 192.0, 0.0, 0.0, 0.0, 0.0, 0.0, 0.0, 0.0, 0.0, 0.0, 1.6664082975127327E9, 0.0, 2022-10-21 20:11:37.512
107.0, -155942.22020414117, -167881.6727258769, 64497.05386126684, -61012.193383239915, 79382.64511616768, -80059.85826967457, 92089.79065296538, -127739.03491962374, -0.012, 0.9480000000000001, -0.132, 192.0, 0.0, 0.0, 0.0, 0.0, 0.0, 0.0, 0.0, 0.0, 0.0, 1.6664082975127423E9, 0.0, 2022-10-21 20:11:37.512
108.0, -155946.98112571015, -167890.52401668121, 64494.72927984349, -61021.424653699956, 79374.6878951416, -80082.18766238543, 92058.0288240944, -127748.31089357268, -0.012, 0.9480000000000001, -0.132, 192.0, 0.0, 0.0, 0.0, 0.0, 0.0, 0.0, 0.0, 0.0, 0.0, 1.6664082975127513E9, 0.0, 2022-10-21 20:11:37.512
109.0, -155943.74012276414, -167884.24317648925, 64496.69623335556, -61027.05729330269, 79371.44689219557, -80102.55010158422, 92022.66836436611, -127749.0037976508, -0.012, 0.9480000000000001, -0.132, 192.0, 0.0, 0.0, 0.0, 0.0, 0.0, 0.0, 0.0, 0.0, 0.0, 1.6664082975127609E9, 0.0, 2022-10-21 20:11:37.512
110.0, -155935.24645987112, -167874.0284292732, 64507.55918116083, -61004.37027268056, 79393.82098839534, -80072.26348784727, 92064.24260905298, -127733.26816955426, -0.012, 0.9480000000000001, -0.132, 192.0, 0.0, 0.0, 0.0, 0.0, 0.0, 0.0, 0.0, 0.0, 0.0, 1.666408297512771E9, 0.0, 2022-10-21 20:11:37.512
111.0, -155940.67793377375, -167881.0245252877, 64502.15005900265, -61006.02430177025, 79388.88125287072, -80054.15857483847, 92101.79353973789, -127735.1457160885, -0.012, 0.9480000000000001, -0.132, 192.0, 0.0, 0.0, 0.0, 0.0, 0.0, 0.0, 0.0, 0.0, 0.0, 1.6664082975127804E9, 0.0, 2022-10-21 20:11:37.512
112.0, -155939.09095991743, -167880.75630435423, 64496.539771144366, -61015.479089674845, 79380.02996206642, -80068.73191222333, 92077.6313039817, -127741.58301849164, -0.012, 0.9480000000000001, -0.132, 192.0, 0.0, 0.0, 0.0, 0.0, 0.0, 0.0, 0.0, 0.0, 0.0, 1.6664082975127904E9, 0.0, 2022-10-21 20:11:37.512
113.0, -155937.7051517612, -167879.2810892202, 64500.026643279394, -61017.66956063147, 79382.77922663442, -80087.41797058797, 92041.35442273074, -127741.71712895836, -0.012, 0.9480000000000001, -0.132, 192.0, 0.0, 0.0, 0.0, 0.0, 0.0, 0.0, 0.0, 0.0, 0.0, 1.6664082975128E9, 0.0, 2022-10-21 20:11:37.512
114.0, -155932.38543658084, -167872.03912401668, 64505.10048927075, -61005.04082501421, 79392.68104942812, -80071.63763900253, 92062.25330379646, -127723.70162292739, -0.022, 0.9540000000000001, -0.136, 192.0, 255.0, 80.0, 29.0, 208.0, 251.0, 192.0, 0.0, 0.0, 0.0, 1.6664082975128095E9, 0.0, 2022-10-21 20:11:37.512
115.0, -155935.1570528933, -167874.45311241783, 64507.11214627173, -61003.45385115789, 79387.56249994785, -80057.77955744024, 92098.41842632514, -127727.50141948479, -0.022, 0.9540000000000001, -0.136, 192.0, 0.0, 0.0, 0.0, 0.0, 0.0, 0.0, 0.0, 0.0, 0.0, 1.66640829751282E9, 0.0, 2022-10-21 20:11:37.512
116.0, -155943.06957043047, -167879.5269584092, 64496.69623335556, -61014.629723385544, 79378.55474693236, -80074.25279310379, 92084.5379930184, -127742.20886733639, -0.022, 0.9540000000000001, -0.136, 192.0, 0.0, 0.0, 0.0, 0.0, 0.0, 0.0, 0.0, 0.0, 0.0, 1.6664082975128295E9, 0.0, 2022-10-21 20:11:37.512
117.0, -155942.84605298593, -167879.34814445354, 64494.41635542111, -61020.97761881085, 79375.15728177516, -80091.64245029002, 92046.0259373219, -127743.03588188124, -0.022, 0.9540000000000001, -0.136, 192.0, 0.0, 0.0, 0.0, 0.0, 0.0, 0.0, 0.0, 0.0, 0.0, 1.666408297512839E9, 0.0, 2022-10-21 20:11:37.512
118.0, -155952.18908216825, -167891.5298451817, 64484.60393960524, -61023.48101418985, 79368.42940669411, -80102.03601146174, 92035.2747482389, -127754.01058840878, -0.022, 0.9540000000000001, -0.136, 192.0, 0.0, 0.0, 0.0, 0.0, 0.0, 0.0, 0.0, 0.0, 0.0, 1.6664082975128484E9, 0.0, 2022-10-21 20:11:37.512
119.0, -155936.69932326072, -167875.74951359624, 64506.01691079342, -60993.239103941814, 79396.03381109641, -80057.28781906221, 92100.22891762602, -127724.97567236134, -0.022, 0.9540000000000001, -0.136, 192.0, 0.0, 0.0, 0.0, 0.0, 0.0, 0.0, 0.0, 0.0, 0.0, 1.6664082975129633E9, 0.0, 2022-10-21 20:11:37.512
120.0, -155933.23480287014, -167873.08965600608, 64504.921675315105, -60998.22354295535, 79396.03381109641, -80049.42000501395, 92105.79450199539, -127729.40131776349, -0.022, 0.9540000000000001, -0.136, 192.0, 0.0, 0.0, 0.0, 0.0, 0.0, 0.0, 0.0, 0.0, 0.0, 1.6664082975129733E9, 0.0, 2022-10-21 20:11:37.512
121.0, -155924.5623260215, -167865.53476638018, 64507.96151256103, -61001.1963249679, 79391.76462790545, -80076.62207801605, 92059.97342586202, -127733.49168699882, -0.022, 0.9540000000000001, -0.136, 192.0, 0.0, 0.0, 0.0, 0.0, 0.0, 0.0, 0.0, 0.0, 0.0, 1.6664082975129824E9, 0.0, 2022-10-21 20:11:37.512
122.0, -155926.97631442265, -167867.3229059366, 64507.04509103836, -60997.95532202189, 79397.26315704145, -80077.96318268338, 92052.7761641474, -127729.53542823023, -0.022, 0.9540000000000001, -0.136, 192.0, 0.0, 0.0, 0.0, 0.0, 0.0, 0.0, 0.0, 0.0, 0.0, 1.6664082979915695E9, 0.0, 2022-10-21 20:11:37.991
123.0, -155932.83247146994, -167873.08965600608, 64504.58639914828, -60996.033071998725, 79390.69174417159, -80067.48021453383, 92086.30378083036, -127733.42463176545, -0.022, 0.9540000000000001, -0.136, 192.0, 0.0, 0.0, 0.0, 0.0, 0.0, 0.0, 0.0, 0.0, 0.0, 1.6664082979916377E9, 0.0, 2022-10-21 20:11:37.991
124.0, -155953.5078350911, -167892.49097019326, 64485.967396017004, -61019.681217632446, 79371.22337475102, -80080.98066818484, 92082.77220520642, -127752.44596629692, -0.022, 0.962, -0.14, 192.0, 255.0, 80.0, 30.0, 16.0, 251.0, 160.0, 0.0, 0.0, 0.0, 1.6664082979916754E9, 0.0, 2022-10-21 20:11:37.991
125.0, -155945.37180010937, -167886.09837127905, 64492.963492031515, -61020.865860088576, 79376.69955214257, -80078.07494140565, 92058.14058281668, -127750.43430929593, -0.022, 0.962, -0.14, 192.0, 0.0, 0.0, 0.0, 0.0, 0.0, 0.0, 0.0, 0.0, 0.0, 1.6664082979916928E9, 0.0, 2022-10-21 20:11:37.991
126.0, -155922.7965382095, -167859.94683026636, 64513.34828297476, -60999.676406344945, 79400.9958983655, -80062.58518249812, 92061.49334448497, -127722.06994558216, -0.022, 0.962, -0.14, 192.0, 0.0, 0.0, 0.0, 0.0, 0.0, 0.0, 0.0, 0.0, 0.0, 1.666408297991708E9, 0.0, 2022-10-21 20:11:37.991
127.0, -155934.79942498202, -167873.04495251717, 64505.30165497085, -61005.21963896986, 79389.66356392665, -80056.93019115094, 92084.9850279075, -127726.65205319549, -0.022, 0.962, -0.14, 192.0, 0.0, 0.0, 0.0, 0.0, 0.0, 0.0, 0.0, 0.0, 0.0, 1.6664082979917233E9, 0.0, 2022-10-21 20:11:37.991
128.0, -155946.89171873234, -167882.70090612184, 64496.875047311194, -61018.29540947622, 79383.20390977907, -80054.15857483847, 92103.24640312749, -127736.48682075583, -0.022, 0.962, -0.14, 192.0, 0.0, 0.0, 0.0, 0.0, 0.0, 0.0, 0.0, 0.0, 0.0, 1.666408297991738E9, 0.0, 2022-10-21 20:11:37.991
129.0, -155939.6050500399, -167876.59887988554, 64500.451326424045, -61019.97179031036, 79384.45560746857, -80066.00499939978, 92078.0336353819, -127734.67632945495, -0.022, 0.962, -0.14, 192.0, 0.0, 0.0, 0.0, 0.0, 0.0, 0.0, 0.0, 0.0, 0.0, 1.6664082979917529E9, 0.0, 2022-10-21 20:11:37.991
130.0, -155940.4097128403, -167878.14115025298, 64498.506724656436, -61029.91831659297, 79374.0843980413, -80088.91553746647, 92043.81311462082, -127736.12919284454, -0.022, 0.962, -0.14, 192.0, 0.0, 0.0, 0.0, 0.0, 0.0, 0.0, 0.0, 0.0, 0.0, 1.6664082979917643E9, 0.0, 2022-10-21 20:11:37.991
131.0, -155961.3532973949, -167897.56481618463, 64481.027660492386, -61042.18942429894, 79357.96879028903, -80093.11766542407, 92056.1289258157, -127754.83760295363, -0.022, 0.962, -0.14, 192.0, 0.0, 0.0, 0.0, 0.0, 0.0, 0.0, 0.0, 0.0, 0.0, 1.6664082979917765E9, 0.0, 2022-10-21 20:11:37.991
132.0, -155950.08801818945, -167884.55610091164, 64486.07915473928, -61031.348828238115, 79364.96488630354, -80062.42872028693, 92095.40094082367, -127742.4547365254, -0.022, 0.962, -0.14, 192.0, 0.0, 0.0, 0.0, 0.0, 0.0, 0.0, 0.0, 0.0, 0.0, 1.666408297991788E9, 0.0, 2022-10-21 20:11:37.991
133.0, -155932.7654162366, -167867.09938849203, 64500.51838165741, -61016.64138038652, 79378.95707833256, -80059.2994760632, 92089.20950760956, -127734.76573643278, -0.022, 0.962, -0.14, 192.0, 0.0, 0.0, 0.0, 0.0, 0.0, 0.0, 0.0, 0.0, 0.0, 1.6664082979918249E9, 0.0, 2022-10-21 20:11:37.991
134.0, -155933.10069240342, -167866.09355999157, 64504.76521310392, -61020.79880485521, 79375.5372614309, -80078.87960420604, 92053.96080660353, -127728.93193112993, -0.014, 0.9540000000000001, -0.14200000000000002, 192.0, 255.0, 144.0, 29.0, 208.0, 251.0, 144.0, 0.0, 0.0, 0.0, 1.6664082979918995E9, 0.0, 2022-10-21 20:11:37.991
135.0, -155942.46607333017, -167873.134359495, 64501.54656190235, -61020.39647345501, 79374.10674978576, -80073.49283379232, 92065.6284172092, -127727.88139914053, -0.014, 0.9540000000000001, -0.14200000000000002, 192.0, 0.0, 0.0, 0.0, 0.0, 0.0, 0.0, 0.0, 0.0, 0.0, 1.6664082979919138E9, 0.0, 2022-10-21 20:11:37.991
136.0, -155952.52435833507, -167885.6289846455, 64488.76136407392, -61031.92997359395, 79371.37983696221, -80060.52882200823, 92101.16769089314, -127735.23512306633, -0.014, 0.9540000000000001, -0.14200000000000002, 192.0, 0.0, 0.0, 0.0, 0.0, 0.0, 0.0, 0.0, 0.0, 0.0, 1.666408297991926E9, 0.0, 2022-10-21 20:11:37.991
137.0, -155946.33292512095, -167877.1353217525, 64491.10829724173, -61028.01841831427, 79377.75008413197, -80055.18675508341, 92096.58558327981, -127729.91540788597, -0.014, 0.9540000000000001, -0.14200000000000002, 192.0, 0.0, 0.0, 0.0, 0.0, 0.0, 0.0, 0.0, 0.0, 0.0, 1.6664082979919379E9, 0.0, 2022-10-21 20:11:37.991
138.0, -155940.83439598494, -167870.4745019048, 64496.09273625526, -61031.46058696039, 79378.46533995454, -80074.20808961488, 92062.8791526412, -127723.41105024947, -0.014, 0.9540000000000001, -0.14200000000000002, 192.0, 0.0, 0.0, 0.0, 0.0, 0.0, 0.0, 0.0, 0.0, 0.0, 1.66640829799195E9, 0.0, 2022-10-21 20:11:37.991
139.0, -155953.5078350911, -167882.2762229772, 64487.57672161779, -61036.17680504046, 79366.23893573749, -80090.5025113228, 92057.31356827183, -127740.8007074357, -0.014, 0.9540000000000001, -0.14200000000000002, 192.0, 0.0, 0.0, 0.0, 0.0, 0.0, 0.0, 0.0, 0.0, 0.0, 1.6664082979919624E9, 0.0, 2022-10-21 20:11:37.991
140.0, -155955.87712000337, -167880.06340027612, 64486.86146579522, -61030.2535927598, 79365.25545898145, -80065.04387438821, 92098.53018504742, -127748.5567627617, -0.014, 0.9540000000000001, -0.14200000000000002, 192.0, 0.0, 0.0, 0.0, 0.0, 0.0, 0.0, 0.0, 0.0, 0.0, 1.6664082979919744E9, 0.0, 2022-10-21 20:11:37.991
141.0, -155938.48746281714, -167863.8136820571, 64504.027605536896, -61022.40813045599, 79382.75687488996, -80043.3403305221, 92111.71771427605, -127735.5033439998, -0.014, 0.9540000000000001, -0.14200000000000002, 192.0, 0.0, 0.0, 0.0, 0.0, 0.0, 0.0, 0.0, 0.0, 0.0, 1.6664082979919863E9, 0.0, 2022-10-21 20:11:37.991
142.0, -155938.7556837506, -167865.4230076579, 64500.876009568696, -61029.96302008189, 79382.08632255631, -80071.34706632461, 92065.06962359782, -127742.99117839232, -0.014, 0.9540000000000001, -0.14200000000000002, 192.0, 0.0, 0.0, 0.0, 0.0, 0.0, 0.0, 0.0, 0.0, 0.0, 1.666408297991998E9, 0.0, 2022-10-21 20:11:37.991
143.0, -155945.57296580946, -167873.35787693952, 64493.34347168726, -61029.806557870696, 79381.75104638947, -80075.79506347122, 92058.49821072796, -127736.44211726691, -0.016, 0.9460000000000001, -0.146, 192.0, 255.0, 128.0, 29.0, 144.0, 251.0, 112.0, 0.0, 0.0, 0.0, 1.66640829799201E9, 0.0, 2022-10-21 20:11:37.992
144.0, -155959.6098613274, -167885.04783928965, 64478.03252673538, -61034.88040386205, 79376.25251725347, -80065.98264765533, 92094.0374844119, -127745.51692551577, -0.016, 0.9460000000000001, -0.146, 192.0, 0.0, 0.0, 0.0, 0.0, 0.0, 0.0, 0.0, 0.0, 0.0, 1.666408297992023E9, 0.0, 2022-10-21 20:11:37.992
145.0, -155961.39800088384, -167884.64550788945, 64472.95868074402, -61047.93382262395, 79365.00958979245, -80074.09633089261, 92093.76926347843, -127757.40805356599, -0.016, 0.9460000000000001, -0.146, 192.0, 0.0, 0.0, 0.0, 0.0, 0.0, 0.0, 0.0, 0.0, 0.0, 1.666408297992035E9, 0.0, 2022-10-21 20:11:37.992
146.0, -155963.92374800728, -167886.97008931282, 64469.762381286906, -61055.22049131638, 79360.67335136811, -80090.12253166706, 92056.3300915158, -127750.92604767396, -0.016, 0.9460000000000001, -0.146, 192.0, 0.0, 0.0, 0.0, 0.0, 0.0, 0.0, 0.0, 0.0, 0.0, 1.6664082979920468E9, 0.0, 2022-10-21 20:11:37.992
147.0, -155941.10261691842, -167863.2101849568, 64484.98391926097, -61034.23220327285, 79380.56640393334, -80077.98553442783, 92062.99091136348, -127728.73076542983, -0.016, 0.9460000000000001, -0.146, 192.0, 0.0, 0.0, 0.0, 0.0, 0.0, 0.0, 0.0, 0.0, 0.0, 1.6664082979920588E9, 0.0, 2022-10-21 20:11:37.992
148.0, -155939.64975352882, -167859.05276048815, 64485.967396017004, -61026.99023806933, 79384.34384874628, -80050.22466781434, 92106.53210956241, -127726.20501830638, -0.016, 0.9460000000000001, -0.146, 192.0, 0.0, 0.0, 0.0, 0.0, 0.0, 0.0, 0.0, 0.0, 0.0, 1.666408297992071E9, 0.0, 2022-10-21 20:11:37.992
149.0, -155953.68664904675, -167876.10714150753, 64474.724468555985, -61037.4061509855, 79374.64319165268, -80044.5920282116, 92119.63023181322, -127732.86583815407, -0.016, 0.9460000000000001, -0.146, 192.0, 0.0, 0.0, 0.0, 0.0, 0.0, 0.0, 0.0, 0.0, 0.0, 1.666408297992095E9, 0.0, 2022-10-21 20:11:37.992
150.0, -155969.62344284338, -167895.7319731393, 64460.32994512677, -61057.142741339536, 79355.39833967667, -80078.7454937393, 92072.93743764609, -127750.99310290732, -0.016, 0.9460000000000001, -0.146, 192.0, 0.0, 0.0, 0.0, 0.0, 0.0, 0.0, 0.0, 0.0, 0.0, 1.6664082979921072E9, 0.0, 2022-10-21 20:11:37.992
151.0, -155958.64873631584, -167884.26552823372, 64469.89649175364, -61047.24091854584, 79361.36625544624, -80088.96024095539, 92057.13475431618, -127737.78322193424, -0.016, 0.9460000000000001, -0.146, 192.0, 0.0, 0.0, 0.0, 0.0, 0.0, 0.0, 0.0, 0.0, 0.0, 1.666408297992119E9, 0.0, 2022-10-21 20:11:37.992
152.0, -155961.2638904171, -167884.3325834671, 64466.074343451786, -61043.999915599816, 79358.54993564486, -80070.31888607967, 92088.87423144272, -127733.55874223218, -0.016, 0.9460000000000001, -0.146, 192.0, 0.0, 0.0, 0.0, 0.0, 0.0, 0.0, 0.0, 0.0, 0.0, 1.6664082979921308E9, 0.0, 2022-10-21 20:11:37.992
153.0, -155972.305652178, -167894.32381323862, 64456.217224146996, -61055.37695352757, 79351.50913614144, -80059.36653129656, 92111.1365689202, -127735.7939166777, -0.012, 0.9440000000000001, -0.15, 192.0, 255.0, 160.0, 29.0, 128.0, 251.0, 80.0, 0.0, 0.0, 0.0, 1.666408297992143E9, 0.0, 2022-10-21 20:11:37.992
154.0, -155973.5573498675, -167893.0274120602, 64454.92082296858, -61061.09900010813, 79349.65394135164, -80076.30915359368, 92083.19688835107, -127745.31575981567, -0.012, 0.9440000000000001, -0.15, 192.0, 0.0, 0.0, 0.0, 0.0, 0.0, 0.0, 0.0, 0.0, 0.0, 1.6664082979921553E9, 0.0, 2022-10-21 20:11:37.992
155.0, -155966.67301257528, -167886.56775791262, 64459.12295092618, -61055.80163667222, 79351.66559835263, -80098.95147072691, 92049.75867864594, -127749.36142556208, -0.012, 0.9440000000000001, -0.15, 192.0, 0.0, 0.0, 0.0, 0.0, 0.0, 0.0, 0.0, 0.0, 0.0, 1.6664082979921684E9, 0.0, 2022-10-21 20:11:37.992
156.0, -155973.53499812307, -167893.04976380465, 64462.922747483586, -61044.22343304437, 79360.96392404604, -80075.88447044903, 92082.01224589495, -127741.31479755817, -0.012, 0.9440000000000001, -0.15, 192.0, 0.0, 0.0, 0.0, 0.0, 0.0, 0.0, 0.0, 0.0, 0.0, 1.66640829799218E9, 0.0, 2022-10-21 20:11:37.992
157.0, -155978.65354760332, -167901.40931623094, 64460.397000360135, -61046.70447667891, 79361.34390370178, -80051.85634515958, 92121.28426090292, -127743.79584119271, -0.012, 0.9440000000000001, -0.15, 192.0, 0.0, 0.0, 0.0, 0.0, 0.0, 0.0, 0.0, 0.0, 0.0, 1.666408297992192E9, 0.0, 2022-10-21 20:11:37.992
158.0, -155989.85177157543, -167915.28974953768, 64445.443683319536, -61070.59849150163, 79342.97076975951, -80078.23140361684, 92089.36596982073, -127760.11261464508, -0.012, 0.9440000000000001, -0.15, 192.0, 0.0, 0.0, 0.0, 0.0, 0.0, 0.0, 0.0, 0.0, 0.0, 1.6664082979922037E9, 0.0, 2022-10-21 20:11:37.992
159.0, -155987.03545177408, -167907.46663897834, 64448.572927543275, -61075.35941307061, 79344.49068838247, -80096.8057032592, 92054.00551009245, -127756.29046634323, -0.012, 0.9440000000000001, -0.15, 192.0, 0.0, 0.0, 0.0, 0.0, 0.0, 0.0, 0.0, 0.0, 0.0, 1.6664082979922159E9, 0.0, 2022-10-21 20:11:37.992
160.0, -155966.6506608308, -167886.00896430123, 64467.594262074745, -61053.76762792678, 79360.96392404604, -80075.57154602665, 92080.04529238287, -127739.52665800175, -0.012, 0.9440000000000001, -0.15, 192.0, 0.0, 0.0, 0.0, 0.0, 0.0, 0.0, 0.0, 0.0, 0.0, 1.6664082979922276E9, 0.0, 2022-10-21 20:11:37.992
161.0, -155955.67595430327, -167874.69898160684, 64481.07236398129, -61039.95424985341, 79373.45854919656, -80039.22760954233, 92131.83428428583, -127725.10978282808, -0.012, 0.9440000000000001, -0.15, 192.0, 0.0, 0.0, 0.0, 0.0, 0.0, 0.0, 0.0, 0.0, 0.0, 1.6664082979922397E9, 0.0, 2022-10-21 20:11:37.992
162.0, -155961.62151832838, -167880.4880834208, 64478.83718953576, -61046.32449702317, 79367.3341712158, -80054.60560972759, 92118.490292846, -127732.46350675388, -0.012, 0.9440000000000001, -0.15, 192.0, 0.0, 0.0, 0.0, 0.0, 0.0, 0.0, 0.0, 0.0, 0.0, 1.6664082979922514E9, 0.0, 2022-10-21 20:11:37.992
163.0, -155965.08603871896, -167882.54444391065, 64475.59618658975, -61051.3089360367, 79364.85312758126, -80074.99040067082, 92075.50788825845, -127741.8512394251, -0.012, 0.9420000000000001, -0.148, 192.0, 255.0, 160.0, 29.0, 112.0, 251.0, 96.0, 0.0, 0.0, 0.0, 1.666408297992263E9, 0.0, 2022-10-21 20:11:37.992
164.0, -155964.92957650777, -167884.89137707846, 64476.400849390135, -61052.113598837095, 79365.4342729371, -80065.91559242197, 92077.96658014854, -127737.73851844533, -0.012, 0.9420000000000001, -0.148, 192.0, 0.0, 0.0, 0.0, 0.0, 0.0, 0.0, 0.0, 0.0, 0.0, 1.6664082979922757E9, 0.0, 2022-10-21 20:11:37.992
165.0, -155970.58456785497, -167887.81945560212, 64478.59132034676, -61042.256479532305, 79371.67040964012, -80040.05462408718, 92123.45238011508, -127730.65301545299, -0.012, 0.9420000000000001, -0.148, 192.0, 0.0, 0.0, 0.0, 0.0, 0.0, 0.0, 0.0, 0.0, 0.0, 1.6664082979922986E9, 0.0, 2022-10-21 20:11:37.992
166.0, -155981.98395752718, -167903.64449067647, 64465.292032395846, -61056.9639273839, 79358.81815657833, -80054.56090623866, 92115.20458641107, -127748.17678310596, -0.012, 0.9420000000000001, -0.148, 192.0, 0.0, 0.0, 0.0, 0.0, 0.0, 0.0, 0.0, 0.0, 0.0, 1.6664082979923103E9, 0.0, 2022-10-21 20:11:37.992
167.0, -155970.8527887884, -167886.21013000133, 64473.539826099855, -61060.38374428556, 79356.87355481072, -80079.46074956188, 92075.6867022141, -127745.49457377131, -0.012, 0.9420000000000001, -0.148, 192.0, 0.0, 0.0, 0.0, 0.0, 0.0, 0.0, 0.0, 0.0, 0.0, 1.666408297992322E9, 0.0, 2022-10-21 20:11:37.992
168.0, -155969.69049807676, -167881.873891577, 64471.46111386552, -61054.57229072718, 79359.48870891199, -80083.21584263038, 92071.10459460075, -127741.0018731358, -0.012, 0.9420000000000001, -0.148, 192.0, 0.0, 0.0, 0.0, 0.0, 0.0, 0.0, 0.0, 0.0, 0.0, 1.6664082979923337E9, 0.0, 2022-10-21 20:11:37.992
169.0, -155993.56216115502, -167906.05847907765, 64444.81783447479, -61075.5158752818, 79328.55389458584, -80087.41797058797, 92085.7896907079, -127758.48093729984, -0.012, 0.9420000000000001, -0.148, 192.0, 0.0, 0.0, 0.0, 0.0, 0.0, 0.0, 0.0, 0.0, 0.0, 1.6664082979923456E9, 0.0, 2022-10-21 20:11:37.992
170.0, -155983.50387615012, -167898.50358945175, 64459.65939279311, -61061.836607675155, 79340.66854008062, -80071.30236283569, 92108.3873043522, -127752.8035942082, -0.012, 0.9420000000000001, -0.148, 192.0, 0.0, 0.0, 0.0, 0.0, 0.0, 0.0, 0.0, 0.0, 0.0, 1.6664082979923573E9, 0.0, 2022-10-21 20:11:37.992
171.0, -155977.558312125, -167893.0274120602, 64470.27647140938, -61048.962002868895, 79361.58977289079, -80074.18573787043, 92086.61670525273, -127738.92316090145, -0.012, 0.9420000000000001, -0.148, 192.0, 0.0, 0.0, 0.0, 0.0, 0.0, 0.0, 0.0, 0.0, 0.0, 1.6664082979923687E9, 0.0, 2022-10-21 20:11:37.992
172.0, -155971.34452716645, -167885.24900498975, 64474.456247622526, -61048.85024414662, 79369.54699391687, -80067.23434534483, 92078.45831852655, -127728.95428287439, -0.016, 0.9400000000000001, -0.14200000000000002, 192.0, 255.0, 128.0, 29.0, 96.0, 251.0, 144.0, 0.0, 0.0, 0.0, 1.6664082979923809E9, 0.0, 2022-10-21 20:11:37.992
173.0, -155971.88096903337, -167883.10323752204, 64472.73516329947, -61048.067933090686, 79365.41192119264, -80039.7416996648, 92116.21041491156, -127725.04272759471, -0.016, 0.9400000000000001, -0.14200000000000002, 192.0, 0.0, 0.0, 0.0, 0.0, 0.0, 0.0, 0.0, 0.0, 0.0, 1.6664082979923933E9, 0.0, 2022-10-21 20:11:37.992
174.0, -155978.1171057364, -167890.0322783032, 64475.57383484529, -61050.772494169774, 79366.84243283779, -80021.21210351135, 92139.16565646716, -127724.30512002768, -0.016, 0.9400000000000001, -0.14200000000000002, 192.0, 0.0, 0.0, 0.0, 0.0, 0.0, 0.0, 0.0, 0.0, 0.0, 1.6664082979924052E9, 0.0, 2022-10-21 20:11:37.992
175.0, -155981.6263296159, -167897.78833362917, 64474.67976506708, -61057.701534950924, 79365.14370025918, -80044.43556600042, 92105.48157757302, -127730.74242243082, -0.016, 0.9400000000000001, -0.14200000000000002, 192.0, 0.0, 0.0, 0.0, 0.0, 0.0, 0.0, 0.0, 0.0, 0.0, 1.6664082979924169E9, 0.0, 2022-10-21 20:11:37.992
176.0, -155974.54082662356, -167890.2334440033, 64476.28909066786, -61059.310860551705, 79365.14370025918, -80057.73485395132, 92081.60991449475, -127728.84252415212, -0.016, 0.9400000000000001, -0.14200000000000002, 192.0, 0.0, 0.0, 0.0, 0.0, 0.0, 0.0, 0.0, 0.0, 0.0, 1.6664082979924295E9, 0.0, 2022-10-21 20:11:37.992
177.0, -155975.6584138463, -167889.24996724725, 64478.45720988003, -61050.52662498077, 79368.60822064975, -80041.01574909875, 92114.53403407741, -127720.93000661493, -0.016, 0.9400000000000001, -0.14200000000000002, 192.0, 0.0, 0.0, 0.0, 0.0, 0.0, 0.0, 0.0, 0.0, 0.0, 1.6664082979924412E9, 0.0, 2022-10-21 20:11:37.992
178.0, -155984.80027732853, -167898.50358945175, 64472.0199074769, -61055.01932561628, 79368.22824099401, -80027.44824021438, 92145.08886874781, -127726.16031481748, -0.016, 0.9400000000000001, -0.14200000000000002, 192.0, 0.0, 0.0, 0.0, 0.0, 0.0, 0.0, 0.0, 0.0, 0.0, 1.666408297992453E9, 0.0, 2022-10-21 20:11:37.992
179.0, -155984.59911162843, -167899.35295574105, 64471.170541187596, -61063.5129885093, 79359.3322467008, -80048.45888000238, 92113.32703987684, -127737.29148355621, -0.016, 0.9400000000000001, -0.14200000000000002, 192.0, 0.0, 0.0, 0.0, 0.0, 0.0, 0.0, 0.0, 0.0, 0.0, 1.6664082979924648E9, 0.0, 2022-10-21 20:11:37.992
180.0, -155979.8605418039, -167894.63673766097, 64478.792486046856, -61060.629613474564, 79367.64709563817, -80057.15370859549, 92089.70124598757, -127734.81043992168, -0.016, 0.9400000000000001, -0.14200000000000002, 192.0, 0.0, 0.0, 0.0, 0.0, 0.0, 0.0, 0.0, 0.0, 0.0, 1.666408297992488E9, 0.0, 2022-10-21 20:11:37.992
181.0, -155981.93925403827, -167895.55315918365, 64473.964509244506, -61055.823988416676, 79367.15535726016, -80044.97200786734, 92107.60499329628, -127735.92802714444, -0.016, 0.9400000000000001, -0.14200000000000002, 192.0, 0.0, 0.0, 0.0, 0.0, 0.0, 0.0, 0.0, 0.0, 0.0, 1.6664082979924996E9, 0.0, 2022-10-21 20:11:37.992
182.0, -155977.60301561392, -167889.69700213635, 64470.99172723195, -61057.54507273973, 79364.20492699205, -80028.72228964833, 92143.5465983804, -127728.70841368538, -0.014, 0.9380000000000001, -0.14, 192.0, 255.0, 144.0, 29.0, 80.0, 251.0, 160.0, 0.0, 0.0, 0.0, 1.6664082979925117E9, 0.0, 2022-10-21 20:11:37.992
183.0, -155979.83819005947, -167892.62508066001, 64461.60399456072, -61072.99012815835, 79348.26813319542, -80057.15370859549, 92114.06464744385, -127741.73948070282, -0.014, 0.9380000000000001, -0.14, 192.0, 0.0, 0.0, 0.0, 0.0, 0.0, 0.0, 0.0, 0.0, 0.0, 1.6664082979925244E9, 0.0, 2022-10-21 20:11:37.992
184.0, -155980.44168715976, -167893.40739171594, 64461.29107013835, -61080.09798289514, 79345.54122037187, -80075.50449079329, 92073.78680393539, -127740.5995417356, -0.014, 0.9380000000000001, -0.14, 192.0, 0.0, 0.0, 0.0, 0.0, 0.0, 0.0, 0.0, 0.0, 0.0, 1.6664082979925363E9, 0.0, 2022-10-21 20:11:37.992
185.0, -155977.558312125, -167893.72031613832, 64464.77794227337, -61070.978471157374, 79352.20204021955, -80059.5006417633, 92090.37179832123, -127740.48778301333, -0.014, 0.9380000000000001, -0.14, 192.0, 0.0, 0.0, 0.0, 0.0, 0.0, 0.0, 0.0, 0.0, 0.0, 1.666408297992548E9, 0.0, 2022-10-21 20:11:37.992
186.0, -155964.59430034095, -167880.84571133205, 64478.03252673538, -61054.28171804926, 79369.27877298341, -80020.80977211116, 92147.32404319335, -127725.22154155035, -0.014, 0.9380000000000001, -0.14, 192.0, 0.0, 0.0, 0.0, 0.0, 0.0, 0.0, 0.0, 0.0, 0.0, 1.66640829799256E9, 0.0, 2022-10-21 20:11:37.992
187.0, -155971.32217542198, -167885.11489452302, 64468.82360801979, -61064.474113520875, 79364.07081652533, -80031.13627804951, 92133.33185116433, -127743.39350979251, -0.014, 0.9380000000000001, -0.14, 192.0, 0.0, 0.0, 0.0, 0.0, 0.0, 0.0, 0.0, 0.0, 0.0, 1.6664082979925714E9, 0.0, 2022-10-21 20:11:37.992
188.0, -155979.43585865927, -167894.81555161663, 64466.18610217406, -61074.398288059034, 79356.2253542215, -80059.79121444121, 92086.19202210808, -127749.07085288416, -0.014, 0.9380000000000001, -0.14, 192.0, 0.0, 0.0, 0.0, 0.0, 0.0, 0.0, 0.0, 0.0, 0.0, 1.6664082979925835E9, 0.0, 2022-10-21 20:11:37.992
189.0, -155978.65354760332, -167897.8330371181, 64468.153055686125, -61066.08343912166, 79359.95809554555, -80055.23145857232, 92088.31543783135, -127746.79097494972, -0.014, 0.9380000000000001, -0.14, 192.0, 0.0, 0.0, 0.0, 0.0, 0.0, 0.0, 0.0, 0.0, 0.0, 1.6664082979925957E9, 0.0, 2022-10-21 20:11:37.992
190.0, -155977.0218702581, -167896.04489756166, 64469.538863842354, -61062.35069779762, 79362.19326999108, -80028.9905105818, 92132.88481627523, -127737.17972483394, -0.014, 0.9380000000000001, -0.14, 192.0, 0.0, 0.0, 0.0, 0.0, 0.0, 0.0, 0.0, 0.0, 0.0, 1.666408297992607E9, 0.0, 2022-10-21 20:11:37.992
191.0, -155960.0121927276, -167879.86223457602, 64485.073326238795, -61054.214662815895, 79375.38079921971, -80017.72523137632, 92151.0567845174, -127723.52280897174, -0.014, 0.9380000000000001, -0.14, 192.0, 0.0, 0.0, 0.0, 0.0, 0.0, 0.0, 0.0, 0.0, 0.0, 1.6664082979926193E9, 0.0, 2022-10-21 20:11:37.992
192.0, -155971.32217542198, -167888.91469108043, 64477.22786393498, -61063.60239548712, 79369.74815961697, -80045.30728403418, 92109.61665029725, -127730.47420149735, -0.014, 0.9460000000000001, -0.148, 192.0, 255.0, 144.0, 29.0, 144.0, 251.0, 96.0, 0.0, 0.0, 0.0, 1.6664082979926312E9, 0.0, 2022-10-21 20:11:37.992
193.0, -155970.74103006616, -167886.94773756835, 64479.57479710279, -61062.529511753266, 79367.60239214926, -80051.25284805929, 92096.33971409079, -127727.3449572736, -0.014, 0.9460000000000001, -0.148, 192.0, 0.0, 0.0, 0.0, 0.0, 0.0, 0.0, 0.0, 0.0, 0.0, 1.6664082979926434E9, 0.0, 2022-10-21 20:11:37.992
194.0, -155962.09090496195, -167878.16350199742, 64494.7739833324, -61043.97756385536, 79384.20973827956, -80011.17617025092, 92150.56504613937, -127711.40816347697, -0.014, 0.9460000000000001, -0.148, 192.0, 0.0, 0.0, 0.0, 0.0, 0.0, 0.0, 0.0, 0.0, 0.0, 1.6664082979926553E9, 0.0, 2022-10-21 20:11:37.992
195.0, -155976.2172074577, -167893.45209520485, 64484.84980879424, -61061.52368325278, 79374.01734280793, -80012.09259177359, 92159.17046775467, -127726.11561132857, -0.014, 0.9460000000000001, -0.148, 192.0, 0.0, 0.0, 0.0, 0.0, 0.0, 0.0, 0.0, 0.0, 0.0, 1.6664082979926777E9, 0.0, 2022-10-21 20:11:37.992
196.0, -155973.19972195622, -167891.41808645942, 64486.07915473928, -61074.44299154795, 79362.84147058029, -80043.02740609973, 92119.83139751332, -127731.70354744239, -0.014, 0.9460000000000001, -0.148, 192.0, 0.0, 0.0, 0.0, 0.0, 0.0, 0.0, 0.0, 0.0, 0.0, 1.6664082979926891E9, 0.0, 2022-10-21 20:11:37.992
197.0, -155963.78963754055, -167883.4385136889, 64495.91392229962, -61063.289471064745, 79372.07274104032, -80043.139164822, 92106.15212990668, -127715.5432362012, -0.014, 0.9460000000000001, -0.148, 192.0, 0.0, 0.0, 0.0, 0.0, 0.0, 0.0, 0.0, 0.0, 0.0, 1.666408297992702E9, 0.0, 2022-10-21 20:11:37.992
198.0, -155972.6185766004, -167890.6357754035, 64490.28128269688, -61061.970718141885, 79370.70928462855, -80021.52502793372, 92140.28324368993, -127719.72301241435, -0.014, 0.9460000000000001, -0.148, 192.0, 0.0, 0.0, 0.0, 0.0, 0.0, 0.0, 0.0, 0.0, 0.0, 1.6664082979927137E9, 0.0, 2022-10-21 20:11:37.992
199.0, -155971.63509984437, -167889.7864091142, 64492.31529144231, -61064.764686198796, 79373.50325268546, -80003.5318736472, 92172.11212779429, -127710.71525939886, -0.014, 0.9460000000000001, -0.148, 192.0, 0.0, 0.0, 0.0, 0.0, 0.0, 0.0, 0.0, 0.0, 0.0, 1.6664082979927251E9, 0.0, 2022-10-21 20:11:37.992
200.0, -155982.65450986082, -167901.36461274204, 64479.66420408061, -61079.62859626158, 79357.54410714438, -80034.75726065127, 92128.45917087307, -127728.23902705182, -0.014, 0.9460000000000001, -0.148, 192.0, 0.0, 0.0, 0.0, 0.0, 0.0, 0.0, 0.0, 0.0, 0.0, 1.6664082979927368E9, 0.0, 2022-10-21 20:11:37.992
201.0, -155971.4562858887, -167896.08960105057, 64486.1685617171, -61073.168942113996, 79362.729711858, -80049.79998466969, 92101.45826357107, -127732.88818989853, -0.014, 0.96, -0.154, 192.0, 255.0, 144.0, 30.0, 0.0, 251.0, 48.0, 0.0, 0.0, 0.0, 1.6664082979927487E9, 0.0, 2022-10-21 20:11:37.992
202.0, -155962.62734682887, -167887.17125501292, 64498.88670431217, -61054.32642153817, 79376.99012482048, -80022.55320817867, 92138.9421390226, -127720.72884091483, -0.014, 0.96, -0.154, 192.0, 0.0, 0.0, 0.0, 0.0, 0.0, 0.0, 0.0, 0.0, 0.0, 1.6664082979927616E9, 0.0, 2022-10-21 20:11:37.992
203.0, -155965.04133523005, -167888.51235968023, 64499.08787001227, -61057.835645417654, 79372.07274104032, -80007.21991148233, 92169.83224985984, -127717.13021005753, -0.014, 0.96, -0.154, 192.0, 0.0, 0.0, 0.0, 0.0, 0.0, 0.0, 0.0, 0.0, 0.0, 1.6664082979927733E9, 0.0, 2022-10-21 20:11:37.992
204.0, -155959.54280609405, -167882.09740902155, 64501.501858413445, -61064.11648560959, 79362.79676709136, -80034.93607460691, 92140.68557509013, -127722.56168396017, -0.014, 0.96, -0.154, 192.0, 0.0, 0.0, 0.0, 0.0, 0.0, 0.0, 0.0, 0.0, 0.0, 1.666408297992785E9, 0.0, 2022-10-21 20:11:37.992
205.0, -155967.4106201423, -167889.80876085864, 64494.52811414339, -61070.57613975718, 79352.51496464193, -80068.12841512304, 92091.66819949963, -127729.69189044142, -0.014, 0.96, -0.154, 192.0, 0.0, 0.0, 0.0, 0.0, 0.0, 0.0, 0.0, 0.0, 0.0, 1.666408297992797E9, 0.0, 2022-10-21 20:11:37.992
206.0, -155970.6069195994, -167893.13917078247, 64497.05386126684, -61063.3118228092, 79362.43913918009, -80042.9379991219, 92119.27260390195, -127722.71814617136, -0.014, 0.96, -0.154, 192.0, 0.0, 0.0, 0.0, 0.0, 0.0, 0.0, 0.0, 0.0, 0.0, 1.6664082979928083E9, 0.0, 2022-10-21 20:11:37.992
207.0, -155960.3027654055, -167882.20916774383, 64506.19572474906, -61052.49357849283, 79371.40218870666, -80011.04205978419, 92167.28415099194, -127715.45382922338, -0.014, 0.96, -0.154, 192.0, 0.0, 0.0, 0.0, 0.0, 0.0, 0.0, 0.0, 0.0, 0.0, 1.6664082979928205E9, 0.0, 2022-10-21 20:11:37.992
208.0, -155953.7090007912, -167877.6717636194, 64511.6271986517, -61047.03975284574, 79379.18059577711, -80012.9866615518, 92163.68552013463, -127712.19047453291, -0.014, 0.96, -0.154, 192.0, 0.0, 0.0, 0.0, 0.0, 0.0, 0.0, 0.0, 0.0, 0.0, 1.666408297992832E9, 0.0, 2022-10-21 20:11:37.992
209.0, -155954.13368393586, -167875.66010661842, 64508.09562302776, -61050.16899706948, 79377.14658703168, -80036.47834497433, 92123.742952793, -127710.98348033232, -0.014, 0.96, -0.154, 192.0, 0.0, 0.0, 0.0, 0.0, 0.0, 0.0, 0.0, 0.0, 0.0, 1.6664082979928436E9, 0.0, 2022-10-21 20:11:37.992
210.0, -155962.73910555115, -167883.0808857776, 64500.36191944622, -61050.638383703044, 79374.26321199695, -80035.36075775156, 92125.91107200517, -127709.35180298709, -0.014, 0.96, -0.154, 192.0, 0.0, 0.0, 0.0, 0.0, 0.0, 0.0, 0.0, 0.0, 0.0, 1.6664082979928665E9, 0.0, 2022-10-21 20:11:37.992
211.0, -155973.40088765632, -167892.64743240445, 64489.700137341046, -61058.21562507339, 79362.39443569118, -80028.29760650368, 92156.26474097547, -127723.90278862749, -0.01, 0.9560000000000001, -0.156, 192.0, 255.0, 176.0, 29.0, 224.0, 251.0, 32.0, 0.0, 0.0, 0.0, 1.6664082979928792E9, 0.0, 2022-10-21 20:11:37.992
212.0, -155956.54767233704, -167873.2237664728, 64507.4250706941, -61046.92799412346, 79377.48186319851, -80022.10617328956, 92170.41339521568, -127711.51992219925, -0.01, 0.9560000000000001, -0.156, 192.0, 0.0, 0.0, 0.0, 0.0, 0.0, 0.0, 0.0, 0.0, 0.0, 1.666408297992892E9, 0.0, 2022-10-21 20:11:37.992
213.0, -155946.48938733214, -167864.6630483464, 64511.94012307408, -61045.94451736743, 79382.17572953412, -80042.84859214409, 92134.29297617592, -127710.06705880965, -0.01, 0.9560000000000001, -0.156, 192.0, 0.0, 0.0, 0.0, 0.0, 0.0, 0.0, 0.0, 0.0, 0.0, 1.666408297992911E9, 0.0, 2022-10-21 20:11:37.992
214.0, -155948.72456177766, -167867.2782024477, 64502.842963080766, -61041.02713358726, 79381.90750860066, -80046.33546427912, 92123.51943534845, -127715.9455676014, -0.01, 0.9560000000000001, -0.156, 192.0, 0.0, 0.0, 0.0, 0.0, 0.0, 0.0, 0.0, 0.0, 0.0, 1.6664082979929233E9, 0.0, 2022-10-21 20:11:37.992
215.0, -155960.16865493878, -167879.01286828672, 64491.95766353103, -61038.09905506362, 79382.01926732293, -80016.02649879771, 92165.76423236898, -127714.649166423, -0.01, 0.9560000000000001, -0.156, 192.0, 0.0, 0.0, 0.0, 0.0, 0.0, 0.0, 0.0, 0.0, 0.0, 1.6664082979929347E9, 0.0, 2022-10-21 20:11:37.992
216.0, -155960.39217238335, -167879.7281241093, 64491.73414608648, -61042.18942429894, 79378.04065680988, -80012.29375747369, 92177.54360169693, -127717.26432052426, -0.01, 0.9560000000000001, -0.156, 192.0, 0.0, 0.0, 0.0, 0.0, 0.0, 0.0, 0.0, 0.0, 0.0, 1.6664082979929466E9, 0.0, 2022-10-21 20:11:37.992
217.0, -155946.39998035433, -167865.98180126928, 64512.968303319016, -61032.399360227515, 79383.74035164599, -80025.86126635806, 92148.7545548385, -127702.8921488395, -0.01, 0.9560000000000001, -0.156, 192.0, 0.0, 0.0, 0.0, 0.0, 0.0, 0.0, 0.0, 0.0, 0.0, 1.6664082979929583E9, 0.0, 2022-10-21 20:11:37.992
218.0, -155948.47869258866, -167867.18879546988, 64526.111129058736, -61033.159319538994, 79380.00761032196, -80032.94676935038, 92130.26966217396, -127693.638526635, -0.01, 0.9560000000000001, -0.156, 192.0, 0.0, 0.0, 0.0, 0.0, 0.0, 0.0, 0.0, 0.0, 0.0, 1.66640829799297E9, 0.0, 2022-10-21 20:11:37.992
219.0, -155944.45537858672, -167861.80202505612, 64537.04113209739, -61017.26722923127, 79391.47405522753, -80000.82731256812, 92177.38713948574, -127688.65408762147, -0.01, 0.9560000000000001, -0.156, 192.0, 0.0, 0.0, 0.0, 0.0, 0.0, 0.0, 0.0, 0.0, 0.0, 1.6664082979929824E9, 0.0, 2022-10-21 20:11:37.992
220.0, -155948.72456177766, -167864.95362102432, 64532.324914017314, -61020.82115659966, 79387.09311331429, -79998.8827108005, 92191.40168325922, -127702.46746569485, -0.01, 0.9560000000000001, -0.156, 192.0, 0.0, 0.0, 0.0, 0.0, 0.0, 0.0, 0.0, 0.0, 0.0, 1.6664082979929943E9, 0.0, 2022-10-21 20:11:37.992
221.0, -155953.97722172466, -167870.29568794917, 64527.56399244833, -61028.10782529209, 79383.20390977907, -80021.48032444481, 92157.53879040942, -127710.20116927639, -0.016, 0.9460000000000001, -0.16, 192.0, 255.0, 128.0, 29.0, 144.0, 251.0, 0.0, 0.0, 0.0, 0.0, 1.6664082979930072E9, 0.0, 2022-10-21 20:11:37.993
222.0, -155953.19491066874, -167870.7650745827, 64527.094605814775, -61031.1029590491, 79379.96290683305, -80024.85543785756, 92133.55536860888, -127707.7424773863, -0.016, 0.9460000000000001, -0.16, 192.0, 0.0, 0.0, 0.0, 0.0, 0.0, 0.0, 0.0, 0.0, 0.0, 1.6664082979930205E9, 0.0, 2022-10-21 20:11:37.993
223.0, -155943.38249485285, -167862.74079832327, 64536.21411755254, -61015.36733095257, 79391.22818603853, -79996.02168751022, 92172.17918302765, -127692.43153243442, -0.016, 0.9460000000000001, -0.16, 192.0, 0.0, 0.0, 0.0, 0.0, 0.0, 0.0, 0.0, 0.0, 0.0, 1.6664082979930322E9, 0.0, 2022-10-21 20:11:37.993
224.0, -155944.96946870917, -167863.54546112366, 64532.39196925068, -61021.201136255404, 79385.84141562479, -79989.49497812927, 92192.04988384842, -127703.60740466206, -0.016, 0.9460000000000001, -0.16, 192.0, 0.0, 0.0, 0.0, 0.0, 0.0, 0.0, 0.0, 0.0, 0.0, 1.6664082979930444E9, 0.0, 2022-10-21 20:11:37.993
225.0, -155943.78482625305, -167864.0148477572, 64534.090701829286, -61028.5548601812, 79378.44298821008, -80010.6844318729, 92160.57862765536, -127706.15550352997, -0.016, 0.9460000000000001, -0.16, 192.0, 0.0, 0.0, 0.0, 0.0, 0.0, 0.0, 0.0, 0.0, 0.0, 1.6664082979930673E9, 0.0, 2022-10-21 20:11:37.993
226.0, -155940.6555820293, -167861.0197140002, 64536.70585593055, -61029.672447403966, 79375.1349300307, -80035.51721996274, 92126.15694119417, -127704.61323316256, -0.016, 0.9460000000000001, -0.16, 192.0, 0.0, 0.0, 0.0, 0.0, 0.0, 0.0, 0.0, 0.0, 0.0, 1.6664082979930787E9, 0.0, 2022-10-21 20:11:37.993
227.0, -155965.82364628598, -167882.76796135522, 64516.63398940969, -61044.916337122486, 79357.61116237774, -80045.21787705635, 92132.16956045265, -127727.79199216272, -0.016, 0.9460000000000001, -0.16, 192.0, 0.0, 0.0, 0.0, 0.0, 0.0, 0.0, 0.0, 0.0, 0.0, 1.666408297993091E9, 0.0, 2022-10-21 20:11:37.993
228.0, -155947.58462281045, -167864.70775183532, 64540.25978329895, -61024.352732223604, 79372.54212767388, -80005.29766145918, 92184.27147677797, -127704.50147444029, -0.016, 0.9460000000000001, -0.16, 192.0, 0.0, 0.0, 0.0, 0.0, 0.0, 0.0, 0.0, 0.0, 0.0, 1.6664082979931028E9, 0.0, 2022-10-21 20:11:37.993
229.0, -155935.13470114884, -167855.5658883531, 64556.21892884004, -61011.701644861896, 79388.21070053705, -79993.92062353142, 92183.53386921095, -127689.34699169958, -0.016, 0.9460000000000001, -0.16, 192.0, 0.0, 0.0, 0.0, 0.0, 0.0, 0.0, 0.0, 0.0, 0.0, 1.6664082979931147E9, 0.0, 2022-10-21 20:11:37.993
230.0, -155939.87327097336, -167859.38803665497, 64547.45704501356, -61019.74827286581, 79380.76756963343, -80029.25873151526, 92137.60103435529, -127701.57339591664, -0.016, 0.9460000000000001, -0.16, 192.0, 0.0, 0.0, 0.0, 0.0, 0.0, 0.0, 0.0, 0.0, 0.0, 1.6664082979931269E9, 0.0, 2022-10-21 20:11:37.993
231.0, -155947.04818094353, -167865.0653797466, 64538.270478042425, -61014.60737164109, 79376.02899980891, -80031.7397751498, 92143.7477640805, -127700.23229124933, -0.02, 0.9440000000000001, -0.16, 192.0, 255.0, 96.0, 29.0, 128.0, 251.0, 0.0, 0.0, 0.0, 0.0, 1.6664082979931383E9, 0.0, 2022-10-21 20:11:37.993
232.0, -155948.21047165518, -167860.30445817762, 64542.5843647223, -61006.71720584836, 79381.54988068937, -79998.61448986703, 92185.63493318975, -127691.09042776709, -0.02, 0.9440000000000001, -0.16, 192.0, 0.0, 0.0, 0.0, 0.0, 0.0, 0.0, 0.0, 0.0, 0.0, 1.666408297993153E9, 0.0, 2022-10-21 20:11:37.993
233.0, -155961.37564913937, -167874.81074032912, 64528.79333839338, -61023.68217988994, 79371.44689219557, -80007.66694637144, 92168.33468298134, -127722.65109093799, -0.02, 0.9440000000000001, -0.16, 192.0, 0.0, 0.0, 0.0, 0.0, 0.0, 0.0, 0.0, 0.0, 0.0, 1.6664082979931638E9, 0.0, 2022-10-21 20:11:37.993
234.0, -155970.38340215487, -167889.65229864744, 64523.741844146476, -61031.81821487167, 79362.05915952435, -80030.17515303793, 92123.0947522038, -127730.92123638645, -0.02, 0.9440000000000001, -0.16, 192.0, 0.0, 0.0, 0.0, 0.0, 0.0, 0.0, 0.0, 0.0, 0.0, 1.6664082979931736E9, 0.0, 2022-10-21 20:11:37.993
235.0, -155958.33581189346, -167882.81266484412, 64538.71751293153, -61001.86687730156, 79388.72479065953, -80008.09162951609, 92147.9498920381, -127702.9368523284, -0.02, 0.9440000000000001, -0.16, 192.0, 0.0, 0.0, 0.0, 0.0, 0.0, 0.0, 0.0, 0.0, 0.0, 1.6664082979931831E9, 0.0, 2022-10-21 20:11:37.993
236.0, -155963.23084392917, -167889.36172596953, 64532.66019018414, -60995.45192664289, 79390.87055812724, -79987.66213508394, 92191.80401465941, -127702.19924476139, -0.02, 0.9440000000000001, -0.16, 192.0, 0.0, 0.0, 0.0, 0.0, 0.0, 0.0, 0.0, 0.0, 0.0, 1.666408297993193E9, 0.0, 2022-10-21 20:11:37.993
237.0, -155965.28720441906, -167889.629946903, 64526.96049534804, -61006.35957793708, 79380.11936904423, -79996.26755669923, 92186.4619477346, -127711.0952390546, -0.02, 0.9440000000000001, -0.16, 192.0, 0.0, 0.0, 0.0, 0.0, 0.0, 0.0, 0.0, 0.0, 0.0, 1.6664082979932027E9, 0.0, 2022-10-21 20:11:37.993
238.0, -155953.68664904675, -167877.8729293195, 64533.97894310701, -61005.063176758675, 79384.63442142421, -80006.92933880442, 92155.12480200826, -127706.98251807482, -0.02, 0.9440000000000001, -0.16, 192.0, 0.0, 0.0, 0.0, 0.0, 0.0, 0.0, 0.0, 0.0, 0.0, 1.6664082979932132E9, 0.0, 2022-10-21 20:11:37.993
239.0, -155952.99374496864, -167875.59305138508, 64536.325876274816, -60995.6977958319, 79389.79767439338, -80007.44342892688, 92150.4532874171, -127701.50634068328, -0.02, 0.9440000000000001, -0.16, 192.0, 0.0, 0.0, 0.0, 0.0, 0.0, 0.0, 0.0, 0.0, 0.0, 1.6664082979932227E9, 0.0, 2022-10-21 20:11:37.993
240.0, -155959.11812294938, -167880.35397295404, 64536.77291116392, -60994.06611848666, 79388.34481100379, -79990.94784151886, 92187.57953495736, -127702.42276220594, -0.02, 0.9440000000000001, -0.152, 192.0, 255.0, 96.0, 29.0, 128.0, 251.0, 64.0, 0.0, 0.0, 0.0, 1.6664082979932423E9, 0.0, 2022-10-21 20:11:37.993
241.0, -155972.7079835782, -167897.8330371181, 64526.28994301438, -61009.399415183005, 79377.14658703168, -79993.1830159644, 92186.73016866806, -127715.14090480101, -0.02, 0.9440000000000001, -0.152, 192.0, 0.0, 0.0, 0.0, 0.0, 0.0, 0.0, 0.0, 0.0, 0.0, 1.6664082979932525E9, 0.0, 2022-10-21 20:11:37.993
242.0, -155963.9013962628, -167891.46278994833, 64532.30256227286, -61006.538391892725, 79382.71217140104, -80004.29183295868, 92158.20934274308, -127712.57045418865, -0.02, 0.9440000000000001, -0.152, 192.0, 0.0, 0.0, 0.0, 0.0, 0.0, 0.0, 0.0, 0.0, 0.0, 1.66640829847097E9, 0.0, 2022-10-21 20:11:38.470
243.0, -155952.90433799083, -167878.25290897524, 64539.90215538767, -60999.609351111576, 79392.234014539, -80009.67860337242, 92146.4523251596, -127699.24881449329, -0.02, 0.9440000000000001, -0.152, 192.0, 0.0, 0.0, 0.0, 0.0, 0.0, 0.0, 0.0, 0.0, 0.0, 1.666408298471178E9, 0.0, 2022-10-21 20:11:38.471
244.0, -155960.72744855017, -167886.56775791262, 64531.564954705835, -61000.59282786761, 79383.76270339044, -79999.19563522287, 92172.1568312832, -127704.30030874019, -0.02, 0.9440000000000001, -0.152, 192.0, 0.0, 0.0, 0.0, 0.0, 0.0, 0.0, 0.0, 0.0, 0.0, 1.6664082984712043E9, 0.0, 2022-10-21 20:11:38.471
245.0, -155975.03256500157, -167901.76694414223, 64517.036320809886, -61011.18755473942, 79374.64319165268, -79993.04890549766, 92188.25008729102, -127717.89016936901, -0.02, 0.9440000000000001, -0.152, 192.0, 0.0, 0.0, 0.0, 0.0, 0.0, 0.0, 0.0, 0.0, 0.0, 1.666408298471234E9, 0.0, 2022-10-21 20:11:38.471
246.0, -155976.3066144355, -167905.72320291083, 64513.14711727466, -61018.38481645403, 79366.6859706266, -80012.1819987514, 92154.67776711915, -127723.47810548283, -0.02, 0.9440000000000001, -0.152, 192.0, 0.0, 0.0, 0.0, 0.0, 0.0, 0.0, 0.0, 0.0, 0.0, 1.6664082984712555E9, 0.0, 2022-10-21 20:11:38.471
247.0, -155961.39800088384, -167891.64160390396, 64530.62618143871, -61005.17493548095, 79376.54308993138, -80017.4346586984, 92136.90813027718, -127703.56270117316, -0.02, 0.9440000000000001, -0.152, 192.0, 0.0, 0.0, 0.0, 0.0, 0.0, 0.0, 0.0, 0.0, 0.0, 1.666408298471274E9, 0.0, 2022-10-21 20:11:38.471
248.0, -155970.53986436606, -167899.26354876324, 64521.1266900452, -61004.05734825818, 79372.49742418497, -80010.50561791725, 92161.24917998901, -127711.76579138826, -0.02, 0.9440000000000001, -0.152, 192.0, 0.0, 0.0, 0.0, 0.0, 0.0, 0.0, 0.0, 0.0, 0.0, 1.6664082984712856E9, 0.0, 2022-10-21 20:11:38.471
249.0, -155976.93246328027, -167906.57256920013, 64511.29192248487, -61017.06606353117, 79357.49940365546, -80012.11494351804, 92176.89540110773, -127735.16806783296, -0.02, 0.9440000000000001, -0.152, 192.0, 0.0, 0.0, 0.0, 0.0, 0.0, 0.0, 0.0, 0.0, 0.0, 1.6664082984712968E9, 0.0, 2022-10-21 20:11:38.471
250.0, -155955.38538162535, -167881.4268566879, 64537.15289081966, -60995.6977958319, 79382.53335744541, -79991.10430373006, 92181.0081220875, -127711.899901855, -0.02, 0.9480000000000001, -0.152, 192.0, 255.0, 96.0, 29.0, 160.0, 251.0, 64.0, 0.0, 0.0, 0.0, 1.6664082984713087E9, 0.0, 2022-10-21 20:11:38.471
251.0, -155954.53601533605, -167882.41033344393, 64538.3822367647, -60999.184667966925, 79381.57223243383, -80006.81758008213, 92148.57574088285, -127711.47521871034, -0.02, 0.9480000000000001, -0.152, 192.0, 0.0, 0.0, 0.0, 0.0, 0.0, 0.0, 0.0, 0.0, 0.0, 1.666408298471321E9, 0.0, 2022-10-21 20:11:38.471
252.0, -155960.6156898279, -167889.4734846918, 64534.11305357374, -60994.33433942012, 79377.0348283094, -80003.12954224701, 92163.01496780098, -127715.67734666793, -0.02, 0.9480000000000001, -0.152, 192.0, 0.0, 0.0, 0.0, 0.0, 0.0, 0.0, 0.0, 0.0, 0.0, 1.6664082984713328E9, 0.0, 2022-10-21 20:11:38.471
253.0, -155963.9013962628, -167891.21692075933, 64533.42014949562, -60990.69100507391, 79374.30791548586, -79989.65144034046, 92195.35794202781, -127716.43730597942, -0.02, 0.9480000000000001, -0.152, 192.0, 0.0, 0.0, 0.0, 0.0, 0.0, 0.0, 0.0, 0.0, 0.0, 1.666408298471344E9, 0.0, 2022-10-21 20:11:38.471
254.0, -155969.5116841211, -167893.27328124922, 64529.15096630466, -60997.48593538832, 79370.50811892845, -79998.94976603387, 92177.6553604192, -127719.56655020316, -0.02, 0.9480000000000001, -0.152, 192.0, 0.0, 0.0, 0.0, 0.0, 0.0, 0.0, 0.0, 0.0, 0.0, 1.6664082984713554E9, 0.0, 2022-10-21 20:11:38.471
255.0, -155971.34452716645, -167892.1780457709, 64532.90605937315, -60997.64239759951, 79374.46437769705, -80010.885597573, 92144.68653734763, -127720.30415777018, -0.02, 0.9480000000000001, -0.152, 192.0, 0.0, 0.0, 0.0, 0.0, 0.0, 0.0, 0.0, 0.0, 0.0, 1.6664082984714289E9, 0.0, 2022-10-21 20:11:38.471
0.0, -155987.43778317427, -167913.61336870355, 64519.00327432195, -61005.3984529255, 79365.18840374809, -80015.64651914198, 92143.23367395804, -127736.26330331128, -0.02, 0.9480000000000001, -0.152, 192.0, 0.0, 0.0, 0.0, 0.0, 0.0, 0.0, 0.0, 0.0, 0.0, 1.66640829847144E9, 0.0, 2022-10-21 20:11:38.471
1.0, -155976.59718711342, -167902.97393834282, 64532.70489367306, -60993.14969696399, 79373.1903282631, -79985.98575424979, 92191.13346232576, -127719.87947462553, -0.02, 0.9480000000000001, -0.152, 192.0, 0.0, 0.0, 0.0, 0.0, 0.0, 0.0, 0.0, 0.0, 0.0, 1.6664082984714508E9, 0.0, 2022-10-21 20:11:38.471
2.0, -155975.47959989068, -167899.15179004095, 64534.224812296015, -60996.97184526585, 79374.71024688605, -79990.6796205854, 92187.512479724, -127715.76675364576, -0.02, 0.9480000000000001, -0.152, 192.0, 0.0, 0.0, 0.0, 0.0, 0.0, 0.0, 0.0, 0.0, 0.0, 1.6664082984714637E9, 0.0, 2022-10-21 20:11:38.471
3.0, -155965.9130532638, -167889.69700213635, 64541.95851587755, -60988.7464033063, 79385.93082260262, -79998.16745497793, 92160.51157242198, -127712.41399197746, -0.02, 0.9480000000000001, -0.152, 192.0, 0.0, 0.0, 0.0, 0.0, 0.0, 0.0, 0.0, 0.0, 0.0, 1.666408298471475E9, 0.0, 2022-10-21 20:11:38.471
4.0, -155968.43880038726, -167889.7864091142, 64536.39293150818, -60984.38781313752, 79383.71799990154, -80001.05083001267, 92153.8060490854, -127717.80076239118, -0.022, 0.9520000000000001, -0.152, 192.0, 255.0, 80.0, 29.0, 192.0, 251.0, 64.0, 0.0, 0.0, 0.0, 1.666408298471486E9, 0.0, 2022-10-21 20:11:38.471
5.0, -155967.99176549815, -167889.16056026943, 64534.425977996114, -60981.21386542486, 79383.82975862382, -79982.61064083704, 92193.10041583782, -127714.80562863417, -0.022, 0.9520000000000001, -0.152, 192.0, 0.0, 0.0, 0.0, 0.0, 0.0, 0.0, 0.0, 0.0, 0.0, 1.6664082984715023E9, 0.0, 2022-10-21 20:11:38.471
6.0, -155973.0209080006, -167896.3801737285, 64533.464852984536, -60984.991310237805, 79385.21556678004, -79980.01783848023, 92203.60573573182, -127710.67055590995, -0.022, 0.9520000000000001, -0.152, 192.0, 0.0, 0.0, 0.0, 0.0, 0.0, 0.0, 0.0, 0.0, 0.0, 1.6664082984715135E9, 0.0, 2022-10-21 20:11:38.471
7.0, -155982.25217846062, -167903.71154590984, 64527.27341977041, -60995.51898187626, 79377.61597366523, -80004.22477772532, 92163.35024396781, -127715.02914607873, -0.022, 0.9520000000000001, -0.152, 192.0, 0.0, 0.0, 0.0, 0.0, 0.0, 0.0, 0.0, 0.0, 0.0, 1.6664082984715247E9, 0.0, 2022-10-21 20:11:38.471
8.0, -155985.98491978468, -167909.12066806803, 64521.90900110114, -60998.26824644426, 79375.0902265418, -80011.42203943993, 92151.39206068421, -127724.32747177214, -0.022, 0.9520000000000001, -0.152, 192.0, 0.0, 0.0, 0.0, 0.0, 0.0, 0.0, 0.0, 0.0, 0.0, 1.6664082984715357E9, 0.0, 2022-10-21 20:11:38.471
9.0, -155983.0121377721, -167905.58909244408, 64524.233582524495, -60992.52384811924, 79376.05135155337, -79985.11403621604, 92191.64755244822, -127721.33233801513, -0.022, 0.9520000000000001, -0.152, 192.0, 0.0, 0.0, 0.0, 0.0, 0.0, 0.0, 0.0, 0.0, 0.0, 1.6664082984715464E9, 0.0, 2022-10-21 20:11:38.471
10.0, -155987.50483840762, -167910.0817930796, 64517.97509407701, -60997.91061853297, 79375.15728177516, -79976.59802157855, 92207.60669798932, -127721.64526243751, -0.022, 0.9520000000000001, -0.152, 192.0, 0.0, 0.0, 0.0, 0.0, 0.0, 0.0, 0.0, 0.0, 0.0, 1.6664082984715576E9, 0.0, 2022-10-21 20:11:38.471
11.0, -155989.80706808652, -167912.11580182504, 64516.23165800949, -61005.1525837365, 79366.95419156006, -80002.05665851316, 92168.93818008163, -127724.17100956096, -0.022, 0.9520000000000001, -0.152, 192.0, 0.0, 0.0, 0.0, 0.0, 0.0, 0.0, 0.0, 0.0, 0.0, 1.6664082984715683E9, 0.0, 2022-10-21 20:11:38.471
