%OpenBCI Raw EEG Data
%Number of channels = 8
%Sample Rate = 250 Hz
%Board = OpenBCI_GUI$BoardCytonSerial
Sample Index, EXG Channel 0, EXG Channel 1, EXG Channel 2, EXG Channel 3, EXG Channel 4, EXG Channel 5, EXG Channel 6, EXG Channel 7, Accel Channel 0, Accel Channel 1, Accel Channel 2, Other, Other, Other, Other, Other, Other, Other, Analog Channel 0, Analog Channel 1, Analog Channel 2, Timestamp, Other, Timestamp (Formatted)
169.0, -155477.10275377068, -165198.3011005284, 45801.808929659004, -92834.28255728276, 77660.1302814639, -78896.56172949812, 84389.54763287875, -128222.72666963657, 0.0, 0.0, 0.0, 192.0, 0.0, 0.0, 0.0, 0.0, 0.0, 0.0, 0.0, 0.0, 0.0, 1.666408228400039E9, 0.0, 2022-10-21 20:10:28.400
170.0, -155488.41273646508, -165210.37104253424, 45788.35317949691, -92859.920008173, 77646.74158653516, -78920.2769303652, 84353.7624900058, -128237.70233842163, 0.0, 0.0, 0.0, 192.0, 0.0, 0.0, 0.0, 0.0, 0.0, 0.0, 0.0, 0.0, 0.0, 1.6664082284000587E9, 0.0, 2022-10-21 20:10:28.400
171.0, -155475.0463932808, -165200.11159182925, 45794.70107492222, -92860.92583667349, 77645.55694407904, -78941.22051491983, 84328.46031528238, -128234.01430058651, 0.0, 0.0, 0.0, 192.0, 0.0, 0.0, 0.0, 0.0, 0.0, 0.0, 0.0, 0.0, 0.0, 1.666408228400069E9, 0.0, 2022-10-21 20:10:28.400
172.0, -155484.9035125856, -165204.11255408675, 45789.381359741856, -92851.06871736869, 77641.46657484373, -78938.5830090741, 84348.77805099226, -128232.36027149681, 0.0, 0.0, 0.0, 192.0, 0.0, 0.0, 0.0, 0.0, 0.0, 0.0, 0.0, 0.0, 0.0, 1.6664082284000788E9, 0.0, 2022-10-21 20:10:28.400
173.0, -155497.21932378047, -165217.0989176153, 45782.13939453833, -92853.97444414788, 77637.68913003078, -78920.34398559856, 84370.99568498084, -128236.98708259907, 0.0, 0.0, 0.0, 192.0, 0.0, 0.0, 0.0, 0.0, 0.0, 0.0, 0.0, 0.0, 0.0, 1.6664082284000883E9, 0.0, 2022-10-21 20:10:28.400
174.0, -155486.8481143532, -165203.5537604754, 45788.15201379681, -92860.45645003993, 77642.49475508866, -78927.92122696892, 84352.75666150531, -128239.24460878904, 0.0, 0.0, 0.0, 192.0, 0.0, 0.0, 0.0, 0.0, 0.0, 0.0, 0.0, 0.0, 0.0, 1.6664082284000983E9, 0.0, 2022-10-21 20:10:28.400
175.0, -155473.05708802427, -165194.56835920434, 45799.707865680204, -92866.75964197631, 77644.68522604529, -78952.17286970293, 84321.97830939035, -128234.90837036472, 0.0, 0.0, 0.0, 192.0, 0.0, 0.0, 0.0, 0.0, 0.0, 0.0, 0.0, 0.0, 0.0, 1.666408228400108E9, 0.0, 2022-10-21 20:10:28.400
176.0, -155473.30295721328, -165191.72968765852, 45805.34050528294, -92844.09497309863, 77655.79404303957, -78935.78904101718, 84346.96755969139, -128224.6712714042, 0.0, 0.0, 0.0, 192.0, 0.0, 0.0, 0.0, 0.0, 0.0, 0.0, 0.0, 0.0, 0.0, 1.666408228400118E9, 0.0, 2022-10-21 20:10:28.400
177.0, -155486.62459690866, -165205.92304538764, 45792.26473477659, -92841.65863295301, 77649.53555459209, -78916.05245066315, 84374.48255711587, -128236.07066107639, -0.032, 0.9460000000000001, -0.166, 192.0, 255.0, 0.0, 29.0, 144.0, 250.0, 208.0, 0.0, 0.0, 0.0, 1.6664082284001276E9, 0.0, 2022-10-21 20:10:28.400
178.0, -155482.8024486068, -165205.58776922082, 45787.50381320761, -92854.60029299263, 77640.81837425451, -78925.44018333437, 84358.70222553042, -128237.99291109956, -0.032, 0.9460000000000001, -0.166, 192.0, 0.0, 0.0, 0.0, 0.0, 0.0, 0.0, 0.0, 0.0, 0.0, 1.6664082284001396E9, 0.0, 2022-10-21 20:10:28.400
179.0, -155486.42343120856, -165221.34574906182, 45770.33767346593, -92877.24261012586, 77626.75912699212, -78960.57712561812, 84311.58474821864, -128257.34952179785, -0.032, 0.9460000000000001, -0.166, 192.0, 0.0, 0.0, 0.0, 0.0, 0.0, 0.0, 0.0, 0.0, 0.0, 1.66640822840015E9, 0.0, 2022-10-21 20:10:28.400
180.0, -155473.05708802427, -165205.02897560943, 45776.9537898247, -92862.4681070409, 77640.08076668749, -78946.45082312237, 84327.25332108181, -128250.59929497234, -0.032, 0.9460000000000001, -0.166, 192.0, 0.0, 0.0, 0.0, 0.0, 0.0, 0.0, 0.0, 0.0, 0.0, 1.6664082284001598E9, 0.0, 2022-10-21 20:10:28.400
181.0, -155470.24076822292, -165194.03191733742, 45794.745778411125, -92848.34180454515, 77648.7755952806, -78913.66081400643, 84372.69441755944, -128231.24268427405, -0.032, 0.9460000000000001, -0.166, 192.0, 0.0, 0.0, 0.0, 0.0, 0.0, 0.0, 0.0, 0.0, 0.0, 1.66640822840017E9, 0.0, 2022-10-21 20:10:28.400
182.0, -155469.79373333382, -165195.73064991602, 45809.430874518264, -92841.5692259752, 77663.97478151022, -78899.91449116642, 84384.22791769839, -128219.93270157966, -0.032, 0.9460000000000001, -0.166, 192.0, 0.0, 0.0, 0.0, 0.0, 0.0, 0.0, 0.0, 0.0, 0.0, 1.66640822840018E9, 0.0, 2022-10-21 20:10:28.400
183.0, -155473.86175082467, -165196.8482371388, 45807.620383217385, -92854.55558950373, 77661.96312450923, -78929.86582873653, 84348.04044342524, -128225.00654757101, -0.032, 0.9460000000000001, -0.166, 192.0, 0.0, 0.0, 0.0, 0.0, 0.0, 0.0, 0.0, 0.0, 0.0, 1.6664082284001906E9, 0.0, 2022-10-21 20:10:28.400
184.0, -155480.36610846117, -165196.37885050522, 45796.220993545176, -92858.17657210548, 77648.82029876951, -78948.30601791215, 84333.66827174048, -128233.1202308083, -0.032, 0.9460000000000001, -0.166, 192.0, 0.0, 0.0, 0.0, 0.0, 0.0, 0.0, 0.0, 0.0, 0.0, 1.6664082284002008E9, 0.0, 2022-10-21 20:10:28.400
185.0, -155498.2028005365, -165219.44585078312, 45794.09757782192, -92847.11245860011, 77650.34021739247, -78916.14185764096, 84373.7673012933, -128226.30294874942, -0.032, 0.9460000000000001, -0.166, 192.0, 0.0, 0.0, 0.0, 0.0, 0.0, 0.0, 0.0, 0.0, 0.0, 1.6664082284003181E9, 0.0, 2022-10-21 20:10:28.400
186.0, -155496.03468132432, -165219.1999815941, 45800.5125284806, -92848.52061850078, 77657.96216225173, -78900.29447082216, 84385.63607759906, -128224.60421617082, -0.032, 0.9460000000000001, -0.166, 192.0, 0.0, 0.0, 0.0, 0.0, 0.0, 0.0, 0.0, 0.0, 0.0, 1.6664082284003289E9, 0.0, 2022-10-21 20:10:28.400
187.0, -155460.80833206276, -165178.5868619188, 45826.574662515486, -92838.28351954026, 77677.13995899439, -78907.31291858113, 84371.19685068094, -128207.95216655162, -0.036000000000000004, 0.9420000000000001, -0.17200000000000001, 192.0, 254.0, 224.0, 29.0, 112.0, 250.0, 160.0, 0.0, 0.0, 0.0, 1.6664082284003413E9, 0.0, 2022-10-21 20:10:28.400
188.0, -155486.2446172529, -165208.6946617001, 45804.893470393836, -92862.4681070409, 77657.04574072907, -78937.84540150707, 84341.37962357755, -128225.87826560477, -0.036000000000000004, 0.9420000000000001, -0.17200000000000001, 192.0, 0.0, 0.0, 0.0, 0.0, 0.0, 0.0, 0.0, 0.0, 0.0, 1.666408228400355E9, 0.0, 2022-10-21 20:10:28.400
189.0, -155505.82474539577, -165223.89384792972, 45795.952772611716, -92850.91225515751, 77656.84457502897, -78918.51114255324, 84370.2133739249, -128227.39818422774, -0.036000000000000004, 0.9420000000000001, -0.17200000000000001, 192.0, 0.0, 0.0, 0.0, 0.0, 0.0, 0.0, 0.0, 0.0, 0.0, 1.6664082284003656E9, 0.0, 2022-10-21 20:10:28.400
190.0, -155500.43797498202, -165205.63247270972, 45798.791444157534, -92851.5157522578, 77656.35283665096, -78908.78813371518, 84388.36299042261, -128225.09595454884, -0.036000000000000004, 0.9420000000000001, -0.17200000000000001, 192.0, 0.0, 0.0, 0.0, 0.0, 0.0, 0.0, 0.0, 0.0, 0.0, 1.6664082284003756E9, 0.0, 2022-10-21 20:10:28.400
191.0, -155489.32915798776, -165204.06785059784, 45804.42408376028, -92860.411746551, 77658.52095586312, -78929.30703512515, 84358.85868774161, -128227.53229469447, -0.036000000000000004, 0.9420000000000001, -0.17200000000000001, 192.0, 0.0, 0.0, 0.0, 0.0, 0.0, 0.0, 0.0, 0.0, 0.0, 1.6664082284003885E9, 0.0, 2022-10-21 20:10:28.400
192.0, -155497.9122278586, -165215.02020538095, 45793.270563277074, -92874.24747636885, 77653.84944127196, -78946.8308027781, 84333.08712638463, -128240.54100996746, -0.036000000000000004, 0.9420000000000001, -0.17200000000000001, 192.0, 0.0, 0.0, 0.0, 0.0, 0.0, 0.0, 0.0, 0.0, 0.0, 1.6664082284004E9, 0.0, 2022-10-21 20:10:28.400
193.0, -155481.41664045057, -165183.70541139907, 45812.00132513062, -92844.72082194338, 77670.38973216889, -78912.25265410575, 84378.30470541773, -128210.45556193062, -0.036000000000000004, 0.9420000000000001, -0.17200000000000001, 192.0, 0.0, 0.0, 0.0, 0.0, 0.0, 0.0, 0.0, 0.0, 0.0, 1.66640822840041E9, 0.0, 2022-10-21 20:10:28.400
194.0, -155481.3495852172, -165183.7277631435, 45813.38713328685, -92835.7130689279, 77677.36347643894, -78883.32949678059, 84412.88285409009, -128204.57705313887, -0.036000000000000004, 0.9420000000000001, -0.17200000000000001, 192.0, 0.0, 0.0, 0.0, 0.0, 0.0, 0.0, 0.0, 0.0, 0.0, 1.6664082284004197E9, 0.0, 2022-10-21 20:10:28.400
195.0, -155480.20964624998, -165191.4838184695, 45812.560118742, -92849.99583363484, 77676.42470317183, -78898.88631092147, 84385.85959504361, -128207.39337294023, -0.036000000000000004, 0.9420000000000001, -0.17200000000000001, 192.0, 0.0, 0.0, 0.0, 0.0, 0.0, 0.0, 0.0, 0.0, 0.0, 1.6664082284004297E9, 0.0, 2022-10-21 20:10:28.400
196.0, -155482.13189627315, -165196.42355399413, 45803.53001398206, -92868.167801877, 77664.80179605506, -78931.09517468157, 84348.35336784761, -128219.59742541284, -0.036000000000000004, 0.9420000000000001, -0.17200000000000001, 192.0, 0.0, 0.0, 0.0, 0.0, 0.0, 0.0, 0.0, 0.0, 0.0, 1.6664082284004428E9, 0.0, 2022-10-21 20:10:28.400
197.0, -155474.86757932516, -165188.0863533123, 45809.47557800717, -92854.57794124818, 77664.42181639932, -78924.14378215597, 84370.83922276965, -128217.8092858564, -0.032, 0.9440000000000001, -0.17, 192.0, 255.0, 0.0, 29.0, 128.0, 250.0, 176.0, 0.0, 0.0, 0.0, 1.6664082284004529E9, 0.0, 2022-10-21 20:10:28.400
198.0, -155480.23199799444, -165190.52269345793, 45802.27831629256, -92857.2154470939, 77656.84457502897, -78910.24099710477, 84394.44266491446, -128219.64212890175, -0.032, 0.9440000000000001, -0.17, 192.0, 0.0, 0.0, 0.0, 0.0, 0.0, 0.0, 0.0, 0.0, 0.0, 1.666408228400463E9, 0.0, 2022-10-21 20:10:28.400
199.0, -155487.42925970905, -165199.97748136253, 45797.137415067846, -92876.90733395902, 77649.69201680327, -78925.37312810101, 84367.86644075709, -128230.8180011294, -0.032, 0.9440000000000001, -0.17, 192.0, 0.0, 0.0, 0.0, 0.0, 0.0, 0.0, 0.0, 0.0, 0.0, 1.6664082284004729E9, 0.0, 2022-10-21 20:10:28.400
200.0, -155472.96768104646, -165179.77150437492, 45812.78363618656, -92870.78295597827, 77665.60645885544, -78938.76182302974, 84347.68281551395, -128219.0609835459, -0.032, 0.9440000000000001, -0.17, 192.0, 0.0, 0.0, 0.0, 0.0, 0.0, 0.0, 0.0, 0.0, 0.0, 1.6664082284005113E9, 0.0, 2022-10-21 20:10:28.400
201.0, -155478.98030030495, -165183.7277631435, 45802.68064769276, -92865.77616522029, 77661.49373787567, -78934.44793634987, 84355.23770513985, -128224.40305047072, -0.032, 0.9440000000000001, -0.17, 192.0, 0.0, 0.0, 0.0, 0.0, 0.0, 0.0, 0.0, 0.0, 0.0, 1.6664082284005213E9, 0.0, 2022-10-21 20:10:28.400
202.0, -155503.2989982723, -165220.16110660566, 45775.031539801545, -92884.64103754057, 77635.63276954088, -78931.36339561503, 84364.78190002227, -128249.59346647185, -0.032, 0.9440000000000001, -0.17, 192.0, 0.0, 0.0, 0.0, 0.0, 0.0, 0.0, 0.0, 0.0, 0.0, 1.6664082284005308E9, 0.0, 2022-10-21 20:10:28.400
203.0, -155469.70432635598, -165183.75011488798, 45814.34825829843, -92863.20571460793, 77670.99322926918, -78899.78038069968, 84395.24732771485, -128209.58384389685, -0.032, 0.9440000000000001, -0.17, 192.0, 0.0, 0.0, 0.0, 0.0, 0.0, 0.0, 0.0, 0.0, 0.0, 1.6664082284005406E9, 0.0, 2022-10-21 20:10:28.400
204.0, -155468.0950007552, -165178.29628924088, 45817.812778689, -92872.90637170152, 77674.45774965975, -78918.86877046451, 84368.1123099461, -128205.40406768372, -0.032, 0.9440000000000001, -0.17, 192.0, 0.0, 0.0, 0.0, 0.0, 0.0, 0.0, 0.0, 0.0, 0.0, 1.6664082284005513E9, 0.0, 2022-10-21 20:10:28.400
205.0, -155467.13387574363, -165178.65391715217, 45813.78946468705, -92858.13186861658, 77673.87660430392, -78922.132125155, 84370.16867043599, -128205.38171593926, -0.032, 0.9440000000000001, -0.17, 192.0, 0.0, 0.0, 0.0, 0.0, 0.0, 0.0, 0.0, 0.0, 0.0, 1.666408228400561E9, 0.0, 2022-10-21 20:10:28.400
206.0, -155473.68293686904, -165184.39831547718, 45806.34633378343, -92850.86755166859, 77667.32754317852, -78898.72984871028, 84399.71767660591, -128213.00366079852, -0.026000000000000002, 0.9400000000000001, -0.17400000000000002, 192.0, 255.0, 48.0, 29.0, 96.0, 250.0, 144.0, 0.0, 0.0, 0.0, 1.6664082284005709E9, 0.0, 2022-10-21 20:10:28.400
207.0, -155458.37199191714, -165159.78904483188, 45823.065438636004, -92850.39816503503, 77678.61517412844, -78874.45585423183, 84413.01696455681, -128195.52459663447, -0.026000000000000002, 0.9400000000000001, -0.17400000000000002, 192.0, 0.0, 0.0, 0.0, 0.0, 0.0, 0.0, 0.0, 0.0, 0.0, 1.6664082284005816E9, 0.0, 2022-10-21 20:10:28.400
208.0, -155443.68689581, -165149.68605633808, 45830.84384570645, -92861.68579598496, 77679.19631948428, -78899.73567721077, 84378.05883622871, -128191.4118756547, -0.026000000000000002, 0.9400000000000001, -0.17400000000000002, 192.0, 0.0, 0.0, 0.0, 0.0, 0.0, 0.0, 0.0, 0.0, 0.0, 1.6664082284005911E9, 0.0, 2022-10-21 20:10:28.400
209.0, -155475.51577991436, -165193.83075163732, 45802.16655757029, -92877.04144442576, 77655.41406338383, -78937.10779394004, 84342.54191428924, -128218.97157656809, -0.026000000000000002, 0.9400000000000001, -0.17400000000000002, 192.0, 0.0, 0.0, 0.0, 0.0, 0.0, 0.0, 0.0, 0.0, 0.0, 1.666408228400601E9, 0.0, 2022-10-21 20:10:28.400
210.0, -155499.0521668258, -165220.22816183904, 45780.59712417092, -92869.46420305541, 77644.50641208964, -78924.81433448962, 84365.00541746682, -128229.85687611782, -0.026000000000000002, 0.9400000000000001, -0.17400000000000002, 192.0, 0.0, 0.0, 0.0, 0.0, 0.0, 0.0, 0.0, 0.0, 0.0, 1.6664082284006107E9, 0.0, 2022-10-21 20:10:28.400
211.0, -155474.42054443606, -165186.05234456688, 45795.662199933795, -92866.7149384874, 77653.08948196047, -78909.05635464864, 84387.40186541103, -128218.8598178458, -0.026000000000000002, 0.9400000000000001, -0.17400000000000002, 192.0, 0.0, 0.0, 0.0, 0.0, 0.0, 0.0, 0.0, 0.0, 0.0, 1.6664082284006205E9, 0.0, 2022-10-21 20:10:28.400
212.0, -155457.0979424832, -165159.02908552042, 45813.208319331214, -92867.43019430999, 77667.72987457871, -78913.30318609515, 84372.53795534825, -128200.68784960364, -0.026000000000000002, 0.9400000000000001, -0.17400000000000002, 192.0, 0.0, 0.0, 0.0, 0.0, 0.0, 0.0, 0.0, 0.0, 0.0, 1.6664082284006312E9, 0.0, 2022-10-21 20:10:28.400
213.0, -155450.1018464687, -165151.25067844996, 45822.104313624426, -92852.63333948057, 77677.65404911686, -78921.59568328806, 84364.84895525563, -128193.49058788904, -0.026000000000000002, 0.9400000000000001, -0.17400000000000002, 192.0, 0.0, 0.0, 0.0, 0.0, 0.0, 0.0, 0.0, 0.0, 0.0, 1.6664082284006407E9, 0.0, 2022-10-21 20:10:28.400
214.0, -155462.95409953047, -165173.736533372, 45811.30842105251, -92848.11828710059, 77667.61811585643, -78908.54226452617, 84382.88681303106, -128207.75100085152, -0.026000000000000002, 0.9400000000000001, -0.17400000000000002, 192.0, 0.0, 0.0, 0.0, 0.0, 0.0, 0.0, 0.0, 0.0, 0.0, 1.6664082284006505E9, 0.0, 2022-10-21 20:10:28.400
215.0, -155476.52160841486, -165185.67236491112, 45800.46782499168, -92875.25330486934, 77649.71436854772, -78905.5247790247, 84384.0714554872, -128223.6207394148, -0.026000000000000002, 0.9400000000000001, -0.17400000000000002, 192.0, 0.0, 0.0, 0.0, 0.0, 0.0, 0.0, 0.0, 0.0, 0.0, 1.6664082284006703E9, 0.0, 2022-10-21 20:10:28.400
216.0, -155472.25242522388, -165172.70835312706, 45809.02854311807, -92887.63617129758, 77648.82029876951, -78926.44601183487, 84357.22701039637, -128220.4691434466, -0.032, 0.9420000000000001, -0.168, 192.0, 255.0, 0.0, 29.0, 112.0, 250.0, 192.0, 0.0, 0.0, 0.0, 1.6664082284006803E9, 0.0, 2022-10-21 20:10:28.400
217.0, -155455.57802386023, -165153.9328877846, 45835.73887774216, -92865.10561288663, 77674.2789357041, -78920.45574432085, 84363.03846395474, -128189.04259074244, -0.032, 0.9420000000000001, -0.168, 192.0, 0.0, 0.0, 0.0, 0.0, 0.0, 0.0, 0.0, 0.0, 0.0, 1.6664082284006903E9, 0.0, 2022-10-21 20:10:28.400
218.0, -155472.4982944129, -165179.25741425247, 45818.46097927821, -92874.71686300241, 77654.29647616106, -78920.50044780975, 84371.75564429232, -128206.36519269529, -0.032, 0.9420000000000001, -0.168, 192.0, 0.0, 0.0, 0.0, 0.0, 0.0, 0.0, 0.0, 0.0, 0.0, 1.6664082284007E9, 0.0, 2022-10-21 20:10:28.400
219.0, -155451.4876546249, -165158.85027156476, 45834.397773074845, -92864.14448787505, 77664.69003733278, -78888.33628753856, 84406.73612436488, -128192.7082768331, -0.032, 0.9420000000000001, -0.168, 192.0, 0.0, 0.0, 0.0, 0.0, 0.0, 0.0, 0.0, 0.0, 0.0, 1.6664082284007099E9, 0.0, 2022-10-21 20:10:28.400
220.0, -155454.66160233755, -165163.05239952236, 45826.127627626374, -92876.39324383656, 77661.76195880913, -78904.67541273539, 84381.21043219691, -128201.20193972612, -0.032, 0.9420000000000001, -0.168, 192.0, 0.0, 0.0, 0.0, 0.0, 0.0, 0.0, 0.0, 0.0, 0.0, 1.6664082284007192E9, 0.0, 2022-10-21 20:10:28.400
221.0, -155446.2349946779, -165158.20207097556, 45828.89924393884, -92873.64397926856, 77668.93686877929, -78926.93775021288, 84358.00932145231, -128195.94927977912, -0.032, 0.9420000000000001, -0.168, 192.0, 0.0, 0.0, 0.0, 0.0, 0.0, 0.0, 0.0, 0.0, 0.0, 1.666408228400729E9, 0.0, 2022-10-21 20:10:28.400
222.0, -155451.82293079174, -165166.1816437461, 45818.036296133556, -92867.36313907661, 77660.71142681973, -78929.19527640287, 84367.28529540126, -128204.35353569432, -0.032, 0.9420000000000001, -0.168, 192.0, 0.0, 0.0, 0.0, 0.0, 0.0, 0.0, 0.0, 0.0, 0.0, 1.6664082284007385E9, 0.0, 2022-10-21 20:10:28.400
223.0, -155452.0464482363, -165173.44596069408, 45822.79721770254, -92853.75092670333, 77671.14969148037, -78882.74835142474, 84408.43485694348, -128191.54598612142, -0.032, 0.9420000000000001, -0.168, 192.0, 0.0, 0.0, 0.0, 0.0, 0.0, 0.0, 0.0, 0.0, 0.0, 1.666408228400748E9, 0.0, 2022-10-21 20:10:28.400
224.0, -155457.61203260566, -165171.724876371, 45820.78556070156, -92870.425328067, 77670.8814705469, -78891.24201431776, 84392.20749046892, -128195.03285825645, -0.032, 0.9420000000000001, -0.168, 192.0, 0.0, 0.0, 0.0, 0.0, 0.0, 0.0, 0.0, 0.0, 0.0, 1.6664082284007585E9, 0.0, 2022-10-21 20:10:28.400
225.0, -155461.68005009653, -165170.65199263717, 45816.89635716633, -92881.98117995038, 77670.76971182463, -78927.1836194019, 84354.85772548411, -128199.79377982543, -0.032, 0.9420000000000001, -0.168, 192.0, 0.0, 0.0, 0.0, 0.0, 0.0, 0.0, 0.0, 0.0, 0.0, 1.666408228400768E9, 0.0, 2022-10-21 20:10:28.400
226.0, -155465.56925363175, -165175.34585897278, 45811.64369721934, -92875.63328452507, 77668.46748214573, -78929.0835176806, 84361.04915869822, -128201.09018100383, -0.034, 0.9440000000000001, -0.17200000000000001, 192.0, 254.0, 240.0, 29.0, 128.0, 250.0, 160.0, 0.0, 0.0, 0.0, 1.6664082284007776E9, 0.0, 2022-10-21 20:10:28.400
227.0, -155463.33407918623, -165169.46735018105, 45813.25302282012, -92862.8704384411, 77673.07194150353, -78895.89117716446, 84404.05391503024, -128196.39631466822, -0.034, 0.9440000000000001, -0.17200000000000001, 192.0, 0.0, 0.0, 0.0, 0.0, 0.0, 0.0, 0.0, 0.0, 0.0, 1.666408228400788E9, 0.0, 2022-10-21 20:10:28.400
228.0, -155478.689727627, -165190.0309550799, 45796.60097320092, -92884.55163056274, 77658.54330760757, -78901.81438944512, 84387.73714157786, -128210.07558227488, -0.034, 0.9440000000000001, -0.17200000000000001, 192.0, 0.0, 0.0, 0.0, 0.0, 0.0, 0.0, 0.0, 0.0, 0.0, 1.6664082284007976E9, 0.0, 2022-10-21 20:10:28.400
229.0, -155454.37102965964, -165164.79583558987, 45818.39392404484, -92866.04438615375, 77684.71720036474, -78904.83187494658, 84377.07535947268, -128186.51684361899, -0.034, 0.9440000000000001, -0.17200000000000001, 192.0, 0.0, 0.0, 0.0, 0.0, 0.0, 0.0, 0.0, 0.0, 0.0, 1.6664082284008071E9, 0.0, 2022-10-21 20:10:28.400
230.0, -155445.47503536643, -165160.52665239893, 45824.27243283659, -92851.67221446898, 77695.20016851427, -78896.06999112011, 84389.54763287875, -128173.61988706827, -0.034, 0.9440000000000001, -0.17200000000000001, 192.0, 0.0, 0.0, 0.0, 0.0, 0.0, 0.0, 0.0, 0.0, 0.0, 1.6664082284008408E9, 0.0, 2022-10-21 20:10:28.400
231.0, -155467.42444842155, -165183.8395218658, 45801.98774361465, -92859.89765642854, 77675.39652292688, -78896.00293588673, 84404.00921154133, -128196.15044547922, -0.034, 0.9440000000000001, -0.17200000000000001, 192.0, 0.0, 0.0, 0.0, 0.0, 0.0, 0.0, 0.0, 0.0, 0.0, 1.6664082284008503E9, 0.0, 2022-10-21 20:10:28.400
232.0, -155474.3981926916, -165186.4323242226, 45792.82352838797, -92878.89663921556, 77663.72891232121, -78896.33821205357, 84400.27647021729, -128206.34284095083, -0.034, 0.9440000000000001, -0.17200000000000001, 192.0, 0.0, 0.0, 0.0, 0.0, 0.0, 0.0, 0.0, 0.0, 0.0, 1.66640822840086E9, 0.0, 2022-10-21 20:10:28.400
233.0, -155471.22424497895, -165180.6432224087, 45795.01399934459, -92892.41944461102, 77663.55009836557, -78913.14672388395, 84365.85478375612, -128202.16306473769, -0.034, 0.9440000000000001, -0.17200000000000001, 192.0, 0.0, 0.0, 0.0, 0.0, 0.0, 0.0, 0.0, 0.0, 0.0, 1.6664082284008732E9, 0.0, 2022-10-21 20:10:28.400
234.0, -155460.00366926237, -165167.6792106246, 45807.061589606004, -92872.86166821262, 77676.60351712746, -78916.4771338078, 84361.16091742051, -128191.4118756547, -0.034, 0.9440000000000001, -0.17200000000000001, 192.0, 0.0, 0.0, 0.0, 0.0, 0.0, 0.0, 0.0, 0.0, 0.0, 1.6664082284009125E9, 0.0, 2022-10-21 20:10:28.400
235.0, -155449.63245983512, -165159.6325826207, 45811.464883263696, -92856.5672465047, 77682.45967417475, -78889.00683987222, 84401.50581616233, -128184.77340755146, -0.034, 0.9440000000000001, -0.17200000000000001, 192.0, 0.0, 0.0, 0.0, 0.0, 0.0, 0.0, 0.0, 0.0, 0.0, 1.6664082284009535E9, 0.0, 2022-10-21 20:10:28.400
236.0, -155450.03479123532, -165162.67241986663, 45800.33371452495, -92880.7741857498, 77665.29353443308, -78895.66765971991, 84400.58939463967, -128199.97259378107, -0.034, 0.9440000000000001, -0.168, 192.0, 254.0, 240.0, 29.0, 128.0, 250.0, 192.0, 0.0, 0.0, 0.0, 1.6664082284009948E9, 0.0, 2022-10-21 20:10:28.400
237.0, -155457.47792213893, -165164.61702163424, 45794.09757782192, -92895.03459871229, 77662.99130475418, -78915.96304368533, 84365.45245235592, -128208.57801539637, -0.034, 0.9440000000000001, -0.168, 192.0, 0.0, 0.0, 0.0, 0.0, 0.0, 0.0, 0.0, 0.0, 0.0, 1.666408228401038E9, 0.0, 2022-10-21 20:10:28.401
238.0, -155457.03088724983, -165162.87358556673, 45795.39397900033, -92894.96754347892, 77663.12541522091, -78925.10490716755, 84347.79457423624, -128202.27482345997, -0.034, 0.9440000000000001, -0.168, 192.0, 0.0, 0.0, 0.0, 0.0, 0.0, 0.0, 0.0, 0.0, 0.0, 1.6664082284010787E9, 0.0, 2022-10-21 20:10:28.401
239.0, -155462.35060243018, -165170.71904787055, 45790.52129870907, -92877.68964501497, 77660.21968844172, -78908.9222441819, 84373.11910070409, -128202.47598916007, -0.034, 0.9440000000000001, -0.168, 192.0, 0.0, 0.0, 0.0, 0.0, 0.0, 0.0, 0.0, 0.0, 0.0, 1.6664082284011197E9, 0.0, 2022-10-21 20:10:28.401
240.0, -155455.80154130477, -165165.68990536808, 45795.43868248924, -92872.74990949035, 77663.05835998754, -78889.94561313935, 84395.76141783732, -128202.38658218224, -0.034, 0.9440000000000001, -0.168, 192.0, 0.0, 0.0, 0.0, 0.0, 0.0, 0.0, 0.0, 0.0, 0.0, 1.666408228401152E9, 0.0, 2022-10-21 20:10:28.401
241.0, -155466.12804724314, -165176.46344619556, 45782.56407768298, -92895.43693011248, 77652.68715056029, -78916.05245066315, 84361.20562090942, -128214.76944861049, -0.034, 0.9440000000000001, -0.168, 192.0, 0.0, 0.0, 0.0, 0.0, 0.0, 0.0, 0.0, 0.0, 0.0, 1.6664082284011624E9, 0.0, 2022-10-21 20:10:28.401
242.0, -155461.16595997405, -165175.7258386285, 45784.419272472776, -92898.74498829186, 77650.04964471456, -78940.99699747527, 84335.54581827472, -128213.92008232119, -0.034, 0.9440000000000001, -0.168, 192.0, 0.0, 0.0, 0.0, 0.0, 0.0, 0.0, 0.0, 0.0, 0.0, 1.6664082284011729E9, 0.0, 2022-10-21 20:10:28.401
243.0, -155451.91233776955, -165167.4780449245, 45793.82935688846, -92870.58179027817, 77659.37032215242, -78919.24875012026, 84365.92183898948, -128202.16306473769, -0.034, 0.9440000000000001, -0.168, 192.0, 0.0, 0.0, 0.0, 0.0, 0.0, 0.0, 0.0, 0.0, 0.0, 1.666408228401183E9, 0.0, 2022-10-21 20:10:28.401
244.0, -155472.85592232418, -165181.35847823127, 45779.233667759145, -92876.30383685873, 77649.93788599229, -78904.4742470353, 84384.20556595392, -128217.09403003384, -0.034, 0.9440000000000001, -0.168, 192.0, 0.0, 0.0, 0.0, 0.0, 0.0, 0.0, 0.0, 0.0, 0.0, 1.6664082284011931E9, 0.0, 2022-10-21 20:10:28.401
245.0, -155458.17082621704, -165164.6840768676, 45796.66802843428, -92871.56526703421, 77664.80179605506, -78900.65209873344, 84381.00926649681, -128198.92206179167, -0.03, 0.9400000000000001, -0.168, 192.0, 255.0, 16.0, 29.0, 96.0, 250.0, 192.0, 0.0, 0.0, 0.0, 1.666408228401234E9, 0.0, 2022-10-21 20:10:28.401
246.0, -155459.57898611773, -165172.4401321936, 45790.09661556442, -92891.1230434326, 77660.08557797498, -78927.85417173555, 84348.68864401444, -128206.00756478401, -0.03, 0.9400000000000001, -0.168, 192.0, 0.0, 0.0, 0.0, 0.0, 0.0, 0.0, 0.0, 0.0, 0.0, 1.6664082284012454E9, 0.0, 2022-10-21 20:10:28.401
247.0, -155477.03569853734, -165190.5897486913, 45771.34350196642, -92898.2756016583, 77641.64538879936, -78943.2321719208, 84345.04530966823, -128223.88896034825, -0.03, 0.9400000000000001, -0.168, 192.0, 0.0, 0.0, 0.0, 0.0, 0.0, 0.0, 0.0, 0.0, 0.0, 1.666408228401256E9, 0.0, 2022-10-21 20:10:28.401
248.0, -155476.02987003684, -165183.12426604322, 45781.893525349326, -92877.2202583814, 77652.55304009355, -78910.06218314913, 84389.59233636766, -128215.19413175514, -0.03, 0.9400000000000001, -0.168, 192.0, 0.0, 0.0, 0.0, 0.0, 0.0, 0.0, 0.0, 0.0, 0.0, 1.6664082284012663E9, 0.0, 2022-10-21 20:10:28.401
249.0, -155471.17954149004, -165179.12330378572, 45788.62140043037, -92883.61285729562, 77653.69297906077, -78918.84641872006, 84376.9188972615, -128215.08237303286, -0.03, 0.9400000000000001, -0.168, 192.0, 0.0, 0.0, 0.0, 0.0, 0.0, 0.0, 0.0, 0.0, 0.0, 1.6664082284012768E9, 0.0, 2022-10-21 20:10:28.401
250.0, -155461.1436082296, -165172.10485602677, 45798.0091331016, -92886.74210151937, 77660.84553728647, -78943.27687540972, 84348.46512656989, -128215.61881489979, -0.03, 0.9400000000000001, -0.168, 192.0, 0.0, 0.0, 0.0, 0.0, 0.0, 0.0, 0.0, 0.0, 0.0, 1.666408228401287E9, 0.0, 2022-10-21 20:10:28.401
251.0, -155452.20291044746, -165170.7861031039, 45804.58054597146, -92882.42821483949, 77662.99130475418, -78926.15543915695, 84363.01611221029, -128201.87249205977, -0.03, 0.9400000000000001, -0.168, 192.0, 0.0, 0.0, 0.0, 0.0, 0.0, 0.0, 0.0, 0.0, 0.0, 1.666408228401297E9, 0.0, 2022-10-21 20:10:28.401
252.0, -155470.44193392302, -165183.8842253547, 45800.266659291585, -92878.673121771, 77661.24786868667, -78894.52772075268, 84398.89066206107, -128203.34770719383, -0.03, 0.9400000000000001, -0.168, 192.0, 0.0, 0.0, 0.0, 0.0, 0.0, 0.0, 0.0, 0.0, 0.0, 1.6664082284013076E9, 0.0, 2022-10-21 20:10:28.401
253.0, -155472.72181185745, -165179.54798693038, 45804.28997329354, -92882.49527007286, 77661.49373787567, -78893.18661608537, 84394.80029282573, -128208.57801539637, -0.03, 0.9400000000000001, -0.168, 192.0, 0.0, 0.0, 0.0, 0.0, 0.0, 0.0, 0.0, 0.0, 0.0, 1.666408228401318E9, 0.0, 2022-10-21 20:10:28.401
254.0, -155482.35541371768, -165189.15923704617, 45793.1588045548, -92909.27265993031, 77646.18279292379, -78937.46542185133, 84340.61966426608, -128228.20284702812, -0.03, 0.9400000000000001, -0.168, 192.0, 0.0, 0.0, 0.0, 0.0, 0.0, 0.0, 0.0, 0.0, 0.0, 1.6664082284013283E9, 0.0, 2022-10-21 20:10:28.401
255.0, -155471.06778276776, -165179.32446948581, 45803.53001398206, -92897.40388362455, 77655.05643547255, -78938.1806776739, 84344.77708873476, -128214.6576898882, -0.03, 0.9440000000000001, -0.176, 192.0, 255.0, 16.0, 29.0, 128.0, 250.0, 128.0, 0.0, 0.0, 0.0, 1.6664082284013405E9, 0.0, 2022-10-21 20:10:28.401
0.0, -155462.10473324117, -165171.70252462657, 45815.935232154756, -92871.87819145659, 77666.54523212257, -78898.14870335445, 84394.2191474699, -128194.5634716229, -0.03, 0.9440000000000001, -0.176, 192.0, 0.0, 0.0, 0.0, 0.0, 0.0, 0.0, 0.0, 0.0, 0.0, 1.6664082284013555E9, 0.0, 2022-10-21 20:10:28.401
1.0, -155474.21937873596, -165185.91823410013, 45809.47557800717, -92882.24940088385, 77661.94077276478, -78896.15939809792, 84395.29203120376, -128204.28648046094, -0.03, 0.9440000000000001, -0.176, 192.0, 0.0, 0.0, 0.0, 0.0, 0.0, 0.0, 0.0, 0.0, 0.0, 1.6664082284013665E9, 0.0, 2022-10-21 20:10:28.401
2.0, -155478.55561716028, -165195.5965394493, 45802.926516881766, -92903.68472381649, 77650.0272929701, -78933.10683168255, 84347.4592980694, -128219.37390796829, -0.03, 0.9440000000000001, -0.176, 192.0, 0.0, 0.0, 0.0, 0.0, 0.0, 0.0, 0.0, 0.0, 0.0, 1.6664082284013772E9, 0.0, 2022-10-21 20:10:28.401
3.0, -155494.47005921247, -165210.05811811186, 45790.834223131445, -92921.76728508083, 77636.61624629692, -78958.25254419477, 84324.32524255816, -128228.18049528367, -0.03, 0.9440000000000001, -0.176, 192.0, 0.0, 0.0, 0.0, 0.0, 0.0, 0.0, 0.0, 0.0, 0.0, 1.6664082284013877E9, 0.0, 2022-10-21 20:10:28.401
4.0, -155482.10954452868, -165194.76952490443, 45806.12281633888, -92899.23672666989, 77650.40727262585, -78921.0815931656, 84371.39801638103, -128218.50218993453, -0.03, 0.9440000000000001, -0.176, 192.0, 0.0, 0.0, 0.0, 0.0, 0.0, 0.0, 0.0, 0.0, 0.0, 1.666408228401407E9, 0.0, 2022-10-21 20:10:28.401
5.0, -155466.41861992105, -165180.71027764207, 45824.83122644797, -92884.61868579611, 77671.39556066938, -78882.68129619138, 84410.44651394445, -128193.04355299992, -0.03, 0.9440000000000001, -0.176, 192.0, 0.0, 0.0, 0.0, 0.0, 0.0, 0.0, 0.0, 0.0, 0.0, 1.6664082284014165E9, 0.0, 2022-10-21 20:10:28.401
6.0, -155478.51091367137, -165196.6917749276, 45804.42408376028, -92911.23961344238, 77655.2352494282, -78921.43922107687, 84361.13856567605, -128226.83939061635, -0.03, 0.9440000000000001, -0.176, 192.0, 0.0, 0.0, 0.0, 0.0, 0.0, 0.0, 0.0, 0.0, 0.0, 1.666408228401426E9, 0.0, 2022-10-21 20:10:28.401
7.0, -155490.37968997716, -165207.46531575505, 45797.18211855675, -92912.46895938742, 77653.69297906077, -78939.81235501914, 84338.4515450539, -128224.09012604835, -0.03, 0.9440000000000001, -0.176, 192.0, 0.0, 0.0, 0.0, 0.0, 0.0, 0.0, 0.0, 0.0, 0.0, 1.6664082284014354E9, 0.0, 2022-10-21 20:10:28.401
8.0, -155485.68582364154, -165195.26126328247, 45805.34050528294, -92882.29410437276, 77668.60159261247, -78903.22254934581, 84380.09284497415, -128205.80639908391, -0.03, 0.9440000000000001, -0.176, 192.0, 0.0, 0.0, 0.0, 0.0, 0.0, 0.0, 0.0, 0.0, 0.0, 1.666408228401445E9, 0.0, 2022-10-21 20:10:28.401
9.0, -155477.66154738207, -165182.3866584762, 45806.569851227985, -92880.26009562732, 77669.8309385575, -78884.76000842571, 84405.52913016429, -128199.97259378107, -0.024, 0.9480000000000001, -0.17, 192.0, 255.0, 64.0, 29.0, 160.0, 250.0, 176.0, 0.0, 0.0, 0.0, 1.6664082284014544E9, 0.0, 2022-10-21 20:10:28.401
10.0, -155476.9909950484, -165183.95128058808, 45802.03244710356, -92897.44858711345, 77665.22647919971, -78912.40911631694, 84370.12396694708, -128206.34284095083, -0.024, 0.9480000000000001, -0.17, 192.0, 0.0, 0.0, 0.0, 0.0, 0.0, 0.0, 0.0, 0.0, 0.0, 1.6664082284014645E9, 0.0, 2022-10-21 20:10:28.401
11.0, -155477.95212005998, -165186.00764107797, 45800.37841801386, -92899.2814301588, 77668.53453737909, -78931.51985782622, 84344.15123989001, -128207.23691072904, -0.024, 0.9480000000000001, -0.17, 192.0, 0.0, 0.0, 0.0, 0.0, 0.0, 0.0, 0.0, 0.0, 0.0, 1.6664082284014742E9, 0.0, 2022-10-21 20:10:28.401
12.0, -155474.97933804744, -165180.4867601975, 45800.08784533595, -92881.46708982791, 77674.0330665151, -78916.90181695245, 84371.95680999242, -128203.61592812728, -0.024, 0.9480000000000001, -0.17, 192.0, 0.0, 0.0, 0.0, 0.0, 0.0, 0.0, 0.0, 0.0, 0.0, 1.6664082284014843E9, 0.0, 2022-10-21 20:10:28.401
13.0, -155509.22221055298, -165216.6965862151, 45760.65936811679, -92911.55253786476, 77632.88350497288, -78933.10683168255, 84358.8139842527, -128245.88307689228, -0.024, 0.9480000000000001, -0.17, 192.0, 0.0, 0.0, 0.0, 0.0, 0.0, 0.0, 0.0, 0.0, 0.0, 1.6664082284014935E9, 0.0, 2022-10-21 20:10:28.401
14.0, -155482.02013755086, -165192.82492313682, 45780.77593812656, -92892.8217760112, 77652.19541218226, -78918.28762510869, 84357.07054818518, -128231.89088486326, -0.024, 0.9480000000000001, -0.17, 192.0, 0.0, 0.0, 0.0, 0.0, 0.0, 0.0, 0.0, 0.0, 0.0, 1.666408228401503E9, 0.0, 2022-10-21 20:10:28.401
15.0, -155460.13777972912, -165168.39446644718, 45802.77005467058, -92884.17165090701, 77672.96018278124, -78906.73177322528, 84354.54480106173, -128190.58486110985, -0.024, 0.9480000000000001, -0.17, 192.0, 0.0, 0.0, 0.0, 0.0, 0.0, 0.0, 0.0, 0.0, 0.0, 1.6664082284015129E9, 0.0, 2022-10-21 20:10:28.401
16.0, -155453.11933197014, -165159.25260296496, 45814.460017020705, -92862.669272741, 77686.70650562126, -78893.87952016348, 84378.32705716218, -128180.3030586604, -0.024, 0.9480000000000001, -0.17, 192.0, 0.0, 0.0, 0.0, 0.0, 0.0, 0.0, 0.0, 0.0, 0.0, 1.6664082284015224E9, 0.0, 2022-10-21 20:10:28.401
17.0, -155478.30974797127, -165187.8404841233, 45787.68262716325, -92866.2232001094, 77666.65699084484, -78888.38099102747, 84389.99466776785, -128214.97061431059, -0.024, 0.9480000000000001, -0.17, 192.0, 0.0, 0.0, 0.0, 0.0, 0.0, 0.0, 0.0, 0.0, 0.0, 1.6664082284015317E9, 0.0, 2022-10-21 20:10:28.401
18.0, -155482.4001172066, -165195.5965394493, 45777.66904564727, -92883.81402299572, 77654.60940058345, -78902.70845922333, 84367.97819947937, -128220.7150126356, -0.026000000000000002, 0.934, -0.17, 192.0, 255.0, 48.0, 29.0, 48.0, 250.0, 176.0, 0.0, 0.0, 0.0, 1.6664082284015412E9, 0.0, 2022-10-21 20:10:28.401
19.0, -155478.30974797127, -165191.8861498697, 45777.22201075817, -92882.13764216157, 77656.7328163067, -78931.54220957067, 84332.41657405098, -128222.48080044756, -0.026000000000000002, 0.934, -0.17, 192.0, 0.0, 0.0, 0.0, 0.0, 0.0, 0.0, 0.0, 0.0, 0.0, 1.6664082284015615E9, 0.0, 2022-10-21 20:10:28.401
20.0, -155485.28349224135, -165194.27778652642, 45772.75166186711, -92874.98508393587, 77656.62105758442, -78926.35660485705, 84335.99285316383, -128221.38556496926, -0.026000000000000002, 0.934, -0.17, 192.0, 0.0, 0.0, 0.0, 0.0, 0.0, 0.0, 0.0, 0.0, 0.0, 1.6664082284015727E9, 0.0, 2022-10-21 20:10:28.401
21.0, -155496.1911435355, -165202.1008970858, 45766.73904260863, -92873.5769240352, 77651.2342871707, -78896.60643298703, 84371.28625765875, -128221.25145450253, -0.026000000000000002, 0.934, -0.17, 192.0, 0.0, 0.0, 0.0, 0.0, 0.0, 0.0, 0.0, 0.0, 0.0, 1.6664082284015825E9, 0.0, 2022-10-21 20:10:28.401
22.0, -155488.97153007647, -165196.98234760552, 45771.76818511107, -92869.44185131096, 77655.52582210611, -78890.370296284, 84374.77312979379, -128222.95018708114, -0.026000000000000002, 0.934, -0.17, 192.0, 0.0, 0.0, 0.0, 0.0, 0.0, 0.0, 0.0, 0.0, 0.0, 1.666408228401592E9, 0.0, 2022-10-21 20:10:28.401
23.0, -155466.15039898758, -165171.61311764875, 45795.170461555776, -92861.64109249605, 77673.45192115927, -78897.36639229851, 84359.14926041952, -128203.50416940502, -0.026000000000000002, 0.934, -0.17, 192.0, 0.0, 0.0, 0.0, 0.0, 0.0, 0.0, 0.0, 0.0, 0.0, 1.6664082284016025E9, 0.0, 2022-10-21 20:10:28.401
24.0, -155468.81025657777, -165173.9376990721, 45786.52033645158, -92875.09684265815, 77660.71142681973, -78917.01357567473, 84343.95007418991, -128213.54010266544, -0.026000000000000002, 0.934, -0.17, 192.0, 0.0, 0.0, 0.0, 0.0, 0.0, 0.0, 0.0, 0.0, 0.0, 1.6664082284016123E9, 0.0, 2022-10-21 20:10:28.401
25.0, -155478.91324507157, -165181.26907125345, 45784.620438172875, -92859.60708375063, 77658.96799075222, -78897.99224114326, 84376.98595249486, -128212.13194276475, -0.026000000000000002, 0.934, -0.17, 192.0, 0.0, 0.0, 0.0, 0.0, 0.0, 0.0, 0.0, 0.0, 0.0, 1.666408228401622E9, 0.0, 2022-10-21 20:10:28.401
26.0, -155488.2562742539, -165187.12522830072, 45784.53103119505, -92838.57409221817, 77671.99905776967, -78868.66675241789, 84397.14722599354, -128212.22134974258, -0.026000000000000002, 0.934, -0.17, 192.0, 0.0, 0.0, 0.0, 0.0, 0.0, 0.0, 0.0, 0.0, 0.0, 1.6664082284016316E9, 0.0, 2022-10-21 20:10:28.401
27.0, -155472.83357057974, -165172.61894614925, 45795.371627255874, -92833.99198460484, 77683.42079918634, -78874.43350248737, 84378.77409205129, -128197.3574396798, -0.026000000000000002, 0.934, -0.17, 192.0, 0.0, 0.0, 0.0, 0.0, 0.0, 0.0, 0.0, 0.0, 0.0, 1.6664082284016411E9, 0.0, 2022-10-21 20:10:28.401
28.0, -155485.90934108608, -165186.2982137559, 45775.50092643511, -92849.99583363484, 77660.66672333083, -78915.6724710074, 84338.76446947629, -128218.99392831254, -0.03, 0.93, -0.17400000000000002, 192.0, 255.0, 16.0, 29.0, 16.0, 250.0, 144.0, 0.0, 0.0, 0.0, 1.6664082284016511E9, 0.0, 2022-10-21 20:10:28.401
29.0, -155475.85105608118, -165182.61017592077, 45782.72053989417, -92839.33405152966, 77657.85040352946, -78900.02624988869, 84367.17353667898, -128218.50218993453, -0.03, 0.93, -0.17400000000000002, 192.0, 0.0, 0.0, 0.0, 0.0, 0.0, 0.0, 0.0, 0.0, 0.0, 1.6664082284016616E9, 0.0, 2022-10-21 20:10:28.401
30.0, -155475.33696595873, -165180.5314636864, 45788.57669694146, -92827.912310113, 77670.09915949097, -78867.14683379493, 84399.82943532818, -128207.50513166252, -0.03, 0.93, -0.17400000000000002, 192.0, 0.0, 0.0, 0.0, 0.0, 0.0, 0.0, 0.0, 0.0, 0.0, 1.6664082284016712E9, 0.0, 2022-10-21 20:10:28.401
31.0, -155481.7966201063, -165181.8949200982, 45785.33569399544, -92840.69750794143, 77666.8805082894, -78888.0680666051, 84369.58752508015, -128211.03670728645, -0.03, 0.93, -0.17400000000000002, 192.0, 0.0, 0.0, 0.0, 0.0, 0.0, 0.0, 0.0, 0.0, 0.0, 1.6664082284016805E9, 0.0, 2022-10-21 20:10:28.401
32.0, -155471.11248625666, -165171.8813385822, 45794.2093365442, -92828.67226942448, 77678.0340287726, -78895.75706669773, 84360.42330985348, -128192.1047797328, -0.03, 0.93, -0.17400000000000002, 192.0, 0.0, 0.0, 0.0, 0.0, 0.0, 0.0, 0.0, 0.0, 0.0, 1.6664082284016905E9, 0.0, 2022-10-21 20:10:28.401
33.0, -155479.67320438306, -165181.76080963147, 45787.95084809671, -92810.41089420448, 77675.57533688252, -78882.34602002455, 84379.82462404069, -128194.18349196715, -0.03, 0.93, -0.17400000000000002, 192.0, 0.0, 0.0, 0.0, 0.0, 0.0, 0.0, 0.0, 0.0, 0.0, 1.6664082284017E9, 0.0, 2022-10-21 20:10:28.401
34.0, -155474.3981926916, -165172.37307696024, 45792.04121733204, -92803.75007435681, 77679.50924390665, -78861.0671593031, 84405.75264760884, -128190.3613436653, -0.03, 0.93, -0.17400000000000002, 192.0, 0.0, 0.0, 0.0, 0.0, 0.0, 0.0, 0.0, 0.0, 0.0, 1.666408228401719E9, 0.0, 2022-10-21 20:10:28.401
35.0, -155464.71988734245, -165163.00769603346, 45793.33761851044, -92822.30202225472, 77675.03889501559, -78877.7192089223, 84380.80810079671, -128198.29621294692, -0.03, 0.93, -0.17400000000000002, 192.0, 0.0, 0.0, 0.0, 0.0, 0.0, 0.0, 0.0, 0.0, 0.0, 1.6664082284017305E9, 0.0, 2022-10-21 20:10:28.401
1.0, -155818.79387125897, -166608.4726582137, 62035.724465337335, -75120.99446308547, 78659.76734873859, -89824.37429718666, 84547.7532801334, -127631.74654623825, -0.03, 0.93, -0.17400000000000002, 192.0, 0.0, 0.0, 0.0, 0.0, 0.0, 0.0, 0.0, 0.0, 0.0, 1.6664082285158749E9, 0.0, 2022-10-21 20:10:28.515
2.0, -155809.71906301012, -166601.27539649908, 62043.88285206352, -75120.23450377399, 78666.9199069643, -89837.07008803728, 84526.42971592305, -127624.59398801257, -0.03, 0.93, -0.17400000000000002, 192.0, 0.0, 0.0, 0.0, 0.0, 0.0, 0.0, 0.0, 0.0, 0.0, 1.6664082289980366E9, 0.0, 2022-10-21 20:10:28.998
3.0, -155812.80360374495, -166605.23165526768, 62040.910070050966, -75117.55229443936, 78662.36015109542, -89841.09340203923, 84527.68141361255, -127629.13139213699, -0.03, 0.93, -0.17400000000000002, 192.0, 0.0, 0.0, 0.0, 0.0, 0.0, 0.0, 0.0, 0.0, 0.0, 1.66640822899814E9, 0.0, 2022-10-21 20:10:28.998
4.0, -155818.03391194748, -166608.56206519154, 62033.73516008081, -75124.23546603149, 78653.33004633547, -89836.04190779233, 84548.17796327805, -127636.90979920744, -0.03, 0.93, -0.17400000000000002, 192.0, 0.0, 0.0, 0.0, 0.0, 0.0, 0.0, 0.0, 0.0, 0.0, 1.6664082289981675E9, 0.0, 2022-10-21 20:10:28.998
5.0, -155829.6791708087, -166616.54163796207, 62021.44170063039, -75142.36273078475, 78639.51666826209, -89853.52097195637, 84532.12941075915, -127651.55019182566, -0.03, 0.93, -0.17400000000000002, 192.0, 0.0, 0.0, 0.0, 0.0, 0.0, 0.0, 0.0, 0.0, 0.0, 1.6664082289982002E9, 0.0, 2022-10-21 20:10:28.998
6.0, -155805.94161819716, -166592.73703011716, 62041.871195062544, -75125.28599802089, 78659.92381094978, -89839.57348341626, 84525.73681184492, -127629.44431655935, -0.03, 0.93, -0.17400000000000002, 192.0, 0.0, 0.0, 0.0, 0.0, 0.0, 0.0, 0.0, 0.0, 0.0, 1.6664082289982405E9, 0.0, 2022-10-21 20:10:28.998
7.0, -155806.34394959736, -166595.08396328497, 62044.821625330645, -75118.7816403844, 78667.88103197588, -89829.62695713365, 84527.9049310571, -127626.04685140215, -0.004, 0.9460000000000001, -0.092, 192.0, 255.0, 224.0, 29.0, 144.0, 253.0, 32.0, 0.0, 0.0, 0.0, 1.6664082289982686E9, 0.0, 2022-10-21 20:10:28.998
8.0, -155816.40223460225, -166603.66703315583, 62037.691418849405, -75111.07028854731, 78661.51078480612, -89824.64251812012, 84549.42966096755, -127633.3782235835, -0.004, 0.9460000000000001, -0.092, 192.0, 0.0, 0.0, 0.0, 0.0, 0.0, 0.0, 0.0, 0.0, 0.0, 1.6664082289983008E9, 0.0, 2022-10-21 20:10:28.998
9.0, -155807.95327519815, -166595.12866677388, 62045.06749451965, -75113.50662869295, 78664.23769762967, -89818.98752677292, 84560.94080936204, -127621.88942693347, -0.004, 0.9460000000000001, -0.092, 192.0, 0.0, 0.0, 0.0, 0.0, 0.0, 0.0, 0.0, 0.0, 0.0, 1.6664082289983299E9, 0.0, 2022-10-21 20:10:28.998
10.0, -155824.11358643934, -166613.7700216496, 62026.917878021944, -75147.6377424762, 78641.99771189663, -89850.2576172659, 84517.95840477449, -127642.85536323255, -0.004, 0.9460000000000001, -0.092, 192.0, 0.0, 0.0, 0.0, 0.0, 0.0, 0.0, 0.0, 0.0, 0.0, 1.6664082289983685E9, 0.0, 2022-10-21 20:10:28.998
11.0, -155817.60922880284, -166605.9692628347, 62032.48346239132, -75138.60763771625, 78645.2163630982, -89852.47043996697, 84512.88455878313, -127637.4238893299, -0.004, 0.9460000000000001, -0.092, 192.0, 0.0, 0.0, 0.0, 0.0, 0.0, 0.0, 0.0, 0.0, 0.0, 1.6664082289983969E9, 0.0, 2022-10-21 20:10:28.998
12.0, -155820.73847302658, -166610.86429487044, 62029.510680378764, -75129.28696027839, 78643.69644447524, -89846.32371024176, 84539.14785851812, -127635.4792875623, -0.004, 0.9460000000000001, -0.092, 192.0, 0.0, 0.0, 0.0, 0.0, 0.0, 0.0, 0.0, 0.0, 0.0, 1.6664082289984243E9, 0.0, 2022-10-21 20:10:28.998
13.0, -155820.13497592628, -166610.1713907923, 62027.18609895541, -75129.48812597849, 78644.05407238651, -89844.04383230733, 84548.11090804469, -127637.33448235209, -0.004, 0.9460000000000001, -0.092, 192.0, 0.0, 0.0, 0.0, 0.0, 0.0, 0.0, 0.0, 0.0, 0.0, 1.6664082289984527E9, 0.0, 2022-10-21 20:10:28.998
14.0, -155822.37015037183, -166613.83707688298, 62022.53693610871, -75140.4851842505, 78640.83542118495, -89851.9116463556, 84518.18192221904, -127645.76109001173, -0.004, 0.9460000000000001, -0.092, 192.0, 0.0, 0.0, 0.0, 0.0, 0.0, 0.0, 0.0, 0.0, 0.0, 1.6664082289985712E9, 0.0, 2022-10-21 20:10:28.998
15.0, -155812.80360374495, -166602.43768721077, 62032.41640715795, -75139.09937609427, 78645.35047356492, -89846.74839338641, 84510.73879131542, -127634.0711276616, -0.004, 0.9460000000000001, -0.092, 192.0, 0.0, 0.0, 0.0, 0.0, 0.0, 0.0, 0.0, 0.0, 0.0, 1.6664082289985995E9, 0.0, 2022-10-21 20:10:28.998
16.0, -155822.10192943836, -166612.38421349338, 62023.83333728711, -75130.3821957567, 78642.57885725246, -89843.68620439604, 84527.97198629046, -127644.79996500016, -0.004, 0.9460000000000001, -0.092, 192.0, 0.0, 0.0, 0.0, 0.0, 0.0, 0.0, 0.0, 0.0, 0.0, 1.666408228998628E9, 0.0, 2022-10-21 20:10:28.998
17.0, -155826.01348471805, -166616.34047226197, 62020.637037830005, -75135.36663477024, 78634.308711804, -89843.12741078465, 84534.14106776012, -127653.91947673792, 0.006, 0.9540000000000001, -0.08600000000000001, 192.0, 0.0, 48.0, 29.0, 208.0, 253.0, 80.0, 0.0, 0.0, 0.0, 1.666408228998656E9, 0.0, 2022-10-21 20:10:28.998
18.0, -155818.61505730334, -166608.45030646925, 62026.850822788576, -75140.57459122832, 78637.14738334983, -89861.76876566038, 84511.58815760472, -127662.10021520857, 0.006, 0.9540000000000001, -0.08600000000000001, 192.0, 0.0, 0.0, 0.0, 0.0, 0.0, 0.0, 0.0, 0.0, 0.0, 1.6664082289986866E9, 0.0, 2022-10-21 20:10:28.998
19.0, -155813.36239735634, -166604.89637910086, 62030.360046668065, -75146.5425069979, 78636.43212752725, -89885.0145798939, 84485.66013403656, -127664.49185186528, 0.006, 0.9540000000000001, -0.08600000000000001, 192.0, 0.0, 0.0, 0.0, 0.0, 0.0, 0.0, 0.0, 0.0, 0.0, 1.666408228998714E9, 0.0, 2022-10-21 20:10:28.998
20.0, -155805.78515598597, -166597.76617261962, 62045.738046853316, -75125.35305325426, 78648.65853174431, -89849.65412016561, 84514.695050084, -127644.3305783666, 0.006, 0.9540000000000001, -0.08600000000000001, 192.0, 0.0, 0.0, 0.0, 0.0, 0.0, 0.0, 0.0, 0.0, 0.0, 1.6664082289987411E9, 0.0, 2022-10-21 20:10:28.998
21.0, -155809.45084207665, -166602.34828023295, 62048.867291077055, -75119.09456480677, 78653.6653225023, -89824.70957335348, 84547.5074109444, -127642.60949404354, 0.006, 0.9540000000000001, -0.08600000000000001, 192.0, 0.0, 0.0, 0.0, 0.0, 0.0, 0.0, 0.0, 0.0, 0.0, 1.6664082289987688E9, 0.0, 2022-10-21 20:10:28.998
22.0, -155808.46736532063, -166600.00134706515, 62052.75649461228, -75132.7291289245, 78651.49720329013, -89838.00886130439, 84530.83300958073, -127646.14106966747, 0.006, 0.9540000000000001, -0.08600000000000001, 192.0, 0.0, 0.0, 0.0, 0.0, 0.0, 0.0, 0.0, 0.0, 0.0, 1.6664082289987967E9, 0.0, 2022-10-21 20:10:28.998
23.0, -155809.45084207665, -166605.00813782314, 62051.37068645605, -75139.21113481655, 78650.7148922342, -89850.92816959956, 84503.63093657863, -127650.76788076972, 0.006, 0.9540000000000001, -0.08600000000000001, 192.0, 0.0, 0.0, 0.0, 0.0, 0.0, 0.0, 0.0, 0.0, 0.0, 1.6664082289988244E9, 0.0, 2022-10-21 20:10:28.998
24.0, -155827.24283066308, -166624.09652758797, 62033.064607747154, -75142.92152439612, 78637.21443858319, -89859.80181214832, 84503.31801215626, -127661.58612508609, 0.006, 0.9540000000000001, -0.08600000000000001, 192.0, 0.0, 0.0, 0.0, 0.0, 0.0, 0.0, 0.0, 0.0, 0.0, 1.6664082289988525E9, 0.0, 2022-10-21 20:10:28.998
25.0, -155809.29437986546, -166604.33758548947, 62048.57671839914, -75123.20728578654, 78649.17262186678, -89833.82908509125, 84544.53462893184, -127642.05070043216, 0.006, 0.9540000000000001, -0.08600000000000001, 192.0, 0.0, 0.0, 0.0, 0.0, 0.0, 0.0, 0.0, 0.0, 0.0, 1.6664082289988792E9, 0.0, 2022-10-21 20:10:28.998
26.0, -155806.20983913064, -166604.31523374503, 62053.8964335795, -75130.3821957567, 78652.59243876845, -89836.04190779233, 84538.16438176208, -127637.64740677446, 0.006, 0.9540000000000001, -0.08600000000000001, 192.0, 0.0, 0.0, 0.0, 0.0, 0.0, 0.0, 0.0, 0.0, 0.0, 1.6664082289989064E9, 0.0, 2022-10-21 20:10:28.998
27.0, -155808.46736532063, -166604.13641978937, 62052.6000324011, -75145.42491977512, 78649.03851140005, -89852.00105333341, 84510.73879131542, -127645.09053767807, -0.002, 0.966, -0.08600000000000001, 192.0, 255.0, 240.0, 30.0, 48.0, 253.0, 80.0, 0.0, 0.0, 0.0, 1.6664082289989338E9, 0.0, 2022-10-21 20:10:28.998
28.0, -155810.32256011042, -166605.74574539016, 62051.19187250041, -75146.743672698, 78640.32133106249, -89854.77266964587, 84509.196520948, -127646.0293109452, -0.002, 0.966, -0.08600000000000001, 192.0, 0.0, 0.0, 0.0, 0.0, 0.0, 0.0, 0.0, 0.0, 0.0, 1.6664082289989662E9, 0.0, 2022-10-21 20:10:28.998
29.0, -155814.99407470156, -166609.90316985885, 62049.649602132995, -75138.1382510827, 78636.74505194963, -89853.02923357836, 84533.62697763766, -127647.0798429346, -0.002, 0.966, -0.08600000000000001, 192.0, 0.0, 0.0, 0.0, 0.0, 0.0, 0.0, 0.0, 0.0, 0.0, 1.666408228998994E9, 0.0, 2022-10-21 20:10:28.998
30.0, -155815.15053691276, -166608.53971344707, 62053.762323112765, -75135.6795591926, 78646.49041253215, -89846.79309687532, 84539.93016957404, -127644.26352313322, -0.002, 0.966, -0.08600000000000001, 192.0, 0.0, 0.0, 0.0, 0.0, 0.0, 0.0, 0.0, 0.0, 0.0, 1.6664082289990475E9, 0.0, 2022-10-21 20:10:28.999
31.0, -155825.8346707624, -166619.53677171908, 62043.905203807975, -75148.10712910976, 78642.24358108564, -89855.0632423238, 84509.53179711483, -127653.00305521526, -0.002, 0.966, -0.08600000000000001, 192.0, 0.0, 0.0, 0.0, 0.0, 0.0, 0.0, 0.0, 0.0, 0.0, 1.666408228999077E9, 0.0, 2022-10-21 20:10:28.999
32.0, -155812.87065897833, -166606.10337330145, 62057.47271269235, -75123.78843114238, 78655.85579345892, -89839.5511316718, 84517.6007768632, -127635.81456372913, -0.002, 0.966, -0.08600000000000001, 192.0, 0.0, 0.0, 0.0, 0.0, 0.0, 0.0, 0.0, 0.0, 0.0, 1.6664082289991047E9, 0.0, 2022-10-21 20:10:28.999
33.0, -155817.72098752513, -166611.73601290418, 62054.34346846861, -75109.21509375752, 78657.37571208188, -89828.26350072188, 84548.8038121228, -127634.4734590618, -0.002, 0.966, -0.08600000000000001, 192.0, 0.0, 0.0, 0.0, 0.0, 0.0, 0.0, 0.0, 0.0, 0.0, 1.6664082289991322E9, 0.0, 2022-10-21 20:10:28.999
34.0, -155822.9736474721, -166614.64173968337, 62045.0451427752, -75117.86521886173, 78649.15027012232, -89840.17698051655, 84549.11673654518, -127642.07305217661, -0.002, 0.966, -0.08600000000000001, 192.0, 0.0, 0.0, 0.0, 0.0, 0.0, 0.0, 0.0, 0.0, 0.0, 1.6664082289991593E9, 0.0, 2022-10-21 20:10:28.999
35.0, -155816.44693809116, -166609.25496926965, 62047.01209628727, -75122.29086426388, 78644.568162509, -89861.41113774909, 84517.71253558547, -127642.56479055462, -0.002, 0.966, -0.08600000000000001, 192.0, 0.0, 0.0, 0.0, 0.0, 0.0, 0.0, 0.0, 0.0, 0.0, 1.666408228999176E9, 0.0, 2022-10-21 20:10:28.999
36.0, -155821.69959803816, -166617.63687344038, 62046.7438753538, -75120.12274505172, 78646.87039218789, -89854.16917254557, 84514.13625647263, -127639.16732539741, 0.002, 0.966, -0.07200000000000001, 192.0, 0.0, 16.0, 30.0, 48.0, 253.0, 192.0, 0.0, 0.0, 0.0, 1.6664082289991848E9, 0.0, 2022-10-21 20:10:28.999
37.0, -155815.44110959067, -166613.3676902494, 62058.65735514848, -75103.44834368805, 78651.13957537885, -89833.27029147987, 84547.48505919994, -127626.76210722473, 0.002, 0.966, -0.07200000000000001, 192.0, 0.0, 0.0, 0.0, 0.0, 0.0, 0.0, 0.0, 0.0, 0.0, 1.666408228999194E9, 0.0, 2022-10-21 20:10:28.999
38.0, -155815.61992354633, -166613.9264838608, 62051.5495004117, -75094.32883195029, 78651.69836899023, -89830.27515772286, 84556.67162617107, -127631.61243577153, 0.002, 0.966, -0.07200000000000001, 192.0, 0.0, 0.0, 0.0, 0.0, 0.0, 0.0, 0.0, 0.0, 0.0, 1.6664082289992025E9, 0.0, 2022-10-21 20:10:28.999
39.0, -155818.25742939205, -166613.94883560526, 62044.93338405292, -75098.8215325858, 78651.78777596806, -89849.34119574324, 84524.90979730008, -127645.64933128946, 0.002, 0.966, -0.07200000000000001, 192.0, 0.0, 0.0, 0.0, 0.0, 0.0, 0.0, 0.0, 0.0, 0.0, 1.6664082289992113E9, 0.0, 2022-10-21 20:10:28.999
40.0, -155833.54602259948, -166628.4774695012, 62031.254116446275, -75111.71848913652, 78636.6556449718, -89878.6666844686, 84486.86712823715, -127660.66970356343, 0.002, 0.966, -0.07200000000000001, 192.0, 0.0, 0.0, 0.0, 0.0, 0.0, 0.0, 0.0, 0.0, 0.0, 1.6664082289992197E9, 0.0, 2022-10-21 20:10:28.999
41.0, -155826.4828713516, -166623.6718444433, 62040.10540725058, -75084.80698881233, 78643.02589214157, -89867.42375700758, 84511.96813726045, -127648.71152027983, 0.002, 0.966, -0.07200000000000001, 192.0, 0.0, 0.0, 0.0, 0.0, 0.0, 0.0, 0.0, 0.0, 0.0, 1.6664082289992285E9, 0.0, 2022-10-21 20:10:28.999
42.0, -155817.29630438046, -166614.7311466612, 62053.18117775693, -75069.98778223846, 78652.65949400181, -89850.14585854362, 84538.27614048436, -127639.23438063079, 0.002, 0.966, -0.07200000000000001, 192.0, 0.0, 0.0, 0.0, 0.0, 0.0, 0.0, 0.0, 0.0, 0.0, 1.666408228999237E9, 0.0, 2022-10-21 20:10:28.999
43.0, -155816.84926949136, -166613.1218210604, 62058.36678247056, -75070.74774154995, 78659.90145920533, -89851.4646114665, 84526.27325371186, -127632.73002299429, 0.002, 0.966, -0.07200000000000001, 192.0, 0.0, 0.0, 0.0, 0.0, 0.0, 0.0, 0.0, 0.0, 0.0, 1.6664082289992456E9, 0.0, 2022-10-21 20:10:28.999
44.0, -155810.85900197734, -166604.76226863413, 62068.179198286445, -75060.62240131169, 78671.74788376664, -89839.3499659717, 84518.4501431525, -127622.40351705594, 0.002, 0.966, -0.07200000000000001, 192.0, 0.0, 0.0, 0.0, 0.0, 0.0, 0.0, 0.0, 0.0, 0.0, 1.6664082289992542E9, 0.0, 2022-10-21 20:10:28.999
45.0, -155810.92605721072, -166607.15390529085, 62066.68163140793, -75046.67491277157, 78670.49618607714, -89835.28194848084, 84531.23534098093, -127621.57650251109, 0.002, 0.966, -0.07200000000000001, 192.0, 0.0, 0.0, 0.0, 0.0, 0.0, 0.0, 0.0, 0.0, 0.0, 1.6664082289992704E9, 0.0, 2022-10-21 20:10:28.999
46.0, -155821.00669396005, -166619.64853044137, 62056.623346403045, -75044.08211041476, 78664.68473251877, -89834.36552695818, 84547.08272779975, -127636.93215095189, -0.002, 0.9580000000000001, -0.068, 192.0, 255.0, 240.0, 29.0, 240.0, 253.0, 224.0, 0.0, 0.0, 0.0, 1.6664082289992793E9, 0.0, 2022-10-21 20:10:28.999
47.0, -155825.3205806399, -166623.31421653202, 62056.198663258394, -75055.83912799825, 78657.53217429307, -89849.02827132086, 84531.86118982568, -127641.08957542057, -0.002, 0.9580000000000001, -0.068, 192.0, 0.0, 0.0, 0.0, 0.0, 0.0, 0.0, 0.0, 0.0, 0.0, 1.6664082289992886E9, 0.0, 2022-10-21 20:10:28.999
48.0, -155822.0795776939, -166619.7155856747, 62060.42314296045, -75053.04515994134, 78663.3659795959, -89849.74352714342, 84514.51623612836, -127630.45014505985, -0.002, 0.9580000000000001, -0.068, 192.0, 0.0, 0.0, 0.0, 0.0, 0.0, 0.0, 0.0, 0.0, 0.0, 1.6664082289992971E9, 0.0, 2022-10-21 20:10:28.999
49.0, -155836.56350810095, -166635.09358585998, 62044.28518346372, -75056.12970067617, 78652.52538353507, -89859.55594295931, 84509.37533490364, -127643.79413649967, -0.002, 0.9580000000000001, -0.068, 192.0, 0.0, 0.0, 0.0, 0.0, 0.0, 0.0, 0.0, 0.0, 0.0, 1.666408228999307E9, 0.0, 2022-10-21 20:10:28.999
50.0, -155828.33806614138, -166627.1363648339, 62053.60586090158, -75034.87319169918, 78656.95102893723, -89847.39659397562, 84538.0526230398, -127639.6814155199, -0.002, 0.9580000000000001, -0.068, 192.0, 0.0, 0.0, 0.0, 0.0, 0.0, 0.0, 0.0, 0.0, 0.0, 1.6664082289993155E9, 0.0, 2022-10-21 20:10:28.999
51.0, -155813.27299037852, -166612.29480651557, 62064.535863940226, -75019.24932232492, 78668.39512209834, -89850.03409982135, 84537.22560849496, -127637.71446200782, -0.002, 0.9580000000000001, -0.068, 192.0, 0.0, 0.0, 0.0, 0.0, 0.0, 0.0, 0.0, 0.0, 0.0, 1.666408228999324E9, 0.0, 2022-10-21 20:10:28.999
52.0, -155815.21759214613, -166613.1665245493, 62061.8983580945, -75028.81586895179, 78665.24352613014, -89857.32076851377, 84509.28592792583, -127639.21202888634, -0.002, 0.9580000000000001, -0.068, 192.0, 0.0, 0.0, 0.0, 0.0, 0.0, 0.0, 0.0, 0.0, 0.0, 1.6664082289993327E9, 0.0, 2022-10-21 20:10:28.999
53.0, -155812.46832757813, -166612.071289071, 62068.71564015337, -75018.31054905779, 78669.57976455448, -89843.01565206239, 84517.95840477449, -127631.1206973935, -0.002, 0.9580000000000001, -0.068, 192.0, 0.0, 0.0, 0.0, 0.0, 0.0, 0.0, 0.0, 0.0, 0.0, 1.666408228999342E9, 0.0, 2022-10-21 20:10:28.999
54.0, -155812.49067932257, -166612.74184140467, 62070.392020987514, -75000.87618838265, 78670.40677909933, -89829.17992224454, 84553.1624022916, -127620.23539784377, -0.002, 0.9580000000000001, -0.068, 192.0, 0.0, 0.0, 0.0, 0.0, 0.0, 0.0, 0.0, 0.0, 0.0, 1.6664082289993508E9, 0.0, 2022-10-21 20:10:28.999
55.0, -155814.94937121266, -166614.7311466612, 62067.17336978595, -75002.28434828334, 78670.33972386595, -89824.53075939784, 84560.02438783937, -127618.0225751427, -0.002, 0.9580000000000001, -0.068, 192.0, 0.0, 0.0, 0.0, 0.0, 0.0, 0.0, 0.0, 0.0, 0.0, 1.6664082289993596E9, 0.0, 2022-10-21 20:10:28.999
56.0, -155813.72002526763, -166613.61355943844, 62062.21128251687, -75022.87030492668, 78659.99086618316, -89847.35189048671, 84523.36752693266, -127633.91466545043, -0.002, 0.9500000000000001, -0.07, 192.0, 255.0, 240.0, 29.0, 176.0, 253.0, 208.0, 0.0, 0.0, 0.0, 1.6664082289993682E9, 0.0, 2022-10-21 20:10:28.999
57.0, -155808.60147578735, -166610.73018440368, 62064.893491851515, -75018.46701126898, 78654.42528181378, -89848.51418119839, 84515.05267799529, -127632.95354043884, -0.002, 0.9500000000000001, -0.07, 192.0, 0.0, 0.0, 0.0, 0.0, 0.0, 0.0, 0.0, 0.0, 0.0, 1.6664082289993777E9, 0.0, 2022-10-21 20:10:28.999
58.0, -155822.25839164955, -166625.9740741222, 62055.90809058048, -75012.52144724387, 78644.814031698, -89844.24499800742, 84534.58810264923, -127638.16149689694, -0.002, 0.9500000000000001, -0.07, 192.0, 0.0, 0.0, 0.0, 0.0, 0.0, 0.0, 0.0, 0.0, 0.0, 1.6664082289993863E9, 0.0, 2022-10-21 20:10:28.999
59.0, -155827.48869985208, -166631.2267340692, 62051.08011377813, -75019.20461883601, 78641.08129037396, -89845.78726837484, 84541.15951551909, -127638.60853178604, -0.002, 0.9500000000000001, -0.07, 192.0, 0.0, 0.0, 0.0, 0.0, 0.0, 0.0, 0.0, 0.0, 0.0, 1.6664082289993951E9, 0.0, 2022-10-21 20:10:28.999
60.0, -155825.56644982894, -166629.30448404606, 62050.9460033114, -75023.76437470489, 78639.22609558418, -89865.65796919561, 84515.03032625084, -127643.66002603294, -0.002, 0.9500000000000001, -0.07, 192.0, 0.0, 0.0, 0.0, 0.0, 0.0, 0.0, 0.0, 0.0, 0.0, 1.6664082289994116E9, 0.0, 2022-10-21 20:10:28.999
61.0, -155819.30796138145, -166622.59896070947, 62059.55142492669, -75019.45048802502, 78645.9092671763, -89859.82416389277, 84507.45308488049, -127635.25577011774, -0.002, 0.9500000000000001, -0.07, 192.0, 0.0, 0.0, 0.0, 0.0, 0.0, 0.0, 0.0, 0.0, 0.0, 1.6664082289994204E9, 0.0, 2022-10-21 20:10:28.999
62.0, -155828.20395567466, -166628.90215264587, 62055.48340743583, -75002.68667968354, 78651.78777596806, -89842.0545270508, 84532.53174215934, -127640.5754852981, -0.002, 0.9500000000000001, -0.07, 192.0, 0.0, 0.0, 0.0, 0.0, 0.0, 0.0, 0.0, 0.0, 0.0, 1.6664082289994287E9, 0.0, 2022-10-21 20:10:28.999
63.0, -155833.36720864382, -166632.61254222543, 62047.123855009544, -75007.84993265271, 78640.29897931803, -89852.3139777558, 84536.35389046119, -127652.66777904842, -0.002, 0.9500000000000001, -0.07, 192.0, 0.0, 0.0, 0.0, 0.0, 0.0, 0.0, 0.0, 0.0, 0.0, 1.6664082289994376E9, 0.0, 2022-10-21 20:10:28.999
64.0, -155824.04653120597, -166625.6835014443, 62057.60682315908, -75002.84314189471, 78648.2114968552, -89857.03019583586, 84519.92535828655, -127644.19646789986, -0.002, 0.9500000000000001, -0.07, 192.0, 0.0, 0.0, 0.0, 0.0, 0.0, 0.0, 0.0, 0.0, 0.0, 1.666408228999446E9, 0.0, 2022-10-21 20:10:28.999
65.0, -155818.86092649234, -166623.60478920996, 62066.59222443012, -75000.63031919365, 78657.80039522653, -89855.55498070181, 84508.57067210325, -127638.4297178304, -0.002, 0.9500000000000001, -0.07, 192.0, 0.0, 0.0, 0.0, 0.0, 0.0, 0.0, 0.0, 0.0, 0.0, 1.6664082289994545E9, 0.0, 2022-10-21 20:10:28.999
66.0, -155811.82012698893, -166614.79820189456, 62071.48725646583, -74988.51567369887, 78658.04626441553, -89851.35285274421, 84524.26159671087, -127641.73777600977, -0.002, 0.9500000000000001, -0.07, 192.0, 0.0, 0.0, 29.0, 176.0, 253.0, 224.0, 0.0, 0.0, 0.0, 1.666408228999463E9, 0.0, 2022-10-21 20:10:28.999
67.0, -155813.8764874788, -166618.5309432186, 62065.36287848507, -74991.66726966707, 78652.570087024, -89849.78823063234, 84539.52783817385, -127649.00209295776, -0.002, 0.9500000000000001, -0.07, 192.0, 0.0, 0.0, 0.0, 0.0, 0.0, 0.0, 0.0, 0.0, 0.0, 1.6664082289994721E9, 0.0, 2022-10-21 20:10:28.999
68.0, -155817.31865612493, -166621.90605663136, 62063.17240752845, -75004.43011575105, 78647.3621305659, -89862.43931799404, 84521.93701528752, -127654.50062209376, -0.002, 0.9500000000000001, -0.07, 192.0, 0.0, 0.0, 0.0, 0.0, 0.0, 0.0, 0.0, 0.0, 0.0, 1.6664082289994807E9, 0.0, 2022-10-21 20:10:28.999
69.0, -155815.88814447977, -166618.28507402958, 62069.27443376475, -75006.62058670766, 78648.85969744441, -89873.6598937106, 84497.12657894213, -127655.03706396068, -0.002, 0.9500000000000001, -0.07, 192.0, 0.0, 0.0, 0.0, 0.0, 0.0, 0.0, 0.0, 0.0, 0.0, 1.6664082289994893E9, 0.0, 2022-10-21 20:10:28.999
70.0, -155815.3740543573, -166618.39683275187, 62073.677727422444, -74995.6011766912, 78653.4194533133, -89862.57342846078, 84512.43752389403, -127646.05166268966, -0.002, 0.9500000000000001, -0.07, 192.0, 0.0, 0.0, 0.0, 0.0, 0.0, 0.0, 0.0, 0.0, 0.0, 1.6664082289994988E9, 0.0, 2022-10-21 20:10:28.999
71.0, -155814.81526074593, -166622.10722233145, 62076.225826290356, -74983.86651085217, 78657.0180841706, -89855.28675976835, 84540.51131492988, -127643.21299114382, -0.002, 0.9500000000000001, -0.07, 192.0, 0.0, 0.0, 0.0, 0.0, 0.0, 0.0, 0.0, 0.0, 0.0, 1.6664082289995074E9, 0.0, 2022-10-21 20:10:28.999
72.0, -155820.06792069293, -166624.99059736618, 62075.510570467784, -74996.83052263624, 78655.00642716962, -89863.75807091691, 84529.51425665787, -127647.39276735697, -0.002, 0.9500000000000001, -0.07, 192.0, 0.0, 0.0, 0.0, 0.0, 0.0, 0.0, 0.0, 0.0, 0.0, 1.666408228999516E9, 0.0, 2022-10-21 20:10:28.999
73.0, -155806.83568797537, -166610.95370184825, 62086.77584967326, -74996.38348774714, 78664.79649124104, -89848.6035881762, 84515.14208497311, -127637.13331665199, -0.002, 0.9500000000000001, -0.07, 192.0, 0.0, 0.0, 0.0, 0.0, 0.0, 0.0, 0.0, 0.0, 0.0, 1.6664082289995244E9, 0.0, 2022-10-21 20:10:28.999
74.0, -155809.33908335437, -166613.9711873497, 62079.44447749192, -74989.54385394382, 78661.77900573958, -89846.88250385315, 84520.64061410911, -127640.374319598, -0.002, 0.9500000000000001, -0.07, 192.0, 0.0, 0.0, 0.0, 0.0, 0.0, 0.0, 0.0, 0.0, 0.0, 1.6664082289995332E9, 0.0, 2022-10-21 20:10:28.999
75.0, -155803.59468502935, -166604.60580642294, 62089.32394854116, -74969.40493218959, 78667.83632848697, -89832.01859379037, 84552.04481506883, -127629.39961307045, -0.002, 0.9500000000000001, -0.07, 192.0, 0.0, 0.0, 29.0, 208.0, 253.0, 208.0, 0.0, 0.0, 0.0, 1.6664082289995492E9, 0.0, 2022-10-21 20:10:28.999
76.0, -155799.34785358285, -166599.35314647594, 62101.43859403594, -74953.35637967067, 78682.9684594832, -89821.35681168518, 84561.52195471787, -127620.57067401061, -0.002, 0.9500000000000001, -0.07, 192.0, 0.0, 0.0, 0.0, 0.0, 0.0, 0.0, 0.0, 0.0, 0.0, 1.6664082289995582E9, 0.0, 2022-10-21 20:10:28.999
77.0, -155800.3760338278, -166602.05770755504, 62094.107221854596, -74978.27857473833, 78668.75275000963, -89848.58123643175, 84521.13235248714, -127632.19358112736, -0.002, 0.9500000000000001, -0.07, 192.0, 0.0, 0.0, 0.0, 0.0, 0.0, 0.0, 0.0, 0.0, 0.0, 1.6664082289995668E9, 0.0, 2022-10-21 20:10:28.999
78.0, -155805.58399028587, -166609.16556229183, 62088.47458225186, -74983.95591782998, 78659.94616269424, -89859.77946040386, 84509.66590758157, -127637.55799979664, -0.002, 0.9500000000000001, -0.07, 192.0, 0.0, 0.0, 0.0, 0.0, 0.0, 0.0, 0.0, 0.0, 0.0, 1.6664082289995751E9, 0.0, 2022-10-21 20:10:28.999
79.0, -155811.64131303327, -166614.79820189456, 62087.51345724028, -74975.50695842587, 78658.5156510491, -89845.87667535266, 84539.23726549593, -127636.5298195517, -0.002, 0.9500000000000001, -0.07, 192.0, 0.0, 0.0, 0.0, 0.0, 0.0, 0.0, 0.0, 0.0, 0.0, 1.6664082289995837E9, 0.0, 2022-10-21 20:10:28.999
80.0, -155823.39833061676, -166623.33656827649, 62076.89637862401, -74987.26397600937, 78651.67601724577, -89846.6589864086, 84539.9525213185, -127645.85049698956, -0.002, 0.9500000000000001, -0.07, 192.0, 0.0, 0.0, 0.0, 0.0, 0.0, 0.0, 0.0, 0.0, 0.0, 1.6664082289995923E9, 0.0, 2022-10-21 20:10:28.999
81.0, -155809.49554556556, -166611.3783849929, 62090.888570653035, -74980.80432186178, 78660.48260456117, -89854.0127103344, 84520.64061410911, -127638.0273864302, -0.002, 0.9500000000000001, -0.07, 192.0, 0.0, 0.0, 0.0, 0.0, 0.0, 0.0, 0.0, 0.0, 0.0, 1.666408228999601E9, 0.0, 2022-10-21 20:10:28.999
82.0, -155813.76472875653, -166614.68644317228, 62084.741840927825, -74984.04532480781, 78656.8169184705, -89857.81250689179, 84505.12850345713, -127645.5822760561, -0.002, 0.9500000000000001, -0.07, 192.0, 0.0, 0.0, 0.0, 0.0, 0.0, 0.0, 0.0, 0.0, 0.0, 1.6664082289996092E9, 0.0, 2022-10-21 20:10:28.999
83.0, -155814.43528109018, -166611.1772192928, 62086.23940780633, -74966.52155715485, 78661.37667433938, -89842.14393402863, 84538.16438176208, -127640.46372657582, -0.002, 0.9500000000000001, -0.07, 192.0, 0.0, 0.0, 0.0, 0.0, 0.0, 0.0, 0.0, 0.0, 0.0, 1.6664082289996178E9, 0.0, 2022-10-21 20:10:28.999
84.0, -155815.91049622424, -166612.45126872676, 62083.8030676607, -74968.62262113365, 78659.27561036058, -89840.8028293613, 84550.9048761016, -127640.84370623156, -0.002, 0.9500000000000001, -0.07, 192.0, 0.0, 0.0, 0.0, 0.0, 0.0, 0.0, 0.0, 0.0, 0.0, 1.6664082289996264E9, 0.0, 2022-10-21 20:10:28.999
85.0, -155817.56452531394, -166615.31229201704, 62078.371593758064, -74983.10655154068, 78649.99963641162, -89858.28189352536, 84519.97006177546, -127645.7834417562, 0.004, 0.9580000000000001, -0.066, 192.0, 0.0, 32.0, 29.0, 240.0, 253.0, 240.0, 0.0, 0.0, 0.0, 1.6664082289996347E9, 0.0, 2022-10-21 20:10:28.999
86.0, -155820.00086545956, -166616.54163796207, 62072.60484368859, -74984.44765620801, 78646.28924683205, -89870.48594599795, 84497.43950336451, -127652.51131683723, 0.004, 0.9580000000000001, -0.066, 192.0, 0.0, 0.0, 0.0, 0.0, 0.0, 0.0, 0.0, 0.0, 0.0, 1.666408228999644E9, 0.0, 2022-10-21 20:10:28.999
87.0, -155811.08251942188, -166608.04797506906, 62078.97509085835, -74967.23681297741, 78651.69836899023, -89851.28579751085, 84527.03321302333, -127645.20229640036, 0.004, 0.9580000000000001, -0.066, 192.0, 0.0, 0.0, 0.0, 0.0, 0.0, 0.0, 0.0, 0.0, 0.0, 1.6664082289996529E9, 0.0, 2022-10-21 20:10:28.999
88.0, -155815.50816482404, -166612.45126872676, 62076.51639896827, -74964.42049317605, 78651.13957537885, -89846.14489628612, 84545.56280917679, -127647.50452607925, 0.004, 0.9580000000000001, -0.066, 192.0, 0.0, 0.0, 0.0, 0.0, 0.0, 0.0, 0.0, 0.0, 0.0, 1.6664082289996612E9, 0.0, 2022-10-21 20:10:28.999
89.0, -155806.00867343054, -166606.01396632363, 62080.42795424795, -74968.68967636701, 78647.94327592175, -89864.07099533928, 84520.84177980921, -127648.9797412133, 0.004, 0.9580000000000001, -0.066, 192.0, 0.0, 0.0, 0.0, 0.0, 0.0, 0.0, 0.0, 0.0, 0.0, 1.6664082289996696E9, 0.0, 2022-10-21 20:10:28.999
90.0, -155803.773498985, -166607.35507099095, 62079.95856761439, -74969.36022870067, 78655.87814520337, -89858.90774237011, 84506.0449249798, -127647.4821743348, 0.004, 0.9580000000000001, -0.066, 192.0, 0.0, 0.0, 0.0, 0.0, 0.0, 0.0, 0.0, 0.0, 0.0, 1.66640822899969E9, 0.0, 2022-10-21 20:10:28.999
91.0, -155805.09225190786, -166608.36089949144, 62080.4503059924, -74958.85490880668, 78658.98503768267, -89841.4063264616, 84527.83787582372, -127642.14010740997, 0.004, 0.9580000000000001, -0.066, 192.0, 0.0, 0.0, 0.0, 0.0, 0.0, 0.0, 0.0, 0.0, 0.0, 1.6664082289996989E9, 0.0, 2022-10-21 20:10:28.999
92.0, -155806.34394959736, -166606.59511167946, 62086.39587001752, -74942.31461790975, 78669.40095059884, -89828.01763153287, 84556.58221919325, -127639.61436028652, 0.004, 0.9580000000000001, -0.066, 192.0, 0.0, 0.0, 0.0, 0.0, 0.0, 0.0, 0.0, 0.0, 0.0, 1.6664082289997084E9, 0.0, 2022-10-21 20:10:28.999
93.0, -155802.7229669956, -166596.44741969675, 62087.71462294038, -74944.6391993331, 78670.29502037705, -89835.25959673639, 84541.69595738602, -127636.66393001843, 0.004, 0.9580000000000001, -0.066, 192.0, 0.0, 0.0, 0.0, 0.0, 0.0, 0.0, 0.0, 0.0, 0.0, 1.6664082289997172E9, 0.0, 2022-10-21 20:10:28.999
94.0, -155805.65104551925, -166599.15198077585, 62087.468753751375, -74951.5905918587, 78668.43982558725, -89854.14682080112, 84513.8009803058, -127643.30239812165, 0.004, 0.9580000000000001, -0.066, 192.0, 0.0, 0.0, 0.0, 0.0, 0.0, 0.0, 0.0, 0.0, 0.0, 1.666408228999726E9, 0.0, 2022-10-21 20:10:28.999
95.0, -155823.08540619438, -166620.54260021957, 62076.31523326817, -74968.80143508929, 78652.1677556238, -89862.23815229394, 84512.90691052758, -127654.07593894911, 0.008, 0.9540000000000001, -0.07, 192.0, 0.0, 64.0, 29.0, 208.0, 253.0, 208.0, 0.0, 0.0, 0.0, 1.6664082289997356E9, 0.0, 2022-10-21 20:10:28.999
96.0, -155836.5858598454, -166632.56783873652, 62067.70981165288, -74972.31065896877, 78644.45640378671, -89852.04575682232, 84534.58810264923, -127662.30138090867, 0.008, 0.9540000000000001, -0.07, 192.0, 0.0, 0.0, 0.0, 0.0, 0.0, 0.0, 0.0, 0.0, 0.0, 1.666408228999745E9, 0.0, 2022-10-21 20:10:28.999
97.0, -155822.81718526094, -166614.9770158502, 62081.299672281704, -74972.8023973468, 78651.94423817925, -89849.2070852765, 84538.23143699544, -127645.80579350065, 0.008, 0.9540000000000001, -0.07, 192.0, 0.0, 0.0, 0.0, 0.0, 0.0, 0.0, 0.0, 0.0, 0.0, 1.6664082289997537E9, 0.0, 2022-10-21 20:10:28.999
98.0, -155805.24871411905, -166597.74382087516, 62096.43180327795, -74968.35440020019, 78664.4165115853, -89845.6084544192, 84523.21106472147, -127631.9700636828, 0.008, 0.9540000000000001, -0.07, 192.0, 0.0, 0.0, 0.0, 0.0, 0.0, 0.0, 0.0, 0.0, 0.0, 1.6664082289997623E9, 0.0, 2022-10-21 20:10:28.999
99.0, -155822.37015037183, -166612.54067570457, 62080.4503059924, -74973.87528108065, 78651.49720329013, -89855.73379465746, 84513.42100065005, -127650.11968018052, 0.008, 0.9540000000000001, -0.07, 192.0, 0.0, 0.0, 0.0, 0.0, 0.0, 0.0, 0.0, 0.0, 0.0, 1.6664082289997716E9, 0.0, 2022-10-21 20:10:28.999
100.0, -155820.5820108154, -166612.40656523785, 62082.707832182394, -74960.33012394073, 78651.94423817925, -89843.37327997366, 84542.18769576403, -127647.43747084588, 0.008, 0.9540000000000001, -0.07, 192.0, 0.0, 0.0, 0.0, 0.0, 0.0, 0.0, 0.0, 0.0, 0.0, 1.666408228999781E9, 0.0, 2022-10-21 20:10:28.999
101.0, -155811.37309209982, -166606.68451865728, 62093.34726254312, -74951.90351628108, 78663.23186912917, -89836.86892233718, 84551.9107046021, -127636.19454338486, 0.008, 0.9540000000000001, -0.07, 192.0, 0.0, 0.0, 0.0, 0.0, 0.0, 0.0, 0.0, 0.0, 0.0, 1.6664082289997892E9, 0.0, 2022-10-21 20:10:28.999
102.0, -155809.69671126566, -166606.14807679036, 62091.33560554214, -74970.23194673442, 78653.12888063537, -89856.31494001328, 84515.20914020648, -127643.32474986611, 0.008, 0.9540000000000001, -0.07, 192.0, 0.0, 0.0, 0.0, 0.0, 0.0, 0.0, 0.0, 0.0, 0.0, 1.666408228999799E9, 0.0, 2022-10-21 20:10:28.999
103.0, -155812.60243804485, -166610.3725564924, 62084.89830313901, -74971.03660953481, 78647.25037184362, -89864.60743720621, 84505.82140753524, -127646.09636617856, 0.008, 0.9540000000000001, -0.07, 192.0, 0.0, 0.0, 0.0, 0.0, 0.0, 0.0, 0.0, 0.0, 0.0, 1.6664082289998076E9, 0.0, 2022-10-21 20:10:28.999
104.0, -155819.73264452608, -166616.45223098426, 62078.237483291334, -74964.86752806515, 78643.60703749741, -89860.07003308178, 84530.34127120272, -127650.45495634736, -0.002, 0.96, -0.074, 192.0, 255.0, 240.0, 30.0, 0.0, 253.0, 176.0, 0.0, 0.0, 0.0, 1.6664082289998164E9, 0.0, 2022-10-21 20:10:28.999
105.0, -155820.26908639303, -166617.43570774028, 62074.728259411844, -74973.4953014249, 78636.11920310488, -89862.01463484939, 84529.4024979356, -127662.21197393084, -0.002, 0.96, -0.074, 192.0, 0.0, 0.0, 0.0, 0.0, 0.0, 0.0, 0.0, 0.0, 0.0, 1.6664082289998336E9, 0.0, 2022-10-21 20:10:28.999
106.0, -155812.24481013356, -166612.0265855821, 62081.031451348244, -74973.2941357248, 78643.07059563049, -89863.22162904998, 84509.15181745909, -127656.60168607256, -0.002, 0.96, -0.074, 192.0, 0.0, 0.0, 0.0, 0.0, 0.0, 0.0, 0.0, 0.0, 0.0, 1.6664082289998426E9, 0.0, 2022-10-21 20:10:28.999
107.0, -155809.026158932, -166609.9255216033, 62079.75740191429, -74970.45546417899, 78646.60217125442, -89861.03115809336, 84502.75921854487, -127654.63473256049, -0.002, 0.96, -0.074, 192.0, 0.0, 0.0, 0.0, 0.0, 0.0, 0.0, 0.0, 0.0, 0.0, 1.6664082289998515E9, 0.0, 2022-10-21 20:10:28.999
108.0, -155811.39544384426, -166610.73018440368, 62077.07519257966, -74960.50893789637, 78644.90343867581, -89849.94469284352, 84525.31212870027, -127655.66291280543, -0.002, 0.96, -0.074, 192.0, 0.0, 0.0, 0.0, 0.0, 0.0, 0.0, 0.0, 0.0, 0.0, 1.66640822899986E9, 0.0, 2022-10-21 20:10:28.999
109.0, -155815.06112993494, -166614.28411177208, 62069.40854423148, -74967.9967722889, 78637.37090079438, -89854.63855917915, 84529.69307061352, -127663.75424429825, -0.002, 0.96, -0.074, 192.0, 0.0, 0.0, 0.0, 0.0, 0.0, 0.0, 0.0, 0.0, 0.0, 1.6664082289998686E9, 0.0, 2022-10-21 20:10:28.999
110.0, -155803.46057456263, -166602.14711453285, 62082.39490776002, -74964.59930713169, 78647.85386894392, -89851.03992832184, 84516.97492801845, -127656.33346513909, -0.002, 0.96, -0.074, 192.0, 0.0, 0.0, 0.0, 0.0, 0.0, 0.0, 0.0, 0.0, 0.0, 1.6664082289998772E9, 0.0, 2022-10-21 20:10:28.999
111.0, -155805.15930714124, -166607.77975413558, 62084.317157783174, -74967.3485716997, 78648.34560732194, -89856.06907082428, 84497.03717196432, -127657.49575585077, -0.002, 0.96, -0.074, 192.0, 0.0, 0.0, 0.0, 0.0, 0.0, 0.0, 0.0, 0.0, 0.0, 1.6664082289998868E9, 0.0, 2022-10-21 20:10:28.999
112.0, -155806.34394959736, -166611.60190243745, 62080.539712970225, -74962.96762978645, 78641.59538049644, -89859.77946040386, 84510.67173608205, -127658.881564007, -0.002, 0.96, -0.074, 192.0, 0.0, 0.0, 0.0, 0.0, 0.0, 0.0, 0.0, 0.0, 0.0, 1.6664082289998953E9, 0.0, 2022-10-21 20:10:28.999
113.0, -155808.98145544308, -166611.1772192928, 62078.32689026915, -74961.6935803525, 78642.80237469701, -89852.69395741152, 84530.56478864727, -127658.83686051809, -0.002, 0.96, -0.074, 192.0, 0.0, 0.0, 0.0, 0.0, 0.0, 0.0, 0.0, 0.0, 0.0, 1.666408228999905E9, 0.0, 2022-10-21 20:10:28.999
114.0, -155803.9746646851, -166606.23748376817, 62078.39394550252, -74969.18141474503, 78648.30090383302, -89865.07682383977, 84510.0458872373, -127664.20127918736, -0.002, 0.9580000000000001, -0.076, 192.0, 255.0, 240.0, 29.0, 240.0, 253.0, 160.0, 0.0, 0.0, 0.0, 1.6664082289999137E9, 0.0, 2022-10-21 20:10:28.999
115.0, -155810.36726359933, -166614.30646351655, 62064.04412556221, -74989.85677836619, 78632.72173794768, -89888.3673415622, 84470.48329955142, -127681.74739858478, -0.002, 0.9580000000000001, -0.076, 192.0, 0.0, 0.0, 0.0, 0.0, 0.0, 0.0, 0.0, 0.0, 0.0, 1.6664082289999232E9, 0.0, 2022-10-21 20:10:28.999
116.0, -155805.82985947488, -166610.3725564924, 62070.92846285445, -74972.71299036896, 78641.50597351861, -89859.22066679248, 84501.32870689973, -127666.30234316616, -0.002, 0.9580000000000001, -0.076, 192.0, 0.0, 0.0, 0.0, 0.0, 0.0, 0.0, 0.0, 0.0, 0.0, 1.6664082289999318E9, 0.0, 2022-10-21 20:10:28.999
117.0, -155802.79002222896, -166605.34341398996, 62078.304538524695, -74955.9938855164, 78648.70323523322, -89837.67358513756, 84538.47730618445, -127649.96321796933, -0.002, 0.9580000000000001, -0.076, 192.0, 0.0, 0.0, 0.0, 0.0, 0.0, 0.0, 0.0, 0.0, 0.0, 1.6664082289999404E9, 0.0, 2022-10-21 20:10:28.999
118.0, -155804.60051352985, -166605.38811747887, 62075.48821872333, -74964.26403096486, 78646.57981950996, -89849.8105823768, 84525.31212870027, -127654.09829069357, -0.002, 0.9580000000000001, -0.076, 192.0, 0.0, 0.0, 0.0, 0.0, 0.0, 0.0, 0.0, 0.0, 0.0, 1.6664082289999487E9, 0.0, 2022-10-21 20:10:28.999
119.0, -155828.2263074191, -166628.45511775676, 62049.38138119953, -74994.05890632379, 78619.64596744132, -89894.80464396533, 84470.17037512903, -127684.58607013061, -0.002, 0.9580000000000001, -0.076, 192.0, 0.0, 0.0, 0.0, 0.0, 0.0, 0.0, 0.0, 0.0, 0.0, 1.6664082289999576E9, 0.0, 2022-10-21 20:10:28.999
120.0, -155806.20983913064, -166606.41629772383, 62071.77782914375, -74963.61583037565, 78643.47292703069, -89872.25173380993, 84498.26651790936, -127662.94958149787, -0.002, 0.9580000000000001, -0.076, 192.0, 0.0, 0.0, 0.0, 0.0, 0.0, 0.0, 0.0, 0.0, 0.0, 1.6664082290000348E9, 0.0, 2022-10-21 20:10:29.000
121.0, -155794.60928375833, -166596.51447493013, 62084.451268249904, -74943.5439638548, 78657.26395335961, -89844.93790208554, 84540.44425969652, -127648.06331969063, -0.002, 0.9580000000000001, -0.076, 192.0, 0.0, 0.0, 0.0, 0.0, 0.0, 0.0, 0.0, 0.0, 0.0, 1.666408229000044E9, 0.0, 2022-10-21 20:10:29.000
122.0, -155796.84445820385, -166595.19572200725, 62083.73601242733, -74958.29611519529, 78652.12305213488, -89847.0613178088, 84533.98460554893, -127651.77370927022, -0.002, 0.9580000000000001, -0.076, 192.0, 0.0, 0.0, 0.0, 0.0, 0.0, 0.0, 0.0, 0.0, 0.0, 1.666408229305123E9, 0.0, 2022-10-21 20:10:29.305
123.0, -155797.53736228196, -166596.00038480764, 62084.183047316445, -74966.11922575465, 78648.92675267777, -89860.76293715989, 84504.86028252367, -127656.46757560583, -0.002, 0.9580000000000001, -0.076, 192.0, 0.0, 0.0, 0.0, 0.0, 0.0, 0.0, 0.0, 0.0, 0.0, 1.666408229305225E9, 0.0, 2022-10-21 20:10:29.305
124.0, -155800.08546114987, -166601.34245173246, 62085.792372917225, -74960.06190300726, 78648.94910442222, -89860.27119878188, 84506.2460906799, -127655.23822966078, -0.004, 0.9520000000000001, -0.078, 192.0, 255.0, 224.0, 29.0, 192.0, 253.0, 144.0, 0.0, 0.0, 0.0, 1.6664082293052428E9, 0.0, 2022-10-21 20:10:29.305
125.0, -155805.85221121935, -166606.84098086847, 62082.797239160216, -74952.19408895899, 78645.97632240967, -89851.86694286668, 84533.60462589319, -127653.80771801564, -0.004, 0.9520000000000001, -0.078, 192.0, 0.0, 0.0, 0.0, 0.0, 0.0, 0.0, 0.0, 0.0, 0.0, 1.6664082293052597E9, 0.0, 2022-10-21 20:10:29.305
126.0, -155810.14374615476, -166611.49014371517, 62074.43768673393, -74967.43797867751, 78634.62163622638, -89865.70267268452, 84527.2567304679, -127662.97193324233, -0.004, 0.9520000000000001, -0.078, 192.0, 0.0, 0.0, 0.0, 0.0, 0.0, 0.0, 0.0, 0.0, 0.0, 1.666408229305275E9, 0.0, 2022-10-21 20:10:29.305
127.0, -155819.75499627055, -166620.94493161977, 62064.33469824013, -74989.81207487728, 78621.16588606428, -89886.89212642815, 84491.91862248405, -127671.86792753554, -0.004, 0.9520000000000001, -0.078, 192.0, 0.0, 0.0, 0.0, 0.0, 0.0, 0.0, 0.0, 0.0, 0.0, 1.66640822930529E9, 0.0, 2022-10-21 20:10:29.305
128.0, -155803.10294665134, -166602.61650116643, 62087.96049212939, -74973.87528108065, 78642.02006364109, -89859.35477725921, 84509.26357618137, -127646.11871792302, -0.004, 0.9520000000000001, -0.078, 192.0, 0.0, 0.0, 0.0, 0.0, 0.0, 0.0, 0.0, 0.0, 0.0, 1.6664082293053052E9, 0.0, 2022-10-21 20:10:29.305
129.0, -155802.61120827333, -166602.59414942196, 62094.308387554694, -74957.938487284, 78648.90440093332, -89835.21489324748, 84547.3509487332, -127633.46763056131, -0.004, 0.9520000000000001, -0.078, 192.0, 0.0, 0.0, 0.0, 0.0, 0.0, 0.0, 0.0, 0.0, 0.0, 1.6664082293053205E9, 0.0, 2022-10-21 20:10:29.305
130.0, -155811.17192639972, -166610.70783265925, 62085.0547653502, -74965.11339725416, 78638.80141243953, -89846.72604164196, 84545.2498847544, -127652.62307555952, -0.004, 0.9520000000000001, -0.078, 192.0, 0.0, 0.0, 0.0, 0.0, 0.0, 0.0, 0.0, 0.0, 0.0, 1.6664082293053377E9, 0.0, 2022-10-21 20:10:29.305
131.0, -155812.13305141128, -166610.35020474796, 62087.13347758454, -74970.52251941235, 78640.34368280694, -89853.43156497856, 84518.15957047459, -127653.58420057109, -0.004, 0.9520000000000001, -0.078, 192.0, 0.0, 0.0, 0.0, 0.0, 0.0, 0.0, 0.0, 0.0, 0.0, 1.6664082293053527E9, 0.0, 2022-10-21 20:10:29.305
132.0, -155811.41779558873, -166610.39490823686, 62091.08973635313, -74969.98607754541, 78642.13182236336, -89862.41696624958, 84503.02743947833, -127651.99722671477, -0.004, 0.9520000000000001, -0.078, 192.0, 0.0, 0.0, 0.0, 0.0, 0.0, 0.0, 0.0, 0.0, 0.0, 1.6664082293053675E9, 0.0, 2022-10-21 20:10:29.305
133.0, -155825.45469110666, -166625.8846671444, 62080.74087867032, -74973.47294968045, 78627.20085706722, -89862.93105637206, 84514.47153263945, -127660.11090995204, -0.004, 0.9520000000000001, -0.078, 192.0, 0.0, 0.0, 0.0, 0.0, 0.0, 0.0, 0.0, 0.0, 0.0, 1.6664082293053825E9, 0.0, 2022-10-21 20:10:29.305
134.0, -155821.8784119938, -166621.23550429769, 62088.56398922968, -74960.95597278548, 78635.26983681558, -89851.33050099976, 84538.20908525099, -127653.69595929337, 0.002, 0.9520000000000001, -0.08, 192.0, 0.0, 16.0, 29.0, 192.0, 253.0, 128.0, 0.0, 0.0, 0.0, 1.666408229305404E9, 0.0, 2022-10-21 20:10:29.305
135.0, -155827.77927253, -166625.34822527747, 62081.880817637546, -74970.7460368569, 78631.02300536908, -89873.63754196615, 84508.81654129227, -127669.1857182009, 0.002, 0.9520000000000001, -0.08, 192.0, 0.0, 0.0, 0.0, 0.0, 0.0, 0.0, 0.0, 0.0, 0.0, 1.6664082293055637E9, 0.0, 2022-10-21 20:10:29.305
136.0, -155819.01738870353, -166615.2228850392, 62091.89439915352, -74964.55460364278, 78637.21443858319, -89876.18564083405, 84493.86322425166, -127660.33442739659, 0.002, 0.9520000000000001, -0.08, 192.0, 0.0, 0.0, 0.0, 0.0, 0.0, 0.0, 0.0, 0.0, 0.0, 1.66640822930558E9, 0.0, 2022-10-21 20:10:29.305
137.0, -155814.39057760127, -166610.28314951458, 62100.09748936862, -74945.62267608913, 78648.39031081085, -89851.77753588886, 84522.38405017664, -127650.2314389028, 0.002, 0.9520000000000001, -0.08, 192.0, 0.0, 0.0, 0.0, 0.0, 0.0, 0.0, 0.0, 0.0, 0.0, 1.6664082293055952E9, 0.0, 2022-10-21 20:10:29.305
138.0, -155820.31378988194, -166611.2219227817, 62094.442498021424, -74948.01431274586, 78643.3611683084, -89849.92234109907, 84537.71734687297, -127653.78536627119, 0.002, 0.9520000000000001, -0.08, 192.0, 0.0, 0.0, 0.0, 0.0, 0.0, 0.0, 0.0, 0.0, 0.0, 1.6664082293056152E9, 0.0, 2022-10-21 20:10:29.305
139.0, -155814.7258537681, -166606.39394597936, 62096.23063757785, -74958.5419843843, 78639.47196477318, -89868.20606806352, 84518.96423327496, -127655.05941570514, 0.002, 0.9520000000000001, -0.08, 192.0, 0.0, 0.0, 0.0, 0.0, 0.0, 0.0, 0.0, 0.0, 0.0, 1.6664082293056304E9, 0.0, 2022-10-21 20:10:29.305
140.0, -155814.21176364564, -166611.95953034874, 62100.90215216901, -74964.28638270931, 78640.83542118495, -89879.89603041364, 84493.77381727385, -127657.60751457304, 0.002, 0.9520000000000001, -0.08, 192.0, 0.0, 0.0, 0.0, 0.0, 0.0, 0.0, 0.0, 0.0, 0.0, 1.6664082293056452E9, 0.0, 2022-10-21 20:10:29.305
141.0, -155824.4265108617, -166623.80595491006, 62102.04209113623, -74958.22905996193, 78637.6614734723, -89872.07291985428, 84504.18973019002, -127655.34998838307, 0.002, 0.9520000000000001, -0.08, 192.0, 0.0, 0.0, 0.0, 0.0, 0.0, 0.0, 0.0, 0.0, 0.0, 1.6664082293056605E9, 0.0, 2022-10-21 20:10:29.305
142.0, -155820.11262418184, -166620.20732405275, 62099.96337890189, -74956.57503087223, 78632.52057224758, -89866.41792850709, 84530.2518642249, -127659.57446808512, 0.002, 0.9520000000000001, -0.08, 192.0, 0.0, 0.0, 0.0, 0.0, 0.0, 0.0, 0.0, 0.0, 0.0, 1.6664082293056753E9, 0.0, 2022-10-21 20:10:29.305
143.0, -155813.42945258968, -166611.04310882607, 62097.392928289526, -74967.05799902177, 78629.41367976829, -89877.68320771256, 84514.87386403965, -127670.34800891257, 0.002, 0.9520000000000001, -0.08, 192.0, 0.0, 0.0, 29.0, 224.0, 253.0, 144.0, 0.0, 0.0, 0.0, 1.6664082293056905E9, 0.0, 2022-10-21 20:10:29.305
144.0, -155835.0882929669, -166630.5338299911, 62088.586340974136, -74986.39225797562, 78621.07647908646, -89892.54711777534, 84482.30737236826, -127679.19929971687, 0.002, 0.9520000000000001, -0.08, 192.0, 0.0, 0.0, 0.0, 0.0, 0.0, 0.0, 0.0, 0.0, 0.0, 1.6664082293057065E9, 0.0, 2022-10-21 20:10:29.305
145.0, -155826.61698181834, -166620.54260021957, 62100.321006813174, -74970.85779557917, 78637.81793568349, -89868.65310295262, 84507.11780871365, -127661.34025589708, 0.002, 0.9520000000000001, -0.08, 192.0, 0.0, 0.0, 0.0, 0.0, 0.0, 0.0, 0.0, 0.0, 0.0, 1.6664082293057215E9, 0.0, 2022-10-21 20:10:29.305
146.0, -155818.01156020304, -166613.34533850497, 62108.56880051718, -74949.62363834663, 78646.80333695452, -89851.41990797757, 84546.07689929925, -127647.16924991242, 0.002, 0.9520000000000001, -0.08, 192.0, 0.0, 0.0, 0.0, 0.0, 0.0, 0.0, 0.0, 0.0, 0.0, 1.6664082293057365E9, 0.0, 2022-10-21 20:10:29.305
147.0, -155821.40902536025, -166615.24523678367, 62106.80301270521, -74956.95501052798, 78643.89761017534, -89859.60064644822, 84539.3043207293, -127652.01957845922, 0.002, 0.9520000000000001, -0.08, 192.0, 0.0, 0.0, 0.0, 0.0, 0.0, 0.0, 0.0, 0.0, 0.0, 1.6664082293057516E9, 0.0, 2022-10-21 20:10:29.305
148.0, -155815.55286831295, -166611.71366115974, 62110.62516100707, -74962.00650477488, 78649.12791837787, -89854.61620743468, 84518.38308791914, -127649.73970052478, 0.002, 0.9520000000000001, -0.08, 192.0, 0.0, 0.0, 0.0, 0.0, 0.0, 0.0, 0.0, 0.0, 0.0, 1.6664082293057663E9, 0.0, 2022-10-21 20:10:29.305
149.0, -155816.11166192434, -166609.9702250922, 62106.62419874957, -74965.87335656564, 78646.73628172115, -89856.38199524666, 84513.35394541669, -127651.50548833676, 0.002, 0.9520000000000001, -0.08, 192.0, 0.0, 0.0, 0.0, 0.0, 0.0, 0.0, 0.0, 0.0, 0.0, 1.6664082293057811E9, 0.0, 2022-10-21 20:10:29.305
150.0, -155822.280743394, -166612.56302744904, 62102.26560858078, -74955.88212679412, 78642.9141334193, -89848.29066375384, 84539.66194864058, -127650.2314389028, 0.002, 0.9520000000000001, -0.08, 192.0, 0.0, 0.0, 0.0, 0.0, 0.0, 0.0, 0.0, 0.0, 0.0, 1.6664082293058355E9, 0.0, 2022-10-21 20:10:29.305
151.0, -155817.4751183361, -166604.06936455602, 62111.42982380746, -74946.89672552308, 78651.1172236344, -89837.49477118193, 84551.68718715754, -127642.90006672146, 0.002, 0.9520000000000001, -0.08, 192.0, 0.0, 0.0, 0.0, 0.0, 0.0, 0.0, 0.0, 0.0, 0.0, 1.6664082293058515E9, 0.0, 2022-10-21 20:10:29.305
152.0, -155814.68115027918, -166598.70494588674, 62113.0615011527, -74961.06773150775, 78645.59634275394, -89857.92426561407, 84519.07599199725, -127649.8291075026, 0.002, 0.9520000000000001, -0.08, 192.0, 0.0, 0.0, 0.0, 0.0, 0.0, 0.0, 0.0, 0.0, 0.0, 1.6664082293058665E9, 0.0, 2022-10-21 20:10:29.305
153.0, -155826.2817056515, -166611.69130941527, 62100.63393123555, -74973.51765316936, 78636.812107183, -89875.53744024485, 84500.54639584379, -127660.28972390768, -0.006, 0.9560000000000001, -0.076, 192.0, 255.0, 208.0, 29.0, 224.0, 253.0, 160.0, 0.0, 0.0, 0.0, 1.666408229305882E9, 0.0, 2022-10-21 20:10:29.305
154.0, -155829.09802545287, -166611.2219227817, 62106.691253982935, -74958.00554251738, 78635.7615751936, -89864.47332673948, 84527.54730314581, -127655.75231978326, -0.006, 0.9560000000000001, -0.076, 192.0, 0.0, 0.0, 0.0, 0.0, 0.0, 0.0, 0.0, 0.0, 0.0, 1.666408229305898E9, 0.0, 2022-10-21 20:10:29.305
155.0, -155836.6305633343, -166618.8662193854, 62100.90215216901, -74962.05120826379, 78633.48169725915, -89858.39365224763, 84540.06428004078, -127663.9777617428, -0.006, 0.9560000000000001, -0.076, 192.0, 0.0, 0.0, 0.0, 0.0, 0.0, 0.0, 0.0, 0.0, 0.0, 1.666408229305913E9, 0.0, 2022-10-21 20:10:29.305
156.0, -155813.58591480087, -166595.97803306318, 62120.884611712056, -74946.11441446716, 78650.80429921202, -89852.71630915598, 84531.45885842548, -127644.64350278897, -0.006, 0.9560000000000001, -0.076, 192.0, 0.0, 0.0, 0.0, 0.0, 0.0, 0.0, 0.0, 0.0, 0.0, 1.6664082293059306E9, 0.0, 2022-10-21 20:10:29.305
157.0, -155811.23898163307, -166595.28512898507, 62118.58238203316, -74958.40787391757, 78646.7139299767, -89863.959236617, 84508.74948605889, -127647.75039526826, -0.006, 0.9560000000000001, -0.076, 192.0, 0.0, 0.0, 0.0, 0.0, 0.0, 0.0, 0.0, 0.0, 0.0, 1.6664082293059456E9, 0.0, 2022-10-21 20:10:29.305
158.0, -155827.19812717417, -166611.73601290418, 62106.80301270521, -74959.7936820738, 78637.03562462755, -89864.58508546175, 84520.77472457585, -127657.20518317285, -0.006, 0.9560000000000001, -0.076, 192.0, 0.0, 0.0, 0.0, 0.0, 0.0, 0.0, 0.0, 0.0, 0.0, 1.666408229305961E9, 0.0, 2022-10-21 20:10:29.305
159.0, -155829.6344673198, -166614.19470479427, 62104.07609988166, -74954.51867038234, 78640.1648688513, -89859.3100737703, 84539.50548642939, -127661.02733147472, -0.006, 0.9560000000000001, -0.076, 192.0, 0.0, 0.0, 0.0, 0.0, 0.0, 0.0, 0.0, 0.0, 0.0, 1.6664082293059757E9, 0.0, 2022-10-21 20:10:29.305
160.0, -155825.65585680676, -166613.90413211635, 62104.70194872641, -74960.17366172954, 78638.3096740615, -89878.82314667979, 84519.16539897506, -127665.14005245449, -0.006, 0.9560000000000001, -0.076, 192.0, 0.0, 0.0, 0.0, 0.0, 0.0, 0.0, 0.0, 0.0, 0.0, 1.6664082293059907E9, 0.0, 2022-10-21 20:10:29.305
161.0, -155833.769540044, -166621.6825391868, 62094.84482942162, -74977.60802240467, 78623.66928144328, -89905.84640572625, 84480.3851223451, -127679.26635495025, -0.006, 0.9560000000000001, -0.076, 192.0, 0.0, 0.0, 0.0, 0.0, 0.0, 0.0, 0.0, 0.0, 0.0, 1.6664082293060055E9, 0.0, 2022-10-21 20:10:29.306
162.0, -155837.79285404598, -166623.85065839897, 62097.81761143418, -74966.02981877683, 78631.71590944719, -89879.67251296909, 84505.59789009069, -127671.19737520188, -0.006, 0.9560000000000001, -0.076, 192.0, 0.0, 0.0, 0.0, 0.0, 0.0, 0.0, 0.0, 0.0, 0.0, 1.66640822930602E9, 0.0, 2022-10-21 20:10:29.306
163.0, -155831.24379292058, -166618.1733153073, 62112.6591697525, -74946.40498714507, 78651.69836899023, -89845.29552999682, 84552.78242263585, -127655.43939536088, 0.002, 0.96, -0.08, 192.0, 0.0, 16.0, 30.0, 0.0, 253.0, 128.0, 0.0, 0.0, 0.0, 1.666408229306035E9, 0.0, 2022-10-21 20:10:29.306
164.0, -155831.71317955415, -166616.60869319545, 62112.547411030224, -74963.45936816448, 78641.48362177415, -89863.66866393908, 84530.20716073598, -127664.20127918736, 0.002, 0.96, -0.08, 192.0, 0.0, 0.0, 0.0, 0.0, 0.0, 0.0, 0.0, 0.0, 0.0, 1.6664082293060515E9, 0.0, 2022-10-21 20:10:29.306
165.0, -155820.3808451153, -166603.77879187808, 62122.71745475739, -74968.01912403335, 78643.38352005286, -89876.23034432296, 84508.48126512543, -127650.41025285843, 0.002, 0.96, -0.08, 192.0, 0.0, 0.0, 0.0, 0.0, 0.0, 0.0, 0.0, 0.0, 0.0, 1.6664082293060665E9, 0.0, 2022-10-21 20:10:29.306
166.0, -155828.1816039302, -166611.04310882607, 62116.99540817683, -74962.9899815309, 78642.13182236336, -89872.7658239324, 84516.63965185161, -127654.70178779386, 0.002, 0.96, -0.08, 192.0, 0.0, 0.0, 0.0, 0.0, 0.0, 0.0, 0.0, 0.0, 0.0, 1.6664082293061302E9, 0.0, 2022-10-21 20:10:29.306
167.0, -155823.04070270548, -166604.04701281156, 62123.85739372461, -74941.57701034272, 78656.32518009248, -89844.66968115207, 84557.49864071592, -127643.50356382175, 0.002, 0.96, -0.08, 192.0, 0.0, 0.0, 0.0, 0.0, 0.0, 0.0, 0.0, 0.0, 0.0, 1.6664082293061454E9, 0.0, 2022-10-21 20:10:29.306
168.0, -155823.8230137614, -166605.38811747887, 62125.19849839193, -74940.07944346422, 78663.32127610699, -89843.01565206239, 84559.24207678343, -127641.71542426532, 0.002, 0.96, -0.08, 192.0, 0.0, 0.0, 0.0, 0.0, 0.0, 0.0, 0.0, 0.0, 0.0, 1.6664082293061607E9, 0.0, 2022-10-21 20:10:29.306
169.0, -155831.26614466505, -166613.94883560526, 62118.649437266526, -74954.09398723769, 78657.53217429307, -89853.94565510102, 84527.63671012362, -127650.11968018052, 0.002, 0.96, -0.08, 192.0, 0.0, 0.0, 0.0, 0.0, 0.0, 0.0, 0.0, 0.0, 0.0, 1.6664082293061764E9, 0.0, 2022-10-21 20:10:29.306
170.0, -155835.781197045, -166619.9838066082, 62113.55323953072, -74963.21349897546, 78647.83151719946, -89860.49471622643, 84518.29368094131, -127656.31111339464, 0.002, 0.96, -0.08, 192.0, 0.0, 0.0, 0.0, 0.0, 0.0, 0.0, 0.0, 0.0, 0.0, 1.666408229306204E9, 0.0, 2022-10-21 20:10:29.306
171.0, -155841.14561571428, -166626.44346075578, 62111.27336159627, -74952.19408895899, 78648.54677302204, -89851.1069835552, 84545.6522161546, -127655.52880233871, 0.002, 0.96, -0.08, 192.0, 0.0, 0.0, 0.0, 0.0, 0.0, 0.0, 0.0, 0.0, 0.0, 1.6664082293062196E9, 0.0, 2022-10-21 20:10:29.306
172.0, -155838.21753719062, -166622.88953338738, 62115.38608257605, -74958.02789426183, 78650.98311316766, -89851.55401844431, 84550.48019295695, -127652.39955811496, 0.004, 0.9480000000000001, -0.078, 192.0, 0.0, 32.0, 29.0, 160.0, 253.0, 144.0, 0.0, 0.0, 0.0, 1.6664082293062353E9, 0.0, 2022-10-21 20:10:29.306
173.0, -155844.85600529387, -166631.31614104702, 62109.32875982866, -74977.11628402666, 78637.63912172784, -89872.83287916576, 84512.97396576095, -127665.49768036578, 0.004, 0.9480000000000001, -0.078, 192.0, 0.0, 0.0, 0.0, 0.0, 0.0, 0.0, 0.0, 0.0, 0.0, 1.6664082293062513E9, 0.0, 2022-10-21 20:10:29.306
174.0, -155840.787987803, -166627.49399274518, 62114.91669594249, -74970.67898162354, 78641.61773224089, -89869.63657970865, 84514.42682915054, -127661.76493904174, 0.004, 0.9480000000000001, -0.078, 192.0, 0.0, 0.0, 0.0, 0.0, 0.0, 0.0, 0.0, 0.0, 0.0, 1.6664082293062663E9, 0.0, 2022-10-21 20:10:29.306
175.0, -155831.91434525425, -166619.35795776345, 62126.29373387024, -74957.96083902847, 78647.02685439907, -89852.64925392262, 84549.54141968983, -127649.3820726135, 0.004, 0.9480000000000001, -0.078, 192.0, 0.0, 0.0, 0.0, 0.0, 0.0, 0.0, 0.0, 0.0, 0.0, 1.666408229306282E9, 0.0, 2022-10-21 20:10:29.306
176.0, -155830.26031616455, -166619.827344397, 62126.91958271499, -74964.8451763207, 78647.22802009917, -89853.65508242311, 84556.89514361562, -127649.85145924706, 0.004, 0.9480000000000001, -0.078, 192.0, 0.0, 0.0, 0.0, 0.0, 0.0, 0.0, 0.0, 0.0, 0.0, 1.666408229306297E9, 0.0, 2022-10-21 20:10:29.306
177.0, -155822.41485386074, -166610.70783265925, 62134.385065363065, -74968.77908334484, 78651.54190677905, -89866.88731514064, 84534.2528264824, -127651.17021216992, 0.004, 0.9480000000000001, -0.078, 192.0, 0.0, 0.0, 0.0, 0.0, 0.0, 0.0, 0.0, 0.0, 0.0, 1.6664082293063135E9, 0.0, 2022-10-21 20:10:29.306
178.0, -155819.93381022618, -166606.1257250459, 62134.027437451776, -74964.73341759843, 78653.6653225023, -89861.92522787157, 84523.16636123256, -127651.10315693656, 0.004, 0.9480000000000001, -0.078, 192.0, 0.0, 0.0, 0.0, 0.0, 0.0, 0.0, 0.0, 0.0, 0.0, 1.6664082293063288E9, 0.0, 2022-10-21 20:10:29.306
179.0, -155825.05235970646, -166611.8701233709, 62131.54639381724, -74948.32723716823, 78655.85579345892, -89841.51808518388, 84549.78728887884, -127648.82327900211, 0.004, 0.9480000000000001, -0.078, 192.0, 0.0, 0.0, 0.0, 0.0, 0.0, 0.0, 0.0, 0.0, 0.0, 1.666408229306346E9, 0.0, 2022-10-21 20:10:29.306
180.0, -155831.06497896495, -166618.4191844963, 62125.422015836484, -74962.83351931973, 78646.4680607877, -89853.0068818339, 84555.7105011595, -127656.86990700602, 0.004, 0.9480000000000001, -0.078, 192.0, 0.0, 0.0, 0.0, 0.0, 0.0, 0.0, 0.0, 0.0, 0.0, 1.6664082293063612E9, 0.0, 2022-10-21 20:10:29.306
181.0, -155832.49549061008, -166620.20732405275, 62124.237373380354, -74973.18237700252, 78644.63521774235, -89870.4635942535, 84527.56965489026, -127660.91557275243, 0.004, 0.9480000000000001, -0.078, 192.0, 0.0, 0.0, 0.0, 0.0, 0.0, 0.0, 0.0, 0.0, 0.0, 1.666408229306393E9, 0.0, 2022-10-21 20:10:29.306
182.0, -155839.7821593025, -166626.39875726687, 62118.26945761078, -74982.32424048476, 78640.76836595159, -89874.0622251108, 84506.60371859118, -127664.134223954, 0.004, 0.9480000000000001, -0.078, 192.0, 0.0, 0.0, 29.0, 192.0, 253.0, 192.0, 0.0, 0.0, 0.0, 1.666408229306408E9, 0.0, 2022-10-21 20:10:29.306
183.0, -155849.9298512852, -166636.85937367193, 62109.86520169559, -74976.04340029281, 78630.48656350214, -89870.19537332004, 84519.79124781981, -127670.95150601286, 0.004, 0.9480000000000001, -0.078, 192.0, 0.0, 0.0, 0.0, 0.0, 0.0, 0.0, 0.0, 0.0, 0.0, 1.6664082293064241E9, 0.0, 2022-10-21 20:10:29.306
184.0, -155835.15534820026, -166623.44832699877, 62123.27624836878, -74965.31456295426, 78640.34368280694, -89851.66577716658, 84552.00011157991, -127654.70178779386, 0.004, 0.9480000000000001, -0.078, 192.0, 0.0, 0.0, 0.0, 0.0, 0.0, 0.0, 0.0, 0.0, 0.0, 1.6664082293064394E9, 0.0, 2022-10-21 20:10:29.306
185.0, -155830.9308684982, -166618.70975717425, 62127.657190282014, -74965.4933769099, 78647.89857243282, -89851.08463181075, 84541.51714343038, -127652.84659300407, 0.004, 0.9480000000000001, -0.078, 192.0, 0.0, 0.0, 0.0, 0.0, 0.0, 0.0, 0.0, 0.0, 0.0, 1.666408229306456E9, 0.0, 2022-10-21 20:10:29.306
186.0, -155831.35555164286, -166621.21315255322, 62126.472547825884, -74965.7392460989, 78651.63131375686, -89861.65700693811, 84517.08668674073, -127660.62500007452, 0.004, 0.9480000000000001, -0.078, 192.0, 0.0, 0.0, 0.0, 0.0, 0.0, 0.0, 0.0, 0.0, 0.0, 1.6664082293064668E9, 0.0, 2022-10-21 20:10:29.306
187.0, -155835.91530751172, -166625.34822527747, 62124.25972512481, -74959.41370241805, 78648.85969744441, -89861.07586158227, 84528.21785547947, -127666.21293618834, 0.004, 0.9480000000000001, -0.078, 192.0, 0.0, 0.0, 0.0, 0.0, 0.0, 0.0, 0.0, 0.0, 0.0, 1.6664082293064773E9, 0.0, 2022-10-21 20:10:29.306
188.0, -155837.2787639235, -166624.8788386439, 62122.67275126848, -74957.60321111718, 78638.5555432505, -89862.88635288314, 84544.98166382094, -127670.75034031276, 0.004, 0.9480000000000001, -0.078, 192.0, 0.0, 0.0, 0.0, 0.0, 0.0, 0.0, 0.0, 0.0, 0.0, 1.6664082293064876E9, 0.0, 2022-10-21 20:10:29.306
189.0, -155837.6363918348, -166624.38710026589, 62120.258762867306, -74965.42632167654, 78636.43212752725, -89872.09527159874, 84530.36362294717, -127673.47725313631, 0.004, 0.9480000000000001, -0.078, 192.0, 0.0, 0.0, 0.0, 0.0, 0.0, 0.0, 0.0, 0.0, 0.0, 1.6664082293064983E9, 0.0, 2022-10-21 20:10:29.306
190.0, -155831.3779033873, -166621.2802077866, 62126.02551293678, -74969.91902231205, 78642.53415376355, -89871.44707100953, 84511.7446198159, -127664.73772105429, 0.004, 0.9480000000000001, -0.078, 192.0, 0.0, 0.0, 0.0, 0.0, 0.0, 0.0, 0.0, 0.0, 0.0, 1.6664082293065088E9, 0.0, 2022-10-21 20:10:29.306
191.0, -155833.4789673661, -166623.6271409544, 62123.92444895798, -74965.98511528791, 78640.92482816278, -89867.9601988745, 84516.03615475133, -127666.32469491063, 0.004, 0.9480000000000001, -0.078, 192.0, 0.0, 0.0, 0.0, 0.0, 0.0, 0.0, 0.0, 0.0, 0.0, 1.6664082293065193E9, 0.0, 2022-10-21 20:10:29.306
192.0, -155829.2321359196, -166615.8710856284, 62128.841832738144, -74954.02693200433, 78644.34464506444, -89855.24205627943, 84545.49575394343, -127661.65318031945, 0.004, 0.9480000000000001, -0.078, 192.0, 0.0, 0.0, 29.0, 224.0, 253.0, 224.0, 0.0, 0.0, 0.0, 1.6664082293065295E9, 0.0, 2022-10-21 20:10:29.306
193.0, -155826.84049926288, -166615.69227167277, 62132.59692580664, -74957.11147273917, 78645.8645636874, -89856.94078885803, 84543.7523178759, -127663.30720940915, 0.004, 0.9480000000000001, -0.078, 192.0, 0.0, 0.0, 0.0, 0.0, 0.0, 0.0, 0.0, 0.0, 0.0, 1.6664082293065405E9, 0.0, 2022-10-21 20:10:29.306
194.0, -155827.91338299675, -166617.9274461183, 62135.25678339682, -74963.32525769774, 78646.1104328764, -89872.0058646209, 84520.12652398665, -127663.64248557598, 0.004, 0.9480000000000001, -0.078, 192.0, 0.0, 0.0, 0.0, 0.0, 0.0, 0.0, 0.0, 0.0, 0.0, 1.666408229727896E9, 0.0, 2022-10-21 20:10:29.727
195.0, -155820.44790034866, -166609.16556229183, 62139.52596658778, -74963.50407165338, 78644.18818285325, -89870.19537332004, 84519.83595130873, -127654.50062209376, 0.004, 0.9480000000000001, -0.078, 192.0, 0.0, 0.0, 0.0, 0.0, 0.0, 0.0, 0.0, 0.0, 0.0, 1.6664082297279615E9, 0.0, 2022-10-21 20:10:29.727
196.0, -155832.3837318878, -166621.7719461646, 62125.46671932539, -74974.83640609222, 78627.75965067859, -89874.5092599999, 84532.30822471478, -127667.24111643329, 0.004, 0.9480000000000001, -0.078, 192.0, 0.0, 0.0, 0.0, 0.0, 0.0, 0.0, 0.0, 0.0, 0.0, 1.6664082297280502E9, 0.0, 2022-10-21 20:10:29.728
197.0, -155853.3943716758, -166640.94974290728, 62108.70291098391, -74994.23772027943, 78611.66639467077, -89891.67539974158, 84519.79124781981, -127685.43543641991, 0.004, 0.9480000000000001, -0.078, 192.0, 0.0, 0.0, 0.0, 0.0, 0.0, 0.0, 0.0, 0.0, 0.0, 1.666408229728068E9, 0.0, 2022-10-21 20:10:29.728
198.0, -155836.65291507877, -166619.69323393027, 62129.400626349525, -74984.33589748573, 78629.63719721284, -89884.72400721598, 84509.30827967028, -127665.34121815459, 0.004, 0.9480000000000001, -0.078, 192.0, 0.0, 0.0, 0.0, 0.0, 0.0, 0.0, 0.0, 0.0, 0.0, 1.666408229728092E9, 0.0, 2022-10-21 20:10:29.728
199.0, -155841.65970583676, -166621.86135314242, 62129.33357111616, -74986.39225797562, 78633.28053155905, -89885.77453920538, 84503.54152960081, -127665.8776600215, 0.004, 0.9480000000000001, -0.078, 192.0, 0.0, 0.0, 0.0, 0.0, 0.0, 0.0, 0.0, 0.0, 0.0, 1.6664082297281072E9, 0.0, 2022-10-21 20:10:29.728
200.0, -155839.4245313912, -166618.5309432186, 62136.48612934186, -74965.0463420208, 78642.02006364109, -89856.67256792457, 84542.52297193087, -127655.39469187197, 0.004, 0.9480000000000001, -0.078, 192.0, 0.0, 0.0, 0.0, 0.0, 0.0, 0.0, 0.0, 0.0, 0.0, 1.666408229728123E9, 0.0, 2022-10-21 20:10:29.728
201.0, -155842.6431825928, -166627.94102763428, 62135.39089386355, -74965.60513563218, 78642.86942993039, -89851.86694286668, 84552.9612365915, -127655.19352617188, -0.002, 0.9540000000000001, -0.07200000000000001, 192.0, 255.0, 240.0, 29.0, 208.0, 253.0, 192.0, 0.0, 0.0, 0.0, 1.6664082297281387E9, 0.0, 2022-10-21 20:10:29.728
202.0, -155848.29817393998, -166637.7310917057, 62130.808786250214, -74981.40781896208, 78641.61773224089, -89861.43348949356, 84525.11096300017, -127657.47340410632, -0.002, 0.9540000000000001, -0.07200000000000001, 192.0, 0.0, 0.0, 0.0, 0.0, 0.0, 0.0, 0.0, 0.0, 0.0, 1.6664082297281563E9, 0.0, 2022-10-21 20:10:29.728
203.0, -155844.05134249348, -166629.14802183487, 62134.094492685144, -74979.37381021665, 78646.19983985422, -89858.84068713673, 84515.83498905123, -127654.16534592693, -0.002, 0.9540000000000001, -0.07200000000000001, 192.0, 0.0, 0.0, 0.0, 0.0, 0.0, 0.0, 0.0, 0.0, 0.0, 1.666408229728172E9, 0.0, 2022-10-21 20:10:29.728
204.0, -155847.24764195058, -166632.09845210297, 62130.85348973912, -74974.00939154737, 78640.76836595159, -89853.36450974518, 84537.11384977268, -127655.08176744959, -0.002, 0.9540000000000001, -0.07200000000000001, 192.0, 0.0, 0.0, 0.0, 0.0, 0.0, 0.0, 0.0, 0.0, 0.0, 1.666408229728187E9, 0.0, 2022-10-21 20:10:29.728
205.0, -155858.4905694116, -166646.02358889862, 62122.94097220194, -74979.64203115011, 78635.51570600459, -89852.51514345588, 84550.59195167923, -127663.19545068688, -0.002, 0.9540000000000001, -0.07200000000000001, 192.0, 0.0, 0.0, 0.0, 0.0, 0.0, 0.0, 0.0, 0.0, 0.0, 1.6664082297282047E9, 0.0, 2022-10-21 20:10:29.728
206.0, -155864.3914299478, -166655.21015586975, 62121.19753613443, -74987.57690043174, 78632.56527573649, -89864.54038197284, 84525.75916358938, -127666.6823228219, -0.002, 0.9540000000000001, -0.07200000000000001, 192.0, 0.0, 0.0, 0.0, 0.0, 0.0, 0.0, 0.0, 0.0, 0.0, 1.666408229728215E9, 0.0, 2022-10-21 20:10:29.728
207.0, -155856.68007811072, -166650.00219941165, 62124.05855942471, -74987.68865915402, 78638.46613627269, -89869.68128319757, 84507.76600930287, -127664.380093143, -0.002, 0.9540000000000001, -0.07200000000000001, 192.0, 0.0, 0.0, 0.0, 0.0, 0.0, 0.0, 0.0, 0.0, 0.0, 1.6664082297282248E9, 0.0, 2022-10-21 20:10:29.728
208.0, -155856.5906711329, -166645.5318505206, 62123.85739372461, -74981.83250210673, 78637.03562462755, -89871.26825705389, 84522.83108506574, -127664.08952046509, -0.002, 0.9540000000000001, -0.07200000000000001, 192.0, 0.0, 0.0, 0.0, 0.0, 0.0, 0.0, 0.0, 0.0, 0.0, 1.6664082297282343E9, 0.0, 2022-10-21 20:10:29.728
209.0, -155854.6907728542, -166644.12369061992, 62125.93610595896, -74977.56331891577, 78635.02396762658, -89871.62588496518, 84540.57837016325, -127665.72119781033, -0.002, 0.9540000000000001, -0.07200000000000001, 192.0, 0.0, 0.0, 0.0, 0.0, 0.0, 0.0, 0.0, 0.0, 0.0, 1.6664082297282448E9, 0.0, 2022-10-21 20:10:29.728
210.0, -155858.37881068932, -166648.95166742225, 62126.42784433697, -74982.70422014048, 78636.58858973844, -89869.52482098638, 84530.92241655856, -127666.6823228219, -0.002, 0.9540000000000001, -0.07200000000000001, 192.0, 0.0, 0.0, 0.0, 0.0, 0.0, 0.0, 0.0, 0.0, 0.0, 1.666408229728254E9, 0.0, 2022-10-21 20:10:29.728
211.0, -155853.66259260924, -166644.5930772535, 62131.1664141615, -74986.77223763136, 78641.41656654079, -89865.59091396224, 84519.7465443309, -127660.35677914105, -0.004, 0.962, -0.074, 192.0, 255.0, 224.0, 30.0, 16.0, 253.0, 176.0, 0.0, 0.0, 0.0, 1.6664082297282739E9, 0.0, 2022-10-21 20:10:29.728
212.0, -155860.3010607125, -166649.39870231136, 62129.44532983844, -74982.97244107396, 78637.92969440576, -89863.3110360278, 84530.2518642249, -127663.66483732044, -0.004, 0.962, -0.074, 192.0, 0.0, 0.0, 0.0, 0.0, 0.0, 0.0, 0.0, 0.0, 0.0, 1.6664082297282846E9, 0.0, 2022-10-21 20:10:29.728
213.0, -155853.0367437645, -166638.96043765073, 62136.95551597542, -74974.21055724747, 78642.57885725246, -89848.17890503156, 84564.89706813062, -127653.07011044862, -0.004, 0.962, -0.074, 192.0, 0.0, 0.0, 0.0, 0.0, 0.0, 0.0, 0.0, 0.0, 0.0, 1.666408229728294E9, 0.0, 2022-10-21 20:10:29.728
214.0, -155839.64804883578, -166624.2306380547, 62144.91273700151, -74972.86945258015, 78647.49624103264, -89852.91747485608, 84561.65606518461, -127649.53853482468, -0.004, 0.962, -0.074, 192.0, 0.0, 0.0, 0.0, 0.0, 0.0, 0.0, 0.0, 0.0, 0.0, 1.6664082297283037E9, 0.0, 2022-10-21 20:10:29.728
215.0, -155840.69858082518, -166626.19759156677, 62144.30923990122, -74978.5467956718, 78644.65756948681, -89867.22259130748, 84529.96129154698, -127656.31111339464, -0.004, 0.962, -0.074, 192.0, 0.0, 0.0, 0.0, 0.0, 0.0, 0.0, 0.0, 0.0, 0.0, 1.6664082297283132E9, 0.0, 2022-10-21 20:10:29.728
216.0, -155855.11545599884, -166642.44730978578, 62134.72034152989, -74976.17751075955, 78636.92386590528, -89876.65502746761, 84522.58521587672, -127664.93888675439, -0.004, 0.962, -0.074, 192.0, 0.0, 0.0, 0.0, 0.0, 0.0, 0.0, 0.0, 0.0, 0.0, 1.6664082297283225E9, 0.0, 2022-10-21 20:10:29.728
217.0, -155860.12224675683, -166646.02358889862, 62131.14406241704, -74970.83544383472, 78637.48265951665, -89858.39365224763, 84557.25277152691, -127657.60751457304, -0.004, 0.962, -0.074, 192.0, 0.0, 0.0, 0.0, 0.0, 0.0, 0.0, 0.0, 0.0, 0.0, 1.666408229728332E9, 0.0, 2022-10-21 20:10:29.728
218.0, -155855.51778739903, -166640.01096964013, 62132.73103627337, -74970.52251941235, 78638.68965371724, -89855.82320163527, 84561.14197506213, -127651.34902612556, -0.004, 0.962, -0.074, 192.0, 0.0, 0.0, 0.0, 0.0, 0.0, 0.0, 0.0, 0.0, 0.0, 1.6664082297283435E9, 0.0, 2022-10-21 20:10:29.728
219.0, -155854.4449036652, -166640.05567312904, 62131.34522811714, -74986.32520274224, 78633.68286295925, -89870.44124250904, 84529.71542235797, -127661.45201461937, -0.004, 0.962, -0.074, 192.0, 0.0, 0.0, 0.0, 0.0, 0.0, 0.0, 0.0, 0.0, 0.0, 1.6664082297283528E9, 0.0, 2022-10-21 20:10:29.728
220.0, -155858.91525255624, -166647.72232147722, 62129.11005367161, -74995.91410111358, 78628.02787161207, -89878.80079493533, 84523.36752693266, -127662.4801948643, -0.004, 0.962, -0.074, 192.0, 0.0, 0.0, 0.0, 0.0, 0.0, 0.0, 0.0, 0.0, 0.0, 1.6664082297283635E9, 0.0, 2022-10-21 20:10:29.728
221.0, -155880.10470629987, -166668.21887114274, 62110.91573368499, -75002.64197619462, 78613.94627260522, -89878.0631873683, 84540.93599807454, -127676.42768340441, -0.004, 0.962, -0.074, 192.0, 0.0, 0.0, 29.0, 144.0, 253.0, 160.0, 0.0, 0.0, 0.0, 1.6664082297283733E9, 0.0, 2022-10-21 20:10:29.728
222.0, -155878.13775278782, -166667.19069089778, 62107.98765516134, -75015.1589530896, 78602.18925502173, -89883.65112348212, 84541.18186726354, -127678.59580261658, -0.004, 0.962, -0.074, 192.0, 0.0, 0.0, 0.0, 0.0, 0.0, 0.0, 0.0, 0.0, 0.0, 1.666408229728383E9, 0.0, 2022-10-21 20:10:29.728
223.0, -155847.3370489284, -166632.56783873652, 62139.749484032334, -74995.91410111358, 78628.49725824562, -89869.0107308639, 84543.41704170908, -127649.51618308022, -0.004, 0.962, -0.074, 192.0, 0.0, 0.0, 0.0, 0.0, 0.0, 0.0, 0.0, 0.0, 0.0, 1.6664082297283933E9, 0.0, 2022-10-21 20:10:29.728
224.0, -155840.92209826972, -166625.8846671444, 62151.171225449, -74981.02783930633, 78645.59634275394, -89855.57733244626, 84551.15074529061, -127636.03808117368, -0.004, 0.962, -0.074, 192.0, 0.0, 0.0, 0.0, 0.0, 0.0, 0.0, 0.0, 0.0, 0.0, 1.6664082297284029E9, 0.0, 2022-10-21 20:10:29.728
225.0, -155853.57318563142, -166641.6426469854, 62147.32672540269, -74976.13280727062, 78641.7071392187, -89845.6531579081, 84573.34602753473, -127642.54243881017, -0.004, 0.962, -0.074, 192.0, 0.0, 0.0, 0.0, 0.0, 0.0, 0.0, 0.0, 0.0, 0.0, 1.6664082297284122E9, 0.0, 2022-10-21 20:10:29.728
226.0, -155853.97551703162, -166642.8943446749, 62150.27715567079, -74977.22804274893, 78643.98701715315, -89841.87571309516, 84586.13122536316, -127643.01182544373, -0.004, 0.962, -0.074, 192.0, 0.0, 0.0, 0.0, 0.0, 0.0, 0.0, 0.0, 0.0, 0.0, 1.6664082297284305E9, 0.0, 2022-10-21 20:10:29.728
227.0, -155847.11353148383, -166636.65820797184, 62154.63574583957, -74980.24552825041, 78650.066691645, -89847.35189048671, 84566.39463500913, -127640.68724402039, -0.004, 0.962, -0.074, 192.0, 0.0, 0.0, 0.0, 0.0, 0.0, 0.0, 0.0, 0.0, 0.0, 1.66640822972844E9, 0.0, 2022-10-21 20:10:29.728
228.0, -155841.3244296699, -166627.6281032119, 62162.548263376746, -74969.98607754541, 78661.62254352838, -89842.21098926199, 84560.62788493966, -127629.60077877055, -0.004, 0.962, -0.074, 192.0, 0.0, 0.0, 0.0, 0.0, 0.0, 0.0, 0.0, 0.0, 0.0, 1.6664082297284493E9, 0.0, 2022-10-21 20:10:29.728
229.0, -155842.66553433723, -166629.79622242408, 62158.994336008356, -74973.42824619154, 78650.22315385618, -89847.0613178088, 84573.43543451255, -127633.5793892836, -0.004, 0.962, -0.074, 192.0, 0.0, 0.0, 0.0, 0.0, 0.0, 0.0, 0.0, 0.0, 0.0, 1.666408229728459E9, 0.0, 2022-10-21 20:10:29.728
230.0, -155853.61788912033, -166645.95653366524, 62147.371428891594, -74988.98506033243, 78632.74408969213, -89858.57246620327, 84577.4140450256, -127651.19256391437, -0.004, 0.962, -0.074, 192.0, 0.0, 0.0, 0.0, 0.0, 0.0, 0.0, 0.0, 0.0, 0.0, 1.6664082297284684E9, 0.0, 2022-10-21 20:10:29.728
231.0, -155855.4954356546, -166649.39870231136, 62154.792208050756, -74986.79458937582, 78643.22705784166, -89863.1098703277, 84565.58997220873, -127651.63959880348, -0.004, 0.962, -0.074, 192.0, 0.0, 0.0, 29.0, 208.0, 253.0, 48.0, 0.0, 0.0, 0.0, 1.6664082297284777E9, 0.0, 2022-10-21 20:10:29.728
232.0, -155848.2311187066, -166643.25197258615, 62163.665850599515, -74989.54385394382, 78644.03172064206, -89869.92715238658, 84542.92530333105, -127651.68430229239, -0.004, 0.962, -0.074, 192.0, 0.0, 0.0, 0.0, 0.0, 0.0, 0.0, 0.0, 0.0, 0.0, 1.6664082297284875E9, 0.0, 2022-10-21 20:10:29.728
233.0, -155844.76659831603, -166639.0274928841, 62167.73386809038, -74973.02591479135, 78653.24063935765, -89848.62593992066, 84569.81445191079, -127645.76109001173, -0.004, 0.962, -0.074, 192.0, 0.0, 0.0, 0.0, 0.0, 0.0, 0.0, 0.0, 0.0, 0.0, 1.6664082297284968E9, 0.0, 2022-10-21 20:10:29.728
234.0, -155850.9356797857, -166642.7378824637, 62158.144969719055, -74981.76544687337, 78643.89761017534, -89851.37520448866, 84585.43832128505, -127654.21004941584, -0.004, 0.962, -0.074, 192.0, 0.0, 0.0, 0.0, 0.0, 0.0, 0.0, 0.0, 0.0, 0.0, 1.6664082297285063E9, 0.0, 2022-10-21 20:10:29.728
235.0, -155846.4429791502, -166634.91477190432, 62164.4705133999, -74985.38642947513, 78644.45640378671, -89867.49081224094, 84567.22164955398, -127654.79119477168, -0.004, 0.962, -0.074, 192.0, 0.0, 0.0, 0.0, 0.0, 0.0, 0.0, 0.0, 0.0, 0.0, 1.6664082297285159E9, 0.0, 2022-10-21 20:10:29.728
236.0, -155848.1417117288, -166638.3792922949, 62168.15855123503, -74987.62160392066, 78652.88301144636, -89862.64048369414, 84547.46270745549, -127652.55602032616, -0.004, 0.962, -0.074, 192.0, 0.0, 0.0, 0.0, 0.0, 0.0, 0.0, 0.0, 0.0, 0.0, 1.6664082297285252E9, 0.0, 2022-10-21 20:10:29.728
237.0, -155857.75296184458, -166651.90209769036, 62165.81161806722, -74983.55358642979, 78656.21342137021, -89849.52000969887, 84560.44907098402, -127655.01471221623, -0.004, 0.962, -0.074, 192.0, 0.0, 0.0, 0.0, 0.0, 0.0, 0.0, 0.0, 0.0, 0.0, 1.6664082297285347E9, 0.0, 2022-10-21 20:10:29.728
238.0, -155860.1445985013, -166655.25485935865, 62166.07983900069, -74975.5516619148, 78657.06278765951, -89840.33344272774, 84591.24977484344, -127651.12550868101, -0.004, 0.962, -0.074, 192.0, 0.0, 0.0, 0.0, 0.0, 0.0, 0.0, 0.0, 0.0, 0.0, 1.6664082297285452E9, 0.0, 2022-10-21 20:10:29.728
239.0, -155852.6791158532, -166645.30833307604, 62166.526873889794, -74987.17456903154, 78650.5137265341, -89852.71630915598, 84580.25271657143, -127651.68430229239, -0.004, 0.962, -0.074, 192.0, 0.0, 0.0, 0.0, 0.0, 0.0, 0.0, 0.0, 0.0, 0.0, 1.6664082297285545E9, 0.0, 2022-10-21 20:10:29.728
240.0, -155861.46335142414, -166655.45602505875, 62159.70959183093, -74997.67988892554, 78642.57885725246, -89874.0622251108, 84543.99818706492, -127659.68622680739, -0.002, 0.964, -0.078, 192.0, 255.0, 240.0, 30.0, 32.0, 253.0, 144.0, 0.0, 0.0, 0.0, 1.666408229728564E9, 0.0, 2022-10-21 20:10:29.728
241.0, -155868.70531662766, -166665.71547576375, 62154.14400746155, -74992.47193246745, 78639.1143368619, -89875.3139228003, 84542.16534401958, -127665.00594198775, -0.002, 0.964, -0.078, 192.0, 0.0, 0.0, 0.0, 0.0, 0.0, 0.0, 0.0, 0.0, 0.0, 1.666408229728583E9, 0.0, 2022-10-21 20:10:29.728
242.0, -155864.9949270481, -166661.78156873962, 62158.837873797165, -74972.8023973468, 78643.9646654087, -89860.53941971534, 84575.7600159359, -127656.55698258364, -0.002, 0.964, -0.078, 192.0, 0.0, 0.0, 0.0, 0.0, 0.0, 0.0, 0.0, 0.0, 0.0, 1.6664082297285929E9, 0.0, 2022-10-21 20:10:29.728
243.0, -155866.7383631156, -166661.15571989486, 62156.11096097362, -74976.11045552617, 78639.78488919555, -89865.79207966234, 84576.58703048075, -127658.90391575145, -0.002, 0.964, -0.078, 192.0, 0.0, 0.0, 0.0, 0.0, 0.0, 0.0, 0.0, 0.0, 0.0, 1.6664082297286022E9, 0.0, 2022-10-21 20:10:29.728
244.0, -155862.51388341354, -166654.584307025, 62158.279080185785, -74983.57593817424, 78643.9646654087, -89870.53064948687, 84558.52682096086, -127654.74649128277, -0.002, 0.964, -0.078, 192.0, 0.0, 0.0, 0.0, 0.0, 0.0, 0.0, 0.0, 0.0, 0.0, 1.6664082297286117E9, 0.0, 2022-10-21 20:10:29.728
245.0, -155856.41185717724, -166645.71066447624, 62162.79413256576, -74981.58663291772, 78648.2114968552, -89858.68422492556, 84561.43254774006, -127641.02252018721, -0.002, 0.964, -0.078, 192.0, 0.0, 0.0, 0.0, 0.0, 0.0, 0.0, 0.0, 0.0, 0.0, 1.6664082297286208E9, 0.0, 2022-10-21 20:10:29.728
246.0, -155858.95995604515, -166649.95749592275, 62161.274213942794, -74968.2426414779, 78644.79167995355, -89855.9126086131, 84586.0641701298, -127641.00016844276, -0.002, 0.964, -0.078, 192.0, 0.0, 0.0, 0.0, 0.0, 0.0, 0.0, 0.0, 0.0, 0.0, 1.6664082297286303E9, 0.0, 2022-10-21 20:10:29.728
247.0, -155861.4857031686, -166652.10326339045, 62163.174112221495, -74963.10174025319, 78646.55746776551, -89855.97966384646, 84596.27891734587, -127637.62505503, -0.002, 0.964, -0.078, 192.0, 0.0, 0.0, 0.0, 0.0, 0.0, 0.0, 0.0, 0.0, 0.0, 1.66640822972864E9, 0.0, 2022-10-21 20:10:29.728
248.0, -155855.27191821003, -166647.0294173991, 62167.420943668, -74963.30290595329, 78654.40293006932, -89853.23039927846, 84577.50345200342, -127632.68531950538, -0.002, 0.964, -0.078, 192.0, 0.0, 0.0, 0.0, 0.0, 0.0, 0.0, 0.0, 0.0, 0.0, 1.6664082297286494E9, 0.0, 2022-10-21 20:10:29.728
249.0, -155875.83552310892, -166666.29662111957, 62144.73392304587, -74978.3456299717, 78640.32133106249, -89872.1623268321, 84546.99332082193, -127656.15465118346, -0.002, 0.964, -0.078, 192.0, 0.0, 0.0, 0.0, 0.0, 0.0, 0.0, 0.0, 0.0, 0.0, 1.666408229728659E9, 0.0, 2022-10-21 20:10:29.728
250.0, -155880.59644467788, -166667.66007753136, 62137.60371656463, -74964.93458329851, 78637.21443858319, -89870.53064948687, 84562.41602449608, -127663.70954080934, -0.002, 0.9560000000000001, -0.084, 192.0, 255.0, 240.0, 29.0, 224.0, 253.0, 96.0, 0.0, 0.0, 0.0, 1.6664082297286682E9, 0.0, 2022-10-21 20:10:29.728
251.0, -155862.3350694579, -166650.42688255632, 62153.518158616804, -74945.0415307333, 78657.28630510406, -89848.40242247611, 84598.69290574706, -127643.57061905511, -0.002, 0.9560000000000001, -0.084, 192.0, 0.0, 0.0, 0.0, 0.0, 0.0, 0.0, 0.0, 0.0, 0.0, 1.6664082297286782E9, 0.0, 2022-10-21 20:10:29.728
252.0, -155871.07460153993, -166661.24512687267, 62145.09155095716, -74967.5497373998, 78642.35533980791, -89868.83191690825, 84569.30036178832, -127653.22657265981, -0.002, 0.9560000000000001, -0.084, 192.0, 0.0, 0.0, 0.0, 0.0, 0.0, 0.0, 0.0, 0.0, 0.0, 1.6664082297286875E9, 0.0, 2022-10-21 20:10:29.728
253.0, -155866.11251427085, -166656.12657739242, 62157.988507507864, -74951.54588836979, 78652.30186609052, -89868.67545469708, 84557.23041978246, -127641.91658996542, -0.002, 0.9560000000000001, -0.084, 192.0, 0.0, 0.0, 0.0, 0.0, 0.0, 0.0, 0.0, 0.0, 0.0, 1.666408229728697E9, 0.0, 2022-10-21 20:10:29.728
254.0, -155863.51971191404, -166653.57847852452, 62161.76595232081, -74928.21066715845, 78658.20272662673, -89853.38686148965, 84581.07973111628, -127634.80873522864, -0.002, 0.9560000000000001, -0.084, 192.0, 0.0, 0.0, 0.0, 0.0, 0.0, 0.0, 0.0, 0.0, 0.0, 1.6664082297287068E9, 0.0, 2022-10-21 20:10:29.728
255.0, -155861.8433310799, -166652.70676049075, 62157.00503075183, -74924.20970490095, 78655.20759286972, -89842.3003962398, 84600.41399007011, -127639.77082249771, -0.002, 0.9560000000000001, -0.084, 192.0, 0.0, 0.0, 0.0, 0.0, 0.0, 0.0, 0.0, 0.0, 0.0, 1.6664082297287161E9, 0.0, 2022-10-21 20:10:29.728
0.0, -155862.60329039136, -166653.39966456886, 62151.86412952711, -74934.24563816139, 78647.1609648658, -89858.39365224763, 84577.57050723679, -127645.26935163372, -0.002, 0.9560000000000001, -0.084, 192.0, 0.0, 0.0, 0.0, 0.0, 0.0, 0.0, 0.0, 0.0, 0.0, 1.6664082297287345E9, 0.0, 2022-10-21 20:10:29.728
1.0, -155870.76167711755, -166661.62510652843, 62149.338382403665, -74934.40210037256, 78647.47388928817, -89870.08361459775, 84554.16823079209, -127647.9292092239, -0.002, 0.9560000000000001, -0.084, 192.0, 0.0, 0.0, 0.0, 0.0, 0.0, 0.0, 0.0, 0.0, 0.0, 1.666408229728744E9, 0.0, 2022-10-21 20:10:29.728
2.0, -155857.52944440002, -166647.92348717732, 62164.8728448001, -74903.55669302425, 78665.69056101925, -89852.1128120557, 84580.99032413845, -127632.73002299429, -0.002, 0.9560000000000001, -0.084, 192.0, 0.0, 0.0, 0.0, 0.0, 0.0, 0.0, 0.0, 0.0, 0.0, 1.666408229728754E9, 0.0, 2022-10-21 20:10:29.728
3.0, -155860.97161304613, -166650.7845104676, 62158.79317030826, -74905.38953606958, 78662.91894470679, -89840.84753285021, 84606.69483026204, -127635.76986024021, -0.002, 0.9560000000000001, -0.084, 192.0, 0.0, 0.0, 0.0, 0.0, 0.0, 0.0, 0.0, 0.0, 0.0, 1.666408229728764E9, 0.0, 2022-10-21 20:10:29.728
4.0, -155851.785046075, -166642.2908475746, 62163.57644362169, -74908.78700122678, 78665.15411915233, -89844.78143987435, 84598.33527783577, -127636.08278466259, -0.002, 0.9520000000000001, -0.082, 192.0, 255.0, 240.0, 29.0, 192.0, 253.0, 112.0, 0.0, 0.0, 0.0, 1.6664082297287736E9, 0.0, 2022-10-21 20:10:29.728
5.0, -155847.51586288403, -166635.831193427, 62162.414152910016, -74912.89972220657, 78661.55548829502, -89863.71336742799, 84568.54040247684, -127641.84953473206, -0.002, 0.9520000000000001, -0.082, 192.0, 0.0, 0.0, 0.0, 0.0, 0.0, 0.0, 0.0, 0.0, 0.0, 1.666408229728784E9, 0.0, 2022-10-21 20:10:29.728
6.0, -155853.5955373759, -166644.45896678674, 62161.02834475379, -74906.66358550353, 78660.12497664988, -89861.72406217147, 84571.87081240068, -127644.28587487768, -0.002, 0.9520000000000001, -0.082, 192.0, 0.0, 0.0, 0.0, 0.0, 0.0, 0.0, 0.0, 0.0, 0.0, 1.6664082297287946E9, 0.0, 2022-10-21 20:10:29.728
7.0, -155858.17764498922, -166652.05855990155, 62167.15272273454, -74891.15147485155, 78665.55645055253, -89841.13810552814, 84606.47131281749, -127642.85536323255, -0.002, 0.9520000000000001, -0.082, 192.0, 0.0, 0.0, 0.0, 0.0, 0.0, 0.0, 0.0, 0.0, 0.0, 1.6664082297288043E9, 0.0, 2022-10-21 20:10:29.728
8.0, -155857.75296184458, -166652.2373738572, 62168.96321403542, -74907.49060004838, 78652.32421783498, -89864.00394010592, 84593.88728068916, -127647.39276735697, -0.002, 0.9520000000000001, -0.082, 192.0, 0.0, 0.0, 0.0, 0.0, 0.0, 0.0, 0.0, 0.0, 0.0, 1.6664082297288136E9, 0.0, 2022-10-21 20:10:29.728
9.0, -155843.35843841537, -166637.10524286094, 62177.367469950615, -74912.78796348428, 78653.28534284656, -89878.59962923524, 84565.56762046428, -127643.70472952185, -0.002, 0.9520000000000001, -0.082, 192.0, 0.0, 0.0, 0.0, 0.0, 0.0, 0.0, 0.0, 0.0, 0.0, 1.6664082297288227E9, 0.0, 2022-10-21 20:10:29.728
10.0, -155833.00958073256, -166627.20342006726, 62186.241112499374, -74898.84047494418, 78665.17647089678, -89863.3110360278, 84576.1623473361, -127635.09930790655, -0.002, 0.9520000000000001, -0.082, 192.0, 0.0, 0.0, 0.0, 0.0, 0.0, 0.0, 0.0, 0.0, 0.0, 1.6664082297288325E9, 0.0, 2022-10-21 20:10:29.728
11.0, -155834.7753685445, -166629.50564974616, 62185.548208421256, -74886.05527711574, 78663.63420052937, -89853.1633440451, 84604.88433896117, -127637.75916549674, -0.002, 0.9520000000000001, -0.082, 192.0, 0.0, 0.0, 0.0, 0.0, 0.0, 0.0, 0.0, 0.0, 0.0, 1.666408229728842E9, 0.0, 2022-10-21 20:10:29.728
12.0, -155834.64125807778, -166626.68932994478, 62187.89514158907, -74883.41777127002, 78661.73430225067, -89856.20318129101, 84604.92904245008, -127641.69307252087, -0.002, 0.9520000000000001, -0.082, 192.0, 0.0, 0.0, 0.0, 0.0, 0.0, 0.0, 0.0, 0.0, 0.0, 1.6664082297288516E9, 0.0, 2022-10-21 20:10:29.728
