%OpenBCI Raw EEG Data
%Number of channels = 8
%Sample Rate = 250 Hz
%Board = OpenBCI_GUI$BoardCytonSerial
Sample Index, EXG Channel 0, EXG Channel 1, EXG Channel 2, EXG Channel 3, EXG Channel 4, EXG Channel 5, EXG Channel 6, EXG Channel 7, Accel Channel 0, Accel Channel 1, Accel Channel 2, Other, Other, Other, Other, Other, Other, Other, Analog Channel 0, Analog Channel 1, Analog Channel 2, Timestamp, Other, Timestamp (Formatted)
137.0, -148063.67731853455, -158342.86461387452, 46957.10354532046, -85378.38880758153, 73478.43181829833, -72558.4787200068, 86037.85467599091, -128117.20408406307, 0.0, 0.0, 0.0, 192.0, 0.0, 0.0, 0.0, 0.0, 0.0, 0.0, 0.0, 0.0, 0.0, 1.6664079153941565E9, 0.0, 2022-10-21 20:05:15.394
138.0, -148068.8405715037, -158344.4292359864, 46955.00248134166, -85381.69686576091, 73477.58245200902, -72536.30578950713, 86060.74286231314, -128119.14868583069, 0.0, 0.0, 0.0, 192.0, 0.0, 0.0, 0.0, 0.0, 0.0, 0.0, 0.0, 0.0, 0.0, 1.6664079153941748E9, 0.0, 2022-10-21 20:05:15.394
139.0, -148071.3439668827, -158343.53516620817, 46953.66137667434, -85398.7065432914, 73474.16263510736, -72550.83442340308, 86036.64768179032, -128122.70261319907, 0.0, 0.0, 0.0, 192.0, 0.0, 0.0, 0.0, 0.0, 0.0, 0.0, 0.0, 0.0, 0.0, 1.6664079153941877E9, 0.0, 2022-10-21 20:05:15.394
140.0, -148062.3362138672, -158339.89183186195, 46961.4844872337, -85397.47719734636, 73484.42208581234, -72569.05109513416, 86016.44170480272, -128115.17007531764, 0.0, 0.0, 0.0, 192.0, 0.0, 0.0, 0.0, 0.0, 0.0, 0.0, 0.0, 0.0, 0.0, 1.6664079153942008E9, 0.0, 2022-10-21 20:05:15.394
141.0, -148059.11756266566, -158337.54489869415, 46968.05590010356, -85380.4004645825, 73492.73693474972, -72557.98698162878, 86036.80414400151, -128107.10109556928, 0.0, 0.0, 0.0, 192.0, 0.0, 0.0, 0.0, 0.0, 0.0, 0.0, 0.0, 0.0, 0.0, 1.666407915394214E9, 0.0, 2022-10-21 20:05:15.394
142.0, -148064.1467051681, -158336.29320100465, 46963.33968202349, -85381.07101691616, 73487.48427480273, -72537.13280405197, 86059.5135163681, -128115.12537182873, 0.0, 0.0, 0.0, 192.0, 0.0, 0.0, 0.0, 0.0, 0.0, 0.0, 0.0, 0.0, 0.0, 1.6664079153942268E9, 0.0, 2022-10-21 20:05:15.394
143.0, -148077.33423439672, -158350.55361396715, 46954.264873774635, -85398.79595026922, 73477.13541711992, -72551.43792050338, 86035.01600444509, -128133.36439530426, 0.01, 0.9440000000000001, -0.152, 192.0, 0.0, 80.0, 29.0, 128.0, 251.0, 64.0, 0.0, 0.0, 0.0, 1.6664079153942392E9, 0.0, 2022-10-21 20:05:15.394
144.0, -148075.92607449606, -158354.46516924683, 46968.14530708138, -85402.19341542643, 73486.36668757995, -72562.85966192004, 86015.92761468024, -128121.2944532984, 0.01, 0.9440000000000001, -0.152, 192.0, 0.0, 0.0, 0.0, 0.0, 0.0, 0.0, 0.0, 0.0, 0.0, 1.6664079153942523E9, 0.0, 2022-10-21 20:05:15.394
145.0, -148071.5004290939, -158360.2766228052, 46967.45240300327, -85391.12930192106, 73489.54063529261, -72562.16675784191, 86025.29299560703, -128119.72983118652, 0.01, 0.9440000000000001, -0.152, 192.0, 0.0, 0.0, 0.0, 0.0, 0.0, 0.0, 0.0, 0.0, 0.0, 1.6664079153942635E9, 0.0, 2022-10-21 20:05:15.394
146.0, -148058.78228649884, -158356.20860531434, 46965.61955995793, -85373.62788601255, 73490.03237367063, -72538.98799884177, 86053.74676629863, -128124.42369752214, 0.01, 0.9440000000000001, -0.152, 192.0, 0.0, 0.0, 0.0, 0.0, 0.0, 0.0, 0.0, 0.0, 0.0, 1.6664079153942745E9, 0.0, 2022-10-21 20:05:15.394
147.0, -148060.3916120996, -158345.2786022757, 46980.86344967645, -85373.94081043493, 73496.51437956266, -72529.57791442609, 86055.66901632179, -128110.29739502638, 0.01, 0.9440000000000001, -0.152, 192.0, 0.0, 0.0, 0.0, 0.0, 0.0, 0.0, 0.0, 0.0, 0.0, 1.6664079153942854E9, 0.0, 2022-10-21 20:05:15.394
148.0, -148065.9348447245, -158348.89958487745, 46979.656455475866, -85400.94171773693, 73492.60282428299, -72557.94227813986, 86024.13070489535, -128116.01944160694, 0.01, 0.9440000000000001, -0.152, 192.0, 0.0, 0.0, 0.0, 0.0, 0.0, 0.0, 0.0, 0.0, 0.0, 1.6664079153942964E9, 0.0, 2022-10-21 20:05:15.394
149.0, -148067.07478369176, -158349.01134359973, 46980.617580487444, -85404.04861021622, 73488.87008295895, -72570.25808933475, 86020.04033566003, -128120.78036317592, 0.01, 0.9440000000000001, -0.152, 192.0, 0.0, 0.0, 0.0, 0.0, 0.0, 0.0, 0.0, 0.0, 0.0, 1.666407915394307E9, 0.0, 2022-10-21 20:05:15.394
150.0, -148078.6529873196, -158359.0249251157, 46974.80612692906, -85394.03502870024, 73493.38513533892, -72535.29996100665, 86052.27155116458, -128122.45674401007, 0.01, 0.9440000000000001, -0.152, 192.0, 0.0, 0.0, 0.0, 0.0, 0.0, 0.0, 0.0, 0.0, 0.0, 1.6664079153943176E9, 0.0, 2022-10-21 20:05:15.394
151.0, -148072.3050918943, -158353.19111981287, 46974.69436820679, -85404.47329336088, 73486.63490851343, -72529.98024582629, 86048.06942320698, -128124.20018007758, 0.01, 0.9440000000000001, -0.152, 192.0, 0.0, 0.0, 0.0, 0.0, 0.0, 0.0, 0.0, 0.0, 0.0, 1.6664079153943284E9, 0.0, 2022-10-21 20:05:15.394
152.0, -148051.4956178064, -158334.54976493714, 46987.70308347978, -85404.47329336088, 73492.8933969609, -72555.93062113889, 86021.806123472, -128113.24782529449, 0.006, 0.9540000000000001, -0.152, 192.0, 0.0, 48.0, 29.0, 208.0, 251.0, 64.0, 0.0, 0.0, 0.0, 1.666407915394339E9, 0.0, 2022-10-21 20:05:15.394
153.0, -148051.80854222877, -158338.14839579444, 46982.852754932974, -85397.41014211299, 73494.65918477287, -72570.59336550157, 86016.53111178054, -128117.38289801871, 0.006, 0.9540000000000001, -0.152, 192.0, 0.0, 0.0, 0.0, 0.0, 0.0, 0.0, 0.0, 0.0, 0.0, 1.6664079153944757E9, 0.0, 2022-10-21 20:05:15.394
154.0, -148052.45674281797, -158340.6741429179, 46976.81778393004, -85393.36447636658, 73489.0488969146, -72551.28145829219, 86044.78371677206, -128115.01361310645, 0.006, 0.9540000000000001, -0.152, 192.0, 0.0, 0.0, 0.0, 0.0, 0.0, 0.0, 0.0, 0.0, 0.0, 1.666407915394487E9, 0.0, 2022-10-21 20:05:15.394
155.0, -148058.6481760321, -158344.13866330846, 46969.017025115136, -85405.34501139463, 73482.81276021156, -72537.13280405197, 86052.18214418677, -128121.02623236494, 0.006, 0.9540000000000001, -0.152, 192.0, 0.0, 0.0, 0.0, 0.0, 0.0, 0.0, 0.0, 0.0, 0.0, 1.6664079153944979E9, 0.0, 2022-10-21 20:05:15.394
156.0, -148038.39749555558, -158324.1785555099, 46985.71377822325, -85400.67349680347, 73498.99542319721, -72542.22900178778, 86042.19091441523, -128102.22841527802, 0.006, 0.9540000000000001, -0.152, 192.0, 0.0, 0.0, 0.0, 0.0, 0.0, 0.0, 0.0, 0.0, 0.0, 1.6664079153945084E9, 0.0, 2022-10-21 20:05:15.394
157.0, -148036.78816995482, -158320.0211310412, 46987.52426952413, -85391.28576413223, 73504.00221395519, -72559.93158339639, 86030.27743462056, -128097.9368803426, 0.006, 0.9540000000000001, -0.152, 192.0, 0.0, 0.0, 0.0, 0.0, 0.0, 0.0, 0.0, 0.0, 0.0, 1.666407915394519E9, 0.0, 2022-10-21 20:05:15.394
158.0, -148055.697745764, -158339.15422429494, 46969.86639140444, -85395.51024383429, 73492.71458300526, -72555.1259583385, 86041.1627341703, -128113.51604622795, 0.006, 0.9540000000000001, -0.152, 192.0, 0.0, 0.0, 0.0, 0.0, 0.0, 0.0, 0.0, 0.0, 0.0, 1.66640791539453E9, 0.0, 2022-10-21 20:05:15.394
159.0, -148051.4956178064, -158339.73536965076, 46965.75367042467, -85401.96989798188, 73487.12664689144, -72534.65176041744, 86054.23850467664, -128116.55588347386, 0.006, 0.9540000000000001, -0.152, 192.0, 0.0, 0.0, 0.0, 0.0, 0.0, 0.0, 0.0, 0.0, 0.0, 1.6664079153945436E9, 0.0, 2022-10-21 20:05:15.394
160.0, -148059.67635627705, -158342.79755864115, 46963.80906865705, -85406.28378466175, 73487.26075735816, -72548.93452512438, 86032.42320208826, -128116.15355207368, 0.006, 0.9540000000000001, -0.152, 192.0, 0.0, 0.0, 0.0, 0.0, 0.0, 0.0, 0.0, 0.0, 0.0, 1.6664079153945544E9, 0.0, 2022-10-21 20:05:15.394
161.0, -148059.4975423214, -158340.85295687354, 46962.311501778546, -85407.5578340957, 73488.8924347034, -72575.60015625956, 86010.25027158861, -128116.26531079595, 0.006, 0.9540000000000001, -0.152, 192.0, 0.0, 0.0, 0.0, 0.0, 0.0, 0.0, 0.0, 0.0, 0.0, 1.666407915394565E9, 0.0, 2022-10-21 20:05:15.394
162.0, -148059.8998737216, -158340.629439429, 46964.16669656834, -85391.68809553243, 73494.9497574508, -72550.78971991417, 86036.87119923487, -128116.46647649605, 0.012, 0.9560000000000001, -0.152, 192.0, 0.0, 96.0, 29.0, 224.0, 251.0, 64.0, 0.0, 0.0, 0.0, 1.6664079153945756E9, 0.0, 2022-10-21 20:05:15.394
163.0, -148058.8493417322, -158343.02107608572, 46963.47379249022, -85385.36255185158, 73495.86617897346, -72521.95596956683, 86064.74382457064, -128107.95046185858, 0.012, 0.9560000000000001, -0.152, 192.0, 0.0, 0.0, 0.0, 0.0, 0.0, 0.0, 0.0, 0.0, 0.0, 1.6664079153945873E9, 0.0, 2022-10-21 20:05:15.394
164.0, -148050.73565849493, -158334.59446842605, 46962.22209480072, -85388.78236875325, 73493.0498591721, -72538.60801918602, 86041.58741731495, -128112.71138342755, 0.012, 0.9560000000000001, -0.152, 192.0, 0.0, 0.0, 0.0, 0.0, 0.0, 0.0, 0.0, 0.0, 0.0, 1.6664079153945978E9, 0.0, 2022-10-21 20:05:15.394
165.0, -148047.09232414872, -158326.34667472204, 46966.62538845842, -85388.62590654206, 73493.31808010556, -72563.3737520425, 86016.86638794738, -128105.58117694632, 0.012, 0.9560000000000001, -0.152, 192.0, 0.0, 0.0, 0.0, 0.0, 0.0, 0.0, 0.0, 0.0, 0.0, 1.6664079153946085E9, 0.0, 2022-10-21 20:05:15.394
166.0, -148049.05927766077, -158333.81215737012, 46961.596245955974, -85384.84846172911, 73486.88077770243, -72567.59823174456, 86024.37657408435, -128109.06804908134, 0.012, 0.9560000000000001, -0.152, 192.0, 0.0, 0.0, 0.0, 0.0, 0.0, 0.0, 0.0, 0.0, 0.0, 1.666407915394619E9, 0.0, 2022-10-21 20:05:15.394
167.0, -148049.17103638305, -158334.6838754039, 46961.43978374479, -85371.45976680038, 73490.18883588181, -72540.32910350908, 86057.77008030059, -128106.989336847, 0.012, 0.9560000000000001, -0.152, 192.0, 0.0, 0.0, 0.0, 0.0, 0.0, 0.0, 0.0, 0.0, 0.0, 1.6664079153946297E9, 0.0, 2022-10-21 20:05:15.394
168.0, -148054.58015854124, -158337.05316031614, 46959.69634767727, -85376.44420581391, 73490.27824285964, -72536.35049299605, 86049.54463834103, -128113.42663925013, 0.012, 0.9560000000000001, -0.152, 192.0, 0.0, 0.0, 0.0, 0.0, 0.0, 0.0, 0.0, 0.0, 0.0, 1.6664079153946729E9, 0.0, 2022-10-21 20:05:15.394
169.0, -148054.66956551906, -158342.95402085234, 46957.908208120854, -85386.48013907435, 73482.87981544493, -72570.25808933475, 86013.13364662333, -128117.27113929644, 0.012, 0.9560000000000001, -0.152, 192.0, 0.0, 0.0, 0.0, 0.0, 0.0, 0.0, 0.0, 0.0, 0.0, 1.6664079153946836E9, 0.0, 2022-10-21 20:05:15.394
170.0, -148058.75993475437, -158343.5798696971, 46955.22599878621, -85378.00882792579, 73480.26466134365, -72576.42717080441, 86017.44753330322, -128114.52187472844, 0.012, 0.9560000000000001, -0.152, 192.0, 0.0, 0.0, 0.0, 0.0, 0.0, 0.0, 0.0, 0.0, 0.0, 1.6664079153946948E9, 0.0, 2022-10-21 20:05:15.394
171.0, -148059.60930104367, -158344.83156738657, 46949.14632429437, -85368.93401967693, 73475.90607117488, -72545.96174311182, 86046.97418772867, -128113.51604622795, 0.012, 0.9560000000000001, -0.152, 192.0, 0.0, 0.0, 0.0, 0.0, 0.0, 0.0, 0.0, 0.0, 0.0, 1.6664079153947055E9, 0.0, 2022-10-21 20:05:15.394
172.0, -148053.06023991827, -158336.5837736826, 46960.769231411134, -85361.60264749559, 73489.60769052598, -72520.97249281079, 86059.13353671235, -128102.51898795593, 0.014, 0.9500000000000001, -0.146, 192.0, 0.0, 112.0, 29.0, 176.0, 251.0, 112.0, 0.0, 0.0, 0.0, 1.6664079153947165E9, 0.0, 2022-10-21 20:05:15.394
173.0, -148044.54422528078, -158322.90450607592, 46973.95676063976, -85360.55211550619, 73497.31904236306, -72537.91511510791, 86038.68169053576, -128094.18178727411, 0.014, 0.9500000000000001, -0.146, 192.0, 0.0, 0.0, 0.0, 0.0, 0.0, 0.0, 0.0, 0.0, 0.0, 1.666407915394729E9, 0.0, 2022-10-21 20:05:15.394
174.0, -148049.95334743898, -158324.13385202098, 46974.91788565134, -85354.65125496998, 73496.58143479603, -72548.44278674637, 86035.55244631201, -128091.14195002818, 0.014, 0.9500000000000001, -0.146, 192.0, 0.0, 0.0, 0.0, 0.0, 0.0, 0.0, 0.0, 0.0, 0.0, 1.6664079153947399E9, 0.0, 2022-10-21 20:05:15.394
175.0, -148069.62288255966, -158342.64109642996, 46958.310539521044, -85360.35094980609, 73479.21412935425, -72542.63133318798, 86049.47758310767, -128108.66571768114, 0.014, 0.9500000000000001, -0.146, 192.0, 0.0, 0.0, 0.0, 0.0, 0.0, 0.0, 0.0, 0.0, 0.0, 1.6664079153947506E9, 0.0, 2022-10-21 20:05:15.394
176.0, -148066.8512662472, -158346.73146566527, 46958.44464998778, -85357.46757477136, 73479.61646075445, -72530.15905978192, 86055.84783027743, -128110.05152583738, 0.014, 0.9500000000000001, -0.146, 192.0, 0.0, 0.0, 0.0, 0.0, 0.0, 0.0, 0.0, 0.0, 0.0, 1.666407915394761E9, 0.0, 2022-10-21 20:05:15.394
177.0, -148056.50240856438, -158337.54489869415, 46964.99371111318, -85362.83199344063, 73478.81179795407, -72552.55550772614, 86028.44459157523, -128108.01751709194, 0.014, 0.9500000000000001, -0.146, 192.0, 0.0, 0.0, 0.0, 0.0, 0.0, 0.0, 0.0, 0.0, 0.0, 1.666407915394772E9, 0.0, 2022-10-21 20:05:15.394
178.0, -148059.5422458103, -158336.31555274912, 46962.311501778546, -85357.15465034898, 73475.83901594151, -72573.47674053631, 86012.17252161176, -128109.80565664837, 0.014, 0.9500000000000001, -0.146, 192.0, 0.0, 0.0, 0.0, 0.0, 0.0, 0.0, 0.0, 0.0, 0.0, 1.6664079153947823E9, 0.0, 2022-10-21 20:05:15.394
179.0, -148063.9008359791, -158334.43800621486, 46968.4358797593, -85336.50163847228, 73484.10916138998, -72545.29119077817, 86046.72831853967, -128103.01072633395, 0.014, 0.9500000000000001, -0.146, 192.0, 0.0, 0.0, 0.0, 0.0, 0.0, 0.0, 0.0, 0.0, 0.0, 1.6664079153947935E9, 0.0, 2022-10-21 20:05:15.394
180.0, -148079.63646407562, -158353.86167214654, 46947.000556826664, -85363.25667658528, 73462.20445182377, -72541.60315294303, 86044.82842026096, -128127.66470046816, 0.014, 0.9500000000000001, -0.146, 192.0, 0.0, 0.0, 0.0, 0.0, 0.0, 0.0, 0.0, 0.0, 0.0, 1.6664079153948052E9, 0.0, 2022-10-21 20:05:15.394
181.0, -148067.36535636967, -158341.8811371185, 46953.504914463156, -85365.69301673092, 73462.76324543516, -72558.16579558443, 86020.33090833794, -128121.89795039869, 0.012, 0.9460000000000001, -0.14200000000000002, 192.0, 0.0, 96.0, 29.0, 144.0, 251.0, 144.0, 0.0, 0.0, 0.0, 1.666407915394816E9, 0.0, 2022-10-21 20:05:15.394
182.0, -148059.45283883248, -158333.4321777144, 46964.546676224076, -85356.41704278196, 73474.63202174092, -72566.97238289981, 86012.32898382294, -128104.79886589038, 0.012, 0.9460000000000001, -0.14200000000000002, 192.0, 0.0, 0.0, 0.0, 0.0, 0.0, 0.0, 0.0, 0.0, 0.0, 1.6664079153948271E9, 0.0, 2022-10-21 20:05:15.394
183.0, -148055.0942486637, -158335.376779482, 46969.12878383741, -85342.46955424185, 73476.66603048635, -72550.54385072517, 86037.809972502, -128105.91645311314, 0.012, 0.9460000000000001, -0.14200000000000002, 192.0, 0.0, 0.0, 0.0, 0.0, 0.0, 0.0, 0.0, 0.0, 0.0, 1.6664079153948512E9, 0.0, 2022-10-21 20:05:15.394
184.0, -148062.8503039897, -158340.89766036245, 46960.992748855686, -85341.15080131899, 73470.45224552778, -72531.5225161937, 86055.40079538833, -128112.6890316831, 0.012, 0.9460000000000001, -0.14200000000000002, 192.0, 0.0, 0.0, 0.0, 0.0, 0.0, 0.0, 0.0, 0.0, 0.0, 1.6664079153948617E9, 0.0, 2022-10-21 20:05:15.394
185.0, -148062.78324875634, -158339.1765760394, 46961.260969789146, -85347.87867640004, 73468.39588503788, -72547.92869662389, 86032.57966429945, -128112.91254912765, 0.012, 0.9460000000000001, -0.14200000000000002, 192.0, 0.0, 0.0, 0.0, 0.0, 0.0, 0.0, 0.0, 0.0, 0.0, 1.6664079153948853E9, 0.0, 2022-10-21 20:05:15.394
186.0, -148057.08355392024, -158337.2766777607, 46962.937350623295, -85349.8009264232, 73468.21707108225, -72572.49326378027, 86010.36203031088, -128108.21868279204, 0.012, 0.9460000000000001, -0.14200000000000002, 192.0, 0.0, 0.0, 0.0, 0.0, 0.0, 0.0, 0.0, 0.0, 0.0, 1.6664079153949263E9, 0.0, 2022-10-21 20:05:15.394
187.0, -148058.447010332, -158334.3262474926, 46957.19295229828, -85343.1401065755, 73465.66897221435, -72564.51369100974, 86022.99076592813, -128115.01361310645, 0.012, 0.9460000000000001, -0.14200000000000002, 192.0, 0.0, 0.0, 0.0, 0.0, 0.0, 0.0, 0.0, 0.0, 0.0, 1.666407915394968E9, 0.0, 2022-10-21 20:05:15.394
188.0, -148056.45770507547, -158338.99776208375, 46951.269740017626, -85333.68531867092, 73466.07130361453, -72530.44963245984, 86052.47271686468, -128114.85715089526, 0.012, 0.9460000000000001, -0.14200000000000002, 192.0, 0.0, 0.0, 0.0, 0.0, 0.0, 0.0, 0.0, 0.0, 0.0, 1.6664079153950143E9, 0.0, 2022-10-21 20:05:15.395
189.0, -148064.48198133495, -158343.26694527472, 46948.96751033873, -85352.63959796901, 73452.8837743859, -72545.29119077817, 86026.79056248553, -128121.51797074295, 0.012, 0.9460000000000001, -0.14200000000000002, 192.0, 0.0, 0.0, 0.0, 0.0, 0.0, 0.0, 0.0, 0.0, 0.0, 1.666407915395056E9, 0.0, 2022-10-21 20:05:15.395
190.0, -148058.35760335418, -158334.14743353694, 46956.56710345353, -85352.93017064693, 73455.36481802045, -72579.33289758359, 85998.42619877175, -128118.76870617495, 0.012, 0.9460000000000001, -0.14200000000000002, 192.0, 0.0, 0.0, 0.0, 0.0, 0.0, 0.0, 0.0, 0.0, 0.0, 1.6664079153950973E9, 0.0, 2022-10-21 20:05:15.395
191.0, -148064.86196099067, -158337.1202155495, 46952.8343621295, -85340.7931734077, 73454.47074824224, -72577.0306679047, 86008.08215237643, -128119.01457536395, 0.016, 0.9440000000000001, -0.146, 192.0, 0.0, 128.0, 29.0, 128.0, 251.0, 112.0, 0.0, 0.0, 0.0, 1.666407915395138E9, 0.0, 2022-10-21 20:05:15.395
192.0, -148068.88527499262, -158338.84129987255, 46948.78869638308, -85334.0429465822, 73457.2870680436, -72538.76448139721, 86045.74484178363, -128113.0913630833, 0.016, 0.9440000000000001, -0.146, 192.0, 0.0, 0.0, 0.0, 0.0, 0.0, 0.0, 0.0, 0.0, 0.0, 1.666407915395176E9, 0.0, 2022-10-21 20:05:15.395
193.0, -148063.02911794535, -158331.5322794357, 46956.075365075514, -85334.8923128715, 73460.61747796745, -72527.99094056975, 86046.34833888392, -128105.22354903503, 0.016, 0.9440000000000001, -0.146, 192.0, 0.0, 0.0, 0.0, 0.0, 0.0, 0.0, 0.0, 0.0, 0.0, 1.6664079153951917E9, 0.0, 2022-10-21 20:05:15.395
194.0, -148065.2419406464, -158340.56238419563, 46945.77121088162, -85351.38790027951, 73446.80409989407, -72574.50492078126, 86000.70607670619, -128119.99805211999, 0.016, 0.9440000000000001, -0.146, 192.0, 0.0, 0.0, 0.0, 0.0, 0.0, 0.0, 0.0, 0.0, 0.0, 1.666407915395207E9, 0.0, 2022-10-21 20:05:15.395
195.0, -148077.22247567447, -158351.80531165664, 46942.55255968006, -85350.56088573467, 73441.97612309172, -72586.64191802048, 85998.2473848161, -128127.21766557905, 0.016, 0.9440000000000001, -0.146, 192.0, 0.0, 0.0, 0.0, 0.0, 0.0, 0.0, 0.0, 0.0, 0.0, 1.666407915395223E9, 0.0, 2022-10-21 20:05:15.395
196.0, -148085.49262112292, -158359.09198034907, 46939.08803928948, -85344.83883915411, 73439.02569282362, -72557.76346418423, 86030.83622823194, -128129.49754351348, 0.016, 0.9440000000000001, -0.146, 192.0, 0.0, 0.0, 0.0, 0.0, 0.0, 0.0, 0.0, 0.0, 0.0, 1.6664079153952384E9, 0.0, 2022-10-21 20:05:15.395
197.0, -148076.77544078536, -158349.27956453318, 46945.6818039038, -85346.15759207697, 73442.64667542538, -72547.66047569043, 86036.3124056235, -128124.60251147777, 0.016, 0.9440000000000001, -0.146, 192.0, 0.0, 0.0, 0.0, 0.0, 0.0, 0.0, 0.0, 0.0, 0.0, 1.666407915395254E9, 0.0, 2022-10-21 20:05:15.395
198.0, -148067.72298428096, -158343.75868365273, 46951.02387082862, -85348.9962636228, 73447.04996908308, -72562.79260668666, 86010.47378903316, -128121.47326725404, 0.016, 0.9440000000000001, -0.146, 192.0, 0.0, 0.0, 0.0, 0.0, 0.0, 0.0, 0.0, 0.0, 0.0, 1.6664079153953097E9, 0.0, 2022-10-21 20:05:15.395
199.0, -148053.194350385, -158333.25336375873, 46960.67982443331, -85331.38308899202, 73454.7836726646, -72561.45150201935, 86014.49710303512, -128110.31974677084, 0.016, 0.9440000000000001, -0.146, 192.0, 0.0, 0.0, 0.0, 0.0, 0.0, 0.0, 0.0, 0.0, 0.0, 1.6664079153953257E9, 0.0, 2022-10-21 20:05:15.395
200.0, -148055.697745764, -158336.8296428716, 46954.91307436384, -85325.8398563671, 73452.839070897, -72548.68865593537, 86038.10054517991, -128117.44995325209, 0.016, 0.9440000000000001, -0.146, 192.0, 0.0, 0.0, 0.0, 0.0, 0.0, 0.0, 0.0, 0.0, 0.0, 1.6664079153953416E9, 0.0, 2022-10-21 20:05:15.395
201.0, -148075.5907983292, -158354.48752099127, 46937.05403054405, -85349.26448455626, 73433.77303287662, -72547.41460650142, 86033.74195501114, -128129.9445784026, 0.012, 0.9500000000000001, -0.146, 192.0, 0.0, 96.0, 29.0, 176.0, 251.0, 112.0, 0.0, 0.0, 0.0, 1.666407915395364E9, 0.0, 2022-10-21 20:05:15.395
202.0, -148084.12916471114, -158350.79948315615, 46942.15022827986, -85345.41998450995, 73444.50187021517, -72557.04820836165, 86015.16765536877, -128120.19921782009, 0.012, 0.9500000000000001, -0.146, 192.0, 0.0, 0.0, 0.0, 0.0, 0.0, 0.0, 0.0, 0.0, 0.0, 1.6664079153953753E9, 0.0, 2022-10-21 20:05:15.395
203.0, -148083.03392923283, -158344.60804994203, 46949.10162080546, -85338.42388849544, 73452.36968426344, -72565.20659508785, 86010.63025124434, -128111.75025841598, 0.012, 0.9500000000000001, -0.146, 192.0, 0.0, 0.0, 0.0, 0.0, 0.0, 0.0, 0.0, 0.0, 0.0, 1.6664079153953855E9, 0.0, 2022-10-21 20:05:15.395
204.0, -148096.3555689282, -158360.70130594986, 46933.209530497734, -85334.17705704893, 73437.34931198947, -72563.9772491428, 86022.81195197249, -128133.31969181536, 0.012, 0.9500000000000001, -0.146, 192.0, 0.0, 0.0, 0.0, 0.0, 0.0, 0.0, 0.0, 0.0, 0.0, 1.666407915395396E9, 0.0, 2022-10-21 20:05:15.395
205.0, -148095.23798170543, -158363.29410830667, 46932.29310897507, -85334.44527798239, 73429.41444270783, -72550.00740885823, 86034.12193466687, -128134.19140984911, 0.012, 0.9500000000000001, -0.146, 192.0, 0.0, 0.0, 0.0, 0.0, 0.0, 0.0, 0.0, 0.0, 0.0, 1.666407915395407E9, 0.0, 2022-10-21 20:05:15.395
206.0, -148073.46738260597, -158342.99872434125, 46949.034565572096, -85321.05658305367, 73447.89933537238, -72547.70517917933, 86031.7079462657, -128114.43246775061, 0.012, 0.9500000000000001, -0.146, 192.0, 0.0, 0.0, 0.0, 0.0, 0.0, 0.0, 0.0, 0.0, 0.0, 1.6664079153954175E9, 0.0, 2022-10-21 20:05:15.395
207.0, -148075.7472605404, -158342.35052375204, 46946.70998414874, -85333.12652505953, 73447.96639060574, -72568.31348756712, 86014.22888210164, -128120.02040386444, 0.012, 0.9500000000000001, -0.146, 192.0, 0.0, 0.0, 0.0, 0.0, 0.0, 0.0, 0.0, 0.0, 0.0, 1.6664079153954277E9, 0.0, 2022-10-21 20:05:15.395
208.0, -148078.5412285973, -158348.05021858815, 46943.89366434737, -85321.34715573158, 73443.42898648132, -72557.0258566172, 86031.59618754341, -128116.10884858476, 0.012, 0.9500000000000001, -0.146, 192.0, 0.0, 0.0, 0.0, 0.0, 0.0, 0.0, 0.0, 0.0, 0.0, 1.666407915395438E9, 0.0, 2022-10-21 20:05:15.395
209.0, -148081.93869375452, -158349.23486104427, 46944.09483004747, -85319.62607140852, 73444.72538765972, -72529.6673214039, 86056.54073435554, -128115.01361310645, 0.012, 0.9500000000000001, -0.146, 192.0, 0.0, 0.0, 0.0, 0.0, 0.0, 0.0, 0.0, 0.0, 0.0, 1.666407915395448E9, 0.0, 2022-10-21 20:05:15.395
210.0, -148074.16028668408, -158337.34373299405, 46956.4329929868, -85317.10032428507, 73451.40855925185, -72533.51182145021, 86047.15300168432, -128108.77747640343, 0.012, 0.9500000000000001, -0.146, 192.0, 0.0, 0.0, 0.0, 0.0, 0.0, 0.0, 0.0, 0.0, 0.0, 1.6664079153954582E9, 0.0, 2022-10-21 20:05:15.395
211.0, -148082.0951559657, -158346.68676217637, 46945.50298994815, -85331.51719945874, 73439.65154166837, -72582.79741797417, 86006.0034401421, -128123.0378893659, 0.008, 0.9500000000000001, -0.15, 192.0, 0.0, 64.0, 29.0, 176.0, 251.0, 80.0, 0.0, 0.0, 0.0, 1.6664079153954687E9, 0.0, 2022-10-21 20:05:15.395
212.0, -148092.7569380709, -158359.4272565159, 46933.924786320305, -85334.9370163604, 73430.77789911961, -72584.51850229723, 86011.65843148928, -128125.742450445, 0.008, 0.9500000000000001, -0.15, 192.0, 0.0, 0.0, 0.0, 0.0, 0.0, 0.0, 0.0, 0.0, 0.0, 1.6664079153954797E9, 0.0, 2022-10-21 20:05:15.395
213.0, -148083.81624028878, -158355.00161111375, 46938.08221078899, -85327.27036801224, 73435.06943405503, -72547.83928964607, 86046.37069062838, -128121.1379910872, 0.008, 0.9500000000000001, -0.15, 192.0, 0.0, 0.0, 0.0, 0.0, 0.0, 0.0, 0.0, 0.0, 0.0, 1.666407915395513E9, 0.0, 2022-10-21 20:05:15.395
214.0, -148075.1437634401, -158346.66441043193, 46941.747896879664, -85331.67366166993, 73437.68458815629, -72546.83346114558, 86037.38528935735, -128123.8425521663, 0.008, 0.9500000000000001, -0.15, 192.0, 0.0, 0.0, 0.0, 0.0, 0.0, 0.0, 0.0, 0.0, 0.0, 1.6664079153955235E9, 0.0, 2022-10-21 20:05:15.395
215.0, -148081.6034175877, -158348.83252964407, 46933.58951015348, -85340.97198736334, 73428.31920722952, -72579.24349060578, 86002.82949242945, -128132.20210459258, 0.008, 0.9500000000000001, -0.15, 192.0, 0.0, 0.0, 0.0, 0.0, 0.0, 0.0, 0.0, 0.0, 0.0, 1.6664079153955336E9, 0.0, 2022-10-21 20:05:15.395
216.0, -148083.9503507555, -158342.26111677423, 46938.14926602236, -85324.72226914433, 73429.70501538576, -72579.66817375043, 86013.58068151244, -128120.26627305345, 0.008, 0.9500000000000001, -0.15, 192.0, 0.0, 0.0, 0.0, 0.0, 0.0, 0.0, 0.0, 0.0, 0.0, 1.666407915395544E9, 0.0, 2022-10-21 20:05:15.395
217.0, -148083.7044815665, -158343.1775382969, 46938.41748695583, -85304.85156832356, 73442.49021321419, -72540.68673142037, 86054.48437386565, -128110.40915374865, 0.008, 0.9500000000000001, -0.15, 192.0, 0.0, 0.0, 0.0, 0.0, 0.0, 0.0, 0.0, 0.0, 0.0, 1.6664079153955543E9, 0.0, 2022-10-21 20:05:15.395
218.0, -148079.45765012, -158344.6304016865, 46936.74110612168, -85321.01187956476, 73438.46689921223, -72531.99190282726, 86050.30459765252, -128109.02334559243, 0.008, 0.9500000000000001, -0.15, 192.0, 0.0, 0.0, 0.0, 0.0, 0.0, 0.0, 0.0, 0.0, 0.0, 1.6664079153955646E9, 0.0, 2022-10-21 20:05:15.395
219.0, -148072.28274014982, -158346.26207903173, 46932.874254330905, -85333.66296692645, 73431.1355270309, -72563.7313799538, 86014.98884141313, -128113.7395636725, 0.008, 0.9500000000000001, -0.15, 192.0, 0.0, 0.0, 0.0, 0.0, 0.0, 0.0, 0.0, 0.0, 0.0, 1.6664079153955748E9, 0.0, 2022-10-21 20:05:15.395
220.0, -148080.9552169985, -158352.43116050138, 46924.24648097116, -85337.14983906149, 73418.90912281384, -72590.30760411115, 86000.68372496172, -128126.3906510342, 0.006, 0.9460000000000001, -0.14400000000000002, 192.0, 0.0, 48.0, 29.0, 144.0, 251.0, 128.0, 0.0, 0.0, 0.0, 1.6664079153955853E9, 0.0, 2022-10-21 20:05:15.395
221.0, -148107.84436557823, -158372.5253787667, 46905.31455341751, -85336.09930707209, 73407.95676803074, -72573.74496146977, 86021.26968160507, -128141.58983726382, 0.006, 0.9460000000000001, -0.14400000000000002, 192.0, 0.0, 0.0, 0.0, 0.0, 0.0, 0.0, 0.0, 0.0, 0.0, 1.6664079153955965E9, 0.0, 2022-10-21 20:05:15.395
222.0, -148105.89976381062, -158367.51858800874, 46910.008419753125, -85336.88161812803, 73412.76239308863, -72552.75667342624, 86034.68072827825, -128133.43145053762, 0.006, 0.9460000000000001, -0.14400000000000002, 192.0, 0.0, 0.0, 0.0, 0.0, 0.0, 0.0, 0.0, 0.0, 0.0, 1.6664079153956068E9, 0.0, 2022-10-21 20:05:15.395
223.0, -148092.28755143733, -158358.68964894887, 46920.022001269106, -85336.27812102773, 73422.39599494886, -72567.79939744466, 86013.71479197918, -128126.36829928975, 0.006, 0.9460000000000001, -0.14400000000000002, 192.0, 0.0, 0.0, 0.0, 0.0, 0.0, 0.0, 0.0, 0.0, 0.0, 1.6664079153956182E9, 0.0, 2022-10-21 20:05:15.395
224.0, -148088.5548101133, -158353.63815470197, 46922.592451881465, -85325.66104241146, 73427.84982059596, -72580.89751969547, 86006.67399247576, -128122.1885230766, 0.006, 0.9460000000000001, -0.14400000000000002, 192.0, 0.0, 0.0, 0.0, 0.0, 0.0, 0.0, 0.0, 0.0, 0.0, 1.6664079153956287E9, 0.0, 2022-10-21 20:05:15.395
225.0, -148088.3983479021, -158355.33688728057, 46914.210547710725, -85326.37629823403, 73423.75945136065, -72551.90730713693, 86037.58645505745, -128119.08163059731, 0.006, 0.9460000000000001, -0.14400000000000002, 192.0, 0.0, 0.0, 0.0, 0.0, 0.0, 0.0, 0.0, 0.0, 0.0, 1.6664079153956392E9, 0.0, 2022-10-21 20:05:15.395
226.0, -148101.78704283084, -158365.14930309646, 46908.24263194116, -85337.86509488405, 73418.68560536929, -72533.53417319467, 86050.48341160816, -128119.70747944206, 0.006, 0.9460000000000001, -0.14400000000000002, 192.0, 0.0, 0.0, 0.0, 0.0, 0.0, 0.0, 0.0, 0.0, 0.0, 1.6664079153956504E9, 0.0, 2022-10-21 20:05:15.395
227.0, -148095.7520718279, -158358.24261405977, 46921.36310593643, -85334.7358506603, 73431.53785843108, -72543.07836807708, 86036.24535039012, -128110.29739502638, 0.006, 0.9460000000000001, -0.14400000000000002, 192.0, 0.0, 0.0, 0.0, 0.0, 0.0, 0.0, 0.0, 0.0, 0.0, 1.6664079153956609E9, 0.0, 2022-10-21 20:05:15.395
228.0, -148077.20012393, -158333.7227503923, 46938.685707889286, -85316.11684752905, 73443.56309694804, -72551.84025190357, 86032.78082999955, -128097.13221754221, 0.006, 0.9460000000000001, -0.14400000000000002, 192.0, 0.0, 0.0, 0.0, 0.0, 0.0, 0.0, 0.0, 0.0, 0.0, 1.666407915395749E9, 0.0, 2022-10-21 20:05:15.395
229.0, -148089.3147694248, -158344.76451215323, 46930.48261767419, -85314.2393009948, 73435.71763464423, -72543.95008611084, 86051.01985347508, -128106.02821183542, 0.006, 0.9460000000000001, -0.14400000000000002, 192.0, 0.0, 0.0, 0.0, 0.0, 0.0, 0.0, 0.0, 0.0, 0.0, 1.6664079153957603E9, 0.0, 2022-10-21 20:05:15.395
230.0, -148104.3574934432, -158362.80236992866, 46918.47973090169, -85334.82525763813, 73419.24439898066, -72533.78004238367, 86057.2112866892, -128114.94655787309, 0.01, 0.9480000000000001, -0.14200000000000002, 192.0, 0.0, 80.0, 29.0, 160.0, 251.0, 144.0, 0.0, 0.0, 0.0, 1.6664079153957708E9, 0.0, 2022-10-21 20:05:15.395
231.0, -148102.07761550875, -158361.28245130568, 46916.89275704536, -85343.92241763145, 73417.25509372415, -72553.71779843782, 86028.7575159976, -128113.9407293726, 0.01, 0.9480000000000001, -0.14200000000000002, 192.0, 0.0, 0.0, 0.0, 0.0, 0.0, 0.0, 0.0, 0.0, 0.0, 1.666407915395782E9, 0.0, 2022-10-21 20:05:15.395
232.0, -148100.24477246343, -158357.3261925371, 46916.4233704118, -85343.52008623125, 73418.50679141365, -72583.55737728564, 86003.2541755741, -128123.93195914412, 0.01, 0.9480000000000001, -0.14200000000000002, 192.0, 0.0, 0.0, 0.0, 0.0, 0.0, 0.0, 0.0, 0.0, 0.0, 1.6664079153957925E9, 0.0, 2022-10-21 20:05:15.395
233.0, -148107.44203417804, -158364.85873041855, 46915.21637621122, -85335.7416791608, 73419.04323328058, -72578.39412431647, 86021.6496612608, -128124.80367717787, 0.01, 0.9480000000000001, -0.14200000000000002, 192.0, 0.0, 0.0, 0.0, 0.0, 0.0, 0.0, 0.0, 0.0, 0.0, 1.6664079153958027E9, 0.0, 2022-10-21 20:05:15.395
234.0, -148101.78704283084, -158361.14834083896, 46919.50791114663, -85333.99824309329, 73424.2288379942, -72536.93163835187, 86059.558219857, -128111.05735433786, 0.01, 0.9480000000000001, -0.14200000000000002, 192.0, 0.0, 0.0, 0.0, 0.0, 0.0, 0.0, 0.0, 0.0, 0.0, 1.6664079153958132E9, 0.0, 2022-10-21 20:05:15.395
235.0, -148087.9066095241, -158353.43698900187, 46924.17942573779, -85336.47928672783, 73430.59908516397, -72534.00355982824, 86049.99167323014, -128105.26825252394, 0.01, 0.9480000000000001, -0.14200000000000002, 192.0, 0.0, 0.0, 0.0, 0.0, 0.0, 0.0, 0.0, 0.0, 0.0, 1.6664079153958237E9, 0.0, 2022-10-21 20:05:15.395
236.0, -148085.71613856748, -158349.23486104427, 46925.85580657194, -85339.76499316275, 73430.30851248605, -72563.79843518716, 86018.60982401489, -128105.49176996849, 0.01, 0.9480000000000001, -0.14200000000000002, 192.0, 0.0, 0.0, 0.0, 0.0, 0.0, 0.0, 0.0, 0.0, 0.0, 1.6664079153958344E9, 0.0, 2022-10-21 20:05:15.395
237.0, -148098.4119294181, -158358.68964894887, 46917.0268675121, -85341.35196701909, 73421.81484959304, -72569.47577827881, 86022.56608278348, -128113.20312180558, 0.01, 0.9480000000000001, -0.14200000000000002, 192.0, 0.0, 0.0, 0.0, 0.0, 0.0, 0.0, 0.0, 0.0, 0.0, 1.6664079153958445E9, 0.0, 2022-10-21 20:05:15.395
238.0, -148100.02125501886, -158357.125026837, 46917.04921925655, -85330.33255700262, 73423.11125077144, -72540.99965584275, 86055.9595889997, -128107.34696475828, 0.01, 0.9480000000000001, -0.14200000000000002, 192.0, 0.0, 0.0, 0.0, 0.0, 0.0, 0.0, 0.0, 0.0, 0.0, 1.6664079153958552E9, 0.0, 2022-10-21 20:05:15.395
239.0, -148107.19616498903, -158369.19496884287, 46905.62747783989, -85349.5997607231, 73415.10932625644, -72549.49331873577, 86041.6097690594, -128119.17103757514, 0.01, 0.9480000000000001, -0.14200000000000002, 192.0, 0.0, 0.0, 0.0, 0.0, 0.0, 0.0, 0.0, 0.0, 0.0, 1.6664079153958657E9, 0.0, 2022-10-21 20:05:15.395
240.0, -148088.3983479021, -158356.00743961424, 46916.95981227873, -85342.62601645304, 73426.44166069527, -72569.878109679, 86018.20749261469, -128110.5879677043, 0.01, 0.9480000000000001, -0.148, 192.0, 0.0, 80.0, 29.0, 160.0, 251.0, 96.0, 0.0, 0.0, 0.0, 1.6664079153958762E9, 0.0, 2022-10-21 20:05:15.395
241.0, -148084.5538478558, -158350.62066920052, 46918.09975124595, -85332.41126923697, 73436.52229744462, -72566.61475498852, 86031.21620788769, -128109.9397671151, 0.01, 0.9480000000000001, -0.148, 192.0, 0.0, 0.0, 0.0, 0.0, 0.0, 0.0, 0.0, 0.0, 0.0, 1.6664079153958871E9, 0.0, 2022-10-21 20:05:15.395
242.0, -148102.50229865342, -158359.00257337125, 46906.49919587364, -85344.25769379827, 73420.80902109254, -72550.99088561427, 86053.63500757635, -128115.1924270621, 0.01, 0.9480000000000001, -0.148, 192.0, 0.0, 0.0, 0.0, 0.0, 0.0, 0.0, 0.0, 0.0, 0.0, 1.6664079153958976E9, 0.0, 2022-10-21 20:05:15.395
243.0, -148109.58780164574, -158362.22122457283, 46908.4214458968, -85346.13524033251, 73418.55149490255, -72544.95591461133, 86052.65153082032, -128117.7852294189, 0.01, 0.9480000000000001, -0.148, 192.0, 0.0, 0.0, 0.0, 0.0, 0.0, 0.0, 0.0, 0.0, 0.0, 1.666407915395923E9, 0.0, 2022-10-21 20:05:15.395
244.0, -148108.06788302277, -158367.56329149764, 46908.91318427482, -85352.23726656882, 73420.16082050334, -72562.01029563074, 86024.22011187318, -128116.26531079595, 0.01, 0.9480000000000001, -0.148, 192.0, 0.0, 0.0, 0.0, 0.0, 0.0, 0.0, 0.0, 0.0, 0.0, 1.666407915395934E9, 0.0, 2022-10-21 20:05:15.395
245.0, -148110.23600223495, -158370.625480488, 46902.49823361615, -85353.98070263633, 73414.88580881189, -72579.86933945052, 86014.78767571303, -128124.0437178664, 0.01, 0.9480000000000001, -0.148, 192.0, 0.0, 0.0, 0.0, 0.0, 0.0, 0.0, 0.0, 0.0, 0.0, 1.6664079153959446E9, 0.0, 2022-10-21 20:05:15.395
246.0, -148114.54988891483, -158374.80525670116, 46897.290277158056, -85342.22368505284, 73415.22108497871, -72556.377656028, 86044.67195804977, -128124.60251147777, 0.01, 0.9480000000000001, -0.148, 192.0, 0.0, 0.0, 0.0, 0.0, 0.0, 0.0, 0.0, 0.0, 0.0, 1.6664079153959548E9, 0.0, 2022-10-21 20:05:15.395
247.0, -148114.14755751463, -158379.81204745916, 46892.50700384462, -85344.7941356652, 73412.40476517734, -72545.17943205588, 86047.64474006233, -128126.56946498985, 0.01, 0.9480000000000001, -0.148, 192.0, 0.0, 0.0, 0.0, 0.0, 0.0, 0.0, 0.0, 0.0, 0.0, 1.6664079153959656E9, 0.0, 2022-10-21 20:05:15.395
248.0, -148103.41872017607, -158369.66435547645, 46899.9724864927, -85355.67943521493, 73416.71865185723, -72555.43888276088, 86028.08696366394, -128118.07580209684, 0.01, 0.9480000000000001, -0.148, 192.0, 0.0, 0.0, 0.0, 0.0, 0.0, 0.0, 0.0, 0.0, 0.0, 1.6664079153959763E9, 0.0, 2022-10-21 20:05:15.395
249.0, -148094.2098014605, -158356.09684659206, 46912.35535292094, -85336.25576928328, 73432.99072182068, -72556.98115312829, 86029.58453054244, -128095.92522334162, 0.012, 0.9460000000000001, -0.146, 192.0, 0.0, 96.0, 29.0, 144.0, 251.0, 112.0, 0.0, 0.0, 0.0, 1.6664079153959868E9, 0.0, 2022-10-21 20:05:15.395
250.0, -148109.23017373445, -158373.15122761147, 46892.59641082244, -85341.68724318591, 73421.59133214848, -72550.81207165863, 86046.48244935066, -128109.0904008258, 0.012, 0.9460000000000001, -0.146, 192.0, 0.0, 0.0, 0.0, 0.0, 0.0, 0.0, 0.0, 0.0, 0.0, 1.6664079153959975E9, 0.0, 2022-10-21 20:05:15.395
251.0, -148112.42647319156, -158373.91118692295, 46887.61197180891, -85352.84076366911, 73409.85666630944, -72540.61967618701, 86053.34443489843, -128121.96500563205, 0.012, 0.9460000000000001, -0.146, 192.0, 0.0, 0.0, 0.0, 0.0, 0.0, 0.0, 0.0, 0.0, 0.0, 1.6664079153960087E9, 0.0, 2022-10-21 20:05:15.396
252.0, -148107.44203417804, -158364.83637867408, 46896.93264924677, -85349.62211246755, 73416.49513441266, -72553.13665308198, 86032.557312555, -128118.76870617495, 0.012, 0.9460000000000001, -0.146, 192.0, 0.0, 0.0, 0.0, 0.0, 0.0, 0.0, 0.0, 0.0, 0.0, 1.6664079153960195E9, 0.0, 2022-10-21 20:05:15.396
253.0, -148110.32540921276, -158371.69836422187, 46889.78009102107, -85358.74162420532, 73414.7740500896, -72579.15408362796, 86010.76436171107, -128125.38482253371, 0.012, 0.9460000000000001, -0.146, 192.0, 0.0, 0.0, 0.0, 0.0, 0.0, 0.0, 0.0, 0.0, 0.0, 1.666407915396034E9, 0.0, 2022-10-21 20:05:15.396
254.0, -148120.09312153974, -158378.5827015141, 46880.57117230549, -85354.62890322553, 73410.95190178775, -72560.66919096341, 86032.46790557717, -128128.31290105736, 0.012, 0.9460000000000001, -0.146, 192.0, 0.0, 0.0, 0.0, 0.0, 0.0, 0.0, 0.0, 0.0, 0.0, 1.6664079153960483E9, 0.0, 2022-10-21 20:05:15.396
255.0, -148116.49449068244, -158374.84996019007, 46884.37096886289, -85344.52591473174, 73412.4271169218, -72532.64010341646, 86057.32304541148, -128121.42856376512, 0.012, 0.9460000000000001, -0.146, 192.0, 0.0, 0.0, 0.0, 0.0, 0.0, 0.0, 0.0, 0.0, 0.0, 1.6664079153960617E9, 0.0, 2022-10-21 20:05:15.396
0.0, -148113.25348773642, -158373.7770764562, 46885.80148050803, -85356.52880150423, 73410.43781166528, -72547.01227510122, 86038.12289692437, -128125.42952602262, 0.012, 0.9460000000000001, -0.146, 192.0, 0.0, 0.0, 0.0, 0.0, 0.0, 0.0, 0.0, 0.0, 0.0, 1.6664079153960724E9, 0.0, 2022-10-21 20:05:15.396
1.0, -148110.23600223495, -158369.15026535396, 46888.841317753955, -85362.25084808479, 73412.38241343289, -72573.78966495868, 86013.17835011224, -128120.91447364265, 0.012, 0.9460000000000001, -0.146, 192.0, 0.0, 0.0, 0.0, 0.0, 0.0, 0.0, 0.0, 0.0, 0.0, 1.6664079153960829E9, 0.0, 2022-10-21 20:05:15.396
2.0, -148108.31375221178, -158369.35143105406, 46885.37679736338, -85346.00112986579, 73417.32214895751, -72565.05013287665, 86030.29978636501, -128116.77940091841, 0.012, 0.9460000000000001, -0.146, 192.0, 0.0, 0.0, 0.0, 0.0, 0.0, 0.0, 0.0, 0.0, 0.0, 1.6664079153960948E9, 0.0, 2022-10-21 20:05:15.396
3.0, -148110.75009235743, -158372.41362004445, 46884.19215490725, -85340.9943391078, 73417.45625942425, -72541.37963549848, 86054.52907735457, -128116.4441247516, 0.01, 0.9480000000000001, -0.14400000000000002, 192.0, 0.0, 80.0, 29.0, 160.0, 251.0, 128.0, 0.0, 0.0, 0.0, 1.6664079153961215E9, 0.0, 2022-10-21 20:05:15.396
0.0, 0.0, 0.0, 0.0, 0.0, 0.0, 0.0, 0.0, 0.0, -0.018000000000000002, 0.9400000000000001, -0.158, 192.0, 255.0, 112.0, 29.0, 96.0, 251.0, 16.0, 0.0, 0.0, 0.0, 1.6664079154654396E9, 0.0, 2022-10-21 20:05:15.465
1.0, -149008.91023980503, -159201.55158061406, 46188.15883256899, -85903.16306390322, 73483.7962369676, -73675.77537009423, 86128.73686894619, -128209.5614921524, -0.018000000000000002, 0.9400000000000001, -0.158, 192.0, 0.0, 0.0, 0.0, 0.0, 0.0, 0.0, 0.0, 0.0, 0.0, 1.6664079159486003E9, 0.0, 2022-10-21 20:05:15.948
2.0, -149004.30578044723, -159193.70611831025, 46190.5504692257, -85913.26605239703, 73483.30449858958, -73679.97749805183, 86116.30929902903, -128212.42251544268, -0.018000000000000002, 0.9400000000000001, -0.158, 192.0, 0.0, 0.0, 0.0, 0.0, 0.0, 0.0, 0.0, 0.0, 0.0, 1.666407915948672E9, 0.0, 2022-10-21 20:05:15.948
3.0, -149003.56817288022, -159194.9131125108, 46199.33470479664, -85915.25535765354, 73489.8982632039, -73698.5965011831, 86089.73307487168, -128207.16985549568, -0.018000000000000002, 0.9400000000000001, -0.158, 192.0, 0.0, 0.0, 0.0, 0.0, 0.0, 0.0, 0.0, 0.0, 0.0, 1.6664079159486806E9, 0.0, 2022-10-21 20:05:15.948
4.0, -149001.40005366804, -159195.8295340335, 46206.599021744616, -85897.75394174505, 73499.95654820878, -73695.891940104, 86100.84189186596, -128194.69758208962, -0.018000000000000002, 0.9400000000000001, -0.158, 192.0, 0.0, 0.0, 0.0, 0.0, 0.0, 0.0, 0.0, 0.0, 0.0, 1.6664079159486885E9, 0.0, 2022-10-21 20:05:15.948
5.0, -149004.37283568058, -159195.9636445002, 46202.9556873984, -85896.25637486654, 73499.10718191948, -73667.30405894567, 86136.60468299445, -128189.7131430761, -0.018000000000000002, 0.9400000000000001, -0.158, 192.0, 0.0, 0.0, 0.0, 0.0, 0.0, 0.0, 0.0, 0.0, 0.0, 1.6664079159487033E9, 0.0, 2022-10-21 20:05:15.948
6.0, -148996.3262076767, -159188.9228449968, 46207.493091522825, -85906.04643893796, 73497.6990220188, -73664.64420135549, 86135.06241262704, -128186.13686396324, -0.018000000000000002, 0.9400000000000001, -0.158, 192.0, 0.0, 0.0, 0.0, 0.0, 0.0, 0.0, 0.0, 0.0, 0.0, 1.6664079159487112E9, 0.0, 2022-10-21 20:05:15.948
7.0, -149003.90344904704, -159194.80135378856, 46197.68067570695, -85918.8316367664, 73493.0498591721, -73695.646070915, 86095.0751417965, -128200.9113670482, -0.032, 0.9420000000000001, -0.16, 192.0, 255.0, 0.0, 29.0, 112.0, 251.0, 0.0, 0.0, 0.0, 0.0, 1.6664079159487188E9, 0.0, 2022-10-21 20:05:15.948
8.0, -149011.41363518403, -159198.064708479, 46191.57864947065, -85925.67127056971, 73484.98087942373, -73715.06973684666, 86085.24037423616, -128206.52165490648, -0.032, 0.9420000000000001, -0.16, 192.0, 0.0, 0.0, 0.0, 0.0, 0.0, 0.0, 0.0, 0.0, 0.0, 1.6664079159487271E9, 0.0, 2022-10-21 20:05:15.948
9.0, -149013.42529218498, -159197.48356312318, 46188.069425591166, -85916.84233150988, 73483.34920207849, -73684.55960566517, 86122.23251130969, -128202.92302404917, -0.032, 0.9420000000000001, -0.16, 192.0, 0.0, 0.0, 0.0, 0.0, 0.0, 0.0, 0.0, 0.0, 0.0, 1.6664079159487352E9, 0.0, 2022-10-21 20:05:15.948
10.0, -149023.68474288998, -159210.00054001817, 46180.46983247636, -85922.96670949063, 73479.839978199, -73668.57810837962, 86126.8816741564, -128211.19316949764, -0.032, 0.9420000000000001, -0.16, 192.0, 0.0, 0.0, 0.0, 0.0, 0.0, 0.0, 0.0, 0.0, 0.0, 1.666407915948743E9, 0.0, 2022-10-21 20:05:15.948
11.0, -149020.89077483307, -159210.60403711846, 46187.84590814661, -85933.67319508472, 73479.14707412089, -73698.8423703721, 86091.99060106165, -128210.83554158635, -0.032, 0.9420000000000001, -0.16, 192.0, 0.0, 0.0, 0.0, 0.0, 0.0, 0.0, 0.0, 0.0, 0.0, 1.6664079159487507E9, 0.0, 2022-10-21 20:05:15.948
12.0, -149010.74308285036, -159200.50104862466, 46193.52325123826, -85927.83938978189, 73479.63881249892, -73722.06583286118, 86078.19957473273, -128207.37102119578, -0.032, 0.9420000000000001, -0.16, 192.0, 0.0, 0.0, 0.0, 0.0, 0.0, 0.0, 0.0, 0.0, 0.0, 1.6664079159487588E9, 0.0, 2022-10-21 20:05:15.948
13.0, -149010.47486191688, -159195.65072007786, 46189.745806425315, -85917.28936639898, 73476.10723687497, -73707.53719896522, 86106.58629019097, -128212.5566259094, -0.032, 0.9420000000000001, -0.16, 192.0, 0.0, 0.0, 0.0, 0.0, 0.0, 0.0, 0.0, 0.0, 0.0, 1.6664079159487667E9, 0.0, 2022-10-21 20:05:15.948
14.0, -149017.18038525348, -159207.13951672788, 46187.82355640216, -85924.5313316025, 73479.08001888753, -73674.63543112701, 86127.95455789025, -128209.65089913023, -0.032, 0.9420000000000001, -0.16, 192.0, 0.0, 0.0, 0.0, 0.0, 0.0, 0.0, 0.0, 0.0, 0.0, 1.666407915948825E9, 0.0, 2022-10-21 20:05:15.948
15.0, -149009.8713648166, -159203.25031319266, 46198.17241408496, -85927.41470663724, 73483.48331254523, -73682.03385854172, 86108.44148498077, -128201.22429147057, -0.032, 0.9420000000000001, -0.16, 192.0, 0.0, 0.0, 0.0, 0.0, 0.0, 0.0, 0.0, 0.0, 0.0, 1.666407915948833E9, 0.0, 2022-10-21 20:05:15.948
16.0, -148998.4719751444, -159191.89562700936, 46208.78949270123, -85917.22231116562, 73494.03333592812, -73700.07171631715, 86091.78943536156, -128195.4128379122, -0.032, 0.9420000000000001, -0.16, 192.0, 0.0, 0.0, 0.0, 0.0, 0.0, 0.0, 0.0, 0.0, 0.0, 1.6664079159488409E9, 0.0, 2022-10-21 20:05:15.948
17.0, -149006.36214093713, -159197.9305980123, 46200.11701585258, -85914.83067450889, 73490.85938821547, -73686.7947801107, 86116.57751996249, -128198.78795132495, -0.034, 0.9420000000000001, -0.156, 192.0, 254.0, 240.0, 29.0, 112.0, 251.0, 32.0, 0.0, 0.0, 0.0, 1.6664079159488487E9, 0.0, 2022-10-21 20:05:15.948
18.0, -149019.88494633258, -159210.44757490727, 46184.87312613406, -85937.00360500856, 73473.96146940727, -73676.17770149442, 86127.75339219015, -128211.99783229803, -0.034, 0.9420000000000001, -0.156, 192.0, 0.0, 0.0, 0.0, 0.0, 0.0, 0.0, 0.0, 0.0, 0.0, 1.6664079159488573E9, 0.0, 2022-10-21 20:05:15.948
19.0, -149027.3727807251, -159219.3882726894, 46179.24048653132, -85951.04050052649, 73471.23455658372, -73694.95316683689, 86098.11497904241, -128218.59159691235, -0.034, 0.9420000000000001, -0.156, 192.0, 0.0, 0.0, 0.0, 0.0, 0.0, 0.0, 0.0, 0.0, 0.0, 1.6664079159488652E9, 0.0, 2022-10-21 20:05:15.948
20.0, -149022.09776903366, -159213.6885778533, 46182.34737901061, -85951.64399762679, 73474.63202174092, -73721.68585320543, 86069.571801373, -128221.5643789249, -0.034, 0.9420000000000001, -0.156, 192.0, 0.0, 0.0, 0.0, 0.0, 0.0, 0.0, 0.0, 0.0, 0.0, 1.666407915948873E9, 0.0, 2022-10-21 20:05:15.948
21.0, -149013.24647822935, -159199.4281648908, 46190.39400701452, -85936.04247999698, 73482.05280090008, -73707.87247513206, 86097.6232406644, -128204.59940488332, -0.034, 0.9420000000000001, -0.156, 192.0, 0.0, 0.0, 0.0, 0.0, 0.0, 0.0, 0.0, 0.0, 0.0, 1.666407915948881E9, 0.0, 2022-10-21 20:05:15.948
22.0, -149017.00157129785, -159204.14438297087, 46189.34347502512, -85932.75677356205, 73482.5445392781, -73678.47993117332, 86131.17320909181, -128201.04547751493, -0.034, 0.9420000000000001, -0.156, 192.0, 0.0, 0.0, 0.0, 0.0, 0.0, 0.0, 0.0, 0.0, 0.0, 1.6664079159488885E9, 0.0, 2022-10-21 20:05:15.948
23.0, -149019.68378063248, -159208.74884232867, 46191.31042853719, -85940.71399458814, 73483.93034743433, -73681.67623063043, 86115.66109843983, -128209.67325087468, -0.034, 0.9420000000000001, -0.156, 192.0, 0.0, 0.0, 0.0, 0.0, 0.0, 0.0, 0.0, 0.0, 0.0, 1.6664079159488964E9, 0.0, 2022-10-21 20:05:15.948
24.0, -149013.13471950707, -159200.43399339129, 46197.501861751305, -85944.82671556792, 73488.6465655144, -73707.80541989868, 86087.98963880417, -128198.85500655831, -0.034, 0.9420000000000001, -0.156, 192.0, 0.0, 0.0, 0.0, 0.0, 0.0, 0.0, 0.0, 0.0, 0.0, 1.6664079159489045E9, 0.0, 2022-10-21 20:05:15.948
25.0, -149015.05696953024, -159200.99278700267, 46197.077178606654, -85932.22033169512, 73494.9497574508, -73702.61981518505, 86103.90408085634, -128193.87056754477, -0.034, 0.9420000000000001, -0.156, 192.0, 0.0, 0.0, 0.0, 0.0, 0.0, 0.0, 0.0, 0.0, 0.0, 1.6664079159489121E9, 0.0, 2022-10-21 20:05:15.948
26.0, -149018.09680677616, -159205.75370857166, 46193.74676868281, -85931.84035203939, 73492.08873416051, -73672.10968400356, 86136.44822078326, -128193.78116056696, -0.034, 0.9420000000000001, -0.156, 192.0, 0.0, 0.0, 0.0, 0.0, 0.0, 0.0, 0.0, 0.0, 0.0, 1.6664079159489202E9, 0.0, 2022-10-21 20:05:15.948
27.0, -149012.86649857362, -159199.85284803546, 46200.13936759703, -85925.53716010299, 73497.0508214296, -73663.21368971035, 86133.76601144864, -128190.47310238756, -0.04, 0.9460000000000001, -0.162, 192.0, 254.0, 192.0, 29.0, 144.0, 250.0, 240.0, 0.0, 0.0, 0.0, 1.6664079159489293E9, 0.0, 2022-10-21 20:05:15.948
28.0, -149018.61089689864, -159206.73718532769, 46197.94889664041, -85939.86462829883, 73492.78163823864, -73694.50613194778, 86097.10915054193, -128196.95510827961, -0.04, 0.9460000000000001, -0.162, 192.0, 0.0, 0.0, 0.0, 0.0, 0.0, 0.0, 0.0, 0.0, 0.0, 1.666407915948938E9, 0.0, 2022-10-21 20:05:15.948
29.0, -149034.34652499517, -159225.1326710144, 46185.81189940118, -85950.86168657085, 73484.31032709008, -73706.08433557562, 86091.29769698354, -128207.12515200677, -0.04, 0.9460000000000001, -0.162, 192.0, 0.0, 0.0, 0.0, 0.0, 0.0, 0.0, 0.0, 0.0, 0.0, 1.6664079159489539E9, 0.0, 2022-10-21 20:05:15.948
30.0, -149031.99959182736, -159221.06465352353, 46179.262838275776, -85942.21156146665, 73477.6942107313, -73684.80547485418, 86120.77964792009, -128205.73934385054, -0.04, 0.9460000000000001, -0.162, 192.0, 0.0, 0.0, 0.0, 0.0, 0.0, 0.0, 0.0, 0.0, 0.0, 1.6664079159489617E9, 0.0, 2022-10-21 20:05:15.948
31.0, -149024.75762662385, -159208.3688626729, 46178.838155131125, -85944.64790161228, 73477.73891422022, -73678.03289628422, 86120.57848222, -128213.13777126525, -0.04, 0.9460000000000001, -0.162, 192.0, 0.0, 0.0, 0.0, 0.0, 0.0, 0.0, 0.0, 0.0, 0.0, 1.66640791594897E9, 0.0, 2022-10-21 20:05:15.948
32.0, -149024.48940569037, -159206.4242609053, 46178.56993419766, -85958.32716921893, 73473.26856532914, -73705.61494894206, 86085.2180224917, -128219.262149246, -0.04, 0.9460000000000001, -0.162, 192.0, 0.0, 0.0, 0.0, 0.0, 0.0, 0.0, 0.0, 0.0, 0.0, 1.6664079159489777E9, 0.0, 2022-10-21 20:05:15.948
33.0, -149018.36502770963, -159198.9140747683, 46191.28807679273, -85949.69939585918, 73482.61159451147, -73709.99589085531, 86083.74280735764, -128201.69367810413, -0.04, 0.9460000000000001, -0.162, 192.0, 0.0, 0.0, 0.0, 0.0, 0.0, 0.0, 0.0, 0.0, 0.0, 1.666407915948986E9, 0.0, 2022-10-21 20:05:15.948
34.0, -149028.93740283698, -159216.2366767212, 46186.14717556801, -85943.55266613397, 73483.57271952304, -73685.11839927654, 86117.98567986318, -128204.59940488332, -0.04, 0.9460000000000001, -0.162, 192.0, 0.0, 0.0, 0.0, 0.0, 0.0, 0.0, 0.0, 0.0, 0.0, 1.666407915948994E9, 0.0, 2022-10-21 20:05:15.948
35.0, -149023.8188533567, -159211.6769208523, 46188.069425591166, -85947.39716618028, 73483.12568463394, -73666.56645137865, 86130.39089803588, -128204.19707348313, -0.04, 0.9460000000000001, -0.162, 192.0, 0.0, 0.0, 0.0, 0.0, 0.0, 0.0, 0.0, 0.0, 0.0, 1.6664079159490018E9, 0.0, 2022-10-21 20:05:15.949
36.0, -149019.54967016575, -159207.05010975007, 46188.73997792482, -85956.06964302894, 73484.46678930125, -73688.62762315603, 86097.2209092642, -128205.71699210608, -0.042, 0.9500000000000001, -0.166, 192.0, 254.0, 176.0, 29.0, 176.0, 250.0, 208.0, 0.0, 0.0, 0.0, 1.666407915949011E9, 0.0, 2022-10-21 20:05:15.949
37.0, -149023.84120510117, -159215.1414412429, 46193.23267856034, -85947.06189001344, 73491.93227194934, -73706.24079778681, 86086.17914750328, -128195.52459663447, -0.042, 0.9500000000000001, -0.166, 192.0, 0.0, 0.0, 0.0, 0.0, 0.0, 0.0, 0.0, 0.0, 0.0, 1.6664079159490197E9, 0.0, 2022-10-21 20:05:15.949
38.0, -149042.929594866, -159236.2861914976, 46178.905210364486, -85943.10563124486, 73481.15873112188, -73699.31175700566, 86105.49105471266, -128212.08723927585, -0.042, 0.9500000000000001, -0.166, 192.0, 0.0, 0.0, 0.0, 0.0, 0.0, 0.0, 0.0, 0.0, 0.0, 1.6664079159490275E9, 0.0, 2022-10-21 20:05:15.949
39.0, -149051.0432781033, -159244.48928171268, 46163.01312005676, -85965.90441058927, 73459.92457388932, -73697.47891396034, 86105.1781302903, -128231.64501567425, -0.042, 0.9500000000000001, -0.166, 192.0, 0.0, 0.0, 0.0, 0.0, 0.0, 0.0, 0.0, 0.0, 0.0, 1.666407915949036E9, 0.0, 2022-10-21 20:05:15.949
40.0, -149029.4738447039, -159220.2376389787, 46176.111242307576, -85959.02007329704, 73471.74864670618, -73703.17860879644, 86089.75542661613, -128220.73736438005, -0.042, 0.9500000000000001, -0.166, 192.0, 0.0, 0.0, 0.0, 0.0, 0.0, 0.0, 0.0, 0.0, 0.0, 1.6664079159490438E9, 0.0, 2022-10-21 20:05:15.949
41.0, -149014.81110034123, -159202.3785951589, 46188.35999826909, -85946.74896559108, 73483.5950712675, -73716.05321360269, 86076.09851075393, -128202.90067230472, -0.042, 0.9500000000000001, -0.166, 192.0, 0.0, 0.0, 0.0, 0.0, 0.0, 0.0, 0.0, 0.0, 0.0, 1.6664079159490516E9, 0.0, 2022-10-21 20:05:15.949
42.0, -149028.04333305877, -159216.25902846563, 46181.989751099325, -85953.5885993944, 73481.0916758885, -73695.80253312619, 86099.59019417646, -128206.78987583994, -0.042, 0.9500000000000001, -0.166, 192.0, 0.0, 0.0, 0.0, 0.0, 0.0, 0.0, 0.0, 0.0, 0.0, 1.6664079159490595E9, 0.0, 2022-10-21 20:05:15.949
43.0, -149039.50977796433, -159227.9936943047, 46176.89355336351, -85960.11530877535, 73477.04601014209, -73672.33320144811, 86124.02065086612, -128206.54400665093, -0.042, 0.9500000000000001, -0.166, 192.0, 0.0, 0.0, 0.0, 0.0, 0.0, 0.0, 0.0, 0.0, 0.0, 1.6664079159490676E9, 0.0, 2022-10-21 20:05:15.949
44.0, -149040.0685715757, -159225.9820373037, 46179.57576269815, -85964.45154719967, 73480.06349564357, -73681.00567829677, 86107.9273948583, -128206.52165490648, -0.042, 0.9500000000000001, -0.166, 192.0, 0.0, 0.0, 0.0, 0.0, 0.0, 0.0, 0.0, 0.0, 0.0, 1.6664079159490829E9, 0.0, 2022-10-21 20:05:15.949
45.0, -149030.39026622658, -159215.29790345408, 46192.09273959312, -85970.26300075806, 73487.52897829164, -73699.02118432775, 86088.83900509347, -128196.3069076904, -0.042, 0.9500000000000001, -0.166, 192.0, 0.0, 0.0, 0.0, 0.0, 0.0, 0.0, 0.0, 0.0, 0.0, 1.6664079159490905E9, 0.0, 2022-10-21 20:05:15.949
46.0, -149022.164824267, -159208.61473186192, 46196.607791973096, -85954.8850005728, 73494.27920511714, -73686.23598649932, 86113.91766237232, -128184.43813138464, -0.038, 0.9480000000000001, -0.166, 192.0, 254.0, 208.0, 29.0, 160.0, 250.0, 208.0, 0.0, 0.0, 0.0, 1.6664079159490983E9, 0.0, 2022-10-21 20:05:15.949
47.0, -149031.84312961617, -159220.01412153413, 46191.71275993738, -85950.14643074828, 73491.21701612676, -73659.4809483863, 86145.05364239856, -128191.4118756547, -0.038, 0.9480000000000001, -0.166, 192.0, 0.0, 0.0, 0.0, 0.0, 0.0, 0.0, 0.0, 0.0, 0.0, 1.6664079159491067E9, 0.0, 2022-10-21 20:05:15.949
48.0, -149038.81687388622, -159223.16571750233, 46187.53298372424, -85965.52443093354, 73483.28214684513, -73666.16411997845, 86127.06048811204, -128203.48181766056, -0.038, 0.9480000000000001, -0.166, 192.0, 0.0, 0.0, 0.0, 0.0, 0.0, 0.0, 0.0, 0.0, 0.0, 1.6664079159491153E9, 0.0, 2022-10-21 20:05:15.949
49.0, -149035.84409187367, -159219.32121745602, 46190.12578608105, -85970.3971112248, 73482.18691136682, -73700.00466108379, 86089.84483359395, -128203.37005893828, -0.038, 0.9480000000000001, -0.166, 192.0, 0.0, 0.0, 0.0, 0.0, 0.0, 0.0, 0.0, 0.0, 0.0, 1.666407915949123E9, 0.0, 2022-10-21 20:05:15.949
50.0, -149029.0268098148, -159215.9237522988, 46190.72928318135, -85955.66731162874, 73485.9420044353, -73704.07267857465, 86096.03626680808, -128202.96772753808, -0.038, 0.9480000000000001, -0.166, 192.0, 0.0, 0.0, 0.0, 0.0, 0.0, 0.0, 0.0, 0.0, 0.0, 1.6664079159491308E9, 0.0, 2022-10-21 20:05:15.949
51.0, -149031.50785344935, -159219.8353075785, 46186.54950696821, -85952.5827708939, 73484.8914724459, -73675.26127997176, 86129.6756422133, -128202.56539613788, -0.038, 0.9480000000000001, -0.166, 192.0, 0.0, 0.0, 0.0, 0.0, 0.0, 0.0, 0.0, 0.0, 0.0, 1.6664079159491384E9, 0.0, 2022-10-21 20:05:15.949
52.0, -149038.70511516396, -159225.71381637023, 46187.44357674642, -85967.53608793451, 73486.36668757995, -73666.47704440082, 86130.59206373598, -128201.33605019285, -0.038, 0.9480000000000001, -0.166, 192.0, 0.0, 0.0, 0.0, 0.0, 0.0, 0.0, 0.0, 0.0, 0.0, 1.6664079159491465E9, 0.0, 2022-10-21 20:05:15.949
53.0, -149037.54282445228, -159222.5398686576, 46196.69719895091, -85965.63618965581, 73498.101353419, -73685.3419167211, 86105.0216680791, -128198.89971004722, -0.038, 0.9480000000000001, -0.166, 192.0, 0.0, 0.0, 0.0, 0.0, 0.0, 0.0, 0.0, 0.0, 0.0, 1.6664079159491541E9, 0.0, 2022-10-21 20:05:15.949
54.0, -149036.64875467407, -159221.10935701244, 46201.45812051989, -85953.16391624974, 73503.8010482551, -73689.05230630068, 86108.82146463651, -128186.65095408571, -0.038, 0.9480000000000001, -0.166, 192.0, 0.0, 0.0, 0.0, 0.0, 0.0, 0.0, 0.0, 0.0, 0.0, 1.666407915949162E9, 0.0, 2022-10-21 20:05:15.949
55.0, -149038.90628086403, -159221.35522620144, 46197.501861751305, -85939.86462829883, 73507.53378957913, -73658.9892100083, 86143.19844760877, -128189.91430877619, -0.038, 0.9480000000000001, -0.166, 192.0, 0.0, 0.0, 0.0, 0.0, 0.0, 0.0, 0.0, 0.0, 0.0, 1.6664079159491699E9, 0.0, 2022-10-21 20:05:15.949
56.0, -149047.7352199239, -159230.89942108386, 46188.67292269146, -85962.8869250878, 73497.11787666296, -73654.7870820507, 86138.52693301761, -128204.01825952748, -0.044, 0.9460000000000001, -0.168, 192.0, 254.0, 160.0, 29.0, 144.0, 250.0, 192.0, 0.0, 0.0, 0.0, 1.6664079159491775E9, 0.0, 2022-10-21 20:05:15.949
57.0, -149041.49908322087, -159225.15502275885, 46190.57282097016, -85974.2416112711, 73492.0440306716, -73686.12422777704, 86102.56297618902, -128201.40310542622, -0.044, 0.9460000000000001, -0.168, 192.0, 0.0, 0.0, 0.0, 0.0, 0.0, 0.0, 0.0, 0.0, 0.0, 1.666407915949186E9, 0.0, 2022-10-21 20:05:15.949
58.0, -149039.46507447542, -159222.5845721465, 46186.43774824593, -85971.2464775141, 73486.88077770243, -73704.16208555247, 86088.14610101534, -128205.53817815044, -0.044, 0.9460000000000001, -0.168, 192.0, 0.0, 0.0, 0.0, 0.0, 0.0, 0.0, 0.0, 0.0, 0.0, 1.6664079159491937E9, 0.0, 2022-10-21 20:05:15.949
59.0, -149043.8236646442, -159227.45725243774, 46182.682655177436, -85960.83056459791, 73480.95756542178, -73682.14561726399, 86116.08578158448, -128206.96868979558, -0.044, 0.9460000000000001, -0.168, 192.0, 0.0, 0.0, 0.0, 0.0, 0.0, 0.0, 0.0, 0.0, 0.0, 1.6664079159492087E9, 0.0, 2022-10-21 20:05:15.949
60.0, -149046.55057746777, -159229.11128152744, 46182.43678598843, -85970.21829726915, 73477.6942107313, -73669.136901991, 86129.2733108131, -128208.68977411864, -0.044, 0.9460000000000001, -0.168, 192.0, 0.0, 0.0, 0.0, 0.0, 0.0, 0.0, 0.0, 0.0, 0.0, 1.6664079159492166E9, 0.0, 2022-10-21 20:05:15.949
61.0, -149040.85088263167, -159225.22207799222, 46182.90617262199, -85983.38347475333, 73471.99451589519, -73699.08823956111, 86093.89049934036, -128210.8131898419, -0.044, 0.9460000000000001, -0.168, 192.0, 0.0, 0.0, 0.0, 0.0, 0.0, 0.0, 0.0, 0.0, 0.0, 1.6664079159492247E9, 0.0, 2022-10-21 20:05:15.949
62.0, -149039.10744656413, -159220.75172910115, 46186.90713487949, -85975.91799210526, 73477.96243166477, -73716.36613802507, 86080.21123173372, -128202.27482345997, -0.044, 0.9460000000000001, -0.168, 192.0, 0.0, 0.0, 0.0, 0.0, 0.0, 0.0, 0.0, 0.0, 0.0, 1.6664079159492323E9, 0.0, 2022-10-21 20:05:15.949
63.0, -149042.19198729898, -159222.65162737985, 46188.62821920255, -85964.89858208879, 73482.1422078779, -73686.12422777704, 86116.28694728458, -128198.54208213593, -0.044, 0.9460000000000001, -0.168, 192.0, 0.0, 0.0, 0.0, 0.0, 0.0, 0.0, 0.0, 0.0, 0.0, 1.6664079159492404E9, 0.0, 2022-10-21 20:05:15.949
64.0, -149050.35037402515, -159235.50388044165, 46184.38138775604, -85974.10750080437, 73475.95077466378, -73666.47704440082, 86135.50944751615, -128201.13488449276, -0.044, 0.9460000000000001, -0.168, 192.0, 0.0, 0.0, 0.0, 0.0, 0.0, 0.0, 0.0, 0.0, 0.0, 1.6664079159492483E9, 0.0, 2022-10-21 20:05:15.949
65.0, -149047.7352199239, -159229.71477862773, 46185.09664357861, -85981.08124507443, 73475.77196070814, -73685.67719288793, 86105.08872331247, -128204.17472173867, -0.044, 0.9460000000000001, -0.168, 192.0, 0.0, 0.0, 0.0, 0.0, 0.0, 0.0, 0.0, 0.0, 0.0, 1.666407915949256E9, 0.0, 2022-10-21 20:05:15.949
66.0, -149043.3766297551, -159223.29982796905, 46181.54271621021, -85983.18230905323, 73476.17429210834, -73720.65767296049, 86075.85264156492, -128208.53331190746, -0.052000000000000005, 0.9420000000000001, -0.18, 192.0, 254.0, 96.0, 29.0, 112.0, 250.0, 96.0, 0.0, 0.0, 0.0, 1.666407915949264E9, 0.0, 2022-10-21 20:05:15.949
67.0, -149050.95387112544, -159233.46987169623, 46173.943123095414, -85985.86451838787, 73469.26760307165, -73713.84039090162, 86093.30935398453, -128212.60132939833, -0.052000000000000005, 0.9420000000000001, -0.18, 192.0, 0.0, 0.0, 0.0, 0.0, 0.0, 0.0, 0.0, 0.0, 0.0, 1.6664079159492724E9, 0.0, 2022-10-21 20:05:15.949
68.0, -149056.47475200592, -159236.50970894215, 46177.54175395272, -85974.55453569347, 73477.80596945358, -73677.92113756193, 86127.30635730104, -128210.12028576378, -0.052000000000000005, 0.9420000000000001, -0.18, 192.0, 0.0, 0.0, 0.0, 0.0, 0.0, 0.0, 0.0, 0.0, 0.0, 1.6664079159492805E9, 0.0, 2022-10-21 20:05:15.949
69.0, -149059.02285087382, -159238.54371768757, 46177.87703011955, -85982.19883229719, 73483.1927398673, -73677.98819279531, 86114.76702866162, -128211.64020438674, -0.052000000000000005, 0.9420000000000001, -0.18, 192.0, 0.0, 0.0, 0.0, 0.0, 0.0, 0.0, 0.0, 0.0, 0.0, 1.666407915949289E9, 0.0, 2022-10-21 20:05:15.949
70.0, -149042.2366907879, -159220.95289480124, 46185.99071335682, -85981.08124507443, 73490.23353937073, -73698.97648083884, 86092.14706327285, -128202.16306473769, -0.052000000000000005, 0.9420000000000001, -0.18, 192.0, 0.0, 0.0, 0.0, 0.0, 0.0, 0.0, 0.0, 0.0, 0.0, 1.666407915949297E9, 0.0, 2022-10-21 20:05:15.949
71.0, -149037.16284479652, -159217.71189185523, 46189.23171630284, -85967.58079142342, 73497.63196678543, -73687.35357372208, 86113.64944143886, -128194.8093408119, -0.052000000000000005, 0.9420000000000001, -0.18, 192.0, 0.0, 0.0, 0.0, 0.0, 0.0, 0.0, 0.0, 0.0, 0.0, 1.6664079159493048E9, 0.0, 2022-10-21 20:05:15.949
72.0, -149056.85473166165, -159241.31533400004, 46181.766233654766, -85973.794576382, 73488.08777190301, -73662.7890065657, 86139.1304301179, -128204.73351535006, -0.052000000000000005, 0.9420000000000001, -0.18, 192.0, 0.0, 0.0, 0.0, 0.0, 0.0, 0.0, 0.0, 0.0, 0.0, 1.6664079159493127E9, 0.0, 2022-10-21 20:05:15.949
73.0, -149060.65452821905, -159246.92562185833, 46182.30267552169, -85979.38251249582, 73491.73110624924, -73669.02514326872, 86126.45699101174, -128209.69560261913, -0.052000000000000005, 0.9420000000000001, -0.18, 192.0, 0.0, 0.0, 0.0, 0.0, 0.0, 0.0, 0.0, 0.0, 0.0, 1.6664079159493217E9, 0.0, 2022-10-21 20:05:15.949
74.0, -149051.2891472923, -159237.71670314274, 46188.270591291264, -85973.74987289308, 73499.42010634186, -73691.82392261314, 86097.71264764221, -128206.45459967312, -0.052000000000000005, 0.9420000000000001, -0.18, 192.0, 0.0, 0.0, 0.0, 0.0, 0.0, 0.0, 0.0, 0.0, 0.0, 1.6664079159493365E9, 0.0, 2022-10-21 20:05:15.949
75.0, -149040.51560646482, -159224.328008214, 46192.09273959312, -85965.3456169779, 73500.91767322036, -73693.88028310303, 86104.14995004535, -128198.89971004722, -0.048, 0.9420000000000001, -0.18, 192.0, 254.0, 128.0, 29.0, 112.0, 250.0, 96.0, 0.0, 0.0, 0.0, 1.6664079159493444E9, 0.0, 2022-10-21 20:05:15.949
76.0, -149045.25417628934, -159225.5350024146, 46179.128727809046, -85970.12889029132, 73495.12857140644, -73668.2428322128, 86134.81654343804, -128204.64410837223, -0.048, 0.9420000000000001, -0.18, 192.0, 0.0, 0.0, 0.0, 0.0, 0.0, 0.0, 0.0, 0.0, 0.0, 1.666407915949353E9, 0.0, 2022-10-21 20:05:15.949
77.0, -149043.9801268554, -159225.6467611369, 46183.53202146674, -85972.96756183715, 73499.06247843057, -73664.6889048444, 86135.0847643715, -128205.13584675024, -0.048, 0.9420000000000001, -0.18, 192.0, 0.0, 0.0, 0.0, 0.0, 0.0, 0.0, 0.0, 0.0, 0.0, 1.6664079159493608E9, 0.0, 2022-10-21 20:05:15.949
78.0, -149060.25219681885, -159244.42222647934, 46177.87703011955, -85987.85382364439, 73492.11108590497, -73703.11155356307, 86090.42597894979, -128216.60229165583, -0.048, 0.9420000000000001, -0.18, 192.0, 0.0, 0.0, 0.0, 0.0, 0.0, 0.0, 0.0, 0.0, 0.0, 1.6664079159493687E9, 0.0, 2022-10-21 20:05:15.949
79.0, -149058.86638866263, -159247.68558116982, 46180.447480731906, -85988.03263760003, 73490.32294634855, -73710.95701586688, 86085.15096725833, -128216.3117189779, -0.048, 0.9420000000000001, -0.18, 192.0, 0.0, 0.0, 0.0, 0.0, 0.0, 0.0, 0.0, 0.0, 0.0, 1.6664079159493763E9, 0.0, 2022-10-21 20:05:15.949
80.0, -149046.10354257864, -159236.2414880087, 46191.422187259464, -85970.75473913607, 73497.60961504097, -73679.41870444044, 86127.46281951224, -128200.64314611473, -0.048, 0.9420000000000001, -0.18, 192.0, 0.0, 0.0, 0.0, 0.0, 0.0, 0.0, 0.0, 0.0, 0.0, 1.666407915949384E9, 0.0, 2022-10-21 20:05:15.949
81.0, -149038.21337678592, -159225.4902989257, 46194.059693105184, -85969.81596586895, 73500.22476914225, -73665.80649206716, 86138.39282255087, -128197.33508793535, -0.048, 0.9420000000000001, -0.18, 192.0, 0.0, 0.0, 0.0, 0.0, 0.0, 0.0, 0.0, 0.0, 0.0, 1.666407915949392E9, 0.0, 2022-10-21 20:05:15.949
82.0, -149035.70998140692, -159221.75755760164, 46193.657361704994, -85989.48550098963, 73494.81564698406, -73692.5391784357, 86105.40164773485, -128196.28455594595, -0.048, 0.9420000000000001, -0.18, 192.0, 0.0, 0.0, 0.0, 0.0, 0.0, 0.0, 0.0, 0.0, 0.0, 1.6664079159493997E9, 0.0, 2022-10-21 20:05:15.949
83.0, -149037.05108607427, -159223.590400647, 46190.21519305887, -85996.5933557264, 73491.93227194934, -73704.81028614167, 86094.33753422946, -128191.68009658816, -0.048, 0.9420000000000001, -0.18, 192.0, 0.0, 0.0, 0.0, 0.0, 0.0, 0.0, 0.0, 0.0, 0.0, 1.6664079159494073E9, 0.0, 2022-10-21 20:05:15.949
84.0, -149040.5379582093, -159224.5962291475, 46184.71666392287, -85985.7974631545, 73491.12760914894, -73679.21753874034, 86129.18390383529, -128191.03189599895, -0.048, 0.9420000000000001, -0.18, 192.0, 0.0, 0.0, 0.0, 0.0, 0.0, 0.0, 0.0, 0.0, 0.0, 1.6664079159494176E9, 0.0, 2022-10-21 20:05:15.949
85.0, -149046.14824606758, -159233.31340948504, 46184.82842264514, -85990.78190216803, 73486.0984666465, -73667.32641069012, 86143.15374411986, -128196.12809373476, -0.044, 0.9420000000000001, -0.17400000000000002, 192.0, 254.0, 160.0, 29.0, 112.0, 250.0, 144.0, 0.0, 0.0, 0.0, 1.6664079159494264E9, 0.0, 2022-10-21 20:05:15.949
86.0, -149057.61469097313, -159245.36099974645, 46177.60880918608, -86005.04231513051, 73479.70586773228, -73690.25930050127, 86104.88755761237, -128210.65672763072, -0.044, 0.9420000000000001, -0.17400000000000002, 192.0, 0.0, 0.0, 0.0, 0.0, 0.0, 0.0, 0.0, 0.0, 0.0, 1.666407915949436E9, 0.0, 2022-10-21 20:05:15.949
87.0, -149058.441705518, -159243.2375840232, 46178.413471986474, -86007.47865527615, 73484.22092011225, -73705.59259719761, 86084.45806318022, -128208.77918109647, -0.044, 0.9420000000000001, -0.17400000000000002, 192.0, 0.0, 0.0, 0.0, 0.0, 0.0, 0.0, 0.0, 0.0, 0.0, 1.6664079159494448E9, 0.0, 2022-10-21 20:05:15.949
88.0, -149070.01990914583, -159255.0393050956, 46169.29396024871, -86000.9966493841, 73481.22578635524, -73693.16502728045, 86108.28502276957, -128210.94730030863, -0.044, 0.9420000000000001, -0.17400000000000002, 192.0, 0.0, 0.0, 0.0, 0.0, 0.0, 0.0, 0.0, 0.0, 0.0, 1.6664079159494536E9, 0.0, 2022-10-21 20:05:15.949
89.0, -149084.12385989714, -159270.12673260292, 46156.665224631455, -86003.85767267438, 73472.53095776212, -73678.99402129579, 86125.13823808888, -128224.42540221519, -0.044, 0.9420000000000001, -0.17400000000000002, 192.0, 0.0, 0.0, 0.0, 0.0, 0.0, 0.0, 0.0, 0.0, 0.0, 1.6664079159494712E9, 0.0, 2022-10-21 20:05:15.949
90.0, -149072.23273184692, -159260.51548248716, 46170.9479893384, -86001.13075985084, 73484.35503057898, -73680.37982945202, 86114.54351121707, -128220.82677135788, -0.044, 0.9420000000000001, -0.17400000000000002, 192.0, 0.0, 0.0, 0.0, 0.0, 0.0, 0.0, 0.0, 0.0, 0.0, 1.66640791594948E9, 0.0, 2022-10-21 20:05:15.949
91.0, -149050.17156006952, -159237.31437174254, 46192.56212622668, -85981.68474217472, 73507.35497562349, -73689.1864167674, 86102.40651397784, -128201.35840193731, -0.044, 0.9420000000000001, -0.17400000000000002, 192.0, 0.0, 0.0, 0.0, 0.0, 0.0, 0.0, 0.0, 0.0, 0.0, 1.6664079159494896E9, 0.0, 2022-10-21 20:05:15.949
92.0, -149041.90141462107, -159230.45238619475, 46195.42314951696, -85966.30674198947, 73515.8486385165, -73675.86477707206, 86126.76991543412, -128194.04938150042, -0.044, 0.9420000000000001, -0.17400000000000002, 192.0, 0.0, 0.0, 0.0, 0.0, 0.0, 0.0, 0.0, 0.0, 0.0, 1.6664079159494984E9, 0.0, 2022-10-21 20:05:15.949
93.0, -149054.17252232702, -159244.04224682358, 46180.0004458428, -85984.38930325382, 73497.78842899662, -73666.70056184537, 86138.6833952288, -128207.72864910707, -0.044, 0.9420000000000001, -0.17400000000000002, 192.0, 0.0, 0.0, 0.0, 0.0, 0.0, 0.0, 0.0, 0.0, 0.0, 1.6664079159495072E9, 0.0, 2022-10-21 20:05:15.949
94.0, -149058.77698168482, -159249.7866451486, 46177.027663830246, -85999.99082088361, 73492.06638241606, -73676.84825382808, 86116.48811298468, -128212.17664625368, -0.044, 0.9420000000000001, -0.17400000000000002, 192.0, 0.0, 0.0, 0.0, 0.0, 0.0, 0.0, 0.0, 0.0, 0.0, 1.6664079159495168E9, 0.0, 2022-10-21 20:05:15.949
95.0, -149057.74880143986, -159249.94310735978, 46178.27936151974, -86007.85863493188, 73490.03237367063, -73708.96771061036, 86080.01006603362, -128214.32241372138, -0.048, 0.9420000000000001, -0.17200000000000001, 192.0, 254.0, 128.0, 29.0, 112.0, 250.0, 160.0, 0.0, 0.0, 0.0, 1.6664079159495263E9, 0.0, 2022-10-21 20:05:15.949
96.0, -149057.65939446204, -159247.26089802515, 46181.54271621021, -85994.38053302534, 73490.63587077092, -73704.63147218603, 86094.069313296, -128209.98617529705, -0.048, 0.9420000000000001, -0.17200000000000001, 192.0, 0.0, 0.0, 0.0, 0.0, 0.0, 0.0, 0.0, 0.0, 0.0, 1.6664079159495356E9, 0.0, 2022-10-21 20:05:15.949
97.0, -149050.05980134723, -159235.0344938081, 46190.3493035256, -85974.8451083714, 73504.38219361093, -73656.99990475178, 86142.86317144195, -128195.12226523427, -0.048, 0.9420000000000001, -0.17200000000000001, 192.0, 0.0, 0.0, 0.0, 0.0, 0.0, 0.0, 0.0, 0.0, 0.0, 1.666407915949545E9, 0.0, 2022-10-21 20:05:15.949
98.0, -149057.4805805064, -159239.32602874353, 46176.42416672995, -85994.82756791444, 73497.92253946335, -73659.6374105975, 86131.21791258073, -128209.13680900774, -0.048, 0.9420000000000001, -0.17200000000000001, 192.0, 0.0, 0.0, 0.0, 0.0, 0.0, 0.0, 0.0, 0.0, 0.0, 1.6664079159495535E9, 0.0, 2022-10-21 20:05:15.949
99.0, -149060.3416037967, -159241.78472063362, 46170.009216071274, -86013.55832976798, 73483.9974026677, -73702.75392565179, 86083.04990327953, -128212.86955033179, -0.048, 0.9420000000000001, -0.17200000000000001, 192.0, 0.0, 0.0, 0.0, 0.0, 0.0, 0.0, 0.0, 0.0, 0.0, 1.6664079159495623E9, 0.0, 2022-10-21 20:05:15.949
100.0, -149051.55736822574, -159236.97909557572, 46189.321123280664, -85988.97141086715, 73507.91376923487, -73690.5945766681, 86105.26753726811, -128190.2048814541, -0.048, 0.9420000000000001, -0.17200000000000001, 192.0, 0.0, 0.0, 0.0, 0.0, 0.0, 0.0, 0.0, 0.0, 0.0, 1.666407915949571E9, 0.0, 2022-10-21 20:05:15.949
101.0, -149057.9276153955, -159247.81969163654, 46183.53202146674, -85977.90729736177, 73510.43951635832, -73656.35170416257, 86145.72419473222, -128196.55277687941, -0.048, 0.9420000000000001, -0.17200000000000001, 192.0, 0.0, 0.0, 0.0, 0.0, 0.0, 0.0, 0.0, 0.0, 0.0, 1.66640791594958E9, 0.0, 2022-10-21 20:05:15.949
102.0, -149059.46988576293, -159248.26672652565, 46175.57480044065, -85990.75955042358, 73499.21894064176, -73658.8327477971, 86138.0351946396, -128205.64993687272, -0.048, 0.9420000000000001, -0.17200000000000001, 192.0, 0.0, 0.0, 0.0, 0.0, 0.0, 0.0, 0.0, 0.0, 0.0, 1.6664079159495885E9, 0.0, 2022-10-21 20:05:15.949
103.0, -149055.446571761, -159245.38335149092, 46177.720567908356, -86001.06370461747, 73496.80495224059, -73681.31860271914, 86105.89338611286, -128202.76656183798, -0.048, 0.9420000000000001, -0.17200000000000001, 192.0, 0.0, 0.0, 0.0, 0.0, 0.0, 0.0, 0.0, 0.0, 0.0, 1.6664079159495974E9, 0.0, 2022-10-21 20:05:15.949
104.0, -149053.8819496491, -159240.91300259985, 46173.96547483987, -86001.48838776212, 73495.7991237401, -73691.22042551285, 86104.30641225654, -128198.09504724682, -0.044, 0.936, -0.17, 192.0, 254.0, 160.0, 29.0, 64.0, 250.0, 176.0, 0.0, 0.0, 0.0, 1.666407915949614E9, 0.0, 2022-10-21 20:05:15.949
105.0, -149049.50100773585, -159237.80611012055, 46175.977131840846, -85988.7478934226, 73498.07900167454, -73658.07278848563, 86145.8359534545, -128187.0532854859, -0.044, 0.936, -0.17, 192.0, 0.0, 0.0, 0.0, 0.0, 0.0, 0.0, 0.0, 0.0, 0.0, 1.6664079159496243E9, 0.0, 2022-10-21 20:05:15.949
106.0, -149054.3289845382, -159244.35517124596, 46171.75265213879, -85997.08509410443, 73494.25685337267, -73642.5830295781, 86154.62018902543, -128186.1592157077, -0.044, 0.936, -0.17, 192.0, 0.0, 0.0, 0.0, 0.0, 0.0, 0.0, 0.0, 0.0, 0.0, 1.6664079159496334E9, 0.0, 2022-10-21 20:05:15.949
107.0, -149059.84986541866, -159250.90423237137, 46163.303692734684, -86026.32117585196, 73480.37642006594, -73675.19422473838, 86111.05663908203, -128197.89388154673, -0.044, 0.936, -0.17, 192.0, 0.0, 0.0, 0.0, 0.0, 0.0, 0.0, 0.0, 0.0, 0.0, 1.6664079159496424E9, 0.0, 2022-10-21 20:05:15.949
108.0, -149066.91301666654, -159257.7885696636, 46156.97814905383, -86031.14915265431, 73477.2918793311, -73701.52457970675, 86087.5202521706, -128207.43807642914, -0.044, 0.936, -0.17, 192.0, 0.0, 0.0, 0.0, 0.0, 0.0, 0.0, 0.0, 0.0, 0.0, 1.6664079159496512E9, 0.0, 2022-10-21 20:05:15.949
109.0, -149069.57287425673, -159257.3862382634, 46158.45336418788, -86018.49806529262, 73479.86232994347, -73681.16214050796, 86116.75633391814, -128203.72768684957, -0.044, 0.936, -0.17, 192.0, 0.0, 0.0, 0.0, 0.0, 0.0, 0.0, 0.0, 0.0, 0.0, 1.6664079159496603E9, 0.0, 2022-10-21 20:05:15.949
110.0, -149053.7254874379, -159238.3872554764, 46173.20551552839, -86009.37855355485, 73489.27241435915, -73656.39640765148, 86144.87482844292, -128199.97259378107, -0.044, 0.936, -0.17, 192.0, 0.0, 0.0, 0.0, 0.0, 0.0, 0.0, 0.0, 0.0, 0.0, 1.6664079159496691E9, 0.0, 2022-10-21 20:05:15.949
111.0, -149053.77019092682, -159237.9402205873, 46174.45721321788, -86025.51651305158, 73490.1441323929, -73670.50035840277, 86121.45020025375, -128204.88997756124, -0.044, 0.936, -0.17, 192.0, 0.0, 0.0, 0.0, 0.0, 0.0, 0.0, 0.0, 0.0, 0.0, 1.6664079159496782E9, 0.0, 2022-10-21 20:05:15.949
112.0, -149053.30080429325, -159239.25897351015, 46175.32893125164, -86033.92076896677, 73491.28407136012, -73695.13198079253, 86094.18107201828, -128204.28648046094, -0.044, 0.936, -0.17, 192.0, 0.0, 0.0, 0.0, 0.0, 0.0, 0.0, 0.0, 0.0, 0.0, 1.666407915949688E9, 0.0, 2022-10-21 20:05:15.949
113.0, -149051.11033333663, -159239.86247061045, 46175.88772486302, -86016.24053910263, 73494.83799872852, -73678.59168989559, 86120.55613047554, -128202.38658218224, -0.044, 0.936, -0.17, 192.0, 0.0, 0.0, 0.0, 0.0, 0.0, 0.0, 0.0, 0.0, 0.0, 1.666407915949697E9, 0.0, 2022-10-21 20:05:15.949
114.0, -149057.12295259512, -159246.27742126913, 46176.29005626322, -86014.38534431283, 73495.73206850672, -73645.95814299084, 86149.12165988942, -128200.75490483701, -0.046, 0.9420000000000001, -0.17200000000000001, 192.0, 254.0, 144.0, 29.0, 112.0, 250.0, 160.0, 0.0, 0.0, 0.0, 1.666407915949706E9, 0.0, 2022-10-21 20:05:15.949
115.0, -149058.46405726243, -159245.83038638002, 46178.03349233073, -86028.1093154084, 73494.25685337267, -73660.77734956471, 86125.20529332224, -128202.31952694888, -0.046, 0.9420000000000001, -0.17200000000000001, 192.0, 0.0, 0.0, 0.0, 0.0, 0.0, 0.0, 0.0, 0.0, 0.0, 1.6664079159497156E9, 0.0, 2022-10-21 20:05:15.949
116.0, -149052.25027230385, -159235.81680486404, 46185.52132672326, -86029.53982705354, 73497.72137376326, -73686.01246905475, 86096.52800518609, -128198.3632681803, -0.046, 0.9420000000000001, -0.17200000000000001, 192.0, 0.0, 0.0, 0.0, 0.0, 0.0, 0.0, 0.0, 0.0, 0.0, 1.6664079159497244E9, 0.0, 2022-10-21 20:05:15.949
117.0, -149055.69244095, -159240.24245026617, 46184.984884856334, -86015.70409723569, 73498.03429818562, -73684.40314345398, 86109.60377569245, -128199.92789029217, -0.046, 0.9420000000000001, -0.17200000000000001, 192.0, 0.0, 0.0, 0.0, 0.0, 0.0, 0.0, 0.0, 0.0, 0.0, 1.6664079159497335E9, 0.0, 2022-10-21 20:05:15.949
118.0, -149049.5233594803, -159236.62146766443, 46191.399835515, -86004.61763198586, 73504.51630407767, -73652.21663143834, 86147.46763079973, -128191.09895123231, -0.046, 0.9420000000000001, -0.17200000000000001, 192.0, 0.0, 0.0, 0.0, 0.0, 0.0, 0.0, 0.0, 0.0, 0.0, 1.6664079159497423E9, 0.0, 2022-10-21 20:05:15.949
119.0, -149046.46117048993, -159231.6370286509, 46193.21032681588, -86007.09867562041, 73509.54544658012, -73647.96979999183, 86140.1809621073, -128191.8142070549, -0.046, 0.9420000000000001, -0.17200000000000001, 192.0, 0.0, 0.0, 0.0, 0.0, 0.0, 0.0, 0.0, 0.0, 0.0, 1.6664079159497511E9, 0.0, 2022-10-21 20:05:15.949
120.0, -149048.5845862132, -159233.46987169623, 46189.41053025849, -86021.24732986062, 73502.43759184332, -73688.85114060059, 86099.94782208775, -128199.77142808097, -0.046, 0.9420000000000001, -0.17200000000000001, 192.0, 0.0, 0.0, 0.0, 0.0, 0.0, 0.0, 0.0, 0.0, 0.0, 1.666407915949768E9, 0.0, 2022-10-21 20:05:15.949
121.0, -149055.938310139, -159241.89647935587, 46187.73414942434, -86021.62730951635, 73501.09648717601, -73695.06492555916, 86108.46383672522, -128191.74715182152, -0.046, 0.9420000000000001, -0.17200000000000001, 192.0, 0.0, 0.0, 0.0, 0.0, 0.0, 0.0, 0.0, 0.0, 0.0, 1.666407916426569E9, 0.0, 2022-10-21 20:05:16.426
122.0, -149060.67687996352, -159247.10443581396, 46187.644742446515, -86002.31540230697, 73511.84767625901, -73650.45084362637, 86154.15080239187, -128187.9026517752, -0.046, 0.9420000000000001, -0.17200000000000001, 192.0, 0.0, 0.0, 0.0, 0.0, 0.0, 0.0, 0.0, 0.0, 0.0, 1.666407916426659E9, 0.0, 2022-10-21 20:05:16.426
123.0, -149054.26192930483, -159243.01406657865, 46195.78077742825, -86005.55640525298, 73518.46379261778, -73632.0777096841, 86160.7892704951, -128182.47117787258, -0.046, 0.9420000000000001, -0.17200000000000001, 192.0, 0.0, 0.0, 0.0, 0.0, 0.0, 0.0, 0.0, 0.0, 0.0, 1.666407916426689E9, 0.0, 2022-10-21 20:05:16.426
124.0, -149052.7867141708, -159237.02379906463, 46192.22685005985, -86018.4533618037, 73511.95943498128, -73665.96295427835, 86120.84670315347, -128186.76271280799, -0.048, 0.9500000000000001, -0.17, 192.0, 254.0, 128.0, 29.0, 176.0, 250.0, 176.0, 0.0, 0.0, 0.0, 1.6664079164267173E9, 0.0, 2022-10-21 20:05:16.426
125.0, -149053.1443420821, -159236.4873571977, 46187.912963379975, -86010.71965822217, 73511.93708323683, -73679.84338758509, 86112.26363328262, -128185.46631162959, -0.048, 0.9500000000000001, -0.17, 192.0, 0.0, 0.0, 0.0, 0.0, 0.0, 0.0, 0.0, 0.0, 0.0, 1.6664079164267478E9, 0.0, 2022-10-21 20:05:16.426
126.0, -149072.32213882473, -159255.4863399847, 46168.13166953703, -86015.25706234659, 73501.78939125412, -73659.16802396394, 86141.56677026353, -128198.1621024802, -0.048, 0.9500000000000001, -0.17, 192.0, 0.0, 0.0, 0.0, 0.0, 0.0, 0.0, 0.0, 0.0, 0.0, 1.6664079164267762E9, 0.0, 2022-10-21 20:05:16.426
127.0, -149078.91590343905, -159263.37650577744, 46159.28037873273, -86038.27935913556, 73485.2938038461, -73656.12818671801, 86138.4375260398, -128208.62271888528, -0.048, 0.9500000000000001, -0.17, 192.0, 0.0, 0.0, 0.0, 0.0, 0.0, 0.0, 0.0, 0.0, 0.0, 1.6664079164268036E9, 0.0, 2022-10-21 20:05:16.426
128.0, -149051.5797199702, -159234.05101705206, 46185.16369881197, -86012.84307394542, 73514.23931291573, -73656.12818671801, 86129.85445616895, -128179.94543074913, -0.048, 0.9500000000000001, -0.17, 192.0, 0.0, 0.0, 0.0, 0.0, 0.0, 0.0, 0.0, 0.0, 0.0, 1.6664079164268312E9, 0.0, 2022-10-21 20:05:16.426
129.0, -149052.27262404832, -159235.41447346384, 46187.24241104632, -86005.24348083061, 73517.81559202858, -73671.1932624809, 86119.37148801942, -128178.33610514834, -0.048, 0.9500000000000001, -0.17, 192.0, 0.0, 0.0, 0.0, 0.0, 0.0, 0.0, 0.0, 0.0, 0.0, 1.666407916426858E9, 0.0, 2022-10-21 20:05:16.426
130.0, -149056.89943515055, -159241.67296191133, 46180.402777243, -85999.27556506105, 73510.84184775852, -73656.2846489292, 86144.31603483153, -128178.91725050418, -0.048, 0.9500000000000001, -0.17, 192.0, 0.0, 0.0, 0.0, 0.0, 0.0, 0.0, 0.0, 0.0, 0.0, 1.6664079164268854E9, 0.0, 2022-10-21 20:05:16.426
131.0, -149055.91595839453, -159240.35420898846, 46173.36197773957, -86010.76436171107, 73507.35497562349, -73640.32550338811, 86157.92824720482, -128185.22044244056, -0.048, 0.9500000000000001, -0.17, 192.0, 0.0, 0.0, 0.0, 0.0, 0.0, 0.0, 0.0, 0.0, 0.0, 1.6664079164269128E9, 0.0, 2022-10-21 20:05:16.426
132.0, -149054.10546709364, -159243.50580495666, 46174.03253007323, -86015.56998676897, 73506.95264422329, -73658.54217511919, 86130.25678756915, -128187.94735526411, -0.048, 0.9500000000000001, -0.17, 192.0, 0.0, 0.0, 0.0, 0.0, 0.0, 0.0, 0.0, 0.0, 0.0, 1.66640791642694E9, 0.0, 2022-10-21 20:05:16.426
133.0, -149051.19974031445, -159242.92465960083, 46182.14621331051, -86011.30080357801, 73512.60763557049, -73676.40121893898, 86111.74954316016, -128176.92794524765, -0.048, 0.9500000000000001, -0.17, 192.0, 0.0, 0.0, 0.0, 0.0, 0.0, 0.0, 0.0, 0.0, 0.0, 1.6664079164269774E9, 0.0, 2022-10-21 20:05:16.426
134.0, -149059.0899061072, -159249.67488642634, 46172.13263179453, -85997.24155631561, 73516.42978387234, -73662.20786120986, 86136.22470333871, -128181.37594239425, -0.044, 0.9520000000000001, -0.168, 192.0, 254.0, 160.0, 29.0, 192.0, 250.0, 192.0, 0.0, 0.0, 0.0, 1.6664079164270115E9, 0.0, 2022-10-21 20:05:16.427
135.0, -149062.01798463083, -159250.97128760474, 46158.27455023224, -85999.32026854996, 73506.08092618953, -73643.09711970057, 86150.01572966763, -128198.05034375792, -0.044, 0.9520000000000001, -0.168, 192.0, 0.0, 0.0, 0.0, 0.0, 0.0, 0.0, 0.0, 0.0, 0.0, 1.6664079164271295E9, 0.0, 2022-10-21 20:05:16.427
136.0, -149049.70217343594, -159241.91883110034, 46165.71768113586, -85998.6497162163, 73509.00900471318, -73661.9396402764, 86123.68537469929, -128195.8598728013, -0.044, 0.9520000000000001, -0.168, 192.0, 0.0, 0.0, 0.0, 0.0, 0.0, 0.0, 0.0, 0.0, 0.0, 1.6664079164271576E9, 0.0, 2022-10-21 20:05:16.427
137.0, -149039.10744656413, -159230.20651700575, 46176.15594579648, -85993.62057371385, 73516.56389433908, -73683.55377716468, 86106.0274965796, -128186.56154710789, -0.044, 0.9520000000000001, -0.168, 192.0, 0.0, 0.0, 0.0, 0.0, 0.0, 0.0, 0.0, 0.0, 0.0, 1.666407916427185E9, 0.0, 2022-10-21 20:05:16.427
138.0, -149042.6390221881, -159232.4416914513, 46171.61854167206, -85987.76441666657, 73514.97692048275, -73678.54698640668, 86126.21112182274, -128188.39439015322, -0.044, 0.9520000000000001, -0.168, 192.0, 0.0, 0.0, 0.0, 0.0, 0.0, 0.0, 0.0, 0.0, 0.0, 1.666407916427212E9, 0.0, 2022-10-21 20:05:16.427
139.0, -149048.36106876863, -159239.4377874658, 46162.409622956475, -85984.38930325382, 73514.30636814909, -73649.66853257043, 86154.21785762523, -128190.13782622074, -0.044, 0.9520000000000001, -0.168, 192.0, 0.0, 0.0, 0.0, 0.0, 0.0, 0.0, 0.0, 0.0, 0.0, 1.6664079164272397E9, 0.0, 2022-10-21 20:05:16.427
140.0, -149046.95290886794, -159236.53206068662, 46159.41448919946, -85987.58560271093, 73515.24514141622, -73653.40127389447, 86137.61051149495, -128191.18835821014, -0.044, 0.9520000000000001, -0.168, 192.0, 0.0, 0.0, 0.0, 0.0, 0.0, 0.0, 0.0, 0.0, 0.0, 1.666407916427267E9, 0.0, 2022-10-21 20:05:16.427
141.0, -149043.4883884774, -159231.56997341753, 46167.28230324773, -85988.5914312114, 73517.25679841719, -73681.76563760825, 86108.06150532502, -128189.13199772025, -0.044, 0.9520000000000001, -0.168, 192.0, 0.0, 0.0, 0.0, 0.0, 0.0, 0.0, 0.0, 0.0, 0.0, 1.6664079164272943E9, 0.0, 2022-10-21 20:05:16.427
142.0, -149049.29984203578, -159237.49318569817, 46165.29299799121, -85975.06862581595, 73517.7485367952, -73679.48575967381, 86117.40453450734, -128190.71897157657, -0.044, 0.9520000000000001, -0.168, 192.0, 0.0, 0.0, 0.0, 0.0, 0.0, 0.0, 0.0, 0.0, 0.0, 1.6664079164273212E9, 0.0, 2022-10-21 20:05:16.427
143.0, -149065.16958059903, -159249.42901723733, 46154.854733330576, -85972.72169264815, 73514.46283036028, -73647.90274475847, 86148.16053487785, -128187.94735526411, -0.046, 0.9460000000000001, -0.156, 192.0, 254.0, 144.0, 29.0, 144.0, 251.0, 32.0, 0.0, 0.0, 0.0, 1.6664079164273489E9, 0.0, 2022-10-21 20:05:16.427
144.0, -149067.67297597803, -159249.27255502614, 46149.333852450116, -85991.6983236907, 73506.63971980092, -73650.56260234864, 86138.72809871771, -128190.69661983212, -0.046, 0.9460000000000001, -0.156, 192.0, 0.0, 0.0, 0.0, 0.0, 0.0, 0.0, 0.0, 0.0, 0.0, 1.6664079164273784E9, 0.0, 2022-10-21 20:05:16.427
145.0, -149036.2687750183, -159217.75659534414, 46175.32893125164, -85969.77126238005, 73525.97397875476, -73658.74334081929, 86126.16641833383, -128169.64127655522, -0.046, 0.9460000000000001, -0.156, 192.0, 0.0, 0.0, 0.0, 0.0, 0.0, 0.0, 0.0, 0.0, 0.0, 1.6664079164274056E9, 0.0, 2022-10-21 20:05:16.427
146.0, -149034.21241452842, -159216.41549067682, 46175.44068997392, -85965.1444512778, 73528.4550223893, -73664.06305599965, 86130.65911896934, -128171.76469227848, -0.046, 0.9460000000000001, -0.156, 192.0, 0.0, 0.0, 0.0, 0.0, 0.0, 0.0, 0.0, 0.0, 0.0, 1.6664079164274325E9, 0.0, 2022-10-21 20:05:16.427
147.0, -149049.97039436942, -159233.22400250722, 46163.862486346065, -85964.2950849885, 73527.33743516654, -73630.35662536105, 86165.10315717496, -128176.79383478092, -0.046, 0.9460000000000001, -0.156, 192.0, 0.0, 0.0, 0.0, 0.0, 0.0, 0.0, 0.0, 0.0, 0.0, 1.6664079164274597E9, 0.0, 2022-10-21 20:05:16.427
148.0, -149055.5359787388, -159240.62242992193, 46161.18027701143, -85975.51566070506, 73527.69506307782, -73616.29737809865, 86169.34998862148, -128176.77148303647, -0.046, 0.9460000000000001, -0.156, 192.0, 0.0, 0.0, 0.0, 0.0, 0.0, 0.0, 0.0, 0.0, 0.0, 1.666407916427487E9, 0.0, 2022-10-21 20:05:16.427
149.0, -149050.30567053624, -159231.94995307326, 46161.96258806736, -85984.72457942064, 73524.58817059854, -73651.2331546823, 86128.73686894619, -128181.66651507218, -0.046, 0.9460000000000001, -0.156, 192.0, 0.0, 0.0, 0.0, 0.0, 0.0, 0.0, 0.0, 0.0, 0.0, 1.6664079164275255E9, 0.0, 2022-10-21 20:05:16.427
150.0, -149042.34844951017, -159224.6856361253, 46166.99173056981, -85970.4418147137, 73529.41614740087, -73665.3371054336, 86124.66885145532, -128177.84436677032, -0.046, 0.9460000000000001, -0.156, 192.0, 0.0, 0.0, 0.0, 0.0, 0.0, 0.0, 0.0, 0.0, 0.0, 1.6664079164276075E9, 0.0, 2022-10-21 20:05:16.427
151.0, -149037.05108607427, -159221.01995003462, 46167.39406197001, -85954.50502091707, 73526.68923457734, -73642.20304992236, 86154.79900298108, -128176.79383478092, -0.046, 0.9460000000000001, -0.156, 192.0, 0.0, 0.0, 0.0, 0.0, 0.0, 0.0, 0.0, 0.0, 0.0, 1.6664079164276505E9, 0.0, 2022-10-21 20:05:16.427
152.0, -149033.54186219478, -159217.95776104424, 46167.505820692284, -85955.98023605112, 73529.93023752335, -73624.8804479695, 86166.06428218655, -128176.97264873657, -0.046, 0.9460000000000001, -0.156, 192.0, 0.0, 0.0, 0.0, 0.0, 0.0, 0.0, 0.0, 0.0, 0.0, 1.666407916427693E9, 0.0, 2022-10-21 20:05:16.427
153.0, -149042.14728381007, -159221.84696457948, 46162.70019563439, -85979.78484389602, 73520.6542635744, -73660.0397419977, 86123.79713342157, -128190.5625093654, -0.04, 0.9420000000000001, -0.164, 192.0, 254.0, 192.0, 29.0, 112.0, 250.0, 224.0, 0.0, 0.0, 0.0, 1.6664079164277031E9, 0.0, 2022-10-21 20:05:16.427
154.0, -149045.41063850053, -159226.47377568172, 46167.19289626991, -85975.33684674941, 73521.9506647528, -73679.70927711837, 86109.53672045907, -128185.57807035185, -0.04, 0.9420000000000001, -0.164, 192.0, 0.0, 0.0, 0.0, 0.0, 0.0, 0.0, 0.0, 0.0, 0.0, 1.6664079164277153E9, 0.0, 2022-10-21 20:05:16.427
155.0, -149052.89847289308, -159235.14625253037, 46163.57191366815, -85962.37283496534, 73516.6533013169, -73663.4372071549, 86135.3306335605, -128192.9094425332, -0.04, 0.9420000000000001, -0.164, 192.0, 0.0, 0.0, 0.0, 0.0, 0.0, 0.0, 0.0, 0.0, 0.0, 1.6664079164277277E9, 0.0, 2022-10-21 20:05:16.427
156.0, -149048.8751588911, -159230.7429588727, 46164.1977625129, -85959.40005295278, 73517.77088853966, -73644.14765168997, 86152.40736632436, -128195.4128379122, -0.04, 0.9420000000000001, -0.164, 192.0, 0.0, 0.0, 0.0, 0.0, 0.0, 0.0, 0.0, 0.0, 0.0, 1.666407916427739E9, 0.0, 2022-10-21 20:05:16.427
157.0, -149043.2201675439, -159224.86445008093, 46168.10931779258, -85963.95980882166, 73517.14503969492, -73656.86579428504, 86128.33453754599, -128188.55085236441, -0.04, 0.9420000000000001, -0.164, 192.0, 0.0, 0.0, 0.0, 0.0, 0.0, 0.0, 0.0, 0.0, 0.0, 1.6664079164277494E9, 0.0, 2022-10-21 20:05:16.427
158.0, -149038.168673297, -159219.56708664502, 46174.367806240065, -85960.91997157574, 73523.49293512022, -73671.48383515881, 86114.83408389498, -128178.89489875973, -0.04, 0.9420000000000001, -0.164, 192.0, 0.0, 0.0, 0.0, 0.0, 0.0, 0.0, 0.0, 0.0, 0.0, 1.66640791642776E9, 0.0, 2022-10-21 20:05:16.427
159.0, -149046.59528095668, -159227.9936943047, 46167.997559070296, -85948.58180863642, 73522.86708627548, -73662.3419716766, 86133.74365970417, -128189.06494248689, -0.04, 0.9420000000000001, -0.164, 192.0, 0.0, 0.0, 0.0, 0.0, 0.0, 0.0, 0.0, 0.0, 0.0, 1.6664079164277709E9, 0.0, 2022-10-21 20:05:16.427
160.0, -149049.7915804138, -159231.90524958435, 46162.58843691211, -85949.07354701443, 73522.57651359755, -73636.34689287507, 86158.62115128293, -128191.59068961034, -0.04, 0.9420000000000001, -0.164, 192.0, 0.0, 0.0, 0.0, 0.0, 0.0, 0.0, 0.0, 0.0, 0.0, 1.6664079164277813E9, 0.0, 2022-10-21 20:05:16.427
161.0, -149037.05108607427, -159219.50003141168, 46171.57383818315, -85937.74121257558, 73532.0536532466, -73642.13599468899, 86144.91953193182, -128185.71218081859, -0.04, 0.9420000000000001, -0.164, 192.0, 0.0, 0.0, 0.0, 0.0, 0.0, 0.0, 0.0, 0.0, 0.0, 1.666407916427792E9, 0.0, 2022-10-21 20:05:16.427
162.0, -149042.34844951017, -159224.35035995845, 46168.15402128149, -85949.92291330373, 73525.28107467665, -73680.35747770757, 86107.59211869146, -128189.62373609826, -0.04, 0.9420000000000001, -0.164, 192.0, 0.0, 0.0, 0.0, 0.0, 0.0, 0.0, 0.0, 0.0, 0.0, 1.6664079164278026E9, 0.0, 2022-10-21 20:05:16.427
163.0, -149067.38240330011, -159251.79830214957, 46145.57875938163, -85972.16289903676, 73503.86810348846, -73696.80836162667, 86105.71457215722, -128208.35449795182, -0.042, 0.9460000000000001, -0.166, 192.0, 254.0, 176.0, 29.0, 144.0, 250.0, 208.0, 0.0, 0.0, 0.0, 1.6664079164278133E9, 0.0, 2022-10-21 20:05:16.427
164.0, -149061.25802531934, -159247.23854628069, 46149.892646061504, -85954.25915172805, 73514.41812687137, -73661.44790189838, 86143.64548249787, -128200.86666355928, -0.042, 0.9460000000000001, -0.166, 192.0, 0.0, 0.0, 0.0, 0.0, 0.0, 0.0, 0.0, 0.0, 0.0, 1.6664079164278245E9, 0.0, 2022-10-21 20:05:16.427
165.0, -149053.74783918238, -159237.7837583761, 46155.25706473077, -85957.65661688526, 73520.20722868529, -73659.34683791958, 86135.26357832714, -128198.98911702503, -0.042, 0.9460000000000001, -0.166, 192.0, 0.0, 0.0, 0.0, 0.0, 0.0, 0.0, 0.0, 0.0, 0.0, 1.6664079164278443E9, 0.0, 2022-10-21 20:05:16.427
166.0, -149049.70217343594, -159230.51944142813, 46159.90622757748, -85952.76158484955, 73528.2091532003, -73678.74815210678, 86112.82242689401, -128190.87543378776, -0.042, 0.9460000000000001, -0.166, 192.0, 0.0, 0.0, 0.0, 0.0, 0.0, 0.0, 0.0, 0.0, 0.0, 1.6664079164278548E9, 0.0, 2022-10-21 20:05:16.427
167.0, -149050.66329844753, -159234.587458919, 46154.787678097215, -85945.63137836831, 73530.44432764582, -73674.90365206047, 86125.31705204453, -128191.92596577716, -0.042, 0.9460000000000001, -0.166, 192.0, 0.0, 0.0, 0.0, 0.0, 0.0, 0.0, 0.0, 0.0, 0.0, 1.6664079164278667E9, 0.0, 2022-10-21 20:05:16.427
168.0, -149056.5865107282, -159238.20844152075, 46158.9451025659, -85936.86949454182, 73531.09252823502, -73640.19139292138, 86163.583238552, -128185.51101511849, -0.042, 0.9460000000000001, -0.166, 192.0, 0.0, 0.0, 0.0, 0.0, 0.0, 0.0, 0.0, 0.0, 0.0, 1.6664079164278772E9, 0.0, 2022-10-21 20:05:16.427
169.0, -149057.74880143986, -159236.66617115334, 46163.9965968128, -85940.84810505487, 73535.02643525916, -73625.23807588078, 86165.52784031961, -128184.32637266236, -0.042, 0.9460000000000001, -0.166, 192.0, 0.0, 0.0, 0.0, 0.0, 0.0, 0.0, 0.0, 0.0, 0.0, 1.666407916427888E9, 0.0, 2022-10-21 20:05:16.427
170.0, -149054.9324816385, -159234.65451415235, 46161.493201433805, -85947.77714583602, 73536.68046434886, -73652.82012853863, 86132.84958992596, -128184.52753836245, -0.042, 0.9460000000000001, -0.166, 192.0, 0.0, 0.0, 0.0, 0.0, 0.0, 0.0, 0.0, 0.0, 0.0, 1.6664079164278984E9, 0.0, 2022-10-21 20:05:16.427
171.0, -149052.36203102613, -159228.843060594, 46160.174448510945, -85942.01039576656, 73539.78735682814, -73659.32448617513, 86133.96717714873, -128184.97457325156, -0.042, 0.9460000000000001, -0.166, 192.0, 0.0, 0.0, 0.0, 0.0, 0.0, 0.0, 0.0, 0.0, 0.0, 1.666407916427909E9, 0.0, 2022-10-21 20:05:16.427
172.0, -149055.9830136279, -159231.81584260653, 46152.17252399594, -85934.20963695165, 73537.75334808271, -73631.49656432826, 86168.25475314316, -128185.98040175205, -0.038, 0.9480000000000001, -0.162, 192.0, 254.0, 208.0, 29.0, 160.0, 250.0, 240.0, 0.0, 0.0, 0.0, 1.6664079164279196E9, 0.0, 2022-10-21 20:05:16.427
173.0, -149055.3795165276, -159231.14529027286, 46154.5418089082, -85937.07066024192, 73537.19455447132, -73618.93488394438, 86172.74745377869, -128185.01927674048, -0.038, 0.9480000000000001, -0.162, 192.0, 0.0, 0.0, 0.0, 0.0, 0.0, 0.0, 0.0, 0.0, 0.0, 1.6664079164279313E9, 0.0, 2022-10-21 20:05:16.427
174.0, -149061.01215613034, -159235.0344938081, 46156.32994846463, -85946.92777954672, 73531.11487997948, -73656.26229718474, 86130.25678756915, -128188.88612853125, -0.038, 0.9480000000000001, -0.162, 192.0, 0.0, 0.0, 0.0, 0.0, 0.0, 0.0, 0.0, 0.0, 0.0, 1.6664079164279416E9, 0.0, 2022-10-21 20:05:16.427
175.0, -149068.05295563376, -159243.37169448994, 46143.16477098045, -85956.00258779558, 73515.33454839404, -73692.67328890244, 86101.31127849952, -128202.65480311571, -0.038, 0.9480000000000001, -0.162, 192.0, 0.0, 0.0, 0.0, 0.0, 0.0, 0.0, 0.0, 0.0, 0.0, 1.6664079164279523E9, 0.0, 2022-10-21 20:05:16.427
176.0, -149063.5379032538, -159242.3882177339, 46141.62250061303, -85939.12702073182, 73519.02258622916, -73663.95129727737, 86133.54249400408, -128204.10766650531, -0.038, 0.9480000000000001, -0.162, 192.0, 0.0, 0.0, 0.0, 0.0, 0.0, 0.0, 0.0, 0.0, 0.0, 1.666407916427964E9, 0.0, 2022-10-21 20:05:16.427
177.0, -149051.8926443926, -159234.36394147444, 46157.156963009475, -85921.40208737875, 73536.61340911548, -73623.874619469, 86165.70665427526, -128187.96970700857, -0.038, 0.9480000000000001, -0.162, 192.0, 0.0, 0.0, 0.0, 0.0, 0.0, 0.0, 0.0, 0.0, 0.0, 1.6664079164279742E9, 0.0, 2022-10-21 20:05:16.427
178.0, -149048.56223446873, -159231.1899937618, 46164.80125961319, -85925.85008452536, 73537.66394110488, -73637.37507312001, 86139.66687198482, -128187.88030003075, -0.038, 0.9480000000000001, -0.162, 192.0, 0.0, 0.0, 0.0, 0.0, 0.0, 0.0, 0.0, 0.0, 0.0, 1.6664079164279847E9, 0.0, 2022-10-21 20:05:16.427
179.0, -149046.46117048993, -159226.25025823715, 46161.783774111726, -85941.65276785527, 73533.0594817471, -73665.67238160044, 86118.34330777447, -128189.80255005391, -0.038, 0.9480000000000001, -0.162, 192.0, 0.0, 0.0, 0.0, 0.0, 0.0, 0.0, 0.0, 0.0, 0.0, 1.6664079164279952E9, 0.0, 2022-10-21 20:05:16.427
180.0, -149051.02092635882, -159227.70312162675, 46155.078250775136, -85936.22129395262, 73528.23150494475, -73653.84830878358, 86143.71253773125, -128191.38952391024, -0.038, 0.9480000000000001, -0.162, 192.0, 0.0, 0.0, 0.0, 0.0, 0.0, 0.0, 0.0, 0.0, 0.0, 1.666407916428016E9, 0.0, 2022-10-21 20:05:16.428
181.0, -149054.41839151602, -159233.38046471842, 46154.497105419294, -85927.81703803744, 73533.32770268056, -73627.58500904859, 86168.47827058772, -128194.74228557853, -0.038, 0.9480000000000001, -0.162, 192.0, 0.0, 0.0, 0.0, 0.0, 0.0, 0.0, 0.0, 0.0, 0.0, 1.666407916428027E9, 0.0, 2022-10-21 20:05:16.428
182.0, -149055.84890316115, -159233.76044437414, 46154.497105419294, -85943.66442485624, 73522.84473453101, -73655.39057915099, 86134.97300564921, -128196.82099781287, -0.044, 0.9420000000000001, -0.154, 192.0, 254.0, 160.0, 29.0, 112.0, 251.0, 48.0, 0.0, 0.0, 0.0, 1.6664079164280376E9, 0.0, 2022-10-21 20:05:16.428
183.0, -149056.07242060572, -159235.8838600974, 46156.70992812037, -85944.96082603464, 73524.0070252427, -73687.2418149998, 86110.40843849283, -128189.73549482055, -0.044, 0.9420000000000001, -0.154, 192.0, 0.0, 0.0, 0.0, 0.0, 0.0, 0.0, 0.0, 0.0, 0.0, 1.6664079164280496E9, 0.0, 2022-10-21 20:05:16.428
184.0, -149054.8877781496, -159233.96161007424, 46151.90430306248, -85929.53812236049, 73528.2538566892, -73672.62377412603, 86134.10128761546, -128193.7588088225, -0.044, 0.9420000000000001, -0.154, 192.0, 0.0, 0.0, 0.0, 0.0, 0.0, 0.0, 0.0, 0.0, 0.0, 1.6664079164280608E9, 0.0, 2022-10-21 20:05:16.428
185.0, -149066.13070561062, -159244.19870903477, 46137.107448233066, -85930.49924737206, 73523.62704558695, -73650.94258200438, 86154.39667158088, -128204.59940488332, -0.044, 0.9420000000000001, -0.154, 192.0, 0.0, 0.0, 0.0, 0.0, 0.0, 0.0, 0.0, 0.0, 0.0, 1.6664079164280715E9, 0.0, 2022-10-21 20:05:16.428
186.0, -149069.86344693464, -159246.14331080238, 46139.3873261675, -85934.54491311847, 73530.22081020127, -73647.4333581249, 86140.69505222977, -128203.72768684957, -0.044, 0.9420000000000001, -0.154, 192.0, 0.0, 0.0, 0.0, 0.0, 0.0, 0.0, 0.0, 0.0, 0.0, 1.666407916428082E9, 0.0, 2022-10-21 20:05:16.428
187.0, -149065.25898757685, -159238.20844152075, 46146.02579427073, -85936.02012825252, 73535.09349049252, -73663.45955889935, 86121.74077293168, -128196.12809373476, -0.044, 0.9420000000000001, -0.154, 192.0, 0.0, 0.0, 0.0, 0.0, 0.0, 0.0, 0.0, 0.0, 0.0, 1.6664079164280925E9, 0.0, 2022-10-21 20:05:16.428
188.0, -149062.0403363753, -159235.8838600974, 46149.35620419457, -85927.83938978189, 73538.71447309428, -73654.56356460614, 86140.42683129631, -128184.57224185136, -0.044, 0.9420000000000001, -0.154, 192.0, 0.0, 0.0, 0.0, 0.0, 0.0, 0.0, 0.0, 0.0, 0.0, 1.6664079164281032E9, 0.0, 2022-10-21 20:05:16.428
189.0, -149079.34058658368, -159254.1899388063, 46134.84992204308, -85940.55753237696, 73526.26455143269, -73639.58789582108, 86165.08080543051, -128196.99981176852, -0.044, 0.9420000000000001, -0.154, 192.0, 0.0, 0.0, 0.0, 0.0, 0.0, 0.0, 0.0, 0.0, 0.0, 1.666407916428114E9, 0.0, 2022-10-21 20:05:16.428
190.0, -149084.48148780843, -159259.42024700885, 46129.619613840536, -85950.6381691263, 73518.88847576243, -73650.60730583755, 86147.55703777756, -128205.29230896143, -0.044, 0.9420000000000001, -0.154, 192.0, 0.0, 0.0, 0.0, 0.0, 0.0, 0.0, 0.0, 0.0, 0.0, 1.6664079164281244E9, 0.0, 2022-10-21 20:05:16.428
191.0, -149066.01894688833, -159241.29298225557, 46149.71383210586, -85931.46037238365, 73541.32962719556, -73653.15540470545, 86137.16347660584, -128187.88030003075, -0.044, 0.9420000000000001, -0.154, 192.0, 0.0, 0.0, 0.0, 0.0, 0.0, 0.0, 0.0, 0.0, 0.0, 1.6664079164281352E9, 0.0, 2022-10-21 20:05:16.428
192.0, -149060.52041775233, -159234.45334845225, 46155.52528566424, -85928.06290722644, 73543.4083394299, -73650.13791920399, 86146.97589242172, -128179.6548580712, -0.044, 0.934, -0.158, 192.0, 254.0, 160.0, 29.0, 48.0, 251.0, 16.0, 0.0, 0.0, 0.0, 1.6664079164281456E9, 0.0, 2022-10-21 20:05:16.428
193.0, -149068.74585971187, -159237.89551709837, 46147.32219544914, -85927.39235489279, 73540.59201962853, -73627.65206428195, 86174.55794507956, -128182.87350927276, -0.044, 0.934, -0.158, 192.0, 0.0, 0.0, 0.0, 0.0, 0.0, 0.0, 0.0, 0.0, 0.0, 1.6664079164281569E9, 0.0, 2022-10-21 20:05:16.428
194.0, -149071.56217951325, -159236.55441243105, 46145.198779725884, -85938.47882014261, 73535.62993235946, -73626.91445671493, 86167.00305545366, -128183.27584067296, -0.044, 0.934, -0.158, 192.0, 0.0, 0.0, 0.0, 0.0, 0.0, 0.0, 0.0, 0.0, 0.0, 1.6664079164281678E9, 0.0, 2022-10-21 20:05:16.428
195.0, -149070.37753705712, -159233.51457518514, 46146.0928495041, -85940.87045679933, 73536.76987132667, -73660.33031467561, 86127.84279916798, -128189.48962563154, -0.044, 0.934, -0.158, 192.0, 0.0, 0.0, 0.0, 0.0, 0.0, 0.0, 0.0, 0.0, 0.0, 1.6664079164281883E9, 0.0, 2022-10-21 20:05:16.428
196.0, -149068.45528703395, -159229.0442262941, 46148.61859662755, -85920.1280379448, 73545.55410689762, -73661.60436410956, 86133.60954923744, -128181.93473600564, -0.044, 0.934, -0.158, 192.0, 0.0, 0.0, 0.0, 0.0, 0.0, 0.0, 0.0, 0.0, 0.0, 1.6664079164281988E9, 0.0, 2022-10-21 20:05:16.428
197.0, -149075.18316211502, -159239.14721478787, 46140.102581990075, -85920.99975597856, 73536.36753992648, -73637.06214869763, 86161.0351396841, -128190.67426808766, -0.044, 0.934, -0.158, 192.0, 0.0, 0.0, 0.0, 0.0, 0.0, 0.0, 0.0, 0.0, 0.0, 1.6664079164282107E9, 0.0, 2022-10-21 20:05:16.428
198.0, -149079.67586275053, -159243.14817704537, 46132.72650631983, -85940.17755272122, 73523.82821128705, -73634.20112540736, 86156.22951462622, -128198.51973039148, -0.044, 0.934, -0.158, 192.0, 0.0, 0.0, 0.0, 0.0, 0.0, 0.0, 0.0, 0.0, 0.0, 1.6664079164282217E9, 0.0, 2022-10-21 20:05:16.428
199.0, -149076.05488014876, -159240.80124387756, 46136.99568951079, -85945.34080569039, 73524.36465315399, -73652.82012853863, 86129.4744765132, -128194.98815476755, -0.044, 0.934, -0.158, 192.0, 0.0, 0.0, 0.0, 0.0, 0.0, 0.0, 0.0, 0.0, 0.0, 1.666407916428232E9, 0.0, 2022-10-21 20:05:16.428
200.0, -149077.30657783826, -159243.19288053428, 46135.43106739892, -85944.08910800089, 73523.71645256478, -73667.75109383477, 86117.89627288537, -128195.2116722121, -0.044, 0.934, -0.158, 192.0, 0.0, 0.0, 0.0, 0.0, 0.0, 0.0, 0.0, 0.0, 0.0, 1.6664079164282427E9, 0.0, 2022-10-21 20:05:16.428
201.0, -149072.70211848046, -159237.56024093155, 46140.527265134726, -85924.17370369121, 73530.82430730156, -73636.95038997536, 86158.35293034947, -128184.72870406255, -0.044, 0.934, -0.156, 192.0, 254.0, 160.0, 29.0, 48.0, 251.0, 32.0, 0.0, 0.0, 0.0, 1.6664079164282537E9, 0.0, 2022-10-21 20:05:16.428
202.0, -149074.0879266367, -159236.42030196433, 46135.31930867664, -85931.97446250611, 73525.48224037675, -73623.4275845799, 86171.7416252782, -128194.54111987843, -0.044, 0.934, -0.156, 192.0, 0.0, 0.0, 0.0, 0.0, 0.0, 0.0, 0.0, 0.0, 0.0, 1.666407916428265E9, 0.0, 2022-10-21 20:05:16.428
203.0, -149072.74682196937, -159236.2414880087, 46137.84505580009, -85941.92098878873, 73524.76698455417, -73646.87456451352, 86141.34325281897, -128191.8589105438, -0.044, 0.934, -0.156, 192.0, 0.0, 0.0, 0.0, 0.0, 0.0, 0.0, 0.0, 0.0, 0.0, 1.666407916428276E9, 0.0, 2022-10-21 20:05:16.428
204.0, -149067.18123760002, -159231.12293852842, 46143.07536400263, -85936.0871834859, 73534.24412420322, -73659.4809483863, 86127.1722468343, -128185.39925639621, -0.044, 0.934, -0.156, 192.0, 0.0, 0.0, 0.0, 0.0, 0.0, 0.0, 0.0, 0.0, 0.0, 1.6664079164282868E9, 0.0, 2022-10-21 20:05:16.428
205.0, -149064.186103843, -159226.339665215, 46145.37759368153, -85926.92296825921, 73532.858316047, -73644.95231449037, 86151.64740701288, -128182.8511575283, -0.044, 0.934, -0.156, 192.0, 0.0, 0.0, 0.0, 0.0, 0.0, 0.0, 0.0, 0.0, 0.0, 1.6664079164282975E9, 0.0, 2022-10-21 20:05:16.428
206.0, -149069.95285391246, -159228.55248791605, 46142.67303260243, -85930.40984039425, 73531.13723172394, -73620.74537524526, 86177.39661662538, -128178.22434642605, -0.044, 0.934, -0.156, 192.0, 0.0, 0.0, 0.0, 0.0, 0.0, 0.0, 0.0, 0.0, 0.0, 1.6664079164283082E9, 0.0, 2022-10-21 20:05:16.428
207.0, -149072.85858069165, -159234.25218275216, 46136.30278543267, -85949.20765748117, 73525.92927526585, -73642.49362260028, 86145.85830519896, -128195.79281756793, -0.044, 0.934, -0.156, 192.0, 0.0, 0.0, 0.0, 0.0, 0.0, 0.0, 0.0, 0.0, 0.0, 1.6664079164283187E9, 0.0, 2022-10-21 20:05:16.428
208.0, -149068.07530737823, -159232.0393600511, 46136.258081943764, -85944.71495684564, 73529.55025786761, -73672.84729157058, 86119.5279502306, -128196.77629432396, -0.044, 0.934, -0.156, 192.0, 0.0, 0.0, 0.0, 0.0, 0.0, 0.0, 0.0, 0.0, 0.0, 1.6664079164283292E9, 0.0, 2022-10-21 20:05:16.428
209.0, -149071.62923474662, -159235.4368252083, 46134.13466622051, -85931.41566889474, 73528.2091532003, -73671.99792528128, 86135.04006088259, -128195.47989314556, -0.044, 0.934, -0.156, 192.0, 0.0, 0.0, 0.0, 0.0, 0.0, 0.0, 0.0, 0.0, 0.0, 1.6664079164283395E9, 0.0, 2022-10-21 20:05:16.428
210.0, -149075.42903130403, -159241.80707237805, 46128.36791615104, -85942.83741031139, 73522.44240313083, -73646.20401217986, 86160.56575305054, -128196.32925943486, -0.044, 0.934, -0.156, 192.0, 0.0, 0.0, 0.0, 0.0, 0.0, 0.0, 0.0, 0.0, 0.0, 1.6664079164283607E9, 0.0, 2022-10-21 20:05:16.428
211.0, -149075.65254874856, -159245.27159276864, 46127.250328928276, -85951.55459064897, 73523.06825197556, -73646.96397149134, 86145.79124996558, -128199.25733795851, -0.044, 0.936, -0.158, 192.0, 254.0, 160.0, 29.0, 64.0, 251.0, 16.0, 0.0, 0.0, 0.0, 1.6664079164283717E9, 0.0, 2022-10-21 20:05:16.428
212.0, -149068.85761843415, -159240.10833979945, 46132.637099342006, -85949.8335063259, 73528.9020572784, -73671.50618690327, 86118.14214207437, -128195.6140036123, -0.044, 0.936, -0.158, 192.0, 0.0, 0.0, 0.0, 0.0, 0.0, 0.0, 0.0, 0.0, 0.0, 1.6664079164283834E9, 0.0, 2022-10-21 20:05:16.428
213.0, -149080.03349066182, -159252.37944750543, 46121.26006141425, -85946.27957895752, 73522.88943801993, -73674.83659682711, 86123.70772644374, -128200.75490483701, -0.044, 0.936, -0.158, 192.0, 0.0, 0.0, 0.0, 0.0, 0.0, 0.0, 0.0, 0.0, 0.0, 1.6664079164283943E9, 0.0, 2022-10-21 20:05:16.428
214.0, -149075.98782491538, -159249.27255502614, 46126.60212833907, -85938.52352363152, 73526.19749619931, -73636.05632019715, 86166.6901310313, -128193.1106082333, -0.044, 0.936, -0.158, 192.0, 0.0, 0.0, 0.0, 0.0, 0.0, 0.0, 0.0, 0.0, 0.0, 1.6664079164284053E9, 0.0, 2022-10-21 20:05:16.428
215.0, -149068.6341009896, -159237.1355577869, 46135.498122632285, -85939.59640736537, 73530.3102171791, -73630.75895676124, 86161.90685771786, -128190.54015762094, -0.044, 0.936, -0.158, 192.0, 0.0, 0.0, 0.0, 0.0, 0.0, 0.0, 0.0, 0.0, 0.0, 1.666407916428416E9, 0.0, 2022-10-21 20:05:16.428
216.0, -149072.47860103592, -159238.11903454293, 46131.363049908054, -85946.83837256889, 73531.11487997948, -73661.55966062065, 86124.7806101776, -128196.21750071258, -0.044, 0.936, -0.158, 192.0, 0.0, 0.0, 0.0, 0.0, 0.0, 0.0, 0.0, 0.0, 0.0, 1.6664079164284265E9, 0.0, 2022-10-21 20:05:16.428
217.0, -149076.32310108223, -159241.31533400004, 46121.6847445589, -85949.34176794789, 73525.48224037675, -73667.37111417904, 86123.35009853245, -128195.6587071012, -0.044, 0.936, -0.158, 192.0, 0.0, 0.0, 0.0, 0.0, 0.0, 0.0, 0.0, 0.0, 0.0, 1.6664079164284372E9, 0.0, 2022-10-21 20:05:16.428
218.0, -149084.21326687495, -159251.12774981593, 46115.18038692241, -85947.01718652454, 73523.18001069785, -73632.83766899559, 86162.01861644014, -128185.73453256304, -0.044, 0.936, -0.158, 192.0, 0.0, 0.0, 0.0, 0.0, 0.0, 0.0, 0.0, 0.0, 0.0, 1.666407916428448E9, 0.0, 2022-10-21 20:05:16.428
219.0, -149082.939217441, -159246.72445615823, 46115.292145644686, -85955.3320354619, 73521.5036298637, -73629.0825759271, 86161.6386367844, -128192.68592508865, -0.044, 0.936, -0.158, 192.0, 0.0, 0.0, 0.0, 0.0, 0.0, 0.0, 0.0, 0.0, 0.0, 1.6664079164284596E9, 0.0, 2022-10-21 20:05:16.428
220.0, -149080.68169125103, -159241.06946481104, 46115.58271832261, -85963.51277393255, 73519.76019379619, -73659.99503850879, 86123.75242993265, -128196.57512862387, -0.044, 0.936, -0.158, 192.0, 0.0, 0.0, 0.0, 0.0, 0.0, 0.0, 0.0, 0.0, 0.0, 1.6664079164284708E9, 0.0, 2022-10-21 20:05:16.428
221.0, -149077.59715051617, -159239.32602874353, 46115.53801483369, -85958.4836314301, 73523.96232175379, -73667.99696302378, 86123.46185725473, -128190.1601779652, -0.046, 0.9400000000000001, -0.158, 192.0, 254.0, 144.0, 29.0, 96.0, 251.0, 16.0, 0.0, 0.0, 0.0, 1.6664079164284918E9, 0.0, 2022-10-21 20:05:16.428
222.0, -149081.84398196268, -159243.59521193447, 46109.614802553035, -85951.77810809352, 73518.5979030845, -73644.70644530136, 86154.57548553652, -128191.4565791436, -0.046, 0.9400000000000001, -0.158, 192.0, 0.0, 0.0, 0.0, 0.0, 0.0, 0.0, 0.0, 0.0, 0.0, 1.6664079164285026E9, 0.0, 2022-10-21 20:05:16.428
223.0, -149089.0412436773, -159249.60783119296, 46104.6303635395, -85957.92483781873, 73513.56876058207, -73634.379939363, 86160.4316425838, -128197.5586053799, -0.046, 0.9400000000000001, -0.158, 192.0, 0.0, 0.0, 0.0, 0.0, 0.0, 0.0, 0.0, 0.0, 0.0, 1.6664079164285119E9, 0.0, 2022-10-21 20:05:16.428
224.0, -149072.76917371384, -159236.71087464225, 46119.9860119803, -85952.783936594, 73527.24802818871, -73646.47223311332, 86144.15957262035, -128184.28166917345, -0.046, 0.9400000000000001, -0.158, 192.0, 0.0, 0.0, 0.0, 0.0, 0.0, 0.0, 0.0, 0.0, 0.0, 1.6664079164285212E9, 0.0, 2022-10-21 20:05:16.428
225.0, -149069.57287425673, -159230.7429588727, 46124.14343644899, -85944.80436382347, 73533.39475791392, -73659.90563153096, 86133.85541842645, -128182.94056450613, -0.046, 0.9400000000000001, -0.158, 192.0, 0.0, 0.0, 0.0, 0.0, 0.0, 0.0, 0.0, 0.0, 0.0, 1.666407916428539E9, 0.0, 2022-10-21 20:05:16.428
226.0, -149082.49218255188, -159241.74001714468, 46113.21343341034, -85946.34663419088, 73527.06921423307, -73641.42073886642, 86157.2353431267, -128192.99884951102, -0.046, 0.9400000000000001, -0.158, 192.0, 0.0, 0.0, 0.0, 0.0, 0.0, 0.0, 0.0, 0.0, 0.0, 1.6664079164285486E9, 0.0, 2022-10-21 20:05:16.428
227.0, -149085.26379886435, -159243.66226716785, 46110.106540931054, -85950.25818947055, 73519.91665600738, -73627.69676777086, 86170.42287235534, -128198.56443388038, -0.046, 0.9400000000000001, -0.158, 192.0, 0.0, 0.0, 0.0, 0.0, 0.0, 0.0, 0.0, 0.0, 0.0, 1.6664079164285579E9, 0.0, 2022-10-21 20:05:16.428
228.0, -149075.96547317095, -159237.22496476473, 46118.66725905744, -85949.54293364799, 73524.81168804309, -73645.64521856848, 86148.02642441112, -128192.59651811082, -0.046, 0.9400000000000001, -0.158, 192.0, 0.0, 0.0, 0.0, 0.0, 0.0, 0.0, 0.0, 0.0, 0.0, 1.6664079164285672E9, 0.0, 2022-10-21 20:05:16.428
229.0, -149078.24535110538, -159238.72253164323, 46117.259099156756, -85954.66148312825, 73521.83890603053, -73666.03000951171, 86126.14406658938, -128192.48475938855, -0.046, 0.9400000000000001, -0.158, 192.0, 0.0, 0.0, 0.0, 0.0, 0.0, 0.0, 0.0, 0.0, 0.0, 1.6664079164285765E9, 0.0, 2022-10-21 20:05:16.428
230.0, -149076.68072899352, -159235.14625253037, 46120.120122447035, -85941.49630564408, 73526.46571713279, -73646.82986102461, 86153.65906401385, -128188.39439015322, -0.046, 0.9400000000000001, -0.158, 192.0, 0.0, 0.0, 0.0, 0.0, 0.0, 0.0, 0.0, 0.0, 0.0, 1.666407916428586E9, 0.0, 2022-10-21 20:05:16.428
231.0, -149083.40860407456, -159246.54564220257, 46109.54774731967, -85939.12702073182, 73525.03520548764, -73627.74147125977, 86174.02150321264, -128195.70341059011, -0.044, 0.9380000000000001, -0.16, 192.0, 254.0, 160.0, 29.0, 80.0, 251.0, 0.0, 0.0, 0.0, 0.0, 1.6664079164285955E9, 0.0, 2022-10-21 20:05:16.428
232.0, -149086.11316515366, -159250.56895620454, 46103.17750014991, -85944.04440451198, 73523.62704558695, -73646.80750928014, 86146.35004357697, -128209.62854738577, -0.044, 0.9380000000000001, -0.16, 192.0, 0.0, 0.0, 0.0, 0.0, 0.0, 0.0, 0.0, 0.0, 0.0, 1.6664079164286056E9, 0.0, 2022-10-21 20:05:16.428
233.0, -149082.38042382963, -159244.24341252368, 46107.737256018794, -85952.35925344935, 73523.67174907586, -73677.00471603927, 86117.15866531833, -128205.80639908391, -0.044, 0.9380000000000001, -0.16, 192.0, 0.0, 0.0, 0.0, 0.0, 0.0, 0.0, 0.0, 0.0, 0.0, 1.6664079164286149E9, 0.0, 2022-10-21 20:05:16.428
234.0, -149083.49801105238, -159244.91396485735, 46105.636192039994, -85940.37871842131, 73527.94093226682, -73666.85702405656, 86136.04588938307, -128203.59357638283, -0.044, 0.9380000000000001, -0.16, 192.0, 0.0, 0.0, 0.0, 0.0, 0.0, 0.0, 0.0, 0.0, 0.0, 1.6664079164286244E9, 0.0, 2022-10-21 20:05:16.428
235.0, -149079.72056623944, -159241.91883110034, 46106.26204088474, -85926.34182290339, 73530.89136253492, -73628.56848580462, 86171.1381281779, -128199.19028272513, -0.044, 0.9380000000000001, -0.16, 192.0, 0.0, 0.0, 0.0, 0.0, 0.0, 0.0, 0.0, 0.0, 0.0, 1.6664079164286337E9, 0.0, 2022-10-21 20:05:16.428
236.0, -149078.26770284984, -159243.77402589013, 46104.585660050594, -85938.81409630943, 73527.71741482227, -73634.06701494062, 86155.42485182582, -128207.39337294023, -0.044, 0.9380000000000001, -0.16, 192.0, 0.0, 0.0, 0.0, 0.0, 0.0, 0.0, 0.0, 0.0, 0.0, 1.666407916428643E9, 0.0, 2022-10-21 20:05:16.428
237.0, -149091.81285998976, -159257.49799698568, 46095.086168657086, -85969.07835830192, 73512.13824893693, -73676.71414336136, 86110.49784547066, -128215.55175966643, -0.044, 0.9380000000000001, -0.16, 192.0, 0.0, 0.0, 0.0, 0.0, 0.0, 0.0, 0.0, 0.0, 0.0, 1.6664079164286523E9, 0.0, 2022-10-21 20:05:16.428
238.0, -149088.14717389908, -159251.50772947166, 46098.438930325385, -85958.70714887466, 73516.87681876145, -73672.71318110386, 86121.2266828092, -128209.67325087468, -0.044, 0.9380000000000001, -0.16, 192.0, 0.0, 0.0, 0.0, 0.0, 0.0, 0.0, 0.0, 0.0, 0.0, 1.666407916428662E9, 0.0, 2022-10-21 20:05:16.428
239.0, -149073.21620860294, -159234.40864496335, 46107.804311252155, -85939.05996549845, 73524.96815025427, -73642.381863878, 86160.56575305054, -128201.22429147057, -0.044, 0.9380000000000001, -0.16, 192.0, 0.0, 0.0, 0.0, 0.0, 0.0, 0.0, 0.0, 0.0, 0.0, 1.666407916428671E9, 0.0, 2022-10-21 20:05:16.428
240.0, -149077.8877231941, -159239.6389531659, 46105.010343195245, -85956.22610524013, 73516.42978387234, -73644.17000343442, 86153.01086342464, -128201.44780891512, -0.042, 0.9440000000000001, -0.162, 192.0, 254.0, 176.0, 29.0, 128.0, 250.0, 240.0, 0.0, 0.0, 0.0, 1.666407916428692E9, 0.0, 2022-10-21 20:05:16.428
241.0, -149074.82553420373, -159234.47570019672, 46110.35241012006, -85965.90441058927, 73522.8000310421, -73663.37015192154, 86126.85932241194, -128194.09408498932, -0.042, 0.9440000000000001, -0.162, 192.0, 0.0, 0.0, 0.0, 0.0, 0.0, 0.0, 0.0, 0.0, 0.0, 1.666407916906073E9, 0.0, 2022-10-21 20:05:16.906
242.0, -149079.36293832815, -159232.01700830663, 46105.18915715089, -85963.66923614375, 73522.06242347509, -73669.15925373546, 86126.05465961155, -128196.01633501248, -0.042, 0.9440000000000001, -0.162, 192.0, 0.0, 0.0, 0.0, 0.0, 0.0, 0.0, 0.0, 0.0, 0.0, 1.6664079169061303E9, 0.0, 2022-10-21 20:05:16.906
243.0, -149086.11316515366, -159240.77889213312, 46098.930668703404, -85955.06381452845, 73519.33551065154, -73644.90761100146, 86160.34223560599, -128196.19514896812, -0.042, 0.9440000000000001, -0.162, 192.0, 0.0, 0.0, 0.0, 0.0, 0.0, 0.0, 0.0, 0.0, 0.0, 1.6664079169062169E9, 0.0, 2022-10-21 20:05:16.906
244.0, -149089.86825822215, -159250.88188062693, 46092.96275293383, -85965.3456169779, 73512.6523390594, -73635.65398879696, 86164.81258449705, -128201.26899495948, -0.042, 0.9440000000000001, -0.162, 192.0, 0.0, 0.0, 0.0, 0.0, 0.0, 0.0, 0.0, 0.0, 0.0, 1.6664079169062319E9, 0.0, 2022-10-21 20:05:16.906
245.0, -149081.62046451814, -159243.52815670113, 46101.6799332714, -85969.23482051311, 73519.49197286273, -73651.54607910468, 86137.20818009475, -128197.33508793535, -0.042, 0.9440000000000001, -0.162, 192.0, 0.0, 0.0, 0.0, 0.0, 0.0, 0.0, 0.0, 0.0, 0.0, 1.6664079169062464E9, 0.0, 2022-10-21 20:05:16.906
246.0, -149076.79248771578, -159237.02379906463, 46107.44668334087, -85959.10948027486, 73528.74559506722, -73653.35657040555, 86136.00118589416, -128186.47214013006, -0.042, 0.9440000000000001, -0.162, 192.0, 0.0, 0.0, 0.0, 0.0, 0.0, 0.0, 0.0, 0.0, 0.0, 1.666407916906258E9, 0.0, 2022-10-21 20:05:16.906
247.0, -149075.49608653737, -159235.28036299712, 46111.40294210946, -85941.71982308863, 73536.76987132667, -73625.10396541405, 86174.91557299085, -128181.24183192753, -0.042, 0.9440000000000001, -0.162, 192.0, 0.0, 0.0, 0.0, 0.0, 0.0, 0.0, 0.0, 0.0, 0.0, 1.6664079169062696E9, 0.0, 2022-10-21 20:05:16.906
248.0, -149081.12872614013, -159245.02572357963, 46108.139587418984, -85953.40978543875, 73533.3053509361, -73611.4246978074, 86186.49377661869, -128177.44203537013, -0.042, 0.9440000000000001, -0.162, 192.0, 0.0, 0.0, 0.0, 0.0, 0.0, 0.0, 0.0, 0.0, 0.0, 1.666407916906281E9, 0.0, 2022-10-21 20:05:16.906
249.0, -149076.92659818253, -159239.10251129896, 46111.69351478738, -85959.13183201931, 73535.51817363717, -73635.00578820775, 86158.66585477184, -128176.7044278031, -0.042, 0.9440000000000001, -0.162, 192.0, 0.0, 0.0, 0.0, 0.0, 0.0, 0.0, 0.0, 0.0, 0.0, 1.6664079169062927E9, 0.0, 2022-10-21 20:05:16.906
250.0, -149075.31727258174, -159234.43099670782, 46111.17942466491, -85957.09782327389, 73535.83109805956, -73658.631582097, 86137.92343591731, -128182.76175055049, -0.038, 0.9420000000000001, -0.164, 192.0, 254.0, 208.0, 29.0, 112.0, 250.0, 224.0, 0.0, 0.0, 0.0, 1.6664079169063041E9, 0.0, 2022-10-21 20:05:16.906
251.0, -149089.9353134555, -159250.27838352663, 46101.523471060216, -85950.21348598164, 73529.2596851897, -73645.46640461283, 86160.85632572845, -128189.37786690926, -0.038, 0.9420000000000001, -0.164, 192.0, 0.0, 0.0, 0.0, 0.0, 0.0, 0.0, 0.0, 0.0, 0.0, 1.6664079169063172E9, 0.0, 2022-10-21 20:05:16.906
252.0, -149098.67484553755, -159256.80509290757, 46094.41561632343, -85952.29219821599, 73526.91275202189, -73620.76772698972, 86180.07882596002, -128191.8589105438, -0.038, 0.9420000000000001, -0.164, 192.0, 0.0, 0.0, 0.0, 0.0, 0.0, 0.0, 0.0, 0.0, 0.0, 1.666407916906329E9, 0.0, 2022-10-21 20:05:16.906
253.0, -149093.690406524, -159252.5359097166, 46091.04050291068, -85958.39422445229, 73528.18680145584, -73638.1797359204, 86152.92145644683, -128200.75490483701, -0.038, 0.9420000000000001, -0.164, 192.0, 0.0, 0.0, 0.0, 0.0, 0.0, 0.0, 0.0, 0.0, 0.0, 1.66640791690634E9, 0.0, 2022-10-21 20:05:16.906
254.0, -149091.52228731185, -159254.72638067324, 46090.258191854744, -85961.67993088721, 73527.6056561, -73668.35459093507, 86125.85349391145, -128199.90553854771, -0.038, 0.9420000000000001, -0.164, 192.0, 0.0, 0.0, 0.0, 0.0, 0.0, 0.0, 0.0, 0.0, 0.0, 1.6664079169063523E9, 0.0, 2022-10-21 20:05:16.906
255.0, -149086.89547620958, -159249.36196200395, 46091.085206399584, -85946.01135802404, 73533.17124046937, -73652.32839016062, 86149.72515698972, -128196.7092390906, -0.038, 0.9420000000000001, -0.164, 192.0, 0.0, 0.0, 0.0, 0.0, 0.0, 0.0, 0.0, 0.0, 0.0, 1.666407916906416E9, 0.0, 2022-10-21 20:05:16.906
0.0, -149095.1879734025, -159254.52521497314, 46082.993874906766, -85941.786878322, 73530.06434799008, -73629.66372128294, 86171.093424689, -128208.1086287628, -0.038, 0.9420000000000001, -0.164, 192.0, 0.0, 0.0, 0.0, 0.0, 0.0, 0.0, 0.0, 0.0, 0.0, 1.6664079169064276E9, 0.0, 2022-10-21 20:05:16.906
1.0, -149088.16952564355, -159246.99267709168, 46098.26011636974, -85942.03274751101, 73539.76500508368, -73631.65302653945, 86160.85632572845, -128200.55373913691, -0.038, 0.9420000000000001, -0.164, 192.0, 0.0, 0.0, 0.0, 0.0, 0.0, 0.0, 0.0, 0.0, 0.0, 1.666407916906439E9, 0.0, 2022-10-21 20:05:16.906
2.0, -149092.5951710457, -159253.51938647265, 46094.728540745804, -85960.38352970881, 73538.66976960537, -73662.72195133234, 86127.41811602333, -128207.52748340697, -0.038, 0.9420000000000001, -0.164, 192.0, 0.0, 0.0, 0.0, 0.0, 0.0, 0.0, 0.0, 0.0, 0.0, 1.6664079169064507E9, 0.0, 2022-10-21 20:05:16.906
3.0, -149096.05969143627, -159256.31335452956, 46089.49823254326, -85951.84516332689, 73533.55122012511, -73665.69473334489, 86134.10128761546, -128205.58288163936, -0.038, 0.9420000000000001, -0.164, 192.0, 0.0, 0.0, 0.0, 0.0, 0.0, 0.0, 0.0, 0.0, 0.0, 1.6664079169064622E9, 0.0, 2022-10-21 20:05:16.906
4.0, -149096.66318853656, -159254.54756671758, 46085.11729063002, -85952.9851022941, 73532.29952243561, -73636.30218938616, 86167.7406630207, -128196.9104047907, -0.04, 0.9460000000000001, -0.158, 192.0, 254.0, 192.0, 29.0, 144.0, 251.0, 16.0, 0.0, 0.0, 0.0, 1.6664079169064744E9, 0.0, 2022-10-21 20:05:16.906
5.0, -149089.30946461076, -159246.65740092486, 46087.955962175845, -85953.96857905014, 73538.98269402776, -73629.5296108162, 86162.82327924053, -128197.49155014653, -0.04, 0.9460000000000001, -0.158, 192.0, 0.0, 0.0, 0.0, 0.0, 0.0, 0.0, 0.0, 0.0, 0.0, 1.666407916906492E9, 0.0, 2022-10-21 20:05:16.906
6.0, -149089.80120298878, -159247.75263640317, 46091.107558144045, -85957.50015467408, 73543.90007780792, -73655.97172450683, 86133.4307352818, -128195.99398326802, -0.04, 0.9460000000000001, -0.158, 192.0, 0.0, 0.0, 0.0, 0.0, 0.0, 0.0, 0.0, 0.0, 0.0, 1.6664079169065034E9, 0.0, 2022-10-21 20:05:16.906
7.0, -149097.22198214795, -159251.91006087186, 46085.47491854131, -85957.07547152943, 73537.93216203836, -73667.21465196785, 86133.4307352818, -128199.12322749177, -0.04, 0.9460000000000001, -0.158, 192.0, 0.0, 0.0, 0.0, 0.0, 0.0, 0.0, 0.0, 0.0, 0.0, 1.666407916906515E9, 0.0, 2022-10-21 20:05:16.906
8.0, -149104.7992235183, -159258.8838051419, 46075.3272265586, -85952.15808774925, 73533.61827535847, -73637.75505277576, 86166.82424149803, -128207.68394561815, -0.04, 0.9460000000000001, -0.158, 192.0, 0.0, 0.0, 0.0, 0.0, 0.0, 0.0, 0.0, 0.0, 0.0, 1.666407916906526E9, 0.0, 2022-10-21 20:05:16.906
9.0, -149102.20642116148, -159254.86049113996, 46076.95890390383, -85959.5341634195, 73530.33256892355, -73625.75216600325, 86164.65612228586, -128203.99590778303, -0.04, 0.9460000000000001, -0.158, 192.0, 0.0, 0.0, 0.0, 0.0, 0.0, 0.0, 0.0, 0.0, 0.0, 1.6664079169065373E9, 0.0, 2022-10-21 20:05:16.906
10.0, -149094.11508966866, -159246.47858696923, 46082.59154350657, -85967.42432921224, 73534.28882769213, -73651.83665178259, 86134.86124692694, -128201.15723623721, -0.04, 0.9460000000000001, -0.158, 192.0, 0.0, 0.0, 0.0, 0.0, 0.0, 0.0, 0.0, 0.0, 0.0, 1.6664079169065485E9, 0.0, 2022-10-21 20:05:16.906
