%OpenBCI Raw EEG Data
%Number of channels = 8
%Sample Rate = 250 Hz
%Board = OpenBCI_GUI$BoardCytonSerial
Sample Index, EXG Channel 0, EXG Channel 1, EXG Channel 2, EXG Channel 3, EXG Channel 4, EXG Channel 5, EXG Channel 6, EXG Channel 7, Accel Channel 0, Accel Channel 1, Accel Channel 2, Other, Other, Other, Other, Other, Other, Other, Analog Channel 0, Analog Channel 1, Analog Channel 2, Timestamp, Other, Timestamp (Formatted)
18.0, -136069.30656067212, -164007.42250769408, 9004.713178242824, -120832.7705660785, 74497.7831241826, -91874.74451956089, 46260.8690572821, -115015.84083030712, 0.0, 0.0, 0.0, 192.0, 0.0, 0.0, 0.0, 0.0, 0.0, 0.0, 0.0, 0.0, 0.0, 1.6664058523056006E9, 0.0, 2022-10-21 19:30:52.305
19.0, -136066.75846180422, -164004.67324312608, 9007.551849788648, -120837.71030160312, 74496.9337578933, -91873.76104280485, 46266.34523467365, -114997.40064113149, 0.0, 0.0, 0.0, 192.0, 0.0, 0.0, 0.0, 0.0, 0.0, 0.0, 0.0, 0.0, 0.0, 1.6664058523056211E9, 0.0, 2022-10-21 19:30:52.305
20.0, -136060.9246565014, -164002.6615861251, 9006.546021288159, -120837.91146730322, 74499.28069106111, -91885.27219119933, 46260.73494681537, -114993.71260329636, 0.0, 0.0, 0.0, 192.0, 0.0, 0.0, 0.0, 0.0, 0.0, 0.0, 0.0, 0.0, 0.0, 1.666405852305632E9, 0.0, 2022-10-21 19:30:52.305
21.0, -136056.0743279546, -163997.16305698908, 9004.668474753915, -120834.40224342374, 74497.89488290487, -91884.22165920993, 46259.796173548246, -115021.76404258778, 0.0, 0.0, 0.0, 192.0, 0.0, 0.0, 0.0, 0.0, 0.0, 0.0, 0.0, 0.0, 0.0, 1.6664058523056443E9, 0.0, 2022-10-21 19:30:52.305
22.0, -136064.3221216586, -163996.5595598888, 9006.389559076972, -120830.89301954425, 74499.61596722793, -91877.940819018, 46269.56388587521, -115027.68725486843, 0.0, 0.0, 0.0, 192.0, 0.0, 0.0, 0.0, 0.0, 0.0, 0.0, 0.0, 0.0, 0.0, 1.666405852305657E9, 0.0, 2022-10-21 19:30:52.305
23.0, -136067.04903448213, -164002.460420425, 9005.026102665199, -120838.29144695896, 74497.22433057122, -91881.7406155754, 46273.60955162162, -115015.66201635147, 0.0, 0.0, 0.0, 192.0, 0.0, 0.0, 0.0, 0.0, 0.0, 0.0, 0.0, 0.0, 0.0, 1.6664058523056715E9, 0.0, 2022-10-21 19:30:52.305
24.0, -136064.29976991413, -163999.68880411255, 9003.841460209067, -120833.6199323678, 74501.96290039574, -91891.15069999108, 46269.653292853036, -115009.60469360408, 0.0, 0.0, 0.0, 192.0, 0.0, 0.0, 0.0, 0.0, 0.0, 0.0, 0.0, 0.0, 0.0, 1.666405852305684E9, 0.0, 2022-10-21 19:30:52.305
25.0, -136066.15496470392, -164002.5498274028, 8997.270047339207, -120830.0213015105, 74502.07465911802, -91891.79890058028, 46266.61345560711, -115011.32577792714, 0.0, 0.0, 0.0, 192.0, 0.0, 0.0, 0.0, 0.0, 0.0, 0.0, 0.0, 0.0, 0.0, 1.6664058523056967E9, 0.0, 2022-10-21 19:30:52.305
26.0, -136040.78573474716, -163995.57608313276, 9007.440091066372, -120809.39064137825, 74513.31758657904, -91875.05744398326, 46280.270371469305, -115010.02937674873, 0.026000000000000002, 0.9520000000000001, 0.06, 192.0, 0.0, 208.0, 29.0, 192.0, 1.0, 224.0, 0.0, 0.0, 0.0, 1.6664058523057096E9, 0.0, 2022-10-21 19:30:52.305
27.0, -136046.5077813277, -164002.68393786956, 8998.275875839696, -120819.42657463868, 74510.07658363302, -91862.11578394363, 46281.946752303455, -115020.892324554, 0.026000000000000002, 0.9520000000000001, 0.06, 192.0, 0.0, 0.0, 0.0, 0.0, 0.0, 0.0, 0.0, 0.0, 0.0, 1.6664058523057215E9, 0.0, 2022-10-21 19:30:52.305
28.0, -136077.77787182067, -164009.74708911742, 8980.148611086443, -120847.9250488192, 74492.50811249115, -91883.01466500935, 46261.56196136022, -115026.99435079031, 0.026000000000000002, 0.9520000000000001, 0.06, 192.0, 0.0, 0.0, 0.0, 0.0, 0.0, 0.0, 0.0, 0.0, 0.0, 1.6664058523057325E9, 0.0, 2022-10-21 19:30:52.305
29.0, -136059.3600343895, -163990.09990574123, 8979.053375608131, -120850.60725815383, 74493.82686541401, -91885.18278422151, 46254.99054849036, -115017.2936936967, 0.026000000000000002, 0.9520000000000001, 0.06, 192.0, 0.0, 0.0, 0.0, 0.0, 0.0, 0.0, 0.0, 0.0, 0.0, 1.6664058523057427E9, 0.0, 2022-10-21 19:30:52.305
30.0, -136043.78086850417, -163971.19032993203, 8991.369186803006, -120832.92702828969, 74504.35453705247, -91870.90001951456, 46270.59206612016, -114998.76409754326, 0.026000000000000002, 0.9520000000000001, 0.06, 192.0, 0.0, 0.0, 0.0, 0.0, 0.0, 0.0, 0.0, 0.0, 0.0, 1.666405852305753E9, 0.0, 2022-10-21 19:30:52.305
31.0, -136078.18020322087, -164002.72864135847, 8993.872582182, -120825.34978691934, 74510.2330458442, -91862.80868802175, 46278.191659234966, -114990.56100732816, 0.026000000000000002, 0.9520000000000001, 0.06, 192.0, 0.0, 0.0, 0.0, 0.0, 0.0, 0.0, 0.0, 0.0, 0.0, 1.6664058523057635E9, 0.0, 2022-10-21 19:30:52.305
32.0, -136105.0693518006, -164025.23684802497, 8985.0212913777, -120835.16220273521, 74505.47212427523, -91873.26930442684, 46268.69216784146, -115006.76602205826, 0.026000000000000002, 0.9520000000000001, 0.06, 192.0, 0.0, 0.0, 0.0, 0.0, 0.0, 0.0, 0.0, 0.0, 0.0, 1.6664058523057737E9, 0.0, 2022-10-21 19:30:52.305
33.0, -136087.76910159222, -164016.69848164302, 8983.948407643844, -120840.81719408241, 74502.70050796277, -91883.66286559856, 46262.9701212609, -115016.93606578543, 0.026000000000000002, 0.9520000000000001, 0.06, 192.0, 0.0, 0.0, 0.0, 0.0, 0.0, 0.0, 0.0, 0.0, 0.0, 1.666405852305784E9, 0.0, 2022-10-21 19:30:52.305
34.0, -136076.7273398313, -164022.2640660124, 8988.798736190645, -120832.41293816721, 74509.67425223283, -91866.25085666786, 46277.275237712296, -115007.61538834756, 0.026000000000000002, 0.9520000000000001, 0.06, 192.0, 0.0, 0.0, 0.0, 0.0, 0.0, 0.0, 0.0, 0.0, 0.0, 1.666405852305895E9, 0.0, 2022-10-21 19:30:52.305
35.0, -136085.82449982458, -164030.5118597164, 8983.210800076818, -120838.38085393679, 74503.88515041891, -91855.61142630714, 46286.35004596115, -115003.52501911225, 0.026000000000000002, 0.9520000000000001, 0.06, 192.0, 0.0, 0.0, 0.0, 0.0, 0.0, 0.0, 0.0, 0.0, 0.0, 1.6664058523059058E9, 0.0, 2022-10-21 19:30:52.305
36.0, -136096.1733575074, -164031.2718190279, 8980.573294231093, -120841.91242956072, 74500.73355445071, -91874.8339265387, 46278.86221156862, -115001.78158304472, 0.024, 0.9580000000000001, 0.054, 192.0, 0.0, 192.0, 29.0, 240.0, 1.0, 176.0, 0.0, 0.0, 0.0, 1.666405852305916E9, 0.0, 2022-10-21 19:30:52.305
37.0, -136089.62429638198, -164020.05124331132, 8993.514954270715, -120821.21471419511, 74516.84916220298, -91871.74938580387, 46285.366569205115, -114988.30348113818, 0.024, 0.9580000000000001, 0.054, 192.0, 0.0, 0.0, 0.0, 0.0, 0.0, 0.0, 0.0, 0.0, 0.0, 1.6664058523059273E9, 0.0, 2022-10-21 19:30:52.305
38.0, -136104.8234826116, -164030.44480448304, 8992.73264321478, -120813.39160363576, 74521.49832504969, -91852.75040301686, 46296.83301411069, -114986.22476890383, 0.024, 0.9580000000000001, 0.054, 192.0, 0.0, 0.0, 0.0, 0.0, 0.0, 0.0, 0.0, 0.0, 0.0, 1.6664058523059373E9, 0.0, 2022-10-21 19:30:52.305
39.0, -136120.4250002414, -164034.95985686302, 8983.657834965925, -120819.15835370522, 74515.84333370249, -91856.86312399663, 46295.849537354654, -114996.93125449792, 0.024, 0.9580000000000001, 0.054, 192.0, 0.0, 0.0, 0.0, 0.0, 0.0, 0.0, 0.0, 0.0, 0.0, 1.6664058523059473E9, 0.0, 2022-10-21 19:30:52.305
40.0, -136119.5756339521, -164020.9229613451, 8993.917285670912, -120808.85419951132, 74524.15818263986, -91856.81842050773, 46302.17508103551, -114988.92932998293, 0.024, 0.9580000000000001, 0.054, 192.0, 0.0, 0.0, 0.0, 0.0, 0.0, 0.0, 0.0, 0.0, 0.0, 1.6664058523059607E9, 0.0, 2022-10-21 19:30:52.305
41.0, -136103.08004654408, -164027.00263583692, 8990.117489113509, -120819.60538859433, 74517.20679011426, -91872.35288290416, 46288.58522040668, -114994.00317597429, 0.024, 0.9580000000000001, 0.054, 192.0, 0.0, 0.0, 0.0, 0.0, 0.0, 0.0, 0.0, 0.0, 0.0, 1.666405852305971E9, 0.0, 2022-10-21 19:30:52.305
42.0, -136106.05282855665, -164033.79756615133, 8978.44987850784, -120826.98146426458, 74506.99204289819, -91877.00204575087, 46281.11973775861, -115008.48710638132, 0.024, 0.9580000000000001, 0.054, 192.0, 0.0, 0.0, 0.0, 0.0, 0.0, 0.0, 0.0, 0.0, 0.0, 1.6664058523059807E9, 0.0, 2022-10-21 19:30:52.305
43.0, -136097.80503485264, -164020.721795645, 8986.20593383383, -120820.79003105046, 74507.43907778729, -91874.1857259495, 46291.602705908146, -115001.98274874482, 0.024, 0.9580000000000001, 0.054, 192.0, 0.0, 0.0, 0.0, 0.0, 0.0, 0.0, 0.0, 0.0, 0.0, 1.6664058523059912E9, 0.0, 2022-10-21 19:30:52.305
44.0, -136111.3278402481, -164020.3194642448, 8984.373090788495, -120824.38866190775, 74505.80740044206, -91871.30235091476, 46294.463729198425, -115004.64260633501, 0.024, 0.9580000000000001, 0.054, 192.0, 0.0, 0.0, 0.0, 0.0, 0.0, 0.0, 0.0, 0.0, 0.0, 1.6664058523060012E9, 0.0, 2022-10-21 19:30:52.306
45.0, -136111.4172472259, -164015.69265314253, 8986.25063732274, -120814.91152225871, 74512.9823104122, -91872.46464162644, 46294.173156520505, -114995.29957715269, 0.024, 0.9580000000000001, 0.054, 192.0, 0.0, 0.0, 0.0, 0.0, 0.0, 0.0, 0.0, 0.0, 0.0, 1.6664058523060112E9, 0.0, 2022-10-21 19:30:52.306
46.0, -136099.88374708698, -164017.0114060654, 8987.278817567685, -120804.517961087, 74513.31758657904, -91869.1342317026, 46296.005999565845, -114995.43368761941, 0.024, 0.96, 0.052000000000000005, 192.0, 0.0, 192.0, 30.0, 0.0, 1.0, 160.0, 0.0, 0.0, 0.0, 1.666405852306021E9, 0.0, 2022-10-21 19:30:52.306
47.0, -136099.14613951996, -164018.93365608857, 8982.853172165534, -120813.36925189129, 74509.40603129937, -91859.94766473147, 46302.62211592461, -114993.31027189616, 0.024, 0.96, 0.052000000000000005, 192.0, 0.0, 0.0, 0.0, 0.0, 0.0, 0.0, 0.0, 0.0, 0.0, 1.6664058523060317E9, 0.0, 2022-10-21 19:30:52.306
48.0, -136102.43184595488, -164013.5021821859, 8977.332291285073, -120817.39256589324, 74504.19807484128, -91869.60361833616, 46297.97295307791, -115001.73687955581, 0.024, 0.96, 0.052000000000000005, 192.0, 0.0, 0.0, 0.0, 0.0, 0.0, 0.0, 0.0, 0.0, 0.0, 1.6664058523060417E9, 0.0, 2022-10-21 19:30:52.306
49.0, -136104.73407563378, -164011.28935948486, 8973.82306740559, -120810.73174604557, 74509.60719699947, -91872.35288290416, 46293.10027278665, -115002.20626618937, 0.024, 0.96, 0.052000000000000005, 192.0, 0.0, 0.0, 0.0, 0.0, 0.0, 0.0, 0.0, 0.0, 0.0, 1.66640585230609E9, 0.0, 2022-10-21 19:30:52.306
50.0, -136089.24431672625, -163995.79960057733, 8981.892047153957, -120791.97863244757, 74517.67617674783, -91862.09343219918, 46296.16246177703, -114995.3889841305, 0.024, 0.96, 0.052000000000000005, 192.0, 0.0, 0.0, 0.0, 0.0, 0.0, 0.0, 0.0, 0.0, 0.0, 1.6664058523061004E9, 0.0, 2022-10-21 19:30:52.306
51.0, -136082.2705724562, -164000.44876342404, 8975.924131384389, -120789.49758881303, 74514.12224937943, -91858.85242925317, 46303.29266825828, -114994.60667307457, 0.024, 0.96, 0.052000000000000005, 192.0, 0.0, 0.0, 0.0, 0.0, 0.0, 0.0, 0.0, 0.0, 0.0, 1.6664058523061104E9, 0.0, 2022-10-21 19:30:52.306
52.0, -136081.37650267797, -164005.99199604895, 8962.088401566554, -120801.96986221909, 74504.91333066384, -91871.2352956814, 46292.83205185319, -115004.24027493481, 0.024, 0.96, 0.052000000000000005, 192.0, 0.0, 0.0, 0.0, 0.0, 0.0, 0.0, 0.0, 0.0, 0.0, 1.6664058523061206E9, 0.0, 2022-10-21 19:30:52.306
53.0, -136086.67386611388, -164002.1027925137, 8958.936805598356, -120801.63458605226, 74509.85306618847, -91867.21198167944, 46288.58522040668, -114997.73591729831, 0.024, 0.96, 0.052000000000000005, 192.0, 0.0, 0.0, 0.0, 0.0, 0.0, 0.0, 0.0, 0.0, 0.0, 1.666405852306131E9, 0.0, 2022-10-21 19:30:52.306
54.0, -136105.73990413427, -164004.1591530036, 8953.192407273342, -120800.04761219594, 74508.91429292134, -91869.96124624745, 46285.523031416305, -114988.12466718254, 0.024, 0.96, 0.052000000000000005, 192.0, 0.0, 0.0, 0.0, 0.0, 0.0, 0.0, 0.0, 0.0, 0.0, 1.666405852306141E9, 0.0, 2022-10-21 19:30:52.306
55.0, -136099.30260173115, -164000.38170819066, 8953.907663095912, -120786.90478645622, 74513.29523483459, -91857.44426935248, 46291.58035416369, -114991.61153931756, 0.018000000000000002, 0.9540000000000001, 0.05, 192.0, 0.0, 144.0, 29.0, 208.0, 1.0, 144.0, 0.0, 0.0, 0.0, 1.6664058523061507E9, 0.0, 2022-10-21 19:30:52.306
56.0, -136101.9177558324, -164002.214551236, 8945.905738580912, -120794.16910340419, 74500.13005735041, -91868.46367936894, 46281.54442090326, -115004.50849586827, 0.018000000000000002, 0.9540000000000001, 0.05, 192.0, 0.0, 0.0, 0.0, 0.0, 0.0, 0.0, 0.0, 0.0, 0.0, 1.6664058523061612E9, 0.0, 2022-10-21 19:30:52.306
57.0, -136098.9673255643, -164002.61688263618, 8938.596718144026, -120802.8192285084, 74494.85504565896, -91886.36742667764, 46268.98274051938, -115008.68827208142, 0.018000000000000002, 0.9540000000000001, 0.05, 192.0, 0.0, 0.0, 0.0, 0.0, 0.0, 0.0, 0.0, 0.0, 0.0, 1.6664058523061717E9, 0.0, 2022-10-21 19:30:52.306
58.0, -136085.39981667994, -163988.84820805173, 8947.358601970507, -120787.79885623443, 74507.37202255393, -91880.95830451946, 46274.950656288944, -114990.62806256153, 0.018000000000000002, 0.9540000000000001, 0.05, 192.0, 0.0, 0.0, 0.0, 0.0, 0.0, 0.0, 0.0, 0.0, 0.0, 1.6664058523061817E9, 0.0, 2022-10-21 19:30:52.306
59.0, -136082.76231083422, -163992.89387379814, 8937.881462321457, -120787.28476611194, 74505.02508938612, -91861.3781763766, 46281.387958692074, -114986.80591425968, 0.018000000000000002, 0.9540000000000001, 0.05, 192.0, 0.0, 0.0, 0.0, 0.0, 0.0, 0.0, 0.0, 0.0, 0.0, 1.6664058523061917E9, 0.0, 2022-10-21 19:30:52.306
60.0, -136086.33858994706, -163996.5595598888, 8924.425712159362, -120797.8571412393, 74492.35165027996, -91856.88547574109, 46277.20818247893, -115002.78741154521, 0.018000000000000002, 0.9540000000000001, 0.05, 192.0, 0.0, 0.0, 0.0, 0.0, 0.0, 0.0, 0.0, 0.0, 0.0, 1.6664058523062017E9, 0.0, 2022-10-21 19:30:52.306
61.0, -136085.10924400203, -163989.98814701894, 8925.252726704208, -120793.2079783926, 74492.86574040244, -91872.10701371515, 46267.52987712978, -115006.74367031381, 0.018000000000000002, 0.9540000000000001, 0.05, 192.0, 0.0, 0.0, 0.0, 0.0, 0.0, 0.0, 0.0, 0.0, 0.0, 1.666405852306213E9, 0.0, 2022-10-21 19:30:52.306
62.0, -136086.04801726915, -163979.08049572475, 8930.393627928928, -120780.53453928645, 74501.73938295119, -91878.09728122917, 46266.63580735157, -115004.46379237936, 0.018000000000000002, 0.9540000000000001, 0.05, 192.0, 0.0, 0.0, 0.0, 0.0, 0.0, 0.0, 0.0, 0.0, 0.0, 1.6664058523062437E9, 0.0, 2022-10-21 19:30:52.306
63.0, -136083.92460154588, -163984.48961788294, 8920.983543513245, -120785.63073702226, 74492.26224330215, -91888.87082205663, 46261.53960961576, -115009.22471394834, 0.018000000000000002, 0.9540000000000001, 0.05, 192.0, 0.0, 0.0, 0.0, 0.0, 0.0, 0.0, 0.0, 0.0, 0.0, 1.6664058523062844E9, 0.0, 2022-10-21 19:30:52.306
64.0, -136095.79337785166, -163990.12225748567, 8907.438386373327, -120788.3576498458, 74489.40122001186, -91875.57153410572, 46270.10032774214, -115015.66201635147, 0.018000000000000002, 0.9540000000000001, 0.05, 192.0, 0.0, 0.0, 0.0, 0.0, 0.0, 0.0, 0.0, 0.0, 0.0, 1.666405852306446E9, 0.0, 2022-10-21 19:30:52.306
65.0, -136086.98679053626, -163985.20487370552, 8904.510307849683, -120793.27503362598, 74488.77537116711, -91890.45779591297, 46260.980816004376, -115018.56774313067, 0.01, 0.9540000000000001, 0.048, 192.0, 0.0, 80.0, 29.0, 208.0, 1.0, 128.0, 0.0, 0.0, 0.0, 1.6664058523064575E9, 0.0, 2022-10-21 19:30:52.306
66.0, -136086.74092134726, -163988.04354525133, 8903.99621772721, -120791.86687372529, 74492.86574040244, -91883.61816210963, 46262.3219206717, -115014.96911227336, 0.01, 0.9540000000000001, 0.048, 192.0, 0.0, 0.0, 0.0, 0.0, 0.0, 0.0, 0.0, 0.0, 0.0, 1.666405852306469E9, 0.0, 2022-10-21 19:30:52.306
67.0, -136081.13063348897, -163984.73548707194, 8901.224601414753, -120784.51314979949, 74499.52656025012, -91872.59875209317, 46267.39576666305, -115014.67853959544, 0.01, 0.9540000000000001, 0.048, 192.0, 0.0, 0.0, 0.0, 0.0, 0.0, 0.0, 0.0, 0.0, 0.0, 1.6664058523064797E9, 0.0, 2022-10-21 19:30:52.306
68.0, -136079.9236392884, -163983.32732717125, 8902.833927015536, -120777.18177761816, 74506.09797311998, -91869.62597008061, 46277.476403412395, -114997.93708299841, 0.01, 0.9540000000000001, 0.048, 192.0, 0.0, 0.0, 0.0, 0.0, 0.0, 0.0, 0.0, 0.0, 0.0, 1.66640585230649E9, 0.0, 2022-10-21 19:30:52.306
69.0, -136090.92069756042, -163987.79767606233, 8888.975845453244, -120783.44026606563, 74505.94151090879, -91865.3791386341, 46277.543458645756, -114997.91473125396, 0.01, 0.9540000000000001, 0.048, 192.0, 0.0, 0.0, 0.0, 0.0, 0.0, 0.0, 0.0, 0.0, 0.0, 1.666405852306501E9, 0.0, 2022-10-21 19:30:52.306
70.0, -136095.68161912938, -163994.68201335456, 8864.724202719237, -120797.25364413901, 74493.580996225, -91885.02632201032, 46260.77965030428, -115020.42293792045, 0.01, 0.9540000000000001, 0.048, 192.0, 0.0, 0.0, 0.0, 0.0, 0.0, 0.0, 0.0, 0.0, 0.0, 1.6664058523065112E9, 0.0, 2022-10-21 19:30:52.306
71.0, -136075.74386307524, -163988.31176618478, 8866.914673675856, -120788.98349869055, 74497.49255150468, -91888.49084240089, 46269.519182386306, -115014.65618785098, 0.01, 0.9540000000000001, 0.048, 192.0, 0.0, 0.0, 0.0, 0.0, 0.0, 0.0, 0.0, 0.0, 0.0, 1.666405852306522E9, 0.0, 2022-10-21 19:30:52.306
72.0, -136085.06454051312, -163991.01632726387, 8863.159580607366, -120783.10498989881, 74500.64414747288, -91876.71147307295, 46280.15861274703, -115005.55902785767, 0.01, 0.9540000000000001, 0.048, 192.0, 0.0, 0.0, 0.0, 0.0, 0.0, 0.0, 0.0, 0.0, 0.0, 1.6664058523065324E9, 0.0, 2022-10-21 19:30:52.306
73.0, -136090.18308999337, -163988.13295222915, 8865.260644586164, -120778.88051019676, 74511.41768830034, -91862.6298740661, 46288.249944239855, -115000.50753361077, 0.01, 0.9540000000000001, 0.048, 192.0, 0.0, 0.0, 0.0, 0.0, 0.0, 0.0, 0.0, 0.0, 0.0, 1.666405852306543E9, 0.0, 2022-10-21 19:30:52.306
74.0, -136075.58740086405, -163974.31957415576, 8867.629929498426, -120776.57828051786, 74515.4857057912, -91872.24112418189, 46281.96910404791, -115006.14017321351, 0.01, 0.9540000000000001, 0.048, 192.0, 0.0, 0.0, 0.0, 0.0, 0.0, 0.0, 0.0, 0.0, 0.0, 1.6664058523065536E9, 0.0, 2022-10-21 19:30:52.306
75.0, -136071.117051973, -163968.1504926861, 8869.99921441069, -120750.69496043862, 74529.12026990895, -91868.82130728023, 46285.00894129383, -115000.66399582196, 0.006, 0.964, 0.048, 192.0, 0.0, 48.0, 30.0, 32.0, 1.0, 128.0, 0.0, 0.0, 0.0, 1.666405852306564E9, 0.0, 2022-10-21 19:30:52.306
76.0, -136086.65151436944, -163984.44491439403, 8853.145999091388, -120770.6550682372, 74513.20582785676, -91872.64345558209, 46283.01963603731, -115013.62800760604, 0.006, 0.964, 0.048, 192.0, 0.0, 0.0, 0.0, 0.0, 0.0, 0.0, 0.0, 0.0, 0.0, 1.6664058523065755E9, 0.0, 2022-10-21 19:30:52.306
77.0, -136090.74188360476, -163990.77045807487, 8834.683458171303, -120783.79789397692, 74502.85697017396, -91884.75810107686, 46273.38603417707, -115024.58036238914, 0.006, 0.964, 0.048, 192.0, 0.0, 0.0, 0.0, 0.0, 0.0, 0.0, 0.0, 0.0, 0.0, 1.6664058523065865E9, 0.0, 2022-10-21 19:30:52.306
78.0, -136078.0237410097, -163980.7568765589, 8829.74372264668, -120783.99905967702, 74504.04161263008, -91887.39560692258, 46269.63094110858, -115019.9982547758, 0.006, 0.964, 0.048, 192.0, 0.0, 0.0, 0.0, 0.0, 0.0, 0.0, 0.0, 0.0, 0.0, 1.666405852306597E9, 0.0, 2022-10-21 19:30:52.306
79.0, -136072.03347349566, -163974.83366427824, 8833.454112226262, -120767.27995482445, 74515.86568544694, -91873.7386910604, 46281.41031043653, -114999.21113243236, 0.006, 0.964, 0.048, 192.0, 0.0, 0.0, 0.0, 0.0, 0.0, 0.0, 0.0, 0.0, 0.0, 1.666405852306618E9, 0.0, 2022-10-21 19:30:52.306
80.0, -136082.51644164522, -163981.71800157047, 8825.251022011164, -120765.06713212338, 74517.94439768129, -91849.68821402648, 46289.30047622925, -114995.70190855289, 0.006, 0.964, 0.048, 192.0, 0.0, 0.0, 0.0, 0.0, 0.0, 0.0, 0.0, 0.0, 0.0, 1.6664058523066287E9, 0.0, 2022-10-21 19:30:52.306
81.0, -136077.59905786504, -163983.99787950492, 8816.109158528943, -120782.07680965387, 74506.20973184225, -91853.46565883943, 46283.39961569305, -115007.68244358092, 0.006, 0.964, 0.048, 192.0, 0.0, 0.0, 0.0, 0.0, 0.0, 0.0, 0.0, 0.0, 0.0, 1.6664058523066409E9, 0.0, 2022-10-21 19:30:52.306
82.0, -136072.8157845516, -163977.67233582406, 8811.325885215509, -120788.29059461244, 74503.34870855197, -91871.97290324842, 46277.20818247893, -115008.46475463687, 0.006, 0.964, 0.048, 192.0, 0.0, 0.0, 0.0, 0.0, 0.0, 0.0, 0.0, 0.0, 0.0, 1.6664058523066525E9, 0.0, 2022-10-21 19:30:52.306
83.0, -136079.14132823245, -163978.56640560227, 8802.116966499922, -120790.03403067995, 74503.70633646326, -91881.7853190643, 46267.686339340966, -115008.82238254815, 0.006, 0.964, 0.048, 192.0, 0.0, 0.0, 0.0, 0.0, 0.0, 0.0, 0.0, 0.0, 0.0, 1.6664058523066633E9, 0.0, 2022-10-21 19:30:52.306
84.0, -136068.6807118274, -163978.58875734673, 8800.351178687952, -120782.25562360951, 74509.96482491074, -91866.80965027925, 46276.0235400228, -115012.17514421644, 0.008, 0.962, 0.042, 192.0, 0.0, 64.0, 30.0, 16.0, 1.0, 80.0, 0.0, 0.0, 0.0, 1.6664058523066738E9, 0.0, 2022-10-21 19:30:52.306
85.0, -136069.9771130058, -163984.46726613847, 8798.093652497966, -120784.49079805503, 74504.89097891939, -91866.00498747885, 46280.49388891386, -115016.91371404097, 0.008, 0.962, 0.042, 192.0, 0.0, 0.0, 0.0, 0.0, 0.0, 0.0, 0.0, 0.0, 0.0, 1.666405852306686E9, 0.0, 2022-10-21 19:30:52.306
86.0, -136081.93529628936, -163975.705382312, 8798.764204831625, -120781.89799569822, 74510.09893537748, -91870.60944683665, 46283.265505226314, -115011.77281281624, 0.008, 0.962, 0.042, 192.0, 0.0, 0.0, 0.0, 0.0, 0.0, 0.0, 0.0, 0.0, 0.0, 1.666405852306695E9, 0.0, 2022-10-21 19:30:52.306
87.0, -136081.30944744463, -163973.06787646626, 8792.461012895228, -120779.46165555259, 74511.2835778336, -91869.60361833616, 46279.68922611347, -115011.39283316051, 0.008, 0.962, 0.042, 192.0, 0.0, 0.0, 0.0, 0.0, 0.0, 0.0, 0.0, 0.0, 0.0, 1.666405852306704E9, 0.0, 2022-10-21 19:30:52.306
88.0, -136077.3755404205, -163977.18059744604, 8787.16364945932, -120775.23717585055, 74511.70826097825, -91858.09246994168, 46285.00894129383, -115011.61635060507, 0.008, 0.962, 0.042, 192.0, 0.0, 0.0, 0.0, 0.0, 0.0, 0.0, 0.0, 0.0, 0.0, 1.666405852306713E9, 0.0, 2022-10-21 19:30:52.306
89.0, -136075.60975260852, -163977.6052805907, 8784.704957569236, -120775.37128631727, 74509.33897606599, -91863.6357025666, 46288.47346168441, -115014.70089133989, 0.008, 0.962, 0.042, 192.0, 0.0, 0.0, 0.0, 0.0, 0.0, 0.0, 0.0, 0.0, 0.0, 1.666405852306722E9, 0.0, 2022-10-21 19:30:52.306
90.0, -136074.35805491902, -163977.13589395714, 8780.748698800648, -120771.75030371551, 74513.25053134568, -91866.20615317895, 46289.926325074, -115020.51234489828, 0.008, 0.962, 0.042, 192.0, 0.0, 0.0, 0.0, 0.0, 0.0, 0.0, 0.0, 0.0, 0.0, 1.6664058523067312E9, 0.0, 2022-10-21 19:30:52.306
91.0, -136074.89449678594, -163984.24374869393, 8764.141352670355, -120788.20118763462, 74502.87932191842, -91880.2877521858, 46279.19748773545, -115026.81553683466, 0.008, 0.962, 0.042, 192.0, 0.0, 0.0, 0.0, 0.0, 0.0, 0.0, 0.0, 0.0, 0.0, 1.66640585230674E9, 0.0, 2022-10-21 19:30:52.306
92.0, -136077.19672646484, -163982.58971960424, 8764.051945692534, -120776.7570944735, 74509.40603129937, -91880.13128997461, 46284.897182571556, -115013.73976632832, 0.008, 0.962, 0.042, 192.0, 0.0, 0.0, 0.0, 0.0, 0.0, 0.0, 0.0, 0.0, 0.0, 1.6664058523067489E9, 0.0, 2022-10-21 19:30:52.306
93.0, -136089.26666847072, -163989.49640864093, 8757.435829333763, -120779.97574567507, 74506.50030452017, -91868.17310669103, 46296.8777175996, -115009.20236220388, 0.008, 0.962, 0.042, 192.0, 0.0, 0.0, 0.0, 0.0, 0.0, 0.0, 0.0, 0.0, 0.0, 1.6664058523067577E9, 0.0, 2022-10-21 19:30:52.306
94.0, -136087.85850857003, -163994.43614416555, 8753.077239164977, -120784.44609456613, 74505.31566206404, -91865.66971131203, 46297.63767691108, -115015.08087099563, 0.008, 0.9560000000000001, 0.036000000000000004, 192.0, 0.0, 64.0, 29.0, 224.0, 1.0, 32.0, 0.0, 0.0, 0.0, 1.6664058523067667E9, 0.0, 2022-10-21 19:30:52.306
95.0, -136081.15298523344, -163987.50710338439, 8754.105419409922, -120789.47523706857, 74503.81809518553, -91876.7338248174, 46286.43945293897, -115032.53758341522, 0.008, 0.9560000000000001, 0.036000000000000004, 192.0, 0.0, 0.0, 0.0, 0.0, 0.0, 0.0, 0.0, 0.0, 0.0, 1.666405852306785E9, 0.0, 2022-10-21 19:30:52.306
96.0, -136089.35607544854, -163988.51293188488, 8748.718648996193, -120789.1623126462, 74498.00664162716, -91885.78628132181, 46276.559981889724, -115041.88061259755, 0.008, 0.9560000000000001, 0.036000000000000004, 192.0, 0.0, 0.0, 0.0, 0.0, 0.0, 0.0, 0.0, 0.0, 0.0, 1.6664058523067942E9, 0.0, 2022-10-21 19:30:52.306
97.0, -136087.47852891427, -163987.50710338439, 8750.260919363609, -120787.77650448997, 74496.9337578933, -91874.65511258306, 46286.23828723888, -115031.1070717701, 0.008, 0.9560000000000001, 0.036000000000000004, 192.0, 0.0, 0.0, 0.0, 0.0, 0.0, 0.0, 0.0, 0.0, 0.0, 1.6664058523068032E9, 0.0, 2022-10-21 19:30:52.306
98.0, -136082.31527594512, -163984.95900451648, 8749.925643196779, -120784.73666724404, 74501.11353410644, -91880.66773184153, 46284.047816282255, -115023.68629261093, 0.008, 0.9560000000000001, 0.036000000000000004, 192.0, 0.0, 0.0, 0.0, 0.0, 0.0, 0.0, 0.0, 0.0, 0.0, 1.666405852306812E9, 0.0, 2022-10-21 19:30:52.306
99.0, -136079.00721776573, -163987.10477198422, 8742.05782914851, -120785.45192306662, 74507.10380162047, -91883.90873478756, 46277.744624345854, -115027.9554758019, 0.008, 0.9560000000000001, 0.036000000000000004, 192.0, 0.0, 0.0, 0.0, 0.0, 0.0, 0.0, 0.0, 0.0, 0.0, 1.6664058523068206E9, 0.0, 2022-10-21 19:30:52.306
100.0, -136072.05582524012, -163983.86376903817, 8743.667154749293, -120779.10402764131, 74514.05519414607, -91871.97290324842, 46285.21010699393, -115024.08862401113, 0.008, 0.9560000000000001, 0.036000000000000004, 192.0, 0.0, 0.0, 0.0, 0.0, 0.0, 0.0, 0.0, 0.0, 0.0, 1.6664058523068295E9, 0.0, 2022-10-21 19:30:52.306
101.0, -136080.01304626622, -163980.98039400345, 8745.388239072352, -120776.06419039538, 74514.8822086909, -91861.1323071876, 46295.089578043175, -115025.18385948944, 0.008, 0.9560000000000001, 0.036000000000000004, 192.0, 0.0, 0.0, 0.0, 0.0, 0.0, 0.0, 0.0, 0.0, 0.0, 1.6664058523068385E9, 0.0, 2022-10-21 19:30:52.306
102.0, -136071.60879035102, -163976.13006545664, 8749.433904818763, -120760.61913497678, 74518.01145291465, -91853.37625186161, 46304.678476414505, -115015.43849890692, 0.008, 0.9560000000000001, 0.036000000000000004, 192.0, 0.0, 0.0, 0.0, 0.0, 0.0, 0.0, 0.0, 0.0, 0.0, 1.666405852306847E9, 0.0, 2022-10-21 19:30:52.306
103.0, -136079.20838346583, -163977.73939105743, 8738.593308757938, -120778.25466135201, 74510.4342115443, -91879.52779287432, 46289.501641929346, -115022.3451879436, 0.008, 0.9560000000000001, 0.036000000000000004, 192.0, 0.0, 0.0, 0.0, 0.0, 0.0, 0.0, 0.0, 0.0, 0.0, 1.666405852306856E9, 0.0, 2022-10-21 19:30:52.306
104.0, -136089.44548242635, -163980.46630388097, 8728.669134219783, -120785.74249574453, 74507.39437429838, -91882.74644407588, 46283.46667092641, -115026.59201939011, 0.002, 0.9580000000000001, 0.034, 192.0, 0.0, 16.0, 29.0, 240.0, 1.0, 16.0, 0.0, 0.0, 0.0, 1.6664058523068657E9, 0.0, 2022-10-21 19:30:52.306
105.0, -136088.66317137043, -163976.7112108125, 8726.992753385633, -120776.5112252845, 74511.44004004479, -91863.6804060555, 46293.413197209025, -115023.30631295519, 0.002, 0.9580000000000001, 0.034, 192.0, 0.0, 0.0, 0.0, 0.0, 0.0, 0.0, 0.0, 0.0, 0.0, 1.6664058523068752E9, 0.0, 2022-10-21 19:30:52.306
106.0, -136093.84877608405, -163988.84820805173, 8717.537965481039, -120784.44609456613, 74505.09214461948, -91865.49089735639, 46292.228554752895, -115025.47443216735, 0.002, 0.9580000000000001, 0.034, 192.0, 0.0, 0.0, 0.0, 0.0, 0.0, 0.0, 0.0, 0.0, 0.0, 1.6664058523068843E9, 0.0, 2022-10-21 19:30:52.306
107.0, -136084.28222945717, -163988.13295222915, 8718.186166070243, -120787.19535913413, 74505.33801380849, -91873.5822288492, 46289.434586695985, -115020.15471698699, 0.002, 0.9580000000000001, 0.034, 192.0, 0.0, 0.0, 0.0, 0.0, 0.0, 0.0, 0.0, 0.0, 0.0, 1.666405852306893E9, 0.0, 2022-10-21 19:30:52.306
108.0, -136075.85562179753, -163981.1592079591, 8720.711913193692, -120782.27797535397, 74510.45656328877, -91878.56666786275, 46288.13818551757, -115017.07017625215, 0.002, 0.9580000000000001, 0.034, 192.0, 0.0, 0.0, 0.0, 0.0, 0.0, 0.0, 0.0, 0.0, 0.0, 1.6664058523069017E9, 0.0, 2022-10-21 19:30:52.306
109.0, -136073.53104037416, -163976.26417592337, 8724.176433584265, -120771.95146941561, 74518.8384674595, -91865.93793224549, 46296.34127573267, -115017.91954254145, 0.002, 0.9580000000000001, 0.034, 192.0, 0.0, 0.0, 0.0, 0.0, 0.0, 0.0, 0.0, 0.0, 0.0, 1.6664058523069117E9, 0.0, 2022-10-21 19:30:52.306
110.0, -136088.30554345914, -163979.48282712494, 8715.593363713428, -120782.00975442049, 74509.22721734372, -91853.91269372853, 46303.09150255818, -115021.78639433223, 0.002, 0.9580000000000001, 0.034, 192.0, 0.0, 0.0, 0.0, 0.0, 0.0, 0.0, 0.0, 0.0, 0.0, 1.6664058523069289E9, 0.0, 2022-10-21 19:30:52.306
111.0, -136090.56306964913, -163984.04258299383, 8704.395139741318, -120787.73180100105, 74502.25347307367, -91870.11770845864, 46293.5249559313, -115030.99531304781, 0.002, 0.9580000000000001, 0.034, 192.0, 0.0, 0.0, 0.0, 0.0, 0.0, 0.0, 0.0, 0.0, 0.0, 1.6664058523069377E9, 0.0, 2022-10-21 19:30:52.306
112.0, -136088.79728183715, -163983.81906554927, 8694.493316947617, -120791.79981849193, 74499.54891199457, -91888.84847031218, 46279.242191224366, -115041.67944689745, 0.002, 0.9580000000000001, 0.034, 192.0, 0.0, 0.0, 0.0, 0.0, 0.0, 0.0, 0.0, 0.0, 0.0, 1.6664058523069468E9, 0.0, 2022-10-21 19:30:52.306
113.0, -136082.31527594512, -163980.17573120305, 8693.398081469308, -120789.85521672432, 74502.52169400713, -91884.24401095438, 46291.178022763495, -115026.144984501, 0.002, 0.9580000000000001, 0.034, 192.0, 0.0, 0.0, 0.0, 0.0, 0.0, 0.0, 0.0, 0.0, 0.0, 1.6664058523069556E9, 0.0, 2022-10-21 19:30:52.306
114.0, -136076.68263634236, -163981.00274574792, 8687.407813955286, -120786.14482714473, 74502.81226668504, -91873.06813872674, 46301.30336300175, -115022.72516759935, 0.002, 0.9580000000000001, 0.034, 192.0, 0.0, 0.0, 30.0, 16.0, 1.0, 80.0, 0.0, 0.0, 0.0, 1.6664058523069649E9, 0.0, 2022-10-21 19:30:52.306
115.0, -136077.84492705404, -163973.87253926665, 8692.325197735452, -120774.16429211668, 74512.35646156745, -91873.35871140465, 46302.82328162471, -115018.7465570863, 0.002, 0.9580000000000001, 0.034, 192.0, 0.0, 0.0, 0.0, 0.0, 0.0, 0.0, 0.0, 0.0, 0.0, 1.666405852306974E9, 0.0, 2022-10-21 19:30:52.306
116.0, -136086.15977599143, -163979.5051788694, 8684.747956365103, -120779.28284159696, 74514.01049065715, -91874.90098177207, 46295.91659258802, -115016.53373438523, 0.002, 0.9580000000000001, 0.034, 192.0, 0.0, 0.0, 0.0, 0.0, 0.0, 0.0, 0.0, 0.0, 0.0, 1.6664058523069832E9, 0.0, 2022-10-21 19:30:52.306
117.0, -136088.73022660377, -163987.10477198422, 8676.835438827926, -120791.1069144138, 74505.33801380849, -91883.72992083192, 46285.657141883035, -115017.98659777483, 0.002, 0.9580000000000001, 0.034, 192.0, 0.0, 0.0, 0.0, 0.0, 0.0, 0.0, 0.0, 0.0, 0.0, 1.666405852306992E9, 0.0, 2022-10-21 19:30:52.306
118.0, -136087.120901003, -163993.43031566506, 8674.62261612685, -120784.28963235494, 74512.75879296765, -91860.17118217603, 46300.38694147908, -115017.58426637463, 0.002, 0.9580000000000001, 0.034, 192.0, 0.0, 0.0, 0.0, 0.0, 0.0, 0.0, 0.0, 0.0, 0.0, 1.666405852307001E9, 0.0, 2022-10-21 19:30:52.307
119.0, -136087.16560449192, -163989.4070016631, 8672.56625563696, -120782.47914105406, 74514.32341507953, -91859.81355426474, 46299.8281478677, -115016.91371404097, 0.002, 0.9580000000000001, 0.034, 192.0, 0.0, 0.0, 0.0, 0.0, 0.0, 0.0, 0.0, 0.0, 0.0, 1.66640585230701E9, 0.0, 2022-10-21 19:30:52.307
120.0, -136091.52419466068, -163985.83072255025, 8675.114354504867, -120780.93687068664, 74517.67617674783, -91877.0914527287, 46291.84857509715, -115022.9486850439, 0.002, 0.9580000000000001, 0.034, 192.0, 0.0, 0.0, 0.0, 0.0, 0.0, 0.0, 0.0, 0.0, 0.0, 1.6664058523070192E9, 0.0, 2022-10-21 19:30:52.307
121.0, -136091.30067721615, -163984.15434171612, 8676.81308708347, -120780.48983579753, 74514.837505202, -91883.79697606528, 46290.328656474194, -115027.97782754635, 0.002, 0.9580000000000001, 0.034, 192.0, 0.0, 0.0, 0.0, 0.0, 0.0, 0.0, 0.0, 0.0, 0.0, 1.6664058523070283E9, 0.0, 2022-10-21 19:30:52.307
122.0, -136088.57376439258, -163984.78019056085, 8679.629406884838, -120773.1584636162, 74517.16208662535, -91870.8329642812, 46301.43747346848, -115020.400586176, 0.002, 0.9580000000000001, 0.034, 192.0, 0.0, 0.0, 0.0, 0.0, 0.0, 0.0, 0.0, 0.0, 0.0, 1.666405852307037E9, 0.0, 2022-10-21 19:30:52.307
123.0, -136085.53392714667, -163984.46726613847, 8675.963720794169, -120775.57245201737, 74515.99979591368, -91879.21486845195, 46297.70473214445, -115021.02643502074, 0.004, 0.964, 0.04, 192.0, 0.0, 32.0, 30.0, 32.0, 1.0, 64.0, 0.0, 0.0, 0.0, 1.666405852307046E9, 0.0, 2022-10-21 19:30:52.307
124.0, -136087.52323240318, -163984.82489404976, 8667.626520112339, -120781.00392592001, 74517.16208662535, -91885.76392957736, 46288.16053726203, -115027.41903393496, 0.004, 0.964, 0.04, 192.0, 0.0, 0.0, 0.0, 0.0, 0.0, 0.0, 0.0, 0.0, 0.0, 1.6664058523070555E9, 0.0, 2022-10-21 19:30:52.307
125.0, -136085.82449982458, -163987.99884176243, 8663.71496483266, -120781.65212650922, 74522.01241517215, -91870.72120555893, 46290.86509834112, -115028.11193801308, 0.004, 0.964, 0.04, 192.0, 0.0, 0.0, 0.0, 0.0, 0.0, 0.0, 0.0, 0.0, 0.0, 1.6664058523070736E9, 0.0, 2022-10-21 19:30:52.307
126.0, -136079.9683427773, -163987.95413827352, 8661.81506655396, -120776.5559287734, 74520.44779306029, -91860.79703102077, 46298.59880192266, -115024.26743796676, 0.004, 0.964, 0.04, 192.0, 0.0, 0.0, 0.0, 0.0, 0.0, 0.0, 0.0, 0.0, 0.0, 1.6664058523070824E9, 0.0, 2022-10-21 19:30:52.307
127.0, -136086.98679053626, -163994.21262672098, 8652.04735422699, -120783.23910036554, 74512.35646156745, -91874.20807769395, 46291.69211288597, -115029.60950489159, 0.004, 0.964, 0.04, 192.0, 0.0, 0.0, 0.0, 0.0, 0.0, 0.0, 0.0, 0.0, 0.0, 1.6664058523070915E9, 0.0, 2022-10-21 19:30:52.307
128.0, -136091.81476733863, -163994.95023428803, 8649.454551870174, -120789.31877485738, 74509.00369989917, -91886.83681331121, 46284.49485117136, -115023.3510164441, 0.004, 0.964, 0.04, 192.0, 0.0, 0.0, 0.0, 0.0, 0.0, 0.0, 0.0, 0.0, 0.0, 1.6664058523071003E9, 0.0, 2022-10-21 19:30:52.307
129.0, -136090.18308999337, -163988.13295222915, 8655.578929850928, -120780.46748405308, 74514.54693252408, -91893.29646745879, 46285.83595583868, -115013.06921399466, 0.004, 0.964, 0.04, 192.0, 0.0, 0.0, 0.0, 0.0, 0.0, 0.0, 0.0, 0.0, 0.0, 1.666405852307109E9, 0.0, 2022-10-21 19:30:52.307
130.0, -136081.68942710035, -163983.66260333807, 8660.988052009112, -120769.89510892572, 74525.47693556272, -91861.7805077768, 46305.46078747044, -115006.45309763588, 0.004, 0.964, 0.04, 192.0, 0.0, 0.0, 0.0, 0.0, 0.0, 0.0, 0.0, 0.0, 0.0, 1.6664058523071182E9, 0.0, 2022-10-21 19:30:52.307
131.0, -136088.70787485933, -163988.98231851845, 8651.980298993623, -120783.93200444366, 74514.30106333508, -91860.12647868712, 46303.42677872501, -115023.7533478443, 0.004, 0.964, 0.04, 192.0, 0.0, 0.0, 0.0, 0.0, 0.0, 0.0, 0.0, 0.0, 0.0, 1.666405852307127E9, 0.0, 2022-10-21 19:30:52.307
132.0, -136078.2249067098, -163981.65094633712, 8654.684860072715, -120783.41791432118, 74515.083374391, -91874.09631897167, 46299.69403740097, -115021.60758037659, 0.004, 0.964, 0.04, 192.0, 0.0, 0.0, 0.0, 0.0, 0.0, 0.0, 0.0, 0.0, 0.0, 1.666405852307136E9, 0.0, 2022-10-21 19:30:52.307
133.0, -136066.73611005975, -163975.97360324545, 8652.673203071738, -120778.54523402992, 74521.76654598315, -91877.51613587335, 46300.275182756806, -115011.92927502743, 0.002, 0.966, 0.038, 192.0, 0.0, 16.0, 30.0, 48.0, 1.0, 48.0, 0.0, 0.0, 0.0, 1.6664058523071449E9, 0.0, 2022-10-21 19:30:52.307
134.0, -136067.29490367114, -163976.37593464565, 8652.42733388273, -120770.78917870394, 74527.91327570836, -91858.27128389732, 46310.266412528326, -115003.90499876798, 0.002, 0.966, 0.038, 192.0, 0.0, 0.0, 0.0, 0.0, 0.0, 0.0, 0.0, 0.0, 0.0, 1.666405852307154E9, 0.0, 2022-10-21 19:30:52.307
135.0, -136067.5631246046, -163981.18155970355, 8643.576043078428, -120781.58507127584, 74513.54110402359, -91868.19545843548, 46303.694999658466, -115024.55801064469, 0.002, 0.966, 0.038, 192.0, 0.0, 0.0, 0.0, 0.0, 0.0, 0.0, 0.0, 0.0, 0.0, 1.6664058523071632E9, 0.0, 2022-10-21 19:30:52.307
136.0, -136077.46494739832, -163987.90943478458, 8628.198042893177, -120795.0631731824, 74498.76660093863, -91896.00102853788, 46284.740720360365, -115039.31016198518, 0.002, 0.966, 0.038, 192.0, 0.0, 0.0, 0.0, 0.0, 0.0, 0.0, 0.0, 0.0, 0.0, 1.666405852307172E9, 0.0, 2022-10-21 19:30:52.307
137.0, -136086.36094169153, -163982.27679518185, 8628.958002204658, -120791.55394930292, 74506.85793243146, -91902.86301408565, 46280.762109847325, -115025.2956182117, 0.002, 0.966, 0.038, 192.0, 0.0, 0.0, 0.0, 0.0, 0.0, 0.0, 0.0, 0.0, 0.0, 1.666405852307181E9, 0.0, 2022-10-21 19:30:52.307
138.0, -136086.56210739163, -163976.59945209022, 8627.639249281794, -120786.41304807819, 74512.7364412232, -91892.13417674712, 46286.86413608362, -115019.03712976423, 0.002, 0.966, 0.038, 192.0, 0.0, 0.0, 0.0, 0.0, 0.0, 0.0, 0.0, 0.0, 0.0, 1.66640585230719E9, 0.0, 2022-10-21 19:30:52.307
139.0, -136091.63595338297, -163982.88029228215, 8627.013400437047, -120782.38973407623, 74512.19999935628, -91883.86403129865, 46297.23534551088, -115026.18968798991, 0.002, 0.966, 0.038, 192.0, 0.0, 0.0, 0.0, 0.0, 0.0, 0.0, 0.0, 0.0, 0.0, 1.6664058523071988E9, 0.0, 2022-10-21 19:30:52.307
0.0, 0.0, 0.0, 0.0, 0.0, 0.0, 0.0, 0.0, 0.0, 0.002, 0.966, 0.038, 192.0, 0.0, 0.0, 30.0, 0.0, 1.0, 16.0, 0.0, 0.0, 0.0, 1.6664058523865802E9, 0.0, 2022-10-21 19:30:52.386
1.0, -136416.36209682966, -164104.0938024633, 8712.307657278498, -120879.39630501227, 74603.64098592293, -83316.19451239044, 46706.31697253192, -113623.4165577193, 0.002, 0.966, 0.038, 192.0, 0.0, 0.0, 0.0, 0.0, 0.0, 0.0, 0.0, 0.0, 0.0, 1.6664058528684456E9, 0.0, 2022-10-21 19:30:52.868
2.0, -136421.43594282103, -164109.45822113255, 8712.106491578399, -120879.41865675672, 74601.60697717751, -83312.30530885521, 46715.28002205849, -113627.3728164879, 0.002, 0.966, 0.038, 192.0, 0.0, 0.0, 0.0, 0.0, 0.0, 0.0, 0.0, 0.0, 0.0, 1.6664058528684988E9, 0.0, 2022-10-21 19:30:52.868
3.0, -136416.22798636294, -164104.07145071882, 8725.361076040397, -120865.0241333275, 74615.84503839554, -83307.92436694198, 46725.606527996846, -113623.4165577193, 0.002, 0.966, 0.038, 192.0, 0.0, 0.0, 0.0, 0.0, 0.0, 0.0, 0.0, 0.0, 0.0, 1.6664058528685243E9, 0.0, 2022-10-21 19:30:52.868
4.0, -136424.52048355585, -164111.64869208916, 8718.476738748162, -120874.4789212321, 74612.93931161634, -83307.09735239713, 46718.744542449065, -113622.83541236346, 0.002, 0.966, 0.038, 192.0, 0.0, 0.0, 0.0, 0.0, 0.0, 0.0, 0.0, 0.0, 0.0, 1.6664058528685415E9, 0.0, 2022-10-21 19:30:52.868
5.0, -136418.7090299975, -164104.0938024633, 8724.131730095354, -120865.8734996168, 74616.9626256183, -83323.7717537608, 46721.67262097271, -113610.31843546849, 0.002, 0.966, 0.038, 192.0, 0.0, 0.0, 0.0, 0.0, 0.0, 0.0, 0.0, 0.0, 0.0, 1.6664058528685584E9, 0.0, 2022-10-21 19:30:52.868
6.0, -136415.73624798493, -164100.60693032824, 8728.15504409731, -120855.90462158974, 74623.84696291054, -83305.5103785408, 46735.06131590144, -113603.36704294289, 0.002, 0.966, 0.038, 192.0, 0.0, 0.0, 0.0, 0.0, 0.0, 0.0, 0.0, 0.0, 0.0, 1.6664058528685825E9, 0.0, 2022-10-21 19:30:52.868
7.0, -136428.54379755782, -164113.30272117886, 8715.503956735607, -120868.42159848471, 74612.00053834922, -83307.05264890823, 46722.54433900647, -113616.19694426024, 0.002, 0.966, 0.038, 192.0, 0.0, 0.0, 30.0, 32.0, 0.0, 240.0, 0.0, 0.0, 0.0, 1.6664058528685992E9, 0.0, 2022-10-21 19:30:52.868
8.0, -136437.12686742865, -164123.42806141713, 8707.747901409615, -120884.96188938164, 74600.26587251018, -83324.48700958336, 46704.19355680866, -113611.57013315799, 0.002, 0.966, 0.038, 192.0, 0.0, 0.0, 0.0, 0.0, 0.0, 0.0, 0.0, 0.0, 0.0, 1.6664058528686173E9, 0.0, 2022-10-21 19:30:52.868
9.0, -136433.46118133797, -164119.87413404873, 8716.420378258274, -120873.27192703151, 74608.7595354032, -83331.90778874252, 46703.433597497184, -113612.75477561413, 0.002, 0.966, 0.038, 192.0, 0.0, 0.0, 0.0, 0.0, 0.0, 0.0, 0.0, 0.0, 0.0, 1.6664058528686352E9, 0.0, 2022-10-21 19:30:52.868
10.0, -136434.53406507184, -164121.37170092724, 8718.812014914993, -120865.89585136126, 74609.00540459222, -83329.94083523046, 46706.85341439884, -113610.09491802394, 0.002, 0.966, 0.038, 192.0, 0.0, 0.0, 0.0, 0.0, 0.0, 0.0, 0.0, 0.0, 0.0, 1.6664058528686583E9, 0.0, 2022-10-21 19:30:52.868
11.0, -136450.18028619056, -164137.95669531307, 8705.423319986263, -120877.49640673357, 74599.68472715435, -83329.02441370778, 46701.31018177392, -113622.85776410792, 0.002, 0.966, 0.038, 192.0, 0.0, 0.0, 0.0, 0.0, 0.0, 0.0, 0.0, 0.0, 0.0, 1.6664058528686748E9, 0.0, 2022-10-21 19:30:52.868
12.0, -136450.71672805748, -164140.4377389476, 8704.730415908149, -120880.15626432376, 74598.79065737613, -83335.05938471072, 46694.828175881885, -113636.46997648121, 0.002, 0.966, 0.038, 192.0, 0.0, 0.0, 0.0, 0.0, 0.0, 0.0, 0.0, 0.0, 0.0, 1.6664058528686917E9, 0.0, 2022-10-21 19:30:52.868
13.0, -136444.77116403237, -164135.02861678944, 8714.0063898571, -120886.88413940479, 74597.49425619772, -83351.26439944081, 46693.084739814374, -113634.19009854677, 0.002, 0.966, 0.038, 192.0, 0.0, 0.0, 0.0, 0.0, 0.0, 0.0, 0.0, 0.0, 0.0, 1.666405852868708E9, 0.0, 2022-10-21 19:30:52.868
14.0, -136447.92276000057, -164137.9343435686, 8721.784796927548, -120888.04643011648, 74594.87910209646, -83359.06515825572, 46701.33253351838, -113621.38254897387, 0.002, 0.966, 0.038, 192.0, 0.0, 0.0, 0.0, 0.0, 0.0, 0.0, 0.0, 0.0, 0.0, 1.6664058528687246E9, 0.0, 2022-10-21 19:30:52.868
15.0, -136440.43492560805, -164132.30170396587, 8734.838215689448, -120882.86082540284, 74600.15411378791, -83342.59192259215, 46713.20130982415, -113613.82765934798, 0.002, 0.966, 0.038, 192.0, 0.0, 0.0, 0.0, 0.0, 0.0, 0.0, 0.0, 0.0, 0.0, 1.6664058528687413E9, 0.0, 2022-10-21 19:30:52.868
16.0, -136431.89655922612, -164124.76916608444, 8747.198730373231, -120879.84333990137, 74607.46313422479, -83341.40728013603, 46714.6765249582, -113605.49045866614, 0.002, 0.966, 0.038, 192.0, 0.0, 0.0, 0.0, 0.0, 0.0, 0.0, 0.0, 0.0, 0.0, 1.6664058528688228E9, 0.0, 2022-10-21 19:30:52.868
17.0, -136429.37081210266, -164124.74681433997, 8746.103494894922, -120877.1834823112, 74608.87129412548, -83336.08756495567, 46710.005010367044, -113611.25720873562, 0.012, 0.962, 0.024, 192.0, 0.0, 96.0, 30.0, 16.0, 0.0, 192.0, 0.0, 0.0, 0.0, 1.66640585286884E9, 0.0, 2022-10-21 19:30:52.868
18.0, -136419.33487884223, -164112.67687233412, 8757.435829333763, -120870.99204909707, 74618.14726807443, -83323.03414619376, 46720.91266166123, -113610.43019419078, 0.012, 0.962, 0.024, 192.0, 0.0, 0.0, 0.0, 0.0, 0.0, 0.0, 0.0, 0.0, 0.0, 1.6664058528688576E9, 0.0, 2022-10-21 19:30:52.868
19.0, -136422.19590213252, -164115.1355642242, 8759.045154934545, -120871.79671189746, 74614.43687849485, -83318.3179281137, 46727.03703964198, -113609.69258662374, 0.012, 0.962, 0.024, 192.0, 0.0, 0.0, 0.0, 0.0, 0.0, 0.0, 0.0, 0.0, 0.0, 1.666405852868874E9, 0.0, 2022-10-21 19:30:52.868
20.0, -136426.08510566773, -164119.49415439297, 8753.837198476458, -120876.82585439991, 74612.44757323833, -83328.80089626323, 46719.70566746064, -113610.1172697684, 0.012, 0.962, 0.024, 192.0, 0.0, 0.0, 0.0, 0.0, 0.0, 0.0, 0.0, 0.0, 0.0, 1.6664058528688903E9, 0.0, 2022-10-21 19:30:52.868
21.0, -136444.19001867654, -164136.16855575665, 8736.805169201514, -120891.10861910685, 74602.92573010037, -83354.25953319782, 46697.66684742771, -113631.15026130083, 0.012, 0.962, 0.024, 192.0, 0.0, 0.0, 0.0, 0.0, 0.0, 0.0, 0.0, 0.0, 0.0, 1.6664058528689067E9, 0.0, 2022-10-21 19:30:52.868
22.0, -136435.76341101687, -164128.56896264185, 8749.210387374209, -120879.17278756772, 74610.90530287092, -83351.93495177448, 46707.412208010224, -113614.565266915, 0.012, 0.962, 0.024, 192.0, 0.0, 0.0, 0.0, 0.0, 0.0, 0.0, 0.0, 0.0, 0.0, 1.6664058528689234E9, 0.0, 2022-10-21 19:30:52.868
23.0, -136436.59042556174, -164129.99947428697, 8754.910082210312, -120876.69174393317, 74610.860599382, -83336.93693124497, 46718.65513547124, -113600.41661267479, 0.012, 0.962, 0.024, 192.0, 0.0, 0.0, 0.0, 0.0, 0.0, 0.0, 0.0, 0.0, 0.0, 1.66640585286894E9, 0.0, 2022-10-21 19:30:52.868
24.0, -136432.47770458195, -164125.39501492918, 8761.392088102351, -120874.14364506527, 74616.3144250291, -83347.46460288341, 46719.75037094956, -113591.05123174802, 0.012, 0.962, 0.024, 192.0, 0.0, 0.0, 0.0, 0.0, 0.0, 0.0, 0.0, 0.0, 0.0, 1.666405852868956E9, 0.0, 2022-10-21 19:30:52.868
25.0, -136439.22793140745, -164131.00530278747, 8753.837198476458, -120885.52068299302, 74611.5087999712, -83362.5296786463, 46708.79801616645, -113607.01037728912, 0.012, 0.962, 0.024, 192.0, 0.0, 0.0, 0.0, 0.0, 0.0, 0.0, 0.0, 0.0, 0.0, 1.6664058528689728E9, 0.0, 2022-10-21 19:30:52.868
26.0, -136451.07435596877, -164142.1811750151, 8744.337707082952, -120900.80927620045, 74595.5049509412, -83377.39358870908, 46694.828175881885, -113619.50500243963, 0.012, 0.962, 0.024, 192.0, 0.0, 0.0, 0.0, 0.0, 0.0, 0.0, 0.0, 0.0, 0.0, 1.6664058528689892E9, 0.0, 2022-10-21 19:30:52.868
27.0, -136435.67400403906, -164125.46207016255, 8760.006279946123, -120884.11252309234, 74607.59724469153, -83354.21482970892, 46715.05650461394, -113597.0638510065, 0.01, 0.964, 0.02, 192.0, 0.0, 80.0, 30.0, 32.0, 0.0, 160.0, 0.0, 0.0, 0.0, 1.6664058528690057E9, 0.0, 2022-10-21 19:30:52.869
28.0, -136422.93350969953, -164111.80515430035, 8768.678756794781, -120874.32245902091, 74619.7565936752, -83328.26445439631, 46729.1828071097, -113581.41762988779, 0.01, 0.964, 0.02, 192.0, 0.0, 0.0, 0.0, 0.0, 0.0, 0.0, 0.0, 0.0, 0.0, 1.6664058528690257E9, 0.0, 2022-10-21 19:30:52.869
29.0, -136430.28723362533, -164119.24828520397, 8760.788591002058, -120890.01338362854, 74610.12299181498, -83348.89511452855, 46712.26253655703, -113597.73440334016, 0.01, 0.964, 0.02, 192.0, 0.0, 0.0, 0.0, 0.0, 0.0, 0.0, 0.0, 0.0, 0.0, 1.6664058528690424E9, 0.0, 2022-10-21 19:30:52.869
30.0, -136429.37081210266, -164119.06947124834, 8760.855646235425, -120887.71115394964, 74610.88295112645, -83377.1253677756, 46709.35680977783, -113596.68387135076, 0.01, 0.964, 0.02, 192.0, 0.0, 0.0, 0.0, 0.0, 0.0, 0.0, 0.0, 0.0, 0.0, 1.6664058528690593E9, 0.0, 2022-10-21 19:30:52.869
31.0, -136439.04911745182, -164130.46886092055, 8753.725439754182, -120893.54495925248, 74601.58462543305, -83375.47133868592, 46710.40734176723, -113601.75771734212, 0.01, 0.964, 0.02, 192.0, 0.0, 0.0, 0.0, 0.0, 0.0, 0.0, 0.0, 0.0, 0.0, 1.6664058528690944E9, 0.0, 2022-10-21 19:30:52.869
32.0, -136429.32610861375, -164121.19288697158, 8765.21423640421, -120881.51972073552, 74614.12395407248, -83369.90575431654, 46719.929184905195, -113596.90738879531, 0.01, 0.964, 0.02, 192.0, 0.0, 0.0, 0.0, 0.0, 0.0, 0.0, 0.0, 0.0, 0.0, 1.6664058528691108E9, 0.0, 2022-10-21 19:30:52.869
33.0, -136438.4009168626, -164129.55243939787, 8753.144294398344, -120890.61688072883, 74609.47479122577, -83381.05927479974, 46705.15468182024, -113610.58665640195, 0.01, 0.964, 0.02, 192.0, 0.0, 0.0, 0.0, 0.0, 0.0, 0.0, 0.0, 0.0, 0.0, 1.6664058528691275E9, 0.0, 2022-10-21 19:30:52.869
34.0, -136438.08799244024, -164130.26769522045, 8753.904253709825, -120886.81708417143, 74609.85477088152, -83395.16322555105, 46702.53952771897, -113607.21154298921, 0.01, 0.964, 0.02, 192.0, 0.0, 0.0, 0.0, 0.0, 0.0, 0.0, 0.0, 0.0, 0.0, 1.666405852869144E9, 0.0, 2022-10-21 19:30:52.869
35.0, -136427.89559696862, -164122.13166023872, 8763.02376544759, -120877.3846480113, 74614.77215466168, -83386.62485916911, 46716.55407149244, -113596.08037425046, 0.01, 0.964, 0.02, 192.0, 0.0, 0.0, 0.0, 0.0, 0.0, 0.0, 0.0, 0.0, 0.0, 1.6664058528691602E9, 0.0, 2022-10-21 19:30:52.869
36.0, -136447.14044894464, -164144.57281167185, 8743.980079171668, -120898.2388255881, 74593.49329394022, -83365.54716414776, 46710.854376656345, -113612.12892676938, 0.016, 0.966, 0.022, 192.0, 0.0, 128.0, 30.0, 48.0, 0.0, 176.0, 0.0, 0.0, 0.0, 1.6664058528691769E9, 0.0, 2022-10-21 19:30:52.869
37.0, -136439.33969012974, -164136.52618366794, 8752.563149042506, -120897.1882935987, 74595.10261954101, -83373.37027470712, 46711.547280734456, -113592.88407479336, 0.016, 0.966, 0.022, 192.0, 0.0, 0.0, 0.0, 0.0, 0.0, 0.0, 0.0, 0.0, 0.0, 1.666405852869194E9, 0.0, 2022-10-21 19:30:52.869
38.0, -136428.87907372465, -164125.68558760712, 8761.772067758093, -120882.12321783582, 74609.58654994804, -83390.11173130415, 46710.96613537862, -113595.96861552818, 0.016, 0.966, 0.022, 192.0, 0.0, 0.0, 0.0, 0.0, 0.0, 0.0, 0.0, 0.0, 0.0, 1.6664058528692105E9, 0.0, 2022-10-21 19:30:52.869
39.0, -136416.13857938512, -164111.8945612782, 8778.35706214393, -120858.94445883567, 74624.83043966656, -83385.84254811319, 46725.33830706338, -113587.45260089071, 0.016, 0.966, 0.022, 192.0, 0.0, 0.0, 0.0, 0.0, 0.0, 0.0, 0.0, 0.0, 0.0, 1.6664058528692272E9, 0.0, 2022-10-21 19:30:52.869
40.0, -136424.2522626224, -164121.97519802753, 8772.724422541192, -120868.5780606959, 74615.12978257297, -83383.11563528964, 46726.76881870852, -113590.82771430346, 0.016, 0.966, 0.022, 192.0, 0.0, 0.0, 0.0, 0.0, 0.0, 0.0, 0.0, 0.0, 0.0, 1.6664058528692439E9, 0.0, 2022-10-21 19:30:52.869
41.0, -136438.66913779607, -164135.81092784536, 8754.708916510215, -120886.61591847133, 74598.6565469094, -83404.10392333317, 46708.90977488873, -113609.20084824573, 0.016, 0.966, 0.022, 192.0, 0.0, 0.0, 0.0, 0.0, 0.0, 0.0, 0.0, 0.0, 0.0, 1.6664058528692603E9, 0.0, 2022-10-21 19:30:52.869
42.0, -136437.12686742865, -164135.5874104008, 8752.54079729805, -120889.6334039728, 74595.14732302992, -83416.84441767269, 46701.19842305165, -113610.83252559097, 0.016, 0.966, 0.022, 192.0, 0.0, 0.0, 0.0, 0.0, 0.0, 0.0, 0.0, 0.0, 0.0, 1.6664058528692768E9, 0.0, 2022-10-21 19:30:52.869
43.0, -136420.76539048736, -164120.34352068228, 8772.79147777456, -120866.9240316062, 74605.51853245718, -83412.59758622618, 46716.12938834779, -113592.28057769306, 0.016, 0.966, 0.022, 192.0, 0.0, 0.0, 0.0, 0.0, 0.0, 0.0, 0.0, 0.0, 0.0, 1.6664058528692937E9, 0.0, 2022-10-21 19:30:52.869
44.0, -136429.21434989147, -164125.81969807384, 8767.985852716667, -120868.01926708451, 74601.42816322186, -83402.20402505447, 46719.01276338253, -113599.14256324084, 0.016, 0.966, 0.022, 192.0, 0.0, 0.0, 0.0, 0.0, 0.0, 0.0, 0.0, 0.0, 0.0, 1.6664058528693104E9, 0.0, 2022-10-21 19:30:52.869
45.0, -136429.88490222514, -164127.11609925225, 8769.014032961612, -120867.1251973063, 74606.43495397984, -83389.6870481595, 46723.974850651604, -113589.0619264915, 0.016, 0.966, 0.022, 192.0, 0.0, 0.0, 0.0, 0.0, 0.0, 0.0, 0.0, 0.0, 0.0, 1.6664058528693268E9, 0.0, 2022-10-21 19:30:52.869
46.0, -136434.10938192718, -164134.82745108934, 8765.527160826583, -120875.14947356576, 74602.12106729997, -83405.44502800048, 46713.44717901316, -113591.1182869814, 0.012, 0.96, 0.022, 192.0, 0.0, 96.0, 30.0, 0.0, 0.0, 176.0, 0.0, 0.0, 0.0, 1.666405852869358E9, 0.0, 2022-10-21 19:30:52.869
47.0, -136437.88682674014, -164140.57184941435, 8763.761373014615, -120876.3341160219, 74595.92963408586, -83411.61410947015, 46708.753312677545, -113613.89471458134, 0.012, 0.96, 0.022, 192.0, 0.0, 0.0, 0.0, 0.0, 0.0, 0.0, 0.0, 0.0, 0.0, 1.6664058528693752E9, 0.0, 2022-10-21 19:30:52.869
48.0, -136439.58555931874, -164143.16465177116, 8762.0179369471, -120875.30593577695, 74588.41944794887, -83416.2856240613, 46703.433597497184, -113622.27661875209, 0.012, 0.96, 0.022, 192.0, 0.0, 0.0, 0.0, 0.0, 0.0, 0.0, 0.0, 0.0, 0.0, 1.6664058528693986E9, 0.0, 2022-10-21 19:30:52.869
49.0, -136430.46604758097, -164133.30753246637, 8771.11509694041, -120863.75008389355, 74600.53409344365, -83408.12723733512, 46713.46953075761, -113607.47976392267, 0.012, 0.96, 0.022, 192.0, 0.0, 0.0, 0.0, 0.0, 0.0, 0.0, 0.0, 0.0, 0.0, 1.6664058528694167E9, 0.0, 2022-10-21 19:30:52.869
50.0, -136421.99473643242, -164124.43388991762, 8783.028576735089, -120857.11161579033, 74611.24057903774, -83403.12044657713, 46725.2265483411, -113586.62558634586, 0.012, 0.96, 0.022, 192.0, 0.0, 0.0, 0.0, 0.0, 0.0, 0.0, 0.0, 0.0, 0.0, 1.6664058528694332E9, 0.0, 2022-10-21 19:30:52.869
51.0, -136430.71191676997, -164132.21229698806, 8774.244341164153, -120861.11257804783, 74605.36207024599, -83411.85997865915, 46719.68331571619, -113595.90156029482, 0.012, 0.96, 0.022, 192.0, 0.0, 0.0, 0.0, 0.0, 0.0, 0.0, 0.0, 0.0, 0.0, 1.6664058528694499E9, 0.0, 2022-10-21 19:30:52.869
52.0, -136418.41845731955, -164121.2375904605, 8787.208352948232, -120833.55287713444, 74625.23277106676, -83380.32166723271, 46737.05062115796, -113591.05123174802, 0.012, 0.96, 0.022, 192.0, 0.0, 0.0, 0.0, 0.0, 0.0, 0.0, 0.0, 0.0, 0.0, 1.666405852869467E9, 0.0, 2022-10-21 19:30:52.869
53.0, -136428.92377721355, -164134.22395398904, 8772.187980674265, -120854.31764773342, 74611.57585520457, -83367.80469033774, 46725.047734385465, -113608.77616510108, 0.012, 0.96, 0.022, 192.0, 0.0, 0.0, 0.0, 0.0, 0.0, 0.0, 0.0, 0.0, 0.0, 1.6664058528694837E9, 0.0, 2022-10-21 19:30:52.869
54.0, -136432.61181504867, -164137.06262553486, 8764.811905004013, -120875.66356368823, 74594.23090150725, -83398.58304245271, 46701.33253351838, -113621.65076990734, 0.012, 0.96, 0.022, 192.0, 0.0, 0.0, 0.0, 0.0, 0.0, 0.0, 0.0, 0.0, 0.0, 1.6664058528695004E9, 0.0, 2022-10-21 19:30:52.869
55.0, -136426.01805043436, -164129.50773590896, 8775.138410942365, -120857.24572625707, 74609.31832901458, -83416.95617639496, 46709.177995822196, -113606.04925227753, 0.012, 0.96, 0.022, 192.0, 0.0, 0.0, 0.0, 0.0, 0.0, 0.0, 0.0, 0.0, 0.0, 1.6664058528695173E9, 0.0, 2022-10-21 19:30:52.869
56.0, -136420.43011432054, -164126.64671261868, 8782.067451723511, -120841.68891211617, 74621.27651229818, -83400.14766456457, 46730.30039433246, -113589.7101270807, 0.01, 0.9580000000000001, 0.026000000000000002, 192.0, 0.0, 80.0, 29.0, 240.0, 0.0, 208.0, 0.0, 0.0, 0.0, 1.666405852869534E9, 0.0, 2022-10-21 19:30:52.869
57.0, -136425.41455333406, -164133.55340165537, 8775.496038853651, -120845.39930169575, 74616.00150060673, -83404.50625473337, 46723.03607738449, -113595.83450506146, 0.01, 0.9580000000000001, 0.026000000000000002, 192.0, 0.0, 0.0, 0.0, 0.0, 0.0, 0.0, 0.0, 0.0, 0.0, 1.6664058528695512E9, 0.0, 2022-10-21 19:30:52.869
58.0, -136442.1560099311, -164148.81964311836, 8753.479570565172, -120862.83366237089, 74602.92573010037, -83413.82693217123, 46702.04778934095, -113614.74408087065, 0.01, 0.9580000000000001, 0.026000000000000002, 192.0, 0.0, 0.0, 0.0, 0.0, 0.0, 0.0, 0.0, 0.0, 0.0, 1.6664058528695676E9, 0.0, 2022-10-21 19:30:52.869
59.0, -136440.99371921943, -164148.10438729578, 8749.947994941234, -120864.9794298386, 74598.27656725366, -83428.8473044452, 46694.627010181786, -113615.66050239331, 0.01, 0.9580000000000001, 0.026000000000000002, 192.0, 0.0, 0.0, 0.0, 0.0, 0.0, 0.0, 0.0, 0.0, 0.0, 1.666405852869584E9, 0.0, 2022-10-21 19:30:52.869
60.0, -136422.84410272172, -164130.22299173154, 8769.617530061905, -120845.35459820683, 74612.15700056042, -83414.3410222937, 46717.31403080393, -113603.38939468734, 0.01, 0.9580000000000001, 0.026000000000000002, 192.0, 0.0, 0.0, 0.0, 0.0, 0.0, 0.0, 0.0, 0.0, 0.0, 1.6664058528696005E9, 0.0, 2022-10-21 19:30:52.869
61.0, -136425.88393996764, -164133.46399467756, 8764.655442792826, -120850.67431338721, 74603.43982022283, -83417.26910081734, 46711.413170267726, -113617.4709936942, 0.01, 0.9580000000000001, 0.026000000000000002, 192.0, 0.0, 0.0, 0.0, 0.0, 0.0, 0.0, 0.0, 0.0, 0.0, 1.6664058528696175E9, 0.0, 2022-10-21 19:30:52.869
62.0, -136430.93543421454, -164138.56019241337, 8754.35128859893, -120858.38566522428, 74599.97529983227, -83430.03194690132, 46695.744597404555, -113632.8713456239, 0.01, 0.9580000000000001, 0.026000000000000002, 192.0, 0.0, 0.0, 0.0, 0.0, 0.0, 0.0, 0.0, 0.0, 0.0, 1.666405852869651E9, 0.0, 2022-10-21 19:30:52.869
63.0, -136435.29402438333, -164143.5446314269, 8750.35032634143, -120864.15241529375, 74597.06957305307, -83444.694691264, 46688.413225223216, -113638.48163348218, 0.01, 0.9580000000000001, 0.026000000000000002, 192.0, 0.0, 0.0, 0.0, 0.0, 0.0, 0.0, 0.0, 0.0, 0.0, 1.6664058528696685E9, 0.0, 2022-10-21 19:30:52.869
64.0, -136423.26878586636, -164130.58061964283, 8765.147181170843, -120846.06985402941, 74610.52532321517, -83444.58293254173, 46702.33836201887, -113626.9257815988, 0.01, 0.9580000000000001, 0.026000000000000002, 192.0, 0.0, 0.0, 0.0, 0.0, 0.0, 0.0, 0.0, 0.0, 0.0, 1.666405852869685E9, 0.0, 2022-10-21 19:30:52.869
65.0, -136429.52727431385, -164136.81675634586, 8756.54175955555, -120846.74040636307, 74605.16090454589, -83443.62180753014, 46698.62797243929, -113631.01615083411, 0.01, 0.9580000000000001, 0.026000000000000002, 192.0, 0.0, 0.0, 0.0, 0.0, 0.0, 0.0, 0.0, 0.0, 0.0, 1.6664058528697011E9, 0.0, 2022-10-21 19:30:52.869
66.0, -136449.33091990126, -164156.17336704416, 8735.419361045286, -120873.786017154, 74583.77028510217, -83446.86281047617, 46681.57359141989, -113638.52633697109, 0.014, 0.9540000000000001, 0.026000000000000002, 192.0, 0.0, 112.0, 29.0, 208.0, 0.0, 208.0, 0.0, 0.0, 0.0, 1.666405852869718E9, 0.0, 2022-10-21 19:30:52.869
67.0, -136423.93933820003, -164130.491212665, 8757.078201422477, -120858.76564488003, 74603.03748882264, -83453.63538904613, 46694.44819622615, -113617.20277276073, 0.014, 0.9540000000000001, 0.026000000000000002, 192.0, 0.0, 0.0, 0.0, 0.0, 0.0, 0.0, 0.0, 0.0, 0.0, 1.6664058528697357E9, 0.0, 2022-10-21 19:30:52.869
68.0, -136422.28530911033, -164125.73029109603, 8761.034460191067, -120843.25353422805, 74616.62734945148, -83457.27872339234, 46704.72999867559, -113614.9675983152, 0.014, 0.9540000000000001, 0.026000000000000002, 192.0, 0.0, 0.0, 0.0, 0.0, 0.0, 0.0, 0.0, 0.0, 0.0, 1.6664058528697517E9, 0.0, 2022-10-21 19:30:52.869
69.0, -136424.22991087794, -164128.36779694175, 8759.626300290383, -120836.74917659155, 74627.0656141121, -83422.7899816978, 46720.979716894595, -113613.40297620333, 0.014, 0.9540000000000001, 0.026000000000000002, 192.0, 0.0, 0.0, 0.0, 0.0, 0.0, 0.0, 0.0, 0.0, 0.0, 1.6664058528697689E9, 0.0, 2022-10-21 19:30:52.869
70.0, -136418.53021604184, -164125.73029109603, 8754.999489188134, -120843.78997609497, 74623.5116867437, -83424.35460380967, 46712.70957144613, -113621.85193560744, 0.014, 0.9540000000000001, 0.026000000000000002, 192.0, 0.0, 0.0, 0.0, 0.0, 0.0, 0.0, 0.0, 0.0, 0.0, 1.6664058528697867E9, 0.0, 2022-10-21 19:30:52.869
71.0, -136427.96265220197, -164134.76039585596, 8741.074352392478, -120857.75981637953, 74612.64873893843, -83453.9930169574, 46694.8728793708, -113631.26202002312, 0.014, 0.9540000000000001, 0.026000000000000002, 192.0, 0.0, 0.0, 0.0, 0.0, 0.0, 0.0, 0.0, 0.0, 0.0, 1.6664058528698034E9, 0.0, 2022-10-21 19:30:52.869
72.0, -136434.13173367165, -164138.56019241337, 8736.604003501416, -120857.64805765725, 74611.7099656713, -83457.43518560352, 46698.24799278355, -113633.63130493538, 0.014, 0.9540000000000001, 0.026000000000000002, 192.0, 0.0, 0.0, 0.0, 0.0, 0.0, 0.0, 0.0, 0.0, 0.0, 1.66640585286982E9, 0.0, 2022-10-21 19:30:52.869
73.0, -136428.83437023574, -164132.92755281064, 8744.963555927701, -120844.46052842862, 74621.25416055371, -83435.35166208168, 46715.19061508067, -113623.9753513307, 0.014, 0.9540000000000001, 0.026000000000000002, 192.0, 0.0, 0.0, 0.0, 0.0, 0.0, 0.0, 0.0, 0.0, 0.0, 1.6664058528698366E9, 0.0, 2022-10-21 19:30:52.869
74.0, -136451.47668736897, -164156.93332635562, 8719.326105037464, -120869.89681361876, 74598.74595388722, -83438.90558945008, 46694.24703052605, -113642.88492713988, 0.014, 0.9540000000000001, 0.026000000000000002, 192.0, 0.0, 0.0, 0.0, 0.0, 0.0, 0.0, 0.0, 0.0, 0.0, 1.6664058528698533E9, 0.0, 2022-10-21 19:30:52.869
75.0, -136442.29012039784, -164145.3998262167, 8724.86933766238, -120865.4264647277, 74601.94225334433, -83456.47406059195, 46689.08377755687, -113637.87813638189, 0.01, 0.962, 0.028, 192.0, 0.0, 80.0, 30.0, 16.0, 0.0, 224.0, 0.0, 0.0, 0.0, 1.6664058528698692E9, 0.0, 2022-10-21 19:30:52.869
76.0, -136418.23964336392, -164119.20358171506, 8745.075314649977, -120832.5694003784, 74629.63606472446, -83451.55667681179, 46709.11094058883, -113613.73825237015, 0.01, 0.962, 0.028, 192.0, 0.0, 0.0, 0.0, 0.0, 0.0, 0.0, 0.0, 0.0, 0.0, 1.6664058528698866E9, 0.0, 2022-10-21 19:30:52.869
77.0, -136432.12007667066, -164136.95086681258, 8727.216270830188, -120847.54506916346, 74616.71675642929, -83453.38951985711, 46703.47830098609, -113619.88498209536, 0.01, 0.962, 0.028, 192.0, 0.0, 0.0, 0.0, 0.0, 0.0, 0.0, 0.0, 0.0, 0.0, 1.6664058528699198E9, 0.0, 2022-10-21 19:30:52.869
78.0, -136431.29306212583, -164140.37068371425, 8730.658439476305, -120847.81329009692, 74619.82364890858, -83440.4925633064, 46712.307240045935, -113610.38549070185, 0.01, 0.962, 0.028, 192.0, 0.0, 0.0, 0.0, 0.0, 0.0, 0.0, 0.0, 0.0, 0.0, 1.6664058528699367E9, 0.0, 2022-10-21 19:30:52.869
79.0, -136435.09285868323, -164142.1364715262, 8722.0083143721, -120857.78216812399, 74611.08411682655, -83449.90264772209, 46698.91854511721, -113624.0200548196, 0.01, 0.962, 0.028, 192.0, 0.0, 0.0, 0.0, 0.0, 0.0, 0.0, 0.0, 0.0, 0.0, 1.6664058528699532E9, 0.0, 2022-10-21 19:30:52.869
80.0, -136431.53893131483, -164136.8391080903, 8722.209480072199, -120852.55185992144, 74613.14047731644, -83462.57608682825, 46694.53760320397, -113626.09876705395, 0.01, 0.962, 0.028, 192.0, 0.0, 0.0, 0.0, 0.0, 0.0, 0.0, 0.0, 0.0, 0.0, 1.6664058528699696E9, 0.0, 2022-10-21 19:30:52.869
81.0, -136443.34065238724, -164146.71857913956, 8715.571011968972, -120852.50715643253, 74608.82659063657, -83455.98232221394, 46696.61631543831, -113635.82177589201, 0.01, 0.962, 0.028, 192.0, 0.0, 0.0, 0.0, 0.0, 0.0, 0.0, 0.0, 0.0, 0.0, 1.666405852869986E9, 0.0, 2022-10-21 19:30:52.869
82.0, -136438.04328895133, -164141.734140126, 8718.253221303608, -120851.27781048749, 74611.97818660477, -83444.4935255639, 46700.52787071799, -113634.99476134716, 0.01, 0.962, 0.028, 192.0, 0.0, 0.0, 0.0, 0.0, 0.0, 0.0, 0.0, 0.0, 0.0, 1.6664058528700025E9, 0.0, 2022-10-21 19:30:52.870
83.0, -136430.66721328106, -164135.83327958983, 8718.275573048064, -120846.20396449613, 74620.69536694234, -83451.48962157841, 46699.63380093978, -113624.91412459781, 0.01, 0.962, 0.028, 192.0, 0.0, 0.0, 0.0, 0.0, 0.0, 0.0, 0.0, 0.0, 0.0, 1.6664058528700187E9, 0.0, 2022-10-21 19:30:52.870
84.0, -136429.25905338037, -164132.10053826577, 8713.58170671245, -120851.38956920977, 74616.7614599182, -83470.17567994306, 46693.95645784813, -113620.51083094011, 0.01, 0.962, 0.028, 192.0, 0.0, 0.0, 0.0, 0.0, 0.0, 0.0, 0.0, 0.0, 0.0, 1.6664058528700352E9, 0.0, 2022-10-21 19:30:52.870
85.0, -136431.71774527046, -164134.38041620023, 8710.117186321877, -120852.19423201017, 74616.5602942181, -83465.14653744061, 46699.07500732839, -113626.74696764315, 0.014, 0.962, 0.026000000000000002, 192.0, 0.0, 112.0, 30.0, 16.0, 0.0, 208.0, 0.0, 0.0, 0.0, 1.666405852870052E9, 0.0, 2022-10-21 19:30:52.870
86.0, -136445.48641985495, -164147.25502100648, 8698.114299549377, -120859.9279355917, 74608.98305284776, -83463.33604613972, 46692.99533283655, -113648.7187324427, 0.014, 0.962, 0.026000000000000002, 192.0, 0.0, 0.0, 0.0, 0.0, 0.0, 0.0, 0.0, 0.0, 0.0, 1.6664058528700693E9, 0.0, 2022-10-21 19:30:52.870
87.0, -136461.02088225138, -164161.7389514135, 8680.612883640872, -120885.47597950412, 74590.11818052747, -83481.28449693734, 46668.274303468985, -113669.79642746407, 0.014, 0.962, 0.026000000000000002, 192.0, 0.0, 0.0, 0.0, 0.0, 0.0, 0.0, 0.0, 0.0, 0.0, 1.6664058528700857E9, 0.0, 2022-10-21 19:30:52.870
88.0, -136435.60694880568, -164136.8838115792, 8701.332950750942, -120862.34192399288, 74612.42522149388, -83496.2601657224, 46676.81266985091, -113646.59531671945, 0.014, 0.962, 0.026000000000000002, 192.0, 0.0, 0.0, 0.0, 0.0, 0.0, 0.0, 0.0, 0.0, 0.0, 1.666405852870103E9, 0.0, 2022-10-21 19:30:52.870
89.0, -136443.6982802985, -164146.6962273951, 8692.839287857925, -120867.19225253968, 74605.78675339064, -83492.72859009846, 46675.22569599458, -113656.00540113515, 0.014, 0.962, 0.026000000000000002, 192.0, 0.0, 0.0, 0.0, 0.0, 0.0, 0.0, 0.0, 0.0, 0.0, 1.6664058528701196E9, 0.0, 2022-10-21 19:30:52.870
90.0, -136439.76437327437, -164142.1364715262, 8696.19204952622, -120866.78992113948, 74603.81979987858, -83487.92296504056, 46682.57941992038, -113647.73525568668, 0.014, 0.962, 0.026000000000000002, 192.0, 0.0, 0.0, 0.0, 0.0, 0.0, 0.0, 0.0, 0.0, 0.0, 1.6664058528701367E9, 0.0, 2022-10-21 19:30:52.870
91.0, -136434.53406507184, -164136.9955703015, 8700.371825739363, -120864.35358099385, 74610.25710228171, -83473.86371777818, 46682.82528910939, -113649.14341558736, 0.014, 0.962, 0.026000000000000002, 192.0, 0.0, 0.0, 0.0, 0.0, 0.0, 0.0, 0.0, 0.0, 0.0, 1.6664058528701534E9, 0.0, 2022-10-21 19:30:52.870
92.0, -136426.19686439002, -164129.32892195333, 8707.479680476152, -120857.04456055697, 74615.44270699534, -83490.22519471946, 46677.86320184031, -113643.80134866254, 0.014, 0.962, 0.026000000000000002, 192.0, 0.0, 0.0, 0.0, 0.0, 0.0, 0.0, 0.0, 0.0, 0.0, 1.666405852870185E9, 0.0, 2022-10-21 19:30:52.870
93.0, -136428.54379755782, -164128.01016903046, 8711.81591890048, -120855.14466227827, 74619.24250355274, -83481.23979344843, 46686.96036183362, -113635.33003751398, 0.014, 0.962, 0.026000000000000002, 192.0, 0.0, 0.0, 0.0, 0.0, 0.0, 0.0, 0.0, 0.0, 0.0, 1.666405852870195E9, 0.0, 2022-10-21 19:30:52.870
94.0, -136425.97334694545, -164123.91979979514, 8716.53213698055, -120856.06108380093, 74619.48837274175, -83467.09113920822, 46695.94576310465, -113628.8703833664, 0.014, 0.962, 0.026000000000000002, 192.0, 0.0, 0.0, 0.0, 0.0, 0.0, 0.0, 0.0, 0.0, 0.0, 1.666405852870205E9, 0.0, 2022-10-21 19:30:52.870
95.0, -136428.87907372465, -164126.44554691858, 8713.782872412548, -120858.11744429082, 74620.3153872866, -83469.19220318702, 46693.66588517021, -113634.81594739151, 0.014, 0.9580000000000001, 0.028, 192.0, 0.0, 112.0, 29.0, 240.0, 0.0, 224.0, 0.0, 0.0, 0.0, 1.6664058528702147E9, 0.0, 2022-10-21 19:30:52.870
96.0, -136435.29402438333, -164129.41832893115, 8706.563258953483, -120864.95707809414, 74613.83338139455, -83493.0638662653, 46682.64647515374, -113642.50494748414, 0.014, 0.9580000000000001, 0.028, 192.0, 0.0, 0.0, 0.0, 0.0, 0.0, 0.0, 0.0, 0.0, 0.0, 1.6664058528702261E9, 0.0, 2022-10-21 19:30:52.870
97.0, -136427.31445161276, -164119.20358171506, 8717.537965481039, -120851.97071456561, 74620.38244251996, -83496.32722095576, 46690.62604792429, -113633.63130493538, 0.014, 0.9580000000000001, 0.028, 192.0, 0.0, 0.0, 0.0, 0.0, 0.0, 0.0, 0.0, 0.0, 0.0, 1.666405852870237E9, 0.0, 2022-10-21 19:30:52.870
98.0, -136433.28236738234, -164125.86440156275, 8718.946125381724, -120849.91435407572, 74621.83530590955, -83462.82195601726, 46707.1216353323, -113627.26105776562, 0.014, 0.9580000000000001, 0.028, 192.0, 0.0, 0.0, 0.0, 0.0, 0.0, 0.0, 0.0, 0.0, 0.0, 1.6664058528702471E9, 0.0, 2022-10-21 19:30:52.870
99.0, -136440.2561116524, -164132.21229698806, 8711.502994478107, -120862.96777283763, 74611.55350346012, -83475.54009861233, 46697.219812538606, -113637.22993579268, 0.014, 0.9580000000000001, 0.028, 192.0, 0.0, 0.0, 0.0, 0.0, 0.0, 0.0, 0.0, 0.0, 0.0, 1.666405852870257E9, 0.0, 2022-10-21 19:30:52.870
100.0, -136435.6516522946, -164126.08791900732, 8717.739131181137, -120861.4255024702, 74623.22111406579, -83482.89382253813, 46700.95255386264, -113633.43013923528, 0.014, 0.9580000000000001, 0.028, 192.0, 0.0, 0.0, 0.0, 0.0, 0.0, 0.0, 0.0, 0.0, 0.0, 1.6664058528702664E9, 0.0, 2022-10-21 19:30:52.870
101.0, -136429.05788768028, -164117.59425611427, 8725.696352207226, -120849.48967093107, 74631.0665763696, -83483.09498823823, 46710.697914445154, -113620.64494140685, 0.014, 0.9580000000000001, 0.028, 192.0, 0.0, 0.0, 0.0, 0.0, 0.0, 0.0, 0.0, 0.0, 0.0, 1.6664058528702765E9, 0.0, 2022-10-21 19:30:52.870
102.0, -136422.37471608815, -164110.4416978886, 8732.267765077087, -120837.44208066966, 74638.12972761747, -83474.6013253452, 46721.20323433915, -113613.1124035254, 0.014, 0.9580000000000001, 0.028, 192.0, 0.0, 0.0, 0.0, 0.0, 0.0, 0.0, 0.0, 0.0, 0.0, 1.666405852870286E9, 0.0, 2022-10-21 19:30:52.870
103.0, -136430.60015804772, -164116.83429680282, 8723.371770783875, -120843.38764469477, 74633.21234383731, -83457.5022408369, 46719.07981861589, -113622.9695228302, 0.014, 0.9580000000000001, 0.028, 192.0, 0.0, 0.0, 0.0, 0.0, 0.0, 0.0, 0.0, 0.0, 0.0, 1.6664058528702955E9, 0.0, 2022-10-21 19:30:52.870
104.0, -136439.69731804103, -164128.05487251937, 8707.81495664298, -120860.30791524744, 74619.62248320848, -83491.52159589787, 46691.49776595805, -113637.00641834813, 0.006, 0.962, 0.024, 192.0, 0.0, 48.0, 30.0, 16.0, 0.0, 192.0, 0.0, 0.0, 0.0, 1.6664058528703053E9, 0.0, 2022-10-21 19:30:52.870
105.0, -136444.23472216545, -164133.26282897746, 8704.395139741318, -120862.0289995705, 74619.01898610819, -83506.74313387193, 46683.294675742945, -113639.8227381495, 0.006, 0.962, 0.024, 192.0, 0.0, 0.0, 0.0, 0.0, 0.0, 0.0, 0.0, 0.0, 0.0, 1.6664058528703156E9, 0.0, 2022-10-21 19:30:52.870
106.0, -136440.12200118566, -164128.94894229757, 8713.358189267898, -120848.70735987513, 74626.03743386715, -83490.62752611966, 46695.76694914901, -113630.569115945, 0.006, 0.962, 0.024, 192.0, 0.0, 0.0, 0.0, 0.0, 0.0, 0.0, 0.0, 0.0, 0.0, 1.6664058528703256E9, 0.0, 2022-10-21 19:30:52.870
107.0, -136437.35038487322, -164125.37266318474, 8716.308619535997, -120843.43234818368, 74632.7206054593, -83459.93858098252, 46705.8252341539, -113629.04919732205, 0.006, 0.962, 0.024, 192.0, 0.0, 0.0, 0.0, 0.0, 0.0, 0.0, 0.0, 0.0, 0.0, 1.6664058528703475E9, 0.0, 2022-10-21 19:30:52.870
108.0, -136445.70993729949, -164132.01113128796, 8702.182317040244, -120863.30304900445, 74617.18614306285, -83480.83746204824, 46686.647437411244, -113639.12983407138, 0.006, 0.962, 0.024, 192.0, 0.0, 0.0, 0.0, 0.0, 0.0, 0.0, 0.0, 0.0, 0.0, 1.6664058528703573E9, 0.0, 2022-10-21 19:30:52.870
109.0, -136439.56320757428, -164131.56409639886, 8705.468023475174, -120851.74719712106, 74626.618579223, -83501.35636345821, 46686.53567868897, -113640.20271780524, 0.006, 0.962, 0.024, 192.0, 0.0, 0.0, 0.0, 0.0, 0.0, 0.0, 0.0, 0.0, 0.0, 1.666405852870367E9, 0.0, 2022-10-21 19:30:52.870
110.0, -136439.0044139629, -164129.35127369777, 8709.066654332479, -120842.024188283, 74635.89455317195, -83488.72762784096, 46700.17024280671, -113633.49719446865, 0.006, 0.962, 0.024, 192.0, 0.0, 0.0, 0.0, 0.0, 0.0, 0.0, 0.0, 0.0, 0.0, 1.666405852870377E9, 0.0, 2022-10-21 19:30:52.870
111.0, -136449.17445769007, -164136.57088715685, 8701.109433306388, -120857.02220881252, 74623.98107337726, -83480.23396494794, 46696.795129393955, -113640.64975269434, 0.006, 0.962, 0.024, 192.0, 0.0, 0.0, 0.0, 0.0, 0.0, 0.0, 0.0, 0.0, 0.0, 1.6664058528703873E9, 0.0, 2022-10-21 19:30:52.870
112.0, -136444.56999833227, -164133.93338131113, 8700.371825739363, -120858.40801696874, 74620.91888438689, -83501.82575009177, 46686.803899622435, -113644.40484576284, 0.006, 0.962, 0.024, 192.0, 0.0, 0.0, 0.0, 0.0, 0.0, 0.0, 0.0, 0.0, 0.0, 1.6664058528703969E9, 0.0, 2022-10-21 19:30:52.870
113.0, -136438.73619302944, -164129.53008765343, 8703.121090307366, -120853.51298493303, 74627.15502108991, -83523.79751489134, 46686.22275426659, -113637.16288055932, 0.006, 0.962, 0.024, 192.0, 0.0, 0.0, 0.0, 0.0, 0.0, 0.0, 0.0, 0.0, 0.0, 1.6664058528704112E9, 0.0, 2022-10-21 19:30:52.870
114.0, -136444.41353612108, -164134.35806445577, 8702.115261806877, -120854.11648203332, 74627.11031760101, -83517.67313691058, 46693.06238806992, -113642.5720027175, 0.012, 0.9580000000000001, 0.022, 192.0, 0.0, 96.0, 29.0, 240.0, 0.0, 176.0, 0.0, 0.0, 0.0, 1.666405852870422E9, 0.0, 2022-10-21 19:30:52.870
115.0, -136444.63705356565, -164135.1403755117, 8702.338779251431, -120857.78216812399, 74622.08117509856, -83500.32818321326, 46698.22564103909, -113645.61183996343, 0.012, 0.9580000000000001, 0.022, 192.0, 0.0, 0.0, 0.0, 0.0, 0.0, 0.0, 0.0, 0.0, 0.0, 1.6664058528704324E9, 0.0, 2022-10-21 19:30:52.870
116.0, -136456.08114672676, -164146.87504135075, 8686.24552324361, -120872.62372644231, 74609.87712262597, -83511.05702055182, 46678.4666989406, -113657.83824418047, 0.012, 0.9580000000000001, 0.022, 192.0, 0.0, 0.0, 0.0, 0.0, 0.0, 0.0, 0.0, 0.0, 0.0, 1.666405852870442E9, 0.0, 2022-10-21 19:30:52.870
117.0, -136442.06660295327, -164134.22395398904, 8697.935485593734, -120862.40897922624, 74619.9577593753, -83523.8198666358, 46678.15377451823, -113648.85284290944, 0.012, 0.9580000000000001, 0.022, 192.0, 0.0, 0.0, 0.0, 0.0, 0.0, 0.0, 0.0, 0.0, 0.0, 1.666405852870453E9, 0.0, 2022-10-21 19:30:52.870
118.0, -136435.74105927243, -164129.06070101986, 8703.657532174293, -120854.20588901114, 74627.62440772349, -83537.83441040927, 46685.596905421844, -113645.3212672855, 0.012, 0.9580000000000001, 0.022, 192.0, 0.0, 0.0, 0.0, 0.0, 0.0, 0.0, 0.0, 0.0, 0.0, 1.666405852870463E9, 0.0, 2022-10-21 19:30:52.870
119.0, -136433.79645750482, -164127.42902367463, 8706.764424653582, -120847.74623486356, 74630.03839612466, -83509.9617850735, 46701.08666432937, -113639.04042709357, 0.012, 0.9580000000000001, 0.022, 192.0, 0.0, 0.0, 0.0, 0.0, 0.0, 0.0, 0.0, 0.0, 0.0, 1.6664058528704724E9, 0.0, 2022-10-21 19:30:52.870
120.0, -136430.44369583653, -164123.85274456177, 8703.210497285187, -120856.99985706805, 74629.54665774664, -83500.21642449098, 46697.64449568326, -113633.16191830182, 0.012, 0.9580000000000001, 0.022, 192.0, 0.0, 0.0, 0.0, 0.0, 0.0, 0.0, 0.0, 0.0, 0.0, 1.6664058528704832E9, 0.0, 2022-10-21 19:30:52.870
121.0, -136436.18809416154, -164128.32309345284, 8695.186221025733, -120868.04161882898, 74622.03647160965, -83517.38256423266, 46680.34424547485, -113646.1259300859, 0.012, 0.9580000000000001, 0.022, 192.0, 0.0, 0.0, 0.0, 0.0, 0.0, 0.0, 0.0, 0.0, 0.0, 1.6664058533476646E9, 0.0, 2022-10-21 19:30:53.347
122.0, -136438.4009168626, -164129.32892195333, 8713.313485778986, -120854.54116517797, 74637.30271307263, -83526.2115032925, 46694.00116133704, -113629.0715490665, 0.012, 0.9580000000000001, 0.022, 192.0, 0.0, 0.0, 0.0, 0.0, 0.0, 0.0, 0.0, 0.0, 0.0, 1.666405853347766E9, 0.0, 2022-10-21 19:30:53.347
123.0, -136432.90238772662, -164123.58452362832, 8720.398988771318, -120849.78024360898, 74637.25800958372, -83519.17070378909, 46702.83010039689, -113632.33490375697, 0.012, 0.9580000000000001, 0.022, 192.0, 0.0, 0.0, 0.0, 0.0, 0.0, 0.0, 0.0, 0.0, 0.0, 1.6664058533479471E9, 0.0, 2022-10-21 19:30:53.347
124.0, -136428.34263185773, -164116.67783459162, 8711.39123575583, -120855.54699367846, 74629.85958216901, -83509.80532286232, 46699.27617302849, -113640.44858699424, 0.012, 0.9580000000000001, 0.024, 192.0, 0.0, 96.0, 29.0, 240.0, 0.0, 192.0, 0.0, 0.0, 0.0, 1.666405853347969E9, 0.0, 2022-10-21 19:30:53.347
125.0, -136424.22991087794, -164113.1909624566, 8711.257125289098, -120851.34486572086, 74633.01117813721, -83520.0647735673, 46692.48124271408, -113638.19106080427, 0.012, 0.9580000000000001, 0.024, 192.0, 0.0, 0.0, 0.0, 0.0, 0.0, 0.0, 0.0, 0.0, 0.0, 1.6664058533479905E9, 0.0, 2022-10-21 19:30:53.347
126.0, -136433.19296040453, -164120.83525906032, 8701.176488539755, -120862.14075829278, 74622.97524487678, -83547.73623320297, 46678.44434719615, -113644.74012192967, 0.012, 0.9580000000000001, 0.024, 192.0, 0.0, 0.0, 0.0, 0.0, 0.0, 0.0, 0.0, 0.0, 0.0, 1.6664058533480108E9, 0.0, 2022-10-21 19:30:53.348
127.0, -136427.49326556842, -164115.24732294647, 8708.418453743274, -120857.24572625707, 74626.864448412, -83531.50886672841, 46691.43071072468, -113629.0715490665, 0.012, 0.9580000000000001, 0.024, 192.0, 0.0, 0.0, 0.0, 0.0, 0.0, 0.0, 0.0, 0.0, 0.0, 1.6664058533480277E9, 0.0, 2022-10-21 19:30:53.348
128.0, -136418.77608523084, -164104.76435479693, 8718.879070148358, -120837.6208946253, 74647.04807365514, -83521.78585789035, 46706.04875159845, -113610.78782210205, 0.012, 0.9580000000000001, 0.024, 192.0, 0.0, 0.0, 0.0, 0.0, 0.0, 0.0, 0.0, 0.0, 0.0, 1.6664058533480372E9, 0.0, 2022-10-21 19:30:53.348
129.0, -136425.63807077863, -164110.2405321885, 8715.079273590956, -120839.81136558192, 74650.19966962334, -83518.34368924424, 46705.2217370536, -113615.30287448203, 0.012, 0.9580000000000001, 0.024, 192.0, 0.0, 0.0, 0.0, 0.0, 0.0, 0.0, 0.0, 0.0, 0.0, 1.6664058533480487E9, 0.0, 2022-10-21 19:30:53.348
130.0, -136431.40482084808, -164116.07433749133, 8709.446633988218, -120851.05429304294, 74639.20261135133, -83540.65073021063, 46691.29660025795, -113632.82664213498, 0.012, 0.9580000000000001, 0.024, 192.0, 0.0, 0.0, 0.0, 0.0, 0.0, 0.0, 0.0, 0.0, 0.0, 1.6664058533480585E9, 0.0, 2022-10-21 19:30:53.348
131.0, -136438.4009168626, -164122.95867478356, 8701.847040873414, -120853.6247436553, 74630.23956182475, -83544.3164163013, 46687.40739672272, -113640.89562188335, 0.012, 0.9580000000000001, 0.024, 192.0, 0.0, 0.0, 0.0, 0.0, 0.0, 0.0, 0.0, 0.0, 0.0, 1.666405853348068E9, 0.0, 2022-10-21 19:30:53.348
132.0, -136432.70122202652, -164116.40961365815, 8710.29600027752, -120840.28075221548, 74640.70017822983, -83525.18332304756, 46703.075969585894, -113629.87621186688, 0.012, 0.9580000000000001, 0.024, 192.0, 0.0, 0.0, 0.0, 0.0, 0.0, 0.0, 0.0, 0.0, 0.0, 1.6664058533480785E9, 0.0, 2022-10-21 19:30:53.348
133.0, -136446.08991695524, -164129.50773590896, 8697.644912915815, -120859.95028733615, 74631.93829440336, -83532.80526790682, 46692.81651888091, -113640.22506954969, 0.012, 0.964, 0.022, 192.0, 0.0, 96.0, 30.0, 32.0, 0.0, 176.0, 0.0, 0.0, 0.0, 1.666405853348088E9, 0.0, 2022-10-21 19:30:53.348
134.0, -136452.37075714718, -164136.45912843457, 8689.330063978441, -120864.91237460524, 74625.90332340042, -83540.98600637747, 46683.920524587695, -113646.90824114183, 0.012, 0.964, 0.022, 192.0, 0.0, 0.0, 0.0, 0.0, 0.0, 0.0, 0.0, 0.0, 0.0, 1.6664058533481038E9, 0.0, 2022-10-21 19:30:53.348
135.0, -136450.78378329086, -164135.7885761009, 8689.978264567646, -120859.1232727913, 74620.9635878758, -83556.9228001741, 46685.06046355492, -113639.15218581584, 0.012, 0.964, 0.022, 192.0, 0.0, 0.0, 0.0, 0.0, 0.0, 0.0, 0.0, 0.0, 0.0, 1.6664058533481145E9, 0.0, 2022-10-21 19:30:53.348
136.0, -136451.07435596877, -164135.7885761009, 8689.330063978441, -120854.04942679995, 74624.80808792211, -83557.68275948559, 46689.463757212616, -113636.73819741467, 0.012, 0.964, 0.022, 192.0, 0.0, 0.0, 0.0, 0.0, 0.0, 0.0, 0.0, 0.0, 0.0, 1.6664058533481238E9, 0.0, 2022-10-21 19:30:53.348
137.0, -136457.6457688386, -164144.25988724947, 8684.01034879808, -120861.6713716592, 74623.01994836569, -83563.8741926997, 46685.70866414412, -113635.57590670299, 0.012, 0.964, 0.022, 192.0, 0.0, 0.0, 0.0, 0.0, 0.0, 0.0, 0.0, 0.0, 0.0, 1.6664058533481333E9, 0.0, 2022-10-21 19:30:53.348
138.0, -136431.24835863692, -164117.50484913646, 8707.412625242785, -120839.20786848162, 74649.30559984513, -83573.91012596013, 46703.12067307481, -113606.63039763337, 0.012, 0.964, 0.022, 192.0, 0.0, 0.0, 0.0, 0.0, 0.0, 0.0, 0.0, 0.0, 0.0, 1.6664058533481543E9, 0.0, 2022-10-21 19:30:53.348
139.0, -136438.44562035153, -164124.54564863988, 8704.216325785676, -120833.68698760116, 74649.75263473424, -83553.3688728057, 46708.70860918863, -113612.62066514739, 0.012, 0.964, 0.022, 192.0, 0.0, 0.0, 0.0, 0.0, 0.0, 0.0, 0.0, 0.0, 0.0, 1.666405853348164E9, 0.0, 2022-10-21 19:30:53.348
140.0, -136440.32316688576, -164128.72542485304, 8702.517593207072, -120835.89981030225, 74639.80610845162, -83549.25615182593, 46702.740693419066, -113630.34559850045, 0.012, 0.964, 0.022, 192.0, 0.0, 0.0, 0.0, 0.0, 0.0, 0.0, 0.0, 0.0, 0.0, 1.6664058533481731E9, 0.0, 2022-10-21 19:30:53.348
141.0, -136449.37562339017, -164136.54853541238, 8689.687691889727, -120852.17188026571, 74632.27357057018, -83555.04525363985, 46692.19067003616, -113640.38153176088, 0.012, 0.964, 0.022, 192.0, 0.0, 0.0, 0.0, 0.0, 0.0, 0.0, 0.0, 0.0, 0.0, 1.666405853348183E9, 0.0, 2022-10-21 19:30:53.348
142.0, -136457.3104926718, -164145.4892331945, 8677.885970817324, -120865.06883681641, 74622.48350649876, -83580.48153882999, 46675.22569599458, -113643.95781087373, 0.012, 0.964, 0.022, 192.0, 0.0, 0.0, 0.0, 0.0, 0.0, 0.0, 0.0, 0.0, 0.0, 1.6664058533481922E9, 0.0, 2022-10-21 19:30:53.348
143.0, -136436.21044590598, -164123.91979979514, 8697.086119304433, -120839.56549639291, 74638.93439041787, -83584.81777725433, 46689.95549559063, -113622.29897049654, 0.008, 0.962, 0.022, 192.0, 0.0, 64.0, 30.0, 16.0, 0.0, 176.0, 0.0, 0.0, 0.0, 1.6664058533482015E9, 0.0, 2022-10-21 19:30:53.348
144.0, -136437.64095755114, -164128.05487251937, 8699.924790850257, -120836.48095565809, 74643.96353292032, -83564.43298631108, 46701.53369921848, -113619.50500243963, 0.008, 0.962, 0.022, 192.0, 0.0, 0.0, 0.0, 0.0, 0.0, 0.0, 0.0, 0.0, 0.0, 1.6664058533482115E9, 0.0, 2022-10-21 19:30:53.348
145.0, -136435.76341101687, -164124.14331723968, 8695.990883826124, -120837.91146730322, 74639.11320437351, -83572.94900094856, 46693.8223473814, -113625.96465658721, 0.008, 0.962, 0.022, 192.0, 0.0, 0.0, 0.0, 0.0, 0.0, 0.0, 0.0, 0.0, 0.0, 1.6664058533482213E9, 0.0, 2022-10-21 19:30:53.348
146.0, -136441.88778899764, -164128.88188706423, 8686.424337199252, -120855.36817972282, 74629.01021587971, -83589.26577440093, 46681.93121933118, -113644.69541844075, 0.008, 0.962, 0.022, 192.0, 0.0, 0.0, 0.0, 0.0, 0.0, 0.0, 0.0, 0.0, 0.0, 1.6664058533482304E9, 0.0, 2022-10-21 19:30:53.348
147.0, -136456.84110603822, -164143.56698317136, 8673.952063793191, -120870.36620025232, 74614.70509942832, -83593.31144014734, 46672.09645177084, -113658.70996221424, 0.008, 0.962, 0.022, 192.0, 0.0, 0.0, 0.0, 0.0, 0.0, 0.0, 0.0, 0.0, 0.0, 1.66640585334824E9, 0.0, 2022-10-21 19:30:53.348
148.0, -136474.5660393913, -164162.40950374719, 8660.004575253079, -120887.50998824954, 74593.24742475121, -83600.03931522838, 46660.18297197616, -113672.21041586524, 0.008, 0.962, 0.022, 192.0, 0.0, 0.0, 0.0, 0.0, 0.0, 0.0, 0.0, 0.0, 0.0, 1.6664058533482492E9, 0.0, 2022-10-21 19:30:53.348
149.0, -136451.4990391134, -164141.01888430346, 8686.513744177073, -120863.79478738246, 74617.96845411879, -83581.80029175285, 46683.942876332156, -113643.89075564037, 0.008, 0.962, 0.022, 192.0, 0.0, 0.0, 0.0, 0.0, 0.0, 0.0, 0.0, 0.0, 0.0, 1.6664058533482585E9, 0.0, 2022-10-21 19:30:53.348
150.0, -136448.57096058977, -164138.739006369, 8688.681863389238, -120863.7277321491, 74622.95289313231, -83606.27545193142, 46675.829193094876, -113640.60504920543, 0.008, 0.962, 0.022, 192.0, 0.0, 0.0, 0.0, 0.0, 0.0, 0.0, 0.0, 0.0, 0.0, 1.6664058533482678E9, 0.0, 2022-10-21 19:30:53.348
151.0, -136442.96067273148, -164132.05583477687, 8696.348511737408, -120852.28363898798, 74632.67590197037, -83621.92167305014, 46680.03132105248, -113631.59729618995, 0.008, 0.962, 0.022, 192.0, 0.0, 0.0, 0.0, 0.0, 0.0, 0.0, 0.0, 0.0, 0.0, 1.666405853348277E9, 0.0, 2022-10-21 19:30:53.348
152.0, -136449.5991408347, -164140.61655290326, 8691.207610512687, -120852.28363898798, 74628.58553273506, -83594.94311749257, 46687.630914167275, -113641.5214707281, 0.008, 0.962, 0.022, 192.0, 0.0, 0.0, 0.0, 0.0, 0.0, 0.0, 0.0, 0.0, 0.0, 1.6664058533482866E9, 0.0, 2022-10-21 19:30:53.348
153.0, -136445.48641985495, -164137.06262553486, 8692.772232624558, -120849.31085697543, 74626.4621170118, -83579.54276556287, 46688.5696874344, -113644.44954925175, -0.002, 0.9580000000000001, 0.026000000000000002, 192.0, 255.0, 240.0, 29.0, 240.0, 0.0, 208.0, 0.0, 0.0, 0.0, 1.6664058533483057E9, 0.0, 2022-10-21 19:30:53.348
154.0, -136441.17253317506, -164132.61462838826, 8694.023930314057, -120848.10386277483, 74634.6652072269, -83586.1812336661, 46684.30050424344, -113635.19592704726, -0.002, 0.9580000000000001, 0.026000000000000002, 192.0, 0.0, 0.0, 0.0, 0.0, 0.0, 0.0, 0.0, 0.0, 0.0, 1.6664058533483176E9, 0.0, 2022-10-21 19:30:53.348
155.0, -136438.84795175173, -164133.59810514428, 8693.62159891386, -120848.14856626376, 74634.68755897136, -83597.69238206057, 46678.73491987406, -113642.66140969533, -0.002, 0.9580000000000001, 0.026000000000000002, 192.0, 0.0, 0.0, 0.0, 0.0, 0.0, 0.0, 0.0, 0.0, 0.0, 1.666405853348327E9, 0.0, 2022-10-21 19:30:53.348
156.0, -136441.68662329754, -164135.76622435646, 8692.124032035355, -120849.75789186453, 74634.84402118255, -83594.67489655911, 46680.85833559732, -113648.53991848708, -0.002, 0.9580000000000001, 0.026000000000000002, 192.0, 0.0, 0.0, 0.0, 0.0, 0.0, 0.0, 0.0, 0.0, 0.0, 1.6664058533483377E9, 0.0, 2022-10-21 19:30:53.348
157.0, -136441.44075410854, -164132.23464873253, 8698.606037927395, -120846.24866798506, 74641.79541370814, -83583.78959700938, 46690.40253047974, -113641.49911898364, -0.002, 0.9580000000000001, 0.026000000000000002, 192.0, 0.0, 0.0, 0.0, 0.0, 0.0, 0.0, 0.0, 0.0, 0.0, 1.6664058533483474E9, 0.0, 2022-10-21 19:30:53.348
158.0, -136441.12782968616, -164129.91006730916, 8700.1036048059, -120850.51785117602, 74645.4163963099, -83589.06460870084, 46688.256763012025, -113640.51564222762, -0.002, 0.9580000000000001, 0.026000000000000002, 192.0, 0.0, 0.0, 0.0, 0.0, 0.0, 0.0, 0.0, 0.0, 0.0, 1.666405853348357E9, 0.0, 2022-10-21 19:30:53.348
159.0, -136444.41353612108, -164131.47468942104, 8697.24258151562, -120853.11065353283, 74641.77306196369, -83598.13941694969, 46681.32772223088, -113642.99668586215, -0.002, 0.9580000000000001, 0.026000000000000002, 192.0, 0.0, 0.0, 0.0, 0.0, 0.0, 0.0, 0.0, 0.0, 0.0, 1.6664058533483665E9, 0.0, 2022-10-21 19:30:53.348
160.0, -136462.58550436326, -164148.93140184061, 8681.775174352548, -120868.55570895145, 74623.0646518546, -83595.2336901705, 46674.08575702736, -113647.6234969644, -0.002, 0.9580000000000001, 0.026000000000000002, 192.0, 0.0, 0.0, 0.0, 0.0, 0.0, 0.0, 0.0, 0.0, 0.0, 1.666405853348376E9, 0.0, 2022-10-21 19:30:53.348
161.0, -136489.0723215428, -164173.2053963191, 8658.529360119028, -120894.50608426405, 74594.09679104052, -83600.57575709531, 46653.14217247274, -113674.40088682187, -0.002, 0.9580000000000001, 0.026000000000000002, 192.0, 0.0, 0.0, 0.0, 0.0, 0.0, 0.0, 0.0, 0.0, 0.0, 1.6664058533483856E9, 0.0, 2022-10-21 19:30:53.348
162.0, -136451.4543356245, -164135.25213423398, 8698.069596060466, -120858.49742394655, 74627.9149804014, -83591.16567267964, 46675.49391692805, -113644.2260318072, -0.002, 0.9580000000000001, 0.026000000000000002, 192.0, 0.0, 0.0, 0.0, 0.0, 0.0, 0.0, 0.0, 0.0, 0.0, 1.6664058533483949E9, 0.0, 2022-10-21 19:30:53.348
163.0, -136445.70993729949, -164131.11706150975, 8702.517593207072, -120847.32155171891, 74641.72835847478, -83598.07236171632, 46678.064367540406, -113629.96561884471, 0.004, 0.9560000000000001, 0.028, 192.0, 0.0, 32.0, 29.0, 224.0, 0.0, 224.0, 0.0, 0.0, 0.0, 1.6664058533484044E9, 0.0, 2022-10-21 19:30:53.348
164.0, -136452.5495711028, -164137.0849772793, 8698.628389671849, -120847.76858660801, 74638.59911425103, -83588.86344300074, 46677.90790532922, -113628.15512754383, 0.004, 0.9560000000000001, 0.028, 192.0, 0.0, 0.0, 0.0, 0.0, 0.0, 0.0, 0.0, 0.0, 0.0, 1.666405853348415E9, 0.0, 2022-10-21 19:30:53.348
165.0, -136461.4679171405, -164145.1986605166, 8691.565238423973, -120861.76077863704, 74620.13657333095, -83579.45335858504, 46671.29178897045, -113647.46703475321, 0.004, 0.9560000000000001, 0.028, 192.0, 0.0, 0.0, 0.0, 0.0, 0.0, 0.0, 0.0, 0.0, 0.0, 1.6664058533484251E9, 0.0, 2022-10-21 19:30:53.348
166.0, -136468.3522544327, -164153.8040821319, 8681.52930516354, -120874.4342177432, 74613.67691918337, -83584.86248074324, 46664.630969122765, -113668.58943326348, 0.004, 0.9560000000000001, 0.028, 192.0, 0.0, 0.0, 0.0, 0.0, 0.0, 0.0, 0.0, 0.0, 0.0, 1.6664058533484347E9, 0.0, 2022-10-21 19:30:53.348
167.0, -136463.97131251948, -164150.56307918587, 8687.318406977463, -120874.4789212321, 74618.75076517473, -83597.24534717147, 46661.32291094338, -113667.1812733628, 0.004, 0.9560000000000001, 0.028, 192.0, 0.0, 0.0, 0.0, 0.0, 0.0, 0.0, 0.0, 0.0, 0.0, 1.6664058533484445E9, 0.0, 2022-10-21 19:30:53.348
168.0, -136459.59037060622, -164144.9304395831, 8697.287285004531, -120863.75008389355, 74627.55735249011, -83608.95766126606, 46664.02747202248, -113656.40773253534, 0.004, 0.9560000000000001, 0.028, 192.0, 0.0, 0.0, 0.0, 0.0, 0.0, 0.0, 0.0, 0.0, 0.0, 1.6664058533484623E9, 0.0, 2022-10-21 19:30:53.348
169.0, -136461.5126206294, -164146.00332331698, 8699.701273405704, -120866.45464497265, 74624.115183844, -83602.29684141837, 46673.12463201578, -113653.16672958931, 0.004, 0.9560000000000001, 0.028, 192.0, 0.0, 0.0, 0.0, 0.0, 0.0, 0.0, 0.0, 0.0, 0.0, 1.666405853348472E9, 0.0, 2022-10-21 19:30:53.348
170.0, -136455.92468451557, -164139.05193079138, 8702.338779251431, -120869.00274384055, 74624.40575652191, -83599.05583847236, 46676.43269019517, -113644.80717716303, 0.004, 0.9560000000000001, 0.028, 192.0, 0.0, 0.0, 0.0, 0.0, 0.0, 0.0, 0.0, 0.0, 0.0, 1.6664058533484814E9, 0.0, 2022-10-21 19:30:53.348
171.0, -136454.91885601508, -164142.06941629286, 8700.908267606292, -120871.46143573064, 74621.65649195391, -83624.69328936259, 46667.40258543522, -113646.86353765293, 0.004, 0.9560000000000001, 0.028, 192.0, 0.0, 0.0, 0.0, 0.0, 0.0, 0.0, 0.0, 0.0, 0.0, 1.6664058533484907E9, 0.0, 2022-10-21 19:30:53.348
172.0, -136471.9732370345, -164160.7554746575, 8683.585665653429, -120882.83847365838, 74606.07732606857, -83647.53677219592, 46648.15773345921, -113675.36201183344, 0.008, 0.962, 0.03, 192.0, 0.0, 64.0, 30.0, 16.0, 0.0, 240.0, 0.0, 0.0, 0.0, 1.6664058533485005E9, 0.0, 2022-10-21 19:30:53.348
173.0, -136459.92564677307, -164146.85268960628, 8699.678921661249, -120866.52170020601, 74618.79546866364, -83623.39688818419, 46668.251951724524, -113656.0277528796, 0.008, 0.962, 0.03, 192.0, 0.0, 0.0, 0.0, 0.0, 0.0, 0.0, 0.0, 0.0, 0.0, 1.6664058533485105E9, 0.0, 2022-10-21 19:30:53.348
174.0, -136451.6107978357, -164139.07428253585, 8714.095796834921, -120864.30887750494, 74625.4115850224, -83602.76622805193, 46686.62508566679, -113637.78872940407, 0.008, 0.962, 0.03, 192.0, 0.0, 0.0, 0.0, 0.0, 0.0, 0.0, 0.0, 0.0, 0.0, 1.66640585334852E9, 0.0, 2022-10-21 19:30:53.348
175.0, -136446.6040070777, -164132.14524175468, 8720.130767837854, -120861.98429608159, 74632.87706767047, -83624.15684749566, 46683.27232399849, -113635.50885146963, 0.008, 0.962, 0.03, 192.0, 0.0, 0.0, 0.0, 0.0, 0.0, 0.0, 0.0, 0.0, 0.0, 1.6664058533485293E9, 0.0, 2022-10-21 19:30:53.348
176.0, -136483.19381275104, -164170.52318698444, 8681.663415630272, -120902.79858145698, 74598.96947133177, -83653.05765307638, 46643.95560550161, -113676.05491591155, 0.008, 0.962, 0.03, 192.0, 0.0, 0.0, 0.0, 0.0, 0.0, 0.0, 0.0, 0.0, 0.0, 1.6664058533485389E9, 0.0, 2022-10-21 19:30:53.348
177.0, -136474.87896381368, -164162.744779914, 8690.984093068135, -120893.58966274139, 74602.61280567799, -83627.33079520831, 46656.383175418756, -113662.1297791159, 0.008, 0.962, 0.03, 192.0, 0.0, 0.0, 0.0, 0.0, 0.0, 0.0, 0.0, 0.0, 0.0, 1.6664058533485525E9, 0.0, 2022-10-21 19:30:53.348
178.0, -136455.6117600932, -164141.71178838157, 8715.481604991151, -120864.9794298386, 74630.77600369167, -83604.62142284172, 46681.01479780851, -113643.2202033067, 0.008, 0.962, 0.03, 192.0, 0.0, 0.0, 0.0, 0.0, 0.0, 0.0, 0.0, 0.0, 0.0, 1.666405853348562E9, 0.0, 2022-10-21 19:30:53.348
179.0, -136450.47085886847, -164134.91685806715, 8716.755654425104, -120864.46533971613, 74632.5641432481, -83612.44453340108, 46679.29371348545, -113639.33099977148, 0.008, 0.962, 0.03, 192.0, 0.0, 0.0, 0.0, 0.0, 0.0, 0.0, 0.0, 0.0, 0.0, 1.6664058533485715E9, 0.0, 2022-10-21 19:30:53.348
180.0, -136448.03451872285, -164130.82648883184, 8715.146328824321, -120863.39245598228, 74632.7206054593, -83628.24721673099, 46673.459908182616, -113635.91118286982, 0.008, 0.962, 0.03, 192.0, 0.0, 0.0, 0.0, 0.0, 0.0, 0.0, 0.0, 0.0, 0.0, 1.6664058533485813E9, 0.0, 2022-10-21 19:30:53.348
181.0, -136454.27065542588, -164140.16951801415, 8709.983075855145, -120866.70051416165, 74627.8702769125, -83607.75066706547, 46675.695082628146, -113644.44954925175, 0.008, 0.962, 0.03, 192.0, 0.0, 0.0, 0.0, 0.0, 0.0, 0.0, 0.0, 0.0, 0.0, 1.6664058533485909E9, 0.0, 2022-10-21 19:30:53.348
182.0, -136453.86832402568, -164138.8954685802, 8712.888802634336, -120870.99204909707, 74626.59622747854, -83612.77980956792, 46675.0692337834, -113640.78386316108, 0.008, 0.964, 0.02, 192.0, 0.0, 64.0, 30.0, 32.0, 0.0, 160.0, 0.0, 0.0, 0.0, 1.6664058533486004E9, 0.0, 2022-10-21 19:30:53.348
183.0, -136455.36589090418, -164141.66708489266, 8708.552564210006, -120880.17861606821, 74623.39992802143, -83631.01883304345, 46664.09452725584, -113648.83049116499, 0.008, 0.964, 0.02, 192.0, 0.0, 0.0, 0.0, 0.0, 0.0, 0.0, 0.0, 0.0, 0.0, 1.6664058533486187E9, 0.0, 2022-10-21 19:30:53.348
184.0, -136450.11323095718, -164135.05096853388, 8713.939334623736, -120874.4342177432, 74629.54665774664, -83640.71949013704, 46662.462849910604, -113644.33779052948, 0.008, 0.964, 0.02, 192.0, 0.0, 0.0, 0.0, 0.0, 0.0, 0.0, 0.0, 0.0, 0.0, 1.6664058533486283E9, 0.0, 2022-10-21 19:30:53.348
185.0, -136450.78378329086, -164133.66516037766, 8718.0073521146, -120864.9794298386, 74635.55927700512, -83627.46490567505, 46672.65524538222, -113642.05791259503, 0.008, 0.964, 0.02, 192.0, 0.0, 0.0, 0.0, 0.0, 0.0, 0.0, 0.0, 0.0, 0.0, 1.6664058533486385E9, 0.0, 2022-10-21 19:30:53.348
186.0, -136466.58646662073, -164149.4454919631, 8704.52925020805, -120884.40309577026, 74619.9130558864, -83617.1831032256, 46672.83405933787, -113653.4796540117, 0.008, 0.964, 0.02, 192.0, 0.0, 0.0, 0.0, 0.0, 0.0, 0.0, 0.0, 0.0, 0.0, 1.6664058533486485E9, 0.0, 2022-10-21 19:30:53.348
187.0, -136453.13071645866, -164135.69916912308, 8713.514651479085, -120878.16695906722, 74627.37853853447, -83613.5844723683, 46677.12559427328, -113640.49329048317, 0.008, 0.964, 0.02, 192.0, 0.0, 0.0, 0.0, 0.0, 0.0, 0.0, 0.0, 0.0, 0.0, 1.6664058533486583E9, 0.0, 2022-10-21 19:30:53.348
188.0, -136441.32899538625, -164122.60104687227, 8719.929602137758, -120865.89585136126, 74638.35324506203, -83637.07615579083, 46674.53279191647, -113622.67895015229, 0.008, 0.964, 0.02, 192.0, 0.0, 0.0, 0.0, 0.0, 0.0, 0.0, 0.0, 0.0, 0.0, 1.6664058533486679E9, 0.0, 2022-10-21 19:30:53.348
189.0, -136447.58748383375, -164130.737081854, 8710.318352021975, -120873.00370609805, 74627.95968389031, -83647.67088266264, 46670.19655349214, -113628.89273511086, 0.008, 0.964, 0.02, 192.0, 0.0, 0.0, 0.0, 0.0, 0.0, 0.0, 0.0, 0.0, 0.0, 1.6664058533486776E9, 0.0, 2022-10-21 19:30:53.348
190.0, -136457.1987339495, -164141.5329744259, 8707.703197920704, -120877.16113056675, 74623.7128524438, -83632.38228945521, 46672.588190148854, -113649.59045047648, 0.008, 0.964, 0.02, 192.0, 0.0, 0.0, 0.0, 0.0, 0.0, 0.0, 0.0, 0.0, 0.0, 1.6664058533486872E9, 0.0, 2022-10-21 19:30:53.348
191.0, -136462.92078053008, -164142.51645118196, 8703.165793796277, -120881.60912771335, 74623.89166639945, -83620.02177477143, 46668.16254474671, -113657.59237499147, 0.008, 0.964, 0.02, 192.0, 0.0, 0.0, 0.0, 0.0, 0.0, 0.0, 0.0, 0.0, 0.0, 1.6664058533486965E9, 0.0, 2022-10-21 19:30:53.348
192.0, -136452.61662633618, -164132.99460804398, 8710.139538066333, -120882.74906668057, 74627.24442806774, -83635.84680984578, 46664.54156214494, -113646.43885450828, 0.008, 0.964, 0.018000000000000002, 192.0, 0.0, 64.0, 30.0, 32.0, 0.0, 144.0, 0.0, 0.0, 0.0, 1.666405853348706E9, 0.0, 2022-10-21 19:30:53.348
193.0, -136461.4679171405, -164142.5388029264, 8700.684750161738, -120894.97547089763, 74613.07342208308, -83657.75151941199, 46651.68930908314, -113652.00443887764, 0.008, 0.964, 0.018000000000000002, 192.0, 0.0, 0.0, 0.0, 0.0, 0.0, 0.0, 0.0, 0.0, 0.0, 1.666405853348716E9, 0.0, 2022-10-21 19:30:53.348
194.0, -136464.59716136422, -164143.8799075937, 8701.936447851234, -120884.64896495927, 74615.68857618434, -83635.4891819345, 46664.27334121148, -113646.84118590847, 0.008, 0.964, 0.018000000000000002, 192.0, 0.0, 0.0, 0.0, 0.0, 0.0, 0.0, 0.0, 0.0, 0.0, 1.6664058533487253E9, 0.0, 2022-10-21 19:30:53.348
195.0, -136447.0957454557, -164125.30560795136, 8723.39412252833, -120865.98525833909, 74632.78766069266, -83624.60388238476, 46680.791280363956, -113630.07737756698, 0.008, 0.964, 0.018000000000000002, 192.0, 0.0, 0.0, 0.0, 0.0, 0.0, 0.0, 0.0, 0.0, 0.0, 1.6664058533487349E9, 0.0, 2022-10-21 19:30:53.348
196.0, -136454.2483036814, -164131.89937256568, 8715.52630848006, -120877.00466835556, 74632.7653089482, -83624.58153064031, 46674.28692272746, -113638.9733718602, 0.008, 0.964, 0.018000000000000002, 192.0, 0.0, 0.0, 0.0, 0.0, 0.0, 0.0, 0.0, 0.0, 0.0, 1.6664058533487442E9, 0.0, 2022-10-21 19:30:53.348
197.0, -136452.7954402918, -164127.42902367463, 8718.0073521146, -120876.28941253298, 74631.87123917, -83637.03145230192, 46672.09645177084, -113638.45928173773, 0.008, 0.964, 0.018000000000000002, 192.0, 0.0, 0.0, 0.0, 0.0, 0.0, 0.0, 0.0, 0.0, 0.0, 1.6664058533487537E9, 0.0, 2022-10-21 19:30:53.348
198.0, -136456.6622920826, -164130.75943359846, 8720.466044004685, -120870.94734560816, 74633.27939907067, -83627.35314695277, 46684.278152498984, -113632.37960724588, 0.008, 0.964, 0.018000000000000002, 192.0, 0.0, 0.0, 0.0, 0.0, 0.0, 0.0, 0.0, 0.0, 0.0, 1.6664058533487725E9, 0.0, 2022-10-21 19:30:53.348
199.0, -136464.4183474086, -164140.28127673644, 8717.068578847478, -120874.38951425428, 74627.17737283437, -83601.91686176263, 46691.22954502458, -113637.31934277051, 0.008, 0.964, 0.018000000000000002, 192.0, 0.0, 0.0, 0.0, 0.0, 0.0, 0.0, 0.0, 0.0, 0.0, 1.6664058533487823E9, 0.0, 2022-10-21 19:30:53.348
200.0, -136466.8099840653, -164145.10925353877, 8711.838270644936, -120888.85109291687, 74619.04133785264, -83618.1889317261, 46675.270399483496, -113641.56617421702, 0.008, 0.964, 0.018000000000000002, 192.0, 0.0, 0.0, 0.0, 0.0, 0.0, 0.0, 0.0, 0.0, 0.0, 1.6664058533487918E9, 0.0, 2022-10-21 19:30:53.348
201.0, -136469.42513816658, -164148.01498031797, 8705.020988586068, -120898.81997094394, 74610.59237844853, -83649.68253966363, 46660.026509764975, -113650.41746502131, 0.004, 0.964, 0.026000000000000002, 192.0, 0.0, 32.0, 30.0, 32.0, 0.0, 208.0, 0.0, 0.0, 0.0, 1.666405853348802E9, 0.0, 2022-10-21 19:30:53.348
202.0, -136455.63411183766, -164133.79927084438, 8721.091892849434, -120879.95509862366, 74626.75268968972, -83634.32689122282, 46681.394777464244, -113630.50206071163, 0.004, 0.964, 0.026000000000000002, 192.0, 0.0, 0.0, 0.0, 0.0, 0.0, 0.0, 0.0, 0.0, 0.0, 1.666405853348812E9, 0.0, 2022-10-21 19:30:53.348
203.0, -136458.6515973391, -164136.25796273447, 8720.15311958231, -120880.15626432376, 74625.43393676686, -83624.80504808486, 46683.67465539869, -113621.58371467397, 0.004, 0.964, 0.026000000000000002, 192.0, 0.0, 0.0, 0.0, 0.0, 0.0, 0.0, 0.0, 0.0, 0.0, 1.6664058533488212E9, 0.0, 2022-10-21 19:30:53.348
204.0, -136455.0529664818, -164130.67002662065, 8722.500052750118, -120883.12904633631, 74623.6681489549, -83635.37742321222, 46675.13628901676, -113624.98117983117, 0.004, 0.964, 0.026000000000000002, 192.0, 0.0, 0.0, 0.0, 0.0, 0.0, 0.0, 0.0, 0.0, 0.0, 1.6664058533488305E9, 0.0, 2022-10-21 19:30:53.348
205.0, -136472.04029226783, -164147.90322159568, 8707.658494431793, -120904.87729369132, 74605.11620105698, -83655.80691764438, 46655.198532962626, -113649.90337489884, 0.004, 0.964, 0.026000000000000002, 192.0, 0.0, 0.0, 0.0, 0.0, 0.0, 0.0, 0.0, 0.0, 0.0, 1.6664058533488405E9, 0.0, 2022-10-21 19:30:53.348
206.0, -136476.0636062698, -164150.8983553527, 8705.088043819433, -120898.037659888, 74604.19977953432, -83649.3919669857, 46658.193666719635, -113654.84311042346, 0.004, 0.964, 0.026000000000000002, 192.0, 0.0, 0.0, 0.0, 0.0, 0.0, 0.0, 0.0, 0.0, 0.0, 1.6664058533488498E9, 0.0, 2022-10-21 19:30:53.348
207.0, -136466.07237649828, -164139.3872069582, 8721.226003316166, -120881.45266550216, 74619.5107244862, -83613.71858283503, 46678.60080940733, -113635.50885146963, 0.004, 0.964, 0.026000000000000002, 192.0, 0.0, 0.0, 0.0, 0.0, 0.0, 0.0, 0.0, 0.0, 0.0, 1.6664058533488593E9, 0.0, 2022-10-21 19:30:53.348
208.0, -136459.5009636284, -164134.02278828894, 8729.049113875522, -120883.19610156967, 74620.3153872866, -83618.21128347055, 46681.21596350861, -113624.24357226415, 0.004, 0.964, 0.026000000000000002, 192.0, 0.0, 0.0, 0.0, 0.0, 0.0, 0.0, 0.0, 0.0, 0.0, 1.6664058533488688E9, 0.0, 2022-10-21 19:30:53.348
209.0, -136460.23857119546, -164132.99460804398, 8725.808110929504, -120889.02990687251, 74615.46505873979, -83648.9896355855, 46669.86127732531, -113619.43794720626, 0.004, 0.964, 0.026000000000000002, 192.0, 0.0, 0.0, 0.0, 0.0, 0.0, 0.0, 0.0, 0.0, 0.0, 1.6664058533488781E9, 0.0, 2022-10-21 19:30:53.348
210.0, -136461.66908284058, -164134.64863713368, 8722.477701005662, -120889.32047955043, 74613.8110296501, -83654.10818506578, 46672.811707593406, -113624.89177285336, 0.004, 0.964, 0.026000000000000002, 192.0, 0.0, 0.0, 0.0, 0.0, 0.0, 0.0, 0.0, 0.0, 0.0, 1.6664058533488877E9, 0.0, 2022-10-21 19:30:53.348
211.0, -136462.5184491299, -164136.6379423902, 8725.875166162868, -120880.87152014632, 74617.72258492978, -83634.50570517847, 46685.395739721745, -113622.56719143, 0.004, 0.964, 0.03, 192.0, 0.0, 32.0, 30.0, 32.0, 0.0, 240.0, 0.0, 0.0, 0.0, 1.6664058533488967E9, 0.0, 2022-10-21 19:30:53.348
212.0, -136472.6214376237, -164146.249192506, 8716.621543958372, -120892.67324121873, 74609.27362552568, -83641.16652502616, 46674.08575702736, -113634.34656075796, 0.004, 0.964, 0.03, 192.0, 0.0, 0.0, 0.0, 0.0, 0.0, 0.0, 0.0, 0.0, 0.0, 1.6664058533489068E9, 0.0, 2022-10-21 19:30:53.348
213.0, -136470.29685620032, -164143.2987622379, 8719.661381204294, -120896.20481684266, 74613.58751220554, -83650.19662978609, 46672.543486659946, -113629.38447348887, 0.004, 0.964, 0.03, 192.0, 0.0, 0.0, 0.0, 0.0, 0.0, 0.0, 0.0, 0.0, 0.0, 1.6664058533489163E9, 0.0, 2022-10-21 19:30:53.348
214.0, -136469.73806258893, -164141.57767791484, 8717.49326199213, -120904.7878867135, 74607.79841039162, -83645.72628089503, 46673.52696341598, -113627.26105776562, 0.004, 0.964, 0.03, 192.0, 0.0, 0.0, 0.0, 0.0, 0.0, 0.0, 0.0, 0.0, 0.0, 1.6664058533489344E9, 0.0, 2022-10-21 19:30:53.348
215.0, -136468.68753059953, -164143.07524479335, 8714.967514868678, -120907.98418617061, 74600.15411378791, -83639.49014419201, 46673.303445971425, -113636.31351427002, 0.004, 0.964, 0.03, 192.0, 0.0, 0.0, 0.0, 0.0, 0.0, 0.0, 0.0, 0.0, 0.0, 1.6664058533489437E9, 0.0, 2022-10-21 19:30:53.348
216.0, -136453.48834436995, -164128.09957600827, 8732.021895888078, -120891.68976446269, 74615.08507908405, -83639.53484768092, 46683.00410306503, -113628.04336882156, 0.004, 0.964, 0.03, 192.0, 0.0, 0.0, 0.0, 0.0, 0.0, 0.0, 0.0, 0.0, 0.0, 1.6664058533489535E9, 0.0, 2022-10-21 19:30:53.348
217.0, -136456.0140914934, -164129.61949463125, 8732.245413332632, -120896.80831394295, 74616.04620409563, -83665.26170554897, 46677.10324252883, -113624.13181354187, 0.004, 0.964, 0.03, 192.0, 0.0, 0.0, 0.0, 0.0, 0.0, 0.0, 0.0, 0.0, 0.0, 1.6664058533489625E9, 0.0, 2022-10-21 19:30:53.348
218.0, -136453.73421355896, -164128.79248008638, 8733.96649765569, -120892.71794470763, 74618.9072273859, -83669.32972303983, 46678.556105918426, -113619.88498209536, 0.004, 0.964, 0.03, 192.0, 0.0, 0.0, 0.0, 0.0, 0.0, 0.0, 0.0, 0.0, 0.0, 1.666405853348972E9, 0.0, 2022-10-21 19:30:53.348
219.0, -136454.67298682607, -164129.50773590896, 8735.598175000927, -120885.56538648193, 74620.91888438689, -83663.63002820374, 46682.892344342756, -113613.2688657366, 0.004, 0.964, 0.03, 192.0, 0.0, 0.0, 0.0, 0.0, 0.0, 0.0, 0.0, 0.0, 0.0, 1.6664058533489811E9, 0.0, 2022-10-21 19:30:53.348
220.0, -136464.4630508975, -164138.67195113565, 8727.193919085732, -120893.92493890823, 74611.59820694903, -83667.31806603886, 46672.185858748664, -113625.40586297582, 0.004, 0.964, 0.03, 192.0, 0.0, 0.0, 0.0, 0.0, 0.0, 0.0, 0.0, 0.0, 0.0, 1.6664058533489916E9, 0.0, 2022-10-21 19:30:53.348
221.0, -136479.34931270473, -164152.3512187423, 8709.67015143277, -120914.64500601828, 74594.27560499616, -83693.26844135147, 46649.811762548896, -113641.45441549474, 0.006, 0.964, 0.026000000000000002, 192.0, 0.0, 48.0, 30.0, 32.0, 0.0, 208.0, 0.0, 0.0, 0.0, 1.6664058533490007E9, 0.0, 2022-10-21 19:30:53.349
222.0, -136461.0655857403, -164131.38528244323, 8728.669134219783, -120889.85692141735, 74611.26293078219, -83701.27036586647, 46665.413280178705, -113627.3728164879, 0.006, 0.964, 0.026000000000000002, 192.0, 0.0, 0.0, 0.0, 0.0, 0.0, 0.0, 0.0, 0.0, 0.0, 1.6664058533490107E9, 0.0, 2022-10-21 19:30:53.349
223.0, -136461.17734446257, -164134.38041620023, 8728.624430730872, -120894.01434588604, 74611.46409648229, -83681.77964470144, 46677.43851869566, -113626.41169147631, 0.006, 0.964, 0.026000000000000002, 192.0, 0.0, 0.0, 0.0, 0.0, 0.0, 0.0, 0.0, 0.0, 0.0, 1.66640585334902E9, 0.0, 2022-10-21 19:30:53.349
224.0, -136463.94896077501, -164135.72152086755, 8726.411608029795, -120899.04348838849, 74615.57681746208, -83661.86424039176, 46680.925390830686, -113617.69451113875, 0.006, 0.964, 0.026000000000000002, 192.0, 0.0, 0.0, 0.0, 0.0, 0.0, 0.0, 0.0, 0.0, 0.0, 1.6664058533490293E9, 0.0, 2022-10-21 19:30:53.349
225.0, -136461.3114549293, -164131.5864481433, 8730.770198198581, -120894.14845635278, 74624.94219838885, -83657.5950572008, 46683.69700714314, -113611.05604303553, 0.006, 0.964, 0.026000000000000002, 192.0, 0.0, 0.0, 0.0, 0.0, 0.0, 0.0, 0.0, 0.0, 0.0, 1.66640585334904E9, 0.0, 2022-10-21 19:30:53.349
226.0, -136462.1161177297, -164134.0898435223, 8727.86447141939, -120896.56244475394, 74622.10352684301, -83671.38608352972, 46679.40547220773, -113614.94524657074, 0.006, 0.964, 0.026000000000000002, 192.0, 0.0, 0.0, 0.0, 0.0, 0.0, 0.0, 0.0, 0.0, 0.0, 1.66640585334905E9, 0.0, 2022-10-21 19:30:53.349
227.0, -136474.49898415792, -164146.56211692837, 8716.509785236096, -120905.14551462479, 74606.68082316886, -83685.69119998113, 46673.48225992707, -113632.64782817935, 0.006, 0.964, 0.026000000000000002, 192.0, 0.0, 0.0, 0.0, 0.0, 0.0, 0.0, 0.0, 0.0, 0.0, 1.666405853349059E9, 0.0, 2022-10-21 19:30:53.349
228.0, -136466.1170799872, -164136.77205285695, 8726.72453245217, -120896.71890696514, 74614.88391338395, -83672.03428411893, 46685.35103623284, -113621.49430769615, 0.006, 0.964, 0.026000000000000002, 192.0, 0.0, 0.0, 0.0, 0.0, 0.0, 0.0, 0.0, 0.0, 0.0, 1.6664058533490689E9, 0.0, 2022-10-21 19:30:53.349
229.0, -136465.04419625332, -164134.40276794467, 8728.1103406084, -120898.81997094394, 74622.17058207639, -83668.92739163965, 46690.514289202016, -113613.64884539234, 0.006, 0.964, 0.026000000000000002, 192.0, 0.0, 0.0, 0.0, 0.0, 0.0, 0.0, 0.0, 0.0, 0.0, 1.6664058533490865E9, 0.0, 2022-10-21 19:30:53.349
230.0, -136471.5038504009, -164139.7895383584, 8722.947087639224, -120907.55950302596, 74615.1074308285, -83692.3073163399, 46679.450175696635, -113618.00743556111, 0.006, 0.964, 0.026000000000000002, 192.0, 0.0, 0.0, 0.0, 0.0, 0.0, 0.0, 0.0, 0.0, 0.0, 1.6664058533490963E9, 0.0, 2022-10-21 19:30:53.349
231.0, -136469.82746956678, -164139.92364882515, 8726.366904540886, -120902.57506401243, 74615.33094827305, -83682.78547320193, 46687.29563800045, -113612.62066514739, 0.008, 0.966, 0.018000000000000002, 192.0, 0.0, 64.0, 30.0, 48.0, 0.0, 144.0, 0.0, 0.0, 0.0, 1.6664058533491075E9, 0.0, 2022-10-21 19:30:53.349
232.0, -136459.4562601395, -164129.50773590896, 8736.268727334587, -120888.87344466132, 74625.00925362221, -83675.63291497623, 46701.91367887422, -113600.26015046361, 0.008, 0.966, 0.018000000000000002, 192.0, 0.0, 0.0, 0.0, 0.0, 0.0, 0.0, 0.0, 0.0, 0.0, 1.6664058533491175E9, 0.0, 2022-10-21 19:30:53.349
233.0, -136467.88286779917, -164137.57671565734, 8726.34455279643, -120899.42346804423, 74619.35426227501, -83669.46383350657, 46694.202327037136, -113608.59735114544, 0.008, 0.966, 0.018000000000000002, 192.0, 0.0, 0.0, 0.0, 0.0, 0.0, 0.0, 0.0, 0.0, 0.0, 1.666405853349127E9, 0.0, 2022-10-21 19:30:53.349
234.0, -136473.20258297952, -164142.20352675958, 8719.393160270829, -120901.16690411174, 74615.55446571762, -83685.31122032538, 46679.40547220773, -113613.4700314367, 0.008, 0.966, 0.018000000000000002, 192.0, 0.0, 0.0, 0.0, 0.0, 0.0, 0.0, 0.0, 0.0, 0.0, 1.6664058533491364E9, 0.0, 2022-10-21 19:30:53.349
235.0, -136481.1151005167, -164150.80894837488, 8709.983075855145, -120912.85686646187, 74607.28432026916, -83695.48126405255, 46676.94678031764, -113618.1191942834, 0.008, 0.966, 0.018000000000000002, 192.0, 0.0, 0.0, 0.0, 0.0, 0.0, 0.0, 0.0, 0.0, 0.0, 1.666405853349146E9, 0.0, 2022-10-21 19:30:53.349
236.0, -136465.3571206757, -164135.60976214526, 8728.91500340879, -120894.2825668195, 74622.17058207639, -83687.79226395993, 46693.66588517021, -113602.47297316468, 0.008, 0.966, 0.018000000000000002, 192.0, 0.0, 0.0, 0.0, 0.0, 0.0, 0.0, 0.0, 0.0, 0.0, 1.666405853349155E9, 0.0, 2022-10-21 19:30:53.349
237.0, -136478.49994641542, -164148.1490907847, 8717.426206758762, -120909.97349142712, 74614.12395407248, -83678.40453128869, 46684.05463505443, -113620.73434838466, 0.008, 0.966, 0.018000000000000002, 192.0, 0.0, 0.0, 0.0, 0.0, 0.0, 0.0, 0.0, 0.0, 0.0, 1.6664058533491647E9, 0.0, 2022-10-21 19:30:53.349
238.0, -136480.33278946075, -164148.52907044042, 8714.609886957394, -120919.56238979846, 74604.40094523442, -83704.64547927922, 46664.630969122765, -113628.4233484773, 0.008, 0.966, 0.018000000000000002, 192.0, 0.0, 0.0, 0.0, 0.0, 0.0, 0.0, 0.0, 0.0, 0.0, 1.666405853349174E9, 0.0, 2022-10-21 19:30:53.349
239.0, -136475.63892312514, -164144.8857360942, 8720.443692260229, -120917.26016011956, 74607.57489294707, -83707.75237175851, 46671.58236164837, -113616.10753728241, 0.008, 0.966, 0.018000000000000002, 192.0, 0.0, 0.0, 0.0, 0.0, 0.0, 0.0, 0.0, 0.0, 0.0, 1.666405853349183E9, 0.0, 2022-10-21 19:30:53.349
240.0, -136479.5728301493, -164148.61847741826, 8719.974305626667, -120921.61875028834, 74598.92476784287, -83694.81071171889, 46676.43269019517, -113616.10753728241, 0.014, 0.9580000000000001, 0.014, 192.0, 0.0, 112.0, 29.0, 240.0, 0.0, 112.0, 0.0, 0.0, 0.0, 1.6664058533491943E9, 0.0, 2022-10-21 19:30:53.349
241.0, -136470.0062835224, -164137.77788135744, 8730.747846454125, -120906.71013673666, 74614.57098896158, -83677.95749639958, 46686.28980949996, -113606.60804588892, 0.014, 0.9580000000000001, 0.014, 192.0, 0.0, 0.0, 0.0, 0.0, 0.0, 0.0, 0.0, 0.0, 0.0, 1.6664058538272116E9, 0.0, 2022-10-21 19:30:53.827
242.0, -136469.00045502192, -164136.72734936804, 8731.172529598776, -120910.50993329406, 74620.98593962025, -83688.41811280468, 46681.685350142165, -113618.27565649459, 0.014, 0.9580000000000001, 0.014, 192.0, 0.0, 0.0, 0.0, 0.0, 0.0, 0.0, 0.0, 0.0, 0.0, 1.6664058538272655E9, 0.0, 2022-10-21 19:30:53.827
243.0, -136467.88286779917, -164136.9955703015, 8731.418398787786, -120909.77232572703, 74620.00246286423, -83695.503615797, 46677.68438788466, -113624.4670897087, 0.014, 0.9580000000000001, 0.014, 192.0, 0.0, 0.0, 0.0, 0.0, 0.0, 0.0, 0.0, 0.0, 0.0, 1.6664058538272877E9, 0.0, 2022-10-21 19:30:53.827
244.0, -136465.08889974223, -164135.69916912308, 8732.804206944014, -120904.94434892469, 74617.52141922968, -83686.80878720389, 46676.49974542853, -113627.819851377, 0.014, 0.9580000000000001, 0.014, 192.0, 0.0, 0.0, 0.0, 0.0, 0.0, 0.0, 0.0, 0.0, 0.0, 1.6664058538273551E9, 0.0, 2022-10-21 19:30:53.827
245.0, -136458.78570780586, -164131.3405789543, 8742.25899484861, -120899.17759885521, 74621.50002974273, -83686.02647614795, 46680.14307977475, -113614.18528725926, 0.014, 0.9580000000000001, 0.014, 192.0, 0.0, 0.0, 0.0, 0.0, 0.0, 0.0, 0.0, 0.0, 0.0, 1.666405853827366E9, 0.0, 2022-10-21 19:30:53.827
246.0, -136463.03253925237, -164134.31336096686, 8743.756561727114, -120905.8384187029, 74623.39992802143, -83694.2072146186, 46680.41130070821, -113614.00647330363, 0.014, 0.9580000000000001, 0.014, 192.0, 0.0, 0.0, 0.0, 0.0, 0.0, 0.0, 0.0, 0.0, 0.0, 1.6664058538273768E9, 0.0, 2022-10-21 19:30:53.827
247.0, -136482.70207437302, -164155.9498495996, 8724.243488817632, -120930.9394277262, 74606.34554700203, -83718.39180211924, 46660.25002720953, -113637.7216741707, 0.014, 0.9580000000000001, 0.014, 192.0, 0.0, 0.0, 0.0, 0.0, 0.0, 0.0, 0.0, 0.0, 0.0, 1.6664058538273876E9, 0.0, 2022-10-21 19:30:53.827
248.0, -136475.974199292, -164148.73023614052, 8733.810035444503, -120917.70719500867, 74614.28041628367, -83706.61243279128, 46668.698986613635, -113626.23287752067, 0.014, 0.9580000000000001, 0.014, 192.0, 0.0, 0.0, 0.0, 0.0, 0.0, 0.0, 0.0, 0.0, 0.0, 1.6664058538273985E9, 0.0, 2022-10-21 19:30:53.827
249.0, -136476.80121383682, -164150.2948582524, 8733.564166255495, -120912.36512808385, 74617.99080586324, -83699.14695014321, 46672.99052154905, -113619.48265069516, 0.014, 0.9580000000000001, 0.014, 192.0, 0.0, 0.0, 0.0, 0.0, 0.0, 0.0, 0.0, 0.0, 0.0, 1.6664058538274093E9, 0.0, 2022-10-21 19:30:53.827
250.0, -136466.6088183652, -164138.47078543555, 8740.426151803274, -120904.47496229112, 74626.28330305616, -83696.01770591947, 46676.589152406355, -113611.83835409145, 0.012, 0.96, 0.018000000000000002, 192.0, 0.0, 96.0, 30.0, 0.0, 0.0, 144.0, 0.0, 0.0, 0.0, 1.66640585382742E9, 0.0, 2022-10-21 19:30:53.827
251.0, -136460.12681247317, -164131.56409639886, 8752.741962998149, -120895.75778195355, 74639.58259100707, -83707.28298512496, 46683.652303654235, -113602.09299350894, 0.012, 0.96, 0.018000000000000002, 192.0, 0.0, 0.0, 0.0, 0.0, 0.0, 0.0, 0.0, 0.0, 0.0, 1.6664058538274314E9, 0.0, 2022-10-21 19:30:53.827
252.0, -136463.97131251948, -164134.5368784114, 8754.150122898833, -120894.4837325196, 74641.39308230794, -83693.44725530711, 46695.677542171186, -113602.62943537587, 0.012, 0.96, 0.018000000000000002, 192.0, 0.0, 0.0, 0.0, 0.0, 0.0, 0.0, 0.0, 0.0, 0.0, 1.6664058538274422E9, 0.0, 2022-10-21 19:30:53.827
253.0, -136471.43679516754, -164143.90225933818, 8742.415457059797, -120900.45164828916, 74628.9655123908, -83678.33747605533, 46694.11292005932, -113612.97829305868, 0.012, 0.96, 0.018000000000000002, 192.0, 0.0, 0.0, 0.0, 0.0, 0.0, 0.0, 0.0, 0.0, 0.0, 1.666405853827453E9, 0.0, 2022-10-21 19:30:53.827
254.0, -136478.49994641542, -164150.20545127458, 8732.021895888078, -120914.15326764027, 74617.09673608503, -83684.3500953138, 46676.94678031764, -113626.47874670968, 0.012, 0.96, 0.018000000000000002, 192.0, 0.0, 0.0, 0.0, 0.0, 0.0, 0.0, 0.0, 0.0, 0.0, 1.6664058538274636E9, 0.0, 2022-10-21 19:30:53.827
255.0, -136477.78469059285, -164148.4396634626, 8732.044247632533, -120918.28834036451, 74611.12882031547, -83726.23726442305, 46660.13826848725, -113623.59537167495, 0.012, 0.96, 0.018000000000000002, 192.0, 0.0, 0.0, 0.0, 0.0, 0.0, 0.0, 0.0, 0.0, 0.0, 1.6664058538274744E9, 0.0, 2022-10-21 19:30:53.827
0.0, -136461.89260028512, -164133.75456735547, 8748.003393173623, -120898.99878489958, 74629.72547170227, -83721.47634285408, 46680.81363210841, -113606.78685984455, 0.012, 0.96, 0.018000000000000002, 192.0, 0.0, 0.0, 0.0, 0.0, 0.0, 0.0, 0.0, 0.0, 0.0, 1.6664058538274848E9, 0.0, 2022-10-21 19:30:53.827
1.0, -136460.3503299177, -164129.08305276433, 8749.456256563219, -120893.85788367485, 74629.99369263575, -83700.77862748846, 46689.84373686835, -113611.2125052467, 0.012, 0.96, 0.018000000000000002, 192.0, 0.0, 0.0, 0.0, 0.0, 0.0, 0.0, 0.0, 0.0, 0.0, 1.6664058538274953E9, 0.0, 2022-10-21 19:30:53.827
2.0, -136475.63892312514, -164143.47757619355, 8732.893613921835, -120921.66345377726, 74612.53698021614, -83710.34517411533, 46669.883629069765, -113631.64199967886, 0.012, 0.96, 0.018000000000000002, 192.0, 0.0, 0.0, 0.0, 0.0, 0.0, 0.0, 0.0, 0.0, 0.0, 1.6664058538275063E9, 0.0, 2022-10-21 19:30:53.827
3.0, -136472.59908587922, -164140.92947732564, 8736.671058734782, -120922.04343343299, 74615.01802385069, -83734.68622382716, 46661.1664487322, -113632.96075260172, 0.012, 0.96, 0.018000000000000002, 192.0, 0.0, 0.0, 0.0, 0.0, 0.0, 0.0, 0.0, 0.0, 0.0, 1.6664058538275275E9, 0.0, 2022-10-21 19:30:53.827
4.0, -136458.696300828, -164125.01503527345, 8752.741962998149, -120898.43999128819, 74632.05005312563, -83730.14881970274, 46679.181954763175, -113614.67702563728, 0.014, 0.964, 0.026000000000000002, 192.0, 0.0, 112.0, 30.0, 32.0, 0.0, 208.0, 0.0, 0.0, 0.0, 1.6664058538275385E9, 0.0, 2022-10-21 19:30:53.827
5.0, -136463.4125189081, -164131.29587546538, 8748.986869929657, -120894.01434588604, 74632.94412290385, -83700.73392399955, 46695.00698983753, -113610.45254593523, 0.014, 0.964, 0.026000000000000002, 192.0, 0.0, 0.0, 0.0, 0.0, 0.0, 0.0, 0.0, 0.0, 0.0, 1.666405853827558E9, 0.0, 2022-10-21 19:30:53.827
6.0, -136467.1676119766, -164137.71082612406, 8741.186111114754, -120900.40694480026, 74629.43489902436, -83692.7990547179, 46691.29660025795, -113612.95594131423, 0.014, 0.964, 0.026000000000000002, 192.0, 0.0, 0.0, 0.0, 0.0, 0.0, 0.0, 0.0, 0.0, 0.0, 1.6664058538275752E9, 0.0, 2022-10-21 19:30:53.827
7.0, -136468.44166141053, -164137.8896400797, 8738.056866891011, -120905.74901172507, 74629.52430600217, -83706.72419151357, 46682.57941992038, -113610.20667674622, 0.014, 0.964, 0.026000000000000002, 192.0, 0.0, 0.0, 0.0, 0.0, 0.0, 0.0, 0.0, 0.0, 0.0, 1.666405853827584E9, 0.0, 2022-10-21 19:30:53.827
8.0, -136465.8041555648, -164136.34736971228, 8743.421285560285, -120900.3398895669, 74631.60301823652, -83715.68724104014, 46684.412262965714, -113596.34859518392, 0.014, 0.964, 0.026000000000000002, 192.0, 0.0, 0.0, 0.0, 0.0, 0.0, 0.0, 0.0, 0.0, 0.0, 1.6664058538275926E9, 0.0, 2022-10-21 19:30:53.827
9.0, -136471.8614783122, -164141.86825059276, 8736.604003501416, -120907.7383169816, 74619.93540763085, -83704.91370021268, 46682.19944026464, -113608.2620749786, 0.014, 0.964, 0.026000000000000002, 192.0, 0.0, 0.0, 0.0, 0.0, 0.0, 0.0, 0.0, 0.0, 0.0, 1.6664058538276012E9, 0.0, 2022-10-21 19:30:53.827
10.0, -136498.66121991412, -164170.36672477325, 8708.999599099112, -120934.0910236944, 74589.1570555159, -83730.99818599204, 46650.05763173791, -113651.35623828844, 0.014, 0.964, 0.026000000000000002, 192.0, 0.0, 0.0, 0.0, 0.0, 0.0, 0.0, 0.0, 0.0, 0.0, 1.6664058538276098E9, 0.0, 2022-10-21 19:30:53.827
11.0, -136458.1598589611, -164128.25603821946, 8748.405724573819, -120889.49929350607, 74632.54179150365, -83714.52495032847, 46683.361730976314, -113612.39714770284, 0.014, 0.964, 0.026000000000000002, 192.0, 0.0, 0.0, 0.0, 0.0, 0.0, 0.0, 0.0, 0.0, 0.0, 1.6664058538276186E9, 0.0, 2022-10-21 19:30:53.827
12.0, -136471.63796086764, -164142.1364715262, 8736.224023845676, -120898.32823256591, 74626.95385538982, -83730.37233714729, 46676.47739368408, -113614.92289482629, 0.014, 0.964, 0.026000000000000002, 192.0, 0.0, 0.0, 0.0, 0.0, 0.0, 0.0, 0.0, 0.0, 0.0, 1.6664058538276274E9, 0.0, 2022-10-21 19:30:53.827
13.0, -136476.7565103479, -164149.11021579627, 8737.20750060171, -120895.62367148683, 74623.73520418826, -83724.40442137771, 46683.80876586542, -113610.47489767968, 0.014, 0.96, 0.02, 192.0, 0.0, 112.0, 30.0, 0.0, 0.0, 160.0, 0.0, 0.0, 0.0, 1.6664058538276377E9, 0.0, 2022-10-21 19:30:53.827
14.0, -136469.13456548867, -164142.2482302485, 8743.354230326919, -120889.27577606152, 74628.20555307931, -83708.37822060326, 46690.849565368844, -113603.85878132092, 0.014, 0.96, 0.02, 192.0, 0.0, 0.0, 0.0, 0.0, 0.0, 0.0, 0.0, 0.0, 0.0, 1.6664058538276465E9, 0.0, 2022-10-21 19:30:53.827
15.0, -136460.28327468436, -164134.1345470112, 8745.388239072352, -120892.24855807408, 74627.28913155665, -83728.04775572394, 46680.657169897226, -113609.02203429009, 0.014, 0.96, 0.02, 192.0, 0.0, 0.0, 0.0, 0.0, 0.0, 0.0, 0.0, 0.0, 0.0, 1.6664058538276553E9, 0.0, 2022-10-21 19:30:53.827
16.0, -136456.2599606824, -164133.77691909994, 8745.768218728092, -120887.71115394964, 74631.29009381415, -83745.75033733253, 46676.455041939626, -113603.05411852052, 0.014, 0.96, 0.02, 192.0, 0.0, 0.0, 0.0, 0.0, 0.0, 0.0, 0.0, 0.0, 0.0, 1.6664058538276668E9, 0.0, 2022-10-21 19:30:53.827
17.0, -136453.3095304143, -164130.2900469649, 8747.556358284517, -120876.9376131222, 74634.0170066377, -83731.9146075147, 46684.88164959927, -113599.58959812995, 0.014, 0.96, 0.02, 192.0, 0.0, 0.0, 0.0, 0.0, 0.0, 0.0, 0.0, 0.0, 0.0, 1.6664058538276758E9, 0.0, 2022-10-21 19:30:53.827
18.0, -136455.8129257933, -164135.02861678944, 8745.142369883344, -120885.65479345976, 74626.6632827119, -83713.69793578362, 46684.79224262146, -113610.8101738465, 0.014, 0.96, 0.02, 192.0, 0.0, 0.0, 0.0, 0.0, 0.0, 0.0, 0.0, 0.0, 0.0, 1.6664058538276846E9, 0.0, 2022-10-21 19:30:53.827
