%OpenBCI Raw EEG Data
%Number of channels = 8
%Sample Rate = 250 Hz
%Board = OpenBCI_GUI$BoardCytonSerial
Sample Index, EXG Channel 0, EXG Channel 1, EXG Channel 2, EXG Channel 3, EXG Channel 4, EXG Channel 5, EXG Channel 6, EXG Channel 7, Accel Channel 0, Accel Channel 1, Accel Channel 2, Other, Other, Other, Other, Other, Other, Other, Analog Channel 0, Analog Channel 1, Analog Channel 2, Timestamp, Other, Timestamp (Formatted)
206.0, -153852.9579464147, -144691.0002459288, 63938.55082256208, -61532.43023543719, 78155.06495893777, -84607.99123144046, 87135.1688665353, -128243.62555070229, 0.0, 0.0, 0.0, 192.0, 0.0, 0.0, 0.0, 0.0, 0.0, 0.0, 0.0, 0.0, 0.0, 1.6664085148985195E9, 0.0, 2022-10-21 20:15:14.898
207.0, -153851.23686209167, -144694.66593201947, 63933.18640389281, -61548.23291876709, 78147.04068267831, -84623.03395545889, 87115.40992443681, -128251.94039963966, 0.0, 0.0, 0.0, 192.0, 0.0, 0.0, 0.0, 0.0, 0.0, 0.0, 0.0, 0.0, 0.0, 1.6664085148985364E9, 0.0, 2022-10-21 20:15:14.898
208.0, -153841.6032602314, -144686.32873133765, 63937.27677312813, -61557.08420957139, 78147.97945594543, -84632.53344685238, 87084.60922057739, -128255.89665840825, 0.0, 0.0, 0.0, 192.0, 0.0, 0.0, 0.0, 0.0, 0.0, 0.0, 0.0, 0.0, 0.0, 1.6664085148985448E9, 0.0, 2022-10-21 20:15:14.898
209.0, -153831.72378918217, -144676.89629517752, 63944.89871798739, -61549.08228505639, 78148.04651117879, -84627.25843516094, 87093.54991835951, -128247.69356819315, -0.014, 0.9540000000000001, -0.132, 192.0, 255.0, 144.0, 29.0, 208.0, 251.0, 224.0, 0.0, 0.0, 0.0, 1.666408514898553E9, 0.0, 2022-10-21 20:15:14.898
210.0, -153826.2029083017, -144670.57075149665, 63945.45751159877, -61542.19794776416, 78149.05233967929, -84616.52959782239, 87126.1611135198, -128246.10659433683, -0.014, 0.9540000000000001, -0.132, 192.0, 0.0, 0.0, 0.0, 0.0, 0.0, 0.0, 0.0, 0.0, 0.0, 1.666408514898563E9, 0.0, 2022-10-21 20:15:14.898
211.0, -153819.36327449838, -144661.13831533652, 63947.42446511084, -61548.56819493392, 78149.58878154622, -84613.28859487637, 87124.2612152411, -128244.65373094723, -0.014, 0.9540000000000001, -0.132, 192.0, 0.0, 0.0, 0.0, 0.0, 0.0, 0.0, 0.0, 0.0, 0.0, 1.6664085148985715E9, 0.0, 2022-10-21 20:15:14.898
212.0, -153812.81421337297, -144654.388088511, 63948.251479655686, -61555.83251188189, 78147.35360710068, -84625.85027526025, 87094.91337477129, -128241.16685881221, -0.014, 0.9540000000000001, -0.132, 192.0, 0.0, 0.0, 0.0, 0.0, 0.0, 0.0, 0.0, 0.0, 0.0, 1.66640851489858E9, 0.0, 2022-10-21 20:15:14.898
213.0, -153811.2048877722, -144650.00714659778, 63947.91620348886, -61553.44087522518, 78143.62086577665, -84627.81722877231, 87089.83952877994, -128243.49144023555, -0.014, 0.9540000000000001, -0.132, 192.0, 0.0, 0.0, 0.0, 0.0, 0.0, 0.0, 0.0, 0.0, 0.0, 1.6664085148985884E9, 0.0, 2022-10-21 20:15:14.898
214.0, -153812.88126860635, -144652.73405942132, 63947.44681685529, -61540.05218029645, 78149.38761584612, -84612.99802219844, 87124.28356698556, -128240.27278903399, -0.014, 0.9540000000000001, -0.132, 192.0, 0.0, 0.0, 0.0, 0.0, 0.0, 0.0, 0.0, 0.0, 0.0, 1.6664085148985968E9, 0.0, 2022-10-21 20:15:14.898
215.0, -153815.63053317435, -144658.18788506842, 63942.41767435285, -61548.36702923382, 78146.90657221158, -84621.26816764691, 87122.49542742914, -128244.98900711407, -0.014, 0.9540000000000001, -0.132, 192.0, 0.0, 0.0, 0.0, 0.0, 0.0, 0.0, 0.0, 0.0, 0.0, 1.666408514898605E9, 0.0, 2022-10-21 20:15:14.898
216.0, -153815.98816108564, -144658.41140251295, 63940.473072585235, -61555.094904314865, 78145.94544719999, -84638.52371436641, 87090.97946774715, -128255.0696438634, -0.014, 0.9540000000000001, -0.132, 192.0, 0.0, 0.0, 0.0, 0.0, 0.0, 0.0, 0.0, 0.0, 0.0, 1.6664085148986137E9, 0.0, 2022-10-21 20:15:14.898
217.0, -153811.67427440576, -144655.9974141118, 63941.098921429984, -61554.49140721458, 78152.11452866967, -84624.68798454857, 87088.63253457934, -128250.8675159058, -0.014, 0.9540000000000001, -0.132, 192.0, 0.0, 0.0, 0.0, 0.0, 0.0, 0.0, 0.0, 0.0, 0.0, 1.6664085148986218E9, 0.0, 2022-10-21 20:15:14.898
218.0, -153810.89196334983, -144656.06446934515, 63944.16111042036, -61538.04052329547, 78160.71995028495, -84600.97278368149, 87126.33992747545, -128245.12311758079, -0.012, 0.9520000000000001, -0.134, 192.0, 255.0, 160.0, 29.0, 192.0, 251.0, 208.0, 0.0, 0.0, 0.0, 1.666408514898631E9, 0.0, 2022-10-21 20:15:14.898
219.0, -153804.18644001323, -144649.135428564, 63949.570232578546, -61536.74412211706, 78163.89389799761, -84599.20699586952, 87140.4662299712, -128241.7703559125, -0.012, 0.9520000000000001, -0.134, 192.0, 0.0, 0.0, 0.0, 0.0, 0.0, 0.0, 0.0, 0.0, 0.0, 1.6664085148986402E9, 0.0, 2022-10-21 20:15:14.898
220.0, -153807.53920168153, -144652.3987832545, 63943.2446888977, -61554.73727640358, 78152.38274960313, -84622.0728304473, 87105.01636326508, -128253.01328337351, -0.012, 0.9520000000000001, -0.134, 192.0, 0.0, 0.0, 0.0, 0.0, 0.0, 0.0, 0.0, 0.0, 0.0, 1.6664085148986485E9, 0.0, 2022-10-21 20:15:14.898
221.0, -153810.93666683874, -144658.7019751909, 63937.343828361496, -61554.44670372566, 78147.95710420098, -84632.1758189411, 87083.26811591008, -128257.68479796467, -0.012, 0.9520000000000001, -0.134, 192.0, 0.0, 0.0, 0.0, 0.0, 0.0, 0.0, 0.0, 0.0, 0.0, 1.666408514898658E9, 0.0, 2022-10-21 20:15:14.898
222.0, -153807.0027598146, -144656.645614701, 63943.02117145314, -61537.16880526171, 78151.53338331383, -84620.44115310206, 87114.73937210314, -128246.95596062613, -0.012, 0.9520000000000001, -0.134, 192.0, 0.0, 0.0, 0.0, 0.0, 0.0, 0.0, 0.0, 0.0, 0.0, 1.6664085148987613E9, 0.0, 2022-10-21 20:15:14.898
223.0, -153807.87447784835, -144657.2938152902, 63940.31661037405, -61542.577927419894, 78151.89101122512, -84616.59665305575, 87136.95700609172, -128247.53710598197, -0.012, 0.9520000000000001, -0.134, 192.0, 0.0, 0.0, 0.0, 0.0, 0.0, 0.0, 0.0, 0.0, 0.0, 1.6664085148987703E9, 0.0, 2022-10-21 20:15:14.898
224.0, -153802.3983004568, -144653.06933558814, 63940.964810963254, -61557.79946539396, 78145.81133673327, -84624.46446710402, 87107.6091656219, -128246.46422224812, -0.012, 0.9520000000000001, -0.134, 192.0, 0.0, 0.0, 0.0, 0.0, 0.0, 0.0, 0.0, 0.0, 0.0, 1.6664085148987782E9, 0.0, 2022-10-21 20:15:14.898
225.0, -153799.87255333335, -144647.61550994104, 63942.998819708686, -61563.72267767462, 78144.67139776604, -84630.79001078487, 87080.18357517524, -128249.88403914978, -0.012, 0.9520000000000001, -0.134, 192.0, 0.0, 0.0, 0.0, 0.0, 0.0, 0.0, 0.0, 0.0, 0.0, 1.666408514898787E9, 0.0, 2022-10-21 20:15:14.898
226.0, -153801.81715510096, -144652.0411553432, 63942.10474993048, -61551.13864554628, 78148.56060130127, -84623.68215604809, 87103.20587196421, -128246.95596062613, -0.012, 0.9520000000000001, -0.134, 192.0, 0.0, 0.0, 0.0, 0.0, 0.0, 0.0, 0.0, 0.0, 0.0, 1.6664085148987951E9, 0.0, 2022-10-21 20:15:14.898
227.0, -153805.57224816945, -144655.61743445604, 63939.84722374049, -61556.59247119338, 78147.24184837841, -84622.98925196996, 87126.63050015336, -128247.73827168207, -0.012, 0.9520000000000001, -0.134, 192.0, 0.0, 0.0, 0.0, 0.0, 0.0, 0.0, 0.0, 0.0, 0.0, 1.6664085148988032E9, 0.0, 2022-10-21 20:15:14.898
228.0, -153802.73357662364, -144656.10917283408, 63941.74712201919, -61563.45445674115, 78142.12329889814, -84632.51109510793, 87106.35746793241, -128250.28637054998, -0.01, 0.9460000000000001, -0.124, 192.0, 255.0, 176.0, 29.0, 144.0, 252.0, 32.0, 0.0, 0.0, 0.0, 1.6664085148988135E9, 0.0, 2022-10-21 20:15:14.898
229.0, -153799.0008352996, -144653.02463209923, 63946.86567149946, -61558.82764563891, 78145.56546754426, -84634.74626955346, 87082.08347345394, -128247.80532691543, -0.01, 0.9460000000000001, -0.124, 192.0, 0.0, 0.0, 0.0, 0.0, 0.0, 0.0, 0.0, 0.0, 0.0, 1.6664085148988225E9, 0.0, 2022-10-21 20:15:14.898
230.0, -153803.5605911685, -144654.7457164223, 63946.016305210156, -61550.75866589054, 78152.02512169184, -84628.24191191696, 87103.31763068648, -128245.34663502534, -0.01, 0.9460000000000001, -0.124, 192.0, 0.0, 0.0, 0.0, 0.0, 0.0, 0.0, 0.0, 0.0, 0.0, 1.6664085148988304E9, 0.0, 2022-10-21 20:15:14.898
231.0, -153810.3555214829, -144661.9429781369, 63938.237898139705, -61564.281471286, 78136.91534244006, -84632.33228115228, 87121.80252335103, -128251.04632986145, -0.01, 0.9460000000000001, -0.124, 192.0, 0.0, 0.0, 0.0, 0.0, 0.0, 0.0, 0.0, 0.0, 0.0, 1.6664085148988383E9, 0.0, 2022-10-21 20:15:14.898
232.0, -153798.9561318107, -144651.48236173182, 63948.98908722271, -61561.532206717995, 78141.76567098686, -84627.79487702786, 87118.18154074927, -128245.74896642554, -0.01, 0.9460000000000001, -0.124, 192.0, 0.0, 0.0, 0.0, 0.0, 0.0, 0.0, 0.0, 0.0, 0.0, 1.6664085148988464E9, 0.0, 2022-10-21 20:15:14.898
233.0, -153797.2573992321, -144650.87886463152, 63950.93368899032, -61570.405849266754, 78142.05624366477, -84631.46056311853, 87089.1019212129, -128246.91125713722, -0.01, 0.9460000000000001, -0.124, 192.0, 0.0, 0.0, 0.0, 0.0, 0.0, 0.0, 0.0, 0.0, 0.0, 1.666408514898854E9, 0.0, 2022-10-21 20:15:14.898
234.0, -153797.7491376101, -144654.7010129334, 63949.65963955637, -61568.9306341327, 78137.92117094055, -84628.8230572728, 87091.06887472498, -128247.80532691543, -0.01, 0.9460000000000001, -0.124, 192.0, 0.0, 0.0, 0.0, 0.0, 0.0, 0.0, 0.0, 0.0, 0.0, 1.666408514898862E9, 0.0, 2022-10-21 20:15:14.898
235.0, -153803.51588767956, -144663.46289675985, 63944.742255776204, -61557.3300787604, 78140.02223491935, -84625.1797229266, 87123.83653209645, -128252.09686185085, -0.01, 0.9460000000000001, -0.124, 192.0, 0.0, 0.0, 0.0, 0.0, 0.0, 0.0, 0.0, 0.0, 0.0, 1.66640851489887E9, 0.0, 2022-10-21 20:15:14.898
236.0, -153799.6490358888, -144661.13831533652, 63944.45168309828, -61566.33783177589, 78135.3954238171, -84630.49943810696, 87118.58387214945, -128249.10172809384, -0.01, 0.9460000000000001, -0.124, 192.0, 0.0, 0.0, 0.0, 0.0, 0.0, 0.0, 0.0, 0.0, 0.0, 1.666408514898878E9, 0.0, 2022-10-21 20:15:14.898
237.0, -153795.62572188684, -144656.66796644544, 63950.10667444547, -61562.20275905166, 78144.60434253268, -84623.39158337016, 87096.12036897187, -128241.72565242359, -0.01, 0.9460000000000001, -0.124, 192.0, 0.0, 0.0, 0.0, 0.0, 0.0, 0.0, 0.0, 0.0, 0.0, 1.6664085148989089E9, 0.0, 2022-10-21 20:15:14.898
238.0, -153794.5081346641, -144655.88565538952, 63951.380723879425, -61562.26981428502, 78144.55963904377, -84624.48681884847, 87092.2535171811, -128246.2183530591, -0.014, 0.9460000000000001, -0.122, 192.0, 255.0, 144.0, 29.0, 144.0, 252.0, 48.0, 0.0, 0.0, 0.0, 1.666408514898917E9, 0.0, 2022-10-21 20:15:14.898
239.0, -153797.03388178753, -144659.46193450235, 63949.905508745374, -61561.71102067364, 78139.03875816331, -84621.04465020236, 87119.00855529412, -128247.31358853742, -0.014, 0.9460000000000001, -0.122, 192.0, 0.0, 0.0, 0.0, 0.0, 0.0, 0.0, 0.0, 0.0, 0.0, 1.6664085148989253E9, 0.0, 2022-10-21 20:15:14.898
240.0, -153803.8511638464, -144665.67571946094, 63945.52456683214, -61566.784866664995, 78136.2447901064, -84627.59371132776, 87121.69076462874, -128251.31455079491, -0.014, 0.9460000000000001, -0.122, 192.0, 0.0, 0.0, 0.0, 0.0, 0.0, 0.0, 0.0, 0.0, 0.0, 1.6664085148989332E9, 0.0, 2022-10-21 20:15:14.898
241.0, -153803.67234989075, -144663.28408280422, 63946.37393312144, -61578.13955284829, 78126.92411266854, -84640.87064753422, 87086.71028455619, -128256.34369329736, -0.014, 0.9460000000000001, -0.122, 192.0, 0.0, 0.0, 0.0, 0.0, 0.0, 0.0, 0.0, 0.0, 0.0, 1.6664085148989413E9, 0.0, 2022-10-21 20:15:14.898
242.0, -153797.36915795435, -144655.48332398932, 63953.32532564704, -61573.95977663515, 78131.81914470425, -84636.48970562097, 87080.29533389752, -128248.43117576018, -0.014, 0.9460000000000001, -0.122, 192.0, 0.0, 0.0, 0.0, 0.0, 0.0, 0.0, 0.0, 0.0, 0.0, 1.6664085148989491E9, 0.0, 2022-10-21 20:15:14.898
243.0, -153797.57032365445, -144657.42792575693, 63955.22522392574, -61567.52247423202, 78134.5460575278, -84625.69381304906, 87112.70536335772, -128244.02788210248, -0.014, 0.9460000000000001, -0.122, 192.0, 0.0, 0.0, 0.0, 0.0, 0.0, 0.0, 0.0, 0.0, 0.0, 1.6664085148989573E9, 0.0, 2022-10-21 20:15:14.898
244.0, -153802.800631857, -144661.02655661423, 63954.28645065862, -61564.99672710857, 78141.76567098686, -84615.7696385109, 87131.59258742245, -128240.85393438983, -0.014, 0.9460000000000001, -0.122, 192.0, 0.0, 0.0, 0.0, 0.0, 0.0, 0.0, 0.0, 0.0, 0.0, 1.666408514898965E9, 0.0, 2022-10-21 20:15:14.898
245.0, -153803.6052946574, -144663.46289675985, 63955.2475756702, -61568.260081799046, 78145.38665358862, -84620.59761531325, 87106.17865397676, -128244.40786175823, -0.014, 0.9460000000000001, -0.122, 192.0, 0.0, 0.0, 0.0, 0.0, 0.0, 0.0, 0.0, 0.0, 0.0, 1.6664085148989727E9, 0.0, 2022-10-21 20:15:14.898
246.0, -153802.554762668, -144665.8545334166, 63954.80054078109, -61563.45445674115, 78145.69957801099, -84624.28565314837, 87084.58686883294, -128246.4195187592, -0.014, 0.9460000000000001, -0.122, 192.0, 0.0, 0.0, 0.0, 0.0, 0.0, 0.0, 0.0, 0.0, 0.0, 1.6664085148989809E9, 0.0, 2022-10-21 20:15:14.898
247.0, -153807.02511155905, -144672.42594628644, 63954.33115414753, -61550.13281704579, 78148.91822921256, -84616.03785944438, 87110.40313367882, -128243.11146057982, -0.014, 0.9460000000000001, -0.122, 192.0, 0.0, 0.0, 0.0, 0.0, 0.0, 0.0, 0.0, 0.0, 0.0, 1.6664085148989885E9, 0.0, 2022-10-21 20:15:14.898
248.0, -153808.74619588212, -144674.50465852077, 63952.23009016873, -61558.42531423871, 78144.60434253268, -84613.44505708755, 87132.28549150056, -128243.49144023555, -0.018000000000000002, 0.9540000000000001, -0.132, 192.0, 255.0, 112.0, 29.0, 208.0, 251.0, 224.0, 0.0, 0.0, 0.0, 1.6664085148989964E9, 0.0, 2022-10-21 20:15:14.898
249.0, -153803.78410861304, -144671.37541429704, 63954.55467159208, -61557.77711364951, 78143.01736867636, -84619.9717664685, 87112.12421800187, -128244.45256524713, -0.018000000000000002, 0.9540000000000001, -0.132, 192.0, 0.0, 0.0, 0.0, 0.0, 0.0, 0.0, 0.0, 0.0, 0.0, 1.6664085148990057E9, 0.0, 2022-10-21 20:15:14.899
250.0, -153804.18644001323, -144670.3472340521, 63953.86176751397, -61559.587604950386, 78142.95031344298, -84628.08544970577, 87086.88909851183, -128247.0677193484, -0.018000000000000002, 0.9540000000000001, -0.132, 192.0, 0.0, 0.0, 0.0, 0.0, 0.0, 0.0, 0.0, 0.0, 0.0, 1.6664085148990133E9, 0.0, 2022-10-21 20:15:14.899
251.0, -153809.88613484934, -144676.15868761047, 63943.44585459779, -61564.66145094174, 78134.70251973897, -84628.5771880838, 87097.21560445019, -128250.88986765026, -0.018000000000000002, 0.9540000000000001, -0.132, 192.0, 0.0, 0.0, 0.0, 0.0, 0.0, 0.0, 0.0, 0.0, 0.0, 1.6664085148990211E9, 0.0, 2022-10-21 20:15:14.899
252.0, -153814.66940816276, -144681.74662372432, 63937.5896975505, -61569.26591029953, 78127.10292662418, -84627.50430434995, 87120.12614251688, -128254.53320199648, -0.018000000000000002, 0.9540000000000001, -0.132, 192.0, 0.0, 0.0, 0.0, 0.0, 0.0, 0.0, 0.0, 0.0, 0.0, 1.6664085148990395E9, 0.0, 2022-10-21 20:15:14.899
253.0, -153812.85891686188, -144677.36568181106, 63943.781130764626, -61572.61867196783, 78131.08153713722, -84631.30410090735, 87111.47601741267, -128254.51085025202, -0.018000000000000002, 0.9540000000000001, -0.132, 192.0, 0.0, 0.0, 0.0, 0.0, 0.0, 0.0, 0.0, 0.0, 0.0, 1.666408514899049E9, 0.0, 2022-10-21 20:15:14.899
254.0, -153803.49353593512, -144667.28504506173, 63952.498311102194, -61573.89272140178, 78132.0426621488, -84635.93091200959, 87083.84926126592, -128250.48753625008, -0.018000000000000002, 0.9540000000000001, -0.132, 192.0, 0.0, 0.0, 0.0, 0.0, 0.0, 0.0, 0.0, 0.0, 0.0, 1.666408514899057E9, 0.0, 2022-10-21 20:15:14.899
255.0, -153799.6490358888, -144663.21702757085, 63959.96379375026, -61564.817913152925, 78143.12912739863, -84620.73172577999, 87102.53531963055, -128242.01622510151, -0.018000000000000002, 0.9540000000000001, -0.132, 192.0, 0.0, 0.0, 0.0, 0.0, 0.0, 0.0, 0.0, 0.0, 0.0, 1.6664085148990648E9, 0.0, 2022-10-21 20:15:14.899
0.0, -153800.09607077792, -144664.37931828253, 63960.16495945036, -61557.978279349605, 78140.17869713053, -84620.6199670577, 87128.79861936554, -128241.50213497903, -0.018000000000000002, 0.9540000000000001, -0.132, 192.0, 0.0, 0.0, 0.0, 0.0, 0.0, 0.0, 0.0, 0.0, 0.0, 1.666408514899073E9, 0.0, 2022-10-21 20:15:14.899
1.0, -153800.83367834493, -144670.3025305632, 63956.700439059794, -61564.34852651937, 78136.80358371777, -84631.54997009636, 87114.78407559206, -128249.52641123849, -0.016, 0.9560000000000001, -0.13, 192.0, 255.0, 128.0, 29.0, 224.0, 251.0, 240.0, 0.0, 0.0, 0.0, 1.6664085148990805E9, 0.0, 2022-10-21 20:15:14.899
2.0, -153800.99014055612, -144670.92837940794, 63956.36516289296, -61568.9306341327, 78138.09998489618, -84635.17095269811, 87086.46441536718, -128248.1182513378, -0.016, 0.9560000000000001, -0.13, 192.0, 0.0, 0.0, 0.0, 0.0, 0.0, 0.0, 0.0, 0.0, 0.0, 1.666408514899089E9, 0.0, 2022-10-21 20:15:14.899
3.0, -153802.21948650116, -144671.37541429704, 63958.242709427206, -61558.58177644989, 78142.92796169853, -84624.19624617056, 87093.2593456816, -128246.06189084792, -0.016, 0.9560000000000001, -0.13, 192.0, 0.0, 0.0, 0.0, 0.0, 0.0, 0.0, 0.0, 0.0, 0.0, 1.666408514899097E9, 0.0, 2022-10-21 20:15:14.899
4.0, -153808.54503018202, -144679.95848416787, 63952.67712505784, -61557.86652062733, 78136.80358371777, -84623.5703973258, 87119.03090703857, -128250.26401880551, -0.016, 0.9560000000000001, -0.13, 192.0, 0.0, 0.0, 0.0, 0.0, 0.0, 0.0, 0.0, 0.0, 0.0, 1.6664085148991048E9, 0.0, 2022-10-21 20:15:14.899
5.0, -153804.78993711353, -144673.45412653137, 63955.2475756702, -61562.64979394076, 78139.86577270816, -84627.25843516094, 87123.6130146519, -128248.74410018255, -0.016, 0.9560000000000001, -0.13, 192.0, 0.0, 0.0, 0.0, 0.0, 0.0, 0.0, 0.0, 0.0, 0.0, 1.6664085148991127E9, 0.0, 2022-10-21 20:15:14.899
6.0, -153798.7996695995, -144666.03334737223, 63965.12704671944, -61557.218320038126, 78146.12426115564, -84623.03395545889, 87099.74135157364, -128240.83158264538, -0.016, 0.9560000000000001, -0.13, 192.0, 0.0, 0.0, 0.0, 0.0, 0.0, 0.0, 0.0, 0.0, 0.0, 1.6664085148991208E9, 0.0, 2022-10-21 20:15:14.899
7.0, -153795.3127974645, -144662.76999268174, 63969.57504386605, -61558.02298283851, 78150.84047923572, -84613.78033325438, 87097.21560445019, -128237.72469016608, -0.016, 0.9560000000000001, -0.13, 192.0, 0.0, 0.0, 0.0, 0.0, 0.0, 0.0, 0.0, 0.0, 0.0, 1.666408514899129E9, 0.0, 2022-10-21 20:15:14.899
8.0, -153806.42161445876, -144672.87298117555, 63964.18827345232, -61559.74406716157, 78150.84047923572, -84608.32650760729, 87126.9657763202, -128239.37871925578, -0.016, 0.9560000000000001, -0.13, 192.0, 0.0, 0.0, 0.0, 0.0, 0.0, 0.0, 0.0, 0.0, 0.0, 1.6664085148991365E9, 0.0, 2022-10-21 20:15:14.899
9.0, -153822.67133267777, -144688.40744357198, 63946.910374988365, -61578.22895982611, 78137.47413605143, -84627.99604272796, 87124.32827047448, -128254.3767397853, -0.016, 0.9560000000000001, -0.13, 192.0, 0.0, 0.0, 0.0, 0.0, 0.0, 0.0, 0.0, 0.0, 0.0, 1.6664085148991444E9, 0.0, 2022-10-21 20:15:14.899
10.0, -153816.85987911938, -144683.53476328074, 63950.6431163124, -61582.229922083614, 78134.97074067245, -84641.65295859014, 87093.7063805707, -128257.61774273131, -0.016, 0.9560000000000001, -0.13, 192.0, 0.0, 0.0, 0.0, 0.0, 0.0, 0.0, 0.0, 0.0, 0.0, 1.666408514899152E9, 0.0, 2022-10-21 20:15:14.899
11.0, -153806.82394585895, -144672.73887070882, 63961.662526328866, -61565.68963118669, 78147.19714488949, -84625.35853688224, 87089.97363924666, -128244.9219518807, -0.002, 0.9520000000000001, -0.13, 192.0, 255.0, 240.0, 29.0, 192.0, 251.0, 240.0, 0.0, 0.0, 0.0, 1.6664085148991833E9, 0.0, 2022-10-21 20:15:14.899
12.0, -153812.56834418396, -144679.69026323443, 63958.51093036067, -61554.22318628111, 78149.16409840157, -84612.28276637588, 87119.29912797203, -128239.31166402242, -0.002, 0.9520000000000001, -0.13, 192.0, 0.0, 0.0, 0.0, 0.0, 0.0, 0.0, 0.0, 0.0, 0.0, 1.6664085148991923E9, 0.0, 2022-10-21 20:15:14.899
13.0, -153819.36327449838, -144686.44049005993, 63949.927860489835, -61567.2319015541, 78142.39151983161, -84619.86000774623, 87131.19025602225, -128247.4700507486, -0.002, 0.9520000000000001, -0.13, 192.0, 0.0, 0.0, 0.0, 0.0, 0.0, 0.0, 0.0, 0.0, 0.0, 1.6664085148992E9, 0.0, 2022-10-21 20:15:14.899
14.0, -153812.90362035081, -144677.90212367798, 63958.868558271955, -61569.24355855508, 78143.66556926556, -84620.55291182434, 87110.89487205683, -128241.72565242359, -0.002, 0.9520000000000001, -0.13, 192.0, 0.0, 0.0, 0.0, 0.0, 0.0, 0.0, 0.0, 0.0, 0.0, 1.6664085148992107E9, 0.0, 2022-10-21 20:15:14.899
15.0, -153808.99206507113, -144674.92934166544, 63966.57991010904, -61559.09586657237, 78154.17088915955, -84614.1156094212, 87097.77439806156, -128230.90740810722, -0.002, 0.9520000000000001, -0.13, 192.0, 0.0, 0.0, 0.0, 0.0, 0.0, 0.0, 0.0, 0.0, 0.0, 1.6664085148992183E9, 0.0, 2022-10-21 20:15:14.899
16.0, -153813.68593140674, -144676.38220505504, 63961.77428505114, -61552.18917753568, 78152.00276994739, -84609.2205773855, 87117.53334016007, -128233.27669301948, -0.002, 0.9520000000000001, -0.13, 192.0, 0.0, 0.0, 0.0, 0.0, 0.0, 0.0, 0.0, 0.0, 0.0, 1.6664085148992264E9, 0.0, 2022-10-21 20:15:14.899
17.0, -153815.11644305187, -144678.75148996728, 63957.818026282555, -61558.82764563891, 78147.42066233404, -84608.77354249639, 87134.7218316462, -128241.3680245123, -0.002, 0.9520000000000001, -0.13, 192.0, 0.0, 0.0, 0.0, 0.0, 0.0, 0.0, 0.0, 0.0, 0.0, 1.666408514899234E9, 0.0, 2022-10-21 20:15:14.899
18.0, -153809.37204472686, -144674.90698992097, 63962.42248564035, -61562.60509045185, 78150.97458970244, -84613.73562976548, 87118.85209308293, -128240.31749252291, -0.002, 0.9520000000000001, -0.13, 192.0, 0.0, 0.0, 0.0, 0.0, 0.0, 0.0, 0.0, 0.0, 0.0, 1.666408514899242E9, 0.0, 2022-10-21 20:15:14.899
19.0, -153810.60139067192, -144676.49396377732, 63963.09303797401, -61570.696421944675, 78148.29238036781, -84623.86097000372, 87094.1534154598, -128236.22712328758, -0.002, 0.9520000000000001, -0.13, 192.0, 0.0, 0.0, 0.0, 0.0, 0.0, 0.0, 0.0, 0.0, 0.0, 1.66640851489925E9, 0.0, 2022-10-21 20:15:14.899
20.0, -153816.50225120812, -144681.61251325757, 63963.18244495183, -61560.481674728595, 78151.35456935818, -84616.03785944438, 87110.31372670099, -128238.97638785558, -0.002, 0.9520000000000001, -0.13, 192.0, 0.0, 0.0, 0.0, 0.0, 0.0, 0.0, 0.0, 0.0, 0.0, 1.6664085148992577E9, 0.0, 2022-10-21 20:15:14.899
21.0, -153816.14462329683, -144676.27044633275, 63969.977375266244, -61548.97052633412, 78160.4517293515, -84598.96112668052, 87146.36709050741, -128232.33791975236, 0.002, 0.9540000000000001, -0.134, 192.0, 0.0, 16.0, 29.0, 208.0, 251.0, 208.0, 0.0, 0.0, 0.0, 1.6664085148992655E9, 0.0, 2022-10-21 20:15:14.899
22.0, -153811.98719882814, -144672.71651896436, 63973.21837821227, -61549.46226471213, 78163.17864217504, -84605.24196687246, 87133.6712996568, -128230.88505636276, 0.002, 0.9540000000000001, -0.134, 192.0, 0.0, 0.0, 0.0, 0.0, 0.0, 0.0, 0.0, 0.0, 0.0, 1.666408514899274E9, 0.0, 2022-10-21 20:15:14.899
23.0, -153814.89292560733, -144678.68443473394, 63966.356392664486, -61561.17457880671, 78155.80256650479, -84624.50917059294, 87097.23795619464, -128242.2173908016, 0.002, 0.9540000000000001, -0.134, 192.0, 0.0, 0.0, 0.0, 0.0, 0.0, 0.0, 0.0, 0.0, 0.0, 1.6664085148992815E9, 0.0, 2022-10-21 20:15:14.899
24.0, -153812.81421337297, -144682.26071384677, 63965.864654286466, -61555.54193920398, 78155.95902871598, -84614.5179408214, 87110.1125610009, -128237.74704191054, 0.002, 0.9540000000000001, -0.134, 192.0, 0.0, 0.0, 0.0, 0.0, 0.0, 0.0, 0.0, 0.0, 0.0, 1.6664085148992896E9, 0.0, 2022-10-21 20:15:14.899
25.0, -153808.32151273746, -144678.97500741185, 63967.406924653886, -61546.3777239773, 78154.23794439292, -84604.83963547226, 87141.82968638297, -128226.23589351606, 0.002, 0.9540000000000001, -0.134, 192.0, 0.0, 0.0, 0.0, 0.0, 0.0, 0.0, 0.0, 0.0, 0.0, 1.6664085148992977E9, 0.0, 2022-10-21 20:15:14.899
26.0, -153806.17574526975, -144675.398728299, 63965.574081608545, -61557.218320038126, 78148.71706351246, -84617.13309492268, 87128.4633431987, -128229.67806216217, 0.002, 0.9540000000000001, -0.134, 192.0, 0.0, 0.0, 0.0, 0.0, 0.0, 0.0, 0.0, 0.0, 0.0, 1.6664085148993132E9, 0.0, 2022-10-21 20:15:14.899
27.0, -153808.88030634884, -144680.85255394608, 63963.830645541035, -61570.85288415586, 78149.5440780573, -84624.7773915264, 87099.4060754068, -128236.78591689897, 0.002, 0.9540000000000001, -0.134, 192.0, 0.0, 0.0, 0.0, 0.0, 0.0, 0.0, 0.0, 0.0, 0.0, 1.6664085148993208E9, 0.0, 2022-10-21 20:15:14.899
28.0, -153808.43327145974, -144680.91960917946, 63968.65862234338, -61559.63230843929, 78160.71995028495, -84606.62777502868, 87112.16892149078, -128226.45941096061, 0.002, 0.9540000000000001, -0.134, 192.0, 0.0, 0.0, 0.0, 0.0, 0.0, 0.0, 0.0, 0.0, 0.0, 1.6664085148993287E9, 0.0, 2022-10-21 20:15:14.899
29.0, -153812.23306801714, -144686.37343482656, 63961.595471095505, -61557.64300318278, 78152.98624670343, -84600.07871390328, 87137.04641306955, -128235.22129478709, 0.002, 0.9540000000000001, -0.134, 192.0, 0.0, 0.0, 0.0, 0.0, 0.0, 0.0, 0.0, 0.0, 0.0, 1.6664085148993373E9, 0.0, 2022-10-21 20:15:14.899
30.0, -153813.68593140674, -144686.66400750447, 63959.53911060561, -61564.7285061751, 78147.35360710068, -84610.42757158609, 87135.72766014667, -128235.35540525382, -0.004, 0.96, -0.134, 192.0, 255.0, 224.0, 30.0, 0.0, 251.0, 208.0, 0.0, 0.0, 0.0, 1.6664085148993447E9, 0.0, 2022-10-21 20:15:14.899
31.0, -153815.00468432961, -144686.84282146013, 63957.48275011573, -61569.86940739983, 78146.90657221158, -84625.6267578157, 87104.79284582053, -128240.02691984498, -0.004, 0.96, -0.134, 192.0, 0.0, 0.0, 0.0, 0.0, 0.0, 0.0, 0.0, 0.0, 0.0, 1.6664085148993533E9, 0.0, 2022-10-21 20:15:14.899
32.0, -153813.06008256198, -144685.65817900398, 63947.64798255539, -61574.607977224354, 78139.30697909677, -84633.31575790832, 87087.33613340094, -128249.30289379394, -0.004, 0.96, -0.134, 192.0, 0.0, 0.0, 0.0, 0.0, 0.0, 0.0, 0.0, 0.0, 0.0, 1.666408514899361E9, 0.0, 2022-10-21 20:15:14.899
33.0, -153801.16895451176, -144676.38220505504, 63956.476921615234, -61552.882081613796, 78149.9464094575, -84613.10978092073, 87127.43516295376, -128238.73051866658, -0.004, 0.96, -0.134, 192.0, 0.0, 0.0, 0.0, 0.0, 0.0, 0.0, 0.0, 0.0, 0.0, 1.6664085148993688E9, 0.0, 2022-10-21 20:15:14.899
34.0, -153807.53920168153, -144687.69218774943, 63958.75679954968, -61550.80336937945, 78151.33221761373, -84614.98732745498, 87140.60034043793, -128236.62945468778, -0.004, 0.96, -0.134, 192.0, 0.0, 0.0, 0.0, 0.0, 0.0, 0.0, 0.0, 0.0, 0.0, 1.6664085148993764E9, 0.0, 2022-10-21 20:15:14.899
35.0, -153802.48770743463, -144684.78646097024, 63965.90935777538, -61550.95983159063, 78155.8919734826, -84613.13213266518, 87117.55569190452, -128230.43802147366, -0.004, 0.96, -0.134, 192.0, 0.0, 0.0, 0.0, 0.0, 0.0, 0.0, 0.0, 0.0, 0.0, 1.6664085148993843E9, 0.0, 2022-10-21 20:15:14.899
36.0, -153795.8492393314, -144678.97500741185, 63966.44579964231, -61546.95886933314, 78161.77048227435, -84612.97567045399, 87100.88129054086, -128232.7178994081, -0.004, 0.96, -0.134, 192.0, 0.0, 0.0, 0.0, 0.0, 0.0, 0.0, 0.0, 0.0, 0.0, 1.6664085148993948E9, 0.0, 2022-10-21 20:15:14.899
37.0, -153800.67721613374, -144680.96431266837, 63965.75289556419, -61530.93266855868, 78168.87833701115, -84603.18560638257, 87130.83262811096, -128229.54395169545, -0.004, 0.96, -0.134, 192.0, 0.0, 0.0, 0.0, 0.0, 0.0, 0.0, 0.0, 0.0, 0.0, 1.6664085148994026E9, 0.0, 2022-10-21 20:15:14.899
38.0, -153797.57032365445, -144678.50562077828, 63961.75193330669, -61540.074532040904, 78162.84336600821, -84605.24196687246, 87145.51772421811, -128235.98125409857, -0.004, 0.96, -0.134, 192.0, 0.0, 0.0, 0.0, 0.0, 0.0, 0.0, 0.0, 0.0, 0.0, 1.6664085148994105E9, 0.0, 2022-10-21 20:15:14.899
39.0, -153793.36819569685, -144674.70582422087, 63966.982241509235, -61545.34954373236, 78162.01635146336, -84607.92417620709, 87122.18250300676, -128229.25337901752, -0.004, 0.96, -0.134, 192.0, 0.0, 0.0, 0.0, 0.0, 0.0, 0.0, 0.0, 0.0, 0.0, 1.6664085148994184E9, 0.0, 2022-10-21 20:15:14.899
40.0, -153790.41776542878, -144671.5989317416, 63970.267947944165, -61536.49825292805, 78172.18639519053, -84608.08063841828, 87104.43521790925, -128227.73346039456, 0.002, 0.9560000000000001, -0.13, 192.0, 0.0, 16.0, 29.0, 224.0, 251.0, 240.0, 0.0, 0.0, 0.0, 1.6664085148994267E9, 0.0, 2022-10-21 20:15:14.899
41.0, -153797.57032365445, -144683.78063246974, 63954.80054078109, -61542.62263090881, 78157.59070606121, -84616.99898445595, 87113.21945348018, -128245.63720770327, 0.002, 0.9560000000000001, -0.13, 192.0, 0.0, 0.0, 0.0, 0.0, 0.0, 0.0, 0.0, 0.0, 0.0, 1.6664085148994544E9, 0.0, 2022-10-21 20:15:14.899
42.0, -153807.53920168153, -144691.13435639555, 63945.61397380996, -61541.192119263666, 78149.00763619038, -84618.09421993425, 87131.05614555551, -128253.46031826263, 0.002, 0.9560000000000001, -0.13, 192.0, 0.0, 0.0, 0.0, 0.0, 0.0, 0.0, 0.0, 0.0, 0.0, 1.666408514899462E9, 0.0, 2022-10-21 20:15:14.899
43.0, -153788.0931840054, -144669.4531642739, 63963.540072863114, -61530.75385460304, 78159.71412178446, -84611.09812391974, 87123.0095175516, -128235.22129478709, 0.002, 0.9560000000000001, -0.13, 192.0, 0.0, 0.0, 0.0, 0.0, 0.0, 0.0, 0.0, 0.0, 0.0, 1.6664085148994699E9, 0.0, 2022-10-21 20:15:14.899
44.0, -153786.23798921562, -144670.39193754102, 63968.7480293212, -61522.21548822111, 78168.02897072185, -84612.8192082428, 87103.38468591985, -128229.47689646207, 0.002, 0.9560000000000001, -0.13, 192.0, 0.0, 0.0, 0.0, 0.0, 0.0, 0.0, 0.0, 0.0, 0.0, 1.6664085148994775E9, 0.0, 2022-10-21 20:15:14.899
45.0, -153794.798707342, -144677.74566146682, 63964.18827345232, -61513.922991028194, 78163.93860148652, -84610.24875763044, 87113.64413662483, -128230.70624240712, 0.002, 0.9560000000000001, -0.13, 192.0, 0.0, 0.0, 0.0, 0.0, 0.0, 0.0, 0.0, 0.0, 0.0, 1.666408514899485E9, 0.0, 2022-10-21 20:15:14.899
46.0, -153797.12328876535, -144676.82923994414, 63962.55659610708, -61509.92202877069, 78163.4021596196, -84600.39163832566, 87143.1707910503, -128230.50507670702, 0.002, 0.9560000000000001, -0.13, 192.0, 0.0, 0.0, 0.0, 0.0, 0.0, 0.0, 0.0, 0.0, 0.0, 1.666408514899493E9, 0.0, 2022-10-21 20:15:14.899
47.0, -153792.87645731884, -144673.25296083128, 63964.23297694123, -61517.499270141045, 78164.98913347592, -84607.34303085126, 87132.48665720066, -128234.05900407542, 0.002, 0.9560000000000001, -0.13, 192.0, 0.0, 0.0, 0.0, 0.0, 0.0, 0.0, 0.0, 0.0, 0.0, 1.6664085148995008E9, 0.0, 2022-10-21 20:15:14.899
48.0, -153784.2039804702, -144664.87105666054, 63972.23490145623, -61517.9686567746, 78167.35841838819, -84615.43436234408, 87099.65194459581, -128234.66250117571, 0.002, 0.9560000000000001, -0.13, 192.0, 0.0, 0.0, 0.0, 0.0, 0.0, 0.0, 0.0, 0.0, 0.0, 1.6664085148995087E9, 0.0, 2022-10-21 20:15:14.899
49.0, -153783.9581112812, -144663.5523037377, 63971.385535166926, -61508.692682825655, 78172.4993196129, -84612.8192082428, 87105.03871500955, -128234.95307385363, 0.002, 0.9560000000000001, -0.13, 192.0, 0.0, 0.0, 0.0, 0.0, 0.0, 0.0, 0.0, 0.0, 0.0, 1.6664085148995163E9, 0.0, 2022-10-21 20:15:14.899
50.0, -153789.63545437282, -144670.48134451883, 63963.830645541035, -61519.6226858643, 78157.56835431675, -84614.74145826595, 87125.49056118615, -128243.22321930209, 0.002, 0.9560000000000001, -0.13, 192.0, 0.0, 0.0, 29.0, 192.0, 251.0, 240.0, 0.0, 0.0, 0.0, 1.6664085148995245E9, 0.0, 2022-10-21 20:15:14.899
51.0, -153785.16510548178, -144664.51342874925, 63970.49146538872, -61520.762624831514, 78163.51391834187, -84609.77937099688, 87129.62563391039, -128232.49438196355, 0.002, 0.9560000000000001, -0.13, 192.0, 0.0, 0.0, 0.0, 0.0, 0.0, 0.0, 0.0, 0.0, 0.0, 1.6664085148995323E9, 0.0, 2022-10-21 20:15:14.899
52.0, -153780.51594263507, -144660.28894904722, 63974.02304101265, -61521.79080507646, 78164.8550230092, -84617.2672053894, 87103.38468591985, -128232.98612034156, 0.002, 0.9560000000000001, -0.13, 192.0, 0.0, 0.0, 0.0, 0.0, 0.0, 0.0, 0.0, 0.0, 0.0, 1.6664085148995404E9, 0.0, 2022-10-21 20:15:14.899
53.0, -153784.96393978168, -144667.68737646192, 63970.37970666644, -61520.53910738696, 78158.30596188379, -84622.65397580314, 87094.9580782602, -128243.35732976883, 0.002, 0.9560000000000001, -0.13, 192.0, 0.0, 0.0, 0.0, 0.0, 0.0, 0.0, 0.0, 0.0, 0.0, 1.666408514899548E9, 0.0, 2022-10-21 20:15:14.899
54.0, -153788.808439828, -144672.649463731, 63967.18340720933, -61515.956999773625, 78154.30499962629, -84614.74145826595, 87124.99882280813, -128240.09397507834, 0.002, 0.9560000000000001, -0.13, 192.0, 0.0, 0.0, 0.0, 0.0, 0.0, 0.0, 0.0, 0.0, 0.0, 1.6664085148995557E9, 0.0, 2022-10-21 20:15:14.899
55.0, -153782.92993103623, -144666.7486031948, 63970.893796788914, -61509.586752603864, 78158.5965345617, -84613.78033325438, 87131.50318044462, -128236.89767562124, 0.002, 0.9560000000000001, -0.13, 192.0, 0.0, 0.0, 0.0, 0.0, 0.0, 0.0, 0.0, 0.0, 0.0, 1.6664085148995636E9, 0.0, 2022-10-21 20:15:14.899
56.0, -153785.47802990413, -144667.68737646192, 63968.83743629902, -61515.80053756244, 78157.27778163884, -84620.8211327578, 87098.62376435086, -128241.25626579003, 0.002, 0.9560000000000001, -0.13, 192.0, 0.0, 0.0, 0.0, 0.0, 0.0, 0.0, 0.0, 0.0, 0.0, 1.6664085148995783E9, 0.0, 2022-10-21 20:15:14.899
57.0, -153786.01447177108, -144665.72042294985, 63969.26211944367, -61516.60520036283, 78155.02025544885, -84619.7706007684, 87086.37500838935, -128241.81505940142, 0.002, 0.9560000000000001, -0.13, 192.0, 0.0, 0.0, 0.0, 0.0, 0.0, 0.0, 0.0, 0.0, 0.0, 1.666408514899587E9, 0.0, 2022-10-21 20:15:14.899
58.0, -153787.5567421385, -144666.23451307233, 63968.99389851021, -61508.42446189219, 78154.66262753757, -84615.18849315507, 87114.51585465859, -128240.36219601182, 0.002, 0.9560000000000001, -0.13, 192.0, 0.0, 0.0, 0.0, 0.0, 0.0, 0.0, 0.0, 0.0, 0.0, 1.6664085148995948E9, 0.0, 2022-10-21 20:15:14.899
59.0, -153791.37889044033, -144670.48134451883, 63966.199930453295, -61512.380720660774, 78153.45563333698, -84617.13309492268, 87127.30105248703, -128241.99387335705, -0.002, 0.9460000000000001, -0.124, 192.0, 255.0, 240.0, 29.0, 144.0, 252.0, 32.0, 0.0, 0.0, 0.0, 1.6664085148996027E9, 0.0, 2022-10-21 20:15:14.899
60.0, -153786.05917526, -144664.96046363836, 63971.43023865584, -61512.85010729434, 78154.86379323767, -84628.3313188948, 87100.88129054086, -128242.2173908016, -0.002, 0.9460000000000001, -0.124, 192.0, 0.0, 0.0, 0.0, 0.0, 0.0, 0.0, 0.0, 0.0, 0.0, 1.6664085148996108E9, 0.0, 2022-10-21 20:15:14.899
61.0, -153790.1495444953, -144669.36375729606, 63968.926843276844, -61515.107633484324, 78151.82395599174, -84630.18651368457, 87080.78707227553, -128242.68677743517, -0.002, 0.9460000000000001, -0.124, 192.0, 0.0, 0.0, 0.0, 0.0, 0.0, 0.0, 0.0, 0.0, 0.0, 1.6664085148996189E9, 0.0, 2022-10-21 20:15:14.899
62.0, -153790.03778577302, -144673.34236780912, 63970.13383747743, -61508.11153746981, 78149.92405771304, -84619.70354553504, 87108.70440110021, -128238.79757389994, -0.002, 0.9460000000000001, -0.124, 192.0, 0.0, 0.0, 0.0, 0.0, 0.0, 0.0, 0.0, 0.0, 0.0, 1.6664085148996265E9, 0.0, 2022-10-21 20:15:14.899
63.0, -153788.87549506134, -144671.62128348605, 63970.22324445525, -61507.23981943606, 78150.9969414469, -84616.84252224475, 87128.37393622089, -128243.267922791, -0.002, 0.9460000000000001, -0.124, 192.0, 0.0, 0.0, 0.0, 0.0, 0.0, 0.0, 0.0, 0.0, 0.0, 1.6664085148996344E9, 0.0, 2022-10-21 20:15:14.899
64.0, -153789.546047395, -144672.80592594217, 63971.40788691138, -61515.88994454026, 78153.05330193679, -84615.92610072209, 87112.63830812434, -128237.36706225481, -0.002, 0.9460000000000001, -0.124, 192.0, 0.0, 0.0, 0.0, 0.0, 0.0, 0.0, 0.0, 0.0, 0.0, 1.6664085148996422E9, 0.0, 2022-10-21 20:15:14.899
65.0, -153785.2992159485, -144667.32974855063, 63976.92876779185, -61515.331150928876, 78158.52947932834, -84615.05438268834, 87092.94642125921, -128234.43898373116, -0.002, 0.9460000000000001, -0.124, 192.0, 0.0, 0.0, 0.0, 0.0, 0.0, 0.0, 0.0, 0.0, 0.0, 1.66640851489965E9, 0.0, 2022-10-21 20:15:14.899
66.0, -153789.76956483957, -144672.69416721992, 63972.25725320068, -61505.183458946165, 78158.03774095033, -84613.80268499884, 87110.1125610009, -128236.83062038787, -0.002, 0.9460000000000001, -0.124, 192.0, 0.0, 0.0, 0.0, 0.0, 0.0, 0.0, 0.0, 0.0, 0.0, 1.6664085148996575E9, 0.0, 2022-10-21 20:15:14.899
67.0, -153794.552838153, -144680.98666441283, 63966.71402057577, -61511.71016832712, 78151.22045889145, -84620.08352519078, 87131.3690699779, -128241.16685881221, -0.002, 0.9460000000000001, -0.124, 192.0, 0.0, 0.0, 0.0, 0.0, 0.0, 0.0, 0.0, 0.0, 0.0, 1.6664085148996656E9, 0.0, 2022-10-21 20:15:14.899
68.0, -153786.3497479379, -144669.60962648506, 63974.33596543503, -61506.12223221329, 78160.31761888476, -84618.04951644535, 87121.64606113984, -128234.05900407542, -0.002, 0.9460000000000001, -0.124, 192.0, 0.0, 0.0, 0.0, 0.0, 0.0, 0.0, 0.0, 0.0, 0.0, 1.6664085148996735E9, 0.0, 2022-10-21 20:15:14.899
69.0, -153788.02612877204, -144668.26852181775, 63973.57600612355, -61504.19998219013, 78163.37980787514, -84616.8201705003, 87097.5061771281, -128231.89088486326, -0.008, 0.9540000000000001, -0.132, 192.0, 255.0, 192.0, 29.0, 208.0, 251.0, 224.0, 0.0, 0.0, 0.0, 1.666408514899681E9, 0.0, 2022-10-21 20:15:14.899
70.0, -153790.5965793844, -144674.05762363167, 63970.826741555546, -61497.22623792008, 78161.68107529654, -84603.87851046068, 87108.77145633358, -128231.55560869642, -0.008, 0.9540000000000001, -0.132, 192.0, 0.0, 0.0, 0.0, 0.0, 0.0, 0.0, 0.0, 0.0, 0.0, 1.6664085148996897E9, 0.0, 2022-10-21 20:15:14.899
71.0, -153792.34001545192, -144678.05858588917, 63969.55269212159, -61487.45852559311, 78163.11158694167, -84599.38580982517, 87138.45457297022, -128233.45550697512, -0.008, 0.9540000000000001, -0.132, 192.0, 0.0, 0.0, 0.0, 0.0, 0.0, 0.0, 0.0, 0.0, 0.0, 1.6664085148997176E9, 0.0, 2022-10-21 20:15:14.899
72.0, -153787.46733516068, -144676.71748122186, 63969.41858165486, -61493.247627407036, 78165.9055549986, -84604.63846977217, 87130.78792462205, -128239.60223670033, -0.008, 0.9540000000000001, -0.132, 192.0, 0.0, 0.0, 0.0, 0.0, 0.0, 0.0, 0.0, 0.0, 0.0, 1.6664085148997257E9, 0.0, 2022-10-21 20:15:14.899
0.0, 0.0, 0.0, 0.0, 0.0, 0.0, 0.0, 0.0, 0.0, -0.012, 0.96, -0.132, 192.0, 255.0, 160.0, 30.0, 0.0, 251.0, 224.0, 0.0, 0.0, 0.0, 1.666408515019192E9, 0.0, 2022-10-21 20:15:15.019
1.0, -154106.13615585997, -145460.4814005472, 63943.95994472026, -61604.469907816645, 78121.0903073657, -84464.20245935947, 87100.94834577422, -128270.26883009302, -0.012, 0.96, -0.132, 192.0, 0.0, 0.0, 0.0, 0.0, 0.0, 0.0, 0.0, 0.0, 0.0, 1.6664085150942388E9, 0.0, 2022-10-21 20:15:15.094
2.0, -154121.2682868562, -145475.34531061, 63929.52071780214, -61608.91790496325, 78109.26623454884, -84468.60575301717, 87123.52360767408, -128282.6293447768, -0.012, 0.96, -0.132, 192.0, 0.0, 0.0, 0.0, 0.0, 0.0, 0.0, 0.0, 0.0, 0.0, 1.6664085150942638E9, 0.0, 2022-10-21 20:15:15.094
3.0, -154123.19053687938, -145476.26173213264, 63923.619857265934, -61625.547602838, 78098.40328674356, -84481.92739271253, 87111.47601741267, -128288.0831704239, -0.012, 0.96, -0.132, 192.0, 0.0, 0.0, 0.0, 0.0, 0.0, 0.0, 0.0, 0.0, 0.0, 1.666408515094278E9, 0.0, 2022-10-21 20:15:15.094
4.0, -154115.4791850423, -145466.4269645723, 63927.8890404569, -61626.46402436066, 78097.35275475416, -84494.37731437413, 87078.57424957446, -128285.11038841134, -0.012, 0.96, -0.132, 192.0, 0.0, 0.0, 0.0, 0.0, 0.0, 0.0, 0.0, 0.0, 0.0, 1.666408515094296E9, 0.0, 2022-10-21 20:15:15.094
5.0, -154112.864030941, -145465.2870256051, 63936.24859288319, -61607.889724718305, 78108.32746128172, -84480.183956645, 87084.09513045492, -128274.02392316151, -0.012, 0.96, -0.132, 192.0, 0.0, 0.0, 0.0, 0.0, 0.0, 0.0, 0.0, 0.0, 0.0, 1.6664085150943189E9, 0.0, 2022-10-21 20:15:15.094
6.0, -154120.68714150038, -145474.4959443207, 63932.91818295934, -61605.83336422841, 78105.84641764718, -84473.92546819753, 87115.34286920344, -128273.75570222804, -0.012, 0.96, -0.132, 192.0, 0.0, 0.0, 0.0, 0.0, 0.0, 0.0, 0.0, 0.0, 0.0, 1.6664085150943444E9, 0.0, 2022-10-21 20:15:15.094
7.0, -154115.41212980892, -145470.4949820632, 63935.62274403844, -61608.023835185035, 78105.13116182461, -84472.69612225248, 87122.38366870685, -128270.6264580043, -0.018000000000000002, 0.9540000000000001, -0.132, 192.0, 255.0, 112.0, 29.0, 208.0, 251.0, 224.0, 0.0, 0.0, 0.0, 1.6664085150943613E9, 0.0, 2022-10-21 20:15:15.094
8.0, -154108.88542042798, -145468.90800820687, 63939.17667140683, -61609.499050319086, 78105.35467926916, -84484.40843634706, 87092.47703462566, -128270.67116149321, -0.018000000000000002, 0.9540000000000001, -0.132, 192.0, 0.0, 0.0, 0.0, 0.0, 0.0, 0.0, 0.0, 0.0, 0.0, 1.666408515094376E9, 0.0, 2022-10-21 20:15:15.094
9.0, -154108.5277925167, -145469.75737449617, 63939.93663071831, -61603.79935548298, 78109.15447582657, -84478.10524441068, 87087.04556072303, -128268.16776611422, -0.018000000000000002, 0.9540000000000001, -0.132, 192.0, 0.0, 0.0, 0.0, 0.0, 0.0, 0.0, 0.0, 0.0, 0.0, 1.6664085150943892E9, 0.0, 2022-10-21 20:15:15.094
10.0, -154109.0195308947, -145470.7855547411, 63943.44585459779, -61589.38248030931, 78115.6364817186, -84454.47945052141, 87125.19998850823, -128258.8247369319, -0.018000000000000002, 0.9540000000000001, -0.132, 192.0, 0.0, 0.0, 0.0, 0.0, 0.0, 0.0, 0.0, 0.0, 0.0, 1.6664085150944023E9, 0.0, 2022-10-21 20:15:15.094
11.0, -154109.2654000837, -145468.34921459548, 63940.98716270771, -61593.04816639998, 78114.51889449584, -84459.55329651276, 87136.84524736945, -128259.025902632, -0.018000000000000002, 0.9540000000000001, -0.132, 192.0, 0.0, 0.0, 0.0, 0.0, 0.0, 0.0, 0.0, 0.0, 0.0, 1.6664085150944157E9, 0.0, 2022-10-21 20:15:15.094
12.0, -154107.14198436047, -145463.96827268222, 63939.53429931812, -61614.48348933262, 78108.55097872627, -84475.87006996514, 87101.41773240778, -128269.82179520391, -0.018000000000000002, 0.9540000000000001, -0.132, 192.0, 0.0, 0.0, 0.0, 0.0, 0.0, 0.0, 0.0, 0.0, 0.0, 1.6664085150944288E9, 0.0, 2022-10-21 20:15:15.094
13.0, -154110.9194291734, -145470.9867204412, 63938.68493302882, -61619.222059157146, 78109.02036535983, -84478.86520372215, 87084.51981359957, -128268.59244925887, -0.018000000000000002, 0.9540000000000001, -0.132, 192.0, 0.0, 0.0, 0.0, 0.0, 0.0, 0.0, 0.0, 0.0, 0.0, 1.666408515094442E9, 0.0, 2022-10-21 20:15:15.094
14.0, -154111.03118789569, -145473.40070884238, 63941.948287719286, -61601.161849637254, 78116.19527532998, -84462.32491282522, 87116.84043608194, -128260.76933869951, -0.018000000000000002, 0.9540000000000001, -0.132, 192.0, 0.0, 0.0, 0.0, 0.0, 0.0, 0.0, 0.0, 0.0, 0.0, 1.6664085150945132E9, 0.0, 2022-10-21 20:15:15.094
15.0, -154109.60067625056, -145471.2325896302, 63939.646058040395, -61607.956779951666, 78115.52472299633, -84458.70393022346, 87134.83359036846, -128264.68089397918, -0.018000000000000002, 0.9540000000000001, -0.132, 192.0, 0.0, 0.0, 0.0, 0.0, 0.0, 0.0, 0.0, 0.0, 0.0, 1.666408515094526E9, 0.0, 2022-10-21 20:15:15.094
16.0, -154107.25374308275, -145471.72432800822, 63942.28356388612, -61603.53113454952, 78122.87844692213, -84463.26368609235, 87118.51681691609, -128265.75377771305, -0.018000000000000002, 0.9540000000000001, -0.132, 192.0, 0.0, 0.0, 0.0, 0.0, 0.0, 0.0, 0.0, 0.0, 0.0, 1.6664085150945392E9, 0.0, 2022-10-21 20:15:15.094
17.0, -154110.24887683976, -145474.80886874304, 63941.16597666335, -61605.587495039406, 78123.90662716706, -84465.20828785996, 87097.12619747236, -128265.82083294641, -0.018000000000000002, 0.9460000000000001, -0.13, 192.0, 255.0, 112.0, 29.0, 144.0, 251.0, 240.0, 0.0, 0.0, 0.0, 1.6664085155623844E9, 0.0, 2022-10-21 20:15:15.562
18.0, -154120.5306792892, -145484.2413049032, 63933.499328315185, -61599.28430310301, 78122.56552249975, -84460.60382850216, 87110.87252031238, -128268.45833879213, -0.018000000000000002, 0.9460000000000001, -0.13, 192.0, 0.0, 0.0, 0.0, 0.0, 0.0, 0.0, 0.0, 0.0, 0.0, 1.666408515562431E9, 0.0, 2022-10-21 20:15:15.562
19.0, -154126.7891677367, -145490.0974619505, 63927.062025912055, -61602.8382304714, 78118.40809803107, -84464.78360471531, 87128.79861936554, -128275.61089701783, -0.018000000000000002, 0.9460000000000001, -0.13, 192.0, 0.0, 0.0, 0.0, 0.0, 0.0, 0.0, 0.0, 0.0, 0.0, 1.6664085155624683E9, 0.0, 2022-10-21 20:15:15.562
20.0, -154119.61425776652, -145483.72721478072, 63935.77920624962, -61603.128803149324, 78128.17581035804, -84460.40266280207, 87122.54013091805, -128273.39807431676, -0.018000000000000002, 0.9460000000000001, -0.13, 192.0, 0.0, 0.0, 0.0, 0.0, 0.0, 0.0, 0.0, 0.0, 0.0, 1.6664085155624804E9, 0.0, 2022-10-21 20:15:15.562
21.0, -154114.20513560835, -145478.6310170449, 63941.814177252556, -61607.48739331811, 78130.09806038119, -84454.01006388785, 87101.48478764115, -128265.5749637574, -0.018000000000000002, 0.9460000000000001, -0.13, 192.0, 0.0, 0.0, 0.0, 0.0, 0.0, 0.0, 0.0, 0.0, 0.0, 1.666408515562492E9, 0.0, 2022-10-21 20:15:15.562
22.0, -154118.85429845506, -145483.57075256953, 63940.13779641841, -61599.28430310301, 78130.20981910346, -84448.80210742976, 87115.34286920344, -128262.89275442276, -0.018000000000000002, 0.9460000000000001, -0.13, 192.0, 0.0, 0.0, 0.0, 0.0, 0.0, 0.0, 0.0, 0.0, 0.0, 1.6664085155625036E9, 0.0, 2022-10-21 20:15:15.562
23.0, -154123.34699909057, -145488.71165379425, 63936.628572538924, -61594.76925072304, 78127.6393684911, -84446.34341553968, 87143.21549453921, -128269.75473997054, -0.018000000000000002, 0.9460000000000001, -0.13, 192.0, 0.0, 0.0, 0.0, 0.0, 0.0, 0.0, 0.0, 0.0, 0.0, 1.666408515562515E9, 0.0, 2022-10-21 20:15:15.562
24.0, -154122.89996420147, -145488.599895072, 63934.99689519369, -61608.60498054088, 78118.81042943125, -84457.92161916752, 87127.32340423149, -128272.25813534953, -0.018000000000000002, 0.9460000000000001, -0.13, 192.0, 0.0, 0.0, 0.0, 0.0, 0.0, 0.0, 0.0, 0.0, 0.0, 1.6664085155625267E9, 0.0, 2022-10-21 20:15:15.562
25.0, -154121.0224176672, -145488.0411014606, 63933.499328315185, -61623.53594583702, 78113.31190029524, -84466.75055822737, 87094.24282243763, -128275.40973131773, -0.018000000000000002, 0.9460000000000001, -0.13, 192.0, 0.0, 0.0, 0.0, 0.0, 0.0, 0.0, 0.0, 0.0, 0.0, 1.6664085155625381E9, 0.0, 2022-10-21 20:15:15.562
26.0, -154113.44517629687, -145483.838973503, 63937.56734580605, -61616.42809110023, 78108.37216477063, -84462.48137503641, 87095.89685152732, -128268.12306262531, -0.018000000000000002, 0.9460000000000001, -0.13, 192.0, 0.0, 0.0, 0.0, 0.0, 0.0, 0.0, 0.0, 0.0, 0.0, 1.6664085155625496E9, 0.0, 2022-10-21 20:15:15.562
27.0, -154120.2177548668, -145491.17034568434, 63931.666485269845, -61616.62925680033, 78103.76770541283, -84463.37544481462, 87124.44002919675, -128272.21343186063, -0.016, 0.9500000000000001, -0.128, 192.0, 255.0, 128.0, 29.0, 176.0, 252.0, 0.0, 0.0, 0.0, 0.0, 1.6664085155625668E9, 0.0, 2022-10-21 20:15:15.562
28.0, -154121.5812112786, -145489.4492613613, 63930.30302885807, -61626.70989354967, 78097.93390011, -84473.54548854179, 87120.03673553905, -128278.15899588574, -0.016, 0.9500000000000001, -0.128, 192.0, 0.0, 0.0, 0.0, 0.0, 0.0, 0.0, 0.0, 0.0, 0.0, 1.6664085155625792E9, 0.0, 2022-10-21 20:15:15.562
29.0, -154122.8329089681, -145489.15868868335, 63930.39243583589, -61638.44455938871, 78091.31778375123, -84490.01872420535, 87082.79872927652, -128285.1774436447, -0.016, 0.9500000000000001, -0.128, 192.0, 0.0, 0.0, 0.0, 0.0, 0.0, 0.0, 0.0, 0.0, 0.0, 1.6664085155626657E9, 0.0, 2022-10-21 20:15:15.562
30.0, -154121.3353420896, -145488.95752298326, 63937.03090393912, -61631.82844302994, 78096.4363332315, -84480.3404188562, 87082.41874962077, -128276.30380109594, -0.016, 0.9500000000000001, -0.128, 192.0, 0.0, 0.0, 0.0, 0.0, 0.0, 0.0, 0.0, 0.0, 0.0, 1.6664085155626776E9, 0.0, 2022-10-21 20:15:15.562
31.0, -154127.21385088132, -145493.6960928078, 63937.813214995054, -61615.4446143442, 78099.07383907722, -84468.78456697281, 87119.23207273867, -128272.34754232736, -0.016, 0.9500000000000001, -0.128, 192.0, 0.0, 0.0, 0.0, 0.0, 0.0, 0.0, 0.0, 0.0, 0.0, 1.66640851556269E9, 0.0, 2022-10-21 20:15:15.562
32.0, -154127.3256096036, -145492.6455608184, 63937.03090393912, -61623.78181502603, 78097.59862394317, -84469.23160186192, 87128.28452924306, -128272.28048709399, -0.016, 0.9500000000000001, -0.128, 192.0, 0.0, 0.0, 0.0, 0.0, 0.0, 0.0, 0.0, 0.0, 0.0, 1.666408515562702E9, 0.0, 2022-10-21 20:15:15.562
33.0, -154115.613295509, -145481.5367438241, 63947.51387208866, -61626.01698947156, 78099.25265303286, -84475.89242170959, 87100.07662774046, -128268.41363530322, -0.016, 0.9500000000000001, -0.128, 192.0, 0.0, 0.0, 0.0, 0.0, 0.0, 0.0, 0.0, 0.0, 0.0, 1.6664085155627148E9, 0.0, 2022-10-21 20:15:15.562
34.0, -154115.43448155338, -145484.42011885883, 63949.83845351201, -61620.540812080006, 78104.28179553531, -84472.85258446368, 87091.47120612518, -128265.06087363492, -0.016, 0.9500000000000001, -0.128, 192.0, 0.0, 0.0, 0.0, 0.0, 0.0, 0.0, 0.0, 0.0, 0.0, 1.6664085155627248E9, 0.0, 2022-10-21 20:15:15.562
35.0, -154121.76002523422, -145493.40552012986, 63945.88219474342, -61614.68465503272, 78101.66664143403, -84468.73986348389, 87121.57900590647, -128265.39614980176, -0.016, 0.9500000000000001, -0.128, 192.0, 0.0, 0.0, 0.0, 0.0, 0.0, 0.0, 0.0, 0.0, 0.0, 1.6664085155627344E9, 0.0, 2022-10-21 20:15:15.562
36.0, -154123.83873746858, -145498.16644169885, 63941.948287719286, -61622.86539350336, 78100.30318502226, -84470.01391291784, 87133.1125060454, -128270.60410625984, -0.02, 0.96, -0.134, 192.0, 255.0, 96.0, 30.0, 0.0, 251.0, 208.0, 0.0, 0.0, 0.0, 1.6664085155627444E9, 0.0, 2022-10-21 20:15:15.562
37.0, -154110.2712285842, -145486.92351423783, 63955.158168692375, -61618.21623065665, 78112.64134796159, -84461.56495351375, 87117.60039539343, -128264.7255974681, -0.02, 0.96, -0.134, 192.0, 0.0, 0.0, 0.0, 0.0, 0.0, 0.0, 0.0, 0.0, 0.0, 1.6664085155627553E9, 0.0, 2022-10-21 20:15:15.562
38.0, -154105.71147271534, -145483.28017989162, 63960.45553212828, -61613.52236432104, 78123.68310972251, -84456.15583135556, 87105.99984002112, -128261.88692592227, -0.02, 0.96, -0.134, 192.0, 0.0, 0.0, 0.0, 0.0, 0.0, 0.0, 0.0, 0.0, 0.0, 1.6664085155627651E9, 0.0, 2022-10-21 20:15:15.562
39.0, -154109.9136006729, -145489.0469299611, 63957.818026282555, -61605.11810840585, 78126.63353999061, -84449.9867498859, 87132.8219333675, -128259.29412356546, -0.02, 0.96, -0.134, 192.0, 0.0, 0.0, 0.0, 0.0, 0.0, 0.0, 0.0, 0.0, 0.0, 1.6664085155627751E9, 0.0, 2022-10-21 20:15:15.562
40.0, -154110.09241462857, -145490.65625556186, 63956.7451425487, -61604.738128750105, 78124.8901039231, -84449.15973534105, 87149.65279694233, -128259.20471658764, -0.02, 0.96, -0.134, 192.0, 0.0, 0.0, 0.0, 0.0, 0.0, 0.0, 0.0, 0.0, 0.0, 1.666408515562785E9, 0.0, 2022-10-21 20:15:15.562
41.0, -154103.38689129197, -145485.850630504, 63962.53424436263, -61610.59428579739, 78130.81331620376, -84443.9294271385, 87131.25731125561, -128260.50111776605, -0.02, 0.96, -0.134, 192.0, 0.0, 0.0, 0.0, 0.0, 0.0, 0.0, 0.0, 0.0, 0.0, 1.6664085155627947E9, 0.0, 2022-10-21 20:15:15.562
42.0, -154096.41314702193, -145478.60866530045, 63968.97154676575, -61608.80614624097, 78136.46830755095, -84439.45907824744, 87111.49836915713, -128252.1192135953, -0.02, 0.96, -0.134, 192.0, 0.0, 0.0, 0.0, 0.0, 0.0, 0.0, 0.0, 0.0, 0.0, 1.6664085155628047E9, 0.0, 2022-10-21 20:15:15.562
43.0, -154100.05648136814, -145482.72138628023, 63967.876311287444, -61597.31734959094, 78137.36237732916, -84436.82157240172, 87128.37393622089, -128248.3641205268, -0.02, 0.96, -0.134, 192.0, 0.0, 0.0, 0.0, 0.0, 0.0, 0.0, 0.0, 0.0, 0.0, 1.6664085155628147E9, 0.0, 2022-10-21 20:15:15.562
44.0, -154108.43838553887, -145490.9915317287, 63957.08041871553, -61598.99373042509, 78130.7462609704, -84444.04118586078, 87142.83551488347, -128266.1784608577, -0.02, 0.96, -0.134, 192.0, 0.0, 0.0, 0.0, 0.0, 0.0, 0.0, 0.0, 0.0, 0.0, 1.6664085155628343E9, 0.0, 2022-10-21 20:15:15.562
45.0, -154113.0651966411, -145496.60181958697, 63947.29035464411, -61610.43782358621, 78122.76668819984, -84464.15775587056, 87115.09700001443, -128279.14247264178, -0.02, 0.96, -0.134, 192.0, 0.0, 0.0, 0.0, 0.0, 0.0, 0.0, 0.0, 0.0, 0.0, 1.666408515562844E9, 0.0, 2022-10-21 20:15:15.562
46.0, -154109.51126927274, -145493.67374106334, 63946.86567149946, -61611.39894859779, 78123.01255738885, -84472.3384943412, 87086.97850548965, -128275.90146969575, -0.018000000000000002, 0.9560000000000001, -0.128, 192.0, 255.0, 112.0, 29.0, 224.0, 252.0, 0.0, 0.0, 0.0, 0.0, 1.6664085155628538E9, 0.0, 2022-10-21 20:15:15.562
47.0, -154108.46073728334, -145494.590162586, 63949.48082560072, -61590.053032642965, 78133.18260111602, -84445.73991843939, 87110.02315402307, -128263.71976896761, -0.018000000000000002, 0.9560000000000001, -0.128, 192.0, 0.0, 0.0, 0.0, 0.0, 0.0, 0.0, 0.0, 0.0, 0.0, 1.6664085155628643E9, 0.0, 2022-10-21 20:15:15.562
48.0, -154110.5170977732, -145496.6465230759, 63946.351581376985, -61583.92865466222, 78130.16511561455, -84437.49212473538, 87139.12512530388, -128263.33978931187, -0.018000000000000002, 0.9560000000000001, -0.128, 192.0, 0.0, 0.0, 0.0, 0.0, 0.0, 0.0, 0.0, 0.0, 0.0, 1.666408515562875E9, 0.0, 2022-10-21 20:15:15.562
49.0, -154109.48891752827, -145496.2441916757, 63943.73642727571, -61591.28237858801, 78124.51012426736, -84452.35603479815, 87122.94246231824, -128268.86067019233, -0.018000000000000002, 0.9560000000000001, -0.128, 192.0, 0.0, 0.0, 0.0, 0.0, 0.0, 0.0, 0.0, 0.0, 0.0, 1.666408515562885E9, 0.0, 2022-10-21 20:15:15.562
50.0, -154104.90680991494, -145489.87394450593, 63948.96673547826, -61591.260026843556, 78131.05918539276, -84459.86622093513, 87097.14854921681, -128262.28925732247, -0.018000000000000002, 0.9560000000000001, -0.128, 192.0, 0.0, 0.0, 0.0, 0.0, 0.0, 0.0, 0.0, 0.0, 0.0, 1.6664085155628946E9, 0.0, 2022-10-21 20:15:15.562
51.0, -154111.7240919738, -145499.26167717716, 63940.495424329696, -61592.95875942216, 78125.67241497904, -84461.29673258027, 87092.52173811456, -128267.63132424728, -0.018000000000000002, 0.9560000000000001, -0.128, 192.0, 0.0, 0.0, 0.0, 0.0, 0.0, 0.0, 0.0, 0.0, 0.0, 1.6664085155629041E9, 0.0, 2022-10-21 20:15:15.562
52.0, -154115.70270248686, -145506.07895923604, 63934.79572949359, -61585.20270409617, 78121.89497016609, -84454.50180226586, 87122.24955824013, -128269.64298124827, -0.018000000000000002, 0.9560000000000001, -0.128, 192.0, 0.0, 0.0, 0.0, 0.0, 0.0, 0.0, 0.0, 0.0, 0.0, 1.6664085155629141E9, 0.0, 2022-10-21 20:15:15.562
53.0, -154111.38881580697, -145499.79811904408, 63939.0425609401, -61590.09773613188, 78120.82208643224, -84458.2345435899, 87125.33409897496, -128268.61480100332, -0.018000000000000002, 0.9560000000000001, -0.128, 192.0, 0.0, 0.0, 0.0, 0.0, 0.0, 0.0, 0.0, 0.0, 0.0, 1.6664085155629237E9, 0.0, 2022-10-21 20:15:15.562
54.0, -154105.3761965485, -145488.82341251653, 63946.53039533263, -61588.242541342086, 78124.86775217864, -84460.91675292453, 87099.51783412909, -128262.80334744495, -0.018000000000000002, 0.9560000000000001, -0.128, 192.0, 0.0, 0.0, 0.0, 0.0, 0.0, 0.0, 0.0, 0.0, 0.0, 1.6664085155629334E9, 0.0, 2022-10-21 20:15:15.562
55.0, -154106.4267285379, -145489.11398519445, 63945.926898232334, -61585.67209072973, 78125.27008357884, -84459.73211046841, 87096.0533137385, -128258.15418459824, -0.018000000000000002, 0.9560000000000001, -0.128, 192.0, 0.0, 0.0, 0.0, 0.0, 0.0, 0.0, 0.0, 0.0, 0.0, 1.666408515562943E9, 0.0, 2022-10-21 20:15:15.562
56.0, -154103.34218780306, -145487.81758401604, 63951.872462257445, -61574.02683186851, 78125.9406359125, -84445.71756669493, 87132.64311941185, -128247.17947807068, -0.014, 0.9480000000000001, -0.124, 192.0, 255.0, 144.0, 29.0, 160.0, 252.0, 32.0, 0.0, 0.0, 0.0, 1.6664085155629528E9, 0.0, 2022-10-21 20:15:15.562
57.0, -154104.03509188117, -145490.36568288394, 63952.9453459913, -61573.89272140178, 78124.21955158944, -84447.86333416264, 87142.27672127208, -128245.45839374763, -0.014, 0.9480000000000001, -0.124, 192.0, 0.0, 0.0, 0.0, 0.0, 0.0, 0.0, 0.0, 0.0, 0.0, 1.6664085155629632E9, 0.0, 2022-10-21 20:15:15.562
58.0, -154106.24791458226, -145495.23836317522, 63948.76556977816, -61586.40969829675, 78116.01646137434, -84465.25299134887, 87108.72675284467, -128255.51667875251, -0.014, 0.9480000000000001, -0.124, 192.0, 0.0, 0.0, 0.0, 0.0, 0.0, 0.0, 0.0, 0.0, 0.0, 1.6664085155629728E9, 0.0, 2022-10-21 20:15:15.562
59.0, -154099.09535635656, -145486.23061015972, 63953.50413960268, -61579.078326115414, 78116.39644103008, -84461.96728491393, 87095.85214803841, -128251.94039963966, -0.014, 0.9480000000000001, -0.124, 192.0, 0.0, 0.0, 0.0, 0.0, 0.0, 0.0, 0.0, 0.0, 0.0, 1.666408515562992E9, 0.0, 2022-10-21 20:15:15.562
60.0, -154104.41507153693, -145489.31515089454, 63952.23009016873, -61568.23773005459, 78117.15640034157, -84453.92065691002, 87124.59649140794, -128251.78393742848, -0.014, 0.9480000000000001, -0.124, 192.0, 0.0, 0.0, 0.0, 0.0, 0.0, 0.0, 0.0, 0.0, 0.0, 1.666408515563002E9, 0.0, 2022-10-21 20:15:15.563
61.0, -154110.0253593952, -145494.16547944135, 63948.76556977816, -61582.14051510579, 78111.34494678318, -84456.71462496695, 87138.67809041477, -128257.8189084314, -0.014, 0.9480000000000001, -0.124, 192.0, 0.0, 0.0, 0.0, 0.0, 0.0, 0.0, 0.0, 0.0, 0.0, 1.6664085155630116E9, 0.0, 2022-10-21 20:15:15.563
62.0, -154105.04092038167, -145492.22087767374, 63953.906471002876, -61584.33098606241, 78113.96010088446, -84464.31421808174, 87117.95802330472, -128257.5730392424, -0.014, 0.9480000000000001, -0.124, 192.0, 0.0, 0.0, 0.0, 0.0, 0.0, 0.0, 0.0, 0.0, 0.0, 1.6664085155630214E9, 0.0, 2022-10-21 20:15:15.563
63.0, -154099.16241158993, -145485.18007817032, 63961.170787950854, -61579.927692404715, 78116.75406894137, -84468.29282859479, 87097.77439806156, -128252.7674141845, -0.014, 0.9480000000000001, -0.124, 192.0, 0.0, 0.0, 0.0, 0.0, 0.0, 0.0, 0.0, 0.0, 0.0, 1.6664085155630317E9, 0.0, 2022-10-21 20:15:15.563
64.0, -154103.18572559187, -145488.3987293719, 63961.75193330669, -61569.154151577255, 78118.43044977552, -84462.97311341442, 87118.22624423818, -128253.63913221826, -0.014, 0.9480000000000001, -0.124, 192.0, 0.0, 0.0, 0.0, 0.0, 0.0, 0.0, 0.0, 0.0, 0.0, 1.6664085155630429E9, 0.0, 2022-10-21 20:15:15.563
65.0, -154103.5210017587, -145490.76801428414, 63963.78594205212, -61565.48846548659, 78121.60439748818, -84456.20053484447, 87141.4720584717, -128253.9744083851, -0.014, 0.9480000000000001, -0.124, 192.0, 0.0, 0.0, 0.0, 0.0, 0.0, 0.0, 0.0, 0.0, 0.0, 1.6664085155630524E9, 0.0, 2022-10-21 20:15:15.563
66.0, -154102.0234348802, -145491.23740091771, 63968.725677576746, -61565.48846548659, 78132.93673192701, -84453.60773248765, 87126.78696236455, -128257.26011482002, -0.01, 0.9480000000000001, -0.13, 192.0, 255.0, 176.0, 29.0, 160.0, 251.0, 240.0, 0.0, 0.0, 0.0, 1.666408515563062E9, 0.0, 2022-10-21 20:15:15.563
67.0, -154099.20711507884, -145489.00222647216, 63972.05608750059, -61567.72363993212, 78134.23313310542, -84450.27732256381, 87102.20004346372, -128253.03563511798, -0.01, 0.9480000000000001, -0.13, 192.0, 0.0, 0.0, 0.0, 0.0, 0.0, 0.0, 0.0, 0.0, 0.0, 1.6664085155630765E9, 0.0, 2022-10-21 20:15:15.563
68.0, -154099.5200395012, -145489.9409997393, 63973.71011659028, -61557.93357586069, 78134.36724357215, -84445.13642133909, 87112.95123254672, -128254.46614676311, -0.01, 0.9480000000000001, -0.13, 192.0, 0.0, 0.0, 0.0, 0.0, 0.0, 0.0, 0.0, 0.0, 0.0, 1.6664085155630865E9, 0.0, 2022-10-21 20:15:15.563
69.0, -154104.43742328137, -145493.33846489651, 63967.92101477636, -61559.14057006128, 78130.36628131465, -84448.31036905175, 87132.53136068957, -128264.68089397918, -0.01, 0.9480000000000001, -0.13, 192.0, 0.0, 0.0, 0.0, 0.0, 0.0, 0.0, 0.0, 0.0, 0.0, 1.6664085155630977E9, 0.0, 2022-10-21 20:15:15.563
70.0, -154097.4189755224, -145489.85159276146, 63971.47494214475, -61558.02298283851, 78132.2885313378, -84455.41822378853, 87118.1144855159, -128264.74794921256, -0.01, 0.9480000000000001, -0.13, 192.0, 0.0, 0.0, 0.0, 0.0, 0.0, 0.0, 0.0, 0.0, 0.0, 1.6664085155631073E9, 0.0, 2022-10-21 20:15:15.563
71.0, -154097.77660343368, -145491.08093870652, 63971.76551482267, -61563.94619511917, 78128.13110686911, -84465.65532274907, 87087.06791246748, -128266.53608876897, -0.01, 0.9480000000000001, -0.13, 192.0, 0.0, 0.0, 0.0, 0.0, 0.0, 0.0, 0.0, 0.0, 0.0, 1.666408515563117E9, 0.0, 2022-10-21 20:15:15.563
72.0, -154100.83879242407, -145492.91378175185, 63970.826741555546, -61553.016192080526, 78130.83566794821, -84457.29577032277, 87097.55088061701, -128260.4787660216, -0.01, 0.9480000000000001, -0.13, 192.0, 0.0, 0.0, 0.0, 0.0, 0.0, 0.0, 0.0, 0.0, 0.0, 1.6664085155631268E9, 0.0, 2022-10-21 20:15:15.563
73.0, -154098.31304530063, -145487.5493630826, 63971.40788691138, -61537.07939828389, 78133.3390633272, -84439.43672650299, 87132.44195371175, -128252.67800720669, -0.01, 0.9480000000000001, -0.13, 192.0, 0.0, 0.0, 0.0, 0.0, 0.0, 0.0, 0.0, 0.0, 0.0, 1.6664085155631363E9, 0.0, 2022-10-21 20:15:15.563
74.0, -154102.11284185803, -145490.16451718385, 63963.38361065193, -61549.46226471213, 78127.41585104655, -84450.76906094184, 87122.1154477734, -128261.86457417782, -0.01, 0.9480000000000001, -0.13, 192.0, 0.0, 0.0, 0.0, 0.0, 0.0, 0.0, 0.0, 0.0, 0.0, 1.6664085155631552E9, 0.0, 2022-10-21 20:15:15.563
75.0, -154105.44325178186, -145492.75731954066, 63959.8967385169, -61564.10265733036, 78117.82695267523, -84466.63879950509, 87085.1009589554, -128266.69255098017, -0.008, 0.9480000000000001, -0.124, 192.0, 255.0, 192.0, 29.0, 160.0, 252.0, 32.0, 0.0, 0.0, 0.0, 1.6664085155631647E9, 0.0, 2022-10-21 20:15:15.563
76.0, -154116.26149609822, -145504.73785456872, 63951.313668646064, -61556.52541596001, 78116.97758638592, -84471.19855537398, 87080.72001704217, -128271.65463824924, -0.008, 0.9480000000000001, -0.124, 192.0, 0.0, 0.0, 0.0, 0.0, 0.0, 0.0, 0.0, 0.0, 0.0, 1.6664085155631757E9, 0.0, 2022-10-21 20:15:15.563
77.0, -154121.0671211561, -145509.9458110268, 63949.145549433895, -61543.27083149801, 78116.53055149682, -84463.64366574808, 87114.91818605879, -128269.26300159252, -0.008, 0.9480000000000001, -0.124, 192.0, 0.0, 0.0, 0.0, 0.0, 0.0, 0.0, 0.0, 0.0, 0.0, 1.6664085155631852E9, 0.0, 2022-10-21 20:15:15.563
78.0, -154120.7318449893, -145512.31509593906, 63947.670334299844, -61554.066724069926, 78109.17682757102, -84464.80595645976, 87114.7617238476, -128271.05114114896, -0.008, 0.9480000000000001, -0.124, 192.0, 0.0, 0.0, 0.0, 0.0, 0.0, 0.0, 0.0, 0.0, 0.0, 1.6664085155631948E9, 0.0, 2022-10-21 20:15:15.563
79.0, -154117.15556587646, -145509.3423139265, 63950.59841282349, -61559.14057006128, 78112.14960958358, -84465.3871018156, 87090.73359855814, -128266.71490272462, -0.008, 0.9480000000000001, -0.124, 192.0, 0.0, 0.0, 0.0, 0.0, 0.0, 0.0, 0.0, 0.0, 0.0, 1.6664085155632043E9, 0.0, 2022-10-21 20:15:15.563
80.0, -154114.74157747527, -145505.45311039127, 63954.37585763644, -61552.01036358003, 78115.85999916315, -84459.30742732376, 87091.02417123606, -128258.0200741315, -0.008, 0.9480000000000001, -0.124, 192.0, 0.0, 0.0, 0.0, 0.0, 0.0, 0.0, 0.0, 0.0, 0.0, 1.666408515563214E9, 0.0, 2022-10-21 20:15:15.563
81.0, -154112.75227221876, -145501.9438865118, 63956.7451425487, -61542.28735474198, 78114.51889449584, -84446.76809868433, 87124.99882280813, -128254.35438804084, -0.008, 0.9480000000000001, -0.124, 192.0, 0.0, 0.0, 0.0, 0.0, 0.0, 0.0, 0.0, 0.0, 0.0, 1.6664085155632238E9, 0.0, 2022-10-21 20:15:15.563
82.0, -154116.03797865368, -145506.14601446938, 63952.5430145911, -61545.77422687701, 78113.20014157298, -84445.09171785018, 87138.90160785933, -128256.36604504181, -0.008, 0.9480000000000001, -0.124, 192.0, 0.0, 0.0, 0.0, 0.0, 0.0, 0.0, 0.0, 0.0, 0.0, 1.6664085155632334E9, 0.0, 2022-10-21 20:15:15.563
83.0, -154114.40630130845, -145504.73785456872, 63950.88898550141, -61558.98410785009, 78111.25553980537, -84456.5358110113, 87110.93957554574, -128260.59052474386, -0.008, 0.9480000000000001, -0.124, 192.0, 0.0, 0.0, 0.0, 0.0, 0.0, 0.0, 0.0, 0.0, 0.0, 1.666408515563243E9, 0.0, 2022-10-21 20:15:15.563
84.0, -154104.63858898147, -145496.19948818677, 63959.628517583435, -61556.279546771, 78115.05533636277, -84450.85846791965, 87102.065932997, -128249.48170774958, -0.008, 0.9480000000000001, -0.124, 192.0, 0.0, 0.0, 0.0, 0.0, 0.0, 0.0, 0.0, 0.0, 0.0, 1.6664085155632527E9, 0.0, 2022-10-21 20:15:15.563
85.0, -154110.0253593952, -145500.82629928904, 63959.13677920542, -61543.94138383167, 78115.48001950742, -84442.90124689355, 87132.37489847839, -128246.6206844593, -0.01, 0.9460000000000001, -0.124, 192.0, 255.0, 176.0, 29.0, 144.0, 252.0, 32.0, 0.0, 0.0, 0.0, 1.6664085155632627E9, 0.0, 2022-10-21 20:15:15.563
86.0, -154116.88734494298, -145504.96137201326, 63952.90064250239, -61547.11533154432, 78112.95427238397, -84445.71756669493, 87151.53034347658, -128250.91221939473, -0.01, 0.9460000000000001, -0.124, 192.0, 0.0, 0.0, 0.0, 0.0, 0.0, 0.0, 0.0, 0.0, 0.0, 1.666408515563273E9, 0.0, 2022-10-21 20:15:15.563
87.0, -154109.15364136145, -145496.13243295343, 63957.57215709355, -61551.36216299083, 78114.31772879574, -84451.41726153104, 87128.0610117985, -128249.19113507165, -0.01, 0.9460000000000001, -0.124, 192.0, 0.0, 0.0, 0.0, 0.0, 0.0, 0.0, 0.0, 0.0, 0.0, 1.6664085155632825E9, 0.0, 2022-10-21 20:15:15.563
88.0, -154108.14781286096, -145496.08772946452, 63959.76262805017, -61553.88791011428, 78119.07865036473, -84454.1888778435, 87104.72579058717, -128250.95692288363, -0.01, 0.9460000000000001, -0.124, 192.0, 0.0, 0.0, 0.0, 0.0, 0.0, 0.0, 0.0, 0.0, 0.0, 1.6664085155632923E9, 0.0, 2022-10-21 20:15:15.563
89.0, -154111.90290592946, -145499.39578764388, 63958.600337338496, -61546.288316999475, 78118.72102245344, -84451.7301859534, 87119.36618320539, -128252.78976592896, -0.01, 0.9460000000000001, -0.124, 192.0, 0.0, 0.0, 0.0, 0.0, 0.0, 0.0, 0.0, 0.0, 0.0, 1.6664085155633106E9, 0.0, 2022-10-21 20:15:15.563
90.0, -154113.31106583012, -145499.93222951083, 63956.43221812633, -61542.01913380851, 78119.77155444284, -84455.15000285507, 87136.28645375806, -128259.60704798784, -0.01, 0.9460000000000001, -0.124, 192.0, 0.0, 0.0, 0.0, 0.0, 0.0, 0.0, 0.0, 0.0, 0.0, 1.66640851556332E9, 0.0, 2022-10-21 20:15:15.563
91.0, -154107.6784262274, -145495.23836317522, 63961.50606411768, -61539.80631110744, 78129.15928711406, -84443.50474399385, 87124.57413966348, -128259.94232415466, -0.01, 0.9460000000000001, -0.124, 192.0, 0.0, 0.0, 0.0, 0.0, 0.0, 0.0, 0.0, 0.0, 0.0, 1.666408515563334E9, 0.0, 2022-10-21 20:15:15.563
92.0, -154110.4723942843, -145500.66983707785, 63955.85107277049, -61549.55167168995, 78124.17484810053, -84454.81472668824, 87087.69376131223, -128268.74891147006, -0.01, 0.9460000000000001, -0.124, 192.0, 0.0, 0.0, 0.0, 0.0, 0.0, 0.0, 0.0, 0.0, 0.0, 1.6664085155633435E9, 0.0, 2022-10-21 20:15:15.563
93.0, -154115.41212980892, -145507.844747048, 63952.9453459913, -61536.34179071686, 78124.95715915646, -84451.97605514241, 87098.02026725057, -128268.32422832541, -0.01, 0.9460000000000001, -0.124, 192.0, 0.0, 0.0, 0.0, 0.0, 0.0, 0.0, 0.0, 0.0, 0.0, 1.6664085155633533E9, 0.0, 2022-10-21 20:15:15.563
94.0, -154116.8649931985, -145508.31413368156, 63956.208700681775, -61530.351523202844, 78129.02517664734, -84440.1296305811, 87131.23495951116, -128264.70324572365, -0.01, 0.9460000000000001, -0.124, 192.0, 0.0, 0.0, 0.0, 0.0, 0.0, 0.0, 0.0, 0.0, 0.0, 1.6664085155633626E9, 0.0, 2022-10-21 20:15:15.563
95.0, -154113.64634199697, -145502.27916267863, 63957.48275011573, -61539.47103494061, 78128.06405163575, -84450.27732256381, 87118.58387214945, -128271.90050743826, -0.012, 0.9520000000000001, -0.124, 192.0, 255.0, 160.0, 29.0, 192.0, 252.0, 32.0, 0.0, 0.0, 0.0, 1.666408515563373E9, 0.0, 2022-10-21 20:15:15.563
96.0, -154110.40533905095, -145501.60861034496, 63958.98031699423, -61546.578889677396, 78124.10779286716, -84464.29186633728, 87081.34586588692, -128273.44277780567, -0.012, 0.9520000000000001, -0.124, 192.0, 0.0, 0.0, 0.0, 0.0, 0.0, 0.0, 0.0, 0.0, 0.0, 1.6664085155633848E9, 0.0, 2022-10-21 20:15:15.563
97.0, -154113.89221118597, -145505.38605515793, 63958.309764660575, -61538.241688995564, 78124.46542077845, -84461.40849130256, 87083.69279905473, -128274.40390281724, -0.012, 0.9520000000000001, -0.124, 192.0, 0.0, 0.0, 0.0, 0.0, 0.0, 0.0, 0.0, 0.0, 0.0, 1.6664085155633943E9, 0.0, 2022-10-21 20:15:15.563
98.0, -154118.8766501995, -145508.44824414828, 63953.548843091594, -61531.24559298105, 78122.56552249975, -84454.1888778435, 87114.49350291413, -128275.36502782883, -0.012, 0.9520000000000001, -0.124, 192.0, 0.0, 0.0, 0.0, 0.0, 0.0, 0.0, 0.0, 0.0, 0.0, 1.6664085155634043E9, 0.0, 2022-10-21 20:15:15.563
99.0, -154119.50249904426, -145508.06826449255, 63952.498311102194, -61530.46328192512, 78123.4372405335, -84453.3395115542, 87116.92984305977, -128273.48748129458, -0.012, 0.9520000000000001, -0.124, 192.0, 0.0, 0.0, 0.0, 0.0, 0.0, 0.0, 0.0, 0.0, 0.0, 1.666408515563414E9, 0.0, 2022-10-21 20:15:15.563
100.0, -154116.99910366526, -145503.86613653495, 63953.03475296912, -61536.94528781716, 78117.69284220849, -84461.90022968057, 87083.84926126592, -128274.6274202618, -0.012, 0.9520000000000001, -0.124, 192.0, 0.0, 0.0, 0.0, 0.0, 0.0, 0.0, 0.0, 0.0, 0.0, 1.6664085155634236E9, 0.0, 2022-10-21 20:15:15.563
101.0, -154117.84846995457, -145504.62609584644, 63952.9453459913, -61536.96763956161, 78117.51402825284, -84457.56399125625, 87084.49746185512, -128270.64880974876, -0.012, 0.9520000000000001, -0.124, 192.0, 0.0, 0.0, 0.0, 0.0, 0.0, 0.0, 0.0, 0.0, 0.0, 1.6664085155634334E9, 0.0, 2022-10-21 20:15:15.563
102.0, -154123.34699909057, -145511.1975087163, 63948.31853488905, -61537.07939828389, 78111.36729852764, -84448.51153475184, 87115.63344188136, -128267.29604808046, -0.012, 0.9520000000000001, -0.124, 192.0, 0.0, 0.0, 0.0, 0.0, 0.0, 0.0, 0.0, 0.0, 0.0, 1.666408515563443E9, 0.0, 2022-10-21 20:15:15.563
103.0, -154119.79307172218, -145508.22472670375, 63947.17859592183, -61545.03661930998, 78105.71230718045, -84451.5290202533, 87122.5624826625, -128267.60897250283, -0.012, 0.9520000000000001, -0.124, 192.0, 0.0, 0.0, 0.0, 0.0, 0.0, 0.0, 0.0, 0.0, 0.0, 1.6664085155634527E9, 0.0, 2022-10-21 20:15:15.563
104.0, -154112.88638268548, -145502.79325280112, 63950.330191890025, -61551.2280525241, 78107.00870835886, -84458.01102614535, 87096.79092130554, -128264.54678351246, -0.012, 0.9480000000000001, -0.128, 192.0, 255.0, 160.0, 29.0, 160.0, 252.0, 0.0, 0.0, 0.0, 0.0, 1.6664085155634713E9, 0.0, 2022-10-21 20:15:15.563
105.0, -154114.45100479736, -145503.50850862366, 63950.15137793439, -61554.24553802556, 78103.11950482363, -84458.54746801227, 87085.88327001134, -128259.96467589911, -0.012, 0.9480000000000001, -0.128, 192.0, 0.0, 0.0, 0.0, 0.0, 0.0, 0.0, 0.0, 0.0, 0.0, 1.666408515563481E9, 0.0, 2022-10-21 20:15:15.563
106.0, -154114.65217049746, -145502.18975570082, 63952.31949714655, -61536.855880839335, 78107.81337115925, -84444.64468296108, 87122.07074428449, -128256.67896946419, -0.012, 0.9480000000000001, -0.128, 192.0, 0.0, 0.0, 0.0, 0.0, 0.0, 0.0, 0.0, 0.0, 0.0, 1.666408515563491E9, 0.0, 2022-10-21 20:15:15.563
107.0, -154115.30037108666, -145501.49685162268, 63951.13485469042, -61545.68481989919, 78104.10298157966, -84446.2763603063, 87135.5711979355, -128256.16487934171, -0.012, 0.9480000000000001, -0.128, 192.0, 0.0, 0.0, 0.0, 0.0, 0.0, 0.0, 0.0, 0.0, 0.0, 1.666408515563501E9, 0.0, 2022-10-21 20:15:15.563
108.0, -154115.83681295358, -145500.37926439993, 63953.10180820249, -61552.859729869335, 78107.45574324796, -84450.38908128609, 87115.76755234809, -128255.94136189716, -0.012, 0.9480000000000001, -0.128, 192.0, 0.0, 0.0, 0.0, 0.0, 0.0, 0.0, 0.0, 0.0, 0.0, 1.666408515563511E9, 0.0, 2022-10-21 20:15:15.563
109.0, -154113.24401059677, -145497.47353762074, 63959.85203502799, -61549.75283739005, 78110.13795258259, -84442.76713642683, 87102.89294754183, -128249.4146525162, -0.012, 0.9480000000000001, -0.128, 192.0, 0.0, 0.0, 0.0, 0.0, 0.0, 0.0, 0.0, 0.0, 0.0, 1.6664085155635204E9, 0.0, 2022-10-21 20:15:15.563
110.0, -154117.0214554097, -145501.11687196695, 63958.1980059383, -61543.002610564545, 78111.23318806091, -84435.36870901212, 87129.84915135494, -128248.47587924909, -0.012, 0.9480000000000001, -0.128, 192.0, 0.0, 0.0, 0.0, 0.0, 0.0, 0.0, 0.0, 0.0, 0.0, 1.6664085155635304E9, 0.0, 2022-10-21 20:15:15.563
111.0, -154116.9767519208, -145501.00511324467, 63955.85107277049, -61543.11436928682, 78113.15543808407, -84432.46298223293, 87148.84813414194, -128249.6158182163, -0.012, 0.9480000000000001, -0.128, 192.0, 0.0, 0.0, 0.0, 0.0, 0.0, 0.0, 0.0, 0.0, 0.0, 1.66640851556354E9, 0.0, 2022-10-21 20:15:15.563
112.0, -154111.5229262737, -145497.11590970945, 63957.48275011573, -61541.86267159733, 78116.39644103008, -84440.62136895912, 87125.15528501933, -128255.04729211895, -0.012, 0.9480000000000001, -0.128, 192.0, 0.0, 0.0, 0.0, 0.0, 0.0, 0.0, 0.0, 0.0, 0.0, 1.6664085155635505E9, 0.0, 2022-10-21 20:15:15.563
113.0, -154108.0137023942, -145496.82533703154, 63956.58868033752, -61555.13960780378, 78110.22735956042, -84451.50666850885, 87092.58879334794, -128258.4224055317, -0.012, 0.9480000000000001, -0.128, 192.0, 0.0, 0.0, 0.0, 0.0, 0.0, 0.0, 0.0, 0.0, 0.0, 1.6664085155635605E9, 0.0, 2022-10-21 20:15:15.563
114.0, -154110.2712285842, -145500.08869172202, 63958.42152338285, -61538.241688995564, 78120.26329282085, -84436.88862763508, 87114.89583431433, -128253.90735315174, -0.012, 0.9520000000000001, -0.13, 192.0, 255.0, 160.0, 29.0, 192.0, 251.0, 240.0, 0.0, 0.0, 0.0, 1.66640851556357E9, 0.0, 2022-10-21 20:15:15.563
115.0, -154113.0204931522, -145503.57556385704, 63956.23105242623, -61529.74802610255, 78119.48098176492, -84432.03829908828, 87140.33211950447, -128255.2261060746, -0.012, 0.9520000000000001, -0.13, 192.0, 0.0, 0.0, 0.0, 0.0, 0.0, 0.0, 0.0, 0.0, 0.0, 1.6664085155635805E9, 0.0, 2022-10-21 20:15:15.563
116.0, -154110.9641326623, -145499.842822533, 63955.6946105593, -61534.911279071726, 78115.85999916315, -84445.85167716166, 87115.29816571453, -128269.75473997054, -0.012, 0.9520000000000001, -0.13, 192.0, 0.0, 0.0, 0.0, 0.0, 0.0, 0.0, 0.0, 0.0, 0.0, 1.66640851556359E9, 0.0, 2022-10-21 20:15:15.563
117.0, -154106.4267285379, -145495.93126725333, 63959.51675886116, -61540.432159952186, 78122.31965331074, -84448.04214811829, 87089.28073516855, -128269.37476031481, -0.012, 0.9520000000000001, -0.13, 192.0, 0.0, 0.0, 0.0, 0.0, 0.0, 0.0, 0.0, 0.0, 0.0, 1.6664085155635996E9, 0.0, 2022-10-21 20:15:15.563
118.0, -154106.76200470474, -145495.05954921956, 63960.65669782838, -61535.89475582776, 78120.64327247659, -84440.75547942585, 87097.305011428, -128267.69837948066, -0.012, 0.9520000000000001, -0.13, 192.0, 0.0, 0.0, 0.0, 0.0, 0.0, 0.0, 0.0, 0.0, 0.0, 1.6664085155636091E9, 0.0, 2022-10-21 20:15:15.563
119.0, -154112.9757896633, -145501.63096208943, 63956.23105242623, -61533.27960172649, 78117.58108348622, -84443.4823922494, 87127.30105248703, -128269.55357427044, -0.012, 0.9520000000000001, -0.13, 192.0, 0.0, 0.0, 0.0, 0.0, 0.0, 0.0, 0.0, 0.0, 0.0, 1.6664085155637035E9, 0.0, 2022-10-21 20:15:15.563
120.0, -154112.05936814065, -145499.50754636616, 63956.58868033752, -61543.2261280091, 78115.8376474187, -84450.187915586, 87118.40505819382, -128269.53122252598, -0.012, 0.9520000000000001, -0.13, 192.0, 0.0, 0.0, 0.0, 0.0, 0.0, 0.0, 0.0, 0.0, 0.0, 1.6664085155637136E9, 0.0, 2022-10-21 20:15:15.563
121.0, -154107.2760948272, -145495.5959910865, 63963.11538971846, -61548.34467748937, 78119.70449920947, -84448.04214811829, 87091.65002008081, -128266.46903353561, -0.012, 0.9520000000000001, -0.13, 192.0, 0.0, 0.0, 0.0, 0.0, 0.0, 0.0, 0.0, 0.0, 0.0, 1.666408515563723E9, 0.0, 2022-10-21 20:15:15.563
122.0, -154108.70660647235, -145496.6465230759, 63964.948232763796, -61543.69551464266, 78116.77642068583, -84448.17625858501, 87089.9065840133, -128268.30187658095, -0.012, 0.9520000000000001, -0.13, 192.0, 0.0, 0.0, 0.0, 0.0, 0.0, 0.0, 0.0, 0.0, 0.0, 1.666408515563733E9, 0.0, 2022-10-21 20:15:15.563
123.0, -154119.9271821889, -145509.11879648195, 63955.80636928158, -61537.973468062104, 78113.84834216218, -84446.96926438443, 87120.8637500839, -128274.35919932833, -0.012, 0.9520000000000001, -0.13, 192.0, 0.0, 0.0, 0.0, 0.0, 0.0, 0.0, 0.0, 0.0, 0.0, 1.6664085155637429E9, 0.0, 2022-10-21 20:15:15.563
124.0, -154119.45779555532, -145508.98468601523, 63951.537186090616, -61551.49627345757, 78110.31676653824, -84454.41239528805, 87121.89193032884, -128276.79553947397, -0.01, 0.9520000000000001, -0.13, 192.0, 255.0, 176.0, 29.0, 192.0, 251.0, 240.0, 0.0, 0.0, 0.0, 1.6664085155637531E9, 0.0, 2022-10-21 20:15:15.563
125.0, -154109.95830416185, -145497.00415098717, 63961.103732717485, -61551.250404268554, 78114.00480437337, -84450.433784775, 87098.3555434174, -128265.28439107948, -0.01, 0.9520000000000001, -0.13, 192.0, 0.0, 0.0, 0.0, 0.0, 0.0, 0.0, 0.0, 0.0, 0.0, 1.6664085155637648E9, 0.0, 2022-10-21 20:15:15.563
126.0, -154105.80087969315, -145490.70095905077, 63969.910320032875, -61535.29125872747, 78123.8842754226, -84436.26277879033, 87104.52462488707, -128250.10755659433, -0.01, 0.9520000000000001, -0.13, 192.0, 0.0, 0.0, 0.0, 0.0, 0.0, 0.0, 0.0, 0.0, 0.0, 1.6664085155637755E9, 0.0, 2022-10-21 20:15:15.563
127.0, -154109.31010357264, -145500.02163648864, 63963.02598274064, -61532.810215092926, 78119.8386096762, -84431.92654036601, 87134.27479675709, -128256.14252759726, -0.01, 0.9520000000000001, -0.13, 192.0, 0.0, 0.0, 0.0, 0.0, 0.0, 0.0, 0.0, 0.0, 0.0, 1.6664085155637848E9, 0.0, 2022-10-21 20:15:15.563
128.0, -154117.89317344347, -145509.9905145157, 63948.43029361133, -61555.29607001496, 78105.2876240358, -84444.68938644999, 87134.7218316462, -128265.5302602685, -0.01, 0.9520000000000001, -0.13, 192.0, 0.0, 0.0, 0.0, 0.0, 0.0, 0.0, 0.0, 0.0, 0.0, 1.666408515563793E9, 0.0, 2022-10-21 20:15:15.563
129.0, -154114.36159781952, -145505.09548247998, 63948.40794186687, -61564.70615443065, 78100.07966757771, -84458.61452324565, 87104.27875569806, -128264.278562579, -0.01, 0.9520000000000001, -0.13, 192.0, 0.0, 0.0, 0.0, 0.0, 0.0, 0.0, 0.0, 0.0, 0.0, 1.6664085155638013E9, 0.0, 2022-10-21 20:15:15.563
130.0, -154112.05936814065, -145501.60861034496, 63950.77722677914, -61563.007421852046, 78105.06410659125, -84455.19470634397, 87096.63445909435, -128255.60608573034, -0.01, 0.9520000000000001, -0.13, 192.0, 0.0, 0.0, 0.0, 0.0, 0.0, 0.0, 0.0, 0.0, 0.0, 1.6664085155638096E9, 0.0, 2022-10-21 20:15:15.563
131.0, -154114.85333619756, -145506.25777319167, 63949.39141862291, -61547.89764260026, 78107.74631592588, -84437.78269741329, 87131.4137734668, -128250.6216467168, -0.01, 0.9520000000000001, -0.13, 192.0, 0.0, 0.0, 0.0, 0.0, 0.0, 0.0, 0.0, 0.0, 0.0, 1.666408515563818E9, 0.0, 2022-10-21 20:15:15.563
132.0, -154116.7755862207, -145511.35397092748, 63946.30687788807, -61549.81989262342, 78106.00287985837, -84437.87210439112, 87145.9200556183, -128255.00258863004, -0.01, 0.9520000000000001, -0.13, 192.0, 0.0, 0.0, 0.0, 0.0, 0.0, 0.0, 0.0, 0.0, 0.0, 1.666408515563826E9, 0.0, 2022-10-21 20:15:15.563
133.0, -154114.78628096418, -145509.23055520424, 63948.385590122416, -61561.77807590701, 78107.36633627013, -84445.76227018384, 87123.18833150725, -128257.72950145359, -0.01, 0.9520000000000001, -0.13, 192.0, 0.0, 0.0, 0.0, 0.0, 0.0, 0.0, 0.0, 0.0, 0.0, 1.6664085155638359E9, 0.0, 2022-10-21 20:15:15.563
134.0, -154106.18085934888, -145498.92640101034, 63957.885081515924, -61551.69743915766, 78114.83181891822, -84437.67093869102, 87109.30789820051, -128249.4146525162, -0.008, 0.9580000000000001, -0.128, 192.0, 255.0, 192.0, 29.0, 240.0, 252.0, 0.0, 0.0, 0.0, 0.0, 1.6664085155638528E9, 0.0, 2022-10-21 20:15:15.563
135.0, -154113.35576931905, -145506.54834586958, 63952.7441802912, -61538.01817155101, 78115.59177822969, -84431.18893279898, 87126.47403794219, -128254.55555374094, -0.008, 0.9580000000000001, -0.128, 192.0, 0.0, 0.0, 0.0, 0.0, 0.0, 0.0, 0.0, 0.0, 0.0, 1.6664085155638616E9, 0.0, 2022-10-21 20:15:15.563
136.0, -154119.10016764406, -145511.39867441638, 63945.05518019858, -61539.314572729425, 78110.38382177161, -84436.5309997238, 87140.73445090467, -128263.49625152306, -0.008, 0.9580000000000001, -0.128, 192.0, 0.0, 0.0, 0.0, 0.0, 0.0, 0.0, 0.0, 0.0, 0.0, 1.6664085155638697E9, 0.0, 2022-10-21 20:15:15.563
137.0, -154119.79307172218, -145512.2927441946, 63940.070741185045, -61549.70813390114, 78103.45478099046, -84455.4852790219, 87110.87252031238, -128273.37572257231, -0.008, 0.9580000000000001, -0.128, 192.0, 0.0, 0.0, 0.0, 0.0, 0.0, 0.0, 0.0, 0.0, 0.0, 1.6664085160414848E9, 0.0, 2022-10-21 20:15:16.041
138.0, -154116.0826821426, -145507.93415402583, 63943.758779020165, -61549.21639552312, 78104.50531297986, -84447.99744462936, 87085.41388337778, -128268.41363530322, -0.008, 0.9580000000000001, -0.128, 192.0, 0.0, 0.0, 0.0, 0.0, 0.0, 0.0, 0.0, 0.0, 0.0, 1.6664085160415711E9, 0.0, 2022-10-21 20:15:16.041
139.0, -154111.83585069608, -145503.06147373456, 63951.22426166824, -61533.95015406015, 78112.44018226149, -84433.22294154442, 87106.40217142132, -128264.50208002355, -0.008, 0.9580000000000001, -0.128, 192.0, 0.0, 0.0, 0.0, 0.0, 0.0, 0.0, 0.0, 0.0, 0.0, 1.6664085160416293E9, 0.0, 2022-10-21 20:15:16.041
140.0, -154114.98744666428, -145505.18488945783, 63948.54205233361, -61542.801444864446, 78108.08159209271, -84434.34052876718, 87127.45751469821, -128269.15124287026, -0.008, 0.9580000000000001, -0.128, 192.0, 0.0, 0.0, 0.0, 0.0, 0.0, 0.0, 0.0, 0.0, 0.0, 1.6664085160416422E9, 0.0, 2022-10-21 20:15:16.041
141.0, -154114.40630130845, -145505.25194469118, 63946.44098835481, -61551.116293801824, 78104.6841269355, -84444.3764620276, 87110.91722380128, -128274.00157141704, -0.008, 0.9580000000000001, -0.128, 192.0, 0.0, 0.0, 0.0, 0.0, 0.0, 0.0, 0.0, 0.0, 0.0, 1.6664085160416543E9, 0.0, 2022-10-21 20:15:16.041
142.0, -154110.78531870668, -145501.34038941152, 63948.7432180337, -61550.13281704579, 78110.18265607151, -84451.0819853642, 87084.54216534403, -128274.64977200626, -0.008, 0.9580000000000001, -0.128, 192.0, 0.0, 0.0, 0.0, 0.0, 0.0, 0.0, 0.0, 0.0, 0.0, 1.6664085160416665E9, 0.0, 2022-10-21 20:15:16.041
143.0, -154109.93595241738, -145499.95458125527, 63953.772360536146, -61540.767436119015, 78112.75310668387, -84442.40950851554, 87093.43815963724, -128267.58662075837, -0.012, 0.9540000000000001, -0.138, 192.0, 255.0, 160.0, 29.0, 208.0, 251.0, 176.0, 0.0, 0.0, 0.0, 1.666408516041679E9, 0.0, 2022-10-21 20:15:16.041
144.0, -154114.65217049746, -145502.05564523407, 63952.56536633556, -61534.553651160444, 78111.94844388348, -84432.35122351066, 87126.5187414311, -128266.15610911323, -0.012, 0.9540000000000001, -0.138, 192.0, 0.0, 0.0, 0.0, 0.0, 0.0, 0.0, 0.0, 0.0, 0.0, 1.6664085160416925E9, 0.0, 2022-10-21 20:15:16.041
145.0, -154116.68617924288, -145507.10713948097, 63947.536223833114, -61548.121160044815, 78106.11463858064, -84447.81863067373, 87116.72867735967, -128270.87232719331, -0.012, 0.9540000000000001, -0.138, 192.0, 0.0, 0.0, 0.0, 0.0, 0.0, 0.0, 0.0, 0.0, 0.0, 1.6664085160417044E9, 0.0, 2022-10-21 20:15:16.041
146.0, -154113.53458327468, -145502.92736326784, 63950.486654101216, -61548.34467748937, 78108.72979268192, -84451.79724118677, 87087.73846480114, -128268.03365564748, -0.012, 0.9540000000000001, -0.138, 192.0, 0.0, 0.0, 0.0, 0.0, 0.0, 0.0, 0.0, 0.0, 0.0, 1.6664085160417163E9, 0.0, 2022-10-21 20:15:16.041
147.0, -154117.55789727665, -145506.48129063623, 63947.692686044305, -61543.494348942564, 78111.56846422773, -84444.46586900543, 87092.36527590339, -128270.09001613737, -0.012, 0.9540000000000001, -0.138, 192.0, 0.0, 0.0, 0.0, 0.0, 0.0, 0.0, 0.0, 0.0, 0.0, 1.666408516041728E9, 0.0, 2022-10-21 20:15:16.041
148.0, -154117.31202808762, -145509.5434796266, 63943.334095875514, -61541.393284963764, 78106.00287985837, -84439.66024394754, 87121.7578198621, -128266.73725446907, -0.012, 0.9540000000000001, -0.138, 192.0, 0.0, 0.0, 0.0, 0.0, 0.0, 0.0, 0.0, 0.0, 0.0, 1.66640851604174E9, 0.0, 2022-10-21 20:15:16.041
149.0, -154111.29940882916, -145502.03329348963, 63946.619802310444, -61539.13575877378, 78108.41686825953, -84435.56987471222, 87127.8598460984, -128259.40588228774, -0.012, 0.9540000000000001, -0.138, 192.0, 0.0, 0.0, 0.0, 0.0, 0.0, 0.0, 0.0, 0.0, 0.0, 1.6664085160418112E9, 0.0, 2022-10-21 20:15:16.041
150.0, -154113.28871408568, -145507.33065692554, 63942.28356388612, -61551.809197879935, 78105.64525194708, -84449.45030801896, 87097.2603079391, -128271.90050743826, -0.012, 0.9540000000000001, -0.138, 192.0, 0.0, 0.0, 0.0, 0.0, 0.0, 0.0, 0.0, 0.0, 0.0, 1.6664085160418236E9, 0.0, 2022-10-21 20:15:16.041
151.0, -154114.13808037498, -145508.71646508176, 63940.98716270771, -61556.011325837535, 78099.90085362206, -84449.5844184857, 87088.38666539034, -128270.22412660411, -0.012, 0.9540000000000001, -0.138, 192.0, 0.0, 0.0, 0.0, 0.0, 0.0, 0.0, 0.0, 0.0, 0.0, 1.6664085160418355E9, 0.0, 2022-10-21 20:15:16.041
152.0, -154115.36742632, -145510.16932847135, 63944.98812496521, -61546.62359316631, 78102.42660074552, -84433.91584562253, 87124.7082501302, -128262.89275442276, -0.012, 0.9540000000000001, -0.138, 192.0, 0.0, 0.0, 0.0, 0.0, 0.0, 0.0, 0.0, 0.0, 0.0, 1.6664085160418472E9, 0.0, 2022-10-21 20:15:16.041
153.0, -154117.84846995457, -145512.67272385035, 63943.40115110888, -61553.66439266973, 78099.07383907722, -84436.79922065727, 87135.79471538005, -128263.89858292326, -0.014, 0.9540000000000001, -0.138, 192.0, 255.0, 144.0, 29.0, 208.0, 251.0, 176.0, 0.0, 0.0, 0.0, 1.6664085160418591E9, 0.0, 2022-10-21 20:15:16.041
154.0, -154120.91065894492, -145514.77378782915, 63940.98716270771, -61562.873311385316, 78097.3304030097, -84448.26566556284, 87106.64804061032, -128271.05114114896, -0.014, 0.9540000000000001, -0.138, 192.0, 0.0, 0.0, 0.0, 0.0, 0.0, 0.0, 0.0, 0.0, 0.0, 1.6664085160418715E9, 0.0, 2022-10-21 20:15:16.041
155.0, -154121.44710081187, -145514.4385116623, 63941.1436249189, -61568.0812678434, 78096.54809195377, -84451.46196501995, 87092.27586892556, -128269.41946380372, -0.014, 0.9540000000000001, -0.138, 192.0, 0.0, 0.0, 0.0, 0.0, 0.0, 0.0, 0.0, 0.0, 0.0, 1.66640851604189E9, 0.0, 2022-10-21 20:15:16.041
156.0, -154122.1176531455, -145514.1926424733, 63944.65284879838, -61555.60899443734, 78099.65498443306, -84438.60971195814, 87124.35062221893, -128261.3281323109, -0.014, 0.9540000000000001, -0.138, 192.0, 0.0, 0.0, 0.0, 0.0, 0.0, 0.0, 0.0, 0.0, 0.0, 1.666408516041902E9, 0.0, 2022-10-21 20:15:16.041
157.0, -154128.3314381041, -145520.51818615416, 63942.03769469711, -61560.39226775078, 78103.23126354591, -84430.58543569868, 87144.44484048426, -128263.45154803415, -0.014, 0.9540000000000001, -0.138, 192.0, 0.0, 0.0, 0.0, 0.0, 0.0, 0.0, 0.0, 0.0, 0.0, 1.6664085160419135E9, 0.0, 2022-10-21 20:15:16.041
158.0, -154121.51415604522, -145519.11002625347, 63947.13389243292, -61566.80721840945, 78104.05827809076, -84438.49795323587, 87122.94246231824, -128268.30187658095, -0.014, 0.9540000000000001, -0.138, 192.0, 0.0, 0.0, 0.0, 0.0, 0.0, 0.0, 0.0, 0.0, 0.0, 1.6664085160419252E9, 0.0, 2022-10-21 20:15:16.041
159.0, -154114.5627635196, -145510.839880805, 63952.23009016873, -61564.90732013075, 78103.56653971273, -84445.31523529474, 87097.39441840582, -128267.13958586927, -0.014, 0.9540000000000001, -0.138, 192.0, 0.0, 0.0, 0.0, 0.0, 0.0, 0.0, 0.0, 0.0, 0.0, 1.666408516041937E9, 0.0, 2022-10-21 20:15:16.041
160.0, -154122.56468803462, -145520.11585475397, 63944.07170344254, -61556.99480259357, 78101.55488271176, -84445.96343588394, 87112.07951451297, -128274.51566153952, -0.014, 0.9540000000000001, -0.138, 192.0, 0.0, 0.0, 0.0, 0.0, 0.0, 0.0, 0.0, 0.0, 0.0, 1.6664085160419464E9, 0.0, 2022-10-21 20:15:16.041
161.0, -154121.71532174532, -145520.7864070876, 63943.17763366433, -61549.596375178866, 78106.96400486995, -84431.50185722136, 87142.61199743891, -128272.28048709399, -0.014, 0.9540000000000001, -0.138, 192.0, 0.0, 0.0, 0.0, 0.0, 0.0, 0.0, 0.0, 0.0, 0.0, 1.6664085160419557E9, 0.0, 2022-10-21 20:15:16.041
162.0, -154120.620086267, -145518.6406396199, 63939.31078187356, -61558.84999738336, 78099.76674315534, -84441.4260317595, 87117.62274713788, -128276.19204237367, -0.014, 0.9540000000000001, -0.138, 192.0, 0.0, 0.0, 0.0, 0.0, 0.0, 0.0, 0.0, 0.0, 0.0, 1.6664085160419648E9, 0.0, 2022-10-21 20:15:16.041
163.0, -154122.25176361226, -145521.12168325446, 63936.47211032774, -61567.343660276376, 78093.77647564131, -84457.67574997852, 87081.7034937982, -128287.52437681251, -0.014, 0.9480000000000001, -0.136, 192.0, 255.0, 144.0, 29.0, 160.0, 251.0, 192.0, 0.0, 0.0, 0.0, 1.666408516041974E9, 0.0, 2022-10-21 20:15:16.041
164.0, -154117.53554553218, -145518.75239834219, 63945.32340113204, -61548.85876761184, 78103.32067052372, -84441.11310733714, 87102.42356090827, -128278.91895519722, -0.014, 0.9480000000000001, -0.136, 192.0, 0.0, 0.0, 0.0, 0.0, 0.0, 0.0, 0.0, 0.0, 0.0, 1.6664085160419836E9, 0.0, 2022-10-21 20:15:16.041
165.0, -154124.6210485245, -145524.4967966672, 63941.72477027473, -61549.95400309015, 78102.940690868, -84432.39592699957, 87132.50900894511, -128280.34946684235, -0.014, 0.9480000000000001, -0.136, 192.0, 0.0, 0.0, 0.0, 0.0, 0.0, 0.0, 0.0, 0.0, 0.0, 1.6664085160420024E9, 0.0, 2022-10-21 20:15:16.042
166.0, -154121.4694525563, -145518.66299136437, 63943.22233715324, -61560.39226775078, 78098.5821006992, -84444.26470330534, 87115.34286920344, -128281.19883313165, -0.014, 0.9480000000000001, -0.136, 192.0, 0.0, 0.0, 0.0, 0.0, 0.0, 0.0, 0.0, 0.0, 0.0, 1.6664085160420115E9, 0.0, 2022-10-21 20:15:16.042
167.0, -154115.9709234203, -145513.097406995, 63948.385590122416, -61558.35825900534, 78103.74535366838, -84451.5290202533, 87083.67044731027, -128277.64490576327, -0.014, 0.9480000000000001, -0.136, 192.0, 0.0, 0.0, 0.0, 0.0, 0.0, 0.0, 0.0, 0.0, 0.0, 1.6664085160420208E9, 0.0, 2022-10-21 20:15:16.042
168.0, -154119.0778158996, -145516.4501686633, 63947.960906977765, -61552.99384033607, 78102.82893214571, -84452.64660747607, 87087.8055200345, -128276.03558016248, -0.014, 0.9480000000000001, -0.136, 192.0, 0.0, 0.0, 0.0, 0.0, 0.0, 0.0, 0.0, 0.0, 0.0, 1.66640851604203E9, 0.0, 2022-10-21 20:15:16.042
169.0, -154122.56468803462, -145518.17125298636, 63944.9434214763, -61549.28345075649, 78096.86101637615, -84449.74088069689, 87117.60039539343, -128277.55549878544, -0.014, 0.9480000000000001, -0.136, 192.0, 0.0, 0.0, 0.0, 0.0, 0.0, 0.0, 0.0, 0.0, 0.0, 1.6664085160420406E9, 0.0, 2022-10-21 20:15:16.042
170.0, -154124.1740136354, -145520.85346232099, 63943.66937204235, -61552.65856416924, 78100.79492340027, -84439.2802642918, 87121.310784973, -128276.68378075169, -0.014, 0.9480000000000001, -0.136, 192.0, 0.0, 0.0, 0.0, 0.0, 0.0, 0.0, 0.0, 0.0, 0.0, 1.6664085160420496E9, 0.0, 2022-10-21 20:15:16.042
171.0, -154115.9709234203, -145514.7961395736, 63949.95021223429, -61553.30676475845, 78107.36633627013, -84434.13936306708, 87097.01443875009, -128270.53705102648, -0.014, 0.9480000000000001, -0.136, 192.0, 0.0, 0.0, 0.0, 0.0, 0.0, 0.0, 0.0, 0.0, 0.0, 1.666408516042059E9, 0.0, 2022-10-21 20:15:16.042
172.0, -154117.80376646566, -145514.86319480697, 63947.469168599746, -61546.645944910764, 78107.85807464816, -84436.73216542389, 87096.50034862761, -128272.83928070538, -0.012, 0.9460000000000001, -0.128, 192.0, 255.0, 160.0, 29.0, 144.0, 252.0, 0.0, 0.0, 0.0, 0.0, 1.6664085160420682E9, 0.0, 2022-10-21 20:15:16.042
173.0, -154125.0233799247, -145522.52984315515, 63941.70241853028, -61542.51087218653, 78104.05827809076, -84431.65831943254, 87127.6139769094, -128273.04044640547, -0.012, 0.9460000000000001, -0.128, 192.0, 0.0, 0.0, 0.0, 0.0, 0.0, 0.0, 0.0, 0.0, 0.0, 1.6664085160420778E9, 0.0, 2022-10-21 20:15:16.042
174.0, -154130.633667783, -145528.43070369135, 63935.935668460814, -61553.217357780624, 78099.87850187761, -84437.49212473538, 87129.40211646583, -128278.09194065238, -0.012, 0.9460000000000001, -0.128, 192.0, 0.0, 0.0, 0.0, 0.0, 0.0, 0.0, 0.0, 0.0, 0.0, 1.6664085160420868E9, 0.0, 2022-10-21 20:15:16.042
175.0, -154128.7337695043, -145526.1508257569, 63937.74615976169, -61560.2805090285, 78099.52087396632, -84443.46004050494, 87100.47895914066, -128278.13664414128, -0.012, 0.9460000000000001, -0.128, 192.0, 0.0, 0.0, 0.0, 0.0, 0.0, 0.0, 0.0, 0.0, 0.0, 1.666408516042096E9, 0.0, 2022-10-21 20:15:16.042
176.0, -154127.6832375149, -145525.25675597868, 63936.85208998348, -61567.6342329543, 78096.92807160951, -84445.91873239503, 87090.46537762469, -128272.92868768319, -0.012, 0.9460000000000001, -0.128, 192.0, 0.0, 0.0, 0.0, 0.0, 0.0, 0.0, 0.0, 0.0, 0.0, 1.6664085160421112E9, 0.0, 2022-10-21 20:15:16.042
177.0, -154130.5889642941, -145529.9953258032, 63933.32051435954, -61561.398096251265, 78095.96694659794, -84434.89932237857, 87122.83070359597, -128269.93355392618, -0.012, 0.9460000000000001, -0.128, 192.0, 0.0, 0.0, 0.0, 0.0, 0.0, 0.0, 0.0, 0.0, 0.0, 1.6664085160421205E9, 0.0, 2022-10-21 20:15:16.042
178.0, -154139.77553126522, -145537.21493926228, 63924.37981657742, -61562.22511079611, 78092.05539131825, -84440.62136895912, 87133.42543046779, -128276.34850458486, -0.012, 0.9460000000000001, -0.128, 192.0, 0.0, 0.0, 0.0, 0.0, 0.0, 0.0, 0.0, 0.0, 0.0, 1.66640851604213E9, 0.0, 2022-10-21 20:15:16.042
179.0, -154135.66281028543, -145531.71641012628, 63926.86086021196, -61569.19885506617, 78087.69680114948, -84447.70687195145, 87103.58585161995, -128276.37085632932, -0.012, 0.9460000000000001, -0.128, 192.0, 0.0, 0.0, 0.0, 0.0, 0.0, 0.0, 0.0, 0.0, 0.0, 1.6664085160421393E9, 0.0, 2022-10-21 20:15:16.042
180.0, -154132.75708350624, -145528.4977589247, 63931.44296782529, -61569.89175914428, 78092.39066748509, -84439.90611313655, 87090.3089154135, -128270.11236788183, -0.012, 0.9460000000000001, -0.128, 192.0, 0.0, 0.0, 0.0, 0.0, 0.0, 0.0, 0.0, 0.0, 0.0, 1.666408516042157E9, 0.0, 2022-10-21 20:15:16.042
181.0, -154137.85328124205, -145533.5939566605, 63929.52071780214, -61561.44279974017, 78095.98929834239, -84432.86531363313, 87119.74616286113, -128268.32422832541, -0.012, 0.9460000000000001, -0.128, 192.0, 0.0, 0.0, 0.0, 0.0, 0.0, 0.0, 0.0, 0.0, 0.0, 1.6664085160421665E9, 0.0, 2022-10-21 20:15:16.042
182.0, -154138.7920545092, -145535.31504098358, 63926.12325264493, -61563.83443639689, 78092.05539131825, -84435.45811598994, 87136.53232294707, -128269.15124287026, -0.014, 0.9460000000000001, -0.124, 192.0, 255.0, 144.0, 29.0, 144.0, 252.0, 32.0, 0.0, 0.0, 0.0, 1.6664085160421755E9, 0.0, 2022-10-21 20:15:16.042
183.0, -154144.7823220232, -145544.16633178788, 63918.76952871914, -61582.296977316975, 78079.33724872318, -84454.70296796596, 87101.03775275205, -128281.26588836503, -0.014, 0.9460000000000001, -0.124, 192.0, 0.0, 0.0, 0.0, 0.0, 0.0, 0.0, 0.0, 0.0, 0.0, 1.6664085160421903E9, 0.0, 2022-10-21 20:15:16.042
184.0, -154140.1331591765, -145538.3995817184, 63925.63151426691, -61583.01223313955, 78084.34403948118, -84447.14807834006, 87080.07181645297, -128280.28241160899, -0.014, 0.9460000000000001, -0.124, 192.0, 0.0, 0.0, 0.0, 0.0, 0.0, 0.0, 0.0, 0.0, 0.0, 1.666408516042232E9, 0.0, 2022-10-21 20:15:16.042
185.0, -154134.41111259593, -145532.6551833934, 63934.818081238045, -61566.51664573153, 78097.3304030097, -84427.00915658583, 87111.34190694593, -128270.73821672658, -0.014, 0.9460000000000001, -0.124, 192.0, 0.0, 0.0, 0.0, 0.0, 0.0, 0.0, 0.0, 0.0, 0.0, 1.6664085160422745E9, 0.0, 2022-10-21 20:15:16.042
186.0, -154140.80371151015, -145538.7572096297, 63930.88417421391, -61570.361145777846, 78094.96111809745, -84427.12091530811, 87134.00657582362, -128274.00157141704, -0.014, 0.9460000000000001, -0.124, 192.0, 0.0, 0.0, 0.0, 0.0, 0.0, 0.0, 0.0, 0.0, 0.0, 1.6664085160423183E9, 0.0, 2022-10-21 20:15:16.042
187.0, -154141.20604291034, -145540.8135701196, 63926.279714856115, -61582.162866850245, 78085.05929530374, -84444.71173819444, 87106.89390979933, -128284.01515293303, -0.014, 0.9460000000000001, -0.124, 192.0, 0.0, 0.0, 0.0, 0.0, 0.0, 0.0, 0.0, 0.0, 0.0, 1.666408516042359E9, 0.0, 2022-10-21 20:15:16.042
188.0, -154134.09818817358, -145532.9010525824, 63932.98523819271, -61583.839247684395, 78089.01555407234, -84446.92456089551, 87077.12138618487, -128283.65752502174, -0.014, 0.9460000000000001, -0.124, 192.0, 0.0, 0.0, 0.0, 0.0, 0.0, 0.0, 0.0, 0.0, 0.0, 1.6664085160423973E9, 0.0, 2022-10-21 20:15:16.042
189.0, -154135.41694109642, -145533.92923282733, 63935.66744752735, -61573.3339277904, 78096.41398148704, -84441.44838350397, 87090.68889506924, -128278.71778949712, -0.014, 0.9460000000000001, -0.124, 192.0, 0.0, 0.0, 0.0, 0.0, 0.0, 0.0, 0.0, 0.0, 0.0, 1.6664085160424068E9, 0.0, 2022-10-21 20:15:16.042
190.0, -154135.99808645228, -145534.0409915496, 63938.75198826218, -61562.56038696294, 78099.69968792197, -84431.56891245472, 87122.6071861514, -128275.07445515091, -0.014, 0.9460000000000001, -0.124, 192.0, 0.0, 0.0, 0.0, 0.0, 0.0, 0.0, 0.0, 0.0, 0.0, 1.666408516042416E9, 0.0, 2022-10-21 20:15:16.042
191.0, -154139.6861242874, -145535.5609101726, 63933.32051435954, -61582.11816336134, 78094.40232448606, -84442.36480502663, 87109.77728483407, -128287.32321111241, -0.014, 0.9460000000000001, -0.124, 192.0, 0.0, 0.0, 0.0, 0.0, 0.0, 0.0, 0.0, 0.0, 0.0, 1.6664085160424254E9, 0.0, 2022-10-21 20:15:16.042
192.0, -154134.4781678293, -145528.56481415808, 63939.444892340296, -61589.96362566515, 78097.17394079852, -84449.67382546351, 87085.7044560557, -128285.75858900054, -0.01, 0.9520000000000001, -0.124, 192.0, 255.0, 176.0, 29.0, 192.0, 252.0, 32.0, 0.0, 0.0, 0.0, 1.666408516042435E9, 0.0, 2022-10-21 20:15:16.042
193.0, -154130.49955731627, -145531.87287233747, 63944.89871798739, -61578.85480867086, 78100.61610944464, -84440.71077593694, 87093.08053172595, -128276.03558016248, -0.01, 0.9520000000000001, -0.124, 192.0, 0.0, 0.0, 0.0, 0.0, 0.0, 0.0, 0.0, 0.0, 0.0, 1.6664085160424454E9, 0.0, 2022-10-21 20:15:16.042
194.0, -154131.5277375612, -145536.58909041752, 63947.536223833114, -61563.2309392966, 78108.97566187092, -84423.38817398407, 87128.10571528741, -128271.11819638232, -0.01, 0.9520000000000001, -0.124, 192.0, 0.0, 0.0, 0.0, 0.0, 0.0, 0.0, 0.0, 0.0, 0.0, 1.6664085160424547E9, 0.0, 2022-10-21 20:15:16.042
195.0, -154134.1428916625, -145536.92436658437, 63946.12806393243, -61570.51760798903, 78107.12046708113, -84431.79242989927, 87123.32244197399, -128279.03071391949, -0.01, 0.9520000000000001, -0.124, 192.0, 0.0, 0.0, 0.0, 0.0, 0.0, 0.0, 0.0, 0.0, 0.0, 1.6664085160424728E9, 0.0, 2022-10-21 20:15:16.042
196.0, -154137.24978414175, -145541.3947154754, 63941.92593597483, -61582.56519825044, 78103.41007750155, -84449.1820870855, 87089.72777005765, -128284.5292430555, -0.01, 0.9520000000000001, -0.124, 192.0, 0.0, 0.0, 0.0, 0.0, 0.0, 0.0, 0.0, 0.0, 0.0, 1.6664085160424821E9, 0.0, 2022-10-21 20:15:16.042
197.0, -154134.41111259593, -145537.72902938473, 63945.03282845412, -61575.56910223593, 78110.31676653824, -84433.96054911143, 87093.88519452635, -128275.00739991754, -0.01, 0.9520000000000001, -0.124, 192.0, 0.0, 0.0, 0.0, 0.0, 0.0, 0.0, 0.0, 0.0, 0.0, 1.6664085160424929E9, 0.0, 2022-10-21 20:15:16.042
198.0, -154139.21673765383, -145542.33348874253, 63941.85888074147, -61567.72363993212, 78108.61803395963, -84431.01011884333, 87126.04935479753, -128274.20273711714, -0.01, 0.9520000000000001, -0.124, 192.0, 0.0, 0.0, 0.0, 0.0, 0.0, 0.0, 0.0, 0.0, 0.0, 1.666408516042502E9, 0.0, 2022-10-21 20:15:16.042
199.0, -154146.54810983516, -145548.0108318342, 63934.23693588221, -61579.05597437096, 78099.52087396632, -84442.25304630435, 87127.30105248703, -128283.14343489928, -0.01, 0.9520000000000001, -0.124, 192.0, 0.0, 0.0, 0.0, 0.0, 0.0, 0.0, 0.0, 0.0, 0.0, 1.6664085160425115E9, 0.0, 2022-10-21 20:15:16.042
200.0, -154144.0894179451, -145541.72999164223, 63937.63440103942, -61585.9850151521, 78095.87753962011, -84451.39490978658, 87096.4556451387, -128279.70126625315, -0.01, 0.9520000000000001, -0.124, 192.0, 0.0, 0.0, 0.0, 0.0, 0.0, 0.0, 0.0, 0.0, 0.0, 1.6664085160425208E9, 0.0, 2022-10-21 20:15:16.042
201.0, -154138.9932202093, -145539.94185208582, 63946.41863661035, -61581.91699766124, 78101.37606875612, -84441.11310733714, 87088.8560520239, -128268.81596670342, -0.006, 0.9520000000000001, -0.116, 192.0, 255.0, 208.0, 29.0, 192.0, 252.0, 96.0, 0.0, 0.0, 0.0, 1.6664085160425303E9, 0.0, 2022-10-21 20:15:16.042
202.0, -154147.91156624694, -145552.54823595862, 63939.713113273756, -61576.53022724751, 78097.41980998752, -84434.96637761193, 87115.45462792572, -128271.09584463786, -0.006, 0.9520000000000001, -0.116, 192.0, 0.0, 0.0, 0.0, 0.0, 0.0, 0.0, 0.0, 0.0, 0.0, 1.6664085160425403E9, 0.0, 2022-10-21 20:15:16.042
203.0, -154148.35860113605, -145552.36942200296, 63936.85208998348, -61574.831494668906, 78096.92807160951, -84434.13936306708, 87131.3690699779, -128273.62159176132, -0.006, 0.9520000000000001, -0.116, 192.0, 0.0, 0.0, 0.0, 0.0, 0.0, 0.0, 0.0, 0.0, 0.0, 1.6664085160425496E9, 0.0, 2022-10-21 20:15:16.042
204.0, -154143.26240340024, -145548.39081148992, 63939.13196791792, -61581.82759068342, 78097.19629254297, -84439.77200266982, 87108.90556680031, -128270.29118183747, -0.006, 0.9520000000000001, -0.116, 192.0, 0.0, 0.0, 0.0, 0.0, 0.0, 0.0, 0.0, 0.0, 0.0, 1.6664085160425596E9, 0.0, 2022-10-21 20:15:16.042
205.0, -154145.65404005695, -145551.8553318805, 63937.65675278387, -61586.29793957448, 78098.20212104346, -84443.50474399385, 87091.31474391399, -128273.39807431676, -0.006, 0.9520000000000001, -0.116, 192.0, 0.0, 0.0, 0.0, 0.0, 0.0, 0.0, 0.0, 0.0, 0.0, 1.666408516042569E9, 0.0, 2022-10-21 20:15:16.042
206.0, -154147.06219995764, -145550.38011674644, 63936.04742718309, -61572.21634056763, 78098.24682453237, -84433.53586596678, 87116.14753200383, -128268.27952483649, -0.006, 0.9520000000000001, -0.116, 192.0, 0.0, 0.0, 0.0, 0.0, 0.0, 0.0, 0.0, 0.0, 0.0, 1.6664085160425785E9, 0.0, 2022-10-21 20:15:16.042
207.0, -154146.32459239062, -145547.2508725227, 63931.822947481036, -61575.166770835734, 78095.60931868665, -84428.68553741998, 87137.89577935885, -128270.04531264846, -0.006, 0.9520000000000001, -0.116, 192.0, 0.0, 0.0, 0.0, 0.0, 0.0, 0.0, 0.0, 0.0, 0.0, 1.6664085160425875E9, 0.0, 2022-10-21 20:15:16.042
208.0, -154139.90964173194, -145540.9029770974, 63934.952191704775, -61583.99570989558, 78095.94459485347, -84429.35608975364, 87121.2660814841, -128267.11723412482, -0.006, 0.9520000000000001, -0.116, 192.0, 0.0, 0.0, 0.0, 0.0, 0.0, 0.0, 0.0, 0.0, 0.0, 1.666408516042597E9, 0.0, 2022-10-21 20:15:16.042
209.0, -154142.3459818776, -145546.69207891132, 63935.75685450517, -61583.39221279529, 78097.0845338207, -84436.64275844608, 87094.64515383783, -128268.21246960312, -0.006, 0.9520000000000001, -0.116, 192.0, 0.0, 0.0, 0.0, 0.0, 0.0, 0.0, 0.0, 0.0, 0.0, 1.6664085160426064E9, 0.0, 2022-10-21 20:15:16.042
210.0, -154149.56559533664, -145553.77758190365, 63930.10186315798, -61585.24740758508, 78090.5354726953, -84439.0790985917, 87102.15533997481, -128271.92285918271, -0.006, 0.9520000000000001, -0.116, 192.0, 0.0, 0.0, 0.0, 0.0, 0.0, 0.0, 0.0, 0.0, 0.0, 1.6664085160426245E9, 0.0, 2022-10-21 20:15:16.042
211.0, -154154.05829597215, -145559.09729708402, 63925.89973520038, -61585.40386979627, 78093.6870686635, -84431.18893279898, 87131.79375312255, -128272.61576326082, -0.014, 0.9500000000000001, -0.12, 192.0, 255.0, 144.0, 29.0, 176.0, 252.0, 64.0, 0.0, 0.0, 0.0, 1.666408516042634E9, 0.0, 2022-10-21 20:15:16.042
212.0, -154148.5821185806, -145555.69983192682, 63926.704398000766, -61595.08217514541, 78091.0272110733, -84437.84975264667, 87117.9133198158, -128274.40390281724, -0.014, 0.9500000000000001, -0.12, 192.0, 0.0, 0.0, 0.0, 0.0, 0.0, 0.0, 0.0, 0.0, 0.0, 1.6664085160426443E9, 0.0, 2022-10-21 20:15:16.042
213.0, -154140.35667662104, -145547.0497068226, 63932.49349981469, -61597.20559086867, 78090.04373431728, -84443.5270957383, 87086.88909851183, -128274.78388247298, -0.014, 0.9500000000000001, -0.12, 192.0, 0.0, 0.0, 0.0, 0.0, 0.0, 0.0, 0.0, 0.0, 0.0, 1.6664085160426536E9, 0.0, 2022-10-21 20:15:16.042
214.0, -154135.88632773, -145544.9486428438, 63936.628572538924, -61583.61573023984, 78092.16715004054, -84437.24625554637, 87095.0027817491, -128273.28631559448, -0.014, 0.9500000000000001, -0.12, 192.0, 0.0, 0.0, 0.0, 0.0, 0.0, 0.0, 0.0, 0.0, 0.0, 1.666408516042663E9, 0.0, 2022-10-21 20:15:16.042
215.0, -154144.31293538964, -145557.62208194996, 63930.70536025827, -61582.54284650599, 78089.5296441948, -84440.50961023684, 87121.98133730667, -128278.78484473049, -0.014, 0.9500000000000001, -0.12, 192.0, 0.0, 0.0, 0.0, 0.0, 0.0, 0.0, 0.0, 0.0, 0.0, 1.6664085160426724E9, 0.0, 2022-10-21 20:15:16.042
216.0, -154144.06706620063, -145559.2537592952, 63931.77824399212, -61587.37082330833, 78092.0777430627, -84444.5329242388, 87117.77920934907, -128281.22118487612, -0.014, 0.9500000000000001, -0.12, 192.0, 0.0, 0.0, 0.0, 0.0, 0.0, 0.0, 0.0, 0.0, 0.0, 1.6664085160426817E9, 0.0, 2022-10-21 20:15:16.042
217.0, -154140.3343248766, -145555.54336971563, 63938.528470817626, -61586.3873465523, 78098.80561814376, -84445.5834562282, 87090.26421192459, -128279.96948718662, -0.014, 0.9500000000000001, -0.12, 192.0, 0.0, 0.0, 0.0, 0.0, 0.0, 0.0, 0.0, 0.0, 0.0, 1.666408516042691E9, 0.0, 2022-10-21 20:15:16.042
218.0, -154146.74927553526, -145561.42187850736, 63938.863746984454, -61584.57685525142, 78100.01261234435, -84440.62136895912, 87088.36431364588, -128281.35529534284, -0.014, 0.9500000000000001, -0.12, 192.0, 0.0, 0.0, 0.0, 0.0, 0.0, 0.0, 0.0, 0.0, 0.0, 1.6664085160427003E9, 0.0, 2022-10-21 20:15:16.042
219.0, -154148.0903802026, -145561.9136168854, 63941.7918255081, -61575.792619680484, 78102.96304261245, -84431.85948513263, 87124.32827047448, -128278.65073426375, -0.014, 0.9500000000000001, -0.12, 192.0, 0.0, 0.0, 0.0, 0.0, 0.0, 0.0, 0.0, 0.0, 0.0, 1.6664085160427105E9, 0.0, 2022-10-21 20:15:16.042
220.0, -154142.54714757766, -145554.82811389305, 63945.233994154216, -61575.36793653583, 78100.70551642246, -84436.88862763508, 87124.37297396339, -128276.19204237367, -0.014, 0.9500000000000001, -0.12, 192.0, 0.0, 0.0, 0.0, 0.0, 0.0, 0.0, 0.0, 0.0, 0.0, 1.66640851604272E9, 0.0, 2022-10-21 20:15:16.042
221.0, -154140.5801940656, -145554.3140237706, 63945.32340113204, -61585.448573285175, 78097.35275475416, -84450.05380511926, 87089.5042526131, -128280.10359765335, -0.012, 0.9440000000000001, -0.122, 192.0, 255.0, 160.0, 29.0, 128.0, 252.0, 48.0, 0.0, 0.0, 0.0, 1.6664085160427291E9, 0.0, 2022-10-21 20:15:16.042
222.0, -154145.9893162238, -145558.62791045045, 63943.37879936443, -61590.32125357643, 78097.57627219871, -84449.69617720797, 87083.6033920769, -128281.28824010948, -0.012, 0.9440000000000001, -0.122, 192.0, 0.0, 0.0, 0.0, 0.0, 0.0, 0.0, 0.0, 0.0, 0.0, 1.6664085160427392E9, 0.0, 2022-10-21 20:15:16.042
223.0, -154145.11759819003, -145561.9583203743, 63947.42446511084, -61576.351413291864, 78105.2876240358, -84420.50479894935, 87124.99882280813, -128267.81013820293, -0.012, 0.9440000000000001, -0.122, 192.0, 0.0, 0.0, 0.0, 0.0, 0.0, 0.0, 0.0, 0.0, 0.0, 1.6664085160427496E9, 0.0, 2022-10-21 20:15:16.042
224.0, -154142.36833362203, -145560.68427094034, 63946.41863661035, -61583.86159942885, 78106.29345253628, -84420.5271506938, 87134.69947990174, -128272.77222547201, -0.012, 0.9440000000000001, -0.122, 192.0, 0.0, 0.0, 0.0, 0.0, 0.0, 0.0, 0.0, 0.0, 0.0, 1.666408516042759E9, 0.0, 2022-10-21 20:15:16.042
225.0, -154139.17203416492, -145558.18087556135, 63948.83262501152, -61588.35430006436, 78106.53932172529, -84436.59805495717, 87105.97748827667, -128275.56619352892, -0.012, 0.9440000000000001, -0.122, 192.0, 0.0, 0.0, 0.0, 0.0, 0.0, 0.0, 0.0, 0.0, 0.0, 1.6664085160427773E9, 0.0, 2022-10-21 20:15:16.042
226.0, -154135.79692075218, -145553.24114003673, 63953.30297390259, -61581.84994242787, 78110.38382177161, -84432.41827874402, 87096.99208700564, -128267.11723412482, -0.012, 0.9440000000000001, -0.122, 192.0, 0.0, 0.0, 0.0, 0.0, 0.0, 0.0, 0.0, 0.0, 0.0, 1.6664085160427864E9, 0.0, 2022-10-21 20:15:16.042
227.0, -154133.7405602623, -145551.8553318805, 63957.594508838, -61563.61091895234, 78115.16709508504, -84416.59324366966, 87132.15138103384, -128260.81404218842, -0.012, 0.9440000000000001, -0.122, 192.0, 0.0, 0.0, 0.0, 0.0, 0.0, 0.0, 0.0, 0.0, 0.0, 1.6664085160427957E9, 0.0, 2022-10-21 20:15:16.042
228.0, -154143.62003131153, -145563.76881167517, 63949.52552908964, -61581.08998311639, 78106.80754265876, -84425.71275540742, 87141.98614859417, -128272.39224581627, -0.012, 0.9440000000000001, -0.122, 192.0, 0.0, 0.0, 0.0, 0.0, 0.0, 0.0, 0.0, 0.0, 0.0, 1.6664085160428052E9, 0.0, 2022-10-21 20:15:16.042
229.0, -154141.7871882662, -145563.52294248616, 63951.55953783507, -61594.50102978957, 78101.9348623675, -84432.86531363313, 87113.42061918028, -128270.76056847103, -0.012, 0.9440000000000001, -0.122, 192.0, 0.0, 0.0, 0.0, 0.0, 0.0, 0.0, 0.0, 0.0, 0.0, 1.6664085160428145E9, 0.0, 2022-10-21 20:15:16.042
230.0, -154142.8377202556, -145562.45005875232, 63950.553709334585, -61597.540867035495, 78102.3371937677, -84440.24138930338, 87089.52660435755, -128269.19594635916, -0.012, 0.9440000000000001, -0.122, 192.0, 0.0, 0.0, 0.0, 0.0, 0.0, 0.0, 0.0, 0.0, 0.0, 1.6664085160428236E9, 0.0, 2022-10-21 20:15:16.042
231.0, -154150.07968545912, -145570.8096111786, 63943.40115110888, -61595.730375734616, 78096.79396114279, -84442.29774979327, 87108.30206970002, -128271.22995510459, -0.012, 0.9440000000000001, -0.128, 192.0, 255.0, 160.0, 29.0, 128.0, 252.0, 0.0, 0.0, 0.0, 0.0, 1.666408516042833E9, 0.0, 2022-10-21 20:15:16.042
232.0, -154155.64526982847, -145578.29744557114, 63935.108653915966, -61598.323178091436, 78092.65888841855, -84440.80018291477, 87131.3690699779, -128275.83441446238, -0.012, 0.9440000000000001, -0.128, 192.0, 0.0, 0.0, 0.0, 0.0, 0.0, 0.0, 0.0, 0.0, 0.0, 1.666408516042843E9, 0.0, 2022-10-21 20:15:16.042
233.0, -154147.95626973585, -145570.96607338978, 63937.969677206245, -61603.6428932718, 78090.3790104841, -84440.10727883664, 87115.09700001443, -128270.8276237044, -0.012, 0.9440000000000001, -0.128, 192.0, 0.0, 0.0, 0.0, 0.0, 0.0, 0.0, 0.0, 0.0, 0.0, 1.6664085160428524E9, 0.0, 2022-10-21 20:15:16.042
234.0, -154142.50244408875, -145567.27803555466, 63940.16014816286, -61604.604018283375, 78092.86005411865, -84442.45421200445, 87088.76664504608, -128274.20273711714, -0.012, 0.9440000000000001, -0.128, 192.0, 0.0, 0.0, 0.0, 0.0, 0.0, 0.0, 0.0, 0.0, 0.0, 1.6664085160428617E9, 0.0, 2022-10-21 20:15:16.042
235.0, -154150.07968545912, -145578.11863161548, 63934.72867426022, -61603.37467233833, 78092.6365366741, -84433.42410724451, 87104.52462488707, -128276.28144935149, -0.012, 0.9440000000000001, -0.128, 192.0, 0.0, 0.0, 0.0, 0.0, 0.0, 0.0, 0.0, 0.0, 0.0, 1.6664085160428712E9, 0.0, 2022-10-21 20:15:16.042
236.0, -154146.50340634625, -145574.36353854698, 63939.42254059584, -61598.94902693618, 78094.9834698419, -84418.96252858192, 87139.63921542636, -128267.40780680273, -0.012, 0.9440000000000001, -0.128, 192.0, 0.0, 0.0, 0.0, 0.0, 0.0, 0.0, 0.0, 0.0, 0.0, 1.6664085160428803E9, 0.0, 2022-10-21 20:15:16.042
237.0, -154145.31876389013, -145572.84361992404, 63934.77337774914, -61604.62637002783, 78092.54712969626, -84430.6301391876, 87124.17180826329, -128273.06279814993, -0.012, 0.9440000000000001, -0.128, 192.0, 0.0, 0.0, 0.0, 0.0, 0.0, 0.0, 0.0, 0.0, 0.0, 1.6664085160428896E9, 0.0, 2022-10-21 20:15:16.042
238.0, -154142.8824237445, -145569.1108786, 63934.4381015823, -61608.2920561185, 78092.12244655161, -84438.31913928023, 87092.8570142814, -128278.00253367455, -0.012, 0.9440000000000001, -0.128, 192.0, 0.0, 0.0, 0.0, 0.0, 0.0, 0.0, 0.0, 0.0, 0.0, 1.6664085160428991E9, 0.0, 2022-10-21 20:15:16.042
239.0, -154138.32266787562, -145564.43936400884, 63944.049351698086, -61591.05886114346, 78100.4819989779, -84423.432877473, 87105.23988070965, -128267.45251029165, -0.012, 0.9440000000000001, -0.128, 192.0, 0.0, 0.0, 0.0, 0.0, 0.0, 0.0, 0.0, 0.0, 0.0, 1.6664085160429084E9, 0.0, 2022-10-21 20:15:16.042
240.0, -154147.2857174022, -145575.0117391362, 63940.24955514068, -61586.85673318586, 78100.28083327781, -84423.58933968417, 87132.8666368564, -128272.81692896092, -0.014, 0.9460000000000001, -0.132, 192.0, 255.0, 144.0, 29.0, 144.0, 251.0, 224.0, 0.0, 0.0, 0.0, 1.666408516042927E9, 0.0, 2022-10-21 20:15:16.042
241.0, -154144.15647317845, -145576.01756763668, 63944.00464820918, -61592.355262321864, 78104.21474030195, -84427.72441240841, 87129.42446821029, -128272.43694930518, -0.014, 0.9460000000000001, -0.132, 192.0, 0.0, 0.0, 0.0, 0.0, 0.0, 0.0, 0.0, 0.0, 0.0, 1.6664085160429373E9, 0.0, 2022-10-21 20:15:16.042
242.0, -154145.47522610132, -145580.57732350557, 63942.61884005295, -61596.33387283491, 78105.2876240358, -84440.24138930338, 87096.76856956109, -128280.08124590889, -0.014, 0.9460000000000001, -0.132, 192.0, 0.0, 0.0, 0.0, 0.0, 0.0, 0.0, 0.0, 0.0, 0.0, 1.6664085160429463E9, 0.0, 2022-10-21 20:15:16.042
243.0, -154147.06219995764, -145583.32658807357, 63941.344790619, -61597.22794261312, 78101.71134492295, -84437.33566252419, 87094.86867128238, -128275.58854527338, -0.014, 0.9460000000000001, -0.132, 192.0, 0.0, 0.0, 0.0, 0.0, 0.0, 0.0, 0.0, 0.0, 0.0, 1.6664085160429559E9, 0.0, 2022-10-21 20:15:16.042
244.0, -154146.10107494605, -145584.33241657406, 63941.32243887454, -61592.95875942216, 78100.14672281107, -84425.5786449407, 87128.73156413216, -128272.21343186063, -0.014, 0.9460000000000001, -0.132, 192.0, 0.0, 0.0, 0.0, 0.0, 0.0, 0.0, 0.0, 0.0, 0.0, 1.6664085160429652E9, 0.0, 2022-10-21 20:15:16.042
245.0, -154145.49757784576, -145585.09237588555, 63941.545956319096, -61593.47284954463, 78098.3809349991, -84429.24433103137, 87131.99491882265, -128279.34363834187, -0.014, 0.9460000000000001, -0.132, 192.0, 0.0, 0.0, 0.0, 0.0, 0.0, 0.0, 0.0, 0.0, 0.0, 1.6664085160429745E9, 0.0, 2022-10-21 20:15:16.042
246.0, -154147.17395867992, -145586.43348055286, 63941.27773538563, -61604.62637002783, 78094.3352692527, -84440.9789968704, 87099.62959285136, -128284.84216747788, -0.014, 0.9460000000000001, -0.132, 192.0, 0.0, 0.0, 0.0, 0.0, 0.0, 0.0, 0.0, 0.0, 0.0, 1.6664085160429835E9, 0.0, 2022-10-21 20:15:16.042
247.0, -154138.00974345324, -145578.74448046024, 63947.15624417738, -61604.62637002783, 78095.89989136456, -84436.77686891281, 87090.82300553596, -128276.92964994069, -0.014, 0.9460000000000001, -0.132, 192.0, 0.0, 0.0, 0.0, 0.0, 0.0, 0.0, 0.0, 0.0, 0.0, 1.6664085160429928E9, 0.0, 2022-10-21 20:15:16.042
248.0, -154136.7356940193, -145580.0632333831, 63952.498311102194, -61584.21922734013, 78102.940690868, -84424.30459550675, 87125.5129129306, -128268.05600739193, -0.014, 0.9460000000000001, -0.132, 192.0, 0.0, 0.0, 0.0, 0.0, 0.0, 0.0, 0.0, 0.0, 0.0, 1.6664085160430021E9, 0.0, 2022-10-21 20:15:16.043
249.0, -154145.51992959023, -145587.68517824236, 63950.6431163124, -61584.21922734013, 78107.92512988152, -84422.60586292815, 87139.34864274843, -128272.12402488281, -0.014, 0.9460000000000001, -0.132, 192.0, 0.0, 0.0, 0.0, 0.0, 0.0, 0.0, 0.0, 0.0, 0.0, 1.6664085160430117E9, 0.0, 2022-10-21 20:15:16.043
250.0, -154145.69874354586, -145587.77458522018, 63950.50900584567, -61605.00634968357, 78102.60541470116, -84432.84296188867, 87111.25249996812, -128274.24744060606, -0.016, 0.9480000000000001, -0.13, 192.0, 255.0, 128.0, 29.0, 160.0, 251.0, 240.0, 0.0, 0.0, 0.0, 1.6664085160430207E9, 0.0, 2022-10-21 20:15:16.043
251.0, -154139.4402550984, -145582.18664910636, 63954.57702333654, -61602.34649209339, 78105.2876240358, -84433.44645898897, 87097.21560445019, -128266.55844051343, -0.016, 0.9480000000000001, -0.13, 192.0, 0.0, 0.0, 0.0, 0.0, 0.0, 0.0, 0.0, 0.0, 0.0, 1.6664085160430307E9, 0.0, 2022-10-21 20:15:16.043
252.0, -154142.86007200004, -145583.23718109576, 63952.922994246845, -61591.84117219939, 78103.186560057, -84428.19379904197, 87122.1601512623, -128266.44668179116, -0.016, 0.9480000000000001, -0.13, 192.0, 0.0, 0.0, 0.0, 0.0, 0.0, 0.0, 0.0, 0.0, 0.0, 1.6664085160430403E9, 0.0, 2022-10-21 20:15:16.043
253.0, -154147.30806914665, -145587.0593293976, 63950.41959886785, -61598.21141936915, 78098.24682453237, -84433.51351422233, 87135.99588108015, -128270.89467893777, -0.016, 0.9480000000000001, -0.13, 192.0, 0.0, 0.0, 0.0, 0.0, 0.0, 0.0, 0.0, 0.0, 0.0, 1.6664085160430503E9, 0.0, 2022-10-21 20:15:16.043
254.0, -154146.10107494605, -145586.43348055286, 63951.76070353517, -61601.787698482, 78102.76187691235, -84435.94985436797, 87117.80156109353, -128272.79457721647, -0.016, 0.9480000000000001, -0.13, 192.0, 0.0, 0.0, 0.0, 0.0, 0.0, 0.0, 0.0, 0.0, 0.0, 1.6664085160430598E9, 0.0, 2022-10-21 20:15:16.043
255.0, -154141.47426384382, -145582.90190492893, 63952.095979702, -61609.38729159681, 78096.8386646317, -84439.99552011437, 87089.83952877994, -128269.68768473718, -0.016, 0.9480000000000001, -0.13, 192.0, 0.0, 0.0, 0.0, 0.0, 0.0, 0.0, 0.0, 0.0, 0.0, 1.6664085160430813E9, 0.0, 2022-10-21 20:15:16.043
0.0, -154148.04567671366, -145594.74832949025, 63945.97160172124, -61602.435899071206, 78094.7823041418, -84438.65441544705, 87108.63734586685, -128270.98408591558, -0.016, 0.9480000000000001, -0.13, 192.0, 0.0, 0.0, 0.0, 0.0, 0.0, 0.0, 0.0, 0.0, 0.0, 1.666408516043091E9, 0.0, 2022-10-21 20:15:16.043
1.0, -154147.2410139133, -145596.9611521913, 63946.843319755004, -61596.95972167966, 78098.47034197692, -84427.38913624157, 87141.33794800496, -128264.77030095701, -0.016, 0.9480000000000001, -0.13, 192.0, 0.0, 0.0, 0.0, 0.0, 0.0, 0.0, 0.0, 0.0, 0.0, 1.6664085165217438E9, 0.0, 2022-10-21 20:15:16.521
2.0, -154145.51992959023, -145594.52481204568, 63948.54205233361, -61600.536000792505, 78103.11950482363, -84424.75163039585, 87129.9609100772, -128261.3281323109, -0.016, 0.9480000000000001, -0.13, 192.0, 0.0, 0.0, 0.0, 0.0, 0.0, 0.0, 0.0, 0.0, 0.0, 1.6664085165217829E9, 0.0, 2022-10-21 20:15:16.521
3.0, -154144.31293538964, -145596.33530334657, 63946.57509882154, -61608.71673926315, 78101.8901588786, -84428.7302409089, 87101.77536031906, -128262.66923697821, -0.016, 0.9480000000000001, -0.13, 192.0, 0.0, 0.0, 0.0, 0.0, 0.0, 0.0, 0.0, 0.0, 0.0, 1.666408516521813E9, 0.0, 2022-10-21 20:15:16.521
4.0, -154146.95044123536, -145601.18563189337, 63941.948287719286, -61607.57680029593, 78101.7336966674, -84425.60099668516, 87112.66065986881, -128260.70228346615, -0.018000000000000002, 0.9480000000000001, -0.138, 192.0, 255.0, 112.0, 29.0, 160.0, 251.0, 176.0, 0.0, 0.0, 0.0, 1.666408516521846E9, 0.0, 2022-10-21 20:15:16.521
5.0, -154151.62195582653, -145605.43246333988, 63934.86278472695, -61597.07148040194, 78098.02330708782, -84424.23754027337, 87139.01336658161, -128266.71490272462, -0.018000000000000002, 0.9480000000000001, -0.138, 192.0, 0.0, 0.0, 0.0, 0.0, 0.0, 0.0, 0.0, 0.0, 0.0, 1.6664085165218866E9, 0.0, 2022-10-21 20:15:16.521
6.0, -154153.00776398275, -145609.1652046639, 63930.14656664689, -61609.76727125255, 78088.59087092768, -84434.29582527827, 87123.70242162973, -128272.99574291657, -0.018000000000000002, 0.9480000000000001, -0.138, 192.0, 0.0, 0.0, 0.0, 0.0, 0.0, 0.0, 0.0, 0.0, 0.0, 1.666408516521901E9, 0.0, 2022-10-21 20:15:16.521
7.0, -154147.62099356903, -145606.7735680072, 63935.60039229398, -61618.5962103124, 78089.90962385054, -84440.68842419249, 87099.4060754068, -128275.00739991754, -0.018000000000000002, 0.9480000000000001, -0.138, 192.0, 0.0, 0.0, 0.0, 0.0, 0.0, 0.0, 0.0, 0.0, 0.0, 1.6664085165219114E9, 0.0, 2022-10-21 20:15:16.521
8.0, -154145.81050226814, -145605.1195389175, 63939.780168507124, -61607.532096807015, 78095.11758030864, -84433.17823805551, 87107.49740689962, -128273.50983303903, -0.018000000000000002, 0.9480000000000001, -0.138, 192.0, 0.0, 0.0, 0.0, 0.0, 0.0, 0.0, 0.0, 0.0, 0.0, 1.6664085165219223E9, 0.0, 2022-10-21 20:15:16.521
9.0, -154152.62778432702, -145610.93099247589, 63937.43323533932, -61598.05495715797, 78095.00582158635, -84423.29876700626, 87139.59451193745, -128274.71682723962, -0.018000000000000002, 0.9480000000000001, -0.138, 192.0, 0.0, 0.0, 0.0, 0.0, 0.0, 0.0, 0.0, 0.0, 0.0, 1.6664085165219333E9, 0.0, 2022-10-21 20:15:16.521
10.0, -154150.2361476703, -145608.44994884133, 63943.15528191988, -61601.3406635929, 78095.69872566446, -84421.89060710557, 87138.3651659924, -128270.91703068222, -0.018000000000000002, 0.9480000000000001, -0.138, 192.0, 0.0, 0.0, 0.0, 0.0, 0.0, 0.0, 0.0, 0.0, 0.0, 1.666408516521944E9, 0.0, 2022-10-21 20:15:16.521
