%OpenBCI Raw EEG Data
%Number of channels = 8
%Sample Rate = 250 Hz
%Board = OpenBCI_GUI$BoardCytonSerial
Sample Index, EXG Channel 0, EXG Channel 1, EXG Channel 2, EXG Channel 3, EXG Channel 4, EXG Channel 5, EXG Channel 6, EXG Channel 7, Accel Channel 0, Accel Channel 1, Accel Channel 2, Other, Other, Other, Other, Other, Other, Other, Analog Channel 0, Analog Channel 1, Analog Channel 2, Timestamp, Other, Timestamp (Formatted)
48.0, -157376.7998667717, -169061.7554261393, 63619.68083616267, -60456.59607131435, 79431.1484016357, -78147.73358675643, 92177.56595344139, -128209.13680900774, 0.0, 0.0, 0.0, 192.0, 0.0, 0.0, 0.0, 0.0, 0.0, 0.0, 0.0, 0.0, 0.0, 1.6664083608344874E9, 0.0, 2022-10-21 20:12:40.834
49.0, -157372.53068358073, -169060.2578592608, 63619.63613267376, -60451.49987357854, 79437.96568369457, -78146.86186872267, 92164.57958991284, -128205.96286129509, 0.0, 0.0, 0.0, 192.0, 0.0, 0.0, 0.0, 0.0, 0.0, 0.0, 0.0, 0.0, 0.0, 1.666408360834514E9, 0.0, 2022-10-21 20:12:40.834
50.0, -157376.5539975827, -169062.26951626176, 63611.701263392126, -60445.219033386595, 79438.03273892794, -78132.02031040435, 92197.43665426216, -128204.88997756124, -0.03, 0.9420000000000001, -0.152, 192.0, 255.0, 16.0, 29.0, 112.0, 251.0, 64.0, 0.0, 0.0, 0.0, 1.66640836083453E9, 0.0, 2022-10-21 20:12:40.834
51.0, -157382.4995616078, -169064.41528372947, 63609.957827324615, -60444.63788803076, 79437.0492621719, -78120.4868102654, 92220.48130279557, -128207.88511131825, -0.03, 0.9420000000000001, -0.152, 192.0, 0.0, 0.0, 0.0, 0.0, 0.0, 0.0, 0.0, 0.0, 0.0, 1.6664083608345487E9, 0.0, 2022-10-21 20:12:40.834
52.0, -157379.83970401762, -169059.43084471594, 63615.59046692735, -60450.20347240013, 79435.5516952934, -78137.5411912848, 92190.30644778091, -128210.45556193062, -0.03, 0.9420000000000001, -0.152, 192.0, 0.0, 0.0, 0.0, 0.0, 0.0, 0.0, 0.0, 0.0, 0.0, 1.666408360834565E9, 0.0, 2022-10-21 20:12:40.834
53.0, -157374.5423405817, -169049.0596352887, 63616.84216461685, -60452.90803347922, 79432.13187839174, -78154.68497928203, 92162.18795325613, -128206.90163456222, -0.03, 0.9420000000000001, -0.152, 192.0, 0.0, 0.0, 0.0, 0.0, 0.0, 0.0, 0.0, 0.0, 0.0, 1.6664083608345804E9, 0.0, 2022-10-21 20:12:40.834
54.0, -157373.8047330147, -169045.88568757602, 63618.67500766218, -60434.84782395933, 79440.62554128475, -78123.68310972251, 92197.99544787353, -128197.15627397971, -0.03, 0.9420000000000001, -0.152, 192.0, 0.0, 0.0, 0.0, 0.0, 0.0, 0.0, 0.0, 0.0, 0.0, 1.666408360834596E9, 0.0, 2022-10-21 20:12:40.834
55.0, -157377.6045295721, -169050.57955391164, 63618.18326928416, -60435.40661757072, 79442.14545990771, -78106.24874904737, 92228.90791045522, -128197.04451525742, -0.03, 0.9420000000000001, -0.152, 192.0, 0.0, 0.0, 0.0, 0.0, 0.0, 0.0, 0.0, 0.0, 0.0, 1.6664083608346117E9, 0.0, 2022-10-21 20:12:40.834
56.0, -157366.47336083333, -169038.46490841688, 63619.34555999584, -60443.52030080799, 79441.54196280742, -78125.4936010234, 92200.78941593044, -128200.75490483701, -0.03, 0.9420000000000001, -0.152, 192.0, 0.0, 0.0, 0.0, 0.0, 0.0, 0.0, 0.0, 0.0, 0.0, 1.6664083608346272E9, 0.0, 2022-10-21 20:12:40.834
57.0, -157362.0924189201, -169035.2015537264, 63617.4680134616, -60451.768094512, 79440.29026511792, -78144.62669427713, 92164.08785153483, -128206.38754443974, -0.03, 0.9420000000000001, -0.152, 192.0, 0.0, 0.0, 0.0, 0.0, 0.0, 0.0, 0.0, 0.0, 0.0, 1.6664083608346424E9, 0.0, 2022-10-21 20:12:40.834
58.0, -157372.48598009182, -169046.42212944294, 63607.90146683472, -60455.366725369306, 79432.8471342143, -78139.21757211896, 92178.39296798623, -128213.4059921987, -0.03, 0.9420000000000001, -0.152, 192.0, 0.0, 0.0, 0.0, 0.0, 0.0, 0.0, 0.0, 0.0, 0.0, 1.6664083608346577E9, 0.0, 2022-10-21 20:12:40.834
59.0, -157366.3392503666, -169038.77783283923, 63611.567152925396, -60452.79627475695, 79433.20476212559, -78119.21276083145, 92213.73107597006, -128205.5605298949, -0.03, 0.9420000000000001, -0.152, 192.0, 0.0, 0.0, 0.0, 0.0, 0.0, 0.0, 0.0, 0.0, 0.0, 1.6664083608346727E9, 0.0, 2022-10-21 20:12:40.834
60.0, -157353.5317007937, -169026.93140827792, 63624.93349610967, -60446.47073107609, 79445.49822157601, -78121.04560387679, 92209.23837533455, -128195.4128379122, -0.026000000000000002, 0.9520000000000001, -0.16, 192.0, 255.0, 48.0, 29.0, 192.0, 251.0, 0.0, 0.0, 0.0, 0.0, 1.6664083608346882E9, 0.0, 2022-10-21 20:12:40.834
61.0, -157352.41411357097, -169025.4338413994, 63627.95098161113, -60448.25887063252, 79449.0521489444, -78137.60824651817, 92176.64953191871, -128195.30107918991, -0.026000000000000002, 0.9520000000000001, -0.16, 192.0, 0.0, 0.0, 0.0, 0.0, 0.0, 0.0, 0.0, 0.0, 0.0, 1.6664083608347049E9, 0.0, 2022-10-21 20:12:40.834
62.0, -157348.45785480237, -169020.7846785527, 63629.672065934195, -60439.16171063921, 79451.08615768983, -78136.46830755095, 92186.88663087925, -128191.63539309925, -0.026000000000000002, 0.9520000000000001, -0.16, 192.0, 0.0, 0.0, 0.0, 0.0, 0.0, 0.0, 0.0, 0.0, 0.0, 1.6664083608347204E9, 0.0, 2022-10-21 20:12:40.834
63.0, -157349.50838679177, -169023.86921928756, 63624.017074587, -60445.30844036442, 79442.48073607455, -78123.34783355569, 92220.30248883992, -128199.59261412533, -0.026000000000000002, 0.9520000000000001, -0.16, 192.0, 0.0, 0.0, 0.0, 0.0, 0.0, 0.0, 0.0, 0.0, 0.0, 1.6664083608347356E9, 0.0, 2022-10-21 20:12:40.834
64.0, -157342.80286345517, -169017.9460070069, 63629.44854848964, -60447.67772527668, 79444.47004133106, -78120.57621724323, 92216.770913216, -128196.7092390906, -0.026000000000000002, 0.9520000000000001, -0.16, 192.0, 0.0, 0.0, 0.0, 0.0, 0.0, 0.0, 0.0, 0.0, 0.0, 1.6664083608348737E9, 0.0, 2022-10-21 20:12:40.834
65.0, -157338.4889767753, -169011.59811158158, 63635.036484603464, -60447.878890976775, 79446.45934658758, -78138.41290931856, 92179.01881683098, -128196.99981176852, -0.026000000000000002, 0.9520000000000001, -0.16, 192.0, 0.0, 0.0, 0.0, 0.0, 0.0, 0.0, 0.0, 0.0, 0.0, 1.6664083608348827E9, 0.0, 2022-10-21 20:12:40.834
66.0, -157333.34807555057, -169006.34545163458, 63640.60206897284, -60439.29582110594, 79452.04728270142, -78133.6966912385, 92182.75155815501, -128186.6062505968, -0.026000000000000002, 0.9520000000000001, -0.16, 192.0, 0.0, 0.0, 0.0, 0.0, 0.0, 0.0, 0.0, 0.0, 0.0, 1.6664083608348916E9, 0.0, 2022-10-21 20:12:40.834
67.0, -157336.14204360748, -169008.26770165775, 63639.77505442799, -60435.89835594873, 79456.51763159248, -78109.13212408211, 92226.7174394986, -128185.19809069611, -0.026000000000000002, 0.9520000000000001, -0.16, 192.0, 0.0, 0.0, 0.0, 0.0, 0.0, 0.0, 0.0, 0.0, 0.0, 1.6664083608349004E9, 0.0, 2022-10-21 20:12:40.834
68.0, -157343.45106404438, -169012.15690519297, 63633.4718624916, -60442.67093451869, 79450.66147454518, -78112.64134796159, 92226.60568077632, -128196.12809373476, -0.026000000000000002, 0.9520000000000001, -0.16, 192.0, 0.0, 0.0, 0.0, 0.0, 0.0, 0.0, 0.0, 0.0, 0.0, 1.6664083608349087E9, 0.0, 2022-10-21 20:12:40.834
69.0, -157345.1274448785, -169012.20160868188, 63630.5214322235, -60451.790446256455, 79442.32427386336, -78144.00084543238, 92179.82347963136, -128203.37005893828, -0.026000000000000002, 0.9520000000000001, -0.16, 192.0, 0.0, 0.0, 0.0, 0.0, 0.0, 0.0, 0.0, 0.0, 0.0, 1.6664083608349173E9, 0.0, 2022-10-21 20:12:40.834
70.0, -157342.2887733327, -169010.36876563655, 63631.281391534976, -60449.64467878875, 79442.48073607455, -78150.81812749125, 92166.47948819154, -128199.03382051396, -0.02, 0.9540000000000001, -0.152, 192.0, 255.0, 96.0, 29.0, 208.0, 251.0, 64.0, 0.0, 0.0, 0.0, 1.6664083608349285E9, 0.0, 2022-10-21 20:12:40.834
71.0, -157334.9797528958, -169004.22203591134, 63635.751740426036, -60437.93236469416, 79447.01814019897, -78120.0844788652, 92209.70776196811, -128188.68496283115, -0.02, 0.9540000000000001, -0.152, 192.0, 0.0, 0.0, 0.0, 0.0, 0.0, 0.0, 0.0, 0.0, 0.0, 1.666408360834938E9, 0.0, 2022-10-21 20:12:40.834
72.0, -157336.8796511745, -169005.83136151213, 63629.4709002341, -60444.90610896422, 79444.31357911987, -78119.25746432037, 92220.23543360656, -128197.58095712436, -0.02, 0.9540000000000001, -0.152, 192.0, 0.0, 0.0, 0.0, 0.0, 0.0, 0.0, 0.0, 0.0, 0.0, 1.6664083608349466E9, 0.0, 2022-10-21 20:12:40.834
73.0, -157333.34807555057, -169002.18802716592, 63629.20267930063, -60455.90316723623, 79437.76451799447, -78145.45370882198, 92181.49986046551, -128199.95024203662, -0.02, 0.9540000000000001, -0.152, 192.0, 0.0, 0.0, 0.0, 0.0, 0.0, 0.0, 0.0, 0.0, 0.0, 1.6664083608349557E9, 0.0, 2022-10-21 20:12:40.834
74.0, -157334.51036626226, -169003.37266962204, 63628.621533944795, -60459.546501582445, 79437.11631740526, -78152.9415432145, 92157.44938343161, -128201.00077402602, -0.02, 0.9540000000000001, -0.152, 192.0, 0.0, 0.0, 0.0, 0.0, 0.0, 0.0, 0.0, 0.0, 0.0, 1.666408360834965E9, 0.0, 2022-10-21 20:12:40.834
75.0, -157342.10995937706, -169010.56993133665, 63624.978199598576, -60454.58441431337, 79437.40689008319, -78127.25938883536, 92196.52023273948, -128196.79864606842, -0.02, 0.9540000000000001, -0.152, 192.0, 0.0, 0.0, 0.0, 0.0, 0.0, 0.0, 0.0, 0.0, 0.0, 1.6664083608349738E9, 0.0, 2022-10-21 20:12:40.834
76.0, -157339.8300814426, -169006.65837605696, 63627.34748451084, -60452.282184634474, 79436.89279996071, -78116.86582766364, 92220.70482024012, -128194.42936115616, -0.02, 0.9540000000000001, -0.152, 192.0, 0.0, 0.0, 0.0, 0.0, 0.0, 0.0, 0.0, 0.0, 0.0, 1.6664083608349824E9, 0.0, 2022-10-21 20:12:40.834
77.0, -157339.3830465535, -169003.30561438866, 63629.89558337875, -60450.98578345607, 79442.41368084117, -78131.2379993484, 92196.00614261701, -128193.78116056696, -0.02, 0.9540000000000001, -0.152, 192.0, 0.0, 0.0, 0.0, 0.0, 0.0, 0.0, 0.0, 0.0, 0.0, 1.6664083608349912E9, 0.0, 2022-10-21 20:12:40.834
78.0, -157341.05942738766, -169004.31144288916, 63628.64388568925, -60451.455170089626, 79442.9501227081, -78151.89101122512, 92165.45130794661, -128193.46823614457, -0.02, 0.9540000000000001, -0.152, 192.0, 0.0, 0.0, 0.0, 0.0, 0.0, 0.0, 0.0, 0.0, 0.0, 1.6664083608349998E9, 0.0, 2022-10-21 20:12:40.834
79.0, -157344.8815756895, -169006.3901551235, 63625.64875193224, -60446.02369618699, 79440.67024477366, -78143.53145879883, 92186.64076169024, -128192.77533206646, -0.026000000000000002, 0.9460000000000001, -0.158, 192.0, 255.0, 48.0, 29.0, 144.0, 251.0, 16.0, 0.0, 0.0, 0.0, 1.666408360835035E9, 0.0, 2022-10-21 20:12:40.835
80.0, -157359.1866921409, -169019.62238784105, 63613.31058899291, -60458.719487037604, 79428.75676497899, -78127.192333602, 92212.43467479166, -128201.49251240403, -0.026000000000000002, 0.9460000000000001, -0.158, 192.0, 0.0, 0.0, 0.0, 0.0, 0.0, 0.0, 0.0, 0.0, 0.0, 1.6664083608350604E9, 0.0, 2022-10-21 20:12:40.835
81.0, -157349.62014551403, -169008.73708829132, 63625.961676354615, -60450.404638100226, 79440.58083779585, -78121.15736259906, 92204.47745376558, -128190.74132332104, -0.026000000000000002, 0.9460000000000001, -0.158, 192.0, 0.0, 0.0, 0.0, 0.0, 0.0, 0.0, 0.0, 0.0, 0.0, 1.6664083608351033E9, 0.0, 2022-10-21 20:12:40.835
82.0, -157343.5851745111, -168999.50581783126, 63634.45533924763, -60442.93915545216, 79451.53319257894, -78134.72487148344, 92178.12474705276, -128183.94639300661, -0.026000000000000002, 0.9460000000000001, -0.158, 192.0, 0.0, 0.0, 0.0, 0.0, 0.0, 0.0, 0.0, 0.0, 0.0, 1.666408360835152E9, 0.0, 2022-10-21 20:12:40.835
83.0, -157346.7367704793, -169003.12680043303, 63631.97429561309, -60438.804082727926, 79446.88402973223, -78133.85315344967, 92191.37933151476, -128184.9522215071, -0.026000000000000002, 0.9460000000000001, -0.158, 192.0, 0.0, 0.0, 0.0, 0.0, 0.0, 0.0, 0.0, 0.0, 0.0, 1.6664083608351955E9, 0.0, 2022-10-21 20:12:40.835
84.0, -157348.74842748028, -169004.26673940025, 63632.6224962023, -60437.10535014932, 79446.99578845451, -78103.41007750155, 92232.64065177926, -128183.61111683979, -0.026000000000000002, 0.9460000000000001, -0.158, 192.0, 0.0, 0.0, 0.0, 0.0, 0.0, 0.0, 0.0, 0.0, 0.0, 1.6664083608352375E9, 0.0, 2022-10-21 20:12:40.835
85.0, -157345.59683151208, -169000.73516377632, 63633.4718624916, -60440.8157397289, 79445.81114599838, -78113.44601076198, 92217.68733473866, -128187.54502386392, -0.026000000000000002, 0.9460000000000001, -0.158, 192.0, 0.0, 0.0, 0.0, 0.0, 0.0, 0.0, 0.0, 0.0, 0.0, 1.666408360835281E9, 0.0, 2022-10-21 20:12:40.835
86.0, -157343.384008811, -168998.27647188623, 63630.34261826785, -60451.05283868943, 79444.0006546975, -78138.85994420767, 92176.98480808554, -128192.97649776656, -0.026000000000000002, 0.9460000000000001, -0.158, 192.0, 0.0, 0.0, 0.0, 0.0, 0.0, 0.0, 0.0, 0.0, 0.0, 1.6664083608353224E9, 0.0, 2022-10-21 20:12:40.835
87.0, -157344.3451338226, -168999.55052132017, 63629.69441767865, -60447.29774562094, 79442.59249479682, -78137.51883954035, 92180.73990115404, -128189.28845993144, -0.026000000000000002, 0.9460000000000001, -0.158, 192.0, 0.0, 0.0, 0.0, 0.0, 0.0, 0.0, 0.0, 0.0, 0.0, 1.6664083608353636E9, 0.0, 2022-10-21 20:12:40.835
88.0, -157348.72607573582, -169005.38432662303, 63625.44758623214, -60449.82349274439, 79438.18920113912, -78120.55386549878, 92215.60862250431, -128190.51780587647, -0.026000000000000002, 0.9460000000000001, -0.158, 192.0, 0.0, 0.0, 0.0, 0.0, 0.0, 0.0, 0.0, 0.0, 0.0, 1.6664083608353732E9, 0.0, 2022-10-21 20:12:40.835
89.0, -157351.4976920483, -169011.32989064814, 63617.847993117335, -60460.84290276086, 79428.57795102334, -78135.48483079491, 92203.53868049844, -128204.86762581678, -0.022, 0.9500000000000001, -0.156, 192.0, 255.0, 80.0, 29.0, 176.0, 251.0, 32.0, 0.0, 0.0, 0.0, 1.6664083608353827E9, 0.0, 2022-10-21 20:12:40.835
90.0, -157348.6813722469, -169006.61367256806, 63618.36208323981, -60466.22967317459, 79422.81120095387, -78168.11837769966, 92154.96833979707, -128210.14263750824, -0.022, 0.9500000000000001, -0.156, 192.0, 0.0, 0.0, 0.0, 0.0, 0.0, 0.0, 0.0, 0.0, 0.0, 1.6664083608353932E9, 0.0, 2022-10-21 20:12:40.835
91.0, -157345.8427007011, -169002.23273065482, 63620.91018210771, -60461.04406846096, 79427.16979112265, -78162.95512473049, 92151.81674382887, -128201.13488449276, -0.022, 0.9500000000000001, -0.156, 192.0, 0.0, 0.0, 0.0, 0.0, 0.0, 0.0, 0.0, 0.0, 0.0, 1.666408360835405E9, 0.0, 2022-10-21 20:12:40.835
92.0, -157352.81644497116, -169009.11706794705, 63620.61960942979, -60456.10433293633, 79435.61875052676, -78122.56552249975, 92205.84091017734, -128197.1115704908, -0.022, 0.9500000000000001, -0.156, 192.0, 0.0, 0.0, 0.0, 0.0, 0.0, 0.0, 0.0, 0.0, 0.0, 1.666408360835415E9, 0.0, 2022-10-21 20:12:40.835
93.0, -157355.76687523923, -169009.67586155844, 63617.33390299486, -60466.00615573003, 79430.16492487966, -78124.17484810053, 92212.23350909156, -128203.01243102699, -0.022, 0.9500000000000001, -0.156, 192.0, 0.0, 0.0, 0.0, 0.0, 0.0, 0.0, 0.0, 0.0, 0.0, 1.6664083608354244E9, 0.0, 2022-10-21 20:12:40.835
94.0, -157347.7425989798, -168999.68463178692, 63624.10648156482, -60464.799161529445, 79431.43897431361, -78141.83272622022, 92175.82251737388, -128200.7102013481, -0.022, 0.9500000000000001, -0.156, 192.0, 0.0, 0.0, 0.0, 0.0, 0.0, 0.0, 0.0, 0.0, 0.0, 1.6664083608354445E9, 0.0, 2022-10-21 20:12:40.835
95.0, -157341.05942738766, -168995.14722766247, 63629.89558337875, -60452.572757312395, 79441.51961106296, -78138.36820582965, 92171.66509290518, -128188.61790759779, -0.022, 0.9500000000000001, -0.156, 192.0, 0.0, 0.0, 0.0, 0.0, 0.0, 0.0, 0.0, 0.0, 0.0, 1.666408360835454E9, 0.0, 2022-10-21 20:12:40.835
96.0, -157342.80286345517, -168996.95771896336, 63628.465071733604, -60445.28608861996, 79444.15711690868, -78113.42365901753, 92214.04400039245, -128183.72287556206, -0.022, 0.9500000000000001, -0.156, 192.0, 0.0, 0.0, 0.0, 0.0, 0.0, 0.0, 0.0, 0.0, 0.0, 1.6664083608354635E9, 0.0, 2022-10-21 20:12:40.835
97.0, -157349.128407136, -169003.41737311095, 63619.43496697366, -60452.95273696813, 79438.56918079486, -78112.35077528367, 92223.23056736357, -128195.09991348982, -0.022, 0.9500000000000001, -0.156, 192.0, 0.0, 0.0, 0.0, 0.0, 0.0, 0.0, 0.0, 0.0, 0.0, 1.666408360835473E9, 0.0, 2022-10-21 20:12:40.835
98.0, -157346.2897355902, -169001.27160564324, 63619.85965011831, -60457.51249283701, 79438.23390462804, -78131.7967929598, 92188.78652915795, -128199.05617225841, -0.022, 0.9500000000000001, -0.156, 192.0, 0.0, 0.0, 0.0, 0.0, 0.0, 0.0, 0.0, 0.0, 0.0, 1.6664083608354828E9, 0.0, 2022-10-21 20:12:40.835
99.0, -157341.7299797213, -168994.70019277337, 63624.352350753834, -60453.37742011278, 79440.42437558465, -78143.41970007656, 92164.62429340176, -128194.38465766725, -0.026000000000000002, 0.9500000000000001, -0.162, 192.0, 255.0, 48.0, 29.0, 176.0, 250.0, 240.0, 0.0, 0.0, 0.0, 1.6664083608354924E9, 0.0, 2022-10-21 20:12:40.835
100.0, -157347.40732281297, -168998.90232073097, 63618.54089719545, -60450.315231122404, 79434.92584644865, -78135.93186568402, 92189.79235765843, -128196.97746002406, -0.026000000000000002, 0.9500000000000001, -0.162, 192.0, 0.0, 0.0, 0.0, 0.0, 0.0, 0.0, 0.0, 0.0, 0.0, 1.6664083608355024E9, 0.0, 2022-10-21 20:12:40.835
101.0, -157354.15754963848, -169008.82649526914, 63608.2143912571, -60461.28993764996, 79422.58768350932, -78133.6966912385, 92208.38900904525, -128206.20873048411, -0.026000000000000002, 0.9500000000000001, -0.162, 192.0, 0.0, 0.0, 0.0, 0.0, 0.0, 0.0, 0.0, 0.0, 0.0, 1.666408360835512E9, 0.0, 2022-10-21 20:12:40.835
102.0, -157351.2965263482, -169007.37363187954, 63609.84606860234, -60464.12860919579, 79423.5935120098, -78149.40996759057, 92181.0081220875, -128209.04740202993, -0.026000000000000002, 0.9500000000000001, -0.162, 192.0, 0.0, 0.0, 0.0, 0.0, 0.0, 0.0, 0.0, 0.0, 0.0, 1.6664083608355217E9, 0.0, 2022-10-21 20:12:40.835
103.0, -157349.62014551403, -169005.94312023438, 63611.008359314015, -60468.28603366447, 79422.99001490952, -78159.445900851, 92149.91684555016, -128205.00173628352, -0.026000000000000002, 0.9500000000000001, -0.162, 192.0, 0.0, 0.0, 0.0, 0.0, 0.0, 0.0, 0.0, 0.0, 0.0, 1.6664083608355312E9, 0.0, 2022-10-21 20:12:40.835
104.0, -157345.9321076789, -169000.28812888722, 63617.82564137288, -60457.020754459, 79431.93071269164, -78130.3439295702, 92184.51734596699, -128189.89195703174, -0.026000000000000002, 0.9500000000000001, -0.162, 192.0, 0.0, 0.0, 0.0, 0.0, 0.0, 0.0, 0.0, 0.0, 0.0, 1.6664083608355408E9, 0.0, 2022-10-21 20:12:40.835
105.0, -157344.36748556705, -169000.35518412056, 63618.406786728716, -60461.04406846096, 79434.14353539271, -78112.44018226149, 92219.78839871746, -128190.2048814541, -0.026000000000000002, 0.9500000000000001, -0.162, 192.0, 0.0, 0.0, 0.0, 0.0, 0.0, 0.0, 0.0, 0.0, 0.0, 1.6664083608355503E9, 0.0, 2022-10-21 20:12:40.835
106.0, -157339.71832272035, -168997.31534687465, 63617.82564137288, -60464.06155396242, 79434.47881155954, -78128.6451969916, 92200.36473278579, -128199.90553854771, -0.026000000000000002, 0.9500000000000001, -0.162, 192.0, 0.0, 0.0, 0.0, 0.0, 0.0, 0.0, 0.0, 0.0, 0.0, 1.66640836083556E9, 0.0, 2022-10-21 20:12:40.835
107.0, -157338.10899711956, -168991.8391694831, 63622.78772864196, -60461.71462079461, 79435.73050924904, -78145.11843265516, 92166.77006086947, -128194.98815476755, -0.026000000000000002, 0.9500000000000001, -0.162, 192.0, 0.0, 0.0, 0.0, 0.0, 0.0, 0.0, 0.0, 0.0, 0.0, 1.6664083608355696E9, 0.0, 2022-10-21 20:12:40.835
108.0, -157340.56768900965, -168997.60591955256, 63621.625437930285, -60454.00326895753, 79441.74312850751, -78133.07084239375, 92182.59509594382, -128192.19418671062, -0.026000000000000002, 0.9500000000000001, -0.162, 192.0, 0.0, 0.0, 0.0, 0.0, 0.0, 0.0, 0.0, 0.0, 0.0, 1.6664083608355792E9, 0.0, 2022-10-21 20:12:40.835
109.0, -157341.05942738766, -168999.4387625979, 63618.42913847318, -60456.93134748118, 79433.94236969261, -78116.37408928563, 92216.6144510048, -128198.27386120247, -0.024, 0.9540000000000001, -0.166, 192.0, 255.0, 64.0, 29.0, 208.0, 250.0, 208.0, 0.0, 0.0, 0.0, 1.6664083608356142E9, 0.0, 2022-10-21 20:12:40.835
110.0, -157339.45010178688, -168998.09765793057, 63622.72067340859, -60464.12860919579, 79433.09300340331, -78116.64231021909, 92211.63001199126, -128195.54694837892, -0.024, 0.9540000000000001, -0.166, 192.0, 0.0, 0.0, 0.0, 0.0, 0.0, 0.0, 0.0, 0.0, 0.0, 1.6664083608356247E9, 0.0, 2022-10-21 20:12:40.835
111.0, -157334.42095928444, -168993.02381193923, 63627.571001955395, -60466.38613538577, 79430.56725627986, -78142.68209250952, 92168.73701438154, -128198.89971004722, -0.024, 0.9540000000000001, -0.166, 192.0, 0.0, 0.0, 0.0, 0.0, 0.0, 0.0, 0.0, 0.0, 0.0, 1.6664083608356345E9, 0.0, 2022-10-21 20:12:40.835
112.0, -157339.51715702025, -168998.41058235295, 63625.11231006531, -60458.49596959305, 79435.7528609935, -78142.88325820962, 92169.69813939312, -128200.64314611473, -0.024, 0.9540000000000001, -0.166, 192.0, 0.0, 0.0, 0.0, 0.0, 0.0, 0.0, 0.0, 0.0, 0.0, 1.666408360835645E9, 0.0, 2022-10-21 20:12:40.835
113.0, -157344.36748556705, -169002.67976554393, 63619.792594884944, -60463.27924290649, 79431.81895396936, -78127.7958307023, 92209.0595613789, -128200.77725658147, -0.024, 0.9540000000000001, -0.166, 192.0, 0.0, 0.0, 0.0, 0.0, 0.0, 0.0, 0.0, 0.0, 0.0, 1.6664083608356593E9, 0.0, 2022-10-21 20:12:40.835
114.0, -157340.6794477319, -168998.56704456414, 63620.507850707516, -60466.9225772527, 79427.72858473404, -78128.0864033802, 92209.73011371258, -128202.58774788234, -0.024, 0.9540000000000001, -0.166, 192.0, 0.0, 0.0, 0.0, 0.0, 0.0, 0.0, 0.0, 0.0, 0.0, 1.6664083608356707E9, 0.0, 2022-10-21 20:12:40.835
115.0, -157338.0419418862, -168994.63313754002, 63620.48549896306, -60470.58826334337, 79425.53811377742, -78148.29238036781, 92169.4522702041, -128205.67228861718, -0.024, 0.9540000000000001, -0.166, 192.0, 0.0, 0.0, 0.0, 0.0, 0.0, 0.0, 0.0, 0.0, 0.0, 1.666408360835682E9, 0.0, 2022-10-21 20:12:40.835
116.0, -157340.880613432, -168999.17054166444, 63616.43983321665, -60470.63296683228, 79427.66152950068, -78150.7957757468, 92161.18212475564, -128204.50999790551, -0.024, 0.9540000000000001, -0.166, 192.0, 0.0, 0.0, 0.0, 0.0, 0.0, 0.0, 0.0, 0.0, 0.0, 1.6664083608356931E9, 0.0, 2022-10-21 20:12:40.835
117.0, -157347.31791583516, -169004.87023650054, 63612.23770525905, -60469.4706761206, 79424.10760213228, -78126.87940917962, 92202.26463106449, -128202.20776822661, -0.024, 0.9540000000000001, -0.166, 192.0, 0.0, 0.0, 0.0, 0.0, 0.0, 0.0, 0.0, 0.0, 0.0, 1.6664083608357046E9, 0.0, 2022-10-21 20:12:40.835
118.0, -157341.86409018806, -168999.61757655354, 63616.372777983284, -60464.97797548509, 79427.3486050783, -78118.83278117572, 92215.83213994886, -128199.83848331434, -0.03, 0.9560000000000001, -0.164, 192.0, 255.0, 16.0, 29.0, 224.0, 250.0, 224.0, 0.0, 0.0, 0.0, 1.666408360835716E9, 0.0, 2022-10-21 20:12:40.835
119.0, -157335.27032557374, -168995.97424220733, 63620.59725768534, -60463.10042895084, 79435.26112261547, -78133.51787728285, 92183.69033142214, -128195.70341059011, -0.03, 0.9560000000000001, -0.164, 192.0, 0.0, 0.0, 0.0, 0.0, 0.0, 0.0, 0.0, 0.0, 0.0, 1.6664083608357284E9, 0.0, 2022-10-21 20:12:40.835
120.0, -157336.90200291897, -168997.56121606365, 63620.39609198524, -60456.752533525534, 79438.23390462804, -78142.01154017587, 92166.72535738056, -128194.49641638952, -0.03, 0.9560000000000001, -0.164, 192.0, 0.0, 0.0, 0.0, 0.0, 0.0, 0.0, 0.0, 0.0, 0.0, 1.6664083608357403E9, 0.0, 2022-10-21 20:12:40.835
121.0, -157347.4967297908, -169009.3405853916, 63609.28727499095, -60460.328812638385, 79432.53420979193, -78126.61118824616, 92197.59311647333, -128201.29134670393, -0.03, 0.9560000000000001, -0.164, 192.0, 0.0, 0.0, 0.0, 0.0, 0.0, 0.0, 0.0, 0.0, 0.0, 1.6664083608357518E9, 0.0, 2022-10-21 20:12:40.835
122.0, -157349.79895946968, -169012.91686450446, 63605.39807145573, -60469.60478658733, 79425.53811377742, -78118.43044977552, 92213.93224167016, -128203.16889323818, -0.03, 0.9560000000000001, -0.164, 192.0, 0.0, 0.0, 0.0, 0.0, 0.0, 0.0, 0.0, 0.0, 0.0, 1.6664083608357642E9, 0.0, 2022-10-21 20:12:40.835
123.0, -157350.9836019258, -169017.05193722868, 63604.146373766234, -60475.52799886799, 79420.50897127498, -78141.60920877567, 92175.86722086278, -128209.58384389685, -0.03, 0.9560000000000001, -0.164, 192.0, 0.0, 0.0, 0.0, 0.0, 0.0, 0.0, 0.0, 0.0, 0.0, 1.6664083608357756E9, 0.0, 2022-10-21 20:12:40.835
124.0, -157352.9952589268, -169019.0859459741, 63599.85483883081, -60484.088716994374, 79416.88798867322, -78159.66941829555, 92146.8546565598, -128216.22231200009, -0.03, 0.9560000000000001, -0.164, 192.0, 0.0, 0.0, 0.0, 0.0, 0.0, 0.0, 0.0, 0.0, 0.0, 1.6664083608358212E9, 0.0, 2022-10-21 20:12:40.835
125.0, -157346.82617745711, -169012.13455344853, 63604.146373766234, -60475.68446107918, 79420.73248871953, -78137.83176396272, 92179.9575900981, -128204.30883220541, -0.03, 0.9560000000000001, -0.164, 192.0, 0.0, 0.0, 0.0, 0.0, 0.0, 0.0, 0.0, 0.0, 0.0, 1.6664083608358328E9, 0.0, 2022-10-21 20:12:40.835
126.0, -157340.21006109836, -169008.20064642438, 63609.24257150204, -60468.86717902031, 79423.81702945435, -78117.06699336374, 92214.1110556258, -128199.70437284761, -0.03, 0.9560000000000001, -0.164, 192.0, 0.0, 0.0, 0.0, 0.0, 0.0, 0.0, 0.0, 0.0, 0.0, 1.666408360835844E9, 0.0, 2022-10-21 20:12:40.835
127.0, -157335.4267877849, -169005.31727138965, 63611.74596688104, -60468.48719936457, 79424.04054689892, -78129.38280455861, 92188.89828788022, -128203.57122463838, -0.03, 0.9560000000000001, -0.164, 192.0, 0.0, 0.0, 0.0, 0.0, 0.0, 0.0, 0.0, 0.0, 0.0, 1.6664083608358555E9, 0.0, 2022-10-21 20:12:40.835
128.0, -157339.89713667598, -169008.73708829132, 63606.22508600057, -60477.450248891146, 79423.48175328753, -78155.2437728934, 92150.38623218372, -128210.63437588625, -0.036000000000000004, 0.9520000000000001, -0.164, 192.0, 254.0, 224.0, 29.0, 192.0, 250.0, 224.0, 0.0, 0.0, 0.0, 1.666408360835867E9, 0.0, 2022-10-21 20:12:40.835
129.0, -157337.50550001927, -169007.01600396825, 63610.67308314718, -60464.955623740636, 79430.99193942451, -78139.5975517747, 92174.59317142883, -128203.21359672709, -0.036000000000000004, 0.9520000000000001, -0.164, 192.0, 0.0, 0.0, 0.0, 0.0, 0.0, 0.0, 0.0, 0.0, 0.0, 1.666408360835879E9, 0.0, 2022-10-21 20:12:40.835
130.0, -157337.4831482748, -169009.18412318043, 63610.80719361392, -60463.70392605114, 79433.94236969261, -78111.54611248328, 92217.93320392766, -128197.91623329118, -0.036000000000000004, 0.9520000000000001, -0.164, 192.0, 0.0, 0.0, 0.0, 0.0, 0.0, 0.0, 0.0, 0.0, 0.0, 1.6664083608358903E9, 0.0, 2022-10-21 20:12:40.835
131.0, -157339.0924738756, -169013.02862322674, 63608.013225557, -60464.28507140697, 79429.82964871284, -78119.61509223164, 92203.69514270964, -128203.95120429412, -0.036000000000000004, 0.9520000000000001, -0.164, 192.0, 0.0, 0.0, 0.0, 0.0, 0.0, 0.0, 0.0, 0.0, 0.0, 1.6664083608359015E9, 0.0, 2022-10-21 20:12:40.835
132.0, -157339.3830465535, -169011.17342843694, 63605.44277494464, -60469.73889705407, 79424.66639574365, -78148.76176700137, 92157.67290087616, -128210.65672763072, -0.036000000000000004, 0.9520000000000001, -0.164, 192.0, 0.0, 0.0, 0.0, 0.0, 0.0, 0.0, 0.0, 0.0, 0.0, 1.6664083608359127E9, 0.0, 2022-10-21 20:12:40.835
133.0, -157340.70179947637, -169011.28518715923, 63604.52635342197, -60463.905091751236, 79431.1931051246, -78145.54311579981, 92168.73701438154, -128201.62662287077, -0.036000000000000004, 0.9520000000000001, -0.164, 192.0, 0.0, 0.0, 0.0, 0.0, 0.0, 0.0, 0.0, 0.0, 0.0, 1.666408360835924E9, 0.0, 2022-10-21 20:12:40.835
134.0, -157343.96515416686, -169015.30850116117, 63601.0618330314, -60467.63783307527, 79427.5944742673, -78126.00769114586, 92206.0644276219, -128207.48277991806, -0.036000000000000004, 0.9520000000000001, -0.164, 192.0, 0.0, 0.0, 0.0, 0.0, 0.0, 0.0, 0.0, 0.0, 0.0, 1.6664083608359363E9, 0.0, 2022-10-21 20:12:40.835
135.0, -157339.8300814426, -169009.16177143596, 63604.213428999596, -60471.54938835495, 79428.82382021235, -78122.3420050552, 92203.62808747627, -128205.64993687272, -0.036000000000000004, 0.9520000000000001, -0.164, 192.0, 0.0, 0.0, 0.0, 0.0, 0.0, 0.0, 0.0, 0.0, 0.0, 1.6664083608359475E9, 0.0, 2022-10-21 20:12:40.835
136.0, -157338.26545933075, -169007.99948072428, 63605.42042320019, -60474.25394943404, 79428.55559927889, -78144.62669427713, 92163.86433409028, -128208.57801539637, -0.036000000000000004, 0.9520000000000001, -0.164, 192.0, 0.0, 0.0, 0.0, 0.0, 0.0, 0.0, 0.0, 0.0, 0.0, 1.6664083608359585E9, 0.0, 2022-10-21 20:12:40.835
137.0, -157340.81355819866, -169010.34641389208, 63605.37571971127, -60469.202455187144, 79433.13770689222, -78136.08832789521, 92165.87599109126, -128203.19124498263, -0.036000000000000004, 0.9520000000000001, -0.164, 192.0, 0.0, 0.0, 0.0, 0.0, 0.0, 0.0, 0.0, 0.0, 0.0, 1.6664083608359697E9, 0.0, 2022-10-21 20:12:40.835
138.0, -157345.30625883417, -169014.77205929425, 63600.368928953285, -60467.950757497645, 79427.90739868968, -78114.96592938494, 92208.3666573008, -128204.42059092768, -0.038, 0.9500000000000001, -0.17, 192.0, 254.0, 208.0, 29.0, 176.0, 250.0, 176.0, 0.0, 0.0, 0.0, 1.6664083608359818E9, 0.0, 2022-10-21 20:12:40.835
139.0, -157342.3334768216, -169013.25214067128, 63602.91702782119, -60476.48912387957, 79417.17856135113, -78123.05726087776, 92204.63391597675, -128208.62271888528, -0.038, 0.9500000000000001, -0.17, 192.0, 0.0, 0.0, 0.0, 0.0, 0.0, 0.0, 0.0, 0.0, 0.0, 1.6664083608360047E9, 0.0, 2022-10-21 20:12:40.836
140.0, -157329.88355516, -168998.34352711958, 63615.54576343844, -60472.711679066626, 79425.11343063277, -78141.83272622022, 92167.93235158114, -128203.10183800482, -0.038, 0.9500000000000001, -0.17, 192.0, 0.0, 0.0, 0.0, 0.0, 0.0, 0.0, 0.0, 0.0, 0.0, 1.666408360836016E9, 0.0, 2022-10-21 20:12:40.836
141.0, -157335.69500871838, -169004.60201556707, 63610.49426919154, -60471.54938835495, 79427.72858473404, -78149.67818852403, 92153.73899385202, -128203.83944557184, -0.038, 0.9500000000000001, -0.17, 192.0, 0.0, 0.0, 0.0, 0.0, 0.0, 0.0, 0.0, 0.0, 0.0, 1.6664083608360271E9, 0.0, 2022-10-21 20:12:40.836
142.0, -157335.35973255156, -169009.38528888053, 63605.42042320019, -60468.55425459793, 79425.20283761059, -78130.3439295702, 92190.9099448812, -128204.19707348313, -0.038, 0.9500000000000001, -0.17, 192.0, 0.0, 0.0, 0.0, 0.0, 0.0, 0.0, 0.0, 0.0, 0.0, 1.6664083608360384E9, 0.0, 2022-10-21 20:12:40.836
143.0, -157338.42192154194, -169015.0849837166, 63600.4136324422, -60478.16550471372, 79418.56436950737, -78129.11458362515, 92201.32585779738, -128210.52261716398, -0.038, 0.9500000000000001, -0.17, 192.0, 0.0, 0.0, 0.0, 0.0, 0.0, 0.0, 0.0, 0.0, 0.0, 1.6664083608360493E9, 0.0, 2022-10-21 20:12:40.836
144.0, -157341.39470355448, -169017.16369595096, 63598.424327185676, -60483.529923382994, 79413.78109619392, -78150.72872051343, 92163.23848524553, -128217.9657480676, -0.038, 0.9500000000000001, -0.17, 192.0, 0.0, 0.0, 0.0, 0.0, 0.0, 0.0, 0.0, 0.0, 0.0, 1.6664083608360603E9, 0.0, 2022-10-21 20:12:40.836
145.0, -157335.09151161808, -169011.10637320357, 63606.33684472285, -60476.265606435016, 79420.28545383042, -78154.30499962629, 92146.13940073721, -128206.47695141757, -0.038, 0.9500000000000001, -0.17, 192.0, 0.0, 0.0, 0.0, 0.0, 0.0, 0.0, 0.0, 0.0, 0.0, 1.6664083608360715E9, 0.0, 2022-10-21 20:12:40.836
146.0, -157341.10413087657, -169017.72248956235, 63603.54287666594, -60466.69905980815, 79425.26989284395, -78131.14859237059, 92183.84679363332, -128203.92885254967, -0.038, 0.9500000000000001, -0.17, 192.0, 0.0, 0.0, 0.0, 0.0, 0.0, 0.0, 0.0, 0.0, 0.0, 1.6664083608360825E9, 0.0, 2022-10-21 20:12:40.836
147.0, -157344.8815756895, -169020.18118145244, 63598.066699274386, -60476.93615876868, 79419.23492184102, -78124.77834520083, 92205.84091017734, -128210.25439623052, -0.04, 0.9480000000000001, -0.166, 192.0, 254.0, 192.0, 29.0, 160.0, 250.0, 208.0, 0.0, 0.0, 0.0, 1.6664083608360937E9, 0.0, 2022-10-21 20:12:40.836
148.0, -157346.60266001258, -169020.4941058748, 63596.43502192915, -60486.748574584555, 79408.17080833565, -78154.64027579312, 92167.35120622531, -128216.53523642245, -0.04, 0.9480000000000001, -0.166, 192.0, 0.0, 0.0, 0.0, 0.0, 0.0, 0.0, 0.0, 0.0, 0.0, 1.666408360836106E9, 0.0, 2022-10-21 20:12:40.836
149.0, -157352.07883740411, -169024.2491989433, 63594.713937606095, -60484.13342048329, 79413.75874444947, -78166.41964512106, 92138.71862157805, -128218.54689342344, -0.04, 0.9480000000000001, -0.166, 192.0, 0.0, 0.0, 0.0, 0.0, 0.0, 0.0, 0.0, 0.0, 0.0, 1.6664083608361173E9, 0.0, 2022-10-21 20:12:40.836
150.0, -157348.65902050247, -169019.10829771857, 63600.61479814229, -60473.762211056026, 79423.28058758743, -78143.73262449892, 92171.68744464964, -128212.15429450922, -0.04, 0.9480000000000001, -0.166, 192.0, 0.0, 0.0, 0.0, 0.0, 0.0, 0.0, 0.0, 0.0, 0.0, 1.6664083608361285E9, 0.0, 2022-10-21 20:12:40.836
151.0, -157346.91558443496, -169018.10246921808, 63602.58175165436, -60478.992519258565, 79420.97835790853, -78129.38280455861, 92201.57172698638, -128212.98130905406, -0.04, 0.9480000000000001, -0.166, 192.0, 0.0, 0.0, 0.0, 0.0, 0.0, 0.0, 0.0, 0.0, 0.0, 1.6664083608361404E9, 0.0, 2022-10-21 20:12:40.836
152.0, -157345.75329372328, -169019.1977046964, 63600.078356275364, -60489.900170552755, 79415.03279388342, -78154.12618567064, 92174.0567295619, -128222.88313184776, -0.04, 0.9480000000000001, -0.166, 192.0, 0.0, 0.0, 0.0, 0.0, 0.0, 0.0, 0.0, 0.0, 0.0, 1.6664083608361516E9, 0.0, 2022-10-21 20:12:40.836
153.0, -157342.51229077726, -169016.0908122171, 63607.1638592677, -60486.39094667327, 79419.27962532993, -78165.97261023195, 92142.00432801299, -128217.3622509673, -0.04, 0.9480000000000001, -0.166, 192.0, 0.0, 0.0, 0.0, 0.0, 0.0, 0.0, 0.0, 0.0, 0.0, 1.6664083608361623E9, 0.0, 2022-10-21 20:12:40.836
154.0, -157346.42384605692, -169019.2871116742, 63606.85093484532, -60477.182027957686, 79421.51479977547, -78153.58974380372, 92159.97513055506, -128210.76848635299, -0.04, 0.9480000000000001, -0.166, 192.0, 0.0, 0.0, 0.0, 0.0, 0.0, 0.0, 0.0, 0.0, 0.0, 1.6664083608361845E9, 0.0, 2022-10-21 20:12:40.836
155.0, -157352.70468624888, -169025.61265535507, 63600.860667331304, -60477.58435935788, 79424.59934051029, -78130.41098480356, 92202.01876187549, -128212.9142538207, -0.04, 0.9480000000000001, -0.166, 192.0, 0.0, 0.0, 0.0, 0.0, 0.0, 0.0, 0.0, 0.0, 0.0, 1.6664083608361998E9, 0.0, 2022-10-21 20:12:40.836
156.0, -157354.31401184967, -169027.22198095586, 63602.604103398815, -60479.484257636585, 79428.42148881215, -78124.75599345636, 92198.84481416283, -128209.62854738577, -0.04, 0.9480000000000001, -0.166, 192.0, 0.0, 0.0, 0.0, 0.0, 0.0, 0.0, 0.0, 0.0, 0.0, 1.6664083608362112E9, 0.0, 2022-10-21 20:12:40.836
157.0, -157349.37427632502, -169023.1986669539, 63608.79553661294, -60480.91476928172, 79429.78494522393, -78145.94544719999, 92160.17629625516, -128203.68298336066, -0.036000000000000004, 0.9380000000000001, -0.164, 192.0, 254.0, 224.0, 29.0, 80.0, 250.0, 224.0, 0.0, 0.0, 0.0, 1.6664083608362224E9, 0.0, 2022-10-21 20:12:40.836
158.0, -157351.45298855938, -169026.70789083338, 63606.06862378939, -60478.21020820263, 79426.56629402236, -78151.62279029164, 92161.94208406712, -128204.21942522758, -0.036000000000000004, 0.9380000000000001, -0.164, 192.0, 0.0, 0.0, 0.0, 0.0, 0.0, 0.0, 0.0, 0.0, 0.0, 1.666408360836234E9, 0.0, 2022-10-21 20:12:40.836
159.0, -157358.9855264408, -169034.7992223262, 63603.25230398802, -60475.30448142344, 79430.00846266848, -78123.1913713445, 92210.15479685723, -128204.06296301639, -0.036000000000000004, 0.9380000000000001, -0.164, 192.0, 0.0, 0.0, 0.0, 0.0, 0.0, 0.0, 0.0, 0.0, 0.0, 1.6664083608362453E9, 0.0, 2022-10-21 20:12:40.836
160.0, -157363.2547096318, -169039.895420062, 63601.35240570932, -60481.719432082115, 79427.50506728949, -78127.52760976883, 92202.80107293143, -128208.64507062973, -0.036000000000000004, 0.9380000000000001, -0.164, 192.0, 0.0, 0.0, 0.0, 0.0, 0.0, 0.0, 0.0, 0.0, 0.0, 1.6664083608362565E9, 0.0, 2022-10-21 20:12:40.836
161.0, -157367.97092771184, -169042.01883578527, 63597.73142310756, -60490.235446719584, 79425.56046552188, -78151.30986586928, 92159.84102008832, -128217.65282364523, -0.036000000000000004, 0.9380000000000001, -0.164, 192.0, 0.0, 0.0, 0.0, 0.0, 0.0, 0.0, 0.0, 0.0, 0.0, 1.6664083608362677E9, 0.0, 2022-10-21 20:12:40.836
162.0, -157360.61720378604, -169034.1957252259, 63607.14150752324, -60480.959472770635, 79431.751898736, -78148.71706351246, 92160.53392416643, -128204.48764616104, -0.036000000000000004, 0.9380000000000001, -0.164, 192.0, 0.0, 0.0, 0.0, 0.0, 0.0, 0.0, 0.0, 0.0, 0.0, 1.666408360836279E9, 0.0, 2022-10-21 20:12:40.836
163.0, -157367.81446550065, -169042.89055381902, 63603.54287666594, -60475.30448142344, 79435.32817784885, -78122.94550215549, 92206.42205553318, -128200.33022169236, -0.036000000000000004, 0.9380000000000001, -0.164, 192.0, 0.0, 0.0, 0.0, 0.0, 0.0, 0.0, 0.0, 0.0, 0.0, 1.66640836083629E9, 0.0, 2022-10-21 20:12:40.836
164.0, -157370.76489576875, -169046.7127021209, 63604.146373766234, -60480.06540299242, 79431.46132605808, -78117.9387113975, 92209.8642241793, -128203.57122463838, -0.036000000000000004, 0.9380000000000001, -0.164, 192.0, 0.0, 0.0, 0.0, 0.0, 0.0, 0.0, 0.0, 0.0, 0.0, 1.666408360836301E9, 0.0, 2022-10-21 20:12:40.836
165.0, -157378.4538958614, -169052.3006382347, 63598.625492885774, -60488.26849320752, 79429.78494522393, -78146.05720592228, 92165.42895620214, -128212.19899799813, -0.036000000000000004, 0.9380000000000001, -0.164, 192.0, 0.0, 0.0, 0.0, 0.0, 0.0, 0.0, 0.0, 0.0, 0.0, 1.666408360836312E9, 0.0, 2022-10-21 20:12:40.836
166.0, -157379.9514627399, -169057.32978073714, 63594.93745505065, -60486.50270539555, 79428.6003027678, -78158.82005200625, 92148.28516820494, -128211.55079740893, -0.036000000000000004, 0.9380000000000001, -0.164, 192.0, 0.0, 0.0, 0.0, 0.0, 0.0, 0.0, 0.0, 0.0, 0.0, 1.6664083608363233E9, 0.0, 2022-10-21 20:12:40.836
167.0, -157388.10984946607, -169069.84675763213, 63592.8587428163, -60480.22186520361, 79429.38261382373, -78132.86967669365, 92188.5630117134, -128204.88997756124, -0.036000000000000004, 0.9420000000000001, -0.164, 192.0, 254.0, 224.0, 29.0, 112.0, 250.0, 224.0, 0.0, 0.0, 0.0, 1.6664083608363347E9, 0.0, 2022-10-21 20:12:40.836
168.0, -157394.61420710257, -169073.33362976715, 63590.511809648495, -60483.596978616355, 79425.98514866653, -78123.07961262223, 92207.47258752258, -128206.52165490648, -0.036000000000000004, 0.9420000000000001, -0.164, 192.0, 0.0, 0.0, 0.0, 0.0, 0.0, 0.0, 0.0, 0.0, 0.0, 1.6664083608363466E9, 0.0, 2022-10-21 20:12:40.836
169.0, -157401.14091648353, -169076.17230131297, 63587.159047980196, -60492.49297290957, 79419.43608754112, -78147.19714488949, 92169.56402892638, -128218.30102423443, -0.036000000000000004, 0.9420000000000001, -0.164, 192.0, 0.0, 0.0, 0.0, 0.0, 0.0, 0.0, 0.0, 0.0, 0.0, 1.6664083608363695E9, 0.0, 2022-10-21 20:12:40.836
0.0, 0.0, 0.0, 0.0, 0.0, 0.0, 0.0, 0.0, 0.0, -0.032, 0.9440000000000001, -0.166, 192.0, 255.0, 0.0, 29.0, 128.0, 250.0, 208.0, 0.0, 0.0, 0.0, 1.666408360923746E9, 0.0, 2022-10-21 20:12:40.923
1.0, -157660.39880042063, -169404.69824131706, 63371.73293491995, -60472.93519651118, 79359.04167402288, -78138.16704012956, 92069.67408295562, -128300.04135370748, -0.032, 0.9440000000000001, -0.166, 192.0, 0.0, 0.0, 0.0, 0.0, 0.0, 0.0, 0.0, 0.0, 0.0, 1.666408361406116E9, 0.0, 2022-10-21 20:12:41.406
2.0, -157662.85749231072, -169405.81582853984, 63364.87094937217, -60476.265606435016, 79350.57036287432, -78125.89593242359, 92097.50200480247, -128304.10937119836, -0.032, 0.9440000000000001, -0.166, 192.0, 0.0, 0.0, 0.0, 0.0, 0.0, 0.0, 0.0, 0.0, 0.0, 1.666408361406169E9, 0.0, 2022-10-21 20:12:41.406
3.0, -157657.38131491916, -169400.67492731512, 63367.48610347344, -60475.148019212254, 79354.34780768727, -78131.17094411505, 92082.54868776187, -128299.95194672966, -0.032, 0.9440000000000001, -0.166, 192.0, 0.0, 0.0, 0.0, 0.0, 0.0, 0.0, 0.0, 0.0, 0.0, 1.6664083614062266E9, 0.0, 2022-10-21 20:12:41.406
4.0, -157656.62135560767, -169399.5349883479, 63368.268414529375, -60474.11983896731, 79357.45470016655, -78148.94058095702, 92046.27180651091, -128296.84505425037, -0.032, 0.9440000000000001, -0.166, 192.0, 0.0, 0.0, 0.0, 0.0, 0.0, 0.0, 0.0, 0.0, 0.0, 1.6664083614062445E9, 0.0, 2022-10-21 20:12:41.406
5.0, -157661.40462892113, -169403.96063375004, 63361.272318514864, -60468.15192319774, 79358.25936296694, -78147.37595884514, 92050.4292309796, -128300.77896127451, -0.032, 0.9440000000000001, -0.166, 192.0, 0.0, 0.0, 0.0, 0.0, 0.0, 0.0, 0.0, 0.0, 0.0, 1.6664083614062624E9, 0.0, 2022-10-21 20:12:41.406
6.0, -157664.95855628952, -169404.85470352825, 63358.03131556885, -60465.78263828548, 79355.10776699874, -78131.21564760395, 92083.91214417365, -128302.34358338638, -0.032, 0.9440000000000001, -0.166, 192.0, 0.0, 0.0, 0.0, 0.0, 0.0, 0.0, 0.0, 0.0, 0.0, 1.666408361406279E9, 0.0, 2022-10-21 20:12:41.406
7.0, -157675.59798665025, -169415.33767167781, 63343.5026816729, -60481.56296987092, 79345.51886862742, -78151.10870016918, 92064.26496079743, -128320.49319988409, -0.03, 0.9400000000000001, -0.168, 192.0, 255.0, 16.0, 29.0, 96.0, 250.0, 192.0, 0.0, 0.0, 0.0, 1.6664083614062889E9, 0.0, 2022-10-21 20:12:41.406
8.0, -157664.82444582277, -169406.4863808735, 63352.48808294393, -60474.097487222854, 79349.69864484057, -78166.66551431007, 92032.03374529288, -128316.64869983778, -0.03, 0.9400000000000001, -0.168, 192.0, 0.0, 0.0, 0.0, 0.0, 0.0, 0.0, 0.0, 0.0, 0.0, 1.6664083614063003E9, 0.0, 2022-10-21 20:12:41.406
9.0, -157665.78557083436, -169409.1909419526, 63359.953565592004, -60458.69713529314, 79358.4828804115, -78148.98528444592, 92044.68483265459, -128302.25417640856, -0.03, 0.9400000000000001, -0.168, 192.0, 0.0, 0.0, 0.0, 0.0, 0.0, 0.0, 0.0, 0.0, 0.0, 1.6664083614063103E9, 0.0, 2022-10-21 20:12:41.406
10.0, -157669.54066390285, -169415.44943040007, 63360.62411792566, -60449.93525146667, 79362.37208394671, -78120.9338451545, 92091.2882198439, -128298.81200776245, -0.03, 0.9400000000000001, -0.168, 192.0, 0.0, 0.0, 0.0, 0.0, 0.0, 0.0, 0.0, 0.0, 0.0, 1.66640836140632E9, 0.0, 2022-10-21 20:12:41.406
11.0, -157667.39489643514, -169414.35419492176, 63364.1556935496, -60451.790446256455, 79358.59463913378, -78122.61022598865, 92092.40580706667, -128304.37759213182, -0.03, 0.9400000000000001, -0.168, 192.0, 0.0, 0.0, 0.0, 0.0, 0.0, 0.0, 0.0, 0.0, 0.0, 1.6664083614063299E9, 0.0, 2022-10-21 20:12:41.406
12.0, -157662.87984405516, -169409.01212799695, 63367.35199300671, -60453.57858581288, 79355.3759879322, -78153.81326124827, 92047.16587628912, -128306.65747006626, -0.03, 0.9400000000000001, -0.168, 192.0, 0.0, 0.0, 0.0, 0.0, 0.0, 0.0, 0.0, 0.0, 0.0, 1.66640836140634E9, 0.0, 2022-10-21 20:12:41.406
13.0, -157669.22773948047, -169413.90716003266, 63364.58037669425, -60451.20930090062, 79357.90173505565, -78155.02025544885, 92038.18047501809, -128302.67885955321, -0.03, 0.9400000000000001, -0.168, 192.0, 0.0, 0.0, 0.0, 0.0, 0.0, 0.0, 0.0, 0.0, 0.0, 1.6664083614063497E9, 0.0, 2022-10-21 20:12:41.406
14.0, -157677.27436748438, -169422.98196828153, 63358.835978369236, -60455.1208561803, 79359.10872925624, -78121.11265911015, 92085.32030407432, -128298.07440019542, -0.03, 0.9400000000000001, -0.168, 192.0, 0.0, 0.0, 0.0, 0.0, 0.0, 0.0, 0.0, 0.0, 0.0, 1.6664083614064019E9, 0.0, 2022-10-21 20:12:41.406
15.0, -157671.93230055957, -169419.94213103558, 63361.74170514843, -60460.93230973868, 79352.69377859758, -78118.27398756433, 92095.71386524604, -128299.281394396, -0.03, 0.9400000000000001, -0.168, 192.0, 0.0, 0.0, 0.0, 0.0, 0.0, 0.0, 0.0, 0.0, 0.0, 1.6664083614064114E9, 0.0, 2022-10-21 20:12:41.406
16.0, -157663.05865801082, -169408.36392740774, 63367.217882539975, -60455.47848409158, 79363.46731942504, -78133.11554588265, 92065.71782418703, -128300.62249906332, -0.03, 0.9400000000000001, -0.168, 192.0, 0.0, 0.0, 0.0, 0.0, 0.0, 0.0, 0.0, 0.0, 0.0, 1.6664083614064212E9, 0.0, 2022-10-21 20:12:41.406
17.0, -157659.46002715352, -169403.40184013866, 63370.14596106362, -60453.10919917932, 79364.11552001424, -78141.2962843533, 92042.89669309816, -128298.20851066215, -0.034, 0.9400000000000001, -0.17, 192.0, 254.0, 240.0, 29.0, 96.0, 250.0, 176.0, 0.0, 0.0, 0.0, 1.6664083614064307E9, 0.0, 2022-10-21 20:12:41.406
18.0, -157663.77391383337, -169406.97811925152, 63376.20328381101, -60445.17432989769, 79367.60239214926, -78120.9338451545, 92080.20175459406, -128288.57490880191, -0.034, 0.9400000000000001, -0.17, 192.0, 0.0, 0.0, 0.0, 0.0, 0.0, 0.0, 0.0, 0.0, 0.0, 1.6664083614064412E9, 0.0, 2022-10-21 20:12:41.406
19.0, -157675.95561456154, -169418.91395079065, 63364.73683890544, -60454.85263524683, 79359.62281937872, -78117.5363799973, 92098.26196411395, -128302.23182466411, -0.034, 0.9400000000000001, -0.17, 192.0, 0.0, 0.0, 0.0, 0.0, 0.0, 0.0, 0.0, 0.0, 0.0, 1.6664083614064512E9, 0.0, 2022-10-21 20:12:41.406
20.0, -157675.6650418836, -169418.44456415708, 63364.289804016335, -60465.06738246291, 79353.52079314242, -78138.9940546744, 92066.32132128732, -128308.71383055614, -0.034, 0.9400000000000001, -0.17, 192.0, 0.0, 0.0, 0.0, 0.0, 0.0, 0.0, 0.0, 0.0, 0.0, 1.6664083614064608E9, 0.0, 2022-10-21 20:12:41.406
21.0, -157669.67477436957, -169409.32505241933, 63368.44722848502, -60460.70879229412, 79360.60629613475, -78147.48771756742, 92043.23196926499, -128302.61180431985, -0.034, 0.9400000000000001, -0.17, 192.0, 0.0, 0.0, 0.0, 0.0, 0.0, 0.0, 0.0, 0.0, 0.0, 1.6664083614064703E9, 0.0, 2022-10-21 20:12:41.406
22.0, -157665.49499815644, -169408.49803787447, 63368.02254534037, -60449.48821657756, 79368.67527588311, -78124.84540043419, 92075.97727489201, -128295.6380600498, -0.034, 0.9400000000000001, -0.17, 192.0, 0.0, 0.0, 0.0, 0.0, 0.0, 0.0, 0.0, 0.0, 0.0, 1.66640836140648E9, 0.0, 2022-10-21 20:12:41.406
23.0, -157665.31618420078, -169410.62145359773, 63372.045859342325, -60448.59414679935, 79370.19519450607, -78104.17003681303, 92112.41061835416, -128293.04525769297, -0.034, 0.9400000000000001, -0.17, 192.0, 0.0, 0.0, 0.0, 0.0, 0.0, 0.0, 0.0, 0.0, 0.0, 1.6664083614064896E9, 0.0, 2022-10-21 20:12:41.406
24.0, -157664.82444582277, -169409.21329369704, 63373.63283319865, -60458.45126610414, 79365.85895608175, -78126.94646441299, 92087.17549886412, -128300.89071999678, -0.034, 0.9400000000000001, -0.17, 192.0, 0.0, 0.0, 0.0, 0.0, 0.0, 0.0, 0.0, 0.0, 0.0, 1.6664083614064991E9, 0.0, 2022-10-21 20:12:41.406
25.0, -157662.38810567715, -169408.02865124092, 63381.143019335635, -60457.53484458147, 79366.59656364877, -78145.29724661079, 92048.75285014545, -128297.49325483957, -0.034, 0.9400000000000001, -0.17, 192.0, 0.0, 0.0, 0.0, 0.0, 0.0, 0.0, 0.0, 0.0, 0.0, 1.6664083614065087E9, 0.0, 2022-10-21 20:12:41.406
26.0, -157663.72921034446, -169406.10640121775, 63385.6580717156, -60444.77199849749, 79376.69955214257, -78125.0912696232, 92073.45152776856, -128288.59726054636, -0.034, 0.9400000000000001, -0.17, 192.0, 0.0, 0.0, 0.0, 0.0, 0.0, 0.0, 0.0, 0.0, 0.0, 1.6664083614065185E9, 0.0, 2022-10-21 20:12:41.406
27.0, -157663.59509987774, -169404.40766863915, 63383.78052518136, -60445.509606064516, 79376.20781376456, -78102.67246993452, 92113.05881894336, -128287.97141170161, -0.034, 0.9400000000000001, -0.164, 192.0, 254.0, 240.0, 29.0, 96.0, 250.0, 224.0, 0.0, 0.0, 0.0, 1.666408361406528E9, 0.0, 2022-10-21 20:12:41.406
28.0, -157661.13640798765, -169407.42515414063, 63378.63962395664, -60450.67285903369, 79368.40705494965, -78121.42558353253, 92090.0365221544, -128297.69442053967, -0.034, 0.9400000000000001, -0.164, 192.0, 0.0, 0.0, 0.0, 0.0, 0.0, 0.0, 0.0, 0.0, 0.0, 1.66640836140654E9, 0.0, 2022-10-21 20:12:41.406
29.0, -157662.63397486616, -169409.92854951962, 63374.37044076568, -60453.35506836833, 79368.89879332767, -78140.692787253, 92050.94332110207, -128300.82366476342, -0.034, 0.9400000000000001, -0.164, 192.0, 0.0, 0.0, 0.0, 0.0, 0.0, 0.0, 0.0, 0.0, 0.0, 1.6664083614065497E9, 0.0, 2022-10-21 20:12:41.406
30.0, -157666.12084700118, -169410.95672976456, 63384.49578100393, -60453.24330964605, 79364.76372060344, -78140.78219423082, 92052.1279635582, -128303.81879852043, -0.034, 0.9400000000000001, -0.164, 192.0, 0.0, 0.0, 0.0, 0.0, 0.0, 0.0, 0.0, 0.0, 0.0, 1.6664083614065692E9, 0.0, 2022-10-21 20:12:41.406
31.0, -157668.26661446888, -169409.77208730843, 63399.20322885552, -60450.337582866865, 79363.5790781473, -78124.30895856726, 92092.42815881112, -128301.42716186371, -0.034, 0.9400000000000001, -0.164, 192.0, 0.0, 0.0, 0.0, 0.0, 0.0, 0.0, 0.0, 0.0, 0.0, 1.666408361406579E9, 0.0, 2022-10-21 20:12:41.406
32.0, -157658.27538469736, -169399.95967149254, 63415.69881626354, -60445.777826997975, 79373.68206664111, -78109.86973164913, 92102.44174032709, -128294.34165887137, -0.034, 0.9400000000000001, -0.164, 192.0, 0.0, 0.0, 0.0, 0.0, 0.0, 0.0, 0.0, 0.0, 0.0, 1.6664083614065888E9, 0.0, 2022-10-21 20:12:41.406
33.0, -157658.02951550836, -169403.7371163055, 63415.20707788552, -60452.30453637893, 79369.70345612806, -78129.11458362515, 92059.63814969518, -128300.51074034105, -0.034, 0.9400000000000001, -0.164, 192.0, 0.0, 0.0, 0.0, 0.0, 0.0, 0.0, 0.0, 0.0, 0.0, 1.666408361406598E9, 0.0, 2022-10-21 20:12:41.406
34.0, -157653.60387010622, -169400.67492731512, 63419.722130265494, -60449.219995644096, 79371.40218870666, -78132.80262146027, 92054.31843451482, -128297.9849932176, -0.034, 0.9400000000000001, -0.164, 192.0, 0.0, 0.0, 0.0, 0.0, 0.0, 0.0, 0.0, 0.0, 0.0, 1.6664083614066079E9, 0.0, 2022-10-21 20:12:41.406
35.0, -157653.9167945286, -169400.04907847036, 63420.03505468787, -60441.039257173456, 79371.02220905092, -78114.76476368484, 92094.57392627883, -128297.3814961173, -0.034, 0.9400000000000001, -0.164, 192.0, 0.0, 0.0, 0.0, 0.0, 0.0, 0.0, 0.0, 0.0, 0.0, 1.6664083614066174E9, 0.0, 2022-10-21 20:12:41.406
36.0, -157659.8623585537, -169406.91106401815, 63412.658979017615, -60452.23748114556, 79360.67335136811, -78121.67145272154, 92093.32222858933, -128306.54571134398, -0.034, 0.9400000000000001, -0.164, 192.0, 0.0, 0.0, 0.0, 0.0, 0.0, 0.0, 0.0, 0.0, 0.0, 1.6664083614066267E9, 0.0, 2022-10-21 20:12:41.406
37.0, -157658.34243993074, -169408.54274136337, 63414.491822062955, -60452.59510905685, 79362.2826769689, -78134.85898195016, 92057.51473397193, -128299.54961532947, -0.036000000000000004, 0.9420000000000001, -0.164, 192.0, 254.0, 224.0, 29.0, 112.0, 250.0, 224.0, 0.0, 0.0, 0.0, 1.6664083614066365E9, 0.0, 2022-10-21 20:12:41.406
38.0, -157659.34826843123, -169413.41542165464, 63410.73672899446, -60448.661202032716, 79366.10482527076, -78142.39151983161, 92042.94139658706, -128299.25904265155, -0.036000000000000004, 0.9420000000000001, -0.164, 192.0, 0.0, 0.0, 0.0, 0.0, 0.0, 0.0, 0.0, 0.0, 0.0, 1.6664083614066467E9, 0.0, 2022-10-21 20:12:41.406
39.0, -157654.52029162887, -169408.36392740774, 63413.77656624038, -60436.345390837836, 79370.75398811746, -78108.37216477063, 92089.81300470985, -128289.69249602468, -0.036000000000000004, 0.9420000000000001, -0.164, 192.0, 0.0, 0.0, 0.0, 0.0, 0.0, 0.0, 0.0, 0.0, 0.0, 1.6664083614066565E9, 0.0, 2022-10-21 20:12:41.406
40.0, -157658.40949516412, -169407.9392442631, 63413.284827862364, -60440.10048390633, 79374.73259863051, -78091.89892910706, 92115.67397304464, -128289.1337024133, -0.036000000000000004, 0.9420000000000001, -0.164, 192.0, 0.0, 0.0, 0.0, 0.0, 0.0, 0.0, 0.0, 0.0, 0.0, 1.6664083614066658E9, 0.0, 2022-10-21 20:12:41.406
41.0, -157665.13737024515, -169415.82941005583, 63407.003987670425, -60451.85750148982, 79364.40609269215, -78117.64813871958, 92076.1337371032, -128297.20268216166, -0.036000000000000004, 0.9420000000000001, -0.164, 192.0, 0.0, 0.0, 0.0, 0.0, 0.0, 0.0, 0.0, 0.0, 0.0, 1.6664083614066753E9, 0.0, 2022-10-21 20:12:41.406
42.0, -157668.51248365792, -169418.98100602403, 63404.3664818247, -60448.370629354795, 79362.50619441345, -78138.43526106302, 92041.44382970856, -128303.46117060915, -0.036000000000000004, 0.9420000000000001, -0.164, 192.0, 0.0, 0.0, 0.0, 0.0, 0.0, 0.0, 0.0, 0.0, 0.0, 1.6664083614066849E9, 0.0, 2022-10-21 20:12:41.406
43.0, -157664.98090803396, -169413.63893909918, 63412.59192378425, -60437.73119899407, 79369.2340694945, -78118.7880776868, 92077.20662083705, -128295.4815978386, -0.036000000000000004, 0.9420000000000001, -0.164, 192.0, 0.0, 0.0, 0.0, 0.0, 0.0, 0.0, 0.0, 0.0, 0.0, 1.6664083614066944E9, 0.0, 2022-10-21 20:12:41.406
44.0, -157668.62424238017, -169418.39986066817, 63409.373272582685, -60442.38036184077, 79372.1844997626, -78099.72203966642, 92111.87417648724, -128293.69345828217, -0.036000000000000004, 0.9420000000000001, -0.164, 192.0, 0.0, 0.0, 0.0, 0.0, 0.0, 0.0, 0.0, 0.0, 0.0, 1.666408361406704E9, 0.0, 2022-10-21 20:12:41.406
45.0, -157662.81278882182, -169413.61658735474, 63413.865973218206, -60442.67093451869, 79373.52560442992, -78106.96400486995, 92088.04721689787, -128293.26877513752, -0.036000000000000004, 0.9420000000000001, -0.164, 192.0, 0.0, 0.0, 0.0, 0.0, 0.0, 0.0, 0.0, 0.0, 0.0, 1.6664083614067233E9, 0.0, 2022-10-21 20:12:41.406
46.0, -157659.39297192014, -169411.11319197575, 63416.32466510829, -60442.290954862954, 79377.83949110979, -78126.65589173506, 92054.38548974818, -128293.71581002664, -0.03, 0.9420000000000001, -0.158, 192.0, 255.0, 16.0, 29.0, 112.0, 251.0, 16.0, 0.0, 0.0, 0.0, 1.6664083614067328E9, 0.0, 2022-10-21 20:12:41.406
47.0, -157661.78460857685, -169416.18703796712, 63416.83875523076, -60436.25598386002, 79376.47603469802, -78118.3857462866, 92074.99379813598, -128292.57587105941, -0.03, 0.9420000000000001, -0.158, 192.0, 0.0, 0.0, 0.0, 0.0, 0.0, 0.0, 0.0, 0.0, 0.0, 1.6664083614067445E9, 0.0, 2022-10-21 20:12:41.406
48.0, -157666.70199235703, -169421.17147698064, 63410.0661766608, -60439.54169029495, 79368.33999971629, -78106.49461823638, 92102.66525777164, -128300.24251940758, -0.03, 0.9420000000000001, -0.158, 192.0, 0.0, 0.0, 0.0, 0.0, 0.0, 0.0, 0.0, 0.0, 0.0, 1.6664083614067545E9, 0.0, 2022-10-21 20:12:41.406
49.0, -157664.71268710052, -169416.45525890056, 63406.512249292406, -60443.29678336344, 79368.89879332767, -78121.2914730658, 92084.02390289592, -128308.71383055614, -0.03, 0.9420000000000001, -0.158, 192.0, 0.0, 0.0, 0.0, 0.0, 0.0, 0.0, 0.0, 0.0, 0.0, 1.6664083614067652E9, 0.0, 2022-10-21 20:12:41.406
50.0, -157665.78557083436, -169415.18120946662, 63404.8135167138, -60449.44351308865, 79359.39930193416, -78149.92405771304, 92038.8733790962, -128313.13947595829, -0.03, 0.9420000000000001, -0.158, 192.0, 0.0, 0.0, 0.0, 0.0, 0.0, 0.0, 0.0, 0.0, 0.0, 1.6664083614067748E9, 0.0, 2022-10-21 20:12:41.406
51.0, -157664.44446616704, -169414.42125015514, 63411.07200516129, -60440.72633275108, 79364.94253455909, -78135.35072032818, 92059.30287352836, -128304.534054343, -0.03, 0.9420000000000001, -0.158, 192.0, 0.0, 0.0, 0.0, 0.0, 0.0, 0.0, 0.0, 0.0, 0.0, 1.6664083614067843E9, 0.0, 2022-10-21 20:12:41.406
52.0, -157668.28896621335, -169417.32697693433, 63409.84265921625, -60436.3677425823, 79374.21850850803, -78097.12923730961, 92112.16474916515, -128299.66137405175, -0.03, 0.9420000000000001, -0.158, 192.0, 0.0, 0.0, 0.0, 0.0, 0.0, 0.0, 0.0, 0.0, 0.0, 1.666408361406794E9, 0.0, 2022-10-21 20:12:41.406
53.0, -157669.45125692504, -169416.85759030076, 63406.6687115036, -60440.14518739524, 79373.0338660519, -78101.0407925893, 92103.55932754985, -128306.94804274417, -0.03, 0.9420000000000001, -0.158, 192.0, 0.0, 0.0, 0.0, 0.0, 0.0, 0.0, 0.0, 0.0, 0.0, 1.6664083614068036E9, 0.0, 2022-10-21 20:12:41.406
54.0, -157662.41045742162, -169407.80513379636, 63415.27413311889, -60441.88862346276, 79370.239897995, -78124.64423473409, 92061.09101308478, -128305.02579272102, -0.03, 0.9420000000000001, -0.158, 192.0, 0.0, 0.0, 0.0, 0.0, 0.0, 0.0, 0.0, 0.0, 0.0, 1.666408361406813E9, 0.0, 2022-10-21 20:12:41.406
55.0, -157666.00908827892, -169409.41445939714, 63417.68812152006, -60435.63013501527, 79373.59265966328, -78125.1359731121, 92060.75573691794, -128294.4310658492, -0.03, 0.9420000000000001, -0.158, 192.0, 0.0, 0.0, 0.0, 0.0, 0.0, 0.0, 0.0, 0.0, 0.0, 1.6664083614068236E9, 0.0, 2022-10-21 20:12:41.406
56.0, -157674.8603790832, -169419.74096533548, 63409.03799641586, -60436.92653619368, 79374.26321199695, -78107.85807464816, 92097.8372809693, -128299.70607754066, -0.03, 0.9440000000000001, -0.162, 192.0, 255.0, 16.0, 29.0, 128.0, 250.0, 240.0, 0.0, 0.0, 0.0, 1.6664083614068336E9, 0.0, 2022-10-21 20:12:41.406
57.0, -157673.47457092698, -169421.57380838084, 63410.133231894164, -60441.39688508474, 79371.2904299844, -78103.20891180146, 92097.36789433574, -128307.30567065546, -0.03, 0.9440000000000001, -0.162, 192.0, 0.0, 0.0, 0.0, 0.0, 0.0, 0.0, 0.0, 0.0, 0.0, 1.6664083614068437E9, 0.0, 2022-10-21 20:12:41.406
58.0, -157672.84872208224, -169420.45622115806, 63410.289694105355, -60439.362876339306, 79377.72773238752, -78116.30703405227, 92063.7285189305, -128306.94804274417, -0.03, 0.9440000000000001, -0.162, 192.0, 0.0, 0.0, 0.0, 0.0, 0.0, 0.0, 0.0, 0.0, 0.0, 1.6664083614068534E9, 0.0, 2022-10-21 20:12:41.406
59.0, -157671.64172788165, -169417.32697693433, 63409.77560398288, -60436.50185304903, 79379.49352019948, -78122.61022598865, 92051.83739088028, -128306.65747006626, -0.03, 0.9440000000000001, -0.162, 192.0, 0.0, 0.0, 0.0, 0.0, 0.0, 0.0, 0.0, 0.0, 0.0, 1.6664083614068627E9, 0.0, 2022-10-21 20:12:41.406
60.0, -157676.35794596173, -169421.6408636142, 63403.5171155354, -60437.23946061605, 79373.14562477417, -78109.55680722676, 92084.5379930184, -128311.21722593514, -0.03, 0.9440000000000001, -0.162, 192.0, 0.0, 0.0, 0.0, 0.0, 0.0, 0.0, 0.0, 0.0, 0.0, 1.6664083614068816E9, 0.0, 2022-10-21 20:12:41.406
61.0, -157679.71070763, -169422.51258164796, 63397.45979278801, -60442.849748474335, 79368.65292413866, -78109.35564152666, 92095.28918210139, -128315.15113295928, -0.03, 0.9440000000000001, -0.162, 192.0, 0.0, 0.0, 0.0, 0.0, 0.0, 0.0, 0.0, 0.0, 0.0, 1.666408361406891E9, 0.0, 2022-10-21 20:12:41.406
62.0, -157675.59798665025, -169421.05971825836, 63399.62791200017, -60447.40950434322, 79364.69666537007, -78130.23217084791, 92060.33105377329, -128314.48058062562, -0.03, 0.9440000000000001, -0.162, 192.0, 0.0, 0.0, 0.0, 0.0, 0.0, 0.0, 0.0, 0.0, 0.0, 1.666408361406901E9, 0.0, 2022-10-21 20:12:41.406
63.0, -157677.18496050657, -169422.71374734805, 63399.69496723354, -60447.118931665296, 79365.8366043373, -78135.50718253937, 92044.21544602101, -128308.49031311159, -0.03, 0.9440000000000001, -0.162, 192.0, 0.0, 0.0, 0.0, 0.0, 0.0, 0.0, 0.0, 0.0, 0.0, 1.6664083614069114E9, 0.0, 2022-10-21 20:12:41.406
64.0, -157677.5649401623, -169423.60781712626, 63401.28194108987, -60439.9663734396, 79369.09995902776, -78109.98149037141, 92083.82273719582, -128298.25321415106, -0.03, 0.9440000000000001, -0.162, 192.0, 0.0, 0.0, 0.0, 0.0, 0.0, 0.0, 0.0, 0.0, 0.0, 1.666408361406921E9, 0.0, 2022-10-21 20:12:41.406
65.0, -157683.33169023177, -169429.2851602179, 63397.16922011009, -60448.862367732814, 79360.06985426783, -78107.52279848132, 92098.59724028078, -128312.08894396889, -0.03, 0.9440000000000001, -0.162, 192.0, 0.0, 0.0, 0.0, 0.0, 0.0, 0.0, 0.0, 0.0, 0.0, 1.6664083614069307E9, 0.0, 2022-10-21 20:12:41.406
66.0, -157677.7661058624, -169422.44552641458, 63398.21975209949, -60454.49500733555, 79359.19813623407, -78124.688938223, 92066.14250733168, -128311.30663291297, -0.032, 0.9440000000000001, -0.164, 192.0, 255.0, 0.0, 29.0, 128.0, 250.0, 224.0, 0.0, 0.0, 0.0, 1.66640836140694E9, 0.0, 2022-10-21 20:12:41.406
67.0, -157675.77680060588, -169426.1335642497, 63393.95056890853, -60459.546501582445, 79357.61116237774, -78140.22340061943, 92038.11341978473, -128312.40186839127, -0.032, 0.9440000000000001, -0.164, 192.0, 0.0, 0.0, 0.0, 0.0, 0.0, 0.0, 0.0, 0.0, 0.0, 1.6664083614069505E9, 0.0, 2022-10-21 20:12:41.406
68.0, -157670.39003019215, -169419.67391010214, 63398.197400355035, -60451.946908467646, 79357.56645888883, -78120.62092073214, 92067.50596374345, -128305.96456598814, -0.032, 0.9440000000000001, -0.164, 192.0, 0.0, 0.0, 0.0, 0.0, 0.0, 0.0, 0.0, 0.0, 0.0, 1.6664083614069602E9, 0.0, 2022-10-21 20:12:41.406
69.0, -157670.45708542553, -169421.50675314746, 63393.88351367516, -60454.517359080004, 79361.41095893514, -78099.61028094415, 92101.65942927115, -128306.99274623308, -0.032, 0.9440000000000001, -0.164, 192.0, 0.0, 0.0, 0.0, 0.0, 0.0, 0.0, 0.0, 0.0, 0.0, 1.66640836140697E9, 0.0, 2022-10-21 20:12:41.406
70.0, -157665.85262606773, -169420.56797988035, 63400.566685267295, -60457.37838237028, 79362.79676709136, -78109.44504850448, 92079.3300365603, -128306.92569099972, -0.032, 0.9440000000000001, -0.164, 192.0, 0.0, 0.0, 0.0, 0.0, 0.0, 0.0, 0.0, 0.0, 0.0, 1.6664083614069805E9, 0.0, 2022-10-21 20:12:41.406
71.0, -157662.3657539327, -169418.98100602403, 63404.45588880252, -60457.15486492573, 79361.99210429098, -78129.44985979199, 92042.6731756536, -128303.4835223536, -0.032, 0.9440000000000001, -0.164, 192.0, 0.0, 0.0, 0.0, 0.0, 0.0, 0.0, 0.0, 0.0, 0.0, 1.66640836140699E9, 0.0, 2022-10-21 20:12:41.406
72.0, -157664.19859697804, -169419.60685486876, 63403.40535681312, -60446.49308282055, 79367.64709563817, -78120.06212712075, 92063.61676020823, -128299.54961532947, -0.032, 0.9440000000000001, -0.164, 192.0, 0.0, 0.0, 0.0, 0.0, 0.0, 0.0, 0.0, 0.0, 0.0, 1.6664083614069996E9, 0.0, 2022-10-21 20:12:41.406
73.0, -157667.84193132425, -169423.5854653818, 63401.23723760096, -60447.20833864312, 79365.14370025918, -78104.46060949095, 92101.52531880443, -128309.42908637872, -0.032, 0.9440000000000001, -0.164, 192.0, 0.0, 0.0, 0.0, 0.0, 0.0, 0.0, 0.0, 0.0, 0.0, 1.6664083614070091E9, 0.0, 2022-10-21 20:12:41.407
74.0, -157665.91968130108, -169420.85855255826, 63401.8630864457, -60455.03144920248, 79363.80259559186, -78111.34494678318, 92089.8353564543, -128311.32898465742, -0.032, 0.9440000000000001, -0.164, 192.0, 0.0, 0.0, 0.0, 0.0, 0.0, 0.0, 0.0, 0.0, 0.0, 1.666408361407019E9, 0.0, 2022-10-21 20:12:41.407
75.0, -157664.55622488933, -169417.30462518986, 63404.18766786905, -60460.619385316306, 79362.3273804578, -78139.61990351915, 92047.79172513387, -128310.32315615693, -0.036000000000000004, 0.9440000000000001, -0.164, 192.0, 254.0, 224.0, 29.0, 128.0, 250.0, 224.0, 0.0, 0.0, 0.0, 1.6664083614070475E9, 0.0, 2022-10-21 20:12:41.407
76.0, -157664.69033535605, -169416.07527924483, 63404.3664818247, -60450.24817588904, 79366.10482527076, -78135.1495546281, 92055.25720778193, -128307.26096716654, -0.036000000000000004, 0.9440000000000001, -0.164, 192.0, 0.0, 0.0, 0.0, 0.0, 0.0, 0.0, 0.0, 0.0, 0.0, 1.6664083614070585E9, 0.0, 2022-10-21 20:12:41.407
77.0, -157669.92064355858, -169423.49605840398, 63400.142002122644, -60448.03535318797, 79364.47314792551, -78110.98731887189, 92094.79744372338, -128311.4854468686, -0.036000000000000004, 0.9440000000000001, -0.164, 192.0, 0.0, 0.0, 0.0, 0.0, 0.0, 0.0, 0.0, 0.0, 0.0, 1.6664083614070685E9, 0.0, 2022-10-21 20:12:41.407
78.0, -157673.63103313817, -169428.50284916197, 63398.84560094424, -60449.8681962333, 79366.82008109332, -78110.67439444952, 92092.47286230003, -128315.0840777259, -0.036000000000000004, 0.9440000000000001, -0.164, 192.0, 0.0, 0.0, 0.0, 0.0, 0.0, 0.0, 0.0, 0.0, 0.0, 1.6664083614070785E9, 0.0, 2022-10-21 20:12:41.407
79.0, -157675.62033839468, -169428.56990439535, 63393.39177529714, -60455.00909745802, 79364.54020315889, -78135.50718253937, 92052.03855658037, -128316.64869983778, -0.036000000000000004, 0.9440000000000001, -0.164, 192.0, 0.0, 0.0, 0.0, 0.0, 0.0, 0.0, 0.0, 0.0, 0.0, 1.6664083614070888E9, 0.0, 2022-10-21 20:12:41.407
80.0, -157671.462913926, -169425.53006714943, 63400.298464333835, -60446.44837933164, 79367.40122644916, -78137.0941563957, 92051.21154203553, -128314.14530445878, -0.036000000000000004, 0.9440000000000001, -0.164, 192.0, 0.0, 0.0, 0.0, 0.0, 0.0, 0.0, 0.0, 0.0, 0.0, 1.666408361407099E9, 0.0, 2022-10-21 20:12:41.407
81.0, -157671.35115520374, -169423.18313398163, 63402.041900401346, -60432.076207646875, 79372.989162563, -78113.26719680634, 92091.37762682172, -128314.21235969214, -0.036000000000000004, 0.9440000000000001, -0.164, 192.0, 0.0, 0.0, 0.0, 0.0, 0.0, 0.0, 0.0, 0.0, 0.0, 1.6664083614071093E9, 0.0, 2022-10-21 20:12:41.407
82.0, -157669.42890518057, -169421.10442174727, 63402.35482482372, -60431.182137868665, 79377.72773238752, -78099.36441175514, 92100.7877112374, -128308.08798171139, -0.036000000000000004, 0.9440000000000001, -0.164, 192.0, 0.0, 0.0, 0.0, 0.0, 0.0, 0.0, 0.0, 0.0, 0.0, 1.6664083614071193E9, 0.0, 2022-10-21 20:12:41.407
83.0, -157664.57857663376, -169412.85662804326, 63411.13906039466, -60435.5630797819, 79384.14268304619, -78110.45087700497, 92072.75862369045, -128299.4378566072, -0.036000000000000004, 0.9440000000000001, -0.164, 192.0, 0.0, 0.0, 0.0, 0.0, 0.0, 0.0, 0.0, 0.0, 0.0, 1.6664083614071295E9, 0.0, 2022-10-21 20:12:41.407
84.0, -157667.99839353544, -169418.57867462383, 63407.20515337052, -60436.68066700467, 79381.68399115611, -78119.14570559809, 92056.71007117153, -128304.15407468726, -0.036000000000000004, 0.9440000000000001, -0.164, 192.0, 0.0, 0.0, 0.0, 0.0, 0.0, 0.0, 0.0, 0.0, 0.0, 1.6664083614071407E9, 0.0, 2022-10-21 20:12:41.407
85.0, -157679.12956227417, -169431.11800326325, 63397.012757898905, -60433.37260882528, 79376.09605504228, -78104.86294089115, 92091.75760647746, -128309.51849335653, -0.04, 0.9500000000000001, -0.166, 192.0, 254.0, 192.0, 29.0, 176.0, 250.0, 208.0, 0.0, 0.0, 0.0, 1.6664083614071512E9, 0.0, 2022-10-21 20:12:41.407
86.0, -157678.03432679587, -169426.71470960556, 63394.30819681981, -60437.73119899407, 79366.21658399304, -78100.8843303781, 92102.84407172729, -128312.02188873553, -0.04, 0.9500000000000001, -0.166, 192.0, 0.0, 0.0, 0.0, 0.0, 0.0, 0.0, 0.0, 0.0, 0.0, 1.666408361407162E9, 0.0, 2022-10-21 20:12:41.407
87.0, -157668.98187029146, -169417.48343914552, 63400.23140910047, -60441.62040252929, 79367.37887470471, -78119.8833131651, 92069.65173121115, -128313.54180735849, -0.04, 0.9500000000000001, -0.166, 192.0, 0.0, 0.0, 0.0, 0.0, 0.0, 0.0, 0.0, 0.0, 0.0, 1.6664083614071724E9, 0.0, 2022-10-21 20:12:41.407
88.0, -157670.99352729245, -169417.95282577907, 63399.62791200017, -60446.31426886491, 79363.9367060586, -78130.12041212565, 92047.65761466714, -128308.57972008942, -0.04, 0.9500000000000001, -0.166, 192.0, 0.0, 0.0, 0.0, 0.0, 0.0, 0.0, 0.0, 0.0, 0.0, 1.6664083614071827E9, 0.0, 2022-10-21 20:12:41.407
89.0, -157674.10041977174, -169422.35611943676, 63394.911693920105, -60445.26373687551, 79360.74040660149, -78110.27206304933, 92082.8839639287, -128305.07049620993, -0.04, 0.9500000000000001, -0.166, 192.0, 0.0, 0.0, 0.0, 0.0, 0.0, 0.0, 0.0, 0.0, 0.0, 1.666408361407193E9, 0.0, 2022-10-21 20:12:41.407
90.0, -157682.214103009, -169428.16757299515, 63389.949606651026, -60455.21026315812, 79354.37015943172, -78095.74342915339, 92110.26485088645, -128305.31636539893, -0.04, 0.9500000000000001, -0.166, 192.0, 0.0, 0.0, 0.0, 0.0, 0.0, 0.0, 0.0, 0.0, 0.0, 1.6664083614072125E9, 0.0, 2022-10-21 20:12:41.407
91.0, -157671.90994881513, -169417.99752926797, 63398.44326954404, -60452.90803347922, 79355.24187746548, -78115.74824044088, 92080.82760343881, -128294.90045248276, -0.04, 0.9500000000000001, -0.166, 192.0, 0.0, 0.0, 0.0, 0.0, 0.0, 0.0, 0.0, 0.0, 0.0, 1.6664083614072227E9, 0.0, 2022-10-21 20:12:41.407
92.0, -157673.47457092698, -169417.99752926797, 63396.230446842965, -60452.43864684566, 79357.00766527744, -78136.71417673996, 92046.85295186675, -128302.07536245292, -0.04, 0.9500000000000001, -0.166, 192.0, 0.0, 0.0, 0.0, 0.0, 0.0, 0.0, 0.0, 0.0, 0.0, 1.666408361407234E9, 0.0, 2022-10-21 20:12:41.407
93.0, -157678.63782389616, -169423.29489270388, 63393.436478786054, -60447.27539387649, 79355.5771536323, -78123.48194402241, 92066.4777834985, -128302.36593513083, -0.04, 0.9500000000000001, -0.166, 192.0, 0.0, 0.0, 0.0, 0.0, 0.0, 0.0, 0.0, 0.0, 0.0, 1.6664083614072442E9, 0.0, 2022-10-21 20:12:41.407
94.0, -157684.20340826554, -169431.49798291898, 63385.948644393524, -60454.0703241909, 79359.15343274515, -78102.04662108977, 92102.79936823838, -128304.31053689845, -0.04, 0.9500000000000001, -0.166, 192.0, 0.0, 0.0, 0.0, 0.0, 0.0, 0.0, 0.0, 0.0, 0.0, 1.6664083614072545E9, 0.0, 2022-10-21 20:12:41.407
95.0, -157678.92839657408, -169425.59712238278, 63389.77079269538, -60455.34437362485, 79361.61212463524, -78107.90277813707, 92084.56034476285, -128308.73618230059, -0.042, 0.9460000000000001, -0.166, 192.0, 254.0, 176.0, 29.0, 144.0, 250.0, 208.0, 0.0, 0.0, 0.0, 1.6664083614072647E9, 0.0, 2022-10-21 20:12:41.407
96.0, -157672.58050114877, -169418.10928799026, 63397.50449627692, -60450.00230670003, 79366.50715667095, -78124.97951090093, 92052.03855658037, -128304.08701945389, -0.042, 0.9460000000000001, -0.166, 192.0, 0.0, 0.0, 0.0, 0.0, 0.0, 0.0, 0.0, 0.0, 0.0, 1.6664083614072769E9, 0.0, 2022-10-21 20:12:41.407
97.0, -157670.4123819366, -169417.88577054572, 63397.97388291048, -60439.1170071503, 79369.54699391687, -78113.80363867327, 92067.97535037702, -128300.95777523016, -0.042, 0.9460000000000001, -0.166, 192.0, 0.0, 0.0, 0.0, 0.0, 0.0, 0.0, 0.0, 0.0, 0.0, 1.6664083614072871E9, 0.0, 2022-10-21 20:12:41.407
98.0, -157667.59606213524, -169412.11902047624, 63403.718281235495, -60434.467844303595, 79370.99985730647, -78096.41398148704, 92104.56515605035, -128300.39898161877, -0.042, 0.9460000000000001, -0.166, 192.0, 0.0, 0.0, 0.0, 0.0, 0.0, 0.0, 0.0, 0.0, 0.0, 1.6664083614072971E9, 0.0, 2022-10-21 20:12:41.407
99.0, -157673.40751569363, -169418.66808160165, 63399.58320851126, -60444.57083279739, 79367.49063342699, -78116.19527532998, 92086.86257444175, -128310.88194976831, -0.042, 0.9460000000000001, -0.166, 192.0, 0.0, 0.0, 0.0, 0.0, 0.0, 0.0, 0.0, 0.0, 0.0, 1.6664083614073076E9, 0.0, 2022-10-21 20:12:41.407
100.0, -157674.27923372737, -169419.38333742422, 63402.712452735, -60448.32592586589, 79367.44592993807, -78136.08832789521, 92048.70814665654, -128305.67399331022, -0.042, 0.9460000000000001, -0.166, 192.0, 0.0, 0.0, 0.0, 0.0, 0.0, 0.0, 0.0, 0.0, 0.0, 1.6664083614073176E9, 0.0, 2022-10-21 20:12:41.407
101.0, -157673.58632964926, -169412.18607570961, 63405.55112428083, -60434.24432685904, 79379.96290683305, -78115.79294392979, 92064.35436777525, -128298.16380717325, -0.042, 0.9460000000000001, -0.166, 192.0, 0.0, 0.0, 0.0, 0.0, 0.0, 0.0, 0.0, 0.0, 0.0, 1.6664083614073277E9, 0.0, 2022-10-21 20:12:41.407
102.0, -157678.92839657408, -169423.67487235964, 63401.617217256695, -60435.83130071537, 79376.81131086485, -78099.54322571078, 92101.92765020463, -128302.90237699776, -0.042, 0.9460000000000001, -0.166, 192.0, 0.0, 0.0, 0.0, 0.0, 0.0, 0.0, 0.0, 0.0, 0.0, 1.666408361407338E9, 0.0, 2022-10-21 20:12:41.407
103.0, -157676.38029770617, -169423.7866310819, 63401.99719691244, -60442.693286263144, 79375.35844747526, -78101.84545538967, 92101.27944961542, -128305.56223458794, -0.042, 0.9460000000000001, -0.166, 192.0, 0.0, 0.0, 0.0, 0.0, 0.0, 0.0, 0.0, 0.0, 0.0, 1.6664083614073484E9, 0.0, 2022-10-21 20:12:41.407
104.0, -157669.18303599156, -169415.62824435573, 63404.18766786905, -60448.10240842133, 79374.9337643306, -78124.39836554509, 92059.63814969518, -128306.18808343269, -0.034, 0.9480000000000001, -0.166, 192.0, 254.0, 240.0, 29.0, 160.0, 250.0, 208.0, 0.0, 0.0, 0.0, 1.6664083614073584E9, 0.0, 2022-10-21 20:12:41.407
105.0, -157672.98283254897, -169416.36585192275, 63399.76202246691, -60444.10144616383, 79379.82879636632, -78125.22538008993, 92057.64884443866, -128307.28331891101, -0.034, 0.9480000000000001, -0.166, 192.0, 0.0, 0.0, 0.0, 0.0, 0.0, 0.0, 0.0, 0.0, 0.0, 1.666408361407379E9, 0.0, 2022-10-21 20:12:41.407
106.0, -157670.70295461453, -169416.41055541165, 63406.80282197033, -60432.925573936176, 79386.44491272508, -78091.31778375123, 92105.34746710629, -128295.36983911632, -0.034, 0.9480000000000001, -0.166, 192.0, 0.0, 0.0, 0.0, 0.0, 0.0, 0.0, 0.0, 0.0, 0.0, 1.6664083614073892E9, 0.0, 2022-10-21 20:12:41.407
107.0, -157672.3122802153, -169419.5397996354, 63405.79699346984, -60440.34635309534, 79389.26123252645, -78087.428580216, 92115.91984223365, -128297.91793798422, -0.034, 0.9480000000000001, -0.166, 192.0, 0.0, 0.0, 0.0, 0.0, 0.0, 0.0, 0.0, 0.0, 0.0, 1.6664083614073997E9, 0.0, 2022-10-21 20:12:41.407
108.0, -157673.1616465046, -169418.89159904618, 63402.69010099055, -60447.38715259876, 79384.74618014648, -78117.64813871958, 92072.3786440347, -128305.00344097656, -0.034, 0.9480000000000001, -0.166, 192.0, 0.0, 0.0, 0.0, 0.0, 0.0, 0.0, 0.0, 0.0, 0.0, 1.66640836140741E9, 0.0, 2022-10-21 20:12:41.407
109.0, -157680.44831519705, -169426.24532297198, 63394.64347298664, -60454.33854512436, 79372.40801720716, -78147.39831058959, 92037.53227442889, -128309.76436254554, -0.034, 0.9480000000000001, -0.166, 192.0, 0.0, 0.0, 0.0, 0.0, 0.0, 0.0, 0.0, 0.0, 0.0, 1.6664083614074204E9, 0.0, 2022-10-21 20:12:41.407
110.0, -157690.64071066867, -169435.25307598748, 63383.847580414724, -60458.76419052651, 79365.8813078262, -78123.37018530014, 92069.13764108869, -128316.49223762659, -0.034, 0.9480000000000001, -0.166, 192.0, 0.0, 0.0, 0.0, 0.0, 0.0, 0.0, 0.0, 0.0, 0.0, 1.6664083614074304E9, 0.0, 2022-10-21 20:12:41.407
111.0, -157672.24522498195, -169421.50675314746, 63397.39273755464, -60452.32688812338, 79374.86670909723, -78091.54130119579, 92101.01122868195, -128303.84115026488, -0.034, 0.9480000000000001, -0.166, 192.0, 0.0, 0.0, 0.0, 0.0, 0.0, 0.0, 0.0, 0.0, 0.0, 1.666408361407441E9, 0.0, 2022-10-21 20:12:41.407
112.0, -157666.09849525674, -169414.01891875494, 63402.64539750164, -60455.34437362485, 79372.22920325151, -78114.89887415158, 92067.79653642137, -128301.94125198618, -0.034, 0.9480000000000001, -0.166, 192.0, 0.0, 0.0, 0.0, 0.0, 0.0, 0.0, 0.0, 0.0, 0.0, 1.666408361407452E9, 0.0, 2022-10-21 20:12:41.407
113.0, -157676.98379480647, -169426.71470960556, 63391.98361539646, -60464.91092025172, 79367.22241249352, -78135.37307207265, 92041.44382970856, -128309.92082475673, -0.034, 0.9480000000000001, -0.166, 192.0, 0.0, 0.0, 0.0, 0.0, 0.0, 0.0, 0.0, 0.0, 0.0, 1.6664083614074633E9, 0.0, 2022-10-21 20:12:41.407
114.0, -157678.12373377368, -169429.82160208485, 63387.848542672225, -60461.513455094515, 79363.10969151375, -78115.45766776297, 92075.19496383608, -128304.57875783191, -0.032, 0.9480000000000001, -0.162, 192.0, 255.0, 0.0, 29.0, 160.0, 250.0, 240.0, 0.0, 0.0, 0.0, 1.666408361407473E9, 0.0, 2022-10-21 20:12:41.407
115.0, -157671.6640796261, -169419.65155835767, 63392.87768517467, -60459.39003937126, 79365.8813078262, -78099.4314669885, 92102.77701649393, -128303.97526073162, -0.032, 0.9480000000000001, -0.162, 192.0, 0.0, 0.0, 0.0, 0.0, 0.0, 0.0, 0.0, 0.0, 0.0, 1.666408361407484E9, 0.0, 2022-10-21 20:12:41.407
116.0, -157664.73503884496, -169410.84497104227, 63411.22846737248, -60461.17817892769, 79375.60431666426, -78107.14281882558, 92086.30378083036, -128290.72067626962, -0.032, 0.9480000000000001, -0.162, 192.0, 0.0, 0.0, 0.0, 0.0, 0.0, 0.0, 0.0, 0.0, 0.0, 1.6664083614074943E9, 0.0, 2022-10-21 20:12:41.407
117.0, -157665.98673653445, -169413.25895944345, 63412.12253715069, -60469.2248069316, 79370.97750556201, -78130.83566794821, 92049.33399550129, -128297.04621995047, -0.032, 0.9480000000000001, -0.162, 192.0, 0.0, 0.0, 0.0, 0.0, 0.0, 0.0, 0.0, 0.0, 0.0, 1.6664083614075048E9, 0.0, 2022-10-21 20:12:41.407
118.0, -157683.08582104277, -169432.21323874156, 63394.464659031, -60465.82734177439, 79361.79093859089, -78130.187467359, 92063.59440846377, -128311.59720559088, -0.032, 0.9480000000000001, -0.162, 192.0, 0.0, 0.0, 0.0, 0.0, 0.0, 0.0, 0.0, 0.0, 0.0, 1.666408361407515E9, 0.0, 2022-10-21 20:12:41.407
119.0, -157668.60189063573, -169415.98587226702, 63407.94276093755, -60454.22678640208, 79367.37887470471, -78100.81727514473, 92103.1346444052, -128306.27749041052, -0.032, 0.9480000000000001, -0.162, 192.0, 0.0, 0.0, 0.0, 0.0, 0.0, 0.0, 0.0, 0.0, 0.0, 1.6664083614075253E9, 0.0, 2022-10-21 20:12:41.407
120.0, -157665.76321908992, -169414.08597398832, 63406.17697312558, -60457.37838237028, 79367.0883020268, -78113.71423169544, 92080.5817342498, -128309.87612126782, -0.032, 0.9480000000000001, -0.162, 192.0, 0.0, 0.0, 0.0, 0.0, 0.0, 0.0, 0.0, 0.0, 0.0, 1.6664083614076605E9, 0.0, 2022-10-21 20:12:41.407
121.0, -157657.29190794134, -169403.58065409432, 63412.43546157306, -60456.908995736725, 79373.72677013002, -78134.00961566086, 92046.92000710011, -128302.27652815302, -0.032, 0.9480000000000001, -0.162, 192.0, 0.0, 0.0, 0.0, 0.0, 0.0, 0.0, 0.0, 0.0, 0.0, 1.6664083618855205E9, 0.0, 2022-10-21 20:12:41.885
122.0, -157659.39297192014, -169404.67588957262, 63418.24691513144, -60447.945946210144, 79376.23016550901, -78122.65492947758, 92062.72269043002, -128294.5875280604, -0.032, 0.9480000000000001, -0.162, 192.0, 0.0, 0.0, 0.0, 0.0, 0.0, 0.0, 0.0, 0.0, 0.0, 1.6664083618856795E9, 0.0, 2022-10-21 20:12:41.885
123.0, -157671.68643137056, -169419.60685486876, 63406.9145806926, -60449.04118168845, 79374.46437769705, -78099.05148733276, 92101.95000194908, -128302.12006594182, -0.032, 0.9480000000000001, -0.162, 192.0, 0.0, 0.0, 0.0, 0.0, 0.0, 0.0, 0.0, 0.0, 0.0, 1.6664083618857348E9, 0.0, 2022-10-21 20:12:41.885
124.0, -157675.03919303886, -169422.11025024776, 63403.33830157975, -60458.27245214849, 79370.0387322949, -78106.31580428073, 92092.1375861332, -128305.69634505468, -0.03, 0.9380000000000001, -0.162, 192.0, 255.0, 16.0, 29.0, 80.0, 250.0, 240.0, 0.0, 0.0, 0.0, 1.6664083618857565E9, 0.0, 2022-10-21 20:12:41.885
125.0, -157673.54162616035, -169414.86828504424, 63402.15365912362, -60462.407524872724, 79370.77633986191, -78131.17094411505, 92052.9326263586, -128310.70313581267, -0.03, 0.9380000000000001, -0.162, 192.0, 0.0, 0.0, 0.0, 0.0, 0.0, 0.0, 0.0, 0.0, 0.0, 1.66640836188578E9, 0.0, 2022-10-21 20:12:41.885
126.0, -157680.87299834169, -169422.57963688133, 63401.326644578774, -60455.925518980686, 79375.20198526407, -78122.11848761064, 92061.67215844062, -128303.21530142013, -0.03, 0.9380000000000001, -0.162, 192.0, 0.0, 0.0, 0.0, 0.0, 0.0, 0.0, 0.0, 0.0, 0.0, 1.6664083618858008E9, 0.0, 2022-10-21 20:12:41.885
127.0, -157677.47553318448, -169419.67391010214, 63400.38787131165, -60446.9177659652, 79380.61110742226, -78085.61808891513, 92109.61665029725, -128288.15022565726, -0.03, 0.9380000000000001, -0.162, 192.0, 0.0, 0.0, 0.0, 0.0, 0.0, 0.0, 0.0, 0.0, 0.0, 1.6664083618858216E9, 0.0, 2022-10-21 20:12:41.885
128.0, -157671.23939648145, -169411.56022686485, 63402.08660389026, -60446.7166002651, 79383.40507547917, -78093.01651632984, 92107.04619968489, -128300.39898161877, -0.03, 0.9380000000000001, -0.162, 192.0, 0.0, 0.0, 0.0, 0.0, 0.0, 0.0, 0.0, 0.0, 0.0, 1.666408361885842E9, 0.0, 2022-10-21 20:12:41.885
129.0, -157673.92160581608, -169418.66808160165, 63404.07590914678, -60450.35993461132, 79384.79088363539, -78112.55194098377, 92069.53997248888, -128301.42716186371, -0.03, 0.9380000000000001, -0.162, 192.0, 0.0, 0.0, 0.0, 0.0, 0.0, 0.0, 0.0, 0.0, 0.0, 1.6664083618858633E9, 0.0, 2022-10-21 20:12:41.885
130.0, -157675.10624827223, -169414.95769202206, 63408.38979582665, -60443.34148685235, 79388.94830810408, -78113.17778982852, 92063.41559450813, -128293.76051351555, -0.03, 0.9380000000000001, -0.162, 192.0, 0.0, 0.0, 0.0, 0.0, 0.0, 0.0, 0.0, 0.0, 0.0, 1.666408361885884E9, 0.0, 2022-10-21 20:12:41.885
131.0, -157683.80107686535, -169422.40082292567, 63401.416051556596, -60438.357047838814, 79387.42838948112, -78099.47617047741, 92097.94903969158, -128299.66137405175, -0.03, 0.9380000000000001, -0.162, 192.0, 0.0, 0.0, 0.0, 0.0, 0.0, 0.0, 0.0, 0.0, 0.0, 1.666408361885905E9, 0.0, 2022-10-21 20:12:41.885
132.0, -157683.37639372068, -169422.91491304815, 63397.68331023256, -60446.9177659652, 79382.91333710114, -78095.20698728645, 92105.14630140619, -128304.19877817617, -0.03, 0.9380000000000001, -0.162, 192.0, 0.0, 0.0, 0.0, 0.0, 0.0, 0.0, 0.0, 0.0, 0.0, 1.6664083618859253E9, 0.0, 2022-10-21 20:12:41.885
133.0, -157678.19078900706, -169417.03640425642, 63403.584170768765, -60448.48238807707, 79388.12129355923, -78108.61803395963, 92073.6303417242, -128303.6846880537, -0.03, 0.9380000000000001, -0.162, 192.0, 0.0, 0.0, 0.0, 0.0, 0.0, 0.0, 0.0, 0.0, 0.0, 1.6664083618859458E9, 0.0, 2022-10-21 20:12:41.885
134.0, -157676.49205642845, -169416.79053506738, 63402.712452735, -60449.08588517737, 79380.11936904423, -78126.85705743516, 92049.80338213485, -128299.37080137382, -0.026000000000000002, 0.9400000000000001, -0.16, 192.0, 255.0, 48.0, 29.0, 96.0, 251.0, 0.0, 0.0, 0.0, 0.0, 1.6664083618859737E9, 0.0, 2022-10-21 20:12:41.885
135.0, -157672.7146116155, -169415.76235482245, 63401.03607190086, -60439.58639378386, 79383.36037199026, -78100.437295489, 92085.8343941968, -128292.0841326814, -0.026000000000000002, 0.9400000000000001, -0.16, 192.0, 0.0, 0.0, 0.0, 0.0, 0.0, 0.0, 0.0, 0.0, 0.0, 1.666408361886067E9, 0.0, 2022-10-21 20:12:41.886
136.0, -157676.93909131756, -169419.42804091313, 63396.05163288733, -60446.85071073184, 79377.88419459871, -78096.59279544269, 92103.1346444052, -128296.19685366117, -0.026000000000000002, 0.9400000000000001, -0.16, 192.0, 0.0, 0.0, 0.0, 0.0, 0.0, 0.0, 0.0, 0.0, 0.0, 1.6664083618860877E9, 0.0, 2022-10-21 20:12:41.886
137.0, -157684.38222222117, -169424.56894213785, 63390.97778689597, -60458.227748659585, 79376.56544167583, -78112.68605145051, 92071.05989111184, -128304.06466770943, -0.026000000000000002, 0.9400000000000001, -0.16, 192.0, 0.0, 0.0, 0.0, 0.0, 0.0, 0.0, 0.0, 0.0, 0.0, 1.666408361886108E9, 0.0, 2022-10-21 20:12:41.886
138.0, -157685.94684433306, -169424.45718341556, 63391.78244969636, -60462.63104231728, 79379.27000275493, -78122.23024633293, 92049.19988503456, -128300.0860571964, -0.026000000000000002, 0.9400000000000001, -0.16, 192.0, 0.0, 0.0, 0.0, 0.0, 0.0, 0.0, 0.0, 0.0, 0.0, 1.6664083618861284E9, 0.0, 2022-10-21 20:12:41.886
139.0, -157685.38805072167, -169426.55824739437, 63385.92629264907, -60467.99546098655, 79366.77537760441, -78120.62092073214, 92069.69643470008, -128302.50004559757, -0.026000000000000002, 0.9400000000000001, -0.16, 192.0, 0.0, 0.0, 0.0, 0.0, 0.0, 0.0, 0.0, 0.0, 0.0, 1.6664083618861525E9, 0.0, 2022-10-21 20:12:41.886
140.0, -157688.1596670341, -169430.24628522948, 63383.1099728477, -60476.600882601844, 79357.78997633338, -78106.51696998083, 92093.56809777833, -128300.39898161877, -0.026000000000000002, 0.9400000000000001, -0.16, 192.0, 0.0, 0.0, 0.0, 0.0, 0.0, 0.0, 0.0, 0.0, 0.0, 1.666408361886187E9, 0.0, 2022-10-21 20:12:41.886
141.0, -157673.25105348244, -169412.96838676554, 63400.58903701175, -60469.60478658733, 79368.89879332767, -78111.32259503873, 92080.76054820545, -128292.17353965921, -0.026000000000000002, 0.9400000000000001, -0.16, 192.0, 0.0, 0.0, 0.0, 0.0, 0.0, 0.0, 0.0, 0.0, 0.0, 1.6664083618862076E9, 0.0, 2022-10-21 20:12:41.886
142.0, -157670.07710576977, -169411.76139256495, 63401.125478878675, -60472.77873429999, 79370.39636020617, -78127.32644406873, 92051.05507982435, -128294.6322315493, -0.026000000000000002, 0.9400000000000001, -0.16, 192.0, 0.0, 0.0, 0.0, 0.0, 0.0, 0.0, 0.0, 0.0, 0.0, 1.666408361886228E9, 0.0, 2022-10-21 20:12:41.886
143.0, -157667.61841387968, -169408.40863089665, 63402.84656320174, -60469.29186216496, 79372.02803755141, -78108.75214442637, 92076.08903361429, -128286.78676924549, -0.024, 0.9440000000000001, -0.156, 192.0, 255.0, 64.0, 29.0, 128.0, 251.0, 32.0, 0.0, 0.0, 0.0, 1.6664083618862484E9, 0.0, 2022-10-21 20:12:41.886
144.0, -157672.93812906006, -169420.50092464697, 63396.655129987616, -60478.366670413816, 79363.3332089583, -78100.14672281107, 92104.74397000599, -128294.74399027157, -0.024, 0.9440000000000001, -0.156, 192.0, 0.0, 0.0, 0.0, 0.0, 0.0, 0.0, 0.0, 0.0, 0.0, 1.6664083618862703E9, 0.0, 2022-10-21 20:12:41.886
145.0, -157665.98673653445, -169415.47178214454, 63404.612351013704, -60482.03235650449, 79360.87451706821, -78112.46253400594, 92086.61670525273, -128303.46117060915, -0.024, 0.9440000000000001, -0.156, 192.0, 0.0, 0.0, 0.0, 0.0, 0.0, 0.0, 0.0, 0.0, 0.0, 1.6664083618862908E9, 0.0, 2022-10-21 20:12:41.886
146.0, -157666.88080631266, -169413.48247688802, 63398.44326954404, -60491.1295164978, 79356.44887166607, -78141.51980179785, 92040.68387039709, -128309.00440323407, -0.024, 0.9440000000000001, -0.156, 192.0, 0.0, 0.0, 0.0, 0.0, 0.0, 0.0, 0.0, 0.0, 0.0, 1.6664083618863113E9, 0.0, 2022-10-21 20:12:41.886
147.0, -157676.24618723945, -169423.3395961928, 63387.915597905594, -60489.45313566365, 79354.66073210964, -78137.2953220958, 92046.33886174427, -128314.74880155908, -0.024, 0.9440000000000001, -0.156, 192.0, 0.0, 0.0, 0.0, 0.0, 0.0, 0.0, 0.0, 0.0, 0.0, 1.6664083618863323E9, 0.0, 2022-10-21 20:12:41.886
148.0, -157674.72626861648, -169419.65155835767, 63390.9107316626, -60479.484257636585, 79360.8298135793, -78108.57333047072, 92092.60697276676, -128308.02092647803, -0.024, 0.9440000000000001, -0.156, 192.0, 0.0, 0.0, 0.0, 0.0, 0.0, 0.0, 0.0, 0.0, 0.0, 1.6664083618863528E9, 0.0, 2022-10-21 20:12:41.886
149.0, -157667.66311736862, -169413.05779374336, 63394.53171426436, -60476.31030992393, 79362.46149092454, -78111.00967061636, 92087.60018200877, -128308.75853404506, -0.024, 0.9440000000000001, -0.156, 192.0, 0.0, 0.0, 0.0, 0.0, 0.0, 0.0, 0.0, 0.0, 0.0, 1.6664083618863733E9, 0.0, 2022-10-21 20:12:41.886
150.0, -157671.17234124808, -169415.87411354473, 63394.93404566456, -60476.84675179086, 79369.30112472786, -78129.78513595881, 92049.42340247911, -128309.49614161208, -0.024, 0.9440000000000001, -0.156, 192.0, 0.0, 0.0, 0.0, 0.0, 0.0, 0.0, 0.0, 0.0, 0.0, 1.6664083618864179E9, 0.0, 2022-10-21 20:12:41.886
151.0, -157679.44248669656, -169427.60877938377, 63389.949606651026, -60481.56296987092, 79367.84826133827, -78134.23313310542, 92045.75771638844, -128314.72644981463, -0.024, 0.9440000000000001, -0.156, 192.0, 0.0, 0.0, 0.0, 0.0, 0.0, 0.0, 0.0, 0.0, 0.0, 1.6664083618864384E9, 0.0, 2022-10-21 20:12:41.886
152.0, -157676.89438782865, -169423.3395961928, 63391.40247004062, -60473.6728040782, 79369.6364008947, -78109.24388280438, 92089.96946692103, -128309.94317650118, -0.024, 0.9440000000000001, -0.156, 192.0, 0.0, 0.0, 0.0, 0.0, 0.0, 0.0, 0.0, 0.0, 0.0, 1.6664083618864589E9, 0.0, 2022-10-21 20:12:41.886
153.0, -157669.78653309186, -169416.36585192275, 63396.40926079861, -60473.80691454493, 79374.0396945524, -78096.74925765386, 92103.69343801659, -128298.87906299581, -0.028, 0.9480000000000001, -0.154, 192.0, 255.0, 32.0, 29.0, 160.0, 251.0, 48.0, 0.0, 0.0, 0.0, 1.6664083618864791E9, 0.0, 2022-10-21 20:12:41.886
154.0, -157675.9109110726, -169422.24436071448, 63390.217827584485, -60483.90990303873, 79372.49742418497, -78122.02908063283, 92063.05796659684, -128312.11129571334, -0.028, 0.9480000000000001, -0.154, 192.0, 0.0, 0.0, 0.0, 0.0, 0.0, 0.0, 0.0, 0.0, 0.0, 1.6664083618865013E9, 0.0, 2022-10-21 20:12:41.886
155.0, -157686.39387922216, -169434.22489574255, 63385.50160950442, -60480.87006579281, 79369.01055204995, -78131.08153713722, 92045.02010882141, -128313.54180735849, -0.028, 0.9480000000000001, -0.154, 192.0, 0.0, 0.0, 0.0, 0.0, 0.0, 0.0, 0.0, 0.0, 0.0, 1.6664083618865216E9, 0.0, 2022-10-21 20:12:41.886
156.0, -157678.12373377368, -169426.491192161, 63387.26739731639, -60468.04016447547, 79368.74233111649, -78108.77449617082, 92080.31351331635, -128312.89360676928, -0.028, 0.9480000000000001, -0.154, 192.0, 0.0, 0.0, 0.0, 0.0, 0.0, 0.0, 0.0, 0.0, 0.0, 1.6664083618865445E9, 0.0, 2022-10-21 20:12:41.886
157.0, -157672.53579765986, -169418.17634322363, 63392.90003691913, -60467.21314993062, 79365.74719735947, -78097.82214138772, 92096.69734200208, -128307.28331891101, -0.028, 0.9480000000000001, -0.154, 192.0, 0.0, 0.0, 0.0, 0.0, 0.0, 0.0, 0.0, 0.0, 0.0, 1.6664083618865647E9, 0.0, 2022-10-21 20:12:41.886
158.0, -157668.75835284693, -169414.04127049938, 63398.28680733286, -60472.06347847742, 79368.69762762757, -78115.25650206287, 92063.12502183022, -128309.89847301228, -0.028, 0.9480000000000001, -0.154, 192.0, 0.0, 0.0, 0.0, 0.0, 0.0, 0.0, 0.0, 0.0, 0.0, 1.6664083618865852E9, 0.0, 2022-10-21 20:12:41.886
159.0, -157671.93230055957, -169414.13067747722, 63395.62694974268, -60473.6728040782, 79366.64126713769, -78135.70834823947, 92035.61002440573, -128311.41839163523, -0.028, 0.9480000000000001, -0.154, 192.0, 0.0, 0.0, 0.0, 0.0, 0.0, 0.0, 0.0, 0.0, 0.0, 1.6664083618866029E9, 0.0, 2022-10-21 20:12:41.886
160.0, -157683.8234286098, -169425.57477063834, 63382.30531004731, -60463.83803651787, 79367.55768866035, -78121.06795562124, 92068.1318125882, -128313.92178701423, -0.028, 0.9480000000000001, -0.154, 192.0, 0.0, 0.0, 0.0, 0.0, 0.0, 0.0, 0.0, 0.0, 0.0, 1.6664083618866127E9, 0.0, 2022-10-21 20:12:41.886
161.0, -157689.67958565708, -169428.86047707326, 63377.231464055956, -60469.80595228743, 79357.32058969983, -78122.40906028856, 92084.85091744077, -128320.71671732864, -0.028, 0.9480000000000001, -0.154, 192.0, 0.0, 0.0, 0.0, 0.0, 0.0, 0.0, 0.0, 0.0, 0.0, 1.6664083618866222E9, 0.0, 2022-10-21 20:12:41.886
162.0, -157687.8690943562, -169425.01597702695, 63378.751382678915, -60472.04112673296, 79356.96296178854, -78136.15538312857, 92057.15710606064, -128316.42518239323, -0.028, 0.9480000000000001, -0.154, 192.0, 0.0, 0.0, 0.0, 0.0, 0.0, 0.0, 0.0, 0.0, 0.0, 1.6664083618866315E9, 0.0, 2022-10-21 20:12:41.886
163.0, -157679.464838441, -169416.18703796712, 63388.22852232797, -60466.475542363594, 79368.8317380943, -78132.91438018256, 92041.71205064203, -128299.90724324076, -0.026000000000000002, 0.9440000000000001, -0.164, 192.0, 255.0, 48.0, 29.0, 128.0, 250.0, 224.0, 0.0, 0.0, 0.0, 1.6664083618866415E9, 0.0, 2022-10-21 20:12:41.886
164.0, -157684.02459430989, -169424.47953516003, 63385.92629264907, -60459.52414983799, 79369.07760728331, -78113.58012122872, 92071.01518762294, -128293.91697572672, -0.026000000000000002, 0.9440000000000001, -0.164, 192.0, 0.0, 0.0, 0.0, 0.0, 0.0, 0.0, 0.0, 0.0, 0.0, 1.666408361886652E9, 0.0, 2022-10-21 20:12:41.886
165.0, -157693.54643744786, -169433.6437503867, 63380.226597812965, -60460.77584752749, 79370.79869160637, -78084.2769842478, 92108.02967644093, -128291.74885651456, -0.026000000000000002, 0.9440000000000001, -0.164, 192.0, 0.0, 0.0, 0.0, 0.0, 0.0, 0.0, 0.0, 0.0, 0.0, 1.666408361886671E9, 0.0, 2022-10-21 20:12:41.886
166.0, -157688.38318447868, -169428.6816631176, 63383.82522867027, -60476.01973724601, 79367.60239214926, -78097.91154836555, 92086.72846397501, -128304.86933050983, -0.026000000000000002, 0.9440000000000001, -0.164, 192.0, 0.0, 0.0, 0.0, 0.0, 0.0, 0.0, 0.0, 0.0, 0.0, 1.6664083618866808E9, 0.0, 2022-10-21 20:12:41.886
167.0, -157689.8136961238, -169425.19479098258, 63380.40541176861, -60489.4307839192, 79355.84537456578, -78131.61797900415, 92038.71691688501, -128309.56319684544, -0.026000000000000002, 0.9440000000000001, -0.164, 192.0, 0.0, 0.0, 0.0, 0.0, 0.0, 0.0, 0.0, 0.0, 0.0, 1.6664083618866904E9, 0.0, 2022-10-21 20:12:41.886
168.0, -157691.15480079112, -169427.49702066148, 63380.40541176861, -60482.79231581597, 79360.0251507789, -78120.15153409858, 92056.64301593817, -128303.23765316459, -0.026000000000000002, 0.9440000000000001, -0.164, 192.0, 0.0, 0.0, 0.0, 0.0, 0.0, 0.0, 0.0, 0.0, 0.0, 1.6664083618867E9, 0.0, 2022-10-21 20:12:41.886
169.0, -157689.70193740155, -169428.1899247396, 63385.38985078214, -60476.69028957967, 79365.25545898145, -78093.2847372633, 92100.76535949294, -128298.94611822917, -0.026000000000000002, 0.9440000000000001, -0.164, 192.0, 0.0, 0.0, 0.0, 0.0, 0.0, 0.0, 0.0, 0.0, 0.0, 1.6664083618867097E9, 0.0, 2022-10-21 20:12:41.886
170.0, -157684.04694605435, -169426.37943343873, 63388.1614670946, -60484.8263245614, 79362.1262147577, -78103.56653971273, 92088.69541748708, -128299.57196707392, -0.026000000000000002, 0.9440000000000001, -0.164, 192.0, 0.0, 0.0, 0.0, 0.0, 0.0, 0.0, 0.0, 0.0, 0.0, 1.6664083618867192E9, 0.0, 2022-10-21 20:12:41.886
171.0, -157680.02363205238, -169419.27157870194, 63392.385946796654, -60485.765097828524, 79365.65779038165, -78122.40906028856, 92053.49141996997, -128301.91890024173, -0.026000000000000002, 0.9440000000000001, -0.164, 192.0, 0.0, 0.0, 0.0, 0.0, 0.0, 0.0, 0.0, 0.0, 0.0, 1.6664083618867288E9, 0.0, 2022-10-21 20:12:41.886
172.0, -157678.79428610735, -169411.87315128723, 63393.995272397435, -60480.15480997024, 79368.9882003055, -78113.24484506188, 92062.99091136348, -128294.31930712692, -0.026000000000000002, 0.9420000000000001, -0.166, 192.0, 255.0, 48.0, 29.0, 112.0, 250.0, 208.0, 0.0, 0.0, 0.0, 1.6664083618867383E9, 0.0, 2022-10-21 20:12:41.886
173.0, -157684.717498388, -169416.65642460066, 63387.62502522767, -60482.9264262827, 79366.01541829294, -78092.14479829608, 92103.91695546114, -128295.6380600498, -0.026000000000000002, 0.9420000000000001, -0.166, 192.0, 0.0, 0.0, 0.0, 0.0, 0.0, 0.0, 0.0, 0.0, 0.0, 1.6664083618867488E9, 0.0, 2022-10-21 20:12:41.886
174.0, -157680.1577425191, -169410.06265998635, 63390.79897294033, -60488.60376937435, 79359.3769501897, -78095.05052507526, 92097.30083910238, -128298.5884903179, -0.026000000000000002, 0.9420000000000001, -0.166, 192.0, 0.0, 0.0, 0.0, 0.0, 0.0, 0.0, 0.0, 0.0, 0.0, 1.6664083618867583E9, 0.0, 2022-10-21 20:12:41.886
175.0, -157673.83219883827, -169411.38141290922, 63390.9107316626, -60487.732051340594, 79362.1262147577, -78113.91539739554, 92060.84514389577, -128294.34165887137, -0.026000000000000002, 0.9420000000000001, -0.166, 192.0, 0.0, 0.0, 0.0, 0.0, 0.0, 0.0, 0.0, 0.0, 0.0, 1.666408361886768E9, 0.0, 2022-10-21 20:12:41.886
176.0, -157677.6096436512, -169416.52231413394, 63393.659996230606, -60480.89241753727, 79368.60822064975, -78116.95523464147, 92059.68285318409, -128299.72842928511, -0.026000000000000002, 0.9420000000000001, -0.166, 192.0, 0.0, 0.0, 0.0, 0.0, 0.0, 0.0, 0.0, 0.0, 0.0, 1.6664083618867776E9, 0.0, 2022-10-21 20:12:41.886
177.0, -157681.90117858665, -169420.41151766916, 63402.243066101444, -60473.024603489, 79377.6383254097, -78087.36152498264, 92108.1861386521, -128292.82174024842, -0.026000000000000002, 0.9420000000000001, -0.166, 192.0, 0.0, 0.0, 0.0, 0.0, 0.0, 0.0, 0.0, 0.0, 0.0, 1.6664083618867881E9, 0.0, 2022-10-21 20:12:41.886
178.0, -157683.04111755386, -169423.51841014845, 63395.15756310911, -60479.618368103314, 79376.92306958712, -78084.45579820345, 92113.25998464346, -128299.72842928511, -0.026000000000000002, 0.9420000000000001, -0.166, 192.0, 0.0, 0.0, 0.0, 0.0, 0.0, 0.0, 0.0, 0.0, 0.0, 1.666408361886798E9, 0.0, 2022-10-21 20:12:41.886
179.0, -157677.72140237349, -169419.91977929114, 63395.3140253203, -60483.70873733864, 79374.71024688605, -78107.32163278123, 92073.45152776856, -128304.71286829864, -0.026000000000000002, 0.9420000000000001, -0.166, 192.0, 0.0, 0.0, 0.0, 0.0, 0.0, 0.0, 0.0, 0.0, 0.0, 1.6664083618868072E9, 0.0, 2022-10-21 20:12:41.886
180.0, -157682.30350998684, -169425.12773574924, 63387.93794965005, -60486.480353651095, 79366.50715667095, -78127.37114755764, 92045.981233833, -128313.5865108474, -0.026000000000000002, 0.9420000000000001, -0.166, 192.0, 0.0, 0.0, 0.0, 0.0, 0.0, 0.0, 0.0, 0.0, 0.0, 1.6664083618868253E9, 0.0, 2022-10-21 20:12:41.886
181.0, -157680.9624053195, -169423.22783747053, 63390.19547584003, -60475.773868057004, 79367.20006074906, -78108.75214442637, 92080.82760343881, -128306.27749041052, -0.026000000000000002, 0.9420000000000001, -0.166, 192.0, 0.0, 0.0, 0.0, 0.0, 0.0, 0.0, 0.0, 0.0, 0.0, 1.666408361886835E9, 0.0, 2022-10-21 20:12:41.886
182.0, -157683.08582104277, -169422.78080258143, 63392.318891563285, -60479.66307159222, 79366.97654330451, -78097.21864428744, 92102.32998160482, -128309.20556893417, -0.028, 0.9460000000000001, -0.162, 192.0, 255.0, 32.0, 29.0, 144.0, 250.0, 240.0, 0.0, 0.0, 0.0, 1.6664083618868449E9, 0.0, 2022-10-21 20:12:41.886
183.0, -157676.13442851717, -169417.10345948976, 63392.07302237428, -60485.04984200595, 79366.90948807115, -78110.11560083814, 92073.11625160174, -128309.49614161208, -0.028, 0.9460000000000001, -0.162, 192.0, 0.0, 0.0, 0.0, 0.0, 0.0, 0.0, 0.0, 0.0, 0.0, 1.6664083618868554E9, 0.0, 2022-10-21 20:12:41.886
184.0, -157676.78262910637, -169421.01501476945, 63387.9603013945, -60488.60376937435, 79363.1320432582, -78130.61215050366, 92043.83546636529, -128312.91595851374, -0.028, 0.9460000000000001, -0.162, 192.0, 0.0, 0.0, 0.0, 0.0, 0.0, 0.0, 0.0, 0.0, 0.0, 1.6664083618868651E9, 0.0, 2022-10-21 20:12:41.886
185.0, -157680.64948089715, -169424.25601771547, 63389.390813039645, -60481.83119080439, 79363.7355403585, -78114.49654275138, 92071.9316091456, -128310.2337491791, -0.028, 0.9460000000000001, -0.162, 192.0, 0.0, 0.0, 0.0, 0.0, 0.0, 0.0, 0.0, 0.0, 0.0, 1.666408361886875E9, 0.0, 2022-10-21 20:12:41.886
186.0, -157682.83995185376, -169424.56894213785, 63391.78244969636, -60478.90311228074, 79364.13787175869, -78099.25265303286, 92098.48548155851, -128304.51170259854, -0.028, 0.9460000000000001, -0.162, 192.0, 0.0, 0.0, 0.0, 0.0, 0.0, 0.0, 0.0, 0.0, 0.0, 1.6664083618868845E9, 0.0, 2022-10-21 20:12:41.886
187.0, -157681.2082745085, -169424.68070086013, 63389.99431013993, -60476.91380702422, 79365.52367991491, -78115.30120555178, 92071.50692600095, -128306.05397296596, -0.028, 0.9460000000000001, -0.162, 192.0, 0.0, 0.0, 0.0, 0.0, 0.0, 0.0, 0.0, 0.0, 0.0, 1.6664083618868942E9, 0.0, 2022-10-21 20:12:41.886
188.0, -157679.57659716328, -169424.34542469328, 63387.87089441668, -60476.98086225759, 79370.59752590627, -78125.69476672349, 92044.95305358805, -128299.14728392927, -0.028, 0.9460000000000001, -0.162, 192.0, 0.0, 0.0, 0.0, 0.0, 0.0, 0.0, 0.0, 0.0, 0.0, 1.6664083618869038E9, 0.0, 2022-10-21 20:12:41.886
189.0, -157688.0702600563, -169433.2414189865, 63381.701812947016, -60472.57756859989, 79377.14658703168, -78100.90668212256, 92076.1337371032, -128294.69928678266, -0.028, 0.9460000000000001, -0.162, 192.0, 0.0, 0.0, 0.0, 0.0, 0.0, 0.0, 0.0, 0.0, 0.0, 1.6664083618869135E9, 0.0, 2022-10-21 20:12:41.886
190.0, -157693.3229200033, -169437.979988811, 63374.48219948795, -60475.66210933473, 79373.39149396318, -78083.91935633653, 92107.85086248528, -128299.39315311828, -0.028, 0.9460000000000001, -0.162, 192.0, 0.0, 0.0, 0.0, 0.0, 0.0, 0.0, 0.0, 0.0, 0.0, 1.6664083618869233E9, 0.0, 2022-10-21 20:12:41.886
191.0, -157689.70193740155, -169434.5378201649, 63377.32087103378, -60478.03139424699, 79368.60822064975, -78099.9902605999, 92086.86257444175, -128300.68955429668, -0.028, 0.9460000000000001, -0.162, 192.0, 0.0, 0.0, 0.0, 0.0, 0.0, 0.0, 0.0, 0.0, 0.0, 1.6664083618869328E9, 0.0, 2022-10-21 20:12:41.886
192.0, -157688.3608327342, -169434.82839284284, 63373.029336098356, -60483.84284780537, 79364.96488630354, -78126.41002254606, 92044.75188788795, -128306.14337994378, -0.028, 0.9500000000000001, -0.16, 192.0, 255.0, 32.0, 29.0, 176.0, 251.0, 0.0, 0.0, 0.0, 0.0, 1.6664083618869424E9, 0.0, 2022-10-21 20:12:41.886
193.0, -157689.88075135718, -169435.1860207541, 63367.93313836255, -60485.4745251506, 79359.66752286763, -78127.66172023556, 92052.50794321395, -128309.04910672297, -0.028, 0.9500000000000001, -0.16, 192.0, 0.0, 0.0, 0.0, 0.0, 0.0, 0.0, 0.0, 0.0, 0.0, 1.666408361886953E9, 0.0, 2022-10-21 20:12:41.886
194.0, -157694.99930083746, -169435.52129692095, 63367.66491742909, -60482.59115011587, 79360.89686881268, -78100.8843303781, 92095.95973443506, -128300.80131301896, -0.028, 0.9500000000000001, -0.16, 192.0, 0.0, 0.0, 0.0, 0.0, 0.0, 0.0, 0.0, 0.0, 0.0, 1.6664083618869624E9, 0.0, 2022-10-21 20:12:41.886
195.0, -157685.7233268885, -169427.04998577238, 63374.772772165874, -60477.27143493551, 79367.60239214926, -78101.06314433375, 92093.23282161151, -128298.72260078462, -0.028, 0.9500000000000001, -0.16, 192.0, 0.0, 0.0, 0.0, 0.0, 0.0, 0.0, 0.0, 0.0, 0.0, 1.6664083618869808E9, 0.0, 2022-10-21 20:12:41.886
196.0, -157681.78941986436, -169425.01597702695, 63376.27033904438, -60481.227693704095, 79365.85895608175, -78122.11848761064, 92051.54681820236, -128303.19294967568, -0.028, 0.9500000000000001, -0.16, 192.0, 0.0, 0.0, 0.0, 0.0, 0.0, 0.0, 0.0, 0.0, 0.0, 1.6664083618869903E9, 0.0, 2022-10-21 20:12:41.886
197.0, -157677.8108093513, -169421.14912523617, 63381.433592013556, -60472.24229243306, 79373.05621779636, -78115.74824044088, 92055.70424267105, -128295.77217051652, -0.028, 0.9500000000000001, -0.16, 192.0, 0.0, 0.0, 0.0, 0.0, 0.0, 0.0, 0.0, 0.0, 0.0, 1.666408361887E9, 0.0, 2022-10-21 20:12:41.887
198.0, -157679.95657681904, -169424.7924595824, 63377.87966464516, -60463.27924290649, 79375.24668875297, -78089.9766790839, 92098.66429551414, -128294.67693503821, -0.028, 0.9500000000000001, -0.16, 192.0, 0.0, 0.0, 0.0, 0.0, 0.0, 0.0, 0.0, 0.0, 0.0, 1.6664083618870108E9, 0.0, 2022-10-21 20:12:41.887
199.0, -157676.40264945064, -169420.07624150233, 63377.54438847833, -60465.38030688529, 79370.64222939519, -78092.16715004054, 92095.89267920169, -128297.91793798422, -0.028, 0.9500000000000001, -0.16, 192.0, 0.0, 0.0, 0.0, 0.0, 0.0, 0.0, 0.0, 0.0, 0.0, 1.6664083618870203E9, 0.0, 2022-10-21 20:12:41.887
200.0, -157676.5144081729, -169420.92560779164, 63375.331565777255, -60472.66697557771, 79371.9386305736, -78118.89983640908, 92054.74311765947, -128310.54667360148, -0.028, 0.9500000000000001, -0.16, 192.0, 0.0, 0.0, 0.0, 0.0, 0.0, 0.0, 0.0, 0.0, 0.0, 1.66640836188703E9, 0.0, 2022-10-21 20:12:41.887
201.0, -157675.75444886144, -169419.69626184658, 63380.91950189108, -60469.6718418207, 79369.34582821677, -78125.62771149013, 92046.29415825536, -128303.77409503152, -0.028, 0.9500000000000001, -0.16, 192.0, 0.0, 0.0, 0.0, 0.0, 0.0, 0.0, 0.0, 0.0, 0.0, 1.6664083618870397E9, 0.0, 2022-10-21 20:12:41.887
202.0, -157678.79428610735, -169421.93143629213, 63377.63379545615, -60460.70879229412, 79370.2846014839, -78099.23030128841, 92088.67306574262, -128296.64388855027, -0.032, 0.9480000000000001, -0.164, 192.0, 255.0, 0.0, 29.0, 160.0, 250.0, 224.0, 0.0, 0.0, 0.0, 1.6664083618870492E9, 0.0, 2022-10-21 20:12:41.887
203.0, -157682.28115824237, -169426.71470960556, 63369.27424302987, -60466.967280741614, 79365.4342729371, -78100.50435072236, 92095.49034780149, -128305.67399331022, -0.032, 0.9480000000000001, -0.164, 192.0, 0.0, 0.0, 0.0, 0.0, 0.0, 0.0, 0.0, 0.0, 0.0, 1.6664083618870597E9, 0.0, 2022-10-21 20:12:41.887
204.0, -157669.60771913623, -169412.3872414097, 63384.3616705372, -60458.42891435968, 79372.07274104032, -78110.94261538298, 92067.30479804335, -128297.31444088394, -0.032, 0.9480000000000001, -0.164, 192.0, 0.0, 0.0, 0.0, 0.0, 0.0, 0.0, 0.0, 0.0, 0.0, 1.666408361887069E9, 0.0, 2022-10-21 20:12:41.887
205.0, -157664.98090803396, -169406.75460180696, 63386.32862404927, -60455.433780602674, 79371.62570615122, -78127.16998185754, 92044.43896346557, -128295.30278388296, -0.032, 0.9480000000000001, -0.164, 192.0, 0.0, 0.0, 0.0, 0.0, 0.0, 0.0, 0.0, 0.0, 0.0, 1.6664083618870788E9, 0.0, 2022-10-21 20:12:41.887
206.0, -157666.05379176783, -169409.8391425418, 63394.37525205318, -60443.16267289671, 79375.58196491981, -78101.44312398948, 92081.34169356129, -128287.09969366786, -0.032, 0.9480000000000001, -0.164, 192.0, 0.0, 0.0, 0.0, 0.0, 0.0, 0.0, 0.0, 0.0, 0.0, 1.6664083618870883E9, 0.0, 2022-10-21 20:12:41.887
207.0, -157674.10041977174, -169416.43290715612, 63390.016661884394, -60445.353143853325, 79380.05231381087, -78082.93587958049, 92106.46505432905, -128289.49133032458, -0.032, 0.9480000000000001, -0.164, 192.0, 0.0, 0.0, 0.0, 0.0, 0.0, 0.0, 0.0, 0.0, 0.0, 1.666408361887098E9, 0.0, 2022-10-21 20:12:41.887
208.0, -157670.99352729245, -169412.3872414097, 63388.966129894994, -60449.845844488846, 79374.62083990822, -78104.84058914668, 92074.32324580231, -128290.27364138051, -0.032, 0.9480000000000001, -0.164, 192.0, 0.0, 0.0, 0.0, 0.0, 0.0, 0.0, 0.0, 0.0, 0.0, 1.6664083618871076E9, 0.0, 2022-10-21 20:12:41.887
209.0, -157666.27730921237, -169407.49220937397, 63392.810629941305, -60444.168501397195, 79379.29235449938, -78114.29537705128, 92050.0268995794, -128286.71971401213, -0.032, 0.9480000000000001, -0.164, 192.0, 0.0, 0.0, 0.0, 0.0, 0.0, 0.0, 0.0, 0.0, 0.0, 1.6664083618871171E9, 0.0, 2022-10-21 20:12:41.887
210.0, -157662.47751265496, -169404.47472387252, 63391.3130630628, -60431.33860007985, 79384.76853189094, -78096.36927799812, 92079.3300365603, -128282.91991745472, -0.032, 0.9480000000000001, -0.164, 192.0, 0.0, 0.0, 0.0, 0.0, 0.0, 0.0, 0.0, 0.0, 0.0, 1.6664083618871267E9, 0.0, 2022-10-21 20:12:41.887
211.0, -157668.713649358, -169409.92854951962, 63387.1109351052, -60437.48532980506, 79386.9366511031, -78075.91743182152, 92113.86348174376, -128286.49619656756, -0.034, 0.9440000000000001, -0.164, 192.0, 254.0, 240.0, 29.0, 128.0, 250.0, 224.0, 0.0, 0.0, 0.0, 1.6664083618871465E9, 0.0, 2022-10-21 20:12:41.887
212.0, -157665.04796326734, -169408.69920357456, 63388.51909500588, -60442.15684439622, 79380.14172078868, -78090.84839711766, 92087.66723724213, -128290.98889720309, -0.034, 0.9440000000000001, -0.164, 192.0, 0.0, 0.0, 0.0, 0.0, 0.0, 0.0, 0.0, 0.0, 0.0, 1.6664083618871567E9, 0.0, 2022-10-21 20:12:41.887
213.0, -157656.39783816313, -169401.54664534886, 63393.92821716407, -60440.23459437306, 79382.44395046758, -78106.96400486995, 92053.73728915898, -128282.78580698799, -0.034, 0.9440000000000001, -0.164, 192.0, 0.0, 0.0, 0.0, 0.0, 0.0, 0.0, 0.0, 0.0, 0.0, 1.6664083618871665E9, 0.0, 2022-10-21 20:12:41.887
214.0, -157661.62814636566, -169406.19580819557, 63387.82619092777, -60437.8653094608, 79375.15728177516, -78101.71134492295, 92066.45543175405, -128286.71971401213, -0.034, 0.9440000000000001, -0.164, 192.0, 0.0, 0.0, 0.0, 0.0, 0.0, 0.0, 0.0, 0.0, 0.0, 1.6664083618871763E9, 0.0, 2022-10-21 20:12:41.887
215.0, -157669.20538773603, -169411.18024720912, 63382.819400169785, -60438.49115830555, 79368.56351716084, -78084.85812960364, 92098.28431585841, -128288.44079833518, -0.034, 0.9440000000000001, -0.164, 192.0, 0.0, 0.0, 0.0, 0.0, 0.0, 0.0, 0.0, 0.0, 0.0, 1.6664083618871863E9, 0.0, 2022-10-21 20:12:41.887
216.0, -157666.83610282376, -169408.96742450804, 63385.56866473779, -60440.72633275108, 79373.97263931902, -78091.34013549569, 92087.35431281976, -128292.7323332706, -0.034, 0.9440000000000001, -0.164, 192.0, 0.0, 0.0, 0.0, 0.0, 0.0, 0.0, 0.0, 0.0, 0.0, 1.666408361887196E9, 0.0, 2022-10-21 20:12:41.887
217.0, -157660.28704169835, -169403.2900814164, 63392.520057263384, -60440.905146706726, 79374.01734280793, -78112.46253400594, 92048.28346351189, -128290.72067626962, -0.034, 0.9440000000000001, -0.164, 192.0, 0.0, 0.0, 0.0, 0.0, 0.0, 0.0, 0.0, 0.0, 0.0, 1.6664083618872058E9, 0.0, 2022-10-21 20:12:41.887
218.0, -157663.19276847754, -169405.14527620617, 63391.760097951905, -60430.332771579364, 79376.5877934203, -78106.31580428073, 92058.56526596133, -128287.05499017895, -0.034, 0.9440000000000001, -0.164, 192.0, 0.0, 0.0, 0.0, 0.0, 0.0, 0.0, 0.0, 0.0, 0.0, 1.6664083618872154E9, 0.0, 2022-10-21 20:12:41.887
219.0, -157666.74669584594, -169407.64867158516, 63383.802876925816, -60426.77884421097, 79373.6373631522, -78083.29350749178, 92097.88198445822, -128287.81494949044, -0.034, 0.9440000000000001, -0.164, 192.0, 0.0, 0.0, 0.0, 0.0, 0.0, 0.0, 0.0, 0.0, 0.0, 1.6664083618872252E9, 0.0, 2022-10-21 20:12:41.887
220.0, -157667.32784120177, -169406.35227040676, 63386.21686532699, -60431.67387624668, 79369.8822700837, -78087.16035928254, 92089.41067330966, -128290.20658614715, -0.034, 0.9440000000000001, -0.164, 192.0, 0.0, 0.0, 0.0, 0.0, 0.0, 0.0, 0.0, 0.0, 0.0, 1.6664083618872356E9, 0.0, 2022-10-21 20:12:41.887
221.0, -157667.88663481316, -169405.97229075103, 63390.016661884394, -60438.781730983465, 79370.32930497281, -78114.80946717376, 92049.6245681792, -128295.36983911632, -0.03, 0.9380000000000001, -0.168, 192.0, 255.0, 16.0, 29.0, 80.0, 250.0, 192.0, 0.0, 0.0, 0.0, 1.6664083618872452E9, 0.0, 2022-10-21 20:12:41.887
222.0, -157674.48039942747, -169413.97421526603, 63389.0108333839, -60435.518376292996, 79371.7374648735, -78116.15057184108, 92046.0259373219, -128294.36401061584, -0.03, 0.9380000000000001, -0.168, 192.0, 0.0, 0.0, 0.0, 0.0, 0.0, 0.0, 0.0, 0.0, 0.0, 1.6664083618872557E9, 0.0, 2022-10-21 20:12:41.887
223.0, -157675.2627104834, -169416.14233447818, 63384.47342925947, -60423.53784126495, 79377.10188354277, -78083.85230110315, 92090.77412972142, -128290.56421405844, -0.03, 0.9380000000000001, -0.168, 192.0, 0.0, 0.0, 0.0, 0.0, 0.0, 0.0, 0.0, 0.0, 0.0, 1.6664083618872657E9, 0.0, 2022-10-21 20:12:41.887
224.0, -157678.30254772934, -169419.42804091313, 63374.146923321125, -60436.8147774714, 79372.20685150706, -78086.84743486017, 92094.90920244566, -128303.63998456478, -0.03, 0.9380000000000001, -0.168, 192.0, 0.0, 0.0, 0.0, 0.0, 0.0, 0.0, 0.0, 0.0, 0.0, 1.666408361887276E9, 0.0, 2022-10-21 20:12:41.887
225.0, -157680.60477740824, -169421.70791884756, 63372.671708187074, -60444.90610896422, 79365.07664502581, -78121.51499051035, 92050.00454783495, -128311.61955733533, -0.03, 0.9380000000000001, -0.168, 192.0, 0.0, 0.0, 0.0, 0.0, 0.0, 0.0, 0.0, 0.0, 0.0, 1.6664083618872857E9, 0.0, 2022-10-21 20:12:41.887
226.0, -157684.82925711028, -169425.2841979604, 63370.19066455253, -60440.05578041742, 79364.20492699205, -78130.16511561455, 92034.8724168387, -128312.24540618008, -0.03, 0.9380000000000001, -0.168, 192.0, 0.0, 0.0, 0.0, 0.0, 0.0, 0.0, 0.0, 0.0, 0.0, 1.6664083618873043E9, 0.0, 2022-10-21 20:12:41.887
227.0, -157674.88273082767, -169413.95186352156, 63383.75817343691, -60417.14524235073, 79381.48282545601, -78092.4800744629, 92087.46607154203, -128292.2852983815, -0.03, 0.9380000000000001, -0.168, 192.0, 0.0, 0.0, 0.0, 0.0, 0.0, 0.0, 0.0, 0.0, 0.0, 1.666408361887314E9, 0.0, 2022-10-21 20:12:41.887
228.0, -157675.2180069945, -169415.87411354473, 63383.60171122572, -60418.19577434013, 79383.40507547917, -78077.57146091122, 92105.36981885074, -128290.2289378916, -0.03, 0.9380000000000001, -0.168, 192.0, 0.0, 0.0, 0.0, 0.0, 0.0, 0.0, 0.0, 0.0, 0.0, 1.6664083618873236E9, 0.0, 2022-10-21 20:12:41.887
229.0, -157675.37446920568, -169415.76235482245, 63382.08179260276, -60423.51548952049, 79378.77826437692, -78100.10201932216, 92064.95786487554, -128301.3824583748, -0.03, 0.9380000000000001, -0.168, 192.0, 0.0, 0.0, 0.0, 0.0, 0.0, 0.0, 0.0, 0.0, 0.0, 1.6664083618873332E9, 0.0, 2022-10-21 20:12:41.887
230.0, -157679.2636727409, -169418.9363025351, 63375.97976636646, -60427.29293433344, 79375.44785445307, -78118.02811837532, 92037.24170175096, -128307.03744972199, -0.03, 0.9380000000000001, -0.168, 192.0, 0.0, 0.0, 0.0, 0.0, 0.0, 0.0, 0.0, 0.0, 0.0, 1.6664083618873427E9, 0.0, 2022-10-21 20:12:41.887
231.0, -157679.35307971874, -169423.27254095944, 63378.326699534264, -60421.05679763041, 79378.01830506543, -78089.931975595, 92079.21827783804, -128298.4320281067, -0.028, 0.9460000000000001, -0.166, 192.0, 255.0, 32.0, 29.0, 144.0, 250.0, 208.0, 0.0, 0.0, 0.0, 1.666408361887352E9, 0.0, 2022-10-21 20:12:41.887
232.0, -157680.60477740824, -169425.6418258717, 63376.11387683319, -60424.29780057643, 79372.87740384071, -78081.95240282445, 92100.05010367038, -128301.29305139698, -0.028, 0.9460000000000001, -0.166, 192.0, 0.0, 0.0, 0.0, 0.0, 0.0, 0.0, 0.0, 0.0, 0.0, 1.6664083618873625E9, 0.0, 2022-10-21 20:12:41.887
233.0, -157685.05277455485, -169431.40857594117, 63369.07307732977, -60427.29293433344, 79371.15631951766, -78105.30997578026, 92064.91316138663, -128308.78088578951, -0.028, 0.9460000000000001, -0.166, 192.0, 0.0, 0.0, 0.0, 0.0, 0.0, 0.0, 0.0, 0.0, 0.0, 1.666408361887372E9, 0.0, 2022-10-21 20:12:41.887
234.0, -157682.0129373089, -169425.37360493824, 63366.189702295036, -60429.03637040095, 79368.80938634985, -78125.02421438984, 92032.48078018198, -128307.30567065546, -0.028, 0.9460000000000001, -0.166, 192.0, 0.0, 0.0, 0.0, 0.0, 0.0, 0.0, 0.0, 0.0, 0.0, 1.6664083618873816E9, 0.0, 2022-10-21 20:12:41.887
235.0, -157678.97310006298, -169422.7360990925, 63372.02350759787, -60418.307533062405, 79375.02317130842, -78097.59862394317, 92063.23678055248, -128296.4874263391, -0.028, 0.9460000000000001, -0.166, 192.0, 0.0, 0.0, 0.0, 0.0, 0.0, 0.0, 0.0, 0.0, 0.0, 1.666408361887391E9, 0.0, 2022-10-21 20:12:41.887
236.0, -157686.2150652665, -169429.77689859594, 63369.27424302987, -60420.542707507935, 79376.25251725347, -78073.05640853124, 92098.59724028078, -128298.1861589177, -0.028, 0.9460000000000001, -0.166, 192.0, 0.0, 0.0, 0.0, 0.0, 0.0, 0.0, 0.0, 0.0, 0.0, 1.6664083618874009E9, 0.0, 2022-10-21 20:12:41.887
237.0, -157681.58825416426, -169423.56311363736, 63373.029336098356, -60422.95669590911, 79375.82783410882, -78088.70262964995, 92073.45152776856, -128300.06370545193, -0.028, 0.9460000000000001, -0.166, 192.0, 0.0, 0.0, 0.0, 0.0, 0.0, 0.0, 0.0, 0.0, 0.0, 1.6664083618874102E9, 0.0, 2022-10-21 20:12:41.887
238.0, -157683.2199315095, -169425.01597702695, 63375.756248921905, -60422.509661020005, 79382.82393012333, -78100.0349640888, 92043.00845182044, -128299.8848914963, -0.028, 0.9460000000000001, -0.166, 192.0, 0.0, 0.0, 0.0, 0.0, 0.0, 0.0, 0.0, 0.0, 0.0, 1.66640836188742E9, 0.0, 2022-10-21 20:12:41.887
239.0, -157685.209236766, -169428.45814567307, 63369.609519196696, -60421.81675694189, 79377.92889808762, -78096.72690590941, 92055.90540837115, -128295.0345629495, -0.028, 0.9460000000000001, -0.166, 192.0, 0.0, 0.0, 0.0, 0.0, 0.0, 0.0, 0.0, 0.0, 0.0, 1.6664083618874295E9, 0.0, 2022-10-21 20:12:41.887
240.0, -157687.1091350447, -169433.01790154196, 63365.58620519474, -60419.514527262996, 79375.89488934218, -78079.33724872318, 92090.64001925469, -128298.36497287333, -0.034, 0.9440000000000001, -0.164, 192.0, 254.0, 240.0, 29.0, 128.0, 250.0, 224.0, 0.0, 0.0, 0.0, 1.6664083618874397E9, 0.0, 2022-10-21 20:12:41.887
241.0, -157685.05277455485, -169429.8439538293, 63368.558987207296, -60417.2122975841, 79381.88515685621, -78080.58894641268, 92083.97919940701, -128302.6341560643, -0.034, 0.9440000000000001, -0.164, 192.0, 0.0, 0.0, 0.0, 0.0, 0.0, 0.0, 0.0, 0.0, 0.0, 1.6664083623650668E9, 0.0, 2022-10-21 20:12:42.365
242.0, -157677.05085003984, -169422.19965722557, 63377.2091123115, -60417.547573750926, 79383.18155803462, -78102.56071121225, 92047.7246699005, -128299.46020835165, -0.034, 0.9440000000000001, -0.164, 192.0, 0.0, 0.0, 0.0, 0.0, 0.0, 0.0, 0.0, 0.0, 0.0, 1.666408362365196E9, 0.0, 2022-10-21 20:12:42.365
243.0, -157680.13539077467, -169426.24532297198, 63374.012812854395, -60412.42902427066, 79383.47213071253, -78100.4819989779, 92051.14448680216, -128299.14728392927, -0.034, 0.9440000000000001, -0.164, 192.0, 0.0, 0.0, 0.0, 0.0, 0.0, 0.0, 0.0, 0.0, 0.0, 1.6664083623652203E9, 0.0, 2022-10-21 20:12:42.365
244.0, -157686.08095479978, -169434.40370969818, 63366.56968195077, -60415.021826627475, 79380.96873533353, -78080.38778071258, 92090.48355704351, -128303.52822584251, -0.034, 0.9440000000000001, -0.164, 192.0, 0.0, 0.0, 0.0, 0.0, 0.0, 0.0, 0.0, 0.0, 0.0, 1.6664083623652384E9, 0.0, 2022-10-21 20:12:42.365
245.0, -157690.1266205462, -169437.10827077727, 63359.99826908091, -60420.31919006338, 79381.75104638947, -78079.47135918992, 92092.38345532221, -128309.33967940089, -0.034, 0.9440000000000001, -0.164, 192.0, 0.0, 0.0, 0.0, 0.0, 0.0, 0.0, 0.0, 0.0, 0.0, 1.666408362365271E9, 0.0, 2022-10-21 20:12:42.365
246.0, -157678.4590099405, -169425.57477063834, 63371.37530700867, -60413.50190800452, 79383.76270339044, -78100.90668212256, 92057.47003048302, -128303.30470839796, -0.034, 0.9440000000000001, -0.164, 192.0, 0.0, 0.0, 0.0, 0.0, 0.0, 0.0, 0.0, 0.0, 0.0, 1.6664083623653145E9, 0.0, 2022-10-21 20:12:42.365
247.0, -157675.95561456154, -169421.81967756985, 63373.0069843539, -60402.035463098946, 79383.89681385718, -78104.6841269355, 92051.0327280799, -128297.82853100641, -0.034, 0.9440000000000001, -0.164, 192.0, 0.0, 0.0, 0.0, 0.0, 0.0, 0.0, 0.0, 0.0, 0.0, 1.6664083623653555E9, 0.0, 2022-10-21 20:12:42.365
248.0, -157687.60087342275, -169431.69914861908, 63359.01479232488, -60405.656445700704, 79379.96290683305, -78086.5792139267, 92087.7342924755, -128307.19391193318, -0.034, 0.9440000000000001, -0.164, 192.0, 0.0, 0.0, 0.0, 0.0, 0.0, 0.0, 0.0, 0.0, 0.0, 1.6664083623653977E9, 0.0, 2022-10-21 20:12:42.365
249.0, -157685.38805072167, -169429.0392910289, 63365.31798426127, -60414.597143482824, 79372.92210732962, -78085.84160635968, 92099.31249610335, -128304.77992353201, -0.034, 0.9440000000000001, -0.164, 192.0, 0.0, 0.0, 0.0, 0.0, 0.0, 0.0, 0.0, 0.0, 0.0, 1.66640836236544E9, 0.0, 2022-10-21 20:12:42.365
250.0, -157676.5591116618, -169421.61851186975, 63378.21494081199, -60412.093748103835, 79375.78313061991, -78106.87459789212, 92062.78974566338, -128298.94611822917, -0.032, 0.9400000000000001, -0.168, 192.0, 255.0, 0.0, 29.0, 96.0, 250.0, 192.0, 0.0, 0.0, 0.0, 1.6664083623654735E9, 0.0, 2022-10-21 20:12:42.365
251.0, -157676.84968433974, -169420.27740720243, 63379.48899024594, -60412.56313473739, 79379.60527892176, -78105.22056880243, 92047.0317658224, -128300.3319263854, -0.032, 0.9400000000000001, -0.168, 192.0, 0.0, 0.0, 0.0, 0.0, 0.0, 0.0, 0.0, 0.0, 0.0, 1.6664083623654864E9, 0.0, 2022-10-21 20:12:42.365
252.0, -157685.70097514405, -169427.29585496138, 63369.944795363524, -60408.13748933524, 79378.44298821008, -78084.74637088137, 92080.67114122762, -128304.77992353201, -0.032, 0.9400000000000001, -0.168, 192.0, 0.0, 0.0, 0.0, 0.0, 0.0, 0.0, 0.0, 0.0, 0.0, 1.666408362365498E9, 0.0, 2022-10-21 20:12:42.365
253.0, -157687.08678330027, -169428.5922561398, 63364.60272843871, -60417.70403596212, 79370.06108403935, -78084.54520518128, 92092.62932451122, -128310.52432185702, -0.032, 0.9400000000000001, -0.168, 192.0, 0.0, 0.0, 0.0, 0.0, 0.0, 0.0, 0.0, 0.0, 0.0, 1.6664083623655095E9, 0.0, 2022-10-21 20:12:42.365
254.0, -157679.6213006522, -169425.70888110506, 63368.82720814076, -60419.82745168537, 79370.485767184, -78108.17099907053, 92057.20180954956, -128320.11322022835, -0.032, 0.9400000000000001, -0.168, 192.0, 0.0, 0.0, 0.0, 0.0, 0.0, 0.0, 0.0, 0.0, 0.0, 1.666408362365521E9, 0.0, 2022-10-21 20:12:42.365
255.0, -157682.48232394247, -169426.75941309446, 63362.09933305971, -60424.78953895444, 79368.76468286094, -78125.06891787874, 92028.07748652429, -128321.76724931804, -0.032, 0.9400000000000001, -0.168, 192.0, 0.0, 0.0, 0.0, 0.0, 0.0, 0.0, 0.0, 0.0, 0.0, 1.6664083623655329E9, 0.0, 2022-10-21 20:12:42.365
0.0, -157684.29281524336, -169426.51354390546, 63365.340336005735, -60413.345445793326, 79374.19615676357, -78096.07870532021, 92064.5778852198, -128307.95387124467, -0.032, 0.9400000000000001, -0.168, 192.0, 0.0, 0.0, 0.0, 0.0, 0.0, 0.0, 0.0, 0.0, 0.0, 1.6664083623656166E9, 0.0, 2022-10-21 20:12:42.365
1.0, -157692.5182572029, -169436.996512055, 63358.344239991224, -60419.53687900745, 79370.0387322949, -78086.91449009354, 92089.41067330966, -128311.39603989078, -0.032, 0.9400000000000001, -0.168, 192.0, 0.0, 0.0, 0.0, 0.0, 0.0, 0.0, 0.0, 0.0, 0.0, 1.666408362365628E9, 0.0, 2022-10-21 20:12:42.365
2.0, -157690.14897229066, -169433.01790154196, 63356.69021090153, -60419.71569296309, 79370.61987765072, -78107.85807464816, 92062.00743460744, -128311.84307477988, -0.032, 0.9400000000000001, -0.168, 192.0, 0.0, 0.0, 0.0, 0.0, 0.0, 0.0, 0.0, 0.0, 0.0, 1.6664083623656397E9, 0.0, 2022-10-21 20:12:42.365
3.0, -157686.99737632246, -169429.15104975118, 63359.14890279161, -60419.38041679626, 79372.54212767388, -78120.82208643224, 92028.99390804696, -128307.70800205566, -0.032, 0.9400000000000001, -0.168, 192.0, 0.0, 0.0, 0.0, 0.0, 0.0, 0.0, 0.0, 0.0, 0.0, 1.666408362365652E9, 0.0, 2022-10-21 20:12:42.365
4.0, -157690.14897229066, -169430.06747127385, 63357.204301024, -60412.58548648185, 79377.77243587642, -78095.36344949764, 92060.15223981766, -128300.89071999678, -0.032, 0.9440000000000001, -0.166, 192.0, 255.0, 0.0, 29.0, 128.0, 250.0, 208.0, 0.0, 0.0, 0.0, 1.6664083623656633E9, 0.0, 2022-10-21 20:12:42.365
5.0, -157702.19656255204, -169442.07035804636, 63342.98859155043, -60422.88964067574, 79365.52367991491, -78086.64626916008, 92087.42136805312, -128313.16182770274, -0.032, 0.9440000000000001, -0.166, 192.0, 0.0, 0.0, 0.0, 0.0, 0.0, 0.0, 0.0, 0.0, 0.0, 1.6664083623656757E9, 0.0, 2022-10-21 20:12:42.365
6.0, -157697.4132892386, -169439.07522428935, 63344.88848982913, -60425.52714652147, 79359.80163333435, -78105.04175484678, 92062.43211775209, -128314.36882190334, -0.032, 0.9440000000000001, -0.166, 192.0, 0.0, 0.0, 0.0, 0.0, 0.0, 0.0, 0.0, 0.0, 0.0, 1.6664083623656945E9, 0.0, 2022-10-21 20:12:42.365
7.0, -157691.60183568022, -169435.9459800656, 63353.49391144442, -60422.04027438644, 79368.20588924956, -78117.69284220849, 92032.41372494862, -128309.45143812317, -0.032, 0.9440000000000001, -0.166, 192.0, 0.0, 0.0, 0.0, 0.0, 0.0, 0.0, 0.0, 0.0, 0.0, 1.6664083623657067E9, 0.0, 2022-10-21 20:12:42.365
