%OpenBCI Raw EEG Data
%Number of channels = 8
%Sample Rate = 250 Hz
%Board = OpenBCI_GUI$BoardCytonSerial
Sample Index, EXG Channel 0, EXG Channel 1, EXG Channel 2, EXG Channel 3, EXG Channel 4, EXG Channel 5, EXG Channel 6, EXG Channel 7, Accel Channel 0, Accel Channel 1, Accel Channel 2, Other, Other, Other, Other, Other, Other, Other, Analog Channel 0, Analog Channel 1, Analog Channel 2, Timestamp, Other, Timestamp (Formatted)
199.0, -145652.46053367385, -156696.79274520787, 51240.23422482422, -86559.09735668867, 71778.4922454944, -75276.00381088303, 85444.59467465815, -127917.692413055, 0.0, 0.0, 0.0, 192.0, 0.0, 0.0, 0.0, 0.0, 0.0, 0.0, 0.0, 0.0, 0.0, 1.666407879326142E9, 0.0, 2022-10-21 20:04:39.326
200.0, -145657.04264128717, -156696.99391090797, 51242.55880624757, -86551.8330397407, 71779.63218446162, -75271.10877884731, 85460.06208182122, -127911.29981414079, 0.0, 0.0, 0.0, 192.0, 0.0, 0.0, 0.0, 0.0, 0.0, 0.0, 0.0, 0.0, 0.0, 1.6664078793261743E9, 0.0, 2022-10-21 20:04:39.326
201.0, -145664.55282742417, -156704.41469006715, 51240.45774226877, -86554.87287698661, 71776.5476437268, -75250.90280185972, 85488.91818391302, -127913.80320951979, 0.0, 0.0, 0.0, 192.0, 0.0, 0.0, 0.0, 0.0, 0.0, 0.0, 0.0, 0.0, 0.0, 1.6664078793261943E9, 0.0, 2022-10-21 20:04:39.326
202.0, -145664.3740134685, -156703.36415807775, 51246.31389931606, -86553.5317723193, 71782.35909728517, -75250.14284254824, 85483.88904141057, -127908.34938387269, 0.0, 0.0, 0.0, 192.0, 0.0, 0.0, 0.0, 0.0, 0.0, 0.0, 0.0, 0.0, 0.0, 1.6664078793262131E9, 0.0, 2022-10-21 20:04:39.326
203.0, -145657.5790831541, -156696.30100682986, 51252.9970709082, -86555.49872583136, 71783.87901590813, -75274.75211319354, 85456.19523003045, -127900.61568029114, 0.0, 0.0, 0.0, 192.0, 0.0, 0.0, 0.0, 0.0, 0.0, 0.0, 0.0, 0.0, 0.0, 1.666407879326232E9, 0.0, 2022-10-21 20:04:39.326
204.0, -145663.79286811268, -156702.09010864378, 51247.677355727836, -86553.04003394127, 71780.86153040666, -75283.268127831, 85456.93283759747, -127903.9907937039, 0.024, 0.962, -0.106, 192.0, 0.0, 192.0, 30.0, 16.0, 252.0, 176.0, 0.0, 0.0, 0.0, 1.666407879326251E9, 0.0, 2022-10-21 20:04:39.326
205.0, -145667.0338710587, -156707.32041684634, 51244.5481115041, -86556.14692642057, 71777.6428792051, -75264.26914504399, 85486.01245713382, -127906.49418908289, 0.024, 0.962, -0.106, 192.0, 0.0, 0.0, 0.0, 0.0, 0.0, 0.0, 0.0, 0.0, 0.0, 1.6664078793262837E9, 0.0, 2022-10-21 20:04:39.326
206.0, -145679.6402549315, -156718.7868617519, 51236.12150384444, -86569.89324926058, 71769.77506515683, -75269.72297069109, 85472.91433488303, -127919.16762818905, 0.024, 0.962, -0.106, 192.0, 0.0, 0.0, 0.0, 0.0, 0.0, 0.0, 0.0, 0.0, 0.0, 1.666407879326304E9, 0.0, 2022-10-21 20:04:39.326
207.0, -145679.97553109832, -156719.27860012994, 51241.15064634689, -86577.22462144193, 71774.37952451462, -75282.64227898626, 85446.42751770349, -127917.08891595471, 0.024, 0.962, -0.106, 192.0, 0.0, 0.0, 0.0, 0.0, 0.0, 0.0, 0.0, 0.0, 0.0, 1.666407879326324E9, 0.0, 2022-10-21 20:04:39.326
208.0, -145680.42256598742, -156719.07743442984, 51245.308070815576, -86570.69791206098, 71779.90040539508, -75286.66559298821, 85448.66269214901, -127906.69535478299, 0.024, 0.962, -0.106, 192.0, 0.0, 0.0, 0.0, 0.0, 0.0, 0.0, 0.0, 0.0, 0.0, 1.6664078793263435E9, 0.0, 2022-10-21 20:04:39.326
209.0, -145693.72185393833, -156730.56623107987, 51231.65115495338, -86567.27809515932, 71773.6419169476, -75265.23027005557, 85475.06010235073, -127915.65840430956, 0.024, 0.962, -0.106, 192.0, 0.0, 0.0, 0.0, 0.0, 0.0, 0.0, 0.0, 0.0, 0.0, 1.6664078793263636E9, 0.0, 2022-10-21 20:04:39.326
210.0, -145695.93467663942, -156731.08032120232, 51228.387800262906, -86575.16826095204, 71769.59625120119, -75256.44603448463, 85476.04357910676, -127920.30756715627, 0.024, 0.962, -0.106, 192.0, 0.0, 0.0, 0.0, 0.0, 0.0, 0.0, 0.0, 0.0, 0.0, 1.6664078793263826E9, 0.0, 2022-10-21 20:04:39.326
211.0, -145694.52651673873, -156726.27469614445, 51235.76387593316, -86581.62791509961, 71772.3455157692, -75281.54704350795, 85448.12625028209, -127918.56413108876, 0.024, 0.962, -0.106, 192.0, 0.0, 0.0, 0.0, 0.0, 0.0, 0.0, 0.0, 0.0, 0.0, 1.6664078793264024E9, 0.0, 2022-10-21 20:04:39.326
212.0, -145698.6392377185, -156729.493347346, 51236.635593966916, -86570.94378124998, 71780.3474402842, -75287.8725871888, 85446.78514561476, -127916.7983432768, 0.024, 0.962, -0.106, 192.0, 0.0, 0.0, 0.0, 0.0, 0.0, 0.0, 0.0, 0.0, 0.0, 1.666407879326422E9, 0.0, 2022-10-21 20:04:39.326
213.0, -145698.12514759603, -156732.95786773658, 51234.735695688214, -86559.61144681113, 71780.81682691775, -75261.69869443163, 85478.23405006339, -127915.03255546482, 0.014, 0.96, -0.10400000000000001, 192.0, 0.0, 112.0, 30.0, 0.0, 252.0, 192.0, 0.0, 0.0, 0.0, 1.666407879326441E9, 0.0, 2022-10-21 20:04:39.326
214.0, -145703.8918976655, -156740.53510910692, 51229.10305608548, -86571.63668532809, 71770.06563783475, -75257.09423507383, 85484.00080013285, -127919.63701482261, 0.014, 0.96, -0.10400000000000001, 192.0, 0.0, 0.0, 0.0, 0.0, 0.0, 0.0, 0.0, 0.0, 0.0, 1.6664078793264623E9, 0.0, 2022-10-21 20:04:39.326
215.0, -145709.52453726824, -156748.000591755, 51230.01947760815, -86577.00110399736, 71767.62929768913, -75285.72681972108, 85454.76471838531, -127923.25799742437, 0.014, 0.96, -0.10400000000000001, 192.0, 0.0, 0.0, 0.0, 0.0, 0.0, 0.0, 0.0, 0.0, 0.0, 1.6664078793266416E9, 0.0, 2022-10-21 20:04:39.326
216.0, -145709.61394424606, -156744.6031265978, 51236.41207652236, -86568.68625505999, 71776.48058849342, -75292.92408143569, 85445.35463396963, -127915.32312814274, 0.014, 0.96, -0.10400000000000001, 192.0, 0.0, 0.0, 0.0, 0.0, 0.0, 0.0, 0.0, 0.0, 0.0, 1.6664078793266628E9, 0.0, 2022-10-21 20:04:39.326
217.0, -145715.87243269355, -156749.63226910023, 51232.18759682031, -86564.17120268002, 71776.88291989361, -75274.03685737096, 85471.79674766025, -127914.71963104245, 0.014, 0.96, -0.10400000000000001, 192.0, 0.0, 0.0, 0.0, 0.0, 0.0, 0.0, 0.0, 0.0, 0.0, 1.6664078793266733E9, 0.0, 2022-10-21 20:04:39.326
218.0, -145717.36999957205, -156752.761513324, 51231.65115495338, -86563.50065034637, 71775.56416697075, -75254.18850829465, 85490.61691649162, -127911.52333158534, 0.014, 0.96, -0.10400000000000001, 192.0, 0.0, 0.0, 0.0, 0.0, 0.0, 0.0, 0.0, 0.0, 0.0, 1.6664078793266826E9, 0.0, 2022-10-21 20:04:39.326
219.0, -145715.0454181487, -156752.5603476239, 51237.32849804503, -86570.00500798285, 71775.43005650402, -75275.78029343848, 85465.27003827931, -127908.28232863931, 0.014, 0.96, -0.10400000000000001, 192.0, 0.0, 0.0, 0.0, 0.0, 0.0, 0.0, 0.0, 0.0, 0.0, 1.666407879326692E9, 0.0, 2022-10-21 20:04:39.326
220.0, -145726.6012700321, -156760.2046442276, 51228.879538640926, -86583.41605465605, 71772.43492274701, -75302.71414550713, 85437.17389549899, -127923.21329393546, 0.014, 0.96, -0.10400000000000001, 192.0, 0.0, 0.0, 0.0, 0.0, 0.0, 0.0, 0.0, 0.0, 0.0, 1.6664078793267012E9, 0.0, 2022-10-21 20:04:39.326
221.0, -145728.00942993278, -156757.83535931533, 51230.37710551943, -86571.01083648334, 71774.22306230344, -75283.96103190912, 85463.52660221179, -127908.79641876179, 0.014, 0.96, -0.10400000000000001, 192.0, 0.0, 0.0, 0.0, 0.0, 0.0, 0.0, 0.0, 0.0, 0.0, 1.6664078793267128E9, 0.0, 2022-10-21 20:04:39.326
222.0, -145731.71981951236, -156761.54574889492, 51224.409189749866, -86575.16826095204, 71768.00927734486, -75258.86002288581, 85488.06881762372, -127904.41547684855, 0.014, 0.96, -0.10400000000000001, 192.0, 0.0, 0.0, 0.0, 0.0, 0.0, 0.0, 0.0, 0.0, 0.0, 1.666407879326722E9, 0.0, 2022-10-21 20:04:39.326
223.0, -145743.2086161624, -156774.5544641679, 51215.244974523186, -86587.90875529156, 71758.46508246244, -75274.12626434879, 85463.16897430051, -127917.8488752662, 0.014, 0.96, -0.10400000000000001, 192.0, 0.0, 0.0, 30.0, 0.0, 252.0, 192.0, 0.0, 0.0, 0.0, 1.6664078793267312E9, 0.0, 2022-10-21 20:04:39.326
224.0, -145731.56335730117, -156761.47869366154, 51226.8902333844, -86575.65999933005, 71774.75950417036, -75287.60436625533, 85445.75696536982, -127911.90331124108, 0.014, 0.96, -0.10400000000000001, 192.0, 0.0, 0.0, 0.0, 0.0, 0.0, 0.0, 0.0, 0.0, 0.0, 1.6664078793267407E9, 0.0, 2022-10-21 20:04:39.326
225.0, -145739.60998530508, -156770.19587399912, 51217.346038501986, -86576.91169701955, 71769.4844924789, -75284.38571505377, 85454.56355268521, -127919.61466307816, 0.014, 0.96, -0.10400000000000001, 192.0, 0.0, 0.0, 0.0, 0.0, 0.0, 0.0, 0.0, 0.0, 0.0, 1.66640787932675E9, 0.0, 2022-10-21 20:04:39.326
226.0, -145738.8053225047, -156771.04524028843, 51220.43057923682, -86566.98752248139, 71770.57972795721, -75256.37897925127, 85488.29233506827, -127911.65744205206, 0.014, 0.96, -0.10400000000000001, 192.0, 0.0, 0.0, 0.0, 0.0, 0.0, 0.0, 0.0, 0.0, 0.0, 1.6664078793267593E9, 0.0, 2022-10-21 20:04:39.326
227.0, -145735.47491258086, -156764.250309974, 51224.23037579422, -86578.90100227606, 71769.32803026773, -75263.50918573252, 85477.60820121864, -127910.91983448504, 0.014, 0.96, -0.10400000000000001, 192.0, 0.0, 0.0, 0.0, 0.0, 0.0, 0.0, 0.0, 0.0, 0.0, 1.6664078793267684E9, 0.0, 2022-10-21 20:04:39.326
228.0, -145729.73051425585, -156756.49425464802, 51227.4937304847, -86588.75812158086, 71769.77506515683, -75287.40320055523, 85448.86385784911, -127902.85085473668, 0.014, 0.96, -0.10400000000000001, 192.0, 0.0, 0.0, 0.0, 0.0, 0.0, 0.0, 0.0, 0.0, 0.0, 1.6664078793267782E9, 0.0, 2022-10-21 20:04:39.326
229.0, -145730.4010665895, -156754.5049493915, 51231.092361342, -86573.67069407353, 71779.85570190617, -75284.85510168732, 85460.08443356567, -127901.2862326248, 0.014, 0.96, -0.10400000000000001, 192.0, 0.0, 0.0, 0.0, 0.0, 0.0, 0.0, 0.0, 0.0, 0.0, 1.6664078793267872E9, 0.0, 2022-10-21 20:04:39.326
230.0, -145739.11824692707, -156762.68568786213, 51220.38587574791, -86569.91560100504, 71774.64774544809, -75267.39838926774, 85484.49253851087, -127917.40184037708, 0.014, 0.96, -0.10400000000000001, 192.0, 0.0, 0.0, 0.0, 0.0, 0.0, 0.0, 0.0, 0.0, 0.0, 1.666407879326831E9, 0.0, 2022-10-21 20:04:39.326
231.0, -145750.18236043243, -156773.5039321785, 51202.45977669475, -86586.3441331797, 71762.71191390895, -75267.24192705654, 85474.7248261839, -127928.84593353819, 0.014, 0.96, -0.10400000000000001, 192.0, 0.0, 0.0, 0.0, 0.0, 0.0, 0.0, 0.0, 0.0, 0.0, 1.6664078793268404E9, 0.0, 2022-10-21 20:04:39.326
232.0, -145741.3087178837, -156764.38442044074, 51209.54527968708, -86590.21098497046, 71765.59528894369, -75283.20107259764, 85451.25549450582, -127916.91010199906, 0.014, 0.96, -0.10400000000000001, 192.0, 0.0, 0.0, 0.0, 0.0, 0.0, 0.0, 0.0, 0.0, 0.0, 1.6664078793268497E9, 0.0, 2022-10-21 20:04:39.326
233.0, -145739.38646786052, -156763.11037100677, 51215.78141639011, -86594.1895954835, 71766.44465523299, -75298.13203789378, 85447.61216015961, -127912.52916008582, -0.008, 0.9480000000000001, -0.1, 192.0, 255.0, 192.0, 29.0, 160.0, 252.0, 224.0, 0.0, 0.0, 0.0, 1.6664078793268592E9, 0.0, 2022-10-21 20:04:39.326
234.0, -145743.3427266291, -156765.34554545232, 51217.99423909119, -86582.25376394436, 71771.07146633524, -75268.85125265733, 85481.09507335366, -127901.86737798064, -0.008, 0.9480000000000001, -0.1, 192.0, 0.0, 0.0, 0.0, 0.0, 0.0, 0.0, 0.0, 0.0, 0.0, 1.66640787932687E9, 0.0, 2022-10-21 20:04:39.326
235.0, -145743.4097818625, -156758.3494494378, 51220.36352400345, -86579.437444143, 71771.7420186689, -75257.31775251839, 85487.91235541253, -127908.75171527288, -0.008, 0.9480000000000001, -0.1, 192.0, 0.0, 0.0, 0.0, 0.0, 0.0, 0.0, 0.0, 0.0, 0.0, 1.6664078793268793E9, 0.0, 2022-10-21 20:04:39.326
236.0, -145730.31165961167, -156743.97727775303, 51232.299355542586, -86575.72705456341, 71778.13461758311, -75279.53538650696, 85463.79482314526, -127903.65551753707, -0.008, 0.9480000000000001, -0.1, 192.0, 0.0, 0.0, 0.0, 0.0, 0.0, 0.0, 0.0, 0.0, 0.0, 1.6664078793268883E9, 0.0, 2022-10-21 20:04:39.326
237.0, -145732.8374067351, -156747.4417981436, 51227.78430316262, -86580.24210694339, 71777.68758269401, -75296.88034020428, 85450.13790728306, -127908.4387908505, -0.008, 0.9480000000000001, -0.1, 192.0, 0.0, 0.0, 0.0, 0.0, 0.0, 0.0, 0.0, 0.0, 0.0, 1.6664078793268976E9, 0.0, 2022-10-21 20:04:39.326
238.0, -145733.61971779107, -156749.9451935226, 51229.66184969686, -86571.01083648334, 71779.56512922826, -75270.2147090691, 85484.0231518773, -127901.64386053609, -0.008, 0.9480000000000001, -0.1, 192.0, 0.0, 0.0, 0.0, 0.0, 0.0, 0.0, 0.0, 0.0, 0.0, 1.6664078793269067E9, 0.0, 2022-10-21 20:04:39.326
239.0, -145737.17364515946, -156753.16384472416, 51230.064181097056, -86579.10216797616, 71777.06173384926, -75251.55100244892, 85500.78696021879, -127901.80032274728, -0.008, 0.9480000000000001, -0.1, 192.0, 0.0, 0.0, 0.0, 0.0, 0.0, 0.0, 0.0, 0.0, 0.0, 1.6664078793269165E9, 0.0, 2022-10-21 20:04:39.326
240.0, -145742.11338068408, -156758.72942909354, 51221.525814715125, -86594.61427862816, 71770.64678319059, -75276.5179010055, 85469.69568368145, -127905.75658151587, -0.008, 0.9480000000000001, -0.1, 192.0, 0.0, 0.0, 0.0, 0.0, 0.0, 0.0, 0.0, 0.0, 0.0, 1.6664078793269255E9, 0.0, 2022-10-21 20:04:39.326
241.0, -145728.67998226645, -156745.31838242034, 51232.05348635358, -86594.90485130607, 71777.66523094955, -75284.9221569207, 85457.93866609797, -127896.92764245602, -0.008, 0.9480000000000001, -0.1, 192.0, 0.0, 0.0, 0.0, 0.0, 0.0, 0.0, 0.0, 0.0, 0.0, 1.6664078793269348E9, 0.0, 2022-10-21 20:04:39.326
242.0, -145730.13284565601, -156742.502062619, 51237.57436723404, -86574.65417082956, 71788.97521364393, -75262.65981944322, 85486.66065772304, -127893.79839823228, -0.01, 0.9560000000000001, -0.1, 192.0, 255.0, 176.0, 29.0, 224.0, 252.0, 224.0, 0.0, 0.0, 0.0, 1.6664078793269448E9, 0.0, 2022-10-21 20:04:39.326
243.0, -145735.139636414, -156745.16192020918, 51233.32753578753, -86580.5326796213, 71784.72838219743, -75251.70746466011, 85499.84818695167, -127899.96747970194, -0.01, 0.9560000000000001, -0.1, 192.0, 0.0, 0.0, 0.0, 0.0, 0.0, 0.0, 0.0, 0.0, 0.0, 1.6664078793269553E9, 0.0, 2022-10-21 20:04:39.326
244.0, -145735.16198815848, -156748.22410919954, 51225.6385356949, -86608.2935462348, 71770.7361901684, -75276.36143879431, 85467.84048889167, -127913.26676765285, -0.01, 0.9560000000000001, -0.1, 192.0, 0.0, 0.0, 0.0, 0.0, 0.0, 0.0, 0.0, 0.0, 0.0, 1.6664078793269644E9, 0.0, 2022-10-21 20:04:39.326
245.0, -145728.41176133297, -156740.53510910692, 51232.54522473159, -86602.50444442088, 71781.15210308458, -75284.56452900941, 85452.93187533997, -127906.27067163834, -0.01, 0.9560000000000001, -0.1, 192.0, 0.0, 0.0, 0.0, 0.0, 0.0, 0.0, 0.0, 0.0, 0.0, 1.6664078793269837E9, 0.0, 2022-10-21 20:04:39.326
246.0, -145728.7470374998, -156739.1045974618, 51232.58992822051, -86587.79699656928, 71784.9966031309, -75275.55677599391, 85469.80744240373, -127900.74979075788, -0.01, 0.9560000000000001, -0.1, 192.0, 0.0, 0.0, 0.0, 0.0, 0.0, 0.0, 0.0, 0.0, 0.0, 1.6664078793269928E9, 0.0, 2022-10-21 20:04:39.326
247.0, -145726.2883456097, -156742.63617308572, 51224.744465916694, -86595.82127282873, 71777.01703036035, -75260.55875546442, 85486.95123040095, -127907.20944490546, -0.01, 0.9560000000000001, -0.1, 192.0, 0.0, 0.0, 0.0, 0.0, 0.0, 0.0, 0.0, 0.0, 0.0, 1.6664078793270016E9, 0.0, 2022-10-21 20:04:39.327
248.0, -145725.57308978715, -156740.26688817347, 51226.80082640658, -86602.50444442088, 71778.02285886084, -75262.50335723202, 85476.8258901627, -127899.60985179066, -0.01, 0.9560000000000001, -0.1, 192.0, 0.0, 0.0, 0.0, 0.0, 0.0, 0.0, 0.0, 0.0, 0.0, 1.6664078793270109E9, 0.0, 2022-10-21 20:04:39.327
249.0, -145724.23198511984, -156733.87428925923, 51228.70072468528, -86603.59967989918, 71783.58844323021, -75289.99600291206, 85450.18261077197, -127904.37077335964, -0.01, 0.9560000000000001, -0.1, 192.0, 0.0, 0.0, 0.0, 0.0, 0.0, 0.0, 0.0, 0.0, 0.0, 1.6664078793270197E9, 0.0, 2022-10-21 20:04:39.327
250.0, -145718.4428833059, -156731.72852179152, 51228.5442624741, -86595.0389617728, 71787.41059153207, -75283.89397667575, 85463.12427081159, -127900.21334889095, -0.01, 0.9560000000000001, -0.1, 192.0, 0.0, 0.0, 0.0, 0.0, 0.0, 0.0, 0.0, 0.0, 0.0, 1.6664078793270364E9, 0.0, 2022-10-21 20:04:39.327
251.0, -145720.76746472926, -156731.90733574718, 51225.07974208352, -86586.1429674796, 71789.57871074423, -75256.55779320691, 85495.19902410496, -127901.24152913589, -0.01, 0.9560000000000001, -0.1, 192.0, 0.0, 0.0, 0.0, 0.0, 0.0, 0.0, 0.0, 0.0, 0.0, 1.6664078793270772E9, 0.0, 2022-10-21 20:04:39.327
252.0, -145722.62265951905, -156730.85680375778, 51219.33534375851, -86597.05061877378, 71787.27648106533, -75260.26818278649, 85484.44783502196, -127909.17639841753, -0.01, 0.9580000000000001, -0.098, 192.0, 255.0, 176.0, 29.0, 240.0, 252.0, 240.0, 0.0, 0.0, 0.0, 1.666407879327118E9, 0.0, 2022-10-21 20:04:39.327
253.0, -145710.70917972436, -156717.66927452915, 51227.51608222915, -86592.20029022697, 71794.58550150222, -75282.28465107497, 85456.8210788752, -127902.26970938084, -0.01, 0.9580000000000001, -0.098, 192.0, 0.0, 0.0, 0.0, 0.0, 0.0, 0.0, 0.0, 0.0, 0.0, 1.6664078793271616E9, 0.0, 2022-10-21 20:04:39.327
254.0, -145696.76169118425, -156709.51088780296, 51234.55688173257, -86582.16435696655, 71798.11707712615, -75283.13401736427, 85463.83952663417, -127893.57488078772, -0.01, 0.9580000000000001, -0.098, 192.0, 0.0, 0.0, 0.0, 0.0, 0.0, 0.0, 0.0, 0.0, 0.0, 1.666407879327203E9, 0.0, 2022-10-21 20:04:39.327
255.0, -145706.48470002232, -156719.56917280785, 51224.051561838576, -86576.44231038599, 71795.72544046944, -75258.50239497452, 85493.70145722646, -127896.25709012237, -0.01, 0.9580000000000001, -0.098, 192.0, 0.0, 0.0, 0.0, 0.0, 0.0, 0.0, 0.0, 0.0, 0.0, 1.6664078793272443E9, 0.0, 2022-10-21 20:04:39.327
0.0, -145722.42149381895, -156733.56136483687, 51208.09241629749, -86598.16820599654, 71782.20263507398, -75262.65981944322, 85484.80546293325, -127915.70310779847, -0.01, 0.9580000000000001, -0.098, 192.0, 0.0, 0.0, 0.0, 0.0, 0.0, 0.0, 0.0, 0.0, 0.0, 1.666407879327296E9, 0.0, 2022-10-21 20:04:39.327
1.0, -145728.21059563287, -156729.7839200239, 51207.57832617502, -86608.1370840236, 71779.43101876152, -75285.3244883209, 85451.03197706127, -127915.9936804764, -0.01, 0.9580000000000001, -0.098, 192.0, 0.0, 0.0, 0.0, 0.0, 0.0, 0.0, 0.0, 0.0, 0.0, 1.6664078793273058E9, 0.0, 2022-10-21 20:04:39.327
2.0, -145724.36609558656, -156725.06770194386, 51212.875689610926, -86598.70464786347, 71785.95772814247, -75293.54993028044, 85448.08154679317, -127908.55054957278, -0.01, 0.9580000000000001, -0.098, 192.0, 0.0, 0.0, 0.0, 0.0, 0.0, 0.0, 0.0, 0.0, 0.0, 1.6664078793273158E9, 0.0, 2022-10-21 20:04:39.327
3.0, -145711.55854601366, -156715.97054195055, 51219.782378647615, -86577.11286271964, 71795.97130965845, -75264.7161799331, 85486.3253815562, -127895.98886918889, -0.01, 0.9580000000000001, -0.098, 192.0, 0.0, 0.0, 0.0, 0.0, 0.0, 0.0, 0.0, 0.0, 0.0, 1.666407879327326E9, 0.0, 2022-10-21 20:04:39.327
4.0, -145703.4448627764, -156709.39912908067, 51222.39753274889, -86575.77175805233, 71798.05002189279, -75254.72495016157, 85494.68493398248, -127892.88197670961, -0.01, 0.9580000000000001, -0.098, 192.0, 0.0, 0.0, 0.0, 0.0, 0.0, 0.0, 0.0, 0.0, 0.0, 1.666407879327358E9, 0.0, 2022-10-21 20:04:39.327
5.0, -145700.76265344175, -156707.07454765734, 51225.70559092827, -86581.5832116107, 71798.60881550418, -75269.65591545773, 85471.19325055997, -127889.90919469706, -0.01, 0.9580000000000001, -0.098, 192.0, 0.0, 0.0, 0.0, 0.0, 0.0, 0.0, 0.0, 0.0, 0.0, 1.6664078793273678E9, 0.0, 2022-10-21 20:04:39.327
6.0, -145692.60426671556, -156695.69750972957, 51236.85911141147, -86567.21103992594, 71813.47272556696, -75273.67922945968, 85468.35457901414, -127891.67498250902, -0.01, 0.9500000000000001, -0.096, 192.0, 255.0, 176.0, 29.0, 176.0, 253.0, 0.0, 0.0, 0.0, 0.0, 1.6664078793273778E9, 0.0, 2022-10-21 20:04:39.327
7.0, -145689.51972598073, -156694.71403297354, 51237.64142246741, -86548.63674028359, 71816.42315583506, -75254.99317109503, 85498.57413751772, -127886.15410162856, -0.01, 0.9500000000000001, -0.096, 192.0, 0.0, 0.0, 0.0, 0.0, 0.0, 0.0, 0.0, 0.0, 0.0, 1.6664078793273895E9, 0.0, 2022-10-21 20:04:39.327
8.0, -145694.72768243882, -156702.89477144417, 51227.00199210668, -86567.52396434832, 71804.86730395166, -75244.37609247876, 85507.73835274439, -127895.00539243287, -0.01, 0.9500000000000001, -0.096, 192.0, 0.0, 0.0, 0.0, 0.0, 0.0, 0.0, 0.0, 0.0, 0.0, 1.666407879327399E9, 0.0, 2022-10-21 20:04:39.327
9.0, -145688.31273178014, -156697.53035277492, 51231.181768319824, -86577.7834150533, 71805.35904232968, -75263.59859271033, 85481.98914313187, -127896.41355233354, -0.01, 0.9500000000000001, -0.096, 192.0, 0.0, 0.0, 0.0, 0.0, 0.0, 0.0, 0.0, 0.0, 0.0, 1.6664078793274083E9, 0.0, 2022-10-21 20:04:39.327
10.0, -145690.32438878113, -156696.1892481076, 51233.30518404308, -86579.19157495399, 71807.28129235284, -75281.5246917635, 85463.48189872288, -127893.41841857653, -0.01, 0.9500000000000001, -0.096, 192.0, 0.0, 0.0, 0.0, 0.0, 0.0, 0.0, 0.0, 0.0, 0.0, 1.666407879327418E9, 0.0, 2022-10-21 20:04:39.327
11.0, -145684.4458799894, -156694.04348063987, 51236.52383524464, -86567.36750213713, 71805.96253942997, -75268.9630113796, 85483.7772826883, -127889.90919469706, -0.01, 0.9500000000000001, -0.096, 192.0, 0.0, 0.0, 0.0, 0.0, 0.0, 0.0, 0.0, 0.0, 0.0, 1.666407879327428E9, 0.0, 2022-10-21 20:04:39.327
12.0, -145699.77917668573, -156705.53227728992, 51223.783340905116, -86567.27809515932, 71796.46304803647, -75261.43047349817, 85495.26607933833, -127901.64386053609, -0.01, 0.9500000000000001, -0.096, 192.0, 0.0, 0.0, 0.0, 0.0, 0.0, 0.0, 0.0, 0.0, 0.0, 1.6664078793274379E9, 0.0, 2022-10-21 20:04:39.327
13.0, -145698.72864469633, -156702.44773655507, 51225.48207348372, -86571.70374056145, 71796.26188233637, -75264.38090376627, 85482.68204721, -127898.89459596809, -0.01, 0.9500000000000001, -0.096, 192.0, 0.0, 0.0, 0.0, 0.0, 0.0, 0.0, 0.0, 0.0, 0.0, 1.6664078793274477E9, 0.0, 2022-10-21 20:04:39.327
14.0, -145681.4283944879, -156688.76846894843, 51241.48592251372, -86570.27322891633, 71811.12579239915, -75264.29149678844, 85475.48478549538, -127880.87908993711, -0.01, 0.9500000000000001, -0.096, 192.0, 0.0, 0.0, 0.0, 0.0, 0.0, 0.0, 0.0, 0.0, 0.0, 1.6664078793274572E9, 0.0, 2022-10-21 20:04:39.327
15.0, -145687.5974759576, -156694.71403297354, 51236.32266954454, -86561.06431020073, 71810.2540743654, -75259.82114789738, 85486.01245713382, -127884.1871481165, -0.01, 0.9500000000000001, -0.096, 192.0, 0.0, 0.0, 0.0, 0.0, 0.0, 0.0, 0.0, 0.0, 0.0, 1.6664078793274667E9, 0.0, 2022-10-21 20:04:39.327
16.0, -145693.45363300486, -156699.18438186462, 51229.28187004112, -86566.47343235892, 71801.2910248388, -75247.50533670251, 85501.27869859681, -127896.94999420048, -0.008, 0.9540000000000001, -0.094, 192.0, 255.0, 192.0, 29.0, 208.0, 253.0, 16.0, 0.0, 0.0, 0.0, 1.6664078793274765E9, 0.0, 2022-10-21 20:04:39.327
17.0, -145687.10573757955, -156693.0376521394, 51236.12150384444, -86571.32376090573, 71801.17926611654, -75247.72885414706, 85493.76851245982, -127893.53017729882, -0.008, 0.9540000000000001, -0.094, 192.0, 0.0, 0.0, 0.0, 0.0, 0.0, 0.0, 0.0, 0.0, 0.0, 1.6664078793274872E9, 0.0, 2022-10-21 20:04:39.327
18.0, -145682.3448160106, -156693.90937017315, 51234.69099219931, -86574.36359815164, 71798.58646375973, -75280.00477314052, 85461.51494521082, -127901.95678495847, -0.008, 0.9540000000000001, -0.094, 192.0, 0.0, 0.0, 0.0, 0.0, 0.0, 0.0, 0.0, 0.0, 0.0, 1.666407879327497E9, 0.0, 2022-10-21 20:04:39.327
19.0, -145683.14947881098, -156695.60810275175, 51232.12054158694, -86554.04586244177, 71805.82842896324, -75277.14374985025, 85469.56157321473, -127903.9907937039, -0.008, 0.9540000000000001, -0.094, 192.0, 0.0, 0.0, 0.0, 0.0, 0.0, 0.0, 0.0, 0.0, 0.0, 1.6664078793275163E9, 0.0, 2022-10-21 20:04:39.327
20.0, -145684.11060382254, -156704.21352436705, 51222.75516066017, -86569.66973181603, 71790.47278052244, -75263.15155782123, 85487.59943099016, -127913.31147114176, -0.008, 0.9540000000000001, -0.094, 192.0, 0.0, 0.0, 0.0, 0.0, 0.0, 0.0, 0.0, 0.0, 0.0, 1.6664078793275268E9, 0.0, 2022-10-21 20:04:39.327
21.0, -145679.26027527574, -156703.54297203338, 51221.03407633711, -86573.55893535125, 71791.00922238937, -75269.18652882415, 85479.06106460824, -127916.93245374352, -0.008, 0.9540000000000001, -0.094, 192.0, 0.0, 0.0, 0.0, 0.0, 0.0, 0.0, 0.0, 0.0, 0.0, 1.6664078793275363E9, 0.0, 2022-10-21 20:04:39.327
22.0, -145667.65971990346, -156692.92589341712, 51232.23230030922, -86571.21200218344, 71800.93339692753, -75282.77638945299, 85460.19619228796, -127903.25318613688, -0.008, 0.9540000000000001, -0.094, 192.0, 0.0, 0.0, 0.0, 0.0, 0.0, 0.0, 0.0, 0.0, 0.0, 1.666407879327546E9, 0.0, 2022-10-21 20:04:39.327
23.0, -145680.7354904098, -156703.54297203338, 51222.174015304336, -86583.10313023366, 71789.60106248868, -75298.93670069418, 85448.6179886601, -127916.10543919867, -0.008, 0.9540000000000001, -0.094, 192.0, 0.0, 0.0, 0.0, 0.0, 0.0, 0.0, 0.0, 0.0, 0.0, 1.666407879327556E9, 0.0, 2022-10-21 20:04:39.327
24.0, -145686.97162711283, -156704.19117262258, 51222.06225658206, -86568.88742076009, 71797.0441933923, -75271.4664067586, 85478.54697448575, -127915.72545954294, -0.008, 0.9540000000000001, -0.094, 192.0, 0.0, 0.0, 0.0, 0.0, 0.0, 0.0, 0.0, 0.0, 0.0, 1.666407879327566E9, 0.0, 2022-10-21 20:04:39.327
25.0, -145698.86275516305, -156704.77231797844, 51223.15749206037, -86578.5880778537, 71798.02767014834, -75261.25165954253, 85485.14073910007, -127924.53204685832, -0.008, 0.9540000000000001, -0.094, 192.0, 0.0, 0.0, 30.0, 16.0, 253.0, 32.0, 0.0, 0.0, 0.0, 1.666407879327576E9, 0.0, 2022-10-21 20:04:39.327
26.0, -145698.54983074067, -156699.16203012015, 51228.097227584985, -86582.29846743327, 71801.17926611654, -75280.49651151855, 85461.29142776626, -127930.38820390562, -0.008, 0.9540000000000001, -0.094, 192.0, 0.0, 0.0, 0.0, 0.0, 0.0, 0.0, 0.0, 0.0, 0.0, 1.6664078793275862E9, 0.0, 2022-10-21 20:04:39.327
27.0, -145689.36326376954, -156696.54687601887, 51231.874672397935, -86576.88934527509, 71805.33669058523, -75295.31571809242, 85453.93770384046, -127923.74973580238, -0.008, 0.9540000000000001, -0.094, 192.0, 0.0, 0.0, 0.0, 0.0, 0.0, 0.0, 0.0, 0.0, 0.0, 1.666407879327596E9, 0.0, 2022-10-21 20:04:39.327
28.0, -145682.21070554384, -156698.35736731975, 51228.097227584985, -86568.66390331554, 71800.70987948298, -75284.16219760921, 85476.04357910676, -127925.38141314762, -0.008, 0.9540000000000001, -0.094, 192.0, 0.0, 0.0, 0.0, 0.0, 0.0, 0.0, 0.0, 0.0, 0.0, 1.6664078793276055E9, 0.0, 2022-10-21 20:04:39.327
29.0, -145687.77628991322, -156694.490515529, 51228.097227584985, -86564.32766489121, 71805.0461179073, -75259.03883684146, 85490.77337870281, -127923.03447997982, -0.008, 0.9540000000000001, -0.094, 192.0, 0.0, 0.0, 0.0, 0.0, 0.0, 0.0, 0.0, 0.0, 0.0, 1.666407879327616E9, 0.0, 2022-10-21 20:04:39.327
30.0, -145694.50416499426, -156695.29517832937, 51227.00199210668, -86574.36359815164, 71804.5990830182, -75272.20401432563, 85469.11453832562, -127923.66032882457, -0.008, 0.9540000000000001, -0.094, 192.0, 0.0, 0.0, 0.0, 0.0, 0.0, 0.0, 0.0, 0.0, 0.0, 1.666407879327626E9, 0.0, 2022-10-21 20:04:39.327
31.0, -145694.638275461, -156695.94337891857, 51227.22550955123, -86579.10216797616, 71803.9955859179, -75292.16412212422, 85451.83663986166, -127920.06169796726, -0.008, 0.9540000000000001, -0.094, 192.0, 0.0, 0.0, 0.0, 0.0, 0.0, 0.0, 0.0, 0.0, 0.0, 1.6664078793276353E9, 0.0, 2022-10-21 20:04:39.327
32.0, -145696.15819408395, -156694.1328876177, 51225.07974208352, -86559.07500494421, 71811.21519937697, -75273.32160154839, 85480.11159659764, -127919.7487735449, -0.008, 0.9540000000000001, -0.094, 192.0, 0.0, 0.0, 0.0, 0.0, 0.0, 0.0, 0.0, 0.0, 0.0, 1.666407879327647E9, 0.0, 2022-10-21 20:04:39.327
33.0, -145706.14942385547, -156703.74413773348, 51216.65313442387, -86568.66390331554, 71799.70405098249, -75266.68313344517, 85488.56055600173, -127929.24826493839, -0.008, 0.9540000000000001, -0.094, 192.0, 0.0, 0.0, 0.0, 0.0, 0.0, 0.0, 0.0, 0.0, 0.0, 1.6664078793276565E9, 0.0, 2022-10-21 20:04:39.327
34.0, -145703.02017963174, -156702.76066097745, 51218.50832921366, -86583.8854412896, 71797.08889688122, -75279.20011034014, 85467.10288132464, -127928.93534051602, -0.008, 0.9540000000000001, -0.094, 192.0, 0.0, 0.0, 0.0, 0.0, 0.0, 0.0, 0.0, 0.0, 0.0, 1.666407879327675E9, 0.0, 2022-10-21 20:04:39.327
35.0, -145696.64993246197, -156696.05513764085, 51221.43640773731, -86583.25959244485, 71806.52133304135, -75287.64906974425, 85457.15635504203, -127917.8935787551, 0.008, 0.966, -0.09, 192.0, 0.0, 64.0, 30.0, 48.0, 253.0, 48.0, 0.0, 0.0, 0.0, 1.666407879327685E9, 0.0, 2022-10-21 20:04:39.327
36.0, -145712.29615358068, -156710.29319885888, 51208.76296863115, -86586.67940934651, 71794.42903929103, -75284.36336330931, 85466.25351503534, -127933.09276498471, 0.008, 0.966, -0.09, 192.0, 0.0, 0.0, 0.0, 0.0, 0.0, 0.0, 0.0, 0.0, 0.0, 1.6664078793276968E9, 0.0, 2022-10-21 20:04:39.327
37.0, -145708.36224655656, -156707.65569301316, 51211.91456459935, -86573.67069407353, 71798.7429259709, -75259.01648509699, 85490.86278568063, -127927.16955270406, 0.008, 0.966, -0.09, 192.0, 0.0, 0.0, 0.0, 0.0, 0.0, 0.0, 0.0, 0.0, 0.0, 1.6664078793277073E9, 0.0, 2022-10-21 20:04:39.327
38.0, -145694.8394411611, -156688.90257941515, 51224.00685834967, -86558.69502528847, 71817.16076340208, -75252.28861001595, 85491.37687580311, -127907.9917559614, 0.008, 0.966, -0.09, 192.0, 0.0, 0.0, 0.0, 0.0, 0.0, 0.0, 0.0, 0.0, 0.0, 1.6664078793277166E9, 0.0, 2022-10-21 20:04:39.327
39.0, -145692.8501359046, -156690.82482943832, 51221.36935250394, -86576.88934527509, 71811.52812379935, -75277.3672672948, 85467.41580574702, -127908.08116293921, 0.008, 0.966, -0.09, 192.0, 0.0, 0.0, 0.0, 0.0, 0.0, 0.0, 0.0, 0.0, 0.0, 1.6664078793277264E9, 0.0, 2022-10-21 20:04:39.327
40.0, -145709.41277854596, -156709.04150116938, 51210.551108187574, -86587.8864035471, 71797.98296665943, -75289.43720930067, 85467.10288132464, -127920.41932587855, 0.008, 0.966, -0.09, 192.0, 0.0, 0.0, 0.0, 0.0, 0.0, 0.0, 0.0, 0.0, 0.0, 1.666407879327736E9, 0.0, 2022-10-21 20:04:39.327
41.0, -145725.5507380427, -156723.6371902987, 51193.161451001346, -86591.97677278242, 71783.43198101902, -75278.99894464004, 85478.68108495249, -127937.33959643122, 0.008, 0.966, -0.09, 192.0, 0.0, 0.0, 0.0, 0.0, 0.0, 0.0, 0.0, 0.0, 0.0, 1.6664078793277457E9, 0.0, 2022-10-21 20:04:39.327
42.0, -145710.59742100208, -156709.46618431405, 51204.51613718464, -86590.30039194827, 71793.98200440193, -75268.49362474604, 85478.50227099685, -127927.05779398177, 0.008, 0.966, -0.09, 192.0, 0.0, 0.0, 0.0, 0.0, 0.0, 0.0, 0.0, 0.0, 0.0, 1.6664078793277552E9, 0.0, 2022-10-21 20:04:39.327
43.0, -145703.2436970763, -156699.74317547597, 51212.741579144196, -86590.45685415946, 71802.98975741741, -75287.09027613286, 85456.55285794173, -127913.98202347542, 0.008, 0.966, -0.09, 192.0, 0.0, 0.0, 0.0, 0.0, 0.0, 0.0, 0.0, 0.0, 0.0, 1.666407879327765E9, 0.0, 2022-10-21 20:04:39.327
44.0, -145705.56827849965, -156702.42538481063, 51214.976753589726, -86575.05650222975, 71812.71276625547, -75284.05043888694, 85464.48772722337, -127909.4893228399, 0.008, 0.966, -0.09, 192.0, 0.0, 0.0, 0.0, 0.0, 0.0, 0.0, 0.0, 0.0, 0.0, 1.6664078793277745E9, 0.0, 2022-10-21 20:04:39.327
45.0, -145717.41470306096, -156713.86947797175, 51205.20904126275, -86566.98752248139, 71807.3483475862, -75265.00675261102, 85487.71118971243, -127918.65353806657, 0.018000000000000002, 0.962, -0.088, 192.0, 0.0, 144.0, 30.0, 16.0, 253.0, 64.0, 0.0, 0.0, 0.0, 1.6664078793277843E9, 0.0, 2022-10-21 20:04:39.327
46.0, -145716.56533677166, -156713.489498316, 51200.336360971494, -86579.72801682091, 71801.2463213499, -75262.68217118767, 85485.29720131126, -127932.6457300956, 0.018000000000000002, 0.962, -0.088, 192.0, 0.0, 0.0, 0.0, 0.0, 0.0, 0.0, 0.0, 0.0, 0.0, 1.6664078793277948E9, 0.0, 2022-10-21 20:04:39.327
47.0, -145702.99782788727, -156705.44287031208, 51206.348980229974, -86588.22167971393, 71805.06846965176, -75279.62479348479, 85459.74915739885, -127933.87507604064, 0.018000000000000002, 0.962, -0.088, 192.0, 0.0, 0.0, 0.0, 0.0, 0.0, 0.0, 0.0, 0.0, 0.0, 1.6664078793278043E9, 0.0, 2022-10-21 20:04:39.327
48.0, -145716.65474374947, -156721.11144317526, 51190.32277945552, -86602.01270604286, 71795.39016430262, -75298.4226105717, 85443.72295662439, -127943.08399475623, 0.018000000000000002, 0.962, -0.088, 192.0, 0.0, 0.0, 0.0, 0.0, 0.0, 0.0, 0.0, 0.0, 0.0, 1.666407879327814E9, 0.0, 2022-10-21 20:04:39.327
49.0, -145711.29032508022, -156721.40201585318, 51187.14883174287, -86591.75325533787, 71794.78666720232, -75276.40614228322, 85471.03678834878, -127937.63016910914, 0.018000000000000002, 0.962, -0.088, 192.0, 0.0, 0.0, 0.0, 0.0, 0.0, 0.0, 0.0, 0.0, 0.0, 1.6664078793278327E9, 0.0, 2022-10-21 20:04:39.327
50.0, -145716.9900199163, -156724.55361182138, 51183.572552630016, -86595.15072049508, 71793.26674857936, -75268.67243870169, 85474.21073606143, -127944.11217500118, 0.018000000000000002, 0.962, -0.088, 192.0, 0.0, 0.0, 0.0, 0.0, 0.0, 0.0, 0.0, 0.0, 0.0, 1.6664078793278432E9, 0.0, 2022-10-21 20:04:39.327
51.0, -145710.61977274655, -156716.55168730638, 51192.3344364565, -86600.76100835337, 71795.90425442508, -75295.06984890341, 85445.98048281438, -127939.01597726536, 0.018000000000000002, 0.962, -0.088, 192.0, 0.0, 0.0, 0.0, 0.0, 0.0, 0.0, 0.0, 0.0, 0.0, 1.666407879327853E9, 0.0, 2022-10-21 20:04:39.327
52.0, -145708.25048783427, -156707.74509999098, 51202.48212843921, -86587.28290644681, 71808.30947259779, -75298.26614836052, 85446.00283455884, -127926.34253815921, 0.018000000000000002, 0.962, -0.088, 192.0, 0.0, 0.0, 0.0, 0.0, 0.0, 0.0, 0.0, 0.0, 0.0, 1.6664078793278625E9, 0.0, 2022-10-21 20:04:39.327
53.0, -145725.10370315358, -156724.77712926592, 51184.1313462414, -86588.06521750275, 71797.37946955914, -75283.73751446456, 85466.61114294663, -127935.03736675232, 0.018000000000000002, 0.962, -0.088, 192.0, 0.0, 0.0, 0.0, 0.0, 0.0, 0.0, 0.0, 0.0, 0.0, 1.6664078793278725E9, 0.0, 2022-10-21 20:04:39.327
54.0, -145719.67222925095, -156730.5885828243, 51174.16246821433, -86596.22360422893, 71786.06948686476, -75277.18845333916, 85470.38858775957, -127946.66027386909, 0.03, 0.9580000000000001, -0.088, 192.0, 0.0, 240.0, 29.0, 240.0, 253.0, 64.0, 0.0, 0.0, 0.0, 1.666407879327882E9, 0.0, 2022-10-21 20:04:39.327
55.0, -145708.63046749003, -156723.50307983198, 51181.85146830696, -86597.96704029644, 71792.48443752342, -75279.73655220706, 85453.13304104007, -127942.03346276683, 0.03, 0.9580000000000001, -0.088, 192.0, 0.0, 0.0, 0.0, 0.0, 0.0, 0.0, 0.0, 0.0, 0.0, 1.6664078793278923E9, 0.0, 2022-10-21 20:04:39.327
56.0, -145709.77040645725, -156716.6857977731, 51192.08856726749, -86594.65898211706, 71800.97810041644, -75289.70543023413, 85444.4158607025, -127930.65642483908, 0.03, 0.9580000000000001, -0.088, 192.0, 0.0, 0.0, 0.0, 0.0, 0.0, 0.0, 0.0, 0.0, 0.0, 1.666407879327902E9, 0.0, 2022-10-21 20:04:39.327
57.0, -145719.87339495105, -156721.31260887536, 51188.9816747882, -86590.88153730411, 71799.52523702684, -75276.80847368341, 85467.90754412503, -127928.80123004928, 0.03, 0.9580000000000001, -0.088, 192.0, 0.0, 0.0, 0.0, 0.0, 0.0, 0.0, 0.0, 0.0, 0.0, 1.6664078793279116E9, 0.0, 2022-10-21 20:04:39.327
58.0, -145722.3991420745, -156721.55847806437, 51183.61725611893, -86595.32953445072, 71794.4960945244, -75261.34106652034, 85483.39730303256, -127929.06945098276, 0.03, 0.9580000000000001, -0.088, 192.0, 0.0, 0.0, 0.0, 0.0, 0.0, 0.0, 0.0, 0.0, 0.0, 1.6664078793279212E9, 0.0, 2022-10-21 20:04:39.327
59.0, -145710.03862739072, -156714.24945762748, 51181.11386073993, -86605.61133690015, 71793.98200440193, -75276.47319751659, 85460.57617194369, -127937.25018945339, 0.03, 0.9580000000000001, -0.088, 192.0, 0.0, 0.0, 0.0, 0.0, 0.0, 0.0, 0.0, 0.0, 0.0, 1.6664078793279312E9, 0.0, 2022-10-21 20:04:39.327
60.0, -145711.98322915833, -156713.3330361048, 51185.740671842184, -86613.65796490407, 71796.3959928031, -75294.24283435856, 85442.20303800143, -127932.98100626243, 0.03, 0.9580000000000001, -0.088, 192.0, 0.0, 0.0, 0.0, 0.0, 0.0, 0.0, 0.0, 0.0, 0.0, 1.6664078793279407E9, 0.0, 2022-10-21 20:04:39.327
61.0, -145721.5944792741, -156721.11144317526, 51189.92044805532, -86596.04479027328, 71802.9450539285, -75281.1670638522, 85464.86770687911, -127928.84593353819, 0.03, 0.9580000000000001, -0.088, 192.0, 0.0, 0.0, 0.0, 0.0, 0.0, 0.0, 0.0, 0.0, 0.0, 1.6664078793279505E9, 0.0, 2022-10-21 20:04:39.327
62.0, -145734.37967710255, -156738.56815559487, 51178.90103803886, -86600.13515950862, 71794.85372243568, -75264.1126828328, 85482.19030883197, -127941.83229706674, 0.03, 0.9580000000000001, -0.088, 192.0, 0.0, 0.0, 0.0, 0.0, 0.0, 0.0, 0.0, 0.0, 0.0, 1.66640787932796E9, 0.0, 2022-10-21 20:04:39.327
63.0, -145723.11439789706, -156731.12502469122, 51188.73580559919, -86595.68716236201, 71806.72249874145, -75258.03300834096, 85481.36329428713, -127930.96934926146, 0.03, 0.9580000000000001, -0.088, 192.0, 0.0, 0.0, 0.0, 0.0, 0.0, 0.0, 0.0, 0.0, 0.0, 1.6664078793279696E9, 0.0, 2022-10-21 20:04:39.327
64.0, -145717.30294433868, -156716.21641113955, 51189.80868933305, -86598.95051705248, 71804.5990830182, -75289.32545057838, 85452.86482010661, -127928.86828528266, 0.03, 0.9500000000000001, -0.08, 192.0, 0.0, 240.0, 29.0, 176.0, 253.0, 128.0, 0.0, 0.0, 0.0, 1.6664078793279796E9, 0.0, 2022-10-21 20:04:39.327
65.0, -145721.28155485174, -156721.91610597566, 51179.102203738956, -86603.75614211037, 71793.22204509044, -75300.50132280604, 85449.48970669386, -127935.43969815252, 0.03, 0.9500000000000001, -0.08, 192.0, 0.0, 0.0, 0.0, 0.0, 0.0, 0.0, 0.0, 0.0, 0.0, 1.6664078793280177E9, 0.0, 2022-10-21 20:04:39.328
0.0, 0.0, 0.0, 0.0, 0.0, 0.0, 0.0, 0.0, 0.0, 0.03, 0.9500000000000001, -0.08, 192.0, 0.0, 0.0, 0.0, 0.0, 0.0, 0.0, 0.0, 0.0, 0.0, 1.6664078794199224E9, 0.0, 2022-10-21 20:04:39.419
1.0, -144916.17171957158, -157124.87335501594, 51412.8343955081, -84025.84004710198, 72751.79895780074, -73386.65555556484, 85846.50139170903, -127909.57872981773, -0.002, 0.9500000000000001, -0.138, 192.0, 255.0, 240.0, 29.0, 176.0, 251.0, 176.0, 0.0, 0.0, 0.0, 1.6664078797204828E9, 0.0, 2022-10-21 20:04:39.720
2.0, -144920.03857136233, -157125.5886108385, 51407.84995649457, -84023.78368661209, 72750.83783278917, -73360.86164246341, 85878.82201419139, -127909.98106121791, -0.002, 0.9500000000000001, -0.138, 192.0, 0.0, 0.0, 0.0, 0.0, 0.0, 0.0, 0.0, 0.0, 0.0, 1.66640787972053E9, 0.0, 2022-10-21 20:04:39.720
3.0, -144929.33689705573, -157135.62454409894, 51393.81306097664, -84046.15778281186, 72739.03611171676, -73355.89955519434, 85876.22921183458, -127921.98394799042, -0.002, 0.9500000000000001, -0.138, 192.0, 0.0, 0.0, 0.0, 0.0, 0.0, 0.0, 0.0, 0.0, 0.0, 1.6664078797205532E9, 0.0, 2022-10-21 20:04:39.720
4.0, -144925.29123130933, -157134.0375702426, 51393.81306097664, -84050.13639332491, 72737.40443437152, -73382.60988981843, 85843.12627829627, -127926.96838700396, -0.002, 0.9500000000000001, -0.138, 192.0, 0.0, 0.0, 0.0, 0.0, 0.0, 0.0, 0.0, 0.0, 0.0, 1.6664078797205749E9, 0.0, 2022-10-21 20:04:39.720
5.0, -144920.28444055133, -157131.64593358588, 51397.4787470673, -84053.55621022657, 72735.95157098194, -73401.38535516088, 85829.24584498952, -127915.03255546482, -0.002, 0.9500000000000001, -0.138, 192.0, 0.0, 0.0, 0.0, 0.0, 0.0, 0.0, 0.0, 0.0, 0.0, 1.666407879720606E9, 0.0, 2022-10-21 20:04:39.720
6.0, -144923.0560568638, -157132.96468650876, 51394.32715109911, -84048.48236423521, 72739.23727741686, -73369.46706407871, 85868.54021174196, -127905.9353954715, -0.002, 0.9500000000000001, -0.138, 192.0, 0.0, 0.0, 0.0, 0.0, 0.0, 0.0, 0.0, 0.0, 0.0, 1.6664078797206216E9, 0.0, 2022-10-21 20:04:39.720
7.0, -144928.12990285514, -157140.25135520118, 51385.52056378371, -84057.80304167308, 72727.2120388999, -73357.57593602847, 85877.61501999082, -127926.85662828168, -0.002, 0.9500000000000001, -0.138, 192.0, 0.0, 0.0, 0.0, 0.0, 0.0, 0.0, 0.0, 0.0, 0.0, 1.666407879720637E9, 0.0, 2022-10-21 20:04:39.720
8.0, -144918.9656876285, -157129.7907387961, 51390.728520241806, -84063.3909777869, 72725.1109749211, -73380.15119792834, 85844.33327249686, -127928.62241609364, -0.018000000000000002, 0.9440000000000001, -0.17200000000000001, 192.0, 255.0, 112.0, 29.0, 128.0, 250.0, 160.0, 0.0, 0.0, 0.0, 1.6664078797206528E9, 0.0, 2022-10-21 20:04:39.720
9.0, -144909.93558286852, -157121.23002066973, 51394.79653773267, -84059.83705041851, 72731.05653894623, -73397.36204115892, 85828.99997580051, -127916.12779094312, -0.018000000000000002, 0.9440000000000001, -0.17200000000000001, 192.0, 0.0, 0.0, 0.0, 0.0, 0.0, 0.0, 0.0, 0.0, 0.0, 1.6664078797206695E9, 0.0, 2022-10-21 20:04:39.720
10.0, -144909.01916134587, -157120.49241310268, 51396.294104611174, -84040.8827711204, 72743.43940537446, -73362.9180029533, 85870.90949665422, -127903.87903498163, -0.018000000000000002, 0.9440000000000001, -0.17200000000000001, 192.0, 0.0, 0.0, 0.0, 0.0, 0.0, 0.0, 0.0, 0.0, 0.0, 1.6664078797206848E9, 0.0, 2022-10-21 20:04:39.720
11.0, -144911.63431544715, -157114.05511069956, 51395.668255766424, -84037.95469259676, 72745.7192833089, -73335.98415088466, 85898.06686616741, -127901.97913670292, -0.018000000000000002, 0.9440000000000001, -0.17200000000000001, 192.0, 0.0, 0.0, 0.0, 0.0, 0.0, 0.0, 0.0, 0.0, 0.0, 1.6664078797207005E9, 0.0, 2022-10-21 20:04:39.720
12.0, -144918.67511495057, -157122.99580848168, 51385.677025994904, -84055.56786722754, 72737.42678611599, -73359.1182063959, 85864.22632506207, -127915.43488686501, -0.018000000000000002, 0.9440000000000001, -0.17200000000000001, 192.0, 0.0, 0.0, 0.0, 0.0, 0.0, 0.0, 0.0, 0.0, 0.0, 1.6664078797207155E9, 0.0, 2022-10-21 20:04:39.720
13.0, -144927.9510888995, -157135.7363028212, 51371.751889199244, -84076.55615527107, 72722.92050396449, -73401.94414877227, 85824.507275165, -127928.39889864909, -0.018000000000000002, 0.9440000000000001, -0.17200000000000001, 192.0, 0.0, 0.0, 0.0, 0.0, 0.0, 0.0, 0.0, 0.0, 0.0, 1.6664078797207308E9, 0.0, 2022-10-21 20:04:39.720
14.0, -144934.79072270283, -157142.06184650207, 51365.046365862654, -84064.39680628739, 72717.53373355076, -73399.9771952602, 85841.74047014004, -127921.58161659022, -0.018000000000000002, 0.9440000000000001, -0.17200000000000001, 192.0, 0.0, 0.0, 0.0, 0.0, 0.0, 0.0, 0.0, 0.0, 0.0, 1.6664078797208056E9, 0.0, 2022-10-21 20:04:39.720
15.0, -144929.58276624474, -157138.15029122238, 51368.64499671996, -84058.38418702892, 72717.28786436176, -73377.33487812697, 85868.4731565086, -127920.195808434, -0.018000000000000002, 0.9440000000000001, -0.17200000000000001, 192.0, 0.0, 0.0, 0.0, 0.0, 0.0, 0.0, 0.0, 0.0, 0.0, 1.6664078797208223E9, 0.0, 2022-10-21 20:04:39.720
16.0, -144926.453522021, -157134.46225338726, 51365.962787385324, -84064.08388186502, 72721.93702720845, -73371.00933444612, 85858.8172029039, -127923.52621835783, -0.018000000000000002, 0.9440000000000001, -0.17200000000000001, 192.0, 0.0, 0.0, 0.0, 0.0, 0.0, 0.0, 0.0, 0.0, 0.0, 1.666407879720837E9, 0.0, 2022-10-21 20:04:39.720
17.0, -144925.961783643, -157132.40589289737, 51359.883112893476, -84069.64946623439, 72726.34032086615, -73392.44465737876, 85831.2127985016, -127925.00143349188, -0.022, 0.936, -0.188, 192.0, 255.0, 80.0, 29.0, 64.0, 250.0, 32.0, 0.0, 0.0, 0.0, 1.6664078797208526E9, 0.0, 2022-10-21 20:04:39.720
18.0, -144925.1571208426, -157131.26595393015, 51359.48078149329, -84055.52316373863, 72736.51036459331, -73384.12980844139, 85845.51791495299, -127915.21136942046, -0.022, 0.936, -0.188, 192.0, 0.0, 0.0, 0.0, 0.0, 0.0, 0.0, 0.0, 0.0, 0.0, 1.666407879720869E9, 0.0, 2022-10-21 20:04:39.720
19.0, -144933.87430118016, -157137.21151795526, 51352.59644420105, -84048.72823342422, 72734.7669285258, -73355.22900286067, 85878.64320023576, -127916.53012234332, -0.022, 0.936, -0.188, 192.0, 0.0, 0.0, 0.0, 0.0, 0.0, 0.0, 0.0, 0.0, 0.0, 1.6664078797208843E9, 0.0, 2022-10-21 20:04:39.720
20.0, -144919.47977775097, -157119.73245379122, 51365.761621685226, -84037.75352689666, 72744.60169608613, -73349.12697662438, 85877.99499964654, -127912.08212519671, -0.022, 0.936, -0.188, 192.0, 0.0, 0.0, 0.0, 0.0, 0.0, 0.0, 0.0, 0.0, 0.0, 1.6664078797208996E9, 0.0, 2022-10-21 20:04:39.720
21.0, -144921.37967602964, -157125.00746548266, 51361.134810582975, -84045.93426536731, 72744.37817864158, -73380.8664537509, 85838.03008056046, -127915.50194209839, -0.022, 0.936, -0.188, 192.0, 0.0, 0.0, 0.0, 0.0, 0.0, 0.0, 0.0, 0.0, 0.0, 1.6664078797209153E9, 0.0, 2022-10-21 20:04:39.720
22.0, -144935.57303375876, -157140.16194822337, 51345.10860980852, -84059.30060855158, 72730.49774533484, -73399.48545688218, 85824.82019958737, -127926.34253815921, -0.022, 0.936, -0.188, 192.0, 0.0, 0.0, 0.0, 0.0, 0.0, 0.0, 0.0, 0.0, 0.0, 1.66640787972093E9, 0.0, 2022-10-21 20:04:39.720
23.0, -144941.965632673, -157144.92286979232, 51342.82873187408, -84051.36573926995, 72731.25770464631, -73371.45636933522, 85863.9134006397, -127917.33478514371, -0.022, 0.936, -0.188, 192.0, 0.0, 0.0, 0.0, 0.0, 0.0, 0.0, 0.0, 0.0, 0.0, 1.6664078797209454E9, 0.0, 2022-10-21 20:04:39.720
24.0, -144934.14252211363, -157137.30092493308, 51349.57895869958, -84049.84582064698, 72737.35973088261, -73359.81111047401, 85869.65779896472, -127917.22302642144, -0.022, 0.936, -0.188, 192.0, 0.0, 0.0, 0.0, 0.0, 0.0, 0.0, 0.0, 0.0, 0.0, 1.6664078797209606E9, 0.0, 2022-10-21 20:04:39.720
25.0, -144931.63912673463, -157136.8762417884, 51346.516769709204, -84053.42209975983, 72741.0254169733, -73386.1191136979, 85833.78324911396, -127928.44360213801, -0.022, 0.936, -0.188, 192.0, 0.0, 0.0, 0.0, 0.0, 0.0, 0.0, 0.0, 0.0, 0.0, 1.6664078797209756E9, 0.0, 2022-10-21 20:04:39.720
26.0, -144928.53223425534, -157131.84709928598, 51347.9696330988, -84047.1859630568, 72746.61335308712, -73389.2707096661, 85834.18558051415, -127921.87218926815, -0.022, 0.936, -0.188, 192.0, 0.0, 0.0, 0.0, 0.0, 0.0, 0.0, 0.0, 0.0, 0.0, 1.666407879720992E9, 0.0, 2022-10-21 20:04:39.720
27.0, -144929.44865577802, -157132.7858725531, 51346.047383075645, -84033.21612277224, 72747.01568448731, -73359.74405524065, 85871.89297341026, -127921.93924450151, -0.026000000000000002, 0.936, -0.194, 192.0, 255.0, 48.0, 29.0, 64.0, 249.0, 240.0, 0.0, 0.0, 0.0, 1.666407879721009E9, 0.0, 2022-10-21 20:04:39.721
28.0, -144941.89857743963, -157148.72266634973, 51337.88899634946, -84051.32103578103, 72738.61142857211, -73357.53123253956, 85872.20589783262, -127932.04223299531, -0.026000000000000002, 0.936, -0.194, 192.0, 0.0, 0.0, 0.0, 0.0, 0.0, 0.0, 0.0, 0.0, 0.0, 1.6664078797210252E9, 0.0, 2022-10-21 20:04:39.721
29.0, -144937.58469075974, -157145.1910907258, 51341.10764755102, -84056.77486142813, 72743.70762630792, -73371.23285189067, 85844.82501087488, -127929.40472714958, -0.026000000000000002, 0.936, -0.194, 192.0, 0.0, 0.0, 0.0, 0.0, 0.0, 0.0, 0.0, 0.0, 0.0, 1.666407879721055E9, 0.0, 2022-10-21 20:04:39.721
30.0, -144933.6731354801, -157141.3912941684, 51341.53233069567, -84064.10623360948, 72736.51036459331, -73391.55058760055, 85828.03885078894, -127924.01795673586, -0.026000000000000002, 0.936, -0.194, 192.0, 0.0, 0.0, 0.0, 0.0, 0.0, 0.0, 0.0, 0.0, 0.0, 1.6664078797210703E9, 0.0, 2022-10-21 20:04:39.721
31.0, -144937.7635047154, -157143.6488203584, 51336.27967074868, -84057.55717248407, 72732.10707093561, -73371.94810771324, 85856.60438020281, -127923.12388695763, -0.026000000000000002, 0.936, -0.194, 192.0, 0.0, 0.0, 0.0, 0.0, 0.0, 0.0, 0.0, 0.0, 0.0, 1.6664078797210853E9, 0.0, 2022-10-21 20:04:39.721
32.0, -144937.78585645984, -157144.56524188106, 51338.64895566094, -84049.19762005778, 72736.28684714876, -73343.13670911035, 85881.95125841514, -127917.71476479946, -0.026000000000000002, 0.936, -0.194, 192.0, 0.0, 0.0, 0.0, 0.0, 0.0, 0.0, 0.0, 0.0, 0.0, 1.6664078797211E9, 0.0, 2022-10-21 20:04:39.721
33.0, -144929.7615802004, -157134.86458478746, 51345.2203685308, -84050.89635263638, 72742.83590827417, -73356.54775578354, 85856.35851101381, -127916.77599153234, -0.026000000000000002, 0.936, -0.194, 192.0, 0.0, 0.0, 0.0, 0.0, 0.0, 0.0, 0.0, 0.0, 0.0, 1.666407879721115E9, 0.0, 2022-10-21 20:04:39.721
34.0, -144935.32716456975, -157139.06671274506, 51336.77140912669, -84068.77774820063, 72735.03514945926, -73389.40482013284, 85821.69095536364, -127921.33574740122, -0.026000000000000002, 0.936, -0.194, 192.0, 0.0, 0.0, 0.0, 0.0, 0.0, 0.0, 0.0, 0.0, 0.0, 1.6664078797211301E9, 0.0, 2022-10-21 20:04:39.721
35.0, -144947.6653275091, -157150.4437506728, 51326.31079272161, -84063.9944748872, 72733.55993432521, -73377.73720952717, 85842.88040910727, -127930.63407309462, -0.026000000000000002, 0.936, -0.194, 192.0, 0.0, 0.0, 0.0, 0.0, 0.0, 0.0, 0.0, 0.0, 0.0, 1.6664078797211452E9, 0.0, 2022-10-21 20:04:39.721
36.0, -144943.73142048495, -157146.35338143748, 51328.50126367823, -84061.11109985247, 72731.2130011574, -73356.45834880571, 85867.53438324147, -127926.47664862593, -0.026000000000000002, 0.936, -0.194, 192.0, 0.0, 0.0, 0.0, 0.0, 0.0, 0.0, 0.0, 0.0, 0.0, 1.66640787972116E9, 0.0, 2022-10-21 20:04:39.721
37.0, -144943.23968210694, -157146.1969192263, 51324.790874098646, -84074.7456639702, 72723.27813187578, -73379.03361070558, 85838.8123916164, -127934.07624174074, -0.03, 0.934, -0.2, 192.0, 255.0, 16.0, 29.0, 48.0, 249.0, 192.0, 0.0, 0.0, 0.0, 1.6664078797211752E9, 0.0, 2022-10-21 20:04:39.721
38.0, -144940.24454834993, -157143.96174478077, 51327.83071134457, -84075.41621630386, 72728.19551565594, -73396.40091614735, 85815.9018535497, -127928.22008469346, -0.03, 0.934, -0.2, 192.0, 0.0, 0.0, 0.0, 0.0, 0.0, 0.0, 0.0, 0.0, 0.0, 1.6664078797211914E9, 0.0, 2022-10-21 20:04:39.721
39.0, -144935.72949596995, -157137.2785731886, 51332.479874191275, -84060.0382161186, 72735.95157098194, -73378.89950023884, 85844.33327249686, -127918.63118632212, -0.03, 0.934, -0.2, 192.0, 0.0, 0.0, 0.0, 0.0, 0.0, 0.0, 0.0, 0.0, 0.0, 1.6664078797212064E9, 0.0, 2022-10-21 20:04:39.721
40.0, -144939.59634776073, -157139.9831342677, 51325.93081306587, -84060.97698938573, 72729.98365521236, -73353.50791853761, 85877.07857812388, -127915.189017676, -0.03, 0.934, -0.2, 192.0, 0.0, 0.0, 0.0, 0.0, 0.0, 0.0, 0.0, 0.0, 0.0, 1.6664078797212214E9, 0.0, 2022-10-21 20:04:39.721
41.0, -144936.6682692371, -157134.46225338726, 51329.79766485663, -84062.1392800974, 72732.30823663571, -73357.79945347302, 85862.95227562812, -127908.08116293921, -0.03, 0.934, -0.2, 192.0, 0.0, 0.0, 0.0, 0.0, 0.0, 0.0, 0.0, 0.0, 0.0, 1.666407879721236E9, 0.0, 2022-10-21 20:04:39.721
42.0, -144929.6051179892, -157127.26499167265, 51336.92787133788, -84058.04891086208, 72741.20423092892, -73382.58753807396, 85834.56556016988, -127909.444619351, -0.03, 0.934, -0.2, 192.0, 0.0, 0.0, 0.0, 0.0, 0.0, 0.0, 0.0, 0.0, 0.0, 1.6664078797212508E9, 0.0, 2022-10-21 20:04:39.721
43.0, -144940.87039719467, -157134.9763435097, 51321.862795575005, -84069.35889355646, 72731.45887034641, -73381.80522701803, 85837.60539741581, -127923.63797708011, -0.03, 0.934, -0.2, 192.0, 0.0, 0.0, 0.0, 0.0, 0.0, 0.0, 0.0, 0.0, 0.0, 1.666407879721272E9, 0.0, 2022-10-21 20:04:39.721
44.0, -144940.49041753894, -157136.89859353288, 51319.001772284726, -84063.61449523145, 72728.59784705614, -73350.22221210269, 85872.25060132153, -127919.3911456336, -0.03, 0.934, -0.2, 192.0, 0.0, 0.0, 0.0, 0.0, 0.0, 0.0, 0.0, 0.0, 0.0, 1.6664078797213013E9, 0.0, 2022-10-21 20:04:39.721
45.0, -144953.14150490065, -157151.8519105735, 51309.59168786904, -84080.02067566165, 72720.70768126342, -73360.32520059648, 85854.92799936868, -127930.09763122769, -0.03, 0.934, -0.2, 192.0, 0.0, 0.0, 0.0, 0.0, 0.0, 0.0, 0.0, 0.0, 0.0, 1.6664078797213163E9, 0.0, 2022-10-21 20:04:39.721
46.0, -144953.18620838955, -157150.9354890508, 51306.0601122451, -84086.41327457587, 72717.33256785067, -73396.71384056972, 85811.63267035874, -127940.33473018823, -0.034, 0.9380000000000001, -0.202, 192.0, 254.0, 240.0, 29.0, 80.0, 249.0, 176.0, 0.0, 0.0, 0.0, 1.6664078797213311E9, 0.0, 2022-10-21 20:04:39.721
47.0, -144951.04044092185, -157145.66047735937, 51305.411911655894, -84075.70678898177, 72725.78152725477, -73395.66330858032, 85816.32653669435, -127937.7419278314, -0.034, 0.9380000000000001, -0.202, 192.0, 0.0, 0.0, 0.0, 0.0, 0.0, 0.0, 0.0, 0.0, 0.0, 1.666407879721348E9, 0.0, 2022-10-21 20:04:39.721
48.0, -144953.00739443392, -157146.6439541154, 51304.76371106669, -84068.12954761143, 72725.37919585458, -73367.83538673347, 85852.84928713433, -127931.14816321709, -0.034, 0.9380000000000001, -0.202, 192.0, 0.0, 0.0, 0.0, 0.0, 0.0, 0.0, 0.0, 0.0, 0.0, 1.6664078797213643E9, 0.0, 2022-10-21 20:04:39.721
49.0, -144957.94712995854, -157151.91896580684, 51302.14855696542, -84071.21408834626, 72727.56966681119, -73355.25135460512, 85859.6665691932, -127932.69043358452, -0.034, 0.9380000000000001, -0.202, 192.0, 0.0, 0.0, 0.0, 0.0, 0.0, 0.0, 0.0, 0.0, 0.0, 1.6664078797213783E9, 0.0, 2022-10-21 20:04:39.721
50.0, -144950.79457173284, -157145.0346285146, 51309.07759774657, -84075.7961959596, 72733.5152308363, -73374.33974436997, 85829.87169383427, -127930.99170100591, -0.034, 0.9380000000000001, -0.202, 192.0, 0.0, 0.0, 0.0, 0.0, 0.0, 0.0, 0.0, 0.0, 0.0, 1.6664078797213867E9, 0.0, 2022-10-21 20:04:39.721
51.0, -144941.29508033933, -157135.5351371211, 51316.78894958365, -84057.82539341753, 72747.90975426552, -73377.44663684924, 85832.68801363565, -127916.03838396531, -0.034, 0.9380000000000001, -0.202, 192.0, 0.0, 0.0, 0.0, 0.0, 0.0, 0.0, 0.0, 0.0, 0.0, 1.6664078797213948E9, 0.0, 2022-10-21 20:04:39.721
52.0, -144964.7197085285, -157159.8538350885, 51296.09123421803, -84074.32098082555, 72736.28684714876, -73363.05211342002, 85858.0125401035, -127928.93534051602, -0.034, 0.9380000000000001, -0.202, 192.0, 0.0, 0.0, 0.0, 0.0, 0.0, 0.0, 0.0, 0.0, 0.0, 1.6664078797214034E9, 0.0, 2022-10-21 20:04:39.721
53.0, -144958.28240612536, -157151.38252393992, 51300.360417409, -84078.41135006087, 72735.14690818154, -73342.48850852114, 85873.97168564459, -127924.6438055806, -0.034, 0.9380000000000001, -0.202, 192.0, 0.0, 0.0, 0.0, 0.0, 0.0, 0.0, 0.0, 0.0, 0.0, 1.6664078797214117E9, 0.0, 2022-10-21 20:04:39.721
54.0, -144950.03461242135, -157143.31354419157, 51309.6587431024, -84081.13826288441, 72741.76302454031, -73356.2124796167, 85848.69186266564, -127918.67588981103, -0.034, 0.9380000000000001, -0.202, 192.0, 0.0, 0.0, 0.0, 0.0, 0.0, 0.0, 0.0, 0.0, 0.0, 1.66640787972142E9, 0.0, 2022-10-21 20:04:39.721
55.0, -144949.31935659877, -157141.8383290575, 51311.24571695873, -84084.75924548617, 72742.36652164061, -73373.75859901412, 85834.05147004742, -127915.09961069819, -0.034, 0.9380000000000001, -0.202, 192.0, 0.0, 0.0, 0.0, 0.0, 0.0, 0.0, 0.0, 0.0, 0.0, 1.6664078797214286E9, 0.0, 2022-10-21 20:04:39.721
56.0, -144952.09097291125, -157142.95591628028, 51304.47313838877, -84078.9924954167, 72737.09150994915, -73363.85677622042, 85856.80554590291, -127919.16762818905, -0.036000000000000004, 0.936, -0.198, 192.0, 254.0, 224.0, 29.0, 64.0, 249.0, 208.0, 0.0, 0.0, 0.0, 1.666407879721437E9, 0.0, 2022-10-21 20:04:39.721
57.0, -144958.03653693636, -157150.51080590617, 51298.10289121901, -84084.51337629717, 72730.60950405711, -73345.28247657805, 85872.34000829936, -127925.87315152564, -0.036000000000000004, 0.936, -0.198, 192.0, 0.0, 0.0, 0.0, 0.0, 0.0, 0.0, 0.0, 0.0, 0.0, 1.6664078797214465E9, 0.0, 2022-10-21 20:04:39.721
58.0, -144948.17941763156, -157142.06184650207, 51308.67526634637, -84080.15478612838, 72737.13621343806, -73352.43503480376, 85855.15151681323, -127908.48349433941, -0.036000000000000004, 0.936, -0.198, 192.0, 0.0, 0.0, 0.0, 0.0, 0.0, 0.0, 0.0, 0.0, 0.0, 1.6664078797214549E9, 0.0, 2022-10-21 20:04:39.721
59.0, -144949.14054264314, -157138.8878987894, 51305.81424305609, -84083.32873384103, 72742.21005942942, -73374.65266879233, 85833.69384213613, -127908.86347399515, -0.036000000000000004, 0.936, -0.198, 192.0, 0.0, 0.0, 0.0, 0.0, 0.0, 0.0, 0.0, 0.0, 0.0, 1.6664078797214715E9, 0.0, 2022-10-21 20:04:39.721
60.0, -144955.60019679074, -157142.6429918579, 51300.76274880919, -84086.52503329814, 72736.73388203786, -73364.77319774308, 85854.57037145739, -127916.41836362105, -0.036000000000000004, 0.936, -0.198, 192.0, 0.0, 0.0, 0.0, 0.0, 0.0, 0.0, 0.0, 0.0, 0.0, 1.6664078797214804E9, 0.0, 2022-10-21 20:04:39.721
61.0, -144955.55549330183, -157144.4981866477, 51302.50618487671, -84082.52407104065, 72736.08568144866, -73335.09008110643, 85884.20878460513, -127909.06463969525, -0.036000000000000004, 0.936, -0.198, 192.0, 0.0, 0.0, 0.0, 0.0, 0.0, 0.0, 0.0, 0.0, 0.0, 1.6664078797214887E9, 0.0, 2022-10-21 20:04:39.721
62.0, -144960.38347010416, -157150.35434369498, 51298.52757436366, -84098.7514375152, 72727.167335411, -73355.49722379414, 85856.15734531371, -127913.22206416394, -0.036000000000000004, 0.936, -0.198, 192.0, 0.0, 0.0, 0.0, 0.0, 0.0, 0.0, 0.0, 0.0, 0.0, 1.666407879721497E9, 0.0, 2022-10-21 20:04:39.721
63.0, -144953.47678106747, -157144.65464885888, 51302.64029534344, -84086.45797806478, 72739.25962916132, -73376.88784323787, 85831.39161245723, -127914.38435487561, -0.036000000000000004, 0.936, -0.198, 192.0, 0.0, 0.0, 0.0, 0.0, 0.0, 0.0, 0.0, 0.0, 0.0, 1.6664078797215052E9, 0.0, 2022-10-21 20:04:39.721
64.0, -144954.84023747925, -157142.598288369, 51303.71317907729, -84071.52701276864, 72748.08856822117, -73367.90244196683, 85850.48000222207, -127912.0374217078, -0.036000000000000004, 0.936, -0.198, 192.0, 0.0, 0.0, 0.0, 0.0, 0.0, 0.0, 0.0, 0.0, 0.0, 1.6664078797215135E9, 0.0, 2022-10-21 20:04:39.721
65.0, -144963.80328700584, -157150.600212884, 51293.76665279468, -84088.46963506576, 72738.9243529945, -73340.11922360888, 85879.2690490805, -127916.2395496654, -0.036000000000000004, 0.936, -0.198, 192.0, 0.0, 0.0, 0.0, 0.0, 0.0, 0.0, 0.0, 0.0, 0.0, 1.666407879721522E9, 0.0, 2022-10-21 20:04:39.721
66.0, -144957.3659846027, -157145.97340178172, 51296.71708306278, -84094.79517874662, 72739.6172570726, -73339.98511314215, 85869.52368849798, -127918.11709619965, -0.036000000000000004, 0.936, -0.196, 192.0, 254.0, 224.0, 29.0, 64.0, 249.0, 224.0, 0.0, 0.0, 0.0, 1.6664078797215304E9, 0.0, 2022-10-21 20:04:39.721
67.0, -144950.52635079937, -157141.90538429088, 51302.30501917661, -84098.17029215935, 72741.45010011795, -73372.57395655799, 85832.37508921327, -127918.67588981103, -0.036000000000000004, 0.936, -0.196, 192.0, 0.0, 0.0, 0.0, 0.0, 0.0, 0.0, 0.0, 0.0, 0.0, 1.6664078797215393E9, 0.0, 2022-10-21 20:04:39.721
68.0, -144962.10455442723, -157152.85773907398, 51292.17967893835, -84099.37728635994, 72732.82232675819, -73385.58267183098, 85830.78811535695, -127925.31435791426, -0.036000000000000004, 0.936, -0.196, 192.0, 0.0, 0.0, 0.0, 0.0, 0.0, 0.0, 0.0, 0.0, 0.0, 1.6664078797215476E9, 0.0, 2022-10-21 20:04:39.721
69.0, -144967.1113451852, -157156.88105307592, 51290.592705082025, -84089.47546356624, 72735.28101864827, -73346.7129882232, 85872.29530481045, -127919.86053226716, -0.036000000000000004, 0.936, -0.196, 192.0, 0.0, 0.0, 0.0, 0.0, 0.0, 0.0, 0.0, 0.0, 0.0, 1.666407879721557E9, 0.0, 2022-10-21 20:04:39.721
70.0, -144964.83146725077, -157154.4894164192, 51292.09027196054, -84094.72812351324, 72734.14107968105, -73341.19210734274, 85866.93088614117, -127924.44263988051, -0.036000000000000004, 0.936, -0.196, 192.0, 0.0, 0.0, 0.0, 0.0, 0.0, 0.0, 0.0, 0.0, 0.0, 1.6664078797215652E9, 0.0, 2022-10-21 20:04:39.721
71.0, -144958.23770263646, -157145.3922564259, 51302.93086802136, -84090.70480951128, 72739.48314660587, -73368.30477336702, 85834.29733923642, -127921.55926484577, -0.036000000000000004, 0.936, -0.196, 192.0, 0.0, 0.0, 0.0, 0.0, 0.0, 0.0, 0.0, 0.0, 0.0, 1.666407879721574E9, 0.0, 2022-10-21 20:04:39.721
72.0, -144953.05209792283, -157138.4855673892, 51308.63056285746, -84086.05564666458, 72745.04873097525, -73368.17066290029, 85836.57721717087, -127911.70214554098, -0.036000000000000004, 0.936, -0.196, 192.0, 0.0, 0.0, 0.0, 0.0, 0.0, 0.0, 0.0, 0.0, 0.0, 1.6664078797215824E9, 0.0, 2022-10-21 20:04:39.721
73.0, -144955.98017644646, -157141.90538429088, 51300.91921102038, -84082.27820185163, 72743.6182193301, -73342.19793584323, 85869.00959837552, -127911.7915525188, -0.036000000000000004, 0.936, -0.196, 192.0, 0.0, 0.0, 0.0, 0.0, 0.0, 0.0, 0.0, 0.0, 0.0, 1.6664078797215908E9, 0.0, 2022-10-21 20:04:39.721
74.0, -144960.80815324883, -157146.085160504, 51292.20203068281, -84097.79031250362, 72734.05167270324, -73341.08034862047, 85868.60726697532, -127922.38627939062, -0.036000000000000004, 0.936, -0.196, 192.0, 0.0, 0.0, 0.0, 0.0, 0.0, 0.0, 0.0, 0.0, 0.0, 1.6664078801913238E9, 0.0, 2022-10-21 20:04:40.191
75.0, -144964.8091155063, -157152.1424832514, 51289.49746960372, -84103.86998699546, 72735.34807388164, -73366.67309602178, 85837.20306601562, -127929.44943063849, -0.036000000000000004, 0.9400000000000001, -0.196, 192.0, 254.0, 224.0, 29.0, 96.0, 249.0, 224.0, 0.0, 0.0, 0.0, 1.6664078801914303E9, 0.0, 2022-10-21 20:04:40.191
76.0, -144955.82371423527, -157147.4933204047, 51295.86771677348, -84085.07216990856, 72745.33930365316, -73376.6196223044, 85831.32455722387, -127922.58744509071, -0.036000000000000004, 0.9400000000000001, -0.196, 192.0, 0.0, 0.0, 0.0, 0.0, 0.0, 0.0, 0.0, 0.0, 0.0, 1.6664078801914468E9, 0.0, 2022-10-21 20:04:40.191
77.0, -144964.54089457286, -157157.8868815764, 51284.021292212165, -84085.02746641963, 72736.6221233156, -73359.58759302946, 85856.38086275826, -127929.96352076097, -0.036000000000000004, 0.9400000000000001, -0.196, 192.0, 0.0, 0.0, 0.0, 0.0, 0.0, 0.0, 0.0, 0.0, 0.0, 1.666407880191461E9, 0.0, 2022-10-21 20:04:40.191
78.0, -144969.74885103095, -157161.91019557838, 51274.63355954094, -84091.88945196742, 72728.32962612268, -73345.59540100044, 85867.33321754137, -127926.54370385931, -0.036000000000000004, 0.9400000000000001, -0.196, 192.0, 0.0, 0.0, 0.0, 0.0, 0.0, 0.0, 0.0, 0.0, 0.0, 1.6664078801914744E9, 0.0, 2022-10-21 20:04:40.191
79.0, -144960.78580150436, -157152.65657337388, 51288.26812365867, -84088.08965541002, 72741.15952744002, -73358.02297091759, 85847.88719986525, -127908.61760480615, -0.036000000000000004, 0.9400000000000001, -0.196, 192.0, 0.0, 0.0, 0.0, 0.0, 0.0, 0.0, 0.0, 0.0, 0.0, 1.6664078801914876E9, 0.0, 2022-10-21 20:04:40.191
80.0, -144960.7634497599, -157151.67309661783, 51287.15053643591, -84092.89528046791, 72744.91462050851, -73372.59630830244, 85832.39744095772, -127918.9441107445, -0.036000000000000004, 0.9400000000000001, -0.196, 192.0, 0.0, 0.0, 0.0, 0.0, 0.0, 0.0, 0.0, 0.0, 0.0, 1.6664078801915004E9, 0.0, 2022-10-21 20:04:40.191
81.0, -144960.60698754873, -157150.46610241727, 51288.49164110323, -84076.846727949, 72746.61335308712, -73347.20472660121, 85863.24284830605, -127914.56316883126, -0.036000000000000004, 0.9400000000000001, -0.196, 192.0, 0.0, 0.0, 0.0, 0.0, 0.0, 0.0, 0.0, 0.0, 0.0, 1.6664078801915133E9, 0.0, 2022-10-21 20:04:40.191
82.0, -144963.2668451389, -157153.05890477408, 51285.0047689682, -84080.91474543986, 72746.3227804092, -73324.51770597907, 85886.13103462828, -127916.1948461765, -0.036000000000000004, 0.9400000000000001, -0.196, 192.0, 0.0, 0.0, 0.0, 0.0, 0.0, 0.0, 0.0, 0.0, 0.0, 1.6664078801915264E9, 0.0, 2022-10-21 20:04:40.191
83.0, -144960.94226371555, -157148.65561111638, 51282.076690444555, -84099.8019695046, 72741.33834139566, -73339.22515383067, 85859.24188604855, -127919.32409040025, -0.036000000000000004, 0.9400000000000001, -0.196, 192.0, 0.0, 0.0, 0.0, 0.0, 0.0, 0.0, 0.0, 0.0, 0.0, 1.6664078801915395E9, 0.0, 2022-10-21 20:04:40.191
84.0, -144952.11332465571, -157138.15029122238, 51292.8055277831, -84091.82239673405, 72752.35775141213, -73355.22900286067, 85843.39449922973, -127907.3882588611, -0.036000000000000004, 0.9400000000000001, -0.196, 192.0, 0.0, 0.0, 0.0, 0.0, 0.0, 0.0, 0.0, 0.0, 0.0, 1.6664078801915524E9, 0.0, 2022-10-21 20:04:40.191
85.0, -144958.64003403665, -157142.844157558, 51289.67628355936, -84080.82533846205, 72755.64345784707, -73340.74507245363, 85866.99794137455, -127904.437828593, -0.036000000000000004, 0.932, -0.194, 192.0, 254.0, 224.0, 29.0, 32.0, 249.0, 240.0, 0.0, 0.0, 0.0, 1.6664078801915653E9, 0.0, 2022-10-21 20:04:40.191
86.0, -144961.76927826038, -157146.331029693, 51281.4061381109, -84090.41423683337, 72743.6182193301, -73326.37290076887, 85883.0688456379, -127920.35227064518, -0.036000000000000004, 0.932, -0.194, 192.0, 0.0, 0.0, 0.0, 0.0, 0.0, 0.0, 0.0, 0.0, 0.0, 1.6664078801915796E9, 0.0, 2022-10-21 20:04:40.191
87.0, -144958.39416484765, -157144.90051804789, 51278.09807993151, -84104.78640851814, 72734.18578316996, -73344.92484866678, 85858.6607406927, -127927.32601491523, -0.036000000000000004, 0.932, -0.194, 192.0, 0.0, 0.0, 0.0, 0.0, 0.0, 0.0, 0.0, 0.0, 0.0, 1.666407880191593E9, 0.0, 2022-10-21 20:04:40.191
88.0, -144953.23091187846, -157135.42337839885, 51285.071824201565, -84107.1556934304, 72735.415129115, -73376.95489847123, 85827.10007752181, -127916.48541885441, -0.036000000000000004, 0.932, -0.194, 192.0, 0.0, 0.0, 0.0, 0.0, 0.0, 0.0, 0.0, 0.0, 0.0, 1.666407880191606E9, 0.0, 2022-10-21 20:04:40.191
89.0, -144954.05792642332, -157131.86945103045, 51293.58783883904, -84088.80491123258, 72748.91558276601, -73358.40295057332, 85850.39059524424, -127905.75658151587, -0.036000000000000004, 0.932, -0.194, 192.0, 0.0, 0.0, 0.0, 0.0, 0.0, 0.0, 0.0, 0.0, 0.0, 1.6664078801916895E9, 0.0, 2022-10-21 20:04:40.191
90.0, -144962.37277536068, -157141.5477563796, 51286.14470793542, -84082.83699546302, 72751.82130954521, -73317.23103728665, 85890.0202381635, -127906.38243036061, -0.036000000000000004, 0.932, -0.194, 192.0, 0.0, 0.0, 0.0, 0.0, 0.0, 0.0, 0.0, 0.0, 0.0, 1.666407880191703E9, 0.0, 2022-10-21 20:04:40.191
91.0, -144962.39512710515, -157140.56427962356, 51283.3060363896, -84096.00217294719, 72746.85922227612, -73325.32236877947, 85873.94933390013, -127911.65744205206, -0.036000000000000004, 0.932, -0.194, 192.0, 0.0, 0.0, 0.0, 0.0, 0.0, 0.0, 0.0, 0.0, 0.0, 1.6664078801917224E9, 0.0, 2022-10-21 20:04:40.191
92.0, -144964.00445270594, -157141.32423893502, 51279.908571232394, -84114.7552865452, 72739.8184227727, -73366.38252334387, 85832.68801363565, -127917.446543866, -0.036000000000000004, 0.932, -0.194, 192.0, 0.0, 0.0, 0.0, 0.0, 0.0, 0.0, 0.0, 0.0, 0.0, 1.6664078801917355E9, 0.0, 2022-10-21 20:04:40.191
93.0, -144964.02680445038, -157143.1794337248, 51275.371167107965, -84107.2003969193, 72745.65222807553, -73362.24745061963, 85838.94650208313, -127913.78085777532, -0.036000000000000004, 0.932, -0.194, 192.0, 0.0, 0.0, 0.0, 0.0, 0.0, 0.0, 0.0, 0.0, 0.0, 1.6664078801917481E9, 0.0, 2022-10-21 20:04:40.191
94.0, -144967.4689730965, -157145.30284944808, 51269.693824016314, -84094.95164095779, 72744.93697225297, -73327.5128397361, 85876.38567404577, -127910.80807576276, -0.036000000000000004, 0.932, -0.194, 192.0, 0.0, 0.0, 0.0, 0.0, 0.0, 0.0, 0.0, 0.0, 0.0, 1.666407880191762E9, 0.0, 2022-10-21 20:04:40.191
95.0, -144971.49228709846, -157147.9850587827, 51267.77157399316, -84102.3947718614, 72740.8242512732, -73326.21643855768, 85873.99403738906, -127912.86443625265, -0.038, 0.934, -0.194, 192.0, 254.0, 208.0, 29.0, 48.0, 249.0, 240.0, 0.0, 0.0, 0.0, 1.666407880191775E9, 0.0, 2022-10-21 20:04:40.191
96.0, -144964.60794980623, -157141.05601800157, 51273.80654499609, -84104.58524281804, 72746.9709809984, -73354.7149127382, 85844.37797598577, -127910.2939856403, -0.038, 0.934, -0.194, 192.0, 0.0, 0.0, 0.0, 0.0, 0.0, 0.0, 0.0, 0.0, 0.0, 1.666407880191789E9, 0.0, 2022-10-21 20:04:40.191
97.0, -144961.54576081585, -157138.37380866692, 51279.05920494309, -84091.95650720078, 72757.36454217012, -73356.10072089442, 85847.97660684308, -127903.70022102598, -0.038, 0.934, -0.194, 192.0, 0.0, 0.0, 0.0, 0.0, 0.0, 0.0, 0.0, 0.0, 0.0, 1.6664078801918015E9, 0.0, 2022-10-21 20:04:40.191
98.0, -144972.0063772209, -157150.77902683962, 51271.70548101729, -84085.8991844534, 72757.14102472557, -73325.30001703501, 85882.89003168227, -127907.05298269428, -0.038, 0.934, -0.194, 192.0, 0.0, 0.0, 0.0, 0.0, 0.0, 0.0, 0.0, 0.0, 0.0, 1.6664078801918144E9, 0.0, 2022-10-21 20:04:40.191
99.0, -144972.87809525468, -157152.2542419737, 51264.307053602584, -84100.4948735827, 72748.49089962136, -73314.83940062993, 85887.60624976234, -127901.97913670292, -0.038, 0.934, -0.194, 192.0, 0.0, 0.0, 0.0, 0.0, 0.0, 0.0, 0.0, 0.0, 0.0, 1.6664078801918268E9, 0.0, 2022-10-21 20:04:40.191
100.0, -144958.28240612536, -157133.5905353535, 51278.09807993151, -84090.12366415544, 72765.21000447393, -73325.36707226837, 85870.37305478728, -127888.21046211846, -0.038, 0.934, -0.194, 192.0, 0.0, 0.0, 0.0, 0.0, 0.0, 0.0, 0.0, 0.0, 0.0, 1.6664078801918397E9, 0.0, 2022-10-21 20:04:40.191
101.0, -144965.50201958444, -157143.090026747, 51270.34202460552, -84102.1041991835, 72763.33245793969, -73351.3621510699, 85848.69186266564, -127905.75658151587, -0.038, 0.934, -0.194, 192.0, 0.0, 0.0, 0.0, 0.0, 0.0, 0.0, 0.0, 0.0, 0.0, 1.6664078801918526E9, 0.0, 2022-10-21 20:04:40.191
102.0, -144975.2250284225, -157153.48358791872, 51256.550998276594, -84099.31023112658, 72759.24208870437, -73331.08911884893, 85873.70346471113, -127913.40087811959, -0.038, 0.934, -0.194, 192.0, 0.0, 0.0, 0.0, 0.0, 0.0, 0.0, 0.0, 0.0, 0.0, 1.6664078801918657E9, 0.0, 2022-10-21 20:04:40.191
103.0, -144977.79547903486, -157157.90923332088, 51253.198236608296, -84100.83014974954, 72755.33053342468, -73312.33600525094, 85891.11547364181, -127910.00341296238, -0.038, 0.934, -0.194, 192.0, 0.0, 0.0, 0.0, 0.0, 0.0, 0.0, 0.0, 0.0, 0.0, 1.666407880191878E9, 0.0, 2022-10-21 20:04:40.191
104.0, -144971.9169702431, -157149.57203263903, 51258.33913783302, -84104.78640851814, 72754.99525725785, -73328.42926125876, 85865.14274658475, -127914.27259615334, -0.038, 0.934, -0.194, 192.0, 0.0, 0.0, 0.0, 0.0, 0.0, 0.0, 0.0, 0.0, 0.0, 1.6664078801918907E9, 0.0, 2022-10-21 20:04:40.191
105.0, -144970.6652725536, -157150.82373032853, 51259.970815178254, -84116.38696389043, 72745.58517284217, -73362.69448550875, 85833.24680724702, -127909.66813679555, -0.044, 0.9380000000000001, -0.20400000000000001, 192.0, 254.0, 160.0, 29.0, 80.0, 249.0, 160.0, 0.0, 0.0, 0.0, 1.6664078801919172E9, 0.0, 2022-10-21 20:04:40.191
106.0, -144983.85280178222, -157168.19103577032, 51244.97279464875, -84117.3033854131, 72739.10316695012, -73354.312581338, 85848.15542079872, -127917.11126769916, -0.044, 0.9380000000000001, -0.20400000000000001, 192.0, 0.0, 0.0, 0.0, 0.0, 0.0, 0.0, 0.0, 0.0, 0.0, 1.666407880191931E9, 0.0, 2022-10-21 20:04:40.191
107.0, -144982.0646622258, -157165.5535299246, 51247.27502432764, -84115.69405981232, 72739.34903613915, -73315.82287738596, 85882.53240377098, -127909.19875016199, -0.044, 0.9380000000000001, -0.20400000000000001, 192.0, 0.0, 0.0, 0.0, 0.0, 0.0, 0.0, 0.0, 0.0, 0.0, 1.6664078801919441E9, 0.0, 2022-10-21 20:04:40.191
108.0, -144972.5651708323, -157156.09874202, 51254.315823831064, -84117.79512379112, 72738.18674542746, -73333.99484562813, 85858.14665057024, -127912.21623566345, -0.044, 0.9380000000000001, -0.20400000000000001, 192.0, 0.0, 0.0, 0.0, 0.0, 0.0, 0.0, 0.0, 0.0, 0.0, 1.6664078801919572E9, 0.0, 2022-10-21 20:04:40.191
109.0, -144974.33095864428, -157155.9869832977, 51251.61126275197, -84133.66486235439, 72729.73778602335, -73371.07638967948, 85819.7016501071, -127923.07918346873, -0.044, 0.9380000000000001, -0.20400000000000001, 192.0, 0.0, 0.0, 0.0, 0.0, 0.0, 0.0, 0.0, 0.0, 0.0, 1.66640788019197E9, 0.0, 2022-10-21 20:04:40.191
110.0, -144972.09578419875, -157151.62839312892, 51256.61805350996, -84116.09639121252, 72738.61142857211, -73351.3621510699, 85845.40615623072, -127914.18318917551, -0.044, 0.9380000000000001, -0.20400000000000001, 192.0, 0.0, 0.0, 0.0, 0.0, 0.0, 0.0, 0.0, 0.0, 0.0, 1.6664078801919827E9, 0.0, 2022-10-21 20:04:40.191
111.0, -144970.6652725536, -157146.331029693, 51257.400364565896, -84105.43460910734, 72741.98654198486, -73316.09109831943, 85880.61015374782, -127909.01993620634, -0.044, 0.9380000000000001, -0.20400000000000001, 192.0, 0.0, 0.0, 0.0, 0.0, 0.0, 0.0, 0.0, 0.0, 0.0, 1.6664078801919956E9, 0.0, 2022-10-21 20:04:40.191
112.0, -144967.22310390748, -157145.81693957056, 51260.61901576746, -84121.48316162624, 72737.11386169361, -73319.28739777654, 85868.22728731958, -127909.95870947346, -0.044, 0.9380000000000001, -0.20400000000000001, 192.0, 0.0, 0.0, 0.0, 0.0, 0.0, 0.0, 0.0, 0.0, 0.0, 1.666407880192011E9, 0.0, 2022-10-21 20:04:40.192
113.0, -144963.42330735008, -157142.4865296467, 51264.01648092467, -84137.84463856753, 72733.87285874759, -73359.25231686262, 85829.62582464526, -127897.30762211177, -0.044, 0.9380000000000001, -0.20400000000000001, 192.0, 0.0, 0.0, 0.0, 0.0, 0.0, 0.0, 0.0, 0.0, 0.0, 1.666407880192024E9, 0.0, 2022-10-21 20:04:40.192
114.0, -144964.69735678405, -157143.6935238473, 51259.568483778065, -84129.84271405253, 72738.00793147182, -73359.565241285, 85835.6607956482, -127899.40868609057, -0.046, 0.9500000000000001, -0.20400000000000001, 192.0, 254.0, 144.0, 29.0, 176.0, 249.0, 160.0, 0.0, 0.0, 0.0, 1.6664078801920366E9, 0.0, 2022-10-21 20:04:40.192
115.0, -144964.49619108395, -157141.52540463512, 51259.47907680024, -84112.07307721056, 72745.16048969752, -73321.0084820996, 85874.41872053371, -127910.91983448504, -0.046, 0.9500000000000001, -0.20400000000000001, 192.0, 0.0, 0.0, 0.0, 0.0, 0.0, 0.0, 0.0, 0.0, 0.0, 1.66640788019205E9, 0.0, 2022-10-21 20:04:40.192
116.0, -144973.6604063106, -157150.6896198618, 51250.33721331802, -84127.76400181818, 72737.918524494, -73325.16590656828, 85865.25450530702, -127920.41932587855, -0.046, 0.9500000000000001, -0.20400000000000001, 192.0, 0.0, 0.0, 0.0, 0.0, 0.0, 0.0, 0.0, 0.0, 0.0, 1.6664078801920629E9, 0.0, 2022-10-21 20:04:40.192
117.0, -144967.08899344076, -157144.90051804789, 51253.421754052855, -84129.77565881917, 72742.16535594051, -73353.6643807488, 85833.3138624804, -127916.6418810656, -0.046, 0.9500000000000001, -0.20400000000000001, 192.0, 0.0, 0.0, 0.0, 0.0, 0.0, 0.0, 0.0, 0.0, 0.0, 1.6664078801920755E9, 0.0, 2022-10-21 20:04:40.192
118.0, -144973.1686679326, -157150.66726811737, 51245.75510570468, -84126.82522855107, 72737.24797216034, -73371.47872107968, 85826.98831879954, -127925.42611663653, -0.046, 0.9500000000000001, -0.20400000000000001, 192.0, 0.0, 0.0, 0.0, 0.0, 0.0, 0.0, 0.0, 0.0, 0.0, 1.666407880192088E9, 0.0, 2022-10-21 20:04:40.192
119.0, -144965.50201958444, -157143.6935238473, 51248.39261155041, -84116.96810924627, 72740.24310591735, -73337.05703461851, 85866.79677567445, -127912.68562229701, -0.046, 0.9500000000000001, -0.20400000000000001, 192.0, 0.0, 0.0, 0.0, 0.0, 0.0, 0.0, 0.0, 0.0, 0.0, 1.6664078801921008E9, 0.0, 2022-10-21 20:04:40.192
120.0, -144960.94226371555, -157137.72560807772, 51253.421754052855, -84113.68240281135, 72749.76494905532, -73312.91715060678, 85880.05136013644, -127908.08116293921, -0.046, 0.9500000000000001, -0.20400000000000001, 192.0, 0.0, 0.0, 0.0, 0.0, 0.0, 0.0, 0.0, 0.0, 0.0, 1.666407880192188E9, 0.0, 2022-10-21 20:04:40.192
121.0, -144952.91798745608, -157128.02495098414, 51255.366355820464, -84111.13430394344, 72754.43646364647, -73341.37092129838, 85844.64619691923, -127910.40574436256, -0.046, 0.9500000000000001, -0.20400000000000001, 192.0, 0.0, 0.0, 0.0, 0.0, 0.0, 0.0, 0.0, 0.0, 0.0, 1.666407880192201E9, 0.0, 2022-10-21 20:04:40.192
122.0, -144955.9131212131, -157133.45642488677, 51247.744410961204, -84117.2586819242, 72752.60362060113, -73351.63037200336, 85832.88917933575, -127908.77406701734, -0.046, 0.9500000000000001, -0.20400000000000001, 192.0, 0.0, 0.0, 0.0, 0.0, 0.0, 0.0, 0.0, 0.0, 0.0, 1.6664078801922135E9, 0.0, 2022-10-21 20:04:40.192
123.0, -144955.2649206239, -157133.70229407577, 51245.46453302676, -84099.6008038045, 72760.20321371594, -73314.59353144093, 85876.63154323478, -127902.1355989141, -0.046, 0.9500000000000001, -0.20400000000000001, 192.0, 0.0, 0.0, 0.0, 0.0, 0.0, 0.0, 0.0, 0.0, 0.0, 1.6664078801922264E9, 0.0, 2022-10-21 20:04:40.192
124.0, -144961.99279570495, -157140.27370694562, 51232.96990787624, -84107.75919053069, 72754.23529794638, -73303.81999061347, 85886.4216073062, -127908.48349433941, -0.04, 0.9460000000000001, -0.196, 192.0, 254.0, 192.0, 29.0, 144.0, 249.0, 224.0, 0.0, 0.0, 0.0, 1.6664078801922395E9, 0.0, 2022-10-21 20:04:40.192
125.0, -144962.77510676088, -157139.26787844516, 51225.14679731689, -84126.82522855107, 72744.2217164304, -73336.43118577376, 85847.28370276497, -127920.75460204537, -0.04, 0.9460000000000001, -0.196, 192.0, 0.0, 0.0, 0.0, 0.0, 0.0, 0.0, 0.0, 0.0, 0.0, 1.6664078801922534E9, 0.0, 2022-10-21 20:04:40.192
126.0, -144963.2668451389, -157139.87137554545, 51218.262460024656, -84126.24408319523, 72740.75719603982, -73363.61090703141, 85822.42856293065, -127922.98977649091, -0.04, 0.9460000000000001, -0.196, 192.0, 0.0, 0.0, 0.0, 0.0, 0.0, 0.0, 0.0, 0.0, 0.0, 1.6664078801922734E9, 0.0, 2022-10-21 20:04:40.192
127.0, -144965.12203992868, -157143.2464889582, 51218.597736191485, -84105.14403642941, 72749.29556242176, -73338.01815963008, 85858.99601685954, -127911.92566298554, -0.04, 0.9460000000000001, -0.196, 192.0, 0.0, 0.0, 0.0, 0.0, 0.0, 0.0, 0.0, 0.0, 0.0, 1.6664078801922865E9, 0.0, 2022-10-21 20:04:40.192
128.0, -144963.42330735008, -157138.3961604114, 51220.408227492364, -84097.11976016995, 72752.29069617877, -73312.91715060678, 85885.75105497254, -127903.5884623037, -0.04, 0.9460000000000001, -0.196, 192.0, 0.0, 0.0, 0.0, 0.0, 0.0, 0.0, 0.0, 0.0, 0.0, 1.666407880192299E9, 0.0, 2022-10-21 20:04:40.192
129.0, -144962.70805152753, -157136.60802085497, 51217.547204202085, -84111.87191151046, 72746.18866994246, -73335.55946774001, 85853.98922610155, -127904.37077335964, -0.04, 0.9460000000000001, -0.196, 192.0, 0.0, 0.0, 0.0, 0.0, 0.0, 0.0, 0.0, 0.0, 0.0, 1.6664078801923115E9, 0.0, 2022-10-21 20:04:40.192
130.0, -144963.713880028, -157136.9880005107, 51215.55789894556, -84113.39183013342, 72749.40732114403, -73358.13472963986, 85828.9105688227, -127905.71187802695, -0.04, 0.9460000000000001, -0.196, 192.0, 0.0, 0.0, 0.0, 0.0, 0.0, 0.0, 0.0, 0.0, 0.0, 1.6664078801923242E9, 0.0, 2022-10-21 20:04:40.192
131.0, -144955.15316190163, -157126.95206725027, 51222.39753274889, -84084.73689374172, 72758.7727020708, -73334.37482528387, 85863.60047621734, -127890.35622958616, -0.04, 0.9460000000000001, -0.196, 192.0, 0.0, 0.0, 0.0, 0.0, 0.0, 0.0, 0.0, 0.0, 0.0, 1.6664078801923378E9, 0.0, 2022-10-21 20:04:40.192
132.0, -144964.78676376186, -157135.3786749099, 51213.81446287805, -84094.79517874662, 72753.07300723469, -73308.04447031552, 85890.84725270835, -127895.43007557752, -0.04, 0.9460000000000001, -0.196, 192.0, 0.0, 0.0, 0.0, 0.0, 0.0, 0.0, 0.0, 0.0, 0.0, 1.6664078801923506E9, 0.0, 2022-10-21 20:04:40.192
133.0, -144968.13952543016, -157139.35728542297, 51207.757140130656, -84114.86704526747, 72741.7183210514, -73329.94917988172, 85859.39834825974, -127912.21623566345, -0.04, 0.9460000000000001, -0.196, 192.0, 0.0, 0.0, 0.0, 0.0, 0.0, 0.0, 0.0, 0.0, 0.0, 1.6664078801923654E9, 0.0, 2022-10-21 20:04:40.192
134.0, -144962.2610166384, -157132.1376719639, 51211.109901798955, -84117.32573715756, 72742.23241117387, -73363.09681690893, 85819.81340882939, -127920.10640145617, -0.04, 0.934, -0.194, 192.0, 254.0, 192.0, 29.0, 48.0, 249.0, 240.0, 0.0, 0.0, 0.0, 1.6664078801923788E9, 0.0, 2022-10-21 20:04:40.192
135.0, -144965.90435098464, -157137.9938290112, 51212.47335821073, -84105.63577480744, 72748.51325136582, -73350.33397082496, 85837.82891486037, -127914.98785197591, -0.04, 0.934, -0.194, 192.0, 0.0, 0.0, 0.0, 0.0, 0.0, 0.0, 0.0, 0.0, 0.0, 1.6664078801924067E9, 0.0, 2022-10-21 20:04:40.192
136.0, -144966.79842076285, -157139.20082321178, 51215.62495417893, -84089.52016705516, 72758.68329509298, -73306.9492348372, 85883.53823227147, -127905.2871948823, -0.04, 0.934, -0.194, 192.0, 0.0, 0.0, 0.0, 0.0, 0.0, 0.0, 0.0, 0.0, 0.0, 1.6664078801924193E9, 0.0, 2022-10-21 20:04:40.192
137.0, -144965.54672307335, -157141.078369746, 51216.04963732358, -84094.50460606869, 72754.70468457993, -73313.18537154024, 85870.46246176511, -127907.9917559614, -0.04, 0.934, -0.194, 192.0, 0.0, 0.0, 0.0, 0.0, 0.0, 0.0, 0.0, 0.0, 0.0, 1.6664078801924324E9, 0.0, 2022-10-21 20:04:40.192
138.0, -144960.60698754873, -157134.90928827637, 51219.82708213652, -84096.8962427254, 72756.0234375028, -73342.84613643243, 85838.63357766076, -127906.04715419379, -0.04, 0.934, -0.194, 192.0, 0.0, 0.0, 0.0, 0.0, 0.0, 0.0, 0.0, 0.0, 0.0, 1.6664078801924453E9, 0.0, 2022-10-21 20:04:40.192
139.0, -144962.0151474494, -157133.5905353535, 51214.35090474498, -84089.52016705516, 72757.0739694922, -73344.14253761084, 85839.84057186134, -127911.5903868187, -0.04, 0.934, -0.194, 192.0, 0.0, 0.0, 0.0, 0.0, 0.0, 0.0, 0.0, 0.0, 0.0, 1.666407880192458E9, 0.0, 2022-10-21 20:04:40.192
140.0, -144958.55062705884, -157129.81309054056, 51214.686180911805, -84071.81758544655, 72756.91750728102, -73315.66641517478, 85872.85409842183, -127909.2434536509, -0.04, 0.934, -0.194, 192.0, 0.0, 0.0, 0.0, 0.0, 0.0, 0.0, 0.0, 0.0, 0.0, 1.6664078801924706E9, 0.0, 2022-10-21 20:04:40.192
141.0, -144960.47287708198, -157132.27178243065, 51212.786282633104, -84075.5503267706, 72756.40341715854, -73310.9054936058, 85870.30599955392, -127915.50194209839, -0.04, 0.934, -0.194, 192.0, 0.0, 0.0, 0.0, 0.0, 0.0, 0.0, 0.0, 0.0, 0.0, 1.6664078801924832E9, 0.0, 2022-10-21 20:04:40.192
142.0, -144975.4708976115, -157144.87816630342, 51196.156584758355, -84107.2003969193, 72735.54923958174, -73359.60994477391, 85815.72303959407, -127934.65738709658, -0.04, 0.934, -0.194, 192.0, 0.0, 0.0, 0.0, 0.0, 0.0, 0.0, 0.0, 0.0, 0.0, 1.6664078801924956E9, 0.0, 2022-10-21 20:04:40.192
143.0, -144968.69831904155, -157137.05505574407, 51206.41603546334, -84095.53278631363, 72743.88644026357, -73359.40877907381, 85820.99805128551, -127926.83427653722, -0.042, 0.928, -0.184, 192.0, 254.0, 176.0, 29.0, 0.0, 250.0, 64.0, 0.0, 0.0, 0.0, 1.6664078801925087E9, 0.0, 2022-10-21 20:04:40.192
144.0, -144961.07637418227, -157129.90249751837, 51216.87665186843, -84075.05858839257, 72752.96124851242, -73319.77913615455, 85867.64614196375, -127911.92566298554, -0.042, 0.928, -0.184, 192.0, 0.0, 0.0, 0.0, 0.0, 0.0, 0.0, 0.0, 0.0, 0.0, 1.6664078801925223E9, 0.0, 2022-10-21 20:04:40.192
145.0, -144959.66821428158, -157127.9355440063, 51215.2896780121, -84075.48327153722, 72752.53656536777, -73315.17467679676, 85872.80939493292, -127915.41253512056, -0.042, 0.928, -0.184, 192.0, 0.0, 0.0, 0.0, 0.0, 0.0, 0.0, 0.0, 0.0, 0.0, 1.666407880192535E9, 0.0, 2022-10-21 20:04:40.192
146.0, -144960.83050499327, -157131.0424364856, 51214.060332067056, -84083.48519605222, 72753.78826305727, -73334.91126715079, 85840.93580733966, -127919.16762818905, -0.042, 0.928, -0.184, 192.0, 0.0, 0.0, 0.0, 0.0, 0.0, 0.0, 0.0, 0.0, 0.0, 1.6664078801925476E9, 0.0, 2022-10-21 20:04:40.192
147.0, -144964.20561840603, -157135.2445644432, 51216.1390443014, -84078.97014367225, 72756.69398983647, -73340.58861024244, 85830.43048744566, -127919.5923113337, -0.042, 0.928, -0.184, 192.0, 0.0, 0.0, 0.0, 0.0, 0.0, 0.0, 0.0, 0.0, 0.0, 1.6664078801925604E9, 0.0, 2022-10-21 20:04:40.192
148.0, -144967.42426960758, -157139.8937272899, 51211.892212854895, -84063.838012676, 72758.3703706706, -73316.51578146408, 85865.7238919406, -127919.32409040025, -0.042, 0.928, -0.184, 192.0, 0.0, 0.0, 0.0, 0.0, 0.0, 0.0, 0.0, 0.0, 0.0, 1.6664078801925733E9, 0.0, 2022-10-21 20:04:40.192
149.0, -144960.83050499327, -157132.11532021945, 51217.1895762908, -84057.78068992862, 72763.89125155106, -73295.19221725372, 85885.08050263888, -127914.65257580909, -0.042, 0.928, -0.184, 192.0, 0.0, 0.0, 0.0, 0.0, 0.0, 0.0, 0.0, 0.0, 0.0, 1.666407880192586E9, 0.0, 2022-10-21 20:04:40.192
150.0, -144954.16968514558, -157128.31552366205, 51224.43154149432, -84058.22772481773, 72768.69687660896, -73312.38070873985, 85859.04072034845, -127911.1433519296, -0.042, 0.928, -0.184, 192.0, 0.0, 0.0, 0.0, 0.0, 0.0, 0.0, 0.0, 0.0, 0.0, 1.6664078801926105E9, 0.0, 2022-10-21 20:04:40.192
151.0, -144958.30475786983, -157132.24943068618, 51217.16722454634, -84067.66016097786, 72762.99718177285, -73348.32231382398, 85827.70357462211, -127909.66813679555, -0.042, 0.928, -0.184, 192.0, 0.0, 0.0, 0.0, 0.0, 0.0, 0.0, 0.0, 0.0, 0.0, 1.6664078801926234E9, 0.0, 2022-10-21 20:04:40.192
152.0, -144952.26978686688, -157125.65566607186, 51219.9388408588, -84044.99549210018, 72773.05546677775, -73325.72470017966, 85859.93479012666, -127903.65551753707, -0.042, 0.928, -0.184, 192.0, 0.0, 0.0, 0.0, 0.0, 0.0, 0.0, 0.0, 0.0, 0.0, 1.666407880192636E9, 0.0, 2022-10-21 20:04:40.192
153.0, -144962.55158931634, -157136.7868348106, 51207.9359540863, -84063.74860569819, 72761.85724280564, -73302.30007199051, 85878.30792406893, -127919.56995958925, -0.038, 0.926, -0.186, 192.0, 254.0, 208.0, 28.0, 240.0, 250.0, 48.0, 0.0, 0.0, 0.0, 1.6664078801926484E9, 0.0, 2022-10-21 20:04:40.192
154.0, -144963.713880028, -157137.32327667755, 51203.286791239596, -84070.5435360126, 72759.13032998209, -73305.02698481405, 85858.10194708133, -127918.96646248896, -0.038, 0.926, -0.186, 192.0, 0.0, 0.0, 0.0, 0.0, 0.0, 0.0, 0.0, 0.0, 0.0, 1.6664078801926618E9, 0.0, 2022-10-21 20:04:40.192
155.0, -144960.24935963744, -157131.02008474115, 51205.119634284936, -84075.70678898177, 72752.80478630123, -73340.18627884224, 85825.08842052084, -127921.22398867895, -0.038, 0.926, -0.186, 192.0, 0.0, 0.0, 0.0, 0.0, 0.0, 0.0, 0.0, 0.0, 0.0, 1.6664078801926723E9, 0.0, 2022-10-21 20:04:40.192
156.0, -144959.9140834706, -157130.6848085743, 51207.064236052545, -84060.75347194118, 72760.69495209395, -73324.562409468, 85854.90564762421, -127911.5903868187, -0.038, 0.926, -0.186, 192.0, 0.0, 0.0, 0.0, 0.0, 0.0, 0.0, 0.0, 0.0, 0.0, 1.6664078801926813E9, 0.0, 2022-10-21 20:04:40.192
157.0, -144966.84312425175, -157136.92094527735, 51201.52100342763, -84061.24521031919, 72758.59388811515, -73294.20874049768, 85886.73453172858, -127915.7478112874, -0.038, 0.926, -0.186, 192.0, 0.0, 0.0, 0.0, 0.0, 0.0, 0.0, 0.0, 0.0, 0.0, 1.6664078801926904E9, 0.0, 2022-10-21 20:04:40.192
158.0, -144973.39218537716, -157142.46417790226, 51191.59682888947, -84074.70096048129, 72747.84269903216, -73310.03377557204, 85859.53245872646, -127928.33184341573, -0.038, 0.926, -0.186, 192.0, 0.0, 0.0, 0.0, 0.0, 0.0, 0.0, 0.0, 0.0, 0.0, 1.6664078801926997E9, 0.0, 2022-10-21 20:04:40.192
159.0, -144960.02584219287, -157123.39813988187, 51202.8844598394, -84062.85453591998, 72760.18086197149, -73332.96666538318, 85837.65010090472, -127917.60300607717, -0.038, 0.926, -0.186, 192.0, 0.0, 0.0, 0.0, 0.0, 0.0, 0.0, 0.0, 0.0, 0.0, 1.6664078801927087E9, 0.0, 2022-10-21 20:04:40.192
160.0, -144952.89563571164, -157116.08911944498, 51211.71339889925, -84050.51637298065, 72766.68521960799, -73327.33402578045, 85852.9163423677, -127902.80615124777, -0.038, 0.926, -0.186, 192.0, 0.0, 0.0, 0.0, 0.0, 0.0, 0.0, 0.0, 0.0, 0.0, 1.666407880192718E9, 0.0, 2022-10-21 20:04:40.192
161.0, -144967.58073181877, -157131.62358184144, 51193.51907891263, -84070.2976668236, 72754.45881539093, -73305.40696446979, 85875.44690077864, -127922.56509334626, -0.038, 0.926, -0.186, 192.0, 0.0, 0.0, 0.0, 0.0, 0.0, 0.0, 0.0, 0.0, 0.0, 1.666407880192727E9, 0.0, 2022-10-21 20:04:40.192
162.0, -144967.04428995185, -157130.77421555214, 51190.94862830027, -84078.97014367225, 72749.96611475541, -73305.67518540325, 85865.20980181811, -127926.87898002613, -0.038, 0.926, -0.186, 192.0, 0.0, 0.0, 0.0, 0.0, 0.0, 0.0, 0.0, 0.0, 0.0, 1.6664078801927364E9, 0.0, 2022-10-21 20:04:40.192
163.0, -144964.7197085285, -157129.72368356274, 51191.70858761175, -84078.61251576096, 72754.68233283548, -73331.51380199358, 85833.73854562505, -127927.99656724889, -0.044, 0.9400000000000001, -0.188, 192.0, 254.0, 160.0, 29.0, 96.0, 250.0, 32.0, 0.0, 0.0, 0.0, 1.6664078801927457E9, 0.0, 2022-10-21 20:04:40.192
164.0, -144963.468010839, -157129.07548297354, 51193.96611380173, -84075.50562328167, 72757.3198386812, -73334.75480493961, 85835.52668518147, -127920.86636076766, -0.044, 0.9400000000000001, -0.188, 192.0, 0.0, 0.0, 0.0, 0.0, 0.0, 0.0, 0.0, 0.0, 0.0, 1.6664078801927555E9, 0.0, 2022-10-21 20:04:40.192
165.0, -144964.18326666157, -157126.79560503908, 51197.900020825866, -84058.22772481773, 72764.78532132928, -73296.55567366548, 85878.17381360219, -127915.01020372036, -0.044, 0.9400000000000001, -0.188, 192.0, 0.0, 0.0, 0.0, 0.0, 0.0, 0.0, 0.0, 0.0, 0.0, 1.666407880192773E9, 0.0, 2022-10-21 20:04:40.192
166.0, -144972.45341211004, -157131.31065741906, 51190.836869577994, -84069.91768716785, 72755.6211061026, -73295.7510108651, 85872.25060132153, -127925.60493059218, -0.044, 0.9400000000000001, -0.188, 192.0, 0.0, 0.0, 0.0, 0.0, 0.0, 0.0, 0.0, 0.0, 0.0, 1.6664078801927824E9, 0.0, 2022-10-21 20:04:40.192
167.0, -144962.50688582743, -157122.01233172565, 51193.496727168174, -84082.18879487381, 72751.35192291164, -73327.5128397361, 85835.34787122582, -127919.72642180043, -0.044, 0.9400000000000001, -0.188, 192.0, 0.0, 0.0, 0.0, 0.0, 0.0, 0.0, 0.0, 0.0, 0.0, 1.6664078801927917E9, 0.0, 2022-10-21 20:04:40.192
168.0, -144958.61768229218, -157119.91126774685, 51199.97873306021, -84071.81758544655, 72760.38202767159, -73329.70331069271, 85836.53251368196, -127904.46018033745, -0.044, 0.9400000000000001, -0.188, 192.0, 0.0, 0.0, 0.0, 0.0, 0.0, 0.0, 0.0, 0.0, 0.0, 1.6664078801928008E9, 0.0, 2022-10-21 20:04:40.192
169.0, -144957.03070843586, -157118.70427354626, 51202.70564588376, -84044.16847755534, 72766.7299230969, -73303.08238304644, 85873.74816820004, -127892.68081100952, -0.044, 0.9400000000000001, -0.188, 192.0, 0.0, 0.0, 0.0, 0.0, 0.0, 0.0, 0.0, 0.0, 0.0, 1.66640788019281E9, 0.0, 2022-10-21 20:04:40.192
170.0, -144966.53019982937, -157127.15323295037, 51187.57351488752, -84068.0401406336, 72751.26251593382, -73302.52358943506, 85871.13301409877, -127918.9441107445, -0.044, 0.9400000000000001, -0.188, 192.0, 0.0, 0.0, 0.0, 0.0, 0.0, 0.0, 0.0, 0.0, 0.0, 1.666407880192819E9, 0.0, 2022-10-21 20:04:40.192
171.0, -144961.94809221604, -157119.71010204675, 51186.791203831584, -84089.22959437723, 72742.09830070715, -73323.42247050077, 85835.34787122582, -127925.0461369808, -0.044, 0.9400000000000001, -0.188, 192.0, 0.0, 0.0, 0.0, 0.0, 0.0, 0.0, 0.0, 0.0, 0.0, 1.666407880192828E9, 0.0, 2022-10-21 20:04:40.192
172.0, -144964.67500503958, -157123.24167767068, 51179.41512816133, -84086.12270189796, 72744.4228821305, -73343.94137191074, 85819.16520824019, -127923.9956049914, -0.044, 0.9400000000000001, -0.188, 192.0, 0.0, 0.0, 0.0, 0.0, 0.0, 0.0, 0.0, 0.0, 0.0, 1.6664078801928372E9, 0.0, 2022-10-21 20:04:40.192
173.0, -144971.82756326528, -157132.6294103419, 51170.80970654604, -84074.2986290811, 72743.12648095208, -73323.69069143423, 85845.09323180834, -127925.67198582555, -0.034, 0.9400000000000001, -0.192, 192.0, 254.0, 240.0, 29.0, 96.0, 250.0, 0.0, 0.0, 0.0, 0.0, 1.6664078801928463E9, 0.0, 2022-10-21 20:04:40.192
174.0, -144972.207542921, -157134.7304743207, 51177.73874732718, -84061.15580334137, 72753.7212078239, -73286.4973886606, 85878.33027581338, -127913.53498858631, -0.034, 0.9400000000000001, -0.192, 192.0, 0.0, 0.0, 0.0, 0.0, 0.0, 0.0, 0.0, 0.0, 0.0, 1.6664078801928558E9, 0.0, 2022-10-21 20:04:40.192
175.0, -144973.5709993328, -157135.333971421, 51173.73778506968, -84072.1975651023, 72751.26251593382, -73308.44680171572, 85849.5635806994, -127918.43002062202, -0.034, 0.9400000000000001, -0.192, 192.0, 0.0, 0.0, 0.0, 0.0, 0.0, 0.0, 0.0, 0.0, 0.0, 1.666407880192865E9, 0.0, 2022-10-21 20:04:40.192
176.0, -144972.22989466548, -157132.36118940846, 51168.261607678134, -84075.88560293741, 72751.97777175638, -73336.34177879593, 85822.13799025274, -127916.48541885441, -0.034, 0.9400000000000001, -0.192, 192.0, 0.0, 0.0, 0.0, 0.0, 0.0, 0.0, 0.0, 0.0, 0.0, 1.6664078801928751E9, 0.0, 2022-10-21 20:04:40.192
177.0, -144973.14631618815, -157133.52348012014, 51166.13819195488, -84059.41236727386, 72759.175033471, -73318.66154893179, 85849.78709814395, -127912.86443625265, -0.034, 0.9400000000000001, -0.192, 192.0, 0.0, 0.0, 0.0, 0.0, 0.0, 0.0, 0.0, 0.0, 0.0, 1.6664078801928844E9, 0.0, 2022-10-21 20:04:40.192
178.0, -144979.80713603582, -157142.2853639466, 51157.64452906186, -84060.52995449663, 72756.44812064744, -73293.73935386412, 85872.87645016628, -127922.87801776863, -0.034, 0.9400000000000001, -0.192, 192.0, 0.0, 0.0, 0.0, 0.0, 0.0, 0.0, 0.0, 0.0, 0.0, 1.6664078801928933E9, 0.0, 2022-10-21 20:04:40.192
179.0, -144973.23572316597, -157136.7421313217, 51162.07017446401, -84065.62615223243, 72754.61527760212, -73304.87052260287, 85852.7598801565, -127920.62049157865, -0.034, 0.9400000000000001, -0.192, 192.0, 0.0, 0.0, 0.0, 0.0, 0.0, 0.0, 0.0, 0.0, 0.0, 1.6664078801929023E9, 0.0, 2022-10-21 20:04:40.192
180.0, -144962.64099629415, -157125.32038990504, 51174.833020547994, -84049.37643401342, 72774.46362667842, -73310.9501970947, 85840.84640036183, -127905.64482279359, -0.034, 0.9400000000000001, -0.192, 192.0, 0.0, 0.0, 0.0, 0.0, 0.0, 0.0, 0.0, 0.0, 0.0, 1.6664078801929195E9, 0.0, 2022-10-21 20:04:40.192
181.0, -144969.99472021995, -157131.46711963025, 51165.93702625478, -84054.38322477142, 72766.99814403035, -73308.75972613809, 85848.73656615455, -127914.96550023145, -0.034, 0.9400000000000001, -0.192, 192.0, 0.0, 0.0, 0.0, 0.0, 0.0, 0.0, 0.0, 0.0, 0.0, 1.6664078801929286E9, 0.0, 2022-10-21 20:04:40.192
182.0, -144982.3775866482, -157141.77127382415, 51151.609558058924, -84064.8438411765, 72750.03316998878, -73298.32146147746, 85866.99794137455, -127929.31532017177, -0.04, 0.934, -0.194, 192.0, 254.0, 192.0, 29.0, 48.0, 249.0, 240.0, 0.0, 0.0, 0.0, 1.6664078801929376E9, 0.0, 2022-10-21 20:04:40.192
183.0, -144981.4164616366, -157141.3465906795, 51148.323851623994, -84072.42108254685, 72744.73580655287, -73307.84330461542, 85850.50235396653, -127935.61851210815, -0.04, 0.934, -0.194, 192.0, 0.0, 0.0, 0.0, 0.0, 0.0, 0.0, 0.0, 0.0, 0.0, 1.6664078801929471E9, 0.0, 2022-10-21 20:04:40.192
184.0, -144995.36395017672, -157153.2377187297, 51132.36470608291, -84091.48712056722, 72728.73195752288, -73344.67897947777, 85801.82025454286, -127950.9071053156, -0.04, 0.934, -0.194, 192.0, 0.0, 0.0, 0.0, 0.0, 0.0, 0.0, 0.0, 0.0, 0.0, 1.6664078801929564E9, 0.0, 2022-10-21 20:04:40.192
185.0, -144994.04519725384, -157150.1531779949, 51133.92932819478, -84080.82533846205, 72730.78831801275, -73336.38648228484, 85816.21477797208, -127942.86047731168, -0.04, 0.934, -0.194, 192.0, 0.0, 0.0, 0.0, 0.0, 0.0, 0.0, 0.0, 0.0, 0.0, 1.6664078801929653E9, 0.0, 2022-10-21 20:04:40.192
186.0, -144988.99370300697, -157143.335895936, 51140.47838932018, -84065.84966967699, 72739.1255186946, -73297.60620565488, 85862.39348201675, -127930.38820390562, -0.04, 0.934, -0.194, 192.0, 0.0, 0.0, 0.0, 0.0, 0.0, 0.0, 0.0, 0.0, 0.0, 1.6664078801929743E9, 0.0, 2022-10-21 20:04:40.192
187.0, -144985.88681052768, -157139.2902301896, 51143.00413644363, -84072.08580638001, 72738.00793147182, -73289.13489450632, 85863.84634540635, -127921.31339565676, -0.04, 0.934, -0.194, 192.0, 0.0, 0.0, 0.0, 0.0, 0.0, 0.0, 0.0, 0.0, 0.0, 1.6664078801929832E9, 0.0, 2022-10-21 20:04:40.192
188.0, -144978.04134822387, -157132.36118940846, 51147.51918882361, -84080.33360008402, 72737.85146926064, -73320.8520198884, 85826.02719378796, -127918.00533747737, -0.04, 0.934, -0.194, 192.0, 0.0, 0.0, 0.0, 0.0, 0.0, 0.0, 0.0, 0.0, 0.0, 1.6664078801929936E9, 0.0, 2022-10-21 20:04:40.192
189.0, -144980.85766802522, -157132.85292778647, 51148.52501732409, -84075.3938645594, 72744.19936468595, -73333.41370027229, 85821.42273443016, -127926.7448695594, -0.04, 0.934, -0.194, 192.0, 0.0, 0.0, 0.0, 0.0, 0.0, 0.0, 0.0, 0.0, 0.0, 1.6664078801930027E9, 0.0, 2022-10-21 20:04:40.193
190.0, -144982.5116971149, -157132.02591324164, 51149.68730803577, -84054.09265209349, 72754.01178050182, -73294.14168526432, 85866.4167960187, -127919.45820086697, -0.04, 0.934, -0.194, 192.0, 0.0, 0.0, 0.0, 0.0, 0.0, 0.0, 0.0, 0.0, 0.0, 1.666407880193012E9, 0.0, 2022-10-21 20:04:40.193
191.0, -144985.462127383, -157131.9365062638, 51141.59597654295, -84070.96821915725, 72745.22754493088, -73284.12810374834, 85868.20493557512, -127927.46012538197, -0.04, 0.934, -0.194, 192.0, 0.0, 0.0, 0.0, 0.0, 0.0, 0.0, 0.0, 0.0, 0.0, 1.666407880193021E9, 0.0, 2022-10-21 20:04:40.193
192.0, -144980.7682610474, -157129.12018646245, 51142.110066665424, -84090.95067870029, 72739.9748849839, -73307.73154589314, 85832.86682759128, -127933.36098591817, -0.048, 0.9380000000000001, -0.194, 192.0, 254.0, 128.0, 29.0, 80.0, 249.0, 240.0, 0.0, 0.0, 0.0, 1.66640788019303E9, 0.0, 2022-10-21 20:04:40.193
193.0, -144971.60404582074, -157121.96762823674, 51150.916653980814, -84085.02746641963, 72741.4724518624, -73325.07649959046, 85823.09911526431, -127925.69433757, -0.048, 0.9380000000000001, -0.194, 192.0, 0.0, 0.0, 0.0, 0.0, 0.0, 0.0, 0.0, 0.0, 0.0, 1.66640788019304E9, 0.0, 2022-10-21 20:04:40.193
194.0, -144980.2765226694, -157130.79656729658, 51146.91569172331, -84072.59989650249, 72741.45010011795, -73305.60813016989, 85857.20787730311, -127926.92368351504, -0.048, 0.9380000000000001, -0.194, 192.0, 0.0, 0.0, 0.0, 0.0, 0.0, 0.0, 0.0, 0.0, 0.0, 1.6664078806707115E9, 0.0, 2022-10-21 20:04:40.670
195.0, -144982.1093657147, -157134.5293086206, 51148.36855511291, -84075.32680932604, 72739.19257392795, -73290.8559788294, 85869.23311582007, -127923.77208754685, -0.048, 0.9380000000000001, -0.194, 192.0, 0.0, 0.0, 0.0, 0.0, 0.0, 0.0, 0.0, 0.0, 0.0, 1.6664078806708176E9, 0.0, 2022-10-21 20:04:40.670
196.0, -144985.08214772728, -157138.2844016891, 51140.232520131176, -84088.31317285457, 72733.49287909185, -73319.309749521, 85828.35177521131, -127931.93047427303, -0.048, 0.9380000000000001, -0.194, 192.0, 0.0, 0.0, 0.0, 0.0, 0.0, 0.0, 0.0, 0.0, 0.0, 1.666407880670833E9, 0.0, 2022-10-21 20:04:40.670
197.0, -144980.14241220267, -157132.04826498608, 51141.774790498595, -84087.55321354308, 72737.73971053836, -73334.26306656159, 85811.99029827003, -127931.86341903967, -0.048, 0.9380000000000001, -0.194, 192.0, 0.0, 0.0, 0.0, 0.0, 0.0, 0.0, 0.0, 0.0, 0.0, 1.6664078806708517E9, 0.0, 2022-10-21 20:04:40.670
198.0, -144981.3270546588, -157131.7800440526, 51142.89237772136, -84067.8389749335, 72747.52977460978, -73306.88217960384, 85845.42850797517, -127923.90619801357, -0.048, 0.9380000000000001, -0.194, 192.0, 0.0, 0.0, 0.0, 0.0, 0.0, 0.0, 0.0, 0.0, 0.0, 1.666407880670863E9, 0.0, 2022-10-21 20:04:40.670
199.0, -144986.7808803059, -157134.4846051317, 51139.517264308604, -84061.35696904147, 72753.29652467924, -73284.12810374834, 85868.4731565086, -127924.48734336942, -0.048, 0.9380000000000001, -0.194, 192.0, 0.0, 0.0, 0.0, 0.0, 0.0, 0.0, 0.0, 0.0, 0.0, 1.666407880670874E9, 0.0, 2022-10-21 20:04:40.670
200.0, -144977.9742929905, -157128.89666901788, 51147.80976150153, -84049.01880610213, 72769.14391149806, -73285.49156016011, 85854.48096447956, -127914.56316883126, -0.048, 0.9380000000000001, -0.194, 192.0, 0.0, 0.0, 0.0, 0.0, 0.0, 0.0, 0.0, 0.0, 0.0, 1.666407880670885E9, 0.0, 2022-10-21 20:04:40.670
201.0, -144989.8207175518, -157141.30188719058, 51131.53769153806, -84088.46963506576, 72747.28390542077, -73326.35054902441, 85811.43150465864, -127927.30366317078, -0.048, 0.9380000000000001, -0.194, 192.0, 0.0, 0.0, 0.0, 0.0, 0.0, 0.0, 0.0, 0.0, 0.0, 1.6664078806708963E9, 0.0, 2022-10-21 20:04:40.670
202.0, -144998.3814356782, -157149.3485151945, 51117.38903729785, -84091.21889963376, 72736.97975122687, -73329.6586072038, 85819.99222278503, -127941.45231741099, -0.042, 0.9400000000000001, -0.196, 192.0, 254.0, 176.0, 29.0, 96.0, 249.0, 224.0, 0.0, 0.0, 0.0, 1.6664078806709073E9, 0.0, 2022-10-21 20:04:40.670
203.0, -144978.93541800207, -157131.3330091635, 51134.68928750626, -84067.74956795569, 72756.33636192518, -73283.27873745904, 85866.05916810741, -127918.18415143302, -0.042, 0.9400000000000001, -0.196, 192.0, 0.0, 0.0, 0.0, 0.0, 0.0, 0.0, 0.0, 0.0, 0.0, 1.6664078806709197E9, 0.0, 2022-10-21 20:04:40.670
204.0, -144974.08508945527, -157124.96276199375, 51135.963336940215, -84072.71165522476, 72760.9184695385, -73286.9444235497, 85854.03392959046, -127913.6467473086, -0.042, 0.9400000000000001, -0.196, 192.0, 0.0, 0.0, 0.0, 0.0, 0.0, 0.0, 0.0, 0.0, 0.0, 1.6664078806709309E9, 0.0, 2022-10-21 20:04:40.670
205.0, -144971.98402547647, -157125.02981722713, 51131.761208982614, -84083.61930651896, 72756.98456251438, -73320.29322627702, 85819.09815300681, -127921.17928519002, -0.042, 0.9400000000000001, -0.196, 192.0, 0.0, 0.0, 0.0, 0.0, 0.0, 0.0, 0.0, 0.0, 0.0, 1.666407880670942E9, 0.0, 2022-10-21 20:04:40.670
206.0, -144984.05396748232, -157138.1279394779, 51117.41138904231, -84079.68539949482, 72747.95445775443, -73325.6576449463, 85823.18852224214, -127924.12971545813, -0.042, 0.9400000000000001, -0.196, 192.0, 0.0, 0.0, 0.0, 0.0, 0.0, 0.0, 0.0, 0.0, 0.0, 1.6664078806709528E9, 0.0, 2022-10-21 20:04:40.670
207.0, -144991.94413327507, -157144.85581455898, 51107.442511015244, -84074.05275989209, 72743.6182193301, -73302.41183071278, 85851.35172025583, -127928.24243643791, -0.042, 0.9400000000000001, -0.196, 192.0, 0.0, 0.0, 0.0, 0.0, 0.0, 0.0, 0.0, 0.0, 0.0, 1.6664078806709638E9, 0.0, 2022-10-21 20:04:40.670
208.0, -144993.7322728315, -157146.7333610932, 51106.68255170376, -84081.00415241768, 72743.8193850302, -73298.88025508884, 85842.23220851806, -127939.57477087674, -0.042, 0.9400000000000001, -0.196, 192.0, 0.0, 0.0, 0.0, 0.0, 0.0, 0.0, 0.0, 0.0, 0.0, 1.6664078806709747E9, 0.0, 2022-10-21 20:04:40.670
209.0, -144987.9208192731, -157140.25135520118, 51113.946868651736, -84078.43370180532, 72751.91071652302, -73317.16398205329, 85816.23712971654, -127933.4950963849, -0.042, 0.9400000000000001, -0.196, 192.0, 0.0, 0.0, 0.0, 0.0, 0.0, 0.0, 0.0, 0.0, 0.0, 1.6664078806709857E9, 0.0, 2022-10-21 20:04:40.670
210.0, -144984.54570586036, -157135.7810063101, 51114.32684830748, -84062.20633533077, 72757.45394914794, -73315.53230470805, 85828.01649904449, -127917.2453781659, -0.042, 0.9400000000000001, -0.196, 192.0, 0.0, 0.0, 0.0, 0.0, 0.0, 0.0, 0.0, 0.0, 0.0, 1.666407880671008E9, 0.0, 2022-10-21 20:04:40.671
211.0, -144996.8838687997, -157148.096817505, 51098.278295788565, -84066.83314643303, 72751.32957116718, -73287.5032171611, 85860.33712152686, -127924.48734336942, -0.044, 0.936, -0.202, 192.0, 254.0, 160.0, 29.0, 64.0, 249.0, 176.0, 0.0, 0.0, 0.0, 1.6664078806710193E9, 0.0, 2022-10-21 20:04:40.671
212.0, -144997.39795892214, -157148.52150064963, 51099.08295858896, -84075.61738200395, 72748.69206532146, -73283.1446269923, 85859.15247907073, -127928.33184341573, -0.044, 0.936, -0.202, 192.0, 0.0, 0.0, 0.0, 0.0, 0.0, 0.0, 0.0, 0.0, 0.0, 1.6664078806710315E9, 0.0, 2022-10-21 20:04:40.671
213.0, -144989.977179763, -157139.3796371674, 51106.54844123703, -84087.37439958744, 72748.89323102156, -73312.4477639732, 85824.9543100541, -127926.83427653722, -0.044, 0.936, -0.202, 192.0, 0.0, 0.0, 0.0, 0.0, 0.0, 0.0, 0.0, 0.0, 0.0, 1.6664078806710424E9, 0.0, 2022-10-21 20:04:40.671
214.0, -144992.90525828663, -157142.10654999097, 51105.274391803076, -84087.39675133191, 72751.95542001193, -73321.2543512886, 85817.64528961723, -127928.89063702711, -0.044, 0.936, -0.202, 192.0, 0.0, 0.0, 0.0, 0.0, 0.0, 0.0, 0.0, 0.0, 0.0, 1.6664078806710534E9, 0.0, 2022-10-21 20:04:40.671
215.0, -144996.0792059993, -157145.25814595917, 51103.28508654655, -84073.47161453625, 72748.51325136582, -73299.28258648903, 85850.34589175534, -127926.45429688148, -0.044, 0.936, -0.202, 192.0, 0.0, 0.0, 0.0, 0.0, 0.0, 0.0, 0.0, 0.0, 0.0, 1.6664078806710644E9, 0.0, 2022-10-21 20:04:40.671
216.0, -144993.218182709, -157145.25814595917, 51105.006170869616, -84079.50658553917, 72743.48410886337, -73299.08142078893, 85854.88329587976, -127926.14137245911, -0.044, 0.936, -0.202, 192.0, 0.0, 0.0, 0.0, 0.0, 0.0, 0.0, 0.0, 0.0, 0.0, 1.6664078806710749E9, 0.0, 2022-10-21 20:04:40.671
217.0, -144988.25609543992, -157142.66534360236, 51110.34823779443, -84085.29568735311, 72749.20615544393, -73304.78111562504, 85833.22445550257, -127922.90036951308, -0.044, 0.936, -0.202, 192.0, 0.0, 0.0, 0.0, 0.0, 0.0, 0.0, 0.0, 0.0, 0.0, 1.6664078806710858E9, 0.0, 2022-10-21 20:04:40.671
218.0, -144992.1229472307, -157146.55454713758, 51107.55426973752, -84089.00607693268, 72750.79312930026, -73318.19216229823, 85819.16520824019, -127930.14233471661, -0.044, 0.936, -0.202, 192.0, 0.0, 0.0, 0.0, 0.0, 0.0, 0.0, 0.0, 0.0, 0.0, 1.6664078806710968E9, 0.0, 2022-10-21 20:04:40.671
219.0, -145000.3707409347, -157151.4495791733, 51103.19567956874, -84078.12077738295, 72749.87670777758, -73298.38851671082, 85849.3624149993, -127931.32697717274, -0.044, 0.936, -0.202, 192.0, 0.0, 0.0, 0.0, 0.0, 0.0, 0.0, 0.0, 0.0, 0.0, 1.6664078806711087E9, 0.0, 2022-10-21 20:04:40.671
220.0, -144990.468918141, -157143.40295116938, 51110.77292093908, -84064.8885446654, 72756.69398983647, -73268.83951054091, 85875.80452868993, -127921.29104391231, -0.044, 0.936, -0.202, 192.0, 0.0, 0.0, 0.0, 0.0, 0.0, 0.0, 0.0, 0.0, 0.0, 1.6664078806711195E9, 0.0, 2022-10-21 20:04:40.671
221.0, -144983.09284247077, -157137.591497611, 51117.00905764211, -84067.61545748895, 72757.85628054813, -73283.97164153715, 85848.28953126544, -127920.17345668955, -0.042, 0.936, -0.2, 192.0, 254.0, 176.0, 29.0, 64.0, 249.0, 192.0, 0.0, 0.0, 0.0, 1.6664078806711304E9, 0.0, 2022-10-21 20:04:40.671
222.0, -144991.09476698577, -157143.9840965252, 51104.983819125155, -84086.97206818726, 72747.99916124334, -73319.73443266565, 85813.44316165963, -127931.34932891719, -0.042, 0.936, -0.2, 192.0, 0.0, 0.0, 0.0, 0.0, 0.0, 0.0, 0.0, 0.0, 0.0, 1.666407880671143E9, 0.0, 2022-10-21 20:04:40.671
223.0, -145006.20454623754, -157157.97628855423, 51087.661217172295, -84094.79517874662, 72735.34807388164, -73316.87340937536, 85823.72496410906, -127941.13939298863, -0.042, 0.936, -0.2, 192.0, 0.0, 0.0, 0.0, 0.0, 0.0, 0.0, 0.0, 0.0, 0.0, 1.666407880671154E9, 0.0, 2022-10-21 20:04:40.671
224.0, -145000.974238035, -157151.8519105735, 51098.568868466486, -84075.21505060376, 72751.73190256738, -73277.8472635564, 85862.90757213921, -127927.72834631543, -0.042, 0.936, -0.2, 192.0, 0.0, 0.0, 0.0, 0.0, 0.0, 0.0, 0.0, 0.0, 0.0, 1.6664078806711648E9, 0.0, 2022-10-21 20:04:40.671
225.0, -144997.71088334452, -157145.50401514818, 51104.156804580314, -84078.52310878315, 72755.37523691359, -73291.12419976285, 85842.12044979578, -127919.3464421447, -0.042, 0.936, -0.2, 192.0, 0.0, 0.0, 0.0, 0.0, 0.0, 0.0, 0.0, 0.0, 0.0, 1.6664078806711855E9, 0.0, 2022-10-21 20:04:40.671
226.0, -144995.90039204364, -157139.46904414525, 51105.45320575872, -84079.57364077255, 72757.85628054813, -73318.21451404269, 85816.9076820502, -127912.90913974156, -0.042, 0.936, -0.2, 192.0, 0.0, 0.0, 0.0, 0.0, 0.0, 0.0, 0.0, 0.0, 0.0, 1.6664078806711967E9, 0.0, 2022-10-21 20:04:40.671
227.0, -144998.09086300028, -157142.71004709127, 51098.837089399945, -84067.90603016688, 72759.19738521545, -73314.07944131845, 85832.86682759128, -127928.89063702711, -0.042, 0.936, -0.2, 192.0, 0.0, 0.0, 0.0, 0.0, 0.0, 0.0, 0.0, 0.0, 0.0, 1.666407880671208E9, 0.0, 2022-10-21 20:04:40.671
228.0, -144998.94022928958, -157148.36503843847, 51094.2102782977, -84061.26756206364, 72758.30331543724, -73282.2505572141, 85865.03098786247, -127925.53787535882, -0.042, 0.936, -0.2, 192.0, 0.0, 0.0, 0.0, 0.0, 0.0, 0.0, 0.0, 0.0, 0.0, 1.666407880671219E9, 0.0, 2022-10-21 20:04:40.671
229.0, -144997.06268275532, -157148.32033494953, 51093.20444979721, -84072.21991684675, 72754.03413224628, -73283.0999235034, 85850.05531907742, -127928.22008469346, -0.042, 0.936, -0.2, 192.0, 0.0, 0.0, 0.0, 0.0, 0.0, 0.0, 0.0, 0.0, 0.0, 1.66640788067123E9, 0.0, 2022-10-21 20:04:40.671
230.0, -145002.0247700244, -157150.95784079528, 51086.878906116355, -84083.55225128558, 72748.96028625492, -73317.32044426446, 85813.28669944844, -127934.63503535213, -0.042, 0.936, -0.2, 192.0, 0.0, 0.0, 0.0, 0.0, 0.0, 0.0, 0.0, 0.0, 0.0, 1.6664078806712413E9, 0.0, 2022-10-21 20:04:40.671
231.0, -145000.6389618682, -157148.05211401609, 51079.614589168385, -84085.09452165301, 72744.0205507303, -73322.72956642265, 85815.54422563843, -127934.12094522965, -0.042, 0.936, -0.196, 192.0, 254.0, 176.0, 29.0, 64.0, 249.0, 224.0, 0.0, 0.0, 0.0, 1.666407880671252E9, 0.0, 2022-10-21 20:04:40.671
232.0, -145006.29395321535, -157153.05890477408, 51068.41636519627, -84087.84378622101, 72740.37721638409, -73294.38755445332, 85845.07088006388, -127943.48632615643, -0.042, 0.936, -0.196, 192.0, 0.0, 0.0, 0.0, 0.0, 0.0, 0.0, 0.0, 0.0, 0.0, 1.6664078806712685E9, 0.0, 2022-10-21 20:04:40.671
233.0, -145007.18802299356, -157158.57978565453, 51071.21033325319, -84095.24221363572, 72740.2207541729, -73292.17473175225, 85839.39353697223, -127938.97127377645, -0.042, 0.936, -0.196, 192.0, 0.0, 0.0, 0.0, 0.0, 0.0, 0.0, 0.0, 0.0, 0.0, 1.6664078806712792E9, 0.0, 2022-10-21 20:04:40.671
234.0, -145010.00434279494, -157158.1551025099, 51072.14910652031, -84106.3063271411, 72735.54923958174, -73328.02692985856, 85798.53454810793, -127947.88961981412, -0.042, 0.936, -0.196, 192.0, 0.0, 0.0, 0.0, 0.0, 0.0, 0.0, 0.0, 0.0, 0.0, 1.66640788067129E9, 0.0, 2022-10-21 20:04:40.671
235.0, -145008.14914800515, -157152.47775941822, 51072.79730710952, -84103.847635251, 72735.88451574856, -73335.33595029544, 85799.60743184178, -127943.70984360098, -0.042, 0.936, -0.196, 192.0, 0.0, 0.0, 0.0, 0.0, 0.0, 0.0, 0.0, 0.0, 0.0, 1.6664078806713011E9, 0.0, 2022-10-21 20:04:40.671
236.0, -145012.50773817394, -157160.23381474422, 51076.462993200184, -84087.57556528754, 72745.4734141199, -73298.47792368865, 85843.84153411884, -127936.2443609529, -0.042, 0.936, -0.196, 192.0, 0.0, 0.0, 0.0, 0.0, 0.0, 0.0, 0.0, 0.0, 0.0, 1.666407880671312E9, 0.0, 2022-10-21 20:04:40.671
237.0, -145014.34058121927, -157163.2960037346, 51081.80506012501, -84087.41910307636, 72754.21294620192, -73271.72288557564, 85858.6607406927, -127930.03057599433, -0.042, 0.936, -0.196, 192.0, 0.0, 0.0, 0.0, 0.0, 0.0, 0.0, 0.0, 0.0, 0.0, 1.6664078806713228E9, 0.0, 2022-10-21 20:04:40.671
238.0, -145006.80804333783, -157156.27755597563, 51079.279313001556, -84102.1041991835, 72749.80965254422, -73302.07655454594, 85820.7521820965, -127933.91977952955, -0.042, 0.936, -0.196, 192.0, 0.0, 0.0, 0.0, 0.0, 0.0, 0.0, 0.0, 0.0, 0.0, 1.666407880671334E9, 0.0, 2022-10-21 20:04:40.671
239.0, -145012.84301434076, -157162.91602407885, 51064.12483026086, -84110.28493765414, 72733.17995466948, -73334.93361889526, 85795.6064695843, -127945.78855583532, -0.042, 0.936, -0.196, 192.0, 0.0, 0.0, 0.0, 0.0, 0.0, 0.0, 0.0, 0.0, 0.0, 1.6664078806713448E9, 0.0, 2022-10-21 20:04:40.671
240.0, -145014.38528470817, -157161.9548990673, 51061.509676159585, -84097.52209157015, 72732.30823663571, -73310.5031622056, 85831.23515024605, -127937.7419278314, -0.04, 0.934, -0.196, 192.0, 254.0, 192.0, 29.0, 48.0, 249.0, 224.0, 0.0, 0.0, 0.0, 1.6664078806713676E9, 0.0, 2022-10-21 20:04:40.671
241.0, -144999.8342990678, -157143.090026747, 51077.312359489486, -84078.12077738295, 72751.59779210064, -73271.38760940882, 85864.18162157317, -127919.68171831152, -0.04, 0.934, -0.196, 192.0, 0.0, 0.0, 0.0, 0.0, 0.0, 0.0, 0.0, 0.0, 0.0, 1.6664078806713796E9, 0.0, 2022-10-21 20:04:40.671
242.0, -145003.70115085854, -157147.4933204047, 51072.93141757625, -84094.90693746888, 72750.27903917778, -73289.4478189287, 85829.08938277834, -127934.12094522965, -0.04, 0.934, -0.196, 192.0, 0.0, 0.0, 0.0, 0.0, 0.0, 0.0, 0.0, 0.0, 0.0, 1.6664078806713903E9, 0.0, 2022-10-21 20:04:40.671
243.0, -145012.2842207294, -157154.91409956387, 51064.08012677194, -84112.78833303312, 72737.22562041589, -73319.68972917674, 85800.36739115327, -127941.76524183336, -0.04, 0.934, -0.196, 192.0, 0.0, 0.0, 0.0, 0.0, 0.0, 0.0, 0.0, 0.0, 0.0, 1.6664078806714015E9, 0.0, 2022-10-21 20:04:40.671
244.0, -145007.45624392704, -157148.342686694, 51068.17049600727, -84095.35397235799, 72742.09830070715, -73300.24371150062, 85832.77742061346, -127936.37847141964, -0.04, 0.934, -0.196, 192.0, 0.0, 0.0, 0.0, 0.0, 0.0, 0.0, 0.0, 0.0, 0.0, 1.6664078806714127E9, 0.0, 2022-10-21 20:04:40.671
245.0, -145010.8760608287, -157152.47775941822, 51061.800248837506, -84092.80587349008, 72745.67457982, -73279.90362404629, 85852.29049352295, -127943.26280871188, -0.04, 0.934, -0.196, 192.0, 0.0, 0.0, 0.0, 0.0, 0.0, 0.0, 0.0, 0.0, 0.0, 1.666407880671424E9, 0.0, 2022-10-21 20:04:40.671
246.0, -145010.69724687305, -157151.5389861511, 51057.57576913545, -84108.31798414206, 72740.44427161745, -73299.84138010042, 85820.68512686314, -127942.12286974465, -0.04, 0.934, -0.196, 192.0, 0.0, 0.0, 0.0, 0.0, 0.0, 0.0, 0.0, 0.0, 0.0, 1.6664078806714349E9, 0.0, 2022-10-21 20:04:40.671
247.0, -145005.69045611506, -157147.22509947122, 51066.65057738431, -84102.7523997727, 72749.13910021057, -73314.548827952, 85799.83094928635, -127932.93630277352, -0.04, 0.934, -0.196, 192.0, 0.0, 0.0, 0.0, 0.0, 0.0, 0.0, 0.0, 0.0, 0.0, 1.6664078806714456E9, 0.0, 2022-10-21 20:04:40.671
248.0, -145000.21427872352, -157140.47487264572, 51071.88088558685, -84080.80298671758, 72760.04675150475, -73296.24274924312, 85827.256539733, -127936.19965746399, -0.04, 0.934, -0.196, 192.0, 0.0, 0.0, 0.0, 0.0, 0.0, 0.0, 0.0, 0.0, 0.0, 1.6664078806714568E9, 0.0, 2022-10-21 20:04:40.671
249.0, -145008.30561021634, -157151.62839312892, 51065.13065876134, -84085.29568735311, 72754.90585028003, -73281.78117058054, 85849.20595278812, -127943.44162266751, -0.04, 0.934, -0.196, 192.0, 0.0, 0.0, 0.0, 0.0, 0.0, 0.0, 0.0, 0.0, 0.0, 1.666407880671468E9, 0.0, 2022-10-21 20:04:40.671
250.0, -145001.60008687974, -157143.47000640276, 51074.98777806613, -84083.06051290757, 72760.13615848258, -73284.91041480427, 85836.46545844858, -127934.76914581885, -0.042, 0.934, -0.198, 192.0, 254.0, 176.0, 29.0, 48.0, 249.0, 208.0, 0.0, 0.0, 0.0, 1.6664078806714787E9, 0.0, 2022-10-21 20:04:40.671
251.0, -145002.85178456924, -157143.91704129186, 51071.47855418665, -84088.64844902139, 72760.60554511614, -73312.02308082856, 85805.24007144452, -127938.03250050933, -0.042, 0.934, -0.198, 192.0, 0.0, 0.0, 0.0, 0.0, 0.0, 0.0, 0.0, 0.0, 0.0, 1.6664078806714904E9, 0.0, 2022-10-21 20:04:40.671
252.0, -145008.5291276609, -157150.2425849727, 51065.80121109501, -84082.21114661827, 72759.46560614892, -73304.91522609178, 85821.13216175225, -127934.52327662984, -0.042, 0.934, -0.198, 192.0, 0.0, 0.0, 0.0, 0.0, 0.0, 0.0, 0.0, 0.0, 0.0, 1.6664078806715012E9, 0.0, 2022-10-21 20:04:40.671
253.0, -145007.36683694922, -157145.95105003729, 51068.215199496175, -84063.43568127582, 72765.9699637854, -73270.67235358624, 85858.07959533687, -127933.53979987382, -0.042, 0.934, -0.198, 192.0, 0.0, 0.0, 0.0, 0.0, 0.0, 0.0, 0.0, 0.0, 0.0, 1.6664078806715121E9, 0.0, 2022-10-21 20:04:40.671
254.0, -145014.65350564165, -157156.97046005374, 51053.261882455576, -84092.62705953444, 72752.44715838994, -73279.61305136836, 85840.10879279481, -127943.17340173405, -0.042, 0.934, -0.198, 192.0, 0.0, 0.0, 0.0, 0.0, 0.0, 0.0, 0.0, 0.0, 0.0, 1.666407880671523E9, 0.0, 2022-10-21 20:04:40.671
255.0, -145012.44068294056, -157156.72459086473, 51052.0995917439, -84105.45696085179, 72746.1216147091, -73314.16884829628, 85803.31782142137, -127940.2453232104, -0.042, 0.934, -0.198, 192.0, 0.0, 0.0, 0.0, 0.0, 0.0, 0.0, 0.0, 0.0, 0.0, 1.6664078806715426E9, 0.0, 2022-10-21 20:04:40.671
0.0, -145013.44651144106, -157155.76346585318, 51054.4018214228, -84094.21403339077, 72752.98360025688, -73313.63240642934, 85814.001955271, -127934.36681441867, -0.042, 0.934, -0.198, 192.0, 0.0, 0.0, 0.0, 0.0, 0.0, 0.0, 0.0, 0.0, 0.0, 1.666407880671552E9, 0.0, 2022-10-21 20:04:40.671
1.0, -145016.1287207757, -157156.67988737582, 51052.88190279984, -84082.83699546302, 72757.36454217012, -73275.41092341077, 85854.83859239085, -127932.37750916214, -0.042, 0.934, -0.198, 192.0, 0.0, 0.0, 0.0, 0.0, 0.0, 0.0, 0.0, 0.0, 0.0, 1.6664078806715612E9, 0.0, 2022-10-21 20:04:40.671
2.0, -145016.82162485382, -157158.6915443768, 51050.62437660985, -84094.07992292404, 72759.19738521545, -73267.49840587359, 85854.25744703501, -127929.47178238294, -0.042, 0.934, -0.198, 192.0, 0.0, 0.0, 0.0, 0.0, 0.0, 0.0, 0.0, 0.0, 0.0, 1.6664078806715708E9, 0.0, 2022-10-21 20:04:40.671
3.0, -145019.99557256646, -157162.2007682563, 51044.321184673456, -84116.76694354617, 72749.58613509967, -73305.33990923643, 85811.16328372518, -127943.95571278999, -0.042, 0.934, -0.198, 192.0, 0.0, 0.0, 0.0, 0.0, 0.0, 0.0, 0.0, 0.0, 0.0, 1.6664078806715803E9, 0.0, 2022-10-21 20:04:40.671
4.0, -145017.98391556548, -157157.17162575384, 51045.55053061849, -84108.4073911199, 72750.59196360016, -73314.39236574083, 85808.90575753519, -127939.46301215448, -0.044, 0.936, -0.192, 192.0, 254.0, 160.0, 29.0, 64.0, 250.0, 0.0, 0.0, 0.0, 0.0, 1.6664078806715899E9, 0.0, 2022-10-21 20:04:40.671
5.0, -145015.56992716432, -157153.6847536188, 51053.194827222214, -84095.77865550264, 72753.18476595698, -73284.28456595953, 85847.48486846505, -127929.62824459413, -0.044, 0.936, -0.192, 192.0, 0.0, 0.0, 0.0, 0.0, 0.0, 0.0, 0.0, 0.0, 0.0, 1.6664078806716008E9, 0.0, 2022-10-21 20:04:40.671
6.0, -145014.78761610837, -157152.2989454626, 51056.52523714605, -84105.00992596269, 72750.21198394442, -73273.93570827672, 85854.95035111313, -127928.84593353819, -0.044, 0.936, -0.192, 192.0, 0.0, 0.0, 0.0, 0.0, 0.0, 0.0, 0.0, 0.0, 0.0, 1.6664078806716104E9, 0.0, 2022-10-21 20:04:40.671
7.0, -145005.75751134843, -157144.6322971144, 51064.929493061245, -84107.62508006395, 72752.73773106787, -73291.97356605215, 85827.10007752181, -127914.0937821977, -0.044, 0.936, -0.192, 192.0, 0.0, 0.0, 0.0, 0.0, 0.0, 0.0, 0.0, 0.0, 0.0, 1.6664078806716197E9, 0.0, 2022-10-21 20:04:40.671
8.0, -145008.03738928286, -157148.32033494953, 51061.375565692855, -84102.26066139468, 72758.5715363707, -73290.67716487375, 85823.99318504253, -127914.20554091997, -0.044, 0.936, -0.192, 192.0, 0.0, 0.0, 0.0, 0.0, 0.0, 0.0, 0.0, 0.0, 0.0, 1.6664078806716287E9, 0.0, 2022-10-21 20:04:40.671
9.0, -145023.0801133013, -157161.4408089448, 51043.829446295436, -84108.16152193089, 72747.75329205433, -73274.98624026612, 85848.60245568783, -127929.02474749384, -0.044, 0.936, -0.192, 192.0, 0.0, 0.0, 0.0, 0.0, 0.0, 0.0, 0.0, 0.0, 0.0, 1.666407880671638E9, 0.0, 2022-10-21 20:04:40.671
10.0, -145025.1811772801, -157161.46316068925, 51040.677850327236, -84117.66101332438, 72739.5725535837, -73267.14077796231, 85855.64325519124, -127931.37168066164, -0.044, 0.936, -0.192, 192.0, 0.0, 0.0, 0.0, 0.0, 0.0, 0.0, 0.0, 0.0, 0.0, 1.6664078806716475E9, 0.0, 2022-10-21 20:04:40.671
11.0, -145022.92365109012, -157158.11039902098, 51044.14237071781, -84125.5064756282, 72740.75719603982, -73287.41381018327, 85827.4130019442, -127935.43969815252, -0.044, 0.936, -0.192, 192.0, 0.0, 0.0, 0.0, 0.0, 0.0, 0.0, 0.0, 0.0, 0.0, 1.666407880671657E9, 0.0, 2022-10-21 20:04:40.671
12.0, -145013.51356667443, -157146.82276807103, 51057.1510859908, -84113.97297548926, 72756.51517588082, -73297.0027085546, 85819.6569466182, -127921.31339565676, -0.044, 0.936, -0.192, 192.0, 0.0, 0.0, 0.0, 0.0, 0.0, 0.0, 0.0, 0.0, 0.0, 1.6664078806716664E9, 0.0, 2022-10-21 20:04:40.671
13.0, -145015.21229925303, -157149.50497740568, 51055.13942898982, -84101.76892301666, 72757.47630089239, -73286.4973886606, 85840.24290326153, -127927.48247712642, -0.044, 0.936, -0.192, 192.0, 0.0, 0.0, 0.0, 0.0, 0.0, 0.0, 0.0, 0.0, 0.0, 1.6664078806716764E9, 0.0, 2022-10-21 20:04:40.671
14.0, -145024.75649413545, -157159.07152403254, 51044.924681773744, -84109.83790276504, 72750.99429500036, -73270.73940881962, 85853.765708657, -127940.17826797704, -0.042, 0.9400000000000001, -0.194, 192.0, 254.0, 176.0, 29.0, 96.0, 249.0, 240.0, 0.0, 0.0, 0.0, 1.6664078806716964E9, 0.0, 2022-10-21 20:04:40.671
15.0, -145016.75456962045, -157149.6837913613, 51054.647690611804, -84108.92148124236, 72756.80574855873, -73280.46241765766, 85833.89500783622, -127927.41542189306, -0.042, 0.9400000000000001, -0.194, 192.0, 0.0, 0.0, 0.0, 0.0, 0.0, 0.0, 0.0, 0.0, 0.0, 1.6664078806717072E9, 0.0, 2022-10-21 20:04:40.671
16.0, -145010.8313573398, -157141.95008777978, 51061.12969650384, -84102.17125441685, 72768.51806265331, -73298.67908938874, 85813.59962387082, -127920.35227064518, -0.042, 0.9400000000000001, -0.194, 192.0, 0.0, 0.0, 0.0, 0.0, 0.0, 0.0, 0.0, 0.0, 0.0, 1.6664078806717165E9, 0.0, 2022-10-21 20:04:40.671
