%OpenBCI Raw EEG Data
%Number of channels = 8
%Sample Rate = 250 Hz
%Board = OpenBCI_GUI$BoardCytonSerial
Sample Index, EXG Channel 0, EXG Channel 1, EXG Channel 2, EXG Channel 3, EXG Channel 4, EXG Channel 5, EXG Channel 6, EXG Channel 7, Accel Channel 0, Accel Channel 1, Accel Channel 2, Other, Other, Other, Other, Other, Other, Other, Analog Channel 0, Analog Channel 1, Analog Channel 2, Timestamp, Other, Timestamp (Formatted)
80.0, -136365.64598866057, -163054.1876619086, 16194.084727058975, -121655.89590738964, 70182.33182219647, -75246.65597041321, 36520.89524518195, -114740.1320624509, 0.0, 0.0, 0.0, 192.0, 0.0, 0.0, 0.0, 0.0, 0.0, 0.0, 0.0, 0.0, 0.0, 1.6664057159378102E9, 0.0, 2022-10-21 19:28:35.937
81.0, -136366.02596831633, -163057.89805148818, 16195.403479981838, -121658.75693067991, 70185.88574956486, -75237.89408658673, 36528.02545166319, -114738.99212348368, 0.0, 0.0, 0.0, 192.0, 0.0, 0.0, 0.0, 0.0, 0.0, 0.0, 0.0, 0.0, 0.0, 1.666405715937832E9, 0.0, 2022-10-21 19:28:35.937
82.0, -136369.60224742917, -163067.37519113722, 16196.498715460148, -121659.38277952466, 70189.2161594887, -75238.4081767092, 36524.60563476153, -114743.03778923009, 0.0, 0.0, 0.0, 192.0, 0.0, 0.0, 0.0, 0.0, 0.0, 0.0, 0.0, 0.0, 0.0, 1.666405715937844E9, 0.0, 2022-10-21 19:28:35.937
83.0, -136368.41760497304, -163068.5374818489, 16196.63282592688, -121654.37598876668, 70186.89157806535, -75256.17781355117, 36519.50943702572, -114742.14371945188, 0.0, 0.0, 0.0, 192.0, 0.0, 0.0, 0.0, 0.0, 0.0, 0.0, 0.0, 0.0, 0.0, 1.6664057159378552E9, 0.0, 2022-10-21 19:28:35.937
84.0, -136360.0357008023, -163058.85917649977, 16200.142049806364, -121653.14664282164, 70187.02568853209, -75244.19727852312, 36530.50649529773, -114735.90758274884, 0.0, 0.0, 0.0, 192.0, 0.0, 0.0, 0.0, 0.0, 0.0, 0.0, 0.0, 0.0, 0.0, 1.6664057159378662E9, 0.0, 2022-10-21 19:28:35.937
85.0, -136359.72277637993, -163056.9369264766, 16200.522029462103, -121650.95617186502, 70191.36192695641, -75226.82997308135, 36540.005986691234, -114732.10778619145, 0.0, 0.0, 0.0, 192.0, 0.0, 0.0, 0.0, 0.0, 0.0, 0.0, 0.0, 0.0, 0.0, 1.6664057159378774E9, 0.0, 2022-10-21 19:28:35.937
86.0, -136369.22226777344, -163068.02339172643, 16194.06237531452, -121655.27005854489, 70191.0713542785, -75243.75024363401, 36528.628948763486, -114740.35557989545, 0.0, 0.0, 0.0, 192.0, 0.0, 0.0, 0.0, 0.0, 0.0, 0.0, 0.0, 0.0, 0.0, 1.6664057159378884E9, 0.0, 2022-10-21 19:28:35.937
87.0, -136356.99586355637, -163057.80864451037, 16203.651273685846, -121652.25257304343, 70201.08493579447, -75258.59180195234, 36535.826210478095, -114734.72294029272, 0.0, 0.0, 0.0, 192.0, 0.0, 0.0, 0.0, 0.0, 0.0, 0.0, 0.0, 0.0, 0.0, 1.6664057159378994E9, 0.0, 2022-10-21 19:28:35.937
88.0, -136365.71304389395, -163064.22359516902, 16196.543418949059, -121657.6616952016, 70195.09466828045, -75244.0631680564, 36542.01764369221, -114743.59658284148, 0.0, 0.0, 0.0, 192.0, 0.0, 0.0, 0.0, 0.0, 0.0, 0.0, 0.0, 0.0, 0.0, 1.6664057159379106E9, 0.0, 2022-10-21 19:28:35.937
89.0, -136364.12607003763, -163065.07296145833, 16201.68432017378, -121650.33032302027, 70203.32011024, -75230.54036266093, 36553.03705370868, -114735.99698972667, 0.032, 0.9540000000000001, 0.094, 192.0, 1.0, 0.0, 29.0, 208.0, 2.0, 240.0, 0.0, 0.0, 0.0, 1.6664057159379227E9, 0.0, 2022-10-21 19:28:35.937
90.0, -136352.0337762873, -163051.70661827407, 16209.887410388877, -121642.70837816101, 70214.96536910122, -75245.1137000458, 36553.41703336442, -114730.25259140166, 0.032, 0.9540000000000001, 0.094, 192.0, 0.0, 0.0, 0.0, 0.0, 0.0, 0.0, 0.0, 0.0, 0.0, 1.6664057159379427E9, 0.0, 2022-10-21 19:28:35.937
91.0, -136352.77138385433, -163051.9748392075, 16213.955427879744, -121640.22733452647, 70216.84291563545, -75268.22540381258, 36548.90198098445, -114730.0290739571, 0.032, 0.9540000000000001, 0.094, 192.0, 0.0, 0.0, 0.0, 0.0, 0.0, 0.0, 0.0, 0.0, 0.0, 1.6664057159379573E9, 0.0, 2022-10-21 19:28:35.937
92.0, -136351.29616872026, -163046.7221792605, 16217.777576181601, -121635.82404086877, 70215.85943887943, -75263.73270317707, 36556.85920201054, -114731.50428909116, 0.032, 0.9540000000000001, 0.094, 192.0, 0.0, 0.0, 0.0, 0.0, 0.0, 0.0, 0.0, 0.0, 0.0, 1.6664057159379716E9, 0.0, 2022-10-21 19:28:35.937
93.0, -136349.35156695265, -163045.09050191529, 16218.336369792984, -121636.65105541362, 70216.3735290019, -75244.19727852312, 36565.956362003846, -114724.23997214317, 0.032, 0.9540000000000001, 0.094, 192.0, 0.0, 0.0, 0.0, 0.0, 0.0, 0.0, 0.0, 0.0, 0.0, 1.666405715937986E9, 0.0, 2022-10-21 19:28:35.937
94.0, -136348.72571810792, -163047.95152520557, 16215.8776779029, -121642.46250897199, 70216.86526737992, -75242.99028432254, 36560.502536356755, -114725.96105646624, 0.032, 0.9540000000000001, 0.094, 192.0, 0.0, 0.0, 0.0, 0.0, 0.0, 0.0, 0.0, 0.0, 0.0, 1.6664057159380004E9, 0.0, 2022-10-21 19:28:35.938
95.0, -136352.4808111764, -163051.0807694293, 16205.975855109198, -121651.42555849858, 70207.85751436443, -75272.44988351464, 36538.15079190145, -114736.33226589349, 0.032, 0.9540000000000001, 0.094, 192.0, 0.0, 0.0, 0.0, 0.0, 0.0, 0.0, 0.0, 0.0, 0.0, 1.6664057159380147E9, 0.0, 2022-10-21 19:28:35.938
96.0, -136349.19510474146, -163043.7270455035, 16208.702767932746, -121644.04948282833, 70210.09268880996, -75265.67730494468, 36541.43649833638, -114730.47610884621, 0.032, 0.9540000000000001, 0.094, 192.0, 0.0, 0.0, 0.0, 0.0, 0.0, 0.0, 0.0, 0.0, 0.0, 1.6664057159381547E9, 0.0, 2022-10-21 19:28:35.938
97.0, -136343.20483722744, -163034.58518202128, 16227.634695486391, -121630.30315998831, 70222.54261047156, -75237.91643833119, 36556.81449852163, -114722.20596339775, 0.032, 0.9540000000000001, 0.094, 192.0, 0.0, 0.0, 0.0, 0.0, 0.0, 0.0, 0.0, 0.0, 0.0, 1.6664057159381664E9, 0.0, 2022-10-21 19:28:35.938
98.0, -136346.02115702882, -163039.65902801265, 16225.108948362942, -121635.44406121303, 70220.2180290482, -75242.07386279987, 36545.124536171505, -114730.29729489057, 0.032, 0.9540000000000001, 0.094, 192.0, 0.0, 0.0, 0.0, 0.0, 0.0, 0.0, 0.0, 0.0, 0.0, 1.666405715938178E9, 0.0, 2022-10-21 19:28:35.938
99.0, -136346.6917093625, -163040.70956000205, 16216.704692447745, -121649.12332881968, 70214.94301735677, -75270.48293000257, 36526.5725882736, -114730.99019896868, 0.032, 0.9580000000000001, 0.1, 192.0, 1.0, 0.0, 29.0, 240.0, 3.0, 32.0, 0.0, 0.0, 0.0, 1.6664057159381893E9, 0.0, 2022-10-21 19:28:35.938
100.0, -136346.7364128514, -163043.95056294807, 16212.703730190246, -121651.85024164323, 70210.2715027656, -75275.98145913857, 36521.23052134878, -114731.03490245758, 0.032, 0.9580000000000001, 0.1, 192.0, 0.0, 0.0, 0.0, 0.0, 0.0, 0.0, 0.0, 0.0, 0.0, 1.666405715938202E9, 0.0, 2022-10-21 19:28:35.938
101.0, -136345.685880862, -163041.71538850255, 16219.699826204756, -121635.66757865758, 70217.69228192477, -75262.10102583183, 36530.19357087536, -114732.48776584718, 0.032, 0.9580000000000001, 0.1, 192.0, 0.0, 0.0, 0.0, 0.0, 0.0, 0.0, 0.0, 0.0, 0.0, 1.6664057159382138E9, 0.0, 2022-10-21 19:28:35.938
102.0, -136344.32242445022, -163038.1838128786, 16220.236268071685, -121639.64618917063, 70220.5756569595, -75252.66858967168, 36530.864123209016, -114735.99698972667, 0.032, 0.9580000000000001, 0.1, 192.0, 0.0, 0.0, 0.0, 0.0, 0.0, 0.0, 0.0, 0.0, 0.0, 1.6664057159382284E9, 0.0, 2022-10-21 19:28:35.938
103.0, -136332.56540686672, -163025.33155981678, 16225.243058829674, -121642.88719211664, 70225.96242737323, -75265.34202877784, 36525.99144291776, -114734.11944319242, 0.032, 0.9580000000000001, 0.1, 192.0, 0.0, 0.0, 0.0, 0.0, 0.0, 0.0, 0.0, 0.0, 0.0, 1.66640571593824E9, 0.0, 2022-10-21 19:28:35.938
104.0, -136319.28847066028, -163012.8816381552, 16236.150710123864, -121633.76768037888, 70234.72431119971, -75266.30315378943, 36535.893265711464, -114721.7812802531, 0.032, 0.9580000000000001, 0.1, 192.0, 0.0, 0.0, 0.0, 0.0, 0.0, 0.0, 0.0, 0.0, 0.0, 1.6664057159382515E9, 0.0, 2022-10-21 19:28:35.938
105.0, -136325.21168294092, -163011.04879510985, 16235.413102556839, -121628.49266868744, 70233.3832065324, -75260.89403163124, 36539.26837912421, -114725.08933843247, 0.032, 0.9580000000000001, 0.1, 192.0, 0.0, 0.0, 0.0, 0.0, 0.0, 0.0, 0.0, 0.0, 0.0, 1.666405715938263E9, 0.0, 2022-10-21 19:28:35.938
106.0, -136338.22039821392, -163026.11387087274, 16223.790195440079, -121642.44015722754, 70225.06835759501, -75249.89697335922, 36530.95353018684, -114731.97367572472, 0.032, 0.9580000000000001, 0.1, 192.0, 0.0, 0.0, 0.0, 0.0, 0.0, 0.0, 0.0, 0.0, 0.0, 1.6664057159382744E9, 0.0, 2022-10-21 19:28:35.938
107.0, -136333.14655222258, -163022.15761210414, 16224.080768117998, -121647.73752066345, 70226.78944191807, -75259.59763045283, 36521.90107368244, -114727.72684427821, 0.032, 0.9580000000000001, 0.1, 192.0, 0.0, 0.0, 0.0, 0.0, 0.0, 0.0, 0.0, 0.0, 0.0, 1.6664057159382858E9, 0.0, 2022-10-21 19:28:35.938
108.0, -136329.30205217627, -163012.3228445438, 16229.02050364262, -121647.67046543008, 70233.6290757214, -75276.94258415015, 36522.32575682709, -114723.54706806506, 0.03, 0.9540000000000001, 0.1, 192.0, 0.0, 240.0, 29.0, 208.0, 3.0, 32.0, 0.0, 0.0, 0.0, 1.6664057159382973E9, 0.0, 2022-10-21 19:28:35.938
109.0, -136340.94731103748, -163027.29851332886, 16224.147823351363, -121654.64420970014, 70229.53870648607, -75258.03300834096, 36527.578416774086, -114730.8337367575, 0.03, 0.9540000000000001, 0.1, 192.0, 0.0, 0.0, 0.0, 0.0, 0.0, 0.0, 0.0, 0.0, 0.0, 1.6664057159383097E9, 0.0, 2022-10-21 19:28:35.938
110.0, -136334.4876568899, -163024.39278654967, 16225.26541057413, -121648.83275614177, 70237.47357576771, -75241.98445582205, 36527.98074817428, -114733.62770481441, 0.03, 0.9540000000000001, 0.1, 192.0, 0.0, 0.0, 0.0, 0.0, 0.0, 0.0, 0.0, 0.0, 0.0, 1.666405715938321E9, 0.0, 2022-10-21 19:28:35.938
111.0, -136333.7724010673, -163017.82137367982, 16225.645390229869, -121665.06012261631, 70239.14995660186, -75255.79783389543, 36516.02256489069, -114723.01062619814, 0.03, 0.9540000000000001, 0.1, 192.0, 0.0, 0.0, 0.0, 0.0, 0.0, 0.0, 0.0, 0.0, 0.0, 1.6664057159383795E9, 0.0, 2022-10-21 19:28:35.938
112.0, -136339.96383428143, -163026.20327785055, 16221.35385529445, -121684.66260250362, 70232.1762123318, -75287.2690900885, 36499.616384460496, -114721.93774246429, 0.03, 0.9540000000000001, 0.1, 192.0, 0.0, 0.0, 0.0, 0.0, 0.0, 0.0, 0.0, 0.0, 0.0, 1.6664057159383912E9, 0.0, 2022-10-21 19:28:35.938
113.0, -136334.35354642314, -163015.36268178973, 16231.59095425498, -121677.33123032228, 70242.05568338104, -75283.268127831, 36506.47837000828, -114720.88721047489, 0.03, 0.9540000000000001, 0.1, 192.0, 0.0, 0.0, 0.0, 0.0, 0.0, 0.0, 0.0, 0.0, 0.0, 1.666405715938403E9, 0.0, 2022-10-21 19:28:35.938
114.0, -136329.41381089852, -163011.74169918796, 16236.173061868318, -121673.64319248716, 70249.36470381793, -75254.65789492821, 36519.12945736998, -114721.60246629745, 0.03, 0.9540000000000001, 0.1, 192.0, 0.0, 0.0, 0.0, 0.0, 0.0, 0.0, 0.0, 0.0, 0.0, 1.6664057159384143E9, 0.0, 2022-10-21 19:28:35.938
115.0, -136325.81518004122, -163004.61149270672, 16238.92232643632, -121671.87740467518, 70255.44437830978, -75250.8133948819, 36517.56483525811, -114713.48878306018, 0.03, 0.9540000000000001, 0.1, 192.0, 0.0, 0.0, 0.0, 0.0, 0.0, 0.0, 0.0, 0.0, 0.0, 1.6664057159384258E9, 0.0, 2022-10-21 19:28:35.938
116.0, -136319.914319505, -162996.229588536, 16240.621059014924, -121668.61404998471, 70258.30540160005, -75259.15059556373, 36511.10518111053, -114716.39450983936, 0.03, 0.9540000000000001, 0.1, 192.0, 0.0, 0.0, 0.0, 0.0, 0.0, 0.0, 0.0, 0.0, 0.0, 1.6664057159384372E9, 0.0, 2022-10-21 19:28:35.938
117.0, -136331.8277992997, -163008.76891717542, 16234.384922311894, -121677.71120997802, 70248.51533752863, -75253.78617689446, 36506.74659094174, -114724.84346924347, 0.03, 0.9540000000000001, 0.1, 192.0, 0.0, 0.0, 0.0, 0.0, 0.0, 0.0, 0.0, 0.0, 0.0, 1.666405715938449E9, 0.0, 2022-10-21 19:28:35.938
118.0, -136327.2233399419, -163006.10905958523, 16237.715332235735, -121682.36037282473, 70244.26850608212, -75260.84932814233, 36503.952622884826, -114727.97271346721, 0.044, 0.9500000000000001, 0.10400000000000001, 192.0, 1.0, 96.0, 29.0, 176.0, 3.0, 64.0, 0.0, 0.0, 0.0, 1.6664057159384604E9, 0.0, 2022-10-21 19:28:35.938
119.0, -136319.84726427167, -163000.2305507935, 16238.184718869295, -121681.60041351324, 70249.85644219595, -75247.97472333607, 36504.019678118195, -114727.30216113356, 0.044, 0.9500000000000001, 0.10400000000000001, 192.0, 0.0, 0.0, 0.0, 0.0, 0.0, 0.0, 0.0, 0.0, 0.0, 1.6664057159384727E9, 0.0, 2022-10-21 19:28:35.938
120.0, -136315.1310461916, -162994.7767251464, 16234.049646145064, -121681.26513734642, 70248.47063403972, -75271.82403466989, 36483.6125354305, -114732.37600712491, 0.044, 0.9500000000000001, 0.10400000000000001, 192.0, 0.0, 0.0, 0.0, 0.0, 0.0, 0.0, 0.0, 0.0, 0.0, 1.6664057159384844E9, 0.0, 2022-10-21 19:28:35.938
121.0, -136317.9697177374, -162994.06146932382, 16241.045742159575, -121672.92793666458, 70255.91376494334, -75270.99702012504, 36487.18881454335, -114726.72101577772, 0.044, 0.9500000000000001, 0.10400000000000001, 192.0, 0.0, 0.0, 0.0, 0.0, 0.0, 0.0, 0.0, 0.0, 0.0, 1.6664057159384959E9, 0.0, 2022-10-21 19:28:35.938
122.0, -136314.661659558, -162990.7757628889, 16247.326582351518, -121670.35748605222, 70257.85836671095, -75252.24390652703, 36491.860329134506, -114725.73753902168, 0.044, 0.9500000000000001, 0.10400000000000001, 192.0, 0.0, 0.0, 0.0, 0.0, 0.0, 0.0, 0.0, 0.0, 0.0, 1.6664057159385073E9, 0.0, 2022-10-21 19:28:35.938
123.0, -136310.30306938925, -162986.21600702, 16245.7843119841, -121678.53822452287, 70252.4268928083, -75255.26139202851, 36478.33752373904, -114730.40905361285, 0.044, 0.9500000000000001, 0.10400000000000001, 192.0, 0.0, 0.0, 0.0, 0.0, 0.0, 0.0, 0.0, 0.0, 0.0, 1.6664057159385226E9, 0.0, 2022-10-21 19:28:35.938
124.0, -136310.30306938925, -162986.50657969792, 16237.000076413166, -121688.4176955721, 70248.26946833963, -75271.19818582514, 36463.36185495399, -114725.3799111104, 0.044, 0.9500000000000001, 0.10400000000000001, 192.0, 0.0, 0.0, 0.0, 0.0, 0.0, 0.0, 0.0, 0.0, 0.0, 1.6664057159385345E9, 0.0, 2022-10-21 19:28:35.938
125.0, -136313.02998221279, -162984.69608839706, 16240.35283808146, -121687.00953567143, 70252.06926489703, -75273.6121742263, 36467.72044512277, -114722.38477735339, 0.044, 0.9500000000000001, 0.10400000000000001, 192.0, 0.0, 0.0, 0.0, 0.0, 0.0, 0.0, 0.0, 0.0, 0.0, 1.6664057159385457E9, 0.0, 2022-10-21 19:28:35.938
126.0, -136308.15730192154, -162976.9623848155, 16244.219689872229, -121680.21460535702, 70258.0371806666, -75252.78034839396, 36480.30447725111, -114726.1845739108, 0.044, 0.9500000000000001, 0.10400000000000001, 192.0, 0.0, 0.0, 0.0, 0.0, 0.0, 0.0, 0.0, 0.0, 0.0, 1.6664057159385695E9, 0.0, 2022-10-21 19:28:35.938
127.0, -136305.18451990897, -162971.4638556795, 16238.296477591573, -121689.4682275615, 70251.48811954119, -75237.67056914218, 36470.64852364642, -114738.61214382794, 0.044, 0.9500000000000001, 0.10400000000000001, 192.0, 0.0, 0.0, 0.0, 0.0, 0.0, 0.0, 0.0, 0.0, 0.0, 1.6664057159385808E9, 0.0, 2022-10-21 19:28:35.938
128.0, -136299.93185996197, -162966.90409981064, 16241.06809390403, -121690.58581478428, 70252.73981723069, -75271.19818582514, 36453.46003216029, -114734.16414668133, 0.046, 0.9560000000000001, 0.098, 192.0, 1.0, 112.0, 29.0, 224.0, 3.0, 16.0, 0.0, 0.0, 0.0, 1.666405715938592E9, 0.0, 2022-10-21 19:28:35.938
129.0, -136292.35461859163, -162960.77972182987, 16243.45973056075, -121689.15530313914, 70255.9361166878, -75278.015467884, 36458.19860198481, -114721.69187327527, 0.046, 0.9560000000000001, 0.098, 192.0, 0.0, 0.0, 0.0, 0.0, 0.0, 0.0, 0.0, 0.0, 0.0, 1.666405715938604E9, 0.0, 2022-10-21 19:28:35.938
130.0, -136293.91924070352, -162961.51732939688, 16233.244983344674, -121702.94632946806, 70244.29085782658, -75268.04658985694, 36457.05866301759, -114731.12430943541, 0.046, 0.9560000000000001, 0.098, 192.0, 0.0, 0.0, 0.0, 0.0, 0.0, 0.0, 0.0, 0.0, 0.0, 1.6664057159386156E9, 0.0, 2022-10-21 19:28:35.938
131.0, -136298.68016227247, -162964.75833234293, 16224.192526840274, -121707.39432661467, 70236.73596820068, -75267.08546484535, 36444.36287216698, -114741.71903630723, 0.046, 0.9560000000000001, 0.098, 192.0, 0.0, 0.0, 0.0, 0.0, 0.0, 0.0, 0.0, 0.0, 0.0, 1.666405715938627E9, 0.0, 2022-10-21 19:28:35.938
132.0, -136283.30216208723, -162945.80405304482, 16235.524861279115, -121695.63730903117, 70246.36957006092, -75273.38865678175, 36437.12090696346, -114733.87357400342, 0.046, 0.9560000000000001, 0.098, 192.0, 0.0, 0.0, 0.0, 0.0, 0.0, 0.0, 0.0, 0.0, 0.0, 1.6664057159386384E9, 0.0, 2022-10-21 19:28:35.938
133.0, -136273.40033929353, -162936.23750641794, 16238.207070613751, -121687.85890196073, 70251.95750617475, -75277.30021206144, 36434.7516220512, -114729.42557685681, 0.046, 0.9560000000000001, 0.098, 192.0, 0.0, 0.0, 0.0, 0.0, 0.0, 0.0, 0.0, 0.0, 0.0, 1.6664057159386497E9, 0.0, 2022-10-21 19:28:35.938
134.0, -136262.82796416618, -162925.3522068682, 16232.663837988835, -121688.19417812755, 70248.87296543992, -75267.42074101219, 36434.1481249509, -114732.66657980283, 0.046, 0.9560000000000001, 0.098, 192.0, 0.0, 0.0, 0.0, 0.0, 0.0, 0.0, 0.0, 0.0, 0.0, 1.666405715938661E9, 0.0, 2022-10-21 19:28:35.938
135.0, -136260.34692053162, -162915.53979105232, 16228.953448409255, -121693.6256520302, 70244.04498863757, -75275.60147948284, 36426.43677311382, -114738.0309984721, 0.046, 0.9560000000000001, 0.098, 192.0, 0.0, 0.0, 0.0, 0.0, 0.0, 0.0, 0.0, 0.0, 0.0, 1.6664057159386723E9, 0.0, 2022-10-21 19:28:35.938
136.0, -136248.6122546926, -162905.1909333695, 16230.719236221223, -121699.21358814402, 70245.40844504934, -75287.60436625533, 36419.12775267693, -114739.59562058398, 0.046, 0.9560000000000001, 0.098, 192.0, 0.0, 0.0, 0.0, 0.0, 0.0, 0.0, 0.0, 0.0, 0.0, 1.6664057159386835E9, 0.0, 2022-10-21 19:28:35.938
137.0, -136239.58214993266, -162899.13361062214, 16227.12060536392, -121708.13193418169, 70242.50271827016, -75303.45175307414, 36411.28229037312, -114729.40322511236, 0.046, 0.9560000000000001, 0.098, 192.0, 0.0, 0.0, 0.0, 0.0, 0.0, 0.0, 0.0, 0.0, 0.0, 1.6664057159386947E9, 0.0, 2022-10-21 19:28:35.938
138.0, -136235.13415278605, -162879.53113073483, 16234.854308945456, -121698.78890499937, 70247.48715728369, -75292.38763956877, 36421.54174107811, -114731.30312339106, 0.034, 0.9560000000000001, 0.094, 192.0, 1.0, 16.0, 29.0, 224.0, 2.0, 240.0, 0.0, 0.0, 0.0, 1.666405715938706E9, 0.0, 2022-10-21 19:28:35.938
139.0, -136226.30521372618, -162861.40386598159, 16241.582184026503, -121693.31272760782, 70253.36566607544, -75288.0737528889, 36421.184113166826, -114738.56744033903, 0.034, 0.9560000000000001, 0.094, 192.0, 0.0, 0.0, 0.0, 0.0, 0.0, 0.0, 0.0, 0.0, 0.0, 1.6664057159387183E9, 0.0, 2022-10-21 19:28:35.938
140.0, -136223.80181834722, -162850.8314908542, 16238.519995036126, -121689.8705589617, 70259.49004405619, -75300.14369489477, 36413.78568575212, -114735.90758274884, 0.034, 0.9560000000000001, 0.094, 192.0, 0.0, 0.0, 0.0, 0.0, 0.0, 0.0, 0.0, 0.0, 0.0, 1.6664057159387295E9, 0.0, 2022-10-21 19:28:35.938
141.0, -136222.79598984672, -162845.95881056297, 16226.807680941545, -121693.64800377465, 70253.94681143128, -75319.25443640405, 36399.12294138944, -114745.04944623107, 0.034, 0.9560000000000001, 0.094, 192.0, 0.0, 0.0, 0.0, 0.0, 0.0, 0.0, 0.0, 0.0, 0.0, 1.6664057159387748E9, 0.0, 2022-10-21 19:28:35.938
142.0, -136208.66968735095, -162832.21248772295, 16232.507375777648, -121684.05910540333, 70259.91472720084, -75309.48672407708, 36408.10834266047, -114736.24285891568, 0.034, 0.9560000000000001, 0.094, 192.0, 0.0, 0.0, 0.0, 0.0, 0.0, 0.0, 0.0, 0.0, 0.0, 1.666405715938785E9, 0.0, 2022-10-21 19:28:35.938
143.0, -136194.76690229977, -162817.52739161582, 16234.58608801199, -121681.77922746888, 70260.56292779004, -75302.11064840683, 36417.808999754074, -114724.083509932, 0.034, 0.9560000000000001, 0.094, 192.0, 0.0, 0.0, 0.0, 0.0, 0.0, 0.0, 0.0, 0.0, 0.0, 1.6664057159387949E9, 0.0, 2022-10-21 19:28:35.938
144.0, -136189.0448557192, -162810.15131594555, 16233.513204278137, -121681.93568968007, 70267.1343406599, -75287.85023544433, 36424.469819601756, -114725.1787454103, 0.034, 0.9560000000000001, 0.094, 192.0, 0.0, 0.0, 0.0, 0.0, 0.0, 0.0, 0.0, 0.0, 0.0, 1.6664057159388077E9, 0.0, 2022-10-21 19:28:35.938
145.0, -136176.30436137968, -162796.3379378722, 16238.631753758402, -121680.90750943513, 70271.87291048442, -75297.26031986003, 36415.573825308544, -114724.61995179892, 0.034, 0.9560000000000001, 0.094, 192.0, 0.0, 0.0, 0.0, 0.0, 0.0, 0.0, 0.0, 0.0, 0.0, 1.666405715938818E9, 0.0, 2022-10-21 19:28:35.938
146.0, -136165.08378566313, -162782.74807724336, 16238.363532824938, -121679.67816349008, 70271.76115176216, -75294.77927622548, 36416.981985209226, -114713.08645165998, 0.034, 0.9560000000000001, 0.094, 192.0, 0.0, 0.0, 0.0, 0.0, 0.0, 0.0, 0.0, 0.0, 0.0, 1.666405715938828E9, 0.0, 2022-10-21 19:28:35.938
147.0, -136153.28206459072, -162780.42349582, 16233.714369978235, -121674.60431749873, 70267.15669240436, -75269.45474975763, 36425.095668446505, -114713.44407957126, 0.03, 0.9480000000000001, 0.092, 192.0, 0.0, 240.0, 29.0, 160.0, 2.0, 224.0, 0.0, 0.0, 0.0, 1.666405715938838E9, 0.0, 2022-10-21 19:28:35.938
148.0, -136138.90989290594, -162768.44296079196, 16233.133224622397, -121671.18450059707, 70261.97108769072, -75272.0699038589, 36417.45137184279, -114722.2283151422, 0.03, 0.9480000000000001, 0.092, 192.0, 0.0, 0.0, 0.0, 0.0, 0.0, 0.0, 0.0, 0.0, 0.0, 1.6664057159388487E9, 0.0, 2022-10-21 19:28:35.938
149.0, -136132.65140445845, -162752.39440827304, 16238.341181080483, -121676.19129135506, 70262.77575049111, -75305.95514845314, 36405.47083681475, -114720.5295825636, 0.03, 0.9480000000000001, 0.092, 192.0, 0.0, 0.0, 0.0, 0.0, 0.0, 0.0, 0.0, 0.0, 0.0, 1.6664057159388587E9, 0.0, 2022-10-21 19:28:35.938
150.0, -136129.2315875568, -162741.19618430093, 16243.526785794114, -121675.27486983238, 70265.12268365892, -75312.03482294499, 36409.15887464987, -114713.73465224919, 0.03, 0.9480000000000001, 0.092, 192.0, 0.0, 0.0, 0.0, 0.0, 0.0, 0.0, 0.0, 0.0, 0.0, 1.6664057159388688E9, 0.0, 2022-10-21 19:28:35.938
151.0, -136107.79626462416, -162718.68797763443, 16253.585070799003, -121652.05140734333, 70272.27524188462, -75288.29727033345, 36422.79343876761, -114702.84935269944, 0.03, 0.9480000000000001, 0.092, 192.0, 0.0, 0.0, 0.0, 0.0, 0.0, 0.0, 0.0, 0.0, 0.0, 1.666405715938879E9, 0.0, 2022-10-21 19:28:35.938
152.0, -136091.07715977158, -162708.0485472737, 16250.679344019813, -121633.4100524676, 70270.12947441691, -75277.03199112797, 36420.848837, -114705.48685854518, 0.03, 0.9480000000000001, 0.092, 192.0, 0.0, 0.0, 0.0, 0.0, 0.0, 0.0, 0.0, 0.0, 0.0, 1.6664057159388952E9, 0.0, 2022-10-21 19:28:35.938
153.0, -136073.15106071843, -162694.03400350024, 16255.708486522257, -121628.89500008762, 70273.61634655193, -75307.78799149848, 36406.92370020434, -114721.08837617499, 0.03, 0.9480000000000001, 0.092, 192.0, 0.0, 0.0, 0.0, 0.0, 0.0, 0.0, 0.0, 0.0, 0.0, 1.666405715938942E9, 0.0, 2022-10-21 19:28:35.938
154.0, -136061.75167104622, -162687.30612841918, 16255.104989421963, -121629.87847684366, 70272.94579421828, -75307.519770565, 36406.65547927088, -114723.81528899852, 0.03, 0.9480000000000001, 0.092, 192.0, 0.0, 0.0, 0.0, 0.0, 0.0, 0.0, 0.0, 0.0, 0.0, 1.6664057159389849E9, 0.0, 2022-10-21 19:28:35.938
155.0, -136034.41548757738, -162663.7473897633, 16263.710411037257, -121619.01552903838, 70277.10321868697, -75302.11064840683, 36413.763334007665, -114718.33911160698, 0.03, 0.9480000000000001, 0.092, 192.0, 0.0, 0.0, 0.0, 0.0, 0.0, 0.0, 0.0, 0.0, 0.0, 1.6664057159390278E9, 0.0, 2022-10-21 19:28:35.939
156.0, -136013.53895825613, -162644.50253778728, 16268.7395535397, -121622.18947675104, 70276.61148030896, -75296.88034020428, 36418.233682898725, -114715.74630925016, 0.03, 0.9480000000000001, 0.092, 192.0, 0.0, 0.0, 0.0, 0.0, 0.0, 0.0, 0.0, 0.0, 0.0, 1.6664057159391112E9, 0.0, 2022-10-21 19:28:35.939
157.0, -135996.6633911924, -162626.19645907838, 16275.646242576391, -121618.27792147135, 70284.56870133504, -75295.00279367004, 36419.53008407713, -114712.95234119325, 0.032, 0.9440000000000001, 0.092, 192.0, 1.0, 0.0, 29.0, 128.0, 2.0, 224.0, 0.0, 0.0, 0.0, 1.6664057159391537E9, 0.0, 2022-10-21 19:28:35.939
158.0, -135980.41367297337, -162612.00310134926, 16278.954300755777, -121615.707470859, 70284.07696295703, -75309.41966884371, 36411.93049096233, -114720.30606511905, 0.032, 0.9440000000000001, 0.092, 192.0, 0.0, 0.0, 0.0, 0.0, 0.0, 0.0, 0.0, 0.0, 0.0, 1.6664057159391985E9, 0.0, 2022-10-21 19:28:35.939
159.0, -135958.6877773628, -162593.00411856224, 16285.123382225442, -121612.68998535753, 70288.14498044789, -75298.46731406062, 36417.764296265166, -114719.6802162743, 0.032, 0.9440000000000001, 0.092, 192.0, 0.0, 0.0, 0.0, 0.0, 0.0, 0.0, 0.0, 0.0, 0.0, 1.6664057159392169E9, 0.0, 2022-10-21 19:28:35.939
160.0, -135934.9949282402, -162574.49687415326, 16284.832809547523, -121614.0534417693, 70287.94381474779, -75293.14759888024, 36417.65253754289, -114719.30023661855, 0.032, 0.9440000000000001, 0.092, 192.0, 0.0, 0.0, 0.0, 0.0, 0.0, 0.0, 0.0, 0.0, 0.0, 1.6664057159392283E9, 0.0, 2022-10-21 19:28:35.939
161.0, -135918.5216925766, -162556.72723731128, 16284.877513036432, -121614.7016423585, 70290.04487872659, -75297.70735474913, 36411.103476417484, -114720.5295825636, 0.032, 0.9440000000000001, 0.092, 192.0, 0.0, 0.0, 0.0, 0.0, 0.0, 0.0, 0.0, 0.0, 0.0, 1.66640571593924E9, 0.0, 2022-10-21 19:28:35.939
162.0, -135896.86285219944, -162531.9168009659, 16293.907617796376, -121610.90184580111, 70297.71152707476, -75308.74911651005, 36409.96353745026, -114713.28761736008, 0.032, 0.9440000000000001, 0.092, 192.0, 0.0, 0.0, 0.0, 0.0, 0.0, 0.0, 0.0, 0.0, 0.0, 1.6664057159392512E9, 0.0, 2022-10-21 19:28:35.939
163.0, -135881.19427933625, -162518.14812638142, 16295.204018974784, -121604.41983990907, 70300.01375675366, -75300.43426757268, 36414.65740378587, -114711.36536733693, 0.032, 0.9440000000000001, 0.092, 192.0, 0.0, 0.0, 0.0, 0.0, 0.0, 0.0, 0.0, 0.0, 0.0, 1.6664057159392626E9, 0.0, 2022-10-21 19:28:35.939
164.0, -135862.575276205, -162500.28908256162, 16301.730728355735, -121601.84938929671, 70300.17021896485, -75287.55966276642, 36417.00433695368, -114717.33328310649, 0.032, 0.9440000000000001, 0.092, 192.0, 0.0, 0.0, 0.0, 0.0, 0.0, 0.0, 0.0, 0.0, 0.0, 1.666405715939274E9, 0.0, 2022-10-21 19:28:35.939
165.0, -135854.93097960128, -162495.48345750375, 16293.728803840735, -121610.67832835655, 70294.9399107623, -75297.81911347141, 36404.174435636334, -114734.16414668133, 0.032, 0.9440000000000001, 0.092, 192.0, 0.0, 0.0, 0.0, 0.0, 0.0, 0.0, 0.0, 0.0, 0.0, 1.6664057159392855E9, 0.0, 2022-10-21 19:28:35.939
166.0, -135842.3692992174, -162482.11711431947, 16290.867780550454, -121611.99708127942, 70294.31406191755, -75314.00177645705, 36392.17154886384, -114736.73459729369, 0.032, 0.9440000000000001, 0.092, 192.0, 0.0, 0.0, 0.0, 0.0, 0.0, 0.0, 0.0, 0.0, 0.0, 1.666405715939298E9, 0.0, 2022-10-21 19:28:35.939
167.0, -135818.36352567238, -162458.37956170793, 16297.975635287243, -121602.87756954166, 70298.11385847496, -75329.91621850923, 36389.55639476256, -114733.20302166976, 0.04, 0.9460000000000001, 0.096, 192.0, 1.0, 64.0, 29.0, 144.0, 3.0, 0.0, 0.0, 0.0, 0.0, 1.6664057159393103E9, 0.0, 2022-10-21 19:28:35.939
168.0, -135810.4063046463, -162448.7012563588, 16297.014510275665, -121601.89409278562, 70297.35389916347, -75316.05813694694, 36392.30565933057, -114731.12430943541, 0.04, 0.9460000000000001, 0.096, 192.0, 0.0, 0.0, 0.0, 0.0, 0.0, 0.0, 0.0, 0.0, 0.0, 1.6664057159393225E9, 0.0, 2022-10-21 19:28:35.939
169.0, -135794.5589178275, -162435.80429980808, 16297.997987031698, -121601.55881661878, 70305.60169286748, -75298.08733440487, 36397.6924297443, -114727.61508555592, 0.04, 0.9460000000000001, 0.096, 192.0, 0.0, 0.0, 0.0, 0.0, 0.0, 0.0, 0.0, 0.0, 0.0, 1.6664057159393337E9, 0.0, 2022-10-21 19:28:35.939
170.0, -135781.01376068758, -162423.60024733547, 16299.249684721195, -121605.76094457638, 70306.85339055698, -75321.82488701641, 36381.2862493141, -114728.91148673433, 0.04, 0.9460000000000001, 0.096, 192.0, 0.0, 0.0, 0.0, 0.0, 0.0, 0.0, 0.0, 0.0, 0.0, 1.6664057159393451E9, 0.0, 2022-10-21 19:28:35.939
171.0, -135765.32283607995, -162409.13866867288, 16308.302141225595, -121594.02627873735, 70316.82226858404, -75323.72478529511, 36386.695371472284, -114715.56749529451, 0.04, 0.9460000000000001, 0.096, 192.0, 0.0, 0.0, 0.0, 0.0, 0.0, 0.0, 0.0, 0.0, 0.0, 1.6664057159393675E9, 0.0, 2022-10-21 19:28:35.939
172.0, -135750.12364985034, -162397.1804853893, 16312.481917438738, -121594.47331362645, 70317.13519300643, -75298.33320359388, 36395.099627387484, -114709.93485569178, 0.04, 0.9460000000000001, 0.096, 192.0, 0.0, 0.0, 0.0, 0.0, 0.0, 0.0, 0.0, 0.0, 0.0, 1.6664057159393787E9, 0.0, 2022-10-21 19:28:35.939
173.0, -135740.46769624564, -162388.79858121855, 16316.304065740595, -121595.83677003822, 70314.90001856089, -75300.65778501723, 36386.985944150205, -114709.08548940248, 0.04, 0.9460000000000001, 0.096, 192.0, 0.0, 0.0, 0.0, 0.0, 0.0, 0.0, 0.0, 0.0, 0.0, 1.6664057159393902E9, 0.0, 2022-10-21 19:28:35.939
174.0, -135723.92740534872, -162373.30882231102, 16322.316684999072, -121586.91842400056, 70322.52196342015, -75319.0756224484, 36376.97236263423, -114709.21959986922, 0.04, 0.9460000000000001, 0.096, 192.0, 0.0, 0.0, 0.0, 0.0, 0.0, 0.0, 0.0, 0.0, 0.0, 1.6664057159394016E9, 0.0, 2022-10-21 19:28:35.939
175.0, -135723.5921291819, -162374.56052000052, 16313.197173261307, -121599.703621829, 70309.96028303627, -75311.09604967786, 36369.32806603051, -114718.58498079599, 0.04, 0.9460000000000001, 0.096, 192.0, 0.0, 0.0, 0.0, 0.0, 0.0, 0.0, 0.0, 0.0, 0.0, 1.6664057159394128E9, 0.0, 2022-10-21 19:28:35.939
176.0, -135717.75832387904, -162369.48667400918, 16313.621856405958, -121599.54715961781, 70305.82521031203, -75313.89001773477, 36368.54575497458, -114721.9824459532, 0.038, 0.9500000000000001, 0.096, 192.0, 1.0, 48.0, 29.0, 176.0, 3.0, 0.0, 0.0, 0.0, 0.0, 1.666405715939424E9, 0.0, 2022-10-21 19:28:35.939
177.0, -135710.27048948652, -162364.63634546238, 16318.092205297018, -121596.21674969397, 70310.72024234776, -75313.04065144547, 36370.691522442285, -114714.44990807175, 0.038, 0.9500000000000001, 0.096, 192.0, 0.0, 0.0, 0.0, 0.0, 0.0, 0.0, 0.0, 0.0, 0.0, 1.666405715939436E9, 0.0, 2022-10-21 19:28:35.939
178.0, -135696.6806288577, -162351.04648483355, 16331.99499034822, -121588.66186006808, 70324.53362042113, -75329.55859059794, 36370.15508057536, -114702.98346316618, 0.038, 0.9500000000000001, 0.096, 192.0, 0.0, 0.0, 0.0, 0.0, 0.0, 0.0, 0.0, 0.0, 0.0, 1.6664057159394472E9, 0.0, 2022-10-21 19:28:35.939
179.0, -135698.15584399176, -162353.52752846808, 16320.32737974255, -121597.04376423881, 70315.74938485019, -75336.30881742344, 36360.32031301502, -114713.2205621267, 0.038, 0.9500000000000001, 0.096, 192.0, 0.0, 0.0, 0.0, 0.0, 0.0, 0.0, 0.0, 0.0, 0.0, 1.6664057159394584E9, 0.0, 2022-10-21 19:28:35.939
180.0, -135706.76126560703, -162365.03867686258, 16307.139850513919, -121609.51603764488, 70299.16439046436, -75331.41378538773, 36349.8820483544, -114727.61508555592, 0.038, 0.9500000000000001, 0.096, 192.0, 0.0, 0.0, 0.0, 0.0, 0.0, 0.0, 0.0, 0.0, 0.0, 1.6664057159394696E9, 0.0, 2022-10-21 19:28:35.939
181.0, -135709.15290226377, -162366.13391234088, 16311.27492323815, -121606.72206958797, 70302.07011724355, -75319.8802852488, 36354.91119085684, -114723.77058550961, 0.038, 0.9500000000000001, 0.096, 192.0, 0.0, 0.0, 0.0, 0.0, 0.0, 0.0, 0.0, 0.0, 0.0, 1.666405715939481E9, 0.0, 2022-10-21 19:28:35.939
182.0, -135705.30840221746, -162361.28358379408, 16320.461490209282, -121596.66378458307, 70313.53656214912, -75325.71409055163, 36350.709062899245, -114716.1262889059, 0.038, 0.9500000000000001, 0.096, 192.0, 0.0, 0.0, 0.0, 0.0, 0.0, 0.0, 0.0, 0.0, 0.0, 1.6664057159394922E9, 0.0, 2022-10-21 19:28:35.939
183.0, -135715.56785292242, -162372.7276769552, 16311.766661616168, -121604.84452305372, 70308.5968266245, -75336.35352091235, 36338.28149298209, -114723.50236457615, 0.038, 0.9500000000000001, 0.096, 192.0, 0.0, 0.0, 0.0, 0.0, 0.0, 0.0, 0.0, 0.0, 0.0, 1.666405715939504E9, 0.0, 2022-10-21 19:28:35.939
184.0, -135708.90703307476, -162366.2233193187, 16318.740405886223, -121599.43540089553, 70307.38983242391, -75347.30587569546, 36338.99674880466, -114722.51888782012, 0.038, 0.9500000000000001, 0.096, 192.0, 0.0, 0.0, 0.0, 0.0, 0.0, 0.0, 0.0, 0.0, 0.0, 1.666405715939514E9, 0.0, 2022-10-21 19:28:35.939
185.0, -135703.49791091657, -162361.30593553852, 16321.310856498583, -121593.13220895914, 70311.83782957052, -75334.36421565583, 36346.082251796994, -114719.97078895221, 0.038, 0.9500000000000001, 0.096, 192.0, 0.0, 0.0, 0.0, 0.0, 0.0, 0.0, 0.0, 0.0, 0.0, 1.6664057159395242E9, 0.0, 2022-10-21 19:28:35.939
186.0, -135706.69421037368, -162364.79280767357, 16319.880344853444, -121597.69196482802, 70314.69885286079, -75340.10861398085, 36344.070594796016, -114710.76187023663, 0.036000000000000004, 0.9460000000000001, 0.094, 192.0, 1.0, 32.0, 29.0, 144.0, 2.0, 240.0, 0.0, 0.0, 0.0, 1.6664057159395344E9, 0.0, 2022-10-21 19:28:35.939
187.0, -135710.49400693108, -162367.7208861972, 16317.913391341377, -121598.98836600642, 70312.97776853773, -75348.71403559615, 36340.33785347198, -114714.60637028294, 0.036000000000000004, 0.9460000000000001, 0.094, 192.0, 0.0, 0.0, 0.0, 0.0, 0.0, 0.0, 0.0, 0.0, 0.0, 1.6664057159395592E9, 0.0, 2022-10-21 19:28:35.939
188.0, -135711.45513194267, -162367.58677573048, 16317.533411685636, -121592.08167696974, 70312.95541679328, -75348.19994547367, 36337.566237159524, -114717.1768208953, 0.036000000000000004, 0.9460000000000001, 0.094, 192.0, 0.0, 0.0, 0.0, 0.0, 0.0, 0.0, 0.0, 0.0, 0.0, 1.6664057159395697E9, 0.0, 2022-10-21 19:28:35.939
189.0, -135711.9915738096, -162368.79376993107, 16311.18551626033, -121595.92617701605, 70307.61334986846, -75322.89777075026, 36338.03562379308, -114718.20500114025, 0.036000000000000004, 0.9460000000000001, 0.094, 192.0, 0.0, 0.0, 0.0, 0.0, 0.0, 0.0, 0.0, 0.0, 0.0, 1.66640571593958E9, 0.0, 2022-10-21 19:28:35.939
190.0, -135715.0314110555, -162373.88996766688, 16300.881362066433, -121613.80757258029, 70294.13524796191, -75332.79959354397, 36319.595434617455, -114730.00672221265, 0.036000000000000004, 0.9460000000000001, 0.094, 192.0, 0.0, 0.0, 0.0, 0.0, 0.0, 0.0, 0.0, 0.0, 0.0, 1.6664057159395905E9, 0.0, 2022-10-21 19:28:35.939
191.0, -135708.39294295228, -162364.90456639582, 16318.248667508205, -121598.98836600642, 70306.76398357916, -75353.67612286522, 36314.61099560392, -114724.48584133219, 0.036000000000000004, 0.9460000000000001, 0.094, 192.0, 0.0, 0.0, 0.0, 0.0, 0.0, 0.0, 0.0, 0.0, 0.0, 1.6664057159396007E9, 0.0, 2022-10-21 19:28:35.939
192.0, -135711.2316144981, -162367.54207224157, 16319.478013453248, -121594.98740374892, 70307.94862603529, -75357.16299500025, 36313.80633280353, -114725.06698668802, 0.036000000000000004, 0.9460000000000001, 0.094, 192.0, 0.0, 0.0, 0.0, 0.0, 0.0, 0.0, 0.0, 0.0, 0.0, 1.6664057159396112E9, 0.0, 2022-10-21 19:28:35.939
193.0, -135715.0761145444, -162374.2699473226, 16315.27588549565, -121594.94270026001, 70308.64153011341, -75345.07070124993, 36321.338870684966, -114717.40033833985, 0.036000000000000004, 0.9460000000000001, 0.094, 192.0, 0.0, 0.0, 0.0, 0.0, 0.0, 0.0, 0.0, 0.0, 0.0, 1.6664057159396217E9, 0.0, 2022-10-21 19:28:35.939
194.0, -135714.9867075666, -162374.35935430042, 16314.739443628723, -121598.49662762841, 70307.36748067946, -75333.40309064425, 36319.595434617455, -114718.89790521836, 0.036000000000000004, 0.9460000000000001, 0.094, 192.0, 0.0, 0.0, 0.0, 0.0, 0.0, 0.0, 0.0, 0.0, 0.0, 1.666405715939632E9, 0.0, 2022-10-21 19:28:35.939
195.0, -135716.95366107867, -162374.35935430042, 16302.535391156125, -121614.6569388696, 70291.72125956074, -75353.69847460967, 36291.78986451505, -114731.79486176907, 0.036000000000000004, 0.9460000000000001, 0.094, 192.0, 0.0, 0.0, 0.0, 0.0, 0.0, 0.0, 0.0, 0.0, 0.0, 1.6664057159396422E9, 0.0, 2022-10-21 19:28:35.939
196.0, -135716.21605351163, -162374.11348511142, 16300.456678921782, -121616.89211331513, 70288.14498044789, -75360.67221887973, 36285.129044667374, -114728.35269312296, 0.032, 0.9520000000000001, 0.096, 192.0, 1.0, 0.0, 29.0, 192.0, 3.0, 0.0, 0.0, 0.0, 0.0, 1.6664057159396524E9, 0.0, 2022-10-21 19:28:35.939
197.0, -135715.61255641133, -162374.49346476718, 16304.435289434827, -121608.64431961112, 70294.22465493974, -75335.81707904543, 36294.89675699434, -114726.89982973336, 0.032, 0.9520000000000001, 0.096, 192.0, 0.0, 0.0, 0.0, 0.0, 0.0, 0.0, 0.0, 0.0, 0.0, 1.6664057159396632E9, 0.0, 2022-10-21 19:28:35.939
198.0, -135704.99547779508, -162362.78115067258, 16313.577152917047, -121610.36540393418, 70296.52688461864, -75331.10086096537, 36290.76168427011, -114727.99506521167, 0.032, 0.9520000000000001, 0.096, 192.0, 0.0, 0.0, 0.0, 0.0, 0.0, 0.0, 0.0, 0.0, 0.0, 1.6664057159396737E9, 0.0, 2022-10-21 19:28:35.939
199.0, -135704.7272568616, -162363.09407509497, 16311.029054049142, -121616.73565110394, 70293.53175086161, -75355.77718684402, 36273.32732359497, -114738.14275719438, 0.032, 0.9520000000000001, 0.096, 192.0, 0.0, 0.0, 0.0, 0.0, 0.0, 0.0, 0.0, 0.0, 0.0, 1.666405715939684E9, 0.0, 2022-10-21 19:28:35.939
200.0, -135701.9332888047, -162362.84820590596, 16311.498440682702, -121614.20990398049, 70295.96809100725, -75358.70526536767, 36274.04257941754, -114738.72390255022, 0.032, 0.9520000000000001, 0.096, 192.0, 0.0, 0.0, 0.0, 0.0, 0.0, 0.0, 0.0, 0.0, 0.0, 1.6664057159396944E9, 0.0, 2022-10-21 19:28:35.939
201.0, -135694.8254340679, -162357.75200817015, 16321.824946621055, -121609.38192717814, 70300.68430908732, -75350.54687864147, 36287.855957490916, -114724.55289656555, 0.032, 0.9520000000000001, 0.096, 192.0, 0.0, 0.0, 0.0, 0.0, 0.0, 0.0, 0.0, 0.0, 0.0, 1.666405715939705E9, 0.0, 2022-10-21 19:28:35.939
202.0, -135696.45711141315, -162361.55180472755, 16321.936705343333, -121606.74442133242, 70304.55116087808, -75332.35255865486, 36293.35448662692, -114726.34103612197, 0.032, 0.9520000000000001, 0.096, 192.0, 0.0, 0.0, 0.0, 0.0, 0.0, 0.0, 0.0, 0.0, 0.0, 1.6664057159397457E9, 0.0, 2022-10-21 19:28:35.939
203.0, -135696.7700358355, -162362.60233671695, 16313.778318617145, -121614.27695921385, 70300.9972335097, -75344.64601810528, 36279.42934983127, -114734.45471935926, 0.032, 0.9520000000000001, 0.096, 192.0, 0.0, 0.0, 0.0, 0.0, 0.0, 0.0, 0.0, 0.0, 0.0, 1.666405715939756E9, 0.0, 2022-10-21 19:28:35.939
0.0, 0.0, 0.0, 0.0, 0.0, 0.0, 0.0, 0.0, 0.0, 0.022, 0.9560000000000001, 0.05, 192.0, 0.0, 176.0, 29.0, 224.0, 1.0, 144.0, 0.0, 0.0, 0.0, 1.6664057160056844E9, 0.0, 2022-10-21 19:28:36.005
1.0, -134751.29124537602, -163358.57371790096, 10380.77597388935, -121339.99870300278, 74387.11963738437, -72371.95341252726, 38908.2850704533, -115136.89787827706, 0.022, 0.9560000000000001, 0.05, 192.0, 0.0, 0.0, 0.0, 0.0, 0.0, 0.0, 0.0, 0.0, 0.0, 1.6664057164990003E9, 0.0, 2022-10-21 19:28:36.499
2.0, -134757.37091986788, -163366.10625578242, 10369.264825494865, -121357.58952588911, 74379.18476810274, -72353.31205765154, 38907.72627684192, -115130.59468634066, 0.022, 0.9560000000000001, 0.05, 192.0, 0.0, 0.0, 0.0, 0.0, 0.0, 0.0, 0.0, 0.0, 0.0, 1.6664057164990785E9, 0.0, 2022-10-21 19:28:36.499
3.0, -134755.3592628669, -163361.88177608035, 10372.349366229697, -121357.9471538004, 74382.17990185975, -72357.22361293121, 38903.63590760659, -115139.53538412278, 0.022, 0.9560000000000001, 0.05, 192.0, 0.0, 0.0, 0.0, 0.0, 0.0, 0.0, 0.0, 0.0, 0.0, 1.6664057164991395E9, 0.0, 2022-10-21 19:28:36.499
4.0, -134752.52059132108, -163353.83514807644, 10376.52914244284, -121351.62161011955, 74387.11963738437, -72360.9340025108, 38907.927442542015, -115135.51207012082, 0.022, 0.9560000000000001, 0.05, 192.0, 0.0, 0.0, 0.0, 0.0, 0.0, 0.0, 0.0, 0.0, 0.0, 1.6664057164991589E9, 0.0, 2022-10-21 19:28:36.499
5.0, -134743.2446173721, -163342.68162759324, 10377.557322687784, -121354.43792992091, 74382.64928849331, -72362.92330776731, 38909.17914023151, -115133.3215991642, 0.022, 0.9560000000000001, 0.05, 192.0, 0.0, 0.0, 0.0, 0.0, 0.0, 0.0, 0.0, 0.0, 0.0, 1.6664057164991703E9, 0.0, 2022-10-21 19:28:36.499
6.0, -134756.9015332343, -163352.1587672423, 10367.029651049335, -121362.97629630283, 74369.79703543152, -72367.34895316946, 38900.66312559404, -115139.44597714496, 0.022, 0.9560000000000001, 0.05, 192.0, 0.0, 0.0, 0.0, 0.0, 0.0, 0.0, 0.0, 0.0, 0.0, 1.6664057164991815E9, 0.0, 2022-10-21 19:28:36.499
7.0, -134742.9987481831, -163333.87504027787, 10375.590369175718, -121356.22606947734, 74379.02830589155, -72363.70561882325, 38904.619384362624, -115129.63356132909, 0.022, 0.9500000000000001, 0.02, 192.0, 0.0, 176.0, 29.0, 176.0, 0.0, 160.0, 0.0, 0.0, 0.0, 1.6664057164991927E9, 0.0, 2022-10-21 19:28:36.499
8.0, -134739.46717255918, -163330.36581639838, 10371.656462151583, -121362.61866839156, 74377.01664889058, -72378.30130795257, 38899.389076160085, -115130.66174157403, 0.022, 0.9500000000000001, 0.02, 192.0, 0.0, 0.0, 0.0, 0.0, 0.0, 0.0, 0.0, 0.0, 0.0, 1.6664057164992044E9, 0.0, 2022-10-21 19:28:36.499
9.0, -134734.6391957568, -163330.03054023153, 10370.270653995354, -121362.23868873582, 74375.11675061188, -72366.49958688016, 38902.58537561719, -115129.38769214008, 0.022, 0.9500000000000001, 0.02, 192.0, 0.0, 0.0, 0.0, 0.0, 0.0, 0.0, 0.0, 0.0, 0.0, 1.6664057164992156E9, 0.0, 2022-10-21 19:28:36.499
10.0, -134745.03275692853, -163336.4007874013, 10368.460162694475, -121356.80721483317, 74380.54822451451, -72343.85726974694, 38907.41335241954, -115131.60051484115, 0.022, 0.9500000000000001, 0.02, 192.0, 0.0, 0.0, 0.0, 0.0, 0.0, 0.0, 0.0, 0.0, 0.0, 1.6664057164992268E9, 0.0, 2022-10-21 19:28:36.499
11.0, -134754.48754483313, -163346.14614798382, 10361.218197490954, -121360.78582534622, 74377.3519250574, -72346.18185117029, 38896.79627380327, -115139.3789219116, 0.022, 0.9500000000000001, 0.02, 192.0, 0.0, 0.0, 0.0, 0.0, 0.0, 0.0, 0.0, 0.0, 0.0, 1.666405716499238E9, 0.0, 2022-10-21 19:28:36.499
12.0, -134744.63042552836, -163335.4620141342, 10360.122962012645, -121361.9481160579, 74374.1556256003, -72360.01758098812, 38890.8283580337, -115140.38475041208, 0.022, 0.9500000000000001, 0.02, 192.0, 0.0, 0.0, 0.0, 0.0, 0.0, 0.0, 0.0, 0.0, 0.0, 1.6664057164992492E9, 0.0, 2022-10-21 19:28:36.499
13.0, -134744.42925982826, -163331.5057553656, 10364.392145203608, -121356.15901424397, 74370.46758776518, -72368.66770609232, 38894.69520982447, -115130.170003196, 0.022, 0.9500000000000001, 0.02, 192.0, 0.0, 0.0, 0.0, 0.0, 0.0, 0.0, 0.0, 0.0, 0.0, 1.666405716499317E9, 0.0, 2022-10-21 19:28:36.499
14.0, -134747.312634863, -163339.41827290278, 10365.286214981821, -121353.58856363161, 74370.31112555398, -72364.48792987918, 38902.965355272936, -115136.51789862131, 0.022, 0.9500000000000001, 0.02, 192.0, 0.0, 0.0, 0.0, 0.0, 0.0, 0.0, 0.0, 0.0, 0.0, 1.6664057164993289E9, 0.0, 2022-10-21 19:28:36.499
15.0, -134745.39038483982, -163335.61847634538, 10363.788648103315, -121357.72363635585, 74372.7027622107, -72371.84165380498, 38903.45709365095, -115143.31282893573, 0.022, 0.9500000000000001, 0.02, 192.0, 0.0, 0.0, 0.0, 0.0, 0.0, 0.0, 0.0, 0.0, 0.0, 1.66640571649934E9, 0.0, 2022-10-21 19:28:36.499
16.0, -134730.32530907696, -163327.12481345236, 10367.588444660718, -121349.85582230757, 74379.07300938046, -72387.2867092236, 38905.31228844074, -115135.8249945432, 0.022, 0.9500000000000001, 0.02, 192.0, 0.0, 0.0, 0.0, 0.0, 0.0, 0.0, 0.0, 0.0, 0.0, 1.6664057164993508E9, 0.0, 2022-10-21 19:28:36.499
17.0, -134723.77624795155, -163321.38041512735, 10373.310491241276, -121337.71882506834, 74388.88542519635, -72392.36055521495, 38917.292823468786, -115117.09423268966, 0.016, 0.9500000000000001, 0.012, 192.0, 0.0, 128.0, 29.0, 176.0, 0.0, 96.0, 0.0, 0.0, 0.0, 1.666405716499362E9, 0.0, 2022-10-21 19:28:36.499
18.0, -134732.0016899111, -163321.67098780526, 10372.103497040689, -121336.62358959003, 74388.48309379615, -72374.59091837298, 38925.3394514727, -115110.52281981979, 0.016, 0.9500000000000001, 0.012, 192.0, 0.0, 0.0, 0.0, 0.0, 0.0, 0.0, 0.0, 0.0, 0.0, 1.6664057164993737E9, 0.0, 2022-10-21 19:28:36.499
19.0, -134732.76164922258, -163317.82648775895, 10372.796401118803, -121337.85293553508, 74388.93012868526, -72370.50054913767, 38921.1373235151, -115119.6199798131, 0.016, 0.9500000000000001, 0.012, 192.0, 0.0, 0.0, 0.0, 0.0, 0.0, 0.0, 0.0, 0.0, 0.0, 1.6664057164993846E9, 0.0, 2022-10-21 19:28:36.499
20.0, -134748.74314650812, -163333.1597844553, 10354.959709043469, -121361.18815674642, 74372.56865174398, -72390.57241565853, 38898.42795114851, -115141.81526205722, 0.016, 0.9500000000000001, 0.012, 192.0, 0.0, 0.0, 0.0, 0.0, 0.0, 0.0, 0.0, 0.0, 0.0, 1.6664057164993956E9, 0.0, 2022-10-21 19:28:36.499
21.0, -134746.77619299607, -163326.52131635207, 10357.083124766723, -121353.02977002022, 74377.9554221577, -72387.21965399024, 38903.32298318422, -115133.85804103114, 0.016, 0.9500000000000001, 0.012, 192.0, 0.0, 0.0, 0.0, 0.0, 0.0, 0.0, 0.0, 0.0, 0.0, 1.6664057164994063E9, 0.0, 2022-10-21 19:28:36.499
22.0, -134742.9987481831, -163325.2472669181, 10358.446581178498, -121347.79946181769, 74379.09536112493, -72368.48889213668, 38913.94006180049, -115126.61607582761, 0.016, 0.9500000000000001, 0.012, 192.0, 0.0, 0.0, 0.0, 0.0, 0.0, 0.0, 0.0, 0.0, 0.0, 1.6664057164994173E9, 0.0, 2022-10-21 19:28:36.499
23.0, -134736.8520184579, -163320.21812441567, 10363.274557980843, -121341.02688324773, 74384.88446293885, -72358.85529027645, 38919.527997914316, -115122.19043042547, 0.016, 0.9500000000000001, 0.012, 192.0, 0.0, 0.0, 0.0, 0.0, 0.0, 0.0, 0.0, 0.0, 0.0, 1.6664057164994285E9, 0.0, 2022-10-21 19:28:36.499
24.0, -134741.43412607125, -163329.58350534242, 10354.736191598915, -121354.68379910992, 74379.2071198472, -72369.07003749252, 38907.927442542015, -115127.26427641683, 0.016, 0.9500000000000001, 0.012, 192.0, 0.0, 0.0, 0.0, 0.0, 0.0, 0.0, 0.0, 0.0, 0.0, 1.6664057164994395E9, 0.0, 2022-10-21 19:28:36.499
25.0, -134746.7538412516, -163331.9527902547, 10349.282365951822, -121360.38349394602, 74370.17701508725, -72395.4897994387, 38896.68451508099, -115126.5266688498, 0.016, 0.9500000000000001, 0.012, 192.0, 0.0, 0.0, 0.0, 0.0, 0.0, 0.0, 0.0, 0.0, 0.0, 1.6664057164994502E9, 0.0, 2022-10-21 19:28:36.499
26.0, -134760.6566263028, -163348.0013427736, 10329.411665131052, -121375.4485697089, 74348.6969886657, -72403.9387588428, 38881.9770672294, -115148.40902667154, 0.016, 0.9500000000000001, 0.012, 192.0, 0.0, 0.0, 0.0, 0.0, 0.0, 0.0, 0.0, 0.0, 0.0, 1.6664057164994624E9, 0.0, 2022-10-21 19:28:36.499
27.0, -134764.50112634912, -163349.1636334853, 10328.47289186393, -121380.7459331448, 74345.88066886434, -72408.11853505594, 38886.42506437601, -115139.5800876117, 0.01, 0.9560000000000001, 0.002, 192.0, 0.0, 80.0, 29.0, 224.0, 0.0, 16.0, 0.0, 0.0, 0.0, 1.6664057164994736E9, 0.0, 2022-10-21 19:28:36.499
28.0, -134748.31846336348, -163333.293894922, 10343.001525759879, -121364.36210445907, 74366.57838422994, -72408.63262517842, 38900.03727674929, -115128.2254014284, 0.01, 0.9560000000000001, 0.002, 192.0, 0.0, 0.0, 0.0, 0.0, 0.0, 0.0, 0.0, 0.0, 0.0, 1.6664057164994988E9, 0.0, 2022-10-21 19:28:36.499
29.0, -134738.7966202255, -163329.2929326645, 10352.679831109028, -121351.73336884181, 74379.94472741423, -72420.36729101745, 38902.20539596146, -115130.48292761839, 0.01, 0.9560000000000001, 0.002, 192.0, 0.0, 0.0, 0.0, 0.0, 0.0, 0.0, 0.0, 0.0, 0.0, 1.6664057164995155E9, 0.0, 2022-10-21 19:28:36.499
30.0, -134737.32140509147, -163329.1588221978, 10347.941261284503, -121350.66048510796, 74376.055523879, -72412.25360778018, 38901.60189886116, -115141.30117193476, 0.01, 0.9560000000000001, 0.002, 192.0, 0.0, 0.0, 0.0, 0.0, 0.0, 0.0, 0.0, 0.0, 0.0, 1.6664057164995563E9, 0.0, 2022-10-21 19:28:36.499
31.0, -134746.28445461803, -163338.03246474653, 10336.988906501401, -121360.0482177792, 74366.80190167451, -72410.17489554583, 38891.99064874538, -115151.04653251727, 0.01, 0.9560000000000001, 0.002, 192.0, 0.0, 0.0, 0.0, 0.0, 0.0, 0.0, 0.0, 0.0, 0.0, 1.6664057164995975E9, 0.0, 2022-10-21 19:28:36.499
32.0, -134766.7586525391, -163349.83418581894, 10325.410702873553, -121371.51466268477, 74363.33738128393, -72425.7987649201, 38883.42993061899, -115158.89199482108, 0.01, 0.9560000000000001, 0.002, 192.0, 0.0, 0.0, 0.0, 0.0, 0.0, 0.0, 0.0, 0.0, 0.0, 1.666405716499639E9, 0.0, 2022-10-21 19:28:36.499
33.0, -134749.63721628633, -163329.62820883136, 10339.291136180298, -121354.05795026517, 74379.49769252511, -72432.25841906767, 38894.33758191318, -115141.94937252396, 0.01, 0.9560000000000001, 0.002, 192.0, 0.0, 0.0, 0.0, 0.0, 0.0, 0.0, 0.0, 0.0, 0.0, 1.6664057164996805E9, 0.0, 2022-10-21 19:28:36.499
34.0, -134740.47300105967, -163323.3920721283, 10343.895595538092, -121341.51862162574, 74386.06910539497, -72416.56749446005, 38906.22870996341, -115129.1194712066, 0.01, 0.9560000000000001, 0.002, 192.0, 0.0, 0.0, 0.0, 0.0, 0.0, 0.0, 0.0, 0.0, 0.0, 1.6664057164997218E9, 0.0, 2022-10-21 19:28:36.499
35.0, -134743.6022452834, -163327.46008961918, 10343.001525759879, -121340.17751695843, 74385.48796003914, -72406.95624434427, 38912.666012366535, -115120.35758738013, 0.01, 0.9560000000000001, 0.002, 192.0, 0.0, 0.0, 0.0, 0.0, 0.0, 0.0, 0.0, 0.0, 0.0, 1.666405716499763E9, 0.0, 2022-10-21 19:28:36.499
36.0, -134747.91613196328, -163329.96348499818, 10334.865490778147, -121341.49626988129, 74383.05161989351, -72412.85710488047, 38907.05572450825, -115124.98439848238, 0.01, 0.9560000000000001, 0.002, 192.0, 0.0, 0.0, 0.0, 0.0, 0.0, 0.0, 0.0, 0.0, 0.0, 1.6664057164997764E9, 0.0, 2022-10-21 19:28:36.499
37.0, -134746.21739938468, -163335.4620141342, 10324.829557517714, -121351.50985139726, 74378.53656751354, -72429.41974752185, 38896.34923891416, -115136.2273259434, 0.012, 0.964, -0.008, 192.0, 0.0, 96.0, 30.0, 32.0, 255.0, 192.0, 0.0, 0.0, 0.0, 1.6664057164997883E9, 0.0, 2022-10-21 19:28:36.499
38.0, -134758.53321057954, -163346.6155346174, 10316.581763813707, -121358.43889217841, 74371.58517498794, -72440.26034358267, 38896.14807321406, -115135.8249945432, 0.012, 0.964, -0.008, 192.0, 0.0, 0.0, 0.0, 0.0, 0.0, 0.0, 0.0, 0.0, 0.0, 1.6664057164998012E9, 0.0, 2022-10-21 19:28:36.499
39.0, -134760.94719898072, -163351.73408409764, 10314.681865535005, -121357.38836018901, 74368.29946855301, -72421.2390090512, 38906.1840064745, -115131.44405262996, 0.012, 0.964, -0.008, 192.0, 0.0, 0.0, 0.0, 0.0, 0.0, 0.0, 0.0, 0.0, 0.0, 1.666405716499813E9, 0.0, 2022-10-21 19:28:36.499
40.0, -134768.32327465096, -163352.06936026446, 10313.340760867686, -121353.58856363161, 74373.93210815574, -72412.07479382453, 38907.16748323053, -115128.53832585078, 0.012, 0.964, -0.008, 192.0, 0.0, 0.0, 0.0, 0.0, 0.0, 0.0, 0.0, 0.0, 0.0, 1.6664057164998248E9, 0.0, 2022-10-21 19:28:36.499
41.0, -134764.6128850714, -163349.6106683744, 10314.413644601542, -121351.398092675, 74378.02247739106, -72428.3915672769, 38904.52997738481, -115119.01648271282, 0.012, 0.964, -0.008, 192.0, 0.0, 0.0, 0.0, 0.0, 0.0, 0.0, 0.0, 0.0, 0.0, 1.6664057164998364E9, 0.0, 2022-10-21 19:28:36.499
42.0, -134757.0132919566, -163338.18892695772, 10316.537060324796, -121340.33397916962, 74384.9068146833, -72431.18553533382, 38916.89049206859, -115112.91445647652, 0.012, 0.964, -0.008, 192.0, 0.0, 0.0, 0.0, 0.0, 0.0, 0.0, 0.0, 0.0, 0.0, 1.666405716499848E9, 0.0, 2022-10-21 19:28:36.499
43.0, -134755.560428567, -163336.62430484587, 10317.542888825285, -121337.22708669033, 74385.17503561676, -72399.96014832976, 38928.60280616317, -115117.04952920074, 0.012, 0.964, -0.008, 192.0, 0.0, 0.0, 0.0, 0.0, 0.0, 0.0, 0.0, 0.0, 0.0, 1.666405716499874E9, 0.0, 2022-10-21 19:28:36.499
44.0, -134761.55069608102, -163349.09657825192, 10313.56427831224, -121344.11142398255, 74384.303317583, -72416.47808748223, 38914.36474494514, -115127.19722118345, 0.012, 0.964, -0.008, 192.0, 0.0, 0.0, 0.0, 0.0, 0.0, 0.0, 0.0, 0.0, 0.0, 1.6664057164998865E9, 0.0, 2022-10-21 19:28:36.499
45.0, -134767.69742580623, -163357.18790974474, 10303.617752029628, -121360.71877011286, 74375.0049918896, -72446.00474190769, 38897.1315499701, -115133.2768956753, 0.012, 0.964, -0.008, 192.0, 0.0, 0.0, 0.0, 0.0, 0.0, 0.0, 0.0, 0.0, 0.0, 1.6664057164998984E9, 0.0, 2022-10-21 19:28:36.499
46.0, -134772.10071946392, -163360.85359583542, 10297.314560093231, -121364.74208411481, 74368.59004123093, -72454.14077688943, 38893.01882899032, -115136.29438117676, 0.012, 0.966, -0.016, 192.0, 0.0, 96.0, 30.0, 48.0, 255.0, 128.0, 0.0, 0.0, 0.0, 1.6664057164999104E9, 0.0, 2022-10-21 19:28:36.499
47.0, -134776.92869626626, -163363.62521214786, 10297.582781026696, -121362.17163350245, 74367.45010226371, -72422.26718929615, 38903.0324105063, -115142.7316835799, 0.012, 0.966, -0.016, 192.0, 0.0, 0.0, 0.0, 0.0, 0.0, 0.0, 0.0, 0.0, 0.0, 1.6664057164999247E9, 0.0, 2022-10-21 19:28:36.499
48.0, -134788.8645278054, -163373.32586924147, 10289.267932089322, -121377.70609589889, 74353.5473172125, -72419.00383460568, 38886.55917484274, -115161.23892798889, 0.012, 0.966, -0.016, 192.0, 0.0, 0.0, 0.0, 0.0, 0.0, 0.0, 0.0, 0.0, 0.0, 1.6664057164999387E9, 0.0, 2022-10-21 19:28:36.499
49.0, -134760.94719898072, -163344.3580084274, 10311.61967654463, -121357.52247065575, 74374.2003290892, -72440.81913719406, 38890.53778535578, -115143.46929114692, 0.012, 0.966, -0.016, 192.0, 0.0, 0.0, 0.0, 0.0, 0.0, 0.0, 0.0, 0.0, 0.0, 1.6664057164999504E9, 0.0, 2022-10-21 19:28:36.499
50.0, -134756.1192221784, -163336.9595810127, 10313.720740523428, -121353.81208107616, 74377.44133203523, -72461.6509630264, 38887.989686487876, -115146.39736967057, 0.012, 0.966, -0.016, 192.0, 0.0, 0.0, 0.0, 0.0, 0.0, 0.0, 0.0, 0.0, 0.0, 1.6664057164999623E9, 0.0, 2022-10-21 19:28:36.499
51.0, -134770.15611769632, -163351.33175269744, 10299.907362450047, -121367.98308706083, 74359.13525332633, -72465.38370435045, 38881.03829396228, -115152.27587846231, 0.012, 0.966, -0.016, 192.0, 0.0, 0.0, 0.0, 0.0, 0.0, 0.0, 0.0, 0.0, 0.0, 1.6664057164999745E9, 0.0, 2022-10-21 19:28:36.499
52.0, -134764.03173971554, -163348.09074975143, 10307.79752824277, -121362.66337188047, 74366.35486678539, -72443.76956746216, 38891.83418653419, -115138.1272242221, 0.012, 0.966, -0.016, 192.0, 0.0, 0.0, 0.0, 0.0, 0.0, 0.0, 0.0, 0.0, 0.0, 1.6664057164999864E9, 0.0, 2022-10-21 19:28:36.499
53.0, -134768.14446069533, -163346.03438926153, 10302.053129917756, -121367.58075566063, 74362.93504988373, -72447.23408785273, 38881.03829396228, -115140.67532309, 0.012, 0.966, -0.016, 192.0, 0.0, 0.0, 0.0, 0.0, 0.0, 0.0, 0.0, 0.0, 0.0, 1.6664057164999983E9, 0.0, 2022-10-21 19:28:36.499
54.0, -134766.13280369435, -163346.4590724062, 10303.215420629433, -121362.95394455838, 74363.15856732828, -72470.23403289725, 38871.69526477996, -115135.31090442072, 0.012, 0.966, -0.016, 192.0, 0.0, 0.0, 0.0, 0.0, 0.0, 0.0, 0.0, 0.0, 0.0, 1.6664057165000112E9, 0.0, 2022-10-21 19:28:36.500
55.0, -134764.83640251594, -163342.9051450378, 10303.215420629433, -121360.36114220157, 74364.65613420679, -72464.04259968312, 38879.33956138368, -115136.6743608325, 0.012, 0.966, -0.016, 192.0, 0.0, 0.0, 0.0, 0.0, 0.0, 0.0, 0.0, 0.0, 0.0, 1.6664057165000234E9, 0.0, 2022-10-21 19:28:36.500
56.0, -134767.47390836166, -163347.08492125093, 10303.595400285174, -121362.9986480473, 74361.45983474968, -72451.77149197715, 38881.842956762666, -115138.79777655576, 0.016, 0.964, -0.016, 192.0, 0.0, 128.0, 30.0, 32.0, 255.0, 128.0, 0.0, 0.0, 0.0, 1.6664057165000339E9, 0.0, 2022-10-21 19:28:36.500
57.0, -134775.98992299914, -163356.74087485563, 10293.291246091276, -121367.75956961628, 74353.83788989042, -72477.96773647878, 38863.89450596506, -115132.44988113045, 0.016, 0.964, -0.016, 192.0, 0.0, 0.0, 0.0, 0.0, 0.0, 0.0, 0.0, 0.0, 0.0, 1.6664057165000448E9, 0.0, 2022-10-21 19:28:36.500
58.0, -134758.24263790163, -163338.77007231358, 10301.024949672812, -121350.21345021886, 74368.85826216439, -72492.38461165245, 38868.67777927849, -115109.49463957486, 0.016, 0.964, -0.016, 192.0, 0.0, 0.0, 0.0, 0.0, 0.0, 0.0, 0.0, 0.0, 0.0, 1.6664057165000553E9, 0.0, 2022-10-21 19:28:36.500
59.0, -134754.9569314667, -163334.2103164447, 10300.980246183903, -121355.93549679941, 74372.2557273216, -72476.80544576711, 38881.57473582921, -115122.19043042547, 0.016, 0.964, -0.016, 192.0, 0.0, 0.0, 0.0, 0.0, 0.0, 0.0, 0.0, 0.0, 0.0, 1.6664057165000756E9, 0.0, 2022-10-21 19:28:36.500
60.0, -134766.04339671653, -163342.79338631552, 10300.332045594698, -121354.147357243, 74374.37914304485, -72461.11452115948, 38890.94011675598, -115128.98536073988, 0.016, 0.964, -0.016, 192.0, 0.0, 0.0, 0.0, 0.0, 0.0, 0.0, 0.0, 0.0, 0.0, 1.666405716500086E9, 0.0, 2022-10-21 19:28:36.500
61.0, -134770.15611769632, -163350.48238640814, 10299.885010705591, -121354.1920607319, 74378.24599483563, -72446.56353551908, 38893.3317534127, -115126.7725380388, 0.016, 0.964, -0.016, 192.0, 0.0, 0.0, 0.0, 0.0, 0.0, 0.0, 0.0, 0.0, 0.0, 1.666405716500096E9, 0.0, 2022-10-21 19:28:36.500
62.0, -134763.62940831535, -163345.3638369279, 10297.60513277115, -121359.73529335682, 74373.70859071119, -72465.98720145073, 38879.58543057268, -115134.81916604271, 0.016, 0.964, -0.016, 192.0, 0.0, 0.0, 0.0, 0.0, 0.0, 0.0, 0.0, 0.0, 0.0, 1.6664057165001063E9, 0.0, 2022-10-21 19:28:36.500
63.0, -134763.85292575991, -163340.93819152573, 10301.181411884, -121355.80138633269, 74376.72607621265, -72471.97746896476, 38892.21416618993, -115125.09615720465, 0.016, 0.964, -0.016, 192.0, 0.0, 0.0, 0.0, 0.0, 0.0, 0.0, 0.0, 0.0, 0.0, 1.6664057165001168E9, 0.0, 2022-10-21 19:28:36.500
64.0, -134778.98505675615, -163352.5610986425, 10292.620693757617, -121361.03169453522, 74371.27225056557, -72448.37402681995, 38898.56206161524, -115130.34881715165, 0.016, 0.964, -0.016, 192.0, 0.0, 0.0, 0.0, 0.0, 0.0, 0.0, 0.0, 0.0, 0.0, 1.6664057165001273E9, 0.0, 2022-10-21 19:28:36.500
65.0, -134775.65464683232, -163351.64467711982, 10295.079385647701, -121357.27660146673, 74375.18380584524, -72453.22435536675, 38895.29870692476, -115128.85125027315, 0.016, 0.964, -0.016, 192.0, 0.0, 0.0, 0.0, 0.0, 0.0, 0.0, 0.0, 0.0, 0.0, 1.6664057165001376E9, 0.0, 2022-10-21 19:28:36.500
66.0, -134768.07740546195, -163347.1072729954, 10294.14061238058, -121359.4447206789, 74376.99429714613, -72460.42161708136, 38891.16363420053, -115134.39448289806, 0.012, 0.962, -0.02, 192.0, 0.0, 96.0, 30.0, 16.0, 255.0, 96.0, 0.0, 0.0, 0.0, 1.6664057165001476E9, 0.0, 2022-10-21 19:28:36.500
67.0, -134772.4583473752, -163347.37549392885, 10294.341778080676, -121358.46124392287, 74374.33443955594, -72463.32734386055, 38891.65537257855, -115134.03685498677, 0.012, 0.962, -0.02, 192.0, 0.0, 0.0, 0.0, 0.0, 0.0, 0.0, 0.0, 0.0, 0.0, 1.6664057165001588E9, 0.0, 2022-10-21 19:28:36.500
68.0, -134772.19012644174, -163349.54361314102, 10299.147403138568, -121357.38836018901, 74370.84756742092, -72461.2039281373, 38895.41046564704, -115127.59955258365, 0.012, 0.962, -0.02, 192.0, 0.0, 0.0, 0.0, 0.0, 0.0, 0.0, 0.0, 0.0, 0.0, 1.6664057165001705E9, 0.0, 2022-10-21 19:28:36.500
69.0, -134778.22509744467, -163355.22095623266, 10288.262103588833, -121365.05500853718, 74364.94670688472, -72452.44204431082, 38892.41533189003, -115126.7725380388, 0.012, 0.962, -0.02, 192.0, 0.0, 0.0, 0.0, 0.0, 0.0, 0.0, 0.0, 0.0, 0.0, 1.6664057165001805E9, 0.0, 2022-10-21 19:28:36.500
70.0, -134777.64395208884, -163349.4095026743, 10288.597379755662, -121364.09388352561, 74367.69597145272, -72461.69566651531, 38886.89445100957, -115127.15251769454, 0.012, 0.962, -0.02, 192.0, 0.0, 0.0, 0.0, 0.0, 0.0, 0.0, 0.0, 0.0, 0.0, 1.6664057165001907E9, 0.0, 2022-10-21 19:28:36.500
71.0, -134785.42235915927, -163355.3550666994, 10284.84228668717, -121362.7974823472, 74368.12065459737, -72476.35841087799, 38880.63596256208, -115135.15444220955, 0.012, 0.962, -0.02, 192.0, 0.0, 0.0, 0.0, 0.0, 0.0, 0.0, 0.0, 0.0, 0.0, 1.6664057165002012E9, 0.0, 2022-10-21 19:28:36.500
72.0, -134775.52053636557, -163350.4153311748, 10277.55561799474, -121365.85967133757, 74361.14691032731, -72468.28943112963, 38881.619439318114, -115132.20401194145, 0.012, 0.962, -0.02, 192.0, 0.0, 0.0, 0.0, 0.0, 0.0, 0.0, 0.0, 0.0, 0.0, 1.6664057165002117E9, 0.0, 2022-10-21 19:28:36.500
73.0, -134777.77806255556, -163352.04700852002, 10269.039603357269, -121376.9461365874, 74351.69212242271, -72463.7073235163, 38878.80311951675, -115135.8249945432, 0.012, 0.962, -0.02, 192.0, 0.0, 0.0, 0.0, 0.0, 0.0, 0.0, 0.0, 0.0, 0.0, 1.666405716500222E9, 0.0, 2022-10-21 19:28:36.500
74.0, -134780.8626032904, -163357.70199986722, 10264.211626554923, -121380.7012296559, 74347.86997412085, -72481.87929175847, 38868.99070370087, -115142.48581439088, 0.012, 0.962, -0.02, 192.0, 0.0, 0.0, 0.0, 0.0, 0.0, 0.0, 0.0, 0.0, 0.0, 1.666405716500244E9, 0.0, 2022-10-21 19:28:36.500
75.0, -134784.21536495868, -163354.30453471, 10272.325309792199, -121365.03265679273, 74357.45887249218, -72487.98131799475, 38874.95861947043, -115128.6724363175, 0.008, 0.966, -0.014, 192.0, 0.0, 64.0, 30.0, 48.0, 255.0, 144.0, 0.0, 0.0, 0.0, 1.6664057165002549E9, 0.0, 2022-10-21 19:28:36.500
76.0, -134784.32712368097, -163356.18208124425, 10267.676146945494, -121362.17163350245, 74351.42390148925, -72482.86276851449, 38876.70205553795, -115125.85611651614, 0.008, 0.966, -0.014, 192.0, 0.0, 0.0, 0.0, 0.0, 0.0, 0.0, 0.0, 0.0, 0.0, 1.666405716500266E9, 0.0, 2022-10-21 19:28:36.500
77.0, -134779.52149862307, -163358.81958708997, 10263.675184687994, -121370.35237197309, 74344.98659908613, -72490.75293430721, 38872.321113624705, -115137.16609921052, 0.008, 0.966, -0.014, 192.0, 0.0, 0.0, 0.0, 0.0, 0.0, 0.0, 0.0, 0.0, 0.0, 1.6664057165002766E9, 0.0, 2022-10-21 19:28:36.500
78.0, -134797.13467325387, -163373.75055238613, 10253.818065383204, -121374.66625865297, 74345.27717176404, -72518.64791138744, 38863.40276758704, -115144.74334058087, 0.008, 0.966, -0.014, 192.0, 0.0, 0.0, 0.0, 0.0, 0.0, 0.0, 0.0, 0.0, 0.0, 1.6664057165002873E9, 0.0, 2022-10-21 19:28:36.500
79.0, -134806.18712975827, -163380.72429665618, 10238.30595473122, -121383.91988085746, 74339.51042169458, -72528.9744173258, 38853.657407004524, -115158.40025644306, 0.008, 0.966, -0.014, 192.0, 0.0, 0.0, 0.0, 0.0, 0.0, 0.0, 0.0, 0.0, 0.0, 1.6664057165002975E9, 0.0, 2022-10-21 19:28:36.500
80.0, -134785.40000741484, -163364.07224703697, 10250.867635115104, -121371.13468302903, 74347.89232586531, -72515.51866716369, 38868.633075789585, -115146.26325920383, 0.008, 0.966, -0.014, 192.0, 0.0, 0.0, 0.0, 0.0, 0.0, 0.0, 0.0, 0.0, 0.0, 1.666405716500308E9, 0.0, 2022-10-21 19:28:36.500
81.0, -134780.19205095674, -163356.00326728862, 10262.155266065034, -121363.13275851402, 74361.75040742761, -72489.36712615099, 38888.95081149945, -115129.54415435126, 0.008, 0.966, -0.014, 192.0, 0.0, 0.0, 0.0, 0.0, 0.0, 0.0, 0.0, 0.0, 0.0, 1.6664057165003183E9, 0.0, 2022-10-21 19:28:36.500
82.0, -134786.5622981265, -163360.74183711314, 10260.635347442074, -121366.37376146004, 74363.71736093967, -72482.84041677004, 38882.26763990732, -115136.45084338795, 0.008, 0.966, -0.014, 192.0, 0.0, 0.0, 0.0, 0.0, 0.0, 0.0, 0.0, 0.0, 0.0, 1.6664057165003288E9, 0.0, 2022-10-21 19:28:36.500
83.0, -134779.94618176774, -163354.34923819892, 10260.925920119991, -121361.7469503578, 74365.93018364074, -72502.93463503536, 38872.76814851382, -115135.53442186529, 0.008, 0.966, -0.014, 192.0, 0.0, 0.0, 0.0, 0.0, 0.0, 0.0, 0.0, 0.0, 0.0, 1.6664057165003393E9, 0.0, 2022-10-21 19:28:36.500
84.0, -134778.98505675615, -163355.3103632105, 10259.629518941585, -121358.61770613406, 74366.66779120777, -72494.44097214234, 38878.80311951675, -115131.15347995205, 0.008, 0.966, -0.014, 192.0, 0.0, 0.0, 0.0, 0.0, 0.0, 0.0, 0.0, 0.0, 0.0, 1.6664057165003498E9, 0.0, 2022-10-21 19:28:36.500
85.0, -134783.67892309176, -163358.99840104562, 10253.013402582814, -121372.9451743299, 74352.22856428965, -72493.79277155314, 38874.846860748155, -115136.74141606587, 0.01, 0.964, -0.012, 192.0, 0.0, 80.0, 30.0, 32.0, 255.0, 160.0, 0.0, 0.0, 0.0, 1.6664057165003605E9, 0.0, 2022-10-21 19:28:36.500
86.0, -134797.3134872095, -163376.18689253175, 10239.602355909628, -121387.67497392595, 74339.53277343903, -72497.12318147697, 38868.83424148968, -115139.96006726743, 0.01, 0.964, -0.012, 192.0, 0.0, 0.0, 0.0, 0.0, 0.0, 0.0, 0.0, 0.0, 0.0, 1.6664057165003717E9, 0.0, 2022-10-21 19:28:36.500
87.0, -134782.53898412455, -163360.09363652393, 10246.330230990676, -121378.398999977, 74348.33936075441, -72513.28349271817, 38868.141337411565, -115134.88622127607, 0.01, 0.964, -0.012, 192.0, 0.0, 0.0, 0.0, 0.0, 0.0, 0.0, 0.0, 0.0, 0.0, 1.666405716500382E9, 0.0, 2022-10-21 19:28:36.500
88.0, -134776.28049567706, -163344.58152587194, 10255.98618459537, -121366.70903762688, 74356.16247131377, -72522.60417015603, 38876.41148286003, -115127.46544211691, 0.01, 0.964, -0.012, 192.0, 0.0, 0.0, 0.0, 0.0, 0.0, 0.0, 0.0, 0.0, 0.0, 1.666405716500392E9, 0.0, 2022-10-21 19:28:36.500
89.0, -134789.53508013906, -163352.04700852002, 10255.516797961807, -121364.60797364808, 74358.46470099267, -72501.25825420121, 38884.65927656404, -115129.3206369067, 0.01, 0.964, -0.012, 192.0, 0.0, 0.0, 0.0, 0.0, 0.0, 0.0, 0.0, 0.0, 0.0, 1.6664057165004115E9, 0.0, 2022-10-21 19:28:36.500
90.0, -134793.69250460775, -163357.4561306782, 10247.805446124727, -121377.19200577641, 74349.9039828663, -72491.26702442969, 38876.9255729825, -115135.69088407647, 0.01, 0.964, -0.012, 192.0, 0.0, 0.0, 0.0, 0.0, 0.0, 0.0, 0.0, 0.0, 0.0, 1.666405716500423E9, 0.0, 2022-10-21 19:28:36.500
91.0, -134789.57978362797, -163357.74670335613, 10246.821969368693, -121386.37857274755, 74346.30535200899, -72507.53909439316, 38870.89060197957, -115126.95135199444, 0.01, 0.964, -0.012, 192.0, 0.0, 0.0, 0.0, 0.0, 0.0, 0.0, 0.0, 0.0, 0.0, 1.6664057165004337E9, 0.0, 2022-10-21 19:28:36.500
92.0, -134785.08708299245, -163347.42019741778, 10248.855978114127, -121385.41744773596, 74343.62314267435, -72545.69352217836, 38866.532011810785, -115121.65398855854, 0.01, 0.964, -0.012, 192.0, 0.0, 0.0, 0.0, 0.0, 0.0, 0.0, 0.0, 0.0, 0.0, 1.6664057165004437E9, 0.0, 2022-10-21 19:28:36.500
93.0, -134800.73330411117, -163362.57468015846, 10240.809350110216, -121386.400924492, 74337.36465422687, -72541.40198724293, 38867.91781996701, -115143.13401498008, 0.01, 0.964, -0.012, 192.0, 0.0, 0.0, 0.0, 0.0, 0.0, 0.0, 0.0, 0.0, 0.0, 1.666405716500454E9, 0.0, 2022-10-21 19:28:36.500
94.0, -134782.89661203584, -163347.04021776203, 10259.517760219307, -121364.80913934817, 74352.07210207845, -72527.81212661411, 38881.57473582921, -115131.51110786333, 0.01, 0.964, -0.012, 192.0, 0.0, 0.0, 0.0, 0.0, 0.0, 0.0, 0.0, 0.0, 0.0, 1.666405716500464E9, 0.0, 2022-10-21 19:28:36.500
95.0, -134773.55358285352, -163338.8147758025, 10254.242748527855, -121382.73523840134, 74345.3442269974, -72553.20370831534, 38868.901296723045, -115129.76767179581, 0.016, 0.966, -0.01, 192.0, 0.0, 128.0, 30.0, 48.0, 255.0, 176.0, 0.0, 0.0, 0.0, 1.666405716500475E9, 0.0, 2022-10-21 19:28:36.500
96.0, -134782.22605970217, -163346.59318287292, 10248.632460669573, -121385.26098552479, 74347.55704969849, -72566.23477533279, 38869.43773858997, -115123.24096241487, 0.016, 0.966, -0.01, 192.0, 0.0, 0.0, 0.0, 0.0, 0.0, 0.0, 0.0, 0.0, 0.0, 1.666405716500486E9, 0.0, 2022-10-21 19:28:36.500
97.0, -134788.64101036085, -163352.7622643426, 10254.041582827758, -121369.70417138388, 74357.63768644782, -72541.44669073186, 38884.905145753044, -115113.80852625472, 0.016, 0.966, -0.01, 192.0, 0.0, 0.0, 0.0, 0.0, 0.0, 0.0, 0.0, 0.0, 0.0, 1.6664057165004961E9, 0.0, 2022-10-21 19:28:36.500
98.0, -134798.7216471102, -163356.58441264444, 10248.274832758289, -121367.20077600489, 74355.82719514695, -72545.35824601153, 38879.808948017235, -115125.00675022684, 0.016, 0.966, -0.01, 192.0, 0.0, 0.0, 0.0, 0.0, 0.0, 0.0, 0.0, 0.0, 0.0, 1.6664057165005066E9, 0.0, 2022-10-21 19:28:36.500
99.0, -134799.34749595495, -163361.16652025777, 10240.02703905428, -121377.28141275424, 74353.7037794237, -72555.70710369434, 38871.918782224515, -115131.95814275244, 0.016, 0.966, -0.01, 192.0, 0.0, 0.0, 0.0, 0.0, 0.0, 0.0, 0.0, 0.0, 0.0, 1.666405716500517E9, 0.0, 2022-10-21 19:28:36.500
100.0, -134794.89949880834, -163363.73697087014, 10236.987201808359, -121382.73523840134, 74351.6474189338, -72554.81303391613, 38869.258924634334, -115134.48388987589, 0.016, 0.966, -0.01, 192.0, 0.0, 0.0, 0.0, 0.0, 0.0, 0.0, 0.0, 0.0, 0.0, 1.666405716500527E9, 0.0, 2022-10-21 19:28:36.500
101.0, -134791.27851620657, -163356.58441264444, 10241.88223384407, -121377.61668892106, 74351.89328812281, -72555.19301357187, 38872.87990723609, -115129.83472702919, 0.016, 0.966, -0.01, 192.0, 0.0, 0.0, 0.0, 0.0, 0.0, 0.0, 0.0, 0.0, 0.0, 1.6664057165005372E9, 0.0, 2022-10-21 19:28:36.500
102.0, -134797.20172848724, -163364.04989529253, 10242.083399544168, -121373.3475057301, 74356.72126492516, -72549.33685652458, 38875.897392737555, -115130.01354098482, 0.016, 0.966, -0.01, 192.0, 0.0, 0.0, 0.0, 0.0, 0.0, 0.0, 0.0, 0.0, 0.0, 1.6664057165005488E9, 0.0, 2022-10-21 19:28:36.500
103.0, -134800.6662488778, -163372.02946806306, 10242.329268733176, -121371.17938651794, 74360.36459927137, -72551.68378969238, 38870.55532581274, -115120.98343622488, 0.016, 0.966, -0.01, 192.0, 0.0, 0.0, 0.0, 0.0, 0.0, 0.0, 0.0, 0.0, 0.0, 1.666405716500559E9, 0.0, 2022-10-21 19:28:36.500
104.0, -134798.3640191989, -163369.12374128387, 10245.950251334936, -121363.73625561432, 74366.80190167451, -72562.30086830865, 38872.343465369166, -115107.70650001842, 0.016, 0.9580000000000001, -0.01, 192.0, 0.0, 128.0, 29.0, 240.0, 255.0, 176.0, 0.0, 0.0, 0.0, 1.6664057165005803E9, 0.0, 2022-10-21 19:28:36.500
105.0, -134804.68956287976, -163375.7622093871, 10239.468245442897, -121367.75956961628, 74358.57645971495, -72549.80624315813, 38871.851726991146, -115132.58399159719, 0.016, 0.9580000000000001, -0.01, 192.0, 0.0, 0.0, 0.0, 0.0, 0.0, 0.0, 0.0, 0.0, 0.0, 1.6664057165005915E9, 0.0, 2022-10-21 19:28:36.500
106.0, -134808.77993211508, -163385.79814264755, 10219.575192877674, -121386.400924492, 74336.96232282667, -72555.64004846098, 38854.12679363809, -115152.43234067349, 0.016, 0.9580000000000001, -0.01, 192.0, 0.0, 0.0, 0.0, 0.0, 0.0, 0.0, 0.0, 0.0, 0.0, 1.6664057165006015E9, 0.0, 2022-10-21 19:28:36.500
107.0, -134809.562243171, -163383.33945075746, 10212.266172440788, -121396.92859613046, 74332.89430533581, -72570.57101375711, 38850.08112789168, -115144.34100918067, 0.016, 0.9580000000000001, -0.01, 192.0, 0.0, 0.0, 0.0, 0.0, 0.0, 0.0, 0.0, 0.0, 0.0, 1.6664057165006125E9, 0.0, 2022-10-21 19:28:36.500
108.0, -134812.6691356503, -163379.09261931095, 10218.949344032926, -121388.72550591535, 74340.65036066179, -72572.04622889117, 38853.88092444908, -115131.13112820759, 0.016, 0.9580000000000001, -0.01, 192.0, 0.0, 0.0, 0.0, 0.0, 0.0, 0.0, 0.0, 0.0, 0.0, 1.6664057165006232E9, 0.0, 2022-10-21 19:28:36.500
109.0, -134815.0160688181, -163390.58141596097, 10226.280716214265, -121374.71096214188, 74347.8476223764, -72579.64582200597, 38856.29491285025, -115125.25261941584, 0.016, 0.9580000000000001, -0.01, 192.0, 0.0, 0.0, 0.0, 0.0, 0.0, 0.0, 0.0, 0.0, 0.0, 1.6664057165006337E9, 0.0, 2022-10-21 19:28:36.500
110.0, -134811.73036238318, -163385.19464554725, 10233.142701762044, -121364.29504922571, 74352.20621254519, -72560.31156305214, 38866.800232744245, -115125.2749711603, 0.016, 0.9580000000000001, -0.01, 192.0, 0.0, 0.0, 0.0, 0.0, 0.0, 0.0, 0.0, 0.0, 0.0, 1.6664057165006444E9, 0.0, 2022-10-21 19:28:36.500
111.0, -134819.30760375352, -163383.8535408799, 10223.978486535369, -121376.16382553148, 74342.70672115168, -72555.03655136068, 38858.574790784696, -115134.59564859816, 0.016, 0.9580000000000001, -0.01, 192.0, 0.0, 0.0, 0.0, 0.0, 0.0, 0.0, 0.0, 0.0, 0.0, 1.6664057165006554E9, 0.0, 2022-10-21 19:28:36.500
112.0, -134823.24151077768, -163385.93225311427, 10215.775396320272, -121387.54086345922, 74333.38604371382, -72574.46021729233, 38843.93439816647, -115139.89301203407, 0.016, 0.9580000000000001, -0.01, 192.0, 0.0, 0.0, 0.0, 0.0, 0.0, 0.0, 0.0, 0.0, 0.0, 1.6664057165006657E9, 0.0, 2022-10-21 19:28:36.500
113.0, -134821.5204264546, -163385.39581124735, 10222.972658034882, -121377.81785462116, 74340.58330542843, -72573.40968530293, 38854.998511671845, -115128.11364270613, 0.016, 0.9580000000000001, -0.01, 192.0, 0.0, 0.0, 0.0, 0.0, 0.0, 0.0, 0.0, 0.0, 0.0, 1.666405716500676E9, 0.0, 2022-10-21 19:28:36.500
114.0, -134807.55058617005, -163378.19854953274, 10228.605297637618, -121370.37472371754, 74343.73490139663, -72542.51957446571, 38870.35416011264, -115121.34106413617, 0.012, 0.962, -0.01, 192.0, 0.0, 96.0, 30.0, 16.0, 255.0, 176.0, 0.0, 0.0, 0.0, 1.6664057165006864E9, 0.0, 2022-10-21 19:28:36.500
115.0, -134807.48353093668, -163379.6067094334, 10224.112597002102, -121377.37081973205, 74339.17514552774, -72545.64881868944, 38862.486346064376, -115135.86969803211, 0.012, 0.962, -0.01, 192.0, 0.0, 0.0, 0.0, 0.0, 0.0, 0.0, 0.0, 0.0, 0.0, 1.6664057165006971E9, 0.0, 2022-10-21 19:28:36.500
116.0, -134826.43781023478, -163392.39190726186, 10211.64032359604, -121391.29595652771, 74328.96039831167, -72575.93543242638, 38842.8168109437, -115148.45373016046, 0.012, 0.962, -0.01, 192.0, 0.0, 0.0, 0.0, 0.0, 0.0, 0.0, 0.0, 0.0, 0.0, 1.6664057165007076E9, 0.0, 2022-10-21 19:28:36.500
117.0, -134830.66228993682, -163397.5104567421, 10210.746253817828, -121398.64968045351, 74325.33941570991, -72585.81490347564, 38848.18122961298, -115137.32256142171, 0.012, 0.962, -0.01, 192.0, 0.0, 0.0, 0.0, 0.0, 0.0, 0.0, 0.0, 0.0, 0.0, 1.666405716500718E9, 0.0, 2022-10-21 19:28:36.500
118.0, -134812.5126734391, -163382.73595365716, 10227.73357960386, -121382.95875584589, 74339.68923565022, -72555.30477229414, 38871.96348571342, -115113.85322974363, 0.012, 0.962, -0.01, 192.0, 0.0, 0.0, 0.0, 0.0, 0.0, 0.0, 0.0, 0.0, 0.0, 1.6664057165007288E9, 0.0, 2022-10-21 19:28:36.500
119.0, -134804.53310066857, -163375.1140087979, 10231.935707561459, -121378.73427614383, 74348.2946572655, -72553.20370831534, 38872.544631069264, -115112.17684890948, 0.012, 0.962, -0.01, 192.0, 0.0, 0.0, 0.0, 0.0, 0.0, 0.0, 0.0, 0.0, 0.0, 1.6664057165008051E9, 0.0, 2022-10-21 19:28:36.500
120.0, -134812.78089437258, -163380.38902048935, 10223.576155135173, -121386.8032558922, 74343.77960488554, -72575.30958358163, 38857.63601751757, -115122.168078681, 0.012, 0.962, -0.01, 192.0, 0.0, 0.0, 0.0, 0.0, 0.0, 0.0, 0.0, 0.0, 0.0, 1.6664057165008159E9, 0.0, 2022-10-21 19:28:36.500
121.0, -134815.060772307, -163382.40067749034, 10220.066931255691, -121384.7021919134, 74340.18097402823, -72612.99462473328, 38851.19871511444, -115122.65981705903, 0.012, 0.962, -0.01, 192.0, 0.0, 0.0, 0.0, 0.0, 0.0, 0.0, 0.0, 0.0, 0.0, 1.666405716978324E9, 0.0, 2022-10-21 19:28:36.978
122.0, -134813.5632054285, -163381.9089391123, 10223.442044668442, -121377.88490985453, 74343.71254965218, -72594.59913904656, 38867.582543800185, -115112.19920065394, 0.012, 0.962, -0.01, 192.0, 0.0, 0.0, 0.0, 0.0, 0.0, 0.0, 0.0, 0.0, 0.0, 1.6664057169783971E9, 0.0, 2022-10-21 19:28:36.978
123.0, -134816.13365604088, -163386.04401183655, 10221.430387667464, -121379.71775289986, 74345.79126188651, -72563.50786250924, 38877.998456716356, -115104.71136626141, 0.012, 0.962, -0.01, 192.0, 0.0, 0.0, 0.0, 0.0, 0.0, 0.0, 0.0, 0.0, 0.0, 1.6664057169784255E9, 0.0, 2022-10-21 19:28:36.978
124.0, -134815.03842056257, -163390.22378804968, 10217.675294598972, -121381.17061628946, 74346.73003515364, -72568.7828742007, 38870.33180836819, -115106.90183721803, 0.012, 0.964, -0.01, 192.0, 0.0, 96.0, 30.0, 32.0, 255.0, 176.0, 0.0, 0.0, 0.0, 1.666405716978439E9, 0.0, 2022-10-21 19:28:36.978
125.0, -134817.60887117492, -163392.43661075077, 10212.534393374252, -121384.83630238014, 74343.73490139663, -72586.3289935981, 38859.44650881845, -115119.55292457974, 0.012, 0.964, -0.01, 192.0, 0.0, 0.0, 0.0, 0.0, 0.0, 0.0, 0.0, 0.0, 0.0, 1.6664057169784517E9, 0.0, 2022-10-21 19:28:36.978
126.0, -134824.49320846717, -163403.7689451896, 10201.73850080234, -121395.90041588551, 74330.70383437918, -72580.00344991726, 38854.39501457155, -115140.18358471198, 0.012, 0.964, -0.01, 192.0, 0.0, 0.0, 0.0, 0.0, 0.0, 0.0, 0.0, 0.0, 0.0, 1.6664057169784644E9, 0.0, 2022-10-21 19:28:36.978
127.0, -134820.49224620967, -163399.2091893207, 10209.293390428233, -121388.0549535817, 74337.67757864924, -72567.03943813317, 38862.93338095348, -115131.13112820759, 0.012, 0.964, -0.01, 192.0, 0.0, 0.0, 0.0, 0.0, 0.0, 0.0, 0.0, 0.0, 0.0, 1.6664057169784756E9, 0.0, 2022-10-21 19:28:36.978
128.0, -134814.1667025288, -163396.7728491751, 10215.127195731067, -121383.13756980153, 74347.91467760976, -72569.74399921227, 38865.414424588016, -115124.38090138209, 0.012, 0.964, -0.01, 192.0, 0.0, 0.0, 0.0, 0.0, 0.0, 0.0, 0.0, 0.0, 0.0, 1.6664057169784865E9, 0.0, 2022-10-21 19:28:36.978
129.0, -134830.32701377, -163407.25581732462, 10206.141794460034, -121384.67984016894, 74343.15375604079, -72597.72838327031, 38858.06070066222, -115121.78809902527, 0.012, 0.964, -0.01, 192.0, 0.0, 0.0, 0.0, 0.0, 0.0, 0.0, 0.0, 0.0, 0.0, 1.6664057169784975E9, 0.0, 2022-10-21 19:28:36.978
130.0, -134829.45529573623, -163407.50168651363, 10201.582038591152, -121383.31638375716, 74339.26455250557, -72600.12001992704, 38859.31239835172, -115119.03883445727, 0.012, 0.964, -0.01, 192.0, 0.0, 0.0, 0.0, 0.0, 0.0, 0.0, 0.0, 0.0, 0.0, 1.6664057169785087E9, 0.0, 2022-10-21 19:28:36.978
131.0, -134815.93249034078, -163394.53767472957, 10215.350713175621, -121378.86838661056, 74347.06531132046, -72586.88778720949, 38871.27058163531, -115106.03011918427, 0.012, 0.964, -0.01, 192.0, 0.0, 0.0, 0.0, 0.0, 0.0, 0.0, 0.0, 0.0, 0.0, 1.66640571697852E9, 0.0, 2022-10-21 19:28:36.978
132.0, -134823.50973171112, -163400.03620386557, 10211.68502708495, -121387.02677333675, 74344.87484036385, -72598.46599083734, 38862.955732697934, -115110.34400586416, 0.012, 0.964, -0.01, 192.0, 0.0, 0.0, 0.0, 0.0, 0.0, 0.0, 0.0, 0.0, 0.0, 1.6664057169785357E9, 0.0, 2022-10-21 19:28:36.978
133.0, -134815.1278275404, -163395.7670206746, 10215.328361431166, -121380.2988982557, 74350.3510177554, -72609.32893864262, 38862.821622231204, -115106.20893313992, 0.012, 0.964, -0.01, 192.0, 0.0, 0.0, 0.0, 0.0, 0.0, 0.0, 0.0, 0.0, 0.0, 1.6664057169785469E9, 0.0, 2022-10-21 19:28:36.978
134.0, -134810.65747864931, -163399.90209339882, 10212.623800352074, -121374.75566563079, 74344.98659908613, -72609.77597353172, 38862.888677464565, -115110.1204884196, 0.012, 0.964, -0.01, 192.0, 0.0, 0.0, 30.0, 16.0, 255.0, 176.0, 0.0, 0.0, 0.0, 1.666405716978684E9, 0.0, 2022-10-21 19:28:36.978
135.0, -134817.13948454137, -163406.29469231304, 10198.721015300873, -121389.44076173792, 74325.6970436212, -72599.85179899356, 38854.79734597175, -115126.88429676108, 0.012, 0.964, -0.01, 192.0, 0.0, 0.0, 0.0, 0.0, 0.0, 0.0, 0.0, 0.0, 0.0, 1.6664057169786963E9, 0.0, 2022-10-21 19:28:36.978
136.0, -134821.6768886658, -163398.78450617607, 10204.890096770538, -121377.81785462116, 74338.72811063864, -72594.57678730211, 38858.485383806874, -115113.13797392107, 0.012, 0.964, -0.01, 192.0, 0.0, 0.0, 0.0, 0.0, 0.0, 0.0, 0.0, 0.0, 0.0, 1.666405716978708E9, 0.0, 2022-10-21 19:28:36.978
137.0, -134818.39118223087, -163393.08481133997, 10209.136928217045, -121381.17061628946, 74344.38310198583, -72606.2891013967, 38855.44554656095, -115091.90381668853, 0.012, 0.964, -0.01, 192.0, 0.0, 0.0, 0.0, 0.0, 0.0, 0.0, 0.0, 0.0, 0.0, 1.6664057169787192E9, 0.0, 2022-10-21 19:28:36.978
138.0, -134829.36588875842, -163404.68536671228, 10198.609256578597, -121393.84405539562, 74336.60469491538, -72610.13360144301, 38852.606875015124, -115095.63655801256, 0.012, 0.964, -0.01, 192.0, 0.0, 0.0, 0.0, 0.0, 0.0, 0.0, 0.0, 0.0, 0.0, 1.6664057169787304E9, 0.0, 2022-10-21 19:28:36.978
139.0, -134838.55245572954, -163412.9778639052, 10193.088375698135, -121398.26970079777, 74328.60277040038, -72603.87511299552, 38855.065566905214, -115108.15353490753, 0.012, 0.964, -0.01, 192.0, 0.0, 0.0, 0.0, 0.0, 0.0, 0.0, 0.0, 0.0, 0.0, 1.6664057169787412E9, 0.0, 2022-10-21 19:28:36.978
140.0, -134832.29396728205, -163400.34912828793, 10204.443061881431, -121384.92570935795, 74341.0973955509, -72600.1870751604, 38864.90033446554, -115103.86199997211, 0.012, 0.964, -0.01, 192.0, 0.0, 0.0, 0.0, 0.0, 0.0, 0.0, 0.0, 0.0, 0.0, 1.666405716978752E9, 0.0, 2022-10-21 19:28:36.978
141.0, -134833.6797754383, -163393.35303227342, 10200.01741647928, -121397.44268625292, 74329.38508145632, -72634.25113371029, 38848.851781946636, -115116.93777047847, 0.012, 0.964, -0.01, 192.0, 0.0, 0.0, 0.0, 0.0, 0.0, 0.0, 0.0, 0.0, 0.0, 1.666405716978763E9, 0.0, 2022-10-21 19:28:36.978
142.0, -134818.7711618866, -163383.3618025019, 10201.090300213134, -121403.03062236674, 74323.57362789795, -72652.13252927453, 38841.25218883183, -115115.93194197798, 0.012, 0.964, -0.01, 192.0, 0.0, 0.0, 0.0, 0.0, 0.0, 0.0, 0.0, 0.0, 0.0, 1.666405716978774E9, 0.0, 2022-10-21 19:28:36.978
143.0, -134805.9636123137, -163371.94006108525, 10211.796785807228, -121389.01607859327, 74338.07991004943, -72638.60972387907, 38859.91589545201, -115098.29641560274, -0.004, 0.966, -0.004, 192.0, 255.0, 224.0, 30.0, 48.0, 255.0, 224.0, 0.0, 0.0, 0.0, 1.6664057169787858E9, 0.0, 2022-10-21 19:28:36.978
144.0, -134803.43786519027, -163369.45901745072, 10207.326436916166, -121394.82753215166, 74344.60661943039, -72603.80805776216, 38873.25988689183, -115095.48009580137, -0.004, 0.966, -0.004, 192.0, 0.0, 0.0, 0.0, 0.0, 0.0, 0.0, 0.0, 0.0, 0.0, 1.666405716978798E9, 0.0, 2022-10-21 19:28:36.978
145.0, -134792.73137959617, -163358.55136615652, 10200.73267230185, -121405.37755553456, 74340.06921530595, -72598.24247339279, 38864.05096817624, -115101.73858424886, -0.004, 0.966, -0.004, 192.0, 0.0, 0.0, 0.0, 0.0, 0.0, 0.0, 0.0, 0.0, 0.0, 1.666405716978809E9, 0.0, 2022-10-21 19:28:36.978
146.0, -134778.87329803387, -163331.9527902547, 10209.047521239225, -121399.61080546508, 74342.70672115168, -72613.19579043338, 38861.16759314151, -115101.55977029321, -0.004, 0.966, -0.004, 192.0, 0.0, 0.0, 0.0, 0.0, 0.0, 0.0, 0.0, 0.0, 0.0, 1.66640571697882E9, 0.0, 2022-10-21 19:28:36.978
147.0, -134760.0531292025, -163313.82552550145, 10216.44594865393, -121391.47477048336, 74345.61244793088, -72618.51550561374, 38863.64863677605, -115099.27989235877, -0.004, 0.966, -0.004, 192.0, 0.0, 0.0, 0.0, 0.0, 0.0, 0.0, 0.0, 0.0, 0.0, 1.6664057169788308E9, 0.0, 2022-10-21 19:28:36.978
148.0, -134749.43605058623, -163309.98102545514, 10213.249649196821, -121395.47573274086, 74342.88553510733, -72612.01114797726, 38862.15106989755, -115101.53741854876, -0.004, 0.966, -0.004, 192.0, 0.0, 0.0, 0.0, 0.0, 0.0, 0.0, 0.0, 0.0, 0.0, 1.666405716978844E9, 0.0, 2022-10-21 19:28:36.978
149.0, -134728.38070730935, -163291.9431676797, 10218.435253910453, -121396.97329961936, 74345.88066886434, -72638.11798550106, 38855.64671226105, -115095.59185452365, -0.004, 0.966, -0.004, 192.0, 0.0, 0.0, 0.0, 0.0, 0.0, 0.0, 0.0, 0.0, 0.0, 1.666405716978978E9, 0.0, 2022-10-21 19:28:36.978
150.0, -134688.61695392334, -163256.31448701795, 10230.415788938499, -121393.06174433968, 74353.3014480235, -72654.12183453105, 38858.68654950697, -115092.52966553328, -0.004, 0.966, -0.004, 192.0, 0.0, 0.0, 0.0, 0.0, 0.0, 0.0, 0.0, 0.0, 0.0, 1.6664057169789891E9, 0.0, 2022-10-21 19:28:36.978
151.0, -134675.27296248352, -163232.71104487314, 10238.752989620327, -121388.81491289317, 74356.36363701387, -72634.31818894365, 38872.611686302625, -115096.48592430186, -0.004, 0.966, -0.004, 192.0, 0.0, 0.0, 0.0, 0.0, 0.0, 0.0, 0.0, 0.0, 0.0, 1.666405716979E9, 0.0, 2022-10-21 19:28:36.979
152.0, -134674.31183747196, -163223.14449824626, 10241.993992566348, -121385.39509599151, 74360.40930276028, -72606.26674965225, 38881.39592187356, -115094.1166393896, -0.004, 0.966, -0.004, 192.0, 0.0, 0.0, 0.0, 0.0, 0.0, 0.0, 0.0, 0.0, 0.0, 1.6664057169790108E9, 0.0, 2022-10-21 19:28:36.979
153.0, -134673.7306921161, -163219.16588773322, 10225.83368132516, -121400.57193047667, 74344.60661943039, -72626.56213361766, 38854.32795933819, -115111.50629657583, 0.002, 0.966, -0.002, 192.0, 0.0, 16.0, 30.0, 48.0, 255.0, 240.0, 0.0, 0.0, 0.0, 1.6664057169790215E9, 0.0, 2022-10-21 19:28:36.979
154.0, -134652.13890697228, -163194.73543104358, 10231.98041105037, -121387.4514564814, 74349.546354955, -72651.7972531077, 38847.17540111249, -115102.20797088242, 0.002, 0.966, -0.002, 192.0, 0.0, 0.0, 0.0, 0.0, 0.0, 0.0, 0.0, 0.0, 0.0, 1.6664057169790359E9, 0.0, 2022-10-21 19:28:36.979
155.0, -134627.06024969343, -163173.2107011331, 10245.011478067814, -121373.43691270793, 74360.34224752692, -72625.17632546143, 38869.21422114542, -115085.53356951877, 0.002, 0.966, -0.002, 192.0, 0.0, 0.0, 0.0, 0.0, 0.0, 0.0, 0.0, 0.0, 0.0, 1.6664057169790468E9, 0.0, 2022-10-21 19:28:36.979
156.0, -134611.9728221861, -163160.89488993824, 10241.904585588525, -121378.62251742155, 74356.02836084705, -72616.77206954623, 38866.196735643956, -115087.54522651974, 0.002, 0.966, -0.002, 192.0, 0.0, 0.0, 0.0, 0.0, 0.0, 0.0, 0.0, 0.0, 0.0, 1.6664057169790578E9, 0.0, 2022-10-21 19:28:36.979
157.0, -134602.7191999816, -163152.5129857675, 10239.602355909628, -121380.23184302234, 74355.6483811913, -72612.36877588854, 38860.87702046359, -115083.43250553997, 0.002, 0.966, -0.002, 192.0, 0.0, 0.0, 0.0, 0.0, 0.0, 0.0, 0.0, 0.0, 0.0, 1.666405716979069E9, 0.0, 2022-10-21 19:28:36.979
158.0, -134585.30719105093, -163135.59271521482, 10247.179597279977, -121371.2464417513, 74361.86216614988, -72632.46299415386, 38856.83135471718, -115077.84456942613, 0.002, 0.966, -0.002, 192.0, 0.0, 0.0, 0.0, 0.0, 0.0, 0.0, 0.0, 0.0, 0.0, 1.66640571697908E9, 0.0, 2022-10-21 19:28:36.979
159.0, -134568.6104379428, -163118.8065551289, 10249.45947521442, -121375.15799703098, 74358.44234924822, -72651.64079089652, 38856.7195959949, -115077.73281070386, 0.002, 0.966, -0.002, 192.0, 0.0, 0.0, 0.0, 0.0, 0.0, 0.0, 0.0, 0.0, 0.0, 1.6664057169790907E9, 0.0, 2022-10-21 19:28:36.979
160.0, -134552.04779530142, -163105.28374973344, 10251.471132215398, -121376.52145344275, 74355.26840153556, -72646.56694490516, 38863.73804375387, -115071.63078446756, 0.002, 0.966, -0.002, 192.0, 0.0, 0.0, 0.0, 0.0, 0.0, 0.0, 0.0, 0.0, 0.0, 1.6664057169791017E9, 0.0, 2022-10-21 19:28:36.979
161.0, -134539.3967079397, -163099.22642698605, 10243.536262933763, -121385.3056890137, 74348.51817471006, -72659.75447413379, 38853.031558159775, -115088.59575850914, 0.002, 0.966, -0.002, 192.0, 0.0, 0.0, 0.0, 0.0, 0.0, 0.0, 0.0, 0.0, 0.0, 1.6664057169791129E9, 0.0, 2022-10-21 19:28:36.979
162.0, -134534.9487107931, -163094.64431937272, 10230.2146232384, -121401.39894502152, 74337.16348852677, -72673.03141034025, 38836.24539807384, -115102.61030228261, 0.002, 0.966, -0.002, 192.0, 0.0, 0.0, 0.0, 0.0, 0.0, 0.0, 0.0, 0.0, 0.0, 1.6664057169791236E9, 0.0, 2022-10-21 19:28:36.979
163.0, -134497.3977801082, -163055.46171134256, 10251.471132215398, -121381.7964651342, 74355.55897421348, -72657.58635492163, 38857.03252041728, -115078.64923222653, 0.01, 0.964, 0.0, 192.0, 0.0, 80.0, 30.0, 32.0, 0.0, 0.0, 0.0, 0.0, 0.0, 1.666405716979136E9, 0.0, 2022-10-21 19:28:36.979
164.0, -134473.05673039638, -163029.06430114084, 10263.250501543343, -121376.76732263176, 74358.64351494831, -72631.7477383313, 38876.99262821587, -115070.73671468935, 0.01, 0.964, 0.0, 192.0, 0.0, 0.0, 0.0, 0.0, 0.0, 0.0, 0.0, 0.0, 0.0, 1.6664057169791608E9, 0.0, 2022-10-21 19:28:36.979
165.0, -134466.41826229315, -163021.91174291514, 10255.852074128637, -121391.0053838498, 74351.37919800034, -72623.54464811619, 38869.191869400966, -115084.97477590738, 0.01, 0.964, 0.0, 192.0, 0.0, 0.0, 0.0, 0.0, 0.0, 0.0, 0.0, 0.0, 0.0, 1.666405716979172E9, 0.0, 2022-10-21 19:28:36.979
166.0, -134448.93919812908, -163006.71255668552, 10243.223338511389, -121406.04810786822, 74336.60469491538, -72651.37256996304, 38842.280369076776, -115094.69778474544, 0.01, 0.964, 0.0, 192.0, 0.0, 0.0, 0.0, 0.0, 0.0, 0.0, 0.0, 0.0, 0.0, 1.6664057169791832E9, 0.0, 2022-10-21 19:28:36.979
167.0, -134398.84893880476, -162958.11986423968, 10278.561446495229, -121369.14537777251, 74369.14883484232, -72668.35989574909, 38869.59420080116, -115051.49186271333, 0.01, 0.964, 0.0, 192.0, 0.0, 0.0, 0.0, 0.0, 0.0, 0.0, 0.0, 0.0, 0.0, 1.6664057169791944E9, 0.0, 2022-10-21 19:28:36.979
168.0, -134377.39126412765, -162940.2608204199, 10287.256275088344, -121356.78486308872, 74377.1060558684, -72653.02659905274, 38891.18598594499, -115040.96419107488, 0.01, 0.964, 0.0, 192.0, 0.0, 0.0, 0.0, 0.0, 0.0, 0.0, 0.0, 0.0, 0.0, 1.6664057169792054E9, 0.0, 2022-10-21 19:28:36.979
169.0, -134368.51762157888, -162929.82255575928, 10275.923940649503, -121372.14051152952, 74361.66100044978, -72647.28220072773, 38881.37357012911, -115059.29262152824, 0.01, 0.964, 0.0, 192.0, 0.0, 0.0, 0.0, 0.0, 0.0, 0.0, 0.0, 0.0, 0.0, 1.6664057169792163E9, 0.0, 2022-10-21 19:28:36.979
170.0, -134352.3573103377, -162910.0412619163, 10276.862713916626, -121373.57102317465, 74367.33834354143, -72654.63592465353, 38872.052892691245, -115062.33245877415, 0.01, 0.964, 0.0, 192.0, 0.0, 0.0, 0.0, 0.0, 0.0, 0.0, 0.0, 0.0, 0.0, 1.6664057169792278E9, 0.0, 2022-10-21 19:28:36.979
171.0, -134333.58184499526, -162894.1491716086, 10279.74608895136, -121369.70417138388, 74369.70762845369, -72659.62036366705, 38867.62724728909, -115046.35096148861, 0.01, 0.964, 0.0, 192.0, 0.0, 0.0, 0.0, 0.0, 0.0, 0.0, 0.0, 0.0, 0.0, 1.6664057169792392E9, 0.0, 2022-10-21 19:28:36.979
172.0, -134322.58478672325, -162885.36493603766, 10285.401080298554, -121362.57396490264, 74373.41801803328, -72647.46101468337, 38881.26181140683, -115033.38694970452, 0.014, 0.966, -0.006, 192.0, 0.0, 112.0, 30.0, 48.0, 255.0, 208.0, 0.0, 0.0, 0.0, 1.6664057169792502E9, 0.0, 2022-10-21 19:28:36.979
173.0, -134315.83455989775, -162882.1462848361, 10281.26600757432, -121369.10067428359, 74368.70179995321, -72632.6418081095, 38882.401750374054, -115053.57057494768, 0.014, 0.966, -0.006, 192.0, 0.0, 0.0, 0.0, 0.0, 0.0, 0.0, 0.0, 0.0, 0.0, 1.6664057169792628E9, 0.0, 2022-10-21 19:28:36.979
174.0, -134300.32244924575, -162866.41065673955, 10283.32236806421, -121365.97143005986, 74376.56961400148, -72647.17044200546, 38878.31138113873, -115052.27417376927, 0.014, 0.966, -0.006, 192.0, 0.0, 0.0, 0.0, 0.0, 0.0, 0.0, 0.0, 0.0, 0.0, 1.666405716979274E9, 0.0, 2022-10-21 19:28:36.979
175.0, -134291.0017718079, -162857.6487729131, 10277.421507528008, -121368.43012194993, 74372.85922442189, -72659.66506715598, 38870.04123569027, -115059.0020488503, 0.014, 0.966, -0.006, 192.0, 0.0, 0.0, 0.0, 0.0, 0.0, 0.0, 0.0, 0.0, 0.0, 1.6664057169792862E9, 0.0, 2022-10-21 19:28:36.979
176.0, -134283.2904199708, -162853.26783099983, 10274.851056915648, -121365.63615389302, 74363.89617489532, -72660.0450468117, 38868.81188974522, -115055.47047322638, 0.014, 0.966, -0.006, 192.0, 0.0, 0.0, 0.0, 0.0, 0.0, 0.0, 0.0, 0.0, 0.0, 1.6664057169792974E9, 0.0, 2022-10-21 19:28:36.979
177.0, -134286.1514432611, -162856.41942696803, 10272.437068514475, -121359.26590672326, 74363.27032605057, -72657.00520956579, 38871.8740787356, -115049.0555225677, 0.014, 0.966, -0.006, 192.0, 0.0, 0.0, 0.0, 0.0, 0.0, 0.0, 0.0, 0.0, 0.0, 1.6664057169793081E9, 0.0, 2022-10-21 19:28:36.979
178.0, -134285.23502173842, -162853.20077576648, 10274.292263304265, -121357.7459881003, 74369.14883484232, -72653.98772406433, 38872.052892691245, -115037.56672591767, 0.014, 0.966, -0.006, 192.0, 0.0, 0.0, 0.0, 0.0, 0.0, 0.0, 0.0, 0.0, 0.0, 1.666405716979319E9, 0.0, 2022-10-21 19:28:36.979
179.0, -134287.0008095504, -162857.02292406833, 10265.955062622435, -121373.25809875228, 74362.04098010552, -72680.02750635476, 38861.88284896408, -115041.50063294181, 0.014, 0.966, -0.006, 192.0, 0.0, 0.0, 0.0, 0.0, 0.0, 0.0, 0.0, 0.0, 0.0, 1.6664057169793408E9, 0.0, 2022-10-21 19:28:36.979
180.0, -134288.99011480692, -162862.3873427376, 10264.502199232842, -121371.84993885159, 74356.83302364743, -72674.64073594102, 38871.27058163531, -115045.47924345486, 0.014, 0.966, -0.006, 192.0, 0.0, 0.0, 0.0, 0.0, 0.0, 0.0, 0.0, 0.0, 0.0, 1.6664057169793515E9, 0.0, 2022-10-21 19:28:36.979
181.0, -134288.8560043402, -162861.8956043596, 10266.402097511542, -121364.13858701452, 74357.03418934753, -72650.25498274028, 38882.044122462765, -115050.1060545571, 0.014, 0.966, -0.006, 192.0, 0.0, 0.0, 0.0, 0.0, 0.0, 0.0, 0.0, 0.0, 0.0, 1.6664057169793625E9, 0.0, 2022-10-21 19:28:36.979
182.0, -134281.77050134784, -162854.51952868933, 10269.039603357269, -121362.84218583611, 74359.8505091489, -72655.23942175382, 38877.439663104975, -115048.83200512314, 0.01, 0.964, 0.002, 192.0, 0.0, 80.0, 30.0, 32.0, 0.0, 16.0, 0.0, 0.0, 0.0, 1.666405716979375E9, 0.0, 2022-10-21 19:28:36.979
183.0, -134286.12909151663, -162861.82854912622, 10260.590643953163, -121375.22505226434, 74349.97103809965, -72677.4570557424, 38857.9712936844, -115060.27609828426, 0.01, 0.964, 0.002, 192.0, 0.0, 0.0, 0.0, 0.0, 0.0, 0.0, 0.0, 0.0, 0.0, 1.666405716979386E9, 0.0, 2022-10-21 19:28:36.979
184.0, -134291.202937508, -162867.3047265178, 10259.026021841291, -121380.0530290667, 74346.03713107553, -72680.69805868842, 38856.58548552817, -115060.18669130644, 0.01, 0.964, 0.002, 192.0, 0.0, 0.0, 0.0, 0.0, 0.0, 0.0, 0.0, 0.0, 0.0, 1.6664057169793968E9, 0.0, 2022-10-21 19:28:36.979
185.0, -134279.53532690232, -162852.21729901043, 10269.687803946472, -121367.87132833856, 74352.8991166233, -72658.81570086667, 38872.14229966907, -115046.08274055514, 0.01, 0.964, 0.002, 192.0, 0.0, 0.0, 0.0, 0.0, 0.0, 0.0, 0.0, 0.0, 0.0, 1.666405716979408E9, 0.0, 2022-10-21 19:28:36.979
186.0, -134275.4896611559, -162852.17259552152, 10268.592568468162, -121366.84314809361, 74358.71057018168, -72668.04697132671, 38872.902258980546, -115041.59003991963, 0.01, 0.964, 0.002, 192.0, 0.0, 0.0, 0.0, 0.0, 0.0, 0.0, 0.0, 0.0, 0.0, 1.6664057169794188E9, 0.0, 2022-10-21 19:28:36.979
187.0, -134262.86092553867, -162841.51081341636, 10276.41567902752, -121359.77999684573, 74369.79703543152, -72673.657259185, 38880.03246546179, -115032.33641771512, 0.01, 0.964, 0.002, 192.0, 0.0, 0.0, 0.0, 0.0, 0.0, 0.0, 0.0, 0.0, 0.0, 1.6664057169794295E9, 0.0, 2022-10-21 19:28:36.979
188.0, -134259.0834807257, -162836.5263744028, 10276.013347627324, -121357.05308402218, 74365.1031690959, -72679.3569540211, 38876.880869493594, -115036.73971137282, 0.01, 0.964, 0.002, 192.0, 0.0, 0.0, 0.0, 0.0, 0.0, 0.0, 0.0, 0.0, 0.0, 1.66640571697944E9, 0.0, 2022-10-21 19:28:36.979
189.0, -134261.0951377267, -162841.71197911646, 10278.2261703284, -121353.02977002022, 74361.90686963878, -72669.03044808275, 38884.18988993048, -115029.52009791376, 0.01, 0.964, 0.002, 192.0, 0.0, 0.0, 0.0, 0.0, 0.0, 0.0, 0.0, 0.0, 0.0, 1.6664057169794507E9, 0.0, 2022-10-21 19:28:36.979
190.0, -134268.96295177497, -162851.36793272113, 10269.039603357269, -121363.13275851402, 74352.4967852231, -72678.90991913198, 38874.55628807024, -115038.21492650687, 0.01, 0.964, 0.002, 192.0, 0.0, 0.0, 0.0, 0.0, 0.0, 0.0, 0.0, 0.0, 0.0, 1.666405716979462E9, 0.0, 2022-10-21 19:28:36.979
191.0, -134274.5508878888, -162857.1346827906, 10256.992013095858, -121372.67695339644, 74348.67463692125, -72698.28888157474, 38859.71472975192, -115052.74356040283, 0.01, 0.964, 0.002, 192.0, 0.0, 0.0, 0.0, 0.0, 0.0, 0.0, 0.0, 0.0, 0.0, 1.6664057169794729E9, 0.0, 2022-10-21 19:28:36.979
192.0, -134255.61896033515, -162844.01420879536, 10271.610053969629, -121355.48846191031, 74364.54437548452, -72698.57945425266, 38873.28223863629, -115025.2509147228, 0.006, 0.962, 0.002, 192.0, 0.0, 48.0, 30.0, 16.0, 0.0, 16.0, 0.0, 0.0, 0.0, 1.6664057169794831E9, 0.0, 2022-10-21 19:28:36.979
193.0, -134256.91536151356, -162849.15511002007, 10271.431240013986, -121354.90731655447, 74364.00793361758, -72689.63875647054, 38881.37357012911, -115026.7484816013, 0.006, 0.962, 0.002, 192.0, 0.0, 0.0, 0.0, 0.0, 0.0, 0.0, 0.0, 0.0, 0.0, 1.6664057169794943E9, 0.0, 2022-10-21 19:28:36.979
194.0, -134258.6811493255, -162850.65267689858, 10268.972548123902, -121360.51760441276, 74362.48801499463, -72667.66699167097, 38884.078131208196, -115045.88157485504, 0.006, 0.962, 0.002, 192.0, 0.0, 0.0, 0.0, 0.0, 0.0, 0.0, 0.0, 0.0, 0.0, 1.6664057169795153E9, 0.0, 2022-10-21 19:28:36.979
195.0, -134244.30897764076, -162835.36408369115, 10272.548827236751, -121362.30574396918, 74362.08568359443, -72674.64073594102, 38876.14326192657, -115050.88836561303, 0.006, 0.962, 0.002, 192.0, 0.0, 0.0, 0.0, 0.0, 0.0, 0.0, 0.0, 0.0, 0.0, 1.6664057169795263E9, 0.0, 2022-10-21 19:28:36.979
196.0, -134238.3857653601, -162830.87138305564, 10272.928806892493, -121358.68476136742, 74362.10803533888, -72694.08675361714, 38870.06358743472, -115049.92724060146, 0.006, 0.962, 0.002, 192.0, 0.0, 0.0, 0.0, 0.0, 0.0, 0.0, 0.0, 0.0, 0.0, 1.6664057169795384E9, 0.0, 2022-10-21 19:28:36.979
197.0, -134242.05145145077, -162835.40878718006, 10274.649891215551, -121345.3854734165, 74363.94087838422, -72672.69613417341, 38878.02080846081, -115051.26834526878, 0.006, 0.962, 0.002, 192.0, 0.0, 0.0, 0.0, 0.0, 0.0, 0.0, 0.0, 0.0, 0.0, 1.6664057169795492E9, 0.0, 2022-10-21 19:28:36.979
198.0, -134241.11267818365, -162833.62064762364, 10272.392365025564, -121352.26981070875, 74357.81650040347, -72677.41235225348, 38868.72248276741, -115049.14492954552, 0.006, 0.962, 0.002, 192.0, 0.0, 0.0, 0.0, 0.0, 0.0, 0.0, 0.0, 0.0, 0.0, 1.6664057169795604E9, 0.0, 2022-10-21 19:28:36.979
199.0, -134240.88916073908, -162834.80529007976, 10263.630481199085, -121362.7974823472, 74357.34711376991, -72691.91863440498, 38856.13845063907, -115050.77660689077, 0.006, 0.962, 0.002, 192.0, 0.0, 0.0, 0.0, 0.0, 0.0, 0.0, 0.0, 0.0, 0.0, 1.666405716979571E9, 0.0, 2022-10-21 19:28:36.979
200.0, -134241.87263749514, -162835.54289764678, 10254.868597372604, -121365.47969168183, 74356.94478236971, -72707.31898633468, 38848.136526124064, -115056.2527842823, 0.006, 0.962, 0.002, 192.0, 0.0, 0.0, 0.0, 0.0, 0.0, 0.0, 0.0, 0.0, 0.0, 1.6664057169795823E9, 0.0, 2022-10-21 19:28:36.979
201.0, -134238.6316345491, -162835.2299732244, 10251.2699665153, -121360.2493834793, 74355.51427072457, -72715.18680038296, 38849.343520324655, -115054.82227263718, 0.008, 0.9580000000000001, 0.008, 192.0, 0.0, 64.0, 29.0, 240.0, 0.0, 64.0, 0.0, 0.0, 0.0, 1.6664057169795935E9, 0.0, 2022-10-21 19:28:36.979
202.0, -134241.71617528395, -162834.71588310195, 10250.2194345259, -121357.45541542237, 74356.87772713635, -72690.1081431041, 38858.3736250846, -115053.03413308074, 0.008, 0.9580000000000001, 0.008, 192.0, 0.0, 0.0, 0.0, 0.0, 0.0, 0.0, 0.0, 0.0, 0.0, 1.666405716979605E9, 0.0, 2022-10-21 19:28:36.979
203.0, -134246.07476545274, -162835.11821450214, 10244.78796062326, -121362.93159281393, 74356.87772713635, -72695.94194840694, 38848.717671479906, -115058.77853140575, 0.008, 0.9580000000000001, 0.008, 192.0, 0.0, 0.0, 0.0, 0.0, 0.0, 0.0, 0.0, 0.0, 0.0, 1.6664057169796157E9, 0.0, 2022-10-21 19:28:36.979
204.0, -134265.185506962, -162858.0958078022, 10218.301143443721, -121386.26681402526, 74339.86804960585, -72728.2625708893, 38822.29790953373, -115085.98060440787, 0.008, 0.9580000000000001, 0.008, 192.0, 0.0, 0.0, 0.0, 0.0, 0.0, 0.0, 0.0, 0.0, 0.0, 1.666405716979627E9, 0.0, 2022-10-21 19:28:36.979
205.0, -134249.51693409885, -162842.31547621675, 10229.633477882562, -121372.58754641862, 74349.32283751045, -72727.59201855565, 38834.367851539595, -115065.52875823126, 0.008, 0.9580000000000001, 0.008, 192.0, 0.0, 0.0, 0.0, 0.0, 0.0, 0.0, 0.0, 0.0, 0.0, 1.6664057169796379E9, 0.0, 2022-10-21 19:28:36.979
206.0, -134231.76964900133, -162823.29414168527, 10244.050353056235, -121355.6449241215, 74360.29754403801, -72702.04397464324, 38850.21523835841, -115039.98071431885, 0.008, 0.9580000000000001, 0.008, 192.0, 0.0, 0.0, 0.0, 0.0, 0.0, 0.0, 0.0, 0.0, 0.0, 1.6664057169796486E9, 0.0, 2022-10-21 19:28:36.979
207.0, -134237.84932349317, -162831.65369411156, 10233.813254095705, -121364.85384283708, 74359.87286089336, -72704.4579630444, 38843.39795629954, -115056.16337730449, 0.008, 0.9580000000000001, 0.008, 192.0, 0.0, 0.0, 0.0, 0.0, 0.0, 0.0, 0.0, 0.0, 0.0, 1.6664057169797864E9, 0.0, 2022-10-21 19:28:36.979
208.0, -134227.79103848827, -162822.57888586272, 10238.909451831514, -121363.11040676957, 74369.61822147587, -72731.63768430206, 38842.95092141043, -115059.91847037298, 0.008, 0.9580000000000001, 0.008, 192.0, 0.0, 0.0, 0.0, 0.0, 0.0, 0.0, 0.0, 0.0, 0.0, 1.6664057169797971E9, 0.0, 2022-10-21 19:28:36.979
209.0, -134229.69093676697, -162825.90929578655, 10238.752989620327, -121359.71294161236, 74368.67944820874, -72737.918524494, 38842.92856966598, -115061.57249946267, 0.008, 0.9580000000000001, 0.008, 192.0, 0.0, 0.0, 0.0, 0.0, 0.0, 0.0, 0.0, 0.0, 0.0, 1.666405716979808E9, 0.0, 2022-10-21 19:28:36.979
210.0, -134236.15059091456, -162831.31841794474, 10232.852129084127, -121362.05987478017, 74360.67752369375, -72729.93895172345, 38839.888732420055, -115074.24593856883, 0.008, 0.9580000000000001, 0.008, 192.0, 0.0, 0.0, 0.0, 0.0, 0.0, 0.0, 0.0, 0.0, 0.0, 1.6664057169798307E9, 0.0, 2022-10-21 19:28:36.979
211.0, -134238.09519268217, -162834.09003425718, 10228.180614492967, -121367.58075566063, 74358.62116320386, -72719.74655625183, 38838.8158486862, -115074.89413915803, 0.016, 0.9560000000000001, 0.008, 192.0, 0.0, 128.0, 29.0, 224.0, 0.0, 64.0, 0.0, 0.0, 0.0, 1.666405716979842E9, 0.0, 2022-10-21 19:28:36.979
212.0, -134241.24678865037, -162836.95105754747, 10222.257402212312, -121372.98987781882, 74356.34128526942, -72734.5657628257, 38830.188075326456, -115077.28577581476, 0.016, 0.9560000000000001, 0.008, 192.0, 0.0, 0.0, 0.0, 0.0, 0.0, 0.0, 0.0, 0.0, 0.0, 1.6664057169798539E9, 0.0, 2022-10-21 19:28:36.979
213.0, -134246.16417243055, -162840.81790933825, 10217.697646343428, -121375.53797668673, 74352.36267475637, -72756.62693460309, 38822.8119996562, -115081.75612470582, 0.016, 0.9560000000000001, 0.008, 192.0, 0.0, 0.0, 0.0, 0.0, 0.0, 0.0, 0.0, 0.0, 0.0, 1.6664057169798646E9, 0.0, 2022-10-21 19:28:36.979
214.0, -134241.04562295027, -162833.30772320126, 10223.330285946166, -121370.66529639547, 74357.39181725882, -72732.88938199155, 38841.02867138728, -115075.85526416962, 0.016, 0.9560000000000001, 0.008, 192.0, 0.0, 0.0, 0.0, 0.0, 0.0, 0.0, 0.0, 0.0, 0.0, 1.6664057169798756E9, 0.0, 2022-10-21 19:28:36.979
215.0, -134236.50821882585, -162829.06089175475, 10227.845338326137, -121364.58562190362, 74365.95253538521, -72715.63383527206, 38850.103479636135, -115070.73671468935, 0.016, 0.9560000000000001, 0.008, 192.0, 0.0, 0.0, 0.0, 0.0, 0.0, 0.0, 0.0, 0.0, 0.0, 1.6664057169798868E9, 0.0, 2022-10-21 19:28:36.979
216.0, -134236.73173627042, -162827.02688300933, 10225.49840515833, -121361.41167419097, 74372.97098314417, -72727.74848076684, 38846.79542145675, -115067.02632510976, 0.016, 0.9560000000000001, 0.008, 192.0, 0.0, 0.0, 0.0, 0.0, 0.0, 0.0, 0.0, 0.0, 0.0, 1.6664057169798977E9, 0.0, 2022-10-21 19:28:36.979
217.0, -134238.13989617108, -162826.87042079814, 10222.279753956765, -121362.81983409166, 74373.64153547783, -72719.72420450738, 38848.51650577981, -115069.44031351095, 0.016, 0.9560000000000001, 0.008, 192.0, 0.0, 0.0, 0.0, 0.0, 0.0, 0.0, 0.0, 0.0, 0.0, 1.666405716979909E9, 0.0, 2022-10-21 19:28:36.979
218.0, -134244.06310845175, -162833.84416506818, 10215.015437008791, -121368.31836322766, 74365.23727956263, -72712.72810849287, 38849.65644474703, -115071.161397834, 0.016, 0.9560000000000001, 0.008, 192.0, 0.0, 0.0, 0.0, 0.0, 0.0, 0.0, 0.0, 0.0, 0.0, 1.6664057169799213E9, 0.0, 2022-10-21 19:28:36.979
219.0, -134246.74531778638, -162836.19109823598, 10208.287561927744, -121371.2464417513, 74361.19161381622, -72723.23342838687, 38844.0685086332, -115078.35865954861, 0.016, 0.9560000000000001, 0.008, 192.0, 0.0, 0.0, 0.0, 0.0, 0.0, 0.0, 0.0, 0.0, 0.0, 1.6664057169799337E9, 0.0, 2022-10-21 19:28:36.979
220.0, -134245.00188171887, -162835.40878718006, 10202.789032791738, -121372.83341560763, 74365.1031690959, -72747.39566414306, 38836.22304632939, -115088.48399978685, 0.016, 0.9560000000000001, 0.008, 192.0, 0.0, 0.0, 0.0, 0.0, 0.0, 0.0, 0.0, 0.0, 0.0, 1.6664057169799447E9, 0.0, 2022-10-21 19:28:36.979
221.0, -134230.36148910064, -162821.26013293985, 10212.869669541082, -121360.96463930186, 74376.68137272375, -72758.30331543724, 38844.42613654448, -115074.08947635765, 0.016, 0.9560000000000001, 0.008, 192.0, 0.0, 128.0, 29.0, 224.0, 0.0, 64.0, 0.0, 0.0, 0.0, 1.666405716979956E9, 0.0, 2022-10-21 19:28:36.979
222.0, -134232.26138737935, -162823.67412134103, 10214.836623053148, -121355.13083399902, 74377.44133203523, -72740.8689547621, 38857.92659019549, -115063.27123204127, 0.016, 0.9560000000000001, 0.008, 192.0, 0.0, 0.0, 0.0, 0.0, 0.0, 0.0, 0.0, 0.0, 0.0, 1.6664057169799676E9, 0.0, 2022-10-21 19:28:36.979
223.0, -134227.76868674383, -162820.29900792826, 10212.087358485147, -121348.55942112916, 74375.51908201208, -72729.76013776781, 38856.518430294804, -115075.34117404713, 0.016, 0.9560000000000001, 0.008, 192.0, 0.0, 0.0, 0.0, 0.0, 0.0, 0.0, 0.0, 0.0, 0.0, 1.6664057169799795E9, 0.0, 2022-10-21 19:28:36.979
224.0, -134236.66468103704, -162827.31745568724, 10198.385739134043, -121361.5457846577, 74372.21102383269, -72750.03316998878, 38842.548590010236, -115087.83579919765, 0.016, 0.9560000000000001, 0.008, 192.0, 0.0, 0.0, 0.0, 0.0, 0.0, 0.0, 0.0, 0.0, 0.0, 1.6664057169799907E9, 0.0, 2022-10-21 19:28:36.979
225.0, -134251.81916377775, -162842.60604889467, 10182.963035459881, -121370.68764813992, 74367.22658481916, -72756.13519622508, 38837.20652308542, -115092.6190725111, 0.016, 0.9560000000000001, 0.008, 192.0, 0.0, 0.0, 0.0, 0.0, 0.0, 0.0, 0.0, 0.0, 0.0, 1.666405716980012E9, 0.0, 2022-10-21 19:28:36.980
226.0, -134232.10492516815, -162823.60706610765, 10200.866782768582, -121347.35242692858, 74383.96804141618, -72751.82130954521, 38851.37752907009, -115070.87082515607, 0.016, 0.9560000000000001, 0.008, 192.0, 0.0, 0.0, 0.0, 0.0, 0.0, 0.0, 0.0, 0.0, 0.0, 1.6664057169800231E9, 0.0, 2022-10-21 19:28:36.980
227.0, -134227.96985244393, -162821.57305736223, 10203.884268270049, -121349.67700835194, 74388.97483217416, -72743.84173677466, 38862.955732697934, -115061.01370585129, 0.016, 0.9560000000000001, 0.008, 192.0, 0.0, 0.0, 0.0, 0.0, 0.0, 0.0, 0.0, 0.0, 0.0, 1.666405716980038E9, 0.0, 2022-10-21 19:28:36.980
228.0, -134228.46159082194, -162820.09784222816, 10199.749195545817, -121348.06768275115, 74393.22166362067, -72750.77077755581, 38863.60393328714, -115071.51902574528, 0.016, 0.9560000000000001, 0.008, 192.0, 0.0, 0.0, 0.0, 0.0, 0.0, 0.0, 0.0, 0.0, 0.0, 1.666405716980047E9, 0.0, 2022-10-21 19:28:36.980
229.0, -134233.58014030222, -162824.90346728606, 10189.623855307562, -121354.48263340982, 74388.7066112407, -72758.48212939288, 38855.44554656095, -115080.12444736058, 0.016, 0.9560000000000001, 0.008, 192.0, 0.0, 0.0, 0.0, 0.0, 0.0, 0.0, 0.0, 0.0, 0.0, 1.666405716980056E9, 0.0, 2022-10-21 19:28:36.980
230.0, -134239.83862874968, -162832.8383365677, 10181.688986025929, -121356.87427006655, 74381.33053557045, -72756.4704723919, 38852.606875015124, -115077.64340372603, 0.016, 0.9560000000000001, 0.008, 192.0, 0.0, 0.0, 0.0, 0.0, 0.0, 0.0, 0.0, 0.0, 0.0, 1.666405716980065E9, 0.0, 2022-10-21 19:28:36.980
231.0, -134237.53639907078, -162832.54776388977, 10179.185590646934, -121356.15901424397, 74377.91071866879, -72754.90585028003, 38854.55147678274, -115071.54137748975, 0.018000000000000002, 0.962, 0.0, 192.0, 0.0, 144.0, 30.0, 16.0, 0.0, 0.0, 0.0, 0.0, 0.0, 1.6664057169800744E9, 0.0, 2022-10-21 19:28:36.980
232.0, -134238.22930314892, -162831.54193538928, 10173.68706151093, -121353.85678456507, 74381.9563844152, -72751.28486767827, 38856.85370646163, -115075.1623600915, 0.018000000000000002, 0.962, 0.0, 192.0, 0.0, 0.0, 0.0, 0.0, 0.0, 0.0, 0.0, 0.0, 0.0, 1.666405716980084E9, 0.0, 2022-10-21 19:28:36.980
233.0, -134222.76189598584, -162817.84031603817, 10182.985387204337, -121339.95399951388, 74397.87082646738, -72755.48699563587, 38861.25700011933, -115072.68131645696, 0.018000000000000002, 0.962, 0.0, 192.0, 0.0, 0.0, 0.0, 0.0, 0.0, 0.0, 0.0, 0.0, 0.0, 1.666405716980093E9, 0.0, 2022-10-21 19:28:36.980
234.0, -134228.72981175542, -162824.43408065249, 10175.698718511907, -121346.50306063928, 74393.02049792057, -72772.0272865328, 38855.15497388303, -115081.42084853898, 0.018000000000000002, 0.962, 0.0, 192.0, 0.0, 0.0, 0.0, 0.0, 0.0, 0.0, 0.0, 0.0, 0.0, 1.6664057169801023E9, 0.0, 2022-10-21 19:28:36.980
235.0, -134230.11561991164, -162827.16099347605, 10172.43536382143, -121348.0453310067, 74389.39951531882, -72747.30625716523, 38860.720558252404, -115083.96894740689, 0.018000000000000002, 0.962, 0.0, 192.0, 0.0, 0.0, 0.0, 0.0, 0.0, 0.0, 0.0, 0.0, 0.0, 1.6664057169801111E9, 0.0, 2022-10-21 19:28:36.980
236.0, -134233.75895425785, -162828.12211848763, 10168.63556726403, -121352.62743862004, 74385.66677399479, -72725.84858248814, 38859.8711919631, -115086.7629154638, 0.018000000000000002, 0.962, 0.0, 192.0, 0.0, 0.0, 0.0, 0.0, 0.0, 0.0, 0.0, 0.0, 0.0, 1.6664057169801202E9, 0.0, 2022-10-21 19:28:36.980
237.0, -134237.11171592615, -162828.34563593217, 10164.478142795342, -121359.55647940117, 74379.36358205839, -72750.36844615561, 38845.633130745075, -115088.0146131533, 0.018000000000000002, 0.962, 0.0, 192.0, 0.0, 0.0, 0.0, 0.0, 0.0, 0.0, 0.0, 0.0, 0.0, 1.6664057169801292E9, 0.0, 2022-10-21 19:28:36.980
238.0, -134244.51014334086, -162833.933572046, 10158.107895625579, -121361.00934279077, 74373.77564594455, -72782.10792328214, 38833.78670618376, -115096.8659039576, 0.018000000000000002, 0.962, 0.0, 192.0, 0.0, 0.0, 0.0, 0.0, 0.0, 0.0, 0.0, 0.0, 0.0, 1.6664057169801383E9, 0.0, 2022-10-21 19:28:36.980
239.0, -134240.12920142763, -162827.89860104307, 10162.511189283276, -121352.9403630424, 74378.3577535579, -72765.16530098501, 38844.80611620023, -115093.28962484475, 0.018000000000000002, 0.962, 0.0, 192.0, 0.0, 0.0, 0.0, 0.0, 0.0, 0.0, 0.0, 0.0, 0.0, 1.6664057169801483E9, 0.0, 2022-10-21 19:28:36.980
240.0, -134238.78809676028, -162824.99287426387, 10161.795933460706, -121352.71684559785, 74380.99525940363, -72744.78051004178, 38850.796383714245, -115085.3100520742, 0.012, 0.9580000000000001, 0.002, 192.0, 0.0, 96.0, 29.0, 240.0, 0.0, 16.0, 0.0, 0.0, 0.0, 1.6664057169801676E9, 0.0, 2022-10-21 19:28:36.980
241.0, -134236.39646010357, -162822.82475505173, 10155.716258968861, -121353.9461915429, 74380.86114893689, -72763.6230306176, 38847.35421506813, -115072.77072343478, 0.012, 0.9580000000000001, 0.002, 192.0, 0.0, 0.0, 0.0, 0.0, 0.0, 0.0, 0.0, 0.0, 0.0, 1.6664057169801776E9, 0.0, 2022-10-21 19:28:36.980
242.0, -134235.12241066963, -162820.81309805074, 10155.91742466896, -121349.02880776273, 74386.67260249527, -72784.49955993886, 38847.30951157922, -115066.48988324284, 0.012, 0.9580000000000001, 0.002, 192.0, 0.0, 0.0, 0.0, 0.0, 0.0, 0.0, 0.0, 0.0, 0.0, 1.6664057174577227E9, 0.0, 2022-10-21 19:28:37.457
243.0, -134237.75991651535, -162822.04244399577, 10157.05736363618, -121350.54872638569, 74386.82906470646, -72779.31395522523, 38853.00920641532, -115083.20898809542, 0.012, 0.9580000000000001, 0.002, 192.0, 0.0, 0.0, 0.0, 0.0, 0.0, 0.0, 0.0, 0.0, 0.0, 1.6664057174579008E9, 0.0, 2022-10-21 19:28:37.457
244.0, -134237.84932349317, -162820.14254571707, 10158.219654347857, -121354.05795026517, 74385.37620131686, -72754.74938806884, 38853.79151747126, -115087.90285443103, 0.012, 0.9580000000000001, 0.002, 192.0, 0.0, 0.0, 0.0, 0.0, 0.0, 0.0, 0.0, 0.0, 0.0, 1.6664057174579911E9, 0.0, 2022-10-21 19:28:37.457
245.0, -134237.9834339599, -162819.47199338343, 10156.207997346879, -121354.393226432, 74383.94568967172, -72775.46945517891, 38841.16278185401, -115090.5180085323, 0.012, 0.9580000000000001, 0.002, 192.0, 0.0, 0.0, 0.0, 0.0, 0.0, 0.0, 0.0, 0.0, 0.0, 1.6664057174580188E9, 0.0, 2022-10-21 19:28:37.458
246.0, -134243.83959100718, -162825.21639170844, 10149.882453666027, -121358.17067124495, 74384.61624200539, -72811.70163294097, 38837.653557974525, -115089.86980794309, 0.012, 0.9580000000000001, 0.002, 192.0, 0.0, 0.0, 0.0, 0.0, 0.0, 0.0, 0.0, 0.0, 0.0, 1.6664057174580505E9, 0.0, 2022-10-21 19:28:37.458
247.0, -134237.93873047098, -162819.62845559462, 10156.364459558066, -121347.1959647174, 74391.27706185306, -72790.04279256378, 38854.19384887145, -115075.07295311367, 0.012, 0.9580000000000001, 0.002, 192.0, 0.0, 0.0, 0.0, 0.0, 0.0, 0.0, 0.0, 0.0, 0.0, 1.6664057174580772E9, 0.0, 2022-10-21 19:28:37.458
248.0, -134235.68120428102, -162815.89571427056, 10157.325584569644, -121336.91416226795, 74396.03798342205, -72783.56078667173, 38859.55826754073, -115066.64634545402, 0.012, 0.9580000000000001, 0.002, 192.0, 0.0, 0.0, 0.0, 0.0, 0.0, 0.0, 0.0, 0.0, 0.0, 1.6664057174581056E9, 0.0, 2022-10-21 19:28:37.458
249.0, -134241.20208516147, -162818.95790326095, 10152.922290911949, -121339.57401985813, 74395.47918981066, -72778.30812672475, 38852.897447693045, -115070.69201120044, 0.012, 0.9580000000000001, 0.002, 192.0, 0.0, 0.0, 0.0, 0.0, 0.0, 0.0, 0.0, 0.0, 0.0, 1.6664057174581316E9, 0.0, 2022-10-21 19:28:37.458
250.0, -134246.49944859737, -162822.1318509736, 10147.96020364287, -121346.23483970581, 74389.26540485209, -72786.08653379518, 38845.81194470071, -115079.56565374919, 0.012, 0.9560000000000001, 0.0, 192.0, 0.0, 96.0, 29.0, 224.0, 0.0, 0.0, 0.0, 0.0, 0.0, 1.6664057174581573E9, 0.0, 2022-10-21 19:28:37.458
251.0, -134248.86873350965, -162826.49044114238, 10144.92036639695, -121349.27467695174, 74386.44908505071, -72807.81242940575, 38842.32507256568, -115082.04669738373, 0.012, 0.9560000000000001, 0.0, 192.0, 0.0, 0.0, 0.0, 0.0, 0.0, 0.0, 0.0, 0.0, 0.0, 1.6664057174581845E9, 0.0, 2022-10-21 19:28:37.458
252.0, -134246.34298638618, -162825.39520566407, 10141.746418684295, -121353.32034269815, 74384.34802107191, -72800.70457466895, 38844.78376445577, -115086.40528755252, 0.012, 0.9560000000000001, 0.0, 192.0, 0.0, 0.0, 0.0, 0.0, 0.0, 0.0, 0.0, 0.0, 0.0, 1.6664057174582112E9, 0.0, 2022-10-21 19:28:37.458
253.0, -134237.40228860406, -162815.96276950394, 10146.194415830902, -121339.70813032487, 74396.64148052233, -72789.59575767467, 38851.53399128127, -115078.64923222653, 0.012, 0.9560000000000001, 0.0, 192.0, 0.0, 0.0, 0.0, 0.0, 0.0, 0.0, 0.0, 0.0, 0.0, 1.6664057174582362E9, 0.0, 2022-10-21 19:28:37.458
254.0, -134238.54222757128, -162817.50503987135, 10141.835825662116, -121341.71978732584, 74397.53555030056, -72813.86975215313, 38842.25801733232, -115074.89413915803, 0.012, 0.9560000000000001, 0.0, 192.0, 0.0, 0.0, 0.0, 0.0, 0.0, 0.0, 0.0, 0.0, 0.0, 1.6664057174582624E9, 0.0, 2022-10-21 19:28:37.458
255.0, -134241.09032643918, -162818.91319977204, 10142.551081484686, -121343.57498211564, 74398.31786135648, -72820.57527548973, 38849.49998253584, -115069.2614995553, 0.012, 0.9560000000000001, 0.0, 192.0, 0.0, 0.0, 0.0, 0.0, 0.0, 0.0, 0.0, 0.0, 0.0, 1.6664057174583569E9, 0.0, 2022-10-21 19:28:37.458
0.0, -134238.20695140446, -162814.28638866977, 10149.43541877692, -121336.78005180122, 74400.24011137964, -72804.75024041536, 38862.28518036428, -115061.39368550704, 0.012, 0.9560000000000001, 0.0, 192.0, 0.0, 0.0, 0.0, 0.0, 0.0, 0.0, 0.0, 0.0, 0.0, 1.666405717458383E9, 0.0, 2022-10-21 19:28:37.458
1.0, -134244.04075670728, -162821.26013293985, 10143.2439855628, -121340.5351448697, 74398.63078577886, -72785.25951925034, 38865.01209318783, -115057.48213022735, 0.012, 0.9560000000000001, 0.0, 192.0, 0.0, 0.0, 0.0, 0.0, 0.0, 0.0, 0.0, 0.0, 0.0, 1.666405717458408E9, 0.0, 2022-10-21 19:28:37.458
2.0, -134244.35368112967, -162822.66829284054, 10134.43739824741, -121345.5419356277, 74389.37716357436, -72808.14770557257, 38848.44945054644, -115070.69201120044, 0.012, 0.9560000000000001, 0.0, 192.0, 0.0, 0.0, 0.0, 0.0, 0.0, 0.0, 0.0, 0.0, 0.0, 1.6664057174584346E9, 0.0, 2022-10-21 19:28:37.458
3.0, -134241.09032643918, -162818.84614453866, 10134.504453480775, -121340.22222044734, 74393.26636710958, -72815.12144984263, 38851.288122092265, -115080.05739212722, 0.012, 0.9560000000000001, 0.0, 192.0, 0.0, 0.0, 0.0, 0.0, 0.0, 0.0, 0.0, 0.0, 0.0, 1.6664057174584615E9, 0.0, 2022-10-21 19:28:37.458
4.0, -134245.22539916344, -162820.8801532841, 10131.62107844604, -121343.19500245989, 74390.98648917515, -72812.2380748079, 38855.914933194515, -115078.02338338178, 0.014, 0.9580000000000001, 0.004, 192.0, 0.0, 112.0, 29.0, 240.0, 0.0, 32.0, 0.0, 0.0, 0.0, 1.6664057174584956E9, 0.0, 2022-10-21 19:28:37.458
5.0, -134249.44987886547, -162825.26109519735, 10128.402427244477, -121341.3398076701, 74394.85334096591, -72798.67056592353, 38857.90423845103, -115080.79499969423, 0.014, 0.9580000000000001, 0.004, 192.0, 0.0, 0.0, 0.0, 0.0, 0.0, 0.0, 0.0, 0.0, 0.0, 1.6664057174585226E9, 0.0, 2022-10-21 19:28:37.458
6.0, -134259.15053595908, -162836.19109823598, 10112.733854381306, -121356.896621811, 74384.34802107191, -72804.0796880817, 38840.02284288679, -115084.39363055154, 0.014, 0.9580000000000001, 0.004, 192.0, 0.0, 0.0, 0.0, 0.0, 0.0, 0.0, 0.0, 0.0, 0.0, 1.6664057174585483E9, 0.0, 2022-10-21 19:28:37.458
7.0, -134254.1437452011, -162832.21248772295, 10115.147842782479, -121356.74015959981, 74387.36550657339, -72828.71131047145, 38834.658424217516, -115073.41892402398, 0.014, 0.9580000000000001, 0.004, 192.0, 0.0, 0.0, 0.0, 0.0, 0.0, 0.0, 0.0, 0.0, 0.0, 1.6664057174585736E9, 0.0, 2022-10-21 19:28:37.458
8.0, -134246.8794282531, -162828.36798767664, 10122.769787641739, -121341.71978732584, 74397.42379157827, -72818.51891499983, 38850.75168022534, -115068.38978152155, 0.014, 0.9580000000000001, 0.004, 192.0, 0.0, 0.0, 0.0, 0.0, 0.0, 0.0, 0.0, 0.0, 0.0, 1.6664057174585998E9, 0.0, 2022-10-21 19:28:37.458
9.0, -134246.05241370827, -162830.69256909998, 10121.138110296502, -121342.4350431484, 74395.36743108838, -72807.07482183872, 38850.19288661396, -115078.67158397098, 0.014, 0.9580000000000001, 0.004, 192.0, 0.0, 0.0, 0.0, 0.0, 0.0, 0.0, 0.0, 0.0, 0.0, 1.6664057174586253E9, 0.0, 2022-10-21 19:28:37.458
10.0, -134240.57623631673, -162823.182382963, 10125.630810932018, -121337.60706634607, 74401.24593988013, -72822.56458074624, 38846.191924356455, -115080.77264794978, 0.014, 0.9580000000000001, 0.004, 192.0, 0.0, 0.0, 0.0, 0.0, 0.0, 0.0, 0.0, 0.0, 0.0, 1.6664057174586508E9, 0.0, 2022-10-21 19:28:37.458
11.0, -134246.47709685293, -162829.79849932177, 10116.980685827815, -121338.99287450229, 74396.97675668917, -72840.80360422177, 38837.29593006324, -115084.30422357372, 0.014, 0.9580000000000001, 0.004, 192.0, 0.0, 0.0, 0.0, 0.0, 0.0, 0.0, 0.0, 0.0, 0.0, 1.6664057174586773E9, 0.0, 2022-10-21 19:28:37.458
12.0, -134240.46447759445, -162828.74796733237, 10115.706636393863, -121332.55557209917, 74392.23818686465, -72851.33127586023, 38836.178342840474, -115079.40919153801, 0.014, 0.9580000000000001, 0.004, 192.0, 0.0, 0.0, 0.0, 0.0, 0.0, 0.0, 0.0, 0.0, 0.0, 1.666405717458703E9, 0.0, 2022-10-21 19:28:37.458
13.0, -134233.26721587984, -162819.76256606134, 10122.680380663918, -121330.81213603166, 74394.27219561007, -72837.1379181311, 38848.0694708907, -115072.56955773468, 0.014, 0.96, 0.004, 192.0, 0.0, 112.0, 30.0, 0.0, 0.0, 32.0, 0.0, 0.0, 0.0, 1.6664057174587288E9, 0.0, 2022-10-21 19:28:37.458
14.0, -134242.72200378444, -162823.20473470745, 10120.601668429574, -121342.25622919278, 74392.59581477592, -72844.8492699682, 38841.58746499866, -115078.42571478197, 0.014, 0.96, 0.004, 192.0, 0.0, 0.0, 0.0, 0.0, 0.0, 0.0, 0.0, 0.0, 0.0, 1.6664057174587817E9, 0.0, 2022-10-21 19:28:37.458
15.0, -134250.8356870217, -162829.26205745485, 10111.973895069827, -121347.1959647174, 74388.14781762932, -72856.15925266258, 38832.24443581634, -115087.45581954192, 0.014, 0.96, 0.004, 192.0, 0.0, 0.0, 0.0, 0.0, 0.0, 0.0, 0.0, 0.0, 0.0, 1.6664057174588077E9, 0.0, 2022-10-21 19:28:37.458
16.0, -134248.5334573428, -162826.42338590903, 10112.398578214477, -121340.42338614743, 74389.80184671901, -72856.62863929613, 38837.9664823969, -115083.54426426224, 0.014, 0.96, 0.004, 192.0, 0.0, 0.0, 0.0, 0.0, 0.0, 0.0, 0.0, 0.0, 0.0, 1.6664057174588327E9, 0.0, 2022-10-21 19:28:37.458
17.0, -134248.2875881538, -162826.17751672, 10111.638618902996, -121337.09297622359, 74390.02536416356, -72846.25742986887, 38844.0685086332, -115080.16915084948, 0.014, 0.96, 0.004, 192.0, 0.0, 0.0, 0.0, 0.0, 0.0, 0.0, 0.0, 0.0, 0.0, 1.666405717458858E9, 0.0, 2022-10-21 19:28:37.458
