%OpenBCI Raw EEG Data
%Number of channels = 8
%Sample Rate = 250 Hz
%Board = OpenBCI_GUI$BoardCytonSerial
Sample Index, EXG Channel 0, EXG Channel 1, EXG Channel 2, EXG Channel 3, EXG Channel 4, EXG Channel 5, EXG Channel 6, EXG Channel 7, Accel Channel 0, Accel Channel 1, Accel Channel 2, Other, Other, Other, Other, Other, Other, Other, Analog Channel 0, Analog Channel 1, Analog Channel 2, Timestamp, Other, Timestamp (Formatted)
48.0, -157847.84052942283, -169528.83983002184, 63249.96063112744, -60295.57410425832, 79430.32138709085, -77402.12409521629, 91972.1534218971, -128307.30567065546, 0.0, 0.0, 0.0, 192.0, 0.0, 0.0, 0.0, 0.0, 0.0, 0.0, 0.0, 0.0, 0.0, 1.6664083923596563E9, 0.0, 2022-10-21 20:13:12.359
49.0, -157849.44985502362, -169530.024472478, 63248.5301194823, -60304.20187761806, 79424.88991318822, -77428.34269146237, 91929.17101730955, -128311.44074337969, 0.0, 0.0, 0.0, 192.0, 0.0, 0.0, 0.0, 0.0, 0.0, 0.0, 0.0, 0.0, 0.0, 1.6664083923596773E9, 0.0, 2022-10-21 20:13:12.359
50.0, -157851.97560214705, -169531.23146667855, 63246.362000270135, -60304.80537471836, 79424.26406434347, -77435.98698806608, 91922.19727303949, -128308.71383055614, -0.028, 0.9420000000000001, -0.164, 192.0, 255.0, 32.0, 29.0, 112.0, 250.0, 224.0, 0.0, 0.0, 0.0, 1.666408392359688E9, 0.0, 2022-10-21 20:13:12.359
51.0, -157851.23799458003, -169530.3150451559, 63248.239546804376, -60299.57506651581, 79425.35929982178, -77404.00164175054, 91965.09027064923, -128303.0364874645, -0.028, 0.9420000000000001, -0.164, 192.0, 0.0, 0.0, 0.0, 0.0, 0.0, 0.0, 0.0, 0.0, 0.0, 1.6664083923597012E9, 0.0, 2022-10-21 20:13:12.359
52.0, -157849.67337246818, -169532.8631440238, 63241.869299634614, -60305.49827879647, 79418.76553520747, -77408.85197029734, 91965.09027064923, -128312.91595851374, -0.028, 0.9420000000000001, -0.164, 192.0, 0.0, 0.0, 0.0, 0.0, 0.0, 0.0, 0.0, 0.0, 0.0, 1.6664083923597124E9, 0.0, 2022-10-21 20:13:12.359
53.0, -157847.88523291174, -169532.4161091347, 63240.483491478386, -60312.248505621974, 79412.06001187087, -77443.1842497807, 91918.68804916002, -128319.24150219459, -0.028, 0.9420000000000001, -0.164, 192.0, 0.0, 0.0, 0.0, 0.0, 0.0, 0.0, 0.0, 0.0, 0.0, 1.666408392359723E9, 0.0, 2022-10-21 20:13:12.359
54.0, -157851.23799458003, -169529.9127137557, 63245.177357814, -60305.811203218844, 79421.17952360863, -77445.0841480594, 91909.63559265561, -128313.34064165839, -0.028, 0.9420000000000001, -0.164, 192.0, 0.0, 0.0, 0.0, 0.0, 0.0, 0.0, 0.0, 0.0, 0.0, 1.6664083923597343E9, 0.0, 2022-10-21 20:13:12.359
55.0, -157852.9143754142, -169531.45498412312, 63243.702142679955, -60303.531325284406, 79426.47688704454, -77412.271787199, 91957.80360195681, -128307.08215321091, -0.028, 0.9420000000000001, -0.164, 192.0, 0.0, 0.0, 0.0, 0.0, 0.0, 0.0, 0.0, 0.0, 0.0, 1.6664083923597448E9, 0.0, 2022-10-21 20:13:12.359
56.0, -157855.77539870446, -169538.1158039708, 63239.03062808879, -60314.438976578596, 79412.30588105987, -77412.60706336582, 91965.38084332715, -128311.44074337969, -0.028, 0.9420000000000001, -0.164, 192.0, 0.0, 0.0, 0.0, 0.0, 0.0, 0.0, 0.0, 0.0, 0.0, 1.6664083923597555E9, 0.0, 2022-10-21 20:13:12.359
57.0, -157853.85314868132, -169534.8748010248, 63240.77406415631, -60317.45646208006, 79415.88216017272, -77425.70518561664, 91933.32844177824, -128309.16086544524, -0.028, 0.9420000000000001, -0.164, 192.0, 0.0, 0.0, 0.0, 0.0, 0.0, 0.0, 0.0, 0.0, 0.0, 1.6664083923597674E9, 0.0, 2022-10-21 20:13:12.359
58.0, -157854.3672388038, -169531.54439110094, 63240.818767645214, -60311.5332497994, 79421.06776488636, -77434.1764967652, 91911.6472496566, -128306.99274623308, -0.028, 0.9420000000000001, -0.164, 192.0, 0.0, 0.0, 0.0, 0.0, 0.0, 0.0, 0.0, 0.0, 0.0, 1.6664083923597765E9, 0.0, 2022-10-21 20:13:12.359
59.0, -157862.72679123006, -169539.41220514922, 63237.46600597692, -60305.610037518745, 79417.35737530678, -77425.34755770536, 91938.11171509168, -128312.11129571334, -0.028, 0.9420000000000001, -0.164, 192.0, 0.0, 0.0, 0.0, 0.0, 0.0, 0.0, 0.0, 0.0, 0.0, 1.6664083923597853E9, 0.0, 2022-10-21 20:13:12.359
60.0, -157866.28071859846, -169543.92725752917, 63234.672037920005, -60315.02012193443, 79414.94338690561, -77408.58374936387, 91965.78317472734, -128315.0840777259, -0.03, 0.9420000000000001, -0.166, 192.0, 255.0, 16.0, 29.0, 112.0, 250.0, 208.0, 0.0, 0.0, 0.0, 1.666408392359794E9, 0.0, 2022-10-21 20:13:12.359
61.0, -157861.22922435155, -169541.51326912802, 63238.00244784385, -60320.988037704, 79415.05514562788, -77418.86555181332, 91940.12337209265, -128318.19097020519, -0.03, 0.9420000000000001, -0.166, 192.0, 0.0, 0.0, 0.0, 0.0, 0.0, 0.0, 0.0, 0.0, 0.0, 1.666408392359804E9, 0.0, 2022-10-21 20:13:12.359
62.0, -157860.7151342291, -169541.35680691683, 63238.40477924405, -60326.33010462882, 79412.81997118235, -77441.99960732456, 91902.34892396319, -128319.4873713836, -0.03, 0.9420000000000001, -0.166, 192.0, 0.0, 0.0, 0.0, 0.0, 0.0, 0.0, 0.0, 0.0, 0.0, 1.6664083923598127E9, 0.0, 2022-10-21 20:13:12.359
63.0, -157869.05233491093, -169548.06233025342, 63234.13559605308, -60322.15032841568, 79414.49635201649, -77425.01228153853, 91928.00872659788, -128317.02867949352, -0.03, 0.9420000000000001, -0.166, 192.0, 0.0, 0.0, 0.0, 0.0, 0.0, 0.0, 0.0, 0.0, 0.0, 1.6664083923598218E9, 0.0, 2022-10-21 20:13:12.359
64.0, -157870.84047446735, -169548.86699305382, 63232.7721396413, -60320.63040979271, 79417.33502356232, -77398.34665040334, 91968.7559567399, -128313.40769689175, -0.03, 0.9420000000000001, -0.166, 192.0, 0.0, 0.0, 0.0, 0.0, 0.0, 0.0, 0.0, 0.0, 0.0, 1.6664083923599255E9, 0.0, 2022-10-21 20:13:12.359
65.0, -157867.48771279905, -169546.78828081946, 63237.51070946583, -60327.80531976287, 79412.93172990462, -77414.86458955581, 91947.16417159607, -128319.64383359479, -0.03, 0.9420000000000001, -0.166, 192.0, 0.0, 0.0, 0.0, 0.0, 0.0, 0.0, 0.0, 0.0, 0.0, 1.6664083923599348E9, 0.0, 2022-10-21 20:13:12.359
66.0, -157861.3633348183, -169543.10024298434, 63242.83042464619, -60325.190165661596, 79413.62463398273, -77440.2785230015, 91907.690990888, -128320.62731035083, -0.03, 0.9420000000000001, -0.166, 192.0, 0.0, 0.0, 0.0, 0.0, 0.0, 0.0, 0.0, 0.0, 0.0, 1.666408392359944E9, 0.0, 2022-10-21 20:13:12.359
67.0, -157862.88325344125, -169542.9661325176, 63242.67396243501, -60316.718854513034, 79417.82676194033, -77433.39418570927, 91920.34207824971, -128312.7371445581, -0.03, 0.9420000000000001, -0.166, 192.0, 0.0, 0.0, 0.0, 0.0, 0.0, 0.0, 0.0, 0.0, 0.0, 1.6664083923599532E9, 0.0, 2022-10-21 20:13:12.359
68.0, -157868.20296862163, -169547.28001919747, 63242.495148479364, -60317.97055220253, 79421.20187535309, -77406.46033364061, 91965.2020293715, -128310.94900500168, -0.03, 0.9420000000000001, -0.166, 192.0, 0.0, 0.0, 0.0, 0.0, 0.0, 0.0, 0.0, 0.0, 0.0, 1.6664083923599622E9, 0.0, 2022-10-21 20:13:12.359
69.0, -157866.97362267657, -169546.22948720807, 63243.29981127976, -60324.921944728136, 79416.46330552857, -77412.04826975445, 91955.50137227791, -128315.21818819264, -0.03, 0.9420000000000001, -0.166, 192.0, 0.0, 0.0, 0.0, 0.0, 0.0, 0.0, 0.0, 0.0, 0.0, 1.6664083923599715E9, 0.0, 2022-10-21 20:13:12.359
70.0, -157862.95030867463, -169542.02735925047, 63248.03838110428, -60324.58666856131, 79417.96087240707, -77434.75764212104, 91916.63168867012, -128314.30176666997, -0.03, 0.9500000000000001, -0.16, 192.0, 255.0, 16.0, 29.0, 176.0, 251.0, 0.0, 0.0, 0.0, 0.0, 1.6664083923599832E9, 0.0, 2022-10-21 20:13:12.359
71.0, -157865.40900056472, -169546.60946686383, 63245.24441304737, -60327.5370988294, 79410.45068627008, -77448.01222658304, 91909.45677869997, -128320.24733069509, -0.03, 0.9500000000000001, -0.16, 192.0, 0.0, 0.0, 0.0, 0.0, 0.0, 0.0, 0.0, 0.0, 0.0, 1.6664083923599937E9, 0.0, 2022-10-21 20:13:12.359
72.0, -157869.34290758884, -169551.99623727755, 63240.37173275611, -60326.21834590654, 79410.8977211592, -77425.36990944982, 91950.04754663081, -128321.6331388513, -0.03, 0.9500000000000001, -0.16, 192.0, 0.0, 0.0, 0.0, 0.0, 0.0, 0.0, 0.0, 0.0, 0.0, 1.6664083923600025E9, 0.0, 2022-10-21 20:13:12.360
73.0, -157864.47022729757, -169544.55310637393, 63247.16666307052, -60320.920982470634, 79418.11733461826, -77412.76352557701, 91958.29534033482, -128314.97231900363, -0.03, 0.9500000000000001, -0.16, 192.0, 0.0, 0.0, 0.0, 0.0, 0.0, 0.0, 0.0, 0.0, 0.0, 1.6664083923600118E9, 0.0, 2022-10-21 20:13:12.360
74.0, -157863.15147437472, -169543.14494647324, 63251.43584626149, -60319.78104350341, 79424.4428782991, -77423.38060419328, 91926.13118006363, -128311.2842811685, -0.03, 0.9500000000000001, -0.16, 192.0, 0.0, 0.0, 0.0, 0.0, 0.0, 0.0, 0.0, 0.0, 0.0, 1.6664083923600209E9, 0.0, 2022-10-21 20:13:12.360
75.0, -157861.38568656275, -169541.8708970393, 63250.13944508308, -60318.685808025104, 79421.35833756428, -77435.96463632163, 91912.45191245699, -128307.32802239992, -0.03, 0.9500000000000001, -0.16, 192.0, 0.0, 0.0, 0.0, 0.0, 0.0, 0.0, 0.0, 0.0, 0.0, 1.6664083923600297E9, 0.0, 2022-10-21 20:13:12.360
76.0, -157859.08345688385, -169541.60267610583, 63250.541776483275, -60308.67222650912, 79426.23101785553, -77408.18141796369, 91954.0038053994, -128295.92863272771, -0.03, 0.9500000000000001, -0.16, 192.0, 0.0, 0.0, 0.0, 0.0, 0.0, 0.0, 0.0, 0.0, 0.0, 1.6664083923600388E9, 0.0, 2022-10-21 20:13:12.360
77.0, -157857.74235221653, -169541.93795227265, 63248.41836076002, -60313.299037611374, 79429.67318650165, -77393.00458347853, 91974.63446553165, -128296.37566761681, -0.03, 0.9500000000000001, -0.16, 192.0, 0.0, 0.0, 0.0, 0.0, 0.0, 0.0, 0.0, 0.0, 0.0, 1.6664083923600476E9, 0.0, 2022-10-21 20:13:12.360
78.0, -157854.14372135923, -169537.4676033816, 63246.920793881516, -60318.819918491834, 79425.47105854405, -77418.44086866867, 91936.48003774644, -128304.39994387627, -0.03, 0.9500000000000001, -0.16, 192.0, 0.0, 0.0, 0.0, 0.0, 0.0, 0.0, 0.0, 0.0, 0.0, 1.6664083923600564E9, 0.0, 2022-10-21 20:13:12.360
79.0, -157856.2671370825, -169534.49482136904, 63242.718665923916, -60320.07161618133, 79422.00653815348, -77434.71293863213, 91910.30614498927, -128307.59624333338, -0.028, 0.9420000000000001, -0.162, 192.0, 255.0, 32.0, 29.0, 112.0, 250.0, 240.0, 0.0, 0.0, 0.0, 1.6664083923600996E9, 0.0, 2022-10-21 20:13:12.360
80.0, -157857.6082417498, -169533.6678068242, 63241.28815427878, -60309.387482331695, 79424.80050621039, -77413.29996744395, 91944.0572791168, -128301.3377548859, -0.028, 0.9420000000000001, -0.162, 192.0, 0.0, 0.0, 0.0, 0.0, 0.0, 0.0, 0.0, 0.0, 0.0, 1.6664083923601096E9, 0.0, 2022-10-21 20:13:12.360
81.0, -157860.02223015096, -169538.18285920416, 63236.080197820695, -60307.46523230854, 79426.58864576682, -77397.9666707476, 91966.74429973893, -128301.9859554751, -0.028, 0.9420000000000001, -0.162, 192.0, 0.0, 0.0, 0.0, 0.0, 0.0, 0.0, 0.0, 0.0, 0.0, 1.66640839236012E9, 0.0, 2022-10-21 20:13:12.360
82.0, -157858.97169816156, -169537.4228998927, 63236.23666003188, -60307.867563708736, 79428.8461719568, -77410.59540636485, 91937.53056973584, -128309.67495556772, -0.028, 0.9420000000000001, -0.162, 192.0, 0.0, 0.0, 0.0, 0.0, 0.0, 0.0, 0.0, 0.0, 0.0, 1.666408392360129E9, 0.0, 2022-10-21 20:13:12.360
83.0, -157857.04944813842, -169536.014739992, 63238.6282966886, -60306.61586601924, 79427.01332891147, -77428.65561588474, 91905.70168563149, -128307.52918810002, -0.028, 0.9420000000000001, -0.162, 192.0, 0.0, 0.0, 0.0, 0.0, 0.0, 0.0, 0.0, 0.0, 0.0, 1.666408392360138E9, 0.0, 2022-10-21 20:13:12.360
84.0, -157861.65390749622, -169538.1158039708, 63234.76144489783, -60297.563409514834, 79425.42635505514, -77422.28536871498, 91928.67927893154, -128304.64581306528, -0.028, 0.9420000000000001, -0.162, 192.0, 0.0, 0.0, 0.0, 0.0, 0.0, 0.0, 0.0, 0.0, 0.0, 1.6664083923601472E9, 0.0, 2022-10-21 20:13:12.360
85.0, -157864.22435810856, -169541.02153075, 63230.17933728449, -60296.110546125245, 79426.11925913325, -77403.17462720569, 91960.61992175817, -128306.03162122151, -0.028, 0.9420000000000001, -0.162, 192.0, 0.0, 0.0, 0.0, 0.0, 0.0, 0.0, 0.0, 0.0, 0.0, 1.666408392360156E9, 0.0, 2022-10-21 20:13:12.360
86.0, -157862.03388715195, -169537.80287954843, 63230.91694485152, -60297.429299048104, 79428.8014684679, -77405.74507781805, 91943.4537820165, -128307.43978112219, -0.028, 0.9420000000000001, -0.162, 192.0, 0.0, 0.0, 0.0, 0.0, 0.0, 0.0, 0.0, 0.0, 0.0, 1.6664083923601649E9, 0.0, 2022-10-21 20:13:12.360
87.0, -157857.65294523872, -169534.4277661357, 63231.811014629726, -60297.161078114645, 79426.990977167, -77430.51081067453, 91905.63463039811, -128306.99274623308, -0.028, 0.9420000000000001, -0.162, 192.0, 0.0, 0.0, 0.0, 0.0, 0.0, 0.0, 0.0, 0.0, 0.0, 1.6664083923601737E9, 0.0, 2022-10-21 20:13:12.360
88.0, -157856.1106748713, -169532.9301992572, 63234.33676175318, -60288.51095301044, 79431.52838129144, -77418.44086866867, 91925.97471785244, -128299.2366909071, -0.028, 0.9420000000000001, -0.162, 192.0, 0.0, 0.0, 0.0, 0.0, 0.0, 0.0, 0.0, 0.0, 0.0, 1.6664083923601825E9, 0.0, 2022-10-21 20:13:12.360
89.0, -157853.02613413645, -169529.5774375889, 63236.25901177633, -60282.52068549641, 79432.28834060291, -77393.71983930109, 91966.07374740527, -128295.0345629495, -0.03, 0.936, -0.166, 192.0, 255.0, 16.0, 29.0, 64.0, 250.0, 208.0, 0.0, 0.0, 0.0, 1.6664083923601916E9, 0.0, 2022-10-21 20:13:12.360
90.0, -157850.54509050192, -169528.30338815492, 63234.89555536456, -60285.493467508975, 79431.5954365248, -77405.18628420666, 91949.89108441962, -128303.23765316459, -0.03, 0.936, -0.166, 192.0, 0.0, 0.0, 0.0, 0.0, 0.0, 0.0, 0.0, 0.0, 0.0, 1.6664083923602011E9, 0.0, 2022-10-21 20:13:12.360
91.0, -157849.3157445569, -169525.9564549871, 63235.23083153139, -60291.12610711171, 79431.12604989125, -77431.89661883075, 91908.5403571773, -128303.39411537578, -0.03, 0.936, -0.166, 192.0, 0.0, 0.0, 0.0, 0.0, 0.0, 0.0, 0.0, 0.0, 0.0, 1.6664083923602114E9, 0.0, 2022-10-21 20:13:12.360
92.0, -157846.43236952214, -169519.9214839842, 63241.28815427878, -60278.20679881654, 79437.56335229437, -77419.37964193578, 91921.83964512822, -128288.88783322429, -0.03, 0.936, -0.166, 192.0, 0.0, 0.0, 0.0, 0.0, 0.0, 0.0, 0.0, 0.0, 0.0, 1.6664083923602204E9, 0.0, 2022-10-21 20:13:12.360
93.0, -157851.8638434248, -169523.3636526303, 63237.44365423246, -60271.81419990232, 79441.67607327415, -77393.40691487872, 91968.89006720664, -128292.57587105941, -0.03, 0.936, -0.166, 192.0, 0.0, 0.0, 0.0, 0.0, 0.0, 0.0, 0.0, 0.0, 0.0, 1.6664083923602293E9, 0.0, 2022-10-21 20:13:12.360
94.0, -157850.52273875749, -169521.9554927296, 63239.74588391136, -60279.54790348386, 79436.04343367141, -77388.82480726538, 91970.58879978524, -128288.86548147984, -0.03, 0.936, -0.166, 192.0, 0.0, 0.0, 0.0, 0.0, 0.0, 0.0, 0.0, 0.0, 0.0, 1.666408392360248E9, 0.0, 2022-10-21 20:13:12.360
95.0, -157845.87357591078, -169514.98174845957, 63247.01020085934, -60276.59747321576, 79436.78104123844, -77406.08035398489, 91930.4450667435, -128280.9306121982, -0.03, 0.936, -0.166, 192.0, 0.0, 0.0, 0.0, 0.0, 0.0, 0.0, 0.0, 0.0, 0.0, 1.666408392360257E9, 0.0, 2022-10-21 20:13:12.360
96.0, -157852.19911959162, -169521.57551307388, 63241.77989265679, -60270.875426635204, 79438.63623602822, -77412.6741185992, 91922.97958409543, -128288.64196403528, -0.03, 0.936, -0.166, 192.0, 0.0, 0.0, 0.0, 0.0, 0.0, 0.0, 0.0, 0.0, 0.0, 1.6664083923602655E9, 0.0, 2022-10-21 20:13:12.360
97.0, -157851.34975330232, -169524.07890845288, 63242.11516882363, -60265.80158064385, 79438.68093951714, -77387.05901945342, 91966.94546543903, -128285.60212678935, -0.03, 0.936, -0.166, 192.0, 0.0, 0.0, 0.0, 0.0, 0.0, 0.0, 0.0, 0.0, 0.0, 1.6664083923602743E9, 0.0, 2022-10-21 20:13:12.360
98.0, -157843.72780844304, -169519.5638560729, 63245.311468280735, -60271.21070280203, 79436.22224762705, -77379.97351646108, 91975.99792194342, -128280.59533603137, -0.03, 0.936, -0.166, 192.0, 0.0, 0.0, 0.0, 0.0, 0.0, 0.0, 0.0, 0.0, 0.0, 1.6664083923602831E9, 0.0, 2022-10-21 20:13:12.360
99.0, -157845.29243055492, -169519.1168211838, 63243.94801186896, -60276.99980461595, 79434.38940458171, -77407.95790051912, 91934.31191853428, -128286.07151342291, -0.03, 0.9400000000000001, -0.17, 192.0, 255.0, 16.0, 29.0, 96.0, 250.0, 176.0, 0.0, 0.0, 0.0, 1.6664083923602922E9, 0.0, 2022-10-21 20:13:12.360
100.0, -157849.04752362342, -169522.69310029663, 63242.38338975709, -60271.724792924506, 79434.92584644865, -77423.17943849319, 91917.39164798161, -128286.98793494559, -0.03, 0.9400000000000001, -0.17, 192.0, 0.0, 0.0, 0.0, 0.0, 0.0, 0.0, 0.0, 0.0, 0.0, 1.6664083923603015E9, 0.0, 2022-10-21 20:13:12.360
101.0, -157850.6121457353, -169526.2693794095, 63240.66230543403, -60264.25931027643, 79435.97637843805, -77396.29028991345, 91957.33421532324, -128289.44662683566, -0.03, 0.9400000000000001, -0.17, 192.0, 0.0, 0.0, 0.0, 0.0, 0.0, 0.0, 0.0, 0.0, 0.0, 1.6664083923603108E9, 0.0, 2022-10-21 20:13:12.360
102.0, -157854.88132892625, -169530.89619051173, 63234.44852047545, -60271.9259586246, 79429.2932068459, -77391.10468519983, 91966.76665148338, -128300.46603685213, -0.03, 0.9400000000000001, -0.17, 192.0, 0.0, 0.0, 0.0, 0.0, 0.0, 0.0, 0.0, 0.0, 0.0, 1.6664083923603196E9, 0.0, 2022-10-21 20:13:12.360
103.0, -157851.8191399359, -169524.5706468309, 63239.34355251116, -60277.089211593775, 79427.21449461157, -77415.69160410066, 91929.55099696529, -128301.04718220797, -0.03, 0.9400000000000001, -0.17, 192.0, 0.0, 0.0, 0.0, 0.0, 0.0, 0.0, 0.0, 0.0, 0.0, 1.6664083923603284E9, 0.0, 2022-10-21 20:13:12.360
104.0, -157847.77347418948, -169519.69796653962, 63244.3279915247, -60275.36812727072, 79430.81312546888, -77426.12986876129, 91909.7920548668, -128294.98985946059, -0.03, 0.9400000000000001, -0.17, 192.0, 0.0, 0.0, 0.0, 0.0, 0.0, 0.0, 0.0, 0.0, 0.0, 1.6664083923603373E9, 0.0, 2022-10-21 20:13:12.360
105.0, -157847.72877070055, -169522.29076889643, 63245.713799680925, -60269.02023184541, 79429.98611092403, -77407.80143830794, 91945.7560116954, -128291.95002221466, -0.03, 0.9400000000000001, -0.17, 192.0, 0.0, 0.0, 0.0, 0.0, 0.0, 0.0, 0.0, 0.0, 0.0, 1.666408392360346E9, 0.0, 2022-10-21 20:13:12.360
106.0, -157847.4605497671, -169524.23537066404, 63246.071427592215, -60263.78992364287, 79435.48464006004, -77389.09302819884, 91974.72387250946, -128293.64875479326, -0.03, 0.9400000000000001, -0.17, 192.0, 0.0, 0.0, 0.0, 0.0, 0.0, 0.0, 0.0, 0.0, 0.0, 1.6664083923603616E9, 0.0, 2022-10-21 20:13:12.360
107.0, -157840.5538607304, -169518.7591932725, 63249.155968327046, -60263.70051666505, 79436.62457902725, -77405.25333944004, 91942.96204363849, -128296.95681297265, -0.03, 0.9400000000000001, -0.17, 192.0, 0.0, 0.0, 0.0, 0.0, 0.0, 0.0, 0.0, 0.0, 0.0, 1.666408392360403E9, 0.0, 2022-10-21 20:13:12.360
108.0, -157841.78320667543, -169518.78154501697, 63247.59134621517, -60263.56640619832, 79438.32331160585, -77420.76545009202, 91912.51896769035, -128294.92280422722, -0.03, 0.9420000000000001, -0.17200000000000001, 192.0, 255.0, 16.0, 29.0, 112.0, 250.0, 160.0, 0.0, 0.0, 0.0, 1.6664083923604443E9, 0.0, 2022-10-21 20:13:12.360
109.0, -157844.755988688, -169526.44819336513, 63245.780854914294, -60257.41967647311, 79437.51864880546, -77413.16585697721, 91936.5023894909, -128294.69928678266, -0.03, 0.9420000000000001, -0.17200000000000001, 192.0, 0.0, 0.0, 0.0, 0.0, 0.0, 0.0, 0.0, 0.0, 0.0, 1.6664083923605816E9, 0.0, 2022-10-21 20:13:12.360
110.0, -157846.52177649998, -169527.8116497769, 63246.630221203595, -60257.26321426192, 79432.57891328084, -77402.50407487203, 91965.33613983824, -128296.4874263391, -0.03, 0.9420000000000001, -0.17200000000000001, 192.0, 0.0, 0.0, 0.0, 0.0, 0.0, 0.0, 0.0, 0.0, 0.0, 1.666408392360624E9, 0.0, 2022-10-21 20:13:12.360
111.0, -157842.92314564268, -169526.78346953195, 63249.04420960477, -60254.804522371836, 79437.71981450556, -77404.8733597843, 91948.46057277448, -128296.30861238345, -0.03, 0.9420000000000001, -0.17200000000000001, 192.0, 0.0, 0.0, 0.0, 0.0, 0.0, 0.0, 0.0, 0.0, 0.0, 1.6664083923606656E9, 0.0, 2022-10-21 20:13:12.360
112.0, -157844.37600903228, -169526.3140828984, 63250.8770526501, -60259.11840905171, 79440.62554128475, -77418.64203436876, 91913.01070606837, -128295.81687400542, -0.03, 0.9420000000000001, -0.17200000000000001, 192.0, 0.0, 0.0, 0.0, 0.0, 0.0, 0.0, 0.0, 0.0, 0.0, 1.6664083923607116E9, 0.0, 2022-10-21 20:13:12.360
113.0, -157846.83470092234, -169525.8670480093, 63252.575785228706, -60250.736504880966, 79441.49725931851, -77414.50696164453, 91926.08647657472, -128296.30861238345, -0.03, 0.9420000000000001, -0.17200000000000001, 192.0, 0.0, 0.0, 0.0, 0.0, 0.0, 0.0, 0.0, 0.0, 0.0, 1.6664083923607523E9, 0.0, 2022-10-21 20:13:12.360
114.0, -157846.92410790018, -169527.05169046542, 63248.99950611586, -60249.3730484692, 79438.01038718347, -77398.25724342553, 91960.91049443609, -128301.94125198618, -0.03, 0.9420000000000001, -0.17200000000000001, 192.0, 0.0, 0.0, 0.0, 0.0, 0.0, 0.0, 0.0, 0.0, 0.0, 1.6664083923607903E9, 0.0, 2022-10-21 20:13:12.360
115.0, -157845.4041892772, -169523.90009449722, 63249.24537530487, -60254.60335667174, 79440.98316919604, -77398.07842946988, 91956.28368333384, -128304.37759213182, -0.03, 0.9420000000000001, -0.17200000000000001, 192.0, 0.0, 0.0, 0.0, 0.0, 0.0, 0.0, 0.0, 0.0, 0.0, 1.6664083923608012E9, 0.0, 2022-10-21 20:13:12.360
116.0, -157840.24093630802, -169520.92731248468, 63256.5320439973, -60253.664583404614, 79447.57693381036, -77410.28248194247, 91923.96306085147, -128298.00734496205, -0.03, 0.9420000000000001, -0.17200000000000001, 192.0, 0.0, 0.0, 0.0, 0.0, 0.0, 0.0, 0.0, 0.0, 0.0, 1.666408392360812E9, 0.0, 2022-10-21 20:13:12.360
117.0, -157842.8113869204, -169524.771812531, 63256.75556144185, -60241.25936523192, 79454.52832633595, -77398.3690021478, 91935.38480226813, -128292.77703675951, -0.03, 0.9420000000000001, -0.17200000000000001, 192.0, 0.0, 0.0, 0.0, 0.0, 0.0, 0.0, 0.0, 0.0, 0.0, 1.6664083923608232E9, 0.0, 2022-10-21 20:13:12.360
118.0, -157841.22441306408, -169522.1566584297, 63258.52134925382, -60237.191347741056, 79446.66051228768, -77378.9676879606, 91972.3098841083, -128293.1793681597, -0.034, 0.9400000000000001, -0.178, 192.0, 254.0, 240.0, 29.0, 96.0, 250.0, 112.0, 0.0, 0.0, 0.0, 1.6664083923608344E9, 0.0, 2022-10-21 20:13:12.360
119.0, -157839.88330839673, -169522.00019621852, 63260.30948881024, -60243.36042921072, 79440.96081745157, -77386.88020549777, 91965.47025030498, -128297.76147577305, -0.034, 0.9400000000000001, -0.178, 192.0, 0.0, 0.0, 0.0, 0.0, 0.0, 0.0, 0.0, 0.0, 0.0, 1.666408392360846E9, 0.0, 2022-10-21 20:13:12.360
120.0, -157837.4469682511, -169520.256760151, 63261.91881441102, -60246.4226182011, 79441.76548025197, -77409.79074356446, 91925.39357249661, -128296.82270250592, -0.034, 0.9400000000000001, -0.178, 192.0, 0.0, 0.0, 0.0, 0.0, 0.0, 0.0, 0.0, 0.0, 0.0, 1.6664083923608572E9, 0.0, 2022-10-21 20:13:12.360
121.0, -157835.18944206112, -169517.35103337181, 63265.651555735065, -60238.241879730456, 79445.18529715363, -77411.8247523099, 91920.74440964991, -128288.776074502, -0.034, 0.9400000000000001, -0.178, 192.0, 0.0, 0.0, 0.0, 0.0, 0.0, 0.0, 0.0, 0.0, 0.0, 1.666408392360868E9, 0.0, 2022-10-21 20:13:12.360
122.0, -157838.22927930707, -169515.78641125996, 63264.84689293467, -60228.60827787022, 79448.58276231083, -77388.82480726538, 91963.99503517093, -128285.8256442339, -0.034, 0.9400000000000001, -0.178, 192.0, 0.0, 0.0, 0.0, 0.0, 0.0, 0.0, 0.0, 0.0, 0.0, 1.6664083923608792E9, 0.0, 2022-10-21 20:13:12.360
123.0, -157843.9066223987, -169523.29659739693, 63254.96742188543, -60237.83954833026, 79444.6041517978, -77391.66347881121, 91970.8123172298, -128298.29791763997, -0.034, 0.9400000000000001, -0.178, 192.0, 0.0, 0.0, 0.0, 0.0, 0.0, 0.0, 0.0, 0.0, 0.0, 1.6664083923608902E9, 0.0, 2022-10-21 20:13:12.360
124.0, -157846.7005904556, -169526.60465557632, 63249.200671815954, -60253.08343804878, 79437.74216625001, -77416.58567387887, 91927.56169170878, -128306.16573168823, -0.034, 0.9400000000000001, -0.178, 192.0, 0.0, 0.0, 0.0, 0.0, 0.0, 0.0, 0.0, 0.0, 0.0, 1.6664083923609118E9, 0.0, 2022-10-21 20:13:12.360
125.0, -157843.8619189098, -169518.13334442777, 63252.39697127307, -60250.043600802856, 79438.36801509476, -77427.98506355108, 91911.08845604521, -128300.37662987431, -0.034, 0.9400000000000001, -0.178, 192.0, 0.0, 0.0, 0.0, 0.0, 0.0, 0.0, 0.0, 0.0, 0.0, 1.6664083923609228E9, 0.0, 2022-10-21 20:13:12.360
126.0, -157847.77347418948, -169520.52498108448, 63248.50776773784, -60239.694743120046, 79440.31261686237, -77404.64984233974, 91951.70157572051, -128293.20171990416, -0.034, 0.9400000000000001, -0.178, 192.0, 0.0, 0.0, 0.0, 0.0, 0.0, 0.0, 0.0, 0.0, 0.0, 1.6664083923609335E9, 0.0, 2022-10-21 20:13:12.360
127.0, -157853.24965158102, -169528.4151468772, 63245.937317125485, -60244.18744375557, 79445.40881459818, -77375.14553965874, 91982.43522434655, -128293.84992049336, -0.034, 0.9400000000000001, -0.178, 192.0, 0.0, 0.0, 0.0, 0.0, 0.0, 0.0, 0.0, 0.0, 0.0, 1.6664083923609447E9, 0.0, 2022-10-21 20:13:12.360
128.0, -157846.767645689, -169524.54829508642, 63257.20259633096, -60241.795807098846, 79449.99092221152, -77385.91908048619, 91953.71323272148, -128295.41454260524, -0.032, 0.9420000000000001, -0.178, 192.0, 255.0, 0.0, 29.0, 112.0, 250.0, 112.0, 0.0, 0.0, 0.0, 1.6664083923609557E9, 0.0, 2022-10-21 20:13:12.360
129.0, -157846.2088520776, -169522.38017587428, 63263.43873303399, -60235.60437388473, 79454.12599493576, -77401.766467305, 91929.41688649857, -128288.23963263509, -0.032, 0.9420000000000001, -0.178, 192.0, 0.0, 0.0, 0.0, 0.0, 0.0, 0.0, 0.0, 0.0, 0.0, 1.6664083923609672E9, 0.0, 2022-10-21 20:13:12.360
130.0, -157856.44595103813, -169532.84079227934, 63251.99463987287, -60232.832757572265, 79449.61094255578, -77391.01527822201, 91955.23315134444, -128293.80521700445, -0.032, 0.9420000000000001, -0.178, 192.0, 0.0, 0.0, 0.0, 0.0, 0.0, 0.0, 0.0, 0.0, 0.0, 1.666408392360978E9, 0.0, 2022-10-21 20:13:12.360
131.0, -157861.07276214036, -169540.30627492742, 63243.43392174649, -60241.63934488766, 79442.83836398582, -77381.78400776196, 91978.2107446445, -128302.92472874222, -0.032, 0.9420000000000001, -0.178, 192.0, 0.0, 0.0, 0.0, 0.0, 0.0, 0.0, 0.0, 0.0, 0.0, 1.6664083923609889E9, 0.0, 2022-10-21 20:13:12.360
132.0, -157854.70251497062, -169533.511344613, 63250.94410788347, -60244.366257711205, 79444.62650354225, -77394.72566780158, 91951.81333444278, -128299.99665021857, -0.032, 0.9420000000000001, -0.178, 192.0, 0.0, 0.0, 0.0, 0.0, 0.0, 0.0, 0.0, 0.0, 0.0, 1.6664083923609998E9, 0.0, 2022-10-21 20:13:12.360
133.0, -157853.33905855883, -169531.03030097848, 63252.95576488445, -60242.04167628785, 79447.80045125491, -77416.92095004571, 91917.01166832587, -128297.20268216166, -0.032, 0.9420000000000001, -0.178, 192.0, 0.0, 0.0, 0.0, 0.0, 0.0, 0.0, 0.0, 0.0, 0.0, 1.6664083923610108E9, 0.0, 2022-10-21 20:13:12.361
134.0, -157857.78705570544, -169534.45011788013, 63250.36296252763, -60233.59271688375, 79447.24165764352, -77402.28055742748, 91941.41977327106, -128291.19006290319, -0.032, 0.9420000000000001, -0.178, 192.0, 0.0, 0.0, 0.0, 0.0, 0.0, 0.0, 0.0, 0.0, 0.0, 1.6664083923610227E9, 0.0, 2022-10-21 20:13:12.361
135.0, -157863.15147437472, -169539.5239638715, 63248.306602037745, -60232.94451629455, 79449.85681174479, -77378.3194873714, 91983.77632901387, -128287.12204541231, -0.032, 0.9420000000000001, -0.178, 192.0, 0.0, 0.0, 0.0, 0.0, 0.0, 0.0, 0.0, 0.0, 0.0, 1.666408392361034E9, 0.0, 2022-10-21 20:13:12.361
136.0, -157862.30210808542, -169541.2226964501, 63247.63604970409, -60241.8181588433, 79444.78296575343, -77395.46327536862, 91964.82204971577, -128288.9325367132, -0.032, 0.9420000000000001, -0.178, 192.0, 0.0, 0.0, 0.0, 0.0, 0.0, 0.0, 0.0, 0.0, 0.0, 1.6664083923610446E9, 0.0, 2022-10-21 20:13:12.361
137.0, -157863.62086100827, -169541.20034470563, 63248.1277880821, -60244.366257711205, 79443.88889597522, -77410.95303427614, 91929.32747952074, -128293.35818211535, -0.032, 0.9420000000000001, -0.178, 192.0, 0.0, 0.0, 0.0, 0.0, 0.0, 0.0, 0.0, 0.0, 0.0, 1.6664083923610554E9, 0.0, 2022-10-21 20:13:12.361
138.0, -157867.84534071034, -169543.70374008463, 63246.85373864815, -60242.44400768805, 79442.748957008, -77407.4661621411, 91938.13406683614, -128294.40871410475, -0.028, 0.9420000000000001, -0.178, 192.0, 255.0, 32.0, 29.0, 112.0, 250.0, 112.0, 0.0, 0.0, 0.0, 1.6664083923610673E9, 0.0, 2022-10-21 20:13:12.361
139.0, -157875.66845126968, -169553.53850764496, 63241.109340323135, -60242.73458036597, 79445.0511866869, -77385.18147291917, 91979.14951791162, -128294.11814142682, -0.028, 0.9420000000000001, -0.178, 192.0, 0.0, 0.0, 0.0, 0.0, 0.0, 0.0, 0.0, 0.0, 0.0, 1.66640839236109E9, 0.0, 2022-10-21 20:13:12.361
140.0, -157880.27291062748, -169555.93014430167, 63241.84694789016, -60247.20492925703, 79444.73826226452, -77379.68294378316, 91977.7637097554, -128293.84992049336, -0.028, 0.9420000000000001, -0.178, 192.0, 0.0, 0.0, 0.0, 0.0, 0.0, 0.0, 0.0, 0.0, 0.0, 1.666408392361101E9, 0.0, 2022-10-21 20:13:12.361
141.0, -157875.60139603633, -169551.39274017725, 63241.98105835689, -60254.022211315896, 79438.65858777269, -77405.25333944004, 91930.51212197688, -128294.20754840465, -0.028, 0.9420000000000001, -0.178, 192.0, 0.0, 0.0, 0.0, 0.0, 0.0, 0.0, 0.0, 0.0, 0.0, 1.6664083923611128E9, 0.0, 2022-10-21 20:13:12.361
142.0, -157885.48086708557, -169560.53460365947, 63236.95191585445, -60254.78217062738, 79438.32331160585, -77404.4710283841, 91931.696764433, -128297.3367926284, -0.028, 0.9420000000000001, -0.178, 192.0, 0.0, 0.0, 0.0, 0.0, 0.0, 0.0, 0.0, 0.0, 0.0, 1.6664083923611236E9, 0.0, 2022-10-21 20:13:12.361
143.0, -157887.20195140864, -169565.6755048842, 63243.52332872431, -60240.40999894262, 79438.7479947505, -77377.24660363754, 91977.31667486629, -128290.78773150299, -0.028, 0.9420000000000001, -0.178, 192.0, 0.0, 0.0, 0.0, 0.0, 0.0, 0.0, 0.0, 0.0, 0.0, 1.6664083923611417E9, 0.0, 2022-10-21 20:13:12.361
144.0, -157889.14655317625, -169569.34119097487, 63245.95966886994, -60238.30893496382, 79438.34566335031, -77382.43220835117, 91975.14855565412, -128291.59239430338, -0.028, 0.9420000000000001, -0.178, 192.0, 0.0, 0.0, 0.0, 0.0, 0.0, 0.0, 0.0, 0.0, 0.0, 1.6664083923611512E9, 0.0, 2022-10-21 20:13:12.361
145.0, -157890.80058226595, -169572.0681037984, 63239.83529088918, -60247.89783333515, 79434.52351504845, -77409.9695575201, 91931.16032256608, -128300.60014731887, -0.028, 0.9420000000000001, -0.178, 192.0, 0.0, 0.0, 0.0, 0.0, 0.0, 0.0, 0.0, 0.0, 0.0, 1.6664083923611605E9, 0.0, 2022-10-21 20:13:12.361
146.0, -157893.7733642785, -169572.3139729874, 63237.84598563266, -60245.081513533776, 79437.8986284612, -77412.69647034365, 91922.75606665088, -128294.36401061584, -0.028, 0.9420000000000001, -0.178, 192.0, 0.0, 0.0, 0.0, 0.0, 0.0, 0.0, 0.0, 0.0, 0.0, 1.66640839236117E9, 0.0, 2022-10-21 20:13:12.361
147.0, -157903.3622626498, -169578.79597887947, 63228.68177040599, -60245.12621702269, 79435.12701214875, -77398.19018819215, 91958.76472696838, -128299.72842928511, -0.028, 0.9420000000000001, -0.17, 192.0, 255.0, 32.0, 29.0, 112.0, 250.0, 176.0, 0.0, 0.0, 0.0, 1.666408392361179E9, 0.0, 2022-10-21 20:13:12.361
148.0, -157909.6654545862, -169581.50053995856, 63228.70412215044, -60248.7695513689, 79436.1551923937, -77386.96961247559, 91972.46634631949, -128304.31053689845, -0.028, 0.9420000000000001, -0.17, 192.0, 0.0, 0.0, 0.0, 0.0, 0.0, 0.0, 0.0, 0.0, 0.0, 1.6664083923611891E9, 0.0, 2022-10-21 20:13:12.361
149.0, -157914.44872789964, -169588.25076678407, 63231.922773352, -60250.4235804586, 79437.29513136091, -77402.90640627223, 91938.78226742534, -128302.07536245292, -0.028, 0.9420000000000001, -0.17, 192.0, 0.0, 0.0, 0.0, 0.0, 0.0, 0.0, 0.0, 0.0, 0.0, 1.666408392361199E9, 0.0, 2022-10-21 20:13:12.361
150.0, -157927.70331236164, -169604.1875605807, 63230.08993030667, -60250.82591185879, 79437.56335229437, -77412.6741185992, 91915.71526714746, -128302.05301070846, -0.028, 0.9420000000000001, -0.17, 192.0, 0.0, 0.0, 0.0, 0.0, 0.0, 0.0, 0.0, 0.0, 0.0, 1.6664083923612084E9, 0.0, 2022-10-21 20:13:12.361
151.0, -157942.05313230195, -169617.41979329824, 63227.072444805206, -60244.723885622494, 79442.16781165217, -77387.64016480926, 91954.2049710995, -128299.01317346255, -0.028, 0.9420000000000001, -0.17, 192.0, 0.0, 0.0, 0.0, 0.0, 0.0, 0.0, 0.0, 0.0, 0.0, 1.6664083923612175E9, 0.0, 2022-10-21 20:13:12.361
152.0, -157950.7256091506, -169625.53347653552, 63226.781872127285, -60249.26128974692, 79439.37384359525, -77376.97838270407, 91978.18839290005, -128301.49421709708, -0.028, 0.9420000000000001, -0.17, 192.0, 0.0, 0.0, 0.0, 0.0, 0.0, 0.0, 0.0, 0.0, 0.0, 1.6664083923612282E9, 0.0, 2022-10-21 20:13:12.361
153.0, -157947.84223411587, -169623.76768872354, 63229.285267506275, -60253.172845026595, 79435.93167494914, -77401.766467305, 91944.01257562787, -128303.23765316459, -0.028, 0.9420000000000001, -0.17, 192.0, 0.0, 0.0, 0.0, 0.0, 0.0, 0.0, 0.0, 0.0, 0.0, 1.666408392361238E9, 0.0, 2022-10-21 20:13:12.361
154.0, -157949.98800158358, -169625.89110444678, 63230.15698554004, -60252.345830481754, 79434.83643947082, -77423.84999082684, 91910.41790371155, -128299.59431881837, -0.028, 0.9420000000000001, -0.17, 192.0, 0.0, 0.0, 0.0, 0.0, 0.0, 0.0, 0.0, 0.0, 0.0, 1.6664083923612576E9, 0.0, 2022-10-21 20:13:12.361
155.0, -157958.6828301767, -169637.1340319078, 63227.63123841659, -60247.58490891277, 79436.75868949399, -77401.02885973798, 91942.98439538294, -128292.77703675951, -0.028, 0.9420000000000001, -0.17, 192.0, 0.0, 0.0, 0.0, 0.0, 0.0, 0.0, 0.0, 0.0, 0.0, 1.6664083923612683E9, 0.0, 2022-10-21 20:13:12.361
156.0, -157966.9753273696, -169644.80068025598, 63224.99373257086, -60250.44593220305, 79435.03760517092, -77379.34766761633, 91977.65195103311, -128298.87906299581, -0.028, 0.9420000000000001, -0.17, 192.0, 0.0, 0.0, 0.0, 0.0, 0.0, 0.0, 0.0, 0.0, 0.0, 1.6664083923612778E9, 0.0, 2022-10-21 20:13:12.361
157.0, -157968.91992913722, -169642.8337267439, 63225.574877926694, -60255.698592150045, 79433.0482999144, -77398.23489168107, 91949.98049139745, -128304.82462702092, -0.032, 0.9460000000000001, -0.17200000000000001, 192.0, 255.0, 0.0, 29.0, 144.0, 250.0, 160.0, 0.0, 0.0, 0.0, 1.666408392361287E9, 0.0, 2022-10-21 20:13:12.361
158.0, -157978.26295831954, -169651.5509070815, 63223.071482547704, -60263.320537009306, 79429.13674463473, -77425.59342689437, 91910.93199383402, -128309.11616195634, -0.032, 0.9460000000000001, -0.17200000000000001, 192.0, 0.0, 0.0, 0.0, 0.0, 0.0, 0.0, 0.0, 0.0, 0.0, 1.666408392361298E9, 0.0, 2022-10-21 20:13:12.361
159.0, -157989.37177531383, -169662.32444790893, 63218.75759586783, -60257.12910379519, 79428.13091613424, -77417.34563319036, 91925.41592424107, -128311.10546721287, -0.032, 0.9460000000000001, -0.17200000000000001, 192.0, 0.0, 0.0, 0.0, 0.0, 0.0, 0.0, 0.0, 0.0, 0.0, 1.6664083923613071E9, 0.0, 2022-10-21 20:13:12.361
160.0, -158003.11809815385, -169675.7578463266, 63210.82272658619, -60261.95708059753, 79420.48661953052, -77406.88501678527, 91955.99311065592, -128318.034507994, -0.032, 0.9460000000000001, -0.17200000000000001, 192.0, 0.0, 0.0, 0.0, 0.0, 0.0, 0.0, 0.0, 0.0, 0.0, 1.6664083923613164E9, 0.0, 2022-10-21 20:13:12.361
161.0, -158009.86832497935, -169682.30690745197, 63217.30473247823, -60261.73356315298, 79425.78398296643, -77391.88699625577, 91950.96396815348, -128309.96552824564, -0.032, 0.9460000000000001, -0.17200000000000001, 192.0, 0.0, 0.0, 0.0, 0.0, 0.0, 0.0, 0.0, 0.0, 0.0, 1.6664083923613257E9, 0.0, 2022-10-21 20:13:12.361
162.0, -158010.65063603528, -169687.24664297662, 63223.496165692355, -60260.3254032523, 79431.01429116896, -77409.09783948635, 91910.9990490674, -128308.19974043367, -0.032, 0.9460000000000001, -0.17200000000000001, 192.0, 0.0, 0.0, 0.0, 0.0, 0.0, 0.0, 0.0, 0.0, 0.0, 1.6664083923613353E9, 0.0, 2022-10-21 20:13:12.361
163.0, -158019.9489617287, -169695.22621574716, 63212.81203184272, -60263.052316075846, 79427.66152950068, -77413.90346454424, 91913.16716827956, -128311.32898465742, -0.032, 0.9460000000000001, -0.17200000000000001, 192.0, 0.0, 0.0, 0.0, 0.0, 0.0, 0.0, 0.0, 0.0, 0.0, 1.6664083923613443E9, 0.0, 2022-10-21 20:13:12.361
164.0, -158020.70892104018, -169693.54983491302, 63212.81203184272, -60260.951252097046, 79423.21353235407, -77394.79272303495, 91953.69088097702, -128310.92665325722, -0.032, 0.9460000000000001, -0.17200000000000001, 192.0, 0.0, 0.0, 0.0, 0.0, 0.0, 0.0, 0.0, 0.0, 0.0, 1.6664083923613536E9, 0.0, 2022-10-21 20:13:12.361
165.0, -158022.4523571077, -169691.47112267866, 63213.348473709644, -60262.35941199773, 79419.95017766359, -77400.7159353156, 91947.87942741865, -128317.9898045051, -0.032, 0.9460000000000001, -0.17200000000000001, 192.0, 0.0, 0.0, 0.0, 0.0, 0.0, 0.0, 0.0, 0.0, 0.0, 1.6664083923613636E9, 0.0, 2022-10-21 20:13:12.361
166.0, -158020.26188615107, -169691.60523314538, 63217.75176736734, -60259.94542359655, 79424.75580272148, -77414.35049943335, 91914.32945899123, -128311.82072303543, -0.032, 0.9460000000000001, -0.17200000000000001, 192.0, 0.0, 0.0, 0.0, 0.0, 0.0, 0.0, 0.0, 0.0, 0.0, 1.6664083923613727E9, 0.0, 2022-10-21 20:13:12.361
167.0, -158023.41348211927, -169692.47695117915, 63220.344569724155, -60250.62474615869, 79429.56142777938, -77412.20473196564, 91911.98252582342, -128302.99178397558, -0.036000000000000004, 0.9440000000000001, -0.168, 192.0, 254.0, 224.0, 29.0, 128.0, 250.0, 192.0, 0.0, 0.0, 0.0, 1.6664083923613825E9, 0.0, 2022-10-21 20:13:12.361
168.0, -158035.52812761406, -169701.32824198346, 63213.706101620926, -60246.042638545354, 79430.47784930204, -77391.14938868873, 91952.5062385209, -128305.96456598814, -0.036000000000000004, 0.9440000000000001, -0.168, 192.0, 0.0, 0.0, 0.0, 0.0, 0.0, 0.0, 0.0, 0.0, 0.0, 1.6664083923613923E9, 0.0, 2022-10-21 20:13:12.361
169.0, -158041.22782245016, -169705.12803854086, 63208.85577307413, -60255.139798538665, 79425.18048586613, -77390.09885669933, 91958.54120952383, -128312.02188873553, -0.036000000000000004, 0.9440000000000001, -0.168, 192.0, 0.0, 0.0, 0.0, 0.0, 0.0, 0.0, 0.0, 0.0, 0.0, 1.6664083923614342E9, 0.0, 2022-10-21 20:13:12.361
170.0, -158041.4960433836, -169704.0998582959, 63214.264895232314, -60260.88419686368, 79424.66639574365, -77413.56818837741, 91918.66569741556, -128312.80419979147, -0.036000000000000004, 0.9440000000000001, -0.168, 192.0, 0.0, 0.0, 0.0, 0.0, 0.0, 0.0, 0.0, 0.0, 0.0, 1.666408392361444E9, 0.0, 2022-10-21 20:13:12.361
0.0, 0.0, 0.0, 0.0, 0.0, 0.0, 0.0, 0.0, 0.0, -0.036000000000000004, 0.9440000000000001, -0.168, 192.0, 0.0, 0.0, 0.0, 0.0, 0.0, 0.0, 0.0, 0.0, 0.0, 1.6664083924343183E9, 0.0, 2022-10-21 20:13:12.434
1.0, -158210.5422866991, -169878.37640981394, 63245.736151425386, -60431.606821013316, 79400.61591870975, -77389.83063576587, 91881.02535975282, -128341.95087456118, -0.034, 0.9480000000000001, -0.178, 192.0, 254.0, 240.0, 29.0, 160.0, 250.0, 112.0, 0.0, 0.0, 0.0, 1.666408392450301E9, 0.0, 2022-10-21 20:13:12.450
2.0, -158208.97766458723, -169874.91188942338, 63246.58551771469, -60434.22197511458, 79397.75489541946, -77396.04442072444, 91870.27417066981, -128339.00044429308, -0.034, 0.9480000000000001, -0.178, 192.0, 0.0, 0.0, 0.0, 0.0, 0.0, 0.0, 0.0, 0.0, 0.0, 1.6664083929272275E9, 0.0, 2022-10-21 20:13:12.927
3.0, -158205.93782734132, -169869.88274692092, 63246.630221203595, -60434.110216392306, 79387.9871830925, -77380.95699321711, 91905.65698214257, -128333.70308085717, -0.034, 0.9480000000000001, -0.178, 192.0, 0.0, 0.0, 0.0, 0.0, 0.0, 0.0, 0.0, 0.0, 0.0, 1.6664083929272983E9, 0.0, 2022-10-21 20:13:12.927
4.0, -158205.42373721884, -169868.58634574251, 63243.79154965777, -60436.68066700467, 79386.62372668073, -77365.62369652078, 91926.17588355254, -128335.31240645796, -0.034, 0.9480000000000001, -0.178, 192.0, 0.0, 0.0, 0.0, 0.0, 0.0, 0.0, 0.0, 0.0, 0.0, 1.666408392927346E9, 0.0, 2022-10-21 20:13:12.927
5.0, -158208.28476050912, -169872.22968008873, 63238.382427499586, -60448.52709156598, 79376.31957248683, -77388.84715900983, 91886.61329586666, -128342.84494433939, -0.034, 0.9480000000000001, -0.178, 192.0, 0.0, 0.0, 0.0, 0.0, 0.0, 0.0, 0.0, 0.0, 0.0, 1.6664083929273696E9, 0.0, 2022-10-21 20:13:12.927
6.0, -158209.08942330952, -169874.88953767892, 63230.8722413626, -60453.24330964605, 79363.62378163621, -77420.69839485866, 91848.34710935917, -128348.90226708679, -0.034, 0.9480000000000001, -0.178, 192.0, 0.0, 0.0, 0.0, 0.0, 0.0, 0.0, 0.0, 0.0, 0.0, 1.6664083929273837E9, 0.0, 2022-10-21 20:13:12.927
7.0, -158209.26823726515, -169878.3093545806, 63231.09575880716, -60446.20251014263, 79362.26032522444, -77398.92779575918, 91882.74644407588, -128342.26379898356, -0.034, 0.9480000000000001, -0.178, 192.0, 0.0, 0.0, 0.0, 0.0, 0.0, 0.0, 0.0, 0.0, 0.0, 1.6664083929273975E9, 0.0, 2022-10-21 20:13:12.927
8.0, -158214.45384197877, -169887.71943899625, 63229.06175006172, -60448.8176642439, 79366.99889504896, -77372.77625474647, 91918.28571775982, -128343.71666237316, -0.028, 0.9460000000000001, -0.18, 192.0, 255.0, 32.0, 29.0, 144.0, 250.0, 96.0, 0.0, 0.0, 0.0, 1.6664083929274113E9, 0.0, 2022-10-21 20:13:12.927
9.0, -158210.92226635484, -169886.26657560666, 63230.358151240136, -60458.94300448216, 79358.2817147114, -77398.19018819215, 91885.94274353299, -128349.796336865, -0.028, 0.9460000000000001, -0.18, 192.0, 0.0, 0.0, 0.0, 0.0, 0.0, 0.0, 0.0, 0.0, 0.0, 1.6664083929274268E9, 0.0, 2022-10-21 20:13:12.927
10.0, -158202.62976916193, -169879.09166563652, 63236.7283984099, -60452.12572242328, 79361.76858684643, -77420.87720881429, 91850.82815299371, -128346.57768566343, -0.028, 0.9460000000000001, -0.18, 192.0, 0.0, 0.0, 0.0, 0.0, 0.0, 0.0, 0.0, 0.0, 0.0, 1.6664083929274404E9, 0.0, 2022-10-21 20:13:12.927
11.0, -158207.74831864217, -169880.52217728164, 63237.7789303993, -60440.79338798444, 79370.61987765072, -77399.6206998373, 91881.11476673065, -128342.39790945029, -0.028, 0.9460000000000001, -0.18, 192.0, 0.0, 0.0, 0.0, 0.0, 0.0, 0.0, 0.0, 0.0, 0.0, 1.6664083929274542E9, 0.0, 2022-10-21 20:13:12.927
12.0, -158208.21770527575, -169877.66115399136, 63242.40574150154, -60439.65344901723, 79377.05718005386, -77373.04447567994, 91926.15353180809, -128336.13942100281, -0.028, 0.9460000000000001, -0.18, 192.0, 0.0, 0.0, 0.0, 0.0, 0.0, 0.0, 0.0, 0.0, 0.0, 1.6664083929274683E9, 0.0, 2022-10-21 20:13:12.927
13.0, -158204.82024011854, -169874.12957836743, 63245.177357814, -60445.576661297884, 79377.50421494296, -77384.0638856964, 91910.32849673372, -128336.9440838032, -0.028, 0.9460000000000001, -0.18, 192.0, 0.0, 0.0, 0.0, 0.0, 0.0, 0.0, 0.0, 0.0, 0.0, 1.6664083929275491E9, 0.0, 2022-10-21 20:13:12.927
14.0, -158201.6462924059, -169872.67671497783, 63247.390180515074, -60443.09561766334, 79379.67233415513, -77407.8684935413, 91871.10118521466, -128340.18508674922, -0.028, 0.9460000000000001, -0.18, 192.0, 0.0, 0.0, 0.0, 0.0, 0.0, 0.0, 0.0, 0.0, 0.0, 1.666408392927564E9, 0.0, 2022-10-21 20:13:12.927
15.0, -158209.84938262097, -169881.57270927104, 63243.00923860184, -60433.2161466141, 79389.12712205973, -77392.78106603397, 91891.2401069689, -128337.90520881477, -0.028, 0.9460000000000001, -0.18, 192.0, 0.0, 0.0, 0.0, 0.0, 0.0, 0.0, 0.0, 0.0, 0.0, 1.666408392927578E9, 0.0, 2022-10-21 20:13:12.927
16.0, -158211.10108031047, -169884.2549186057, 63244.48445373589, -60430.73510297956, 79389.17182554863, -77364.52846104247, 91932.36731676666, -128336.60880763637, -0.028, 0.9460000000000001, -0.18, 192.0, 0.0, 0.0, 0.0, 0.0, 0.0, 0.0, 0.0, 0.0, 0.0, 1.666408392927592E9, 0.0, 2022-10-21 20:13:12.927
17.0, -158210.7434523992, -169885.52896803964, 63246.71962818142, -60430.04219890144, 79393.93274711761, -77367.54594654393, 91923.24780502889, -128336.49704891408, -0.032, 0.9440000000000001, -0.178, 192.0, 255.0, 0.0, 29.0, 128.0, 250.0, 112.0, 0.0, 0.0, 0.0, 1.666408392927606E9, 0.0, 2022-10-21 20:13:12.927
18.0, -158211.57046694405, -169888.47939830774, 63245.33382002519, -60436.01011467101, 79395.49736922949, -77392.28932765596, 91881.15947021956, -128341.54854316098, -0.032, 0.9440000000000001, -0.178, 192.0, 0.0, 0.0, 0.0, 0.0, 0.0, 0.0, 0.0, 0.0, 0.0, 1.666408392927622E9, 0.0, 2022-10-21 20:13:12.927
19.0, -158214.78911814562, -169892.18978788733, 63242.428093245995, -60435.719541993094, 79396.92788087463, -77393.92100500119, 91876.33149341721, -128342.17439200573, -0.032, 0.9440000000000001, -0.178, 192.0, 0.0, 0.0, 0.0, 0.0, 0.0, 0.0, 0.0, 0.0, 0.0, 1.666408392927636E9, 0.0, 2022-10-21 20:13:12.927
20.0, -158215.21380129026, -169890.602814031, 63239.142386811065, -60433.014980914, 79394.491540729, -77372.82095823539, 91911.91547059006, -128342.97905480613, -0.032, 0.9440000000000001, -0.178, 192.0, 0.0, 0.0, 0.0, 0.0, 0.0, 0.0, 0.0, 0.0, 0.0, 1.66640839292765E9, 0.0, 2022-10-21 20:13:12.927
21.0, -158216.53255421313, -169893.17326464335, 63240.77406415631, -60432.8138152139, 79397.97841286403, -77370.54108030094, 91908.0933222882, -128350.77981362103, -0.032, 0.9440000000000001, -0.178, 192.0, 0.0, 0.0, 0.0, 0.0, 0.0, 0.0, 0.0, 0.0, 0.0, 1.666408392927664E9, 0.0, 2022-10-21 20:13:12.927
22.0, -158208.30711225356, -169883.96434592776, 63253.3804480291, -60432.4114838137, 79406.2485583125, -77386.92490898668, 91871.2352956814, -128344.70013912919, -0.032, 0.9440000000000001, -0.178, 192.0, 0.0, 0.0, 0.0, 0.0, 0.0, 0.0, 0.0, 0.0, 0.0, 1.6664083929276779E9, 0.0, 2022-10-21 20:13:12.927
23.0, -158204.70848139626, -169876.43180804633, 63259.03543937629, -60427.739969222544, 79413.80344793838, -77383.46038859611, 91871.59292359269, -128330.41737442225, -0.032, 0.9440000000000001, -0.178, 192.0, 0.0, 0.0, 0.0, 0.0, 0.0, 0.0, 0.0, 0.0, 0.0, 1.6664083929276917E9, 0.0, 2022-10-21 20:13:12.927
24.0, -158212.48688846672, -169883.91964243885, 63250.92175613902, -60428.54463202294, 79410.78596243692, -77358.53819352844, 91916.72109564795, -128328.62923486582, -0.032, 0.9440000000000001, -0.178, 192.0, 0.0, 0.0, 0.0, 0.0, 0.0, 0.0, 0.0, 0.0, 0.0, 1.6664083929277053E9, 0.0, 2022-10-21 20:13:12.927
25.0, -158213.40330998937, -169885.48426455073, 63245.24441304737, -60443.743818252544, 79397.240805297, -77354.53723127094, 91926.6452701861, -128330.1938569777, -0.032, 0.9440000000000001, -0.178, 192.0, 0.0, 0.0, 0.0, 0.0, 0.0, 0.0, 0.0, 0.0, 0.0, 1.6664083929277189E9, 0.0, 2022-10-21 20:13:12.927
26.0, -158206.16134478585, -169878.01878190265, 63249.647706705066, -60455.16555966921, 79387.38368599222, -77378.9676879606, 91889.38491217911, -128327.60105462087, -0.032, 0.9440000000000001, -0.178, 192.0, 0.0, 0.0, 0.0, 0.0, 0.0, 0.0, 0.0, 0.0, 0.0, 1.6664083929277327E9, 0.0, 2022-10-21 20:13:12.927
27.0, -158207.18952503082, -169880.2986598371, 63249.60300321615, -60457.51249283701, 79379.35940973276, -77393.47397011209, 91866.45202236796, -128333.97130179065, -0.032, 0.9460000000000001, -0.176, 192.0, 255.0, 0.0, 29.0, 144.0, 250.0, 128.0, 0.0, 0.0, 0.0, 1.6664083929277525E9, 0.0, 2022-10-21 20:13:12.927
28.0, -158209.02236807614, -169881.3491918265, 63248.82069216022, -60453.28801313496, 79373.68206664111, -77373.2679931245, 91900.65019138459, -128328.27160695454, -0.032, 0.9460000000000001, -0.176, 192.0, 0.0, 0.0, 0.0, 0.0, 0.0, 0.0, 0.0, 0.0, 0.0, 1.6664083929277675E9, 0.0, 2022-10-21 20:13:12.927
29.0, -158210.16230704336, -169883.80788371657, 63244.685619435986, -60458.093638192855, 79364.87547932571, -77367.8588709663, 91917.72692414843, -128336.76526984756, -0.032, 0.9460000000000001, -0.176, 192.0, 0.0, 0.0, 0.0, 0.0, 0.0, 0.0, 0.0, 0.0, 0.0, 1.666408392927801E9, 0.0, 2022-10-21 20:13:12.927
30.0, -158208.68709190932, -169879.87397669244, 63242.11516882363, -60464.75445804054, 79356.31476119933, -77399.08425797037, 91877.940819018, -128345.25893274057, -0.032, 0.9460000000000001, -0.176, 192.0, 0.0, 0.0, 0.0, 0.0, 0.0, 0.0, 0.0, 0.0, 0.0, 1.6664083929278145E9, 0.0, 2022-10-21 20:13:12.927
31.0, -158208.08359480902, -169879.47164529224, 63239.075331577704, -60465.33560339637, 79355.19717397657, -77421.88303731478, 91845.75430700235, -128345.08011878493, -0.032, 0.9460000000000001, -0.176, 192.0, 0.0, 0.0, 0.0, 0.0, 0.0, 0.0, 0.0, 0.0, 0.0, 1.666408392927828E9, 0.0, 2022-10-21 20:13:12.927
32.0, -158210.5422866991, -169883.58436627203, 63238.69535192196, -60456.32785038088, 79361.0756827683, -77390.25531891052, 91885.80863306626, -128333.32310120143, -0.032, 0.9460000000000001, -0.176, 192.0, 0.0, 0.0, 0.0, 0.0, 0.0, 0.0, 0.0, 0.0, 0.0, 1.6664083929278417E9, 0.0, 2022-10-21 20:13:12.927
33.0, -158213.85034487848, -169885.57367152855, 63236.013142587326, -60455.54553932495, 79358.88521181169, -77373.04447567994, 91916.58698518122, -128332.6972523567, -0.032, 0.9460000000000001, -0.176, 192.0, 0.0, 0.0, 0.0, 0.0, 0.0, 0.0, 0.0, 0.0, 0.0, 1.6664083929278555E9, 0.0, 2022-10-21 20:13:12.927
34.0, -158215.05733907907, -169886.69125875132, 63237.24248853237, -60461.938138239166, 79358.34876994477, -77383.75096127403, 91893.29646745879, -128337.10054601438, -0.032, 0.9460000000000001, -0.176, 192.0, 0.0, 0.0, 0.0, 0.0, 0.0, 0.0, 0.0, 0.0, 0.0, 1.666408392927869E9, 0.0, 2022-10-21 20:13:12.927
35.0, -158207.07776630853, -169879.27047959215, 63244.23858454688, -60457.91482423721, 79370.61987765072, -77386.85785375332, 91870.45298462546, -128329.27743545502, -0.032, 0.9460000000000001, -0.176, 192.0, 0.0, 0.0, 0.0, 0.0, 0.0, 0.0, 0.0, 0.0, 0.0, 1.666408392927883E9, 0.0, 2022-10-21 20:13:12.927
36.0, -158215.12439431244, -169889.46287506376, 63239.075331577704, -60454.74087652456, 79374.75495037496, -77376.84427223734, 91892.11182500266, -128330.8420575669, -0.032, 0.9460000000000001, -0.176, 192.0, 0.0, 0.0, 0.0, 0.0, 0.0, 0.0, 0.0, 0.0, 0.0, 1.6664083929278967E9, 0.0, 2022-10-21 20:13:12.927
37.0, -158223.28278103864, -169897.97888970125, 63232.146290796554, -60460.41821961621, 79365.81425259284, -77370.18345238965, 91923.06899107326, -128339.24631348209, -0.028, 0.9380000000000001, -0.17400000000000002, 192.0, 255.0, 32.0, 29.0, 80.0, 250.0, 144.0, 0.0, 0.0, 0.0, 1.6664083929279103E9, 0.0, 2022-10-21 20:13:12.927
38.0, -158222.70163568278, -169897.15187515639, 63230.760482640326, -60467.61548133082, 79359.84633682328, -77385.96378397511, 91905.81344435376, -128346.98001706363, -0.028, 0.9380000000000001, -0.17400000000000002, 192.0, 0.0, 0.0, 0.0, 0.0, 0.0, 0.0, 0.0, 0.0, 0.0, 1.666408392927925E9, 0.0, 2022-10-21 20:13:12.927
39.0, -158217.89601062489, -169890.46870356426, 63240.03645658928, -60460.08294344938, 79369.25642123896, -77393.85394976783, 91874.05161548276, -128335.44651692468, -0.028, 0.9380000000000001, -0.17400000000000002, 192.0, 0.0, 0.0, 0.0, 0.0, 0.0, 0.0, 0.0, 0.0, 0.0, 1.6664083929279387E9, 0.0, 2022-10-21 20:13:12.927
40.0, -158219.41592924786, -169891.18395938684, 63241.55637521224, -60450.739914267055, 79377.81713936533, -77384.08623744086, 91888.44613891198, -128334.68655761321, -0.028, 0.9380000000000001, -0.17400000000000002, 192.0, 0.0, 0.0, 0.0, 0.0, 0.0, 0.0, 0.0, 0.0, 0.0, 1.6664083929279523E9, 0.0, 2022-10-21 20:13:12.927
41.0, -158219.21476354776, -169892.21213963177, 63242.98688685738, -60448.39298109925, 79377.0348283094, -77364.10377789782, 91927.6958021755, -128337.86050532587, -0.028, 0.9380000000000001, -0.17400000000000002, 192.0, 0.0, 0.0, 0.0, 0.0, 0.0, 0.0, 0.0, 0.0, 0.0, 1.666408392927966E9, 0.0, 2022-10-21 20:13:12.927
42.0, -158215.45967047926, -169891.18395938684, 63243.478625235395, -60452.34923986784, 79374.79965386387, -77376.50899607051, 91913.48009270192, -128343.11316527287, -0.028, 0.9380000000000001, -0.17400000000000002, 192.0, 0.0, 0.0, 0.0, 0.0, 0.0, 0.0, 0.0, 0.0, 0.0, 1.6664083929279797E9, 0.0, 2022-10-21 20:13:12.927
43.0, -158213.31390301156, -169890.71457275326, 63241.93635486798, -60455.47848409158, 79380.11936904423, -77404.00164175054, 91865.1332694451, -128348.05290079748, -0.028, 0.9380000000000001, -0.17400000000000002, 192.0, 0.0, 0.0, 0.0, 0.0, 0.0, 0.0, 0.0, 0.0, 0.0, 1.6664083929279933E9, 0.0, 2022-10-21 20:13:12.927
44.0, -158212.10690881097, -169889.21700587476, 63243.478625235395, -60450.80696950042, 79384.52266270193, -77401.54294986045, 91862.33930138819, -128342.19674375019, -0.028, 0.9380000000000001, -0.17400000000000002, 192.0, 0.0, 0.0, 0.0, 0.0, 0.0, 0.0, 0.0, 0.0, 0.0, 1.666408392928021E9, 0.0, 2022-10-21 20:13:12.928
45.0, -158217.96306585826, -169896.48132282274, 63239.45531123344, -60445.62136478679, 79390.44587498259, -77369.87052796729, 91907.40041821009, -128341.70500537218, -0.028, 0.9380000000000001, -0.17400000000000002, 192.0, 0.0, 0.0, 0.0, 0.0, 0.0, 0.0, 0.0, 0.0, 0.0, 1.6664083929280348E9, 0.0, 2022-10-21 20:13:12.928
46.0, -158218.58891470302, -169896.63778503393, 63239.768235655814, -60457.803065514934, 79385.17086329113, -77366.62952502126, 91910.46260720046, -128347.20353450818, -0.032, 0.9380000000000001, -0.17400000000000002, 192.0, 255.0, 0.0, 29.0, 80.0, 250.0, 144.0, 0.0, 0.0, 0.0, 1.6664083929280486E9, 0.0, 2022-10-21 20:13:12.928
47.0, -158215.63848443492, -169893.24031987673, 63240.59525020066, -60462.04989696144, 79377.83949110979, -77392.93752824517, 91867.99429273538, -128352.92558108874, -0.032, 0.9380000000000001, -0.17400000000000002, 192.0, 0.0, 0.0, 0.0, 0.0, 0.0, 0.0, 0.0, 0.0, 0.0, 1.6664083929280632E9, 0.0, 2022-10-21 20:13:12.928
48.0, -158212.24101927772, -169889.84285471952, 63246.13848282558, -60457.110161436816, 79377.4371597096, -77400.38065914878, 91858.15952517504, -128348.85756359788, -0.032, 0.9380000000000001, -0.17400000000000002, 192.0, 0.0, 0.0, 0.0, 0.0, 0.0, 0.0, 0.0, 0.0, 0.0, 1.6664083929280784E9, 0.0, 2022-10-21 20:13:12.928
49.0, -158212.10690881097, -169886.82536921804, 63248.91009913804, -60457.57954807038, 79373.1903282631, -77385.96378397511, 91894.34699944819, -128345.14717401829, -0.032, 0.9380000000000001, -0.17400000000000002, 192.0, 0.0, 0.0, 0.0, 0.0, 0.0, 0.0, 0.0, 0.0, 0.0, 1.6664083929280922E9, 0.0, 2022-10-21 20:13:12.928
50.0, -158217.42662399134, -169889.84285471952, 63247.59134621517, -60467.21314993062, 79366.99889504896, -77374.6090977918, 91909.21090951096, -128341.97322630564, -0.032, 0.9380000000000001, -0.17400000000000002, 192.0, 0.0, 0.0, 0.0, 0.0, 0.0, 0.0, 0.0, 0.0, 0.0, 1.666408392928106E9, 0.0, 2022-10-21 20:13:12.928
51.0, -158211.72692915524, -169884.36667732795, 63256.93437539749, -60463.81568477341, 79372.65388639616, -77380.01821995, 91884.86985979913, -128337.36876694785, -0.032, 0.9380000000000001, -0.17400000000000002, 192.0, 0.0, 0.0, 0.0, 0.0, 0.0, 0.0, 0.0, 0.0, 0.0, 1.666408392928122E9, 0.0, 2022-10-21 20:13:12.928
52.0, -158211.65987392186, -169886.02070641765, 63256.95672714195, -60459.278280648985, 79371.20102300656, -77390.59059507736, 91862.54046708829, -128337.01113903656, -0.032, 0.9380000000000001, -0.17400000000000002, 192.0, 0.0, 0.0, 0.0, 0.0, 0.0, 0.0, 0.0, 0.0, 0.0, 1.6664083929281359E9, 0.0, 2022-10-21 20:13:12.928
53.0, -158212.88921986692, -169888.65821226337, 63252.62048871762, -60451.92455672319, 79371.31278172885, -77372.99977219103, 91894.03407502582, -128332.5407901455, -0.032, 0.9380000000000001, -0.17400000000000002, 192.0, 0.0, 0.0, 0.0, 0.0, 0.0, 0.0, 0.0, 0.0, 0.0, 1.6664083929281497E9, 0.0, 2022-10-21 20:13:12.928
54.0, -158214.34208325652, -169888.81467447456, 63250.80999741674, -60453.06449569041, 79371.35748521776, -77364.3049435979, 91919.67152591606, -128335.93825530271, -0.032, 0.9380000000000001, -0.17400000000000002, 192.0, 0.0, 0.0, 0.0, 0.0, 0.0, 0.0, 0.0, 0.0, 0.0, 1.6664083929281635E9, 0.0, 2022-10-21 20:13:12.928
55.0, -158219.05830133657, -169893.97792744375, 63246.8760903926, -60462.63104231728, 79366.0824735263, -77383.84036825185, 91887.75323483387, -128345.12482227384, -0.032, 0.9380000000000001, -0.17400000000000002, 192.0, 0.0, 0.0, 0.0, 0.0, 0.0, 0.0, 0.0, 0.0, 0.0, 1.666408392928177E9, 0.0, 2022-10-21 20:13:12.928
56.0, -158224.86975489496, -169900.97402345826, 63239.03062808879, -60470.54355985446, 79357.72292110002, -77406.43798189616, 91853.1303826726, -128349.08108104243, -0.034, 0.9500000000000001, -0.168, 192.0, 254.0, 240.0, 29.0, 176.0, 250.0, 192.0, 0.0, 0.0, 0.0, 1.6664083929281912E9, 0.0, 2022-10-21 20:13:12.928
57.0, -158223.9980368612, -169901.30929962508, 63236.81780538772, -60460.887606249766, 79361.4780141685, -77394.45744686812, 91881.96413301995, -128346.19770600769, -0.034, 0.9500000000000001, -0.168, 192.0, 0.0, 0.0, 0.0, 0.0, 0.0, 0.0, 0.0, 0.0, 0.0, 1.666408392928206E9, 0.0, 2022-10-21 20:13:12.928
58.0, -158223.01456010516, -169897.84477923453, 63236.013142587326, -60460.66408880521, 79357.90173505565, -77378.43124609366, 91911.33432523422, -128346.51063043007, -0.034, 0.9500000000000001, -0.168, 192.0, 0.0, 0.0, 0.0, 0.0, 0.0, 0.0, 0.0, 0.0, 0.0, 1.6664083929282184E9, 0.0, 2022-10-21 20:13:12.928
59.0, -158221.8969728824, -169895.36373559997, 63237.533061210284, -60457.69130679266, 79363.28850546939, -77386.90255724223, 91887.93204878952, -128350.33277873193, -0.034, 0.9500000000000001, -0.168, 192.0, 0.0, 0.0, 0.0, 0.0, 0.0, 0.0, 0.0, 0.0, 0.0, 1.666408392928238E9, 0.0, 2022-10-21 20:13:12.928
60.0, -158220.53351647063, -169896.43661933384, 63240.975229856405, -60456.908995736725, 79369.21171775005, -77412.83058081038, 91854.31502512873, -128348.43288045323, -0.034, 0.9500000000000001, -0.168, 192.0, 0.0, 0.0, 0.0, 0.0, 0.0, 0.0, 0.0, 0.0, 0.0, 1.6664083929282482E9, 0.0, 2022-10-21 20:13:12.928
61.0, -158222.00873160467, -169898.35886935698, 63242.718665923916, -60445.75547525352, 79378.55474693236, -77390.63529856627, 91883.57345862073, -128335.44651692468, -0.034, 0.9500000000000001, -0.168, 192.0, 0.0, 0.0, 0.0, 0.0, 0.0, 0.0, 0.0, 0.0, 0.0, 1.6664083929282584E9, 0.0, 2022-10-21 20:13:12.928
62.0, -158220.39940600388, -169893.97792744375, 63249.51359623833, -60436.6136117713, 79388.09894181478, -77344.03191137695, 91935.38480226813, -128322.4378016517, -0.034, 0.9500000000000001, -0.168, 192.0, 0.0, 0.0, 0.0, 0.0, 0.0, 0.0, 0.0, 0.0, 0.0, 1.666408392928269E9, 0.0, 2022-10-21 20:13:12.928
63.0, -158221.40523450437, -169895.22962513324, 63246.18318631449, -60439.51933855049, 79387.9871830925, -77356.95121967212, 91917.95044159298, -128333.1889907347, -0.034, 0.9500000000000001, -0.168, 192.0, 0.0, 0.0, 0.0, 0.0, 0.0, 0.0, 0.0, 0.0, 0.0, 1.666408392928279E9, 0.0, 2022-10-21 20:13:12.928
64.0, -158218.90183912538, -169895.20727338878, 63241.84694789016, -60448.28122237697, 79380.65581091116, -77392.42343812269, 91867.30138865726, -128341.34737746089, -0.034, 0.9500000000000001, -0.168, 192.0, 0.0, 0.0, 0.0, 0.0, 0.0, 0.0, 0.0, 0.0, 0.0, 1.6664083929282892E9, 0.0, 2022-10-21 20:13:12.928
65.0, -158211.9951500887, -169888.83702621903, 63245.06559909172, -60434.78076872597, 79386.9366511031, -77388.64599330974, 91873.49282187139, -128331.46790641165, -0.034, 0.9500000000000001, -0.168, 192.0, 0.0, 0.0, 0.0, 0.0, 0.0, 0.0, 0.0, 0.0, 0.0, 1.6664083929282992E9, 0.0, 2022-10-21 20:13:12.928
66.0, -158214.63265593443, -169891.74275299822, 63237.04132283227, -60426.46591978859, 79389.238880782, -77371.05517042341, 91914.53062469132, -128332.20551397867, -0.026000000000000002, 0.9420000000000001, -0.168, 192.0, 255.0, 48.0, 29.0, 112.0, 250.0, 192.0, 0.0, 0.0, 0.0, 1.6664083929283097E9, 0.0, 2022-10-21 20:13:12.928
67.0, -158212.6433506779, -169886.46774130675, 63235.722569909405, -60429.05872214541, 79383.31566850134, -77372.10570241281, 91907.15454902108, -128338.86633382636, -0.026000000000000002, 0.9420000000000001, -0.168, 192.0, 0.0, 0.0, 0.0, 0.0, 0.0, 0.0, 0.0, 0.0, 0.0, 1.666408392928321E9, 0.0, 2022-10-21 20:13:12.928
68.0, -158210.63169367693, -169883.6961249943, 63240.28232577829, -60424.588373254344, 79386.89194761419, -77389.40595262122, 91868.0836997132, -128338.17342974823, -0.026000000000000002, 0.9420000000000001, -0.168, 192.0, 0.0, 0.0, 0.0, 0.0, 0.0, 0.0, 0.0, 0.0, 0.0, 1.666408392928331E9, 0.0, 2022-10-21 20:13:12.928
69.0, -158203.7920598736, -169879.58340401453, 63242.09281707917, -60416.47469001707, 79391.60816569426, -77390.65765031072, 91867.10022295716, -128330.46207791116, -0.026000000000000002, 0.9420000000000001, -0.168, 192.0, 0.0, 0.0, 0.0, 0.0, 0.0, 0.0, 0.0, 0.0, 0.0, 1.6664083929283423E9, 0.0, 2022-10-21 20:13:12.928
70.0, -158205.71430989675, -169880.097494137, 63236.5272327098, -60413.56896323788, 79389.99884009348, -77366.98715293255, 91907.445121699, -128329.5903598774, -0.026000000000000002, 0.9420000000000001, -0.168, 192.0, 0.0, 0.0, 0.0, 0.0, 0.0, 0.0, 0.0, 0.0, 0.0, 1.6664083929283528E9, 0.0, 2022-10-21 20:13:12.928
71.0, -158214.07386232304, -169886.31127909556, 63235.25318327585, -60421.43677728615, 79390.3341162603, -77357.04062664993, 91921.07968581673, -128330.70794710016, -0.026000000000000002, 0.9420000000000001, -0.168, 192.0, 0.0, 0.0, 0.0, 0.0, 0.0, 0.0, 0.0, 0.0, 0.0, 1.666408392928363E9, 0.0, 2022-10-21 20:13:12.928
72.0, -158211.39165298842, -169882.24326160472, 63238.15891005503, -60430.37747506827, 79382.60041267877, -77382.00752520651, 91878.186688207, -128334.41833667975, -0.026000000000000002, 0.9420000000000001, -0.168, 192.0, 0.0, 0.0, 0.0, 0.0, 0.0, 0.0, 0.0, 0.0, 0.0, 1.6664083929283733E9, 0.0, 2022-10-21 20:13:12.928
73.0, -158203.45678370676, -169875.76125571268, 63241.98105835689, -60421.43677728615, 79378.82296786582, -77394.61390907931, 91856.86312399663, -128329.56800813295, -0.026000000000000002, 0.9420000000000001, -0.168, 192.0, 0.0, 0.0, 0.0, 0.0, 0.0, 0.0, 0.0, 0.0, 0.0, 1.6664083929283838E9, 0.0, 2022-10-21 20:13:12.928
74.0, -158205.33433024102, -169880.7456947262, 63237.197785043456, -60412.652541715215, 79375.96194457555, -77375.57022280339, 91891.28481045782, -128329.3444906884, -0.026000000000000002, 0.9420000000000001, -0.168, 192.0, 0.0, 0.0, 0.0, 0.0, 0.0, 0.0, 0.0, 0.0, 0.0, 1.6664083929284031E9, 0.0, 2022-10-21 20:13:12.928
75.0, -158215.32556001254, -169889.06054366357, 63230.4252064735, -60426.19769885513, 79371.49159568449, -77367.72476049958, 91906.05931354276, -128341.45913618317, -0.028, 0.9400000000000001, -0.168, 192.0, 255.0, 32.0, 29.0, 96.0, 250.0, 192.0, 0.0, 0.0, 0.0, 1.6664083929284134E9, 0.0, 2022-10-21 20:13:12.928
76.0, -158207.48009770873, -169881.5503575266, 63239.09768332216, -60428.589335511846, 79368.42940669411, -77390.09885669933, 91870.7882607923, -128334.6418541243, -0.028, 0.9400000000000001, -0.168, 192.0, 0.0, 0.0, 0.0, 0.0, 0.0, 0.0, 0.0, 0.0, 0.0, 1.6664083929284244E9, 0.0, 2022-10-21 20:13:12.928
77.0, -158207.23422851972, -169880.79039821512, 63234.58263094218, -60426.95765816661, 79368.45175843856, -77405.25333944004, 91843.29561511226, -128334.50774365757, -0.028, 0.9400000000000001, -0.168, 192.0, 0.0, 0.0, 0.0, 0.0, 0.0, 0.0, 0.0, 0.0, 0.0, 1.6664083929284348E9, 0.0, 2022-10-21 20:13:12.928
78.0, -158207.81537387555, -169881.19272961532, 63233.554450697244, -60417.59227723983, 79372.40801720716, -77379.14650191624, 91880.33245567471, -128329.3444906884, -0.028, 0.9400000000000001, -0.168, 192.0, 0.0, 0.0, 0.0, 0.0, 0.0, 0.0, 0.0, 0.0, 0.0, 1.6664083929284449E9, 0.0, 2022-10-21 20:13:12.928
79.0, -158207.68126340883, -169882.5561860271, 63235.18612804248, -60418.7098644626, 79371.82687185131, -77365.66840000969, 91908.42859845504, -128330.14915348878, -0.028, 0.9400000000000001, -0.168, 192.0, 0.0, 0.0, 0.0, 0.0, 0.0, 0.0, 0.0, 0.0, 0.0, 1.666408392928455E9, 0.0, 2022-10-21 20:13:12.928
80.0, -158203.23326626222, -169880.343363326, 63239.142386811065, -60421.99557089753, 79369.97167706152, -77383.48274034057, 91879.48308938541, -128332.71960410115, -0.028, 0.9400000000000001, -0.168, 192.0, 0.0, 0.0, 0.0, 0.0, 0.0, 0.0, 0.0, 0.0, 0.0, 1.6664083929284654E9, 0.0, 2022-10-21 20:13:12.928
81.0, -158202.96504532875, -169879.82927320353, 63243.61273570213, -60413.61366672679, 79379.09118879928, -77396.29028991345, 91851.31989137172, -128329.05391801047, -0.028, 0.9400000000000001, -0.168, 192.0, 0.0, 0.0, 0.0, 0.0, 0.0, 0.0, 0.0, 0.0, 0.0, 1.6664083929284756E9, 0.0, 2022-10-21 20:13:12.928
82.0, -158204.90964709636, -169879.4492935478, 63239.70118042245, -60407.332826534854, 79382.35454348977, -77377.89480422674, 91879.08075798521, -128330.55148488897, -0.028, 0.9400000000000001, -0.168, 192.0, 0.0, 0.0, 0.0, 0.0, 0.0, 0.0, 0.0, 0.0, 0.0, 1.6664083929284859E9, 0.0, 2022-10-21 20:13:12.928
83.0, -158206.47426920824, -169882.846758705, 63236.1249013096, -60406.46110850109, 79381.39341847818, -77353.77727195946, 91916.11759854766, -128332.07140351195, -0.028, 0.9400000000000001, -0.168, 192.0, 0.0, 0.0, 0.0, 0.0, 0.0, 0.0, 0.0, 0.0, 0.0, 1.666408392928496E9, 0.0, 2022-10-21 20:13:12.928
84.0, -158208.35181574247, -169888.5017500522, 63237.5777646992, -60412.33961729284, 79380.36523823324, -77371.54690880144, 91893.69879885898, -128340.29684547149, -0.028, 0.9400000000000001, -0.168, 192.0, 0.0, 0.0, 0.0, 0.0, 0.0, 0.0, 0.0, 0.0, 0.0, 1.6664083929285064E9, 0.0, 2022-10-21 20:13:12.928
85.0, -158211.5928186885, -169891.42982857584, 63240.617601945116, -60416.58644873935, 79383.27096501243, -77395.79855153544, 91854.82911525121, -128347.00236880808, -0.026000000000000002, 0.9400000000000001, -0.166, 192.0, 255.0, 48.0, 29.0, 96.0, 250.0, 208.0, 0.0, 0.0, 0.0, 1.6664083929285169E9, 0.0, 2022-10-21 20:13:12.928
86.0, -158210.25171402117, -169889.9993169307, 63245.53498572529, -60404.85178290031, 79386.40020923618, -77385.62850780827, 91868.3295689022, -128339.64864488228, -0.026000000000000002, 0.9400000000000001, -0.166, 192.0, 0.0, 0.0, 0.0, 0.0, 0.0, 0.0, 0.0, 0.0, 0.0, 1.6664083929285276E9, 0.0, 2022-10-21 20:13:12.928
87.0, -158215.59378094602, -169896.59308154503, 63245.445578747465, -60396.89456187422, 79393.59747095079, -77362.91913544168, 91912.2954502458, -128339.11220301536, -0.026000000000000002, 0.9400000000000001, -0.166, 192.0, 0.0, 0.0, 0.0, 0.0, 0.0, 0.0, 0.0, 0.0, 0.0, 1.6664083929285393E9, 0.0, 2022-10-21 20:13:12.928
88.0, -158216.59960944648, -169899.96819495776, 63243.16570081302, -60404.3600445223, 79389.99884009348, -77375.2125948921, 91902.01364779635, -128345.77302286304, -0.026000000000000002, 0.9400000000000001, -0.166, 192.0, 0.0, 0.0, 0.0, 0.0, 0.0, 0.0, 0.0, 0.0, 0.0, 1.6664083929285493E9, 0.0, 2022-10-21 20:13:12.928
89.0, -158210.58699018802, -169892.88269196544, 63250.16179682753, -60402.7060154326, 79391.11642731624, -77384.75678977452, 91865.62500782312, -128339.20160999318, -0.026000000000000002, 0.9400000000000001, -0.166, 192.0, 0.0, 0.0, 0.0, 0.0, 0.0, 0.0, 0.0, 0.0, 0.0, 1.6664083929285693E9, 0.0, 2022-10-21 20:13:12.928
90.0, -158205.11081279645, -169888.54645354112, 63257.046134119766, -60390.92664610466, 79403.07461059984, -77367.30007735493, 91877.5831911067, -128331.2443889671, -0.026000000000000002, 0.9400000000000001, -0.166, 192.0, 0.0, 0.0, 0.0, 0.0, 0.0, 0.0, 0.0, 0.0, 0.0, 1.6664083929285796E9, 0.0, 2022-10-21 20:13:12.928
91.0, -158205.13316454092, -169886.93712794033, 63263.52814001181, -60381.36009947778, 79411.94825314858, -77336.74524268451, 91929.08161033173, -128320.49319988409, -0.026000000000000002, 0.9400000000000001, -0.166, 192.0, 0.0, 0.0, 0.0, 0.0, 0.0, 0.0, 0.0, 0.0, 0.0, 1.6664083929285908E9, 0.0, 2022-10-21 20:13:12.928
92.0, -158203.45678370676, -169889.66404076386, 63262.45525627796, -60389.04909957041, 79405.42154376765, -77347.04939687841, 91926.33234576373, -128329.09862149939, -0.026000000000000002, 0.9400000000000001, -0.166, 192.0, 0.0, 0.0, 0.0, 0.0, 0.0, 0.0, 0.0, 0.0, 0.0, 1.666408392928601E9, 0.0, 2022-10-21 20:13:12.928
93.0, -158202.7415278842, -169888.83702621903, 63260.60006148816, -60397.02867234095, 79396.2349767965, -77377.73834201555, 91879.0360544963, -128338.10637451487, -0.026000000000000002, 0.9400000000000001, -0.166, 192.0, 0.0, 0.0, 0.0, 0.0, 0.0, 0.0, 0.0, 0.0, 0.0, 1.6664083929286113E9, 0.0, 2022-10-21 20:13:12.928
94.0, -158202.87563835093, -169890.37929658644, 63258.74486669837, -60392.155992049695, 79395.49736922949, -77382.65572579572, 91867.86018226865, -128336.63115938082, -0.026000000000000002, 0.9400000000000001, -0.166, 192.0, 0.0, 0.0, 0.0, 0.0, 0.0, 0.0, 0.0, 0.0, 0.0, 1.6664083929286213E9, 0.0, 2022-10-21 20:13:12.928
95.0, -158204.66377790735, -169891.11690415346, 63258.76721844283, -60386.791573380426, 79392.0328488389, -77362.31563834139, 91904.82996759773, -128329.32213894394, -0.028, 0.9440000000000001, -0.164, 192.0, 255.0, 32.0, 29.0, 128.0, 250.0, 224.0, 0.0, 0.0, 0.0, 1.6664083929286325E9, 0.0, 2022-10-21 20:13:12.928
96.0, -158210.65404542137, -169894.40261058838, 63253.67102070702, -60391.97717809406, 79388.3895144927, -77351.92207716967, 91914.1953485245, -128333.27839771252, -0.028, 0.9440000000000001, -0.164, 192.0, 0.0, 0.0, 0.0, 0.0, 0.0, 0.0, 0.0, 0.0, 0.0, 1.6664083929286435E9, 0.0, 2022-10-21 20:13:12.928
97.0, -158208.8435541205, -169891.67569776485, 63247.256070048345, -60400.6049514538, 79383.1368545457, -77374.29617336944, 91876.91263877305, -128339.53688616001, -0.028, 0.9440000000000001, -0.164, 192.0, 0.0, 0.0, 0.0, 0.0, 0.0, 0.0, 0.0, 0.0, 0.0, 1.6664083929286537E9, 0.0, 2022-10-21 20:13:12.928
98.0, -158206.00488257466, -169886.46774130675, 63249.33478228269, -60401.16374506518, 79378.39828472117, -77385.62850780827, 91858.40539436405, -128336.00531053607, -0.028, 0.9440000000000001, -0.164, 192.0, 0.0, 0.0, 0.0, 0.0, 0.0, 0.0, 0.0, 0.0, 0.0, 1.666408392928664E9, 0.0, 2022-10-21 20:13:12.928
99.0, -158208.95531284277, -169890.49105530872, 63246.89844213706, -60392.42421298316, 79374.39732246367, -77371.94924020163, 91890.23427846842, -128335.64768262478, -0.028, 0.9440000000000001, -0.164, 192.0, 0.0, 0.0, 0.0, 0.0, 0.0, 0.0, 0.0, 0.0, 0.0, 1.666408392928674E9, 0.0, 2022-10-21 20:13:12.928
100.0, -158208.68709190932, -169891.18395938684, 63246.94314562597, -60398.749756664016, 79371.7374648735, -77362.02506566347, 91912.4966159459, -128336.85467682537, -0.028, 0.9440000000000001, -0.164, 192.0, 0.0, 0.0, 0.0, 0.0, 0.0, 0.0, 0.0, 0.0, 0.0, 1.6664083929286845E9, 0.0, 2022-10-21 20:13:12.928
101.0, -158204.08263255152, -169886.82536921804, 63248.95480262695, -60402.370739265774, 79369.25642123896, -77385.87437699728, 91876.42090039502, -128340.5427146605, -0.028, 0.9440000000000001, -0.164, 192.0, 0.0, 0.0, 0.0, 0.0, 0.0, 0.0, 0.0, 0.0, 0.0, 1.6664083929286945E9, 0.0, 2022-10-21 20:13:12.928
102.0, -158204.73083314073, -169885.5066162952, 63247.56899447072, -60395.35229150681, 79374.0843980413, -77397.94431900315, 91854.20326640646, -128336.31823495845, -0.028, 0.9440000000000001, -0.164, 192.0, 0.0, 0.0, 0.0, 0.0, 0.0, 0.0, 0.0, 0.0, 0.0, 1.6664083929287047E9, 0.0, 2022-10-21 20:13:12.928
103.0, -158212.77746114464, -169895.43079083334, 63242.785721157285, -60392.84889612781, 79377.39245622068, -77366.96480118809, 91892.40239768058, -128329.29978719947, -0.028, 0.9440000000000001, -0.164, 192.0, 0.0, 0.0, 0.0, 0.0, 0.0, 0.0, 0.0, 0.0, 0.0, 1.666408392928715E9, 0.0, 2022-10-21 20:13:12.928
104.0, -158221.62875194894, -169904.79617176013, 63233.5768024417, -60398.526239219456, 79375.98429632, -77350.759786458, 91918.82215962675, -128343.35903446187, -0.028, 0.9440000000000001, -0.164, 192.0, 0.0, 0.0, 0.0, 0.0, 0.0, 0.0, 0.0, 0.0, 0.0, 1.666408392928736E9, 0.0, 2022-10-21 20:13:12.928
105.0, -158218.18658330283, -169898.40357284588, 63233.53209895279, -60403.17540206616, 79370.9328020731, -77373.78208324696, 91885.85333655517, -128348.25406649758, -0.026000000000000002, 0.9380000000000001, -0.16, 192.0, 255.0, 48.0, 29.0, 80.0, 251.0, 0.0, 0.0, 0.0, 0.0, 1.6664083929287465E9, 0.0, 2022-10-21 20:13:12.928
106.0, -158217.24781003568, -169897.19657864532, 63236.10254956515, -60402.035463098946, 79366.59656364877, -77401.81117079391, 91842.69211801197, -128346.0412437965, -0.026000000000000002, 0.9380000000000001, -0.16, 192.0, 0.0, 0.0, 0.0, 0.0, 0.0, 0.0, 0.0, 0.0, 0.0, 1.666408392928758E9, 0.0, 2022-10-21 20:13:12.928
107.0, -158217.67249318035, -169897.04011643413, 63238.47183447741, -60385.71868964657, 79378.10771204326, -77383.2145194071, 91869.96124624745, -128334.93242680222, -0.026000000000000002, 0.9380000000000001, -0.16, 192.0, 0.0, 0.0, 0.0, 0.0, 0.0, 0.0, 0.0, 0.0, 0.0, 1.6664083929287684E9, 0.0, 2022-10-21 20:13:12.928
108.0, -158224.4450717503, -169902.4492385923, 63230.64872391805, -60391.887771116235, 79376.56544167583, -77365.24371686504, 91904.94172632, -128343.87312458434, -0.026000000000000002, 0.9380000000000001, -0.16, 192.0, 0.0, 0.0, 0.0, 0.0, 0.0, 0.0, 0.0, 0.0, 0.0, 1.6664083929287784E9, 0.0, 2022-10-21 20:13:12.928
109.0, -158219.43828099233, -169896.70484026728, 63237.063674576726, -60396.17930605165, 79373.48090094101, -77376.12901641476, 91888.46849065644, -128342.73318561712, -0.026000000000000002, 0.9380000000000001, -0.16, 192.0, 0.0, 0.0, 0.0, 0.0, 0.0, 0.0, 0.0, 0.0, 0.0, 1.666408392928789E9, 0.0, 2022-10-21 20:13:12.928
110.0, -158214.38678674542, -169892.86034022097, 63244.66326769153, -60391.55249494941, 79381.97456383402, -77387.48370259807, 91859.32181588672, -128334.32892970192, -0.026000000000000002, 0.9380000000000001, -0.16, 192.0, 0.0, 0.0, 0.0, 0.0, 0.0, 0.0, 0.0, 0.0, 0.0, 1.6664083929287996E9, 0.0, 2022-10-21 20:13:12.928
111.0, -158213.49271696722, -169892.45800882077, 63248.08308459319, -60380.689547144124, 79386.64607842518, -77380.0629234389, 91871.72703405941, -128329.67976685522, -0.026000000000000002, 0.9380000000000001, -0.16, 192.0, 0.0, 0.0, 0.0, 0.0, 0.0, 0.0, 0.0, 0.0, 0.0, 1.66640839292881E9, 0.0, 2022-10-21 20:13:12.928
112.0, -158219.41592924786, -169897.48715132324, 63244.57386071371, -60378.454372698594, 79394.1339128177, -77344.09896661031, 91918.82215962675, -128331.95964478966, -0.026000000000000002, 0.9380000000000001, -0.16, 192.0, 0.0, 0.0, 0.0, 0.0, 0.0, 0.0, 0.0, 0.0, 0.0, 1.6664083929288228E9, 0.0, 2022-10-21 20:13:12.928
113.0, -158216.04081583512, -169895.56490130007, 63246.45140724795, -60384.265826256975, 79394.64800294019, -77350.24569633552, 91913.7483136354, -128338.19578149269, -0.026000000000000002, 0.9380000000000001, -0.16, 192.0, 0.0, 0.0, 0.0, 0.0, 0.0, 0.0, 0.0, 0.0, 0.0, 1.6664083929288335E9, 0.0, 2022-10-21 20:13:12.928
114.0, -158216.35374025747, -169896.97306120076, 63250.60883171664, -60389.51848620397, 79395.76559016295, -77379.74999901652, 91869.55891484725, -128344.3425112179, -0.032, 0.9400000000000001, -0.166, 192.0, 255.0, 0.0, 29.0, 96.0, 250.0, 208.0, 0.0, 0.0, 0.0, 1.6664083929288435E9, 0.0, 2022-10-21 20:13:12.928
115.0, -158216.01846409065, -169898.58238680154, 63249.69241019397, -60384.6011024238, 79396.21262505205, -77383.46038859611, 91863.52394384432, -128342.53201991702, -0.032, 0.9400000000000001, -0.166, 192.0, 0.0, 0.0, 0.0, 0.0, 0.0, 0.0, 0.0, 0.0, 0.0, 1.666408392928855E9, 0.0, 2022-10-21 20:13:12.928
116.0, -158218.83478389203, -169902.29277638113, 63244.395046758065, -60381.58361692234, 79392.36812500574, -77354.22430684857, 91906.41694145405, -128341.57089490544, -0.032, 0.9400000000000001, -0.166, 192.0, 0.0, 0.0, 0.0, 0.0, 0.0, 0.0, 0.0, 0.0, 0.0, 1.6664083929288652E9, 0.0, 2022-10-21 20:13:12.928
117.0, -158216.80077514658, -169902.13631416994, 63245.914965381024, -60387.52918094745, 79390.35646800477, -77352.95025741462, 91913.27892700183, -128340.34154896041, -0.032, 0.9400000000000001, -0.166, 192.0, 0.0, 0.0, 0.0, 0.0, 0.0, 0.0, 0.0, 0.0, 0.0, 1.6664083929288757E9, 0.0, 2022-10-21 20:13:12.928
118.0, -158216.28668502413, -169898.64944203492, 63249.93827938298, -60394.16764905067, 79390.37881974922, -77374.00560069151, 91877.56083936225, -128343.80606935098, -0.032, 0.9400000000000001, -0.166, 192.0, 0.0, 0.0, 0.0, 0.0, 0.0, 0.0, 0.0, 0.0, 0.0, 1.6664083929288857E9, 0.0, 2022-10-21 20:13:12.928
119.0, -158218.18658330283, -169899.49880832422, 63248.46306424893, -60392.8041926389, 79384.65677316867, -77384.53327232997, 91861.31112114324, -128341.48148792762, -0.032, 0.9400000000000001, -0.166, 192.0, 0.0, 0.0, 0.0, 0.0, 0.0, 0.0, 0.0, 0.0, 0.0, 1.6664083929289644E9, 0.0, 2022-10-21 20:13:12.928
120.0, -158221.38288275994, -169903.03038394815, 63244.03741884678, -60390.85959087129, 79382.37689523422, -77362.94148718614, 91903.0418280413, -128339.60394139338, -0.032, 0.9400000000000001, -0.166, 192.0, 0.0, 0.0, 0.0, 0.0, 0.0, 0.0, 0.0, 0.0, 0.0, 1.666408392928975E9, 0.0, 2022-10-21 20:13:12.928
121.0, -158215.05733907907, -169898.98471820174, 63246.764331670325, -60394.16764905067, 79378.95707833256, -77351.25152483601, 91920.69970616099, -128335.78179309152, -0.032, 0.9400000000000001, -0.166, 192.0, 0.0, 0.0, 0.0, 0.0, 0.0, 0.0, 0.0, 0.0, 0.0, 1.6664083929289856E9, 0.0, 2022-10-21 20:13:12.928
122.0, -158210.38582448792, -169890.87103496445, 63248.37365727111, -60396.916913618676, 79371.7821683624, -77379.0123914495, 91878.20903995146, -128341.81676409446, -0.032, 0.9400000000000001, -0.166, 192.0, 0.0, 0.0, 0.0, 0.0, 0.0, 0.0, 0.0, 0.0, 0.0, 1.666408393406716E9, 0.0, 2022-10-21 20:13:13.406
123.0, -158211.48105996623, -169891.34042159803, 63250.74294218337, -60392.67008217217, 79374.0843980413, -77390.03180146597, 91856.48314434089, -128337.65933962577, -0.032, 0.9400000000000001, -0.166, 192.0, 0.0, 0.0, 0.0, 0.0, 0.0, 0.0, 0.0, 0.0, 0.0, 1.6664083934067698E9, 0.0, 2022-10-21 20:13:13.406
124.0, -158218.00776934717, -169897.86713097896, 63250.13944508308, -60389.160858292686, 79373.99499106348, -77369.60230703381, 91889.49667090138, -128334.15011574628, -0.028, 0.934, -0.17400000000000002, 192.0, 255.0, 32.0, 29.0, 48.0, 250.0, 144.0, 0.0, 0.0, 0.0, 1.6664083934068086E9, 0.0, 2022-10-21 20:13:13.406
125.0, -158223.10396708298, -169902.94097697033, 63245.020895602815, -60391.17251529366, 79378.42063646563, -77353.88903068173, 91914.24005201341, -128340.78858384951, -0.028, 0.934, -0.17400000000000002, 192.0, 0.0, 0.0, 0.0, 0.0, 0.0, 0.0, 0.0, 0.0, 0.0, 1.6664083934068463E9, 0.0, 2022-10-21 20:13:13.406
126.0, -158217.42662399134, -169898.60473854598, 63247.14431132607, -60394.43586998414, 79376.27486899792, -77373.04447567994, 91879.61719985215, -128341.90617107227, -0.028, 0.934, -0.17400000000000002, 192.0, 0.0, 0.0, 0.0, 0.0, 0.0, 0.0, 0.0, 0.0, 0.0, 1.6664083934068625E9, 0.0, 2022-10-21 20:13:13.406
127.0, -158220.26529553716, -169898.73884901273, 63246.2278898034, -60394.10059381731, 79381.46047371156, -77384.39916186323, 91853.57741756171, -128337.92756055923, -0.028, 0.934, -0.17400000000000002, 192.0, 0.0, 0.0, 0.0, 0.0, 0.0, 0.0, 0.0, 0.0, 0.0, 1.6664083934068782E9, 0.0, 2022-10-21 20:13:13.406
128.0, -158227.6413712074, -169905.73494502724, 63242.159872312535, -60387.88680885873, 79382.19808127858, -77367.63535352175, 91882.76879582033, -128337.12289775883, -0.028, 0.934, -0.17400000000000002, 192.0, 0.0, 0.0, 0.0, 0.0, 0.0, 0.0, 0.0, 0.0, 0.0, 1.6664083934069045E9, 0.0, 2022-10-21 20:13:13.406
129.0, -158230.16711833086, -169911.68050905236, 63236.147253054056, -60387.417422225175, 79378.35358123227, -77354.51487952648, 91910.66377290056, -128343.87312458434, -0.028, 0.934, -0.17400000000000002, 192.0, 0.0, 0.0, 0.0, 0.0, 0.0, 0.0, 0.0, 0.0, 0.0, 1.6664083934069164E9, 0.0, 2022-10-21 20:13:13.406
130.0, -158225.51795548416, -169908.39480261743, 63240.259974033834, -60390.680776915644, 79381.37106673373, -77355.69952198262, 91895.86691807114, -128340.27449372703, -0.028, 0.934, -0.17400000000000002, 192.0, 0.0, 0.0, 0.0, 0.0, 0.0, 0.0, 0.0, 0.0, 0.0, 1.666408393406928E9, 0.0, 2022-10-21 20:13:13.406
131.0, -158224.86975489496, -169905.93611072734, 63241.3775612566, -60396.62634094076, 79380.29818299988, -77372.0609989239, 91861.9816734769, -128340.27449372703, -0.028, 0.934, -0.17400000000000002, 192.0, 0.0, 0.0, 0.0, 0.0, 0.0, 0.0, 0.0, 0.0, 0.0, 1.6664083934069395E9, 0.0, 2022-10-21 20:13:13.406
132.0, -158232.42464452086, -169912.596930575, 63230.46990996241, -60395.32993976235, 79372.89975558517, -77380.93464147266, 91865.08856595619, -128349.68457814273, -0.028, 0.934, -0.17400000000000002, 192.0, 0.0, 0.0, 0.0, 0.0, 0.0, 0.0, 0.0, 0.0, 0.0, 1.6664083934069512E9, 0.0, 2022-10-21 20:13:13.406
133.0, -158226.05439735108, -169907.88071249495, 63237.7789303993, -60390.211390282086, 79379.71703764403, -77355.74422547153, 91909.12150253315, -128341.39208094981, -0.028, 0.934, -0.17400000000000002, 192.0, 0.0, 0.0, 0.0, 0.0, 0.0, 0.0, 0.0, 0.0, 0.0, 1.666408393406969E9, 0.0, 2022-10-21 20:13:13.406
134.0, -158220.60057170398, -169904.03621244864, 63243.00923860184, -60390.09963155981, 79385.93082260262, -77349.46338527958, 91902.81831059675, -128342.35320596138, -0.036000000000000004, 0.936, -0.168, 192.0, 254.0, 224.0, 29.0, 64.0, 250.0, 192.0, 0.0, 0.0, 0.0, 1.666408393407043E9, 0.0, 2022-10-21 20:13:13.407
135.0, -158215.05733907907, -169894.29085186613, 63253.51455849583, -60389.74200364853, 79395.20679655156, -77359.58872551784, 91874.69981607197, -128332.85371456787, -0.036000000000000004, 0.936, -0.168, 192.0, 0.0, 0.0, 0.0, 0.0, 0.0, 0.0, 0.0, 0.0, 0.0, 1.666408393407056E9, 0.0, 2022-10-21 20:13:13.407
136.0, -158217.65014143588, -169895.90017746692, 63255.21329107443, -60387.685643158635, 79395.27385178494, -77356.12420512727, 91885.29454294378, -128327.9363307877, -0.036000000000000004, 0.936, -0.168, 192.0, 0.0, 0.0, 0.0, 0.0, 0.0, 0.0, 0.0, 0.0, 0.0, 1.6664083934070675E9, 0.0, 2022-10-21 20:13:13.407
137.0, -158228.37897877445, -169906.09257293853, 63244.70797118044, -60391.21721878257, 79388.12129355923, -77341.55086774241, 91921.77258989484, -128332.85371456787, -0.036000000000000004, 0.936, -0.168, 192.0, 0.0, 0.0, 0.0, 0.0, 0.0, 0.0, 0.0, 0.0, 0.0, 1.666408393407079E9, 0.0, 2022-10-21 20:13:13.407
138.0, -158224.98151361724, -169905.33261362705, 63243.32216302421, -60395.732271162546, 79383.04744756788, -77349.41868179067, 91913.52479619085, -128341.50383967208, -0.036000000000000004, 0.936, -0.168, 192.0, 0.0, 0.0, 0.0, 0.0, 0.0, 0.0, 0.0, 0.0, 0.0, 1.6664083934070904E9, 0.0, 2022-10-21 20:13:13.407
139.0, -158223.7968711611, -169903.92445372636, 63244.126825824605, -60397.76627990798, 79383.62859292372, -77377.67128678219, 91869.22363868041, -128344.25310424008, -0.036000000000000004, 0.936, -0.168, 192.0, 0.0, 0.0, 0.0, 0.0, 0.0, 0.0, 0.0, 0.0, 0.0, 1.666408393407102E9, 0.0, 2022-10-21 20:13:13.407
140.0, -158224.0427403501, -169902.56099731458, 63239.34355251116, -60395.68756767364, 79381.25930801146, -77379.59353680535, 91864.30625490025, -128340.90034257178, -0.036000000000000004, 0.936, -0.168, 192.0, 0.0, 0.0, 0.0, 0.0, 0.0, 0.0, 0.0, 0.0, 0.0, 1.666408393407116E9, 0.0, 2022-10-21 20:13:13.407
141.0, -158230.86002240898, -169910.6076253185, 63230.8722413626, -60399.68852993113, 79373.50325268546, -77363.52263254198, 91899.13027276163, -128345.68361588522, -0.036000000000000004, 0.936, -0.168, 192.0, 0.0, 0.0, 0.0, 0.0, 0.0, 0.0, 0.0, 0.0, 0.0, 1.6664083934071274E9, 0.0, 2022-10-21 20:13:13.407
142.0, -158227.50726074068, -169908.90889273988, 63231.49809020735, -60408.40571026871, 79364.92018281463, -77365.33312384285, 91899.73376986191, -128351.80799386598, -0.036000000000000004, 0.936, -0.168, 192.0, 0.0, 0.0, 0.0, 0.0, 0.0, 0.0, 0.0, 0.0, 0.0, 1.6664083934071393E9, 0.0, 2022-10-21 20:13:13.407
143.0, -158225.85323165098, -169907.098401439, 63229.79935762875, -60412.67489345967, 79359.64517112318, -77389.02597296548, 91855.07498444022, -128355.2501625121, -0.036000000000000004, 0.9380000000000001, -0.17200000000000001, 192.0, 254.0, 224.0, 29.0, 80.0, 250.0, 160.0, 0.0, 0.0, 0.0, 1.6664083934071505E9, 0.0, 2022-10-21 20:13:13.407
144.0, -158224.95916187277, -169906.02551770516, 63229.97817158439, -60407.77986142396, 79365.6354386372, -77395.4185718797, 91845.21786513542, -128355.22781076764, -0.036000000000000004, 0.9380000000000001, -0.17200000000000001, 192.0, 0.0, 0.0, 0.0, 0.0, 0.0, 0.0, 0.0, 0.0, 0.0, 1.6664083934071636E9, 0.0, 2022-10-21 20:13:13.407
145.0, -158232.7375689432, -169912.7980962751, 63222.11035753613, -60404.76237592249, 79359.89104031218, -77379.43707459416, 91880.62302835262, -128359.2958282585, -0.036000000000000004, 0.9380000000000001, -0.17200000000000001, 192.0, 0.0, 0.0, 0.0, 0.0, 0.0, 0.0, 0.0, 0.0, 0.0, 1.6664083934071748E9, 0.0, 2022-10-21 20:13:13.407
146.0, -158228.46838575226, -169910.16059042938, 63230.335799495675, -60399.017977597476, 79368.67527588311, -77354.04549289292, 91908.38389496611, -128350.01985430955, -0.036000000000000004, 0.9380000000000001, -0.17200000000000001, 192.0, 0.0, 0.0, 0.0, 0.0, 0.0, 0.0, 0.0, 0.0, 0.0, 1.6664083934071865E9, 0.0, 2022-10-21 20:13:13.407
147.0, -158218.76772865865, -169900.52698856915, 63242.11516882363, -60395.26288452899, 79380.05231381087, -77362.38269357475, 91887.93204878952, -128340.96739780516, -0.036000000000000004, 0.9380000000000001, -0.17200000000000001, 192.0, 0.0, 0.0, 0.0, 0.0, 0.0, 0.0, 0.0, 0.0, 0.0, 1.6664083934071977E9, 0.0, 2022-10-21 20:13:13.407
148.0, -158219.3935775034, -169899.85643623548, 63240.30467752274, -60393.34063450583, 79383.65094466817, -77375.68198152566, 91866.80965027925, -128337.54758090348, -0.036000000000000004, 0.9380000000000001, -0.17200000000000001, 192.0, 0.0, 0.0, 0.0, 0.0, 0.0, 0.0, 0.0, 0.0, 0.0, 1.6664083934072087E9, 0.0, 2022-10-21 20:13:13.407
149.0, -158223.66276069437, -169904.12561942646, 63234.85085187565, -60388.64676817021, 79381.50517720047, -77358.42643480617, 91899.15262450608, -128330.90911280026, -0.036000000000000004, 0.9380000000000001, -0.17200000000000001, 192.0, 0.0, 0.0, 0.0, 0.0, 0.0, 0.0, 0.0, 0.0, 0.0, 1.6664083934072332E9, 0.0, 2022-10-21 20:13:13.407
150.0, -158226.70259794028, -169909.57944507356, 63232.90625010804, -60391.86541937178, 79376.69955214257, -77351.54209751393, 91919.82798812723, -128334.26187446856, -0.036000000000000004, 0.9380000000000001, -0.17200000000000001, 192.0, 0.0, 0.0, 0.0, 0.0, 0.0, 0.0, 0.0, 0.0, 0.0, 1.6664083934072447E9, 0.0, 2022-10-21 20:13:13.407
151.0, -158229.80949041958, -169909.66885205137, 63229.911116351024, -60396.24636128502, 79375.5372614309, -77370.98811519005, 91891.77654883583, -128346.71179613017, -0.036000000000000004, 0.9380000000000001, -0.17200000000000001, 192.0, 0.0, 0.0, 0.0, 0.0, 0.0, 0.0, 0.0, 0.0, 0.0, 1.6664083934072561E9, 0.0, 2022-10-21 20:13:13.407
152.0, -158229.20599331928, -169906.15962817188, 63231.14046229607, -60393.54180020592, 79373.70441838556, -77390.14356018824, 91857.06428969673, -128343.64960713979, -0.036000000000000004, 0.9380000000000001, -0.17200000000000001, 192.0, 0.0, 0.0, 0.0, 0.0, 0.0, 0.0, 0.0, 0.0, 0.0, 1.6664083934072676E9, 0.0, 2022-10-21 20:13:13.407
153.0, -158234.36924628846, -169912.28400615265, 63230.38050298459, -60381.248340755505, 79380.1864242776, -77364.72962674256, 91885.00397026587, -128339.15690650427, -0.032, 0.9420000000000001, -0.17200000000000001, 192.0, 255.0, 0.0, 29.0, 112.0, 250.0, 160.0, 0.0, 0.0, 0.0, 1.6664083934072793E9, 0.0, 2022-10-21 20:13:13.407
154.0, -158240.78419694712, -169919.7941922896, 63226.17837502699, -60386.97038733606, 79376.72190388702, -77348.74812945702, 91915.8940811031, -128344.56602866246, -0.032, 0.9420000000000001, -0.17200000000000001, 192.0, 0.0, 0.0, 0.0, 0.0, 0.0, 0.0, 0.0, 0.0, 0.0, 1.6664083934072912E9, 0.0, 2022-10-21 20:13:13.407
155.0, -158235.01744687767, -169917.111982955, 63230.53696519577, -60391.99952983851, 79374.12910153021, -77358.42643480617, 91895.4869384154, -128344.3425112179, -0.032, 0.9420000000000001, -0.17200000000000001, 192.0, 0.0, 0.0, 0.0, 0.0, 0.0, 0.0, 0.0, 0.0, 0.0, 1.6664083934073038E9, 0.0, 2022-10-21 20:13:13.407
156.0, -158232.2458305652, -169914.2956631536, 63233.75561639734, -60395.84402988482, 79376.14075853118, -77376.62075479279, 91860.5288100873, -128341.57089490544, -0.032, 0.9420000000000001, -0.17200000000000001, 192.0, 0.0, 0.0, 0.0, 0.0, 0.0, 0.0, 0.0, 0.0, 0.0, 1.6664083934073153E9, 0.0, 2022-10-21 20:13:13.407
157.0, -158230.05535960858, -169910.22764566276, 63237.80128214375, -60392.89359961672, 79377.70538064306, -77373.15623440221, 91873.40341489356, -128339.84981058238, -0.032, 0.9420000000000001, -0.17200000000000001, 192.0, 0.0, 0.0, 0.0, 0.0, 0.0, 0.0, 0.0, 0.0, 0.0, 1.6664083934073267E9, 0.0, 2022-10-21 20:13:13.407
158.0, -158230.36828403096, -169911.23347416325, 63239.99175310037, -60388.57971293685, 79381.41577022264, -77349.97747540206, 91911.71430488996, -128338.24048498161, -0.032, 0.9420000000000001, -0.17200000000000001, 192.0, 0.0, 0.0, 0.0, 0.0, 0.0, 0.0, 0.0, 0.0, 0.0, 1.666408393407338E9, 0.0, 2022-10-21 20:13:13.407
159.0, -158226.25556305118, -169908.77478227316, 63244.551508969256, -60391.21721878257, 79383.06979931233, -77350.26804807998, 91904.87467108664, -128338.8439820819, -0.032, 0.9420000000000001, -0.17200000000000001, 192.0, 0.0, 0.0, 0.0, 0.0, 0.0, 0.0, 0.0, 0.0, 0.0, 1.6664083934073496E9, 0.0, 2022-10-21 20:13:13.407
160.0, -158222.45576649377, -169903.4550670928, 63246.40670375904, -60392.647730427714, 79383.74035164599, -77373.80443499141, 91868.55308634676, -128340.94504606069, -0.032, 0.9420000000000001, -0.17200000000000001, 192.0, 0.0, 0.0, 0.0, 0.0, 0.0, 0.0, 0.0, 0.0, 0.0, 1.6664083934073608E9, 0.0, 2022-10-21 20:13:13.407
161.0, -158225.65206595088, -169905.86905549397, 63243.52332872431, -60385.450468713105, 79385.43908422459, -77369.60230703381, 91877.7843568068, -128335.80414483597, -0.032, 0.9420000000000001, -0.17200000000000001, 192.0, 0.0, 0.0, 0.0, 0.0, 0.0, 0.0, 0.0, 0.0, 0.0, 1.6664083934073722E9, 0.0, 2022-10-21 20:13:13.407
162.0, -158231.75409218718, -169913.87098000897, 63242.159872312535, -60381.605968666794, 79386.22139528053, -77340.54503924192, 91923.24780502889, -128336.27353146953, -0.032, 0.9420000000000001, -0.17200000000000001, 192.0, 0.0, 0.0, 0.0, 0.0, 0.0, 0.0, 0.0, 0.0, 0.0, 1.666408393407384E9, 0.0, 2022-10-21 20:13:13.407
163.0, -158221.56169671557, -169903.2539013927, 63249.200671815954, -60380.86836109977, 79387.96483134804, -77341.79673693141, 91922.80077013979, -128335.71473785816, -0.036000000000000004, 0.9420000000000001, -0.17200000000000001, 192.0, 254.0, 224.0, 29.0, 112.0, 250.0, 160.0, 0.0, 0.0, 0.0, 1.6664083934073951E9, 0.0, 2022-10-21 20:13:13.407
164.0, -158220.30999902607, -169903.81269500408, 63247.56899447072, -60387.417422225175, 79385.61789818024, -77373.0668274244, 91875.6385893391, -128344.70013912919, -0.036000000000000004, 0.9420000000000001, -0.17200000000000001, 192.0, 0.0, 0.0, 0.0, 0.0, 0.0, 0.0, 0.0, 0.0, 0.0, 1.6664083934074175E9, 0.0, 2022-10-21 20:13:13.407
165.0, -158222.07578683805, -169909.28887239564, 63244.23858454688, -60389.04909957041, 79379.22529926602, -77386.85785375332, 91858.71831878643, -128345.50480192958, -0.036000000000000004, 0.9420000000000001, -0.17200000000000001, 192.0, 0.0, 0.0, 0.0, 0.0, 0.0, 0.0, 0.0, 0.0, 0.0, 1.6664083934074304E9, 0.0, 2022-10-21 20:13:13.407
166.0, -158230.1447665864, -169915.41325037638, 63234.403816986545, -60393.38533799474, 79373.74912187447, -77369.87052796729, 91898.05738902777, -128347.6952728862, -0.036000000000000004, 0.9420000000000001, -0.17200000000000001, 192.0, 0.0, 0.0, 0.0, 0.0, 0.0, 0.0, 0.0, 0.0, 0.0, 1.6664083934074416E9, 0.0, 2022-10-21 20:13:13.407
167.0, -158225.45090025078, -169909.69120379584, 63235.6778664205, -60398.77210840847, 79368.31764797184, -77362.00271391902, 91905.65698214257, -128344.56602866246, -0.036000000000000004, 0.9420000000000001, -0.17200000000000001, 192.0, 0.0, 0.0, 0.0, 0.0, 0.0, 0.0, 0.0, 0.0, 0.0, 1.6664083934074528E9, 0.0, 2022-10-21 20:13:13.407
168.0, -158220.4441094928, -169904.21502640427, 63239.924697867005, -60402.0578148434, 79369.8822700837, -77374.22911813606, 91871.6376270816, -128337.83815358141, -0.036000000000000004, 0.9420000000000001, -0.17200000000000001, 192.0, 0.0, 0.0, 0.0, 0.0, 0.0, 0.0, 0.0, 0.0, 0.0, 1.6664083934074643E9, 0.0, 2022-10-21 20:13:13.407
169.0, -158226.52378398465, -169908.3500991285, 63235.63316293158, -60398.503887475, 79374.59848816377, -77380.01821995, 91857.66778679703, -128342.80024085048, -0.036000000000000004, 0.9420000000000001, -0.17200000000000001, 192.0, 0.0, 0.0, 0.0, 0.0, 0.0, 0.0, 0.0, 0.0, 0.0, 1.6664083934074757E9, 0.0, 2022-10-21 20:13:13.407
170.0, -158228.80366191908, -169910.76408752968, 63230.93929659597, -60394.94996010661, 79370.64222939519, -77361.73449298555, 91894.27994421482, -128344.99071180711, -0.036000000000000004, 0.9420000000000001, -0.17200000000000001, 192.0, 0.0, 0.0, 0.0, 0.0, 0.0, 0.0, 0.0, 0.0, 0.0, 1.6664083934074872E9, 0.0, 2022-10-21 20:13:13.407
171.0, -158224.62388570595, -169904.93028222685, 63237.063674576726, -60392.021881582965, 79372.07274104032, -77350.5586207579, 91915.53645319182, -128341.30267397198, -0.036000000000000004, 0.9420000000000001, -0.17200000000000001, 192.0, 0.0, 0.0, 0.0, 0.0, 0.0, 0.0, 0.0, 0.0, 0.0, 1.6664083934074984E9, 0.0, 2022-10-21 20:13:13.407
172.0, -158219.88531588143, -169900.88461648044, 63243.65743919104, -60388.08797455883, 79379.89585159968, -77364.23788836454, 91888.22262146743, -128339.40277569328, -0.038, 0.9460000000000001, -0.166, 192.0, 254.0, 208.0, 29.0, 144.0, 250.0, 208.0, 0.0, 0.0, 0.0, 1.6664083934075096E9, 0.0, 2022-10-21 20:13:13.407
173.0, -158221.2934757821, -169901.44341009183, 63246.60786945914, -60385.606930924296, 79389.8870813712, -77366.5624697879, 91869.938894503, -128335.60297913587, -0.038, 0.9460000000000001, -0.166, 192.0, 0.0, 0.0, 0.0, 0.0, 0.0, 0.0, 0.0, 0.0, 0.0, 1.6664083934075224E9, 0.0, 2022-10-21 20:13:13.407
174.0, -158228.37897877445, -169907.76895377267, 63242.27163103481, -60384.399936723705, 79387.94247960359, -77354.29136208193, 91897.94563030549, -128334.75361284657, -0.038, 0.9460000000000001, -0.166, 192.0, 0.0, 0.0, 0.0, 0.0, 0.0, 0.0, 0.0, 0.0, 0.0, 1.6664083934075336E9, 0.0, 2022-10-21 20:13:13.407
175.0, -158233.1399003434, -169915.03327072065, 63237.62246818811, -60388.177381536654, 79386.10963655826, -77337.61696071828, 91928.05343008679, -128338.50870591507, -0.038, 0.9460000000000001, -0.166, 192.0, 0.0, 0.0, 0.0, 0.0, 0.0, 0.0, 0.0, 0.0, 0.0, 1.6664083934075449E9, 0.0, 2022-10-21 20:13:13.407
176.0, -158234.3915980329, -169920.107116712, 63234.85085187565, -60397.18513455214, 79383.76270339044, -77349.12810911276, 91904.695857131, -128344.29780772899, -0.038, 0.9460000000000001, -0.166, 192.0, 0.0, 0.0, 0.0, 0.0, 0.0, 0.0, 0.0, 0.0, 0.0, 1.6664083934075575E9, 0.0, 2022-10-21 20:13:13.407
177.0, -158235.12920559995, -169921.69409056832, 63233.979133841895, -60399.085032830844, 79381.32636324482, -77377.29130712645, 91866.85435376815, -128346.13065077433, -0.038, 0.9460000000000001, -0.166, 192.0, 0.0, 0.0, 0.0, 0.0, 0.0, 0.0, 0.0, 0.0, 0.0, 1.6664083934075687E9, 0.0, 2022-10-21 20:13:13.407
178.0, -158244.78515920462, -169930.12069822798, 63226.55835468273, -60396.02284384047, 79380.34288648878, -77367.12126339928, 91886.63564761111, -128344.47662168463, -0.038, 0.9460000000000001, -0.166, 192.0, 0.0, 0.0, 0.0, 0.0, 0.0, 0.0, 0.0, 0.0, 0.0, 1.66640839340758E9, 0.0, 2022-10-21 20:13:13.407
179.0, -158241.0524178806, -169926.097384226, 63230.492261706866, -60392.53597170544, 79381.97456383402, -77346.91528641168, 91924.00776434038, -128345.63891239632, -0.038, 0.9460000000000001, -0.166, 192.0, 0.0, 0.0, 0.0, 0.0, 0.0, 0.0, 0.0, 0.0, 0.0, 1.6664083934076016E9, 0.0, 2022-10-21 20:13:13.407
180.0, -158237.1855660898, -169919.83889577855, 63237.890689121574, -60394.65938742869, 79385.64024992469, -77348.90459166821, 91910.23908975591, -128342.4426129392, -0.038, 0.9460000000000001, -0.166, 192.0, 0.0, 0.0, 0.0, 0.0, 0.0, 0.0, 0.0, 0.0, 0.0, 1.6664083934076133E9, 0.0, 2022-10-21 20:13:13.407
181.0, -158236.0009236337, -169918.14016319995, 63240.08116007819, -60398.12390781927, 79386.69078191409, -77365.44488256513, 91873.64928408257, -128341.50383967208, -0.038, 0.9460000000000001, -0.166, 192.0, 0.0, 0.0, 0.0, 0.0, 0.0, 0.0, 0.0, 0.0, 0.0, 1.6664083934076262E9, 0.0, 2022-10-21 20:13:13.407
182.0, -158239.1972230908, -169920.9564830013, 63235.94608735396, -60396.55928570739, 79381.236956267, -77369.57995528936, 91879.25957194086, -128343.64960713979, -0.036000000000000004, 0.9420000000000001, -0.164, 192.0, 254.0, 224.0, 29.0, 112.0, 250.0, 224.0, 0.0, 0.0, 0.0, 1.6664083934076376E9, 0.0, 2022-10-21 20:13:13.407
183.0, -158239.77836844666, -169919.2130469338, 63237.42130248801, -60389.719651904066, 79382.71217140104, -77341.88614390924, 91921.97375559494, -128338.79927859298, -0.036000000000000004, 0.9420000000000001, -0.164, 192.0, 0.0, 0.0, 0.0, 0.0, 0.0, 0.0, 0.0, 0.0, 0.0, 1.6664083934076495E9, 0.0, 2022-10-21 20:13:13.407
184.0, -158237.81141493458, -169916.88846551045, 63238.98592459988, -60397.16278280769, 79380.09701729978, -77349.37397830177, 91912.11663629016, -128343.42608969523, -0.036000000000000004, 0.9420000000000001, -0.164, 192.0, 0.0, 0.0, 0.0, 0.0, 0.0, 0.0, 0.0, 0.0, 0.0, 1.666408393407661E9, 0.0, 2022-10-21 20:13:13.407
185.0, -158232.4916997542, -169912.88750325295, 63243.81390140223, -60397.408651996695, 79378.75591263246, -77377.04543793744, 91866.54142934579, -128341.57089490544, -0.036000000000000004, 0.9420000000000001, -0.164, 192.0, 0.0, 0.0, 0.0, 0.0, 0.0, 0.0, 0.0, 0.0, 0.0, 1.6664083934076724E9, 0.0, 2022-10-21 20:13:13.407
186.0, -158236.6491242229, -169918.7436603002, 63238.114206566126, -60397.52041071897, 79378.10771204326, -77384.48856884106, 91858.71831878643, -128344.00723505107, -0.036000000000000004, 0.9420000000000001, -0.164, 192.0, 0.0, 0.0, 0.0, 0.0, 0.0, 0.0, 0.0, 0.0, 0.0, 1.6664083934076838E9, 0.0, 2022-10-21 20:13:13.407
187.0, -158239.93483065782, -169922.38699464645, 63240.46113973393, -60396.58163745185, 79376.36427597575, -77355.27483883797, 91904.11471177515, -128336.42999368072, -0.036000000000000004, 0.9420000000000001, -0.164, 192.0, 0.0, 0.0, 0.0, 0.0, 0.0, 0.0, 0.0, 0.0, 0.0, 1.6664083934076953E9, 0.0, 2022-10-21 20:13:13.407
188.0, -158236.96204864528, -169917.33550039955, 63247.16666307052, -60393.81002113939, 79381.63928766719, -77338.01929211846, 91917.61516542616, -128334.68655761321, -0.036000000000000004, 0.9420000000000001, -0.164, 192.0, 0.0, 0.0, 0.0, 0.0, 0.0, 0.0, 0.0, 0.0, 0.0, 1.6664083934077065E9, 0.0, 2022-10-21 20:13:13.407
189.0, -158233.2963625546, -169914.4521253648, 63246.85373864815, -60396.02284384047, 79384.36620049074, -77364.77433023148, 91878.00787425136, -128340.58741814941, -0.036000000000000004, 0.9420000000000001, -0.164, 192.0, 0.0, 0.0, 0.0, 0.0, 0.0, 0.0, 0.0, 0.0, 0.0, 1.6664083934077184E9, 0.0, 2022-10-21 20:13:13.407
190.0, -158235.26331606667, -169916.66494806588, 63244.730322924894, -60397.14043106323, 79387.1378168032, -77371.05517042341, 91869.11187995815, -128338.59811289288, -0.036000000000000004, 0.9420000000000001, -0.164, 192.0, 0.0, 0.0, 0.0, 0.0, 0.0, 0.0, 0.0, 0.0, 0.0, 1.6664083934077296E9, 0.0, 2022-10-21 20:13:13.407
191.0, -158239.8901271689, -169920.28593066765, 63241.48931997888, -60397.47570723006, 79379.87349985522, -77352.97260915907, 91907.80274961029, -128335.06653726895, -0.036000000000000004, 0.9420000000000001, -0.164, 192.0, 0.0, 0.0, 0.0, 0.0, 0.0, 0.0, 0.0, 0.0, 0.0, 1.6664083934077413E9, 0.0, 2022-10-21 20:13:13.407
192.0, -158236.2914963116, -169918.43073587786, 63243.16570081302, -60397.58746595234, 79379.49352019948, -77343.04843462091, 91923.31486026227, -128334.32892970192, -0.032, 0.9400000000000001, -0.164, 192.0, 255.0, 0.0, 29.0, 96.0, 250.0, 224.0, 0.0, 0.0, 0.0, 1.6664083934077535E9, 0.0, 2022-10-21 20:13:13.407
193.0, -158228.26722005216, -169909.08770669554, 63248.82069216022, -60398.258018286, 79383.38272373471, -77357.91234468369, 91892.55885989177, -128332.9431215457, -0.032, 0.9400000000000001, -0.164, 192.0, 0.0, 0.0, 0.0, 0.0, 0.0, 0.0, 0.0, 0.0, 0.0, 1.666408393407766E9, 0.0, 2022-10-21 20:13:13.407
194.0, -158237.67730446786, -169918.0507562221, 63240.41643624502, -60405.61174221179, 79379.49352019948, -77374.9667257031, 91866.5861328347, -128336.36293844736, -0.032, 0.9400000000000001, -0.164, 192.0, 0.0, 0.0, 0.0, 0.0, 0.0, 0.0, 0.0, 0.0, 0.0, 1.6664083934077888E9, 0.0, 2022-10-21 20:13:13.407
195.0, -158242.9970196482, -169923.92926501387, 63234.6273344311, -60409.74681493602, 79373.14562477417, -77365.24371686504, 91896.58217389372, -128337.72639485913, -0.032, 0.9400000000000001, -0.164, 192.0, 0.0, 0.0, 0.0, 0.0, 0.0, 0.0, 0.0, 0.0, 0.0, 1.6664083934078019E9, 0.0, 2022-10-21 20:13:13.407
196.0, -158240.4042172914, -169921.7611458017, 63236.482529220884, -60408.383358524254, 79377.52656668742, -77348.63637073475, 91922.80077013979, -128340.67682512723, -0.032, 0.9400000000000001, -0.164, 192.0, 0.0, 0.0, 0.0, 0.0, 0.0, 0.0, 0.0, 0.0, 0.0, 1.6664083934078135E9, 0.0, 2022-10-21 20:13:13.407
197.0, -158237.2526213232, -169919.68243356736, 63239.32120076671, -60409.83622191384, 79378.0853602988, -77367.90357445521, 91892.20123198048, -128347.0917757859, -0.032, 0.9400000000000001, -0.164, 192.0, 0.0, 0.0, 0.0, 0.0, 0.0, 0.0, 0.0, 0.0, 0.0, 1.666408393407827E9, 0.0, 2022-10-21 20:13:13.407
198.0, -158233.2963625546, -169913.2004276753, 63242.67396243501, -60408.67393120217, 79379.69468589958, -77383.99683046303, 91861.93696998799, -128345.52715367403, -0.032, 0.9400000000000001, -0.164, 192.0, 0.0, 0.0, 0.0, 0.0, 0.0, 0.0, 0.0, 0.0, 0.0, 1.6664083934078383E9, 0.0, 2022-10-21 20:13:13.407
199.0, -158241.47710102526, -169919.41421263388, 63235.90138386505, -60400.94022762063, 79383.09215105679, -77358.51584178398, 91893.43057792552, -128343.89547632879, -0.032, 0.9400000000000001, -0.164, 192.0, 0.0, 0.0, 0.0, 0.0, 0.0, 0.0, 0.0, 0.0, 0.0, 1.66640839340785E9, 0.0, 2022-10-21 20:13:13.407
200.0, -158248.54025227312, -169924.08572722506, 63228.525308194796, -60407.51164049049, 79375.0902265418, -77342.757861943, 91921.01263058337, -128352.12091828835, -0.032, 0.9400000000000001, -0.164, 192.0, 0.0, 0.0, 0.0, 0.0, 0.0, 0.0, 0.0, 0.0, 0.0, 1.6664083934078617E9, 0.0, 2022-10-21 20:13:13.407
201.0, -158248.54025227312, -169923.9963202472, 63228.458252961434, -60413.59131498234, 79370.30695322836, -77359.99105691804, 91892.38004593612, -128357.08300555743, -0.032, 0.9400000000000001, -0.164, 192.0, 0.0, 0.0, 0.0, 0.0, 0.0, 0.0, 0.0, 0.0, 0.0, 1.6664083934078732E9, 0.0, 2022-10-21 20:13:13.407
202.0, -158247.22149935027, -169920.1518202009, 63232.05688381874, -60405.8576114008, 79379.56057543286, -77374.94437395864, 91859.38887112009, -128356.05482531249, -0.034, 0.9380000000000001, -0.16, 192.0, 254.0, 240.0, 29.0, 80.0, 251.0, 0.0, 0.0, 0.0, 0.0, 1.6664083934078844E9, 0.0, 2022-10-21 20:13:13.407
203.0, -158249.27785984013, -169921.13529695696, 63232.168642541015, -60396.73809966304, 79385.55084294688, -77354.49252778203, 91883.90873478756, -128349.52811593153, -0.034, 0.9380000000000001, -0.16, 192.0, 0.0, 0.0, 0.0, 0.0, 0.0, 0.0, 0.0, 0.0, 0.0, 1.6664083934078968E9, 0.0, 2022-10-21 20:13:13.407
204.0, -158252.98824941972, -169925.27036968118, 63228.90528785054, -60397.676872930155, 79385.05910456886, -77334.71123393909, 91918.15160729308, -128350.62335140984, -0.034, 0.9380000000000001, -0.16, 192.0, 0.0, 0.0, 0.0, 0.0, 0.0, 0.0, 0.0, 0.0, 0.0, 1.6664083934079087E9, 0.0, 2022-10-21 20:13:13.407
205.0, -158256.8551012105, -169927.0585092376, 63226.44659596046, -60408.78568992444, 79380.52170044443, -77353.53140277046, 91897.16331924955, -128361.12867130384, -0.034, 0.9380000000000001, -0.16, 192.0, 0.0, 0.0, 0.0, 0.0, 0.0, 0.0, 0.0, 0.0, 0.0, 1.6664083934079173E9, 0.0, 2022-10-21 20:13:13.407
206.0, -158258.77735123364, -169926.67852958187, 63226.53600293827, -60418.039312128945, 79375.42550270862, -77385.15912117471, 91849.66586228203, -128365.62137193936, -0.034, 0.9380000000000001, -0.16, 192.0, 0.0, 0.0, 0.0, 0.0, 0.0, 0.0, 0.0, 0.0, 0.0, 1.666408393407926E9, 0.0, 2022-10-21 20:13:13.407
207.0, -158254.88814769842, -169921.02353823467, 63236.61663968762, -60403.33186427735, 79385.01440107994, -77369.60230703381, 91863.2780746553, -128356.3453979904, -0.034, 0.9380000000000001, -0.16, 192.0, 0.0, 0.0, 0.0, 0.0, 0.0, 0.0, 0.0, 0.0, 0.0, 1.6664083934079351E9, 0.0, 2022-10-21 20:13:13.407
208.0, -158256.38571457693, -169923.03519523566, 63238.53888971078, -60396.02284384047, 79389.70826741557, -77340.99207413102, 91911.4460839565, -128351.7409386326, -0.034, 0.9380000000000001, -0.16, 192.0, 0.0, 0.0, 0.0, 0.0, 0.0, 0.0, 0.0, 0.0, 0.0, 1.666408393407944E9, 0.0, 2022-10-21 20:13:13.407
209.0, -158251.82595870807, -169921.18000044586, 63243.38921825758, -60399.84499214232, 79389.37299124873, -77344.88127766625, 91908.71917113295, -128350.91392408776, -0.034, 0.9380000000000001, -0.16, 192.0, 0.0, 0.0, 0.0, 0.0, 0.0, 0.0, 0.0, 0.0, 0.0, 1.6664083934079528E9, 0.0, 2022-10-21 20:13:13.407
210.0, -158247.48972028372, -169915.5026573542, 63249.13361658259, -60404.04712009992, 79390.89290987169, -77369.24467912254, 91869.938894503, -128349.95279907619, -0.034, 0.9380000000000001, -0.16, 192.0, 0.0, 0.0, 0.0, 0.0, 0.0, 0.0, 0.0, 0.0, 0.0, 1.666408393407972E9, 0.0, 2022-10-21 20:13:13.407
211.0, -158248.2049761063, -169914.8097532761, 63252.151102084055, -60402.52720147696, 79390.04354358239, -77371.18928089015, 91870.184763692, -128345.46009844067, -0.03, 0.9460000000000001, -0.162, 192.0, 255.0, 16.0, 29.0, 144.0, 250.0, 240.0, 0.0, 0.0, 0.0, 1.666408393407981E9, 0.0, 2022-10-21 20:13:13.407
212.0, -158249.68019124033, -169916.08380271005, 63254.69920095196, -60400.202620053606, 79385.86376736924, -77349.61984749077, 91910.90964208957, -128344.40956645127, -0.03, 0.9460000000000001, -0.162, 192.0, 0.0, 0.0, 0.0, 0.0, 0.0, 0.0, 0.0, 0.0, 0.0, 1.6664083934079905E9, 0.0, 2022-10-21 20:13:13.407
213.0, -158247.4003133059, -169910.62997706296, 63255.41445677453, -60411.06556785889, 79378.55474693236, -77349.48573702405, 91911.6472496566, -128345.54950541849, -0.03, 0.9460000000000001, -0.162, 192.0, 0.0, 0.0, 0.0, 0.0, 0.0, 0.0, 0.0, 0.0, 0.0, 1.6664083934079993E9, 0.0, 2022-10-21 20:13:13.407
214.0, -158243.1981853483, -169905.17615141586, 63259.46012252094, -60415.33475104985, 79378.17476727662, -77368.68588551115, 91875.61623759464, -128341.45913618317, -0.03, 0.9460000000000001, -0.162, 192.0, 0.0, 0.0, 0.0, 0.0, 0.0, 0.0, 0.0, 0.0, 0.0, 1.666408393408008E9, 0.0, 2022-10-21 20:13:13.408
215.0, -158243.8463859375, -169910.31705264057, 63258.27548006481, -60412.160803337196, 79379.38176147721, -77374.83261523636, 91865.5356008453, -128336.92173205873, -0.03, 0.9460000000000001, -0.162, 192.0, 0.0, 0.0, 0.0, 0.0, 0.0, 0.0, 0.0, 0.0, 0.0, 1.6664083934080172E9, 0.0, 2022-10-21 20:13:13.408
216.0, -158247.17679586136, -169917.4472591218, 63250.92175613902, -60409.27742830246, 79375.02317130842, -77363.16500463069, 91899.73376986191, -128335.87120006933, -0.03, 0.9460000000000001, -0.162, 192.0, 0.0, 0.0, 0.0, 0.0, 0.0, 0.0, 0.0, 0.0, 0.0, 1.6664083934080255E9, 0.0, 2022-10-21 20:13:13.408
217.0, -158252.38475231943, -169921.58233184606, 63239.41060774453, -60419.358065051805, 79367.26711598244, -77362.11447264129, 91911.93782233451, -128346.57768566343, -0.03, 0.9460000000000001, -0.162, 192.0, 0.0, 0.0, 0.0, 0.0, 0.0, 0.0, 0.0, 0.0, 0.0, 1.6664083934080348E9, 0.0, 2022-10-21 20:13:13.408
218.0, -158245.27689758266, -169914.0944974535, 63244.35034326916, -60419.916858663186, 79366.30599097085, -77371.77042624599, 91879.8407172967, -128344.32015947344, -0.03, 0.9460000000000001, -0.162, 192.0, 0.0, 0.0, 0.0, 0.0, 0.0, 0.0, 0.0, 0.0, 0.0, 1.6664083934080436E9, 0.0, 2022-10-21 20:13:13.408
219.0, -158242.57233650357, -169911.83697126355, 63249.357134027145, -60414.10540510481, 79367.44592993807, -77382.05222869542, 91857.17604841902, -128340.05097628248, -0.03, 0.9460000000000001, -0.162, 192.0, 0.0, 0.0, 0.0, 0.0, 0.0, 0.0, 0.0, 0.0, 0.0, 1.666408393408053E9, 0.0, 2022-10-21 20:13:13.408
220.0, -158248.83082495103, -169916.53083759916, 63242.495148479364, -60416.362931294796, 79363.84729908076, -77374.20676639161, 91886.88151680012, -128345.28128448503, -0.03, 0.9460000000000001, -0.162, 192.0, 0.0, 0.0, 0.0, 0.0, 0.0, 0.0, 0.0, 0.0, 0.0, 1.666408393408062E9, 0.0, 2022-10-21 20:13:13.408
221.0, -158251.33422033003, -169918.58719808905, 63236.974267598904, -60420.8109284414, 79358.23701122249, -77372.61979253529, 91903.22064199694, -128353.88670610033, -0.03, 0.9440000000000001, -0.164, 192.0, 255.0, 16.0, 29.0, 128.0, 250.0, 224.0, 0.0, 0.0, 0.0, 1.6664083934080708E9, 0.0, 2022-10-21 20:13:13.408
222.0, -158245.43335979382, -169914.83210502056, 63240.43878798948, -60421.10150111932, 79361.16508974614, -77384.4662170966, 91877.940819018, -128357.32887474644, -0.03, 0.9440000000000001, -0.164, 192.0, 0.0, 0.0, 0.0, 0.0, 0.0, 0.0, 0.0, 0.0, 0.0, 1.66640839340808E9, 0.0, 2022-10-21 20:13:13.408
223.0, -158235.37507478896, -169908.03717470614, 63248.61952646012, -60415.24534407203, 79369.70345612806, -77387.08137119787, 91855.34320537368, -128347.0917757859, -0.03, 0.9440000000000001, -0.164, 192.0, 0.0, 0.0, 0.0, 0.0, 0.0, 0.0, 0.0, 0.0, 0.0, 1.66640839340809E9, 0.0, 2022-10-21 20:13:13.408
224.0, -158239.5548510021, -169914.4074218759, 63247.50193923735, -60407.46693700158, 79380.47699695552, -77362.40504531922, 91888.73671158991, -128340.83328733842, -0.03, 0.9440000000000001, -0.164, 192.0, 0.0, 0.0, 0.0, 0.0, 0.0, 0.0, 0.0, 0.0, 0.0, 1.6664083934080987E9, 0.0, 2022-10-21 20:13:13.408
225.0, -158244.51693827118, -169919.3471574005, 63241.13169206759, -60410.976160881066, 79377.4371597096, -77349.97747540206, 91919.38095323813, -128354.57961017844, -0.03, 0.9440000000000001, -0.164, 192.0, 0.0, 0.0, 0.0, 0.0, 0.0, 0.0, 0.0, 0.0, 0.0, 1.6664083934081202E9, 0.0, 2022-10-21 20:13:13.408
226.0, -158240.71714171377, -169918.54249460011, 63241.64578219006, -60413.18898358214, 79374.6878951416, -77364.506109298, 91893.3411709477, -128359.0946625584, -0.03, 0.9440000000000001, -0.164, 192.0, 0.0, 0.0, 0.0, 0.0, 0.0, 0.0, 0.0, 0.0, 0.0, 1.6664083934081292E9, 0.0, 2022-10-21 20:13:13.408
227.0, -158239.30898181308, -169917.29079691065, 63245.177357814, -60409.41153876919, 79383.62859292372, -77378.85592923831, 91861.62404556562, -128354.80312762299, -0.03, 0.9440000000000001, -0.164, 192.0, 0.0, 0.0, 0.0, 0.0, 0.0, 0.0, 0.0, 0.0, 0.0, 1.666408393408138E9, 0.0, 2022-10-21 20:13:13.408
228.0, -158244.0475516376, -169922.8116777911, 63243.45627349094, -60403.555381721904, 79384.50031095748, -77370.98811519005, 91875.683292828, -128352.45619445518, -0.03, 0.9440000000000001, -0.164, 192.0, 0.0, 0.0, 0.0, 0.0, 0.0, 0.0, 0.0, 0.0, 0.0, 1.666408393408147E9, 0.0, 2022-10-21 20:13:13.408
229.0, -158252.0047726637, -169932.4005761624, 63239.09768332216, -60404.96354162259, 79383.04744756788, -77348.99399864602, 91912.58602292372, -128353.55142993349, -0.03, 0.9440000000000001, -0.164, 192.0, 0.0, 0.0, 0.0, 0.0, 0.0, 0.0, 0.0, 0.0, 0.0, 1.6664083934081557E9, 0.0, 2022-10-21 20:13:13.408
230.0, -158249.07669414007, -169932.64644535142, 63239.634125189084, -60409.47859400256, 79384.36620049074, -77349.55279225741, 91904.24882224189, -128355.20545902319, -0.03, 0.9440000000000001, -0.164, 192.0, 0.0, 0.0, 0.0, 0.0, 0.0, 0.0, 0.0, 0.0, 0.0, 1.6664083934081647E9, 0.0, 2022-10-21 20:13:13.408
231.0, -158244.0028481487, -169923.77280280268, 63242.852776390646, -60413.16663183769, 79384.32149700183, -77373.04447567994, 91865.69206305649, -128354.37844447834, -0.034, 0.9440000000000001, -0.162, 192.0, 254.0, 240.0, 29.0, 128.0, 250.0, 240.0, 0.0, 0.0, 0.0, 1.666408393408173E9, 0.0, 2022-10-21 20:13:13.408
232.0, -158246.68505748332, -169925.42683189237, 63245.311468280735, -60406.61757071228, 79387.71896215904, -77364.10377789782, 91874.74451956089, -128350.8468688544, -0.034, 0.9440000000000001, -0.162, 192.0, 0.0, 0.0, 0.0, 0.0, 0.0, 0.0, 0.0, 0.0, 0.0, 1.6664083934081826E9, 0.0, 2022-10-21 20:13:13.408
233.0, -158247.28855458362, -169927.5055441267, 63248.26189854884, -60403.37656776626, 79382.44395046758, -77344.50129801051, 91912.00487756787, -128346.17535426324, -0.034, 0.9440000000000001, -0.162, 192.0, 0.0, 0.0, 0.0, 0.0, 0.0, 0.0, 0.0, 0.0, 0.0, 1.6664083934081914E9, 0.0, 2022-10-21 20:13:13.408
234.0, -158249.32256332907, -169930.54538137262, 63247.881918893094, -60412.38432078175, 79379.18059577711, -77353.77727195946, 91906.1934240095, -128352.25502875508, -0.034, 0.9440000000000001, -0.162, 192.0, 0.0, 0.0, 0.0, 0.0, 0.0, 0.0, 0.0, 0.0, 0.0, 1.6664083934082007E9, 0.0, 2022-10-21 20:13:13.408
235.0, -158245.7462842162, -169921.49292486822, 63253.626317218106, -60413.05487311541, 79384.20973827956, -77364.23788836454, 91876.0409207393, -128341.14621176079, -0.034, 0.9440000000000001, -0.162, 192.0, 0.0, 0.0, 0.0, 0.0, 0.0, 0.0, 0.0, 0.0, 0.0, 1.6664083934082093E9, 0.0, 2022-10-21 20:13:13.408
236.0, -158247.93675517282, -169923.5492853581, 63256.50969225284, -60408.584524224345, 79385.39438073568, -77363.4555773086, 91873.82809803821, -128343.56020016197, -0.034, 0.9440000000000001, -0.162, 192.0, 0.0, 0.0, 0.0, 0.0, 0.0, 0.0, 0.0, 0.0, 0.0, 1.666408393408218E9, 0.0, 2022-10-21 20:13:13.408
237.0, -158248.58495576202, -169922.67756732437, 63259.057791120744, -60405.656445700704, 79381.10284580027, -77344.6130567328, 91914.1953485245, -128344.99071180711, -0.034, 0.9440000000000001, -0.162, 192.0, 0.0, 0.0, 0.0, 0.0, 0.0, 0.0, 0.0, 0.0, 0.0, 1.6664083934082265E9, 0.0, 2022-10-21 20:13:13.408
238.0, -158247.13209237243, -169920.21887543428, 63260.398895788065, -60415.69237896114, 79377.48186319851, -77343.02608287646, 91921.83964512822, -128347.76232811957, -0.034, 0.9440000000000001, -0.162, 192.0, 0.0, 0.0, 0.0, 0.0, 0.0, 0.0, 0.0, 0.0, 0.0, 1.666408393408236E9, 0.0, 2022-10-21 20:13:13.408
239.0, -158248.31673482858, -169919.52597135617, 63260.77887544381, -60425.61655349929, 79371.60335440676, -77372.10570241281, 91878.87959228511, -128350.8468688544, -0.034, 0.9440000000000001, -0.162, 192.0, 0.0, 0.0, 0.0, 0.0, 0.0, 0.0, 0.0, 0.0, 0.0, 1.6664083934082448E9, 0.0, 2022-10-21 20:13:13.408
240.0, -158249.36726681798, -169919.68243356736, 63260.30948881024, -60430.37747506827, 79369.2340694945, -77385.22617640808, 91860.0817751982, -128347.292941486, -0.032, 0.9420000000000001, -0.166, 192.0, 255.0, 0.0, 29.0, 112.0, 250.0, 208.0, 0.0, 0.0, 0.0, 1.666408393408266E9, 0.0, 2022-10-21 20:13:13.408
241.0, -158247.71323772828, -169917.33550039955, 63264.64572723457, -60421.593239497335, 79374.19615676357, -77352.48087078106, 91905.9922583094, -128336.25117972508, -0.032, 0.9420000000000001, -0.166, 192.0, 0.0, 0.0, 0.0, 0.0, 0.0, 0.0, 0.0, 0.0, 0.0, 1.6664083934082751E9, 0.0, 2022-10-21 20:13:13.408
242.0, -158245.1427871159, -169913.6474625644, 63270.613643004144, -60417.614628984295, 79384.20973827956, -77329.19035305863, 91934.15545632309, -128327.22107496514, -0.032, 0.9420000000000001, -0.166, 192.0, 0.0, 0.0, 0.0, 0.0, 0.0, 0.0, 0.0, 0.0, 0.0, 1.6664083938870993E9, 0.0, 2022-10-21 20:13:13.887
243.0, -158242.9970196482, -169910.87584625196, 63273.3852593166, -60424.16369010969, 79382.51100570096, -77351.65385623621, 91899.26438322835, -128335.0441855245, -0.032, 0.9420000000000001, -0.166, 192.0, 0.0, 0.0, 0.0, 0.0, 0.0, 0.0, 0.0, 0.0, 0.0, 1.6664083938871665E9, 0.0, 2022-10-21 20:13:13.887
244.0, -158242.6393917369, -169910.13823868494, 63273.56407327224, -60422.509661020005, 79382.73452314551, -77369.19997563363, 91870.94472300349, -128333.97130179065, -0.032, 0.9420000000000001, -0.166, 192.0, 0.0, 0.0, 0.0, 0.0, 0.0, 0.0, 0.0, 0.0, 0.0, 1.6664083938872073E9, 0.0, 2022-10-21 20:13:13.887
245.0, -158251.37892381893, -169919.59302658951, 63265.785666201795, -60412.47372775957, 79387.3389825033, -77345.68594046665, 91907.35571472117, -128330.01504302205, -0.032, 0.9420000000000001, -0.166, 192.0, 0.0, 0.0, 0.0, 0.0, 0.0, 0.0, 0.0, 0.0, 0.0, 1.6664083938872244E9, 0.0, 2022-10-21 20:13:13.887
246.0, -158257.32448784405, -169926.94675051532, 63256.86732016413, -60416.92172490618, 79388.4342179816, -77330.03971934793, 91935.0495261013, -128335.53592390251, -0.032, 0.9420000000000001, -0.166, 192.0, 0.0, 0.0, 0.0, 0.0, 0.0, 0.0, 0.0, 0.0, 0.0, 1.666408393887241E9, 0.0, 2022-10-21 20:13:13.887
247.0, -158255.62575526544, -169927.17026795988, 63251.50290149485, -60429.997495412535, 79378.53239518791, -77353.28553358144, 91900.71724661795, -128343.73901411761, -0.032, 0.9420000000000001, -0.166, 192.0, 0.0, 0.0, 0.0, 0.0, 0.0, 0.0, 0.0, 0.0, 0.0, 1.6664083938872569E9, 0.0, 2022-10-21 20:13:13.887
248.0, -158251.82595870807, -169924.0633754806, 63255.66032596354, -60431.49506229104, 79378.19711902108, -77370.42932157866, 91865.46854561193, -128338.26283672606, -0.032, 0.9420000000000001, -0.166, 192.0, 0.0, 0.0, 0.0, 0.0, 0.0, 0.0, 0.0, 0.0, 0.0, 1.6664083938872728E9, 0.0, 2022-10-21 20:13:13.887
249.0, -158255.4022378209, -169929.98658776123, 63253.29104105128, -60422.375550553275, 79381.81810162283, -77355.05132139342, 91887.75323483387, -128334.95477854667, -0.032, 0.9420000000000001, -0.166, 192.0, 0.0, 0.0, 0.0, 0.0, 0.0, 0.0, 0.0, 0.0, 0.0, 1.6664083938872888E9, 0.0, 2022-10-21 20:13:13.887
250.0, -158269.34972636102, -169944.20229723482, 63238.53888971078, -60434.69136174815, 79377.30304924287, -77344.59070498832, 91919.00097358238, -128347.27058974154, -0.028, 0.9400000000000001, -0.166, 192.0, 255.0, 32.0, 29.0, 96.0, 250.0, 208.0, 0.0, 0.0, 0.0, 1.6664083938873048E9, 0.0, 2022-10-21 20:13:13.887
251.0, -158260.99017393473, -169935.5521721306, 63243.29981127976, -60439.89931820623, 79375.20198526407, -77354.62663824877, 91900.27021172884, -128345.61656065185, -0.028, 0.9400000000000001, -0.166, 192.0, 0.0, 0.0, 0.0, 0.0, 0.0, 0.0, 0.0, 0.0, 0.0, 1.666408393887324E9, 0.0, 2022-10-21 20:13:13.887
252.0, -158256.58688027703, -169930.54538137262, 63249.42418926051, -60438.55821353891, 79377.01247656495, -77382.38750486226, 91856.59490306317, -128351.07038629895, -0.028, 0.9400000000000001, -0.166, 192.0, 0.0, 0.0, 0.0, 0.0, 0.0, 0.0, 0.0, 0.0, 0.0, 1.6664083938873398E9, 0.0, 2022-10-21 20:13:13.887
253.0, -158265.32641235905, -169943.08471001204, 63243.836253146685, -60431.04802740193, 79382.66746791214, -77372.84330997984, 91872.01760673734, -128351.7409386326, -0.028, 0.9400000000000001, -0.166, 192.0, 0.0, 0.0, 0.0, 0.0, 0.0, 0.0, 0.0, 0.0, 0.0, 1.6664083938873544E9, 0.0, 2022-10-21 20:13:13.887
254.0, -158262.44303732432, -169938.9049337989, 63245.870261892116, -60426.46591978859, 79385.66260166914, -77334.42066126116, 91919.93974684952, -128344.63308389582, -0.028, 0.9400000000000001, -0.166, 192.0, 0.0, 0.0, 0.0, 0.0, 0.0, 0.0, 0.0, 0.0, 0.0, 1.666408393887367E9, 0.0, 2022-10-21 20:13:13.887
255.0, -158258.28561285563, -169935.14984073042, 63246.004372358846, -60434.33373383686, 79380.09701729978, -77342.22142007606, 91909.03209555532, -128346.91296183027, -0.028, 0.9400000000000001, -0.166, 192.0, 0.0, 0.0, 0.0, 0.0, 0.0, 0.0, 0.0, 0.0, 0.0, 1.6664083938874416E9, 0.0, 2022-10-21 20:13:13.887
0.0, -158251.9600691748, -169929.27133193868, 63250.85470090565, -60436.25598386002, 79381.12519754472, -77363.23205986405, 91869.9835979919, -128342.75553736158, -0.028, 0.9400000000000001, -0.166, 192.0, 0.0, 0.0, 0.0, 0.0, 0.0, 0.0, 0.0, 0.0, 0.0, 1.6664083938874528E9, 0.0, 2022-10-21 20:13:13.887
1.0, -158251.49068254122, -169928.82429704958, 63250.8770526501, -60431.98680066905, 79383.85211036827, -77359.8569464513, 91872.46464162644, -128338.24048498161, -0.028, 0.9400000000000001, -0.166, 192.0, 0.0, 0.0, 0.0, 0.0, 0.0, 0.0, 0.0, 0.0, 0.0, 1.666408393887463E9, 0.0, 2022-10-21 20:13:13.887
2.0, -158259.4479035673, -169936.53564888664, 63241.668133934516, -60434.601954770325, 79377.34775273177, -77341.21559157557, 91915.13412179162, -128344.3425112179, -0.028, 0.9400000000000001, -0.166, 192.0, 0.0, 0.0, 0.0, 0.0, 0.0, 0.0, 0.0, 0.0, 0.0, 1.6664083938874736E9, 0.0, 2022-10-21 20:13:13.887
3.0, -158249.61313600698, -169927.88552378246, 63245.289116536274, -60442.62623102978, 79370.57517416182, -77340.18741133064, 91915.93878459201, -128345.97418856314, -0.028, 0.9400000000000001, -0.166, 192.0, 0.0, 0.0, 0.0, 0.0, 0.0, 0.0, 0.0, 0.0, 0.0, 1.6664083938874838E9, 0.0, 2022-10-21 20:13:13.887
4.0, -158241.9017841699, -169920.107116712, 63253.15693058455, -60445.33079210887, 79368.65292413866, -77361.08629239634, 91877.20321145096, -128343.06846178394, -0.032, 0.9440000000000001, -0.17200000000000001, 192.0, 255.0, 0.0, 29.0, 128.0, 250.0, 160.0, 0.0, 0.0, 0.0, 1.666408393887494E9, 0.0, 2022-10-21 20:13:13.887
5.0, -158239.30898181308, -169916.24026492125, 63254.34157304068, -60439.74285599505, 79364.80842409235, -77372.95506870211, 91863.8815717556, -128342.35320596138, -0.032, 0.9440000000000001, -0.17200000000000001, 192.0, 0.0, 0.0, 0.0, 0.0, 0.0, 0.0, 0.0, 0.0, 0.0, 1.6664083938875096E9, 0.0, 2022-10-21 20:13:13.887
