%OpenBCI Raw EEG Data
%Number of channels = 8
%Sample Rate = 250 Hz
%Board = OpenBCI_GUI$BoardCytonSerial
Sample Index, EXG Channel 0, EXG Channel 1, EXG Channel 2, EXG Channel 3, EXG Channel 4, EXG Channel 5, EXG Channel 6, EXG Channel 7, Accel Channel 0, Accel Channel 1, Accel Channel 2, Other, Other, Other, Other, Other, Other, Other, Analog Channel 0, Analog Channel 1, Analog Channel 2, Timestamp, Other, Timestamp (Formatted)
110.0, -135897.68986674427, -161044.63172490976, 5321.10098851931, -123813.93448280508, 57606.86041198498, -81838.58774168346, 42007.130921737065, -114233.8650505382, 0.0, 0.0, 0.0, 192.0, 0.0, 0.0, 0.0, 0.0, 0.0, 0.0, 0.0, 0.0, 0.0, 1.6664055139867384E9, 0.0, 2022-10-21 19:25:13.986
111.0, -135900.59559352347, -161047.93978308915, 5313.255526215497, -123819.6788811301, 57603.53000206113, -81861.7217971947, 41992.49052911884, -114239.09535874074, 0.0, 0.0, 0.0, 192.0, 0.0, 0.0, 0.0, 0.0, 0.0, 0.0, 0.0, 0.0, 0.0, 1.6664055139867668E9, 0.0, 2022-10-21 19:25:13.986
112.0, -135900.9755731792, -161048.27505925598, 5305.968857523067, -123822.89753233166, 57602.568877049554, -81882.28540209358, 41982.54400283623, -114243.25278320942, 0.0, 0.0, 0.0, 192.0, 0.0, 0.0, 0.0, 0.0, 0.0, 0.0, 0.0, 0.0, 0.0, 1.6664055139867873E9, 0.0, 2022-10-21 19:25:13.986
113.0, -135900.03679991208, -161046.263402255, 5307.2652587014745, -123824.730375377, 57599.082004914526, -81878.10562588045, 41987.19316568293, -114232.8145185488, 0.0, 0.0, 0.0, 192.0, 0.0, 0.0, 0.0, 0.0, 0.0, 0.0, 0.0, 0.0, 0.0, 1.6664055139868062E9, 0.0, 2022-10-21 19:25:13.986
114.0, -135897.44399755527, -161047.6045069223, 5307.600534868305, -123821.93640732008, 57601.20542063778, -81861.99001812817, 41991.57410759618, -114241.59875411974, 0.0, 0.0, 0.0, 192.0, 0.0, 0.0, 0.0, 0.0, 0.0, 0.0, 0.0, 0.0, 0.0, 1.6664055139868252E9, 0.0, 2022-10-21 19:25:13.986
115.0, -135896.9746109217, -161047.42569296667, 5312.517918648472, -123819.20949449654, 57609.31910387506, -81876.4739485352, 41986.6120203271, -114250.9194315576, 0.0, 0.0, 0.0, 192.0, 0.0, 0.0, 0.0, 0.0, 0.0, 0.0, 0.0, 0.0, 0.0, 1.6664055139868436E9, 0.0, 2022-10-21 19:25:13.986
116.0, -135898.89686094486, -161046.68808539966, 5314.328409949352, -123818.53894216288, 57612.47069984325, -81881.2795735931, 41988.06488371669, -114244.25861170991, 0.044, 0.9580000000000001, 0.004, 192.0, 1.0, 96.0, 29.0, 240.0, 0.0, 32.0, 0.0, 0.0, 0.0, 1.6664055139868577E9, 0.0, 2022-10-21 19:25:13.986
117.0, -135903.65778251385, -161053.63947792526, 5306.929982534645, -123825.06565154382, 57605.76517650666, -81878.82088170301, 41990.2106511844, -114242.04578900884, 0.044, 0.9580000000000001, 0.004, 192.0, 0.0, 0.0, 0.0, 0.0, 0.0, 0.0, 0.0, 0.0, 0.0, 1.6664055139868755E9, 0.0, 2022-10-21 19:25:13.986
118.0, -135907.90461396036, -161058.37804774978, 5303.912497033179, -123829.55835217935, 57603.194725894304, -81875.53517526809, 41996.53619486525, -114242.82810006477, 0.044, 0.9580000000000001, 0.004, 192.0, 0.0, 0.0, 0.0, 0.0, 0.0, 0.0, 0.0, 0.0, 0.0, 1.6664055139868903E9, 0.0, 2022-10-21 19:25:13.986
119.0, -135902.1155121464, -161050.8678616128, 5310.305095947397, -123826.94319807806, 57609.006179452685, -81881.05605614855, 41997.92200302148, -114238.3130476848, 0.044, 0.9580000000000001, 0.004, 192.0, 0.0, 0.0, 0.0, 0.0, 0.0, 0.0, 0.0, 0.0, 0.0, 1.666405513986905E9, 0.0, 2022-10-21 19:25:13.986
120.0, -135903.05428541356, -161053.1700912917, 5309.656895358193, -123829.91598009062, 57609.430862597335, -81902.40197210335, 41991.08236921816, -114245.04092276585, 0.044, 0.9580000000000001, 0.004, 192.0, 0.0, 0.0, 0.0, 0.0, 0.0, 0.0, 0.0, 0.0, 0.0, 1.6664055139869194E9, 0.0, 2022-10-21 19:25:13.986
121.0, -135890.98434340768, -161041.16720451918, 5323.962011809589, -123814.78384909438, 57623.35599939299, -81906.09000993849, 42003.286421690755, -114233.48507088245, 0.044, 0.9580000000000001, 0.004, 192.0, 0.0, 0.0, 0.0, 0.0, 0.0, 0.0, 0.0, 0.0, 0.0, 1.6664055139869337E9, 0.0, 2022-10-21 19:25:13.986
122.0, -135890.44790154076, -161041.27896324146, 5327.717104878081, -123811.98988103747, 57631.82731054155, -81882.48656779368, 42020.273747476786, -114229.34999815823, 0.044, 0.9580000000000001, 0.004, 192.0, 0.0, 0.0, 0.0, 0.0, 0.0, 0.0, 0.0, 0.0, 0.0, 1.6664055139869494E9, 0.0, 2022-10-21 19:25:13.986
123.0, -135899.3215440895, -161050.0631988124, 5318.776407095958, -123833.84988711476, 57621.97019123676, -81876.49630027966, 42011.62362237259, -114239.02830350737, 0.044, 0.9580000000000001, 0.004, 192.0, 0.0, 0.0, 0.0, 0.0, 0.0, 0.0, 0.0, 0.0, 0.0, 1.6664055139869635E9, 0.0, 2022-10-21 19:25:13.986
124.0, -135893.75595972015, -161044.22939350957, 5320.743360608025, -123832.59818942526, 57629.97211575176, -81903.20663490375, 42002.0123722568, -114237.0166465064, 0.044, 0.9580000000000001, 0.004, 192.0, 0.0, 0.0, 0.0, 0.0, 0.0, 0.0, 0.0, 0.0, 0.0, 1.666405513986978E9, 0.0, 2022-10-21 19:25:13.986
125.0, -135891.45373004125, -161042.68712314215, 5324.610212398793, -123825.02094805491, 57639.29279318963, -81904.10070468196, 42008.85200606013, -114229.32764641377, 0.06, 0.962, 0.014, 192.0, 1.0, 224.0, 30.0, 16.0, 0.0, 112.0, 0.0, 0.0, 0.0, 1.6664055139869924E9, 0.0, 2022-10-21 19:25:13.986
126.0, -135895.23117485418, -161045.19051852115, 5326.063075788388, -123825.22211375501, 57638.33166817805, -81893.88595746589, 42015.82575033018, -114227.40539639062, 0.06, 0.962, 0.014, 192.0, 0.0, 0.0, 0.0, 0.0, 0.0, 0.0, 0.0, 0.0, 0.0, 1.666405513987139E9, 0.0, 2022-10-21 19:25:13.987
127.0, -135889.44207304026, -161041.6589428972, 5323.269107731475, -123825.5797416663, 57642.10911299099, -81889.16973938582, 42013.23294797337, -114235.42967265006, 0.06, 0.962, 0.014, 192.0, 0.0, 0.0, 0.0, 0.0, 0.0, 0.0, 0.0, 0.0, 0.0, 1.6664055139871545E9, 0.0, 2022-10-21 19:25:13.987
128.0, -135883.11652935942, -161036.42863469466, 5308.9639912800785, -123831.50295394695, 57633.5036913757, -81900.83734999149, 41990.903555262514, -114257.64730663864, 0.06, 0.962, 0.014, 192.0, 0.0, 0.0, 0.0, 0.0, 0.0, 0.0, 0.0, 0.0, 0.0, 1.6664055139871693E9, 0.0, 2022-10-21 19:25:13.987
129.0, -135874.33229378847, -161020.22361996456, 5303.174889466154, -123841.44948022957, 57620.29381040261, -81929.89461778339, 41977.24663940032, -114265.0233823089, 0.06, 0.962, 0.014, 192.0, 0.0, 0.0, 0.0, 0.0, 0.0, 0.0, 0.0, 0.0, 0.0, 1.6664055139871955E9, 0.0, 2022-10-21 19:25:13.987
130.0, -135888.59270675096, -161025.23041072255, 5304.2701249444635, -123833.93929409258, 57623.84773777101, -81915.74596354317, 41989.89772676203, -114266.5209491874, 0.06, 0.962, 0.014, 192.0, 0.0, 0.0, 0.0, 0.0, 0.0, 0.0, 0.0, 0.0, 0.0, 1.6664055139872038E9, 0.0, 2022-10-21 19:25:13.987
131.0, -135907.2340616267, -161040.45194869663, 5304.068959244366, -123832.55348593635, 57624.60769708249, -81916.79649553257, 41988.78013953926, -114274.00878357993, 0.06, 0.962, 0.014, 192.0, 0.0, 0.0, 0.0, 0.0, 0.0, 0.0, 0.0, 0.0, 0.0, 1.666405513987212E9, 0.0, 2022-10-21 19:25:13.987
132.0, -135918.2311198987, -161050.7561028905, 5296.71523531857, -123842.34355000778, 57623.31129590408, -81930.67692883933, 41984.37684588157, -114261.89413808515, 0.06, 0.962, 0.014, 192.0, 0.0, 0.0, 0.0, 0.0, 0.0, 0.0, 0.0, 0.0, 0.0, 1.666405513987222E9, 0.0, 2022-10-21 19:25:13.987
133.0, -135914.29721287458, -161040.45194869663, 5302.414930154673, -123838.29788426137, 57636.0070867547, -81946.94899880279, 41989.11541570609, -114253.4675304255, 0.06, 0.962, 0.014, 192.0, 0.0, 0.0, 0.0, 0.0, 0.0, 0.0, 0.0, 0.0, 0.0, 1.6664055139872303E9, 0.0, 2022-10-21 19:25:13.987
134.0, -135917.64997454287, -161035.35575096082, 5312.853194815301, -123832.66524465862, 57646.73592409324, -81942.16572548935, 42005.7674653253, -114245.59971637723, 0.06, 0.962, 0.014, 192.0, 0.0, 0.0, 0.0, 0.0, 0.0, 0.0, 0.0, 0.0, 0.0, 1.6664055139872384E9, 0.0, 2022-10-21 19:25:13.987
135.0, -135924.91429149083, -161038.99908530703, 5308.829880813347, -123838.58845693928, 57647.69704910482, -81931.21337070625, 42015.13284625207, -114247.63372512267, 0.09, 0.964, 0.018000000000000002, 192.0, 2.0, 208.0, 30.0, 32.0, 0.0, 144.0, 0.0, 0.0, 0.0, 1.6664055139872463E9, 0.0, 2022-10-21 19:25:13.987
136.0, -135927.328279892, -161037.07683528386, 5311.400331425707, -123841.91886686313, 57656.07895327556, -81935.66136785285, 42017.65859337552, -114248.86307106771, 0.09, 0.964, 0.018000000000000002, 192.0, 0.0, 0.0, 0.0, 0.0, 0.0, 0.0, 0.0, 0.0, 0.0, 1.6664055139872549E9, 0.0, 2022-10-21 19:25:13.987
137.0, -135928.7811432816, -161036.04865503893, 5314.976610538556, -123846.41156749864, 57660.32578472207, -81944.78087959062, 42015.110494507615, -114250.09241701275, 0.09, 0.964, 0.018000000000000002, 192.0, 0.0, 0.0, 0.0, 0.0, 0.0, 0.0, 0.0, 0.0, 0.0, 1.6664055139872627E9, 0.0, 2022-10-21 19:25:13.987
138.0, -135929.3846403819, -161030.46071892508, 5322.106817019799, -123839.63898892868, 57668.41711621489, -81925.44662063678, 42024.967613812405, -114252.55110890283, 0.09, 0.964, 0.018000000000000002, 192.0, 0.0, 0.0, 0.0, 0.0, 0.0, 0.0, 0.0, 0.0, 0.0, 1.6664055139872708E9, 0.0, 2022-10-21 19:25:13.987
139.0, -135934.838466029, -161030.48307066955, 5318.150558251209, -123851.48541349, 57661.66688938939, -81926.11717297044, 42019.62554688758, -114264.06225729732, 0.09, 0.964, 0.018000000000000002, 192.0, 0.0, 0.0, 0.0, 0.0, 0.0, 0.0, 0.0, 0.0, 0.0, 1.6664055139872785E9, 0.0, 2022-10-21 19:25:13.987
140.0, -135945.85787604545, -161037.74738761754, 5306.102967989799, -123868.40568404266, 57654.53668290815, -81929.9393212723, 42006.929756036974, -114283.73179241798, 0.09, 0.964, 0.018000000000000002, 192.0, 0.0, 0.0, 0.0, 0.0, 0.0, 0.0, 0.0, 0.0, 0.0, 1.6664055139872863E9, 0.0, 2022-10-21 19:25:13.987
141.0, -135947.98129176872, -161033.96994280457, 5314.708389605092, -123856.96159088155, 57667.880674347965, -81942.97038828974, 42006.77329382578, -114283.68708892907, 0.09, 0.964, 0.018000000000000002, 192.0, 0.0, 0.0, 0.0, 0.0, 0.0, 0.0, 0.0, 0.0, 0.0, 1.6664055139873188E9, 0.0, 2022-10-21 19:25:13.987
142.0, -135934.97257649573, -161022.12351824326, 5329.013506056489, -123838.76727089492, 57687.863133891005, -81933.20267596278, 42030.913177837516, -114269.89606260015, 0.09, 0.964, 0.018000000000000002, 192.0, 0.0, 0.0, 0.0, 0.0, 0.0, 0.0, 0.0, 0.0, 0.0, 1.6664055139873269E9, 0.0, 2022-10-21 19:25:13.987
143.0, -135933.8326375285, -161018.4131286637, 5322.978535053556, -123847.30563727685, 57678.631863430965, -81929.06760323854, 42028.56624466971, -114275.88633011417, 0.09, 0.964, 0.018000000000000002, 192.0, 0.0, 0.0, 0.0, 0.0, 0.0, 0.0, 0.0, 0.0, 0.0, 1.6664055139873347E9, 0.0, 2022-10-21 19:25:13.987
144.0, -135936.4924951187, -161019.53071588645, 5319.134035007243, -123850.61369545624, 57678.765973897694, -81925.96071075926, 42021.59250039965, -114281.98835635047, 0.09, 0.964, 0.018000000000000002, 192.0, 0.0, 0.0, 0.0, 0.0, 0.0, 0.0, 0.0, 0.0, 0.0, 1.666405513987343E9, 0.0, 2022-10-21 19:25:13.987
145.0, -135936.60425384095, -161016.64734085172, 5318.687000118137, -123852.67005594613, 57678.96713959779, -81939.48351615471, 42014.43994217395, -114276.35571674774, 0.108, 0.968, 0.024, 192.0, 3.0, 96.0, 30.0, 64.0, 0.0, 192.0, 0.0, 0.0, 0.0, 1.666405513987351E9, 0.0, 2022-10-21 19:25:13.987
146.0, -135934.7937625401, -161012.48991638303, 5320.810415841391, -123847.70796867704, 57678.006014586215, -81940.06466151055, 42013.25529971782, -114271.1701120341, 0.108, 0.968, 0.024, 192.0, 0.0, 0.0, 0.0, 0.0, 0.0, 0.0, 0.0, 0.0, 0.0, 1.6664055139873593E9, 0.0, 2022-10-21 19:25:13.987
147.0, -135932.55858809454, -161011.39468090472, 5322.084465275343, -123842.38825349668, 57678.54245645314, -81932.08508874, 42018.35149745363, -114267.52677768789, 0.108, 0.968, 0.024, 192.0, 0.0, 0.0, 0.0, 0.0, 0.0, 0.0, 0.0, 0.0, 0.0, 1.6664055139873674E9, 0.0, 2022-10-21 19:25:13.987
148.0, -135931.57511133852, -161012.3111024274, 5321.8832995752455, -123839.86250637323, 57679.57063669809, -81928.62056834943, 42012.54004389525, -114264.55399567533, 0.108, 0.968, 0.024, 192.0, 0.0, 0.0, 0.0, 0.0, 0.0, 0.0, 0.0, 0.0, 0.0, 1.6664055139873753E9, 0.0, 2022-10-21 19:25:13.987
149.0, -135931.7315735497, -161012.22169544955, 5319.424607685162, -123839.39311973967, 57683.2139710443, -81937.22598996473, 42009.3660961826, -114257.69201012755, 0.108, 0.968, 0.024, 192.0, 0.0, 0.0, 0.0, 0.0, 0.0, 0.0, 0.0, 0.0, 0.0, 1.6664055139873831E9, 0.0, 2022-10-21 19:25:13.987
150.0, -135936.5371986076, -161017.02732050745, 5309.589840124827, -123844.46696573103, 57673.7144796508, -81951.82167909405, 42005.49924439183, -114254.98744904847, 0.108, 0.968, 0.024, 192.0, 0.0, 0.0, 0.0, 0.0, 0.0, 0.0, 0.0, 0.0, 0.0, 1.6664055139873912E9, 0.0, 2022-10-21 19:25:13.987
151.0, -135931.66451831633, -161013.27222743895, 5317.547061150916, -123834.90041910416, 57677.98366284176, -81939.05883301006, 42016.74217185285, -114244.3703704322, 0.108, 0.968, 0.024, 192.0, 0.0, 0.0, 0.0, 0.0, 0.0, 0.0, 0.0, 0.0, 0.0, 1.666405513987399E9, 0.0, 2022-10-21 19:25:13.987
152.0, -135927.4400386143, -161010.27709368194, 5323.1126455202875, -123832.9334655921, 57678.02836633067, -81923.92670201382, 42020.631375388075, -114241.82227156429, 0.108, 0.968, 0.024, 192.0, 0.0, 0.0, 0.0, 0.0, 0.0, 0.0, 0.0, 0.0, 0.0, 1.666405513987407E9, 0.0, 2022-10-21 19:25:13.987
153.0, -135928.3341083925, -161011.68525358263, 5315.513052405483, -123840.33189300679, 57667.4112877144, -81953.76628086166, 42001.74415132334, -114252.30523971382, 0.108, 0.968, 0.024, 192.0, 0.0, 0.0, 0.0, 0.0, 0.0, 0.0, 0.0, 0.0, 0.0, 1.6664055139874158E9, 0.0, 2022-10-21 19:25:13.987
154.0, -135924.333146135, -161008.01956749198, 5317.927040806656, -123828.19489576756, 57667.79126737014, -81983.0023626092, 41996.871471032086, -114246.00204777742, 0.082, 0.96, 0.03, 192.0, 2.0, 144.0, 30.0, 0.0, 0.0, 240.0, 0.0, 0.0, 0.0, 1.6664055139874237E9, 0.0, 2022-10-21 19:25:13.987
155.0, -135928.6470328149, -161012.48991638303, 5310.57331688086, -123828.75368937895, 57664.371450468476, -81979.22491779625, 41997.54202336574, -114246.04675126635, 0.082, 0.96, 0.03, 192.0, 0.0, 0.0, 0.0, 0.0, 0.0, 0.0, 0.0, 0.0, 0.0, 1.666405513987432E9, 0.0, 2022-10-21 19:25:13.987
156.0, -135939.30881492005, -161021.83294556534, 5297.028159740944, -123847.84207914378, 57650.42396192837, -81966.35031298999, 41991.01531398479, -114254.47335892598, 0.082, 0.96, 0.03, 192.0, 0.0, 0.0, 0.0, 0.0, 0.0, 0.0, 0.0, 0.0, 0.0, 1.666405513987448E9, 0.0, 2022-10-21 19:25:13.987
157.0, -135939.53233236462, -161023.82225082186, 5294.480060873039, -123844.62342794222, 57647.56293863809, -81973.39111249341, 41984.86858425958, -114256.28385022687, 0.082, 0.96, 0.03, 192.0, 0.0, 0.0, 0.0, 0.0, 0.0, 0.0, 0.0, 0.0, 0.0, 1.666405513987456E9, 0.0, 2022-10-21 19:25:13.987
158.0, -135933.40795438385, -161018.99427401953, 5302.593744110316, -123833.64872141466, 57659.31995622158, -81985.63986845492, 41990.74709305133, -114244.28096345437, 0.082, 0.96, 0.03, 192.0, 0.0, 0.0, 0.0, 0.0, 0.0, 0.0, 0.0, 0.0, 0.0, 1.666405513987464E9, 0.0, 2022-10-21 19:25:13.987
159.0, -135934.45848637325, -161022.0564630099, 5300.649142342704, -123833.49225920347, 57659.99050855524, -81980.36485676347, 42002.19118621245, -114237.50838488441, 0.082, 0.96, 0.03, 192.0, 0.0, 0.0, 0.0, 0.0, 0.0, 0.0, 0.0, 0.0, 0.0, 1.666405513987472E9, 0.0, 2022-10-21 19:25:13.987
160.0, -135942.86274228845, -161028.60552413532, 5289.942656748612, -123840.22013428452, 57645.439522914836, -81973.50287121569, 41992.959915752406, -114248.88542281216, 0.082, 0.96, 0.03, 192.0, 0.0, 0.0, 0.0, 0.0, 0.0, 0.0, 0.0, 0.0, 0.0, 1.66640551398748E9, 0.0, 2022-10-21 19:25:13.987
161.0, -135939.97936725372, -161027.08560551234, 5290.1214707042545, -123841.74005290748, 57643.56197638059, -81980.61072595247, 41982.96868598088, -114243.5657076318, 0.082, 0.96, 0.03, 192.0, 0.0, 0.0, 0.0, 0.0, 0.0, 0.0, 0.0, 0.0, 0.0, 1.666405513987488E9, 0.0, 2022-10-21 19:25:13.987
162.0, -135932.42447762782, -161019.88834379773, 5294.14478470621, -123836.86737261622, 57647.71940084927, -82002.78365645214, 41982.63340981405, -114225.59490508973, 0.082, 0.96, 0.03, 192.0, 0.0, 0.0, 0.0, 0.0, 0.0, 0.0, 0.0, 0.0, 0.0, 1.666405513987496E9, 0.0, 2022-10-21 19:25:13.987
163.0, -135935.17374219582, -161020.87182055376, 5290.412043382174, -123835.16864003762, 57644.54545313662, -82000.59318549553, 41989.76361629529, -114231.74163481494, 0.082, 0.96, 0.03, 192.0, 0.0, 0.0, 0.0, 0.0, 0.0, 0.0, 0.0, 0.0, 0.0, 1.666405513987504E9, 0.0, 2022-10-21 19:25:13.987
164.0, -135937.29715791906, -161026.70562585662, 5288.400386381196, -123830.96651208002, 57642.31027869109, -81992.32304004706, 41995.01627624229, -114234.78147206086, 0.056, 0.96, 0.038, 192.0, 1.0, 192.0, 30.0, 0.0, 1.0, 48.0, 0.0, 0.0, 0.0, 1.6664055139875116E9, 0.0, 2022-10-21 19:25:13.987
165.0, -135935.41961138483, -161026.2585909675, 5289.674435815148, -123832.44172721407, 57645.908909548394, -81999.43089478384, 41992.19995644092, -114231.18284120355, 0.056, 0.96, 0.038, 192.0, 0.0, 0.0, 0.0, 0.0, 0.0, 0.0, 0.0, 0.0, 0.0, 1.6664055139875386E9, 0.0, 2022-10-21 19:25:13.987
166.0, -135938.97353875323, -161027.13030900125, 5290.993188738012, -123835.25804701545, 57646.73592409324, -82019.54746479362, 41984.1086249481, -114244.03509426536, 0.056, 0.96, 0.038, 192.0, 0.0, 0.0, 0.0, 0.0, 0.0, 0.0, 0.0, 0.0, 0.0, 1.6664055139875467E9, 0.0, 2022-10-21 19:25:13.987
167.0, -135942.3933556549, -161031.37714044776, 5292.200182938598, -123831.30178824686, 57647.78645608264, -82029.89632247643, 41982.4098923695, -114238.73773082945, 0.056, 0.96, 0.038, 192.0, 0.0, 0.0, 0.0, 0.0, 0.0, 0.0, 0.0, 0.0, 0.0, 1.6664055139875543E9, 0.0, 2022-10-21 19:25:13.987
168.0, -135939.2864631756, -161030.72893985856, 5293.47423237255, -123829.89362834617, 57648.97109853877, -82006.98578440974, 41990.903555262514, -114226.37721614567, 0.056, 0.96, 0.038, 192.0, 0.0, 0.0, 0.0, 0.0, 0.0, 0.0, 0.0, 0.0, 0.0, 1.6664055139875624E9, 0.0, 2022-10-21 19:25:13.987
169.0, -135941.8345620435, -161032.27121022597, 5290.881430015735, -123831.0782708023, 57649.328726450054, -81988.18796732282, 41988.534270350254, -114230.33347491425, 0.056, 0.96, 0.038, 192.0, 0.0, 0.0, 0.0, 0.0, 0.0, 0.0, 0.0, 0.0, 0.0, 1.6664055139875703E9, 0.0, 2022-10-21 19:25:13.987
170.0, -135944.42736440033, -161036.58509690585, 5283.930037490134, -123840.86833487372, 57644.21017696979, -82001.88958667393, 41974.83265099915, -114233.2615534379, 0.056, 0.96, 0.038, 192.0, 0.0, 0.0, 0.0, 0.0, 0.0, 0.0, 0.0, 0.0, 0.0, 1.666405513987578E9, 0.0, 2022-10-21 19:25:13.987
171.0, -135935.59842534046, -161029.18666949114, 5292.356645149785, -123831.36884348022, 57652.145046251426, -82024.12957240696, 41975.07852018816, -114219.00114047542, 0.056, 0.96, 0.038, 192.0, 0.0, 0.0, 0.0, 0.0, 0.0, 0.0, 0.0, 0.0, 0.0, 1.6664055139876032E9, 0.0, 2022-10-21 19:25:13.987
172.0, -135931.2398351717, -161025.43157642265, 5299.7550725644915, -123806.02196526791, 57664.863188846495, -82010.76322922269, 41991.060017473705, -114216.36363462968, 0.056, 0.96, 0.038, 192.0, 0.0, 0.0, 0.0, 0.0, 0.0, 0.0, 0.0, 0.0, 0.0, 1.6664055139876115E9, 0.0, 2022-10-21 19:25:13.987
173.0, -135940.1358294649, -161038.61910565128, 5285.0476247129, -123823.18810500958, 57651.38508693995, -82016.59703452552, 41977.04547370022, -114234.04386449384, 0.056, 0.96, 0.038, 192.0, 0.0, 0.0, 0.0, 0.0, 0.0, 0.0, 0.0, 0.0, 0.0, 1.6664055139876194E9, 0.0, 2022-10-21 19:25:13.987
174.0, -135951.71403309275, -161051.1137308018, 5273.3353106183185, -123841.31536976283, 57641.52796763516, -82039.19464816984, 41960.236961869836, -114240.99525701944, 0.036000000000000004, 0.9540000000000001, 0.05, 192.0, 1.0, 32.0, 29.0, 208.0, 1.0, 144.0, 0.0, 0.0, 0.0, 1.6664055139876285E9, 0.0, 2022-10-21 19:25:13.987
175.0, -135950.84231505898, -161047.6045069223, 5273.38001410723, -123838.99078833948, 57643.09258974703, -82044.53671509465, 41960.996921181315, -114239.49769014094, 0.036000000000000004, 0.9540000000000001, 0.05, 192.0, 0.0, 0.0, 0.0, 0.0, 0.0, 0.0, 0.0, 0.0, 0.0, 1.6664055139876373E9, 0.0, 2022-10-21 19:25:13.987
176.0, -135954.30683544956, -161051.44900696864, 5269.669624527648, -123838.76727089492, 57636.54352862162, -82034.56783706759, 41965.601380539105, -114238.1118819847, 0.036000000000000004, 0.9540000000000001, 0.05, 192.0, 0.0, 0.0, 0.0, 0.0, 0.0, 0.0, 0.0, 0.0, 0.0, 1.666405513987645E9, 0.0, 2022-10-21 19:25:13.987
177.0, -135951.64697785937, -161050.39847497924, 5272.262426884464, -123837.80614588335, 57635.18007220985, -82034.83605800105, 41967.702444517905, -114237.12840522866, 0.036000000000000004, 0.9540000000000001, 0.05, 192.0, 0.0, 0.0, 0.0, 0.0, 0.0, 0.0, 0.0, 0.0, 0.0, 1.666405513987653E9, 0.0, 2022-10-21 19:25:13.987
178.0, -135952.25047495967, -161049.1020738008, 5271.167191406154, -123836.50974470493, 57640.07510424556, -82043.9108662499, 41969.110604418594, -114232.14396621514, 0.036000000000000004, 0.9540000000000001, 0.05, 192.0, 0.0, 0.0, 0.0, 0.0, 0.0, 0.0, 0.0, 0.0, 0.0, 1.6664055139876611E9, 0.0, 2022-10-21 19:25:13.987
179.0, -135953.83744881602, -161047.33628598886, 5265.579255292328, -123846.72449192102, 57631.98377275274, -82061.25581994723, 41959.678168258455, -114233.48507088245, 0.036000000000000004, 0.9540000000000001, 0.05, 192.0, 0.0, 0.0, 0.0, 0.0, 0.0, 0.0, 0.0, 0.0, 0.0, 1.666405513987669E9, 0.0, 2022-10-21 19:25:13.987
180.0, -135934.97257649573, -161023.55402988842, 5272.351833862285, -123837.80614588335, 57636.72234257726, -82053.41035764341, 41971.03285444175, -114220.99044573194, 0.036000000000000004, 0.9540000000000001, 0.05, 192.0, 0.0, 0.0, 0.0, 0.0, 0.0, 0.0, 0.0, 0.0, 0.0, 1.6664055139876776E9, 0.0, 2022-10-21 19:25:13.987
181.0, -135933.9443962508, -161027.93497180165, 5271.793040250903, -123835.63802667118, 57637.63876409993, -82038.4123371139, 41978.610095812095, -114219.71639629798, 0.036000000000000004, 0.9540000000000001, 0.05, 192.0, 0.0, 0.0, 0.0, 0.0, 0.0, 0.0, 0.0, 0.0, 0.0, 1.6664055139876857E9, 0.0, 2022-10-21 19:25:13.987
182.0, -135950.95407378126, -161053.23714652506, 5278.18563916512, -123833.60401792575, 57644.67956360336, -82039.0605377031, 41977.31369463369, -114222.24214342143, 0.036000000000000004, 0.9540000000000001, 0.05, 192.0, 0.0, 0.0, 0.0, 0.0, 0.0, 0.0, 0.0, 0.0, 0.0, 1.6664055139876947E9, 0.0, 2022-10-21 19:25:13.987
183.0, -135950.50703889216, -161055.29350701495, 5280.353758377285, -123830.6312359132, 57646.73592409324, -82043.48618310525, 41973.31273237619, -114226.13134695667, 0.036000000000000004, 0.9540000000000001, 0.05, 192.0, 0.0, 0.0, 0.0, 0.0, 0.0, 0.0, 0.0, 0.0, 0.0, 1.6664055139877028E9, 0.0, 2022-10-21 19:25:13.987
184.0, -135940.18053295382, -161043.84941385384, 5282.56658107836, -123823.61278815423, 57645.59598512602, -82033.22673240028, 41977.917191733985, -114229.34999815823, 0.026000000000000002, 0.9560000000000001, 0.06, 192.0, 0.0, 208.0, 29.0, 224.0, 1.0, 224.0, 0.0, 0.0, 0.0, 1.6664055139877439E9, 0.0, 2022-10-21 19:25:13.987
185.0, -135936.47014337423, -161039.66963764068, 5282.678339800637, -123823.76925036541, 57640.36567692348, -82029.7622120097, 41979.32535163467, -114225.12551845617, 0.026000000000000002, 0.9560000000000001, 0.06, 192.0, 0.0, 0.0, 0.0, 0.0, 0.0, 0.0, 0.0, 0.0, 0.0, 1.6664055139877524E9, 0.0, 2022-10-21 19:25:13.987
186.0, -135936.87247477443, -161040.2060795076, 5276.0398716974105, -123838.58845693928, 57632.96724950877, -82047.53184885166, 41965.51197356129, -114235.22850694996, 0.026000000000000002, 0.9560000000000001, 0.06, 192.0, 0.0, 0.0, 0.0, 0.0, 0.0, 0.0, 0.0, 0.0, 0.0, 1.666405513987769E9, 0.0, 2022-10-21 19:25:13.987
187.0, -135928.9376054928, -161034.34992246033, 5277.537438575917, -123837.69438716107, 57634.1518919649, -82061.23346820277, 41956.817144968176, -114235.07204473879, 0.026000000000000002, 0.9560000000000001, 0.06, 192.0, 0.0, 0.0, 0.0, 0.0, 0.0, 0.0, 0.0, 0.0, 0.0, 1.6664055139877772E9, 0.0, 2022-10-21 19:25:13.987
188.0, -135916.91236697583, -161022.4587944101, 5294.345950406308, -123819.0753840298, 57648.568767138575, -82071.40351192994, 41970.094081174626, -114223.60559983322, 0.026000000000000002, 0.9560000000000001, 0.06, 192.0, 0.0, 0.0, 0.0, 0.0, 0.0, 0.0, 0.0, 0.0, 0.0, 1.666405513987785E9, 0.0, 2022-10-21 19:25:13.987
189.0, -135910.34095410598, -161015.52975362894, 5302.52668887695, -123812.92865430459, 57656.43658118684, -82057.09839547853, 41987.148462194025, -114204.94189321304, 0.026000000000000002, 0.9560000000000001, 0.06, 192.0, 0.0, 0.0, 0.0, 0.0, 0.0, 0.0, 0.0, 0.0, 0.0, 1.6664055139877932E9, 0.0, 2022-10-21 19:25:13.987
190.0, -135917.0241256981, -161020.42478566465, 5295.485889373528, -123815.5214566614, 57652.837950329544, -82045.72135755079, 41981.71698829139, -114208.18289615905, 0.026000000000000002, 0.9560000000000001, 0.06, 192.0, 0.0, 0.0, 0.0, 0.0, 0.0, 0.0, 0.0, 0.0, 0.0, 1.6664055139878013E9, 0.0, 2022-10-21 19:25:13.987
191.0, -135926.41185836933, -161030.34896020283, 5285.874639257746, -123829.08896554577, 57640.83506355704, -82053.45506113232, 41965.176697394454, -114212.98852121695, 0.026000000000000002, 0.9560000000000001, 0.06, 192.0, 0.0, 0.0, 0.0, 0.0, 0.0, 0.0, 0.0, 0.0, 0.0, 1.6664055139878094E9, 0.0, 2022-10-21 19:25:13.987
192.0, -135924.15433217934, -161028.42671017966, 5287.148688691698, -123830.40771846865, 57641.48326414624, -82065.72616883829, 41961.08632815914, -114216.09541369622, 0.026000000000000002, 0.9560000000000001, 0.06, 192.0, 0.0, 0.0, 0.0, 0.0, 0.0, 0.0, 0.0, 0.0, 0.0, 1.6664055139878173E9, 0.0, 2022-10-21 19:25:13.987
193.0, -135923.81905601252, -161028.69493111313, 5289.607380581782, -123825.02094805491, 57645.26070895919, -82052.0692529761, 41966.71896776187, -114218.39764337512, 0.016, 0.96, 0.06, 192.0, 0.0, 128.0, 30.0, 0.0, 1.0, 224.0, 0.0, 0.0, 0.0, 1.6664055139878252E9, 0.0, 2022-10-21 19:25:13.987
194.0, -135919.90750073284, -161024.22458222206, 5294.368302150763, -123823.54573292086, 57648.23349097175, -82048.62708432997, 41969.84821198562, -114215.3578061292, 0.016, 0.96, 0.06, 192.0, 0.0, 0.0, 0.0, 0.0, 0.0, 0.0, 0.0, 0.0, 0.0, 1.6664055139878335E9, 0.0, 2022-10-21 19:25:13.987
195.0, -135920.64510829988, -161025.56568688937, 5292.311941660874, -123826.36205272224, 57647.47353166027, -82061.85931704752, 41966.026063683756, -114220.76692828738, 0.016, 0.96, 0.06, 192.0, 0.0, 0.0, 0.0, 0.0, 0.0, 0.0, 0.0, 0.0, 0.0, 1.6664055139878411E9, 0.0, 2022-10-21 19:25:13.987
196.0, -135917.9852507097, -161021.47531765405, 5295.307075417885, -123817.35429970674, 57650.42396192837, -82077.14791025495, 41963.92499970496, -114218.66586430858, 0.016, 0.96, 0.06, 192.0, 0.0, 0.0, 0.0, 0.0, 0.0, 0.0, 0.0, 0.0, 0.0, 1.66640551398785E9, 0.0, 2022-10-21 19:25:13.987
197.0, -135920.15336992187, -161023.19640197713, 5294.278895172942, -123811.02875602589, 57651.47449391777, -82064.69798859334, 41976.55373532221, -114209.27813163736, 0.016, 0.96, 0.06, 192.0, 0.0, 0.0, 0.0, 0.0, 0.0, 0.0, 0.0, 0.0, 0.0, 1.6664055139878578E9, 0.0, 2022-10-21 19:25:13.987
198.0, -135922.7908757676, -161029.14196600224, 5288.020406725455, -123816.59434039526, 57648.41230492739, -82061.99342751426, 41973.98328470985, -114213.74848052842, 0.016, 0.96, 0.06, 192.0, 0.0, 0.0, 0.0, 0.0, 0.0, 0.0, 0.0, 0.0, 0.0, 1.6664055139878657E9, 0.0, 2022-10-21 19:25:13.987
199.0, -135928.1329426924, -161034.50638467152, 5280.66668279966, -123824.86448584372, 57642.84672055802, -82083.38404695799, 41963.14268864902, -114218.08471895276, 0.016, 0.96, 0.06, 192.0, 0.0, 0.0, 0.0, 0.0, 0.0, 0.0, 0.0, 0.0, 0.0, 1.6664055139878733E9, 0.0, 2022-10-21 19:25:13.987
200.0, -135922.25443390064, -161028.5608206464, 5286.098156702299, -123821.3776137087, 57647.518235149175, -82105.80284664665, 41963.18739213794, -114209.18872465954, 0.016, 0.96, 0.06, 192.0, 0.0, 0.0, 0.0, 0.0, 0.0, 0.0, 0.0, 0.0, 0.0, 1.6664055139878814E9, 0.0, 2022-10-21 19:25:13.987
201.0, -135913.85017798547, -161023.55402988842, 5292.200182938598, -123810.60407288124, 57651.6086043845, -82102.20421578934, 41973.17862190946, -114207.33352986975, 0.016, 0.96, 0.06, 192.0, 0.0, 0.0, 0.0, 0.0, 0.0, 0.0, 0.0, 0.0, 0.0, 1.66640551398789E9, 0.0, 2022-10-21 19:25:13.987
202.0, -135916.80060825357, -161027.64439912373, 5286.388729380218, -123815.74497410595, 57646.51240664869, -82091.34126798407, 41971.904572475505, -114214.57549507327, 0.016, 0.96, 0.06, 192.0, 0.0, 0.0, 0.0, 0.0, 0.0, 0.0, 0.0, 0.0, 0.0, 1.6664055139879055E9, 0.0, 2022-10-21 19:25:13.987
203.0, -135921.49447458918, -161034.57343990487, 5276.889237986713, -123825.55738992184, 57639.51631063418, -82093.68820115188, 41960.77340373676, -114219.11289919769, 0.022, 0.9520000000000001, 0.06, 192.0, 0.0, 176.0, 29.0, 192.0, 1.0, 224.0, 0.0, 0.0, 0.0, 1.6664055139879136E9, 0.0, 2022-10-21 19:25:13.987
204.0, -135915.2359861417, -161034.01464629348, 5275.2128571525645, -123830.25125625746, 57637.236432699734, -82113.3353845281, 41954.51491528928, -114216.63185556316, 0.022, 0.9520000000000001, 0.06, 192.0, 0.0, 0.0, 0.0, 0.0, 0.0, 0.0, 0.0, 0.0, 0.0, 1.666405513987922E9, 0.0, 2022-10-21 19:25:13.987
205.0, -135914.40897159683, -161032.18180324815, 5277.202162409087, -123823.21045675404, 57640.03040075665, -82112.19544556086, 41961.3545490926, -114218.28588465285, 0.022, 0.9520000000000001, 0.06, 192.0, 0.0, 0.0, 0.0, 0.0, 0.0, 0.0, 0.0, 0.0, 0.0, 1.6664055139879298E9, 0.0, 2022-10-21 19:25:13.987
206.0, -135920.10866643293, -161037.18859400615, 5271.167191406154, -123825.13270677719, 57635.291830932125, -82104.86407337953, 41959.83463046964, -114229.8640882807, 0.022, 0.9520000000000001, 0.06, 192.0, 0.0, 0.0, 0.0, 0.0, 0.0, 0.0, 0.0, 0.0, 0.0, 1.6664055139879377E9, 0.0, 2022-10-21 19:25:13.987
207.0, -135918.56639606552, -161033.50055617103, 5270.496639072495, -123830.0277388129, 57634.107188475995, -82119.79503867567, 41946.35652856309, -114235.13909997215, 0.022, 0.9520000000000001, 0.06, 192.0, 0.0, 0.0, 0.0, 0.0, 0.0, 0.0, 0.0, 0.0, 0.0, 1.6664055139879453E9, 0.0, 2022-10-21 19:25:13.987
208.0, -135918.85696874344, -161035.46750968308, 5274.296435629897, -123828.86544810122, 57641.03622925714, -82133.49665802678, 41943.33904306162, -114234.17797496058, 0.022, 0.9520000000000001, 0.06, 192.0, 0.0, 0.0, 0.0, 0.0, 0.0, 0.0, 0.0, 0.0, 0.0, 1.6664055139879532E9, 0.0, 2022-10-21 19:25:13.987
209.0, -135912.8890529739, -161033.05352128192, 5281.180772922132, -123821.19879975305, 57644.232528714245, -82136.3353295726, 41955.20781936739, -114222.26449516589, 0.022, 0.9520000000000001, 0.06, 192.0, 0.0, 0.0, 0.0, 0.0, 0.0, 0.0, 0.0, 0.0, 0.0, 1.6664055139879613E9, 0.0, 2022-10-21 19:25:13.987
210.0, -135908.55281454956, -161029.63370438025, 5281.918380489156, -123815.67791887259, 57646.691220604334, -82121.91845439892, 41965.601380539105, -114229.48410862495, 0.022, 0.9520000000000001, 0.06, 192.0, 0.0, 0.0, 0.0, 0.0, 0.0, 0.0, 0.0, 0.0, 0.0, 1.6664055139879687E9, 0.0, 2022-10-21 19:25:13.987
211.0, -135902.40608482435, -161027.04090202344, 5285.584066579827, -123816.1249537617, 57648.79228458313, -82140.0904226411, 41958.02413916876, -114228.03124523537, 0.022, 0.9520000000000001, 0.06, 192.0, 0.0, 0.0, 0.0, 0.0, 0.0, 0.0, 0.0, 0.0, 0.0, 1.6664055139879768E9, 0.0, 2022-10-21 19:25:13.987
212.0, -135907.81520698252, -161033.29939047093, 5277.000996708989, -123828.17254402311, 57640.63389785694, -82155.98251294882, 41941.10386861609, -114237.55308837332, 0.022, 0.9520000000000001, 0.06, 192.0, 0.0, 0.0, 0.0, 0.0, 0.0, 0.0, 0.0, 0.0, 0.0, 1.6664055139879847E9, 0.0, 2022-10-21 19:25:13.987
213.0, -135908.3740005939, -161037.94855331763, 5275.2128571525645, -123825.5797416663, 57639.18103446735, -82166.89016424301, 41936.387650536024, -114236.74842557294, 0.02, 0.9480000000000001, 0.064, 192.0, 0.0, 160.0, 29.0, 160.0, 2.0, 0.0, 0.0, 0.0, 0.0, 1.6664055139879923E9, 0.0, 2022-10-21 19:25:13.987
214.0, -135904.84242496997, -161036.33922771685, 5283.013615967467, -123816.14730550615, 57651.47449391777, -82147.71236750035, 41950.89393268752, -114226.33251265675, 0.02, 0.9480000000000001, 0.064, 192.0, 0.0, 0.0, 0.0, 0.0, 0.0, 0.0, 0.0, 0.0, 0.0, 1.6664055139880009E9, 0.0, 2022-10-21 19:25:13.988
215.0, -135903.814244725, -161035.33339921635, 5283.415947367662, -123820.03650904138, 57653.28498521865, -82142.638521509, 41948.45759254189, -114224.72318705598, 0.02, 0.9480000000000001, 0.064, 192.0, 0.0, 0.0, 0.0, 0.0, 0.0, 0.0, 0.0, 0.0, 0.0, 1.6664055139880085E9, 0.0, 2022-10-21 19:25:13.988
216.0, -135904.4177418253, -161035.31104747189, 5277.783307764925, -123824.79743061036, 57648.36760143848, -82171.85225151209, 41931.17969407794, -114227.07012022378, 0.02, 0.9480000000000001, 0.064, 192.0, 0.0, 0.0, 0.0, 0.0, 0.0, 0.0, 0.0, 0.0, 0.0, 1.6664055139880166E9, 0.0, 2022-10-21 19:25:13.988
217.0, -135906.317640104, -161037.0097800505, 5278.163287420665, -123823.09869803175, 57646.80297932661, -82208.06207752968, 41919.71324917236, -114235.92141102809, 0.02, 0.9480000000000001, 0.064, 192.0, 0.0, 0.0, 0.0, 0.0, 0.0, 0.0, 0.0, 0.0, 0.0, 1.6664055139880323E9, 0.0, 2022-10-21 19:25:13.988
218.0, -135910.45271282826, -161043.24591675354, 5273.514124573961, -123831.16767778012, 57638.7563513227, -82220.48964744684, 41912.15835954647, -114246.62789662217, 0.02, 0.9480000000000001, 0.064, 192.0, 0.0, 0.0, 0.0, 0.0, 0.0, 0.0, 0.0, 0.0, 0.0, 1.6664055139880404E9, 0.0, 2022-10-21 19:25:13.988
219.0, -135900.55089003456, -161030.95245730312, 5285.6064183242825, -123814.56033164983, 57657.95649980981, -82199.79193208122, 41930.10681034408, -114233.44036739354, 0.02, 0.9480000000000001, 0.064, 192.0, 0.0, 0.0, 0.0, 0.0, 0.0, 0.0, 0.0, 0.0, 0.0, 1.6664055139880483E9, 0.0, 2022-10-21 19:25:13.988
220.0, -135902.1825673798, -161030.63953288074, 5290.277932915442, -123811.16286649262, 57667.657156903406, -82212.91240607649, 41931.559673733675, -114232.25572493741, 0.02, 0.9480000000000001, 0.064, 192.0, 0.0, 0.0, 0.0, 0.0, 0.0, 0.0, 0.0, 0.0, 0.0, 1.666405513988056E9, 0.0, 2022-10-21 19:25:13.988
221.0, -135914.3866198524, -161048.8115011229, 5275.9951682085, -123825.89266608866, 57654.89431081943, -82223.23891201484, 41925.748220175294, -114248.25957396741, 0.02, 0.9480000000000001, 0.064, 192.0, 0.0, 0.0, 0.0, 0.0, 0.0, 0.0, 0.0, 0.0, 0.0, 1.6664055139880638E9, 0.0, 2022-10-21 19:25:13.988
222.0, -135907.0328959266, -161041.61423940829, 5282.343063633807, -123815.70027061705, 57659.14114226594, -82210.83369384214, 41938.46636277036, -114239.9670767745, 0.02, 0.9580000000000001, 0.064, 192.0, 0.0, 160.0, 29.0, 240.0, 2.0, 0.0, 0.0, 0.0, 0.0, 1.6664055139880717E9, 0.0, 2022-10-21 19:25:13.988
223.0, -135914.56543380802, -161045.30227724343, 5275.726947275037, -123820.34943346375, 57652.74854335172, -82206.92213856247, 41934.89008365752, -114242.20225122002, 0.02, 0.9580000000000001, 0.064, 192.0, 0.0, 0.0, 0.0, 0.0, 0.0, 0.0, 0.0, 0.0, 0.0, 1.6664055139880807E9, 0.0, 2022-10-21 19:25:13.988
224.0, -135914.3866198524, -161045.63755341026, 5275.682243786126, -123820.7741166084, 57650.803941584105, -82217.58392066765, 41927.2457870538, -114246.80671057782, 0.02, 0.9580000000000001, 0.064, 192.0, 0.0, 0.0, 0.0, 0.0, 0.0, 0.0, 0.0, 0.0, 0.0, 1.6664055139880888E9, 0.0, 2022-10-21 19:25:13.988
225.0, -135899.61211676744, -161032.40532069272, 5287.886296258724, -123814.62738688319, 57662.53860742314, -82247.35644428211, 41928.22926380984, -114242.64928610912, 0.02, 0.9580000000000001, 0.064, 192.0, 0.0, 0.0, 0.0, 0.0, 0.0, 0.0, 0.0, 0.0, 0.0, 1.6664055139880967E9, 0.0, 2022-10-21 19:25:13.988
226.0, -135903.25545111365, -161035.758082361, 5285.204086924086, -123818.4718869295, 57656.72715386476, -82253.63728447405, 41933.526627245745, -114241.08466399726, 0.02, 0.9580000000000001, 0.064, 192.0, 0.0, 0.0, 0.0, 0.0, 0.0, 0.0, 0.0, 0.0, 0.0, 1.666405513988104E9, 0.0, 2022-10-21 19:25:13.988
227.0, -135904.1271691474, -161036.78626260595, 5287.461613114073, -123819.41066019663, 57657.46476143179, -82242.39435701304, 41940.165095348966, -114235.38496916115, 0.02, 0.9580000000000001, 0.064, 192.0, 0.0, 0.0, 0.0, 0.0, 0.0, 0.0, 0.0, 0.0, 0.0, 1.6664055139881122E9, 0.0, 2022-10-21 19:25:13.988
228.0, -135902.54019529108, -161035.24399223854, 5284.9582177350785, -123823.59043640977, 57657.68827887634, -82253.68198796296, 41931.224397566846, -114241.6211058642, 0.02, 0.9580000000000001, 0.064, 192.0, 0.0, 0.0, 0.0, 0.0, 0.0, 0.0, 0.0, 0.0, 0.0, 1.66640551398812E9, 0.0, 2022-10-21 19:25:13.988
229.0, -135898.38277082238, -161030.72893985856, 5288.668607314659, -123820.93057881959, 57657.21889224278, -82287.41077034602, 41920.652022439484, -114247.45491116702, 0.02, 0.9580000000000001, 0.064, 192.0, 0.0, 0.0, 0.0, 0.0, 0.0, 0.0, 0.0, 0.0, 0.0, 1.6664055139881277E9, 0.0, 2022-10-21 19:25:13.988
230.0, -135899.85798595645, -161032.45002418163, 5288.176868936643, -123825.6244451552, 57653.21792998528, -82311.10361946865, 41920.27204278375, -114245.93499254406, 0.02, 0.9580000000000001, 0.064, 192.0, 0.0, 0.0, 0.0, 0.0, 0.0, 0.0, 0.0, 0.0, 0.0, 1.6664055139881353E9, 0.0, 2022-10-21 19:25:13.988
231.0, -135895.40998880984, -161029.65605612472, 5283.751223534492, -123828.48546844549, 57648.23349097175, -82300.55359608574, 41924.921205630446, -114253.71339961451, 0.02, 0.9580000000000001, 0.064, 192.0, 0.0, 0.0, 0.0, 0.0, 0.0, 0.0, 0.0, 0.0, 0.0, 1.6664055139881449E9, 0.0, 2022-10-21 19:25:13.988
232.0, -135881.64131422536, -161015.88738154023, 5283.795927023402, -123833.49225920347, 57646.71357234879, -82299.99480247436, 41918.23803403831, -114256.55207116033, 0.024, 0.96, 0.064, 192.0, 0.0, 192.0, 30.0, 0.0, 2.0, 0.0, 0.0, 0.0, 0.0, 1.6664055139881835E9, 0.0, 2022-10-21 19:25:13.988
0.0, 0.0, 0.0, 0.0, 0.0, 0.0, 0.0, 0.0, 0.0, 0.024, 0.96, 0.064, 192.0, 0.0, 0.0, 0.0, 0.0, 0.0, 0.0, 0.0, 0.0, 0.0, 1.6664055140758023E9, 0.0, 2022-10-21 19:25:14.075
1.0, -135440.90961705561, -161726.0693581187, 11477.419612100079, -122988.37280134832, 58707.92969559786, -82149.5899140346, 47634.58491976082, -113074.9941557639, -0.004, 0.962, 0.02, 192.0, 255.0, 224.0, 30.0, 16.0, 0.0, 160.0, 0.0, 0.0, 0.0, 1.6664055145575674E9, 0.0, 2022-10-21 19:25:14.557
2.0, -135436.30515769782, -161720.97316038288, 11472.301062619814, -122995.99474620758, 58702.78879437313, -82160.78813800671, 47628.885224924714, -113085.09714425768, -0.004, 0.962, 0.02, 192.0, 0.0, 0.0, 0.0, 0.0, 0.0, 0.0, 0.0, 0.0, 0.0, 1.6664055145576315E9, 0.0, 2022-10-21 19:25:14.557
3.0, -135441.8707420672, -161726.33757905217, 11462.756867737398, -123004.3319468894, 58702.4088147174, -82164.49852758629, 47626.49358826799, -113083.15254249008, -0.004, 0.962, 0.02, 192.0, 0.0, 0.0, 0.0, 0.0, 0.0, 0.0, 0.0, 0.0, 0.0, 1.6664055145576692E9, 0.0, 2022-10-21 19:25:14.557
4.0, -135451.41493694962, -161727.5222215083, 11459.381754324646, -123003.59433932237, 58699.726605382755, -82165.99609446479, 47626.38182954572, -113076.51407438685, -0.004, 0.962, 0.02, 192.0, 0.0, 0.0, 0.0, 0.0, 0.0, 0.0, 0.0, 0.0, 0.0, 1.666405514557706E9, 0.0, 2022-10-21 19:25:14.557
5.0, -135435.88047455318, -161721.04021561626, 11464.07562066026, -123000.62155730982, 58700.352454227504, -82159.11175717256, 47635.00960290547, -113071.90961502906, -0.004, 0.962, 0.02, 192.0, 0.0, 0.0, 0.0, 0.0, 0.0, 0.0, 0.0, 0.0, 0.0, 1.6664055145577452E9, 0.0, 2022-10-21 19:25:14.557
6.0, -135438.40622167662, -161723.23068657288, 11456.006640911895, -123009.67401381422, 58693.82574484656, -82168.07480669914, 47630.58395750332, -113079.06217325476, -0.004, 0.962, 0.02, 192.0, 0.0, 0.0, 0.0, 0.0, 0.0, 0.0, 0.0, 0.0, 0.0, 1.666405514557774E9, 0.0, 2022-10-21 19:25:14.557
7.0, -135444.30708221282, -161730.94203840996, 11446.84242568522, -123019.30761567446, 58687.83547733253, -82190.71712383236, 47617.57524223033, -113083.15254249008, -0.016, 0.9580000000000001, 0.0, 192.0, 255.0, 128.0, 29.0, 240.0, 0.0, 0.0, 0.0, 0.0, 0.0, 1.666405514557802E9, 0.0, 2022-10-21 19:25:14.557
8.0, -135436.75219258692, -161723.38714878407, 11450.865739687175, -123008.31055740245, 58693.46811693527, -82192.81818781116, 47620.8385969208, -113066.72401031543, -0.016, 0.9580000000000001, 0.0, 192.0, 0.0, 0.0, 0.0, 0.0, 0.0, 0.0, 0.0, 0.0, 0.0, 1.6664055145578318E9, 0.0, 2022-10-21 19:25:14.557
9.0, -135434.78523907487, -161724.39297728456, 11448.205882096992, -123005.20366492316, 58691.94819831231, -82186.49264413031, 47623.96784114455, -113065.91934751504, -0.016, 0.9580000000000001, 0.0, 192.0, 0.0, 0.0, 0.0, 0.0, 0.0, 0.0, 0.0, 0.0, 0.0, 1.6664055145578592E9, 0.0, 2022-10-21 19:25:14.557
10.0, -135434.42761116358, -161721.26373306083, 11446.864777429673, -123006.14243819028, 58693.95985531329, -82188.28078368674, 47625.48775976751, -113075.73176333091, -0.016, 0.9580000000000001, 0.0, 192.0, 0.0, 0.0, 0.0, 0.0, 0.0, 0.0, 0.0, 0.0, 0.0, 1.6664055145578864E9, 0.0, 2022-10-21 19:25:14.557
11.0, -135435.4110879196, -161724.25886681784, 11442.84146342772, -123009.22697892511, 58696.865582092476, -82195.61215586808, 47623.25258532198, -113081.56556863376, -0.016, 0.9580000000000001, 0.0, 192.0, 0.0, 0.0, 0.0, 0.0, 0.0, 0.0, 0.0, 0.0, 0.0, 1.6664055145579135E9, 0.0, 2022-10-21 19:25:14.557
12.0, -135431.7230500845, -161720.21320107143, 11445.635431484632, -123002.99084222209, 58701.8053176171, -82199.83663557013, 47628.885224924714, -113072.55781561826, -0.016, 0.9580000000000001, 0.0, 192.0, 0.0, 0.0, 0.0, 0.0, 0.0, 0.0, 0.0, 0.0, 0.0, 1.6664055145579414E9, 0.0, 2022-10-21 19:25:14.557
13.0, -135440.10495425522, -161727.18694534147, 11441.388600038124, -123002.40969686625, 58698.98899781573, -82194.67338260096, 47633.154408115675, -113072.51311212935, -0.016, 0.9580000000000001, 0.0, 192.0, 0.0, 0.0, 0.0, 0.0, 0.0, 0.0, 0.0, 0.0, 0.0, 1.666405514557969E9, 0.0, 2022-10-21 19:25:14.557
14.0, -135442.4295356786, -161728.88567792007, 11436.292402302313, -123000.84507475437, 58697.31261698158, -82192.92994653345, 47635.43428605012, -113070.52380687284, -0.016, 0.9580000000000001, 0.0, 192.0, 0.0, 0.0, 0.0, 0.0, 0.0, 0.0, 0.0, 0.0, 0.0, 1.6664055145581756E9, 0.0, 2022-10-21 19:25:14.558
15.0, -135451.3255299718, -161735.09946287866, 11421.54025096181, -123010.38926963678, 58688.61778838847, -82215.21463575539, 47617.17291083013, -113081.20794072247, -0.016, 0.9580000000000001, 0.0, 192.0, 0.0, 0.0, 0.0, 0.0, 0.0, 0.0, 0.0, 0.0, 0.0, 1.6664055145581844E9, 0.0, 2022-10-21 19:25:14.558
16.0, -135443.43536417908, -161727.41046278604, 11422.16609980656, -122999.90630148725, 58693.75868961319, -82232.98427259736, 47611.92025088314, -113083.55487389027, -0.016, 0.9580000000000001, 0.0, 192.0, 0.0, 0.0, 0.0, 0.0, 0.0, 0.0, 0.0, 0.0, 0.0, 1.6664055145581927E9, 0.0, 2022-10-21 19:25:14.558
17.0, -135443.74828860143, -161732.8195849442, 11419.68505617202, -122992.64198453928, 58694.80922160259, -82224.08827830415, 47615.94356488509, -113076.2905569423, -0.022, 0.96, -0.012, 192.0, 255.0, 80.0, 30.0, 0.0, 255.0, 160.0, 0.0, 0.0, 0.0, 1.6664055145582013E9, 0.0, 2022-10-21 19:25:14.558
18.0, -135447.01164329192, -161736.50762277935, 11418.478061971435, -122988.1269321593, 58700.486564694234, -82205.71514436188, 47622.91730915515, -113077.7881238208, -0.022, 0.96, -0.012, 192.0, 0.0, 0.0, 0.0, 0.0, 0.0, 0.0, 0.0, 0.0, 0.0, 1.666405514558211E9, 0.0, 2022-10-21 19:25:14.558
19.0, -135452.6219311502, -161742.40848331555, 11412.376035735135, -122994.2289583956, 58699.659550149394, -82212.44301944293, 47615.22830906252, -113089.45573442648, -0.022, 0.96, -0.012, 192.0, 0.0, 0.0, 0.0, 0.0, 0.0, 0.0, 0.0, 0.0, 0.0, 1.6664055145582194E9, 0.0, 2022-10-21 19:25:14.558
20.0, -135453.98538756196, -161742.5649455267, 11405.558753676267, -123000.68861254319, 58692.037605290134, -82226.94930159442, 47606.04174209139, -113096.27301648534, -0.022, 0.96, -0.012, 192.0, 0.0, 0.0, 0.0, 0.0, 0.0, 0.0, 0.0, 0.0, 0.0, 1.6664055145582278E9, 0.0, 2022-10-21 19:25:14.558
21.0, -135447.34691945874, -161732.171384355, 11407.391596721602, -122997.20174040816, 58690.60709364499, -82236.62760694357, 47606.2876112804, -113095.2895397293, -0.022, 0.96, -0.012, 192.0, 0.0, 0.0, 0.0, 0.0, 0.0, 0.0, 0.0, 0.0, 0.0, 1.6664055145582361E9, 0.0, 2022-10-21 19:25:14.558
22.0, -135447.14575375864, -161730.53970700977, 11404.843497853697, -123004.01902246702, 58687.0531662766, -82246.5070779928, 47608.65689619266, -113089.9921762934, -0.022, 0.96, -0.012, 192.0, 0.0, 0.0, 0.0, 0.0, 0.0, 0.0, 0.0, 0.0, 0.0, 1.6664055145582447E9, 0.0, 2022-10-21 19:25:14.558
23.0, -135452.19724800554, -161743.23549786038, 11397.914457072551, -123020.1346302193, 58687.634311632435, -82243.04255760224, 47607.18168105861, -113100.40808920958, -0.022, 0.96, -0.012, 192.0, 0.0, 0.0, 0.0, 0.0, 0.0, 0.0, 0.0, 0.0, 0.0, 1.666405514558253E9, 0.0, 2022-10-21 19:25:14.558
24.0, -135452.1301927722, -161742.5649455267, 11397.869753583642, -123020.02287149703, 58693.088137279534, -82241.47793549037, 47601.37022750023, -113100.31868223175, -0.022, 0.96, -0.012, 192.0, 0.0, 0.0, 0.0, 0.0, 0.0, 0.0, 0.0, 0.0, 0.0, 1.6664055145582612E9, 0.0, 2022-10-21 19:25:14.558
25.0, -135460.26622775392, -161747.5270327958, 11392.706500614466, -123027.39894716728, 58681.57698888505, -82248.51873499379, 47594.9329250971, -113102.2409322549, -0.022, 0.96, -0.012, 192.0, 0.0, 0.0, 0.0, 0.0, 0.0, 0.0, 0.0, 0.0, 0.0, 1.6664055145582695E9, 0.0, 2022-10-21 19:25:14.558
26.0, -135457.8745910972, -161749.11400665212, 11392.661797125555, -123031.42226116924, 58672.59158761401, -82255.62658973057, 47598.553907698864, -113103.71614738896, -0.022, 0.96, -0.012, 192.0, 0.0, 0.0, 0.0, 0.0, 0.0, 0.0, 0.0, 0.0, 0.0, 1.666405514558278E9, 0.0, 2022-10-21 19:25:14.558
27.0, -135447.4810299255, -161730.78557619877, 11397.892105328096, -123029.52236289054, 58677.486619649724, -82266.24366834685, 47608.50043398148, -113077.67636509852, -0.024, 0.96, -0.018000000000000002, 192.0, 255.0, 64.0, 30.0, 0.0, 255.0, 112.0, 0.0, 0.0, 0.0, 1.666405514558288E9, 0.0, 2022-10-21 19:25:14.558
28.0, -135447.3245677143, -161728.41629128653, 11400.909590829562, -123024.38146166582, 58688.61778838847, -82277.95598244143, 47611.24969854948, -113061.7842747908, -0.024, 0.96, -0.018000000000000002, 192.0, 0.0, 0.0, 0.0, 0.0, 0.0, 0.0, 0.0, 0.0, 0.0, 1.666405514558297E9, 0.0, 2022-10-21 19:25:14.558
29.0, -135441.04372752234, -161725.06352961823, 11415.438224725513, -123002.47675209961, 58709.67313166537, -82242.79668841323, 47632.86383543776, -113060.0855422122, -0.024, 0.96, -0.018000000000000002, 192.0, 0.0, 0.0, 0.0, 0.0, 0.0, 0.0, 0.0, 0.0, 0.0, 1.666405514558338E9, 0.0, 2022-10-21 19:25:14.558
30.0, -135440.64139612214, -161727.9245529085, 11412.487794457413, -123013.76438304954, 58698.47490769326, -82240.96384536789, 47630.40514354767, -113064.89116727009, -0.024, 0.96, -0.018000000000000002, 192.0, 0.0, 0.0, 0.0, 0.0, 0.0, 0.0, 0.0, 0.0, 0.0, 1.6664055145583465E9, 0.0, 2022-10-21 19:25:14.558
31.0, -135445.2235037355, -161725.46586101843, 11410.185564778516, -123021.00634825307, 58695.34566346952, -82248.04934836023, 47628.974631902536, -113064.935870759, -0.024, 0.96, -0.018000000000000002, 192.0, 0.0, 0.0, 0.0, 0.0, 0.0, 0.0, 0.0, 0.0, 0.0, 1.666405514558355E9, 0.0, 2022-10-21 19:25:14.558
32.0, -135461.6743876546, -161735.94882916796, 11405.11171878716, -123021.47573488663, 58696.88793383693, -82264.29906657923, 47624.10195161128, -113065.40525739256, -0.024, 0.96, -0.018000000000000002, 192.0, 0.0, 0.0, 0.0, 0.0, 0.0, 0.0, 0.0, 0.0, 0.0, 1.666405514558364E9, 0.0, 2022-10-21 19:25:14.558
33.0, -135443.4130124346, -161733.64659948906, 11398.02621579483, -123018.12297321833, 58698.31844548207, -82261.25922933331, 47622.9396608996, -113065.67347832603, -0.024, 0.96, -0.018000000000000002, 192.0, 0.0, 0.0, 0.0, 0.0, 0.0, 0.0, 0.0, 0.0, 0.0, 1.666405514558372E9, 0.0, 2022-10-21 19:25:14.558
34.0, -135440.59669263323, -161734.00422740035, 11408.129204288627, -123009.87517951432, 58701.358282728, -82248.47403150488, 47633.66849823815, -113062.07484746873, -0.024, 0.96, -0.018000000000000002, 192.0, 0.0, 0.0, 0.0, 0.0, 0.0, 0.0, 0.0, 0.0, 0.0, 1.6664055145583804E9, 0.0, 2022-10-21 19:25:14.558
35.0, -135447.95041655903, -161738.2734105913, 11404.619980409143, -123008.71288880265, 58705.82863161906, -82252.38558678456, 47632.32739357083, -113068.8921295276, -0.024, 0.96, -0.018000000000000002, 192.0, 0.0, 0.0, 0.0, 0.0, 0.0, 0.0, 0.0, 0.0, 0.0, 1.6664055145583887E9, 0.0, 2022-10-21 19:25:14.558
36.0, -135450.4761636825, -161739.65921874755, 11391.96889304744, -123016.42424063972, 58704.7557478852, -82262.89090667856, 47622.20205333258, -113071.2390626954, -0.024, 0.96, -0.018000000000000002, 192.0, 0.0, 0.0, 0.0, 0.0, 0.0, 0.0, 0.0, 0.0, 0.0, 1.6664055145583973E9, 0.0, 2022-10-21 19:25:14.558
37.0, -135454.5218294289, -161738.78750071378, 11386.20214297797, -123012.5350371045, 58705.69452115233, -82269.86465094861, 47617.32937304132, -113071.01554525085, -0.028, 0.962, -0.01, 192.0, 255.0, 32.0, 30.0, 16.0, 255.0, 176.0, 0.0, 0.0, 0.0, 1.6664055145584052E9, 0.0, 2022-10-21 19:25:14.558
38.0, -135456.53348642986, -161736.30645707925, 11389.689015113, -123001.3368131324, 58708.44378572033, -82270.55755502672, 47617.61994571924, -113076.62583310912, -0.028, 0.962, -0.01, 192.0, 0.0, 0.0, 0.0, 0.0, 0.0, 0.0, 0.0, 0.0, 0.0, 1.6664055145584145E9, 0.0, 2022-10-21 19:25:14.558
39.0, -135458.43338470857, -161741.8720414486, 11394.49464017089, -123000.55450207645, 58713.070596822574, -82278.0230376748, 47619.20691957557, -113066.76871380434, -0.028, 0.962, -0.01, 192.0, 0.0, 0.0, 0.0, 0.0, 0.0, 0.0, 0.0, 0.0, 0.0, 1.6664055145584226E9, 0.0, 2022-10-21 19:25:14.558
40.0, -135468.33520750227, -161756.24421313338, 11378.40138416307, -123010.61278708135, 58714.4564049788, -82276.74898824084, 47620.68213470962, -113067.95335626046, -0.028, 0.962, -0.01, 192.0, 0.0, 0.0, 0.0, 0.0, 0.0, 0.0, 0.0, 0.0, 0.0, 1.666405514558431E9, 0.0, 2022-10-21 19:25:14.558
41.0, -135471.46445172603, -161761.11689342462, 11374.48982888339, -123011.86448477083, 58712.9588381003, -82273.28446785027, 47619.51984399794, -113081.56556863376, -0.028, 0.962, -0.01, 192.0, 0.0, 0.0, 0.0, 0.0, 0.0, 0.0, 0.0, 0.0, 0.0, 1.6664055145584407E9, 0.0, 2022-10-21 19:25:14.558
42.0, -135465.0271493229, -161753.4725968209, 11380.860076053152, -123001.73914453259, 58716.021027090675, -82269.75289222633, 47622.42557077713, -113083.48781865691, -0.028, 0.962, -0.01, 192.0, 0.0, 0.0, 0.0, 0.0, 0.0, 0.0, 0.0, 0.0, 0.0, 1.6664055145584493E9, 0.0, 2022-10-21 19:25:14.558
43.0, -135474.66075118314, -161762.36859111412, 11375.316843428236, -123006.32125214592, 58713.495279967225, -82266.73540672487, 47621.263280065454, -113085.25360646888, -0.028, 0.962, -0.01, 192.0, 0.0, 0.0, 0.0, 0.0, 0.0, 0.0, 0.0, 0.0, 0.0, 1.666405514558458E9, 0.0, 2022-10-21 19:25:14.558
44.0, -135474.19136454957, -161759.7310852684, 11365.191503189983, -123018.83822904089, 58705.22513451876, -82290.13768316957, 47605.95233511357, -113088.58401639272, -0.028, 0.962, -0.01, 192.0, 0.0, 0.0, 0.0, 0.0, 0.0, 0.0, 0.0, 0.0, 0.0, 1.666405514558467E9, 0.0, 2022-10-21 19:25:14.558
45.0, -135466.79293713486, -161751.3715328421, 11369.080706725206, -123009.09286845838, 58716.24454453523, -82295.59150881667, 47611.18264331611, -113074.3459551747, -0.028, 0.962, -0.01, 192.0, 0.0, 0.0, 0.0, 0.0, 0.0, 0.0, 0.0, 0.0, 0.0, 1.6664055145584843E9, 0.0, 2022-10-21 19:25:14.558
46.0, -135466.94939934605, -161748.51050955182, 11373.260482938347, -123005.76245853455, 58716.84804163552, -82283.94624995545, 47620.97270738753, -113070.97084176194, -0.028, 0.962, -0.018000000000000002, 192.0, 255.0, 32.0, 30.0, 16.0, 255.0, 112.0, 0.0, 0.0, 0.0, 1.6664055145584927E9, 0.0, 2022-10-21 19:25:14.558
47.0, -135469.02811158038, -161753.45024507647, 11369.170113703027, -123019.44172614119, 58705.82863161906, -82283.7674359998, 47620.1903963316, -113075.79881856428, -0.028, 0.962, -0.018000000000000002, 192.0, 0.0, 0.0, 0.0, 0.0, 0.0, 0.0, 0.0, 0.0, 0.0, 1.6664055145585015E9, 0.0, 2022-10-21 19:25:14.558
48.0, -135468.15639354664, -161752.80204448727, 11362.15166594406, -123024.26970294354, 58703.14642228442, -82308.10848571164, 47608.36632351474, -113079.55391163277, -0.028, 0.962, -0.018000000000000002, 192.0, 0.0, 0.0, 0.0, 0.0, 0.0, 0.0, 0.0, 0.0, 0.0, 1.6664055145585108E9, 0.0, 2022-10-21 19:25:14.558
49.0, -135469.74336740296, -161742.60964901565, 11367.449029379968, -123020.84988604188, 58710.6566084214, -82314.99282300388, 47608.74630317048, -113063.72887655841, -0.028, 0.962, -0.018000000000000002, 192.0, 0.0, 0.0, 0.0, 0.0, 0.0, 0.0, 0.0, 0.0, 0.0, 1.6664055145585191E9, 0.0, 2022-10-21 19:25:14.558
50.0, -135455.30414048483, -161735.50179427885, 11372.277006182314, -123010.1881039367, 58714.32229451207, -82302.29703215326, 47618.84929166428, -113058.47621661142, -0.028, 0.962, -0.018000000000000002, 192.0, 0.0, 0.0, 0.0, 0.0, 0.0, 0.0, 0.0, 0.0, 0.0, 1.6664055145585275E9, 0.0, 2022-10-21 19:25:14.558
51.0, -135462.61316092173, -161747.30351535126, 11359.357697887148, -123023.62150235433, 58705.873335107965, -82283.7674359998, 47626.56064350136, -113063.2818416693, -0.028, 0.962, -0.018000000000000002, 192.0, 0.0, 0.0, 0.0, 0.0, 0.0, 0.0, 0.0, 0.0, 0.0, 1.6664055145585356E9, 0.0, 2022-10-21 19:25:14.558
52.0, -135466.65882666814, -161742.74375948237, 11352.249843150359, -123039.62535138433, 58696.53030592565, -82293.64690704906, 47621.77737018793, -113057.89507125558, -0.028, 0.962, -0.018000000000000002, 192.0, 0.0, 0.0, 0.0, 0.0, 0.0, 0.0, 0.0, 0.0, 0.0, 1.666405514558544E9, 0.0, 2022-10-21 19:25:14.558
53.0, -135457.85223935274, -161736.90995417954, 11354.596776318167, -123036.76432809405, 58698.877239093454, -82325.47579115341, 47609.61802120424, -113056.71042879944, -0.028, 0.962, -0.018000000000000002, 192.0, 0.0, 0.0, 0.0, 0.0, 0.0, 0.0, 0.0, 0.0, 0.0, 1.6664055145585525E9, 0.0, 2022-10-21 19:25:14.558
54.0, -135462.45669871054, -161740.665047248, 11346.058409936239, -123046.80026135448, 58689.95889305579, -82328.82855282171, 47607.226384547525, -113070.6355655951, -0.028, 0.962, -0.018000000000000002, 192.0, 0.0, 0.0, 0.0, 0.0, 0.0, 0.0, 0.0, 0.0, 0.0, 1.6664055145585604E9, 0.0, 2022-10-21 19:25:14.558
55.0, -135458.61219866422, -161738.13930012457, 11349.679392537999, -123035.78085133802, 58696.373843714464, -82325.07345975321, 47619.96687888705, -113063.21478643594, -0.028, 0.962, -0.018000000000000002, 192.0, 0.0, 0.0, 0.0, 0.0, 0.0, 0.0, 0.0, 0.0, 0.0, 1.6664055145585697E9, 0.0, 2022-10-21 19:25:14.558
56.0, -135461.49557369895, -161740.35212282566, 11343.555014557245, -123034.28328445951, 58701.402986216905, -82325.0287562643, 47629.13109411372, -113063.81828353624, -0.02, 0.962, -0.016, 192.0, 255.0, 96.0, 30.0, 16.0, 255.0, 128.0, 0.0, 0.0, 0.0, 1.6664055145585775E9, 0.0, 2022-10-21 19:25:14.558
57.0, -135461.24970450994, -161743.70488449396, 11338.637630777077, -123035.06559551545, 58707.72852989776, -82332.20366623446, 47626.27007082344, -113066.65695508206, -0.02, 0.962, -0.016, 192.0, 0.0, 0.0, 0.0, 0.0, 0.0, 0.0, 0.0, 0.0, 0.0, 1.6664055145585868E9, 0.0, 2022-10-21 19:25:14.558
58.0, -135458.79101261985, -161736.79819545726, 11342.862110479131, -123027.57776112293, 58713.987018345244, -82324.08998299719, 47629.62283249174, -113066.00875449285, -0.02, 0.962, -0.016, 192.0, 0.0, 0.0, 0.0, 0.0, 0.0, 0.0, 0.0, 0.0, 0.0, 1.6664055145585952E9, 0.0, 2022-10-21 19:25:14.558
59.0, -135458.8804195977, -161735.9264774235, 11347.86890123712, -123026.61663611134, 58711.84125087754, -82324.51466614184, 47633.26616683795, -113064.17591144753, -0.02, 0.962, -0.016, 192.0, 0.0, 0.0, 0.0, 0.0, 0.0, 0.0, 0.0, 0.0, 0.0, 1.6664055145586033E9, 0.0, 2022-10-21 19:25:14.558
60.0, -135463.90956210013, -161746.2753351063, 11338.90585171054, -123031.95870303616, 58708.62259967597, -82326.16869523152, 47626.60534699027, -113066.54519635979, -0.02, 0.962, -0.016, 192.0, 0.0, 0.0, 0.0, 0.0, 0.0, 0.0, 0.0, 0.0, 0.0, 1.6664055145586205E9, 0.0, 2022-10-21 19:25:14.558
61.0, -135472.17970754858, -161753.182024143, 11326.545337026757, -123039.2900752175, 58702.744090884225, -82342.50782042835, 47608.70159968157, -113077.0952197427, -0.02, 0.962, -0.016, 192.0, 0.0, 0.0, 0.0, 0.0, 0.0, 0.0, 0.0, 0.0, 0.0, 1.6664055145586288E9, 0.0, 2022-10-21 19:25:14.558
62.0, -135479.84635589676, -161760.40163760204, 11318.297543322748, -123039.80416533997, 58698.541962926625, -82356.5447159463, 47594.82116637482, -113086.14767624708, -0.02, 0.962, -0.016, 192.0, 0.0, 0.0, 0.0, 0.0, 0.0, 0.0, 0.0, 0.0, 0.0, 1.6664055145586371E9, 0.0, 2022-10-21 19:25:14.558
63.0, -135468.75989064694, -161749.56104154122, 11334.927241197496, -123016.37953715082, 58714.76932940118, -82329.27558771081, 47616.50235849647, -113064.55589110326, -0.02, 0.962, -0.016, 192.0, 0.0, 0.0, 0.0, 0.0, 0.0, 0.0, 0.0, 0.0, 0.0, 1.6664055145586455E9, 0.0, 2022-10-21 19:25:14.558
64.0, -135472.53733545987, -161754.79134974378, 11326.701799237944, -123021.5874936089, 58709.784890387644, -82321.72069808492, 47616.99409687449, -113075.93292903101, -0.02, 0.962, -0.016, 192.0, 0.0, 0.0, 0.0, 0.0, 0.0, 0.0, 0.0, 0.0, 0.0, 1.6664055145586543E9, 0.0, 2022-10-21 19:25:14.558
65.0, -135474.23606803847, -161753.7855212433, 11321.24797359085, -123027.06367100045, 58711.30480901061, -82334.57295114672, 47607.18168105861, -113075.55294937527, -0.02, 0.962, -0.016, 192.0, 0.0, 0.0, 0.0, 0.0, 0.0, 0.0, 0.0, 0.0, 0.0, 1.6664055145586624E9, 0.0, 2022-10-21 19:25:14.558
66.0, -135465.49653595645, -161744.80011997226, 11324.33251432568, -123020.96164476415, 58720.60313470401, -82339.11035527114, 47607.11462582524, -113065.5840713482, -0.022, 0.9560000000000001, -0.02, 192.0, 255.0, 80.0, 29.0, 224.0, 255.0, 96.0, 0.0, 0.0, 0.0, 1.666405514558671E9, 0.0, 2022-10-21 19:25:14.558
67.0, -135466.25649526794, -161747.19175662898, 11325.159528870527, -123015.48546737261, 58726.12401558447, -82330.25906446685, 47612.00965786096, -113060.17494919003, -0.022, 0.9560000000000001, -0.02, 192.0, 0.0, 0.0, 0.0, 0.0, 0.0, 0.0, 0.0, 0.0, 0.0, 1.66640551455868E9, 0.0, 2022-10-21 19:25:14.558
68.0, -135469.38573949167, -161747.43762581798, 11322.007932902328, -123016.98303425111, 58723.084178338555, -82322.77123007432, 47616.3905997742, -113056.41985612153, -0.022, 0.9560000000000001, -0.02, 192.0, 0.0, 0.0, 0.0, 0.0, 0.0, 0.0, 0.0, 0.0, 0.0, 1.666405514558689E9, 0.0, 2022-10-21 19:25:14.558
69.0, -135458.36632947522, -161739.86038444765, 11331.61918301811, -123013.74203130508, 58726.369884773485, -82332.94127380148, 47623.990192889, -113053.04474270878, -0.022, 0.9560000000000001, -0.02, 192.0, 0.0, 0.0, 0.0, 0.0, 0.0, 0.0, 0.0, 0.0, 0.0, 1.6664055145587006E9, 0.0, 2022-10-21 19:25:14.558
70.0, -135471.71032091504, -161753.182024143, 11319.705703223432, -123037.70310136117, 58712.69061716684, -82359.9868845924, 47607.360495014254, -113063.72887655841, -0.022, 0.9560000000000001, -0.02, 192.0, 0.0, 0.0, 0.0, 0.0, 0.0, 0.0, 0.0, 0.0, 0.0, 1.666405514558709E9, 0.0, 2022-10-21 19:25:14.558
71.0, -135475.39835875016, -161750.81273923072, 11324.466624792412, -123040.25120022908, 58715.35047475702, -82350.17446877653, 47617.6870009526, -113058.52092010033, -0.022, 0.9560000000000001, -0.02, 192.0, 0.0, 0.0, 0.0, 0.0, 0.0, 0.0, 0.0, 0.0, 0.0, 1.6664055145587173E9, 0.0, 2022-10-21 19:25:14.558
72.0, -135465.69770165655, -161739.03336990278, 11327.774682971798, -123035.4902786601, 58713.69644566732, -82352.52140194434, 47625.28659406741, -113053.58118457571, -0.022, 0.9560000000000001, -0.02, 192.0, 0.0, 0.0, 0.0, 0.0, 0.0, 0.0, 0.0, 0.0, 0.0, 1.6664055145587256E9, 0.0, 2022-10-21 19:25:14.558
73.0, -135470.61508543673, -161745.6271345171, 11318.833985189674, -123042.1958019967, 58703.7052158958, -82373.37557952113, 47614.80362591787, -113061.96308874644, -0.022, 0.9560000000000001, -0.02, 192.0, 0.0, 0.0, 0.0, 0.0, 0.0, 0.0, 0.0, 0.0, 0.0, 1.6664055145587337E9, 0.0, 2022-10-21 19:25:14.558
74.0, -135470.41391973663, -161740.91091643702, 11325.04777014825, -123047.18024101022, 58699.99482631622, -82388.32889656174, 47610.13211132671, -113054.38584737609, -0.022, 0.9560000000000001, -0.02, 192.0, 0.0, 0.0, 0.0, 0.0, 0.0, 0.0, 0.0, 0.0, 0.0, 1.6664055145587418E9, 0.0, 2022-10-21 19:25:14.558
75.0, -135471.01741683693, -161741.29089609277, 11329.495767294857, -123035.35616819336, 58708.84611712052, -82383.5903267372, 47622.96201264406, -113035.4762715669, -0.026000000000000002, 0.962, -0.024, 192.0, 255.0, 48.0, 30.0, 16.0, 255.0, 64.0, 0.0, 0.0, 0.0, 1.6664055145587575E9, 0.0, 2022-10-21 19:25:14.558
76.0, -135465.69770165655, -161738.6310385026, 11320.398607301548, -123041.05586302947, 58706.38742523044, -82364.77015790585, 47633.154408115675, -113037.91261171254, -0.026000000000000002, 0.962, -0.024, 192.0, 0.0, 0.0, 0.0, 0.0, 0.0, 0.0, 0.0, 0.0, 0.0, 1.6664055145587668E9, 0.0, 2022-10-21 19:25:14.558
77.0, -135467.53054470188, -161739.23453560288, 11319.303371823236, -123047.47081368814, 58700.68773039433, -82386.67486747204, 47628.16996910214, -113048.35087637317, -0.026000000000000002, 0.962, -0.024, 192.0, 0.0, 0.0, 0.0, 0.0, 0.0, 0.0, 0.0, 0.0, 0.0, 1.6664055145587752E9, 0.0, 2022-10-21 19:25:14.558
78.0, -135460.10976554273, -161730.96439015443, 11334.81548247522, -123035.66909261575, 58717.71975966928, -82401.89640544611, 47634.42845754963, -113027.58610577419, -0.026000000000000002, 0.962, -0.024, 192.0, 0.0, 0.0, 0.0, 0.0, 0.0, 0.0, 0.0, 0.0, 0.0, 1.6664055145587835E9, 0.0, 2022-10-21 19:25:14.558
79.0, -135460.35563473174, -161729.64563723156, 11334.636668519577, -123033.36686293685, 58715.395178245926, -82401.2482048569, 47635.680155239126, -113023.36162607213, -0.026000000000000002, 0.962, -0.024, 192.0, 0.0, 0.0, 0.0, 0.0, 0.0, 0.0, 0.0, 0.0, 0.0, 1.666405514558792E9, 0.0, 2022-10-21 19:25:14.558
80.0, -135467.19526853506, -161741.4250065595, 11326.254764348838, -123035.91496180475, 58709.00257933171, -82392.66513498606, 47636.797742461895, -113037.17500414551, -0.026000000000000002, 0.962, -0.024, 192.0, 0.0, 0.0, 0.0, 0.0, 0.0, 0.0, 0.0, 0.0, 0.0, 1.6664055145588E9, 0.0, 2022-10-21 19:25:14.558
81.0, -135467.21762027952, -161741.60382051516, 11319.325723567692, -123026.41547041124, 58715.41752999038, -82391.3016785743, 47632.528559270926, -113052.53065258631, -0.026000000000000002, 0.962, -0.024, 192.0, 0.0, 0.0, 0.0, 0.0, 0.0, 0.0, 0.0, 0.0, 0.0, 1.6664055145588083E9, 0.0, 2022-10-21 19:25:14.558
82.0, -135466.94939934605, -161739.4804047919, 11316.598810744144, -123029.76823207954, 58716.37865500196, -82402.25403335739, 47621.978535888025, -113055.32462064322, -0.026000000000000002, 0.962, -0.024, 192.0, 0.0, 0.0, 0.0, 0.0, 0.0, 0.0, 0.0, 0.0, 0.0, 1.666405514558817E9, 0.0, 2022-10-21 19:25:14.558
83.0, -135480.58396346378, -161752.66793402052, 11303.94772338244, -123045.34739796488, 58707.37090198647, -82424.94105397954, 47614.13307358421, -113055.21286192094, -0.026000000000000002, 0.962, -0.024, 192.0, 0.0, 0.0, 0.0, 0.0, 0.0, 0.0, 0.0, 0.0, 0.0, 1.6664055145588255E9, 0.0, 2022-10-21 19:25:14.558
84.0, -135485.21077456605, -161754.99251544388, 11298.024511101785, -123042.6428368858, 58706.655646163905, -82414.7486585079, 47623.163178344155, -113057.49273985538, -0.026000000000000002, 0.962, -0.024, 192.0, 0.0, 0.0, 0.0, 0.0, 0.0, 0.0, 0.0, 0.0, 0.0, 1.666405514558834E9, 0.0, 2022-10-21 19:25:14.558
85.0, -135474.1243093162, -161743.10138739366, 11298.292732035248, -123031.57872338041, 58714.79168114563, -82416.04505968632, 47625.66657372315, -113056.0845799547, -0.024, 0.9580000000000001, -0.022, 192.0, 255.0, 64.0, 29.0, 240.0, 255.0, 80.0, 0.0, 0.0, 0.0, 1.6664055145588427E9, 0.0, 2022-10-21 19:25:14.558
86.0, -135475.62187619472, -161754.4337218325, 11293.844734888642, -123033.21040072566, 58720.46902423728, -82424.0022807124, 47616.50235849647, -113060.80079803478, -0.024, 0.9580000000000001, -0.022, 192.0, 0.0, 0.0, 0.0, 0.0, 0.0, 0.0, 0.0, 0.0, 0.0, 1.6664055145588515E9, 0.0, 2022-10-21 19:25:14.558
87.0, -135481.83566115328, -161763.6426405481, 11294.76115641131, -123028.71770009014, 58727.01808536269, -82432.58535058325, 47612.97078287254, -113051.86010025264, -0.024, 0.9580000000000001, -0.022, 192.0, 0.0, 0.0, 0.0, 0.0, 0.0, 0.0, 0.0, 0.0, 0.0, 1.6664055145588596E9, 0.0, 2022-10-21 19:25:14.558
88.0, -135489.0329228679, -161770.61638481813, 11299.007987857818, -123028.60594136786, 58726.28047779566, -82416.78266725334, 47619.318678297845, -113046.74155077238, -0.024, 0.9580000000000001, -0.022, 192.0, 0.0, 0.0, 0.0, 0.0, 0.0, 0.0, 0.0, 0.0, 0.0, 1.666405514558868E9, 0.0, 2022-10-21 19:25:14.558
89.0, -135486.86480365574, -161771.95748948544, 11294.180011055472, -123027.51070588955, 58722.927716127364, -82418.97313820996, 47615.51888174044, -113049.37905661811, -0.024, 0.9580000000000001, -0.022, 192.0, 0.0, 0.0, 0.0, 0.0, 0.0, 0.0, 0.0, 0.0, 0.0, 1.6664055145588763E9, 0.0, 2022-10-21 19:25:14.558
90.0, -135492.2739258139, -161764.7825795153, 11286.602769685123, -123043.08987177491, 58714.88108812345, -82431.71363254948, 47605.192375802086, -113058.3868096336, -0.024, 0.9580000000000001, -0.022, 192.0, 0.0, 0.0, 0.0, 0.0, 0.0, 0.0, 0.0, 0.0, 0.0, 1.6664055145588915E9, 0.0, 2022-10-21 19:25:14.558
91.0, -135489.70347520156, -161773.7903325308, 11276.812705613698, -123060.68069466123, 58707.43795721984, -82455.42883341656, 47592.809509373845, -113056.933946244, -0.024, 0.9580000000000001, -0.022, 192.0, 0.0, 0.0, 0.0, 0.0, 0.0, 0.0, 0.0, 0.0, 0.0, 1.6664055145589018E9, 0.0, 2022-10-21 19:25:14.558
92.0, -135474.41488199413, -161761.675687036, 11303.433633259969, -123035.22205772664, 58725.27464929517, -82448.18686821304, 47607.89693688118, -113043.8358239932, -0.024, 0.9580000000000001, -0.022, 192.0, 0.0, 0.0, 0.0, 0.0, 0.0, 0.0, 0.0, 0.0, 0.0, 1.6664055145589108E9, 0.0, 2022-10-21 19:25:14.558
93.0, -135473.90079187165, -161752.06443692022, 11309.043921118251, -123036.16083099376, 58724.93937312834, -82445.83993504524, 47614.26718405094, -113055.81635902124, -0.024, 0.9580000000000001, -0.022, 192.0, 0.0, 0.0, 0.0, 0.0, 0.0, 0.0, 0.0, 0.0, 0.0, 1.6664055145589192E9, 0.0, 2022-10-21 19:25:14.558
94.0, -135478.48289948498, -161754.99251544388, 11303.791261171255, -123046.53204042102, 58723.710027183304, -82438.68737681954, 47617.485835252504, -113055.25756540986, -0.024, 0.9580000000000001, -0.022, 192.0, 0.0, 0.0, 0.0, 0.0, 0.0, 0.0, 0.0, 0.0, 0.0, 1.6664055145589273E9, 0.0, 2022-10-21 19:25:14.558
95.0, -135483.15441407615, -161758.0323526898, 11298.605656457623, -123059.56310743847, 58717.92092536938, -82438.01682448588, 47614.87068115124, -113048.64144905108, -0.018000000000000002, 0.9580000000000001, -0.026000000000000002, 192.0, 255.0, 112.0, 29.0, 240.0, 255.0, 48.0, 0.0, 0.0, 0.0, 1.6664055145589356E9, 0.0, 2022-10-21 19:25:14.558
96.0, -135475.86774538373, -161749.29282060778, 11299.05269134673, -123058.15494753778, 58714.836384634546, -82432.51829534987, 47618.35755328627, -113043.36643735963, -0.018000000000000002, 0.9580000000000001, -0.026000000000000002, 192.0, 0.0, 0.0, 0.0, 0.0, 0.0, 0.0, 0.0, 0.0, 0.0, 1.666405514558946E9, 0.0, 2022-10-21 19:25:14.558
97.0, -135478.70641692955, -161747.10234965116, 11288.726185408377, -123062.37942723984, 58705.98509383024, -82431.60187382721, 47619.69865795358, -113042.42766409251, -0.018000000000000002, 0.9580000000000001, -0.026000000000000002, 192.0, 0.0, 0.0, 0.0, 0.0, 0.0, 0.0, 0.0, 0.0, 0.0, 1.6664055145589542E9, 0.0, 2022-10-21 19:25:14.558
98.0, -135484.13789083218, -161749.2257653744, 11285.932217351463, -123066.4474447307, 58705.49335545223, -82436.09457446272, 47613.8872043952, -113049.80373976276, -0.018000000000000002, 0.9580000000000001, -0.026000000000000002, 192.0, 0.0, 0.0, 0.0, 0.0, 0.0, 0.0, 0.0, 0.0, 0.0, 1.6664055145589623E9, 0.0, 2022-10-21 19:25:14.558
99.0, -135479.44402449657, -161747.7729019848, 11291.698967420933, -123060.12190104985, 58710.52249795467, -82451.8078508148, 47610.914422382644, -113039.81250999124, -0.018000000000000002, 0.9580000000000001, -0.026000000000000002, 192.0, 0.0, 0.0, 0.0, 0.0, 0.0, 0.0, 0.0, 0.0, 0.0, 1.6664055145589707E9, 0.0, 2022-10-21 19:25:14.558
100.0, -135484.8307949103, -161754.14314915458, 11279.360804481603, -123063.36290399586, 58703.794622873625, -82453.28306594885, 47609.528614226416, -113041.9359257145, -0.018000000000000002, 0.9580000000000001, -0.026000000000000002, 192.0, 0.0, 0.0, 0.0, 0.0, 0.0, 0.0, 0.0, 0.0, 0.0, 1.6664055145589788E9, 0.0, 2022-10-21 19:25:14.558
101.0, -135486.21660306654, -161746.74472173987, 11276.52213293578, -123060.7924533835, 58705.35924498549, -82434.41819362857, 47621.687963210104, -113041.35478035866, -0.018000000000000002, 0.9580000000000001, -0.026000000000000002, 192.0, 0.0, 0.0, 0.0, 0.0, 0.0, 0.0, 0.0, 0.0, 0.0, 1.666405514558987E9, 0.0, 2022-10-21 19:25:14.558
102.0, -135478.59465820726, -161738.8769076916, 11280.098412048628, -123061.35124699489, 58704.77809962966, -82445.54936236732, 47619.51984399794, -113038.22553613491, -0.018000000000000002, 0.9580000000000001, -0.026000000000000002, 192.0, 0.0, 0.0, 0.0, 0.0, 0.0, 0.0, 0.0, 0.0, 0.0, 1.666405514558997E9, 0.0, 2022-10-21 19:25:14.558
103.0, -135462.88138185517, -161733.6689512335, 11299.544429724745, -123049.88480208932, 58724.268820794685, -82445.2587896894, 47627.47706502403, -113029.26248660834, -0.018000000000000002, 0.9580000000000001, -0.026000000000000002, 192.0, 0.0, 0.0, 0.0, 0.0, 0.0, 0.0, 0.0, 0.0, 0.0, 1.6664055145590155E9, 0.0, 2022-10-21 19:25:14.559
104.0, -135468.75989064694, -161731.90316342155, 11290.223752286882, -123048.83427009992, 58723.710027183304, -82452.27723744838, 47623.163178344155, -113032.61524827663, -0.018000000000000002, 0.9580000000000001, -0.026000000000000002, 192.0, 0.0, 0.0, 0.0, 0.0, 0.0, 0.0, 0.0, 0.0, 0.0, 1.6664055145590253E9, 0.0, 2022-10-21 19:25:14.559
105.0, -135470.14569880316, -161738.60868675815, 11288.6144266861, -123049.30365673348, 58723.33004752756, -82451.38316767015, 47626.2924225679, -113029.7765767308, -0.02, 0.964, -0.026000000000000002, 192.0, 255.0, 96.0, 30.0, 32.0, 255.0, 48.0, 0.0, 0.0, 0.0, 1.6664055145590448E9, 0.0, 2022-10-21 19:25:14.559
106.0, -135472.13500405967, -161743.6825327495, 11281.148944038028, -123051.47177594564, 58724.51468998369, -82445.21408620049, 47627.924099913136, -113034.15751864405, -0.02, 0.964, -0.026000000000000002, 192.0, 0.0, 0.0, 0.0, 0.0, 0.0, 0.0, 0.0, 0.0, 0.0, 1.666405514559055E9, 0.0, 2022-10-21 19:25:14.559
107.0, -135472.71614941553, -161738.18400361348, 11264.251025229816, -123063.72053190715, 58718.680884680856, -82452.54545838184, 47613.68603869511, -113041.75711175885, -0.02, 0.964, -0.026000000000000002, 192.0, 0.0, 0.0, 0.0, 0.0, 0.0, 0.0, 0.0, 0.0, 0.0, 1.666405514559065E9, 0.0, 2022-10-21 19:25:14.559
108.0, -135476.76181516194, -161747.25881186232, 11256.584376881645, -123060.90421210579, 58714.74697765672, -82464.07895852077, 47605.28178277991, -113042.24885013686, -0.02, 0.964, -0.026000000000000002, 192.0, 0.0, 0.0, 0.0, 0.0, 0.0, 0.0, 0.0, 0.0, 0.0, 1.6664055145590749E9, 0.0, 2022-10-21 19:25:14.559
109.0, -135484.473166999, -161752.1314921536, 11268.766077609787, -123047.38140671032, 58721.8101289046, -82460.10034800772, 47618.17873933062, -113038.80668149075, -0.02, 0.964, -0.026000000000000002, 192.0, 0.0, 0.0, 0.0, 0.0, 0.0, 0.0, 0.0, 0.0, 0.0, 1.6664055145590844E9, 0.0, 2022-10-21 19:25:14.559
110.0, -135481.45568149755, -161752.9808584429, 11262.887568818041, -123044.9450665647, 58723.68767543884, -82459.13922299615, 47619.00575387547, -113042.5841263037, -0.02, 0.964, -0.026000000000000002, 192.0, 0.0, 0.0, 0.0, 0.0, 0.0, 0.0, 0.0, 0.0, 0.0, 1.6664055145590942E9, 0.0, 2022-10-21 19:25:14.559
111.0, -135477.8794023847, -161750.7680357418, 11257.187873981939, -123046.93437182122, 58728.448597007824, -82466.78351959986, 47617.2399660635, -113043.12056817062, -0.02, 0.964, -0.026000000000000002, 192.0, 0.0, 0.0, 0.0, 0.0, 0.0, 0.0, 0.0, 0.0, 0.0, 1.6664055145591037E9, 0.0, 2022-10-21 19:25:14.559
112.0, -135487.20007982256, -161747.7729019848, 11251.84580705712, -123048.85662184437, 58729.4097220194, -82474.51722318139, 47617.843463163794, -113031.52001279831, -0.02, 0.964, -0.026000000000000002, 192.0, 0.0, 0.0, 0.0, 0.0, 0.0, 0.0, 0.0, 0.0, 0.0, 1.6664055145591147E9, 0.0, 2022-10-21 19:25:14.559
113.0, -135465.69770165655, -161741.5144135373, 11247.084885488139, -123050.35418872288, 58721.8101289046, -82485.62604017569, 47618.402256775174, -113039.11960591312, -0.02, 0.964, -0.026000000000000002, 192.0, 0.0, 0.0, 0.0, 0.0, 0.0, 0.0, 0.0, 0.0, 0.0, 1.6664055145591242E9, 0.0, 2022-10-21 19:25:14.559
114.0, -135451.481992183, -161732.01492214383, 11269.548388665724, -123028.7847553235, 58739.020972135186, -82477.06532204931, 47632.729724971025, -113039.72310301341, -0.014, 0.964, -0.03, 192.0, 255.0, 144.0, 30.0, 32.0, 255.0, 16.0, 0.0, 0.0, 0.0, 1.6664055145591338E9, 0.0, 2022-10-21 19:25:14.559
115.0, -135461.78614637686, -161744.4648438054, 11262.552292651211, -123039.35713045087, 58733.09775985453, -82484.48610120847, 47624.683096967114, -113046.3839228611, -0.014, 0.964, -0.03, 192.0, 0.0, 0.0, 0.0, 0.0, 0.0, 0.0, 0.0, 0.0, 0.0, 1.666405514559144E9, 0.0, 2022-10-21 19:25:14.559
116.0, -135460.91442834312, -161741.60382051516, 11273.638757901044, -123041.27938047402, 58733.65655346592, -82490.14109255566, 47627.72293421304, -113034.8280709777, -0.014, 0.964, -0.03, 192.0, 0.0, 0.0, 0.0, 0.0, 0.0, 0.0, 0.0, 0.0, 0.0, 1.6664055145591543E9, 0.0, 2022-10-21 19:25:14.559
117.0, -135455.99704456294, -161739.7709774698, 11267.760249109298, -123041.74876710758, 58726.19107081784, -82488.71058091051, 47629.37696330273, -113030.53653604229, -0.014, 0.964, -0.03, 192.0, 0.0, 0.0, 0.0, 0.0, 0.0, 0.0, 0.0, 0.0, 0.0, 1.6664055145591638E9, 0.0, 2022-10-21 19:25:14.559
118.0, -135457.51696318592, -161748.15288164056, 11258.66308911599, -123044.22981074212, 58719.306733525606, -82486.02837157589, 47630.360440058765, -113034.69396051097, -0.014, 0.964, -0.03, 192.0, 0.0, 0.0, 0.0, 0.0, 0.0, 0.0, 0.0, 0.0, 0.0, 1.6664055145591736E9, 0.0, 2022-10-21 19:25:14.559
119.0, -135452.55487591683, -161744.7330647389, 11257.813722826688, -123044.02864504202, 58720.40196900391, -82503.90976714013, 47623.1408265997, -113031.11768139813, -0.014, 0.964, -0.03, 192.0, 0.0, 0.0, 0.0, 0.0, 0.0, 0.0, 0.0, 0.0, 0.0, 1.6664055145591831E9, 0.0, 2022-10-21 19:25:14.559
120.0, -135465.74240514546, -161754.09844566567, 11254.080981502651, -123061.57476443944, 58709.38255898745, -82523.46754353853, 47607.04757059188, -113051.16719617453, -0.014, 0.964, -0.03, 192.0, 0.0, 0.0, 0.0, 0.0, 0.0, 0.0, 0.0, 0.0, 0.0, 1.6664055145592022E9, 0.0, 2022-10-21 19:25:14.559
121.0, -135460.31093124283, -161744.7777682278, 11255.84676931462, -123060.77010163905, 58700.643026905425, -82534.68811925508, 47607.06992233633, -113051.52482408582, -0.014, 0.964, -0.03, 192.0, 0.0, 0.0, 0.0, 0.0, 0.0, 0.0, 0.0, 0.0, 0.0, 1.666405514688826E9, 0.0, 2022-10-21 19:25:14.688
122.0, -135443.725936857, -161730.65146573205, 11281.32775799367, -123036.83138332742, 58719.84317539253, -82513.2751480669, 47636.015431405955, -113032.1235098986, -0.014, 0.964, -0.03, 192.0, 0.0, 0.0, 0.0, 0.0, 0.0, 0.0, 0.0, 0.0, 0.0, 1.666405514688868E9, 0.0, 2022-10-21 19:25:14.688
123.0, -135444.6200066352, -161727.85749767514, 11282.780621383265, -123025.27553144403, 58729.67794295287, -82513.94570040057, 47643.10093439829, -113027.65316100755, -0.014, 0.964, -0.03, 192.0, 0.0, 0.0, 0.0, 0.0, 0.0, 0.0, 0.0, 0.0, 0.0, 1.6664055146888824E9, 0.0, 2022-10-21 19:25:14.688
124.0, -135455.21473350702, -161735.0771111342, 11262.574644395667, -123047.35905496587, 58719.66436143689, -82521.12061037071, 47631.76859995945, -113035.31980935571, -0.014, 0.9540000000000001, -0.022, 192.0, 255.0, 144.0, 29.0, 208.0, 255.0, 80.0, 0.0, 0.0, 0.0, 1.6664055146888962E9, 0.0, 2022-10-21 19:25:14.688
125.0, -135460.71326264302, -161741.11208213712, 11251.935214034942, -123053.5951916689, 58707.59441943103, -82536.92329370062, 47618.02227711943, -113046.71919902792, -0.014, 0.9540000000000001, -0.022, 192.0, 0.0, 0.0, 0.0, 0.0, 0.0, 0.0, 0.0, 0.0, 0.0, 1.6664055146889105E9, 0.0, 2022-10-21 19:25:14.688
126.0, -135460.24387600945, -161738.40752105805, 11259.266586216281, -123044.31921771995, 58716.40100674642, -82524.78629646139, 47626.53829175691, -113041.3324286142, -0.014, 0.9540000000000001, -0.022, 192.0, 0.0, 0.0, 0.0, 0.0, 0.0, 0.0, 0.0, 0.0, 0.0, 1.6664055146889215E9, 0.0, 2022-10-21 19:25:14.688
127.0, -135441.15548624462, -161727.87984941958, 11274.28695849025, -123025.7896215665, 58731.37667553147, -82517.85725568024, 47636.32835582833, -113028.54723078576, -0.014, 0.9540000000000001, -0.022, 192.0, 0.0, 0.0, 0.0, 0.0, 0.0, 0.0, 0.0, 0.0, 0.0, 1.666405514688932E9, 0.0, 2022-10-21 19:25:14.688
128.0, -135444.68706186858, -161728.75156745335, 11276.030394557762, -123022.77213606503, 58738.35041980153, -82524.8309999503, 47627.41000979066, -113037.82320473471, -0.014, 0.9540000000000001, -0.022, 192.0, 0.0, 0.0, 0.0, 0.0, 0.0, 0.0, 0.0, 0.0, 0.0, 1.666405514688943E9, 0.0, 2022-10-21 19:25:14.688
129.0, -135452.46546893902, -161734.4736140339, 11265.145095008027, -123031.84694431389, 58730.080274353066, -82534.06227041034, 47617.2399660635, -113050.94367872998, -0.014, 0.9540000000000001, -0.022, 192.0, 0.0, 0.0, 0.0, 0.0, 0.0, 0.0, 0.0, 0.0, 0.0, 1.666405514688954E9, 0.0, 2022-10-21 19:25:14.688
130.0, -135454.85710559573, -161727.36575929713, 11278.824362614676, -123012.17740919322, 58740.25031808023, -82527.60261626275, 47629.06403888036, -113060.15259744557, -0.014, 0.9540000000000001, -0.022, 192.0, 0.0, 0.0, 0.0, 0.0, 0.0, 0.0, 0.0, 0.0, 0.0, 1.6664055146889648E9, 0.0, 2022-10-21 19:25:14.688
131.0, -135473.16318430463, -161748.28699210729, 11255.869121059075, -123022.34745292038, 58734.34945754403, -82530.41893606412, 47626.69475396809, -113056.44220786598, -0.014, 0.9540000000000001, -0.022, 192.0, 0.0, 0.0, 0.0, 0.0, 0.0, 0.0, 0.0, 0.0, 0.0, 1.666405514688975E9, 0.0, 2022-10-21 19:25:14.688
132.0, -135453.40424220613, -161745.24715486137, 11247.822493055164, -123035.75849959356, 58727.062788851596, -82549.01558745094, 47612.14376832769, -113054.43055086501, -0.014, 0.9540000000000001, -0.022, 192.0, 0.0, 0.0, 0.0, 0.0, 0.0, 0.0, 0.0, 0.0, 0.0, 1.666405514688986E9, 0.0, 2022-10-21 19:25:14.688
133.0, -135450.49851542694, -161741.53676528178, 11255.623251870067, -123034.50680190406, 58727.9121551409, -82564.77356729192, 47611.09323633829, -113056.39750437708, -0.014, 0.9540000000000001, -0.022, 192.0, 0.0, 0.0, 0.0, 0.0, 0.0, 0.0, 0.0, 0.0, 0.0, 1.666405514689003E9, 0.0, 2022-10-21 19:25:14.689
134.0, -135452.93485557256, -161744.8671752056, 11250.862330301086, -123029.790583824, 58727.77804467417, -82560.30321840086, 47614.15542532867, -113072.62487085162, -0.014, 0.9560000000000001, -0.018000000000000002, 192.0, 255.0, 144.0, 29.0, 224.0, 255.0, 112.0, 0.0, 0.0, 0.0, 1.666405514689014E9, 0.0, 2022-10-21 19:25:14.689
135.0, -135460.08741379826, -161755.3724950996, 11242.234556941337, -123030.72935709111, 58727.35336152952, -82558.3362648888, 47621.28563180991, -113073.25071969637, -0.014, 0.9560000000000001, -0.018000000000000002, 192.0, 0.0, 0.0, 0.0, 0.0, 0.0, 0.0, 0.0, 0.0, 0.0, 1.6664055146890805E9, 0.0, 2022-10-21 19:25:14.689
136.0, -135462.00966382143, -161757.04887593377, 11243.955641264396, -123030.99757802459, 58734.08123661057, -82559.81148002285, 47624.61604173375, -113071.37317316214, -0.014, 0.9560000000000001, -0.018000000000000002, 192.0, 0.0, 0.0, 0.0, 0.0, 0.0, 0.0, 0.0, 0.0, 0.0, 1.6664055146890912E9, 0.0, 2022-10-21 19:25:14.689
137.0, -135472.89496337116, -161758.5911463012, 11215.121890917051, -123042.12874676332, 58719.66436143689, -82588.17584373664, 47598.84448037678, -113096.83181009673, -0.014, 0.9560000000000001, -0.018000000000000002, 192.0, 0.0, 0.0, 0.0, 0.0, 0.0, 0.0, 0.0, 0.0, 0.0, 1.666405514689102E9, 0.0, 2022-10-21 19:25:14.689
138.0, -135465.8765156122, -161746.8788322066, 11227.41535036747, -123037.25606647207, 58717.965628858285, -82586.1418349912, 47608.63454444821, -113088.67342337054, -0.014, 0.9560000000000001, -0.018000000000000002, 192.0, 0.0, 0.0, 0.0, 0.0, 0.0, 0.0, 0.0, 0.0, 0.0, 1.6664055146891127E9, 0.0, 2022-10-21 19:25:14.689
139.0, -135461.09324229875, -161739.681570492, 11251.421123912469, -123022.30274943147, 58731.5107859982, -82563.25364866896, 47634.60727150527, -113069.00388824986, -0.014, 0.9560000000000001, -0.018000000000000002, 192.0, 0.0, 0.0, 0.0, 0.0, 0.0, 0.0, 0.0, 0.0, 0.0, 1.6664055146891232E9, 0.0, 2022-10-21 19:25:14.689
140.0, -135462.23318126597, -161743.79429147177, 11252.784580324244, -123024.49322038809, 58737.121073856484, -82565.06413996985, 47636.171893617146, -113069.00388824986, -0.014, 0.9560000000000001, -0.018000000000000002, 192.0, 0.0, 0.0, 0.0, 0.0, 0.0, 0.0, 0.0, 0.0, 0.0, 1.6664055146891336E9, 0.0, 2022-10-21 19:25:14.689
141.0, -135457.53931493036, -161743.43666356048, 11253.812760569188, -123025.11906923284, 58743.491321026246, -82566.87463127072, 47635.546044772396, -113070.12147547264, -0.014, 0.9560000000000001, -0.018000000000000002, 192.0, 0.0, 0.0, 0.0, 0.0, 0.0, 0.0, 0.0, 0.0, 0.0, 1.6664055146891444E9, 0.0, 2022-10-21 19:25:14.689
142.0, -135466.23414352347, -161744.80011997226, 11240.602879596101, -123034.14917399279, 58730.415550519894, -82574.58598310781, 47626.76180920146, -113076.2905569423, -0.014, 0.9560000000000001, -0.018000000000000002, 192.0, 0.0, 0.0, 0.0, 0.0, 0.0, 0.0, 0.0, 0.0, 0.0, 1.6664055146891549E9, 0.0, 2022-10-21 19:25:14.689
143.0, -135456.04174805185, -161743.39196007157, 11238.390056895025, -123041.86052582986, 58721.36309401549, -82584.59956462379, 47623.05141962188, -113073.31777492975, -0.014, 0.96, -0.018000000000000002, 192.0, 255.0, 144.0, 30.0, 0.0, 255.0, 112.0, 0.0, 0.0, 0.0, 1.6664055146891654E9, 0.0, 2022-10-21 19:25:14.689
145.0, -135461.04853880985, -161740.59799201466, 11239.93232726244, -123036.71962460515, 58730.79553017564, -82583.86195705677, 47623.07377136633, -113070.65791733956, -0.014, 0.96, -0.018000000000000002, 192.0, 0.0, 0.0, 0.0, 0.0, 0.0, 0.0, 0.0, 0.0, 0.0, 1.6664055146891768E9, 0.0, 2022-10-21 19:25:14.689
146.0, -135457.20403876354, -161733.78070995578, 11238.188891194928, -123036.04907227149, 58723.55356497211, -82588.06408501435, 47621.0397626209, -113065.69583007049, -0.014, 0.96, -0.018000000000000002, 192.0, 0.0, 0.0, 0.0, 0.0, 0.0, 0.0, 0.0, 0.0, 0.0, 1.6664055146891873E9, 0.0, 2022-10-21 19:25:14.689
147.0, -135460.4226899651, -161734.49596577836, 11234.41144638198, -123029.25414195708, 58721.676018437865, -82581.17974772213, 47622.91730915515, -113067.4839696269, -0.014, 0.96, -0.018000000000000002, 192.0, 0.0, 0.0, 0.0, 0.0, 0.0, 0.0, 0.0, 0.0, 0.0, 1.666405514689198E9, 0.0, 2022-10-21 19:25:14.689
148.0, -135470.59273369226, -161745.180099628, 11230.499891102301, -123038.77598509502, 58716.445710235326, -82592.62384088324, 47612.94843112808, -113086.84058032521, -0.014, 0.96, -0.018000000000000002, 192.0, 0.0, 0.0, 0.0, 0.0, 0.0, 0.0, 0.0, 0.0, 0.0, 1.6664055146892085E9, 0.0, 2022-10-21 19:25:14.689
149.0, -135478.974637863, -161754.34431485468, 11216.015960695262, -123048.16371776626, 58710.32133225457, -82621.01055634148, 47594.57529718582, -113092.62968213913, -0.014, 0.96, -0.018000000000000002, 192.0, 0.0, 0.0, 0.0, 0.0, 0.0, 0.0, 0.0, 0.0, 0.0, 1.6664055146892195E9, 0.0, 2022-10-21 19:25:14.689
150.0, -135450.7667363604, -161728.48334651988, 11232.623306825555, -123026.39311866679, 58733.58949823255, -82620.2953005189, 47604.05243683487, -113071.70844932896, -0.014, 0.96, -0.018000000000000002, 192.0, 0.0, 0.0, 0.0, 0.0, 0.0, 0.0, 0.0, 0.0, 0.0, 1.6664055146892297E9, 0.0, 2022-10-21 19:25:14.689
151.0, -135453.4712974395, -161735.21122160094, 11233.942059748419, -123019.84405754138, 58738.84215817954, -82593.0932275168, 47623.43139927762, -113079.8444843107, -0.014, 0.96, -0.018000000000000002, 192.0, 0.0, 0.0, 0.0, 0.0, 0.0, 0.0, 0.0, 0.0, 0.0, 1.6664055148861785E9, 0.0, 2022-10-21 19:25:14.886
152.0, -135453.78422186186, -161730.33854130967, 11237.026600483252, -123012.60209233787, 58742.19491984784, -82596.33423046282, 47628.16996910214, -113076.82699880922, -0.014, 0.96, -0.018000000000000002, 192.0, 0.0, 0.0, 0.0, 0.0, 0.0, 0.0, 0.0, 0.0, 0.0, 1.6664055148862207E9, 0.0, 2022-10-21 19:25:14.886
153.0, -135463.82015512232, -161741.76028272635, 11217.714693273867, -123034.61856062635, 58733.991829632745, -82605.81137011187, 47617.977573630524, -113080.96207153346, -0.016, 0.9580000000000001, -0.016, 192.0, 255.0, 128.0, 29.0, 240.0, 255.0, 128.0, 0.0, 0.0, 0.0, 1.6664055148862317E9, 0.0, 2022-10-21 19:25:14.886
154.0, -135467.53054470188, -161752.35500959816, 11213.60197229409, -123043.00046479708, 58726.6604574514, -82621.68110867514, 47607.3381432698, -113092.04853678329, -0.016, 0.9580000000000001, -0.016, 192.0, 0.0, 0.0, 0.0, 0.0, 0.0, 0.0, 0.0, 0.0, 0.0, 1.6664055148862433E9, 0.0, 2022-10-21 19:25:14.886
155.0, -135464.04367256686, -161745.31421009472, 11220.754530519787, -123021.65454884227, 58735.62350697798, -82612.80746612638, 47618.78223643092, -113087.82405708123, -0.016, 0.9580000000000001, -0.016, 192.0, 0.0, 0.0, 0.0, 0.0, 0.0, 0.0, 0.0, 0.0, 0.0, 1.6664055148862538E9, 0.0, 2022-10-21 19:25:14.886
156.0, -135460.98148357647, -161733.15486111105, 11215.099539172596, -123025.23082795512, 58730.63906796445, -82618.12718130674, 47614.17777707312, -113105.1466590341, -0.016, 0.9580000000000001, -0.016, 192.0, 0.0, 0.0, 0.0, 0.0, 0.0, 0.0, 0.0, 0.0, 0.0, 1.6664055148862708E9, 0.0, 2022-10-21 19:25:14.886
157.0, -135457.00287306344, -161736.0158844013, 11213.512565316269, -123029.1870867237, 58734.52827149967, -82634.26514080347, 47607.06992233633, -113109.48289745842, -0.016, 0.9580000000000001, -0.016, 192.0, 0.0, 0.0, 0.0, 0.0, 0.0, 0.0, 0.0, 0.0, 0.0, 1.6664055148862808E9, 0.0, 2022-10-21 19:25:14.886
158.0, -135460.6238556652, -161741.33559958168, 11211.947943204397, -123020.71577557514, 58748.162835617404, -82624.20685579859, 47615.675343951625, -113085.47712391343, -0.016, 0.9580000000000001, -0.016, 192.0, 0.0, 0.0, 0.0, 0.0, 0.0, 0.0, 0.0, 0.0, 0.0, 1.6664055148862908E9, 0.0, 2022-10-21 19:25:14.886
159.0, -135461.20500102104, -161731.29966632125, 11218.27348688525, -123017.60888309586, 58745.77119896069, -82618.93184410714, 47623.163178344155, -113076.87170229814, -0.016, 0.9580000000000001, -0.016, 192.0, 0.0, 0.0, 0.0, 0.0, 0.0, 0.0, 0.0, 0.0, 0.0, 1.6664055148863008E9, 0.0, 2022-10-21 19:25:14.886
160.0, -135458.9251230866, -161730.20443084295, 11211.925591459942, -123020.08992673039, 58744.050114637634, -82625.39149825473, 47620.078637609324, -113090.59567339369, -0.016, 0.9580000000000001, -0.016, 192.0, 0.0, 0.0, 0.0, 0.0, 0.0, 0.0, 0.0, 0.0, 0.0, 1.6664055148863108E9, 0.0, 2022-10-21 19:25:14.886
161.0, -135464.66952141162, -161737.3793408131, 11193.574809262134, -123032.00340652507, 58733.008352876706, -82634.42160301466, 47609.863890393244, -113110.68989165901, -0.016, 0.9580000000000001, -0.016, 192.0, 0.0, 0.0, 0.0, 0.0, 0.0, 0.0, 0.0, 0.0, 0.0, 1.6664055148863237E9, 0.0, 2022-10-21 19:25:14.886
162.0, -135455.30414048483, -161728.86332617563, 11203.722501244843, -123023.35328142087, 58742.19491984784, -82644.63635023074, 47610.42268400463, -113096.3400717187, -0.016, 0.9580000000000001, -0.016, 192.0, 0.0, 0.0, 0.0, 0.0, 0.0, 0.0, 0.0, 0.0, 0.0, 1.6664055148863358E9, 0.0, 2022-10-21 19:25:14.886
163.0, -135465.89886735665, -161738.09459663567, 11199.855649454075, -123024.80614481047, 58739.512710513205, -82638.66843446117, 47612.41198926115, -113093.9931385509, -0.018000000000000002, 0.9580000000000001, -0.018000000000000002, 192.0, 255.0, 112.0, 29.0, 240.0, 255.0, 112.0, 0.0, 0.0, 0.0, 1.666405514886348E9, 0.0, 2022-10-21 19:25:14.886
164.0, -135480.38279776368, -161749.04695141877, 11178.934416643908, -123040.89940081828, 58718.70323642531, -82643.89874266372, 47605.818224646835, -113109.88522885862, -0.018000000000000002, 0.9580000000000001, -0.018000000000000002, 192.0, 0.0, 0.0, 0.0, 0.0, 0.0, 0.0, 0.0, 0.0, 0.0, 1.6664055148863611E9, 0.0, 2022-10-21 19:25:14.886
165.0, -135458.61219866422, -161728.34923605315, 11198.045158153196, -123022.6380255983, 58738.64099247945, -82647.89970492122, 47621.93383239911, -113089.1428100041, -0.018000000000000002, 0.9580000000000001, -0.018000000000000002, 192.0, 0.0, 0.0, 0.0, 0.0, 0.0, 0.0, 0.0, 0.0, 0.0, 1.6664055148863735E9, 0.0, 2022-10-21 19:25:14.886
166.0, -135464.33424524477, -161733.3783785556, 11188.657425481966, -123032.80806932546, 58733.52244299918, -82659.14263238224, 47615.72004744054, -113100.05046129829, -0.018000000000000002, 0.9580000000000001, -0.018000000000000002, 192.0, 0.0, 0.0, 0.0, 0.0, 0.0, 0.0, 0.0, 0.0, 0.0, 1.6664055148864558E9, 0.0, 2022-10-21 19:25:14.886
167.0, -135460.35563473174, -161728.25982907534, 11183.650634723977, -123029.74588033509, 58730.2590883087, -82656.9074579367, 47615.675343951625, -113101.65978689908, -0.018000000000000002, 0.9580000000000001, -0.018000000000000002, 192.0, 0.0, 0.0, 0.0, 0.0, 0.0, 0.0, 0.0, 0.0, 0.0, 1.6664055148864655E9, 0.0, 2022-10-21 19:25:14.886
168.0, -135464.1777830336, -161730.6738174765, 11174.329957286116, -123036.25023797159, 58723.44180624984, -82651.63244624525, 47618.335201541806, -113101.23510375443, -0.018000000000000002, 0.9580000000000001, -0.018000000000000002, 192.0, 0.0, 0.0, 0.0, 0.0, 0.0, 0.0, 0.0, 0.0, 0.0, 1.666405514886476E9, 0.0, 2022-10-21 19:25:14.886
169.0, -135458.18751551956, -161724.21416332893, 11178.889713154998, -123034.0374152705, 58723.57591671657, -82651.31952182288, 47622.47027426604, -113105.25841775637, -0.018000000000000002, 0.9580000000000001, -0.018000000000000002, 192.0, 0.0, 0.0, 0.0, 0.0, 0.0, 0.0, 0.0, 0.0, 0.0, 1.6664055148864863E9, 0.0, 2022-10-21 19:25:14.886
170.0, -135446.94458805854, -161712.94888412344, 11187.11515511455, -123024.80614481047, 58736.94225990085, -82662.78596672845, 47628.46054178006, -113087.80170533678, -0.018000000000000002, 0.9580000000000001, -0.018000000000000002, 192.0, 0.0, 0.0, 0.0, 0.0, 0.0, 0.0, 0.0, 0.0, 0.0, 1.6664055148864963E9, 0.0, 2022-10-21 19:25:14.886
171.0, -135469.13987030266, -161727.85749767514, 11166.998585104775, -123045.3921014538, 58723.151233571916, -82672.44192033315, 47616.56941372984, -113097.189438008, -0.018000000000000002, 0.9580000000000001, -0.018000000000000002, 192.0, 0.0, 0.0, 0.0, 0.0, 0.0, 0.0, 0.0, 0.0, 0.0, 1.6664055148865063E9, 0.0, 2022-10-21 19:25:14.886
172.0, -135453.8289253508, -161723.05187261724, 11170.26193979525, -123035.64674087129, 58728.15802432991, -82666.69752200812, 47622.42557077713, -113085.49947565788, -0.018000000000000002, 0.9580000000000001, -0.018000000000000002, 192.0, 0.0, 0.0, 0.0, 0.0, 0.0, 0.0, 0.0, 0.0, 0.0, 1.6664055148865163E9, 0.0, 2022-10-21 19:25:14.886
173.0, -135457.65107365264, -161721.26373306083, 11175.268730553238, -123026.8401535559, 58732.60602147652, -82670.51967031, 47624.10195161128, -113097.5470659193, -0.016, 0.964, -0.028, 192.0, 255.0, 128.0, 30.0, 32.0, 255.0, 32.0, 0.0, 0.0, 0.0, 1.6664055148865263E9, 0.0, 2022-10-21 19:25:14.886
174.0, -135462.61316092173, -161721.24138131636, 11168.83142815011, -123032.27162745854, 58735.98113488926, -82682.65666754922, 47619.586899231304, -113100.43044095403, -0.016, 0.964, -0.028, 192.0, 0.0, 0.0, 0.0, 0.0, 0.0, 0.0, 0.0, 0.0, 0.0, 1.6664055148865373E9, 0.0, 2022-10-21 19:25:14.886
175.0, -135474.05725408284, -161732.59606749966, 11156.180340788405, -123041.23467698511, 58731.756655187215, -82674.20770814511, 47618.46931200854, -113103.67144390005, -0.016, 0.964, -0.028, 192.0, 0.0, 0.0, 0.0, 0.0, 0.0, 0.0, 0.0, 0.0, 0.0, 1.6664055148865476E9, 0.0, 2022-10-21 19:25:14.886
176.0, -135470.27980926988, -161725.84584067416, 11157.499093711269, -123036.42905192722, 58731.93546914285, -82676.01819944599, 47621.352687043276, -113103.67144390005, -0.016, 0.964, -0.028, 192.0, 0.0, 0.0, 0.0, 0.0, 0.0, 0.0, 0.0, 0.0, 0.0, 1.6664055148865576E9, 0.0, 2022-10-21 19:25:14.886
177.0, -135462.479050455, -161722.49307900586, 11158.706087911856, -123029.50001114608, 58735.936431400354, -82680.66736229269, 47623.297288810885, -113097.65882464158, -0.016, 0.964, -0.028, 192.0, 0.0, 0.0, 0.0, 0.0, 0.0, 0.0, 0.0, 0.0, 0.0, 1.666405514886569E9, 0.0, 2022-10-21 19:25:14.886
178.0, -135463.95426558904, -161723.27539006178, 11158.862550123044, -123032.3386826919, 58738.39512329044, -82698.59346134585, 47617.10585559677, -113089.81336233777, -0.016, 0.964, -0.028, 192.0, 0.0, 0.0, 0.0, 0.0, 0.0, 0.0, 0.0, 0.0, 0.0, 1.6664055148865793E9, 0.0, 2022-10-21 19:25:14.886
179.0, -135467.12821330168, -161724.39297728456, 11153.967518087331, -123031.53401989151, 58742.21727159229, -82685.29417339494, 47616.792931174394, -113091.64620538309, -0.016, 0.964, -0.028, 192.0, 0.0, 0.0, 0.0, 0.0, 0.0, 0.0, 0.0, 0.0, 0.0, 1.666405514886589E9, 0.0, 2022-10-21 19:25:14.886
180.0, -135487.60241122276, -161746.9682391844, 11132.420436432414, -123043.91688631976, 58726.61575396249, -82675.23588839006, 47609.77448341543, -113117.79774639581, -0.016, 0.964, -0.028, 192.0, 0.0, 0.0, 0.0, 0.0, 0.0, 0.0, 0.0, 0.0, 0.0, 1.6664055148865993E9, 0.0, 2022-10-21 19:25:14.886
181.0, -135461.16029753213, -161723.02952087278, 11150.435942463391, -123025.40964191075, 58742.306678570116, -82663.32240859538, 47628.125265613235, -113100.7433653764, -0.016, 0.964, -0.028, 192.0, 0.0, 0.0, 0.0, 0.0, 0.0, 0.0, 0.0, 0.0, 0.0, 1.6664055148866196E9, 0.0, 2022-10-21 19:25:14.886
182.0, -135463.88721035566, -161721.15197433854, 11147.127884284006, -123032.1375169918, 58737.50105351223, -82693.65372582123, 47614.356591028765, -113101.65978689908, -0.016, 0.97, -0.028, 192.0, 255.0, 128.0, 30.0, 80.0, 255.0, 32.0, 0.0, 0.0, 0.0, 1.66640551488663E9, 0.0, 2022-10-21 19:25:14.886
183.0, -135473.14083256017, -161729.26565757583, 11136.913137067932, -123036.3396449494, 58733.76831218819, -82705.50015038255, 47606.39937000268, -113107.4935922019, -0.016, 0.97, -0.028, 192.0, 0.0, 0.0, 0.0, 0.0, 0.0, 0.0, 0.0, 0.0, 0.0, 1.6664055148866405E9, 0.0, 2022-10-21 19:25:14.886
184.0, -135466.59177143476, -161729.19860234245, 11136.846081834565, -123026.25900820005, 58739.9150419134, -82706.08129573838, 47614.82597766232, -113095.06602228475, -0.016, 0.97, -0.028, 192.0, 0.0, 0.0, 0.0, 0.0, 0.0, 0.0, 0.0, 0.0, 0.0, 1.6664055148866508E9, 0.0, 2022-10-21 19:25:14.886
185.0, -135473.52081221592, -161736.0158844013, 11129.134729997484, -123029.54471463499, 58737.34459130104, -82706.30481318293, 47617.37407653023, -113097.83763859721, -0.016, 0.97, -0.028, 192.0, 0.0, 0.0, 0.0, 0.0, 0.0, 0.0, 0.0, 0.0, 0.0, 1.6664055148866608E9, 0.0, 2022-10-21 19:25:14.886
186.0, -135477.81234715134, -161735.7253117234, 11123.658552605933, -123037.72545310562, 58736.227004078275, -82715.20080747614, 47617.016448618946, -113093.21082749497, -0.016, 0.97, -0.028, 192.0, 0.0, 0.0, 0.0, 0.0, 0.0, 0.0, 0.0, 0.0, 0.0, 1.666405514886671E9, 0.0, 2022-10-21 19:25:14.886
187.0, -135477.63353319568, -161732.84193668867, 11121.15515722694, -123038.21719148365, 58741.189091347354, -82722.21925523512, 47615.72004744054, -113100.0951647872, -0.016, 0.97, -0.028, 192.0, 0.0, 0.0, 0.0, 0.0, 0.0, 0.0, 0.0, 0.0, 0.0, 1.6664055148866825E9, 0.0, 2022-10-21 19:25:14.886
188.0, -135475.24189653897, -161736.59702975716, 11119.657590348434, -123032.36103443636, 58741.43496053636, -82720.25230172304, 47617.4411317636, -113107.02420556835, -0.016, 0.97, -0.028, 192.0, 0.0, 0.0, 0.0, 0.0, 0.0, 0.0, 0.0, 0.0, 0.0, 1.666405514886695E9, 0.0, 2022-10-21 19:25:14.886
189.0, -135478.48289948498, -161735.90412567905, 11120.931639782386, -123029.9917495241, 58740.80911169161, -82708.4729323951, 47626.650050479184, -113103.96201657796, -0.016, 0.97, -0.028, 192.0, 0.0, 0.0, 0.0, 0.0, 0.0, 0.0, 0.0, 0.0, 0.0, 1.6664055148867052E9, 0.0, 2022-10-21 19:25:14.886
190.0, -135477.43236749558, -161734.98770415637, 11110.783947799677, -123048.78956661101, 58726.54869872912, -82722.15220000174, 47614.490701495495, -113107.78416487982, -0.016, 0.97, -0.028, 192.0, 0.0, 0.0, 0.0, 0.0, 0.0, 0.0, 0.0, 0.0, 0.0, 1.6664055148867152E9, 0.0, 2022-10-21 19:25:14.886
191.0, -135470.88330637017, -161729.33271280918, 11116.371883913504, -123048.40958695527, 58727.845099907536, -82740.30181649946, 47610.579146215816, -113100.2963304873, -0.016, 0.97, -0.028, 192.0, 0.0, 0.0, 0.0, 0.0, 0.0, 0.0, 0.0, 0.0, 0.0, 1.6664055148867252E9, 0.0, 2022-10-21 19:25:14.886
192.0, -135469.72101565852, -161728.63980873107, 11111.521555366702, -123047.13553752132, 58722.68184693836, -82756.61858995183, 47606.77934965841, -113102.48680144391, -0.014, 0.964, -0.028, 192.0, 255.0, 144.0, 30.0, 32.0, 255.0, 32.0, 0.0, 0.0, 0.0, 1.6664055148867357E9, 0.0, 2022-10-21 19:25:14.886
193.0, -135471.03976858137, -161731.5678872547, 11110.292209421661, -123041.07821477392, 58728.538003985646, -82739.09482229887, 47621.196224832085, -113100.78806886531, -0.014, 0.964, -0.028, 192.0, 0.0, 0.0, 0.0, 0.0, 0.0, 0.0, 0.0, 0.0, 0.0, 1.6664055148867462E9, 0.0, 2022-10-21 19:25:14.886
194.0, -135470.59273369226, -161732.10432912165, 11110.560430355124, -123047.15788926577, 58729.38737027495, -82735.54089493047, 47622.55968124386, -113103.96201657796, -0.014, 0.964, -0.028, 192.0, 0.0, 0.0, 0.0, 0.0, 0.0, 0.0, 0.0, 0.0, 0.0, 1.6664055148867564E9, 0.0, 2022-10-21 19:25:14.886
195.0, -135474.95132386105, -161735.63590474558, 11106.537116353169, -123047.71668287716, 58730.862585409, -82742.22406652261, 47614.557756728864, -113109.21467652496, -0.014, 0.964, -0.028, 192.0, 0.0, 0.0, 0.0, 0.0, 0.0, 0.0, 0.0, 0.0, 0.0, 1.6664055148867664E9, 0.0, 2022-10-21 19:25:14.886
196.0, -135469.02811158038, -161729.08684362017, 11112.639142589467, -123041.3911391963, 58734.28240231066, -82752.41646199423, 47616.41295151865, -113096.04949904079, -0.014, 0.964, -0.028, 192.0, 0.0, 0.0, 0.0, 0.0, 0.0, 0.0, 0.0, 0.0, 0.0, 1.6664055148867855E9, 0.0, 2022-10-21 19:25:14.886
197.0, -135465.74240514546, -161723.25303831734, 11116.573049613602, -123032.45044141418, 58739.13273085746, -82737.01611006452, 47630.24868133649, -113088.18168499252, -0.014, 0.964, -0.028, 192.0, 0.0, 0.0, 0.0, 0.0, 0.0, 0.0, 0.0, 0.0, 0.0, 1.6664055148867958E9, 0.0, 2022-10-21 19:25:14.886
198.0, -135468.29050401336, -161726.85166917465, 11110.314561166117, -123038.50776416156, 58734.43886452185, -82746.5826566914, 47623.029067877425, -113093.92608331754, -0.014, 0.964, -0.028, 192.0, 0.0, 0.0, 0.0, 0.0, 0.0, 0.0, 0.0, 0.0, 0.0, 1.6664055148868067E9, 0.0, 2022-10-21 19:25:14.886
199.0, -135471.82207963732, -161730.53970700977, 11101.396215128449, -123046.86731658786, 58732.516614498694, -82766.96744763464, 47610.646201449184, -113102.66561539956, -0.014, 0.964, -0.028, 192.0, 0.0, 0.0, 0.0, 0.0, 0.0, 0.0, 0.0, 0.0, 0.0, 1.6664055148868165E9, 0.0, 2022-10-21 19:25:14.886
200.0, -135471.73267265948, -161726.29287556326, 11109.666360576912, -123028.60594136786, 58747.29111758365, -82754.60693295085, 47624.37017254474, -113087.68994661451, -0.014, 0.964, -0.028, 192.0, 0.0, 0.0, 0.0, 0.0, 0.0, 0.0, 0.0, 0.0, 0.0, 1.6664055148868272E9, 0.0, 2022-10-21 19:25:14.886
201.0, -135469.74336740296, -161722.15780283904, 11109.733415810279, -123025.36493842184, 58746.17353036089, -82743.14048804528, 47634.89784418319, -113085.65593786907, -0.014, 0.964, -0.028, 192.0, 0.0, 0.0, 0.0, 0.0, 0.0, 0.0, 0.0, 0.0, 0.0, 1.6664055149021924E9, 0.0, 2022-10-21 19:25:14.902
202.0, -135473.78903314937, -161726.73991045236, 11107.453537875836, -123029.90234254628, 58742.26197508121, -82756.37272076283, 47627.58882374631, -113104.76667937836, -0.016, 0.964, -0.026000000000000002, 192.0, 255.0, 128.0, 30.0, 32.0, 255.0, 48.0, 0.0, 0.0, 0.0, 1.6664055149632378E9, 0.0, 2022-10-21 19:25:14.963
203.0, -135469.20692553604, -161725.4211575295, 11101.731491295277, -123034.95383679317, 58743.93835591536, -82768.75558719106, 47618.15638758617, -113105.3925282231, -0.016, 0.964, -0.026000000000000002, 192.0, 0.0, 0.0, 0.0, 0.0, 0.0, 0.0, 0.0, 0.0, 0.0, 1.66640551496328E9, 0.0, 2022-10-21 19:25:14.963
204.0, -135469.09516681376, -161730.7185209654, 11094.020139458196, -123038.70892986166, 58743.62543149298, -82764.19583132218, 47619.65395446467, -113094.90956007357, -0.016, 0.964, -0.026000000000000002, 192.0, 0.0, 0.0, 0.0, 0.0, 0.0, 0.0, 0.0, 0.0, 0.0, 1.6664055149633057E9, 0.0, 2022-10-21 19:25:14.963
205.0, -135465.11655630072, -161721.68841620546, 11104.43605237437, -123025.61080761085, 58748.945146673344, -82745.26390376853, 47633.46733253805, -113091.42268793854, -0.016, 0.964, -0.026000000000000002, 192.0, 0.0, 0.0, 0.0, 0.0, 0.0, 0.0, 0.0, 0.0, 0.0, 1.6664055149633296E9, 0.0, 2022-10-21 19:25:14.963
206.0, -135467.68700691307, -161722.69424470596, 11107.833517531577, -123020.60401685287, 58750.15214087393, -82761.7371394321, 47631.835655192815, -113087.66759487004, -0.016, 0.964, -0.026000000000000002, 192.0, 0.0, 0.0, 0.0, 0.0, 0.0, 0.0, 0.0, 0.0, 0.0, 1.6664055149633539E9, 0.0, 2022-10-21 19:25:14.963
207.0, -135474.16901280513, -161731.54553551026, 11088.990996955752, -123044.16275550876, 58737.09872211203, -82780.22203209663, 47615.16125382915, -113095.96009206297, -0.016, 0.964, -0.026000000000000002, 192.0, 0.0, 0.0, 0.0, 0.0, 0.0, 0.0, 0.0, 0.0, 0.0, 1.6664055149633727E9, 0.0, 2022-10-21 19:25:14.963
208.0, -135474.19136454957, -161731.54553551026, 11084.274778875682, -123038.50776416156, 58737.277536067675, -82790.68264850172, 47608.29926828138, -113095.4907054294, -0.016, 0.964, -0.026000000000000002, 192.0, 0.0, 0.0, 0.0, 0.0, 0.0, 0.0, 0.0, 0.0, 0.0, 1.6664055149633892E9, 0.0, 2022-10-21 19:25:14.963
209.0, -135471.24093428146, -161729.35506455365, 11092.991959213252, -123014.97137725013, 58749.83921645155, -82777.65158148427, 47618.35755328627, -113078.72689708792, -0.016, 0.964, -0.026000000000000002, 192.0, 0.0, 0.0, 0.0, 0.0, 0.0, 0.0, 0.0, 0.0, 0.0, 1.6664055149634058E9, 0.0, 2022-10-21 19:25:14.963
210.0, -135475.46541398353, -161732.9760471554, 11086.666415532402, -123028.18125822321, 58743.7148384708, -82760.15016557577, 47625.17483534513, -113087.37702219213, -0.016, 0.964, -0.026000000000000002, 192.0, 0.0, 0.0, 0.0, 0.0, 0.0, 0.0, 0.0, 0.0, 0.0, 1.6664055149634223E9, 0.0, 2022-10-21 19:25:14.963
211.0, -135481.74625417546, -161739.43570130298, 11071.355470580516, -123042.35226420788, 58730.19203307534, -82777.76334020655, 47609.461558993054, -113108.2535515134, -0.016, 0.9580000000000001, -0.026000000000000002, 192.0, 255.0, 128.0, 29.0, 240.0, 255.0, 48.0, 0.0, 0.0, 0.0, 1.6664055149635036E9, 0.0, 2022-10-21 19:25:14.963
212.0, -135494.55380374836, -161757.00417244484, 11050.881272659455, -123059.85368011639, 58715.81986139058, -82809.70398303318, 47586.57337267082, -113124.3021040323, -0.016, 0.9580000000000001, -0.026000000000000002, 192.0, 0.0, 0.0, 0.0, 0.0, 0.0, 0.0, 0.0, 0.0, 0.0, 1.666405514963523E9, 0.0, 2022-10-21 19:25:14.963
213.0, -135487.3788937782, -161748.75637874086, 11054.211682583295, -123052.74582537959, 58718.546774214126, -82808.31817487696, 47592.92126809613, -113110.26520851436, -0.016, 0.9580000000000001, -0.026000000000000002, 192.0, 0.0, 0.0, 0.0, 0.0, 0.0, 0.0, 0.0, 0.0, 0.0, 1.6664055149635394E9, 0.0, 2022-10-21 19:25:14.963
214.0, -135495.3361148043, -161755.95364045544, 11050.009554625698, -123055.98682832562, 58711.03658807714, -82797.5893375384, 47598.75507339896, -113111.2039817815, -0.016, 0.9580000000000001, -0.026000000000000002, 192.0, 0.0, 0.0, 0.0, 0.0, 0.0, 0.0, 0.0, 0.0, 0.0, 1.666405514963556E9, 0.0, 2022-10-21 19:25:14.963
215.0, -135473.87844012718, -161736.03823614577, 11069.120296134985, -123041.63700838531, 58731.55548948712, -82798.68457301671, 47608.58984095929, -113106.30894974577, -0.016, 0.9580000000000001, -0.026000000000000002, 192.0, 0.0, 0.0, 0.0, 0.0, 0.0, 0.0, 0.0, 0.0, 0.0, 1.6664055149635727E9, 0.0, 2022-10-21 19:25:14.963
216.0, -135471.95619010404, -161734.18304135598, 11068.159171123407, -123038.79833683949, 58742.08316112556, -82798.1928346387, 47609.84153864879, -113105.50428694539, -0.016, 0.9580000000000001, -0.026000000000000002, 192.0, 0.0, 0.0, 0.0, 0.0, 0.0, 0.0, 0.0, 0.0, 0.0, 1.6664055154139423E9, 0.0, 2022-10-21 19:25:15.413
217.0, -135471.53150695938, -161734.0265791448, 11064.962871666297, -123034.26093271506, 58742.70900997031, -82802.1490934073, 47608.43337874811, -113101.05628979878, -0.016, 0.9580000000000001, -0.026000000000000002, 192.0, 0.0, 0.0, 0.0, 0.0, 0.0, 0.0, 0.0, 0.0, 0.0, 1.666405515413996E9, 0.0, 2022-10-21 19:25:15.413
218.0, -135481.6791989421, -161743.59312577167, 11056.022173884176, -123038.32895020592, 58736.092893611545, -82794.03541017, 47609.90859388216, -113107.694757902, -0.016, 0.9580000000000001, -0.026000000000000002, 192.0, 0.0, 0.0, 0.0, 0.0, 0.0, 0.0, 0.0, 0.0, 0.0, 1.6664055154140203E9, 0.0, 2022-10-21 19:25:15.414
219.0, -135483.46733849854, -161741.9167449375, 11051.015383126187, -123041.68171187422, 58730.080274353066, -82808.42993359923, 47604.05243683487, -113108.7005864025, -0.016, 0.9580000000000001, -0.026000000000000002, 192.0, 0.0, 0.0, 0.0, 0.0, 0.0, 0.0, 0.0, 0.0, 0.0, 1.6664055154140348E9, 0.0, 2022-10-21 19:25:15.414
220.0, -135475.53246921688, -161733.95952391144, 11053.608185483, -123042.46402293016, 58735.936431400354, -82824.47848611814, 47603.11366356775, -113101.86095259916, -0.016, 0.9580000000000001, -0.026000000000000002, 192.0, 0.0, 0.0, 0.0, 0.0, 0.0, 0.0, 0.0, 0.0, 0.0, 1.6664055154140568E9, 0.0, 2022-10-21 19:25:15.414
221.0, -135475.48776572797, -161733.95952391144, 11051.596528482025, -123044.02864504202, 58737.94808840133, -82815.76130578057, 47606.46642523604, -113105.32547298975, -0.026000000000000002, 0.9560000000000001, -0.03, 192.0, 255.0, 48.0, 29.0, 224.0, 255.0, 16.0, 0.0, 0.0, 0.0, 1.6664055154140704E9, 0.0, 2022-10-21 19:25:15.414
222.0, -135475.39835875016, -161735.9264774235, 11052.065915115585, -123043.4922031751, 58734.37180928848, -82809.61457605536, 47612.63550670571, -113104.00672006689, -0.026000000000000002, 0.9560000000000001, -0.03, 192.0, 0.0, 0.0, 0.0, 0.0, 0.0, 0.0, 0.0, 0.0, 0.0, 1.6664055154140851E9, 0.0, 2022-10-21 19:25:15.414
223.0, -135469.20692553604, -161729.33271280918, 11056.223339584272, -123033.23275247011, 58743.62543149298, -82812.07326794545, 47623.789027188905, -113089.18751349302, -0.026000000000000002, 0.9560000000000001, -0.03, 192.0, 0.0, 0.0, 0.0, 0.0, 0.0, 0.0, 0.0, 0.0, 0.0, 1.6664055154140959E9, 0.0, 2022-10-21 19:25:15.414
224.0, -135470.63743718117, -161725.48821276287, 11052.445894771326, -123028.06949950094, 58750.64387925195, -82811.60388131188, 47626.49358826799, -113091.31092921627, -0.026000000000000002, 0.9560000000000001, -0.03, 192.0, 0.0, 0.0, 0.0, 0.0, 0.0, 0.0, 0.0, 0.0, 0.0, 1.6664055154141064E9, 0.0, 2022-10-21 19:25:15.414
225.0, -135471.10682381474, -161723.83418367317, 11051.685935459845, -123030.6846536022, 58750.755637974224, -82822.08684946143, 47623.47610276653, -113078.30221394327, -0.026000000000000002, 0.9560000000000001, -0.03, 192.0, 0.0, 0.0, 0.0, 0.0, 0.0, 0.0, 0.0, 0.0, 0.0, 1.6664055154141188E9, 0.0, 2022-10-21 19:25:15.414
226.0, -135484.09318734327, -161737.7146169799, 11037.47022598627, -123048.78956661101, 58734.14829184393, -82823.76323029558, 47618.066980608346, -113089.23221698192, -0.026000000000000002, 0.9560000000000001, -0.03, 192.0, 0.0, 0.0, 0.0, 0.0, 0.0, 0.0, 0.0, 0.0, 0.0, 1.666405515414189E9, 0.0, 2022-10-21 19:25:15.414
227.0, -135488.1835565786, -161741.04502690377, 11024.394455479915, -123053.14815677979, 58729.297963297126, -82818.10823894838, 47617.19526257459, -113109.1476212916, -0.026000000000000002, 0.9560000000000001, -0.03, 192.0, 0.0, 0.0, 0.0, 0.0, 0.0, 0.0, 0.0, 0.0, 0.0, 1.6664055154141996E9, 0.0, 2022-10-21 19:25:15.414
228.0, -135482.79678616486, -161735.1218146231, 11032.485786972737, -123042.46402293016, 58740.74205645824, -82825.26079717408, 47616.23413756301, -113100.51984793185, -0.026000000000000002, 0.9560000000000001, -0.03, 192.0, 0.0, 0.0, 0.0, 0.0, 0.0, 0.0, 0.0, 0.0, 0.0, 1.66640551541421E9, 0.0, 2022-10-21 19:25:15.414
229.0, -135480.15928031915, -161730.98674189887, 11034.251574784706, -123038.50776416156, 58747.0676001391, -82832.12278272185, 47614.60246021777, -113088.56166464827, -0.026000000000000002, 0.9560000000000001, -0.03, 192.0, 0.0, 0.0, 0.0, 0.0, 0.0, 0.0, 0.0, 0.0, 0.0, 1.6664055154142208E9, 0.0, 2022-10-21 19:25:15.414
230.0, -135479.1758035631, -161729.10919536464, 11035.771493407667, -123037.90426706127, 58748.386353061964, -82826.37838439684, 47626.49358826799, -113082.07965875622, -0.026000000000000002, 0.9560000000000001, -0.03, 192.0, 0.0, 0.0, 0.0, 0.0, 0.0, 0.0, 0.0, 0.0, 0.0, 1.6664055154142313E9, 0.0, 2022-10-21 19:25:15.414
231.0, -135485.6801611996, -161736.35116056816, 11023.410978723881, -123048.67780788873, 58739.87033842449, -82823.71852680667, 47629.53342551392, -113090.26039722687, -0.022, 0.96, -0.028, 192.0, 255.0, 80.0, 30.0, 0.0, 255.0, 32.0, 0.0, 0.0, 0.0, 1.6664055154142418E9, 0.0, 2022-10-21 19:25:15.414
232.0, -135484.51787048794, -161741.15678562605, 11020.549955433602, -123049.23660150012, 58737.76927444569, -82834.11208797838, 47628.46054178006, -113094.66369088455, -0.022, 0.96, -0.028, 192.0, 0.0, 0.0, 0.0, 0.0, 0.0, 0.0, 0.0, 0.0, 0.0, 1.6664055154142532E9, 0.0, 2022-10-21 19:25:15.414
233.0, -135484.80844316585, -161740.6203437591, 11022.89688860141, -123045.23563924262, 58740.65264948043, -82855.74857661112, 47618.35755328627, -113090.81919083824, -0.022, 0.96, -0.028, 192.0, 0.0, 0.0, 0.0, 0.0, 0.0, 0.0, 0.0, 0.0, 0.0, 1.6664055154142635E9, 0.0, 2022-10-21 19:25:15.414
234.0, -135489.54701299037, -161738.7204454804, 11020.818176367065, -123046.4426334432, 58738.886861668456, -82849.89241956382, 47617.19526257459, -113092.31675771675, -0.022, 0.96, -0.028, 192.0, 0.0, 0.0, 0.0, 0.0, 0.0, 0.0, 0.0, 0.0, 0.0, 1.666405515414274E9, 0.0, 2022-10-21 19:25:15.414
235.0, -135488.4294257676, -161736.3735123126, 11019.387664721926, -123048.23077299962, 58733.09775985453, -82855.2568382331, 47616.05532360737, -113091.60150189418, -0.022, 0.96, -0.028, 192.0, 0.0, 0.0, 0.0, 0.0, 0.0, 0.0, 0.0, 0.0, 0.0, 1.6664055154142845E9, 0.0, 2022-10-21 19:25:15.414
236.0, -135494.39734153717, -161742.4755385489, 11017.711283887778, -123047.11318577686, 58736.47287326728, -82858.34137896793, 47613.0378381059, -113097.72587987494, -0.022, 0.96, -0.028, 192.0, 0.0, 0.0, 0.0, 0.0, 0.0, 0.0, 0.0, 0.0, 0.0, 1.6664055154142947E9, 0.0, 2022-10-21 19:25:15.414
237.0, -135500.477016029, -161752.6232305316, 11016.191365264818, -123049.95185732268, 58739.04332387964, -82867.99733257263, 47610.62384970473, -113101.52567643234, -0.022, 0.96, -0.028, 192.0, 0.0, 0.0, 0.0, 0.0, 0.0, 0.0, 0.0, 0.0, 0.0, 1.666405515414305E9, 0.0, 2022-10-21 19:25:15.414
238.0, -135492.49744325847, -161744.35308508316, 11022.89688860141, -123047.51551717706, 58741.94905065883, -82864.53281218205, 47622.33616379931, -113088.49460941489, -0.022, 0.96, -0.028, 192.0, 0.0, 0.0, 0.0, 0.0, 0.0, 0.0, 0.0, 0.0, 0.0, 1.6664055154143155E9, 0.0, 2022-10-21 19:25:15.414
239.0, -135486.01543736644, -161738.89925943606, 11014.000894308198, -123047.33670322142, 58741.03262913616, -82850.11593700838, 47633.13205637122, -113074.81534180825, -0.022, 0.96, -0.028, 192.0, 0.0, 0.0, 0.0, 0.0, 0.0, 0.0, 0.0, 0.0, 0.0, 1.6664055154143257E9, 0.0, 2022-10-21 19:25:15.414
240.0, -135491.6257252247, -161742.05085540426, 11003.27205696965, -123048.11901427736, 58740.29502156914, -82844.77387008356, 47630.0922191253, -113090.48391467142, -0.02, 0.96, -0.026000000000000002, 192.0, 255.0, 96.0, 30.0, 0.0, 255.0, 48.0, 0.0, 0.0, 0.0, 1.666405515414336E9, 0.0, 2022-10-21 19:25:15.414
241.0, -135494.44204502608, -161742.0732071487, 11006.624818637947, -123056.27740100354, 58740.89851866943, -82863.75050112612, 47621.129169598724, -113098.10585953068, -0.02, 0.96, -0.026000000000000002, 192.0, 0.0, 0.0, 0.0, 0.0, 0.0, 0.0, 0.0, 0.0, 0.0, 1.6664055154143584E9, 0.0, 2022-10-21 19:25:15.414
242.0, -135498.06302762782, -161750.56687004172, 11003.8979058144, -123057.50674694858, 58741.50201576973, -82874.3675797424, 47620.48096900952, -113093.36728970615, -0.02, 0.96, -0.026000000000000002, 192.0, 0.0, 0.0, 0.0, 0.0, 0.0, 0.0, 0.0, 0.0, 0.0, 1.6664055154143689E9, 0.0, 2022-10-21 19:25:15.414
243.0, -135494.6208589817, -161753.60670728763, 11001.372158690949, -123048.25312474408, 58746.44175129435, -82872.0653500635, 47622.82790217733, -113095.87068508514, -0.02, 0.96, -0.026000000000000002, 192.0, 0.0, 0.0, 0.0, 0.0, 0.0, 0.0, 0.0, 0.0, 0.0, 1.666405515414379E9, 0.0, 2022-10-21 19:25:15.414
244.0, -135493.61503048122, -161747.99641942937, 10998.242914467206, -123050.39889221179, 58748.63222225097, -82870.25485876261, 47619.67630620913, -113098.1952665085, -0.02, 0.96, -0.026000000000000002, 192.0, 0.0, 0.0, 0.0, 0.0, 0.0, 0.0, 0.0, 0.0, 0.0, 1.6664055154143891E9, 0.0, 2022-10-21 19:25:15.414
245.0, -135493.45856827006, -161746.2753351063, 10990.822135308044, -123057.61850567085, 58744.49714952674, -82883.57649845797, 47606.55583221386, -113105.61604566766, -0.02, 0.96, -0.026000000000000002, 192.0, 0.0, 0.0, 0.0, 0.0, 0.0, 0.0, 0.0, 0.0, 0.0, 1.6664055154143996E9, 0.0, 2022-10-21 19:25:15.414
246.0, -135496.5207572604, -161748.75637874086, 10996.432423166327, -123061.95474409519, 58742.932527414865, -82887.80097816003, 47602.84544263428, -113109.5499526918, -0.02, 0.96, -0.026000000000000002, 192.0, 0.0, 0.0, 0.0, 0.0, 0.0, 0.0, 0.0, 0.0, 0.0, 1.66640551541441E9, 0.0, 2022-10-21 19:25:15.414
247.0, -135498.59946949477, -161751.50564330886, 11001.685083113323, -123053.03639805752, 58749.72745772928, -82882.07893157947, 47609.75213167097, -113098.46348744196, -0.02, 0.96, -0.026000000000000002, 192.0, 0.0, 0.0, 0.0, 0.0, 0.0, 0.0, 0.0, 0.0, 0.0, 1.6664055154144204E9, 0.0, 2022-10-21 19:25:15.414
248.0, -135509.5965277668, -161761.36276261363, 10992.297350442095, -123057.97613358214, 58749.660402495916, -82872.22181227467, 47615.18360557361, -113099.17874326454, -0.02, 0.96, -0.026000000000000002, 192.0, 0.0, 0.0, 0.0, 0.0, 0.0, 0.0, 0.0, 0.0, 0.0, 1.6664055154144309E9, 0.0, 2022-10-21 19:25:15.414
249.0, -135510.3788388227, -161761.2286521469, 10984.630702093924, -123067.29681102, 58743.066637881595, -82888.02449560458, 47607.67341943663, -113105.81721136776, -0.02, 0.96, -0.026000000000000002, 192.0, 0.0, 0.0, 0.0, 0.0, 0.0, 0.0, 0.0, 0.0, 0.0, 1.666405515414441E9, 0.0, 2022-10-21 19:25:15.414
250.0, -135494.4196932816, -161741.3132478372, 11003.942609303309, -123043.96158980866, 58764.52431255869, -82874.56874544249, 47625.28659406741, -113086.59471113619, -0.02, 0.968, -0.028, 192.0, 255.0, 96.0, 30.0, 64.0, 255.0, 32.0, 0.0, 0.0, 0.0, 1.6664055154144528E9, 0.0, 2022-10-21 19:25:15.414
251.0, -135493.4362165256, -161741.04502690377, 11001.618027879957, -123040.7429386071, 58761.48447531277, -82871.08187330746, 47629.42166679164, -113089.03105128183, -0.02, 0.968, -0.028, 192.0, 0.0, 0.0, 0.0, 0.0, 0.0, 0.0, 0.0, 0.0, 0.0, 1.6664055154144638E9, 0.0, 2022-10-21 19:25:15.414
252.0, -135490.10580660176, -161742.00615191535, 10997.192382477806, -123043.82747934193, 58763.38437359147, -82869.42784421776, 47633.646146493695, -113086.10297275818, -0.02, 0.968, -0.028, 192.0, 0.0, 0.0, 0.0, 0.0, 0.0, 0.0, 0.0, 0.0, 0.0, 1.6664055154144742E9, 0.0, 2022-10-21 19:25:15.414
253.0, -135489.234088568, -161738.4298728025, 10990.41980390785, -123056.791491126, 58759.651632267436, -82868.77964362856, 47630.56160575886, -113082.30317620077, -0.02, 0.968, -0.028, 192.0, 0.0, 0.0, 0.0, 0.0, 0.0, 0.0, 0.0, 0.0, 0.0, 1.6664055154144845E9, 0.0, 2022-10-21 19:25:15.414
254.0, -135489.6811234571, -161736.70878847945, 10988.631664351424, -123058.93725859372, 58752.18614961936, -82887.17512931528, 47619.69865795358, -113079.8444843107, -0.02, 0.968, -0.028, 192.0, 0.0, 0.0, 0.0, 0.0, 0.0, 0.0, 0.0, 0.0, 0.0, 1.6664055154144948E9, 0.0, 2022-10-21 19:25:15.414
255.0, -135492.3856845362, -161743.50371879386, 10986.284731183618, -123060.5465841945, 58745.324164071586, -82888.04684734903, 47620.54802424288, -113092.5402751613, -0.02, 0.968, -0.028, 192.0, 0.0, 0.0, 0.0, 0.0, 0.0, 0.0, 0.0, 0.0, 0.0, 1.6664055154145052E9, 0.0, 2022-10-21 19:25:15.414
0.0, -135477.43236749558, -161730.11502386513, 11001.215696479761, -123041.5923048964, 58760.568053790106, -82874.63580067585, 47638.47412329604, -113078.16810347655, -0.02, 0.968, -0.028, 192.0, 0.0, 0.0, 0.0, 0.0, 0.0, 0.0, 0.0, 0.0, 0.0, 1.6664055154145255E9, 0.0, 2022-10-21 19:25:15.414
1.0, -135473.49846047146, -161725.53291625177, 11006.490708171214, -123045.61561889836, 58765.932472459375, -82884.76114091411, 47640.083448896825, -113071.8872632846, -0.02, 0.968, -0.028, 192.0, 0.0, 0.0, 0.0, 0.0, 0.0, 0.0, 0.0, 0.0, 0.0, 1.6664055154145355E9, 0.0, 2022-10-21 19:25:15.414
2.0, -135486.7753966779, -161739.94979142546, 10987.31291142856, -123065.48631971913, 58755.20363512083, -82891.19844331723, 47627.700582468584, -113091.33328096072, -0.02, 0.968, -0.028, 192.0, 0.0, 0.0, 0.0, 0.0, 0.0, 0.0, 0.0, 0.0, 0.0, 1.666405515414546E9, 0.0, 2022-10-21 19:25:15.414
3.0, -135490.91046940215, -161743.1237391381, 10979.243931680196, -123068.9508401097, 58748.587518762055, -82905.52591151309, 47622.0902946103, -113097.30119673029, -0.02, 0.968, -0.028, 192.0, 0.0, 0.0, 0.0, 0.0, 0.0, 0.0, 0.0, 0.0, 0.0, 1.6664055154145565E9, 0.0, 2022-10-21 19:25:15.414
4.0, -135492.85507116976, -161742.29672459327, 10974.147733944385, -123069.75550291009, 58745.77119896069, -82902.39666728934, 47622.91730915515, -113093.1437722616, -0.018000000000000002, 0.968, -0.026000000000000002, 192.0, 255.0, 112.0, 30.0, 64.0, 255.0, 48.0, 0.0, 0.0, 0.0, 1.666405515414568E9, 0.0, 2022-10-21 19:25:15.414
5.0, -135479.01934135193, -161731.7243494659, 10984.585998605013, -123063.9440493517, 58757.97525143329, -82889.92439388328, 47630.27103308094, -113082.97372853443, -0.018000000000000002, 0.968, -0.026000000000000002, 192.0, 0.0, 0.0, 0.0, 0.0, 0.0, 0.0, 0.0, 0.0, 0.0, 1.666405515414579E9, 0.0, 2022-10-21 19:25:15.414
6.0, -135481.54508847537, -161736.08293963468, 10979.713318313756, -123071.11895932186, 58754.2201583648, -82907.2693475806, 47622.35851554376, -113082.16906573405, -0.018000000000000002, 0.968, -0.026000000000000002, 192.0, 0.0, 0.0, 0.0, 0.0, 0.0, 0.0, 0.0, 0.0, 0.0, 1.66640551541459E9, 0.0, 2022-10-21 19:25:15.414
7.0, -135476.33713201727, -161727.18694534147, 10986.284731183618, -123054.42220621374, 58762.91498695791, -82910.4209435488, 47629.57812900283, -113071.30611792876, -0.018000000000000002, 0.968, -0.026000000000000002, 192.0, 0.0, 0.0, 0.0, 0.0, 0.0, 0.0, 0.0, 0.0, 0.0, 1.6664055154146001E9, 0.0, 2022-10-21 19:25:15.414
8.0, -135477.20885005104, -161724.68354996247, 10981.501457870181, -123055.65155215879, 58757.95289968883, -82905.79413244655, 47633.19911160459, -113071.79785630679, -0.018000000000000002, 0.968, -0.026000000000000002, 192.0, 0.0, 0.0, 0.0, 0.0, 0.0, 0.0, 0.0, 0.0, 0.0, 1.6664055154146104E9, 0.0, 2022-10-21 19:25:15.414
9.0, -135481.56744021983, -161733.35602681115, 10966.414030362848, -123067.050941831, 58746.48645478326, -82916.59002501846, 47621.978535888025, -113081.29734770028, -0.018000000000000002, 0.968, -0.026000000000000002, 192.0, 0.0, 0.0, 0.0, 0.0, 0.0, 0.0, 0.0, 0.0, 0.0, 1.6664055154146209E9, 0.0, 2022-10-21 19:25:15.414
10.0, -135478.5276029739, -161728.03631163077, 10969.140943186396, -123063.20644178469, 58749.503940284725, -82936.9748159617, 47616.61411721875, -113068.8921295276, -0.018000000000000002, 0.968, -0.026000000000000002, 192.0, 0.0, 0.0, 0.0, 0.0, 0.0, 0.0, 0.0, 0.0, 0.0, 1.666405515414631E9, 0.0, 2022-10-21 19:25:15.414
11.0, -135478.5723064628, -161726.22582032988, 10973.991271733197, -123057.77496788204, 58755.89653919894, -82930.78338274758, 47620.570375987336, -113074.23419645241, -0.018000000000000002, 0.968, -0.026000000000000002, 192.0, 0.0, 0.0, 0.0, 0.0, 0.0, 0.0, 0.0, 0.0, 0.0, 1.6664055154146411E9, 0.0, 2022-10-21 19:25:15.414
12.0, -135487.9823908785, -161733.28897157777, 10970.102068197975, -123059.540755694, 58750.91210018541, -82925.41896407832, 47621.53150099892, -113082.23612096741, -0.018000000000000002, 0.968, -0.026000000000000002, 192.0, 0.0, 0.0, 0.0, 0.0, 0.0, 0.0, 0.0, 0.0, 0.0, 1.6664055154146516E9, 0.0, 2022-10-21 19:25:15.414
