%OpenBCI Raw EEG Data
%Number of channels = 8
%Sample Rate = 250 Hz
%Board = OpenBCI_GUI$BoardCytonSerial
Sample Index, EXG Channel 0, EXG Channel 1, EXG Channel 2, EXG Channel 3, EXG Channel 4, EXG Channel 5, EXG Channel 6, EXG Channel 7, Accel Channel 0, Accel Channel 1, Accel Channel 2, Other, Other, Other, Other, Other, Other, Other, Analog Channel 0, Analog Channel 1, Analog Channel 2, Timestamp, Other, Timestamp (Formatted)
235.0, -143753.45632475094, -152523.63264842425, 17215.380634710866, -105918.97140967505, 75872.75068435082, -69183.29825202207, 79548.91974317071, -114283.70944067353, 0.0, 0.0, 0.0, 192.0, 0.0, 0.0, 0.0, 0.0, 0.0, 0.0, 0.0, 0.0, 0.0, 1.666406796025247E9, 0.0, 2022-10-21 19:46:36.025
236.0, -143769.14724935856, -152539.9494218766, 17205.2105909837, -105916.66917999616, 75869.44262617143, -69085.799942708, 79605.0896769869, -114272.57827193479, 0.0, 0.0, 0.0, 192.0, 0.0, 0.0, 0.0, 0.0, 0.0, 0.0, 0.0, 0.0, 0.0, 1.6664067960252776E9, 0.0, 2022-10-21 19:46:36.025
237.0, -143771.02479589282, -152539.52473873197, 17203.891838060837, -105933.4553400821, 75868.36974243757, -69112.15264942082, 79561.81669972143, -114316.52180153392, 0.0, 0.0, 0.0, 192.0, 0.0, 0.0, 0.0, 0.0, 0.0, 0.0, 0.0, 0.0, 0.0, 1.6664067960252955E9, 0.0, 2022-10-21 19:46:36.025
238.0, -143765.19099059, -152530.248764783, 17209.591532896942, -105930.32609585836, 75872.75068435082, -69210.32151106853, 79501.10936178081, -114334.64906628718, 0.0, 0.0, 0.0, 192.0, 0.0, 0.0, 0.0, 0.0, 0.0, 0.0, 0.0, 0.0, 0.0, 1.666406796025313E9, 0.0, 2022-10-21 19:46:36.025
239.0, -143761.10062135465, -152528.57238394886, 17209.613884641396, -105899.27952280993, 75883.14424552253, -69177.50915020813, 79543.06358612342, -114294.39357452317, -0.032, 0.9400000000000001, -0.14200000000000002, 192.0, 255.0, 0.0, 29.0, 96.0, 251.0, 144.0, 0.0, 0.0, 0.0, 1.66640679602533E9, 0.0, 2022-10-21 19:46:36.025
240.0, -143765.8838946681, -152535.7025904301, 17198.4603641582, -105909.15899385918, 75875.47759717437, -69070.13136984485, 79605.0896769869, -114279.14968480465, -0.032, 0.9400000000000001, -0.14200000000000002, 192.0, 0.0, 0.0, 0.0, 0.0, 0.0, 0.0, 0.0, 0.0, 0.0, 1.666406796025351E9, 0.0, 2022-10-21 19:46:36.025
241.0, -143767.91790341353, -152538.38479976475, 17191.061936743492, -105936.47282558357, 75865.82164356967, -69088.59391076493, 79565.14710964527, -114328.12235690623, -0.032, 0.9400000000000001, -0.14200000000000002, 192.0, 0.0, 0.0, 0.0, 0.0, 0.0, 0.0, 0.0, 0.0, 0.0, 1.666406796025369E9, 0.0, 2022-10-21 19:46:36.025
242.0, -143758.99955737588, -152528.12534905976, 17200.360262436898, -105941.14434017472, 75869.53203314925, -69191.05430734805, 79498.58361465736, -114347.81424377135, -0.032, 0.9400000000000001, -0.14200000000000002, 192.0, 0.0, 0.0, 0.0, 0.0, 0.0, 0.0, 0.0, 0.0, 0.0, 1.6664067960253868E9, 0.0, 2022-10-21 19:46:36.025
243.0, -143755.84796140768, -152524.57142169136, 17203.78007933856, -105920.26781085346, 75874.27060297377, -69197.7374789402, 79522.92466436919, -114306.59762699576, -0.032, 0.9400000000000001, -0.14200000000000002, 192.0, 0.0, 0.0, 0.0, 0.0, 0.0, 0.0, 0.0, 0.0, 0.0, 1.666406796025404E9, 0.0, 2022-10-21 19:46:36.025
244.0, -143766.39798479056, -152534.5402997184, 17193.45357340021, -105903.39224378971, 75876.70694311941, -69084.54824501852, 79599.34527866189, -114279.86494062722, -0.032, 0.9400000000000001, -0.14200000000000002, 192.0, 0.0, 0.0, 0.0, 0.0, 0.0, 0.0, 0.0, 0.0, 0.0, 1.6664067960254216E9, 0.0, 2022-10-21 19:46:36.025
245.0, -143768.52140051383, -152536.37314276377, 17195.30876819, -105920.31251434238, 75871.70015236142, -69065.32574478695, 79585.82247326642, -114313.92899917711, -0.032, 0.9400000000000001, -0.14200000000000002, 192.0, 0.0, 0.0, 0.0, 0.0, 0.0, 0.0, 0.0, 0.0, 0.0, 1.6664067960254388E9, 0.0, 2022-10-21 19:46:36.025
246.0, -143761.1900283325, -152531.4557589836, 17199.3097304475, -105935.22112789407, 75867.654486615, -69177.19622578577, 79505.84793160534, -114341.17577566812, -0.032, 0.9400000000000001, -0.14200000000000002, 192.0, 0.0, 0.0, 0.0, 0.0, 0.0, 0.0, 0.0, 0.0, 0.0, 1.666406796025456E9, 0.0, 2022-10-21 19:46:36.025
247.0, -143763.20168533345, -152531.32164851687, 17197.655701357806, -105917.38443581873, 75873.53299540676, -69196.77635392861, 79514.1180770538, -114308.98926365249, -0.032, 0.9400000000000001, -0.14200000000000002, 192.0, 0.0, 0.0, 0.0, 0.0, 0.0, 0.0, 0.0, 0.0, 0.0, 1.666406796025476E9, 0.0, 2022-10-21 19:46:36.025
248.0, -143767.3814615466, -152533.82504389586, 17194.995843767625, -105902.14054610021, 75874.91880356298, -69094.13714338985, 79591.27629891352, -114282.61420519522, -0.032, 0.9400000000000001, -0.14200000000000002, 192.0, 0.0, 0.0, 0.0, 0.0, 0.0, 0.0, 0.0, 0.0, 0.0, 1.6664067960254934E9, 0.0, 2022-10-21 19:46:36.025
249.0, -143768.47669702492, -152535.0990933298, 17193.565332122485, -105914.90339218419, 75867.83330057065, -69061.39183776281, 79592.57270009193, -114318.82403121282, -0.03, 0.9460000000000001, -0.14200000000000002, 192.0, 255.0, 16.0, 29.0, 144.0, 251.0, 144.0, 0.0, 0.0, 0.0, 1.666406796025512E9, 0.0, 2022-10-21 19:46:36.025
250.0, -143763.44755452249, -152527.58890719284, 17200.986111281647, -105931.22016563657, 75866.53689939225, -69166.60149891395, 79516.80028638843, -114357.11256946476, -0.03, 0.9460000000000001, -0.14200000000000002, 192.0, 0.0, 0.0, 0.0, 0.0, 0.0, 0.0, 0.0, 0.0, 0.0, 1.6664067960255313E9, 0.0, 2022-10-21 19:46:36.025
251.0, -143761.0335661213, -152523.63264842425, 17202.48367816015, -105919.53020328644, 75872.61657388408, -69209.1368686124, 79506.63024266127, -114337.59949655528, -0.03, 0.9460000000000001, -0.14200000000000002, 192.0, 0.0, 0.0, 0.0, 0.0, 0.0, 0.0, 0.0, 0.0, 0.0, 1.6664067960257082E9, 0.0, 2022-10-21 19:46:36.025
252.0, -143767.47086852443, -152532.68510492865, 17193.811201311495, -105908.73431071453, 75868.7050186044, -69124.04377747104, 79576.59120280639, -114297.81339142483, -0.03, 0.9460000000000001, -0.14200000000000002, 192.0, 0.0, 0.0, 0.0, 0.0, 0.0, 0.0, 0.0, 0.0, 0.0, 1.6664067960257263E9, 0.0, 2022-10-21 19:46:36.025
253.0, -143778.11029888515, -152543.16807307818, 17183.752916306606, -105917.47384279655, 75861.93244003445, -69060.2518987956, 79601.1334182183, -114310.82210669781, -0.03, 0.9460000000000001, -0.14200000000000002, 192.0, 0.0, 0.0, 0.0, 0.0, 0.0, 0.0, 0.0, 0.0, 0.0, 1.6664067960257437E9, 0.0, 2022-10-21 19:46:36.025
254.0, -143771.0918511262, -152536.93193637516, 17188.670300086775, -105934.26000288248, 75859.67491384446, -69138.46065264472, 79531.28421679548, -114359.77242705494, -0.03, 0.9460000000000001, -0.14200000000000002, 192.0, 0.0, 0.0, 0.0, 0.0, 0.0, 0.0, 0.0, 0.0, 0.0, 1.6664067960257552E9, 0.0, 2022-10-21 19:46:36.025
255.0, -143763.80518243375, -152527.61125893728, 17196.381651923853, -105925.22989812255, 75867.0062860258, -69205.96292089975, 79500.75173386953, -114356.33025840882, -0.03, 0.9460000000000001, -0.14200000000000002, 192.0, 0.0, 0.0, 0.0, 0.0, 0.0, 0.0, 0.0, 0.0, 0.0, 1.6664067960257666E9, 0.0, 2022-10-21 19:46:36.025
0.0, -143766.4873917684, -152532.08160782835, 17191.82189605497, -105904.66629322366, 75868.39209418203, -69142.01458001311, 79561.99551367707, -114308.3857665522, -0.03, 0.9460000000000001, -0.14200000000000002, 192.0, 0.0, 0.0, 0.0, 0.0, 0.0, 0.0, 0.0, 0.0, 0.0, 1.666406796025778E9, 0.0, 2022-10-21 19:46:36.025
1.0, -143772.27649358232, -152537.78130266446, 17184.334061662445, -105912.17647936064, 75860.81485281169, -69065.2586895536, 79602.27335718554, -114308.07284212981, -0.03, 0.9460000000000001, -0.14200000000000002, 192.0, 0.0, 0.0, 0.0, 0.0, 0.0, 0.0, 0.0, 0.0, 0.0, 1.666406796025792E9, 0.0, 2022-10-21 19:46:36.025
2.0, -143781.06072915325, -152545.98439287953, 17176.60035808091, -105942.1054651863, 75848.43198638344, -69130.1681554518, 79536.4698215091, -114371.03770626041, -0.03, 0.9460000000000001, -0.14200000000000002, 192.0, 0.0, 0.0, 0.0, 0.0, 0.0, 0.0, 0.0, 0.0, 0.0, 1.6664067960258038E9, 0.0, 2022-10-21 19:46:36.025
3.0, -143766.80031619075, -152532.72980841756, 17189.698480331717, -105933.008305193, 75860.79250106723, -69212.55668551406, 79496.28138497846, -114362.02995324493, -0.032, 0.9440000000000001, -0.14400000000000002, 192.0, 255.0, 0.0, 29.0, 128.0, 251.0, 128.0, 0.0, 0.0, 0.0, 1.6664067960258157E9, 0.0, 2022-10-21 19:46:36.025
4.0, -143763.2910923113, -152526.27015426997, 17195.06289900099, -105897.80430767588, 75875.00821054081, -69159.18071975479, 79557.41340606373, -114299.3780135367, -0.032, 0.9440000000000001, -0.14400000000000002, 192.0, 0.0, 0.0, 0.0, 0.0, 0.0, 0.0, 0.0, 0.0, 0.0, 1.6664067960258281E9, 0.0, 2022-10-21 19:46:36.025
5.0, -143769.0801941252, -152531.07577932786, 17188.893817531327, -105897.2455140645, 75870.38139943856, -69063.51525348607, 79614.36565093586, -114290.34790877676, -0.032, 0.9440000000000001, -0.14400000000000002, 192.0, 0.0, 0.0, 0.0, 0.0, 0.0, 0.0, 0.0, 0.0, 0.0, 1.66640679602584E9, 0.0, 2022-10-21 19:46:36.025
6.0, -143763.44755452249, -152527.79007289294, 17193.364166422387, -105921.36304633178, 75868.61561162658, -69096.08174515745, 79570.15390040325, -114340.61698205674, -0.032, 0.9440000000000001, -0.14400000000000002, 192.0, 0.0, 0.0, 0.0, 0.0, 0.0, 0.0, 0.0, 0.0, 0.0, 1.6664067960258515E9, 0.0, 2022-10-21 19:46:36.025
7.0, -143758.6866329535, -152521.24101176753, 17202.014291526593, -105918.65848525269, 75872.77303609527, -69201.42551677531, 79505.22208276059, -114362.27582243393, -0.032, 0.9440000000000001, -0.14400000000000002, 192.0, 0.0, 0.0, 0.0, 0.0, 0.0, 0.0, 0.0, 0.0, 0.0, 1.6664067960258627E9, 0.0, 2022-10-21 19:46:36.025
8.0, -143764.67690046752, -152526.6054304368, 17200.24850371462, -105896.66436870866, 75877.91393731999, -69181.04072583208, 79539.7778796885, -114324.90370570467, -0.032, 0.9440000000000001, -0.14400000000000002, 192.0, 0.0, 0.0, 0.0, 0.0, 0.0, 0.0, 0.0, 0.0, 0.0, 1.6664067960258744E9, 0.0, 2022-10-21 19:46:36.025
9.0, -143779.67492099703, -152541.46934049958, 17188.804410553505, -105903.39224378971, 75869.17440523797, -69083.05067814, 79601.89337752979, -114302.03787112689, -0.032, 0.9440000000000001, -0.14400000000000002, 192.0, 0.0, 0.0, 0.0, 0.0, 0.0, 0.0, 0.0, 0.0, 0.0, 1.6664067960258856E9, 0.0, 2022-10-21 19:46:36.025
10.0, -143781.70892974245, -152544.7103434456, 17193.587683866943, -105917.36208407428, 75871.09665526112, -69077.26157632608, 79582.89439474278, -114342.1369006797, -0.032, 0.9440000000000001, -0.14400000000000002, 192.0, 0.0, 0.0, 0.0, 0.0, 0.0, 0.0, 0.0, 0.0, 0.0, 1.666406796025941E9, 0.0, 2022-10-21 19:46:36.025
11.0, -143768.52140051383, -152534.38383750725, 17203.958893294202, -105925.60987777829, 75872.4601116729, -69183.32060376652, 79513.82750437588, -114366.36619166925, -0.032, 0.9440000000000001, -0.14400000000000002, 192.0, 0.0, 0.0, 0.0, 0.0, 0.0, 0.0, 0.0, 0.0, 0.0, 1.6664067960259528E9, 0.0, 2022-10-21 19:46:36.025
12.0, -143776.09864188416, -152539.32357303187, 17192.69361408873, -105912.95879041658, 75871.09665526112, -69203.32541505402, 79522.38822250227, -114340.08054018981, -0.034, 0.9500000000000001, -0.14, 192.0, 254.0, 240.0, 29.0, 176.0, 251.0, 160.0, 0.0, 0.0, 0.0, 1.666406796025965E9, 0.0, 2022-10-21 19:46:36.025
13.0, -143784.90522919956, -152547.28079405794, 17186.435125641245, -105898.20663907607, 75868.6603151155, -69100.61914928188, 79596.57366234943, -114302.28374031589, -0.034, 0.9500000000000001, -0.14, 192.0, 0.0, 0.0, 0.0, 0.0, 0.0, 0.0, 0.0, 0.0, 0.0, 1.6664067960259774E9, 0.0, 2022-10-21 19:46:36.025
14.0, -143788.86148796816, -152554.6568697282, 17179.617843582375, -105911.86355493827, 75863.74293133532, -69075.62989898084, 79589.95754599066, -114338.38180761121, -0.034, 0.9500000000000001, -0.14, 192.0, 0.0, 0.0, 0.0, 0.0, 0.0, 0.0, 0.0, 0.0, 0.0, 1.6664067960259893E9, 0.0, 2022-10-21 19:46:36.025
15.0, -143801.4902235854, -152569.45372455762, 17166.899700987306, -105936.6069360503, 75856.36685566508, -69169.28370824858, 79509.64772816274, -114392.02599430394, -0.034, 0.9500000000000001, -0.14, 192.0, 0.0, 0.0, 0.0, 0.0, 0.0, 0.0, 0.0, 0.0, 0.0, 1.6664067960260005E9, 0.0, 2022-10-21 19:46:36.026
16.0, -143796.17050840505, -152562.54703552093, 17175.39336388032, -105921.40774982069, 75860.34546617811, -69205.38177554391, 79509.08893455136, -114358.49837762098, -0.034, 0.9500000000000001, -0.14, 192.0, 0.0, 0.0, 0.0, 0.0, 0.0, 0.0, 0.0, 0.0, 0.0, 1.6664067960260124E9, 0.0, 2022-10-21 19:46:36.026
17.0, -143782.53594428732, -152548.4654365141, 17193.431221655756, -105881.46518247905, 75883.34541122263, -69103.50252431662, 79601.78161880751, -114286.25753954143, -0.034, 0.9500000000000001, -0.14, 192.0, 0.0, 0.0, 0.0, 0.0, 0.0, 0.0, 0.0, 0.0, 0.0, 1.6664067960260239E9, 0.0, 2022-10-21 19:46:36.026
18.0, -143805.3347236317, -152572.3147478479, 17171.906491745292, -105912.6458659942, 75866.13456799205, -69066.3539250319, 79600.57462460693, -114334.7831767539, -0.034, 0.9500000000000001, -0.14, 192.0, 0.0, 0.0, 0.0, 0.0, 0.0, 0.0, 0.0, 0.0, 0.0, 1.6664067960260353E9, 0.0, 2022-10-21 19:46:36.026
19.0, -143800.55145031828, -152575.44399207164, 17179.26021567109, -105924.78286323344, 75867.94505929292, -69160.18654825528, 79527.90910338273, -114380.4477906761, -0.034, 0.9500000000000001, -0.14, 192.0, 0.0, 0.0, 0.0, 0.0, 0.0, 0.0, 0.0, 0.0, 0.0, 1.666406796026047E9, 0.0, 2022-10-21 19:46:36.026
20.0, -143798.1374619171, -152578.28266361746, 17175.21454992468, -105918.16674687466, 75870.5602133942, -69227.46529906575, 79500.63997514725, -114361.82878754483, -0.034, 0.9500000000000001, -0.14, 192.0, 0.0, 0.0, 0.0, 0.0, 0.0, 0.0, 0.0, 0.0, 0.0, 1.6664067960260584E9, 0.0, 2022-10-21 19:46:36.026
21.0, -143810.22975566742, -152583.37886135327, 17152.862805469373, -105916.82564220735, 75857.93147777695, -69151.58112663998, 79556.69815024117, -114332.12331916373, -0.034, 0.9500000000000001, -0.14, 192.0, 0.0, 0.0, 0.0, 0.0, 0.0, 0.0, 0.0, 0.0, 0.0, 1.66640679602607E9, 0.0, 2022-10-21 19:46:36.026
22.0, -143819.6398400831, -152589.2126666561, 17152.192253135712, -105928.98499119104, 75853.41642539698, -69083.54241651803, 79588.92936574572, -114343.85798500276, -0.026000000000000002, 0.9480000000000001, -0.14200000000000002, 192.0, 255.0, 48.0, 29.0, 160.0, 251.0, 144.0, 0.0, 0.0, 0.0, 1.6664067960260828E9, 0.0, 2022-10-21 19:46:36.026
23.0, -143845.92549156255, -152617.77819607, 17158.987183450125, -105941.03258145244, 75860.52428013376, -69157.571394154, 79527.88675163827, -114385.94631981211, -0.026000000000000002, 0.9480000000000001, -0.14200000000000002, 192.0, 0.0, 0.0, 0.0, 0.0, 0.0, 0.0, 0.0, 0.0, 0.0, 1.6664067960260952E9, 0.0, 2022-10-21 19:46:36.026
24.0, -143878.89431463412, -152655.17266454373, 17158.49544507211, -105937.83628199533, 75867.09569300362, -69225.40893857586, 79496.57195765639, -114378.21261623056, -0.026000000000000002, 0.9480000000000001, -0.14200000000000002, 192.0, 0.0, 0.0, 0.0, 0.0, 0.0, 0.0, 0.0, 0.0, 0.0, 1.6664067960261066E9, 0.0, 2022-10-21 19:46:36.026
25.0, -143904.464710291, -152679.55841774447, 17152.706343258185, -105917.87617419675, 75869.93436454945, -69157.68315287629, 79556.74285373007, -114328.4352813286, -0.026000000000000002, 0.9480000000000001, -0.14200000000000002, 192.0, 0.0, 0.0, 0.0, 0.0, 0.0, 0.0, 0.0, 0.0, 0.0, 1.6664067960261295E9, 0.0, 2022-10-21 19:46:36.026
26.0, -143919.35097209824, -152686.9344934147, 17154.561538047976, -105914.27754333944, 75872.28129771726, -69057.56968946096, 79613.53863639101, -114310.30801657535, -0.026000000000000002, 0.9480000000000001, -0.14200000000000002, 192.0, 0.0, 0.0, 0.0, 0.0, 0.0, 0.0, 0.0, 0.0, 0.0, 1.6664067960261407E9, 0.0, 2022-10-21 19:46:36.026
27.0, -143942.06034446484, -152708.5933337919, 17153.376895591842, -105936.78575000593, 75869.97906803836, -69110.96800696469, 79557.48046129709, -114360.68884857761, -0.026000000000000002, 0.9480000000000001, -0.14200000000000002, 192.0, 0.0, 0.0, 0.0, 0.0, 0.0, 0.0, 0.0, 0.0, 0.0, 1.6664067960261524E9, 0.0, 2022-10-21 19:46:36.026
28.0, -143954.66672833762, -152716.03646469553, 17159.52362531705, -105930.259040625, 75882.42898969997, -69197.69277545129, 79508.97717582907, -114366.00856375798, -0.026000000000000002, 0.9480000000000001, -0.14200000000000002, 192.0, 0.0, 0.0, 0.0, 0.0, 0.0, 0.0, 0.0, 0.0, 0.0, 1.6664067960261636E9, 0.0, 2022-10-21 19:46:36.026
29.0, -143979.07483328282, -152733.33671490394, 17150.2476513681, -105927.08509291234, 75878.49508267583, -69165.48391169119, 79548.13743211477, -114327.80943248385, -0.026000000000000002, 0.9480000000000001, -0.14200000000000002, 192.0, 0.0, 0.0, 0.0, 0.0, 0.0, 0.0, 0.0, 0.0, 0.0, 1.666406796026175E9, 0.0, 2022-10-21 19:46:36.026
30.0, -143998.40909223666, -152748.02181101107, 17137.216584350655, -105947.5592908334, 75861.79832956771, -69080.39082054983, 79597.9818222501, -114314.7336619775, -0.026000000000000002, 0.9480000000000001, -0.14200000000000002, 192.0, 0.0, 0.0, 0.0, 0.0, 0.0, 0.0, 0.0, 0.0, 0.0, 1.6664067960261862E9, 0.0, 2022-10-21 19:46:36.026
31.0, -143999.81725213735, -152741.6962673302, 17139.697627985195, -105973.59907312383, 75859.76432082229, -69102.8096202385, 79565.281220112, -114350.71997055055, -0.026000000000000002, 0.9480000000000001, -0.14200000000000002, 192.0, 0.0, 0.0, 0.0, 0.0, 0.0, 0.0, 0.0, 0.0, 0.0, 1.6664067960261977E9, 0.0, 2022-10-21 19:46:36.026
32.0, -143990.72009214404, -152724.86540375536, 17152.63928802482, -105976.39304118074, 75867.69919010391, -69197.64807196237, 79505.89263509425, -114381.16304649867, -0.006, 0.9500000000000001, -0.14, 192.0, 255.0, 208.0, 29.0, 176.0, 251.0, 160.0, 0.0, 0.0, 0.0, 1.6664067960262089E9, 0.0, 2022-10-21 19:46:36.026
33.0, -143998.67731317013, -152726.38532237834, 17145.10675014338, -105967.20647420961, 75864.0111522688, -69198.09510685147, 79525.24924579254, -114349.17770018312, -0.006, 0.9500000000000001, -0.14, 192.0, 0.0, 0.0, 0.0, 0.0, 0.0, 0.0, 0.0, 0.0, 0.0, 1.6664067960262215E9, 0.0, 2022-10-21 19:46:36.026
34.0, -143999.8396038818, -152726.11710144486, 17143.698590242697, -105960.05391598391, 75865.19579472492, -69091.0078991661, 79597.71360131665, -114313.83959219928, -0.006, 0.9500000000000001, -0.14, 192.0, 0.0, 0.0, 0.0, 0.0, 0.0, 0.0, 0.0, 0.0, 0.0, 1.6664067960262327E9, 0.0, 2022-10-21 19:46:36.026
35.0, -143966.06611800983, -152686.5992172479, 17170.02894521105, -105950.1073897013, 75888.41925721399, -69063.8505296529, 79605.82728455392, -114324.47902256002, -0.006, 0.9500000000000001, -0.14, 192.0, 0.0, 0.0, 0.0, 0.0, 0.0, 0.0, 0.0, 0.0, 0.0, 1.666406796026244E9, 0.0, 2022-10-21 19:46:36.026
36.0, -143957.05836499433, -152672.04823160748, 17179.953119749203, -105957.63992758274, 75891.59320492664, -69172.43530421678, 79533.85466740784, -114355.81616828636, -0.006, 0.9500000000000001, -0.14, 192.0, 0.0, 0.0, 0.0, 0.0, 0.0, 0.0, 0.0, 0.0, 0.0, 1.6664067960262556E9, 0.0, 2022-10-21 19:46:36.026
37.0, -143952.61036784772, -152662.01229834705, 17185.339890162933, -105934.14824416021, 75907.03826034526, -69173.55289143955, 79552.71953972812, -114318.51110679045, -0.006, 0.9500000000000001, -0.14, 192.0, 0.0, 0.0, 0.0, 0.0, 0.0, 0.0, 0.0, 0.0, 0.0, 1.6664067960262668E9, 0.0, 2022-10-21 19:46:36.026
38.0, -143948.7211643125, -152651.37286798633, 17178.746125548616, -105937.4563023396, 75902.61261494311, -69061.07891334045, 79630.7941831105, -114278.970870849, -0.006, 0.9500000000000001, -0.14, 192.0, 0.0, 0.0, 0.0, 0.0, 0.0, 0.0, 0.0, 0.0, 0.0, 1.666406796026278E9, 0.0, 2022-10-21 19:46:36.026
39.0, -143941.3674403867, -152637.49243467956, 17178.768477293073, -105958.44459038314, 75892.53197819376, -69038.05661655148, 79626.9943865531, -114307.44699328506, -0.006, 0.9500000000000001, -0.14, 192.0, 0.0, 0.0, 0.0, 0.0, 0.0, 0.0, 0.0, 0.0, 0.0, 1.6664067960262897E9, 0.0, 2022-10-21 19:46:36.026
40.0, -143940.85335026425, -152632.2844782215, 17182.501218617108, -105965.64185209775, 75897.04703057374, -69139.48883288966, 79552.74189147257, -114350.49645310598, -0.006, 0.9500000000000001, -0.14, 192.0, 0.0, 0.0, 0.0, 0.0, 0.0, 0.0, 0.0, 0.0, 0.0, 1.6664067960263345E9, 0.0, 2022-10-21 19:46:36.026
41.0, -143923.64250703366, -152612.43612914518, 17194.705271089708, -105955.4047531372, 75905.09365857765, -69187.34391776848, 79546.79632744746, -114323.92022894863, -0.006, 0.9500000000000001, -0.14, 192.0, 0.0, 0.0, 0.0, 0.0, 0.0, 0.0, 0.0, 0.0, 0.0, 1.666406796026346E9, 0.0, 2022-10-21 19:46:36.026
42.0, -143923.79896924485, -152601.93080925118, 17188.91616927578, -105939.49031108503, 75911.15098132503, -69087.72219273118, 79624.26747372956, -114276.0204405809, 0.012, 0.9480000000000001, -0.14, 192.0, 0.0, 96.0, 29.0, 160.0, 251.0, 160.0, 0.0, 0.0, 0.0, 1.6664067960263577E9, 0.0, 2022-10-21 19:46:36.026
43.0, -143918.03221917537, -152596.18641092617, 17186.613939596886, -105947.24636641103, 75907.35118476763, -69032.8933635823, 79641.41126172677, -114292.76189717793, 0.012, 0.9480000000000001, -0.14, 192.0, 0.0, 0.0, 0.0, 0.0, 0.0, 0.0, 0.0, 0.0, 0.0, 1.6664067960263712E9, 0.0, 2022-10-21 19:46:36.026
44.0, -143895.68047472008, -152572.53826529245, 17192.40304141081, -105961.52913111796, 75907.418240001, -69120.82512626948, 79572.12085391532, -114333.62088604223, 0.012, 0.9480000000000001, -0.14, 192.0, 0.0, 0.0, 0.0, 0.0, 0.0, 0.0, 0.0, 0.0, 0.0, 1.6664067960263827E9, 0.0, 2022-10-21 19:46:36.026
45.0, -143889.73491069497, -152567.57617802336, 17192.000710010616, -105958.24342468304, 75912.62619645908, -69182.40418224384, 79550.84199319387, -114327.1835836391, 0.012, 0.9480000000000001, -0.14, 192.0, 0.0, 0.0, 0.0, 0.0, 0.0, 0.0, 0.0, 0.0, 0.0, 1.666406796026394E9, 0.0, 2022-10-21 19:46:36.026
46.0, -143881.88944839116, -152562.8599599433, 17187.776230308562, -105933.38828484873, 75920.67282446299, -69099.4568585702, 79622.32287196194, -114291.95723437754, 0.012, 0.9480000000000001, -0.14, 192.0, 0.0, 0.0, 0.0, 0.0, 0.0, 0.0, 0.0, 0.0, 0.0, 1.6664067960264056E9, 0.0, 2022-10-21 19:46:36.026
47.0, -143878.6484454451, -152560.84830294232, 17178.0532214705, -105937.14337791722, 75917.27535930579, -69013.96143602865, 79658.93502937973, -114302.26138857144, 0.012, 0.9480000000000001, -0.14, 192.0, 0.0, 0.0, 0.0, 0.0, 0.0, 0.0, 0.0, 0.0, 0.0, 1.6664067960264173E9, 0.0, 2022-10-21 19:46:36.026
48.0, -143868.32193950677, -152554.79098019493, 17187.68682333074, -105958.44459038314, 75915.71073719392, -69073.75235244661, 79599.90407227328, -114347.85894726026, 0.012, 0.9480000000000001, -0.14, 192.0, 0.0, 0.0, 0.0, 0.0, 0.0, 0.0, 0.0, 0.0, 0.0, 1.6664067960264523E9, 0.0, 2022-10-21 19:46:36.026
49.0, -143857.43663995704, -152543.503349245, 17194.839381556438, -105952.54372984693, 75920.35990004062, -69161.25943198914, 79556.09465314087, -114344.8414617588, 0.012, 0.9480000000000001, -0.14, 192.0, 0.0, 0.0, 0.0, 0.0, 0.0, 0.0, 0.0, 0.0, 0.0, 1.6664067960264945E9, 0.0, 2022-10-21 19:46:36.026
50.0, -143855.31322423377, -152541.13406433273, 17191.82189605497, -105925.40871207819, 75928.11595536661, -69100.99912893762, 79619.21597948266, -114288.13508607568, 0.012, 0.9480000000000001, -0.14, 192.0, 0.0, 0.0, 0.0, 0.0, 0.0, 0.0, 0.0, 0.0, 0.0, 1.6664067960265355E9, 0.0, 2022-10-21 19:46:36.026
51.0, -143858.77774462436, -152543.63745971172, 17180.087230215937, -105929.07439816886, 75919.19760932894, -69008.52996212602, 79668.85920391789, -114285.05054534086, 0.004, 0.9500000000000001, -0.146, 192.0, 0.0, 32.0, 29.0, 176.0, 251.0, 112.0, 0.0, 0.0, 0.0, 1.6664067960265772E9, 0.0, 2022-10-21 19:46:36.026
52.0, -143847.53481716334, -152534.6073549518, 17185.719869818673, -105952.78959903594, 75912.08975459216, -69060.6542301958, 79615.93027304772, -114328.07765341732, 0.004, 0.9500000000000001, -0.146, 192.0, 0.0, 0.0, 0.0, 0.0, 0.0, 0.0, 0.0, 0.0, 0.0, 1.6664067960266223E9, 0.0, 2022-10-21 19:46:36.026
53.0, -143838.5494158923, -152525.86782286977, 17189.005576253603, -105951.8061222799, 75911.46390574741, -69171.51888269412, 79552.58542926138, -114340.41581635665, 0.004, 0.9500000000000001, -0.146, 192.0, 0.0, 0.0, 0.0, 0.0, 0.0, 0.0, 0.0, 0.0, 0.0, 1.6664067960266645E9, 0.0, 2022-10-21 19:46:36.026
54.0, -143849.27825323085, -152531.7910351504, 17170.744201033616, -105931.60014529231, 75908.78169641277, -69147.49075740467, 79583.98963022108, -114307.3799380517, 0.004, 0.9500000000000001, -0.146, 192.0, 0.0, 0.0, 0.0, 0.0, 0.0, 0.0, 0.0, 0.0, 0.0, 1.6664067960267107E9, 0.0, 2022-10-21 19:46:36.026
55.0, -143862.01874757037, -152545.8055789239, 17154.673296770252, -105933.34358135982, 75896.08590556215, -69045.61150617737, 79641.52302044905, -114298.90862690314, 0.004, 0.9500000000000001, -0.146, 192.0, 0.0, 0.0, 0.0, 0.0, 0.0, 0.0, 0.0, 0.0, 0.0, 1.6664067960267987E9, 0.0, 2022-10-21 19:46:36.026
56.0, -143846.26076772937, -152530.248764783, 17169.470151599664, -105944.60886056529, 75899.63983293055, -69050.01479983507, 79619.73006960512, -114333.3303133643, 0.004, 0.9500000000000001, -0.146, 192.0, 0.0, 0.0, 0.0, 0.0, 0.0, 0.0, 0.0, 0.0, 0.0, 1.6664067960268412E9, 0.0, 2022-10-21 19:46:36.026
57.0, -143838.08002925874, -152520.77162513396, 17173.851093512905, -105952.27550891346, 75902.23263528736, -69163.8745860904, 79547.46687978112, -114354.09508396329, 0.004, 0.9500000000000001, -0.146, 192.0, 0.0, 0.0, 0.0, 0.0, 0.0, 0.0, 0.0, 0.0, 0.0, 1.6664067960268605E9, 0.0, 2022-10-21 19:46:36.026
58.0, -143849.74763986442, -152529.8017298939, 17161.736448018128, -105938.21626165108, 75902.65731843202, -69163.76282736812, 79568.25400212455, -114315.29245558887, 0.004, 0.9500000000000001, -0.146, 192.0, 0.0, 0.0, 0.0, 0.0, 0.0, 0.0, 0.0, 0.0, 0.0, 1.666406796026876E9, 0.0, 2022-10-21 19:46:36.026
59.0, -143851.11109627617, -152530.96402060558, 17158.16016890528, -105926.23572662304, 75907.06061208971, -69050.48418646863, 79650.41901474226, -114274.25465276894, 0.004, 0.9500000000000001, -0.146, 192.0, 0.0, 0.0, 0.0, 0.0, 0.0, 0.0, 0.0, 0.0, 0.0, 1.6664067960268908E9, 0.0, 2022-10-21 19:46:36.026
60.0, -143843.22093048345, -152524.45966296908, 17160.171825906258, -105930.16963364717, 75909.38519351307, -69032.28986648201, 79642.41709022726, -114303.15545834965, 0.004, 0.9500000000000001, -0.146, 192.0, 0.0, 0.0, 0.0, 0.0, 0.0, 0.0, 0.0, 0.0, 0.0, 1.6664067960269055E9, 0.0, 2022-10-21 19:46:36.026
61.0, -143833.07323850074, -152512.92616283015, 17165.133913175334, -105942.75366577551, 75907.32883302317, -69154.79977784154, 79561.10144389885, -114342.67334254664, -0.012, 0.9540000000000001, -0.138, 192.0, 255.0, 160.0, 29.0, 208.0, 251.0, 176.0, 0.0, 0.0, 0.0, 1.6664067960269208E9, 0.0, 2022-10-21 19:46:36.026
62.0, -143847.08778227423, -152527.67831417065, 17145.754950732586, -105954.19775893663, 75899.23750153036, -69186.29338577908, 79554.08299613988, -114334.04556918688, -0.012, 0.9540000000000001, -0.138, 192.0, 0.0, 0.0, 0.0, 0.0, 0.0, 0.0, 0.0, 0.0, 0.0, 1.6664067960269372E9, 0.0, 2022-10-21 19:46:36.026
63.0, -143847.33365146324, -152529.01941883797, 17147.096055399903, -105934.08118892685, 75903.75255391032, -69068.81261692198, 79641.18774428222, -114287.01749885292, -0.012, 0.9540000000000001, -0.138, 192.0, 0.0, 0.0, 0.0, 0.0, 0.0, 0.0, 0.0, 0.0, 0.0, 1.6664067960269525E9, 0.0, 2022-10-21 19:46:36.026
64.0, -143845.09847701772, -152523.81146237988, 17145.44202631021, -105948.09573270033, 75892.84490261614, -69041.09645379739, 79638.90786634778, -114316.29828408937, -0.012, 0.9540000000000001, -0.138, 192.0, 0.0, 0.0, 0.0, 0.0, 0.0, 0.0, 0.0, 0.0, 0.0, 1.6664067960269675E9, 0.0, 2022-10-21 19:46:36.026
65.0, -143842.706840361, -152519.63168616674, 17147.83366296693, -105962.89258752974, 75893.67191716099, -69135.64433284335, 79565.0800544119, -114356.12909270872, -0.012, 0.9540000000000001, -0.138, 192.0, 0.0, 0.0, 0.0, 0.0, 0.0, 0.0, 0.0, 0.0, 0.0, 1.6664067960269842E9, 0.0, 2022-10-21 19:46:36.026
66.0, -143832.82736931174, -152513.57436341935, 17153.600413036398, -105947.96162223359, 75901.80795214271, -69184.28172877809, 79553.83712695088, -114332.99503719748, -0.012, 0.9540000000000001, -0.138, 192.0, 0.0, 0.0, 0.0, 0.0, 0.0, 0.0, 0.0, 0.0, 0.0, 1.6664067960269992E9, 0.0, 2022-10-21 19:46:36.026
67.0, -143839.77876183734, -152519.4975757, 17148.213642622668, -105928.96263944657, 75900.77977189777, -69099.6133207814, 79622.03229928402, -114294.48298150099, -0.012, 0.9540000000000001, -0.138, 192.0, 0.0, 0.0, 0.0, 0.0, 0.0, 0.0, 0.0, 0.0, 0.0, 1.6664067960270143E9, 0.0, 2022-10-21 19:46:36.027
68.0, -143836.962442036, -152514.58019191984, 17149.644154267808, -105933.58945054882, 75897.40465848501, -69038.77187237405, 79648.49676471911, -114308.13989736319, -0.012, 0.9540000000000001, -0.138, 192.0, 0.0, 0.0, 0.0, 0.0, 0.0, 0.0, 0.0, 0.0, 0.0, 1.666406796027029E9, 0.0, 2022-10-21 19:46:36.027
69.0, -143837.8118083253, -152516.79301462093, 17145.062046654468, -105956.12000895978, 75893.73897239435, -69118.76876577959, 79576.21122315065, -114353.11160720726, -0.012, 0.9540000000000001, -0.138, 192.0, 0.0, 0.0, 0.0, 0.0, 0.0, 0.0, 0.0, 0.0, 0.0, 1.666406796027044E9, 0.0, 2022-10-21 19:46:36.027
70.0, -143839.01880252585, -152517.86589835476, 17145.911412943773, -105949.77211353448, 75895.68357416196, -69187.76860091313, 79542.54949600095, -114344.95322048107, -0.012, 0.9540000000000001, -0.138, 192.0, 0.0, 0.0, 0.0, 0.0, 0.0, 0.0, 0.0, 0.0, 0.0, 1.6664067960270743E9, 0.0, 2022-10-21 19:46:36.027
71.0, -143833.8108460678, -152509.55104941738, 17151.16407289077, -105916.78093871844, 75902.5679114542, -69125.47428911619, 79605.46965664264, -114295.86878965722, -0.026000000000000002, 0.9480000000000001, -0.14200000000000002, 192.0, 255.0, 48.0, 29.0, 160.0, 251.0, 144.0, 0.0, 0.0, 0.0, 1.666406796027089E9, 0.0, 2022-10-21 19:46:36.027
72.0, -143845.00907003987, -152518.89407859973, 17137.73067447313, -105930.97429644756, 75892.01788807129, -69039.42007296326, 79646.32864550695, -114305.14476360616, -0.026000000000000002, 0.9480000000000001, -0.14200000000000002, 192.0, 0.0, 0.0, 0.0, 0.0, 0.0, 0.0, 0.0, 0.0, 0.0, 1.6664067960271068E9, 0.0, 2022-10-21 19:46:36.027
73.0, -143839.04115427032, -152518.2011745216, 17142.178671619735, -105963.85371254131, 75880.17146350998, -69109.93982671974, 79581.32977263091, -114356.01733398646, -0.026000000000000002, 0.9480000000000001, -0.14200000000000002, 192.0, 0.0, 0.0, 0.0, 0.0, 0.0, 0.0, 0.0, 0.0, 0.0, 1.6664067960271227E9, 0.0, 2022-10-21 19:46:36.027
74.0, -143834.8613780572, -152517.41886346566, 17142.62570650884, -105961.28326192895, 75886.07232404618, -69202.90073190937, 79530.68071969518, -114349.64708681668, -0.026000000000000002, 0.9480000000000001, -0.14200000000000002, 192.0, 0.0, 0.0, 0.0, 0.0, 0.0, 0.0, 0.0, 0.0, 0.0, 1.6664067960271447E9, 0.0, 2022-10-21 19:46:36.027
75.0, -143843.19857873901, -152523.58794493534, 17135.271982583046, -105943.60303206481, 75884.44064670094, -69151.51407140662, 79580.99449646407, -114318.734624235, -0.026000000000000002, 0.9480000000000001, -0.14200000000000002, 192.0, 0.0, 0.0, 0.0, 0.0, 0.0, 0.0, 0.0, 0.0, 0.0, 1.6664067960271597E9, 0.0, 2022-10-21 19:46:36.027
76.0, -143862.89046560414, -152541.13406433273, 17120.363369031355, -105952.23080542455, 75866.13456799205, -69064.9010616423, 79627.66493888677, -114325.19427838258, -0.026000000000000002, 0.9480000000000001, -0.14200000000000002, 192.0, 0.0, 0.0, 0.0, 0.0, 0.0, 0.0, 0.0, 0.0, 0.0, 1.6664067960271747E9, 0.0, 2022-10-21 19:46:36.027
77.0, -143829.76518032138, -152508.14288951672, 17149.398285078798, -105945.03354370994, 75889.40273397003, -69086.09051538593, 79603.56975836394, -114344.86381350325, -0.026000000000000002, 0.9480000000000001, -0.14200000000000002, 192.0, 0.0, 0.0, 0.0, 0.0, 0.0, 0.0, 0.0, 0.0, 0.0, 1.6664067960271897E9, 0.0, 2022-10-21 19:46:36.027
78.0, -143818.23168018242, -152497.5481626449, 17156.26027062658, -105946.41935186618, 75896.33177475116, -69192.03778410409, 79538.88380991029, -114362.83461604532, -0.026000000000000002, 0.9480000000000001, -0.14200000000000002, 192.0, 0.0, 0.0, 0.0, 0.0, 0.0, 0.0, 0.0, 0.0, 0.0, 1.6664067960272048E9, 0.0, 2022-10-21 19:46:36.027
79.0, -143828.31231693178, -152507.20411624957, 17152.438122324722, -105927.53212780145, 75899.05868757471, -69169.9319088378, 79574.7360080166, -114328.70350226207, -0.026000000000000002, 0.9480000000000001, -0.14200000000000002, 192.0, 0.0, 0.0, 0.0, 0.0, 0.0, 0.0, 0.0, 0.0, 0.0, 1.6664067960272195E9, 0.0, 2022-10-21 19:46:36.027
80.0, -143823.32787791823, -152503.8960580702, 17154.941517703715, -105905.69447346861, 75905.33952776666, -69051.33355275793, 79655.26934328907, -114298.1263158472, -0.042, 0.9440000000000001, -0.138, 192.0, 254.0, 176.0, 29.0, 128.0, 251.0, 176.0, 0.0, 0.0, 0.0, 1.6664067960272346E9, 0.0, 2022-10-21 19:46:36.027
81.0, -143817.2482034264, -152500.61035163526, 17160.328288117445, -105919.32903758634, 75905.89832137803, -69053.05463708099, 79634.70573839018, -114326.40127258317, -0.042, 0.9440000000000001, -0.138, 192.0, 0.0, 0.0, 0.0, 0.0, 0.0, 0.0, 0.0, 0.0, 0.0, 1.6664067960272508E9, 0.0, 2022-10-21 19:46:36.027
82.0, -143831.0615814998, -152513.95434307508, 17146.649020510795, -105954.84595952583, 75889.46978920339, -69168.65785940384, 79548.27154258151, -114371.61885161625, -0.042, 0.9440000000000001, -0.138, 192.0, 0.0, 0.0, 0.0, 0.0, 0.0, 0.0, 0.0, 0.0, 0.0, 1.666406796027266E9, 0.0, 2022-10-21 19:46:36.027
83.0, -143837.2977182028, -152516.83771810983, 17145.553785032487, -105938.68564828463, 75889.80506537021, -69179.23023453119, 79557.68162699719, -114343.76857802494, -0.042, 0.9440000000000001, -0.138, 192.0, 0.0, 0.0, 0.0, 0.0, 0.0, 0.0, 0.0, 0.0, 0.0, 1.6664067960272806E9, 0.0, 2022-10-21 19:46:36.027
84.0, -143839.53289264833, -152517.37415997675, 17143.363314075865, -105929.09674991331, 75889.5591961812, -69071.0030878786, 79634.3928139678, -114304.16128685014, -0.042, 0.9440000000000001, -0.138, 192.0, 0.0, 0.0, 0.0, 0.0, 0.0, 0.0, 0.0, 0.0, 0.0, 1.6664067960272954E9, 0.0, 2022-10-21 19:46:36.027
85.0, -143835.66604085756, -152513.82023260836, 17146.090226899414, -105936.36106686128, 75891.0567630597, -69048.2490120231, 79633.5434476785, -114323.00380742596, -0.042, 0.9440000000000001, -0.138, 192.0, 0.0, 0.0, 0.0, 0.0, 0.0, 0.0, 0.0, 0.0, 0.0, 1.6664067960273244E9, 0.0, 2022-10-21 19:46:36.027
86.0, -143833.4085146676, -152508.90284882818, 17144.659715254274, -105954.5553868479, 75889.62625141458, -69145.83672831497, 79558.9780281756, -114363.43811314562, -0.042, 0.9440000000000001, -0.138, 192.0, 0.0, 0.0, 0.0, 0.0, 0.0, 0.0, 0.0, 0.0, 0.0, 1.666406796027341E9, 0.0, 2022-10-21 19:46:36.027
87.0, -143833.96730827895, -152508.99225580602, 17139.071779140446, -105943.42421810917, 75891.39203922654, -69181.95714735474, 79550.21614434912, -114347.993057727, -0.042, 0.9440000000000001, -0.138, 192.0, 0.0, 0.0, 0.0, 0.0, 0.0, 0.0, 0.0, 0.0, 0.0, 1.6664067960273561E9, 0.0, 2022-10-21 19:46:36.027
88.0, -143844.4055729396, -152520.7939768784, 17132.075683125935, -105925.52047080046, 75890.67678340398, -69079.76497170508, 79622.25581672858, -114306.41881304012, -0.042, 0.9440000000000001, -0.138, 192.0, 0.0, 0.0, 0.0, 0.0, 0.0, 0.0, 0.0, 0.0, 0.0, 1.6664067960273712E9, 0.0, 2022-10-21 19:46:36.027
89.0, -143844.47262817295, -152520.68221815614, 17130.242840080602, -105942.1054651863, 75882.40663795552, -69045.544450944, 79630.52596217704, -114319.11460389073, -0.042, 0.9440000000000001, -0.138, 192.0, 0.0, 0.0, 0.0, 0.0, 0.0, 0.0, 0.0, 0.0, 0.0, 1.6664067960273864E9, 0.0, 2022-10-21 19:46:36.027
90.0, -143840.8516455712, -152516.81536636536, 17136.031941894526, -105961.48442762905, 75881.46786468838, -69149.41300742782, 79555.69232174067, -114365.7403428245, -0.048, 0.9500000000000001, -0.134, 192.0, 254.0, 128.0, 29.0, 176.0, 251.0, 208.0, 0.0, 0.0, 0.0, 1.6664067960274014E9, 0.0, 2022-10-21 19:46:36.027
91.0, -143837.700049603, -152505.70654937107, 17134.556726760475, -105949.7050583011, 75887.43578045795, -69208.51101976765, 79531.73125168459, -114361.47115963354, -0.048, 0.9500000000000001, -0.134, 192.0, 0.0, 0.0, 0.0, 0.0, 0.0, 0.0, 0.0, 0.0, 0.0, 1.6664067960274174E9, 0.0, 2022-10-21 19:46:36.027
92.0, -143834.5037501459, -152496.27411321094, 17127.33711330141, -105923.28529635494, 75891.52614969328, -69122.65796931481, 79601.66986008524, -114321.75210973647, -0.048, 0.9500000000000001, -0.134, 192.0, 0.0, 0.0, 0.0, 0.0, 0.0, 0.0, 0.0, 0.0, 0.0, 1.666406796027433E9, 0.0, 2022-10-21 19:46:36.027
93.0, -143851.58048290975, -152520.7492733895, 17119.62576146433, -105937.79157850643, 75883.70303913392, -69046.03618932203, 79634.61633141236, -114327.40710108366, -0.048, 0.9500000000000001, -0.134, 192.0, 0.0, 0.0, 0.0, 0.0, 0.0, 0.0, 0.0, 0.0, 0.0, 1.6664067960274484E9, 0.0, 2022-10-21 19:46:36.027
94.0, -143856.69903239002, -152536.17197706367, 17121.682121954218, -105959.49512237254, 75880.14911176552, -69118.0088064681, 79567.0246561795, -114377.13973249671, -0.048, 0.9500000000000001, -0.134, 192.0, 0.0, 0.0, 0.0, 0.0, 0.0, 0.0, 0.0, 0.0, 0.0, 1.6664067960274632E9, 0.0, 2022-10-21 19:46:36.027
95.0, -143869.61834068518, -152553.7180964611, 17115.311874784456, -105960.32213691737, 75876.14814950802, -69197.31279579554, 79523.55051321394, -114386.99685180151, -0.048, 0.9500000000000001, -0.134, 192.0, 0.0, 0.0, 0.0, 0.0, 0.0, 0.0, 0.0, 0.0, 0.0, 1.6664067960274782E9, 0.0, 2022-10-21 19:46:36.027
96.0, -143869.1042505627, -152548.21956732508, 17113.68019743922, -105932.91889821517, 75884.23948100084, -69120.065166958, 79591.14218844679, -114339.27587738943, -0.048, 0.9500000000000001, -0.134, 192.0, 0.0, 0.0, 0.0, 0.0, 0.0, 0.0, 0.0, 0.0, 0.0, 1.6664067960274932E9, 0.0, 2022-10-21 19:46:36.027
97.0, -143857.99543356843, -152539.81531140988, 17107.667578180743, -105938.59624130682, 75875.56700415218, -69035.08383453892, 79635.1974767682, -114337.82301399983, -0.048, 0.9500000000000001, -0.134, 192.0, 0.0, 0.0, 0.0, 0.0, 0.0, 0.0, 0.0, 0.0, 0.0, 1.666406796027508E9, 0.0, 2022-10-21 19:46:36.027
98.0, -143856.40845971208, -152543.3468870338, 17106.885267124806, -105961.2162066956, 75868.72737034886, -69100.95442544871, 79576.6359062953, -114383.1970552441, -0.048, 0.9500000000000001, -0.134, 192.0, 0.0, 0.0, 0.0, 0.0, 0.0, 0.0, 0.0, 0.0, 0.0, 1.666406796027523E9, 0.0, 2022-10-21 19:46:36.027
99.0, -143849.2559014864, -152539.07770384286, 17116.541220729498, -105955.42710488166, 75877.91393731999, -69187.61213870194, 79532.04417610695, -114384.89578782271, -0.048, 0.9500000000000001, -0.134, 192.0, 0.0, 0.0, 0.0, 0.0, 0.0, 0.0, 0.0, 0.0, 0.0, 1.666406796027538E9, 0.0, 2022-10-21 19:46:36.027
100.0, -143851.06639278727, -152540.7987881659, 17110.61800844884, -105934.7070377716, 75876.59518439713, -69155.33621970848, 79575.47361558361, -114344.28266814741, -0.056, 0.9480000000000001, -0.132, 192.0, 254.0, 64.0, 29.0, 160.0, 251.0, 224.0, 0.0, 0.0, 0.0, 1.6664067960276055E9, 0.0, 2022-10-21 19:46:36.027
0.0, 0.0, 0.0, 0.0, 0.0, 0.0, 0.0, 0.0, 0.0, -0.042, 0.9440000000000001, -0.12, 192.0, 254.0, 176.0, 29.0, 128.0, 252.0, 64.0, 0.0, 0.0, 0.0, 1.6664067961150851E9, 0.0, 2022-10-21 19:46:36.115
1.0, -144700.92442046697, -153103.12397517252, 15335.375408574988, -105878.33593825532, 75860.0548935002, -69161.19237675576, 79634.97395932364, -114842.36894158948, -0.042, 0.9440000000000001, -0.12, 192.0, 0.0, 0.0, 0.0, 0.0, 0.0, 0.0, 0.0, 0.0, 0.0, 1.6664067965971334E9, 0.0, 2022-10-21 19:46:36.597
2.0, -144709.93217348246, -153116.91500150145, 15329.765120716707, -105883.16391505765, 75857.21622195438, -69074.42290478027, 79679.4539307897, -114843.62063927898, -0.042, 0.9440000000000001, -0.12, 192.0, 0.0, 0.0, 0.0, 0.0, 0.0, 0.0, 0.0, 0.0, 0.0, 1.666406796597262E9, 0.0, 2022-10-21 19:46:36.597
3.0, -144706.02061820278, -153117.40673987946, 15333.810786463117, -105899.90537165468, 75850.48834687333, -69134.43733864276, 79616.82434282593, -114894.42615442589, -0.042, 0.9440000000000001, -0.12, 192.0, 0.0, 0.0, 0.0, 0.0, 0.0, 0.0, 0.0, 0.0, 0.0, 1.6664067965973449E9, 0.0, 2022-10-21 19:46:36.597
4.0, -144702.77961525676, -153113.07050145513, 15332.961420173815, -105901.26882806646, 75847.38145439404, -69235.06489218056, 79555.22293510711, -114903.59036965256, -0.042, 0.9440000000000001, -0.12, 192.0, 0.0, 0.0, 0.0, 0.0, 0.0, 0.0, 0.0, 0.0, 0.0, 1.6664067965974061E9, 0.0, 2022-10-21 19:46:36.597
5.0, -144704.43364434646, -153110.25418165376, 15329.27338233869, -105872.59153993029, 75852.2988381742, -69190.51786548113, 79606.96722352115, -114846.92869745835, -0.042, 0.9440000000000001, -0.12, 192.0, 0.0, 0.0, 0.0, 0.0, 0.0, 0.0, 0.0, 0.0, 0.0, 1.6664067965974343E9, 0.0, 2022-10-21 19:46:36.597
6.0, -144706.91468798099, -153112.95874273285, 15323.528984013676, -105866.04247880488, 75849.14724220602, -69088.83977995394, 79666.75813993909, -114836.26691535318, -0.042, 0.9440000000000001, -0.12, 192.0, 0.0, 0.0, 0.0, 0.0, 0.0, 0.0, 0.0, 0.0, 0.0, 1.6664067965974712E9, 0.0, 2022-10-21 19:46:36.597
7.0, -144715.408350874, -153122.45823412636, 15309.98382687376, -105890.741156428, 75839.11130894558, -69121.85330651443, 79614.9467962917, -114901.28813997367, -0.04, 0.9460000000000001, -0.114, 192.0, 254.0, 192.0, 29.0, 144.0, 252.0, 112.0, 0.0, 0.0, 0.0, 1.6664067965975E9, 0.0, 2022-10-21 19:46:36.597
8.0, -144706.62411530307, -153116.91500150145, 15313.358940286511, -105904.50983101247, 75831.24349489731, -69235.95896195876, 79542.63890297877, -114926.9255908639, -0.04, 0.9460000000000001, -0.114, 192.0, 0.0, 0.0, 0.0, 0.0, 0.0, 0.0, 0.0, 0.0, 0.0, 1.6664067965975306E9, 0.0, 2022-10-21 19:46:36.597
9.0, -144710.98270547186, -153123.06173122665, 15301.668977936386, -105885.8908278812, 75836.74202403332, -69222.8831914524, 79568.94690620266, -114892.92858754739, -0.04, 0.9460000000000001, -0.114, 192.0, 0.0, 0.0, 0.0, 0.0, 0.0, 0.0, 0.0, 0.0, 0.0, 1.6664067965975585E9, 0.0, 2022-10-21 19:46:36.597
10.0, -144720.28103116524, -153129.5437371187, 15292.482410965255, -105873.66442366414, 75839.73715779032, -69107.86111448541, 79640.20426752619, -114873.19199719334, -0.04, 0.9460000000000001, -0.114, 192.0, 0.0, 0.0, 0.0, 0.0, 0.0, 0.0, 0.0, 0.0, 0.0, 1.6664067965975864E9, 0.0, 2022-10-21 19:46:36.597
11.0, -144715.43070261847, -153122.83821378212, 15297.623312189975, -105892.37283377325, 75832.8528204981, -69113.62786455487, 79613.42687766872, -114917.56020993713, -0.04, 0.9460000000000001, -0.114, 192.0, 0.0, 0.0, 0.0, 0.0, 0.0, 0.0, 0.0, 0.0, 0.0, 1.6664067965976143E9, 0.0, 2022-10-21 19:46:36.597
12.0, -144701.03617918925, -153108.5330973307, 15312.420167019389, -105894.67506345214, 75844.02869272574, -69224.17959263083, 79545.58933324687, -114935.30749503465, -0.04, 0.9460000000000001, -0.114, 192.0, 0.0, 0.0, 0.0, 0.0, 0.0, 0.0, 0.0, 0.0, 0.0, 1.6664067965976417E9, 0.0, 2022-10-21 19:46:36.597
13.0, -144702.46669083438, -153109.42716710892, 15312.666036208397, -105869.97638582902, 75859.09376848863, -69225.85597346496, 79566.46586256813, -114897.28717771616, -0.04, 0.9460000000000001, -0.114, 192.0, 0.0, 0.0, 0.0, 0.0, 0.0, 0.0, 0.0, 0.0, 0.0, 1.6664067965976746E9, 0.0, 2022-10-21 19:46:36.597
14.0, -144708.6581240485, -153115.30567590066, 15310.408510018411, -105850.75388559746, 75867.52037614827, -69119.55107683553, 79646.17218329576, -114854.64004929544, -0.04, 0.9460000000000001, -0.114, 192.0, 0.0, 0.0, 0.0, 0.0, 0.0, 0.0, 0.0, 0.0, 0.0, 1.6664067965977948E9, 0.0, 2022-10-21 19:46:36.597
15.0, -144711.47444384987, -153117.8984782575, 15306.675768694375, -105868.00943231696, 75860.09959698911, -69101.24499812663, 79635.42099421275, -114890.00050902374, -0.04, 0.9460000000000001, -0.114, 192.0, 0.0, 0.0, 0.0, 0.0, 0.0, 0.0, 0.0, 0.0, 0.0, 1.6664067965978227E9, 0.0, 2022-10-21 19:46:36.597
16.0, -144704.76892051328, -153111.28236189872, 15312.889553652949, -105889.75767967197, 75856.18804170944, -69211.75202271367, 79558.82156596442, -114935.75452992375, -0.04, 0.9460000000000001, -0.114, 192.0, 0.0, 0.0, 0.0, 0.0, 0.0, 0.0, 0.0, 0.0, 0.0, 1.6664067965978503E9, 0.0, 2022-10-21 19:46:36.597
17.0, -144703.67368503497, -153109.42716710892, 15313.135422841959, -105880.30289176738, 75862.46888190137, -69243.44679635129, 79562.10727239934, -114909.42417495539, -0.036000000000000004, 0.9440000000000001, -0.108, 192.0, 254.0, 224.0, 29.0, 128.0, 252.0, 160.0, 0.0, 0.0, 0.0, 1.6664067965978787E9, 0.0, 2022-10-21 19:46:36.597
18.0, -144711.27327814978, -153113.00344622176, 15304.150021570924, -105867.42828696112, 75862.87121330157, -69134.88437353187, 79643.17704953875, -114855.86939524049, -0.036000000000000004, 0.9440000000000001, -0.108, 192.0, 0.0, 0.0, 0.0, 0.0, 0.0, 0.0, 0.0, 0.0, 0.0, 1.6664067965979085E9, 0.0, 2022-10-21 19:46:36.597
19.0, -144707.652295548, -153107.9966554638, 15303.4124140039, -105882.24749353499, 75851.42712014045, -69084.14591361833, 79656.43163400074, -114881.95388101983, -0.036000000000000004, 0.9440000000000001, -0.108, 192.0, 0.0, 0.0, 0.0, 0.0, 0.0, 0.0, 0.0, 0.0, 0.0, 1.6664067965979364E9, 0.0, 2022-10-21 19:46:36.597
20.0, -144696.72229250937, -153101.80522224968, 15314.141251342448, -105896.93258964212, 75848.87902127254, -69179.54315895357, 79582.02267670902, -114935.95569562385, -0.036000000000000004, 0.9440000000000001, -0.108, 192.0, 0.0, 0.0, 0.0, 0.0, 0.0, 0.0, 0.0, 0.0, 0.0, 1.6664067965979643E9, 0.0, 2022-10-21 19:46:36.597
21.0, -144695.42589133096, -153101.87227748302, 15321.740844457252, -105881.82281039034, 75858.08793998814, -69241.1445666724, 79562.73312124409, -114918.05194831514, -0.036000000000000004, 0.9440000000000001, -0.108, 192.0, 0.0, 0.0, 0.0, 0.0, 0.0, 0.0, 0.0, 0.0, 0.0, 1.6664067965979924E9, 0.0, 2022-10-21 19:46:36.597
22.0, -144709.7086560379, -153110.88003049852, 15306.318140783089, -105876.25722602097, 75848.92372476147, -69173.73170539518, 79622.76990685104, -114878.5117123737, -0.036000000000000004, 0.9440000000000001, -0.108, 192.0, 0.0, 0.0, 0.0, 0.0, 0.0, 0.0, 0.0, 0.0, 0.0, 1.6664067965980203E9, 0.0, 2022-10-21 19:46:36.598
23.0, -144706.46765309188, -153108.33193163062, 15303.524172726176, -105884.70618542508, 75842.01703572477, -69103.4131173388, 79656.94572412322, -114877.72940131777, -0.036000000000000004, 0.9440000000000001, -0.108, 192.0, 0.0, 0.0, 0.0, 0.0, 0.0, 0.0, 0.0, 0.0, 0.0, 1.6664067965980477E9, 0.0, 2022-10-21 19:46:36.598
24.0, -144695.35883609758, -153101.84992573858, 15308.285094295157, -105898.00547337598, 75840.63122756853, -69171.16125478283, 79594.74081930409, -114919.61657042701, -0.036000000000000004, 0.9440000000000001, -0.108, 192.0, 0.0, 0.0, 0.0, 0.0, 0.0, 0.0, 0.0, 0.0, 0.0, 1.6664067965980759E9, 0.0, 2022-10-21 19:46:36.598
25.0, -144697.57165879867, -153104.66624553993, 15303.07713783707, -105892.46224075106, 75840.4524136129, -69253.84035752302, 79547.19865884766, -114925.00334084075, -0.036000000000000004, 0.9440000000000001, -0.108, 192.0, 0.0, 0.0, 0.0, 0.0, 0.0, 0.0, 0.0, 0.0, 0.0, 1.6664067965981016E9, 0.0, 2022-10-21 19:46:36.598
26.0, -144711.1615194275, -153116.06563521214, 15283.541713183131, -105876.3913364877, 75837.92666648945, -69197.71512719574, 79600.06053448445, -114880.07633448558, -0.036000000000000004, 0.9440000000000001, -0.108, 192.0, 0.0, 0.0, 0.0, 0.0, 0.0, 0.0, 0.0, 0.0, 0.0, 1.666406796598116E9, 0.0, 2022-10-21 19:46:36.598
27.0, -144718.53759509773, -153123.62052483804, 15273.796352600617, -105879.07354582234, 75826.7507942618, -69115.93009423377, 79644.20522978369, -114882.02093625319, -0.036000000000000004, 0.9520000000000001, -0.11, 192.0, 254.0, 224.0, 29.0, 192.0, 252.0, 144.0, 0.0, 0.0, 0.0, 1.6664067965981297E9, 0.0, 2022-10-21 19:46:36.598
28.0, -144716.68240030794, -153121.56416434815, 15278.73608812524, -105887.05311859288, 75829.81298325217, -69161.05826628904, 79594.87492977083, -114927.43968098637, -0.036000000000000004, 0.9520000000000001, -0.11, 192.0, 0.0, 0.0, 0.0, 0.0, 0.0, 0.0, 0.0, 0.0, 0.0, 1.6664067965981464E9, 0.0, 2022-10-21 19:46:36.598
29.0, -144714.0001909733, -153122.01119923725, 15276.657375890896, -105884.70618542508, 75835.49032634382, -69244.60908706297, 79544.11411811282, -114938.59320146957, -0.036000000000000004, 0.9520000000000001, -0.11, 192.0, 0.0, 0.0, 0.0, 0.0, 0.0, 0.0, 0.0, 0.0, 0.0, 1.6664067965981743E9, 0.0, 2022-10-21 19:46:36.598
30.0, -144727.4559411354, -153135.75752207727, 15258.887739048927, -105883.49919122449, 75826.1472971615, -69215.95415067127, 79574.31132487195, -114909.29006448867, -0.036000000000000004, 0.9520000000000001, -0.11, 192.0, 0.0, 0.0, 0.0, 0.0, 0.0, 0.0, 0.0, 0.0, 0.0, 1.6664067965981882E9, 0.0, 2022-10-21 19:46:36.598
31.0, -144729.13232196955, -153131.66715284195, 15250.550538367099, -105876.3913364877, 75824.18034364944, -69114.36547212189, 79632.0905842889, -114894.0238230257, -0.036000000000000004, 0.9520000000000001, -0.11, 192.0, 0.0, 0.0, 0.0, 0.0, 0.0, 0.0, 0.0, 0.0, 0.0, 1.666406796598202E9, 0.0, 2022-10-21 19:46:36.598
32.0, -144721.7562462993, -153122.48058587083, 15254.64090760242, -105891.76933667295, 75821.90046571499, -69142.30515269103, 79594.74081930409, -114934.77105316771, -0.036000000000000004, 0.9520000000000001, -0.11, 192.0, 0.0, 0.0, 0.0, 0.0, 0.0, 0.0, 0.0, 0.0, 0.0, 1.6664067965982153E9, 0.0, 2022-10-21 19:46:36.598
33.0, -144715.38599912953, -153121.76533004825, 15259.357125682489, -105897.02199661995, 75825.96848320586, -69247.17953767533, 79527.86439989382, -114947.73506495179, -0.036000000000000004, 0.9520000000000001, -0.11, 192.0, 0.0, 0.0, 0.0, 0.0, 0.0, 0.0, 0.0, 0.0, 0.0, 1.6664067965982292E9, 0.0, 2022-10-21 19:46:36.598
34.0, -144726.5618713572, -153130.25899294126, 15250.885814533927, -105888.21540930455, 75826.9966634508, -69246.19606091929, 79547.26571408102, -114925.09274781856, -0.036000000000000004, 0.9520000000000001, -0.11, 192.0, 0.0, 0.0, 0.0, 0.0, 0.0, 0.0, 0.0, 0.0, 0.0, 1.6664067965982428E9, 0.0, 2022-10-21 19:46:36.598
35.0, -144722.38209514404, -153125.07338822764, 15257.948965781805, -105863.31556598135, 75841.77116653576, -69134.7726148096, 79627.66493888677, -114891.60983462451, -0.036000000000000004, 0.9520000000000001, -0.11, 192.0, 0.0, 0.0, 0.0, 0.0, 0.0, 0.0, 0.0, 0.0, 0.0, 1.666406796598256E9, 0.0, 2022-10-21 19:46:36.598
36.0, -144720.90688001, -153123.01702773775, 15258.552462882099, -105873.86558936424, 75844.47572761486, -69120.57925708048, 79611.72814509012, -114926.6797216749, -0.036000000000000004, 0.9460000000000001, -0.11, 192.0, 254.0, 224.0, 29.0, 144.0, 252.0, 144.0, 0.0, 0.0, 0.0, 1.66640679659827E9, 0.0, 2022-10-21 19:46:36.598
37.0, -144715.0507229627, -153119.32898990263, 15267.224939730757, -105894.78682217441, 75844.69924505941, -69227.66646476585, 79543.91295241272, -114946.77393994022, -0.036000000000000004, 0.9460000000000001, -0.11, 192.0, 0.0, 0.0, 0.0, 0.0, 0.0, 0.0, 0.0, 0.0, 0.0, 1.6664067965982847E9, 0.0, 2022-10-21 19:46:36.598
38.0, -144711.09446419412, -153113.20461192186, 15271.427067688355, -105878.15712429967, 75855.6515998425, -69235.17665090282, 79560.56500203193, -114916.2191052698, -0.036000000000000004, 0.9460000000000001, -0.11, 192.0, 0.0, 0.0, 0.0, 0.0, 0.0, 0.0, 0.0, 0.0, 0.0, 1.6664067965982983E9, 0.0, 2022-10-21 19:46:36.598
39.0, -144717.2188421749, -153114.52336484473, 15264.967413540771, -105864.9919468155, 75855.29397193123, -69136.60545785492, 79633.52109593405, -114886.22306421079, -0.036000000000000004, 0.9460000000000001, -0.11, 192.0, 0.0, 0.0, 0.0, 0.0, 0.0, 0.0, 0.0, 0.0, 0.0, 1.666406796598312E9, 0.0, 2022-10-21 19:46:36.598
40.0, -144717.0623799637, -153117.9878852353, 15262.30755595059, -105874.33497599782, 75857.03740799874, -69097.3110911025, 79639.3996047258, -114907.16664876541, -0.036000000000000004, 0.9460000000000001, -0.11, 192.0, 0.0, 0.0, 0.0, 0.0, 0.0, 0.0, 0.0, 0.0, 0.0, 1.6664067965983255E9, 0.0, 2022-10-21 19:46:36.598
41.0, -144708.79223451522, -153114.00927472225, 15266.643794374919, -105892.1940198176, 75851.91885851847, -69191.61310095944, 79567.24817362406, -114947.39978878497, -0.036000000000000004, 0.9460000000000001, -0.11, 192.0, 0.0, 0.0, 0.0, 0.0, 0.0, 0.0, 0.0, 0.0, 0.0, 1.666406796598339E9, 0.0, 2022-10-21 19:46:36.598
42.0, -144712.56967932818, -153117.51849860174, 15263.06751526207, -105889.35534827178, 75846.08505321563, -69247.13483418642, 79548.91974317071, -114931.03831184367, -0.036000000000000004, 0.9460000000000001, -0.11, 192.0, 0.0, 0.0, 0.0, 0.0, 0.0, 0.0, 0.0, 0.0, 0.0, 1.6664067965983527E9, 0.0, 2022-10-21 19:46:36.598
43.0, -144707.6969990369, -153111.394120621, 15265.772076341162, -105863.78495261491, 75849.01313173928, -69155.9173650643, 79624.87097082984, -114877.95291876233, -0.036000000000000004, 0.9460000000000001, -0.11, 192.0, 0.0, 0.0, 0.0, 0.0, 0.0, 0.0, 0.0, 0.0, 0.0, 1.6664067965983663E9, 0.0, 2022-10-21 19:46:36.598
44.0, -144708.4569583484, -153114.36690263354, 15258.865387304473, -105880.25818827847, 75840.72063454636, -69097.7581259916, 79645.41222398427, -114899.16472425041, -0.036000000000000004, 0.9460000000000001, -0.11, 192.0, 0.0, 0.0, 0.0, 0.0, 0.0, 0.0, 0.0, 0.0, 0.0, 1.6664067965983925E9, 0.0, 2022-10-21 19:46:36.598
45.0, -144705.77474901377, -153114.05397821116, 15257.814855315073, -105901.80526993338, 75833.88100074304, -69190.09318233648, 79570.44447308118, -114948.62913473, -0.036000000000000004, 0.9460000000000001, -0.11, 192.0, 0.0, 0.0, 0.0, 0.0, 0.0, 0.0, 0.0, 0.0, 0.0, 1.6664067965984063E9, 0.0, 2022-10-21 19:46:36.598
46.0, -144706.2441356473, -153114.05397821116, 15257.300765192602, -105897.02199661995, 75832.49519258681, -69262.62459309395, 79537.5203534985, -114936.93917237988, -0.034, 0.9460000000000001, -0.11, 192.0, 254.0, 240.0, 29.0, 144.0, 252.0, 144.0, 0.0, 0.0, 0.0, 1.6664067965984204E9, 0.0, 2022-10-21 19:46:36.598
47.0, -144709.8651182491, -153112.15407993246, 15254.886776791427, -105876.68190916562, 75835.98206472183, -69187.25451079065, 79609.11299098886, -114872.45438962632, -0.034, 0.9460000000000001, -0.11, 192.0, 0.0, 0.0, 0.0, 0.0, 0.0, 0.0, 0.0, 0.0, 0.0, 1.6664067965984354E9, 0.0, 2022-10-21 19:46:36.598
48.0, -144713.28493515073, -153113.00344622176, 15244.560270853075, -105882.38160400173, 75832.36108212007, -69104.28483537256, 79649.86022113088, -114883.09381998704, -0.034, 0.9460000000000001, -0.11, 192.0, 0.0, 0.0, 0.0, 0.0, 0.0, 0.0, 0.0, 0.0, 0.0, 1.6664067965984495E9, 0.0, 2022-10-21 19:46:36.598
49.0, -144712.27910665027, -153113.4504811109, 15241.945116751805, -105903.95103740109, 75823.3980325935, -69168.61315591492, 79584.30255464347, -114942.81768117163, -0.034, 0.9460000000000001, -0.11, 192.0, 0.0, 0.0, 0.0, 0.0, 0.0, 0.0, 0.0, 0.0, 0.0, 1.6664067965984645E9, 0.0, 2022-10-21 19:46:36.598
50.0, -144714.89426075152, -153119.32898990263, 15238.72646555024, -105902.45347052258, 75824.60502679409, -69257.26017442468, 79533.65350170774, -114946.99745738477, -0.034, 0.9460000000000001, -0.11, 192.0, 0.0, 0.0, 0.0, 0.0, 0.0, 0.0, 0.0, 0.0, 0.0, 1.6664067965984783E9, 0.0, 2022-10-21 19:46:36.598
51.0, -144728.19354870243, -153129.78960630772, 15220.219221141246, -105891.29995003939, 75819.1959046359, -69210.34386281298, 79576.90412722876, -114914.83329711358, -0.034, 0.9460000000000001, -0.11, 192.0, 0.0, 0.0, 0.0, 0.0, 0.0, 0.0, 0.0, 0.0, 0.0, 1.6664067965984924E9, 0.0, 2022-10-21 19:46:36.598
52.0, -144720.32573465418, -153122.56999284864, 15221.91795371985, -105876.86072312127, 75826.46022158387, -69100.99912893762, 79640.74070939311, -114892.74977359174, -0.034, 0.9460000000000001, -0.11, 192.0, 0.0, 0.0, 0.0, 0.0, 0.0, 0.0, 0.0, 0.0, 0.0, 1.666406796598506E9, 0.0, 2022-10-21 19:46:36.598
53.0, -144716.79415903022, -153120.0442457252, 15221.828546742028, -105898.07252860935, 75820.0899744141, -69146.52963239308, 79587.16357793374, -114937.47561424681, -0.034, 0.9460000000000001, -0.11, 192.0, 0.0, 0.0, 0.0, 0.0, 0.0, 0.0, 0.0, 0.0, 0.0, 1.6664067965985196E9, 0.0, 2022-10-21 19:46:36.598
54.0, -144708.72517928187, -153112.3999491215, 15228.48936658971, -105894.76447042996, 75824.00152969379, -69248.29712489809, 79527.4173650047, -114949.05381787465, -0.034, 0.9460000000000001, -0.11, 192.0, 0.0, 0.0, 0.0, 0.0, 0.0, 0.0, 0.0, 0.0, 0.0, 1.6664067965985336E9, 0.0, 2022-10-21 19:46:36.598
55.0, -144712.72614153937, -153110.03066420922, 15224.35429386548, -105881.82281039034, 75827.8013262512, -69227.17472638784, 79562.28608635499, -114910.78763136717, -0.034, 0.9460000000000001, -0.11, 192.0, 0.0, 0.0, 0.0, 0.0, 0.0, 0.0, 0.0, 0.0, 0.0, 1.6664067965985475E9, 0.0, 2022-10-21 19:46:36.598
56.0, -144723.54438585573, -153118.9490102469, 15217.805232740073, -105877.10659231027, 75828.74009951831, -69123.82026002649, 79626.5920551529, -114894.09087825906, -0.032, 0.9440000000000001, -0.11, 192.0, 255.0, 0.0, 29.0, 128.0, 252.0, 144.0, 0.0, 0.0, 0.0, 1.666406796598561E9, 0.0, 2022-10-21 19:46:36.598
57.0, -144727.7241620689, -153130.23664119683, 15220.040407185605, -105892.5963512178, 75829.32124487415, -69137.16425146631, 79598.42885713922, -114930.34540776556, -0.032, 0.9440000000000001, -0.11, 192.0, 0.0, 0.0, 0.0, 0.0, 0.0, 0.0, 0.0, 0.0, 0.0, 1.6664067965985756E9, 0.0, 2022-10-21 19:46:36.598
58.0, -144725.913670768, -153132.67298134245, 15224.846032243495, -105900.08418561032, 75831.89169548651, -69242.08333993952, 79527.77499291599, -114964.43181805991, -0.032, 0.9440000000000001, -0.11, 192.0, 0.0, 0.0, 0.0, 0.0, 0.0, 0.0, 0.0, 0.0, 0.0, 1.6664067965985892E9, 0.0, 2022-10-21 19:46:36.598
59.0, -144724.4161038895, -153130.50486213027, 15226.72357877774, -105881.71105166806, 75838.3513496341, -69242.37391261743, 79548.91974317071, -114926.38914899697, -0.032, 0.9440000000000001, -0.11, 192.0, 0.0, 0.0, 0.0, 0.0, 0.0, 0.0, 0.0, 0.0, 0.0, 1.666406796598616E9, 0.0, 2022-10-21 19:46:36.598
60.0, -144721.64448757702, -153124.6934085719, 15225.91891597735, -105865.70720263806, 75846.84501252712, -69132.09040547496, 79630.12363077684, -114881.35038391953, -0.032, 0.9440000000000001, -0.11, 192.0, 0.0, 0.0, 0.0, 0.0, 0.0, 0.0, 0.0, 0.0, 0.0, 1.66640679659863E9, 0.0, 2022-10-21 19:46:36.598
61.0, -144719.94575499842, -153123.79933879367, 15229.24932590119, -105879.87820862273, 75848.67785557244, -69114.49958258863, 79623.73103186263, -114908.73127087728, -0.032, 0.9440000000000001, -0.11, 192.0, 0.0, 0.0, 0.0, 0.0, 0.0, 0.0, 0.0, 0.0, 0.0, 1.6664067965986435E9, 0.0, 2022-10-21 19:46:36.598
62.0, -144720.39278988753, -153125.56512660565, 15225.226011899234, -105893.31160704036, 75846.62149508257, -69217.65288324987, 79550.21614434912, -114955.84874818906, -0.032, 0.9440000000000001, -0.11, 192.0, 0.0, 0.0, 0.0, 0.0, 0.0, 0.0, 0.0, 0.0, 0.0, 1.6664067965986571E9, 0.0, 2022-10-21 19:46:36.598
63.0, -144718.13526369754, -153122.94997250437, 15220.800366497084, -105886.60608370378, 75844.58748633713, -69240.00462770517, 79553.90418218424, -114936.53684097968, -0.032, 0.9440000000000001, -0.11, 192.0, 0.0, 0.0, 0.0, 0.0, 0.0, 0.0, 0.0, 0.0, 0.0, 1.666406796598672E9, 0.0, 2022-10-21 19:46:36.598
64.0, -144717.5541183417, -153120.55833584766, 15224.242535143201, -105870.53517944041, 75847.80613753869, -69129.54230660705, 79638.1926105252, -114883.85377929853, -0.032, 0.9440000000000001, -0.11, 192.0, 0.0, 0.0, 0.0, 0.0, 0.0, 0.0, 0.0, 0.0, 0.0, 1.6664067965986855E9, 0.0, 2022-10-21 19:46:36.598
65.0, -144713.03906596173, -153117.58555383512, 15228.042331700604, -105875.31845275384, 75844.58748633713, -69090.18088462125, 79645.72514840665, -114902.53983766316, -0.032, 0.9440000000000001, -0.11, 192.0, 0.0, 0.0, 0.0, 0.0, 0.0, 0.0, 0.0, 0.0, 0.0, 1.6664067965987E9, 0.0, 2022-10-21 19:46:36.598
66.0, -144708.52401358177, -153114.61277182255, 15229.539898579109, -105896.21733381956, 75837.74785253381, -69201.87255166442, 79563.3813218333, -114950.19375684188, -0.038, 0.9500000000000001, -0.124, 192.0, 254.0, 208.0, 29.0, 176.0, 252.0, 32.0, 0.0, 0.0, 0.0, 1.666406796598714E9, 0.0, 2022-10-21 19:46:36.598
67.0, -144718.17996718644, -153122.50293761527, 15215.838279228006, -105903.92868565663, 75829.81298325217, -69254.35444764548, 79539.08497561037, -114944.40465502795, -0.038, 0.9500000000000001, -0.124, 192.0, 0.0, 0.0, 0.0, 0.0, 0.0, 0.0, 0.0, 0.0, 0.0, 1.666406796598729E9, 0.0, 2022-10-21 19:46:36.598
68.0, -144723.49968236682, -153127.82265279564, 15209.110404146959, -105890.47293549454, 75822.70512851539, -69171.49653094966, 79602.69804033019, -114904.28327373067, -0.038, 0.9500000000000001, -0.124, 192.0, 0.0, 0.0, 0.0, 0.0, 0.0, 0.0, 0.0, 0.0, 0.0, 1.6664067965987427E9, 0.0, 2022-10-21 19:46:36.598
69.0, -144720.79512128772, -153124.13461496052, 15215.748872250186, -105890.0929558388, 75825.27557912775, -69099.92624520377, 79636.0468430575, -114903.5233144192, -0.038, 0.9500000000000001, -0.124, 192.0, 0.0, 0.0, 0.0, 0.0, 0.0, 0.0, 0.0, 0.0, 0.0, 1.6664067965987568E9, 0.0, 2022-10-21 19:46:36.598
70.0, -144716.9059177525, -153123.8440422826, 15218.29697111809, -105907.59437174731, 75822.12398315954, -69174.08933330647, 79572.56788880443, -114949.79142544168, -0.038, 0.9500000000000001, -0.124, 192.0, 0.0, 0.0, 0.0, 0.0, 0.0, 0.0, 0.0, 0.0, 0.0, 1.6664067965987716E9, 0.0, 2022-10-21 19:46:36.598
71.0, -144710.04393220472, -153119.75367304726, 15220.129814163425, -105902.05113912238, 75823.95682620489, -69252.5439563446, 79538.21325757662, -114939.53197473669, -0.038, 0.9500000000000001, -0.124, 192.0, 0.0, 0.0, 0.0, 0.0, 0.0, 0.0, 0.0, 0.0, 0.0, 1.6664067965987852E9, 0.0, 2022-10-21 19:46:36.598
72.0, -144714.67074330698, -153124.6934085719, 15210.786784981106, -105880.30289176738, 75826.52727681724, -69181.48776072118, 79603.2344821971, -114895.67785211539, -0.038, 0.9500000000000001, -0.124, 192.0, 0.0, 0.0, 0.0, 0.0, 0.0, 0.0, 0.0, 0.0, 0.0, 1.6664067965987988E9, 0.0, 2022-10-21 19:46:36.598
73.0, -144719.1187404536, -153127.80030105117, 15199.119174375437, -105883.76741215795, 75822.23574188183, -69095.99233817964, 79647.17801179625, -114890.76046833521, -0.038, 0.9500000000000001, -0.124, 192.0, 0.0, 0.0, 0.0, 0.0, 0.0, 0.0, 0.0, 0.0, 0.0, 1.6664067965988123E9, 0.0, 2022-10-21 19:46:36.598
74.0, -144720.1022172096, -153126.41449289495, 15193.553590006066, -105910.76831945997, 75811.28338709872, -69167.74143788117, 79579.25106039656, -114940.20252707036, -0.038, 0.9500000000000001, -0.124, 192.0, 0.0, 0.0, 0.0, 0.0, 0.0, 0.0, 0.0, 0.0, 0.0, 1.6664067965988383E9, 0.0, 2022-10-21 19:46:36.598
75.0, -144712.68143805047, -153120.98301899232, 15201.376700565423, -105902.69933971159, 75820.38054709203, -69254.91324125687, 79533.89937089675, -114936.33567527958, -0.04, 0.9580000000000001, -0.12, 192.0, 254.0, 192.0, 29.0, 240.0, 252.0, 64.0, 0.0, 0.0, 0.0, 1.666406796598852E9, 0.0, 2022-10-21 19:46:36.598
76.0, -144715.74362704082, -153121.89944051497, 15197.778069708118, -105878.38064174422, 75828.53893381821, -69205.71705171073, 79586.82830176692, -114898.49417191675, -0.04, 0.9580000000000001, -0.12, 192.0, 0.0, 0.0, 0.0, 0.0, 0.0, 0.0, 0.0, 0.0, 0.0, 1.6664067965988667E9, 0.0, 2022-10-21 19:46:36.598
77.0, -144724.52786261175, -153128.71672257385, 15188.636206225898, -105875.49726670948, 75826.81784949516, -69098.29456785852, 79644.8534303729, -114897.53304690517, -0.04, 0.9580000000000001, -0.12, 192.0, 0.0, 0.0, 0.0, 0.0, 0.0, 0.0, 0.0, 0.0, 0.0, 1.6664067965988808E9, 0.0, 2022-10-21 19:46:36.598
78.0, -144722.2032811884, -153129.65549584097, 15185.506962002155, -105891.32230178385, 75824.4932680718, -69128.33531240646, 79599.65820308425, -114938.68260844739, -0.04, 0.9580000000000001, -0.12, 192.0, 0.0, 0.0, 0.0, 0.0, 0.0, 0.0, 0.0, 0.0, 0.0, 1.6664067965988944E9, 0.0, 2022-10-21 19:46:36.598
79.0, -144718.58229858664, -153124.60400159407, 15186.557493991555, -105895.0997465968, 75825.25322738329, -69231.0862816675, 79533.49703949655, -114963.7836174707, -0.04, 0.9580000000000001, -0.12, 192.0, 0.0, 0.0, 0.0, 0.0, 0.0, 0.0, 0.0, 0.0, 0.0, 1.6664067965989084E9, 0.0, 2022-10-21 19:46:36.598
80.0, -144717.53176659724, -153121.89944051497, 15190.647863226875, -105870.15519978467, 75833.21044840937, -69220.58096177352, 79570.66799052573, -114919.5271634492, -0.04, 0.9580000000000001, -0.12, 192.0, 0.0, 0.0, 0.0, 0.0, 0.0, 0.0, 0.0, 0.0, 0.0, 1.666406796598922E9, 0.0, 2022-10-21 19:46:36.598
81.0, -144729.60170860312, -153136.87510930005, 15176.007470608649, -105871.31749049634, 75829.20948615187, -69119.32755939098, 79638.28201750304, -114896.43781142686, -0.04, 0.9580000000000001, -0.12, 192.0, 0.0, 0.0, 0.0, 0.0, 0.0, 0.0, 0.0, 0.0, 0.0, 1.666406796598936E9, 0.0, 2022-10-21 19:46:36.598
82.0, -144728.48412138034, -153134.90815578797, 15178.041479354082, -105894.96563613006, 75824.76148900526, -69129.3634926514, 79611.72814509012, -114943.33177129409, -0.04, 0.9580000000000001, -0.12, 192.0, 0.0, 0.0, 0.0, 0.0, 0.0, 0.0, 0.0, 0.0, 0.0, 1.66640679659895E9, 0.0, 2022-10-21 19:46:36.598
83.0, -144723.23146143334, -153127.37561790654, 15182.891807900884, -105901.29117981091, 75831.51171583077, -69228.5381827996, 79544.44939427965, -114971.91965245243, -0.04, 0.9580000000000001, -0.12, 192.0, 0.0, 0.0, 0.0, 0.0, 0.0, 0.0, 0.0, 0.0, 0.0, 1.6664067965989635E9, 0.0, 2022-10-21 19:46:36.598
84.0, -144718.62700207558, -153123.88874577152, 15183.785877679096, -105888.55068547139, 75837.0996519446, -69238.1941364043, 79562.15197588825, -114931.86532638852, -0.04, 0.9580000000000001, -0.12, 192.0, 0.0, 0.0, 0.0, 0.0, 0.0, 0.0, 0.0, 0.0, 0.0, 1.6664067965989776E9, 0.0, 2022-10-21 19:46:36.598
85.0, -144721.13039745454, -153127.37561790654, 15178.086182842993, -105870.69164165159, 75845.72742530434, -69125.74251004965, 79641.32185474895, -114892.4144974249, -0.04, 0.9540000000000001, -0.116, 192.0, 254.0, 192.0, 29.0, 208.0, 252.0, 96.0, 0.0, 0.0, 0.0, 1.6664067965989912E9, 0.0, 2022-10-21 19:46:36.598
86.0, -144726.4724643794, -153135.57870812164, 15168.05024958256, -105891.03172910592, 75830.9529222194, -69103.79309699453, 79631.06240404397, -114931.23947754377, -0.04, 0.9540000000000001, -0.116, 192.0, 0.0, 0.0, 0.0, 0.0, 0.0, 0.0, 0.0, 0.0, 0.0, 1.6664067965990062E9, 0.0, 2022-10-21 19:46:36.599
87.0, -144723.87966202255, -153133.09766448708, 15172.699412429263, -105907.12498511374, 75824.18034364944, -69214.45658379277, 79552.33956007237, -114971.02558267422, -0.04, 0.9540000000000001, -0.116, 192.0, 0.0, 0.0, 0.0, 0.0, 0.0, 0.0, 0.0, 0.0, 0.0, 1.66640679659902E9, 0.0, 2022-10-21 19:46:36.599
88.0, -144733.84854004963, -153140.4960919018, 15165.122171058914, -105904.21925833456, 75821.5428378037, -69258.93655525883, 79539.44260352166, -114952.80891094315, -0.04, 0.9540000000000001, -0.116, 192.0, 0.0, 0.0, 0.0, 0.0, 0.0, 0.0, 0.0, 0.0, 0.0, 1.6664067965990336E9, 0.0, 2022-10-21 19:46:36.599
89.0, -144725.17606320098, -153130.48251038583, 15167.558511204543, -105879.85585687828, 75829.58946580761, -69162.86875758991, 79619.26068297157, -114895.7672590932, -0.04, 0.9540000000000001, -0.116, 192.0, 0.0, 0.0, 0.0, 0.0, 0.0, 0.0, 0.0, 0.0, 0.0, 1.6664067965990596E9, 0.0, 2022-10-21 19:46:36.599
90.0, -144719.18579568694, -153124.44753938288, 15174.733421174697, -105880.81698188985, 75835.73619553282, -69087.54337877553, 79653.03416884353, -114903.14333476346, -0.04, 0.9540000000000001, -0.116, 192.0, 0.0, 0.0, 0.0, 0.0, 0.0, 0.0, 0.0, 0.0, 0.0, 1.666406796599074E9, 0.0, 2022-10-21 19:46:36.599
91.0, -144714.26841190679, -153118.81489978015, 15180.4331160108, -105899.70420595458, 75830.88586698602, -69177.44209497477, 79576.74766501757, -114963.42598955942, -0.04, 0.9540000000000001, -0.116, 192.0, 0.0, 0.0, 0.0, 0.0, 0.0, 0.0, 0.0, 0.0, 0.0, 1.6664067965990877E9, 0.0, 2022-10-21 19:46:36.599
92.0, -144709.19456591542, -153118.77019629124, 15186.669252713831, -105880.21348478955, 75839.58069557913, -69238.21648814876, 79552.69718798366, -114950.17140509743, -0.04, 0.9540000000000001, -0.116, 192.0, 0.0, 0.0, 0.0, 0.0, 0.0, 0.0, 0.0, 0.0, 0.0, 1.6664067965991027E9, 0.0, 2022-10-21 19:46:36.599
93.0, -144712.56967932818, -153120.4912806143, 15185.90929340235, -105848.67517336312, 75847.94024800543, -69152.072865018, 79627.28495923102, -114893.8226573256, -0.04, 0.9540000000000001, -0.116, 192.0, 0.0, 0.0, 0.0, 0.0, 0.0, 0.0, 0.0, 0.0, 0.0, 1.6664067965991163E9, 0.0, 2022-10-21 19:46:36.599
94.0, -144723.58908934463, -153131.66715284195, 15168.966671105227, -105879.90056036718, 75828.42717509595, -69094.89710270132, 79646.82038388496, -114912.26284650122, -0.04, 0.9540000000000001, -0.116, 192.0, 0.0, 0.0, 0.0, 0.0, 0.0, 0.0, 0.0, 0.0, 0.0, 1.6664067965991302E9, 0.0, 2022-10-21 19:46:36.599
95.0, -144725.69015332343, -153136.67394359995, 15158.23783376668, -105907.90729616968, 75813.56326503317, -69183.36530725543, 79568.276353869, -114976.45705657687, -0.038, 0.9540000000000001, -0.12, 192.0, 254.0, 208.0, 29.0, 208.0, 252.0, 64.0, 0.0, 0.0, 0.0, 1.666406796599144E9, 0.0, 2022-10-21 19:46:36.599
96.0, -144724.39375214503, -153136.0927982441, 15157.701391899753, -105898.60897047627, 75821.60989303708, -69259.76356980366, 79531.70889994013, -114965.16942562693, -0.038, 0.9540000000000001, -0.12, 192.0, 0.0, 0.0, 0.0, 0.0, 0.0, 0.0, 0.0, 0.0, 0.0, 1.6664067965991588E9, 0.0, 2022-10-21 19:46:36.599
97.0, -144729.24408069183, -153140.42903666844, 15148.693638884264, -105876.72661265453, 75827.48840182881, -69188.75207766915, 79590.53869134649, -114919.23659077128, -0.038, 0.9540000000000001, -0.12, 192.0, 0.0, 0.0, 0.0, 0.0, 0.0, 0.0, 0.0, 0.0, 0.0, 1.6664067965991738E9, 0.0, 2022-10-21 19:46:36.599
98.0, -144732.30626968222, -153142.5971558806, 15143.262164981625, -105874.55849344237, 75824.35915760508, -69097.7134225027, 79640.74070939311, -114913.44748895735, -0.038, 0.9540000000000001, -0.12, 192.0, 0.0, 0.0, 0.0, 0.0, 0.0, 0.0, 0.0, 0.0, 0.0, 1.6664067965991874E9, 0.0, 2022-10-21 19:46:36.599
99.0, -144728.5064731248, -153141.97130703586, 15138.903574812839, -105898.38545303172, 75815.86549471205, -69156.25264123114, 79581.44153135318, -114965.77292272722, -0.038, 0.9540000000000001, -0.12, 192.0, 0.0, 0.0, 0.0, 0.0, 0.0, 0.0, 0.0, 0.0, 0.0, 1.6664067965992012E9, 0.0, 2022-10-21 19:46:36.599
100.0, -144722.89618526652, -153135.91398428846, 15140.75876960263, -105900.91120015517, 75818.9947389358, -69249.07943595403, 79523.77403065849, -114982.31321362415, -0.038, 0.9540000000000001, -0.12, 192.0, 0.0, 0.0, 0.0, 0.0, 0.0, 0.0, 0.0, 0.0, 0.0, 1.6664067965992148E9, 0.0, 2022-10-21 19:46:36.599
101.0, -144719.78929278723, -153130.48251038583, 15149.006563306639, -105876.43603997662, 75827.89073322901, -69212.15435411387, 79575.786540006, -114922.8799251175, -0.038, 0.9540000000000001, -0.12, 192.0, 0.0, 0.0, 0.0, 0.0, 0.0, 0.0, 0.0, 0.0, 0.0, 1.6664067965992289E9, 0.0, 2022-10-21 19:46:36.599
102.0, -144723.6114410891, -153130.95189701937, 15144.80443534904, -105867.11536253875, 75835.44562285491, -69103.25665512761, 79646.50745946258, -114901.69047137386, -0.038, 0.9540000000000001, -0.12, 192.0, 0.0, 0.0, 0.0, 0.0, 0.0, 0.0, 0.0, 0.0, 0.0, 1.6664067965992427E9, 0.0, 2022-10-21 19:46:36.599
103.0, -144724.8631387786, -153132.06948424215, 15142.166929503313, -105893.0433861069, 75826.46022158387, -69136.38194041037, 79604.97791826462, -114947.06451261813, -0.038, 0.9540000000000001, -0.12, 192.0, 0.0, 0.0, 0.0, 0.0, 0.0, 0.0, 0.0, 0.0, 0.0, 1.6664067965992572E9, 0.0, 2022-10-21 19:46:36.599
104.0, -144724.2149381894, -153131.84596679758, 15141.85400508094, -105897.13375534222, 75830.86351524157, -69237.70239802627, 79540.89546691126, -114969.639774518, -0.038, 0.9580000000000001, -0.112, 192.0, 254.0, 208.0, 29.0, 240.0, 252.0, 128.0, 0.0, 0.0, 0.0, 1.66640679659927E9, 0.0, 2022-10-21 19:46:36.599
105.0, -144724.5725661007, -153133.70116158738, 15135.170833488803, -105884.3932610027, 75829.63416929652, -69233.7908427466, 79564.11892940033, -114941.96831488232, -0.038, 0.9580000000000001, -0.112, 192.0, 0.0, 0.0, 0.0, 0.0, 0.0, 0.0, 0.0, 0.0, 0.0, 1.6664067965992951E9, 0.0, 2022-10-21 19:46:36.599
106.0, -144717.08473170814, -153127.4426731399, 15142.211632992225, -105857.70527812306, 75841.43589036893, -69122.3673966369, 79647.91561936327, -114903.03157604118, -0.038, 0.9580000000000001, -0.112, 192.0, 0.0, 0.0, 0.0, 0.0, 0.0, 0.0, 0.0, 0.0, 0.0, 1.666406796599308E9, 0.0, 2022-10-21 19:46:36.599
107.0, -144724.79608354522, -153138.48443490083, 15133.203879976736, -105888.30481628238, 75831.28819838622, -69122.47915535918, 79626.21207549717, -114947.55625099615, -0.038, 0.9580000000000001, -0.112, 192.0, 0.0, 0.0, 0.0, 0.0, 0.0, 0.0, 0.0, 0.0, 0.0, 1.6664067965993204E9, 0.0, 2022-10-21 19:46:36.599
108.0, -144732.68624933794, -153147.31337396067, 15120.083405981472, -105918.63613350823, 75819.06179416917, -69231.55566830107, 79541.65542622274, -114996.394812631, -0.038, 0.9580000000000001, -0.112, 192.0, 0.0, 0.0, 0.0, 0.0, 0.0, 0.0, 0.0, 0.0, 0.0, 1.666406796599333E9, 0.0, 2022-10-21 19:46:36.599
109.0, -144723.27616492228, -153136.36101917757, 15124.84432755045, -105894.0492146074, 75834.03746295422, -69240.27284863865, 79557.39105431928, -114959.06739939064, -0.038, 0.9580000000000001, -0.112, 192.0, 0.0, 0.0, 0.0, 0.0, 0.0, 0.0, 0.0, 0.0, 0.0, 1.6664067965993454E9, 0.0, 2022-10-21 19:46:36.599
110.0, -144721.73389455484, -153133.32118193165, 15122.497394382644, -105879.5876359448, 75834.05981469867, -69141.18756546827, 79630.81653485495, -114919.124832049, -0.038, 0.9580000000000001, -0.112, 192.0, 0.0, 0.0, 0.0, 0.0, 0.0, 0.0, 0.0, 0.0, 0.0, 1.666406796599358E9, 0.0, 2022-10-21 19:46:36.599
111.0, -144717.9564497419, -153128.40379815147, 15124.777272317086, -105892.41753726215, 75829.43300359644, -69122.0097687256, 79626.65911038627, -114941.18600382638, -0.038, 0.9580000000000001, -0.112, 192.0, 0.0, 0.0, 0.0, 0.0, 0.0, 0.0, 0.0, 0.0, 0.0, 1.666406796599372E9, 0.0, 2022-10-21 19:46:36.599
112.0, -144716.1012549521, -153125.92275451694, 15127.973571774195, -105904.26396182347, 75834.68566354342, -69215.08243263752, 79559.22389736462, -114975.76415249874, -0.038, 0.9580000000000001, -0.112, 192.0, 0.0, 0.0, 0.0, 0.0, 0.0, 0.0, 0.0, 0.0, 0.0, 1.6664067965993843E9, 0.0, 2022-10-21 19:46:36.599
113.0, -144713.93313573994, -153122.01119923725, 15129.538193886066, -105895.27856055243, 75839.44658511241, -69248.09595919799, 79555.31234208493, -114952.13835860949, -0.038, 0.9580000000000001, -0.112, 192.0, 0.0, 0.0, 0.0, 0.0, 0.0, 0.0, 0.0, 0.0, 0.0, 1.6664067965993984E9, 0.0, 2022-10-21 19:46:36.599
114.0, -144714.5589845847, -153125.0957399721, 15125.783100817574, -105877.26305452145, 75839.55834383468, -69146.73079809318, 79636.33741573541, -114903.120983019, -0.04, 0.9560000000000001, -0.106, 192.0, 254.0, 192.0, 29.0, 224.0, 252.0, 176.0, 0.0, 0.0, 0.0, 1.6664067965994115E9, 0.0, 2022-10-21 19:46:36.599
115.0, -144715.18483342943, -153130.81778655265, 15117.736472813664, -105892.68575819561, 75825.92377971695, -69099.4568585702, 79650.59782869791, -114922.20937278384, -0.04, 0.9560000000000001, -0.106, 192.0, 0.0, 0.0, 0.0, 0.0, 0.0, 0.0, 0.0, 0.0, 0.0, 1.6664067965994248E9, 0.0, 2022-10-21 19:46:36.599
116.0, -144712.5473275837, -153127.57678360664, 15119.971647259194, -105905.87328742424, 75825.58850355011, -69192.5295224821, 79577.46292084015, -114958.57566101261, -0.04, 0.9560000000000001, -0.106, 192.0, 0.0, 0.0, 0.0, 0.0, 0.0, 0.0, 0.0, 0.0, 0.0, 1.6664067965994377E9, 0.0, 2022-10-21 19:46:36.599
117.0, -144708.88164149306, -153124.11226321605, 15123.167946716303, -105886.4943249815, 75837.21141066687, -69246.79955801959, 79556.09465314087, -114948.1820998409, -0.04, 0.9560000000000001, -0.106, 192.0, 0.0, 0.0, 0.0, 0.0, 0.0, 0.0, 0.0, 0.0, 0.0, 1.66640679659945E9, 0.0, 2022-10-21 19:46:36.599
118.0, -144709.5968973156, -153126.19097545042, 15119.636371092365, -105864.20963575956, 75842.28525665823, -69169.23900475967, 79620.28886321651, -114913.91687559092, -0.04, 0.9560000000000001, -0.106, 192.0, 0.0, 0.0, 0.0, 0.0, 0.0, 0.0, 0.0, 0.0, 0.0, 1.6664067965994627E9, 0.0, 2022-10-21 19:46:36.599
119.0, -144722.09152246613, -153139.42320816795, 15107.27585640858, -105879.49822896699, 75830.3047216302, -69102.20612313821, 79648.80968914148, -114925.65154142995, -0.04, 0.9560000000000001, -0.106, 192.0, 0.0, 0.0, 0.0, 0.0, 0.0, 0.0, 0.0, 0.0, 0.0, 1.6664067965994754E9, 0.0, 2022-10-21 19:46:36.599
120.0, -144730.02639174776, -153145.03349602624, 15105.957103485716, -105895.90440939718, 75831.73523327532, -69164.3216209795, 79586.76124653356, -114969.10333265107, -0.04, 0.9560000000000001, -0.106, 192.0, 0.0, 0.0, 0.0, 0.0, 0.0, 0.0, 0.0, 0.0, 0.0, 1.666406796599562E9, 0.0, 2022-10-21 19:46:36.599
121.0, -144718.7611125423, -153134.03643775423, 15108.79577503154, -105891.97050237305, 75838.19488742291, -69243.29033414011, 79543.66708322371, -114976.41235308796, -0.04, 0.9560000000000001, -0.106, 192.0, 0.0, 0.0, 0.0, 0.0, 0.0, 0.0, 0.0, 0.0, 0.0, 1.666406797076638E9, 0.0, 2022-10-21 19:46:37.076
122.0, -144714.44722586242, -153132.11418773106, 15104.928923240772, -105871.20573177407, 75842.95580899189, -69196.99987137316, 79596.70777281615, -114932.08884383307, -0.04, 0.9560000000000001, -0.106, 192.0, 0.0, 0.0, 0.0, 0.0, 0.0, 0.0, 0.0, 0.0, 0.0, 1.6664067970767665E9, 0.0, 2022-10-21 19:46:37.076
123.0, -144723.8126067892, -153145.86051057107, 15092.814277745996, -105869.52935093992, 75842.44171886942, -69088.92918693175, 79653.72707292165, -114923.05873907314, -0.04, 0.9560000000000001, -0.106, 192.0, 0.0, 0.0, 0.0, 0.0, 0.0, 0.0, 0.0, 0.0, 0.0, 1.6664067970768833E9, 0.0, 2022-10-21 19:46:37.076
124.0, -144719.43166487594, -153140.3396296906, 15097.575199314977, -105893.87040065175, 75834.1492216765, -69136.8736787884, 79602.36276416335, -114961.14611162497, -0.036000000000000004, 0.9500000000000001, -0.106, 192.0, 254.0, 224.0, 29.0, 176.0, 252.0, 176.0, 0.0, 0.0, 0.0, 1.6664067970769691E9, 0.0, 2022-10-21 19:46:37.076
125.0, -144714.1566531845, -153133.61175460956, 15102.537286584055, -105898.07252860935, 75838.21723916737, -69248.76651153166, 79539.5767139884, -114979.36278335605, -0.036000000000000004, 0.9500000000000001, -0.106, 192.0, 0.0, 0.0, 0.0, 0.0, 0.0, 0.0, 0.0, 0.0, 0.0, 1.6664067970770032E9, 0.0, 2022-10-21 19:46:37.077
126.0, -144726.69598182393, -153144.6982198594, 15089.930902711261, -105888.01424360446, 75834.41744260996, -69228.2923136106, 79570.26565912554, -114952.20541384285, -0.036000000000000004, 0.9500000000000001, -0.106, 192.0, 0.0, 0.0, 0.0, 0.0, 0.0, 0.0, 0.0, 0.0, 0.0, 1.6664067970770347E9, 0.0, 2022-10-21 19:46:37.077
127.0, -144721.59978408812, -153136.40572266647, 15090.601455044922, -105880.86168537875, 75831.62347455305, -69127.4635943727, 79639.35490123689, -114923.99751234025, -0.036000000000000004, 0.9500000000000001, -0.106, 192.0, 0.0, 0.0, 0.0, 0.0, 0.0, 0.0, 0.0, 0.0, 0.0, 1.6664067970770764E9, 0.0, 2022-10-21 19:46:37.077
128.0, -144712.32381013918, -153129.14140571852, 15094.334196368956, -105892.55164772889, 75834.7527187768, -69135.48787063216, 79616.35495619237, -114957.39101855649, -0.036000000000000004, 0.9500000000000001, -0.106, 192.0, 0.0, 0.0, 0.0, 0.0, 0.0, 0.0, 0.0, 0.0, 0.0, 1.6664067970771177E9, 0.0, 2022-10-21 19:46:37.077
129.0, -144712.48027235037, -153131.91302203096, 15091.964911456695, -105907.16968860266, 75831.17643966395, -69242.50802308417, 79542.37068204531, -114994.85254226359, -0.036000000000000004, 0.9500000000000001, -0.106, 192.0, 0.0, 0.0, 0.0, 0.0, 0.0, 0.0, 0.0, 0.0, 0.0, 1.6664067970771592E9, 0.0, 2022-10-21 19:46:37.077
130.0, -144714.7154467959, -153134.1928999654, 15087.22634163217, -105896.1502785862, 75830.1035559301, -69250.08526445452, 79555.75937697403, -114960.09557963558, -0.036000000000000004, 0.9500000000000001, -0.106, 192.0, 0.0, 0.0, 0.0, 0.0, 0.0, 0.0, 0.0, 0.0, 0.0, 1.666406797077201E9, 0.0, 2022-10-21 19:46:37.077
131.0, -144718.44818811992, -153135.01991451025, 15081.37018458488, -105881.77810690143, 75830.28236988574, -69141.1205102349, 79632.82819185594, -114913.24632325725, -0.036000000000000004, 0.9500000000000001, -0.106, 192.0, 0.0, 0.0, 0.0, 0.0, 0.0, 0.0, 0.0, 0.0, 0.0, 1.6664067970772436E9, 0.0, 2022-10-21 19:46:37.077
132.0, -144704.79127225772, -153122.63704808202, 15092.32253936798, -105882.26984527944, 75838.9995502233, -69113.24788489913, 79635.48804944611, -114935.37455026801, -0.036000000000000004, 0.9500000000000001, -0.106, 192.0, 0.0, 0.0, 0.0, 0.0, 0.0, 0.0, 0.0, 0.0, 0.0, 1.6664067970772853E9, 0.0, 2022-10-21 19:46:37.077
133.0, -144699.73977801081, -153120.06659746965, 15094.311844624503, -105895.43502276362, 75846.30857066019, -69209.29333082358, 79565.30357185645, -114980.99446070129, -0.036000000000000004, 0.9500000000000001, -0.106, 192.0, 0.0, 0.0, 0.0, 0.0, 0.0, 0.0, 0.0, 0.0, 0.0, 1.6664067970773268E9, 0.0, 2022-10-21 19:46:37.077
134.0, -144712.8602520061, -153130.79543480818, 15081.683109007254, -105900.33005479933, 75838.86543975657, -69236.8977352259, 79561.36966483232, -114963.35893432605, -0.032, 0.9440000000000001, -0.10400000000000001, 192.0, 255.0, 0.0, 29.0, 128.0, 252.0, 192.0, 0.0, 0.0, 0.0, 1.6664067970773857E9, 0.0, 2022-10-21 19:46:37.077
135.0, -144721.2198044324, -153137.9926965228, 15072.630652502854, -105892.10461283977, 75827.10842217309, -69144.42856841428, 79631.91177033327, -114927.21616354182, -0.032, 0.9440000000000001, -0.10400000000000001, 192.0, 0.0, 0.0, 0.0, 0.0, 0.0, 0.0, 0.0, 0.0, 0.0, 1.6664067970776267E9, 0.0, 2022-10-21 19:46:37.077
136.0, -144713.88843225103, -153131.82361505314, 15074.217626359181, -105895.3456157858, 75828.09189892911, -69107.32467261847, 79644.54050595051, -114943.55528873864, -0.032, 0.9440000000000001, -0.10400000000000001, 192.0, 0.0, 0.0, 0.0, 0.0, 0.0, 0.0, 0.0, 0.0, 0.0, 1.666406797077644E9, 0.0, 2022-10-21 19:46:37.077
137.0, -144702.64550479, -153124.80516729417, 15076.519856038078, -105909.36015955928, 75830.5952943081, -69201.15729584185, 79571.56206030394, -114984.10135318058, -0.032, 0.9440000000000001, -0.10400000000000001, 192.0, 0.0, 0.0, 0.0, 0.0, 0.0, 0.0, 0.0, 0.0, 0.0, 1.666406797077664E9, 0.0, 2022-10-21 19:46:37.077
138.0, -144708.56871707068, -153130.66132434146, 15069.635518745843, -105906.70030196909, 75827.55545706219, -69257.03665698013, 79549.12090887081, -114969.90799545146, -0.032, 0.9440000000000001, -0.10400000000000001, 192.0, 0.0, 0.0, 0.0, 0.0, 0.0, 0.0, 0.0, 0.0, 0.0, 1.666406797077681E9, 0.0, 2022-10-21 19:46:37.077
139.0, -144713.150824684, -153134.68463834343, 15067.333289066946, -105881.0404993344, 75837.5019833448, -69158.80074009905, 79627.06144178647, -114924.71276816283, -0.032, 0.9440000000000001, -0.10400000000000001, 192.0, 0.0, 0.0, 0.0, 0.0, 0.0, 0.0, 0.0, 0.0, 0.0, 1.6664067970776987E9, 0.0, 2022-10-21 19:46:37.077
140.0, -144712.36851362808, -153130.10253073007, 15066.774495455564, -105885.10851682526, 75840.96650373537, -69086.42579155276, 79660.74552068062, -114932.73704442228, -0.032, 0.9440000000000001, -0.10400000000000001, 192.0, 0.0, 0.0, 0.0, 0.0, 0.0, 0.0, 0.0, 0.0, 0.0, 1.6664067970777218E9, 0.0, 2022-10-21 19:46:37.077
141.0, -144709.44043510442, -153131.82361505314, 15066.774495455564, -105900.03948212141, 75837.3008176447, -69172.18943502777, 79584.48136859911, -114982.64848979098, -0.032, 0.9440000000000001, -0.10400000000000001, 192.0, 0.0, 0.0, 0.0, 0.0, 0.0, 0.0, 0.0, 0.0, 0.0, 1.6664067970777347E9, 0.0, 2022-10-21 19:46:37.077
142.0, -144712.7037897949, -153135.71281858836, 15063.466437276178, -105896.88788615321, 75833.76924202076, -69252.20868017778, 79542.16951634521, -114978.84869323358, -0.032, 0.9440000000000001, -0.10400000000000001, 192.0, 0.0, 0.0, 0.0, 0.0, 0.0, 0.0, 0.0, 0.0, 0.0, 1.6664067970777476E9, 0.0, 2022-10-21 19:46:37.077
143.0, -144713.4637491064, -153130.16958596345, 15066.238053588637, -105869.64110966219, 75847.67202707197, -69176.10099030746, 79615.43853466971, -114924.13162280699, -0.03, 0.9500000000000001, -0.10400000000000001, 192.0, 255.0, 16.0, 29.0, 176.0, 252.0, 192.0, 0.0, 0.0, 0.0, 1.6664067970777605E9, 0.0, 2022-10-21 19:46:37.077
144.0, -144704.59010655762, -153121.9441440039, 15076.095172893427, -105852.51967340944, 75860.83720455614, -69082.91656767328, 79676.39174179934, -114900.68464287337, -0.03, 0.9500000000000001, -0.10400000000000001, 192.0, 0.0, 0.0, 0.0, 0.0, 0.0, 0.0, 0.0, 0.0, 0.0, 1.6664067970777748E9, 0.0, 2022-10-21 19:46:37.077
145.0, -144712.59203107262, -153132.40476040897, 15061.633594230843, -105883.70035692459, 75849.12489046155, -69144.38386492537, 79607.61542411035, -114959.15680636845, -0.03, 0.9500000000000001, -0.10400000000000001, 192.0, 0.0, 0.0, 0.0, 0.0, 0.0, 0.0, 0.0, 0.0, 0.0, 1.6664067970777879E9, 0.0, 2022-10-21 19:46:37.077
146.0, -144715.29659215172, -153136.31631568866, 15053.430504015745, -105902.20760133358, 75836.60791356658, -69244.31851438506, 79542.99653089006, -114986.35887937056, -0.03, 0.9500000000000001, -0.10400000000000001, 192.0, 0.0, 0.0, 0.0, 0.0, 0.0, 0.0, 0.0, 0.0, 0.0, 1.6664067970778005E9, 0.0, 2022-10-21 19:46:37.077
147.0, -144725.7125050679, -153145.72640010435, 15035.392646240312, -105898.45250826508, 75822.90629421549, -69215.77533671563, 79573.50666207155, -114959.08975113509, -0.03, 0.9500000000000001, -0.10400000000000001, 192.0, 0.0, 0.0, 0.0, 0.0, 0.0, 0.0, 0.0, 0.0, 0.0, 1.6664067970778136E9, 0.0, 2022-10-21 19:46:37.077
148.0, -144714.5589845847, -153135.95868777737, 15040.846471887407, -105886.71784242605, 75825.78966925021, -69116.24301865614, 79639.73488089263, -114928.9819513538, -0.03, 0.9500000000000001, -0.10400000000000001, 192.0, 0.0, 0.0, 0.0, 0.0, 0.0, 0.0, 0.0, 0.0, 0.0, 1.6664067970778265E9, 0.0, 2022-10-21 19:46:37.077
149.0, -144706.7135222809, -153129.09670222958, 15049.943631880717, -105897.26786580896, 75832.96457922037, -69141.58989686846, 79604.75440082006, -114966.2423093608, -0.03, 0.9500000000000001, -0.10400000000000001, 192.0, 0.0, 0.0, 0.0, 0.0, 0.0, 0.0, 0.0, 0.0, 0.0, 1.6664067970778396E9, 0.0, 2022-10-21 19:46:37.077
150.0, -144708.43460660393, -153130.79543480818, 15051.195329570215, -105904.21925833456, 75831.73523327532, -69252.78982553362, 79535.73221394209, -114988.30348113818, -0.03, 0.9500000000000001, -0.10400000000000001, 192.0, 0.0, 0.0, 0.0, 0.0, 0.0, 0.0, 0.0, 0.0, 0.0, 1.6664067970779104E9, 0.0, 2022-10-21 19:46:37.077
151.0, -144717.4647113639, -153136.47277789985, 15044.221585300158, -105888.86360989376, 75835.8479542551, -69224.71603449775, 79570.91385971474, -114957.0333906452, -0.03, 0.9500000000000001, -0.10400000000000001, 192.0, 0.0, 0.0, 0.0, 0.0, 0.0, 0.0, 0.0, 0.0, 0.0, 1.6664067970779233E9, 0.0, 2022-10-21 19:46:37.077
152.0, -144731.09927548163, -153151.78372285172, 15029.335323492924, -105889.91414188316, 75823.91212271596, -69117.98645472365, 79635.93508433523, -114942.46005326034, -0.03, 0.9500000000000001, -0.10400000000000001, 192.0, 0.0, 0.0, 0.0, 0.0, 0.0, 0.0, 0.0, 0.0, 0.0, 1.6664067970779362E9, 0.0, 2022-10-21 19:46:37.077
153.0, -144716.72710379687, -153136.15985347747, 15038.276021275047, -105902.52052575596, 75817.58657903512, -69127.4635943727, 79611.8399038124, -114976.79233274369, -0.038, 0.9520000000000001, -0.108, 192.0, 254.0, 208.0, 29.0, 192.0, 252.0, 160.0, 0.0, 0.0, 0.0, 1.6664067970779488E9, 0.0, 2022-10-21 19:46:37.077
154.0, -144702.13141466756, -153121.58651609262, 15046.345001023414, -105903.25813332298, 75823.75566050479, -69242.03863645061, 79542.41538553422, -114997.60180683159, -0.038, 0.9520000000000001, -0.108, 192.0, 0.0, 0.0, 0.0, 0.0, 0.0, 0.0, 0.0, 0.0, 0.0, 1.6664067970779629E9, 0.0, 2022-10-21 19:46:37.077
155.0, -144714.98366772934, -153134.95285927688, 15025.893154846806, -105908.01905489196, 75818.5924075356, -69259.4953488702, 79548.15978385923, -114976.23353913231, -0.038, 0.9520000000000001, -0.108, 192.0, 0.0, 0.0, 0.0, 0.0, 0.0, 0.0, 0.0, 0.0, 0.0, 1.6664067970779755E9, 0.0, 2022-10-21 19:46:37.077
156.0, -144716.4588828634, -153140.5407953907, 15022.272172245048, -105890.495287239, 75825.25322738329, -69146.39552192634, 79631.30827323298, -114931.17242231041, -0.038, 0.9520000000000001, -0.108, 192.0, 0.0, 0.0, 0.0, 0.0, 0.0, 0.0, 0.0, 0.0, 0.0, 1.6664067970779903E9, 0.0, 2022-10-21 19:46:37.077
157.0, -144724.4161038895, -153150.1520455065, 15017.757119865075, -105907.01322639147, 75817.7430412463, -69123.48498385966, 79626.07796503043, -114962.55427152566, -0.038, 0.9520000000000001, -0.108, 192.0, 0.0, 0.0, 0.0, 0.0, 0.0, 0.0, 0.0, 0.0, 0.0, 1.6664067970780032E9, 0.0, 2022-10-21 19:46:37.078
158.0, -144723.29851666672, -153150.1520455065, 15015.901925075284, -105928.31443885737, 75808.04238415271, -69232.67325552384, 79546.9304379142, -114999.52405685475, -0.038, 0.9520000000000001, -0.108, 192.0, 0.0, 0.0, 0.0, 0.0, 0.0, 0.0, 0.0, 0.0, 0.0, 1.666406797078016E9, 0.0, 2022-10-21 19:46:37.078
159.0, -144720.97393524338, -153148.27449897226, 15011.766852351053, -105911.72944447154, 75815.01612842275, -69267.78784606312, 79542.99653089006, -114979.63100428952, -0.038, 0.9520000000000001, -0.108, 192.0, 0.0, 0.0, 0.0, 0.0, 0.0, 0.0, 0.0, 0.0, 0.0, 1.6664067970780287E9, 0.0, 2022-10-21 19:46:37.078
160.0, -144725.9583742569, -153148.36390595007, 15004.614294125355, -105896.8431826643, 75817.4971720573, -69163.53930992357, 79620.93706380572, -114944.60582072804, -0.038, 0.9520000000000001, -0.108, 192.0, 0.0, 0.0, 0.0, 0.0, 0.0, 0.0, 0.0, 0.0, 0.0, 1.6664067970780413E9, 0.0, 2022-10-21 19:46:37.078
161.0, -144725.80191204572, -153142.73126634734, 15004.413128425256, -105905.11332811277, 75815.77608773424, -69116.95827447872, 79638.61729366986, -114958.95564066836, -0.038, 0.9520000000000001, -0.108, 192.0, 0.0, 0.0, 0.0, 0.0, 0.0, 0.0, 0.0, 0.0, 0.0, 1.666406797078054E9, 0.0, 2022-10-21 19:46:37.078
162.0, -144717.5541183417, -153136.76335057776, 15012.280942473524, -105911.39416830472, 75822.50396281529, -69199.95030164126, 79574.24426963857, -114995.29957715269, -0.038, 0.9520000000000001, -0.108, 192.0, 0.0, 0.0, 0.0, 0.0, 0.0, 0.0, 0.0, 0.0, 0.0, 1.6664067970780666E9, 0.0, 2022-10-21 19:46:37.078
163.0, -144713.88843225103, -153135.35519067707, 15009.419919183245, -105903.72751995653, 75825.02970993874, -69257.28252616913, 79548.69622572616, -114985.73303052582, -0.036000000000000004, 0.9460000000000001, -0.10400000000000001, 192.0, 254.0, 224.0, 29.0, 144.0, 252.0, 192.0, 0.0, 0.0, 0.0, 1.6664067970780792E9, 0.0, 2022-10-21 19:46:37.078
164.0, -144716.59299333012, -153136.51748138876, 15004.323721447436, -105886.6954906816, 75828.94126521841, -69172.70352515025, 79620.33356670542, -114936.62624795751, -0.036000000000000004, 0.9460000000000001, -0.10400000000000001, 192.0, 0.0, 0.0, 0.0, 0.0, 0.0, 0.0, 0.0, 0.0, 0.0, 1.666406797078093E9, 0.0, 2022-10-21 19:46:37.078
165.0, -144716.8165107747, -153135.95868777737, 15002.602637124377, -105889.28829303841, 75827.51075357327, -69096.81935272447, 79659.11384333538, -114936.11215783503, -0.036000000000000004, 0.9460000000000001, -0.10400000000000001, 192.0, 0.0, 0.0, 0.0, 0.0, 0.0, 0.0, 0.0, 0.0, 0.0, 1.6664067970781195E9, 0.0, 2022-10-21 19:46:37.078
166.0, -144721.77859804375, -153147.5368914052, 14992.007910252561, -105913.2940665834, 75819.15120114699, -69176.57037694102, 79586.60478432236, -114988.68346079391, -0.036000000000000004, 0.9460000000000001, -0.10400000000000001, 192.0, 0.0, 0.0, 0.0, 0.0, 0.0, 0.0, 0.0, 0.0, 0.0, 1.6664067970781324E9, 0.0, 2022-10-21 19:46:37.078
167.0, -144719.4540166204, -153144.0947227591, 14992.790221308498, -105906.92381941364, 75827.17547740645, -69255.38262789043, 79549.00915014853, -114988.75051602728, -0.036000000000000004, 0.9460000000000001, -0.10400000000000001, 192.0, 0.0, 0.0, 0.0, 0.0, 0.0, 0.0, 0.0, 0.0, 0.0, 1.6664067970781455E9, 0.0, 2022-10-21 19:46:37.078
168.0, -144712.5026240948, -153135.13167323254, 14996.947645777183, -105875.63137717622, 75841.54764909121, -69190.98725211469, 79619.48420041612, -114934.72634967881, -0.036000000000000004, 0.9460000000000001, -0.10400000000000001, 192.0, 0.0, 0.0, 0.0, 0.0, 0.0, 0.0, 0.0, 0.0, 0.0, 1.6664067970781589E9, 0.0, 2022-10-21 19:46:37.078
169.0, -144721.3092114102, -153146.6875251159, 14983.134267703805, -105879.25235977798, 75838.26194265627, -69098.62984402536, 79669.26153531809, -114931.75356766625, -0.036000000000000004, 0.9460000000000001, -0.10400000000000001, 192.0, 0.0, 0.0, 0.0, 0.0, 0.0, 0.0, 0.0, 0.0, 0.0, 1.6664067970781715E9, 0.0, 2022-10-21 19:46:37.078
170.0, -144723.29851666672, -153150.1967489954, 14976.62991006731, -105909.69543572611, 75828.76245126277, -69149.94944929474, 79607.54836887699, -114989.84575150559, -0.036000000000000004, 0.9460000000000001, -0.10400000000000001, 192.0, 0.0, 0.0, 0.0, 0.0, 0.0, 0.0, 0.0, 0.0, 0.0, 1.6664067970781844E9, 0.0, 2022-10-21 19:46:37.078
171.0, -144710.26744964928, -153137.18803372243, 14981.659052569754, -105907.10263336929, 75835.02093971026, -69246.41957836386, 79549.4785367821, -115001.15573419997, -0.036000000000000004, 0.9460000000000001, -0.10400000000000001, 192.0, 0.0, 0.0, 0.0, 0.0, 0.0, 0.0, 0.0, 0.0, 0.0, 1.6664067970781972E9, 0.0, 2022-10-21 19:46:37.078
172.0, -144711.87677525007, -153137.70212384488, 14976.808724022952, -105876.77131614344, 75846.46503287138, -69207.41578428933, 79597.66889782774, -114937.56502122463, -0.038, 0.9460000000000001, -0.106, 192.0, 254.0, 208.0, 29.0, 144.0, 252.0, 176.0, 0.0, 0.0, 0.0, 1.66640679707821E9, 0.0, 2022-10-21 19:46:37.078
173.0, -144724.75138005632, -153147.71570536087, 14962.101276171361, -105873.10563005277, 75842.1511461915, -69100.2615213706, 79657.05748284548, -114937.36385552453, -0.038, 0.9460000000000001, -0.106, 192.0, 0.0, 0.0, 0.0, 0.0, 0.0, 0.0, 0.0, 0.0, 0.0, 1.6664067970782237E9, 0.0, 2022-10-21 19:46:37.078
174.0, -144724.7737318008, -153147.26867047176, 14960.156674403748, -105907.75083395849, 75828.02484369575, -69132.76095780861, 79608.37538342184, -114996.28305390872, -0.038, 0.9460000000000001, -0.106, 192.0, 0.0, 0.0, 0.0, 0.0, 0.0, 0.0, 0.0, 0.0, 0.0, 1.6664067970782363E9, 0.0, 2022-10-21 19:46:37.078
175.0, -144716.2130136744, -153140.65255411298, 14965.319927372924, -105916.62447650725, 75829.41065185197, -69242.3962643619, 79541.54366750046, -115014.03033900623, -0.038, 0.9460000000000001, -0.106, 192.0, 0.0, 0.0, 0.0, 0.0, 0.0, 0.0, 0.0, 0.0, 0.0, 1.6664067970782492E9, 0.0, 2022-10-21 19:46:37.078
176.0, -144718.62700207558, -153142.10541750258, 14959.888453470285, -105901.87232516675, 75831.24349489731, -69238.68587478231, 79564.2753916115, -114978.15578915547, -0.038, 0.9460000000000001, -0.106, 192.0, 0.0, 0.0, 0.0, 0.0, 0.0, 0.0, 0.0, 0.0, 0.0, 1.666406797078262E9, 0.0, 2022-10-21 19:46:37.078
177.0, -144719.9681067429, -153145.5922896376, 14955.239290623582, -105888.88596163821, 75832.78576526472, -69127.93298100626, 79638.21496226966, -114944.13643409449, -0.038, 0.9460000000000001, -0.106, 192.0, 0.0, 0.0, 0.0, 0.0, 0.0, 0.0, 0.0, 0.0, 0.0, 1.666406797078276E9, 0.0, 2022-10-21 19:46:37.078
178.0, -144715.63186831854, -153139.75848433477, 14957.34035460238, -105911.43887179362, 75822.77218374875, -69132.85036478644, 79616.62317712583, -114981.84382699059, -0.038, 0.9460000000000001, -0.106, 192.0, 0.0, 0.0, 0.0, 0.0, 0.0, 0.0, 0.0, 0.0, 0.0, 1.6664067970782888E9, 0.0, 2022-10-21 19:46:37.078
179.0, -144711.6532578055, -153136.91981278895, 14958.077962169406, -105927.62153477926, 75817.72068950185, -69244.13970042941, 79536.8721529093, -115019.1935919754, -0.038, 0.9460000000000001, -0.106, 192.0, 0.0, 0.0, 0.0, 0.0, 0.0, 0.0, 0.0, 0.0, 0.0, 1.6664067970783017E9, 0.0, 2022-10-21 19:46:37.078
180.0, -144716.9059177525, -153143.15594949198, 14950.590127776877, -105913.87521193924, 75821.38637559253, -69254.8461860235, 79545.41051929122, -114993.62319631854, -0.038, 0.9460000000000001, -0.106, 192.0, 0.0, 0.0, 0.0, 0.0, 0.0, 0.0, 0.0, 0.0, 0.0, 1.6664067970783255E9, 0.0, 2022-10-21 19:46:37.078
181.0, -144722.3597433996, -153149.3473827061, 14945.136302129782, -105902.54287750041, 75814.23381736682, -69156.20793774223, 79619.59595913839, -114952.94302140988, -0.038, 0.9460000000000001, -0.106, 192.0, 0.0, 0.0, 0.0, 0.0, 0.0, 0.0, 0.0, 0.0, 0.0, 1.6664067970783384E9, 0.0, 2022-10-21 19:46:37.078
182.0, -144710.13333918256, -153139.22204246785, 14959.262604625537, -105900.71003445507, 75816.73721274582, -69125.13901294935, 79629.7436511211, -114967.27048960573, -0.04, 0.9480000000000001, -0.112, 192.0, 254.0, 192.0, 29.0, 160.0, 252.0, 128.0, 0.0, 0.0, 0.0, 1.6664067970783513E9, 0.0, 2022-10-21 19:46:37.078
183.0, -144722.2032811884, -153148.3862576945, 14942.901127684252, -105931.3095726144, 75805.69545098489, -69231.60037178999, 79543.91295241272, -115023.3510164441, -0.04, 0.9480000000000001, -0.112, 192.0, 0.0, 0.0, 0.0, 0.0, 0.0, 0.0, 0.0, 0.0, 0.0, 1.666406797078365E9, 0.0, 2022-10-21 19:46:37.078
184.0, -144715.0507229627, -153140.71960934636, 14948.667877753722, -105926.34748534531, 75807.99768066379, -69277.68966885682, 79535.26282730851, -114997.1994754314, -0.04, 0.9480000000000001, -0.112, 192.0, 0.0, 0.0, 0.0, 0.0, 0.0, 0.0, 0.0, 0.0, 0.0, 1.6664067970783777E9, 0.0, 2022-10-21 19:46:37.078
185.0, -144709.2616211488, -153138.37267617855, 14952.266508611025, -105895.502077997, 75819.33001510263, -69177.73266765269, 79619.73006960512, -114936.26862004622, -0.04, 0.9480000000000001, -0.112, 192.0, 0.0, 0.0, 0.0, 0.0, 0.0, 0.0, 0.0, 0.0, 0.0, 1.6664067970783906E9, 0.0, 2022-10-21 19:46:37.078
186.0, -144709.88746999353, -153138.95382153438, 14951.14892138826, -105904.33101705683, 75816.20077087889, -69118.27702740158, 79642.9535320942, -114950.59608824208, -0.04, 0.9480000000000001, -0.112, 192.0, 0.0, 0.0, 0.0, 0.0, 0.0, 0.0, 0.0, 0.0, 0.0, 1.6664067970784032E9, 0.0, 2022-10-21 19:46:37.078
187.0, -144706.33354262516, -153135.06461799916, 14954.076999911906, -105923.26294461048, 75817.43011682393, -69197.84923766246, 79576.79236850647, -114988.68346079391, -0.04, 0.9480000000000001, -0.112, 192.0, 0.0, 0.0, 0.0, 0.0, 0.0, 0.0, 0.0, 0.0, 0.0, 1.666406797078416E9, 0.0, 2022-10-21 19:46:37.078
188.0, -144708.3004961372, -153135.10932148807, 14949.472540554112, -105919.93253468664, 75818.03361392423, -69258.82479653654, 79549.14326061527, -114992.4385538624, -0.04, 0.9480000000000001, -0.112, 192.0, 0.0, 0.0, 0.0, 0.0, 0.0, 0.0, 0.0, 0.0, 0.0, 1.6664067970784292E9, 0.0, 2022-10-21 19:46:37.078
189.0, -144715.162481685, -153140.9431267909, 14941.604726505844, -105900.26299956597, 75818.68181451343, -69183.0300310886, 79613.42687766872, -114954.3288295661, -0.04, 0.9480000000000001, -0.112, 192.0, 0.0, 0.0, 0.0, 0.0, 0.0, 0.0, 0.0, 0.0, 0.0, 1.666406797078442E9, 0.0, 2022-10-21 19:46:37.078
190.0, -144720.90688001, -153146.4863594158, 14940.710656727631, -105906.02974963543, 75815.08318365613, -69107.45878308521, 79651.4024914983, -114953.9264981659, -0.04, 0.9480000000000001, -0.112, 192.0, 0.0, 0.0, 0.0, 0.0, 0.0, 0.0, 0.0, 0.0, 0.0, 1.6664067970784545E9, 0.0, 2022-10-21 19:46:37.078
191.0, -144718.93992649793, -153145.72640010435, 14941.269450339014, -105928.47090106856, 75810.92575918743, -69175.65395541835, 79585.46484535513, -115005.51432436876, -0.04, 0.9480000000000001, -0.112, 192.0, 0.0, 0.0, 0.0, 0.0, 0.0, 0.0, 0.0, 0.0, 0.0, 1.6664067970784671E9, 0.0, 2022-10-21 19:46:37.078
192.0, -144707.51818508128, -153134.5952313656, 14940.777711960998, -105924.58169753334, 75813.9432446889, -69266.73731407372, 79536.20160057564, -115010.14113547101, -0.04, 0.962, -0.11800000000000001, 192.0, 254.0, 192.0, 30.0, 16.0, 252.0, 80.0, 0.0, 0.0, 0.0, 1.6664067970784798E9, 0.0, 2022-10-21 19:46:37.078
193.0, -144702.8019670012, -153127.08504522862, 14947.773807975509, -105880.45935397857, 75837.56903857816, -69200.64320571937, 79606.92252003224, -114954.23942258829, -0.04, 0.962, -0.11800000000000001, 192.0, 0.0, 0.0, 0.0, 0.0, 0.0, 0.0, 0.0, 0.0, 0.0, 1.6664067970784936E9, 0.0, 2022-10-21 19:46:37.078
194.0, -144717.2635456638, -153145.03349602624, 14935.033313635984, -105884.32620576934, 75834.64096005452, -69103.16724814978, 79662.26543930358, -114942.54946023817, -0.04, 0.962, -0.11800000000000001, 192.0, 0.0, 0.0, 0.0, 0.0, 0.0, 0.0, 0.0, 0.0, 0.0, 1.6664067970785067E9, 0.0, 2022-10-21 19:46:37.078
195.0, -144720.2586794208, -153149.77206585076, 14927.634886221276, -105915.12690962874, 75826.57198030615, -69145.92613529279, 79611.23640671211, -114988.05761194917, -0.04, 0.962, -0.11800000000000001, 192.0, 0.0, 0.0, 0.0, 0.0, 0.0, 0.0, 0.0, 0.0, 0.0, 1.6664067970785303E9, 0.0, 2022-10-21 19:46:37.078
196.0, -144709.61924906008, -153140.38433317954, 14932.887546168275, -105912.1988311051, 75832.94222747591, -69241.70336028378, 79554.57473451791, -115002.8991702675, -0.04, 0.962, -0.11800000000000001, 192.0, 0.0, 0.0, 0.0, 0.0, 0.0, 0.0, 0.0, 0.0, 0.0, 1.6664067970785432E9, 0.0, 2022-10-21 19:46:37.078
197.0, -144713.93313573994, -153141.56897563566, 14933.222822335103, -105891.81404016186, 75837.85961125608, -69218.61400826144, 79592.52799660302, -114965.54940528267, -0.04, 0.962, -0.11800000000000001, 192.0, 0.0, 0.0, 0.0, 0.0, 0.0, 0.0, 0.0, 0.0, 0.0, 1.666406797078556E9, 0.0, 2022-10-21 19:46:37.078
198.0, -144725.98072600135, -153152.9460135634, 14926.651409465243, -105880.79463014539, 75835.31151238817, -69119.9087047468, 79658.26447704608, -114943.82350967212, -0.04, 0.962, -0.11800000000000001, 192.0, 0.0, 0.0, 0.0, 0.0, 0.0, 0.0, 0.0, 0.0, 0.0, 1.6664067970785697E9, 0.0, 2022-10-21 19:46:37.078
199.0, -144722.6056125886, -153150.46496992887, 14921.465804751613, -105902.22995307803, 75827.13077391754, -69127.55300135053, 79625.42976444123, -114992.03622246221, -0.04, 0.962, -0.11800000000000001, 192.0, 0.0, 0.0, 0.0, 0.0, 0.0, 0.0, 0.0, 0.0, 0.0, 1.6664067970785823E9, 0.0, 2022-10-21 19:46:37.078
200.0, -144712.48027235037, -153140.98783027983, 14925.779691431486, -105915.05985439538, 75825.02970993874, -69241.39043586141, 79551.33373157188, -115017.09252799662, -0.04, 0.962, -0.11800000000000001, 192.0, 0.0, 0.0, 0.0, 0.0, 0.0, 0.0, 0.0, 0.0, 0.0, 1.6664067970785952E9, 0.0, 2022-10-21 19:46:37.078
201.0, -144718.8058160312, -153146.26284197127, 14917.956580872129, -105909.0472351369, 75826.70609077289, -69230.77335724514, 79572.79140624899, -114978.91574846694, -0.034, 0.964, -0.116, 192.0, 254.0, 240.0, 30.0, 32.0, 252.0, 96.0, 0.0, 0.0, 0.0, 1.666406797078608E9, 0.0, 2022-10-21 19:46:37.078
202.0, -144721.59978408812, -153145.16760649296, 14915.43083374868, -105892.1940198176, 75830.70705303039, -69114.32076863298, 79651.0001600981, -114942.92943989391, -0.034, 0.964, -0.116, 192.0, 0.0, 0.0, 0.0, 0.0, 0.0, 0.0, 0.0, 0.0, 0.0, 1.6664067970786216E9, 0.0, 2022-10-21 19:46:37.078
203.0, -144711.7650165278, -153128.20263245137, 14924.5726972309, -105903.88398216772, 75827.82367799565, -69108.17403890777, 79639.10903204788, -114976.79233274369, -0.034, 0.964, -0.116, 192.0, 0.0, 0.0, 0.0, 0.0, 0.0, 0.0, 0.0, 0.0, 0.0, 1.6664067970786345E9, 0.0, 2022-10-21 19:46:37.078
204.0, -144708.56871707068, -153127.50972837326, 14924.95267688664, -105926.07926441185, 75822.03457618173, -69223.53139204161, 79559.44741480917, -115016.06434775167, -0.034, 0.964, -0.116, 192.0, 0.0, 0.0, 0.0, 0.0, 0.0, 0.0, 0.0, 0.0, 0.0, 1.666406797078647E9, 0.0, 2022-10-21 19:46:37.078
205.0, -144702.77961525676, -153125.56512660565, 14925.690284453665, -105906.45443278008, 75831.66817804196, -69247.80538652008, 79568.32105735791, -114976.41235308796, -0.034, 0.964, -0.116, 192.0, 0.0, 0.0, 0.0, 0.0, 0.0, 0.0, 0.0, 0.0, 0.0, 1.6664067970786595E9, 0.0, 2022-10-21 19:46:37.078
206.0, -144708.47931009287, -153134.99756276578, 14919.767072173008, -105887.52250522644, 75830.32707337465, -69142.75218758013, 79643.75819489459, -114941.40952127094, -0.034, 0.964, -0.116, 192.0, 0.0, 0.0, 0.0, 0.0, 0.0, 0.0, 0.0, 0.0, 0.0, 1.6664067970786736E9, 0.0, 2022-10-21 19:46:37.078
207.0, -144704.4559960909, -153132.4941673868, 14926.562002487422, -105886.22610404804, 75833.18809666492, -69097.37814633586, 79657.39275901232, -114959.380323813, -0.034, 0.964, -0.116, 192.0, 0.0, 0.0, 0.0, 0.0, 0.0, 0.0, 0.0, 0.0, 0.0, 1.6664067970786865E9, 0.0, 2022-10-21 19:46:37.078
208.0, -144701.08088267816, -153127.15210046197, 14922.225764063092, -105905.71682521307, 75827.62251229555, -69198.6315487184, 79577.19469990667, -115004.66495807946, -0.034, 0.964, -0.116, 192.0, 0.0, 0.0, 0.0, 0.0, 0.0, 0.0, 0.0, 0.0, 0.0, 1.666406797078699E9, 0.0, 2022-10-21 19:46:37.078
209.0, -144704.32188562417, -153129.52138537425, 14916.682531438177, -105900.68768271062, 75825.14146866101, -69253.54978484509, 79552.85365019484, -114995.50074285279, -0.034, 0.964, -0.116, 192.0, 0.0, 0.0, 0.0, 0.0, 0.0, 0.0, 0.0, 0.0, 0.0, 1.6664067970787115E9, 0.0, 2022-10-21 19:46:37.078
210.0, -144714.0001909733, -153136.18220522194, 14905.841935377353, -105883.83446739131, 75822.10163141509, -69163.65106864585, 79619.21597948266, -114962.82249245912, -0.034, 0.964, -0.116, 192.0, 0.0, 0.0, 0.0, 0.0, 0.0, 0.0, 0.0, 0.0, 0.0, 1.6664067970787475E9, 0.0, 2022-10-21 19:46:37.078
211.0, -144717.8670427641, -153142.37363843605, 14902.265656264504, -105889.17653431614, 75819.73234650283, -69092.12548638886, 79650.798994398, -114965.86232970505, -0.034, 0.9520000000000001, -0.116, 192.0, 254.0, 240.0, 29.0, 192.0, 252.0, 96.0, 0.0, 0.0, 0.0, 1.6664067970787604E9, 0.0, 2022-10-21 19:46:37.078
212.0, -144708.32284788167, -153133.61175460956, 14907.339502255858, -105903.72751995653, 75818.63711102452, -69171.96591758322, 79582.31324938695, -115014.9467605289, -0.034, 0.9520000000000001, -0.116, 192.0, 0.0, 0.0, 0.0, 0.0, 0.0, 0.0, 0.0, 0.0, 0.0, 1.6664067970787742E9, 0.0, 2022-10-21 19:46:37.078
213.0, -144695.11296690858, -153117.80907127965, 14916.079034337883, -105895.85970590827, 75825.85672448359, -69246.46428185276, 79546.79632744746, -115005.71549006886, -0.034, 0.9520000000000001, -0.116, 192.0, 0.0, 0.0, 0.0, 0.0, 0.0, 0.0, 0.0, 0.0, 0.0, 1.666406797078787E9, 0.0, 2022-10-21 19:46:37.078
214.0, -144696.901106465, -153121.78768179272, 14918.560077972423, -105867.7412113835, 75834.41744260996, -69179.11847580892, 79614.90209280277, -114943.22001257182, -0.034, 0.9520000000000001, -0.116, 192.0, 0.0, 0.0, 0.0, 0.0, 0.0, 0.0, 0.0, 0.0, 0.0, 1.6664067970787997E9, 0.0, 2022-10-21 19:46:37.078
215.0, -144700.4103303445, -153126.7944725507, 14921.37639777379, -105856.49828392247, 75841.43589036893, -69090.85143695491, 79670.24501207413, -114935.15103282346, -0.034, 0.9520000000000001, -0.116, 192.0, 0.0, 0.0, 0.0, 0.0, 0.0, 0.0, 0.0, 0.0, 0.0, 1.6664067970788124E9, 0.0, 2022-10-21 19:46:37.078
216.0, -144700.142109411, -153125.81099579466, 14919.744720428555, -105871.36219398526, 75844.98981773733, -69144.04858875854, 79614.36565093586, -114990.9409869839, -0.034, 0.9520000000000001, -0.116, 192.0, 0.0, 0.0, 0.0, 0.0, 0.0, 0.0, 0.0, 0.0, 0.0, 1.666406797078825E9, 0.0, 2022-10-21 19:46:37.078
217.0, -144704.07601643517, -153133.56705112066, 14915.497888982045, -105885.42144124764, 75839.22306766786, -69234.05906368006, 79558.30747584194, -115005.4472691354, -0.034, 0.9520000000000001, -0.116, 192.0, 0.0, 0.0, 0.0, 0.0, 0.0, 0.0, 0.0, 0.0, 0.0, 1.666406797078838E9, 0.0, 2022-10-21 19:46:37.078
218.0, -144710.6027258161, -153138.77500757875, 14907.115984811306, -105861.68388863611, 75844.81100378168, -69185.62283344542, 79605.9390432762, -114968.45513206186, -0.034, 0.9520000000000001, -0.116, 192.0, 0.0, 0.0, 0.0, 0.0, 0.0, 0.0, 0.0, 0.0, 0.0, 1.6664067970788505E9, 0.0, 2022-10-21 19:46:37.078
219.0, -144718.4705398644, -153145.88286231554, 14897.638845162255, -105863.87435959272, 75836.76437577777, -69095.09826840142, 79658.37623576836, -114960.96729766934, -0.034, 0.9520000000000001, -0.116, 192.0, 0.0, 0.0, 0.0, 0.0, 0.0, 0.0, 0.0, 0.0, 0.0, 1.6664067970788639E9, 0.0, 2022-10-21 19:46:37.078
220.0, -144708.2110891594, -153135.73517033283, 14906.803060388931, -105878.0900690663, 75834.17157342096, -69145.03206551458, 79614.07507825793, -114995.25487366377, -0.034, 0.9520000000000001, -0.116, 192.0, 0.0, 0.0, 0.0, 0.0, 0.0, 0.0, 0.0, 0.0, 0.0, 1.666406797078878E9, 0.0, 2022-10-21 19:46:37.078
221.0, -144698.13045241006, -153124.17931844943, 14912.815679647409, -105865.48368519351, 75851.4494718849, -69239.6469997939, 79560.05091190945, -115008.12947847003, -0.03, 0.9440000000000001, -0.116, 192.0, 255.0, 16.0, 29.0, 128.0, 252.0, 96.0, 0.0, 0.0, 0.0, 1.6664067970788908E9, 0.0, 2022-10-21 19:46:37.078
222.0, -144711.92147873898, -153137.00921976677, 14898.84583936284, -105853.07846702081, 75854.10932947509, -69216.44588904928, 79589.10817970136, -114980.86035023456, -0.03, 0.9440000000000001, -0.116, 192.0, 0.0, 0.0, 0.0, 0.0, 0.0, 0.0, 0.0, 0.0, 0.0, 1.6664067970789049E9, 0.0, 2022-10-21 19:46:37.078
223.0, -144718.38113288654, -153146.4863594158, 14895.314263738903, -105848.20578672955, 75851.2036026959, -69103.74839350562, 79659.47147124667, -114955.26760283324, -0.03, 0.9440000000000001, -0.116, 192.0, 0.0, 0.0, 0.0, 0.0, 0.0, 0.0, 0.0, 0.0, 0.0, 1.6664067970789175E9, 0.0, 2022-10-21 19:46:37.078
224.0, -144706.06532169168, -153134.70699008787, 14906.154859799726, -105865.90836833816, 75847.2026404384, -69107.03409994056, 79638.7514041366, -114985.9341962259, -0.03, 0.9440000000000001, -0.116, 192.0, 0.0, 0.0, 0.0, 0.0, 0.0, 0.0, 0.0, 0.0, 0.0, 1.6664067970789304E9, 0.0, 2022-10-21 19:46:37.078
225.0, -144699.13628091055, -153125.58747835012, 14915.408482004224, -105871.65276666317, 75848.61080033908, -69205.5382377551, 79570.64563878127, -115012.17514421644, -0.03, 0.9440000000000001, -0.116, 192.0, 0.0, 0.0, 0.0, 0.0, 0.0, 0.0, 0.0, 0.0, 0.0, 1.6664067970789557E9, 0.0, 2022-10-21 19:46:37.078
226.0, -144704.16542341298, -153131.66715284195, 14911.18400230217, -105876.01135683196, 75835.02093971026, -69224.44781356429, 79575.6300777948, -114987.92350148244, -0.03, 0.9440000000000001, -0.116, 192.0, 0.0, 0.0, 0.0, 0.0, 0.0, 0.0, 0.0, 0.0, 0.0, 1.6664067970789695E9, 0.0, 2022-10-21 19:46:37.078
227.0, -144701.1926414004, -153129.36492316306, 14913.419176747702, -105866.22129276053, 75835.17740192145, -69121.33921639195, 79654.28586653303, -114946.55042249567, -0.03, 0.9440000000000001, -0.116, 192.0, 0.0, 0.0, 0.0, 0.0, 0.0, 0.0, 0.0, 0.0, 0.0, 1.666406797078982E9, 0.0, 2022-10-21 19:46:37.078
228.0, -144699.98564719985, -153130.72837957484, 14914.067377336905, -105877.28540626592, 75833.43396585392, -69094.74064049014, 79652.92241012126, -114977.75345775527, -0.03, 0.9440000000000001, -0.116, 192.0, 0.0, 0.0, 0.0, 0.0, 0.0, 0.0, 0.0, 0.0, 0.0, 1.666406797078995E9, 0.0, 2022-10-21 19:46:37.078
229.0, -144698.73394951035, -153133.12001623155, 14912.413348247213, -105896.7984791754, 75825.58850355011, -69200.12911559691, 79571.45030158166, -115027.88842056852, -0.03, 0.9440000000000001, -0.116, 192.0, 0.0, 0.0, 0.0, 0.0, 0.0, 0.0, 0.0, 0.0, 0.0, 1.6664067970790076E9, 0.0, 2022-10-21 19:46:37.079
230.0, -144695.87292622006, -153129.05199874067, 14911.765147658009, -105887.45544999308, 75824.76148900526, -69246.91131674187, 79558.55334503094, -115003.27914992323, -0.03, 0.9440000000000001, -0.116, 192.0, 0.0, 0.0, 0.0, 0.0, 0.0, 0.0, 0.0, 0.0, 0.0, 1.6664067970790205E9, 0.0, 2022-10-21 19:46:37.079
231.0, -144686.5522487822, -153116.46796661234, 14920.750548929043, -105857.92879556761, 75837.65844555598, -69148.04955101604, 79640.33837799291, -114952.4289312874, -0.03, 0.9460000000000001, -0.12, 192.0, 255.0, 16.0, 29.0, 144.0, 252.0, 64.0, 0.0, 0.0, 0.0, 1.6664067970790331E9, 0.0, 2022-10-21 19:46:37.079
232.0, -144690.3520453396, -153123.4417108824, 14915.363778515313, -105870.08814455131, 75833.14339317601, -69097.33344284695, 79652.54243046552, -114985.4871613368, -0.03, 0.9460000000000001, -0.12, 192.0, 0.0, 0.0, 0.0, 0.0, 0.0, 0.0, 0.0, 0.0, 0.0, 1.6664067970790474E9, 0.0, 2022-10-21 19:46:37.079
233.0, -144679.24322834532, -153116.60207707906, 14923.678627452688, -105886.0919935813, 75831.86934374206, -69195.72582193921, 79576.90412722876, -115025.92146705645, -0.03, 0.9460000000000001, -0.12, 192.0, 0.0, 0.0, 0.0, 0.0, 0.0, 0.0, 0.0, 0.0, 0.0, 1.66640679707906E9, 0.0, 2022-10-21 19:46:37.079
234.0, -144680.13729812353, -153117.7420160463, 14917.867173894309, -105876.97248184354, 75834.57390482115, -69256.7460843022, 79547.98096990358, -115023.7980513332, -0.03, 0.9460000000000001, -0.12, 192.0, 0.0, 0.0, 0.0, 0.0, 0.0, 0.0, 0.0, 0.0, 0.0, 1.6664067970790727E9, 0.0, 2022-10-21 19:46:37.079
235.0, -144689.56973428366, -153125.63218183903, 14906.37837724428, -105859.67223163512, 75832.58459956462, -69172.6811734058, 79615.03620326951, -114979.29572812268, -0.03, 0.9460000000000001, -0.12, 192.0, 0.0, 0.0, 0.0, 0.0, 0.0, 0.0, 0.0, 0.0, 0.0, 1.6664067970790856E9, 0.0, 2022-10-21 19:46:37.079
236.0, -144691.38022558455, -153130.12488247454, 14900.991606830552, -105866.71303113856, 75827.30958787318, -69101.44616382672, 79647.11095656287, -114983.36374561355, -0.03, 0.9460000000000001, -0.12, 192.0, 0.0, 0.0, 0.0, 0.0, 0.0, 0.0, 0.0, 0.0, 0.0, 1.6664067970790982E9, 0.0, 2022-10-21 19:46:37.079
237.0, -144685.72523423735, -153126.14627196148, 14901.192772530649, -105888.37187151574, 75823.46508782686, -69177.91148160833, 79579.36281911885, -115032.78345260424, -0.03, 0.9460000000000001, -0.12, 192.0, 0.0, 0.0, 0.0, 0.0, 0.0, 0.0, 0.0, 0.0, 0.0, 1.6664067970791106E9, 0.0, 2022-10-21 19:46:37.079
238.0, -144676.35985331057, -153117.16087069045, 14908.255923778526, -105879.7888016449, 75832.78576526472, -69253.90741275638, 79542.5271442565, -115025.47443216735, -0.03, 0.9460000000000001, -0.12, 192.0, 0.0, 0.0, 0.0, 0.0, 0.0, 0.0, 0.0, 0.0, 0.0, 1.6664067970791233E9, 0.0, 2022-10-21 19:46:37.079
239.0, -144681.18783011293, -153121.18418469242, 14909.038234834461, -105851.7820658424, 75847.33675090513, -69184.23702528919, 79609.60472936687, -114970.01975417373, -0.03, 0.9460000000000001, -0.12, 192.0, 0.0, 0.0, 0.0, 0.0, 0.0, 0.0, 0.0, 0.0, 0.0, 1.6664067970791368E9, 0.0, 2022-10-21 19:46:37.079
240.0, -144688.8544784611, -153130.43780689692, 14896.320092239392, -105852.3855629427, 75844.00634098129, -69088.39274506483, 79661.57253522547, -114971.49496930778, -0.032, 0.9500000000000001, -0.12, 192.0, 255.0, 0.0, 29.0, 176.0, 252.0, 64.0, 0.0, 0.0, 0.0, 1.6664067970791612E9, 0.0, 2022-10-21 19:46:37.079
241.0, -144687.87100170506, -153131.06365574166, 14894.174324771682, -105875.09493530929, 75835.13269843253, -69142.30515269103, 79603.90503453076, -115027.93312405744, -0.032, 0.9500000000000001, -0.12, 192.0, 0.0, 0.0, 0.0, 0.0, 0.0, 0.0, 0.0, 0.0, 0.0, 1.6664067975560007E9, 0.0, 2022-10-21 19:46:37.556
242.0, -144684.98762667034, -153126.86152778406, 14894.800173616431, -105876.34663299879, 75834.86447749907, -69249.28060165413, 79545.0305396355, -115041.16535677497, -0.032, 0.9500000000000001, -0.12, 192.0, 0.0, 0.0, 0.0, 0.0, 0.0, 0.0, 0.0, 0.0, 0.0, 1.6664067975561934E9, 0.0, 2022-10-21 19:46:37.556
243.0, -144690.68732150644, -153129.94606851888, 14883.020804288484, -105861.34861246927, 75837.5019833448, -69218.36813907244, 79584.2354994101, -114999.3005394102, -0.032, 0.9500000000000001, -0.12, 192.0, 0.0, 0.0, 0.0, 0.0, 0.0, 0.0, 0.0, 0.0, 0.0, 1.666406797556218E9, 0.0, 2022-10-21 19:46:37.556
244.0, -144694.46476631938, -153134.43876915443, 14883.04315603294, -105850.485664664, 75847.24734392732, -69106.05062318452, 79653.86118338838, -114975.09360016508, -0.032, 0.9500000000000001, -0.12, 192.0, 0.0, 0.0, 0.0, 0.0, 0.0, 0.0, 0.0, 0.0, 0.0, 1.6664067975562394E9, 0.0, 2022-10-21 19:46:37.556
245.0, -144684.67470224795, -153129.58844060762, 14892.90027533773, -105858.91227232365, 75855.58454460914, -69116.77946052307, 79623.97690105163, -115007.21305694737, -0.032, 0.9500000000000001, -0.12, 192.0, 0.0, 0.0, 0.0, 0.0, 0.0, 0.0, 0.0, 0.0, 0.0, 1.6664067975562603E9, 0.0, 2022-10-21 19:46:37.556
246.0, -144675.64459748802, -153118.72549280233, 14903.249133020538, -105851.31267920884, 75867.29685870372, -69214.27776983712, 79561.10144389885, -115032.62699039305, -0.032, 0.9500000000000001, -0.12, 192.0, 0.0, 0.0, 0.0, 0.0, 0.0, 0.0, 0.0, 0.0, 0.0, 1.666406797556281E9, 0.0, 2022-10-21 19:46:37.556
247.0, -144689.41327207247, -153126.19097545042, 14889.972196814084, -105853.86077807675, 75857.39503591001, -69212.48963028069, 79578.15582491826, -115005.29080692421, -0.032, 0.9500000000000001, -0.12, 192.0, 0.0, 0.0, 0.0, 0.0, 0.0, 0.0, 0.0, 0.0, 0.0, 1.6664067975563023E9, 0.0, 2022-10-21 19:46:37.556
248.0, -144701.63967628952, -153137.59036512263, 14877.231702474559, -105859.44871419057, 75842.62053282507, -69117.27119890109, 79640.98657858212, -114977.23936763279, -0.032, 0.9500000000000001, -0.12, 192.0, 0.0, 0.0, 0.0, 0.0, 0.0, 0.0, 0.0, 0.0, 0.0, 1.6664067975563228E9, 0.0, 2022-10-21 19:46:37.556
249.0, -144691.58139128465, -153130.75073131928, 14882.976100799573, -105872.25626376347, 75837.0996519446, -69106.27414062907, 79626.5920551529, -115013.8962285395, -0.032, 0.9500000000000001, -0.12, 192.0, 0.0, 0.0, 0.0, 0.0, 0.0, 0.0, 0.0, 0.0, 0.0, 1.6664067975563436E9, 0.0, 2022-10-21 19:46:37.556
250.0, -144681.14312662403, -153120.87126027004, 14890.173362514182, -105881.2863685234, 75835.66914029946, -69211.55085701357, 79555.28999034048, -115043.98167657634, -0.034, 0.9560000000000001, -0.12, 192.0, 254.0, 240.0, 29.0, 224.0, 252.0, 64.0, 0.0, 0.0, 0.0, 1.6664067975563643E9, 0.0, 2022-10-21 19:46:37.556
251.0, -144679.95848416787, -153119.08312071362, 14885.99358630104, -105870.95986258506, 75831.01997745276, -69248.20771792028, 79556.29581884097, -115012.77864131673, -0.034, 0.9560000000000001, -0.12, 192.0, 0.0, 0.0, 0.0, 0.0, 0.0, 0.0, 0.0, 0.0, 0.0, 1.6664067975563872E9, 0.0, 2022-10-21 19:46:37.556
252.0, -144685.38995807053, -153128.31439117366, 14874.996528029029, -105858.86756883474, 75829.58946580761, -69147.62486787139, 79629.72129937664, -114972.65726001946, -0.034, 0.9560000000000001, -0.12, 192.0, 0.0, 0.0, 0.0, 0.0, 0.0, 0.0, 0.0, 0.0, 0.0, 1.6664067975564082E9, 0.0, 2022-10-21 19:46:37.556
253.0, -144689.05564416118, -153130.05782724117, 14868.492170392534, -105877.0395370769, 75824.33680586061, -69116.7124052897, 79630.01187205457, -115001.78158304472, -0.034, 0.9560000000000001, -0.12, 192.0, 0.0, 0.0, 0.0, 0.0, 0.0, 0.0, 0.0, 0.0, 0.0, 1.6664067975564284E9, 0.0, 2022-10-21 19:46:37.556
254.0, -144690.44145231743, -153127.55443186217, 14869.587405870845, -105891.47876399504, 75826.77314600625, -69210.96971165773, 79556.13935662978, -115045.36748473257, -0.034, 0.9560000000000001, -0.12, 192.0, 0.0, 0.0, 0.0, 0.0, 0.0, 0.0, 0.0, 0.0, 0.0, 1.666406797556449E9, 0.0, 2022-10-21 19:46:37.556
255.0, -144686.19462087093, -153120.46892886984, 14872.917815794686, -105876.68190916562, 75834.05981469867, -69246.95602023078, 79550.30555132694, -115026.48026066784, -0.034, 0.9560000000000001, -0.12, 192.0, 0.0, 0.0, 0.0, 0.0, 0.0, 0.0, 0.0, 0.0, 0.0, 1.6664067975565512E9, 0.0, 2022-10-21 19:46:37.556
0.0, -144691.15670813998, -153122.68175157093, 14868.447466903624, -105856.5876909003, 75835.1997536659, -69154.822129586, 79625.22859874113, -114978.35695485557, -0.034, 0.9560000000000001, -0.12, 192.0, 0.0, 0.0, 0.0, 0.0, 0.0, 0.0, 0.0, 0.0, 0.0, 1.666406797556572E9, 0.0, 2022-10-21 19:46:37.556
1.0, -144698.68924602141, -153130.16958596345, 14861.138446466739, -105876.90542661017, 75828.02484369575, -69092.37135557787, 79645.72514840665, -114997.17712368694, -0.034, 0.9560000000000001, -0.12, 192.0, 0.0, 0.0, 0.0, 0.0, 0.0, 0.0, 0.0, 0.0, 0.0, 1.6664067975565927E9, 0.0, 2022-10-21 19:46:37.556
2.0, -144693.19071688544, -153124.60400159407, 14869.252129704015, -105894.0492146074, 75828.27071288475, -69171.89886234986, 79579.89926098577, -115044.42871146546, -0.034, 0.9560000000000001, -0.12, 192.0, 0.0, 0.0, 0.0, 0.0, 0.0, 0.0, 0.0, 0.0, 0.0, 1.6664067975566137E9, 0.0, 2022-10-21 19:46:37.556
3.0, -144693.28012386325, -153119.77602479173, 14870.906158793709, -105880.61581618975, 75829.83533499662, -69245.83843300802, 79547.5786385034, -115031.66586538147, -0.034, 0.9560000000000001, -0.12, 192.0, 0.0, 0.0, 0.0, 0.0, 0.0, 0.0, 0.0, 0.0, 0.0, 1.6664067975566351E9, 0.0, 2022-10-21 19:46:37.556
4.0, -144696.2976093647, -153124.33578066062, 14863.641841845732, -105864.96959507103, 75829.56711406316, -69185.55577821204, 79605.0896769869, -114993.4443823629, -0.03, 0.9520000000000001, -0.12, 192.0, 255.0, 16.0, 29.0, 192.0, 252.0, 64.0, 0.0, 0.0, 0.0, 1.666406797556656E9, 0.0, 2022-10-21 19:46:37.556
