%OpenBCI Raw EEG Data
%Number of channels = 8
%Sample Rate = 250 Hz
%Board = OpenBCI_GUI$BoardCytonSerial
Sample Index, EXG Channel 0, EXG Channel 1, EXG Channel 2, EXG Channel 3, EXG Channel 4, EXG Channel 5, EXG Channel 6, EXG Channel 7, Accel Channel 0, Accel Channel 1, Accel Channel 2, Other, Other, Other, Other, Other, Other, Other, Analog Channel 0, Analog Channel 1, Analog Channel 2, Timestamp, Other, Timestamp (Formatted)
64.0, -137192.2805538512, -164520.95383655475, 4343.189816855171, -121010.19871356472, 75304.14465715225, -86700.00275373492, 48226.70498212636, -113499.36437599236, 0.0, 0.0, 0.0, 192.0, 0.0, 0.0, 0.0, 0.0, 0.0, 0.0, 0.0, 0.0, 0.0, 1.6664058826803856E9, 0.0, 2022-10-21 19:31:22.680
65.0, -137191.45353930636, -164520.59620864346, 4346.475523290101, -121010.24341705364, 75310.04551768846, -86709.2116724505, 48231.80117986217, -113488.56848342044, 0.0, 0.0, 0.0, 192.0, 0.0, 0.0, 0.0, 0.0, 0.0, 0.0, 0.0, 0.0, 0.0, 1.6664058826804063E9, 0.0, 2022-10-21 19:31:22.680
66.0, -137186.75967297074, -164515.45530741874, 4351.2364448590815, -120998.26288202559, 75315.94637822466, -86694.34776238773, 48242.284148011706, -113485.57334966342, 0.002, 0.9560000000000001, 0.038, 192.0, 0.0, 16.0, 29.0, 224.0, 1.0, 48.0, 0.0, 0.0, 0.0, 1.6664058826804168E9, 0.0, 2022-10-21 19:31:22.680
67.0, -137187.43022530442, -164515.56706614103, 4347.883683190785, -120997.18999829174, 75313.24181714556, -86688.9162884851, 48241.07715381112, -113486.0874397859, 0.002, 0.9560000000000001, 0.038, 192.0, 0.0, 0.0, 0.0, 0.0, 0.0, 0.0, 0.0, 0.0, 0.0, 1.6664058826804285E9, 0.0, 2022-10-21 19:31:22.680
68.0, -137190.29124859467, -164516.81876383052, 4343.636851744277, -121002.64382393884, 75311.81130550044, -86697.11937870018, 48236.02565956422, -113491.89889334427, 0.002, 0.9560000000000001, 0.038, 192.0, 0.0, 0.0, 0.0, 0.0, 0.0, 0.0, 0.0, 0.0, 0.0, 1.6664058826804388E9, 0.0, 2022-10-21 19:31:22.680
69.0, -137188.81603346064, -164514.9859207852, 4344.754438967042, -121000.18513204875, 75314.4264596017, -86705.12130321519, 48238.46199970985, -113482.62291939532, 0.002, 0.9560000000000001, 0.038, 192.0, 0.0, 0.0, 0.0, 0.0, 0.0, 0.0, 0.0, 0.0, 0.0, 1.6664058826804492E9, 0.0, 2022-10-21 19:31:22.680
70.0, -137180.30001882315, -164510.67203410532, 4351.2364448590815, -120987.37758247586, 75321.89194224977, -86696.89586125563, 48252.29772952768, -113472.92226230173, 0.002, 0.9560000000000001, 0.038, 192.0, 0.0, 0.0, 0.0, 0.0, 0.0, 0.0, 0.0, 0.0, 0.0, 1.666405882680459E9, 0.0, 2022-10-21 19:31:22.680
71.0, -137180.41177754544, -164511.32023469452, 4351.19174137017, -120987.95872783169, 75322.16016318323, -86678.99211394694, 48256.544560974195, -113478.21962573763, 0.002, 0.9560000000000001, 0.038, 192.0, 0.0, 0.0, 0.0, 0.0, 0.0, 0.0, 0.0, 0.0, 0.0, 1.6664058826804693E9, 0.0, 2022-10-21 19:31:22.680
72.0, -137176.12024261002, -164504.9723392692, 4353.225750115604, -120988.74103888763, 75323.00952947253, -86689.83271000776, 48254.19762780638, -113473.034021024, 0.002, 0.9560000000000001, 0.038, 192.0, 0.0, 0.0, 0.0, 0.0, 0.0, 0.0, 0.0, 0.0, 0.0, 1.6664058826804788E9, 0.0, 2022-10-21 19:31:22.680
73.0, -137173.61684723102, -164499.98790025568, 4359.14896239626, -120978.03455329355, 75338.07460523542, -86687.73164602896, 48265.21703782285, -113456.85135803836, 0.002, 0.9560000000000001, 0.038, 192.0, 0.0, 0.0, 0.0, 0.0, 0.0, 0.0, 0.0, 0.0, 0.0, 1.6664058826804888E9, 0.0, 2022-10-21 19:31:22.680
74.0, -137182.91517292443, -164509.822667816, 4352.62225301531, -120990.84210286643, 75327.74809929707, -86683.23894539344, 48262.37836627703, -113469.72596284462, 0.002, 0.9560000000000001, 0.038, 192.0, 0.0, 0.0, 0.0, 0.0, 0.0, 0.0, 0.0, 0.0, 0.0, 1.6664058826804986E9, 0.0, 2022-10-21 19:31:22.680
75.0, -137189.84421370557, -164519.21040048724, 4341.736953465575, -120998.32993725895, 75312.61596830082, -86675.9075732121, 48254.42114525094, -113492.70355614467, -0.01, 0.9560000000000001, 0.03, 192.0, 255.0, 176.0, 29.0, 224.0, 0.0, 240.0, 0.0, 0.0, 0.0, 1.6664058826805084E9, 0.0, 2022-10-21 19:31:22.680
76.0, -137200.30483011066, -164530.27451399263, 4325.442531757657, -121015.27255955608, 75296.18743612617, -86698.99692523443, 48234.61749966354, -113506.89691387379, -0.01, 0.9560000000000001, 0.03, 192.0, 0.0, 0.0, 0.0, 0.0, 0.0, 0.0, 0.0, 0.0, 0.0, 1.6664058826805193E9, 0.0, 2022-10-21 19:31:22.680
77.0, -137185.77619621472, -164514.27066496262, 4334.785560939975, -121005.77306816258, 75311.0289944445, -86702.81907353629, 48243.49114221229, -113488.8367043539, -0.01, 0.9560000000000001, 0.03, 192.0, 0.0, 0.0, 0.0, 0.0, 0.0, 0.0, 0.0, 0.0, 0.0, 1.6664058826805308E9, 0.0, 2022-10-21 19:31:22.680
78.0, -137182.93752466887, -164508.90624629334, 4338.495950519557, -120999.33576575945, 75318.5838840704, -86692.09023619775, 48253.30355802817, -113489.6413671543, -0.01, 0.9560000000000001, 0.03, 192.0, 0.0, 0.0, 0.0, 0.0, 0.0, 0.0, 0.0, 0.0, 0.0, 1.6664058826805406E9, 0.0, 2022-10-21 19:31:22.680
79.0, -137187.92196368243, -164517.3775574419, 4343.2568720885365, -120992.31731800048, 75322.16016318323, -86666.87746845216, 48266.62519772354, -113484.65692814076, -0.01, 0.9560000000000001, 0.03, 192.0, 0.0, 0.0, 0.0, 0.0, 0.0, 0.0, 0.0, 0.0, 0.0, 1.6664058826805503E9, 0.0, 2022-10-21 19:31:22.680
80.0, -137193.19697537387, -164527.4358424468, 4340.887587176274, -120991.44559996673, 75323.59067482837, -86670.6549132651, 48266.245218067794, -113479.06899202694, -0.01, 0.9560000000000001, 0.03, 192.0, 0.0, 0.0, 0.0, 0.0, 0.0, 0.0, 0.0, 0.0, 0.0, 1.6664058826806636E9, 0.0, 2022-10-21 19:31:22.680
81.0, -137188.54781252716, -164525.82651684602, 4338.942985408662, -120994.5077889571, 75325.28940740698, -86675.19231738953, 48259.204418564375, -113482.2876432285, -0.01, 0.9560000000000001, 0.03, 192.0, 0.0, 0.0, 0.0, 0.0, 0.0, 0.0, 0.0, 0.0, 0.0, 1.6664058826806743E9, 0.0, 2022-10-21 19:31:22.680
82.0, -137180.61294324553, -164516.79641208606, 4339.278261575492, -120990.30566099951, 75325.98231148509, -86683.68598028255, 48254.443496995395, -113487.71911713114, -0.01, 0.9560000000000001, 0.03, 192.0, 0.0, 0.0, 0.0, 0.0, 0.0, 0.0, 0.0, 0.0, 0.0, 1.6664058826806843E9, 0.0, 2022-10-21 19:31:22.680
83.0, -137180.2329635898, -164516.0811562635, 4339.747648209053, -120985.16475977478, 75330.07268072042, -86682.09900642622, 48264.21120932236, -113476.61030013685, -0.01, 0.9560000000000001, 0.03, 192.0, 0.0, 0.0, 0.0, 0.0, 0.0, 0.0, 0.0, 0.0, 0.0, 1.666405882680694E9, 0.0, 2022-10-21 19:31:22.680
84.0, -137186.75967297074, -164524.57481915652, 4332.5727382389, -120995.13363780185, 75328.84333477537, -86673.22536387747, 48263.76417443326, -113487.00386130856, -0.01, 0.9560000000000001, 0.03, 192.0, 0.0, 0.0, 0.0, 0.0, 0.0, 0.0, 0.0, 0.0, 0.0, 1.6664058826807058E9, 0.0, 2022-10-21 19:31:22.680
85.0, -137188.88308869398, -164527.01115930214, 4325.576642224389, -121003.40378325031, 75323.8812475063, -86690.90559374161, 48250.33077601562, -113496.36924223533, -0.008, 0.9580000000000001, 0.028, 192.0, 255.0, 192.0, 29.0, 240.0, 0.0, 224.0, 0.0, 0.0, 0.0, 1.6664058826807156E9, 0.0, 2022-10-21 19:31:22.680
86.0, -137190.04537940567, -164527.77111861363, 4325.040200357461, -120997.68173666975, 75327.52458185251, -86693.05136120932, 48257.55038947468, -113491.96594857765, -0.008, 0.9580000000000001, 0.028, 192.0, 0.0, 0.0, 0.0, 0.0, 0.0, 0.0, 0.0, 0.0, 0.0, 1.6664058826807296E9, 0.0, 2022-10-21 19:31:22.680
87.0, -137176.25435307674, -164512.8848568064, 4341.424029043202, -120979.3086027275, 75339.63922734729, -86666.00575041841, 48281.19853510839, -113469.79301807798, -0.008, 0.9580000000000001, 0.028, 192.0, 0.0, 0.0, 0.0, 0.0, 0.0, 0.0, 0.0, 0.0, 0.0, 1.66640588268074E9, 0.0, 2022-10-21 19:31:22.680
88.0, -137178.15425135545, -164516.6846533638, 4337.735991208076, -120985.90236734181, 75338.92397152472, -86657.19916310301, 48286.4958985443, -113464.18273021969, -0.008, 0.9580000000000001, 0.028, 192.0, 0.0, 0.0, 0.0, 0.0, 0.0, 0.0, 0.0, 0.0, 0.0, 1.66640588268075E9, 0.0, 2022-10-21 19:31:22.680
89.0, -137187.56433577114, -164525.1336127679, 4321.262755544514, -121001.32507101598, 75329.87151502032, -86661.66951199407, 48270.98378789232, -113483.40523045126, -0.008, 0.9580000000000001, 0.028, 192.0, 0.0, 0.0, 0.0, 0.0, 0.0, 0.0, 0.0, 0.0, 0.0, 1.6664058826807597E9, 0.0, 2022-10-21 19:31:22.680
90.0, -137187.87726019352, -164526.3406069685, 4317.954697365129, -121006.35421351841, 75324.37298588431, -86676.5110703124, 48261.8419244101, -113493.4411637117, -0.008, 0.9580000000000001, 0.028, 192.0, 0.0, 0.0, 0.0, 0.0, 0.0, 0.0, 0.0, 0.0, 0.0, 1.6664058826807697E9, 0.0, 2022-10-21 19:31:22.680
91.0, -137180.85881243454, -164518.47279292022, 4325.308421290925, -120996.78766689154, 75330.38560514279, -86674.63352377815, 48268.88272391352, -113489.57431192092, -0.008, 0.9580000000000001, 0.028, 192.0, 0.0, 0.0, 0.0, 0.0, 0.0, 0.0, 0.0, 0.0, 0.0, 1.6664058826807795E9, 0.0, 2022-10-21 19:31:22.680
92.0, -137183.02693164672, -164518.91982780932, 4323.676743945688, -120998.53110295905, 75329.80445978694, -86671.16900338758, 48267.5416192462, -113492.12241078883, -0.008, 0.9580000000000001, 0.028, 192.0, 0.0, 0.0, 0.0, 0.0, 0.0, 0.0, 0.0, 0.0, 0.0, 1.6664058826807892E9, 0.0, 2022-10-21 19:31:22.680
93.0, -137177.37194029952, -164515.85763881894, 4323.989668368062, -120998.24053028114, 75331.39143364328, -86679.01446569139, 48263.58536047761, -113485.4392391967, -0.008, 0.9580000000000001, 0.028, 192.0, 0.0, 0.0, 0.0, 0.0, 0.0, 0.0, 0.0, 0.0, 0.0, 1.6664058826807992E9, 0.0, 2022-10-21 19:31:22.680
94.0, -137178.44482403336, -164517.22109523072, 4319.496967732545, -121004.49901872863, 75326.4293463742, -86692.93960248705, 48259.047956353184, -113486.57917816391, -0.008, 0.9580000000000001, 0.028, 192.0, 0.0, 0.0, 0.0, 0.0, 0.0, 0.0, 0.0, 0.0, 0.0, 1.666405882680809E9, 0.0, 2022-10-21 19:31:22.680
95.0, -137178.62363798902, -164515.29884520755, 4322.2462323005475, -121001.6603471828, 75326.40699462974, -86697.61111707821, 48266.51343900126, -113493.4411637117, -0.008, 0.9580000000000001, 0.028, 192.0, 0.0, 0.0, 29.0, 240.0, 0.0, 192.0, 0.0, 0.0, 0.0, 1.666405882680855E9, 0.0, 2022-10-21 19:31:22.680
96.0, -137177.77427169972, -164511.09671724998, 4331.745723694054, -120992.78670463404, 75336.26411393454, -86685.74234077244, 48284.32777933214, -113480.6336141388, -0.008, 0.9580000000000001, 0.028, 192.0, 0.0, 0.0, 0.0, 0.0, 0.0, 0.0, 0.0, 0.0, 0.0, 1.6664058826808655E9, 0.0, 2022-10-21 19:31:22.680
97.0, -137182.69165547987, -164519.9927115432, 4321.709790433621, -121004.54372221754, 75328.75392779756, -86685.51882332789, 48276.28115132823, -113486.84739909737, -0.008, 0.9580000000000001, 0.028, 192.0, 0.0, 0.0, 0.0, 0.0, 0.0, 0.0, 0.0, 0.0, 0.0, 1.6664058826808753E9, 0.0, 2022-10-21 19:31:22.680
98.0, -137168.90062915094, -164504.50295263564, 4332.796255683453, -120982.16962601777, 75347.99877977357, -86693.78896877635, 48278.337511818114, -113479.7842478495, -0.008, 0.9580000000000001, 0.028, 192.0, 0.0, 0.0, 0.0, 0.0, 0.0, 0.0, 0.0, 0.0, 0.0, 1.6664058826808853E9, 0.0, 2022-10-21 19:31:22.680
99.0, -137170.6887687074, -164508.14628698188, 4331.432799271679, -120980.20267250571, 75350.21160247465, -86678.88035522465, 48286.674712499946, -113478.7337158601, -0.008, 0.9580000000000001, 0.028, 192.0, 0.0, 0.0, 0.0, 0.0, 0.0, 0.0, 0.0, 0.0, 0.0, 1.6664058826808949E9, 0.0, 2022-10-21 19:31:22.680
100.0, -137185.41856830343, -164521.44557493276, 4320.279278788481, -121004.74488791764, 75332.10668946584, -86664.41877656207, 48279.946837418895, -113485.93097757471, -0.008, 0.9580000000000001, 0.028, 192.0, 0.0, 0.0, 0.0, 0.0, 0.0, 0.0, 0.0, 0.0, 0.0, 1.6664058826809049E9, 0.0, 2022-10-21 19:31:22.680
101.0, -137185.99971365926, -164519.36686269843, 4320.61455495531, -121005.39308850684, 75330.98910224308, -86662.205953861, 48275.007101894276, -113478.4878466711, -0.008, 0.9580000000000001, 0.028, 192.0, 0.0, 0.0, 0.0, 0.0, 0.0, 0.0, 0.0, 0.0, 0.0, 1.6664058826809149E9, 0.0, 2022-10-21 19:31:22.680
102.0, -137184.74801596976, -164516.34937719695, 4321.66508694471, -121004.14139081734, 75334.6324365893, -86683.6636285381, 48270.20147683638, -113477.61612863734, -0.008, 0.9580000000000001, 0.028, 192.0, 0.0, 0.0, 0.0, 0.0, 0.0, 0.0, 0.0, 0.0, 0.0, 1.666405882680925E9, 0.0, 2022-10-21 19:31:22.680
103.0, -137186.55850727065, -164518.3386824535, 4322.805025911931, -121004.67783268426, 75332.84429703288, -86690.99500071943, 48268.346282046594, -113488.3896694648, -0.008, 0.9580000000000001, 0.028, 192.0, 0.0, 0.0, 0.0, 0.0, 0.0, 0.0, 0.0, 0.0, 0.0, 1.666405882680935E9, 0.0, 2022-10-21 19:31:22.680
104.0, -137186.53615552618, -164518.4280894313, 4327.834168414374, -120995.5583209465, 75341.47207039263, -86674.6558755226, 48279.388043807514, -113488.72494563162, 0.008, 0.96, 0.024, 192.0, 0.0, 64.0, 30.0, 0.0, 0.0, 192.0, 0.0, 0.0, 0.0, 1.6664058826809447E9, 0.0, 2022-10-21 19:31:22.680
105.0, -137197.22028937584, -164525.17831625682, 4317.597069453844, -121008.14235307484, 75333.47014587763, -86675.41583483409, 48274.582418749626, -113492.70355614467, 0.008, 0.96, 0.024, 192.0, 0.0, 0.0, 0.0, 0.0, 0.0, 0.0, 0.0, 0.0, 0.0, 1.6664058826809552E9, 0.0, 2022-10-21 19:31:22.680
106.0, -137198.1814143874, -164526.74293836867, 4308.835185627364, -121017.93241714626, 75326.40699462974, -86695.37594263267, 48263.00421512178, -113493.61997766733, 0.008, 0.96, 0.024, 192.0, 0.0, 0.0, 0.0, 0.0, 0.0, 0.0, 0.0, 0.0, 0.0, 1.6664058826809652E9, 0.0, 2022-10-21 19:31:22.680
107.0, -137192.43701606238, -164521.95966505524, 4313.529051962978, -121008.74585017514, 75330.63147433179, -86716.23012020948, 48263.47360175534, -113492.45768695566, 0.008, 0.96, 0.024, 192.0, 0.0, 0.0, 0.0, 0.0, 0.0, 0.0, 0.0, 0.0, 0.0, 1.666405882680976E9, 0.0, 2022-10-21 19:31:22.680
108.0, -137195.70037075286, -164524.37365345642, 4317.1947380536485, -120999.7604489041, 75337.1805354572, -86693.47604435397, 48277.95753216238, -113486.37801246381, 0.008, 0.96, 0.024, 192.0, 0.0, 0.0, 0.0, 0.0, 0.0, 0.0, 0.0, 0.0, 0.0, 1.666405882680986E9, 0.0, 2022-10-21 19:31:22.680
109.0, -137195.96859168634, -164528.35226396946, 4314.937211863663, -121003.53789371705, 75341.15914597025, -86666.27397135187, 48286.76411947777, -113481.035945539, 0.008, 0.96, 0.024, 192.0, 0.0, 0.0, 0.0, 0.0, 0.0, 0.0, 0.0, 0.0, 0.0, 1.666405882680996E9, 0.0, 2022-10-21 19:31:22.680
110.0, -137196.50503355326, -164527.41349070234, 4310.466862972601, -121008.70114668622, 75337.24759069057, -86683.44011109354, 48274.53771526071, -113476.40913443675, 0.008, 0.96, 0.024, 192.0, 0.0, 0.0, 0.0, 0.0, 0.0, 0.0, 0.0, 0.0, 0.0, 1.666405882681016E9, 0.0, 2022-10-21 19:31:22.681
111.0, -137194.26985910774, -164524.19483950076, 4310.131586805772, -121003.7614111616, 75338.0299017465, -86705.23306193747, 48269.01683438025, -113469.34598318888, 0.008, 0.96, 0.024, 192.0, 0.0, 0.0, 0.0, 0.0, 0.0, 0.0, 0.0, 0.0, 0.0, 1.666405882681026E9, 0.0, 2022-10-21 19:31:22.681
112.0, -137194.35926608555, -164525.1336127679, 4311.450339728634, -120999.3581175039, 75341.49442213708, -86693.00665772041, 48280.729148474835, -113478.59960539338, 0.008, 0.96, 0.024, 192.0, 0.0, 0.0, 0.0, 0.0, 0.0, 0.0, 0.0, 0.0, 0.0, 1.666405882681036E9, 0.0, 2022-10-21 19:31:22.681
113.0, -137201.7353417558, -164530.31921748153, 4306.018865825995, -121008.52233273059, 75334.92300926722, -86677.24867787943, 48280.997369408295, -113489.4402014542, 0.008, 0.96, 0.024, 192.0, 0.0, 0.0, 0.0, 0.0, 0.0, 0.0, 0.0, 0.0, 0.0, 1.6664058826810455E9, 0.0, 2022-10-21 19:31:22.681
114.0, -137200.61775453304, -164527.6370081469, 4306.823528626386, -121013.59617872193, 75331.41378538773, -86696.82880602227, 48270.26853206975, -113491.787134622, 0.016, 0.966, 0.03, 192.0, 0.0, 128.0, 30.0, 48.0, 0.0, 240.0, 0.0, 0.0, 0.0, 1.6664058826810553E9, 0.0, 2022-10-21 19:31:22.681
115.0, -137199.65662952146, -164525.62535114592, 4306.912935604208, -121011.74098393215, 75330.63147433179, -86706.93179451607, 48269.463869269355, -113482.22058799514, 0.016, 0.966, 0.03, 192.0, 0.0, 0.0, 0.0, 0.0, 0.0, 0.0, 0.0, 0.0, 0.0, 1.6664058826810656E9, 0.0, 2022-10-21 19:31:22.681
116.0, -137203.0317429342, -164524.95479881225, 4308.052874571428, -121011.65157695432, 75330.56441909843, -86707.24471893844, 48276.884648428524, -113466.32849768741, 0.016, 0.966, 0.03, 192.0, 0.0, 0.0, 0.0, 0.0, 0.0, 0.0, 0.0, 0.0, 0.0, 1.6664058826810756E9, 0.0, 2022-10-21 19:31:22.681
117.0, -137206.8762429805, -164530.14040352587, 4303.515470447001, -121018.96059739121, 75327.21165743013, -86697.29819265583, 48278.31516007366, -113473.95044254667, 0.016, 0.966, 0.03, 192.0, 0.0, 0.0, 0.0, 0.0, 0.0, 0.0, 0.0, 0.0, 0.0, 1.666405882681085E9, 0.0, 2022-10-21 19:31:22.681
118.0, -137199.61192603255, -164523.6360458894, 4307.494080960046, -121009.84108565345, 75331.81611678793, -86713.59261436375, 48270.06736636965, -113479.89600657178, 0.016, 0.966, 0.03, 192.0, 0.0, 0.0, 0.0, 0.0, 0.0, 0.0, 0.0, 0.0, 0.0, 1.666405882681095E9, 0.0, 2022-10-21 19:31:22.681
119.0, -137207.09976042507, -164530.05099654806, 4301.839089612852, -121012.99268162165, 75334.40891914474, -86732.47983842848, 48263.49595349979, -113488.1438002758, 0.016, 0.966, 0.03, 192.0, 0.0, 0.0, 0.0, 0.0, 0.0, 0.0, 0.0, 0.0, 0.0, 1.666405882681105E9, 0.0, 2022-10-21 19:31:22.681
120.0, -137209.67021103745, -164532.75555762716, 4297.346388977336, -121016.52425724558, 75332.17374469922, -86703.57903284777, 48269.687386713915, -113494.46934395663, 0.016, 0.966, 0.03, 192.0, 0.0, 0.0, 0.0, 0.0, 0.0, 0.0, 0.0, 0.0, 0.0, 1.6664058826811147E9, 0.0, 2022-10-21 19:31:22.681
121.0, -137200.46129232185, -164524.95479881225, 4305.907107103719, -121002.48736172765, 75337.94049476869, -86682.83661399325, 48278.38221530703, -113489.01551830955, 0.016, 0.966, 0.03, 192.0, 0.0, 0.0, 0.0, 0.0, 0.0, 0.0, 0.0, 0.0, 0.0, 1.6664058826811242E9, 0.0, 2022-10-21 19:31:22.681
122.0, -137205.66924877994, -164526.16179301284, 4301.190889023649, -121008.25411179711, 75338.18636395769, -86686.32348612827, 48273.956569904876, -113487.5403031755, 0.016, 0.966, 0.03, 192.0, 0.0, 0.0, 0.0, 0.0, 0.0, 0.0, 0.0, 0.0, 0.0, 1.6664058826811342E9, 0.0, 2022-10-21 19:31:22.681
123.0, -137203.7246470123, -164523.16665925583, 4302.777862879975, -121017.17245783478, 75332.10668946584, -86705.18835844855, 48265.99934887879, -113486.042736297, 0.016, 0.966, 0.03, 192.0, 0.0, 0.0, 0.0, 0.0, 0.0, 0.0, 0.0, 0.0, 0.0, 1.666405882681162E9, 0.0, 2022-10-21 19:31:22.681
124.0, -137207.4797400808, -164527.61465640244, 4299.223935511582, -121017.50773400161, 75326.25053241856, -86713.212634708, 48267.20634307937, -113488.23320725361, 0.016, 0.964, 0.03, 192.0, 0.0, 128.0, 30.0, 32.0, 0.0, 240.0, 0.0, 0.0, 0.0, 1.666405882681204E9, 0.0, 2022-10-21 19:31:22.681
125.0, -137205.04339993518, -164523.90426682285, 4298.8216041113865, -121013.17149557728, 75328.82098303092, -86700.40508513512, 48277.46579378436, -113480.56655890544, 0.016, 0.964, 0.03, 192.0, 0.0, 0.0, 0.0, 0.0, 0.0, 0.0, 0.0, 0.0, 0.0, 1.666405882681353E9, 0.0, 2022-10-21 19:31:22.681
126.0, -137207.05505693617, -164527.07821453552, 4294.977104065073, -121017.64184446835, 75329.73740455358, -86698.41577987859, 48275.49884027229, -113485.30512872996, 0.016, 0.964, 0.03, 192.0, 0.0, 0.0, 0.0, 0.0, 0.0, 0.0, 0.0, 0.0, 0.0, 1.6664058826813965E9, 0.0, 2022-10-21 19:31:22.681
127.0, -137205.55749005766, -164526.20649650175, 4297.078168043872, -121016.92658864577, 75336.42057614573, -86711.29038468485, 48271.81080243717, -113485.08161128541, 0.016, 0.964, 0.03, 192.0, 0.0, 0.0, 0.0, 0.0, 0.0, 0.0, 0.0, 0.0, 0.0, 1.66640588268142E9, 0.0, 2022-10-21 19:31:22.681
128.0, -137205.0881034241, -164521.7808510996, 4301.190889023649, -121012.25507405461, 75339.99685525858, -86713.50320738593, 48277.21992459535, -113480.61126239435, 0.016, 0.964, 0.03, 192.0, 0.0, 0.0, 0.0, 0.0, 0.0, 0.0, 0.0, 0.0, 0.0, 1.666405882681434E9, 0.0, 2022-10-21 19:31:22.681
129.0, -137206.71978076934, -164525.87122033493, 4299.603915167322, -121012.813867666, 75336.86761103483, -86694.50422459892, 48285.31125608817, -113478.9795850491, 0.016, 0.964, 0.03, 192.0, 0.0, 0.0, 0.0, 0.0, 0.0, 0.0, 0.0, 0.0, 0.0, 1.6664058826814468E9, 0.0, 2022-10-21 19:31:22.681
130.0, -137205.46808307985, -164524.37365345642, 4298.843955855841, -121015.317263045, 75338.94632326918, -86688.46925359599, 48283.590171765114, -113470.88825355629, 0.016, 0.964, 0.03, 192.0, 0.0, 0.0, 0.0, 0.0, 0.0, 0.0, 0.0, 0.0, 0.0, 1.66640588268146E9, 0.0, 2022-10-21 19:31:22.681
131.0, -137208.50792032576, -164524.5301156676, 4294.641827898244, -121027.78953645105, 75334.52067786703, -86700.78506479086, 48272.12372685954, -113472.89991055727, 0.016, 0.964, 0.03, 192.0, 0.0, 0.0, 0.0, 0.0, 0.0, 0.0, 0.0, 0.0, 0.0, 1.6664058826814723E9, 0.0, 2022-10-21 19:31:22.681
132.0, -137199.45546382136, -164514.91886555182, 4306.801176881931, -121016.23368456766, 75342.27673319301, -86701.32150665778, 48281.53381127522, -113465.25561395356, 0.016, 0.964, 0.03, 192.0, 0.0, 0.0, 0.0, 0.0, 0.0, 0.0, 0.0, 0.0, 0.0, 1.6664058826814854E9, 0.0, 2022-10-21 19:31:22.681
133.0, -137199.6789812659, -164519.56802839853, 4307.762301893509, -121003.67200418378, 75347.26117220655, -86683.61892504919, 48292.03913116922, -113457.61131734983, 0.014, 0.966, 0.038, 192.0, 0.0, 112.0, 30.0, 48.0, 1.0, 48.0, 0.0, 0.0, 0.0, 1.6664058826814983E9, 0.0, 2022-10-21 19:31:22.681
134.0, -137197.7790829872, -164520.4397464323, 4303.493118702545, -121015.317263045, 75340.10861398085, -86677.53925055734, 48288.060520656174, -113470.39651517828, 0.014, 0.966, 0.038, 192.0, 0.0, 0.0, 0.0, 0.0, 0.0, 0.0, 0.0, 0.0, 0.0, 1.666405882681512E9, 0.0, 2022-10-21 19:31:22.681
135.0, -137202.4282458339, -164522.67492087782, 4295.960580821107, -121028.03540564007, 75329.71505280913, -86713.07852424128, 48270.715566958854, -113489.17198052072, 0.014, 0.966, 0.038, 192.0, 0.0, 0.0, 0.0, 0.0, 0.0, 0.0, 0.0, 0.0, 0.0, 1.6664058826815248E9, 0.0, 2022-10-21 19:31:22.681
136.0, -137199.96955394384, -164517.1316882529, 4301.459109957113, -121018.49121075765, 75339.16984071373, -86723.13680924616, 48276.72818621733, -113478.44314318219, 0.014, 0.966, 0.038, 192.0, 0.0, 0.0, 0.0, 0.0, 0.0, 0.0, 0.0, 0.0, 0.0, 1.6664058826815379E9, 0.0, 2022-10-21 19:31:22.681
137.0, -137198.40493183196, -164517.2434469752, 4296.094691287839, -121019.31822530249, 75334.45362263365, -86708.27289918339, 48280.14800311899, -113485.37218396332, 0.014, 0.966, 0.038, 192.0, 0.0, 0.0, 0.0, 0.0, 0.0, 0.0, 0.0, 0.0, 0.0, 1.6664058826815507E9, 0.0, 2022-10-21 19:31:22.681
138.0, -137197.84613822057, -164521.4902784217, 4286.0811097718615, -121038.9654086787, 75316.34870962486, -86714.12905623068, 48268.346282046594, -113498.55971319196, 0.014, 0.966, 0.038, 192.0, 0.0, 0.0, 0.0, 0.0, 0.0, 0.0, 0.0, 0.0, 0.0, 1.6664058826815634E9, 0.0, 2022-10-21 19:31:22.681
139.0, -137189.28542009418, -164509.330929438, 4297.480499444067, -121029.80119345203, 75331.45848887664, -86714.59844286424, 48274.73888096081, -113478.86782632684, 0.014, 0.966, 0.038, 192.0, 0.0, 0.0, 0.0, 0.0, 0.0, 0.0, 0.0, 0.0, 0.0, 1.666405882681576E9, 0.0, 2022-10-21 19:31:22.681
140.0, -137200.61775453304, -164518.2269237312, 4303.359008235813, -121018.64767296883, 75339.59452385838, -86723.31562320181, 48276.07998562813, -113470.19534947818, 0.014, 0.966, 0.038, 192.0, 0.0, 0.0, 0.0, 0.0, 0.0, 0.0, 0.0, 0.0, 0.0, 1.6664058826816013E9, 0.0, 2022-10-21 19:31:22.681
141.0, -137202.9870394453, -164519.836249332, 4306.309438503914, -121007.49415248564, 75344.35544542735, -86717.07948649878, 48286.6970642444, -113463.71334358613, 0.014, 0.966, 0.038, 192.0, 0.0, 0.0, 0.0, 0.0, 0.0, 0.0, 0.0, 0.0, 0.0, 1.666405882681614E9, 0.0, 2022-10-21 19:31:22.681
142.0, -137208.12794067, -164522.16083075534, 4301.034426812462, -121012.32212928798, 75342.74611982658, -86696.64999206662, 48293.78256723673, -113472.74344834608, 0.014, 0.966, 0.038, 192.0, 0.0, 0.0, 0.0, 0.0, 0.0, 0.0, 0.0, 0.0, 0.0, 1.666405882681628E9, 0.0, 2022-10-21 19:31:22.681
143.0, -137209.24552789278, -164522.31729296653, 4306.018865825995, -121008.54468447504, 75349.04931176297, -86696.82880602227, 48295.52600330424, -113464.47330289762, 0.02, 0.964, 0.042, 192.0, 0.0, 160.0, 30.0, 32.0, 1.0, 80.0, 0.0, 0.0, 0.0, 1.6664058826816409E9, 0.0, 2022-10-21 19:31:22.681
144.0, -137218.633260564, -164533.22494426073, 4301.324999490381, -121020.18994333626, 75343.57313437141, -86726.24370172546, 48282.85256419809, -113467.781361077, 0.02, 0.964, 0.042, 192.0, 0.0, 0.0, 0.0, 0.0, 0.0, 0.0, 0.0, 0.0, 0.0, 1.6664058826816547E9, 0.0, 2022-10-21 19:31:22.681
145.0, -137228.2892141687, -164540.26574376415, 4301.637923912755, -121020.48051601417, 75343.90841053825, -86724.54496914685, 48290.429805568434, -113465.12150348682, 0.02, 0.964, 0.042, 192.0, 0.0, 0.0, 0.0, 0.0, 0.0, 0.0, 0.0, 0.0, 0.0, 1.6664058826816683E9, 0.0, 2022-10-21 19:31:22.681
146.0, -137215.66047855146, -164526.56412441304, 4315.540708963956, -121000.92273961578, 75359.30876246796, -86686.8152245063, 48318.16832043747, -113454.45972138165, 0.02, 0.964, 0.042, 192.0, 0.0, 0.0, 0.0, 0.0, 0.0, 0.0, 0.0, 0.0, 0.0, 1.666405882681682E9, 0.0, 2022-10-21 19:31:22.681
147.0, -137218.11917044153, -164523.32312146702, 4311.830319384375, -121007.9635391192, 75353.1843844872, -86693.96778273198, 48309.317029633174, -113458.7289045726, 0.02, 0.964, 0.042, 192.0, 0.0, 0.0, 0.0, 0.0, 0.0, 0.0, 0.0, 0.0, 0.0, 1.6664058826816952E9, 0.0, 2022-10-21 19:31:22.681
148.0, -137223.0365542217, -164526.54177266857, 4306.398845481735, -121016.25603631212, 75351.2844862085, -86716.7665620764, 48299.41520683947, -113461.29935518496, 0.02, 0.964, 0.042, 192.0, 0.0, 0.0, 0.0, 0.0, 0.0, 0.0, 0.0, 0.0, 0.0, 1.6664058826817093E9, 0.0, 2022-10-21 19:31:22.681
149.0, -137222.1871879324, -164526.65353139085, 4315.764226408509, -121008.96936761969, 75357.5876781449, -86715.29134694235, 48310.03228545574, -113451.84456728036, 0.02, 0.964, 0.042, 192.0, 0.0, 0.0, 0.0, 0.0, 0.0, 0.0, 0.0, 0.0, 0.0, 1.6664058826817222E9, 0.0, 2022-10-21 19:31:22.681
150.0, -137221.0919524541, -164525.1336127679, 4316.367723508803, -121005.54955071802, 75358.12412001182, -86697.76757928939, 48316.78251228124, -113453.6327068368, 0.02, 0.964, 0.042, 192.0, 0.0, 0.0, 0.0, 0.0, 0.0, 0.0, 0.0, 0.0, 0.0, 1.6664058826817367E9, 0.0, 2022-10-21 19:31:22.681
151.0, -137226.4340193789, -164528.84400234747, 4303.314304746903, -121020.74873694763, 75346.14358498379, -86685.34000937224, 48305.58428830913, -113462.41694240773, 0.02, 0.964, 0.042, 192.0, 0.0, 0.0, 0.0, 0.0, 0.0, 0.0, 0.0, 0.0, 0.0, 1.6664058826817493E9, 0.0, 2022-10-21 19:31:22.681
152.0, -137220.9801937318, -164523.25606623365, 4305.683589659166, -121020.43581252526, 75343.95311402716, -86707.64705033864, 48292.262648613774, -113461.61227960733, 0.02, 0.964, 0.042, 192.0, 0.0, 0.0, 0.0, 0.0, 0.0, 0.0, 0.0, 0.0, 0.0, 1.6664058826817632E9, 0.0, 2022-10-21 19:31:22.681
153.0, -137221.65074606548, -164525.06655753453, 4309.483386216568, -121015.7642979341, 75347.283523951, -86729.93173956058, 48294.85545097059, -113452.40336089175, 0.03, 0.962, 0.046, 192.0, 0.0, 240.0, 30.0, 16.0, 1.0, 112.0, 0.0, 0.0, 0.0, 1.6664058826817873E9, 0.0, 2022-10-21 19:31:22.681
154.0, -137230.5914438476, -164534.92367683933, 4304.454243714124, -121022.93920790426, 75342.38849191529, -86714.75490507543, 48304.1984801529, -113460.44998889566, 0.03, 0.962, 0.046, 192.0, 0.0, 0.0, 0.0, 0.0, 0.0, 0.0, 0.0, 0.0, 0.0, 1.6664058826817973E9, 0.0, 2022-10-21 19:31:22.681
155.0, -137238.1016299846, -164541.45038622027, 4299.08982504485, -121024.43677478276, 75345.3389221834, -86703.73549505897, 48303.08089293014, -113459.62297435082, 0.03, 0.962, 0.046, 192.0, 0.0, 0.0, 0.0, 0.0, 0.0, 0.0, 0.0, 0.0, 0.0, 1.6664058826818075E9, 0.0, 2022-10-21 19:31:22.681
156.0, -137236.2911386837, -164537.65058966287, 4298.598086666833, -121025.57671374998, 75348.1328902403, -86722.77918133487, 48291.7485584913, -113451.9786777471, 0.03, 0.962, 0.046, 192.0, 0.0, 0.0, 0.0, 0.0, 0.0, 0.0, 0.0, 0.0, 0.0, 1.6664058826818287E9, 0.0, 2022-10-21 19:31:22.681
157.0, -137239.8450660521, -164542.00917983166, 4294.1277377757715, -121038.42896681179, 75335.01241624504, -86750.2718270149, 48278.24810484029, -113463.53452963049, 0.03, 0.962, 0.046, 192.0, 0.0, 0.0, 0.0, 0.0, 0.0, 0.0, 0.0, 0.0, 0.0, 1.6664058826818385E9, 0.0, 2022-10-21 19:31:22.681
158.0, -137232.87132178203, -164539.57283968604, 4303.895450102741, -121028.97417890718, 75340.44389014768, -86739.16301002062, 48292.3520555916, -113458.03600049448, 0.03, 0.962, 0.046, 192.0, 0.0, 0.0, 0.0, 0.0, 0.0, 0.0, 0.0, 0.0, 0.0, 1.6664058826818478E9, 0.0, 2022-10-21 19:31:22.681
159.0, -137228.02099323523, -164533.96255182775, 4309.99747633904, -121011.38335602086, 75358.74996885657, -86704.07077122579, 48308.89234648852, -113450.8834422688, 0.03, 0.962, 0.046, 192.0, 0.0, 0.0, 0.0, 0.0, 0.0, 0.0, 0.0, 0.0, 0.0, 1.6664058826818573E9, 0.0, 2022-10-21 19:31:22.681
160.0, -137217.47096985232, -164525.5359441681, 4312.702037418132, -121016.01016712311, 75359.4875764236, -86716.3195271873, 48302.99148595232, -113446.88248001129, 0.03, 0.962, 0.046, 192.0, 0.0, 0.0, 0.0, 0.0, 0.0, 0.0, 0.0, 0.0, 0.0, 1.666405882681867E9, 0.0, 2022-10-21 19:31:22.681
161.0, -137227.2386821793, -164535.25895300615, 4301.906144846219, -121027.70012947323, 75346.12123323933, -86734.17857100708, 48293.29082885871, -113458.57244236142, 0.03, 0.962, 0.046, 192.0, 0.0, 0.0, 0.0, 0.0, 0.0, 0.0, 0.0, 0.0, 0.0, 1.6664058826818767E9, 0.0, 2022-10-21 19:31:22.681
162.0, -137234.3018334272, -164540.39985423087, 4300.341522734347, -121022.29100731506, 75344.60131461636, -86726.4225156811, 48298.78935799472, -113457.58896560538, 0.03, 0.962, 0.046, 192.0, 0.0, 0.0, 0.0, 0.0, 0.0, 0.0, 0.0, 0.0, 0.0, 1.666405882681886E9, 0.0, 2022-10-21 19:31:22.681
163.0, -137224.82469377812, -164529.04516804757, 4311.450339728634, -121014.53495198906, 75356.24657347758, -86701.99205899144, 48311.26163140078, -113458.95242201716, 0.026000000000000002, 0.962, 0.05, 192.0, 0.0, 208.0, 30.0, 16.0, 1.0, 144.0, 0.0, 0.0, 0.0, 1.6664058826818955E9, 0.0, 2022-10-21 19:31:22.681
164.0, -137220.06377220916, -164523.41252844484, 4317.373552009291, -121013.35030953292, 75363.24266949209, -86711.3127364293, 48309.56289882218, -113455.89023302677, 0.026000000000000002, 0.962, 0.05, 192.0, 0.0, 0.0, 0.0, 0.0, 0.0, 0.0, 0.0, 0.0, 0.0, 1.6664058826819055E9, 0.0, 2022-10-21 19:31:22.681
165.0, -137225.9422810009, -164528.26285699164, 4308.119929804794, -121035.34442607695, 75348.35640768486, -86727.69656511505, 48297.67177077196, -113462.43929415218, 0.026000000000000002, 0.962, 0.05, 192.0, 0.0, 0.0, 0.0, 0.0, 0.0, 0.0, 0.0, 0.0, 0.0, 1.6664058826819148E9, 0.0, 2022-10-21 19:31:22.681
166.0, -137227.26103392377, -164530.27451399263, 4304.633057669766, -121032.6175132534, 75345.3836256723, -86725.03670752487, 48301.94095396292, -113463.73569533059, 0.026000000000000002, 0.962, 0.05, 192.0, 0.0, 0.0, 0.0, 0.0, 0.0, 0.0, 0.0, 0.0, 0.0, 1.6664058826819243E9, 0.0, 2022-10-21 19:31:22.681
167.0, -137223.10360945508, -164524.59717090096, 4306.354141992824, -121024.77205094958, 75348.46816640714, -86717.50416964343, 48304.33259061964, -113462.12636972981, 0.026000000000000002, 0.962, 0.05, 192.0, 0.0, 0.0, 0.0, 0.0, 0.0, 0.0, 0.0, 0.0, 0.0, 1.6664058826819336E9, 0.0, 2022-10-21 19:31:22.681
168.0, -137214.4311326064, -164516.10350800795, 4308.790482138453, -121021.82162068148, 75353.72082635413, -86739.00654780943, 48297.87293647206, -113457.58896560538, 0.026000000000000002, 0.962, 0.05, 192.0, 0.0, 0.0, 0.0, 0.0, 0.0, 0.0, 0.0, 0.0, 0.0, 1.6664058826819432E9, 0.0, 2022-10-21 19:31:22.681
169.0, -137217.3368593856, -164521.7808510996, 4302.219069268593, -121030.53880101905, 75347.90937279575, -86756.03857708437, 48288.284038100726, -113461.99225926308, 0.026000000000000002, 0.962, 0.05, 192.0, 0.0, 0.0, 0.0, 0.0, 0.0, 0.0, 0.0, 0.0, 0.0, 1.6664058826819527E9, 0.0, 2022-10-21 19:31:22.681
170.0, -137219.2814611532, -164522.60786564444, 4304.856575114319, -121027.72248121769, 75348.4905181516, -86745.98029207949, 48295.70481725989, -113457.49955862756, 0.026000000000000002, 0.962, 0.05, 192.0, 0.0, 0.0, 0.0, 0.0, 0.0, 0.0, 0.0, 0.0, 0.0, 1.666405882681962E9, 0.0, 2022-10-21 19:31:22.681
171.0, -137218.92383324192, -164520.70796736574, 4306.75647339302, -121015.3619665339, 75352.40207343127, -86736.74902161944, 48302.07506442965, -113448.71532305662, 0.026000000000000002, 0.962, 0.05, 192.0, 0.0, 0.0, 0.0, 0.0, 0.0, 0.0, 0.0, 0.0, 0.0, 1.6664058826819856E9, 0.0, 2022-10-21 19:31:22.681
172.0, -137222.65657456598, -164527.86052559144, 4299.13452853376, -121024.07914687147, 75343.90841053825, -86741.95697807753, 48294.140195148015, -113457.2313376941, 0.018000000000000002, 0.962, 0.054, 192.0, 0.0, 144.0, 30.0, 16.0, 1.0, 176.0, 0.0, 0.0, 0.0, 1.6664058826819952E9, 0.0, 2022-10-21 19:31:22.681
173.0, -137225.22702517832, -164532.35322622696, 4295.714711632098, -121031.32111207499, 75339.25924769155, -86758.56432420782, 48282.6961019869, -113468.54132038848, 0.018000000000000002, 0.962, 0.054, 192.0, 0.0, 0.0, 0.0, 0.0, 0.0, 0.0, 0.0, 0.0, 0.0, 1.6664058826820052E9, 0.0, 2022-10-21 19:31:22.682
174.0, -137230.27851942522, -164538.43290071882, 4286.148165005227, -121044.73215874817, 75328.35159639736, -86768.84612665727, 48274.13538386052, -113472.89991055727, 0.018000000000000002, 0.962, 0.054, 192.0, 0.0, 0.0, 0.0, 0.0, 0.0, 0.0, 0.0, 0.0, 0.0, 1.6664058826820147E9, 0.0, 2022-10-21 19:31:22.682
175.0, -137221.40487687648, -164531.36974947093, 4298.665141900199, -121026.82841143948, 75343.12609948231, -86742.38166122219, 48299.34815160611, -113458.55009061696, 0.018000000000000002, 0.962, 0.054, 192.0, 0.0, 0.0, 0.0, 0.0, 0.0, 0.0, 0.0, 0.0, 0.0, 1.6664058826820245E9, 0.0, 2022-10-21 19:31:22.682
176.0, -137225.3834873895, -164535.12484253943, 4295.513545932001, -121031.3658155639, 75339.84039304739, -86737.53133267538, 48298.498785316806, -113463.86980579732, 0.018000000000000002, 0.962, 0.054, 192.0, 0.0, 0.0, 0.0, 0.0, 0.0, 0.0, 0.0, 0.0, 0.0, 1.666405882682034E9, 0.0, 2022-10-21 19:31:22.682
177.0, -137221.40487687648, -164531.21328725974, 4296.809947110409, -121035.65735049933, 75340.17566921421, -86757.04440558486, 48291.636799769025, -113457.52191037202, 0.018000000000000002, 0.962, 0.054, 192.0, 0.0, 0.0, 0.0, 0.0, 0.0, 0.0, 0.0, 0.0, 0.0, 1.666405882682044E9, 0.0, 2022-10-21 19:31:22.682
178.0, -137223.0812577106, -164531.32504598203, 4296.318208732392, -121028.99653065164, 75340.10861398085, -86763.41465275463, 48291.81561372466, -113457.34309641637, 0.018000000000000002, 0.962, 0.054, 192.0, 0.0, 0.0, 0.0, 0.0, 0.0, 0.0, 0.0, 0.0, 0.0, 1.6664058826820538E9, 0.0, 2022-10-21 19:31:22.682
179.0, -137235.4417723944, -164544.087892066, 4284.583542893355, -121040.12769939039, 75325.781145785, -86752.10467006025, 48288.46285205637, -113466.37320117632, 0.018000000000000002, 0.962, 0.054, 192.0, 0.0, 0.0, 0.0, 0.0, 0.0, 0.0, 0.0, 0.0, 0.0, 1.666405882682063E9, 0.0, 2022-10-21 19:31:22.682
180.0, -137225.62935657852, -164535.97420882873, 4287.355159205814, -121043.9721994367, 75327.21165743013, -86749.7800886369, 48286.71941598885, -113459.66767783972, 0.018000000000000002, 0.962, 0.054, 192.0, 0.0, 0.0, 0.0, 0.0, 0.0, 0.0, 0.0, 0.0, 0.0, 1.6664058826820729E9, 0.0, 2022-10-21 19:31:22.682
181.0, -137219.6837925534, -164528.19580175827, 4288.696263873132, -121043.63692326986, 75332.59842784387, -86760.62068469771, 48284.305427587686, -113459.06418073943, 0.018000000000000002, 0.962, 0.054, 192.0, 0.0, 0.0, 0.0, 0.0, 0.0, 0.0, 0.0, 0.0, 0.0, 1.6664058826820824E9, 0.0, 2022-10-21 19:31:22.682
182.0, -137223.0365542217, -164529.40279595886, 4291.222010996582, -121031.45522254173, 75342.94728552668, -86766.99093186748, 48293.313180603174, -113450.23524167959, 0.012, 0.966, 0.066, 192.0, 0.0, 96.0, 30.0, 48.0, 2.0, 16.0, 0.0, 0.0, 0.0, 1.666405882682092E9, 0.0, 2022-10-21 19:31:22.682
183.0, -137224.10943795557, -164531.68267389332, 4290.573810407378, -121034.74092897665, 75339.99685525858, -86747.61196942473, 48305.98661970933, -113449.29646841246, 0.012, 0.966, 0.066, 192.0, 0.0, 0.0, 0.0, 0.0, 0.0, 0.0, 0.0, 0.0, 0.0, 1.6664058826821024E9, 0.0, 2022-10-21 19:31:22.682
184.0, -137226.47872286782, -164531.48150819322, 4286.237571983048, -121035.38912956585, 75339.19219245818, -86731.36225120572, 48306.94774472091, -113453.61035509234, 0.012, 0.966, 0.066, 192.0, 0.0, 0.0, 0.0, 0.0, 0.0, 0.0, 0.0, 0.0, 0.0, 1.666405882682112E9, 0.0, 2022-10-21 19:31:22.682
185.0, -137230.97142350333, -164539.99752283067, 4279.554400390912, -121045.40271108184, 75333.11251796634, -86745.3767949792, 48294.72134050386, -113461.52287262952, 0.012, 0.966, 0.066, 192.0, 0.0, 0.0, 0.0, 0.0, 0.0, 0.0, 0.0, 0.0, 0.0, 1.6664058826821215E9, 0.0, 2022-10-21 19:31:22.682
0.0, 0.0, 0.0, 0.0, 0.0, 0.0, 0.0, 0.0, 0.0, -0.006, 0.97, 0.026000000000000002, 192.0, 255.0, 208.0, 30.0, 80.0, 0.0, 208.0, 0.0, 0.0, 0.0, 1.6664058827797148E9, 0.0, 2022-10-21 19:31:22.779
1.0, -137251.1997522354, -164572.31814531307, 3777.5789234136255, -120940.9977127311, 75338.74515756908, -87371.73972985026, 48218.4795401668, -113531.57323975246, -0.006, 0.97, 0.026000000000000002, 192.0, 0.0, 0.0, 0.0, 0.0, 0.0, 0.0, 0.0, 0.0, 0.0, 1.6664058832651353E9, 0.0, 2022-10-21 19:31:23.265
2.0, -137431.2430538229, -164662.14980627893, 3737.6363560719915, -120947.41266338977, 75324.10476495085, -87859.70066305407, 48187.321208396104, -113531.84146068592, -0.006, 0.97, 0.026000000000000002, 192.0, 0.0, 0.0, 0.0, 0.0, 0.0, 0.0, 0.0, 0.0, 0.0, 1.666405883265316E9, 0.0, 2022-10-21 19:31:23.265
3.0, -137585.35833184223, -164699.63368173048, 3616.244031935219, -120957.76152107258, 75319.4332503597, -88759.69365354702, 48143.221216585785, -113530.90268741878, -0.006, 0.97, 0.026000000000000002, 192.0, 0.0, 0.0, 0.0, 0.0, 0.0, 0.0, 0.0, 0.0, 0.0, 1.666405883265362E9, 0.0, 2022-10-21 19:31:23.265
4.0, -137378.11295725263, -164583.359907074, 3461.838181237958, -120980.42618995026, 75315.275825891, -90121.96542286461, 48073.21555295176, -113522.31961754795, -0.006, 0.97, 0.026000000000000002, 192.0, 0.0, 0.0, 0.0, 0.0, 0.0, 0.0, 0.0, 0.0, 0.0, 1.6664058832654047E9, 0.0, 2022-10-21 19:31:23.265
5.0, -137416.55795771576, -164627.9963407512, 3260.7618881180156, -121023.22978058217, 75308.65970953224, -91719.13167466303, 47977.05834830503, -113509.4897162306, -0.006, 0.97, 0.026000000000000002, 192.0, 0.0, 0.0, 0.0, 0.0, 0.0, 0.0, 0.0, 0.0, 0.0, 1.666405883265438E9, 0.0, 2022-10-21 19:31:23.265
6.0, -137439.35673706018, -164701.131248609, 2972.44673638901, -121079.26560393162, 75304.45758157464, -93064.37141470569, 47865.45608823968, -113501.21957078214, -0.006, 0.97, 0.026000000000000002, 192.0, 0.0, 0.0, 0.0, 0.0, 0.0, 0.0, 0.0, 0.0, 0.0, 1.6664058832654796E9, 0.0, 2022-10-21 19:31:23.265
7.0, -137285.86730788558, -164621.98372149275, 2512.3137250320588, -121149.67359896585, 75307.13979090928, -93722.80910287013, 47731.70324941912, -113477.14674200378, -0.008, 0.976, 0.036000000000000004, 192.0, 255.0, 192.0, 30.0, 128.0, 1.0, 32.0, 0.0, 0.0, 0.0, 1.6664058832655125E9, 0.0, 2022-10-21 19:31:23.265
8.0, -137430.01370787784, -164646.72710260478, 1545.824294784581, -121285.79572269866, 75267.57720322338, -93661.05123294011, 47504.92245017558, -113494.67050965673, -0.008, 0.976, 0.036000000000000004, 192.0, 0.0, 0.0, 0.0, 0.0, 0.0, 0.0, 0.0, 0.0, 0.0, 1.6664058832655497E9, 0.0, 2022-10-21 19:31:23.265
9.0, -137549.95316862504, -164618.96623599128, -158.2279989991187, -121406.09281135713, 75238.11760403129, -93181.67336960715, 47252.25833085279, -113502.9406551052, -0.008, 0.976, 0.036000000000000004, 192.0, 0.0, 0.0, 0.0, 0.0, 0.0, 0.0, 0.0, 0.0, 0.0, 1.666405883265582E9, 0.0, 2022-10-21 19:31:23.265
10.0, -137600.15518667165, -164648.29172471663, -2493.0912248004943, -121438.50284081732, 75254.94846760613, -92318.76192316556, 47026.81863627656, -113470.84355006738, -0.008, 0.976, 0.036000000000000004, 192.0, 0.0, 0.0, 0.0, 0.0, 0.0, 0.0, 0.0, 0.0, 0.0, 1.6664058832656155E9, 0.0, 2022-10-21 19:31:23.265
11.0, -137476.50533634488, -164663.98264932426, -5303.130185977243, -121446.50476533233, 75242.92322908917, -91180.49933677904, 46795.142804997304, -113453.81152079244, -0.008, 0.976, 0.036000000000000004, 192.0, 0.0, 0.0, 0.0, 0.0, 0.0, 0.0, 0.0, 0.0, 0.0, 1.6664058832656488E9, 0.0, 2022-10-21 19:31:23.265
12.0, -137384.86318407813, -164632.600800109, -8138.918356766505, -121487.83314083019, 75197.1468564447, -89714.09079004417, 46564.45045047408, -113476.05150652546, -0.008, 0.976, 0.036000000000000004, 192.0, 0.0, 0.0, 0.0, 0.0, 0.0, 0.0, 0.0, 0.0, 0.0, 1.6664058832656791E9, 0.0, 2022-10-21 19:31:23.265
13.0, -137505.2049762255, -164599.78843924863, -9663.240273385081, -121491.05179203175, 75174.77276024494, -87953.35447232181, 46410.156358499094, -113446.5248521, -0.008, 0.976, 0.036000000000000004, 192.0, 0.0, 0.0, 0.0, 0.0, 0.0, 0.0, 0.0, 0.0, 0.0, 1.666405883265719E9, 0.0, 2022-10-21 19:31:23.265
14.0, -137646.6915186276, -164698.94077765237, -9258.83016095521, -121515.0799173212, 75106.66699488962, -85911.27674714051, 46267.686339340966, -113448.2235846786, -0.008, 0.976, 0.036000000000000004, 192.0, 0.0, 0.0, 0.0, 0.0, 0.0, 0.0, 0.0, 0.0, 0.0, 1.6664058832657511E9, 0.0, 2022-10-21 19:31:23.265
15.0, -137541.43715398756, -164706.7862399562, -7517.517509164514, -121519.63967319009, 75059.43775885555, -83737.1672674617, 46146.964567537856, -113417.37817733029, -0.008, 0.976, 0.036000000000000004, 192.0, 0.0, 0.0, 0.0, 0.0, 0.0, 0.0, 0.0, 0.0, 0.0, 1.6664058832658985E9, 0.0, 2022-10-21 19:31:23.265
16.0, -137660.7954693789, -164802.76463064726, -4984.394310044564, -121557.23530736391, 74976.31162122627, -81494.21441486054, 45989.74239703923, -113415.45592730712, -0.008, 0.976, 0.036000000000000004, 192.0, 0.0, 0.0, 0.0, 0.0, 0.0, 0.0, 0.0, 0.0, 0.0, 1.6664058832659316E9, 0.0, 2022-10-21 19:31:23.265
17.0, -137811.15565432975, -164778.0883047686, -1521.0138584391902, -121560.11868239865, 74928.61299855864, -79729.94652151424, 45872.75336656015, -113378.62025244479, -0.008, 0.976, 0.036000000000000004, 192.0, 0.0, 0.0, 30.0, 16.0, 1.0, 16.0, 0.0, 0.0, 0.0, 1.6664058832659636E9, 0.0, 2022-10-21 19:31:23.265
18.0, -137781.60664815982, -164775.7413716008, 3555.1343625944096, -121561.07980741022, 74885.56353873773, -78753.73408242871, 45781.98293232715, -113341.94103979363, -0.008, 0.976, 0.036000000000000004, 192.0, 0.0, 0.0, 0.0, 0.0, 0.0, 0.0, 0.0, 0.0, 0.0, 1.6664058832659984E9, 0.0, 2022-10-21 19:31:23.265
19.0, -137767.03331077498, -164808.62078769456, 9360.776467415866, -121601.00002300741, 74811.91454075748, -78296.0821147063, 45679.34372178838, -113312.5484958349, -0.008, 0.976, 0.036000000000000004, 192.0, 0.0, 0.0, 0.0, 0.0, 0.0, 0.0, 0.0, 0.0, 0.0, 1.6664058832660327E9, 0.0, 2022-10-21 19:31:23.266
20.0, -137734.55622608142, -164821.33893028964, 14665.42657201607, -121616.31096795929, 74764.66295297896, -78183.74224707393, 45574.804612970904, -113266.77212319043, -0.008, 0.976, 0.036000000000000004, 192.0, 0.0, 0.0, 0.0, 0.0, 0.0, 0.0, 0.0, 0.0, 0.0, 1.6664058832660668E9, 0.0, 2022-10-21 19:31:23.266
21.0, -137736.16555168218, -164874.49137860435, 19256.43017964723, -121644.34005550624, 74711.68931861989, -78003.92246293098, 45453.322881856315, -113253.1822625616, -0.008, 0.976, 0.036000000000000004, 192.0, 0.0, 0.0, 0.0, 0.0, 0.0, 0.0, 0.0, 0.0, 0.0, 1.6664058832660894E9, 0.0, 2022-10-21 19:31:23.266
22.0, -137708.5611472799, -164841.52255553278, 22872.09306622661, -121634.2594187569, 74702.21217897085, -77563.81661460598, 45378.60100014222, -113178.2145116585, -0.008, 0.976, 0.036000000000000004, 192.0, 0.0, 0.0, 0.0, 0.0, 0.0, 0.0, 0.0, 0.0, 0.0, 1.666405883266111E9, 0.0, 2022-10-21 19:31:23.266
23.0, -137690.65739997118, -164828.62559898206, 25592.657994348767, -121583.11862744315, 74728.72134789484, -77029.25229421286, 45344.73810729243, -113061.80662653525, -0.008, 0.976, 0.036000000000000004, 192.0, 0.0, 0.0, 0.0, 0.0, 0.0, 0.0, 0.0, 0.0, 0.0, 1.6664058832661319E9, 0.0, 2022-10-21 19:31:23.266
24.0, -137693.496071517, -164863.85194824362, 27947.43662445982, -121583.81153152128, 74711.46580117533, -76521.10773576591, 45267.26696101033, -113009.36943404311, -0.008, 0.976, 0.036000000000000004, 192.0, 0.0, 0.0, 0.0, 0.0, 0.0, 0.0, 0.0, 0.0, 0.0, 1.6664058832661529E9, 0.0, 2022-10-21 19:31:23.266
25.0, -137727.44837134462, -164854.1065876611, 29968.615468575415, -121588.88537751263, 74706.25784471726, -76059.61126799718, 45197.4177595875, -112952.32778219317, -0.008, 0.976, 0.036000000000000004, 192.0, 0.0, 0.0, 0.0, 0.0, 0.0, 0.0, 0.0, 0.0, 0.0, 1.666405883266175E9, 0.0, 2022-10-21 19:31:23.266
26.0, -137828.79118070498, -164847.1551951355, 31588.178168318056, -121591.23231068044, 74697.8312370576, -75713.2709876622, 45115.67743011444, -112902.39398508001, -0.008, 0.976, 0.036000000000000004, 192.0, 0.0, 0.0, 0.0, 0.0, 0.0, 0.0, 0.0, 0.0, 0.0, 1.6664058832661977E9, 0.0, 2022-10-21 19:31:23.266
27.0, -137816.54242474347, -164866.78002676726, 32879.41609375669, -121587.00783097839, 74707.0848592621, -75347.52939314001, 45058.07698465312, -112860.57387120413, 0.008, 0.9540000000000001, 0.038, 192.0, 0.0, 64.0, 29.0, 208.0, 1.0, 48.0, 0.0, 0.0, 0.0, 1.666405883266219E9, 0.0, 2022-10-21 19:31:23.266
28.0, -137861.58118982092, -164921.2288762604, 33748.58602864576, -121633.87943910116, 74673.08785594557, -75025.5078107724, 44956.48830610375, -112867.01117360726, 0.008, 0.9540000000000001, 0.038, 192.0, 0.0, 0.0, 0.0, 0.0, 0.0, 0.0, 0.0, 0.0, 0.0, 1.6664058832662475E9, 0.0, 2022-10-21 19:31:23.266
29.0, -137880.08843422993, -164964.8371296927, 34284.4914537062, -121634.57234317927, 74681.44740837187, -74760.08084536564, 44886.03560758062, -112828.32030395512, 0.008, 0.9540000000000001, 0.038, 192.0, 0.0, 0.0, 0.0, 0.0, 0.0, 0.0, 0.0, 0.0, 0.0, 1.6664058832662692E9, 0.0, 2022-10-21 19:31:23.266
30.0, -137859.72599503113, -164988.06059218178, 34688.5886417137, -121604.08456374223, 74718.26073148975, -74507.43907778729, 44850.16105772985, -112767.43415205886, 0.008, 0.9540000000000001, 0.038, 192.0, 0.0, 0.0, 0.0, 0.0, 0.0, 0.0, 0.0, 0.0, 0.0, 1.66640588326629E9, 0.0, 2022-10-21 19:31:23.266
31.0, -137866.63268406782, -164991.43570559451, 34969.997104406015, -121578.46946459645, 74742.13239456802, -74240.022807124, 44813.41478984532, -112722.77536663716, 0.008, 0.9540000000000001, 0.038, 192.0, 0.0, 0.0, 0.0, 0.0, 0.0, 0.0, 0.0, 0.0, 0.0, 1.6664058832663484E9, 0.0, 2022-10-21 19:31:23.266
32.0, -137867.03501546802, -164946.88867889508, 35080.97351562661, -121572.63565929362, 74756.7951389307, -73935.1003092647, 44767.19138231175, -112701.83178208253, 0.008, 0.9540000000000001, 0.038, 192.0, 0.0, 0.0, 0.0, 0.0, 0.0, 0.0, 0.0, 0.0, 0.0, 1.66640588326637E9, 0.0, 2022-10-21 19:31:23.266
33.0, -137856.8873234853, -164938.12679506862, 35123.53123706952, -121575.2955168838, 74755.7446069413, -73644.90761100146, 44691.17309941925, -112701.69767161581, 0.008, 0.9540000000000001, 0.038, 192.0, 0.0, 0.0, 0.0, 0.0, 0.0, 0.0, 0.0, 0.0, 0.0, 1.6664058832663913E9, 0.0, 2022-10-21 19:31:23.266
34.0, -137824.29848006947, -164969.55334777277, 35192.665182669785, -121576.1448831731, 74763.07597912264, -73369.06473267851, 44624.16256954224, -112693.56163663407, 0.008, 0.9540000000000001, 0.038, 192.0, 0.0, 0.0, 0.0, 0.0, 0.0, 0.0, 0.0, 0.0, 0.0, 1.6664058832664125E9, 0.0, 2022-10-21 19:31:23.266
35.0, -137891.55487913548, -165023.5998658657, 35281.69218083527, -121565.5948597902, 74776.95641242938, -73095.83700845683, 44574.47464161809, -112680.23999693872, 0.008, 0.9540000000000001, 0.038, 192.0, 0.0, 0.0, 0.0, 0.0, 0.0, 0.0, 0.0, 0.0, 0.0, 1.6664058832664337E9, 0.0, 2022-10-21 19:31:23.266
36.0, -137983.0182174466, -165045.0128370539, 35318.6843179088, -121576.88249074013, 74779.05747640818, -72867.8492150127, 44513.36497227728, -112679.65885158288, 0.008, 0.9540000000000001, 0.038, 192.0, 0.0, 0.0, 0.0, 0.0, 0.0, 0.0, 0.0, 0.0, 0.0, 1.6664058832664688E9, 0.0, 2022-10-21 19:31:23.266
37.0, -137931.6539086883, -165017.27432218485, 35306.83789334749, -121568.72410401393, 74804.58316857615, -72683.82730291216, 44462.38064317473, -112662.31389788556, 0.018000000000000002, 0.9580000000000001, 0.044, 192.0, 0.0, 144.0, 29.0, 240.0, 1.0, 96.0, 0.0, 0.0, 0.0, 1.66640588326649E9, 0.0, 2022-10-21 19:31:23.266
38.0, -137977.89966796633, -165058.98267733844, 35260.614485813916, -121567.78533074682, 74817.01073849329, -72517.48562067577, 44410.25637510495, -112662.62682230792, 0.018000000000000002, 0.9580000000000001, 0.044, 192.0, 0.0, 0.0, 0.0, 0.0, 0.0, 0.0, 0.0, 0.0, 0.0, 1.6664058832665124E9, 0.0, 2022-10-21 19:31:23.266
39.0, -138067.5972184655, -165108.6259017737, 35253.55133456604, -121572.27803138233, 74813.25564542481, -72325.75235673814, 44369.64325542966, -112667.63361306592, 0.018000000000000002, 0.9580000000000001, 0.044, 192.0, 0.0, 0.0, 0.0, 0.0, 0.0, 0.0, 0.0, 0.0, 0.0, 1.6664058832665331E9, 0.0, 2022-10-21 19:31:23.266
40.0, -138028.9734040467, -165082.58611948325, 35261.530907336586, -121549.36749331564, 74830.4664886554, -72119.4234036712, 44349.48198193097, -112655.92129897134, 0.018000000000000002, 0.9580000000000001, 0.044, 192.0, 0.0, 0.0, 0.0, 0.0, 0.0, 0.0, 0.0, 0.0, 0.0, 1.6664058832665544E9, 0.0, 2022-10-21 19:31:23.266
41.0, -138101.3930560819, -165127.55782932733, 34944.22554304905, -121560.7445312434, 74813.00977623579, -71996.22058823354, 44286.04773116681, -112672.3945346349, 0.018000000000000002, 0.9580000000000001, 0.044, 192.0, 0.0, 0.0, 0.0, 0.0, 0.0, 0.0, 0.0, 0.0, 0.0, 1.666405883266576E9, 0.0, 2022-10-21 19:31:23.266
42.0, -138140.01687050067, -165156.95037328606, 34523.56571240017, -121521.42781274651, 74840.6141806381, -71853.4599963975, 44278.26932409636, -112651.3838948469, 0.018000000000000002, 0.9580000000000001, 0.044, 192.0, 0.0, 0.0, 0.0, 0.0, 0.0, 0.0, 0.0, 0.0, 0.0, 1.6664058832665968E9, 0.0, 2022-10-21 19:31:23.266
43.0, -138108.1879863963, -165130.2847421509, 33982.049999481445, -121468.20830919842, 74866.1175210616, -71690.87340722959, 44291.836832980734, -112637.07877839552, 0.018000000000000002, 0.9580000000000001, 0.044, 192.0, 0.0, 0.0, 0.0, 0.0, 0.0, 0.0, 0.0, 0.0, 0.0, 1.6664058832666178E9, 0.0, 2022-10-21 19:31:23.266
44.0, -138082.61759073945, -165136.74439629845, 32853.845698099816, -121433.67486401497, 74874.11944557661, -71560.20510914388, 44291.836832980734, -112647.69585701179, 0.018000000000000002, 0.9580000000000001, 0.044, 192.0, 0.0, 0.0, 0.0, 0.0, 0.0, 0.0, 0.0, 0.0, 0.0, 1.6664058832666383E9, 0.0, 2022-10-21 19:31:23.266
45.0, -138109.3949805969, -165152.05534125035, 31486.52243453532, -121421.24729409782, 74874.16414906552, -71472.80978832362, 44285.421882322065, -112659.58698506201, 0.018000000000000002, 0.9580000000000001, 0.044, 192.0, 0.0, 0.0, 0.0, 0.0, 0.0, 0.0, 0.0, 0.0, 0.0, 1.666405883266659E9, 0.0, 2022-10-21 19:31:23.266
46.0, -138163.68736787885, -165165.3322774568, 30021.209123278753, -121434.07719541517, 74843.60931439511, -71429.84973548051, 44253.19066681751, -112700.98241579323, 0.018000000000000002, 0.962, 0.036000000000000004, 192.0, 0.0, 144.0, 30.0, 16.0, 1.0, 32.0, 0.0, 0.0, 0.0, 1.6664058832666986E9, 0.0, 2022-10-21 19:31:23.266
47.0, -138130.89735876292, -165132.51991659641, 28478.29055527336, -121388.81491289317, 74865.40226523904, -71375.82556913204, 44276.123556628656, -112680.79879055009, 0.018000000000000002, 0.962, 0.036000000000000004, 192.0, 0.0, 0.0, 0.0, 0.0, 0.0, 0.0, 0.0, 0.0, 0.0, 1.6664058832667243E9, 0.0, 2022-10-21 19:31:23.266
48.0, -138127.0975622055, -165127.51312583842, 25936.405472326933, -121322.05025220517, 74915.06784141873, -71346.34361819549, 44313.74154254694, -112658.42469435034, 0.018000000000000002, 0.962, 0.036000000000000004, 192.0, 0.0, 0.0, 0.0, 0.0, 0.0, 0.0, 0.0, 0.0, 0.0, 1.6664058832667458E9, 0.0, 2022-10-21 19:31:23.266
49.0, -138174.2150395173, -165162.87358556673, 22535.453442985232, -121315.14356316849, 74910.17280938302, -71370.95288884078, 44301.693952285525, -112702.56938964956, 0.018000000000000002, 0.962, 0.036000000000000004, 192.0, 0.0, 0.0, 0.0, 0.0, 0.0, 0.0, 0.0, 0.0, 0.0, 1.666405883266769E9, 0.0, 2022-10-21 19:31:23.266
50.0, -138171.0634435491, -165158.17971923112, 19100.862038238294, -121273.90459464844, 74935.76555678435, -71395.4056972749, 44327.17494096458, -112704.02225303916, 0.018000000000000002, 0.962, 0.036000000000000004, 192.0, 0.0, 0.0, 0.0, 0.0, 0.0, 0.0, 0.0, 0.0, 0.0, 1.6664058832667904E9, 0.0, 2022-10-21 19:31:23.266
51.0, -138190.1741850584, -165130.73177704, 15443.893127905505, -121252.04458857115, 74934.35739688366, -71408.19089510333, 44346.643310385145, -112741.68494244636, 0.018000000000000002, 0.962, 0.036000000000000004, 192.0, 0.0, 0.0, 0.0, 0.0, 0.0, 0.0, 0.0, 0.0, 0.0, 1.6664058832668107E9, 0.0, 2022-10-21 19:31:23.266
52.0, -138182.0157983322, -165102.25565460394, 12218.826975682614, -121210.53739911765, 74946.04735923378, -71389.05780184959, 44382.093177091265, -112764.8189979576, 0.018000000000000002, 0.962, 0.036000000000000004, 192.0, 0.0, 0.0, 0.0, 0.0, 0.0, 0.0, 0.0, 0.0, 0.0, 1.6664058832668314E9, 0.0, 2022-10-21 19:31:23.266
53.0, -138181.68052216538, -165127.28960839388, 9070.024975541231, -121174.86401496698, 74961.13478674112, -71361.05106604709, 44417.00660193046, -112778.67707951988, 0.018000000000000002, 0.962, 0.036000000000000004, 192.0, 0.0, 0.0, 0.0, 0.0, 0.0, 0.0, 0.0, 0.0, 0.0, 1.666405883266852E9, 0.0, 2022-10-21 19:31:23.266
54.0, -138150.92452179486, -165107.59772152876, 5606.398654746849, -121150.97000014425, 74966.0968740102, -71370.17057778485, 44427.467218335536, -112807.19790544486, 0.018000000000000002, 0.962, 0.036000000000000004, 192.0, 0.0, 0.0, 0.0, 0.0, 0.0, 0.0, 0.0, 0.0, 0.0, 1.6664058832668724E9, 0.0, 2022-10-21 19:31:23.266
55.0, -138156.3559956975, -165104.468477305, 3630.1691687308753, -121133.75915691367, 74974.47877818094, -71294.1746466368, 44463.47587865304, -112830.7789958452, 0.018000000000000002, 0.962, 0.036000000000000004, 192.0, 0.0, 0.0, 0.0, 0.0, 0.0, 0.0, 0.0, 0.0, 0.0, 1.6664058832668936E9, 0.0, 2022-10-21 19:31:23.266
56.0, -138172.62806566097, -165110.7269657525, 2451.9416632582743, -121146.47729950874, 74957.26793495035, -71207.22636070567, 44475.97050380355, -112882.76915344824, 0.018000000000000002, 0.962, 0.036000000000000004, 192.0, 0.0, 0.0, 29.0, 192.0, 0.0, 208.0, 0.0, 0.0, 0.0, 1.666405883266914E9, 0.0, 2022-10-21 19:31:23.266
57.0, -138149.85163806102, -165114.14678265416, 1081.8020798924065, -121134.67557843633, 74979.73143812793, -71116.67944391721, 44513.56613797738, -112918.24137189882, 0.018000000000000002, 0.962, 0.036000000000000004, 192.0, 0.0, 0.0, 0.0, 0.0, 0.0, 0.0, 0.0, 0.0, 0.0, 1.6664058832669356E9, 0.0, 2022-10-21 19:31:23.266
58.0, -138148.97992002725, -165137.0796724653, 327.2518905701507, -121137.78247091563, 74990.9520138445, -71043.14220465925, 44538.53303653396, -112953.33361069365, 0.018000000000000002, 0.962, 0.036000000000000004, 192.0, 0.0, 0.0, 0.0, 0.0, 0.0, 0.0, 0.0, 0.0, 0.0, 1.6664058832669563E9, 0.0, 2022-10-21 19:31:23.266
59.0, -138139.94981526732, -165148.34495167076, 50.93962561364479, -121129.84760163398, 75012.47674375496, -70958.92083155166, 44574.49699336255, -112978.38991622806, 0.018000000000000002, 0.962, 0.036000000000000004, 192.0, 0.0, 0.0, 0.0, 0.0, 0.0, 0.0, 0.0, 0.0, 0.0, 1.6664058832669773E9, 0.0, 2022-10-21 19:31:23.266
60.0, -138149.62812061646, -165134.8892015087, -103.35446636133986, -121154.70274146828, 75008.56518847527, -70838.98137080448, 44603.04017103198, -113033.55402154375, 0.018000000000000002, 0.962, 0.036000000000000004, 192.0, 0.0, 0.0, 0.0, 0.0, 0.0, 0.0, 0.0, 0.0, 0.0, 1.666405883267001E9, 0.0, 2022-10-21 19:31:23.267
61.0, -138147.41529791537, -165123.2662943919, -240.5494738280146, -121160.06716013757, 75012.23087456595, -70738.89025913361, 44629.75050565607, -113080.73855408891, 0.018000000000000002, 0.962, 0.036000000000000004, 192.0, 0.0, 0.0, 0.0, 0.0, 0.0, 0.0, 0.0, 0.0, 0.0, 1.6664058832670405E9, 0.0, 2022-10-21 19:31:23.267
62.0, -138157.22771373126, -165139.6277713332, -178.38927249780568, -121185.88342498345, 75006.86645589667, -70659.80978725074, 44648.01188087605, -113142.09409261872, 0.018000000000000002, 0.962, 0.036000000000000004, 192.0, 0.0, 0.0, 0.0, 0.0, 0.0, 0.0, 0.0, 0.0, 0.0, 1.666405883267062E9, 0.0, 2022-10-21 19:31:23.267
63.0, -138127.87987326144, -165152.99411451747, 249.64663382132457, -121205.66471882639, 75014.53310424485, -70587.50189393782, 44683.28293362653, -113184.49535185043, 0.018000000000000002, 0.962, 0.036000000000000004, 192.0, 0.0, 0.0, 0.0, 0.0, 0.0, 0.0, 0.0, 0.0, 0.0, 1.6664058832670825E9, 0.0, 2022-10-21 19:31:23.267
64.0, -138098.62143976946, -165126.5743525713, 946.730488148986, -121230.36339644951, 75014.44369726702, -70509.00256741077, 44722.9572800347, -113224.25910523643, 0.018000000000000002, 0.962, 0.036000000000000004, 192.0, 0.0, 0.0, 0.0, 0.0, 0.0, 0.0, 0.0, 0.0, 0.0, 1.666405883267103E9, 0.0, 2022-10-21 19:31:23.267
65.0, -138113.82062599907, -165134.44216661958, 1328.677097401273, -121256.55964095112, 75018.01997637987, -70441.2320782223, 44763.57039970999, -113253.07050383932, 0.018000000000000002, 0.962, 0.036000000000000004, 192.0, 0.0, 0.0, 0.0, 0.0, 0.0, 0.0, 0.0, 0.0, 0.0, 1.666405883267124E9, 0.0, 2022-10-21 19:31:23.267
66.0, -138114.78175101063, -165142.9805330015, 1487.3074278005872, -121303.72182175182, 75028.41353755159, -70408.71029003982, 44798.39441757136, -113306.93820797661, 0.008, 0.9560000000000001, 0.02, 192.0, 0.0, 64.0, 29.0, 224.0, 0.0, 160.0, 0.0, 0.0, 0.0, 1.6664058832671454E9, 0.0, 2022-10-21 19:31:23.267
67.0, -138100.2978206036, -165151.69771333906, 1711.6742386429596, -121369.68181963943, 75027.09478462873, -70391.43239157586, 44822.26608064963, -113387.20332231562, 0.008, 0.9560000000000001, 0.02, 192.0, 0.0, 0.0, 0.0, 0.0, 0.0, 0.0, 0.0, 0.0, 0.0, 1.6664058832671676E9, 0.0, 2022-10-21 19:31:23.267
68.0, -138161.54160041115, -165207.51001924396, 1999.96703862751, -121447.57764906618, 75000.67502268255, -70364.2079668293, 44828.055182463555, -113513.33421627691, 0.008, 0.9560000000000001, 0.02, 192.0, 0.0, 0.0, 0.0, 0.0, 0.0, 0.0, 0.0, 0.0, 0.0, 1.6664058832671883E9, 0.0, 2022-10-21 19:31:23.267
69.0, -138169.11884178148, -165190.8356178803, 2362.244112759127, -121484.79330358426, 75009.0569268533, -70308.68623360232, 44872.53515392961, -113577.059039719, 0.008, 0.9560000000000001, 0.02, 192.0, 0.0, 0.0, 0.0, 0.0, 0.0, 0.0, 0.0, 0.0, 0.0, 1.6664058832672095E9, 0.0, 2022-10-21 19:31:23.267
70.0, -138109.46203583028, -165156.16806223014, 2692.804061508663, -121514.11879230963, 75028.79351720733, -70256.15963413235, 44923.69829698781, -113614.27469423709, 0.008, 0.9560000000000001, 0.02, 192.0, 0.0, 0.0, 0.0, 0.0, 0.0, 0.0, 0.0, 0.0, 0.0, 1.6664058832672322E9, 0.0, 2022-10-21 19:31:23.267
71.0, -138118.8944719904, -165206.72770818803, 2988.9423237970263, -121529.63090296161, 75051.83816574076, -70245.29668632707, 44969.474669632276, -113641.11913932792, 0.008, 0.9560000000000001, 0.02, 192.0, 0.0, 0.0, 0.0, 0.0, 0.0, 0.0, 0.0, 0.0, 0.0, 1.6664058832672527E9, 0.0, 2022-10-21 19:31:23.267
72.0, -138133.49016111973, -165209.40991752266, 3257.386774705264, -121556.83297596371, 75059.79538676684, -70215.50181096814, 45011.58535618608, -113683.34158460399, 0.008, 0.9560000000000001, 0.02, 192.0, 0.0, 0.0, 0.0, 0.0, 0.0, 0.0, 0.0, 0.0, 0.0, 1.6664058832672734E9, 0.0, 2022-10-21 19:31:23.267
73.0, -138122.850730759, -165207.8005919219, 3611.706627810792, -121584.5938425772, 75058.45428209953, -70170.10541797942, 45051.483220038805, -113717.42799489833, 0.008, 0.9560000000000001, 0.02, 192.0, 0.0, 0.0, 0.0, 0.0, 0.0, 0.0, 0.0, 0.0, 0.0, 1.666405883267287E9, 0.0, 2022-10-21 19:31:23.267
74.0, -138123.02954471463, -165231.0464061554, 3932.2529950443504, -121597.58020610575, 75070.41246538311, -70153.63218231585, 45093.23627868132, -113733.36478869496, 0.008, 0.9560000000000001, 0.02, 192.0, 0.0, 0.0, 0.0, 0.0, 0.0, 0.0, 0.0, 0.0, 0.0, 1.6664058832672977E9, 0.0, 2022-10-21 19:31:23.267
75.0, -138116.3910766114, -165225.61493225276, 4115.090264688762, -121630.83960185524, 75075.218090441, -70175.06750524849, 45116.86207257058, -113760.7009721638, -0.002, 0.964, 0.03, 192.0, 255.0, 240.0, 30.0, 32.0, 0.0, 240.0, 0.0, 0.0, 0.0, 1.6664058832673087E9, 0.0, 2022-10-21 19:31:23.267
76.0, -138126.38230638293, -165229.81706021036, 4324.2355375570705, -121645.79291889584, 75092.94302379407, -70168.42903714527, 45162.16905858148, -113761.81855938656, -0.002, 0.964, 0.03, 192.0, 0.0, 0.0, 0.0, 0.0, 0.0, 0.0, 0.0, 0.0, 0.0, 1.6664058832673297E9, 0.0, 2022-10-21 19:31:23.267
77.0, -138179.82532737558, -165288.04335451644, 4582.174668571314, -121681.80157921334, 75091.8254365713, -70154.99563872763, 45198.58005029918, -113779.27527180617, -0.002, 0.964, 0.03, 192.0, 0.0, 0.0, 0.0, 0.0, 0.0, 0.0, 0.0, 0.0, 0.0, 1.6664058832673404E9, 0.0, 2022-10-21 19:31:23.267
78.0, -138184.1615657999, -165258.9637349801, 4767.291816150167, -121703.90745447963, 75112.09846879226, -70137.44951933021, 45251.3301672137, -113782.2033503298, -0.002, 0.964, 0.03, 192.0, 0.0, 0.0, 0.0, 0.0, 0.0, 0.0, 0.0, 0.0, 0.0, 1.6664058832673512E9, 0.0, 2022-10-21 19:31:23.267
79.0, -138170.2140772598, -165253.8004820109, 4903.570402094174, -121731.95889377105, 75122.91671310863, -70141.00344669861, 45289.238725809904, -113794.38505105795, -0.002, 0.964, 0.03, 192.0, 0.0, 0.0, 0.0, 0.0, 0.0, 0.0, 0.0, 0.0, 0.0, 1.666405883267362E9, 0.0, 2022-10-21 19:31:23.267
80.0, -138203.38406603146, -165290.01030802852, 5030.841235022693, -121760.34560922929, 75125.93419861009, -70139.46117633118, 45323.88392971563, -113815.59685654604, -0.002, 0.964, 0.03, 192.0, 0.0, 0.0, 0.0, 0.0, 0.0, 0.0, 0.0, 0.0, 0.0, 1.6664058832673724E9, 0.0, 2022-10-21 19:31:23.267
81.0, -138215.49871152625, -165289.67503186167, 5140.767114253893, -121790.00637412148, 75125.42010848763, -70111.92382716225, 45366.88868604764, -113831.75716778722, -0.002, 0.964, 0.03, 192.0, 0.0, 0.0, 0.0, 0.0, 0.0, 0.0, 0.0, 0.0, 0.0, 1.6664058832673829E9, 0.0, 2022-10-21 19:31:23.267
82.0, -138234.2741768687, -165297.65460463223, 5249.061316139855, -121826.1044414168, 75113.66309090413, -70101.12793459033, 45394.448386961034, -113859.71920010081, -0.002, 0.964, 0.03, 192.0, 0.0, 0.0, 0.0, 0.0, 0.0, 0.0, 0.0, 0.0, 0.0, 1.6664058832673934E9, 0.0, 2022-10-21 19:31:23.267
83.0, -138230.5190838002, -165288.0657062609, 5412.653733808248, -121814.36977557777, 75156.82430944733, -70095.4505914987, 45461.74948951596, -113836.85336552303, -0.002, 0.964, 0.03, 192.0, 0.0, 0.0, 0.0, 0.0, 0.0, 0.0, 0.0, 0.0, 0.0, 1.666405883267404E9, 0.0, 2022-10-21 19:31:23.267
84.0, -138283.24684897027, -165312.04912806145, 5519.5174240490705, -121852.59125859634, 75151.23637333351, -70114.94131266372, 45491.67847534162, -113857.88635705548, -0.002, 0.964, 0.03, 192.0, 0.0, 0.0, 0.0, 0.0, 0.0, 0.0, 0.0, 0.0, 0.0, 1.6664058832674143E9, 0.0, 2022-10-21 19:31:23.267
85.0, -138319.81430289918, -165312.69732865065, 5636.797027206067, -121897.96529984061, 75137.44534700458, -70095.76351592106, 45533.38683049522, -113888.5753021926, 0.004, 0.9560000000000001, 0.028, 192.0, 0.0, 32.0, 29.0, 224.0, 0.0, 224.0, 0.0, 0.0, 0.0, 1.666405883267425E9, 0.0, 2022-10-21 19:31:23.267
86.0, -138294.35566596457, -165313.8149158734, 5779.311749853105, -121910.23640754657, 75147.34716979827, -70066.16980626223, 45588.9085637222, -113903.05923259965, 0.004, 0.9560000000000001, 0.028, 192.0, 0.0, 0.0, 0.0, 0.0, 0.0, 0.0, 0.0, 0.0, 0.0, 1.666405883267436E9, 0.0, 2022-10-21 19:31:23.267
87.0, -138278.82120356814, -165305.2094942581, 5905.532050792223, -121928.16250659974, 75159.2382978485, -70047.57315487543, 45632.58387238788, -113919.19719209638, 0.004, 0.9560000000000001, 0.028, 192.0, 0.0, 0.0, 0.0, 0.0, 0.0, 0.0, 0.0, 0.0, 0.0, 1.6664058832674468E9, 0.0, 2022-10-21 19:31:23.267
88.0, -138314.6957534189, -165334.7361486836, 6002.3151042837035, -121959.14202441479, 75158.32187632583, -70061.49829167107, 45658.75776514504, -113944.11938716406, 0.004, 0.9560000000000001, 0.028, 192.0, 0.0, 0.0, 0.0, 0.0, 0.0, 0.0, 0.0, 0.0, 0.0, 1.6664058832674572E9, 0.0, 2022-10-21 19:31:23.267
89.0, -138322.2953465337, -165349.91298316873, 6097.242962985392, -121983.88540552682, 75159.81944320434, -70079.20087327968, 45696.55456501896, -113954.80352101369, 0.004, 0.9560000000000001, 0.028, 192.0, 0.0, 0.0, 0.0, 0.0, 0.0, 0.0, 0.0, 0.0, 0.0, 1.666405883267468E9, 0.0, 2022-10-21 19:31:23.267
90.0, -138335.8628554181, -165334.51263123902, 6188.169859429581, -122011.44510644021, 75162.97103917254, -70044.66742809623, 45740.363984151365, -113978.51872188077, 0.004, 0.9560000000000001, 0.028, 192.0, 0.0, 0.0, 0.0, 0.0, 0.0, 0.0, 0.0, 0.0, 0.0, 1.6664058832674785E9, 0.0, 2022-10-21 19:31:23.267
91.0, -138330.11845709308, -165333.3726922718, 6297.849869471774, -122019.62584491086, 75186.68624003962, -70029.40118663326, 45785.3580457399, -113975.32242242366, 0.004, 0.9560000000000001, 0.028, 192.0, 0.0, 0.0, 0.0, 0.0, 0.0, 0.0, 0.0, 0.0, 0.0, 1.6664058832674992E9, 0.0, 2022-10-21 19:31:23.267
92.0, -138336.8016286852, -165370.0295531785, 6389.0226351049705, -122044.0563016005, 75189.23433890752, -70046.36616067484, 45812.560118742, -113987.34766094062, 0.004, 0.9560000000000001, 0.028, 192.0, 0.0, 0.0, 0.0, 0.0, 0.0, 0.0, 0.0, 0.0, 0.0, 1.6664058832675111E9, 0.0, 2022-10-21 19:31:23.267
93.0, -138331.9065966495, -165368.35317234436, 6498.412072469244, -122062.25062158713, 75195.20225467709, -70034.96677100263, 45859.208209420234, -113986.07361150667, 0.004, 0.9560000000000001, 0.028, 192.0, 0.0, 0.0, 0.0, 0.0, 0.0, 0.0, 0.0, 0.0, 0.0, 1.666405883267522E9, 0.0, 2022-10-21 19:31:23.267
94.0, -138331.5489687382, -165351.6340674918, 6600.447785907721, -122079.68498226226, 75203.87473152575, -69991.49262803706, 45913.96998333574, -113979.34573642562, 0.004, 0.9560000000000001, 0.028, 192.0, 0.0, 0.0, 0.0, 0.0, 0.0, 0.0, 0.0, 0.0, 0.0, 1.6664058832675328E9, 0.0, 2022-10-21 19:31:23.267
95.0, -138350.03386140274, -165363.36873333083, 6680.2211618687115, -122110.7762587996, 75195.91751049967, -69981.27788082098, 45942.535512749615, -113990.36514644208, 0.006, 0.9560000000000001, 0.03, 192.0, 0.0, 48.0, 29.0, 224.0, 0.0, 240.0, 0.0, 0.0, 0.0, 1.6664058832675436E9, 0.0, 2022-10-21 19:31:23.267
96.0, -138341.0037566428, -165369.24724212257, 6767.348261755498, -122128.18826773028, 75196.76687678897, -69989.8162472029, 45975.92901896584, -114009.02885306226, 0.006, 0.9560000000000001, 0.03, 192.0, 0.0, 0.0, 0.0, 0.0, 0.0, 0.0, 0.0, 0.0, 0.0, 1.6664058832675543E9, 0.0, 2022-10-21 19:31:23.267
97.0, -138314.0475528297, -165359.59128851787, 6884.091423045567, -122117.14650596936, 75227.29935971492, -69975.28761330695, 46035.74228712825, -113992.66737612098, 0.006, 0.9560000000000001, 0.03, 192.0, 0.0, 0.0, 0.0, 0.0, 0.0, 0.0, 0.0, 0.0, 0.0, 1.666405883267566E9, 0.0, 2022-10-21 19:31:23.267
98.0, -138340.1990938424, -165396.22579768012, 6968.737479297814, -122133.70914861074, 75224.10306025781, -69980.27205232049, 46069.76164218922, -114000.13285876905, 0.006, 0.9560000000000001, 0.03, 192.0, 0.0, 0.0, 0.0, 0.0, 0.0, 0.0, 0.0, 0.0, 0.0, 1.6664058832675767E9, 0.0, 2022-10-21 19:31:23.267
99.0, -138337.38277404103, -165373.87405322483, 7054.121143117088, -122147.27665749511, 75226.82997308135, -69972.65010746123, 46105.07739842861, -114015.73437639886, 0.006, 0.9560000000000001, 0.03, 192.0, 0.0, 0.0, 0.0, 0.0, 0.0, 0.0, 0.0, 0.0, 0.0, 1.6664058832675877E9, 0.0, 2022-10-21 19:31:23.267
100.0, -138338.43330603043, -165393.36477438986, 7127.144292252576, -122176.333925287, 75216.01172876498, -69987.53636926846, 46120.544805591686, -114045.01516163531, 0.006, 0.9560000000000001, 0.03, 192.0, 0.0, 0.0, 0.0, 0.0, 0.0, 0.0, 0.0, 0.0, 0.0, 1.6664058832675984E9, 0.0, 2022-10-21 19:31:23.267
101.0, -138362.14850689753, -165430.04398704102, 7208.012903691877, -122195.73523947422, 75207.87569378325, -70021.44396560716, 46144.34941343658, -114055.43107455148, 0.006, 0.9560000000000001, 0.03, 192.0, 0.0, 0.0, 0.0, 0.0, 0.0, 0.0, 0.0, 0.0, 0.0, 1.6664058832676091E9, 0.0, 2022-10-21 19:31:23.267
102.0, -138306.3362009926, -165363.23462286408, 7321.8279864583, -122177.7867886766, 75235.61420865229, -69998.06404090692, 46209.2588793348, -114037.3708650316, 0.006, 0.9560000000000001, 0.03, 192.0, 0.0, 0.0, 0.0, 0.0, 0.0, 0.0, 0.0, 0.0, 0.0, 1.6664058832676196E9, 0.0, 2022-10-21 19:31:23.267
103.0, -138312.5499859512, -165369.96249794515, 7403.70242639809, -122189.87908242692, 75239.95044707661, -69992.7219739821, 46242.49592333984, -114052.12301637209, 0.006, 0.9560000000000001, 0.03, 192.0, 0.0, 0.0, 0.0, 0.0, 0.0, 0.0, 0.0, 0.0, 0.0, 1.6664058832676303E9, 0.0, 2022-10-21 19:31:23.267
104.0, -138326.6986401914, -165384.51348358556, 7471.8305434978665, -122212.65551002689, 75234.87660108526, -70018.29236963896, 46256.62222583559, -114068.75271424685, 0.006, 0.9560000000000001, 0.03, 192.0, 0.0, 0.0, 0.0, 0.0, 0.0, 0.0, 0.0, 0.0, 0.0, 1.6664058832676413E9, 0.0, 2022-10-21 19:31:23.267
105.0, -138301.26235500126, -165384.9381667302, 7575.430879048215, -122191.75662896117, 75265.5655462224, -70026.92014299872, 46313.03802884079, -114037.14734758704, 0.004, 0.964, 0.038, 192.0, 0.0, 32.0, 30.0, 32.0, 1.0, 48.0, 0.0, 0.0, 0.0, 1.6664058832676518E9, 0.0, 2022-10-21 19:31:23.267
106.0, -138316.1486168085, -165403.78068730602, 7645.391839193326, -122197.32221333054, 75266.68313344517, -70033.15627970175, 46347.54912227978, -114046.17745234698, 0.004, 0.964, 0.038, 192.0, 0.0, 0.0, 0.0, 0.0, 0.0, 0.0, 0.0, 0.0, 0.0, 1.666405883267663E9, 0.0, 2022-10-21 19:31:23.267
107.0, -138283.69388385938, -165358.94308792867, 7726.774540755098, -122202.0384314106, 75274.03685737096, -70027.4789366101, 46375.89113424911, -114058.96265017542, 0.004, 0.964, 0.038, 192.0, 0.0, 0.0, 0.0, 0.0, 0.0, 0.0, 0.0, 0.0, 0.0, 1.6664058832676835E9, 0.0, 2022-10-21 19:31:23.267
108.0, -138256.22358992381, -165356.61850650533, 7807.5313934721225, -122210.30857685907, 75281.81526444141, -70046.14264323028, 46395.56066936978, -114060.9743071764, 0.004, 0.964, 0.038, 192.0, 0.0, 0.0, 0.0, 0.0, 0.0, 0.0, 0.0, 0.0, 0.0, 1.6664058832676945E9, 0.0, 2022-10-21 19:31:23.267
109.0, -138262.54913360468, -165375.2822131255, 7880.956874007807, -122220.36686186396, 75278.93188940667, -70082.71009715916, 46406.535375897336, -114076.1287899171, 0.004, 0.964, 0.038, 192.0, 0.0, 0.0, 0.0, 0.0, 0.0, 0.0, 0.0, 0.0, 0.0, 1.6664058832677057E9, 0.0, 2022-10-21 19:31:23.267
110.0, -138282.62100012554, -165382.74769577358, 7949.844950419063, -122239.03056848414, 75264.78323516647, -70103.6983852027, 46420.371105715174, -114094.50192385935, 0.004, 0.964, 0.038, 192.0, 0.0, 0.0, 0.0, 0.0, 0.0, 0.0, 0.0, 0.0, 0.0, 1.666405883267717E9, 0.0, 2022-10-21 19:31:23.267
111.0, -138282.73275884782, -165401.47845762712, 8011.8039860491745, -122261.40466468391, 75254.99317109503, -70104.59245498091, 46437.04550707883, -114104.40374665306, 0.004, 0.964, 0.038, 192.0, 0.0, 0.0, 0.0, 0.0, 0.0, 0.0, 0.0, 0.0, 0.0, 1.6664058832677276E9, 0.0, 2022-10-21 19:31:23.267
112.0, -138240.64442403847, -165370.11896015634, 8121.416940858, -122223.0490711986, 75303.96584319662, -70091.67314668575, 46490.287362371375, -114065.33289734519, 0.004, 0.964, 0.038, 192.0, 0.0, 0.0, 0.0, 0.0, 0.0, 0.0, 0.0, 0.0, 0.0, 1.6664058832677393E9, 0.0, 2022-10-21 19:31:23.267
113.0, -138259.21872368082, -165395.3317279019, 8186.0805375672035, -122237.53300160564, 75303.80938098543, -70113.4437457852, 46506.04534221236, -114064.26001361133, 0.004, 0.964, 0.038, 192.0, 0.0, 0.0, 0.0, 0.0, 0.0, 0.0, 0.0, 0.0, 0.0, 1.6664058832677515E9, 0.0, 2022-10-21 19:31:23.267
114.0, -138231.3237466006, -165373.67288752474, 8264.848085027705, -122238.98586499524, 75306.33512810888, -70110.31450156147, 46535.75081059347, -114066.94222294596, 0.004, 0.96, 0.038, 192.0, 0.0, 32.0, 30.0, 0.0, 1.0, 48.0, 0.0, 0.0, 0.0, 1.6664058832677622E9, 0.0, 2022-10-21 19:31:23.267
115.0, -138225.46758955333, -165353.46691053713, 8340.106408608724, -122238.80705103959, 75311.99011945607, -70094.22124555365, 46562.438793473106, -114069.87030146961, 0.004, 0.96, 0.038, 192.0, 0.0, 0.0, 0.0, 0.0, 0.0, 0.0, 0.0, 0.0, 0.0, 1.6664058832677734E9, 0.0, 2022-10-21 19:31:23.267
116.0, -138246.0758979411, -165387.06158245346, 8399.450290137565, -122250.67582734536, 75309.19615139916, -70114.78485045253, 46563.31051150686, -114079.70506902994, 0.004, 0.96, 0.038, 192.0, 0.0, 0.0, 0.0, 0.0, 0.0, 0.0, 0.0, 0.0, 0.0, 1.666405883267784E9, 0.0, 2022-10-21 19:31:23.267
117.0, -138224.99820291976, -165364.15104438676, 8469.254788071488, -122248.46300464429, 75317.64511080326, -70162.12584520887, 46568.585523198315, -114079.34744111866, 0.004, 0.96, 0.038, 192.0, 0.0, 0.0, 0.0, 0.0, 0.0, 0.0, 0.0, 0.0, 0.0, 1.6664058832677946E9, 0.0, 2022-10-21 19:31:23.267
118.0, -138221.04194415116, -165382.99356496258, 8540.087466250357, -122235.40958588239, 75334.45362263365, -70176.14038898234, 46598.156881112685, -114066.9198712015, 0.004, 0.96, 0.038, 192.0, 0.0, 0.0, 0.0, 0.0, 0.0, 0.0, 0.0, 0.0, 0.0, 1.666405883267805E9, 0.0, 2022-10-21 19:31:23.267
119.0, -138212.34711555805, -165383.95468997417, 8585.774431917003, -122250.67582734536, 75327.61398883033, -70168.31727842298, 46615.54653829891, -114078.69924052946, 0.004, 0.96, 0.038, 192.0, 0.0, 0.0, 0.0, 0.0, 0.0, 0.0, 0.0, 0.0, 0.0, 1.666405883267816E9, 0.0, 2022-10-21 19:31:23.267
120.0, -138178.372463986, -165348.16954710122, 8665.81602881146, -122232.14623119192, 75348.9822565296, -70160.58357484145, 46645.43082063566, -114058.35915307513, 0.004, 0.96, 0.038, 192.0, 0.0, 0.0, 0.0, 0.0, 0.0, 0.0, 0.0, 0.0, 0.0, 1.6664058832678273E9, 0.0, 2022-10-21 19:31:23.267
121.0, -138164.84965859054, -165351.36584655833, 8721.695389949726, -122242.29392317461, 75347.2388204621, -70174.01697325909, 46651.28697768295, -114073.67009802701, 0.004, 0.96, 0.038, 192.0, 0.0, 0.0, 0.0, 0.0, 0.0, 0.0, 0.0, 0.0, 0.0, 1.6664058837444854E9, 0.0, 2022-10-21 19:31:23.744
122.0, -138151.77388808416, -165360.26184085154, 8768.008204461123, -122255.50380414771, 75337.73932906859, -70196.50282818114, 46651.354032916315, -114088.46695285643, 0.004, 0.96, 0.038, 192.0, 0.0, 0.0, 0.0, 0.0, 0.0, 0.0, 0.0, 0.0, 0.0, 1.6664058837448325E9, 0.0, 2022-10-21 19:31:23.744
123.0, -138138.63106234444, -165362.11703564133, 8824.312248744041, -122248.82063255557, 75346.34475068389, -70192.65832813481, 46676.656207639724, -114071.74784800386, 0.004, 0.96, 0.038, 192.0, 0.0, 0.0, 0.0, 0.0, 0.0, 0.0, 0.0, 0.0, 0.0, 1.666405883744864E9, 0.0, 2022-10-21 19:31:23.744
124.0, -138147.03531825964, -165398.4833238701, 8867.674632987337, -122255.97319078127, 75346.81413731744, -70189.03734553306, 46688.614390923314, -114075.90527247255, 0.006, 0.9540000000000001, 0.032, 192.0, 0.0, 48.0, 29.0, 208.0, 1.0, 0.0, 0.0, 0.0, 0.0, 1.6664058837448933E9, 0.0, 2022-10-21 19:31:23.744
125.0, -138122.91778599238, -165389.36381213236, 8922.548165625116, -122259.90709780541, 75359.15230025677, -70202.73896488416, 46697.66684742771, -114082.20846440893, 0.006, 0.9540000000000001, 0.032, 192.0, 0.0, 0.0, 0.0, 0.0, 0.0, 0.0, 0.0, 0.0, 0.0, 1.6664058837449253E9, 0.0, 2022-10-21 19:31:23.744
126.0, -138115.02762019963, -165376.86918698184, 8961.619014932992, -122269.09366477653, 75352.22325947562, -70224.1742878168, 46692.749463647546, -114101.94505476297, 0.006, 0.9540000000000001, 0.032, 192.0, 0.0, 0.0, 0.0, 0.0, 0.0, 0.0, 0.0, 0.0, 0.0, 1.6664058837449543E9, 0.0, 2022-10-21 19:31:23.744
127.0, -138085.25509658517, -165363.63695426428, 9024.114492430032, -122258.81186232709, 75362.43800669171, -70214.7194999122, 46716.73288544809, -114093.45139186995, 0.006, 0.9540000000000001, 0.032, 192.0, 0.0, 0.0, 0.0, 0.0, 0.0, 0.0, 0.0, 0.0, 0.0, 1.666405883744982E9, 0.0, 2022-10-21 19:31:23.744
128.0, -138061.80811665155, -165363.54754728646, 9091.840278129612, -122240.84105978503, 75387.58371920392, -70191.69720312324, 46749.075859674915, -114069.33385960269, 0.006, 0.9540000000000001, 0.032, 192.0, 0.0, 0.0, 0.0, 0.0, 0.0, 0.0, 0.0, 0.0, 0.0, 1.6664058837450104E9, 0.0, 2022-10-21 19:31:23.745
129.0, -138047.14537228888, -165345.7779104445, 9131.872252449066, -122249.22296395576, 75386.80140814798, -70212.3725667444, 46743.82319972792, -114080.91206323053, 0.006, 0.9540000000000001, 0.032, 192.0, 0.0, 0.0, 0.0, 0.0, 0.0, 0.0, 0.0, 0.0, 0.0, 1.666405883745039E9, 0.0, 2022-10-21 19:31:23.745
130.0, -138026.33589820098, -165347.275477323, 9174.564084358703, -122245.64668484291, 75393.93161462923, -70258.77478823361, 46745.11960090633, -114079.81682775222, 0.006, 0.9540000000000001, 0.032, 192.0, 0.0, 0.0, 0.0, 0.0, 0.0, 0.0, 0.0, 0.0, 0.0, 1.6664058837450676E9, 0.0, 2022-10-21 19:31:23.745
131.0, -138042.29504374208, -165379.64080329429, 9199.262761981818, -122256.39787392592, 75387.58371920392, -70264.29566911407, 46752.20510389866, -114092.24439766938, 0.006, 0.9540000000000001, 0.032, 192.0, 0.0, 0.0, 0.0, 0.0, 0.0, 0.0, 0.0, 0.0, 0.0, 1.6664058837450955E9, 0.0, 2022-10-21 19:31:23.745
132.0, -138016.16585447383, -165368.5319863, 9236.545471733269, -122259.16949023838, 75385.90733836977, -70255.64554400988, 46757.21189465665, -114101.05098498476, 0.006, 0.9540000000000001, 0.032, 192.0, 0.0, 0.0, 0.0, 0.0, 0.0, 0.0, 0.0, 0.0, 0.0, 1.666405883745123E9, 0.0, 2022-10-21 19:31:23.745
133.0, -137992.49535709564, -165361.89351819677, 9271.302434361272, -122261.73994085073, 75390.93648087222, -70284.41223912385, 46755.669624289236, -114088.95869123444, 0.006, 0.9540000000000001, 0.032, 192.0, 0.0, 0.0, 0.0, 0.0, 0.0, 0.0, 0.0, 0.0, 0.0, 1.6664058837451508E9, 0.0, 2022-10-21 19:31:23.745
134.0, -137977.74320575513, -165345.4873377666, 9310.641504602612, -122262.07521701757, 75395.27271929654, -70307.25572195718, 46759.17884816872, -114086.14237143307, 0.002, 0.9500000000000001, 0.034, 192.0, 0.0, 16.0, 29.0, 176.0, 1.0, 16.0, 0.0, 0.0, 0.0, 1.6664058837451742E9, 0.0, 2022-10-21 19:31:23.745
135.0, -137985.25339189213, -165354.29392508196, 9350.740534155433, -122263.39396994043, 75398.55842573148, -70310.18380048082, 46778.4907553781, -114091.59619708017, 0.002, 0.9500000000000001, 0.034, 192.0, 0.0, 0.0, 0.0, 0.0, 0.0, 0.0, 0.0, 0.0, 0.0, 1.6664058837451856E9, 0.0, 2022-10-21 19:31:23.745
136.0, -137986.99682795964, -165362.38525657478, 9389.163182874106, -122262.03051352866, 75413.02000439406, -70282.7358582897, 46810.677267393745, -114077.31343237322, 0.002, 0.9500000000000001, 0.034, 192.0, 0.0, 0.0, 0.0, 0.0, 0.0, 0.0, 0.0, 0.0, 0.0, 1.6664058837451963E9, 0.0, 2022-10-21 19:31:23.745
137.0, -137952.4633827762, -165365.69331475417, 9427.921107759608, -122261.67288561737, 75426.60986502288, -70270.55415756156, 46824.870625122865, -114065.2211386229, 0.002, 0.9500000000000001, 0.034, 192.0, 0.0, 0.0, 0.0, 0.0, 0.0, 0.0, 0.0, 0.0, 0.0, 1.666405883745222E9, 0.0, 2022-10-21 19:31:23.745
138.0, -137963.8627724484, -165368.50963455555, 9453.96089005004, -122274.07810379006, 75422.51949578756, -70295.07402122904, 46817.89688085281, -114074.45240908295, 0.002, 0.9500000000000001, 0.034, 192.0, 0.0, 0.0, 0.0, 0.0, 0.0, 0.0, 0.0, 0.0, 0.0, 1.666405883745233E9, 0.0, 2022-10-21 19:31:23.745
139.0, -137952.21751358718, -165342.67101796521, 9510.086120377317, -122257.80603382661, 75444.58066756495, -70295.92338751834, 46843.959014887696, -114059.65555425354, 0.002, 0.9500000000000001, 0.034, 192.0, 0.0, 0.0, 0.0, 0.0, 0.0, 0.0, 0.0, 0.0, 0.0, 1.666405883745244E9, 0.0, 2022-10-21 19:31:23.745
140.0, -137909.21275725518, -165333.0821195939, 9545.334821383336, -122251.32402793456, 75449.49805134512, -70286.334489147, 46856.16306736029, -114061.80132172124, 0.002, 0.9500000000000001, 0.034, 192.0, 0.0, 0.0, 0.0, 0.0, 0.0, 0.0, 0.0, 0.0, 0.0, 1.6664058837452548E9, 0.0, 2022-10-21 19:31:23.745
141.0, -137910.5985654114, -165345.3755790443, 9570.189961217638, -122264.04217052963, 75440.803222752, -70299.58907360901, 46849.36813704588, -114068.59625203566, 0.002, 0.9500000000000001, 0.034, 192.0, 0.0, 0.0, 0.0, 0.0, 0.0, 0.0, 0.0, 0.0, 0.0, 1.6664058837452655E9, 0.0, 2022-10-21 19:31:23.745
142.0, -137902.2390129851, -165339.8323464194, 9603.672874411688, -122267.55139440912, 75441.96551346369, -70327.7969751116, 46851.24568358013, -114061.24252810985, 0.002, 0.9500000000000001, 0.034, 192.0, 0.0, 0.0, 0.0, 0.0, 0.0, 0.0, 0.0, 0.0, 0.0, 1.6664058837452765E9, 0.0, 2022-10-21 19:31:23.745
143.0, -137887.55391687798, -165316.38536648577, 9630.42791252469, -122268.73603686524, 75443.9101152313, -70329.2051350123, 46860.23108485116, -114062.7177432439, 0.002, 0.9560000000000001, 0.034, 192.0, 0.0, 16.0, 29.0, 224.0, 1.0, 16.0, 0.0, 0.0, 0.0, 1.6664058837452872E9, 0.0, 2022-10-21 19:31:23.745
144.0, -137876.64626558378, -165333.03741610498, 9666.347165864368, -122253.67096110237, 75454.63895256985, -70320.3985476969, 46878.42540483778, -114061.35428683214, 0.002, 0.9560000000000001, 0.034, 192.0, 0.0, 0.0, 0.0, 0.0, 0.0, 0.0, 0.0, 0.0, 0.0, 1.6664058837452989E9, 0.0, 2022-10-21 19:31:23.745
145.0, -137862.11763168784, -165338.29007605198, 9676.718375291632, -122261.42701642837, 75452.58259207995, -70337.58703918302, 46875.1620501473, -114069.19974913595, 0.002, 0.9560000000000001, 0.034, 192.0, 0.0, 0.0, 0.0, 0.0, 0.0, 0.0, 0.0, 0.0, 0.0, 1.6664058837453096E9, 0.0, 2022-10-21 19:31:23.745
146.0, -137870.29837015847, -165329.3717300143, 9688.095413219382, -122276.46974044679, 75450.0568449565, -70354.61906845798, 46869.104727399914, -114074.07242942721, 0.002, 0.9560000000000001, 0.034, 192.0, 0.0, 0.0, 0.0, 0.0, 0.0, 0.0, 0.0, 0.0, 0.0, 1.6664058837453203E9, 0.0, 2022-10-21 19:31:23.745
147.0, -137862.00587296556, -165330.48931723708, 9719.745483368097, -122264.13157750745, 75462.43971138474, -70370.7570279547, 46881.845221739444, -114059.87907169809, 0.002, 0.9560000000000001, 0.034, 192.0, 0.0, 0.0, 0.0, 0.0, 0.0, 0.0, 0.0, 0.0, 0.0, 1.6664058837453313E9, 0.0, 2022-10-21 19:31:23.745
148.0, -137833.79797146298, -165319.53696245397, 9738.900928366296, -122265.31621996358, 75460.62922008387, -70350.41694050038, 46893.89281200085, -114065.53406304528, 0.002, 0.9560000000000001, 0.034, 192.0, 0.0, 0.0, 0.0, 0.0, 0.0, 0.0, 0.0, 0.0, 0.0, 1.666405883745342E9, 0.0, 2022-10-21 19:31:23.745
149.0, -137818.66584046674, -165316.58653218587, 9759.397478031811, -122275.39685671293, 75454.68365605875, -70347.44415848782, 46892.48465210017, -114067.67983051299, 0.002, 0.9560000000000001, 0.034, 192.0, 0.0, 0.0, 0.0, 0.0, 0.0, 0.0, 0.0, 0.0, 0.0, 1.6664058837453525E9, 0.0, 2022-10-21 19:31:23.745
150.0, -137820.9233666567, -165353.15398611475, 9781.346891086923, -122278.92843233686, 75454.9071735033, -70372.94749891132, 46888.72955903168, -114073.15600790454, 0.002, 0.9560000000000001, 0.034, 192.0, 0.0, 0.0, 0.0, 0.0, 0.0, 0.0, 0.0, 0.0, 0.0, 1.6664058837453635E9, 0.0, 2022-10-21 19:31:23.745
151.0, -137803.51135772603, -165333.3726922718, 9814.18160369177, -122263.23750772924, 75469.39110391034, -70397.60147304554, 46900.91125975982, -114064.43882756696, 0.002, 0.9560000000000001, 0.034, 192.0, 0.0, 0.0, 0.0, 0.0, 0.0, 0.0, 0.0, 0.0, 0.0, 1.6664058837453742E9, 0.0, 2022-10-21 19:31:23.745
152.0, -137776.018712046, -165304.38247971327, 9847.508054674632, -122255.2579349587, 75486.11020876291, -70390.38185958647, 46927.88981531737, -114044.16579534601, 0.002, 0.9560000000000001, 0.034, 192.0, 0.0, 0.0, 0.0, 0.0, 0.0, 0.0, 0.0, 0.0, 0.0, 1.6664058837453947E9, 0.0, 2022-10-21 19:31:23.745
153.0, -137800.33741001337, -165327.33772126888, 9851.598423909954, -122277.7661416252, 75478.77883658158, -70371.98637389975, 46928.739181606674, -114044.85869942412, 0.006, 0.962, 0.028, 192.0, 0.0, 48.0, 30.0, 16.0, 0.0, 224.0, 0.0, 0.0, 0.0, 1.6664058837454057E9, 0.0, 2022-10-21 19:31:23.745
154.0, -137773.33650271138, -165332.54567772694, 9875.805363155052, -122265.29386821913, 75491.40757219882, -70384.25748160572, 46929.96852755172, -114038.0190656208, 0.006, 0.962, 0.028, 192.0, 0.0, 0.0, 0.0, 0.0, 0.0, 0.0, 0.0, 0.0, 0.0, 1.666405883745417E9, 0.0, 2022-10-21 19:31:23.745
155.0, -137749.24132218855, -165361.46883505213, 9881.058023102049, -122274.0110485567, 75487.83129308597, -70410.78900227416, 46922.033658270084, -114062.15894963253, 0.006, 0.962, 0.028, 192.0, 0.0, 0.0, 0.0, 0.0, 0.0, 0.0, 0.0, 0.0, 0.0, 1.6664058837454276E9, 0.0, 2022-10-21 19:31:23.745
156.0, -137742.93813025215, -165346.8284424339, 9901.576924512021, -122279.3084119926, 75482.75744709461, -70428.29041818266, 46922.70421060374, -114074.45240908295, 0.006, 0.962, 0.028, 192.0, 0.0, 0.0, 0.0, 0.0, 0.0, 0.0, 0.0, 0.0, 0.0, 1.6664058837454395E9, 0.0, 2022-10-21 19:31:23.745
157.0, -137713.23266187104, -165337.66422720722, 9941.63125057593, -122264.33274320755, 75504.88567410538, -70419.95321750084, 46946.17354228182, -114065.0199729228, 0.006, 0.962, 0.028, 192.0, 0.0, 0.0, 0.0, 0.0, 0.0, 0.0, 0.0, 0.0, 0.0, 1.6664058837454505E9, 0.0, 2022-10-21 19:31:23.745
158.0, -137698.9051936752, -165325.14725031226, 9972.208436990792, -122262.18697573984, 75517.29089227806, -70424.58002860309, 46956.4329929868, -114054.62641175109, 0.006, 0.962, 0.028, 192.0, 0.0, 0.0, 0.0, 0.0, 0.0, 0.0, 0.0, 0.0, 0.0, 1.6664058837454612E9, 0.0, 2022-10-21 19:31:23.745
159.0, -137704.1578536222, -165328.90234338073, 9995.431899479854, -122267.77491185367, 75520.10721207944, -70437.54404038716, 46960.568065711035, -114055.00639140683, 0.006, 0.962, 0.028, 192.0, 0.0, 0.0, 0.0, 0.0, 0.0, 0.0, 0.0, 0.0, 0.0, 1.6664058837454717E9, 0.0, 2022-10-21 19:31:23.745
160.0, -137691.37265579376, -165339.027683619, 10024.600925994031, -122272.98286831175, 75521.67183419131, -70437.36522643152, 46969.95579838226, -114057.80035946374, 0.006, 0.962, 0.028, 192.0, 0.0, 0.0, 0.0, 0.0, 0.0, 0.0, 0.0, 0.0, 0.0, 1.6664058837454827E9, 0.0, 2022-10-21 19:31:23.745
161.0, -137673.80418465188, -165342.7380731986, 10058.79909501065, -122276.3132782356, 75528.35500578345, -70409.69376679586, 46984.01504564465, -114052.59240300566, 0.006, 0.962, 0.028, 192.0, 0.0, 0.0, 0.0, 0.0, 0.0, 0.0, 0.0, 0.0, 0.0, 1.6664058837454932E9, 0.0, 2022-10-21 19:31:23.745
162.0, -137639.8965883132, -165330.31050328142, 10100.529801908708, -122273.09462703404, 75542.59306700148, -70406.87744699448, 46995.30267659458, -114037.86260340961, 0.006, 0.962, 0.028, 192.0, 0.0, 0.0, 0.0, 0.0, 0.0, 0.0, 0.0, 0.0, 0.0, 1.666405883745504E9, 0.0, 2022-10-21 19:31:23.745
163.0, -137632.92284404312, -165335.00436961703, 10135.979668614826, -122276.06740904659, 75551.66787525034, -70423.75301405824, 47000.60004003049, -114027.5137457268, 0.006, 0.9560000000000001, 0.024, 192.0, 0.0, 48.0, 29.0, 224.0, 0.0, 192.0, 0.0, 0.0, 0.0, 1.6664058837455149E9, 0.0, 2022-10-21 19:31:23.745
164.0, -137620.40586714816, -165327.13655556878, 10169.3508230866, -122270.4571211883, 75555.22180261872, -70428.08925248256, 47008.04317093411, -114034.71100744141, 0.006, 0.9560000000000001, 0.024, 192.0, 0.0, 0.0, 0.0, 0.0, 0.0, 0.0, 0.0, 0.0, 0.0, 1.666405883745526E9, 0.0, 2022-10-21 19:31:23.745
165.0, -137640.00834703547, -165345.3308755554, 10189.06506169618, -122283.28702250565, 75539.86615417793, -70439.5780491326, 47000.10830165247, -114045.12692035758, 0.006, 0.9560000000000001, 0.024, 192.0, 0.0, 0.0, 0.0, 0.0, 0.0, 0.0, 0.0, 0.0, 0.0, 1.6664058837455366E9, 0.0, 2022-10-21 19:31:23.745
166.0, -137615.980221746, -165327.3153695244, 10222.369160934588, -122284.7175341508, 75542.61541874593, -70435.08534849709, 47001.672923764345, -114044.41166453502, 0.006, 0.9560000000000001, 0.024, 192.0, 0.0, 0.0, 0.0, 0.0, 0.0, 0.0, 0.0, 0.0, 0.0, 1.6664058837455473E9, 0.0, 2022-10-21 19:31:23.745
167.0, -137625.0326782504, -165350.8294046914, 10239.937632076459, -122299.60379595803, 75537.11688960993, -70445.4789096688, 46990.20647885877, -114057.73330423038, 0.006, 0.9560000000000001, 0.024, 192.0, 0.0, 0.0, 0.0, 0.0, 0.0, 0.0, 0.0, 0.0, 0.0, 1.6664058837455676E9, 0.0, 2022-10-21 19:31:23.745
168.0, -137640.41067843564, -165359.70304724015, 10253.21456828291, -122325.62122650401, 75521.8282964025, -70464.56729943363, 46979.522345009136, -114068.41743808001, 0.006, 0.9560000000000001, 0.024, 192.0, 0.0, 0.0, 0.0, 0.0, 0.0, 0.0, 0.0, 0.0, 0.0, 1.6664058837455783E9, 0.0, 2022-10-21 19:31:23.745
169.0, -137641.6400243807, -165385.027573708, 10284.551714009252, -122325.08478463707, 75521.4259650023, -70468.54590994667, 46986.47373753473, -114067.54572004626, 0.006, 0.9560000000000001, 0.024, 192.0, 0.0, 0.0, 0.0, 0.0, 0.0, 0.0, 0.0, 0.0, 0.0, 1.6664058837455893E9, 0.0, 2022-10-21 19:31:23.745
170.0, -137569.8685729347, -165347.45429127864, 10339.939336769503, -122290.75250515372, 75559.1333578984, -70463.2261947663, 47014.83810124852, -114037.75084468733, 0.006, 0.9560000000000001, 0.024, 192.0, 0.0, 0.0, 0.0, 0.0, 0.0, 0.0, 0.0, 0.0, 0.0, 1.6664058837455995E9, 0.0, 2022-10-21 19:31:23.745
171.0, -137555.87638090568, -165328.74588116957, 10357.396049189098, -122303.3141855376, 75560.83209047701, -70463.96380233334, 47013.899327981395, -114040.18718483296, 0.006, 0.9560000000000001, 0.024, 192.0, 0.0, 0.0, 0.0, 0.0, 0.0, 0.0, 0.0, 0.0, 0.0, 1.6664058837456105E9, 0.0, 2022-10-21 19:31:23.745
172.0, -137559.7655844409, -165349.66711397973, 10375.299796497799, -122320.7708979572, 75553.94775318477, -70471.29517451467, 47009.004295945684, -114044.45636802392, 0.008, 0.96, 0.022, 192.0, 0.0, 64.0, 30.0, 0.0, 0.0, 176.0, 0.0, 0.0, 0.0, 1.666405883745621E9, 0.0, 2022-10-21 19:31:23.745
173.0, -137562.0678141198, -165352.03639889197, 10404.245305567421, -122319.16157235642, 75561.45793932176, -70446.97647654731, 47020.09076119551, -114037.75084468733, 0.008, 0.96, 0.022, 192.0, 0.0, 0.0, 0.0, 0.0, 0.0, 0.0, 0.0, 0.0, 0.0, 1.6664058837456322E9, 0.0, 2022-10-21 19:31:23.745
174.0, -137550.82488665878, -165347.70016046765, 10415.264715583888, -122332.17028762941, 75555.22180261872, -70444.96481954632, 47006.29973486659, -114060.46021705393, 0.008, 0.96, 0.022, 192.0, 0.0, 0.0, 0.0, 0.0, 0.0, 0.0, 0.0, 0.0, 0.0, 1.666405883745643E9, 0.0, 2022-10-21 19:31:23.745
175.0, -137529.12134279267, -165341.84400342035, 10440.58924205175, -122338.4734795658, 75560.94384919928, -70462.82386336611, 47001.33764759751, -114061.2201763654, 0.008, 0.96, 0.022, 192.0, 0.0, 0.0, 0.0, 0.0, 0.0, 0.0, 0.0, 0.0, 0.0, 1.6664058837456536E9, 0.0, 2022-10-21 19:31:23.745
176.0, -137523.82397935676, -165350.02474189101, 10474.78741106837, -122334.11488939702, 75577.52884358513, -70477.19603505087, 47015.35219137099, -114047.89853667004, 0.008, 0.96, 0.022, 192.0, 0.0, 0.0, 0.0, 0.0, 0.0, 0.0, 0.0, 0.0, 0.0, 1.6664058837456641E9, 0.0, 2022-10-21 19:31:23.745
177.0, -137518.68307813205, -165359.03249490648, 10492.244123487964, -122345.24605813576, 75576.29949764008, -70466.89188085699, 47026.01397347617, -114043.22702207888, 0.008, 0.96, 0.022, 192.0, 0.0, 0.0, 0.0, 0.0, 0.0, 0.0, 0.0, 0.0, 0.0, 1.666405883745676E9, 0.0, 2022-10-21 19:31:23.745
178.0, -137503.93092679154, -165348.10249186784, 10513.232411531499, -122357.45011060836, 75571.49387258218, -70453.0785027836, 47027.22096767676, -114038.37669353207, 0.008, 0.96, 0.022, 192.0, 0.0, 0.0, 0.0, 0.0, 0.0, 0.0, 0.0, 0.0, 0.0, 1.6664058837456865E9, 0.0, 2022-10-21 19:31:23.745
179.0, -137505.29438320332, -165347.45429127864, 10535.517100753439, -122358.0312559642, 75583.49675935469, -70461.75097963226, 47026.483360109734, -114039.2707633103, 0.008, 0.96, 0.022, 192.0, 0.0, 0.0, 0.0, 0.0, 0.0, 0.0, 0.0, 0.0, 0.0, 1.6664058837456973E9, 0.0, 2022-10-21 19:31:23.745
180.0, -137488.3517609062, -165334.31146553892, 10565.311976112363, -122353.15857567295, 75596.28195718312, -70467.16010179045, 47036.54164511462, -114036.23092606437, 0.008, 0.96, 0.022, 192.0, 0.0, 0.0, 0.0, 0.0, 0.0, 0.0, 0.0, 0.0, 0.0, 1.666405883745709E9, 0.0, 2022-10-21 19:31:23.745
181.0, -137471.20797290897, -165310.5739129274, 10590.43533688013, -122346.2742383807, 75599.81353280706, -70448.65285738146, 47053.9089505564, -114029.12307132759, 0.008, 0.96, 0.022, 192.0, 0.0, 0.0, 0.0, 0.0, 0.0, 0.0, 0.0, 0.0, 0.0, 1.6664058837457197E9, 0.0, 2022-10-21 19:31:23.745
182.0, -137514.1680257521, -165320.6769014212, 10592.223476436553, -122363.66389556693, 75582.51328259865, -70440.51682239972, 47045.95172953031, -114040.3212952997, 0.004, 0.9440000000000001, 0.012, 192.0, 0.0, 32.0, 29.0, 128.0, 0.0, 96.0, 0.0, 0.0, 0.0, 1.6664058837457304E9, 0.0, 2022-10-21 19:31:23.745
183.0, -137546.3098342788, -165331.1822213152, 10590.323578157851, -122378.0807707406, 75567.67172428033, -70456.18539526289, 47031.15487470089, -114056.23573735188, 0.004, 0.9440000000000001, 0.012, 192.0, 0.0, 0.0, 0.0, 0.0, 0.0, 0.0, 0.0, 0.0, 0.0, 1.6664058837457533E9, 0.0, 2022-10-21 19:31:23.745
184.0, -137584.1289858972, -165317.2123810306, 10609.501374900507, -122363.55213684466, 75567.20233764677, -70462.84621511058, 47036.69810732581, -114054.35819081763, 0.004, 0.9440000000000001, 0.012, 192.0, 0.0, 0.0, 0.0, 0.0, 0.0, 0.0, 0.0, 0.0, 0.0, 1.6664058837457647E9, 0.0, 2022-10-21 19:31:23.745
185.0, -137629.65948935266, -165336.1219568398, 10619.604363394305, -122350.56577331612, 75557.12170089742, -70468.61296518004, 47044.029479507146, -114046.35626630262, 0.004, 0.9440000000000001, 0.012, 192.0, 0.0, 0.0, 0.0, 0.0, 0.0, 0.0, 0.0, 0.0, 0.0, 1.6664058837457757E9, 0.0, 2022-10-21 19:31:23.745
186.0, -137651.00540530746, -165368.48728281108, 10607.757938832992, -122356.7348547858, 75535.06052912003, -70465.70723840085, 47044.252996951705, -114041.43888252246, 0.004, 0.9440000000000001, 0.012, 192.0, 0.0, 0.0, 0.0, 0.0, 0.0, 0.0, 0.0, 0.0, 0.0, 1.666405883745787E9, 0.0, 2022-10-21 19:31:23.745
187.0, -137645.37276570473, -165369.51546305604, 10618.710293616092, -122320.0779938791, 75545.52114552513, -70458.30881098614, 47060.83799133754, -114025.658550937, 0.004, 0.9440000000000001, 0.012, 192.0, 0.0, 0.0, 0.0, 0.0, 0.0, 0.0, 0.0, 0.0, 0.0, 1.6664058837457976E9, 0.0, 2022-10-21 19:31:23.745
188.0, -137670.04909158338, -165380.7360387726, 10611.065997012378, -122292.33947901006, 75539.17325009982, -70467.20480527935, 47063.967235561286, -114029.59245796115, 0.004, 0.9440000000000001, 0.012, 192.0, 0.0, 0.0, 0.0, 0.0, 0.0, 0.0, 0.0, 0.0, 0.0, 1.6664058837458084E9, 0.0, 2022-10-21 19:31:23.745
189.0, -137641.95294880308, -165409.43567865322, 10595.95621776059, -122256.59903962602, 75533.00416863016, -70494.27276781473, 47064.727194872765, -114017.83544037765, 0.004, 0.9440000000000001, 0.012, 192.0, 0.0, 0.0, 0.0, 0.0, 0.0, 0.0, 0.0, 0.0, 0.0, 1.6664058837458189E9, 0.0, 2022-10-21 19:31:23.745
190.0, -137582.16203238512, -165438.58235342294, 10581.516990842461, -122210.55444604809, 75541.2296105897, -70509.18138136642, 47062.73788961624, -113978.54107362522, 0.004, 0.9440000000000001, 0.012, 192.0, 0.0, 0.0, 0.0, 0.0, 0.0, 0.0, 0.0, 0.0, 0.0, 1.6664058837458296E9, 0.0, 2022-10-21 19:31:23.745
191.0, -137582.8772882077, -165470.83592067193, 10538.154606599166, -122184.17938759082, 75522.94588362526, -70547.62638182956, 47024.047019964106, -113960.63732631653, 0.004, 0.9440000000000001, 0.012, 192.0, 0.0, 0.0, 0.0, 0.0, 0.0, 0.0, 0.0, 0.0, 0.0, 1.666405883745841E9, 0.0, 2022-10-21 19:31:23.745
192.0, -137507.6189646267, -165450.87581287336, 10520.250859290465, -122114.7772210571, 75535.3287500535, -70580.39403920103, 47007.28321162263, -113897.56070346365, 0.01, 0.9480000000000001, 0.016, 192.0, 0.0, 80.0, 29.0, 160.0, 0.0, 128.0, 0.0, 0.0, 0.0, 1.666405883745852E9, 0.0, 2022-10-21 19:31:23.745
193.0, -137370.35690192663, -165454.0050570971, 10494.971036311512, -122022.7997926235, 75559.26746836513, -70609.13838257056, 46991.167603870344, -113824.69401653935, 0.01, 0.9480000000000001, 0.016, 192.0, 0.0, 0.0, 0.0, 0.0, 0.0, 0.0, 0.0, 0.0, 0.0, 1.6664058837458632E9, 0.0, 2022-10-21 19:31:23.745
194.0, -137243.82367656514, -165477.27322307508, 10436.901204216625, -121952.28003886701, 75556.04881716357, -70625.45515602293, 46959.87516163292, -113776.88363514944, 0.01, 0.9480000000000001, 0.016, 192.0, 0.0, 0.0, 0.0, 0.0, 0.0, 0.0, 0.0, 0.0, 0.0, 1.666405883745874E9, 0.0, 2022-10-21 19:31:23.745
195.0, -137149.23109403029, -165487.44326680223, 10365.822656848748, -121896.13245679528, 75545.78936645859, -70621.78946993226, 46929.4767891737, -113737.9468963083, 0.01, 0.9480000000000001, 0.016, 192.0, 0.0, 0.0, 0.0, 0.0, 0.0, 0.0, 0.0, 0.0, 0.0, 1.666405883745885E9, 0.0, 2022-10-21 19:31:23.745
196.0, -137004.10121728198, -165476.8708916749, 10314.61481030164, -121826.3503106058, 75546.6834362368, -70652.23254588038, 46888.12606193138, -113697.44553535528, 0.01, 0.9480000000000001, 0.016, 192.0, 0.0, 0.0, 0.0, 0.0, 0.0, 0.0, 0.0, 0.0, 0.0, 1.6664058837458956E9, 0.0, 2022-10-21 19:31:23.745
197.0, -136859.70894810068, -165470.47829276064, 10268.45845800143, -121765.46415870955, 75545.61055250294, -70696.48899990189, 46838.706354940696, -113664.47671228371, 0.01, 0.9480000000000001, 0.016, 192.0, 0.0, 0.0, 0.0, 0.0, 0.0, 0.0, 0.0, 0.0, 0.0, 1.6664058837459064E9, 0.0, 2022-10-21 19:31:23.745
198.0, -136791.89375542328, -165455.68143793126, 10233.679143628973, -121690.18348338408, 75559.42393057632, -70714.5939129107, 46817.69571515271, -113630.27854326708, 0.01, 0.9480000000000001, 0.016, 192.0, 0.0, 0.0, 0.0, 0.0, 0.0, 0.0, 0.0, 0.0, 0.0, 1.6664058837459276E9, 0.0, 2022-10-21 19:31:23.745
199.0, -136753.3816997268, -165459.57064146647, 10175.475201067353, -121642.21663978299, 75562.21789863323, -70686.14014221908, 46795.25456371958, -113638.14635731536, 0.01, 0.9480000000000001, 0.016, 192.0, 0.0, 0.0, 0.0, 0.0, 0.0, 0.0, 0.0, 0.0, 0.0, 1.6664058837459383E9, 0.0, 2022-10-21 19:31:23.745
200.0, -136703.44790261364, -165444.32675174795, 10134.01271510276, -121604.91157828708, 75571.85150049347, -70677.5347206038, 46767.761918039556, -113631.03850257857, 0.01, 0.9480000000000001, 0.016, 192.0, 0.0, 0.0, 0.0, 0.0, 0.0, 0.0, 0.0, 0.0, 0.0, 1.6664058837459502E9, 0.0, 2022-10-21 19:31:23.745
201.0, -136655.9057421572, -165419.82923982493, 10107.660008389952, -121556.00596141886, 75588.5929570905, -70696.66781385754, 46746.39365034028, -113625.78584263157, 0.01, 0.9480000000000001, 0.016, 192.0, 0.0, 0.0, 0.0, 0.0, 0.0, 0.0, 0.0, 0.0, 0.0, 1.666405883745961E9, 0.0, 2022-10-21 19:31:23.745
202.0, -136640.50539022748, -165410.0391757535, 10066.957481736838, -121522.94773136947, 75578.10998894095, -70701.89812206008, 46721.71732446162, -113648.00347662014, 0.008, 0.966, 0.026000000000000002, 192.0, 0.0, 64.0, 30.0, 48.0, 0.0, 208.0, 0.0, 0.0, 0.0, 1.6664058837459717E9, 0.0, 2022-10-21 19:31:23.745
203.0, -136643.14289607323, -165396.06933546893, 10043.666964014408, -121481.19467272695, 75586.6930588118, -70664.4813018419, 46716.643478470265, -113648.80813942054, 0.008, 0.966, 0.026000000000000002, 192.0, 0.0, 0.0, 0.0, 0.0, 0.0, 0.0, 0.0, 0.0, 0.0, 1.6664058837459831E9, 0.0, 2022-10-21 19:31:23.745
204.0, -136623.51806444145, -165372.19767239067, 10038.280193600678, -121440.26862862929, 75605.73674508772, -70633.94881891595, 46716.17409183671, -113630.59146768946, 0.008, 0.966, 0.026000000000000002, 192.0, 0.0, 0.0, 0.0, 0.0, 0.0, 0.0, 0.0, 0.0, 0.0, 1.6664058837459936E9, 0.0, 2022-10-21 19:31:23.745
205.0, -136615.6055469043, -165354.47273903762, 10025.942030661348, -121407.50097125782, 75612.68813761332, -70635.13346137208, 46707.412208010224, -113616.2192960047, 0.008, 0.966, 0.026000000000000002, 192.0, 0.0, 0.0, 0.0, 0.0, 0.0, 0.0, 0.0, 0.0, 0.0, 1.6664058837460043E9, 0.0, 2022-10-21 19:31:23.746
206.0, -136606.32957295532, -165334.84790740584, 10014.810861922606, -121365.65850563748, 75624.42280345235, -70618.10143209713, 46709.55797547793, -113603.00941503161, 0.008, 0.966, 0.026000000000000002, 192.0, 0.0, 0.0, 0.0, 0.0, 0.0, 0.0, 0.0, 0.0, 0.0, 1.6664058837460153E9, 0.0, 2022-10-21 19:31:23.746
207.0, -136594.5278518829, -165315.78186938548, 9993.464945967788, -121352.91801129795, 75616.2420649817, -70584.23853924734, 46700.41611199571, -113615.79461286005, 0.008, 0.966, 0.026000000000000002, 192.0, 0.0, 0.0, 0.0, 0.0, 0.0, 0.0, 0.0, 0.0, 0.0, 1.666405883746026E9, 0.0, 2022-10-21 19:31:23.746
208.0, -136580.26743892045, -165301.67791863417, 9982.378480717955, -121340.06575823615, 75614.5433324031, -70569.86636756259, 46685.99923682204, -113620.4214239623, 0.008, 0.966, 0.026000000000000002, 192.0, 0.0, 0.0, 0.0, 0.0, 0.0, 0.0, 0.0, 0.0, 0.0, 1.6664058837460363E9, 0.0, 2022-10-21 19:31:23.746
209.0, -136571.41614811614, -165282.43306665815, 9974.644777136418, -121327.12409819652, 75613.13517250243, -70579.58937640065, 46669.01191103601, -113617.33688322746, 0.008, 0.966, 0.026000000000000002, 192.0, 0.0, 0.0, 0.0, 0.0, 0.0, 0.0, 0.0, 0.0, 0.0, 1.6664058837460475E9, 0.0, 2022-10-21 19:31:23.746
210.0, -136559.54737181036, -165261.4671303591, 9974.063631780582, -121310.20382764385, 75613.31398645807, -70563.27260294826, 46672.07410002639, -113609.13379301237, 0.008, 0.966, 0.026000000000000002, 192.0, 0.0, 0.0, 0.0, 0.0, 0.0, 0.0, 0.0, 0.0, 0.0, 1.666405883746058E9, 0.0, 2022-10-21 19:31:23.746
211.0, -136548.79618272735, -165247.98902845252, 9972.387250946433, -121284.6781354759, 75612.37521319094, -70523.33003560663, 46673.66107388271, -113616.64397914935, 0.006, 0.96, 0.024, 192.0, 0.0, 48.0, 30.0, 0.0, 0.0, 192.0, 0.0, 0.0, 0.0, 1.6664058837460687E9, 0.0, 2022-10-21 19:31:23.746
212.0, -136539.6319675007, -165230.48761254404, 9970.643814878918, -121278.5761092396, 75607.45782941078, -70520.96075069437, 46653.43274515066, -113618.54387742805, 0.006, 0.96, 0.024, 192.0, 0.0, 0.0, 0.0, 0.0, 0.0, 0.0, 0.0, 0.0, 0.0, 1.6664058837460797E9, 0.0, 2022-10-21 19:31:23.746
213.0, -136536.50272327694, -165215.31077805886, 9956.964547272271, -121283.51584476422, 75595.45494263827, -70536.51756483526, 46628.5552535719, -113634.72654041369, 0.006, 0.96, 0.024, 192.0, 0.0, 0.0, 0.0, 0.0, 0.0, 0.0, 0.0, 0.0, 0.0, 1.6664058837461004E9, 0.0, 2022-10-21 19:31:23.746
214.0, -136489.67581864307, -165160.59370763227, 9989.26281801019, -121237.82887909758, 75627.70850988728, -70513.87524770203, 46659.266550453496, -113601.60125513092, 0.006, 0.96, 0.024, 192.0, 0.0, 0.0, 0.0, 0.0, 0.0, 0.0, 0.0, 0.0, 0.0, 1.6664058837461112E9, 0.0, 2022-10-21 19:31:23.746
215.0, -136479.215202238, -165138.86781202172, 9980.903265583906, -121220.88625680046, 75631.12832678895, -70482.51575023124, 46665.815611578895, -113601.95888304221, 0.006, 0.96, 0.024, 192.0, 0.0, 0.0, 0.0, 0.0, 0.0, 0.0, 0.0, 0.0, 0.0, 1.6664058837461216E9, 0.0, 2022-10-21 19:31:23.746
216.0, -136464.7089200865, -165116.6725297776, 9974.912998069884, -121211.0067857512, 75636.26922801367, -70458.9793633198, 46661.25585571001, -113595.72274633918, 0.006, 0.96, 0.024, 192.0, 0.0, 0.0, 0.0, 0.0, 0.0, 0.0, 0.0, 0.0, 0.0, 1.6664058837461324E9, 0.0, 2022-10-21 19:31:23.746
217.0, -136454.8518007817, -165099.1711138691, 9967.179294488347, -121201.59670133553, 75638.79497513712, -70432.73841532927, 46649.744707315534, -113598.02497601807, 0.006, 0.96, 0.024, 192.0, 0.0, 0.0, 0.0, 0.0, 0.0, 0.0, 0.0, 0.0, 0.0, 1.666405883746143E9, 0.0, 2022-10-21 19:31:23.746
218.0, -136440.43492560805, -165077.73579093645, 9964.765306087173, -121186.93395697285, 75644.31585601758, -70438.59457237656, 46644.648509579725, -113586.42442064577, 0.006, 0.96, 0.024, 192.0, 0.0, 0.0, 0.0, 0.0, 0.0, 0.0, 0.0, 0.0, 0.0, 1.666405883746154E9, 0.0, 2022-10-21 19:31:23.746
219.0, -136433.84116099373, -165063.3189157628, 9954.170579215357, -121177.63563127944, 75644.80759439559, -70408.68793829536, 46651.37638466077, -113589.10662998041, 0.006, 0.96, 0.024, 192.0, 0.0, 0.0, 0.0, 0.0, 0.0, 0.0, 0.0, 0.0, 0.0, 1.6664058837461648E9, 0.0, 2022-10-21 19:31:23.746
220.0, -136414.3951433176, -165035.8039183383, 9954.30468968209, -121156.91556416937, 75655.08939684504, -70369.68414422085, 46655.556160873915, -113584.14454271134, 0.006, 0.96, 0.024, 192.0, 0.0, 0.0, 0.0, 0.0, 0.0, 0.0, 0.0, 0.0, 0.0, 1.6664058837461765E9, 0.0, 2022-10-21 19:31:23.746
221.0, -136403.62160249014, -165021.85642979818, 9946.325116911545, -121161.45296829379, 75650.86491714299, -70375.54030126813, 46636.91480599819, -113584.81509504499, 0.008, 0.962, 0.026000000000000002, 192.0, 0.0, 64.0, 30.0, 16.0, 0.0, 208.0, 0.0, 0.0, 0.0, 1.6664058837461872E9, 0.0, 2022-10-21 19:31:23.746
222.0, -136391.81988141776, -165005.696118557, 9943.553500599088, -121156.71439846927, 75652.07191134356, -70377.68606873586, 46635.14901818622, -113577.37196414138, 0.008, 0.962, 0.026000000000000002, 192.0, 0.0, 0.0, 0.0, 0.0, 0.0, 0.0, 0.0, 0.0, 0.0, 1.6664058837461984E9, 0.0, 2022-10-21 19:31:23.746
223.0, -136377.62652368864, -164992.50858932838, 9938.926689496839, -121143.593924474, 75656.89988814591, -70353.47912949075, 46641.42985837816, -113575.82969377395, 0.008, 0.962, 0.026000000000000002, 192.0, 0.0, 0.0, 0.0, 0.0, 0.0, 0.0, 0.0, 0.0, 0.0, 1.66640588374621E9, 0.0, 2022-10-21 19:31:23.746
224.0, -136370.9880555854, -164976.437685065, 9934.210471416769, -121129.4899737227, 75661.23612657025, -70318.00691104018, 46645.050840979915, -113572.94631873922, 0.008, 0.962, 0.026000000000000002, 192.0, 0.0, 0.0, 0.0, 0.0, 0.0, 0.0, 0.0, 0.0, 0.0, 1.6664058837462206E9, 0.0, 2022-10-21 19:31:23.746
225.0, -136355.8335728447, -164955.73996969938, 9937.674991807342, -121120.45986896276, 75667.67342897337, -70326.098242533, 46638.43472462115, -113572.83456001694, 0.008, 0.962, 0.026000000000000002, 192.0, 0.0, 0.0, 0.0, 0.0, 0.0, 0.0, 0.0, 0.0, 0.0, 1.666405883746232E9, 0.0, 2022-10-21 19:31:23.746
226.0, -136346.0435087733, -164943.31239978224, 9934.657506305875, -121105.30538622205, 75674.64717324343, -70334.97188508176, 46633.51734084098, -113571.31464139398, 0.008, 0.962, 0.026000000000000002, 192.0, 0.0, 0.0, 0.0, 0.0, 0.0, 0.0, 0.0, 0.0, 0.0, 1.666405883746243E9, 0.0, 2022-10-21 19:31:23.746
227.0, -136350.20093324195, -164942.39597825956, 9924.465110834255, -121101.5279414091, 75668.99218189623, -70321.98552155323, 46632.86914025177, -113572.09695244992, 0.008, 0.962, 0.026000000000000002, 192.0, 0.0, 0.0, 0.0, 0.0, 0.0, 0.0, 0.0, 0.0, 0.0, 1.6664058837462547E9, 0.0, 2022-10-21 19:31:23.746
228.0, -136343.31659594973, -164930.46014672043, 9927.929631224828, -121095.76119133964, 75674.75893196571, -70287.20620718077, 46644.06736422388, -113569.32533613747, 0.008, 0.962, 0.026000000000000002, 192.0, 0.0, 0.0, 0.0, 0.0, 0.0, 0.0, 0.0, 0.0, 0.0, 1.6664058837462747E9, 0.0, 2022-10-21 19:31:23.746
229.0, -136350.2903402198, -164936.31630376773, 9916.642000274898, -121101.17031349783, 75665.79588243912, -70275.76211401966, 46630.857483250795, -113581.14940895433, 0.008, 0.962, 0.026000000000000002, 192.0, 0.0, 0.0, 0.0, 0.0, 0.0, 0.0, 0.0, 0.0, 0.0, 1.6664058837462857E9, 0.0, 2022-10-21 19:31:23.746
230.0, -136349.35156695265, -164930.41544323153, 9918.944229953793, -121094.06245876104, 75663.13602484895, -70287.85440776998, 46618.429913333646, -113580.59061534294, 0.008, 0.962, 0.026000000000000002, 192.0, 0.0, 0.0, 0.0, 0.0, 0.0, 0.0, 0.0, 0.0, 0.0, 1.6664058837462971E9, 0.0, 2022-10-21 19:31:23.746
231.0, -136353.71015712144, -164930.6389606761, 9921.849956732984, -121085.99347901267, 75663.02426612667, -70293.28588167261, 46617.312326110885, -113579.47302812018, 0.006, 0.962, 0.016, 192.0, 0.0, 48.0, 30.0, 16.0, 0.0, 128.0, 0.0, 0.0, 0.0, 1.6664058837463078E9, 0.0, 2022-10-21 19:31:23.746
232.0, -136351.27381697582, -164926.66035016303, 9929.270735892145, -121076.40458064135, 75665.08062661656, -70260.02648592311, 46630.67866929516, -113574.57799608445, 0.006, 0.962, 0.016, 192.0, 0.0, 0.0, 0.0, 0.0, 0.0, 0.0, 0.0, 0.0, 0.0, 1.6664058837463188E9, 0.0, 2022-10-21 19:31:23.746
233.0, -136347.87635181862, -164916.0209198023, 9938.993744730204, -121070.05668521604, 75671.62968774197, -70234.90312515535, 46634.634928063744, -113571.40404837181, 0.006, 0.962, 0.016, 192.0, 0.0, 0.0, 0.0, 0.0, 0.0, 0.0, 0.0, 0.0, 0.0, 1.6664058837463295E9, 0.0, 2022-10-21 19:31:23.746
234.0, -136342.1319534936, -164904.3756609411, 9947.643869834408, -121063.68643804628, 75674.35660056552, -70247.3306950725, 46625.18014015915, -113564.67617329076, 0.006, 0.962, 0.016, 192.0, 0.0, 0.0, 0.0, 0.0, 0.0, 0.0, 0.0, 0.0, 0.0, 1.6664058837463405E9, 0.0, 2022-10-21 19:31:23.746
235.0, -136352.01142454284, -164909.74007961038, 9945.721619811251, -121071.73306605019, 75663.7618736937, -70247.42010205032, 46620.79919824591, -113577.37196414138, 0.006, 0.962, 0.016, 192.0, 0.0, 0.0, 0.0, 0.0, 0.0, 0.0, 0.0, 0.0, 0.0, 1.6664058837463508E9, 0.0, 2022-10-21 19:31:23.746
236.0, -136366.69652064997, -164921.25122800484, 9934.590451072509, -121081.836054544, 75649.63557119794, -70224.1742878168, 46614.853634220795, -113591.8111910595, 0.006, 0.962, 0.016, 192.0, 0.0, 0.0, 0.0, 0.0, 0.0, 0.0, 0.0, 0.0, 0.0, 1.6664058837463615E9, 0.0, 2022-10-21 19:31:23.746
237.0, -136352.10083152066, -164905.6273586306, 9952.449494892298, -121068.71558054873, 75660.90085040341, -70214.85361037894, 46618.72048601157, -113582.42345838828, 0.006, 0.962, 0.016, 192.0, 0.0, 0.0, 0.0, 0.0, 0.0, 0.0, 0.0, 0.0, 0.0, 1.6664058837463722E9, 0.0, 2022-10-21 19:31:23.746
238.0, -136347.11639250713, -164895.09968699215, 9960.227901962746, -121055.52805132009, 75668.6122022405, -70212.35021499994, 46615.635945276736, -113584.72568806716, 0.006, 0.962, 0.016, 192.0, 0.0, 0.0, 0.0, 0.0, 0.0, 0.0, 0.0, 0.0, 0.0, 1.6664058837463827E9, 0.0, 2022-10-21 19:31:23.746
239.0, -136349.41862218603, -164893.98209976938, 9961.300785696601, -121055.75156876464, 75665.19238533883, -70208.88569460937, 46611.299706852406, -113590.26892069209, 0.006, 0.962, 0.016, 192.0, 0.0, 0.0, 0.0, 0.0, 0.0, 0.0, 0.0, 0.0, 0.0, 1.6664058837463934E9, 0.0, 2022-10-21 19:31:23.746
240.0, -136353.77721235482, -164898.13952423807, 9962.150151985903, -121051.3259233625, 75664.79005393863, -70181.99654602964, 46618.87694822275, -113588.97251951367, 0.002, 0.962, 0.018000000000000002, 192.0, 0.0, 16.0, 30.0, 16.0, 0.0, 144.0, 0.0, 0.0, 0.0, 1.666405883746405E9, 0.0, 2022-10-21 19:31:23.746
241.0, -136352.65962513204, -164896.10551549264, 9967.939253799826, -121043.88279245887, 75668.16516735138, -70171.15594996882, 46624.017849447475, -113574.39918212882, 0.002, 0.962, 0.018000000000000002, 192.0, 0.0, 0.0, 0.0, 0.0, 0.0, 0.0, 0.0, 0.0, 0.0, 1.6664058842239807E9, 0.0, 2022-10-21 19:31:24.223
242.0, -136350.89383732007, -164890.42817240098, 9973.16956200237, -121039.59125752345, 75671.13794936394, -70173.97226977018, 46622.967317458075, -113579.808304287, 0.002, 0.962, 0.018000000000000002, 192.0, 0.0, 0.0, 0.0, 0.0, 0.0, 0.0, 0.0, 0.0, 0.0, 1.666405884224136E9, 0.0, 2022-10-21 19:31:24.224
243.0, -136355.36418621114, -164894.29502419176, 9971.381422445944, -121041.6699697578, 75664.07479811607, -70177.10151399393, 46619.65925927869, -113590.47008639218, 0.002, 0.962, 0.018000000000000002, 192.0, 0.0, 0.0, 0.0, 0.0, 0.0, 0.0, 0.0, 0.0, 0.0, 1.666405884224221E9, 0.0, 2022-10-21 19:31:24.224
244.0, -136382.7450731689, -164919.4183849595, 9951.957756514283, -121067.19566192575, 75636.58215243604, -70173.25701394762, 46603.9012794377, -113610.72076686869, 0.002, 0.962, 0.018000000000000002, 192.0, 0.0, 0.0, 0.0, 0.0, 0.0, 0.0, 0.0, 0.0, 0.0, 1.6664058842242367E9, 0.0, 2022-10-21 19:31:24.224
245.0, -136367.59059042818, -164900.84408531716, 9976.030585292649, -121045.49211805966, 75653.41301601089, -70141.83046124344, 46623.68257328065, -113583.45163863321, 0.002, 0.962, 0.018000000000000002, 192.0, 0.0, 0.0, 0.0, 0.0, 0.0, 0.0, 0.0, 0.0, 0.0, 1.6664058842242515E9, 0.0, 2022-10-21 19:31:24.224
246.0, -136348.16692449653, -164879.81109378472, 9998.762309403695, -121023.94503640474, 75682.29146984714, -70137.65068503031, 46635.618404819776, -113571.56051058299, 0.002, 0.962, 0.018000000000000002, 192.0, 0.0, 0.0, 0.0, 0.0, 0.0, 0.0, 0.0, 0.0, 0.0, 1.6664058842242663E9, 0.0, 2022-10-21 19:31:24.224
247.0, -136352.54786640976, -164882.80622754173, 9997.55531520311, -121026.00139689463, 75679.3633913235, -70142.07633043246, 46631.97507047356, -113577.34961239692, 0.002, 0.962, 0.018000000000000002, 192.0, 0.0, 0.0, 0.0, 0.0, 0.0, 0.0, 0.0, 0.0, 0.0, 1.6664058842242825E9, 0.0, 2022-10-21 19:31:24.224
248.0, -136357.71111937895, -164886.11428572112, 9993.3084837566, -121020.43581252526, 75673.86486218749, -70120.12691737735, 46633.874968752265, -113584.43511538925, 0.002, 0.962, 0.018000000000000002, 192.0, 0.0, 0.0, 0.0, 0.0, 0.0, 0.0, 0.0, 0.0, 0.0, 1.6664058842242973E9, 0.0, 2022-10-21 19:31:24.224
249.0, -136355.05126178876, -164882.87328277508, 10001.913905371894, -121012.3668327769, 75678.44696980083, -70084.5429402045, 46646.36959390278, -113572.94631873922, 0.002, 0.962, 0.018000000000000002, 192.0, 0.0, 0.0, 0.0, 0.0, 0.0, 0.0, 0.0, 0.0, 0.0, 1.6664058842243116E9, 0.0, 2022-10-21 19:31:24.224
250.0, -136364.46134620445, -164891.21048345693, 9994.157850045902, -121027.87894342888, 75669.34980980752, -70082.73244890363, 46633.51734084098, -113575.62852807385, 0.006, 0.9560000000000001, 0.02, 192.0, 0.0, 48.0, 29.0, 224.0, 0.0, 160.0, 0.0, 0.0, 0.0, 1.6664058842243264E9, 0.0, 2022-10-21 19:31:24.224
251.0, -136364.72956713793, -164887.29892817725, 9999.231696037257, -121028.97417890718, 75666.04175162813, -70095.4505914987, 46623.54846281391, -113570.82290301597, 0.006, 0.9560000000000001, 0.02, 192.0, 0.0, 0.0, 0.0, 0.0, 0.0, 0.0, 0.0, 0.0, 0.0, 1.666405884224342E9, 0.0, 2022-10-21 19:31:24.224
252.0, -136363.94725608197, -164882.44859963044, 10014.833213667062, -121013.32795778847, 75674.08837963204, -70093.3495275199, 46633.36087862979, -113572.70044955022, 0.006, 0.9560000000000001, 0.02, 192.0, 0.0, 0.0, 0.0, 0.0, 0.0, 0.0, 0.0, 0.0, 0.0, 1.666405884224357E9, 0.0, 2022-10-21 19:31:24.224
253.0, -136362.42733745903, -164876.05600071623, 10028.199556851336, -121001.8615128829, 75685.6665832599, -70061.54299516, 46649.94587301563, -113574.77916178455, 0.006, 0.9560000000000001, 0.02, 192.0, 0.0, 0.0, 0.0, 0.0, 0.0, 0.0, 0.0, 0.0, 0.0, 1.6664058842243724E9, 0.0, 2022-10-21 19:31:24.224
254.0, -136360.63919790258, -164874.67019256, 10035.46387379931, -120992.83140812295, 75695.3225368646, -70049.56246013194, 46654.37151841778, -113571.76167628309, 0.006, 0.9560000000000001, 0.02, 192.0, 0.0, 0.0, 0.0, 0.0, 0.0, 0.0, 0.0, 0.0, 0.0, 1.6664058842243867E9, 0.0, 2022-10-21 19:31:24.224
255.0, -136362.65085490356, -164874.87135826008, 10032.93812667586, -121002.04032683854, 75690.2710426177, -70056.62561137982, 46643.575625845864, -113579.09304846443, 0.006, 0.9560000000000001, 0.02, 192.0, 0.0, 0.0, 0.0, 0.0, 0.0, 0.0, 0.0, 0.0, 0.0, 1.6664058842244012E9, 0.0, 2022-10-21 19:31:24.224
0.0, -136362.27087524784, -164872.92675649247, 10038.704876745329, -120997.4582192252, 75692.34975485204, -70046.81319556394, 46650.25879743801, -113577.2602054191, 0.006, 0.9560000000000001, 0.02, 192.0, 0.0, 0.0, 0.0, 0.0, 0.0, 0.0, 0.0, 0.0, 0.0, 1.666405884224416E9, 0.0, 2022-10-21 19:31:24.224
1.0, -136364.39429097107, -164876.65949781652, 10040.202443623835, -120998.68756517024, 75689.10875190601, -70014.78314575949, 46660.04886150943, -113576.6567083188, 0.006, 0.9560000000000001, 0.02, 192.0, 0.0, 0.0, 0.0, 0.0, 0.0, 0.0, 0.0, 0.0, 0.0, 1.66640588422443E9, 0.0, 2022-10-21 19:31:24.224
2.0, -136353.19606699896, -164863.62843079906, 10047.645574527452, -120995.37950699085, 75687.65588851641, -70006.84827647785, 46657.23254170806, -113580.054173476, 0.006, 0.9560000000000001, 0.02, 192.0, 0.0, 0.0, 0.0, 0.0, 0.0, 0.0, 0.0, 0.0, 0.0, 1.66640588422446E9, 0.0, 2022-10-21 19:31:24.224
3.0, -136356.41471820054, -164866.04241920024, 10048.830216983582, -120999.805152393, 75684.43723731485, -70012.01152944703, 46649.58824510434, -113578.08721996394, 0.006, 0.9560000000000001, 0.02, 192.0, 0.0, 0.0, 0.0, 0.0, 0.0, 0.0, 0.0, 0.0, 0.0, 1.666405884224476E9, 0.0, 2022-10-21 19:31:24.224
4.0, -136351.76555535384, -164863.20374765442, 10063.492961346265, -120993.99369883463, 75686.02421117119, -69989.30215708044, 46664.29569295594, -113563.89386223482, 0.006, 0.9560000000000001, 0.02, 192.0, 0.0, 0.0, 30.0, 16.0, 0.0, 160.0, 0.0, 0.0, 0.0, 1.6664058842244904E9, 0.0, 2022-10-21 19:31:24.224
5.0, -136347.07168901822, -164856.65468652901, 10068.253882915245, -120988.91985284328, 75685.57717628208, -69960.04372358845, 46673.66107388271, -113564.27384189056, 0.006, 0.9560000000000001, 0.02, 192.0, 0.0, 0.0, 0.0, 0.0, 0.0, 0.0, 0.0, 0.0, 0.0, 1.6664058842245052E9, 0.0, 2022-10-21 19:31:24.224
6.0, -136350.69267162, -164863.8742999881, 10063.09062994607, -121004.34255651744, 75679.11752213449, -69940.03891230094, 46667.290826712946, -113569.63826055983, 0.006, 0.9560000000000001, 0.02, 192.0, 0.0, 0.0, 0.0, 0.0, 0.0, 0.0, 0.0, 0.0, 0.0, 1.6664058842245247E9, 0.0, 2022-10-21 19:31:24.224
7.0, -136359.07457579073, -164865.8189017557, 10060.095496189058, -121007.69531818574, 75671.87555693097, -69947.37028448228, 46651.10816372731, -113578.7577722976, 0.006, 0.9560000000000001, 0.02, 192.0, 0.0, 0.0, 0.0, 0.0, 0.0, 0.0, 0.0, 0.0, 0.0, 1.6664058842245393E9, 0.0, 2022-10-21 19:31:24.224
8.0, -136362.18146827002, -164866.08712268915, 10066.979833481293, -121004.90135012881, 75669.37216155198, -69951.03597057295, 46649.36472765979, -113578.3107374085, 0.006, 0.9560000000000001, 0.02, 192.0, 0.0, 0.0, 0.0, 0.0, 0.0, 0.0, 0.0, 0.0, 0.0, 1.6664058842245533E9, 0.0, 2022-10-21 19:31:24.224
9.0, -136349.0386425303, -164856.43116908445, 10094.450127416865, -120976.78285560405, 75692.59562404105, -69919.72117659106, 46676.63385589527, -113561.055190689, 0.006, 0.9560000000000001, 0.02, 192.0, 0.0, 0.0, 0.0, 0.0, 0.0, 0.0, 0.0, 0.0, 0.0, 1.6664058842245677E9, 0.0, 2022-10-21 19:31:24.224
10.0, -136347.20579948495, -164852.8101864827, 10103.591990899085, -120965.56227988748, 75704.33028988008, -69895.04485071241, 46683.60760016532, -113563.96091746818, 0.006, 0.9560000000000001, 0.02, 192.0, 0.0, 0.0, 0.0, 0.0, 0.0, 0.0, 0.0, 0.0, 0.0, 1.666405884224582E9, 0.0, 2022-10-21 19:31:24.224
11.0, -136351.5420379093, -164856.09589291763, 10102.407348442954, -120980.806169606, 75696.75304850972, -69913.32857767685, 46668.542524402445, -113571.82873151646, 0.006, 0.9560000000000001, 0.02, 192.0, 0.0, 0.0, 0.0, 0.0, 0.0, 0.0, 0.0, 0.0, 0.0, 1.666405884224597E9, 0.0, 2022-10-21 19:31:24.224
12.0, -136345.4847151619, -164852.09493066013, 10119.059398062158, -120970.72553285665, 75707.1689614259, -69918.42477541266, 46676.298579728435, -113562.41864710077, 0.006, 0.9560000000000001, 0.02, 192.0, 0.0, 0.0, 0.0, 0.0, 0.0, 0.0, 0.0, 0.0, 0.0, 1.6664058842246113E9, 0.0, 2022-10-21 19:31:24.224
13.0, -136336.1863894685, -164846.1046631461, 10127.106026066069, -120958.72264608415, 75711.41579287242, -69881.63380403921, 46691.22954502458, -113554.39437084131, 0.006, 0.9560000000000001, 0.02, 192.0, 0.0, 0.0, 0.0, 0.0, 0.0, 0.0, 0.0, 0.0, 0.0, 1.6664058842246258E9, 0.0, 2022-10-21 19:31:24.224
14.0, -136340.09794474818, -164846.1046631461, 10129.430607489421, -120961.2483932076, 75702.36333636801, -69856.66690548265, 46685.08281529937, -113574.26507166208, -0.002, 0.966, 0.016, 192.0, 255.0, 240.0, 30.0, 48.0, 0.0, 128.0, 0.0, 0.0, 0.0, 1.6664058842246404E9, 0.0, 2022-10-21 19:31:24.224
15.0, -136339.80737207024, -164845.2552968568, 10131.911651123959, -120967.70804735519, 75701.37985961197, -69871.41905682314, 46670.777698847975, -113579.67419382028, -0.002, 0.966, 0.016, 192.0, 0.0, 0.0, 0.0, 0.0, 0.0, 0.0, 0.0, 0.0, 0.0, 1.6664058842246556E9, 0.0, 2022-10-21 19:31:24.224
16.0, -136342.7801540828, -164847.5128230468, 10132.537499968708, -120969.22796597815, 75704.03971720216, -69882.12554241724, 46667.55904764641, -113578.62366183088, -0.002, 0.966, 0.016, 192.0, 0.0, 0.0, 0.0, 0.0, 0.0, 0.0, 0.0, 0.0, 0.0, 1.66640588422467E9, 0.0, 2022-10-21 19:31:24.224
17.0, -136345.685880862, -164851.89376496003, 10139.824168661138, -120960.62254436285, 75708.26419690422, -69846.72037920004, 46681.90886758672, -113579.29421416453, -0.002, 0.966, 0.016, 192.0, 0.0, 0.0, 0.0, 0.0, 0.0, 0.0, 0.0, 0.0, 0.0, 1.6664058842246845E9, 0.0, 2022-10-21 19:31:24.224
