%OpenBCI Raw EEG Data
%Number of channels = 8
%Sample Rate = 250 Hz
%Board = OpenBCI_GUI$BoardCytonSerial
Sample Index, EXG Channel 0, EXG Channel 1, EXG Channel 2, EXG Channel 3, EXG Channel 4, EXG Channel 5, EXG Channel 6, EXG Channel 7, Accel Channel 0, Accel Channel 1, Accel Channel 2, Other, Other, Other, Other, Other, Other, Other, Analog Channel 0, Analog Channel 1, Analog Channel 2, Timestamp, Other, Timestamp (Formatted)
185.0, -158341.50115746274, -169926.74558481522, 62962.7630666212, -60604.76578530858, 79118.69336589496, -76668.87511835994, 91901.00781929586, -128262.11044336682, 0.0, 0.0, 0.0, 192.0, 0.0, 0.0, 0.0, 0.0, 0.0, 0.0, 0.0, 0.0, 0.0, 1.6664084469656231E9, 0.0, 2022-10-21 20:14:06.965
186.0, -158339.08716906156, -169928.600779605, 62965.82525561158, -60599.42371838376, 79121.19676127395, -76640.26488545715, 91944.52666575035, -128253.1250420958, 0.0, 0.0, 0.0, 192.0, 0.0, 0.0, 0.0, 0.0, 0.0, 0.0, 0.0, 0.0, 0.0, 1.666408446965659E9, 0.0, 2022-10-21 20:14:06.965
187.0, -158344.89862261995, -169935.03808200813, 62963.8135986106, -60602.93294226324, 79119.69919439545, -76631.72651907522, 91961.93867468103, -128256.81307993091, 0.0, 0.0, 0.0, 192.0, 0.0, 0.0, 0.0, 0.0, 0.0, 0.0, 0.0, 0.0, 0.0, 1.6664084469656851E9, 0.0, 2022-10-21 20:14:06.965
188.0, -158351.87236689002, -169940.58131463305, 62961.5113689317, -60608.61028535489, 79118.2686827503, -76655.4417199423, 91926.66762193057, -128266.91606842472, 0.0, 0.0, 0.0, 192.0, 0.0, 0.0, 0.0, 0.0, 0.0, 0.0, 0.0, 0.0, 0.0, 1.6664084469657068E9, 0.0, 2022-10-21 20:14:06.965
189.0, -158348.31843952162, -169939.79900357712, 62963.54537767713, -60608.8561545439, 79116.94992982745, -76668.36102823747, 91900.1361012621, -128266.73725446907, -0.026000000000000002, 0.934, -0.184, 192.0, 255.0, 48.0, 29.0, 48.0, 250.0, 64.0, 0.0, 0.0, 0.0, 1.666408446965726E9, 0.0, 2022-10-21 20:14:06.965
190.0, -158347.04439008766, -169938.43554716534, 62968.97685157977, -60597.81439278298, 79120.21328451793, -76646.29985646009, 91936.1447615796, -128255.96371364161, -0.026000000000000002, 0.934, -0.184, 192.0, 0.0, 0.0, 0.0, 0.0, 0.0, 0.0, 0.0, 0.0, 0.0, 1.6664084469657483E9, 0.0, 2022-10-21 20:14:06.965
191.0, -158354.375762269, -169945.09636701303, 62962.49484568773, -60606.28570393154, 79116.63700540508, -76633.49230688719, 91963.10096539272, -128262.33396081137, -0.026000000000000002, 0.934, -0.184, 192.0, 0.0, 0.0, 0.0, 0.0, 0.0, 0.0, 0.0, 0.0, 0.0, 1.6664084469657688E9, 0.0, 2022-10-21 20:14:06.965
192.0, -158353.74991342425, -169944.40346293492, 62961.35490672051, -60617.01454127009, 79109.75266811284, -76653.72063561925, 91930.80269465479, -128268.25717309203, -0.026000000000000002, 0.934, -0.184, 192.0, 0.0, 0.0, 0.0, 0.0, 0.0, 0.0, 0.0, 0.0, 0.0, 1.6664084469657888E9, 0.0, 2022-10-21 20:14:06.965
193.0, -158341.09882606255, -169934.18871571883, 62972.6648894149, -60607.93973302123, 79116.14526702705, -76668.87511835994, 91898.61618263915, -128261.59635324436, -0.026000000000000002, 0.934, -0.184, 192.0, 0.0, 0.0, 0.0, 0.0, 0.0, 0.0, 0.0, 0.0, 0.0, 1.6664084469658084E9, 0.0, 2022-10-21 20:14:06.965
194.0, -158343.19989004135, -169933.69697734082, 62971.65906091441, -60593.47815435865, 79119.92271184, -76663.24247875721, 91918.33042124873, -128256.14252759726, -0.026000000000000002, 0.934, -0.184, 192.0, 0.0, 0.0, 0.0, 0.0, 0.0, 0.0, 0.0, 0.0, 0.0, 1.666408446965829E9, 0.0, 2022-10-21 20:14:06.965
195.0, -158350.12893082248, -169940.5142593997, 62964.953537577814, -60598.19437243872, 79118.35808972814, -76645.02580702613, 91956.93188392304, -128260.1211381103, -0.026000000000000002, 0.934, -0.184, 192.0, 0.0, 0.0, 0.0, 0.0, 0.0, 0.0, 0.0, 0.0, 0.0, 1.6664084469658482E9, 0.0, 2022-10-21 20:14:06.965
196.0, -158343.91514586392, -169937.5638291316, 62968.50746494621, -60604.966951008675, 79118.0228135613, -76645.0928622595, 91943.0514506163, -128260.59052474386, -0.026000000000000002, 0.934, -0.184, 192.0, 0.0, 0.0, 0.0, 0.0, 0.0, 0.0, 0.0, 0.0, 0.0, 1.666408446965868E9, 0.0, 2022-10-21 20:14:06.965
197.0, -158348.40784649944, -169943.5764483901, 62963.85830209951, -60613.773538324065, 79116.54759842725, -76668.13751079292, 91902.57244140774, -128264.88205967928, -0.026000000000000002, 0.934, -0.184, 192.0, 0.0, 0.0, 0.0, 0.0, 0.0, 0.0, 0.0, 0.0, 0.0, 1.6664084469658878E9, 0.0, 2022-10-21 20:14:06.965
198.0, -158352.31940177912, -169947.5103554142, 62959.589118908545, -60606.62098009837, 79117.59813041665, -76664.80710086907, 91912.51896769035, -128265.64201899077, -0.026000000000000002, 0.934, -0.184, 192.0, 0.0, 0.0, 0.0, 0.0, 0.0, 0.0, 0.0, 0.0, 0.0, 1.6664084469659073E9, 0.0, 2022-10-21 20:14:06.965
199.0, -158355.09101809157, -169948.9185153149, 62959.589118908545, -60602.48590737414, 79125.68946190947, -76631.32418767503, 91960.77638396937, -128258.26594332051, -0.026000000000000002, 0.9460000000000001, -0.18, 192.0, 255.0, 48.0, 29.0, 144.0, 250.0, 96.0, 0.0, 0.0, 0.0, 1.6664084469659271E9, 0.0, 2022-10-21 20:14:06.965
200.0, -158352.54291922366, -169948.09150077004, 62962.27132824318, -60611.98539876764, 79122.18023802999, -76637.64973135588, 91951.52276176486, -128259.09295786536, -0.026000000000000002, 0.9460000000000001, -0.18, 192.0, 0.0, 0.0, 0.0, 0.0, 0.0, 0.0, 0.0, 0.0, 0.0, 1.666408446965949E9, 0.0, 2022-10-21 20:14:06.965
201.0, -158347.6255354435, -169944.64933212392, 62961.48901718725, -60616.70161684771, 79120.23563626238, -76667.77988288163, 91905.5899269092, -128266.58079225788, -0.026000000000000002, 0.9460000000000001, -0.18, 192.0, 0.0, 0.0, 0.0, 0.0, 0.0, 0.0, 0.0, 0.0, 0.0, 1.6664084469660985E9, 0.0, 2022-10-21 20:14:06.966
202.0, -158348.69841917735, -169945.14107050194, 62959.70087763082, -60609.81727955548, 79123.58839793068, -76668.71865614876, 91907.91450833256, -128265.99964690206, -0.026000000000000002, 0.9460000000000001, -0.18, 192.0, 0.0, 0.0, 0.0, 0.0, 0.0, 0.0, 0.0, 0.0, 0.0, 1.6664084469661076E9, 0.0, 2022-10-21 20:14:06.966
203.0, -158351.64884944545, -169946.54923040263, 62963.18774976585, -60605.57044810897, 79128.43872647747, -76634.27461794313, 91959.12235487967, -128254.64496071875, -0.026000000000000002, 0.9460000000000001, -0.18, 192.0, 0.0, 0.0, 0.0, 0.0, 0.0, 0.0, 0.0, 0.0, 0.0, 1.666408446966116E9, 0.0, 2022-10-21 20:14:06.966
204.0, -158352.14058782347, -169947.5103554142, 62961.01963055368, -60610.51018363359, 79126.49412470986, -76638.07441450053, 91957.11069787868, -128260.05408287694, -0.026000000000000002, 0.9460000000000001, -0.18, 192.0, 0.0, 0.0, 0.0, 0.0, 0.0, 0.0, 0.0, 0.0, 0.0, 1.6664084469661243E9, 0.0, 2022-10-21 20:14:06.966
205.0, -158344.89862261995, -169943.77761409018, 62965.48997944474, -60614.555849380005, 79128.21520903292, -76661.76726362316, 91917.48105495943, -128262.6245334893, -0.026000000000000002, 0.9460000000000001, -0.18, 192.0, 0.0, 0.0, 0.0, 0.0, 0.0, 0.0, 0.0, 0.0, 0.0, 1.666408446966133E9, 0.0, 2022-10-21 20:14:06.966
206.0, -158346.10561682054, -169944.4258146794, 62966.786380623154, -60612.61124761239, 79128.95281659995, -76665.83528111402, 91909.5461856778, -128259.0706061209, -0.026000000000000002, 0.9460000000000001, -0.18, 192.0, 0.0, 0.0, 0.0, 0.0, 0.0, 0.0, 0.0, 0.0, 0.0, 1.6664084469661412E9, 0.0, 2022-10-21 20:14:06.966
207.0, -158355.89568089196, -169954.03706479515, 62962.47249394328, -60608.90085803281, 79127.0752700657, -76644.06468201455, 91953.3556048102, -128257.84126017586, -0.026000000000000002, 0.9460000000000001, -0.18, 192.0, 0.0, 0.0, 0.0, 0.0, 0.0, 0.0, 0.0, 0.0, 0.0, 1.666408446966152E9, 0.0, 2022-10-21 20:14:06.966
208.0, -158356.90150939245, -169954.50645142872, 62961.75723812071, -60615.22640171366, 79126.38236598759, -76632.64294059789, 91972.86867771969, -128261.3728357998, -0.026000000000000002, 0.9460000000000001, -0.18, 192.0, 0.0, 0.0, 0.0, 0.0, 0.0, 0.0, 0.0, 0.0, 0.0, 1.6664084469661603E9, 0.0, 2022-10-21 20:14:06.966
209.0, -158352.67702969039, -169947.68916936984, 62962.83012185456, -60622.647180872824, 79119.74389788436, -76659.88971708891, 91929.88627313213, -128266.87136493581, -0.03, 0.9480000000000001, -0.182, 192.0, 255.0, 16.0, 29.0, 160.0, 250.0, 80.0, 0.0, 0.0, 0.0, 1.6664084469661689E9, 0.0, 2022-10-21 20:14:06.966
210.0, -158352.54291922366, -169946.2586577247, 62963.16539802139, -60619.026198271065, 79123.58839793068, -76670.97618233874, 91906.5957554097, -128263.60801024533, -0.03, 0.9480000000000001, -0.182, 192.0, 0.0, 0.0, 0.0, 0.0, 0.0, 0.0, 0.0, 0.0, 0.0, 1.6664084469661784E9, 0.0, 2022-10-21 20:14:06.966
211.0, -158358.98022162679, -169952.20422174982, 62961.198444509326, -60616.791023825535, 79124.37070898661, -76647.93153380531, 91942.73852619392, -128260.09878636585, -0.03, 0.9480000000000001, -0.182, 192.0, 0.0, 0.0, 0.0, 0.0, 0.0, 0.0, 0.0, 0.0, 0.0, 1.6664084469661868E9, 0.0, 2022-10-21 20:14:06.966
212.0, -158358.51083499324, -169951.9136490719, 62964.327688733065, -60617.685093603744, 79124.03543281979, -76633.60406560947, 91963.81622121528, -128257.70714970914, -0.03, 0.9480000000000001, -0.182, 192.0, 0.0, 0.0, 0.0, 0.0, 0.0, 0.0, 0.0, 0.0, 0.0, 1.666408446966195E9, 0.0, 2022-10-21 20:14:06.966
213.0, -158355.96273612534, -169950.55019266013, 62965.17705502237, -60621.21666922768, 79125.46594446492, -76648.11034776096, 91932.85905514468, -128260.6799317217, -0.03, 0.9480000000000001, -0.182, 192.0, 0.0, 0.0, 0.0, 0.0, 0.0, 0.0, 0.0, 0.0, 0.0, 1.6664084469662035E9, 0.0, 2022-10-21 20:14:06.966
214.0, -158353.57109946862, -169947.95739030332, 62968.01572656819, -60621.820166327976, 79125.8235723762, -76668.96452533777, 91903.6453251416, -128256.00841713054, -0.03, 0.9480000000000001, -0.182, 192.0, 0.0, 0.0, 0.0, 0.0, 0.0, 0.0, 0.0, 0.0, 0.0, 1.6664084469662116E9, 0.0, 2022-10-21 20:14:06.966
215.0, -158364.50110250726, -169959.42383520887, 62962.00310730972, -60619.18266048225, 79126.71764215441, -76657.07339728755, 91932.90375863359, -128261.59635324436, -0.03, 0.9480000000000001, -0.182, 192.0, 0.0, 0.0, 0.0, 0.0, 0.0, 0.0, 0.0, 0.0, 0.0, 1.66640844696622E9, 0.0, 2022-10-21 20:14:06.966
216.0, -158361.34950653906, -169957.27806774116, 62964.84177885554, -60619.4061779268, 79128.21520903292, -76633.44760339828, 91969.202991629, -128260.0764346214, -0.03, 0.9480000000000001, -0.182, 192.0, 0.0, 0.0, 0.0, 0.0, 0.0, 0.0, 0.0, 0.0, 0.0, 1.6664084469662538E9, 0.0, 2022-10-21 20:14:06.966
217.0, -158348.60901219954, -169944.3140559571, 62972.68724115935, -60619.76380583809, 79132.50674396835, -76640.06371975705, 91948.19235184102, -128255.8743066638, -0.03, 0.9480000000000001, -0.182, 192.0, 0.0, 0.0, 0.0, 0.0, 0.0, 0.0, 0.0, 0.0, 0.0, 1.666408446966262E9, 0.0, 2022-10-21 20:14:06.966
218.0, -158349.88306163347, -169944.78344259065, 62971.16732253639, -60625.68701811875, 79130.24921777836, -76664.00243806868, 91907.55688042127, -128258.06477762041, -0.026000000000000002, 0.9460000000000001, -0.18, 192.0, 255.0, 48.0, 29.0, 144.0, 250.0, 96.0, 0.0, 0.0, 0.0, 1.6664084469662707E9, 0.0, 2022-10-21 20:14:06.966
219.0, -158360.58954722757, -169958.17213751937, 62963.8135986106, -60622.04368377253, 79127.16467704352, -76660.06853104456, 91924.81242714077, -128260.38935904377, -0.026000000000000002, 0.9460000000000001, -0.18, 192.0, 0.0, 0.0, 0.0, 0.0, 0.0, 0.0, 0.0, 0.0, 0.0, 1.6664084469662795E9, 0.0, 2022-10-21 20:14:06.966
220.0, -158365.39517228547, -169961.21197476532, 62961.064334042596, -60622.021332028075, 79125.10831655364, -76641.02484476863, 91959.83761070223, -128260.25524857704, -0.026000000000000002, 0.9460000000000001, -0.18, 192.0, 0.0, 0.0, 0.0, 0.0, 0.0, 0.0, 0.0, 0.0, 0.0, 1.666408446966288E9, 0.0, 2022-10-21 20:14:06.966
221.0, -158362.44474201737, -169958.77563461967, 62963.72419163278, -60628.391579197836, 79127.94698809946, -76643.95292329228, 91948.52762800785, -128264.63619049027, -0.026000000000000002, 0.9460000000000001, -0.18, 192.0, 0.0, 0.0, 0.0, 0.0, 0.0, 0.0, 0.0, 0.0, 0.0, 1.6664084469662964E9, 0.0, 2022-10-21 20:14:06.966
222.0, -158361.21539607234, -169956.98749506325, 62962.80777011011, -60633.37601821137, 79128.41637473302, -76663.86832760196, 91913.56949967975, -128264.68089397918, -0.026000000000000002, 0.9460000000000001, -0.18, 192.0, 0.0, 0.0, 0.0, 0.0, 0.0, 0.0, 0.0, 0.0, 0.0, 1.6664084469663048E9, 0.0, 2022-10-21 20:14:06.966
223.0, -158361.23774781678, -169956.98749506325, 62964.059467799605, -60628.883317575855, 79126.6282351766, -76656.849879843, 91922.75606665088, -128257.95301889814, -0.026000000000000002, 0.9460000000000001, -0.18, 192.0, 0.0, 0.0, 0.0, 0.0, 0.0, 0.0, 0.0, 0.0, 0.0, 1.6664084469663131E9, 0.0, 2022-10-21 20:14:06.966
224.0, -158354.62163145802, -169951.5113176717, 62969.714459146795, -60621.462538416694, 79127.25408402135, -76637.38151042242, 91962.18454387004, -128251.023978117, -0.026000000000000002, 0.9460000000000001, -0.18, 192.0, 0.0, 0.0, 0.0, 0.0, 0.0, 0.0, 0.0, 0.0, 0.0, 1.6664084469663217E9, 0.0, 2022-10-21 20:14:06.966
225.0, -158356.18625356987, -169954.12647177296, 62968.395706223935, -60625.99994254112, 79131.97030210141, -76635.32514993253, 91961.49163979193, -128255.29316130796, -0.026000000000000002, 0.9460000000000001, -0.18, 192.0, 0.0, 0.0, 0.0, 0.0, 0.0, 0.0, 0.0, 0.0, 0.0, 1.6664084469663298E9, 0.0, 2022-10-21 20:14:06.966
226.0, -158362.19887282836, -169955.17700376236, 62961.690182887345, -60636.52761417957, 79127.2764357658, -76657.9451153213, 91919.20213928248, -128260.29995206595, -0.026000000000000002, 0.9460000000000001, -0.18, 192.0, 0.0, 0.0, 0.0, 0.0, 0.0, 0.0, 0.0, 0.0, 0.0, 1.666408446966338E9, 0.0, 2022-10-21 20:14:06.966
227.0, -158364.85873041855, -169957.05455029663, 62958.02449679667, -60634.538308923045, 79117.91105483903, -76670.93147884983, 91907.82510135474, -128262.60218174485, -0.026000000000000002, 0.9460000000000001, -0.18, 192.0, 0.0, 0.0, 0.0, 0.0, 0.0, 0.0, 0.0, 0.0, 0.0, 1.6664084469663465E9, 0.0, 2022-10-21 20:14:06.966
228.0, -158369.6196519875, -169965.30234400064, 62950.11197925949, -60633.13014902236, 79115.09473503765, -76653.87709783044, 91945.42073552856, -128263.94328641216, -0.022, 0.9400000000000001, -0.182, 192.0, 255.0, 80.0, 29.0, 96.0, 250.0, 80.0, 0.0, 0.0, 0.0, 1.6664084469663556E9, 0.0, 2022-10-21 20:14:06.966
229.0, -158371.34073631058, -169969.57152719158, 62944.16641523438, -60641.82497761548, 79109.171522757, -76650.70315011778, 91949.8016774418, -128270.00060915956, -0.022, 0.9400000000000001, -0.182, 192.0, 0.0, 0.0, 0.0, 0.0, 0.0, 0.0, 0.0, 0.0, 0.0, 1.6664084469663649E9, 0.0, 2022-10-21 20:14:06.966
230.0, -158365.5739862411, -169962.68718989936, 62952.19069149384, -60640.75209388162, 79115.63117690459, -76664.78474912462, 91916.58698518122, -128268.10071088086, -0.022, 0.9400000000000001, -0.182, 192.0, 0.0, 0.0, 0.0, 0.0, 0.0, 0.0, 0.0, 0.0, 0.0, 1.666408446966373E9, 0.0, 2022-10-21 20:14:06.966
231.0, -158363.40586702895, -169960.87669859847, 62953.82236883907, -60640.30505899252, 79115.02767980429, -76672.56315619507, 91899.17497625054, -128265.30674282393, -0.022, 0.9400000000000001, -0.182, 192.0, 0.0, 0.0, 0.0, 0.0, 0.0, 0.0, 0.0, 0.0, 0.0, 1.6664084469663904E9, 0.0, 2022-10-21 20:14:06.966
232.0, -158365.39517228547, -169966.37522773448, 62948.07797051406, -60634.404198456315, 79115.9217495825, -76649.83143208401, 91936.92707263555, -128263.98798990107, -0.022, 0.9400000000000001, -0.182, 192.0, 0.0, 0.0, 0.0, 0.0, 0.0, 0.0, 0.0, 0.0, 0.0, 1.6664084469663987E9, 0.0, 2022-10-21 20:14:06.966
233.0, -158368.74793395377, -169970.68911441436, 62945.954554790806, -60638.583974669455, 79109.59620590165, -76647.0374640271, 91949.37699429716, -128265.23968759057, -0.022, 0.9400000000000001, -0.182, 192.0, 0.0, 0.0, 0.0, 0.0, 0.0, 0.0, 0.0, 0.0, 0.0, 1.6664084469664068E9, 0.0, 2022-10-21 20:14:06.966
234.0, -158371.16192235495, -169973.95246910484, 62944.59109837903, -60641.08737004845, 79109.171522757, -76668.96452533777, 91912.80954036827, -128273.95686792814, -0.022, 0.9400000000000001, -0.182, 192.0, 0.0, 0.0, 0.0, 0.0, 0.0, 0.0, 0.0, 0.0, 0.0, 1.6664084469664152E9, 0.0, 2022-10-21 20:14:06.966
235.0, -158373.88883517848, -169974.33244876057, 62944.92637454586, -60643.99309682764, 79107.36103145612, -76684.83426390104, 91889.83194706822, -128277.71196099663, -0.022, 0.9400000000000001, -0.182, 192.0, 0.0, 0.0, 0.0, 0.0, 0.0, 0.0, 0.0, 0.0, 0.0, 1.6664084469664235E9, 0.0, 2022-10-21 20:14:06.966
236.0, -158371.96658515534, -169970.71146615883, 62948.79322633663, -60633.778349611566, 79108.94800531244, -76663.33188573502, 91927.00289809739, -128268.99478065906, -0.022, 0.9400000000000001, -0.182, 192.0, 0.0, 0.0, 0.0, 0.0, 0.0, 0.0, 0.0, 0.0, 0.0, 1.6664084469664316E9, 0.0, 2022-10-21 20:14:06.966
237.0, -158372.34656481107, -169971.94081210386, 62947.87680481396, -60636.348800223925, 79110.55733091323, -76648.6914931168, 91953.69088097702, -128270.22412660411, -0.022, 0.9400000000000001, -0.182, 192.0, 0.0, 0.0, 0.0, 0.0, 0.0, 0.0, 0.0, 0.0, 0.0, 1.666408446966465E9, 0.0, 2022-10-21 20:14:06.966
238.0, -158365.88691066348, -169963.46950095528, 62947.94386004733, -60645.647125917334, 79107.13751401157, -76659.35327522198, 91923.11369456217, -128272.83928070538, -0.022, 0.9440000000000001, -0.182, 192.0, 255.0, 80.0, 29.0, 128.0, 250.0, 80.0, 0.0, 0.0, 0.0, 1.6664084469665058E9, 0.0, 2022-10-21 20:14:06.966
239.0, -158348.49725347725, -169941.45303266682, 62951.184862993345, -60648.23992827415, 79106.53401691128, -76676.8993946194, 91887.26149645586, -128270.71586498212, -0.022, 0.9440000000000001, -0.182, 192.0, 0.0, 0.0, 0.0, 0.0, 0.0, 0.0, 0.0, 0.0, 0.0, 1.6664084469665496E9, 0.0, 2022-10-21 20:14:06.966
240.0, -158349.54778546665, -169943.35293094552, 62949.240261225736, -60638.69573339173, 79106.91399656702, -76664.49417644671, 91909.0991507887, -128266.35727481333, -0.022, 0.9440000000000001, -0.182, 192.0, 0.0, 0.0, 0.0, 0.0, 0.0, 0.0, 0.0, 0.0, 0.0, 1.666408446966591E9, 0.0, 2022-10-21 20:14:06.966
241.0, -158366.84803567507, -169964.76590213372, 62952.14598800492, -60632.504300177614, 79116.9722815719, -76637.3368069335, 91950.96396815348, -128264.74794921256, -0.022, 0.9440000000000001, -0.182, 192.0, 0.0, 0.0, 0.0, 0.0, 0.0, 0.0, 0.0, 0.0, 0.0, 1.6664084469666312E9, 0.0, 2022-10-21 20:14:06.966
242.0, -158372.41362004445, -169975.42768423888, 62953.73296186125, -60635.67824789027, 79119.54273218426, -76647.41744368285, 91933.26138654488, -128270.13471962628, -0.022, 0.9440000000000001, -0.182, 192.0, 0.0, 0.0, 0.0, 0.0, 0.0, 0.0, 0.0, 0.0, 0.0, 1.6664084469666722E9, 0.0, 2022-10-21 20:14:06.966
243.0, -158364.99284088527, -169971.98551559277, 62953.420037438875, -60639.56745142549, 79118.96158682843, -76665.45530145828, 91897.74446460539, -128271.76639697152, -0.022, 0.9440000000000001, -0.182, 192.0, 0.0, 0.0, 0.0, 0.0, 0.0, 0.0, 0.0, 0.0, 0.0, 1.6664084469667137E9, 0.0, 2022-10-21 20:14:06.966
244.0, -158355.87332914752, -169965.59291667855, 62957.353944463015, -60631.36436121039, 79118.55925542823, -76658.45920544377, 91913.7930171243, -128266.35727481333, -0.022, 0.9440000000000001, -0.182, 192.0, 0.0, 0.0, 0.0, 0.0, 0.0, 0.0, 0.0, 0.0, 0.0, 1.666408446966732E9, 0.0, 2022-10-21 20:14:06.966
245.0, -158358.28731754867, -169965.12353004498, 62958.605642152506, -60631.09614027693, 79116.14526702705, -76644.17644073683, 91951.20983734248, -128265.7761294575, -0.022, 0.9440000000000001, -0.182, 192.0, 0.0, 0.0, 0.0, 0.0, 0.0, 0.0, 0.0, 0.0, 0.0, 1.6664084469667416E9, 0.0, 2022-10-21 20:14:06.966
246.0, -158347.53612846567, -169955.7134456293, 62959.63382239745, -60638.7627886251, 79109.97618555739, -76661.99078106771, 91932.81435165578, -128272.48165279409, -0.022, 0.9440000000000001, -0.182, 192.0, 0.0, 0.0, 0.0, 0.0, 0.0, 0.0, 0.0, 0.0, 0.0, 1.6664084469667764E9, 0.0, 2022-10-21 20:14:06.966
247.0, -158338.43896847236, -169949.7231781153, 62964.21593001079, -60639.03100955857, 79116.99463331635, -76679.93923186533, 91895.59869713768, -128269.50887078153, -0.026000000000000002, 0.936, -0.176, 192.0, 255.0, 48.0, 29.0, 64.0, 250.0, 128.0, 0.0, 0.0, 0.0, 1.666408446966786E9, 0.0, 2022-10-21 20:14:06.966
248.0, -158349.97246861132, -169962.48602419926, 62971.30143300312, -60625.463500674196, 79131.99265384587, -76654.346484464, 91916.60933692567, -128252.20862057313, -0.026000000000000002, 0.936, -0.176, 192.0, 0.0, 0.0, 0.0, 0.0, 0.0, 0.0, 0.0, 0.0, 0.0, 1.6664084469667964E9, 0.0, 2022-10-21 20:14:06.966
249.0, -158351.93942212337, -169961.90487884343, 62965.84760735603, -60623.67536111777, 79131.2773980233, -76630.05013824107, 91962.36335782568, -128253.90735315174, -0.026000000000000002, 0.936, -0.176, 192.0, 0.0, 0.0, 0.0, 0.0, 0.0, 0.0, 0.0, 0.0, 0.0, 1.6664084469668102E9, 0.0, 2022-10-21 20:14:06.966
250.0, -158338.59543068355, -169951.33250371605, 62959.87969158646, -60635.4100269568, 79123.0743078082, -76639.01318776765, 91955.2555030889, -128268.30187658095, -0.026000000000000002, 0.936, -0.176, 192.0, 0.0, 0.0, 0.0, 0.0, 0.0, 0.0, 0.0, 0.0, 0.0, 1.66640844696682E9, 0.0, 2022-10-21 20:14:06.966
251.0, -158342.68579991887, -169960.65318115393, 62961.9137003319, -60641.892032848846, 79120.45915370694, -76665.65646715838, 91916.83285437022, -128278.11429239683, -0.026000000000000002, 0.936, -0.176, 192.0, 0.0, 0.0, 0.0, 0.0, 0.0, 0.0, 0.0, 0.0, 0.0, 1.66640844696683E9, 0.0, 2022-10-21 20:14:06.966
252.0, -158342.93166910787, -169960.78729162065, 62968.84274111304, -60631.07378853248, 79128.23756077737, -76652.84891758549, 91920.83381662772, -128262.95980965612, -0.026000000000000002, 0.936, -0.176, 192.0, 0.0, 0.0, 0.0, 0.0, 0.0, 0.0, 0.0, 0.0, 0.0, 1.6664084469668396E9, 0.0, 2022-10-21 20:14:06.966
253.0, -158331.1746515244, -169948.2256112368, 62965.3111654891, -60627.51986116408, 79126.33766249868, -76634.85576329897, 91959.21176185748, -128260.41171078822, -0.026000000000000002, 0.936, -0.176, 192.0, 0.0, 0.0, 0.0, 0.0, 0.0, 0.0, 0.0, 0.0, 0.0, 1.666408446966849E9, 0.0, 2022-10-21 20:14:06.966
254.0, -158331.1299480355, -169949.1643845039, 62963.299508488126, -60630.984381554656, 79122.6272729191, -76634.83341155451, 91962.63157875914, -128270.22412660411, -0.026000000000000002, 0.936, -0.176, 192.0, 0.0, 0.0, 0.0, 0.0, 0.0, 0.0, 0.0, 0.0, 0.0, 1.6664084469668589E9, 0.0, 2022-10-21 20:14:06.966
255.0, -158335.26502075972, -169956.54046017415, 62966.45110445632, -60633.95716356721, 79124.25895026434, -76658.07922578802, 91923.80659864028, -128274.56036502843, -0.026000000000000002, 0.936, -0.176, 192.0, 0.0, 0.0, 0.0, 0.0, 0.0, 0.0, 0.0, 0.0, 0.0, 1.6664084469668684E9, 0.0, 2022-10-21 20:14:06.966
0.0, -158325.8325845996, -169947.44330018084, 62968.59687192403, -60631.252602488115, 79125.35418574265, -76666.08115030303, 91906.66281064306, -128270.69351323767, -0.026000000000000002, 0.936, -0.176, 192.0, 0.0, 0.0, 0.0, 0.0, 0.0, 0.0, 0.0, 0.0, 0.0, 1.6664084469668784E9, 0.0, 2022-10-21 20:14:06.966
1.0, -158322.4798229313, -169945.3198844576, 62973.24603477074, -60618.64621861532, 79130.60684568965, -76636.44273715529, 91948.37116579666, -128262.26690557801, -0.028, 0.934, -0.18, 192.0, 255.0, 32.0, 29.0, 48.0, 250.0, 96.0, 0.0, 0.0, 0.0, 1.666408446966888E9, 0.0, 2022-10-21 20:14:06.966
2.0, -158323.5750584096, -169948.3597217035, 62968.17218877938, -60623.071864017475, 79128.25991252184, -76624.95394050526, 91966.61018927219, -128268.86067019233, -0.028, 0.934, -0.18, 192.0, 0.0, 0.0, 0.0, 0.0, 0.0, 0.0, 0.0, 0.0, 0.0, 1.6664084469668987E9, 0.0, 2022-10-21 20:14:06.966
3.0, -158315.2602094722, -169941.38597743344, 62964.79707536663, -60631.65493388831, 79118.58160717269, -76652.53599316311, 91927.67345043104, -128275.63324876229, -0.028, 0.934, -0.18, 192.0, 0.0, 0.0, 0.0, 0.0, 0.0, 0.0, 0.0, 0.0, 0.0, 1.6664084469669087E9, 0.0, 2022-10-21 20:14:06.966
4.0, -158309.5605146361, -169934.1663639744, 62963.99241256624, -60630.80556759901, 79114.80416235974, -76677.23467078623, 91892.80472908077, -128275.18621387318, -0.028, 0.934, -0.18, 192.0, 0.0, 0.0, 0.0, 0.0, 0.0, 0.0, 0.0, 0.0, 0.0, 1.6664084469669185E9, 0.0, 2022-10-21 20:14:06.966
5.0, -158315.8637065725, -169940.20133497732, 62961.15374102041, -60626.3128669635, 79113.35129897014, -76664.96356308027, 91917.43635147052, -128277.53314704099, -0.028, 0.934, -0.18, 192.0, 0.0, 0.0, 0.0, 0.0, 0.0, 0.0, 0.0, 0.0, 0.0, 1.666408446966958E9, 0.0, 2022-10-21 20:14:06.966
6.0, -158316.60131413952, -169945.7669193467, 62962.31603173209, -60632.34783796643, 79113.6195199036, -76649.25028672819, 91947.92413090756, -128278.15899588574, -0.028, 0.934, -0.18, 192.0, 0.0, 0.0, 0.0, 0.0, 0.0, 0.0, 0.0, 0.0, 0.0, 1.6664084469669683E9, 0.0, 2022-10-21 20:14:06.966
7.0, -158311.92979954838, -169941.9224193004, 62967.32282249008, -60638.53927118055, 79114.0218513038, -76661.43198745632, 91926.66762193057, -128279.05306566395, -0.028, 0.934, -0.18, 192.0, 0.0, 0.0, 0.0, 0.0, 0.0, 0.0, 0.0, 0.0, 0.0, 1.6664084469669785E9, 0.0, 2022-10-21 20:14:06.966
8.0, -158308.68879660236, -169937.04973900912, 62972.77664813717, -60634.38184671186, 79118.35808972814, -76676.38530449693, 91896.5374704048, -128271.83345220488, -0.028, 0.934, -0.18, 192.0, 0.0, 0.0, 0.0, 0.0, 0.0, 0.0, 0.0, 0.0, 0.0, 1.6664084469670014E9, 0.0, 2022-10-21 20:14:06.967
9.0, -158312.9579797933, -169941.02834952218, 62971.65906091441, -60632.21372749969, 79117.44166820547, -76666.12585379193, 91917.5481101928, -128272.68281849418, -0.028, 0.934, -0.18, 192.0, 0.0, 0.0, 0.0, 0.0, 0.0, 0.0, 0.0, 0.0, 0.0, 1.6664084469670112E9, 0.0, 2022-10-21 20:14:06.967
10.0, -158313.0250350267, -169942.2576954672, 62969.5132934467, -60634.739474623144, 79119.09569729515, -76643.93057154783, 91955.81429670028, -128270.71586498212, -0.028, 0.934, -0.18, 192.0, 0.0, 0.0, 0.0, 0.0, 0.0, 0.0, 0.0, 0.0, 0.0, 1.6664084469670212E9, 0.0, 2022-10-21 20:14:06.967
11.0, -158308.8229070691, -169940.33544544404, 62969.26742425769, -60636.43820720175, 79117.10639203864, -76661.07435954505, 91936.12240983515, -128276.75083598505, -0.028, 0.9500000000000001, -0.17400000000000002, 192.0, 255.0, 32.0, 29.0, 176.0, 250.0, 144.0, 0.0, 0.0, 0.0, 1.6664084469670322E9, 0.0, 2022-10-21 20:14:06.967
12.0, -158306.9677122793, -169936.42389016438, 62971.189674280846, -60641.66851540429, 79113.5748164147, -76682.04029584411, 91896.60452563818, -128280.48357730909, -0.028, 0.9500000000000001, -0.17400000000000002, 192.0, 0.0, 0.0, 0.0, 0.0, 0.0, 0.0, 0.0, 0.0, 0.0, 1.6664084469670427E9, 0.0, 2022-10-21 20:14:06.967
13.0, -158307.28063670167, -169933.18288721837, 62971.77081963669, -60631.14084376584, 79119.76624962881, -76667.84693811499, 91910.7978833673, -128269.55357427044, -0.028, 0.9500000000000001, -0.17400000000000002, 192.0, 0.0, 0.0, 0.0, 0.0, 0.0, 0.0, 0.0, 0.0, 0.0, 1.6664084469670527E9, 0.0, 2022-10-21 20:14:06.967
14.0, -158304.48666864476, -169930.1654017169, 62967.23341551226, -60630.358532709906, 79121.33087174069, -76644.26584771465, 91952.41683154307, -128266.58079225788, -0.028, 0.9500000000000001, -0.17400000000000002, 192.0, 0.0, 0.0, 0.0, 0.0, 0.0, 0.0, 0.0, 0.0, 0.0, 1.6664084469670665E9, 0.0, 2022-10-21 20:14:06.967
15.0, -158302.94439827735, -169935.37335817498, 62964.70766838881, -60642.74139913815, 79118.84982810615, -76652.8936210744, 91939.81044767029, -128274.71682723962, -0.028, 0.9500000000000001, -0.17400000000000002, 192.0, 0.0, 0.0, 0.0, 0.0, 0.0, 0.0, 0.0, 0.0, 0.0, 1.6664084469670777E9, 0.0, 2022-10-21 20:14:06.967
16.0, -158304.5090203892, -169938.3237884431, 62960.57259566458, -60650.00571608612, 79115.31825248222, -76678.3969614979, 91896.15749074907, -128277.86842320782, -0.028, 0.9500000000000001, -0.17400000000000002, 192.0, 0.0, 0.0, 0.0, 0.0, 0.0, 0.0, 0.0, 0.0, 0.0, 1.6664084469670875E9, 0.0, 2022-10-21 20:14:06.967
17.0, -158305.87247680099, -169937.7202913428, 62959.34324971953, -60639.58980316995, 79120.10152579565, -76673.36781899547, 91898.2362029834, -128272.52635628301, -0.028, 0.9500000000000001, -0.17400000000000002, 192.0, 0.0, 0.0, 0.0, 0.0, 0.0, 0.0, 0.0, 0.0, 0.0, 1.666408446967097E9, 0.0, 2022-10-21 20:14:06.967
18.0, -158305.93953203436, -169935.37335817498, 62959.65617414191, -60632.07961703296, 79119.74389788436, -76643.55059189208, 91943.29731980531, -128268.19011785867, -0.028, 0.9500000000000001, -0.17400000000000002, 192.0, 0.0, 0.0, 0.0, 0.0, 0.0, 0.0, 0.0, 0.0, 0.0, 1.666408446967108E9, 0.0, 2022-10-21 20:14:06.967
19.0, -158305.58190412307, -169934.32282618558, 62960.75140962022, -60631.99021005514, 79121.21911301841, -76641.51658314664, 91947.6559099741, -128269.35240857035, -0.028, 0.9500000000000001, -0.17400000000000002, 192.0, 0.0, 0.0, 0.0, 0.0, 0.0, 0.0, 0.0, 0.0, 0.0, 1.666408446967118E9, 0.0, 2022-10-21 20:14:06.967
20.0, -158303.63730235546, -169931.14887847292, 62960.99727880923, -60636.41585545729, 79118.64866240605, -76665.50000494719, 91908.27213624385, -128271.83345220488, -0.026000000000000002, 0.9380000000000001, -0.17, 192.0, 255.0, 48.0, 29.0, 80.0, 250.0, 176.0, 0.0, 0.0, 0.0, 1.666408446967141E9, 0.0, 2022-10-21 20:14:06.967
21.0, -158305.6042558675, -169931.2606371952, 62958.58329040805, -60633.219556000186, 79119.45332520644, -76676.02767658564, 91895.97867679343, -128268.81596670342, -0.026000000000000002, 0.9380000000000001, -0.17, 192.0, 0.0, 0.0, 0.0, 0.0, 0.0, 0.0, 0.0, 0.0, 0.0, 1.6664084469671512E9, 0.0, 2022-10-21 20:14:06.967
22.0, -158307.7053198463, -169933.1605354739, 62953.88942407244, -60630.29147747654, 79117.88870309458, -76657.11810077645, 91935.51891273486, -128262.15514685574, -0.026000000000000002, 0.9380000000000001, -0.17, 192.0, 0.0, 0.0, 0.0, 0.0, 0.0, 0.0, 0.0, 0.0, 0.0, 1.6664084469671612E9, 0.0, 2022-10-21 20:14:06.967
23.0, -158299.6586918424, -169925.7621080592, 62956.9069095739, -60624.18945124024, 79127.65641542154, -76641.69539710229, 91957.80360195681, -128259.33882705437, -0.026000000000000002, 0.9380000000000001, -0.17, 192.0, 0.0, 0.0, 0.0, 0.0, 0.0, 0.0, 0.0, 0.0, 0.0, 1.6664084469671707E9, 0.0, 2022-10-21 20:14:06.967
24.0, -158295.18834295135, -169922.56580860208, 62956.81750259609, -60623.38478843985, 79128.66224392202, -76659.599144411, 91919.91739510506, -128264.18915560117, -0.026000000000000002, 0.9380000000000001, -0.17, 192.0, 0.0, 0.0, 0.0, 0.0, 0.0, 0.0, 0.0, 0.0, 0.0, 1.6664084469671807E9, 0.0, 2022-10-21 20:14:06.967
25.0, -158292.28261617216, -169919.6600818229, 62959.38795320845, -60619.920268049274, 79129.60101718915, -76665.36589448046, 91901.25368848488, -128259.69645496565, -0.026000000000000002, 0.9380000000000001, -0.17, 192.0, 0.0, 0.0, 0.0, 0.0, 0.0, 0.0, 0.0, 0.0, 0.0, 1.6664084469671905E9, 0.0, 2022-10-21 20:14:06.967
26.0, -158298.65286334194, -169921.93995975732, 62954.694086872834, -60608.4538231437, 79133.02083409081, -76640.86838255744, 91940.01161337039, -128257.99772238705, -0.026000000000000002, 0.9380000000000001, -0.17, 192.0, 0.0, 0.0, 0.0, 0.0, 0.0, 0.0, 0.0, 0.0, 0.0, 1.6664084469672003E9, 0.0, 2022-10-21 20:14:06.967
27.0, -158296.59650285204, -169921.8505527795, 62953.62120313897, -60606.97860800965, 79130.07040382271, -76629.42428939632, 91961.51399153638, -128260.61287648832, -0.026000000000000002, 0.9380000000000001, -0.17, 192.0, 0.0, 0.0, 0.0, 0.0, 0.0, 0.0, 0.0, 0.0, 0.0, 1.66640844696721E9, 0.0, 2022-10-21 20:14:06.967
28.0, -158290.27095917118, -169914.58623583155, 62957.89038632994, -60607.135070220844, 79130.89741836756, -76647.12687100493, 91933.68606968953, -128259.78586194347, -0.026000000000000002, 0.9380000000000001, -0.17, 192.0, 0.0, 0.0, 0.0, 0.0, 0.0, 0.0, 0.0, 0.0, 0.0, 1.6664084469672194E9, 0.0, 2022-10-21 20:14:06.967
29.0, -158288.52752310366, -169912.88750325295, 62956.83985434054, -60604.206991697196, 79132.57379920171, -76663.68951364631, 91906.48399668741, -128259.71880671011, -0.026000000000000002, 0.9380000000000001, -0.17, 192.0, 0.0, 0.0, 0.0, 0.0, 0.0, 0.0, 0.0, 0.0, 0.0, 1.66640844696723E9, 0.0, 2022-10-21 20:14:06.967
30.0, -158291.56736034958, -169915.59206433204, 62957.89038632994, -60595.71332880418, 79131.61267419012, -76648.62443788344, 91933.01551735587, -128259.65175147675, -0.026000000000000002, 0.936, -0.17400000000000002, 192.0, 255.0, 48.0, 29.0, 64.0, 250.0, 144.0, 0.0, 0.0, 0.0, 1.6664084469672396E9, 0.0, 2022-10-21 20:14:06.967
31.0, -158297.44586914135, -169922.2975876686, 62953.37533394997, -60602.70942481869, 79125.48829620938, -76639.57198137903, 91957.73654672343, -128262.60218174485, -0.026000000000000002, 0.936, -0.17400000000000002, 192.0, 0.0, 0.0, 0.0, 0.0, 0.0, 0.0, 0.0, 0.0, 0.0, 1.6664084469672499E9, 0.0, 2022-10-21 20:14:06.967
32.0, -158291.67911907186, -169917.38020388846, 62959.723229375275, -60602.70942481869, 79128.50578171085, -76647.1939262383, 91937.12823833564, -128259.58469624337, -0.026000000000000002, 0.936, -0.17400000000000002, 192.0, 0.0, 0.0, 0.0, 0.0, 0.0, 0.0, 0.0, 0.0, 0.0, 1.6664084469672596E9, 0.0, 2022-10-21 20:14:06.967
33.0, -158286.20294168033, -169909.78061077365, 62965.378220722465, -60601.390671895824, 79131.9255986125, -76664.53887993562, 91903.82413909724, -128255.56138224142, -0.026000000000000002, 0.936, -0.17400000000000002, 192.0, 0.0, 0.0, 0.0, 0.0, 0.0, 0.0, 0.0, 0.0, 0.0, 1.6664084469672692E9, 0.0, 2022-10-21 20:14:06.967
34.0, -158290.1592004489, -169916.17320968787, 62962.360735221, -60594.88631425933, 79130.8303631342, -76659.66619964436, 91920.25267127188, -128262.11044336682, -0.026000000000000002, 0.936, -0.17400000000000002, 192.0, 0.0, 0.0, 0.0, 0.0, 0.0, 0.0, 0.0, 0.0, 0.0, 1.6664084469672787E9, 0.0, 2022-10-21 20:14:06.967
35.0, -158292.17085744988, -169919.77184054517, 62959.25384274172, -60592.584084580434, 79129.66807242252, -76644.91404830385, 91953.60147399921, -128263.33978931187, -0.026000000000000002, 0.936, -0.17400000000000002, 192.0, 0.0, 0.0, 0.0, 0.0, 0.0, 0.0, 0.0, 0.0, 0.0, 1.6664084469673004E9, 0.0, 2022-10-21 20:14:06.967
36.0, -158293.44490688384, -169919.7941922896, 62960.639650897945, -60598.79786953901, 79126.13649679859, -76654.36883620845, 91934.26721504536, -128268.68185623668, -0.026000000000000002, 0.936, -0.17400000000000002, 192.0, 0.0, 0.0, 0.0, 0.0, 0.0, 0.0, 0.0, 0.0, 0.0, 1.666408446967311E9, 0.0, 2022-10-21 20:14:06.967
37.0, -158290.5615318491, -169916.53083759916, 62965.534682933656, -60599.311959661485, 79126.31531075422, -76676.63117368594, 91895.01755178184, -128271.11819638232, -0.026000000000000002, 0.936, -0.17400000000000002, 192.0, 0.0, 0.0, 0.0, 0.0, 0.0, 0.0, 0.0, 0.0, 0.0, 1.6664084469673212E9, 0.0, 2022-10-21 20:14:06.967
38.0, -158284.12422944597, -169907.52308458366, 62974.60949118251, -60586.83968625542, 79131.29974976776, -76665.7458741362, 91909.38972346661, -128261.10461486634, -0.026000000000000002, 0.936, -0.17400000000000002, 192.0, 0.0, 0.0, 0.0, 0.0, 0.0, 0.0, 0.0, 0.0, 0.0, 1.6664084469673307E9, 0.0, 2022-10-21 20:14:06.967
39.0, -158292.23791268325, -169917.13433469945, 62968.529816690665, -60586.39265136632, 79132.61850269062, -76636.01805401064, 91954.96493041098, -128266.1784608577, -0.026000000000000002, 0.936, -0.17400000000000002, 192.0, 0.0, 0.0, 0.0, 0.0, 0.0, 0.0, 0.0, 0.0, 0.0, 1.6664084469673405E9, 0.0, 2022-10-21 20:14:06.967
40.0, -158288.52752310366, -169915.1450294429, 62970.38501148046, -60594.37222413686, 79121.50968569634, -76644.4893651592, 91941.50918024889, -128269.19594635916, -0.026000000000000002, 0.9380000000000001, -0.178, 192.0, 255.0, 48.0, 29.0, 80.0, 250.0, 112.0, 0.0, 0.0, 0.0, 1.66640844696735E9, 0.0, 2022-10-21 20:14:06.967
41.0, -158285.80061028013, -169912.61928231947, 62975.12358130498, -60592.449974113704, 79123.65545316404, -76671.87025211695, 91897.94563030549, -128269.48651903708, -0.026000000000000002, 0.9380000000000001, -0.178, 192.0, 0.0, 0.0, 0.0, 0.0, 0.0, 0.0, 0.0, 0.0, 0.0, 1.6664084469673605E9, 0.0, 2022-10-21 20:14:06.967
42.0, -158286.87349401397, -169912.9545584863, 62972.9107586039, -60584.828029254444, 79124.05778456424, -76678.3969614979, 91893.7882058368, -128271.98991441607, -0.026000000000000002, 0.9380000000000001, -0.178, 192.0, 0.0, 0.0, 0.0, 0.0, 0.0, 0.0, 0.0, 0.0, 0.0, 1.6664084469673705E9, 0.0, 2022-10-21 20:14:06.967
43.0, -158288.88515101495, -169920.82237253457, 62971.16732253639, -60579.75418326309, 79124.66128166454, -76656.11227227596, 91934.446029001, -128270.38058881529, -0.026000000000000002, 0.9380000000000001, -0.178, 192.0, 0.0, 0.0, 0.0, 0.0, 0.0, 0.0, 0.0, 0.0, 0.0, 1.66640844696738E9, 0.0, 2022-10-21 20:14:06.967
44.0, -158292.68494757236, -169923.16930570238, 62973.44720047084, -60581.475267586145, 79130.89741836756, -76629.78191730761, 91952.37212805416, -128262.71394046712, -0.026000000000000002, 0.9380000000000001, -0.178, 192.0, 0.0, 0.0, 0.0, 0.0, 0.0, 0.0, 0.0, 0.0, 0.0, 1.6664084469673898E9, 0.0, 2022-10-21 20:14:06.967
45.0, -158294.33897666205, -169921.4482213793, 62972.240206270246, -60594.43927937023, 79124.95185434245, -76658.41450195486, 91908.24978449939, -128270.29118183747, -0.026000000000000002, 0.9380000000000001, -0.178, 192.0, 0.0, 0.0, 0.0, 0.0, 0.0, 0.0, 0.0, 0.0, 0.0, 1.6664084469673996E9, 0.0, 2022-10-21 20:14:06.967
46.0, -158290.33801440455, -169918.87777076697, 62972.84370337054, -60591.24297991312, 79125.26477876482, -76670.23857477172, 91894.12348200363, -128268.19011785867, -0.026000000000000002, 0.9380000000000001, -0.178, 192.0, 0.0, 0.0, 0.0, 0.0, 0.0, 0.0, 0.0, 0.0, 0.0, 1.6664084469674096E9, 0.0, 2022-10-21 20:14:06.967
47.0, -158287.90167425893, -169916.6425963214, 62975.30239526062, -60578.055450684486, 79129.8245346337, -76642.54476339159, 91940.05631685929, -128260.18819334367, -0.026000000000000002, 0.9380000000000001, -0.178, 192.0, 0.0, 0.0, 0.0, 0.0, 0.0, 0.0, 0.0, 0.0, 0.0, 1.666408446967419E9, 0.0, 2022-10-21 20:14:06.967
48.0, -158288.79574403714, -169915.9943957322, 62975.68237491637, -60580.625901296844, 79128.05874682174, -76631.81592605304, 91956.75306996741, -128265.21733584612, -0.026000000000000002, 0.9380000000000001, -0.178, 192.0, 0.0, 0.0, 0.0, 0.0, 0.0, 0.0, 0.0, 0.0, 0.0, 1.6664084469674287E9, 0.0, 2022-10-21 20:14:06.967
49.0, -158286.98525273625, -169917.1566864439, 62976.12940980547, -60584.53745657652, 79126.06944156521, -76656.00051355369, 91916.27406075885, -128269.15124287026, -0.026000000000000002, 0.9380000000000001, -0.178, 192.0, 0.0, 0.0, 0.0, 0.0, 0.0, 0.0, 0.0, 0.0, 0.0, 1.6664084469674385E9, 0.0, 2022-10-21 20:14:06.967
50.0, -158283.63249106795, -169913.4015933754, 62979.70568891832, -60584.93978797672, 79125.3765374871, -76668.31632474856, 91893.25176396988, -128263.6303619898, -0.028, 0.9440000000000001, -0.176, 192.0, 255.0, 32.0, 29.0, 128.0, 250.0, 128.0, 0.0, 0.0, 0.0, 1.66640844696746E9, 0.0, 2022-10-21 20:14:06.967
51.0, -158287.611101581, -169916.3073201546, 62978.252825528725, -60580.58119780794, 79128.37167124411, -76647.30568496058, 91931.13797082163, -128259.31647530991, -0.028, 0.9440000000000001, -0.176, 192.0, 0.0, 0.0, 0.0, 0.0, 0.0, 0.0, 0.0, 0.0, 0.0, 1.6664084469674711E9, 0.0, 2022-10-21 20:14:06.967
52.0, -158292.0143952387, -169922.0070149907, 62972.173151036885, -60583.08459318693, 79123.83426711969, -76633.11232723146, 91954.83081994425, -128263.40684454523, -0.028, 0.9440000000000001, -0.176, 192.0, 0.0, 0.0, 0.0, 0.0, 0.0, 0.0, 0.0, 0.0, 0.0, 1.666408446967481E9, 0.0, 2022-10-21 20:14:06.967
0.0, 0.0, 0.0, 0.0, 0.0, 0.0, 0.0, 0.0, 0.0, -0.028, 0.9440000000000001, -0.176, 192.0, 0.0, 0.0, 0.0, 0.0, 0.0, 0.0, 0.0, 0.0, 0.0, 1.666408447041022E9, 0.0, 2022-10-21 20:14:07.041
1.0, -152492.496668398, -133236.22295096196, 63122.399225521, -63090.05625129417, 79534.5699232304, -84175.35086576354, 88135.81176231048, -127222.08377386139, -0.006, 0.9480000000000001, -0.132, 192.0, 255.0, 208.0, 29.0, 160.0, 251.0, 224.0, 0.0, 0.0, 0.0, 1.666408447057114E9, 0.0, 2022-10-21 20:14:07.057
2.0, -152484.02535724943, -133220.42026763206, 63123.025074365745, -63095.30891124117, 79532.15593482924, -84185.63266821297, 88105.63690729582, -127225.81651518542, -0.006, 0.9480000000000001, -0.132, 192.0, 0.0, 0.0, 0.0, 0.0, 0.0, 0.0, 0.0, 0.0, 0.0, 1.666408447536561E9, 0.0, 2022-10-21 20:14:07.536
3.0, -152479.66676708063, -133206.40572385857, 63125.77433893375, -63089.67627163843, 79536.49217325356, -84181.2740780442, 88090.57183153294, -127222.08377386139, -0.006, 0.9480000000000001, -0.132, 192.0, 0.0, 0.0, 0.0, 0.0, 0.0, 0.0, 0.0, 0.0, 0.0, 1.6664084475366545E9, 0.0, 2022-10-21 20:14:07.536
4.0, -152486.17112471713, -133198.80613074376, 63126.176670333945, -63075.66172786495, 79538.772051188, -84176.2672872862, 88117.86331151288, -127215.60176796935, -0.006, 0.9480000000000001, -0.132, 192.0, 0.0, 0.0, 0.0, 0.0, 0.0, 0.0, 0.0, 0.0, 0.0, 1.6664084475366962E9, 0.0, 2022-10-21 20:14:07.536
5.0, -152491.1555637307, -133194.82752023073, 63122.84626041011, -63075.080582509116, 79539.5767139884, -84167.03601682615, 88142.22671296916, -127215.98174762509, -0.006, 0.9480000000000001, -0.132, 192.0, 0.0, 0.0, 0.0, 0.0, 0.0, 0.0, 0.0, 0.0, 0.0, 1.6664084475367095E9, 0.0, 2022-10-21 20:14:07.536
6.0, -152482.50543862648, -133179.87420319012, 63130.714074458374, -63078.94743429988, 79544.6282082353, -84161.40337722343, 88130.04501224101, -127210.57262546691, -0.006, 0.9480000000000001, -0.132, 192.0, 0.0, 0.0, 0.0, 0.0, 0.0, 0.0, 0.0, 0.0, 0.0, 1.666408447536723E9, 0.0, 2022-10-21 20:14:07.536
7.0, -152476.35870890127, -133164.16092683803, 63135.474996027355, -63076.19816973188, 79549.09855712636, -84162.94564759084, 88111.38130562083, -127205.61053819783, -0.006, 0.9480000000000001, -0.132, 192.0, 0.0, 0.0, 0.0, 0.0, 0.0, 0.0, 0.0, 0.0, 0.0, 1.6664084475367365E9, 0.0, 2022-10-21 20:14:07.536
8.0, -152474.70467981158, -133152.20274355446, 63137.62076349506, -63065.5363876267, 79550.41731004922, -84158.69881614433, 88129.84384654091, -127199.70967766162, 0.002, 0.9500000000000001, -0.11800000000000001, 192.0, 0.0, 16.0, 29.0, 176.0, 252.0, 80.0, 0.0, 0.0, 0.0, 1.6664084475367496E9, 0.0, 2022-10-21 20:14:07.536
9.0, -152482.61719734874, -133151.50983947635, 63131.54108900322, -63067.592748116585, 79549.16561235972, -84160.35284523403, 88145.64652987082, -127211.80197141194, 0.002, 0.9500000000000001, -0.11800000000000001, 192.0, 0.0, 0.0, 0.0, 0.0, 0.0, 0.0, 0.0, 0.0, 0.0, 1.666408447536764E9, 0.0, 2022-10-21 20:14:07.536
10.0, -152482.5948456043, -133143.73143240588, 63129.44002502442, -63070.185550473405, 79552.60778100583, -84156.32953123207, 88134.0012710096, -127210.86319814483, 0.002, 0.9500000000000001, -0.11800000000000001, 192.0, 0.0, 0.0, 0.0, 0.0, 0.0, 0.0, 0.0, 0.0, 0.0, 1.666408447536775E9, 0.0, 2022-10-21 20:14:07.536
11.0, -152475.17406644512, -133127.70523163144, 63133.5527460042, -63068.509169639256, 79553.65831299523, -84159.99521732274, 88111.71658178767, -127207.59984345436, 0.002, 0.9500000000000001, -0.11800000000000001, 192.0, 0.0, 0.0, 0.0, 0.0, 0.0, 0.0, 0.0, 0.0, 0.0, 1.666408447536786E9, 0.0, 2022-10-21 20:14:07.536
12.0, -152477.65511007968, -133122.34081296215, 63131.16110934748, -63062.407143402954, 79550.73023447159, -84163.88442085797, 88115.51637834507, -127211.19847431166, 0.002, 0.9500000000000001, -0.11800000000000001, 192.0, 0.0, 0.0, 0.0, 0.0, 0.0, 0.0, 0.0, 0.0, 0.0, 1.6664084475367968E9, 0.0, 2022-10-21 20:14:07.536
13.0, -152486.1487729727, -133120.88794957256, 63118.286504541225, -63071.638413862995, 79540.09080411086, -84175.79790065264, 88132.9060355313, -127219.55802673794, 0.002, 0.9500000000000001, -0.11800000000000001, 192.0, 0.0, 0.0, 0.0, 0.0, 0.0, 0.0, 0.0, 0.0, 0.0, 1.6664084475368764E9, 0.0, 2022-10-21 20:14:07.536
14.0, -152479.06326998037, -133104.7723418203, 63123.807385421685, -63075.10293425357, 79542.39303378976, -84169.65117092743, 88128.07805872895, -127213.63481445728, 0.002, 0.9500000000000001, -0.11800000000000001, 192.0, 0.0, 0.0, 0.0, 0.0, 0.0, 0.0, 0.0, 0.0, 0.0, 1.6664084475368872E9, 0.0, 2022-10-21 20:14:07.536
15.0, -152482.10310722628, -133099.0055917508, 63121.46045225388, -63081.80845759016, 79541.49896401155, -84169.49470871624, 88099.66899152625, -127217.88164590379, 0.002, 0.9500000000000001, -0.11800000000000001, 192.0, 0.0, 0.0, 0.0, 0.0, 0.0, 0.0, 0.0, 0.0, 0.0, 1.666408447536898E9, 0.0, 2022-10-21 20:14:07.536
16.0, -152476.492819368, -133083.09114969865, 63124.18736507742, -63075.0358790202, 79541.40955703372, -84172.73571166226, 88103.26762238356, -127214.23831155758, 0.002, 0.9500000000000001, -0.11800000000000001, 192.0, 0.0, 0.0, 0.0, 0.0, 0.0, 0.0, 0.0, 0.0, 0.0, 1.6664084475369089E9, 0.0, 2022-10-21 20:14:07.536
17.0, -152473.85531352228, -133072.09409142664, 63127.987161634825, -63062.80947480315, 79548.13743211477, -84161.35867373452, 88141.31029144648, -127205.67759343119, 0.01, 0.9520000000000001, -0.114, 192.0, 0.0, 80.0, 29.0, 192.0, 252.0, 112.0, 0.0, 0.0, 0.0, 1.6664084475369196E9, 0.0, 2022-10-21 20:14:07.536
18.0, -152475.97872924551, -133067.33316985765, 63120.56638247566, -63078.65686162197, 79541.36485354482, -84167.93008660438, 88134.06832624297, -127215.60176796935, 0.01, 0.9520000000000001, -0.114, 192.0, 0.0, 0.0, 0.0, 0.0, 0.0, 0.0, 0.0, 0.0, 0.0, 1.6664084475369313E9, 0.0, 2022-10-21 20:14:07.536
19.0, -152476.80574379038, -133061.67817851045, 63116.6995306849, -63085.071812280636, 79534.7263854416, -84187.04082811366, 88100.80893049347, -127224.94479715166, 0.01, 0.9520000000000001, -0.114, 192.0, 0.0, 0.0, 0.0, 0.0, 0.0, 0.0, 0.0, 0.0, 0.0, 1.666408447536942E9, 0.0, 2022-10-21 20:14:07.536
20.0, -152474.77173504492, -133050.47995453834, 63117.437138251924, -63086.43526869241, 79527.2161993046, -84193.00874388323, 88092.33761934491, -127226.26355007454, 0.01, 0.9520000000000001, -0.114, 192.0, 0.0, 0.0, 0.0, 0.0, 0.0, 0.0, 0.0, 0.0, 0.0, 1.6664084475369527E9, 0.0, 2022-10-21 20:14:07.536
21.0, -152482.237217693, -133048.22242834835, 63110.999835848794, -63089.85508559407, 79520.01893759001, -84179.59769721005, 88117.63979406832, -127228.36461405334, 0.01, 0.9520000000000001, -0.114, 192.0, 0.0, 0.0, 0.0, 0.0, 0.0, 0.0, 0.0, 0.0, 0.0, 1.6664084475369632E9, 0.0, 2022-10-21 20:14:07.536
22.0, -152484.8523717943, -133041.8521811786, 63108.65290268099, -63097.25351300878, 79519.03546083397, -84178.27894428719, 88123.56300634898, -127234.26547458953, 0.01, 0.9520000000000001, -0.114, 192.0, 0.0, 0.0, 0.0, 0.0, 0.0, 0.0, 0.0, 0.0, 0.0, 1.6664084475369742E9, 0.0, 2022-10-21 20:14:07.536
23.0, -152475.41993563413, -133022.56262571368, 63120.45462375339, -63090.36917571654, 79525.96450161512, -84179.59769721005, 88102.17238690525, -127224.69892796266, 0.01, 0.9520000000000001, -0.114, 192.0, 0.0, 0.0, 0.0, 0.0, 0.0, 0.0, 0.0, 0.0, 0.0, 1.6664084475369852E9, 0.0, 2022-10-21 20:14:07.536
24.0, -152477.7892205464, -133017.57818670015, 63120.56638247566, -63084.06598378015, 79531.93241738468, -84176.0661215861, 88094.28222111252, -127222.82138142841, 0.01, 0.9520000000000001, -0.114, 192.0, 0.0, 0.0, 0.0, 0.0, 0.0, 0.0, 0.0, 0.0, 0.0, 1.666408447536996E9, 0.0, 2022-10-21 20:14:07.536
25.0, -152474.41410713366, -133011.00677383028, 63125.37200753356, -63071.12432374053, 79536.80509767594, -84159.61523766699, 88128.52509361805, -127215.2217883136, 0.01, 0.9520000000000001, -0.114, 192.0, 0.0, 0.0, 0.0, 0.0, 0.0, 0.0, 0.0, 0.0, 0.0, 1.6664084475370069E9, 0.0, 2022-10-21 20:14:07.537
26.0, -152471.50838035447, -132998.66861089095, 63127.54012674572, -63070.945509784884, 79538.03444362099, -84155.88249634297, 88144.77481183707, -127208.44920974366, 0.01, 0.9520000000000001, -0.114, 192.0, 0.0, 0.0, 0.0, 0.0, 0.0, 0.0, 0.0, 0.0, 0.0, 1.6664084475370216E9, 0.0, 2022-10-21 20:14:07.537
27.0, -152472.02247047692, -132988.83384333062, 63127.2495540678, -63073.471256908335, 79540.6272459778, -84164.28675225815, 88121.5960528369, -127218.1722185817, 0.01, 0.9480000000000001, -0.11, 192.0, 0.0, 80.0, 29.0, 160.0, 252.0, 144.0, 0.0, 0.0, 0.0, 1.666408447537034E9, 0.0, 2022-10-21 20:14:07.537
28.0, -152472.1342291992, -132981.7483403383, 63127.49542325681, -63075.66172786495, 79538.01209187652, -84172.04280758415, 88100.98774444911, -127218.39573602626, 0.01, 0.9480000000000001, -0.11, 192.0, 0.0, 0.0, 0.0, 0.0, 0.0, 0.0, 0.0, 0.0, 0.0, 1.6664084475370564E9, 0.0, 2022-10-21 20:14:07.537
29.0, -152479.13032521371, -132980.02725601522, 63124.857917411086, -63070.23025396231, 79535.64280696426, -84164.42086272489, 88120.23259642514, -127219.91565464923, 0.01, 0.9480000000000001, -0.11, 192.0, 0.0, 0.0, 0.0, 0.0, 0.0, 0.0, 0.0, 0.0, 0.0, 1.666408447537067E9, 0.0, 2022-10-21 20:14:07.537
30.0, -152479.75617405848, -132970.90774427744, 63124.61204822207, -63065.82696030462, 79541.70012971165, -84152.68619688586, 88146.69706186022, -127215.55706448044, 0.01, 0.9480000000000001, -0.11, 192.0, 0.0, 0.0, 0.0, 0.0, 0.0, 0.0, 0.0, 0.0, 0.0, 1.666408447537078E9, 0.0, 2022-10-21 20:14:07.537
31.0, -152479.21973219153, -132963.5763720961, 63124.41088252198, -63071.370192929535, 79544.51644951302, -84160.95634233432, 88128.52509361805, -127218.90982614874, 0.01, 0.9480000000000001, -0.11, 192.0, 0.0, 0.0, 0.0, 0.0, 0.0, 0.0, 0.0, 0.0, 0.0, 1.6664084475370884E9, 0.0, 2022-10-21 20:14:07.537
32.0, -152484.47239213853, -132959.2848371607, 63119.00176036379, -63086.16704775895, 79536.33571104238, -84171.95340060633, 88092.27056411155, -127226.88939891929, 0.01, 0.9480000000000001, -0.11, 192.0, 0.0, 0.0, 0.0, 0.0, 0.0, 0.0, 0.0, 0.0, 0.0, 1.6664084475370996E9, 0.0, 2022-10-21 20:14:07.537
33.0, -152478.4821246245, -132946.7231567768, 63129.618838980066, -63069.47029465083, 79548.53976351497, -84155.21194400931, 88121.57370109245, -127213.70186969065, 0.01, 0.9480000000000001, -0.11, 192.0, 0.0, 0.0, 0.0, 0.0, 0.0, 0.0, 0.0, 0.0, 0.0, 1.66640844753711E9, 0.0, 2022-10-21 20:14:07.537
34.0, -152477.81157229087, -132938.7212322618, 63129.618838980066, -63064.798780059675, 79549.38912980427, -84154.18376376436, 88149.3569194504, -127214.10420109084, 0.01, 0.9480000000000001, -0.11, 192.0, 0.0, 0.0, 0.0, 0.0, 0.0, 0.0, 0.0, 0.0, 0.0, 1.6664084475371208E9, 0.0, 2022-10-21 20:14:07.537
35.0, -152472.7377262995, -132925.75722047774, 63131.071702369656, -63068.73268708381, 79547.91391467022, -84156.57540042108, 88135.4541343992, -127212.91955863472, 0.01, 0.9480000000000001, -0.11, 192.0, 0.0, 0.0, 0.0, 0.0, 0.0, 0.0, 0.0, 0.0, 0.0, 1.6664084475371315E9, 0.0, 2022-10-21 20:14:07.537
36.0, -152469.04968846438, -132914.31312731662, 63131.138757603025, -63067.458637649856, 79548.53976351497, -84160.17403127838, 88111.71658178767, -127209.43268649968, 0.01, 0.9480000000000001, -0.11, 192.0, 0.0, 0.0, 0.0, 0.0, 0.0, 0.0, 0.0, 0.0, 0.0, 1.6664084475371425E9, 0.0, 2022-10-21 20:14:07.537
37.0, -152473.87766526671, -132912.9273191604, 63119.538202230724, -63078.76862034424, 79531.91006564023, -84172.57924945108, 88107.51445383007, -127225.10125936285, 0.012, 0.9480000000000001, -0.096, 192.0, 0.0, 96.0, 29.0, 160.0, 253.0, 0.0, 0.0, 0.0, 0.0, 1.6664084475371528E9, 0.0, 2022-10-21 20:14:07.537
38.0, -152476.71633681253, -132907.94288014685, 63110.664559681965, -63081.80845759016, 79525.58452195938, -84172.17691805089, 88130.2014744522, -127226.79999194146, 0.012, 0.9480000000000001, -0.096, 192.0, 0.0, 0.0, 0.0, 0.0, 0.0, 0.0, 0.0, 0.0, 0.0, 1.666408447537164E9, 0.0, 2022-10-21 20:14:07.537
39.0, -152479.9349880141, -132904.70187720083, 63106.55183870219, -63086.16704775895, 79521.9188358687, -84181.56465072211, 88118.06447721297, -127236.50064903506, 0.012, 0.9480000000000001, -0.096, 192.0, 0.0, 0.0, 0.0, 0.0, 0.0, 0.0, 0.0, 0.0, 0.0, 1.6664084475371747E9, 0.0, 2022-10-21 20:14:07.537
40.0, -152483.57832236032, -132901.43852251038, 63109.97165560385, -63090.525637927734, 79522.16470505772, -84183.66571470091, 88089.63305826581, -127236.50064903506, 0.012, 0.9480000000000001, -0.096, 192.0, 0.0, 0.0, 0.0, 0.0, 0.0, 0.0, 0.0, 0.0, 0.0, 1.6664084475371857E9, 0.0, 2022-10-21 20:14:07.537
41.0, -152479.1973804471, -132889.48033922678, 63113.458527738876, -63090.90561758347, 79521.40474574623, -84177.83190939807, 88094.43868332371, -127227.96228265314, 0.012, 0.9480000000000001, -0.096, 192.0, 0.0, 0.0, 0.0, 0.0, 0.0, 0.0, 0.0, 0.0, 0.0, 1.6664084475371962E9, 0.0, 2022-10-21 20:14:07.537
42.0, -152477.76686880193, -132878.7067983993, 63115.38077776203, -63080.82498083413, 79524.24341729205, -84157.87180159948, 88133.68834658722, -127220.74266919408, 0.012, 0.9480000000000001, -0.096, 192.0, 0.0, 0.0, 0.0, 0.0, 0.0, 0.0, 0.0, 0.0, 0.0, 1.666408447537207E9, 0.0, 2022-10-21 20:14:07.537
43.0, -152480.20320894758, -132877.03041756517, 63108.04940558069, -63088.96101581586, 79518.76723990051, -84165.47139471429, 88131.31906167496, -127229.526904765, 0.012, 0.9480000000000001, -0.096, 192.0, 0.0, 0.0, 0.0, 0.0, 0.0, 0.0, 0.0, 0.0, 0.0, 1.6664084475372274E9, 0.0, 2022-10-21 20:14:07.537
44.0, -152472.8941885107, -132870.36959771748, 63108.831716636625, -63092.35848097307, 79516.06267882141, -84176.62491519749, 88098.52905255902, -127231.62796874381, 0.012, 0.9480000000000001, -0.096, 192.0, 0.0, 0.0, 0.0, 0.0, 0.0, 0.0, 0.0, 0.0, 0.0, 1.666408447537238E9, 0.0, 2022-10-21 20:14:07.537
45.0, -152477.36453740177, -132869.63199015046, 63106.55183870219, -63090.34682397209, 79513.82750437588, -84183.50925248972, 88088.06843615395, -127231.27034083252, 0.012, 0.9480000000000001, -0.096, 192.0, 0.0, 0.0, 0.0, 0.0, 0.0, 0.0, 0.0, 0.0, 0.0, 1.6664084475372488E9, 0.0, 2022-10-21 20:14:07.537
46.0, -152477.85627577978, -132863.75348135873, 63106.194210790905, -63079.886207567004, 79514.90038810973, -84174.00976109621, 88117.43862836823, -127231.49385827707, 0.018000000000000002, 0.9500000000000001, -0.106, 192.0, 0.0, 144.0, 29.0, 176.0, 252.0, 176.0, 0.0, 0.0, 0.0, 1.666408447537259E9, 0.0, 2022-10-21 20:14:07.537
47.0, -152476.3810606457, -132853.53873414264, 63103.57905668963, -63082.411954690455, 79518.20844628912, -84169.09237731605, 88129.19564595171, -127233.32670132241, 0.018000000000000002, 0.9500000000000001, -0.106, 192.0, 0.0, 0.0, 0.0, 0.0, 0.0, 0.0, 0.0, 0.0, 0.0, 1.6664084475372717E9, 0.0, 2022-10-21 20:14:07.537
48.0, -152473.76590654446, -132845.603864861, 63106.55183870219, -63087.642262892994, 79522.63409169127, -84167.77362439319, 88105.90512822928, -127229.19162859817, 0.018000000000000002, 0.9500000000000001, -0.106, 192.0, 0.0, 0.0, 0.0, 0.0, 0.0, 0.0, 0.0, 0.0, 0.0, 1.6664084475372825E9, 0.0, 2022-10-21 20:14:07.537
49.0, -152473.40827863317, -132839.97122525825, 63110.06106258167, -63082.81428609065, 79529.42902200569, -84166.14194704794, 88095.10923565736, -127228.72224196461, 0.018000000000000002, 0.9500000000000001, -0.106, 192.0, 0.0, 0.0, 0.0, 0.0, 0.0, 0.0, 0.0, 0.0, 0.0, 1.6664084475372927E9, 0.0, 2022-10-21 20:14:07.537
50.0, -152472.2906914104, -132830.94112049832, 63116.43130975143, -63064.463503892846, 79537.63211222079, -84155.56957192058, 88126.4463813837, -127222.48610526159, 0.018000000000000002, 0.9500000000000001, -0.106, 192.0, 0.0, 0.0, 0.0, 0.0, 0.0, 0.0, 0.0, 0.0, 0.0, 1.6664084475373034E9, 0.0, 2022-10-21 20:14:07.537
51.0, -152475.2411216785, -132821.97807097173, 63114.55376321718, -63073.35949818606, 79535.73221394209, -84147.47824042776, 88143.27724495856, -127223.46958201761, 0.018000000000000002, 0.9500000000000001, -0.106, 192.0, 0.0, 0.0, 0.0, 0.0, 0.0, 0.0, 0.0, 0.0, 0.0, 1.666408447537314E9, 0.0, 2022-10-21 20:14:07.537
52.0, -152472.5812640883, -132811.87508247796, 63115.09020508412, -63080.78027734522, 79534.74873718605, -84155.18959226485, 88121.21607318116, -127227.5823029974, 0.018000000000000002, 0.9500000000000001, -0.106, 192.0, 0.0, 0.0, 0.0, 0.0, 0.0, 0.0, 0.0, 0.0, 0.0, 1.6664084475373244E9, 0.0, 2022-10-21 20:14:07.537
53.0, -152469.7425925425, -132804.25313761868, 63111.78214690473, -63083.55189365768, 79529.65253945024, -84166.72309240379, 88096.40563683577, -127235.47246879012, 0.018000000000000002, 0.9500000000000001, -0.106, 192.0, 0.0, 0.0, 0.0, 0.0, 0.0, 0.0, 0.0, 0.0, 0.0, 1.666408447537335E9, 0.0, 2022-10-21 20:14:07.537
54.0, -152462.4335721056, -132788.78573045562, 63121.080472598136, -63058.45088463437, 79541.05192912245, -84148.37231020597, 88128.14511396231, -127220.72031744961, 0.018000000000000002, 0.9500000000000001, -0.106, 192.0, 0.0, 0.0, 0.0, 0.0, 0.0, 0.0, 0.0, 0.0, 0.0, 1.6664084475373456E9, 0.0, 2022-10-21 20:14:07.537
55.0, -152470.77077278742, -132791.60205025697, 63116.54306847371, -63056.99802124477, 79543.53297275698, -84141.48797291375, 88152.79908809652, -127221.54733199446, 0.018000000000000002, 0.9500000000000001, -0.106, 192.0, 0.0, 0.0, 0.0, 0.0, 0.0, 0.0, 0.0, 0.0, 0.0, 1.666408447537356E9, 0.0, 2022-10-21 20:14:07.537
56.0, -152480.00204324748, -132794.88775669193, 63107.222391035844, -63074.99117553129, 79533.519391241, -84162.20804002382, 88126.8487127839, -127233.50551527806, 0.018000000000000002, 0.9540000000000001, -0.106, 192.0, 0.0, 144.0, 29.0, 208.0, 252.0, 176.0, 0.0, 0.0, 0.0, 1.6664084475373664E9, 0.0, 2022-10-21 20:14:07.537
57.0, -152480.7396508145, -132790.01507640065, 63103.89198111201, -63077.874550566026, 79532.89354239625, -84168.77945289368, 88101.03244793802, -127235.87480019031, 0.018000000000000002, 0.9540000000000001, -0.106, 192.0, 0.0, 0.0, 0.0, 0.0, 0.0, 0.0, 0.0, 0.0, 0.0, 1.6664084475373776E9, 0.0, 2022-10-21 20:14:07.537
58.0, -152469.11674369776, -132773.1842128258, 63113.92791437244, -63064.70937308185, 79534.9722546306, -84157.64828415493, 88115.51637834507, -127226.21884658562, 0.018000000000000002, 0.9540000000000001, -0.106, 192.0, 0.0, 0.0, 0.0, 0.0, 0.0, 0.0, 0.0, 0.0, 0.0, 1.666408447537398E9, 0.0, 2022-10-21 20:14:07.537
59.0, -152469.31790939785, -132764.95877086624, 63111.223353293346, -63067.10100973857, 79530.03251910598, -84164.75613889172, 88135.34237567692, -127232.65614898875, 0.018000000000000002, 0.9540000000000001, -0.106, 192.0, 0.0, 0.0, 0.0, 0.0, 0.0, 0.0, 0.0, 0.0, 0.0, 1.6664084475374086E9, 0.0, 2022-10-21 20:14:07.537
60.0, -152473.11770595523, -132760.22020104172, 63105.52365845724, -63086.81524834815, 79521.13652481277, -84176.11082507501, 88118.01977372405, -127240.88159094831, 0.018000000000000002, 0.9540000000000001, -0.106, 192.0, 0.0, 0.0, 0.0, 0.0, 0.0, 0.0, 0.0, 0.0, 0.0, 1.666408447537419E9, 0.0, 2022-10-21 20:14:07.537
61.0, -152474.30234841138, -132754.7440236502, 63107.87059162505, -63086.72584137033, 79523.75167891404, -84174.1215198185, 88095.35510484637, -127238.95934092515, 0.018000000000000002, 0.9540000000000001, -0.106, 192.0, 0.0, 0.0, 0.0, 0.0, 0.0, 0.0, 0.0, 0.0, 0.0, 1.666408447537429E9, 0.0, 2022-10-21 20:14:07.537
62.0, -152474.6376245782, -132747.7702793801, 63109.39051024801, -63079.685041866906, 79521.89648412424, -84177.7648541647, 88099.06549442596, -127238.60171301386, 0.018000000000000002, 0.9540000000000001, -0.106, 192.0, 0.0, 0.0, 0.0, 0.0, 0.0, 0.0, 0.0, 0.0, 0.0, 1.6664084475374398E9, 0.0, 2022-10-21 20:14:07.537
63.0, -152476.3810606457, -132742.80819211106, 63110.01635909276, -63074.83471332011, 79518.61077768932, -84174.30033377414, 88123.83122728244, -127239.33932058088, 0.018000000000000002, 0.9540000000000001, -0.106, 192.0, 0.0, 0.0, 0.0, 0.0, 0.0, 0.0, 0.0, 0.0, 0.0, 1.6664084475374503E9, 0.0, 2022-10-21 20:14:07.537
64.0, -152476.42576413462, -132736.30383447456, 63110.95513235988, -63072.86775980804, 79525.65157719274, -84166.34311274804, 88126.13345696134, -127236.8359252019, 0.018000000000000002, 0.9540000000000001, -0.106, 192.0, 0.0, 0.0, 0.0, 0.0, 0.0, 0.0, 0.0, 0.0, 0.0, 1.6664084475374608E9, 0.0, 2022-10-21 20:14:07.537
65.0, -152478.16920020213, -132732.61579663944, 63110.01635909276, -63081.60729189006, 79521.29298702396, -84175.23910704126, 88096.45034032469, -127242.73678573809, 0.018000000000000002, 0.9540000000000001, -0.106, 192.0, 0.0, 0.0, 0.0, 0.0, 0.0, 0.0, 0.0, 0.0, 0.0, 1.6664084475374713E9, 0.0, 2022-10-21 20:14:07.537
66.0, -152484.51709562744, -132731.96759605024, 63104.76369914576, -63084.98240530281, 79515.66034742122, -84184.6715432014, 88087.86727045385, -127243.13911713829, 0.02, 0.9540000000000001, -0.112, 192.0, 0.0, 160.0, 29.0, 208.0, 252.0, 128.0, 0.0, 0.0, 0.0, 1.666408447537482E9, 0.0, 2022-10-21 20:14:07.537
67.0, -152484.4500403941, -132724.36800293543, 63107.937646858416, -63074.030050519716, 79522.61173994682, -84171.6181244395, 88123.8535790269, -127235.74068972358, 0.02, 0.9540000000000001, -0.112, 192.0, 0.0, 0.0, 0.0, 0.0, 0.0, 0.0, 0.0, 0.0, 0.0, 1.6664084475374932E9, 0.0, 2022-10-21 20:14:07.537
68.0, -152479.55500835838, -132712.85685454094, 63112.58680970512, -63070.163198728944, 79526.43388824868, -84157.02243531018, 88137.08581174443, -127229.21398034264, 0.02, 0.9540000000000001, -0.112, 192.0, 0.0, 0.0, 0.0, 0.0, 0.0, 0.0, 0.0, 0.0, 0.0, 1.6664084475375044E9, 0.0, 2022-10-21 20:14:07.537
69.0, -152478.70564206908, -132707.93947076076, 63113.033844594225, -63071.504303396265, 79529.54078072796, -84161.33632199006, 88115.6951923007, -127230.30921582095, 0.02, 0.9540000000000001, -0.112, 192.0, 0.0, 0.0, 0.0, 0.0, 0.0, 0.0, 0.0, 0.0, 0.0, 1.6664084475375147E9, 0.0, 2022-10-21 20:14:07.537
70.0, -152481.96899675953, -132706.35249690444, 63103.69081541191, -63078.76862034424, 79523.39405100275, -84174.38974075195, 88099.87015722635, -127241.12746013732, 0.02, 0.9540000000000001, -0.112, 192.0, 0.0, 0.0, 0.0, 0.0, 0.0, 0.0, 0.0, 0.0, 0.0, 1.6664084475375254E9, 0.0, 2022-10-21 20:14:07.537
71.0, -152486.998139262, -132704.45259862574, 63096.337091486115, -63079.34976570008, 79516.84498987735, -84174.68031342988, 88121.03725922553, -127244.56962878343, 0.02, 0.9540000000000001, -0.112, 192.0, 0.0, 0.0, 0.0, 0.0, 0.0, 0.0, 0.0, 0.0, 0.0, 1.666408447537536E9, 0.0, 2022-10-21 20:14:07.537
72.0, -152487.75809857348, -132700.56339509052, 63101.47799271083, -63077.382812188014, 79520.80124864593, -84165.91842960339, 88132.86133204238, -127244.43551831669, 0.02, 0.9540000000000001, -0.112, 192.0, 0.0, 0.0, 0.0, 0.0, 0.0, 0.0, 0.0, 0.0, 0.0, 1.6664084475375462E9, 0.0, 2022-10-21 20:14:07.537
73.0, -152479.21973219153, -132689.5216333296, 63112.475050982845, -63076.824018576626, 79531.3736237733, -84163.50444120223, 88114.73406728913, -127240.07692814792, 0.02, 0.9540000000000001, -0.112, 192.0, 0.0, 0.0, 0.0, 0.0, 0.0, 0.0, 0.0, 0.0, 0.0, 1.666408447537566E9, 0.0, 2022-10-21 20:14:07.537
74.0, -152474.7940867894, -132680.13390065837, 63117.03480685173, -63073.404201674966, 79537.34153954286, -84160.88928710094, 88105.86042474037, -127235.3830618123, 0.02, 0.9540000000000001, -0.112, 192.0, 0.0, 0.0, 0.0, 0.0, 0.0, 0.0, 0.0, 0.0, 0.0, 1.666408447537577E9, 0.0, 2022-10-21 20:14:07.537
75.0, -152477.81157229087, -132677.38463609037, 63115.35842601758, -63067.05630624966, 79536.84980116485, -84158.56470567759, 88135.36472742137, -127232.16441061073, 0.014, 0.96, -0.11, 192.0, 0.0, 112.0, 30.0, 0.0, 252.0, 144.0, 0.0, 0.0, 0.0, 1.6664084475375876E9, 0.0, 2022-10-21 20:14:07.537
76.0, -152480.51613336994, -132671.6625895098, 63106.21656253536, -63079.70739361137, 79524.82456264789, -84167.08072031508, 88143.29959670301, -127238.3334920804, 0.014, 0.96, -0.11, 192.0, 0.0, 0.0, 0.0, 0.0, 0.0, 0.0, 0.0, 0.0, 0.0, 1.6664084475375988E9, 0.0, 2022-10-21 20:14:07.537
77.0, -152475.10701121177, -132659.59264750395, 63108.36233000307, -63079.0368412777, 79531.3736237733, -84162.18568827937, 88124.21120693818, -127242.08858514889, 0.014, 0.96, -0.11, 192.0, 0.0, 0.0, 0.0, 0.0, 0.0, 0.0, 0.0, 0.0, 0.0, 1.6664084475376096E9, 0.0, 2022-10-21 20:14:07.537
78.0, -152464.91461574016, -132643.2088188182, 63121.72867318734, -63064.463503892846, 79547.5786385034, -84146.91944681639, 88116.03046846754, -127226.82234368591, 0.014, 0.96, -0.11, 192.0, 0.0, 0.0, 0.0, 0.0, 0.0, 0.0, 0.0, 0.0, 0.0, 1.6664084475376205E9, 0.0, 2022-10-21 20:14:07.537
79.0, -152474.41410713366, -132645.22047581917, 63116.23014405133, -63068.39741091698, 79538.50383025454, -84152.84265909703, 88127.2510441841, -127233.46081178915, 0.014, 0.96, -0.11, 192.0, 0.0, 0.0, 0.0, 0.0, 0.0, 0.0, 0.0, 0.0, 0.0, 1.6664084475376315E9, 0.0, 2022-10-21 20:14:07.537
80.0, -152481.0972787258, -132642.62767346235, 63109.21169629237, -63070.878454551515, 79536.38041453129, -84152.0156445522, 88150.89918981782, -127238.22173335812, 0.014, 0.96, -0.11, 192.0, 0.0, 0.0, 0.0, 0.0, 0.0, 0.0, 0.0, 0.0, 0.0, 1.6664084475376425E9, 0.0, 2022-10-21 20:14:07.537
81.0, -152476.47046762353, -132633.8657896359, 63107.62472243604, -63080.6908703674, 79532.29004529596, -84160.57636267858, 88135.02945125455, -127237.66293974673, 0.014, 0.96, -0.11, 192.0, 0.0, 0.0, 0.0, 0.0, 0.0, 0.0, 0.0, 0.0, 0.0, 1.6664084475376527E9, 0.0, 2022-10-21 20:14:07.537
82.0, -152474.41410713366, -132629.37308900035, 63104.47312646784, -63089.81038210516, 79528.37849001629, -84173.74154016275, 88103.22291889465, -127243.78731772749, 0.014, 0.96, -0.11, 192.0, 0.0, 0.0, 0.0, 0.0, 0.0, 0.0, 0.0, 0.0, 0.0, 1.6664084475376637E9, 0.0, 2022-10-21 20:14:07.537
83.0, -152471.4413251211, -132621.43821971872, 63109.3458067591, -63082.03197503471, 79528.78082141648, -84168.10890056002, 88115.94106148972, -127237.12649787981, 0.014, 0.96, -0.11, 192.0, 0.0, 0.0, 0.0, 0.0, 0.0, 0.0, 0.0, 0.0, 0.0, 1.6664084475376744E9, 0.0, 2022-10-21 20:14:07.537
84.0, -152470.0778687093, -132614.2409580041, 63112.38564400502, -63074.32062319764, 79531.44067900666, -84159.32466498908, 88145.82534382647, -127232.34322456637, 0.014, 0.96, -0.11, 192.0, 0.0, 0.0, 0.0, 0.0, 0.0, 0.0, 0.0, 0.0, 0.0, 1.666408447537685E9, 0.0, 2022-10-21 20:14:07.537
85.0, -152467.41801111915, -132605.43437068872, 63115.98427486233, -63077.04753602118, 79528.75846967203, -84168.3100662601, 88133.46482914267, -127237.23825660208, 0.016, 0.9540000000000001, -0.106, 192.0, 0.0, 128.0, 29.0, 208.0, 252.0, 176.0, 0.0, 0.0, 0.0, 1.6664084475376956E9, 0.0, 2022-10-21 20:14:07.537
86.0, -152476.6492815792, -132606.90958582278, 63107.15533580248, -63091.41970770594, 79517.62730093328, -84184.60448796803, 88093.70107575669, -127253.17505039873, 0.016, 0.9540000000000001, -0.106, 192.0, 0.0, 0.0, 0.0, 0.0, 0.0, 0.0, 0.0, 0.0, 0.0, 1.666408447537707E9, 0.0, 2022-10-21 20:14:07.537
87.0, -152478.996214747, -132602.93097530975, 63104.13785030101, -63090.950321072385, 79517.56024569992, -84177.13900531996, 88096.56209904696, -127250.9845794421, 0.016, 0.9540000000000001, -0.106, 192.0, 0.0, 0.0, 0.0, 0.0, 0.0, 0.0, 0.0, 0.0, 0.0, 1.666408447537718E9, 0.0, 2022-10-21 20:14:07.537
88.0, -152469.0943919533, -132585.80953905697, 63120.029940608736, -63073.49360865279, 79532.2229900626, -84155.68133064287, 88143.00902402509, -127233.4831635336, 0.016, 0.9540000000000001, -0.106, 192.0, 0.0, 0.0, 0.0, 0.0, 0.0, 0.0, 0.0, 0.0, 0.0, 1.666408447537738E9, 0.0, 2022-10-21 20:14:07.537
89.0, -152469.31790939785, -132580.84745178788, 63118.3982632635, -63084.26714948025, 79527.97615861609, -84165.20317378083, 88137.82341931146, -127239.11580313633, 0.016, 0.9540000000000001, -0.106, 192.0, 0.0, 0.0, 0.0, 0.0, 0.0, 0.0, 0.0, 0.0, 0.0, 1.6664084475377488E9, 0.0, 2022-10-21 20:14:07.537
90.0, -152469.69788905358, -132576.60062034137, 63116.4983649848, -63093.476068195836, 79522.99171960256, -84173.22745004029, 88108.63204105283, -127240.94864618167, 0.016, 0.9540000000000001, -0.106, 192.0, 0.0, 0.0, 0.0, 0.0, 0.0, 0.0, 0.0, 0.0, 0.0, 1.66640844753776E9, 0.0, 2022-10-21 20:14:07.537
91.0, -152469.2955576534, -132570.1409661938, 63117.81711790766, -63085.429440191925, 79523.77403065849, -84171.55106920614, 88106.79919800749, -127237.10414613536, 0.016, 0.9540000000000001, -0.106, 192.0, 0.0, 0.0, 0.0, 0.0, 0.0, 0.0, 0.0, 0.0, 0.0, 1.6664084475377705E9, 0.0, 2022-10-21 20:14:07.537
92.0, -152469.3402611423, -132563.97188472413, 63119.113519086066, -63072.39837317448, 79528.93728362767, -84158.60940916651, 88138.76219257858, -127234.04195714497, 0.016, 0.9540000000000001, -0.106, 192.0, 0.0, 0.0, 0.0, 0.0, 0.0, 0.0, 0.0, 0.0, 0.0, 1.6664084475377812E9, 0.0, 2022-10-21 20:14:07.537
93.0, -152480.18085720312, -132567.48110860362, 63108.071757325146, -63084.58007390262, 79523.55051321394, -84163.79501388014, 88142.09260250242, -127243.92142819423, 0.016, 0.9540000000000001, -0.106, 192.0, 0.0, 0.0, 0.0, 0.0, 0.0, 0.0, 0.0, 0.0, 0.0, 1.6664084475377924E9, 0.0, 2022-10-21 20:14:07.537
94.0, -152478.72799381352, -132560.1497364223, 63107.378853247035, -63089.36334721606, 79521.87413237979, -84176.0214180972, 88113.75059053309, -127244.14494563878, 0.016, 0.9540000000000001, -0.106, 192.0, 0.0, 0.0, 0.0, 0.0, 0.0, 0.0, 0.0, 0.0, 0.0, 1.6664084475378027E9, 0.0, 2022-10-21 20:14:07.537
95.0, -152476.0904879678, -132552.2372188851, 63108.697606169895, -63091.06207979466, 79522.99171960256, -84172.55689770663, 88101.39007584931, -127240.38985257028, 0.022, 0.9560000000000001, -0.10200000000000001, 192.0, 0.0, 176.0, 29.0, 224.0, 252.0, 208.0, 0.0, 0.0, 0.0, 1.6664084475378137E9, 0.0, 2022-10-21 20:14:07.537
96.0, -152480.8961130257, -132550.7843554955, 63103.91433285646, -63086.03293729221, 79523.86343763632, -84167.14777554844, 88129.03918374052, -127237.88645719129, 0.022, 0.9560000000000001, -0.10200000000000001, 192.0, 0.0, 0.0, 0.0, 0.0, 0.0, 0.0, 0.0, 0.0, 0.0, 1.6664084475378249E9, 0.0, 2022-10-21 20:14:07.537
97.0, -152490.12738348573, -132554.11476541933, 63096.20298101938, -63093.58782691811, 79518.18609454467, -84174.34503726305, 88138.8068960675, -127244.92725669472, 0.022, 0.9560000000000001, -0.10200000000000001, 192.0, 0.0, 0.0, 0.0, 0.0, 0.0, 0.0, 0.0, 0.0, 0.0, 1.6664084475378351E9, 0.0, 2022-10-21 20:14:07.537
98.0, -152484.87472353873, -132545.66580601523, 63105.85893462407, -63098.32639674263, 79522.09764982434, -84164.55497319163, 88121.28312841454, -127239.83105895891, 0.022, 0.9560000000000001, -0.10200000000000001, 192.0, 0.0, 0.0, 0.0, 0.0, 0.0, 0.0, 0.0, 0.0, 0.0, 1.6664084475378456E9, 0.0, 2022-10-21 20:14:07.537
99.0, -152474.45881062257, -132529.7737157075, 63120.70049294239, -63086.77054485924, 79538.86145816582, -84149.3110834731, 88118.10918070188, -127224.98950064059, 0.022, 0.9560000000000001, -0.10200000000000001, 192.0, 0.0, 0.0, 0.0, 0.0, 0.0, 0.0, 0.0, 0.0, 0.0, 1.666408447537856E9, 0.0, 2022-10-21 20:14:07.537
100.0, -152477.4315926351, -132524.09637261587, 63119.314684786164, -63077.04753602118, 79542.46008902312, -84143.11965025899, 88143.99250078113, -127224.92244540721, 0.022, 0.9560000000000001, -0.10200000000000001, 192.0, 0.0, 0.0, 0.0, 0.0, 0.0, 0.0, 0.0, 0.0, 0.0, 1.6664084475378668E9, 0.0, 2022-10-21 20:14:07.537
101.0, -152478.41506939114, -132515.89328240076, 63111.82685039364, -63081.76375410125, 79537.81092617642, -84148.37231020597, 88158.74465212163, -127233.0361286445, 0.022, 0.9560000000000001, -0.10200000000000001, 192.0, 0.0, 0.0, 0.0, 0.0, 0.0, 0.0, 0.0, 0.0, 0.0, 1.6664084475378768E9, 0.0, 2022-10-21 20:14:07.537
102.0, -152471.91071175467, -132508.45015149715, 63117.705359185384, -63088.17870475993, 79537.8779814098, -84156.24012425424, 88136.99640476661, -127232.45498328866, 0.022, 0.9560000000000001, -0.10200000000000001, 192.0, 0.0, 0.0, 0.0, 0.0, 0.0, 0.0, 0.0, 0.0, 0.0, 1.6664084475378847E9, 0.0, 2022-10-21 20:14:07.537
103.0, -152478.50447636898, -132512.31700328793, 63122.66744645446, -63086.36821345904, 79544.2258768351, -84155.6142754095, 88118.3997533798, -127225.63770122979, 0.022, 0.9560000000000001, -0.10200000000000001, 192.0, 0.0, 0.0, 0.0, 0.0, 0.0, 0.0, 0.0, 0.0, 0.0, 1.6664084475378926E9, 0.0, 2022-10-21 20:14:07.537
104.0, -152480.51613336994, -132504.31507877292, 63123.06977785466, -63071.169027229436, 79543.64473147926, -84152.57443816357, 88134.3588989209, -127234.28782633398, 0.022, 0.9560000000000001, -0.10200000000000001, 192.0, 0.0, 0.0, 0.0, 0.0, 0.0, 0.0, 0.0, 0.0, 0.0, 1.6664084475379078E9, 0.0, 2022-10-21 20:14:07.537
105.0, -152477.7445170575, -132494.90499435723, 63126.042559867215, -63071.34784118508, 79540.09080411086, -84154.00494980872, 88157.3588439654, -127234.3325298229, 0.016, 0.9540000000000001, -0.098, 192.0, 0.0, 128.0, 29.0, 208.0, 252.0, 240.0, 0.0, 0.0, 0.0, 1.6664084475379157E9, 0.0, 2022-10-21 20:14:07.537
106.0, -152481.00787174798, -132494.9720495906, 63122.823908665654, -63087.06111753716, 79529.49607723905, -84161.78335687917, 88133.5095326316, -127238.42289905822, 0.016, 0.9540000000000001, -0.098, 192.0, 0.0, 0.0, 0.0, 0.0, 0.0, 0.0, 0.0, 0.0, 0.0, 1.6664084475379243E9, 0.0, 2022-10-21 20:14:07.537
107.0, -152475.79991528988, -132486.59014541988, 63125.50611800029, -63081.76375410125, 79536.73804244256, -84161.62689466798, 88110.33077363143, -127236.09831763487, 0.016, 0.9540000000000001, -0.098, 192.0, 0.0, 0.0, 0.0, 0.0, 0.0, 0.0, 0.0, 0.0, 0.0, 1.6664084475379324E9, 0.0, 2022-10-21 20:14:07.537
108.0, -152475.2858251674, -132476.12952901478, 63120.812251664676, -63082.121382012534, 79530.47955399509, -84164.84554586954, 88119.4949888581, -127235.87480019031, 0.016, 0.9540000000000001, -0.098, 192.0, 0.0, 0.0, 0.0, 0.0, 0.0, 0.0, 0.0, 0.0, 0.0, 1.6664084475379405E9, 0.0, 2022-10-21 20:14:07.537
109.0, -152478.45977288007, -132475.90601157022, 63116.4983649848, -63089.87743733853, 79523.77403065849, -84165.58315343657, 88144.05955601449, -127235.89715193477, 0.016, 0.9540000000000001, -0.098, 192.0, 0.0, 0.0, 0.0, 0.0, 0.0, 0.0, 0.0, 0.0, 0.0, 1.6664084475379484E9, 0.0, 2022-10-21 20:14:07.537
110.0, -152488.22748520703, -132483.1703285182, 63110.06106258167, -63110.41869049295, 79513.22400727558, -84184.62683971248, 88125.3958493943, -127245.9330851952, 0.016, 0.9540000000000001, -0.098, 192.0, 0.0, 0.0, 0.0, 0.0, 0.0, 0.0, 0.0, 0.0, 0.0, 1.6664084475379565E9, 0.0, 2022-10-21 20:14:07.537
111.0, -152476.91750251263, -132467.23353472157, 63123.673274954956, -63108.74230965881, 79524.46693473661, -84176.31199077511, 88107.06741894096, -127237.35001532437, 0.016, 0.9540000000000001, -0.098, 192.0, 0.0, 0.0, 0.0, 0.0, 0.0, 0.0, 0.0, 0.0, 0.0, 1.6664084475379667E9, 0.0, 2022-10-21 20:14:07.537
112.0, -152467.82034251932, -132449.59800834634, 63134.715036715876, -63094.660710651966, 79536.17924883119, -84157.33535973256, 88119.91967200275, -127226.44236403017, 0.016, 0.9540000000000001, -0.098, 192.0, 0.0, 0.0, 0.0, 0.0, 0.0, 0.0, 0.0, 0.0, 0.0, 1.6664084475379748E9, 0.0, 2022-10-21 20:14:07.537
113.0, -152470.94958674308, -132445.23941817755, 63131.60814423658, -63094.1913240184, 79533.96642613011, -84152.79795560813, 88145.87004731537, -127232.29852107746, 0.016, 0.9540000000000001, -0.098, 192.0, 0.0, 0.0, 0.0, 0.0, 0.0, 0.0, 0.0, 0.0, 0.0, 1.6664084475379827E9, 0.0, 2022-10-21 20:14:07.537
114.0, -152475.26347342297, -132443.1607059432, 63125.483766255835, -63104.27196076774, 79528.2220278051, -84169.00297033823, 88140.25975945708, -127241.99917817107, 0.016, 0.9540000000000001, -0.098, 192.0, 0.0, 128.0, 29.0, 208.0, 252.0, 240.0, 0.0, 0.0, 0.0, 1.6664084475379908E9, 0.0, 2022-10-21 20:14:07.537
115.0, -152473.96707224453, -132435.06937445037, 63122.42157726546, -63108.04940558069, 79526.9703301156, -84180.0670838436, 88109.43670385322, -127245.50840205055, 0.016, 0.9540000000000001, -0.098, 192.0, 0.0, 0.0, 0.0, 0.0, 0.0, 0.0, 0.0, 0.0, 0.0, 1.6664084475379992E9, 0.0, 2022-10-21 20:14:07.537
116.0, -152471.8883600102, -132430.5543220704, 63124.097958099606, -63106.44007997991, 79528.28908303847, -84170.32172326109, 88107.84972999689, -127238.28878859148, 0.016, 0.9540000000000001, -0.098, 192.0, 0.0, 0.0, 0.0, 0.0, 0.0, 0.0, 0.0, 0.0, 0.0, 1.6664084475380073E9, 0.0, 2022-10-21 20:14:07.538
117.0, -152473.00594723297, -132428.4085546027, 63125.43906276692, -63101.03095782173, 79526.3668330153, -84158.81057486661, 88138.47161990067, -127230.35391930985, 0.016, 0.9540000000000001, -0.098, 192.0, 0.0, 0.0, 0.0, 0.0, 0.0, 0.0, 0.0, 0.0, 0.0, 1.6664084475380151E9, 0.0, 2022-10-21 20:14:07.538
118.0, -152474.5482176004, -132422.2171213886, 63120.92401038695, -63106.21656253536, 79523.59521670284, -84166.11959530349, 88143.83603856993, -127237.97586416912, 0.016, 0.9540000000000001, -0.098, 192.0, 0.0, 0.0, 0.0, 0.0, 0.0, 0.0, 0.0, 0.0, 0.0, 1.6664084475380232E9, 0.0, 2022-10-21 20:14:07.538
119.0, -152471.48602861, -132410.61656601628, 63120.32051328666, -63111.849202138095, 79522.14235331326, -84174.43444424086, 88116.63396556783, -127236.32183507942, 0.016, 0.9540000000000001, -0.098, 192.0, 0.0, 0.0, 0.0, 0.0, 0.0, 0.0, 0.0, 0.0, 0.0, 1.6664084475380936E9, 0.0, 2022-10-21 20:14:07.538
120.0, -152467.21684541905, -132400.6476879892, 63122.24276330981, -63108.272923025244, 79532.15593482924, -84163.37033073549, 88109.14613117531, -127232.030300144, 0.016, 0.9540000000000001, -0.098, 192.0, 0.0, 0.0, 0.0, 0.0, 0.0, 0.0, 0.0, 0.0, 0.0, 1.666408447538102E9, 0.0, 2022-10-21 20:14:07.538
121.0, -152475.66580482316, -132402.41347580118, 63115.78310916223, -63103.310835756165, 79535.35223428634, -84158.20707776632, 88136.41525941077, -127233.95255016716, 0.016, 0.9540000000000001, -0.098, 192.0, 0.0, 0.0, 0.0, 0.0, 0.0, 0.0, 0.0, 0.0, 0.0, 1.6664084475381103E9, 0.0, 2022-10-21 20:14:07.538
122.0, -152480.56083685887, -132399.6418594887, 63110.21752479286, -63112.81032714967, 79527.2161993046, -84168.8688598715, 88144.81951532597, -127241.86506770433, 0.016, 0.9540000000000001, -0.098, 192.0, 0.0, 0.0, 0.0, 0.0, 0.0, 0.0, 0.0, 0.0, 0.0, 1.666408448016046E9, 0.0, 2022-10-21 20:14:08.016
123.0, -152468.44619136408, -132383.66036220317, 63118.845298152606, -63109.457565481374, 79538.41442327671, -84163.68325515787, 88131.78844830852, -127230.37627105431, 0.016, 0.9540000000000001, -0.098, 192.0, 0.0, 0.0, 0.0, 0.0, 0.0, 0.0, 0.0, 0.0, 0.0, 1.6664084480161548E9, 0.0, 2022-10-21 20:14:08.016
124.0, -152466.4345343631, -132378.18418481163, 63119.26998129726, -63118.130042330034, 79535.50869649753, -84163.4150342244, 88112.32007888796, -127227.8281721864, 0.018000000000000002, 0.9540000000000001, -0.098, 192.0, 0.0, 144.0, 29.0, 208.0, 252.0, 240.0, 0.0, 0.0, 0.0, 1.6664084480161955E9, 0.0, 2022-10-21 20:14:08.016
125.0, -152470.54725534288, -132378.09477783382, 63117.16891731846, -63109.97165560385, 79531.88771389578, -84163.95147609133, 88130.44734364121, -127232.14205886627, 0.018000000000000002, 0.9540000000000001, -0.098, 192.0, 0.0, 0.0, 0.0, 0.0, 0.0, 0.0, 0.0, 0.0, 0.0, 1.6664084480162134E9, 0.0, 2022-10-21 20:14:08.016
126.0, -152471.3295663988, -132372.12686206424, 63120.45462375339, -63097.81230662016, 79533.76526043001, -84161.02339756768, 88155.61540789789, -127228.49872452006, 0.018000000000000002, 0.9540000000000001, -0.098, 192.0, 0.0, 0.0, 0.0, 0.0, 0.0, 0.0, 0.0, 0.0, 0.0, 1.66640844801623E9, 0.0, 2022-10-21 20:14:08.016
127.0, -152470.3907931317, -132361.6438939147, 63123.40505402149, -63098.907542098474, 79535.91102789773, -84154.34022597555, 88143.54546589202, -127227.91757916422, 0.018000000000000002, 0.9540000000000001, -0.098, 192.0, 0.0, 0.0, 0.0, 0.0, 0.0, 0.0, 0.0, 0.0, 0.0, 1.6664084480162456E9, 0.0, 2022-10-21 20:14:08.016
128.0, -152475.57639784532, -132362.06857705934, 63117.101862085095, -63119.56055397518, 79529.36196677233, -84161.20221152333, 88113.28120389953, -127236.61240775733, 0.018000000000000002, 0.9540000000000001, -0.098, 192.0, 0.0, 0.0, 0.0, 0.0, 0.0, 0.0, 0.0, 0.0, 0.0, 1.666408448016261E9, 0.0, 2022-10-21 20:14:08.016
129.0, -152474.57056934483, -132353.6419693997, 63120.27580979774, -63108.74230965881, 79530.18898131717, -84155.39075796494, 88127.92159651776, -127231.20328559916, 0.018000000000000002, 0.9540000000000001, -0.098, 192.0, 0.0, 0.0, 0.0, 0.0, 0.0, 0.0, 0.0, 0.0, 0.0, 1.666408448016276E9, 0.0, 2022-10-21 20:14:08.016
130.0, -152477.3868891462, -132349.61865539773, 63118.82294640815, -63104.54018170121, 79526.81386790442, -84152.52973467467, 88151.79325959603, -127235.60657925686, 0.018000000000000002, 0.9540000000000001, -0.098, 192.0, 0.0, 0.0, 0.0, 0.0, 0.0, 0.0, 0.0, 0.0, 0.0, 1.6664084480162911E9, 0.0, 2022-10-21 20:14:08.016
131.0, -152477.72216531303, -132346.66822512963, 63118.53237373023, -63113.659693438975, 79520.93535911267, -84161.02339756768, 88135.9011692883, -127243.96613168313, 0.018000000000000002, 0.9540000000000001, -0.098, 192.0, 0.0, 0.0, 0.0, 0.0, 0.0, 0.0, 0.0, 0.0, 0.0, 1.6664084480163064E9, 0.0, 2022-10-21 20:14:08.016
132.0, -152472.6930228106, -132337.50400990297, 63121.79572842071, -63116.14073707351, 79523.23758879157, -84166.85720287052, 88108.47557884164, -127242.46856480463, 0.018000000000000002, 0.9540000000000001, -0.098, 192.0, 0.0, 0.0, 0.0, 0.0, 0.0, 0.0, 0.0, 0.0, 0.0, 1.6664084480163286E9, 0.0, 2022-10-21 20:14:08.016
133.0, -152470.2790344094, -132328.69742258757, 63125.30495230019, -63110.798670148695, 79524.6681004367, -84169.5170604607, 88115.62813706734, -127240.92629443722, 0.018000000000000002, 0.9540000000000001, -0.098, 192.0, 0.0, 0.0, 0.0, 0.0, 0.0, 0.0, 0.0, 0.0, 0.0, 1.6664084480163438E9, 0.0, 2022-10-21 20:14:08.016
134.0, -152470.21197917606, -132320.1814079501, 63122.622742965556, -63106.86476312456, 79524.95867311463, -84167.6618656709, 88143.83603856993, -127241.79801247097, 0.016, 0.9520000000000001, -0.116, 192.0, 0.0, 128.0, 29.0, 192.0, 252.0, 96.0, 0.0, 0.0, 0.0, 1.6664084480164404E9, 0.0, 2022-10-21 20:14:08.016
135.0, -152467.14979018568, -132312.35829739075, 63126.1990220784, -63109.59167594811, 79530.90423713974, -84163.0127028242, 88145.71358510418, -127237.21590485763, 0.016, 0.9520000000000001, -0.116, 192.0, 0.0, 0.0, 0.0, 0.0, 0.0, 0.0, 0.0, 0.0, 0.0, 1.6664084480164576E9, 0.0, 2022-10-21 20:14:08.016
136.0, -152466.21101691856, -132305.09398044276, 63130.04352212472, -63115.559591717676, 79532.84883890735, -84169.5617639496, 88118.1985876797, -127237.97586416912, 0.016, 0.9520000000000001, -0.116, 192.0, 0.0, 0.0, 0.0, 0.0, 0.0, 0.0, 0.0, 0.0, 0.0, 1.6664084480164728E9, 0.0, 2022-10-21 20:14:08.016
137.0, -152466.479237852, -132300.7800937629, 63128.00951337928, -63114.77728066174, 79530.3677952728, -84174.70266517434, 88110.42018060926, -127240.85923920384, 0.016, 0.9520000000000001, -0.116, 192.0, 0.0, 0.0, 0.0, 0.0, 0.0, 0.0, 0.0, 0.0, 0.0, 1.6664084480164883E9, 0.0, 2022-10-21 20:14:08.016
138.0, -152471.5307320989, -132300.69068678506, 63127.58483023463, -63105.836582879616, 79530.45720225063, -84171.39460699495, 88138.44926815621, -127241.48508804859, 0.016, 0.9520000000000001, -0.116, 192.0, 0.0, 0.0, 0.0, 0.0, 0.0, 0.0, 0.0, 0.0, 0.0, 1.6664084480165036E9, 0.0, 2022-10-21 20:14:08.016
139.0, -152471.35191814328, -132297.71790477252, 63129.462376768875, -63108.60819919207, 79534.39110927476, -84160.86693535649, 88145.17714323726, -127241.59684677087, 0.016, 0.9520000000000001, -0.116, 192.0, 0.0, 0.0, 0.0, 0.0, 0.0, 0.0, 0.0, 0.0, 0.0, 1.6664084480165184E9, 0.0, 2022-10-21 20:14:08.016
140.0, -152474.57056934483, -132296.26504138293, 63126.78016743424, -63108.36233000307, 79540.04610062196, -84162.49861270173, 88120.27729991404, -127245.284884606, 0.016, 0.9520000000000001, -0.116, 192.0, 0.0, 0.0, 0.0, 0.0, 0.0, 0.0, 0.0, 0.0, 0.0, 1.6664084480165334E9, 0.0, 2022-10-21 20:14:08.016
141.0, -152473.2965199109, -132288.218413379, 63126.71311220087, -63107.714129413864, 79541.34250180036, -84161.60454292352, 88111.69423004321, -127236.09831763487, 0.016, 0.9520000000000001, -0.116, 192.0, 0.0, 0.0, 0.0, 0.0, 0.0, 0.0, 0.0, 0.0, 0.0, 1.6664084480165486E9, 0.0, 2022-10-21 20:14:08.016
142.0, -152475.46463912306, -132280.0823783973, 63127.853051168095, -63096.895885097496, 79547.13160361428, -84149.84752534002, 88147.76994559407, -127225.77181169651, 0.016, 0.9520000000000001, -0.116, 192.0, 0.0, 0.0, 0.0, 0.0, 0.0, 0.0, 0.0, 0.0, 0.0, 1.6664084480165637E9, 0.0, 2022-10-21 20:14:08.016
143.0, -152471.0389937209, -132267.3642358022, 63129.887059913526, -63098.706376398375, 79545.54462975796, -84149.15462126191, 88160.62219865587, -127228.90105592026, 0.018000000000000002, 0.9540000000000001, -0.112, 192.0, 0.0, 144.0, 29.0, 208.0, 252.0, 128.0, 0.0, 0.0, 0.0, 1.666408448016579E9, 0.0, 2022-10-21 20:14:08.016
144.0, -152467.9768047305, -132259.29525605385, 63134.49151927132, -63105.36719624606, 79546.9751414031, -84152.90971433041, 88140.48327690164, -127230.48802977659, 0.018000000000000002, 0.9540000000000001, -0.112, 192.0, 0.0, 0.0, 0.0, 0.0, 0.0, 0.0, 0.0, 0.0, 0.0, 1.666408448016595E9, 0.0, 2022-10-21 20:14:08.016
145.0, -152473.07300246632, -132261.35161654375, 63133.798615193205, -63112.87738238304, 79545.0752431244, -84162.25274351273, 88128.32392791795, -127231.11387862134, 0.018000000000000002, 0.9540000000000001, -0.112, 192.0, 0.0, 0.0, 0.0, 0.0, 0.0, 0.0, 0.0, 0.0, 0.0, 1.6664084480166156E9, 0.0, 2022-10-21 20:14:08.016
146.0, -152475.15171470068, -132256.210715319, 63132.07753087015, -63111.17864980444, 79538.3697197878, -84167.17012729289, 88147.88170431634, -127231.02447164351, 0.018000000000000002, 0.9540000000000001, -0.112, 192.0, 0.0, 0.0, 0.0, 0.0, 0.0, 0.0, 0.0, 0.0, 0.0, 1.6664084480166304E9, 0.0, 2022-10-21 20:14:08.016
147.0, -152471.62013907672, -132248.29819778184, 63137.12902511705, -63101.72386189984, 79547.44452803666, -84152.37327246348, 88171.23927727215, -127226.88939891929, 0.018000000000000002, 0.9540000000000001, -0.112, 192.0, 0.0, 0.0, 0.0, 0.0, 0.0, 0.0, 0.0, 0.0, 0.0, 1.6664084480166457E9, 0.0, 2022-10-21 20:14:08.016
148.0, -152474.70467981158, -132249.50519198243, 63130.49055701382, -63115.02314985075, 79546.81867919191, -84157.04478705463, 88149.73689910614, -127235.31600657893, 0.018000000000000002, 0.9540000000000001, -0.112, 192.0, 0.0, 0.0, 0.0, 0.0, 0.0, 0.0, 0.0, 0.0, 0.0, 1.6664084480166607E9, 0.0, 2022-10-21 20:14:08.016
149.0, -152478.0350897354, -132248.07468033727, 63119.180574319435, -63134.73738846033, 79533.519391241, -84167.4159964819, 88118.3997533798, -127242.64737876027, 0.018000000000000002, 0.9540000000000001, -0.112, 192.0, 0.0, 0.0, 0.0, 0.0, 0.0, 0.0, 0.0, 0.0, 0.0, 1.6664084480166917E9, 0.0, 2022-10-21 20:14:08.016
150.0, -152473.1400576997, -132238.44107847704, 63127.0483883677, -63114.66552193947, 79543.60002799035, -84158.98938882224, 88146.40648918229, -127231.94089316617, 0.018000000000000002, 0.9540000000000001, -0.112, 192.0, 0.0, 0.0, 0.0, 0.0, 0.0, 0.0, 0.0, 0.0, 0.0, 1.6664084480167067E9, 0.0, 2022-10-21 20:14:08.016
151.0, -152478.07979322431, -132236.51882845387, 63126.668408711965, -63110.44104223741, 79538.48147851009, -84152.68619688586, 88164.73491963565, -127229.66101523174, 0.018000000000000002, 0.9540000000000001, -0.112, 192.0, 0.0, 0.0, 0.0, 0.0, 0.0, 0.0, 0.0, 0.0, 0.0, 1.6664084480167215E9, 0.0, 2022-10-21 20:14:08.016
152.0, -152482.97482526003, -132231.60144467372, 63122.42157726546, -63121.03576910923, 79536.33571104238, -84159.39172022244, 88146.42884092675, -127238.86993394732, 0.018000000000000002, 0.9540000000000001, -0.112, 192.0, 0.0, 0.0, 0.0, 0.0, 0.0, 0.0, 0.0, 0.0, 0.0, 1.6664084480167365E9, 0.0, 2022-10-21 20:14:08.016
153.0, -152475.2411216785, -132217.2516247334, 63119.895830142006, -63136.234955338834, 79530.72542318409, -84171.95340060633, 88115.47167485615, -127243.85437296086, 0.024, 0.9540000000000001, -0.114, 192.0, 0.0, 192.0, 29.0, 208.0, 252.0, 112.0, 0.0, 0.0, 0.0, 1.6664084480167515E9, 0.0, 2022-10-21 20:14:08.016
154.0, -152475.55404610088, -132215.3070229658, 63119.02411210825, -63133.172766348456, 79525.96450161512, -84173.36156050701, 88122.22190168165, -127242.80384097146, 0.024, 0.9540000000000001, -0.114, 192.0, 0.0, 0.0, 0.0, 0.0, 0.0, 0.0, 0.0, 0.0, 0.0, 1.6664084480167696E9, 0.0, 2022-10-21 20:14:08.016
155.0, -152480.71729907003, -132213.5635868983, 63120.00758886428, -63127.31660930117, 79530.59131271736, -84162.23039176827, 88150.11687876188, -127240.32279733692, 0.024, 0.9540000000000001, -0.114, 192.0, 0.0, 0.0, 0.0, 0.0, 0.0, 0.0, 0.0, 0.0, 0.0, 1.666408448016785E9, 0.0, 2022-10-21 20:14:08.016
156.0, -152476.91750251263, -132205.22638621647, 63123.82973716614, -63133.038655881726, 79531.59714121785, -84166.58898193705, 88140.99736702412, -127245.84367821738, 0.024, 0.9540000000000001, -0.114, 192.0, 0.0, 0.0, 0.0, 0.0, 0.0, 0.0, 0.0, 0.0, 0.0, 1.6664084480168004E9, 0.0, 2022-10-21 20:14:08.016
157.0, -152474.41410713366, -132198.16323496858, 63118.33120803013, -63150.294202601224, 79519.34838525634, -84192.11467410502, 88100.42895083773, -127253.71149226565, 0.024, 0.9540000000000001, -0.114, 192.0, 0.0, 0.0, 0.0, 0.0, 0.0, 0.0, 0.0, 0.0, 0.0, 1.6664084480168152E9, 0.0, 2022-10-21 20:14:08.016
158.0, -152473.00594723297, -132191.5024151209, 63121.080472598136, -63140.81706295217, 79521.20358004613, -84188.35958103652, 88102.35120086088, -127252.4374428317, 0.024, 0.9540000000000001, -0.114, 192.0, 0.0, 0.0, 0.0, 0.0, 0.0, 0.0, 0.0, 0.0, 0.0, 1.66640844801683E9, 0.0, 2022-10-21 20:14:08.016
159.0, -152470.2790344094, -132186.33916215174, 63129.171804090955, -63122.332170287635, 79534.23464706358, -84164.80084238063, 88141.84673331342, -127240.05457640346, 0.024, 0.9540000000000001, -0.114, 192.0, 0.0, 0.0, 0.0, 0.0, 0.0, 0.0, 0.0, 0.0, 0.0, 1.666408448016845E9, 0.0, 2022-10-21 20:14:08.016
160.0, -152470.1449239427, -132182.0476272163, 63127.718940701365, -63123.27094355476, 79541.09663261136, -84163.19151677984, 88142.02554726906, -127242.60267527137, 0.024, 0.9540000000000001, -0.114, 192.0, 0.0, 0.0, 0.0, 0.0, 0.0, 0.0, 0.0, 0.0, 0.0, 1.66640844801686E9, 0.0, 2022-10-21 20:14:08.016
161.0, -152469.1837989311, -132172.70459803398, 63124.701455199895, -63133.038655881726, 79540.15785934424, -84171.64047618395, 88113.83999751092, -127246.06719566193, 0.024, 0.9540000000000001, -0.114, 192.0, 0.0, 0.0, 0.0, 0.0, 0.0, 0.0, 0.0, 0.0, 0.0, 1.6664084480168748E9, 0.0, 2022-10-21 20:14:08.016
162.0, -152471.1284006987, -132168.36835960965, 63124.142661588514, -63128.52360350175, 79539.8225831774, -84167.4159964819, 88111.11308468737, -127242.11093689334, 0.024, 0.9540000000000001, -0.114, 192.0, 0.0, 0.0, 0.0, 0.0, 0.0, 0.0, 0.0, 0.0, 0.0, 1.6664084480168896E9, 0.0, 2022-10-21 20:14:08.016
163.0, -152478.5491798579, -132170.04474044382, 63121.59456272061, -63118.57707721914, 79540.20256283315, -84162.78918537965, 88140.95266353521, -127242.55797178246, 0.018000000000000002, 0.9560000000000001, -0.112, 192.0, 0.0, 144.0, 29.0, 224.0, 252.0, 128.0, 0.0, 0.0, 0.0, 1.6664084480169044E9, 0.0, 2022-10-21 20:14:08.016
164.0, -152481.7901828039, -132164.3450456077, 63117.83946965211, -63124.81321392217, 79536.78274593149, -84169.89704011644, 88144.03720427003, -127250.64930327528, 0.018000000000000002, 0.9560000000000001, -0.112, 192.0, 0.0, 0.0, 0.0, 0.0, 0.0, 0.0, 0.0, 0.0, 0.0, 1.6664084480169342E9, 0.0, 2022-10-21 20:14:08.016
165.0, -152481.1866857036, -132154.66674025854, 63119.29233304171, -63125.93080114494, 79539.19673433265, -84171.93104886188, 88120.79139003651, -127247.6318177738, 0.018000000000000002, 0.9560000000000001, -0.112, 192.0, 0.0, 0.0, 0.0, 0.0, 0.0, 0.0, 0.0, 0.0, 0.0, 1.6664084480169494E9, 0.0, 2022-10-21 20:14:08.016
166.0, -152480.3820229032, -132148.81058321125, 63119.35938827508, -63124.65675171099, 79539.50965875504, -84166.94660984834, 88114.59995682239, -127239.85341070336, 0.018000000000000002, 0.9560000000000001, -0.112, 192.0, 0.0, 0.0, 0.0, 0.0, 0.0, 0.0, 0.0, 0.0, 0.0, 1.6664084480169644E9, 0.0, 2022-10-21 20:14:08.016
167.0, -152483.31010142688, -132146.77657446582, 63117.25832429628, -63123.673274954956, 79537.90033315425, -84161.82806036808, 88144.14896299232, -127236.09831763487, 0.018000000000000002, 0.9560000000000001, -0.112, 192.0, 0.0, 0.0, 0.0, 0.0, 0.0, 0.0, 0.0, 0.0, 0.0, 1.6664084480169792E9, 0.0, 2022-10-21 20:14:08.016
168.0, -152487.66869159564, -132142.2391703414, 63114.86668763956, -63133.19511809291, 79535.08401335288, -84163.63855166895, 88156.01773929808, -127239.40637581426, 0.018000000000000002, 0.9560000000000001, -0.112, 192.0, 0.0, 0.0, 0.0, 0.0, 0.0, 0.0, 0.0, 0.0, 0.0, 1.6664084480169938E9, 0.0, 2022-10-21 20:14:08.016
169.0, -152484.27122643843, -132130.34804229118, 63117.72771092984, -63141.912298430485, 79532.2229900626, -84172.73571166226, 88128.86036978489, -127245.15077413927, 0.018000000000000002, 0.9560000000000001, -0.112, 192.0, 0.0, 0.0, 0.0, 0.0, 0.0, 0.0, 0.0, 0.0, 0.0, 1.6664084480170083E9, 0.0, 2022-10-21 20:14:08.017
170.0, -152476.85044727928, -132118.65807994106, 63124.58969647762, -63136.34671406111, 79541.56601924491, -84160.84458361204, 88121.70781155919, -127238.42289905822, 0.018000000000000002, 0.9560000000000001, -0.112, 192.0, 0.0, 0.0, 0.0, 0.0, 0.0, 0.0, 0.0, 0.0, 0.0, 1.666408448017023E9, 0.0, 2022-10-21 20:14:08.017
171.0, -152479.01856649143, -132114.85828338366, 63124.142661588514, -63127.987161634825, 79544.2258768351, -84150.45102244032, 88147.74759384962, -127235.27130309002, 0.018000000000000002, 0.9560000000000001, -0.112, 192.0, 0.0, 0.0, 0.0, 0.0, 0.0, 0.0, 0.0, 0.0, 0.0, 1.6664084480170393E9, 0.0, 2022-10-21 20:14:08.017
172.0, -152480.06909848083, -132107.99629783587, 63123.092129599114, -63131.18346109193, 79537.58740873187, -84156.30717948762, 88161.51626843409, -127235.60657925686, 0.022, 0.9500000000000001, -0.106, 192.0, 0.0, 176.0, 29.0, 176.0, 252.0, 176.0, 0.0, 0.0, 0.0, 1.6664084480170588E9, 0.0, 2022-10-21 20:14:08.017
173.0, -152477.11866821273, -132098.54150993127, 63127.69658895691, -63132.21164133688, 79536.4251180202, -84165.80667088112, 88136.83994255542, -127240.18868687018, 0.022, 0.9500000000000001, -0.106, 192.0, 0.0, 0.0, 0.0, 0.0, 0.0, 0.0, 0.0, 0.0, 0.0, 1.6664084480170753E9, 0.0, 2022-10-21 20:14:08.017
174.0, -152477.05161297938, -132094.13821627357, 63126.4001877785, -63141.845243197116, 79536.4698215091, -84164.82319412509, 88114.08586669993, -127243.13911713829, 0.022, 0.9500000000000001, -0.106, 192.0, 0.0, 0.0, 0.0, 0.0, 0.0, 0.0, 0.0, 0.0, 0.0, 1.6664084480170903E9, 0.0, 2022-10-21 20:14:08.017
175.0, -152480.31496766984, -132090.51723367182, 63124.075606355145, -63136.391417550025, 79533.69820519665, -84159.27996150017, 88130.31323317447, -127242.80384097146, 0.022, 0.9500000000000001, -0.106, 192.0, 0.0, 0.0, 0.0, 0.0, 0.0, 0.0, 0.0, 0.0, 0.0, 1.6664084480171068E9, 0.0, 2022-10-21 20:14:08.017
176.0, -152486.81932530634, -132090.6289923941, 63120.27580979774, -63141.420560052466, 79526.03155684848, -84172.33338026206, 88147.9040560608, -127251.16339339774, 0.022, 0.9500000000000001, -0.106, 192.0, 0.0, 0.0, 0.0, 0.0, 0.0, 0.0, 0.0, 0.0, 0.0, 1.6664084480171216E9, 0.0, 2022-10-21 20:14:08.017
177.0, -152476.984557746, -132075.1168817421, 63129.23885932432, -63137.33019081714, 79529.20550456113, -84178.122482076, 88134.67182334326, -127249.7328817526, 0.022, 0.9500000000000001, -0.106, 192.0, 0.0, 0.0, 0.0, 0.0, 0.0, 0.0, 0.0, 0.0, 0.0, 1.6664084480171366E9, 0.0, 2022-10-21 20:14:08.017
178.0, -152474.57056934483, -132065.34916941516, 63133.97742914885, -63141.01822865227, 79532.40180401824, -84182.74929317825, 88110.28607014252, -127246.62598927332, 0.022, 0.9500000000000001, -0.106, 192.0, 0.0, 0.0, 0.0, 0.0, 0.0, 0.0, 0.0, 0.0, 0.0, 1.6664084480171516E9, 0.0, 2022-10-21 20:14:08.017
179.0, -152474.12353445572, -132057.03432047777, 63134.93855416043, -63138.134853617536, 79535.30753079744, -84175.864955886, 88120.52316910305, -127245.35193983937, 0.022, 0.9500000000000001, -0.106, 192.0, 0.0, 0.0, 0.0, 0.0, 0.0, 0.0, 0.0, 0.0, 0.0, 1.6664084480171795E9, 0.0, 2022-10-21 20:14:08.017
180.0, -152481.9019415262, -132059.6718263235, 63127.2495540678, -63136.391417550025, 79533.60879821883, -84168.15360404893, 88147.81464908298, -127250.15756489725, 0.022, 0.9500000000000001, -0.106, 192.0, 0.0, 0.0, 0.0, 0.0, 0.0, 0.0, 0.0, 0.0, 0.0, 1.6664084480171955E9, 0.0, 2022-10-21 20:14:08.017
181.0, -152479.26443568044, -132052.49691635335, 63124.16501333297, -63139.185385606936, 79528.98198711658, -84182.30225828914, 88135.61059661038, -127254.89613472178, 0.022, 0.9500000000000001, -0.106, 192.0, 0.0, 0.0, 0.0, 0.0, 0.0, 0.0, 0.0, 0.0, 0.0, 1.6664084480172102E9, 0.0, 2022-10-21 20:14:08.017
182.0, -152477.5433513574, -132046.0149104613, 63125.43906276692, -63142.78401646424, 79530.99364411755, -84191.80174968264, 88108.74379977511, -127253.6891405212, 0.02, 0.9520000000000001, -0.10200000000000001, 192.0, 0.0, 160.0, 29.0, 192.0, 252.0, 208.0, 0.0, 0.0, 0.0, 1.6664084480172255E9, 0.0, 2022-10-21 20:14:08.017
183.0, -152476.31400541237, -132039.21998014688, 63126.55664998969, -63131.697551214405, 79537.65446396524, -84182.10109258904, 88114.57760507794, -127244.14494563878, 0.02, 0.9520000000000001, -0.10200000000000001, 192.0, 0.0, 0.0, 0.0, 0.0, 0.0, 0.0, 0.0, 0.0, 0.0, 1.6664084480172417E9, 0.0, 2022-10-21 20:14:08.017
184.0, -152478.5491798579, -132034.48141032236, 63124.79086217772, -63117.41478650746, 79546.17047860271, -84163.57149643559, 88150.76507935108, -127242.02152991552, 0.02, 0.9520000000000001, -0.10200000000000001, 192.0, 0.0, 0.0, 0.0, 0.0, 0.0, 0.0, 0.0, 0.0, 0.0, 1.6664084480172575E9, 0.0, 2022-10-21 20:14:08.017
185.0, -152479.3314909138, -132027.59707303013, 63121.72867318734, -63131.87636517005, 79539.26378956602, -84172.0204558397, 88143.61252112538, -127254.35969285485, 0.02, 0.9520000000000001, -0.10200000000000001, 192.0, 0.0, 0.0, 0.0, 0.0, 0.0, 0.0, 0.0, 0.0, 0.0, 1.6664084480172727E9, 0.0, 2022-10-21 20:14:08.017
186.0, -152474.1458862002, -132010.94502341092, 63129.462376768875, -63136.21260359438, 79540.00139713305, -84180.04473209915, 88118.35504989089, -127247.11772765133, 0.02, 0.9520000000000001, -0.10200000000000001, 192.0, 0.0, 0.0, 0.0, 0.0, 0.0, 0.0, 0.0, 0.0, 0.0, 1.6664084480172968E9, 0.0, 2022-10-21 20:14:08.017
187.0, -152474.74938330048, -132002.8536919181, 63127.60718197909, -63134.51387101578, 79541.32015005591, -84174.47914772978, 88117.30451790149, -127245.46369856164, 0.02, 0.9520000000000001, -0.10200000000000001, 192.0, 0.0, 0.0, 0.0, 0.0, 0.0, 0.0, 0.0, 0.0, 0.0, 1.666408448017315E9, 0.0, 2022-10-21 20:14:08.017
188.0, -152478.1468484577, -131999.657392461, 63121.415748764965, -63135.2514785828, 79534.88284765279, -84174.34503726305, 88142.24906471361, -127247.90003870727, 0.02, 0.9520000000000001, -0.10200000000000001, 192.0, 0.0, 0.0, 0.0, 0.0, 0.0, 0.0, 0.0, 0.0, 0.0, 1.6664084480173247E9, 0.0, 2022-10-21 20:14:08.017
189.0, -152480.82905779232, -131995.9022993925, 63117.3477312741, -63143.2534030978, 79535.24047556406, -84183.5763077231, 88148.84282932793, -127249.01762593004, 0.02, 0.9520000000000001, -0.10200000000000001, 192.0, 0.0, 0.0, 0.0, 0.0, 0.0, 0.0, 0.0, 0.0, 0.0, 1.666408448017334E9, 0.0, 2022-10-21 20:14:08.017
190.0, -152484.2935781829, -131994.8070639142, 63121.19223132041, -63148.9530979339, 79538.30266455445, -84186.30322054663, 88125.28409067204, -127249.7328817526, 0.02, 0.9520000000000001, -0.10200000000000001, 192.0, 0.0, 0.0, 0.0, 0.0, 0.0, 0.0, 0.0, 0.0, 0.0, 1.6664084480173435E9, 0.0, 2022-10-21 20:14:08.017
191.0, -152480.56083685887, -131988.41446499998, 63130.46820526937, -63142.09111238612, 79546.34929255836, -84172.84747038454, 88121.21607318116, -127239.85341070336, 0.02, 0.9520000000000001, -0.10200000000000001, 192.0, 0.0, 0.0, 0.0, 0.0, 0.0, 0.0, 0.0, 0.0, 0.0, 1.6664084480173533E9, 0.0, 2022-10-21 20:14:08.017
192.0, -152479.51030486947, -131984.1899852979, 63133.91037391548, -63133.61980123756, 79550.37260656031, -84157.46947019928, 88151.94972180722, -127235.40541355676, 0.01, 0.9500000000000001, -0.098, 192.0, 0.0, 80.0, 29.0, 176.0, 252.0, 240.0, 0.0, 0.0, 0.0, 1.6664084480173624E9, 0.0, 2022-10-21 20:14:08.017
193.0, -152486.752270073, -131988.41446499998, 63126.75781568979, -63144.572156020666, 79546.19283034716, -84164.75613889172, 88160.28692248905, -127245.46369856164, 0.01, 0.9500000000000001, -0.098, 192.0, 0.0, 0.0, 0.0, 0.0, 0.0, 0.0, 0.0, 0.0, 0.0, 1.6664084480173728E9, 0.0, 2022-10-21 20:14:08.017
194.0, -152479.75617405848, -131979.67493291796, 63130.13292910254, -63144.23687985384, 79547.01984489201, -84175.79790065264, 88135.56589312147, -127246.17895438422, 0.01, 0.9500000000000001, -0.098, 192.0, 0.0, 0.0, 0.0, 0.0, 0.0, 0.0, 0.0, 0.0, 0.0, 1.6664084480173912E9, 0.0, 2022-10-21 20:14:08.017
195.0, -152465.89809249618, -131961.77118560925, 63141.59937400811, -63139.36419956258, 79556.36287407433, -84164.80084238063, 88124.65824182729, -127234.69015773418, 0.01, 0.9500000000000001, -0.098, 192.0, 0.0, 0.0, 0.0, 0.0, 0.0, 0.0, 0.0, 0.0, 0.0, 1.6664084480174007E9, 0.0, 2022-10-21 20:14:08.017
196.0, -152474.30234841138, -131970.04133105773, 63140.794711207716, -63138.31366757318, 79556.72050198562, -84157.89415334394, 88145.40066068181, -127235.94185542368, 0.01, 0.9500000000000001, -0.098, 192.0, 0.0, 0.0, 0.0, 0.0, 0.0, 0.0, 0.0, 0.0, 0.0, 1.6664084480174117E9, 0.0, 2022-10-21 20:14:08.017
197.0, -152478.0350897354, -131969.52724093525, 63138.336019317634, -63135.273830327256, 79558.70980724214, -84152.90971433041, 88167.2606667591, -127234.71250947863, 0.01, 0.9500000000000001, -0.098, 192.0, 0.0, 0.0, 0.0, 0.0, 0.0, 0.0, 0.0, 0.0, 0.0, 1.666408448017421E9, 0.0, 2022-10-21 20:14:08.017
198.0, -152474.0341274779, -131962.70995887637, 63133.01630413727, -63153.93753694744, 79549.38912980427, -84165.24787726974, 88144.21601822568, -127241.41803281523, 0.01, 0.9500000000000001, -0.098, 192.0, 0.0, 0.0, 0.0, 0.0, 0.0, 0.0, 0.0, 0.0, 0.0, 1.6664084480174303E9, 0.0, 2022-10-21 20:14:08.017
199.0, -152464.86991225125, -131950.5059064038, 63139.56536526268, -63161.02303993977, 79550.90904842723, -84166.74544414824, 88121.10431445889, -127232.99142515557, 0.01, 0.9500000000000001, -0.098, 192.0, 0.0, 0.0, 0.0, 0.0, 0.0, 0.0, 0.0, 0.0, 0.0, 1.66640844801744E9, 0.0, 2022-10-21 20:14:08.017
200.0, -152468.6250053197, -131949.7459470923, 63140.28062108524, -63151.79176947973, 79556.89931594126, -84163.90677260242, 88137.3540326779, -127233.41610830023, 0.01, 0.9500000000000001, -0.098, 192.0, 0.0, 0.0, 0.0, 0.0, 0.0, 0.0, 0.0, 0.0, 0.0, 1.6664084480174496E9, 0.0, 2022-10-21 20:14:08.017
201.0, -152471.46367686556, -131946.25907495726, 63134.96090590488, -63151.50119680181, 79553.16657461722, -84164.01853132469, 88159.21403875519, -127239.56283802543, 0.01, 0.9500000000000001, -0.098, 192.0, 0.0, 0.0, 0.0, 0.0, 0.0, 0.0, 0.0, 0.0, 0.0, 1.6664084480174592E9, 0.0, 2022-10-21 20:14:08.017
202.0, -152473.16240944416, -131941.6546155995, 63131.02699888075, -63155.56921429268, 79550.59612400486, -84175.52967971918, 88143.00902402509, -127247.60946602935, 0.016, 0.9560000000000001, -0.106, 192.0, 0.0, 128.0, 29.0, 224.0, 252.0, 176.0, 0.0, 0.0, 0.0, 1.6664084480174687E9, 0.0, 2022-10-21 20:14:08.017
203.0, -152472.7824297884, -131935.4408306409, 63131.6528477255, -63153.98224043635, 79550.68553098268, -84180.0223803547, 88117.48333185713, -127248.79410848548, 0.016, 0.9560000000000001, -0.106, 192.0, 0.0, 0.0, 0.0, 0.0, 0.0, 0.0, 0.0, 0.0, 0.0, 1.6664084480174787E9, 0.0, 2022-10-21 20:14:08.017
204.0, -152472.11187745476, -131928.71295555987, 63130.11057735808, -63141.39820830801, 79547.53393501448, -84180.04473209915, 88120.92550050325, -127247.14007939579, 0.016, 0.9560000000000001, -0.106, 192.0, 0.0, 0.0, 0.0, 0.0, 0.0, 0.0, 0.0, 0.0, 0.0, 1.666408448017488E9, 0.0, 2022-10-21 20:14:08.017
205.0, -152479.0409182359, -131931.8869032725, 63124.45558601089, -63130.89288841402, 79549.99262690457, -84179.48593848776, 88149.98276829514, -127250.93987595319, 0.016, 0.9560000000000001, -0.106, 192.0, 0.0, 0.0, 0.0, 0.0, 0.0, 0.0, 0.0, 0.0, 0.0, 1.6664084480174973E9, 0.0, 2022-10-21 20:14:08.017
206.0, -152478.05744147988, -131927.46125787037, 63124.88026915554, -63127.651885467996, 79553.92653392871, -84178.65892394292, 88146.8535240714, -127251.27515212003, 0.016, 0.9560000000000001, -0.106, 192.0, 0.0, 0.0, 0.0, 0.0, 0.0, 0.0, 0.0, 0.0, 0.0, 1.6664084480175068E9, 0.0, 2022-10-21 20:14:08.017
207.0, -152475.6881565676, -131919.2358159108, 63127.227202323345, -63123.941495888415, 79558.48628979758, -84181.29642978865, 88119.80791328049, -127253.1303469098, 0.016, 0.9560000000000001, -0.106, 192.0, 0.0, 0.0, 0.0, 0.0, 0.0, 0.0, 0.0, 0.0, 0.0, 1.666408448017516E9, 0.0, 2022-10-21 20:14:08.017
208.0, -152476.984557746, -131916.21833040935, 63125.23789706682, -63113.86085913907, 79560.90027819875, -84183.1739763229, 88116.99159347912, -127249.79993698598, 0.016, 0.9560000000000001, -0.106, 192.0, 0.0, 0.0, 0.0, 0.0, 0.0, 0.0, 0.0, 0.0, 0.0, 1.6664084480175252E9, 0.0, 2022-10-21 20:14:08.017
209.0, -152478.66093858017, -131914.4748943418, 63123.315647043666, -63105.23308577932, 79560.6767607542, -84172.73571166226, 88152.01677704058, -127242.75913748254, 0.016, 0.9560000000000001, -0.106, 192.0, 0.0, 0.0, 0.0, 0.0, 0.0, 0.0, 0.0, 0.0, 0.0, 1.6664084480175433E9, 0.0, 2022-10-21 20:14:08.017
210.0, -152476.3810606457, -131906.49532157127, 63124.857917411086, -63110.12811781504, 79560.98968517658, -84166.9689615928, 88162.76796612359, -127237.97586416912, 0.016, 0.9560000000000001, -0.106, 192.0, 0.0, 0.0, 0.0, 0.0, 0.0, 0.0, 0.0, 0.0, 0.0, 1.6664084480175529E9, 0.0, 2022-10-21 20:14:08.017
211.0, -152469.3402611423, -131893.19603362036, 63132.56926924817, -63107.378853247035, 79570.48917657009, -84163.95147609133, 88144.10425950341, -127228.8787041758, 0.012, 0.9500000000000001, -0.10400000000000001, 192.0, 0.0, 96.0, 29.0, 176.0, 252.0, 192.0, 0.0, 0.0, 0.0, 1.666408448017562E9, 0.0, 2022-10-21 20:14:08.017
212.0, -152468.8261710198, -131888.52451902922, 63136.21260359438, -63099.73455664332, 79578.51345282955, -84160.33049348957, 88140.81855306847, -127230.10805012085, 0.012, 0.9500000000000001, -0.10400000000000001, 192.0, 0.0, 0.0, 0.0, 0.0, 0.0, 0.0, 0.0, 0.0, 0.0, 1.666408448017572E9, 0.0, 2022-10-21 20:14:08.017
213.0, -152477.25277867948, -131892.86075745354, 63130.73642620283, -63099.06400430966, 79572.6349440378, -84157.02243531018, 88166.6571696588, -127235.09248913437, 0.012, 0.9500000000000001, -0.10400000000000001, 192.0, 0.0, 0.0, 0.0, 0.0, 0.0, 0.0, 0.0, 0.0, 0.0, 1.6664084480175817E9, 0.0, 2022-10-21 20:14:08.017
214.0, -152472.06717396586, -131883.3389143156, 63133.91037391548, -63101.701510155384, 79570.01978993652, -84157.82709811057, 88176.22371628568, -127229.01281464254, 0.012, 0.9500000000000001, -0.10400000000000001, 192.0, 0.0, 0.0, 0.0, 0.0, 0.0, 0.0, 0.0, 0.0, 0.0, 1.666408448017592E9, 0.0, 2022-10-21 20:14:08.017
215.0, -152466.54629308538, -131874.91230665593, 63138.22426059536, -63104.11549855656, 79566.01882767903, -84170.7687581502, 88144.86421881488, -127230.06334663194, 0.012, 0.9500000000000001, -0.10400000000000001, 192.0, 0.0, 0.0, 0.0, 0.0, 0.0, 0.0, 0.0, 0.0, 0.0, 1.6664084480176015E9, 0.0, 2022-10-21 20:14:08.017
216.0, -152469.92140649812, -131874.55467874464, 63133.12806285955, -63107.17768754694, 79559.49211829808, -84181.63170595547, 88120.5008173586, -127237.282960091, 0.012, 0.9500000000000001, -0.10400000000000001, 192.0, 0.0, 0.0, 0.0, 0.0, 0.0, 0.0, 0.0, 0.0, 0.0, 1.666408448017611E9, 0.0, 2022-10-21 20:14:08.017
217.0, -152470.81547627636, -131870.03962636468, 63134.424464037955, -63097.097050797594, 79558.30747584194, -84172.62395293999, 88144.12661124786, -127236.27713159051, 0.012, 0.9500000000000001, -0.10400000000000001, 192.0, 0.0, 0.0, 0.0, 0.0, 0.0, 0.0, 0.0, 0.0, 0.0, 1.6664084480176203E9, 0.0, 2022-10-21 20:14:08.017
218.0, -152475.0399559784, -131871.96187638782, 63132.92689715945, -63093.92310308494, 79557.83808920838, -84169.00297033823, 88159.57166666648, -127237.72999498011, 0.012, 0.9500000000000001, -0.10400000000000001, 192.0, 0.0, 0.0, 0.0, 0.0, 0.0, 0.0, 0.0, 0.0, 0.0, 1.6664084480176303E9, 0.0, 2022-10-21 20:14:08.017
219.0, -152470.3907931317, -131866.30688504063, 63137.710170472885, -63094.437193207414, 79562.3754933328, -84169.85233662753, 88140.1032972459, -127236.27713159051, 0.012, 0.9500000000000001, -0.10400000000000001, 192.0, 0.0, 0.0, 0.0, 0.0, 0.0, 0.0, 0.0, 0.0, 0.0, 1.6664084480176399E9, 0.0, 2022-10-21 20:14:08.017
220.0, -152468.5355983419, -131862.48473673878, 63138.17955710644, -63099.131059543026, 79555.98289441859, -84184.64919145695, 88112.76711377707, -127244.21200087214, 0.012, 0.9500000000000001, -0.10400000000000001, 192.0, 0.0, 0.0, 0.0, 0.0, 0.0, 0.0, 0.0, 0.0, 0.0, 1.6664084480176492E9, 0.0, 2022-10-21 20:14:08.017
221.0, -152473.45298212208, -131865.83749840708, 63136.77139720576, -63098.12523104253, 79547.91391467022, -84189.7230374483, 88126.58049185044, -127247.3859485848, 0.016, 0.9480000000000001, -0.1, 192.0, 0.0, 128.0, 29.0, 160.0, 252.0, 224.0, 0.0, 0.0, 0.0, 1.6664084480176597E9, 0.0, 2022-10-21 20:14:08.017
222.0, -152474.05647922237, -131867.80445191913, 63141.68878098593, -63088.82690534913, 79554.57473451791, -84171.55106920614, 88155.34718696443, -127245.79897472847, 0.016, 0.9480000000000001, -0.1, 192.0, 0.0, 0.0, 0.0, 0.0, 0.0, 0.0, 0.0, 0.0, 0.0, 1.6664084480176697E9, 0.0, 2022-10-21 20:14:08.017
223.0, -152459.0361069484, -131854.7733849017, 63152.35056309111, -63089.83273384962, 79558.9780281756, -84169.87468837199, 88141.17618097976, -127242.26739910453, 0.016, 0.9480000000000001, -0.1, 192.0, 0.0, 0.0, 0.0, 0.0, 0.0, 0.0, 0.0, 0.0, 0.0, 1.6664084480176792E9, 0.0, 2022-10-21 20:14:08.017
224.0, -152452.50939756745, -131849.9677598438, 63159.50312131681, -63084.17774250243, 79565.59414453438, -84177.45192974234, 88113.795294022, -127240.27809384801, 0.016, 0.9480000000000001, -0.1, 192.0, 0.0, 0.0, 0.0, 0.0, 0.0, 0.0, 0.0, 0.0, 0.0, 1.6664084480176885E9, 0.0, 2022-10-21 20:14:08.017
225.0, -152468.60265357528, -131863.2223443058, 63146.11442638808, -63087.59755940409, 79554.64178975127, -84195.60154624004, 88114.8458260114, -127251.20809688665, 0.016, 0.9480000000000001, -0.1, 192.0, 0.0, 0.0, 0.0, 0.0, 0.0, 0.0, 0.0, 0.0, 0.0, 1.666408448017707E9, 0.0, 2022-10-21 20:14:08.017
226.0, -152475.37523214522, -131864.6305042065, 63143.0522373977, -63089.00571930477, 79545.25405708005, -84194.39455203946, 88139.03041351205, -127245.26253286154, 0.016, 0.9480000000000001, -0.1, 192.0, 0.0, 0.0, 0.0, 0.0, 0.0, 0.0, 0.0, 0.0, 0.0, 1.6664084480177166E9, 0.0, 2022-10-21 20:14:08.017
227.0, -152469.60848207577, -131855.89097212447, 63148.193138622424, -63086.3905652035, 79548.69622572616, -84192.74052294977, 88130.93908201922, -127248.41412882974, 0.016, 0.9480000000000001, -0.1, 192.0, 0.0, 0.0, 0.0, 0.0, 0.0, 0.0, 0.0, 0.0, 0.0, 1.666408448017726E9, 0.0, 2022-10-21 20:14:08.017
228.0, -152466.21101691856, -131850.5265534552, 63152.97641193586, -63080.78027734522, 79557.25694385254, -84194.50631076173, 88108.63204105283, -127245.06136716144, 0.016, 0.9480000000000001, -0.1, 192.0, 0.0, 0.0, 0.0, 0.0, 0.0, 0.0, 0.0, 0.0, 0.0, 1.6664084480177355E9, 0.0, 2022-10-21 20:14:08.017
229.0, -152468.71441229756, -131850.2136290328, 63154.36222009209, -63073.42655341942, 79561.25790611004, -84190.21477582632, 88116.81277952348, -127242.20034387117, 0.016, 0.9480000000000001, -0.1, 192.0, 0.0, 0.0, 0.0, 0.0, 0.0, 0.0, 0.0, 0.0, 0.0, 1.6664084480177448E9, 0.0, 2022-10-21 20:14:08.017
230.0, -152471.77660128791, -131851.19710578886, 63153.91518520298, -63064.0835242371, 79560.52029854302, -84184.4703775013, 88145.31125370399, -127239.92046593672, 0.016, 0.9480000000000001, -0.1, 192.0, 0.0, 0.0, 0.0, 0.0, 0.0, 0.0, 0.0, 0.0, 0.0, 1.6664084480177543E9, 0.0, 2022-10-21 20:14:08.017
231.0, -152475.26347342297, -131853.25346627875, 63154.36222009209, -63062.89888178097, 79568.6339817803, -84179.68710418786, 88149.49102991713, -127241.90977119324, 0.02, 0.9540000000000001, -0.10400000000000001, 192.0, 0.0, 160.0, 29.0, 208.0, 252.0, 192.0, 0.0, 0.0, 0.0, 1.6664084480177636E9, 0.0, 2022-10-21 20:14:08.017
232.0, -152473.92236875562, -131849.45366972135, 63155.479807314856, -63064.55291087066, 79570.55623180345, -84175.68614193036, 88124.18885519373, -127238.1323263803, 0.02, 0.9540000000000001, -0.10400000000000001, 192.0, 0.0, 0.0, 0.0, 0.0, 0.0, 0.0, 0.0, 0.0, 0.0, 1.6664084480177736E9, 0.0, 2022-10-21 20:14:08.017
233.0, -152474.9952524895, -131845.67622490838, 63154.87631021456, -63059.72493406832, 79574.44543533867, -84172.31102851761, 88127.07223022846, -127234.37723331181, 0.02, 0.9540000000000001, -0.10400000000000001, 192.0, 0.0, 0.0, 0.0, 0.0, 0.0, 0.0, 0.0, 0.0, 0.0, 1.6664084480177827E9, 0.0, 2022-10-21 20:14:08.017
234.0, -152482.237217693, -131849.05133832115, 63150.51772004578, -63052.05828572015, 79572.65729578225, -84170.32172326109, 88160.21986725568, -127235.31600657893, 0.02, 0.9540000000000001, -0.10400000000000001, 192.0, 0.0, 0.0, 0.0, 0.0, 0.0, 0.0, 0.0, 0.0, 0.0, 1.666408448017792E9, 0.0, 2022-10-21 20:14:08.017
235.0, -152478.77269730243, -131842.03289056217, 63153.66931601398, -63052.57237584262, 79574.40073184976, -84161.15750803442, 88173.09447206193, -127228.52107626451, 0.02, 0.9540000000000001, -0.10400000000000001, 192.0, 0.0, 0.0, 0.0, 0.0, 0.0, 0.0, 0.0, 0.0, 0.0, 1.6664084480178015E9, 0.0, 2022-10-21 20:14:08.017
236.0, -152474.6823280671, -131833.53922766916, 63153.53520554724, -63060.462541635345, 79576.21122315065, -84162.43155746837, 88146.60765488239, -127230.9350646657, 0.02, 0.9540000000000001, -0.10400000000000001, 192.0, 0.0, 0.0, 0.0, 0.0, 0.0, 0.0, 0.0, 0.0, 0.0, 1.6664084480178108E9, 0.0, 2022-10-21 20:14:08.017
237.0, -152483.9359502716, -131839.08246029407, 63144.214528109376, -63064.21763470383, 79571.7855777485, -84170.83581338356, 88134.6047681099, -127236.56770426843, 0.02, 0.9540000000000001, -0.10400000000000001, 192.0, 0.0, 0.0, 0.0, 0.0, 0.0, 0.0, 0.0, 0.0, 0.0, 1.6664084480178201E9, 0.0, 2022-10-21 20:14:08.017
238.0, -152493.9495317876, -131844.78215513017, 63137.576060006155, -63062.5859573586, 79562.9789904331, -84173.29450527365, 88157.64941664331, -127237.32766357991, 0.02, 0.9540000000000001, -0.10400000000000001, 192.0, 0.0, 0.0, 0.0, 0.0, 0.0, 0.0, 0.0, 0.0, 0.0, 1.6664084480178297E9, 0.0, 2022-10-21 20:14:08.017
239.0, -152489.8368108078, -131835.37207071448, 63136.592583250116, -63059.38965790149, 79564.14128114478, -84172.08751107306, 88168.7135301487, -127238.82523045842, 0.02, 0.9540000000000001, -0.10400000000000001, 192.0, 0.0, 0.0, 0.0, 0.0, 0.0, 0.0, 0.0, 0.0, 0.0, 1.6664084480178397E9, 0.0, 2022-10-21 20:14:08.017
240.0, -152487.75809857348, -131831.97460555728, 63139.051275140206, -63064.239986448294, 79562.59901077735, -84181.87757514448, 88140.23740771263, -127243.80966947194, 0.02, 0.9540000000000001, -0.11, 192.0, 0.0, 160.0, 29.0, 208.0, 252.0, 144.0, 0.0, 0.0, 0.0, 1.6664084480178578E9, 0.0, 2022-10-21 20:14:08.017
241.0, -152480.9855200035, -131821.22341647427, 63147.12025488857, -63062.071867236125, 79568.4775195691, -84174.18857505186, 88129.37445990735, -127236.50064903506, 0.02, 0.9540000000000001, -0.11, 192.0, 0.0, 0.0, 0.0, 0.0, 0.0, 0.0, 0.0, 0.0, 0.0, 1.6664084480178683E9, 0.0, 2022-10-21 20:14:08.017
242.0, -152479.3314909138, -131815.63548036045, 63149.69070550093, -63055.634564832995, 79569.79627249196, -84166.87955461498, 88154.78839335304, -127236.45594554616, 0.02, 0.9540000000000001, -0.11, 192.0, 0.0, 0.0, 0.0, 0.0, 0.0, 0.0, 0.0, 0.0, 0.0, 1.6664084484965184E9, 0.0, 2022-10-21 20:14:08.496
243.0, -152481.5890171038, -131814.54024488214, 63146.15912987699, -63061.088390480094, 79561.61553402133, -84179.6200489545, 88164.9137335913, -127244.77079448353, 0.02, 0.9540000000000001, -0.11, 192.0, 0.0, 0.0, 0.0, 0.0, 0.0, 0.0, 0.0, 0.0, 0.0, 1.666408448496554E9, 0.0, 2022-10-21 20:14:08.496
244.0, -152475.79991528988, -131806.38185815595, 63147.36612407758, -63067.25747194976, 79557.0781298969, -84188.49369150326, 88139.43274491224, -127250.82811723092, 0.02, 0.9540000000000001, -0.11, 192.0, 0.0, 0.0, 0.0, 0.0, 0.0, 0.0, 0.0, 0.0, 0.0, 1.666408448496604E9, 0.0, 2022-10-21 20:14:08.496
245.0, -152469.5861303313, -131795.74242779522, 63152.41761832448, -63066.56456787164, 79561.10144389885, -84178.21188905381, 88124.92646276075, -127242.66973050473, 0.02, 0.9540000000000001, -0.11, 192.0, 0.0, 0.0, 0.0, 0.0, 0.0, 0.0, 0.0, 0.0, 0.0, 1.6664084484966545E9, 0.0, 2022-10-21 20:14:08.496
246.0, -152466.6804035521, -131788.92514573637, 63152.462321813386, -63059.210843945846, 79558.68745549768, -84176.0214180972, 88140.52798039056, -127241.61919851533, 0.02, 0.9540000000000001, -0.11, 192.0, 0.0, 0.0, 0.0, 0.0, 0.0, 0.0, 0.0, 0.0, 0.0, 1.6664084484966664E9, 0.0, 2022-10-21 20:14:08.496
247.0, -152473.1847611886, -131791.31678239309, 63142.336981575136, -63066.273995193726, 79543.35415880135, -84193.27696481669, 88149.78160259505, -127258.02537894553, 0.02, 0.9540000000000001, -0.11, 192.0, 0.0, 0.0, 0.0, 0.0, 0.0, 0.0, 0.0, 0.0, 0.0, 1.6664084484966762E9, 0.0, 2022-10-21 20:14:08.496
248.0, -152469.8767030092, -131783.31485787808, 63145.98031592135, -63069.67146035093, 79545.00818789103, -84200.80950269813, 88133.77775356505, -127261.17697491372, 0.02, 0.9540000000000001, -0.11, 192.0, 0.0, 0.0, 0.0, 0.0, 0.0, 0.0, 0.0, 0.0, 0.0, 1.666408448496686E9, 0.0, 2022-10-21 20:14:08.496
249.0, -152462.7241447835, -131771.66959901687, 63154.47397881436, -63064.55291087066, 79552.27250483901, -84204.877520189, 88111.31425038747, -127252.19157364269, 0.02, 0.9540000000000001, -0.11, 192.0, 0.0, 0.0, 0.0, 0.0, 0.0, 0.0, 0.0, 0.0, 0.0, 1.6664084484966967E9, 0.0, 2022-10-21 20:14:08.496
250.0, -152466.8368657633, -131773.63655252894, 63152.55172879121, -63054.96401249934, 79556.25111535206, -84186.43733101337, 88126.51343661707, -127246.89421020678, 0.02, 0.9560000000000001, -0.106, 192.0, 0.0, 160.0, 29.0, 224.0, 252.0, 176.0, 0.0, 0.0, 0.0, 1.6664084484967065E9, 0.0, 2022-10-21 20:14:08.496
251.0, -152473.87766526671, -131780.610296799, 63151.009458423796, -63055.14282645498, 79558.01690316403, -84173.24980178474, 88154.29665497503, -127246.71539625114, 0.02, 0.9560000000000001, -0.106, 192.0, 0.0, 0.0, 0.0, 0.0, 0.0, 0.0, 0.0, 0.0, 0.0, 1.666408448496717E9, 0.0, 2022-10-21 20:14:08.496
252.0, -152472.2906914104, -131774.28475311815, 63154.6080892811, -63055.791027044186, 79559.55917353144, -84174.47914772978, 88147.88170431634, -127241.95447468216, 0.02, 0.9560000000000001, -0.106, 192.0, 0.0, 0.0, 0.0, 0.0, 0.0, 0.0, 0.0, 0.0, 0.0, 1.6664084484967268E9, 0.0, 2022-10-21 20:14:08.496
253.0, -152475.37523214522, -131774.3071048626, 63147.36612407758, -63060.395486401976, 79557.59222001937, -84189.34305779256, 88113.21414866617, -127249.97875094162, 0.02, 0.9560000000000001, -0.106, 192.0, 0.0, 0.0, 0.0, 0.0, 0.0, 0.0, 0.0, 0.0, 0.0, 1.6664084484967363E9, 0.0, 2022-10-21 20:14:08.496
254.0, -152477.02926123491, -131773.23422112875, 63145.10859788759, -63044.81632051663, 79564.4765573116, -84184.09039784556, 88119.96437549168, -127248.99527418558, 0.02, 0.9560000000000001, -0.106, 192.0, 0.0, 0.0, 0.0, 0.0, 0.0, 0.0, 0.0, 0.0, 0.0, 1.6664084484967473E9, 0.0, 2022-10-21 20:14:08.496
255.0, -152478.4821246245, -131771.51313680568, 63147.23201361085, -63029.37126509801, 79572.14320565978, -84172.2663250287, 88157.87293408786, -127239.80870721446, 0.02, 0.9560000000000001, -0.106, 192.0, 0.0, 0.0, 0.0, 0.0, 0.0, 0.0, 0.0, 0.0, 0.0, 1.6664084484968104E9, 0.0, 2022-10-21 20:14:08.496
0.0, -152485.2994066834, -131776.7434450082, 63140.52649027426, -63046.202128672856, 79569.30453411395, -84173.24980178474, 88154.54252416403, -127251.85629747585, 0.02, 0.9560000000000001, -0.106, 192.0, 0.0, 0.0, 0.0, 0.0, 0.0, 0.0, 0.0, 0.0, 0.0, 1.6664084484968204E9, 0.0, 2022-10-21 20:14:08.496
1.0, -152485.7464415725, -131775.53645080765, 63141.30880133019, -63047.49852985127, 79573.19373764917, -84178.48010998727, 88131.16259946377, -127252.81742248744, 0.02, 0.9560000000000001, -0.106, 192.0, 0.0, 0.0, 0.0, 0.0, 0.0, 0.0, 0.0, 0.0, 0.0, 1.66640844849683E9, 0.0, 2022-10-21 20:14:08.496
2.0, -152484.80766830538, -131775.06706417407, 63142.64990599751, -63039.206032658345, 79573.05962718245, -84179.73180767677, 88126.13345696134, -127248.21296312964, 0.02, 0.9560000000000001, -0.106, 192.0, 0.0, 0.0, 0.0, 0.0, 0.0, 0.0, 0.0, 0.0, 0.0, 1.6664084484968405E9, 0.0, 2022-10-21 20:14:08.496
3.0, -152494.08364225432, -131781.68318053285, 63136.21260359438, -63043.85519550505, 79568.14224340228, -84175.97671460829, 88151.72620436265, -127250.20226838617, 0.02, 0.9560000000000001, -0.106, 192.0, 0.0, 0.0, 0.0, 0.0, 0.0, 0.0, 0.0, 0.0, 0.0, 1.666408448496851E9, 0.0, 2022-10-21 20:14:08.496
4.0, -152493.01075852045, -131775.0000089407, 63138.78305420674, -63047.67734380691, 79574.3783801053, -84161.44808071233, 88167.23831501465, -127244.94960843917, 0.022, 0.9520000000000001, -0.10200000000000001, 192.0, 0.0, 176.0, 29.0, 192.0, 252.0, 208.0, 0.0, 0.0, 0.0, 1.6664084484968655E9, 0.0, 2022-10-21 20:14:08.496
