%OpenBCI Raw EEG Data
%Number of channels = 8
%Sample Rate = 250 Hz
%Board = OpenBCI_GUI$BoardCytonSerial
Sample Index, EXG Channel 0, EXG Channel 1, EXG Channel 2, EXG Channel 3, EXG Channel 4, EXG Channel 5, EXG Channel 6, EXG Channel 7, Accel Channel 0, Accel Channel 1, Accel Channel 2, Other, Other, Other, Other, Other, Other, Other, Analog Channel 0, Analog Channel 1, Analog Channel 2, Timestamp, Other, Timestamp (Formatted)
64.0, -150557.30498520198, -160269.830855111, 43056.970007058386, -86673.27006736638, 74132.77913722744, -73529.5055543787, 86138.2810638286, -128342.53201991702, 0.0, 0.0, 0.0, 192.0, 0.0, 0.0, 0.0, 0.0, 0.0, 0.0, 0.0, 0.0, 0.0, 1.6664079471017575E9, 0.0, 2022-10-21 20:05:47.101
65.0, -150560.47893291462, -160273.02715456812, 43053.70665236791, -86679.32739011376, 74128.04056740292, -73554.65126689093, 86117.27042404062, -128348.1423077753, -0.036000000000000004, 0.9400000000000001, -0.152, 192.0, 254.0, 224.0, 29.0, 96.0, 251.0, 64.0, 0.0, 0.0, 0.0, 1.6664079471017888E9, 0.0, 2022-10-21 20:05:47.101
66.0, -150557.0367642685, -160271.12725628942, 43056.679434380465, -86661.80362246081, 74129.98516917053, -73535.24995270371, 86149.81456396753, -128339.80510709347, -0.036000000000000004, 0.9400000000000001, -0.152, 192.0, 0.0, 0.0, 0.0, 0.0, 0.0, 0.0, 0.0, 0.0, 0.0, 1.666407947101812E9, 0.0, 2022-10-21 20:05:47.101
67.0, -150556.29915670148, -160270.72492488922, 43059.09342278164, -86651.9017996671, 74134.76844248395, -73510.17129542487, 86172.7921572676, -128342.62142689484, -0.036000000000000004, 0.9400000000000001, -0.152, 192.0, 0.0, 0.0, 0.0, 0.0, 0.0, 0.0, 0.0, 0.0, 0.0, 1.6664079471018307E9, 0.0, 2022-10-21 20:05:47.101
68.0, -150567.11740101784, -160285.34296576297, 43045.72707959737, -86683.48481458245, 74121.31269232187, -73537.14985098242, 86134.99535739367, -128361.77687189305, -0.036000000000000004, 0.9400000000000001, -0.152, 192.0, 0.0, 0.0, 0.0, 0.0, 0.0, 0.0, 0.0, 0.0, 0.0, 1.66640794710185E9, 0.0, 2022-10-21 20:05:47.101
69.0, -150564.41283993874, -160284.11361981794, 43048.655158121015, -86689.38567511865, 74118.58577949832, -73561.2673832497, 86108.59794719196, -128357.01595032406, -0.036000000000000004, 0.9400000000000001, -0.152, 192.0, 0.0, 0.0, 0.0, 0.0, 0.0, 0.0, 0.0, 0.0, 0.0, 1.6664079471018686E9, 0.0, 2022-10-21 20:05:47.101
70.0, -150562.55764514895, -160278.65979417085, 43055.003053546316, -86666.89982019662, 74131.46038430458, -73537.17220272687, 86141.76793596362, -128344.74484261809, -0.036000000000000004, 0.9400000000000001, -0.152, 192.0, 0.0, 0.0, 0.0, 0.0, 0.0, 0.0, 0.0, 0.0, 0.0, 1.666407947101887E9, 0.0, 2022-10-21 20:05:47.101
71.0, -150560.50128465908, -160280.06795407154, 43056.74648961383, -86659.54609627082, 74138.00944542998, -73504.06926918856, 86175.04968345758, -128341.45913618317, -0.036000000000000004, 0.9400000000000001, -0.152, 192.0, 0.0, 0.0, 0.0, 0.0, 0.0, 0.0, 0.0, 0.0, 0.0, 1.6664079471019056E9, 0.0, 2022-10-21 20:05:47.101
72.0, -150566.1339242618, -160287.60049195297, 43053.79605934573, -86680.37792210316, 74131.75095698249, -73519.62608332945, 86150.21689536773, -128347.87408684184, -0.036000000000000004, 0.9400000000000001, -0.152, 192.0, 0.0, 0.0, 0.0, 0.0, 0.0, 0.0, 0.0, 0.0, 0.0, 1.6664079471019237E9, 0.0, 2022-10-21 20:05:47.101
73.0, -150562.11061025984, -160286.08057333, 43061.84268734964, -86688.60336406271, 74133.42733781664, -73546.58228714255, 86122.52308398762, -128340.92269431624, -0.036000000000000004, 0.9400000000000001, -0.152, 192.0, 0.0, 0.0, 0.0, 0.0, 0.0, 0.0, 0.0, 0.0, 0.0, 1.6664079471019423E9, 0.0, 2022-10-21 20:05:47.101
74.0, -150567.5867876514, -160291.42264025484, 43063.78728911725, -86673.49358481093, 74141.0492826759, -73532.97007476927, 86144.45014529827, -128339.33572045992, -0.036000000000000004, 0.9380000000000001, -0.158, 192.0, 254.0, 224.0, 29.0, 80.0, 251.0, 16.0, 0.0, 0.0, 0.0, 1.666407947101961E9, 0.0, 2022-10-21 20:05:47.101
75.0, -150581.8919041028, -160303.51493400516, 43063.51906818379, -86662.02713990536, 74143.70914026609, -73500.67180403136, 86179.52003234865, -128336.72056635864, -0.036000000000000004, 0.9380000000000001, -0.158, 192.0, 0.0, 0.0, 0.0, 0.0, 0.0, 0.0, 0.0, 0.0, 0.0, 1.6664079471019807E9, 0.0, 2022-10-21 20:05:47.101
76.0, -150594.47593623115, -160328.52653605063, 43054.24309423484, -86684.58005006076, 74133.94142793912, -73510.12659193594, 86163.7844042521, -128340.87799082733, -0.036000000000000004, 0.9380000000000001, -0.158, 192.0, 0.0, 0.0, 0.0, 0.0, 0.0, 0.0, 0.0, 0.0, 0.0, 1.6664079471019993E9, 0.0, 2022-10-21 20:05:47.101
77.0, -150586.0940320604, -160328.21361162825, 43051.22560873337, -86693.90072749862, 74132.01917791595, -73540.77083358417, 86125.00412762215, -128349.28224674253, -0.036000000000000004, 0.9380000000000001, -0.158, 192.0, 0.0, 0.0, 0.0, 0.0, 0.0, 0.0, 0.0, 0.0, 0.0, 1.6664079471020176E9, 0.0, 2022-10-21 20:05:47.102
78.0, -150598.5886572109, -160335.36616985395, 43036.92049228198, -86703.53432935887, 74118.4963725205, -73560.6638861494, 86114.23058679469, -128364.88376437232, -0.036000000000000004, 0.9380000000000001, -0.158, 192.0, 0.0, 0.0, 0.0, 0.0, 0.0, 0.0, 0.0, 0.0, 0.0, 1.6664079471020355E9, 0.0, 2022-10-21 20:05:47.102
79.0, -150624.87430869037, -160352.55466134008, 43031.82429454617, -86705.03189623737, 74112.81902942885, -73538.49095564973, 86144.94188367628, -128367.56597370697, -0.036000000000000004, 0.9380000000000001, -0.158, 192.0, 0.0, 0.0, 0.0, 0.0, 0.0, 0.0, 0.0, 0.0, 0.0, 1.666407947102054E9, 0.0, 2022-10-21 20:05:47.102
80.0, -150648.54480606853, -160374.92875753986, 43037.43458240445, -86709.45754163952, 74119.23398008752, -73523.06825197556, 86150.86509595693, -128360.59222943691, -0.036000000000000004, 0.9380000000000001, -0.158, 192.0, 0.0, 0.0, 0.0, 0.0, 0.0, 0.0, 0.0, 0.0, 0.0, 1.6664079471022296E9, 0.0, 2022-10-21 20:05:47.102
81.0, -150652.0093264591, -160381.83544657653, 43056.612379147104, -86696.80645427782, 74138.0988524078, -73532.74655732472, 86131.03909862509, -128337.61463613686, -0.036000000000000004, 0.9380000000000001, -0.158, 192.0, 0.0, 0.0, 0.0, 0.0, 0.0, 0.0, 0.0, 0.0, 0.0, 1.6664079471022487E9, 0.0, 2022-10-21 20:05:47.102
82.0, -150663.4087161313, -160390.44086819183, 43066.3130362407, -86682.54604131533, 74153.81212875988, -73528.87970553395, 86142.75141271966, -128324.89649354179, -0.036000000000000004, 0.9380000000000001, -0.158, 192.0, 0.0, 0.0, 0.0, 0.0, 0.0, 0.0, 0.0, 0.0, 0.0, 1.6664079471022675E9, 0.0, 2022-10-21 20:05:47.102
83.0, -150688.822649577, -160411.33974925755, 43053.05845177871, -86686.12232042817, 74140.82576523135, -73511.75826928118, 86168.16534616535, -128338.95574080417, -0.036000000000000004, 0.9380000000000001, -0.158, 192.0, 0.0, 0.0, 0.0, 0.0, 0.0, 0.0, 0.0, 0.0, 0.0, 1.666407947102286E9, 0.0, 2022-10-21 20:05:47.102
84.0, -150705.2288300072, -160423.14147032995, 43040.42971616146, -86705.6130415932, 74122.497334778, -73520.4530978743, 86158.64350302739, -128348.85756359788, -0.03, 0.9400000000000001, -0.156, 192.0, 255.0, 16.0, 29.0, 96.0, 251.0, 32.0, 0.0, 0.0, 0.0, 1.6664079471023045E9, 0.0, 2022-10-21 20:05:47.102
85.0, -150717.85756562444, -160433.93736290187, 43039.692108594434, -86715.1125329867, 74119.1445731097, -73546.87285982048, 86124.55709273304, -128348.27641824204, -0.03, 0.9400000000000001, -0.156, 192.0, 0.0, 0.0, 0.0, 0.0, 0.0, 0.0, 0.0, 0.0, 0.0, 1.6664079471023247E9, 0.0, 2022-10-21 20:05:47.102
86.0, -150707.50870794163, -160420.97335111778, 43051.67264362248, -86698.68400081206, 74134.85784946178, -73549.3091999661, 86127.3287090455, -128337.5922843924, -0.03, 0.9400000000000001, -0.156, 192.0, 0.0, 0.0, 0.0, 0.0, 0.0, 0.0, 0.0, 0.0, 0.0, 1.6664079471023476E9, 0.0, 2022-10-21 20:05:47.102
87.0, -150707.68752189726, -160416.32418827107, 43052.72317561188, -86696.87350951118, 74136.33306459583, -73525.2587229322, 86161.01278793965, -128335.22299948013, -0.03, 0.9400000000000001, -0.156, 192.0, 0.0, 0.0, 0.0, 0.0, 0.0, 0.0, 0.0, 0.0, 0.0, 1.666407947102366E9, 0.0, 2022-10-21 20:05:47.102
88.0, -150714.70596965624, -160419.29697028364, 43059.65221639302, -86698.28166941187, 74142.5021460655, -73500.62710054245, 86183.45393937278, -128330.4397261667, -0.03, 0.9400000000000001, -0.156, 192.0, 0.0, 0.0, 0.0, 0.0, 0.0, 0.0, 0.0, 0.0, 0.0, 1.6664079471023848E9, 0.0, 2022-10-21 20:05:47.102
89.0, -150709.78858587606, -160409.08222306755, 43066.134222285065, -86703.44492238104, 74145.43022458914, -73512.71939429277, 86160.05166292808, -128328.15984823226, -0.03, 0.9400000000000001, -0.156, 192.0, 0.0, 0.0, 0.0, 0.0, 0.0, 0.0, 0.0, 0.0, 0.0, 1.6664079471024032E9, 0.0, 2022-10-21 20:05:47.102
90.0, -150708.5815916755, -160404.92479859886, 43065.59778041813, -86706.64122183814, 74141.09398616481, -73537.14985098242, 86136.26940682762, -128322.75072607408, -0.03, 0.9400000000000001, -0.156, 192.0, 0.0, 0.0, 0.0, 0.0, 0.0, 0.0, 0.0, 0.0, 0.0, 1.6664079471024218E9, 0.0, 2022-10-21 20:05:47.102
91.0, -150707.9333910863, -160396.14056302793, 43065.53072518477, -86689.54213732984, 74142.16686989866, -73519.93900775183, 86162.91268621835, -128326.48346739811, -0.03, 0.9400000000000001, -0.156, 192.0, 0.0, 0.0, 0.0, 0.0, 0.0, 0.0, 0.0, 0.0, 0.0, 1.6664079471024404E9, 0.0, 2022-10-21 20:05:47.102
92.0, -150706.7711003746, -160389.34563271352, 43074.40436773353, -86693.94543098753, 74143.5973815438, -73490.5464637931, 86194.58510811153, -128315.24053993709, -0.03, 0.9400000000000001, -0.156, 192.0, 0.0, 0.0, 0.0, 0.0, 0.0, 0.0, 0.0, 0.0, 0.0, 1.6664079471024606E9, 0.0, 2022-10-21 20:05:47.102
93.0, -150692.55539090102, -160374.92875753986, 43078.628847435575, -86699.0639804678, 74146.23488738954, -73511.02066171417, 86170.4899275887, -128314.65939458125, -0.03, 0.9400000000000001, -0.156, 192.0, 0.0, 0.0, 0.0, 0.0, 0.0, 0.0, 0.0, 0.0, 0.0, 1.6664079471024797E9, 0.0, 2022-10-21 20:05:47.102
94.0, -150687.3697861874, -160365.96570801327, 43073.35383574413, -86709.09991372823, 74138.76940474146, -73545.39764468643, 86133.05075562606, -128319.71088882815, -0.032, 0.9440000000000001, -0.16, 192.0, 255.0, 0.0, 29.0, 128.0, 251.0, 0.0, 0.0, 0.0, 0.0, 1.666407947102498E9, 0.0, 2022-10-21 20:05:47.102
95.0, -150685.5145913976, -160359.6401643324, 43079.50056546934, -86684.89297448314, 74149.47589033555, -73522.01771998618, 86164.36554960794, -128304.46699910963, -0.032, 0.9440000000000001, -0.16, 192.0, 0.0, 0.0, 0.0, 0.0, 0.0, 0.0, 0.0, 0.0, 0.0, 1.6664079471025703E9, 0.0, 2022-10-21 20:05:47.102
96.0, -150684.15113498582, -160357.36028639798, 43075.79017588976, -86684.7588640164, 74148.82768974635, -73489.51828354815, 86200.843596559, -128300.26487115203, -0.032, 0.9440000000000001, -0.16, 192.0, 0.0, 0.0, 0.0, 0.0, 0.0, 0.0, 0.0, 0.0, 0.0, 1.666407947102589E9, 0.0, 2022-10-21 20:05:47.102
97.0, -150685.40283267532, -160358.96961199876, 43072.52682119928, -86700.78506479086, 74139.41760533066, -73503.3987168549, 86180.57056433804, -128308.98205148961, -0.032, 0.9440000000000001, -0.16, 192.0, 0.0, 0.0, 0.0, 0.0, 0.0, 0.0, 0.0, 0.0, 0.0, 1.666407947102608E9, 0.0, 2022-10-21 20:05:47.102
98.0, -150672.2153034467, -160339.88122223393, 43076.684245667966, -86703.40021889213, 74137.38359658523, -73541.84371731803, 86143.19844760877, -128314.12295271433, -0.032, 0.9440000000000001, -0.16, 192.0, 0.0, 0.0, 0.0, 0.0, 0.0, 0.0, 0.0, 0.0, 0.0, 1.6664079471026273E9, 0.0, 2022-10-21 20:05:47.102
99.0, -150670.02483249007, -160333.71214076426, 43074.091443311154, -86691.2632216529, 74138.07650066334, -73550.53854591114, 86150.30630234556, -128318.39213590529, -0.032, 0.9440000000000001, -0.16, 192.0, 0.0, 0.0, 0.0, 0.0, 0.0, 0.0, 0.0, 0.0, 0.0, 1.6664079471026459E9, 0.0, 2022-10-21 20:05:47.102
100.0, -150667.52143711108, -160328.593591284, 43075.85723112312, -86686.23407915045, 74140.2446198755, -73508.60667331298, 86191.25469818768, -128312.78184804702, -0.032, 0.9440000000000001, -0.16, 192.0, 0.0, 0.0, 0.0, 0.0, 0.0, 0.0, 0.0, 0.0, 0.0, 1.666407947102664E9, 0.0, 2022-10-21 20:05:47.102
101.0, -150661.21824517468, -160321.08340514702, 43078.15946080202, -86692.9619542315, 74142.9491809546, -73489.78650448161, 86191.25469818768, -128309.69730731218, -0.032, 0.9440000000000001, -0.16, 192.0, 0.0, 0.0, 0.0, 0.0, 0.0, 0.0, 0.0, 0.0, 0.0, 1.666407947102683E9, 0.0, 2022-10-21 20:05:47.102
102.0, -150653.88687299335, -160314.4896405327, 43081.489870725854, -86696.64999206662, 74144.31263736637, -73522.04007173063, 86155.76012799265, -128311.59720559088, -0.032, 0.9440000000000001, -0.16, 192.0, 0.0, 0.0, 0.0, 0.0, 0.0, 0.0, 0.0, 0.0, 0.0, 1.666407947102702E9, 0.0, 2022-10-21 20:05:47.102
103.0, -150646.93548046774, -160305.57129449502, 43088.03893185126, -86689.5644890743, 74153.43214910415, -73521.9506647528, 86167.24892464268, -128296.75564727256, -0.032, 0.9440000000000001, -0.16, 192.0, 0.0, 0.0, 0.0, 0.0, 0.0, 0.0, 0.0, 0.0, 0.0, 1.666407947102721E9, 0.0, 2022-10-21 20:05:47.102
104.0, -150646.15316941182, -160302.35264329347, 43087.927173128985, -86689.1174541852, 74154.34857062681, -73490.39000158191, 86202.98936402671, -128293.44758909316, -0.03, 0.9460000000000001, -0.156, 192.0, 255.0, 16.0, 29.0, 144.0, 251.0, 32.0, 0.0, 0.0, 0.0, 1.6664079471027396E9, 0.0, 2022-10-21 20:05:47.102
105.0, -150634.93259369524, -160293.1884280668, 43093.38099877608, -86683.95420121601, 74163.55748934239, -73476.48721653072, 86208.21967222926, -128297.5379583285, -0.03, 0.9460000000000001, -0.156, 192.0, 0.0, 0.0, 0.0, 0.0, 0.0, 0.0, 0.0, 0.0, 0.0, 1.6664079471027591E9, 0.0, 2022-10-21 20:05:47.102
106.0, -150637.48069256314, -160297.45761125776, 43088.66478069601, -86705.8142072933, 74158.52834683996, -73505.45507734478, 86169.95348572177, -128307.99857473357, -0.03, 0.9460000000000001, -0.156, 192.0, 0.0, 0.0, 0.0, 0.0, 0.0, 0.0, 0.0, 0.0, 0.0, 1.6664079471027777E9, 0.0, 2022-10-21 20:05:47.102
107.0, -150636.89954720731, -160296.6305967129, 43088.709484184925, -86708.04938173883, 74155.28734389393, -73517.52501935065, 86161.92920946231, -128303.61763282033, -0.03, 0.9460000000000001, -0.156, 192.0, 0.0, 0.0, 0.0, 0.0, 0.0, 0.0, 0.0, 0.0, 0.0, 1.6664079471027985E9, 0.0, 2022-10-21 20:05:47.102
108.0, -150638.93355595274, -160299.75984093666, 43086.49666148385, -86690.97264897497, 74159.60123057381, -73488.15482713639, 86198.5413668801, -128301.20364441916, -0.03, 0.9460000000000001, -0.156, 192.0, 0.0, 0.0, 0.0, 0.0, 0.0, 0.0, 0.0, 0.0, 0.0, 1.6664079471028173E9, 0.0, 2022-10-21 20:05:47.102
109.0, -150634.57496578395, -160295.2224368122, 43086.22844055038, -86688.73747452945, 74157.23194566154, -73477.62715549793, 86206.9009193064, -128304.31053689845, -0.03, 0.9460000000000001, -0.156, 192.0, 0.0, 0.0, 0.0, 0.0, 0.0, 0.0, 0.0, 0.0, 0.0, 1.666407947102836E9, 0.0, 2022-10-21 20:05:47.102
110.0, -150633.88206170584, -160295.1330298344, 43082.562754459716, -86706.19418694904, 74147.01719844546, -73512.31706289257, 86168.74649152119, -128304.64581306528, -0.03, 0.9460000000000001, -0.156, 192.0, 0.0, 0.0, 0.0, 0.0, 0.0, 0.0, 0.0, 0.0, 0.0, 1.6664079471028728E9, 0.0, 2022-10-21 20:05:47.102
111.0, -150629.0987883924, -160289.76861116514, 43083.85915563812, -86701.16504444659, 74148.38065485725, -73529.2596851897, 86152.87675295792, -128300.75660953006, -0.03, 0.9460000000000001, -0.156, 192.0, 0.0, 0.0, 0.0, 0.0, 0.0, 0.0, 0.0, 0.0, 0.0, 1.6664079471028914E9, 0.0, 2022-10-21 20:05:47.102
112.0, -150627.310648836, -160281.94550060577, 43087.25662079533, -86684.28947738284, 74152.04634094791, -73500.94002496482, 86188.77365455314, -128293.3805338598, -0.03, 0.9460000000000001, -0.156, 192.0, 0.0, 0.0, 0.0, 0.0, 0.0, 0.0, 0.0, 0.0, 0.0, 1.6664079471029096E9, 0.0, 2022-10-21 20:05:47.102
113.0, -150631.87040470488, -160285.05239308506, 43086.58606846167, -86684.80356750531, 74151.33108512535, -73477.15776886437, 86211.103047264, -128293.31347862644, -0.044, 0.9460000000000001, -0.154, 192.0, 254.0, 160.0, 29.0, 144.0, 251.0, 48.0, 0.0, 0.0, 0.0, 1.666407947102929E9, 0.0, 2022-10-21 20:05:47.102
114.0, -150623.1979278562, -160274.43531446878, 43093.448054009445, -86682.99307620444, 74156.33787588333, -73493.2510248722, 86185.62205858494, -128294.49812108256, -0.044, 0.9460000000000001, -0.154, 192.0, 0.0, 0.0, 0.0, 0.0, 0.0, 0.0, 0.0, 0.0, 0.0, 1.666407947102949E9, 0.0, 2022-10-21 20:05:47.102
115.0, -150623.7567214676, -160273.89887260186, 43091.68226619748, -86690.54796583032, 74148.26889613496, -73535.27230444817, 86153.03321516911, -128297.02386820602, -0.044, 0.9460000000000001, -0.154, 192.0, 0.0, 0.0, 0.0, 0.0, 0.0, 0.0, 0.0, 0.0, 0.0, 1.6664079471029675E9, 0.0, 2022-10-21 20:05:47.102
116.0, -150629.92580293724, -160282.43723898378, 43082.965085859905, -86686.59170706174, 74142.59155304331, -73532.47833639126, 86171.18283166681, -128303.39411537578, -0.044, 0.9460000000000001, -0.154, 192.0, 0.0, 0.0, 0.0, 0.0, 0.0, 0.0, 0.0, 0.0, 0.0, 1.666407947102986E9, 0.0, 2022-10-21 20:05:47.102
117.0, -150634.7537797396, -160286.2817390301, 43080.037007336265, -86686.83757625075, 74143.30680886589, -73483.50566428968, 86208.77846584065, -128305.07049620993, -0.044, 0.9460000000000001, -0.154, 192.0, 0.0, 0.0, 0.0, 0.0, 0.0, 0.0, 0.0, 0.0, 0.0, 1.6664079471030045E9, 0.0, 2022-10-21 20:05:47.103
118.0, -150624.62843950134, -160274.14474179086, 43087.07780683968, -86688.13397742916, 74147.12895716775, -73484.86912070145, 86195.65799184538, -128301.3824583748, -0.044, 0.9460000000000001, -0.154, 192.0, 0.0, 0.0, 0.0, 0.0, 0.0, 0.0, 0.0, 0.0, 0.0, 1.6664079471030228E9, 0.0, 2022-10-21 20:05:47.103
119.0, -150612.4020352843, -160263.50531143014, 43095.66087671052, -86689.09510244073, 74150.97345721406, -73512.2500076592, 86166.95835196476, -128295.90628098325, -0.044, 0.9460000000000001, -0.154, 192.0, 0.0, 0.0, 0.0, 0.0, 0.0, 0.0, 0.0, 0.0, 0.0, 1.6664079471030412E9, 0.0, 2022-10-21 20:05:47.103
120.0, -150608.55753523798, -160265.04758179755, 43094.09625459865, -86682.6130965487, 74149.9005734802, -73515.13338269394, 86176.45784335826, -128292.1288361703, -0.044, 0.9460000000000001, -0.154, 192.0, 0.0, 0.0, 0.0, 0.0, 0.0, 0.0, 0.0, 0.0, 0.0, 1.6664079471030805E9, 0.0, 2022-10-21 20:05:47.103
121.0, -150604.98125612515, -160260.91250907333, 43093.62686796509, -86668.97853243096, 74156.31552413887, -73485.2938038461, 86210.81247458607, -128286.6303070343, -0.044, 0.9460000000000001, -0.154, 192.0, 0.0, 0.0, 0.0, 0.0, 0.0, 0.0, 0.0, 0.0, 0.0, 1.6664079471031215E9, 0.0, 2022-10-21 20:05:47.103
122.0, -150598.61100895537, -160254.4305031813, 43099.14774884555, -86668.03975916383, 74164.0045242315, -73479.839978199, 86205.17983498334, -128280.86355696483, -0.044, 0.9460000000000001, -0.154, 192.0, 0.0, 0.0, 0.0, 0.0, 0.0, 0.0, 0.0, 0.0, 0.0, 1.6664079471031623E9, 0.0, 2022-10-21 20:05:47.103
123.0, -150601.67319794575, -160259.34788696145, 43092.01754236431, -86676.46636682349, 74159.02008521797, -73514.03814721563, 86164.1867356523, -128287.43496983469, -0.058, 0.9460000000000001, -0.148, 192.0, 254.0, 48.0, 29.0, 144.0, 251.0, 96.0, 0.0, 0.0, 0.0, 1.6664079471032033E9, 0.0, 2022-10-21 20:05:47.103
124.0, -150596.62170369885, -160253.89406131435, 43099.192452334464, -86657.51208752538, 74166.97730624405, -73506.41620235637, 86179.45297711527, -128274.53801328398, -0.058, 0.9460000000000001, -0.148, 192.0, 0.0, 0.0, 0.0, 0.0, 0.0, 0.0, 0.0, 0.0, 0.0, 1.666407947103264E9, 0.0, 2022-10-21 20:05:47.103
125.0, -150609.67512246076, -160270.83668361147, 43085.200260305435, -86659.34493057072, 74154.21446016007, -73489.16065563686, 86203.90578554939, -128289.04429543547, -0.058, 0.9460000000000001, -0.148, 192.0, 0.0, 0.0, 0.0, 0.0, 0.0, 0.0, 0.0, 0.0, 0.0, 1.6664079471034136E9, 0.0, 2022-10-21 20:05:47.103
126.0, -150618.88404117632, -160279.79973313806, 43073.465594466405, -86682.23311689295, 74139.30584660839, -73497.0508214296, 86190.07005573154, -128303.12589444232, -0.058, 0.9460000000000001, -0.148, 192.0, 0.0, 0.0, 0.0, 0.0, 0.0, 0.0, 0.0, 0.0, 0.0, 1.666407947103443E9, 0.0, 2022-10-21 20:05:47.103
127.0, -150611.12798585035, -160266.50044518715, 43083.9709143604, -86685.78704426135, 74145.4972798225, -73517.100336206, 86161.4821745732, -128298.40967636225, -0.058, 0.9460000000000001, -0.148, 192.0, 0.0, 0.0, 0.0, 0.0, 0.0, 0.0, 0.0, 0.0, 0.0, 1.6664079471034527E9, 0.0, 2022-10-21 20:05:47.103
128.0, -150605.58475322544, -160260.42077069532, 43088.485966740365, -86679.52855581386, 74150.66053279168, -73521.72714730825, 86161.75039550668, -128300.66720255223, -0.058, 0.9460000000000001, -0.148, 192.0, 0.0, 0.0, 0.0, 0.0, 0.0, 0.0, 0.0, 0.0, 0.0, 1.6664079471034641E9, 0.0, 2022-10-21 20:05:47.103
129.0, -150617.43117778673, -160274.10003830196, 43077.645370679544, -86671.9066109546, 74149.02885544645, -73499.26364413067, 86190.96412550977, -128306.97039448863, -0.058, 0.9460000000000001, -0.148, 192.0, 0.0, 0.0, 0.0, 0.0, 0.0, 0.0, 0.0, 0.0, 0.0, 1.6664079471034737E9, 0.0, 2022-10-21 20:05:47.103
130.0, -150616.805328942, -160273.87652085742, 43075.90193461203, -86676.3099046123, 74142.61390478777, -73498.83896098602, 86188.59484059749, -128312.1336474578, -0.058, 0.9460000000000001, -0.148, 192.0, 0.0, 0.0, 0.0, 0.0, 0.0, 0.0, 0.0, 0.0, 0.0, 1.6664079471034834E9, 0.0, 2022-10-21 20:05:47.103
131.0, -150607.2387823151, -160262.1865585073, 43084.28383878277, -86671.99601793243, 74153.87918399325, -73518.28497866214, 86164.07497693003, -128304.69051655418, -0.058, 0.9460000000000001, -0.148, 192.0, 0.0, 0.0, 0.0, 0.0, 0.0, 0.0, 0.0, 0.0, 0.0, 1.6664079471034927E9, 0.0, 2022-10-21 20:05:47.103
132.0, -150607.4399480152, -160263.1253317744, 43083.99326610485, -86671.39252083213, 74158.86362300678, -73518.5979030845, 86161.45982282875, -128301.1365891858, -0.058, 0.9460000000000001, -0.148, 192.0, 0.0, 0.0, 0.0, 0.0, 0.0, 0.0, 0.0, 0.0, 0.0, 1.6664079471035025E9, 0.0, 2022-10-21 20:05:47.103
133.0, -150614.63720972982, -160269.830855111, 43082.562754459716, -86665.06697715128, 74158.79656777342, -73492.8933969609, 86194.92038427835, -128302.27652815302, -0.06, 0.9460000000000001, -0.156, 192.0, 254.0, 32.0, 29.0, 144.0, 251.0, 32.0, 0.0, 0.0, 0.0, 1.666407947103512E9, 0.0, 2022-10-21 20:05:47.103
134.0, -150611.91029690628, -160265.3828579644, 43084.373245760595, -86671.43722432104, 74156.67315205016, -73477.31423107556, 86206.81151232857, -128300.7342577856, -0.06, 0.9460000000000001, -0.156, 192.0, 0.0, 0.0, 0.0, 0.0, 0.0, 0.0, 0.0, 0.0, 0.0, 1.6664079471035223E9, 0.0, 2022-10-21 20:05:47.103
135.0, -150605.62945671435, -160261.6277648959, 43088.03893185126, -86694.77244553238, 74155.01912296047, -73499.66597553086, 86175.31790439105, -128301.94125198618, -0.06, 0.9460000000000001, -0.156, 192.0, 0.0, 0.0, 0.0, 0.0, 0.0, 0.0, 0.0, 0.0, 0.0, 1.666407947103532E9, 0.0, 2022-10-21 20:05:47.103
136.0, -150591.9948925966, -160245.4227501658, 43104.10983611463, -86680.86966048118, 74170.68769582364, -73505.03039420013, 86171.07107294454, -128282.49523431007, -0.06, 0.9460000000000001, -0.156, 192.0, 0.0, 0.0, 0.0, 0.0, 0.0, 0.0, 0.0, 0.0, 0.0, 1.6664079471035414E9, 0.0, 2022-10-21 20:05:47.103
137.0, -150598.56630546646, -160249.2225467232, 43098.1195686006, -86660.08253813775, 74177.32616392686, -73482.27631834464, 86201.82707331504, -128274.58271677289, -0.06, 0.9460000000000001, -0.156, 192.0, 0.0, 0.0, 0.0, 0.0, 0.0, 0.0, 0.0, 0.0, 0.0, 1.6664079471035511E9, 0.0, 2022-10-21 20:05:47.103
138.0, -150618.2581923316, -160270.14377953336, 43075.23138227837, -86695.28653565486, 74154.32621888236, -73479.1917776098, 86204.5986896275, -128302.58945257538, -0.06, 0.9460000000000001, -0.156, 192.0, 0.0, 0.0, 0.0, 0.0, 0.0, 0.0, 0.0, 0.0, 0.0, 1.6664079471035607E9, 0.0, 2022-10-21 20:05:47.103
139.0, -150617.9005644203, -160268.06506729903, 43076.416024734506, -86706.03772473785, 74151.42049210316, -73495.73206850672, 86178.06716895905, -128309.5855485899, -0.06, 0.9460000000000001, -0.156, 192.0, 0.0, 0.0, 0.0, 0.0, 0.0, 0.0, 0.0, 0.0, 0.0, 1.6664079471035705E9, 0.0, 2022-10-21 20:05:47.103
140.0, -150609.67512246076, -160258.76674160562, 43083.41212074902, -86705.56833810429, 74155.33204738284, -73521.79420254161, 86152.42971806882, -128306.32219389942, -0.06, 0.9460000000000001, -0.156, 192.0, 0.0, 0.0, 0.0, 0.0, 0.0, 0.0, 0.0, 0.0, 0.0, 1.666407947103609E9, 0.0, 2022-10-21 20:05:47.103
141.0, -150616.1571283528, -160263.05827654104, 43078.96412360241, -86695.93473624406, 74154.7061985381, -73515.98274898324, 86168.36651186545, -128307.39507763328, -0.06, 0.9460000000000001, -0.156, 192.0, 0.0, 0.0, 0.0, 0.0, 0.0, 0.0, 0.0, 0.0, 0.0, 1.666407947103619E9, 0.0, 2022-10-21 20:05:47.103
142.0, -150619.88986967682, -160264.60054690845, 43077.13128055707, -86691.39733211962, 74155.17558517166, -73487.9983649252, 86197.46848314625, -128308.73618230059, -0.044, 0.9460000000000001, -0.16, 192.0, 254.0, 160.0, 29.0, 144.0, 251.0, 0.0, 0.0, 0.0, 0.0, 1.666407947103629E9, 0.0, 2022-10-21 20:05:47.103
143.0, -150613.56432599598, -160262.11950327392, 43079.52291721379, -86704.16017820362, 74152.4039688592, -73502.05761218758, 86178.17892768132, -128315.12878121482, -0.044, 0.9460000000000001, -0.16, 192.0, 0.0, 0.0, 0.0, 0.0, 0.0, 0.0, 0.0, 0.0, 0.0, 1.6664079471036391E9, 0.0, 2022-10-21 20:05:47.103
144.0, -150604.22129681366, -160254.05052352554, 43088.15069057354, -86713.6149661082, 74158.01425671748, -73522.08477521954, 86153.63671226939, -128304.86933050983, -0.044, 0.9460000000000001, -0.16, 192.0, 0.0, 0.0, 0.0, 0.0, 0.0, 0.0, 0.0, 0.0, 0.0, 1.6664079471036487E9, 0.0, 2022-10-21 20:05:47.103
145.0, -150600.06387234497, -160250.20602347923, 43095.280897054785, -86700.67330606858, 74166.32910565485, -73509.67955704684, 86175.31790439105, -128290.94419371417, -0.044, 0.9460000000000001, -0.16, 192.0, 0.0, 0.0, 0.0, 0.0, 0.0, 0.0, 0.0, 0.0, 0.0, 1.6664079471036584E9, 0.0, 2022-10-21 20:05:47.103
146.0, -150608.1999073267, -160258.7890933501, 43089.62590570759, -86691.55379433082, 74163.44573062012, -73488.82537947004, 86203.43639891582, -128299.46020835165, -0.044, 0.9460000000000001, -0.16, 192.0, 0.0, 0.0, 0.0, 0.0, 0.0, 0.0, 0.0, 0.0, 0.0, 1.6664079471036677E9, 0.0, 2022-10-21 20:05:47.103
147.0, -150606.7023404482, -160257.6268026384, 43091.14582433055, -86697.02997172237, 74166.46321612158, -73485.092638146, 86197.22261395724, -128297.1803304172, -0.044, 0.9460000000000001, -0.16, 192.0, 0.0, 0.0, 0.0, 0.0, 0.0, 0.0, 0.0, 0.0, 0.0, 1.6664079471036775E9, 0.0, 2022-10-21 20:05:47.103
148.0, -150608.78105268255, -160258.85614858344, 43091.74932143084, -86711.0668672403, 74166.41851263268, -73505.38802211142, 86167.29362813159, -128293.08996118189, -0.044, 0.9460000000000001, -0.16, 192.0, 0.0, 0.0, 0.0, 0.0, 0.0, 0.0, 0.0, 0.0, 0.0, 1.6664079471036873E9, 0.0, 2022-10-21 20:05:47.103
149.0, -150607.4399480152, -160257.1350642604, 43095.906745899534, -86703.80255029233, 74168.22900393355, -73509.45603960229, 86172.36747412295, -128288.776074502, -0.044, 0.9460000000000001, -0.16, 192.0, 0.0, 0.0, 0.0, 0.0, 0.0, 0.0, 0.0, 0.0, 0.0, 1.6664079471036966E9, 0.0, 2022-10-21 20:05:47.103
150.0, -150613.38551204032, -160262.20891025173, 43085.982571361375, -86707.0659049828, 74158.01425671748, -73488.33364109203, 86199.01075351368, -128306.94804274417, -0.044, 0.9460000000000001, -0.16, 192.0, 0.0, 0.0, 0.0, 0.0, 0.0, 0.0, 0.0, 0.0, 0.0, 1.6664079471037068E9, 0.0, 2022-10-21 20:05:47.103
151.0, -150606.6352852148, -160255.34692470395, 43095.23619356587, -86714.0620009973, 74156.33787588333, -73480.59993751049, 86201.58120412604, -128297.91793798422, -0.044, 0.9460000000000001, -0.16, 192.0, 0.0, 0.0, 0.0, 0.0, 0.0, 0.0, 0.0, 0.0, 0.0, 1.6664079471037164E9, 0.0, 2022-10-21 20:05:47.103
152.0, -150600.22033455616, -160248.59669787844, 43098.85717616763, -86719.56053013331, 74159.24360266252, -73509.21017041328, 86167.15951766486, -128297.24738565057, -0.032, 0.9460000000000001, -0.158, 192.0, 255.0, 0.0, 29.0, 144.0, 251.0, 16.0, 0.0, 0.0, 0.0, 1.666407947103726E9, 0.0, 2022-10-21 20:05:47.103
153.0, -150588.15039255028, -160239.4771861407, 43110.68124898449, -86715.00077426444, 74163.71395155358, -73513.7475745377, 86166.33250312001, -128286.33973435638, -0.032, 0.9460000000000001, -0.158, 192.0, 0.0, 0.0, 0.0, 0.0, 0.0, 0.0, 0.0, 0.0, 0.0, 1.666407947103737E9, 0.0, 2022-10-21 20:05:47.103
154.0, -150593.53716296403, -160245.04277051007, 43111.19533910696, -86702.79672179183, 74168.76544580048, -73481.42695205534, 86205.60451812799, -128288.19492914616, -0.032, 0.9460000000000001, -0.158, 192.0, 0.0, 0.0, 0.0, 0.0, 0.0, 0.0, 0.0, 0.0, 0.0, 1.6664079471037471E9, 0.0, 2022-10-21 20:05:47.103
155.0, -150599.66154094477, -160248.39553217834, 43103.41693203651, -86717.19124522105, 74158.39423637322, -73478.56592876505, 86206.76680883966, -128298.61084206235, -0.032, 0.9460000000000001, -0.158, 192.0, 0.0, 0.0, 0.0, 0.0, 0.0, 0.0, 0.0, 0.0, 0.0, 1.6664079471037664E9, 0.0, 2022-10-21 20:05:47.103
156.0, -150596.6440554433, -160246.13800598838, 43100.55590874623, -86726.95895754802, 74149.6547042912, -73512.83115301504, 86165.72900601971, -128303.28235665351, -0.032, 0.9460000000000001, -0.158, 192.0, 0.0, 0.0, 0.0, 0.0, 0.0, 0.0, 0.0, 0.0, 0.0, 1.666407947103776E9, 0.0, 2022-10-21 20:05:47.103
157.0, -150589.87147687335, -160240.75123557463, 43106.613231493626, -86722.6227191237, 74155.73437878303, -73520.72131880776, 86157.4365088268, -128295.05691469395, -0.032, 0.9460000000000001, -0.158, 192.0, 0.0, 0.0, 0.0, 0.0, 0.0, 0.0, 0.0, 0.0, 0.0, 1.6664079471037855E9, 0.0, 2022-10-21 20:05:47.103
158.0, -150590.60908444037, -160241.75706407512, 43109.250737339346, -86702.05911422482, 74165.97147774357, -73485.20439686828, 86199.03310525813, -128289.24546113556, -0.032, 0.9460000000000001, -0.158, 192.0, 0.0, 0.0, 0.0, 0.0, 0.0, 0.0, 0.0, 0.0, 0.0, 1.6664079471037953E9, 0.0, 2022-10-21 20:05:47.103
159.0, -150590.16204955126, -160240.5277181301, 43105.65210648205, -86707.69175382754, 74160.76352128548, -73474.18498685182, 86211.7512478532, -128293.55934781545, -0.032, 0.9460000000000001, -0.158, 192.0, 0.0, 0.0, 0.0, 0.0, 0.0, 0.0, 0.0, 0.0, 0.0, 1.6664079471038048E9, 0.0, 2022-10-21 20:05:47.103
160.0, -150597.40401475478, -160244.14870073184, 43103.64044948107, -86715.96189927601, 74155.66732354967, -73499.50951331967, 86179.81060502656, -128301.06953395242, -0.032, 0.9460000000000001, -0.158, 192.0, 0.0, 0.0, 0.0, 0.0, 0.0, 0.0, 0.0, 0.0, 0.0, 1.666407947103814E9, 0.0, 2022-10-21 20:05:47.103
161.0, -150599.77329966705, -160246.5179856441, 43101.33821980217, -86727.31658545931, 74146.21253564507, -73532.14306022442, 86149.50163954517, -128308.04327822248, -0.032, 0.9460000000000001, -0.158, 192.0, 0.0, 0.0, 0.0, 0.0, 0.0, 0.0, 0.0, 0.0, 0.0, 1.6664079471038232E9, 0.0, 2022-10-21 20:05:47.103
162.0, -150596.15231706528, -160248.1273112449, 43103.14871110305, -86715.96189927601, 74149.2076694021, -73516.07215596105, 86177.88835500341, -128303.05883920896, -0.038, 0.9580000000000001, -0.162, 192.0, 254.0, 208.0, 29.0, 240.0, 250.0, 240.0, 0.0, 0.0, 0.0, 1.6664079471038327E9, 0.0, 2022-10-21 20:05:47.103
163.0, -150592.17370655225, -160245.69097109928, 43108.04374313876, -86707.2670706829, 74155.17558517166, -73489.4959318037, 86209.35961119647, -128294.90045248276, -0.038, 0.9580000000000001, -0.162, 192.0, 0.0, 0.0, 0.0, 0.0, 0.0, 0.0, 0.0, 0.0, 0.0, 1.666407947103843E9, 0.0, 2022-10-21 20:05:47.103
164.0, -150592.66544493026, -160246.3838751774, 43106.926155916, -86724.63437612467, 74147.7995095014, -73509.79131576912, 86179.87766025992, -128302.14241768628, -0.038, 0.9580000000000001, -0.162, 192.0, 0.0, 0.0, 0.0, 0.0, 0.0, 0.0, 0.0, 0.0, 0.0, 1.6664079471038525E9, 0.0, 2022-10-21 20:05:47.103
165.0, -150594.65475018678, -160247.0767792555, 43103.52869075879, -86729.44000118256, 74148.04537869041, -73537.61923761597, 86148.94284593378, -128307.41742937773, -0.038, 0.9580000000000001, -0.162, 192.0, 0.0, 0.0, 0.0, 0.0, 0.0, 0.0, 0.0, 0.0, 0.0, 1.6664079471038616E9, 0.0, 2022-10-21 20:05:47.103
166.0, -150599.8403549004, -160250.65305836833, 43095.48206275488, -86718.04061151035, 74148.67122753516, -73521.7494990527, 86171.5404595781, -128304.46699910963, -0.038, 0.9580000000000001, -0.162, 192.0, 0.0, 0.0, 0.0, 0.0, 0.0, 0.0, 0.0, 0.0, 0.0, 1.666407947103871E9, 0.0, 2022-10-21 20:05:47.103
167.0, -150601.8967153903, -160256.35275320444, 43089.558850474226, -86713.19028296355, 74146.39134960072, -73494.79329523961, 86201.35768668148, -128306.32219389942, -0.038, 0.9580000000000001, -0.162, 192.0, 0.0, 0.0, 0.0, 0.0, 0.0, 0.0, 0.0, 0.0, 0.0, 1.666407947103881E9, 0.0, 2022-10-21 20:05:47.103
168.0, -150600.26503804507, -160254.60931713693, 43088.32950452918, -86724.18734123556, 74144.35734085529, -73505.63389130043, 86182.67162831684, -128309.22792067862, -0.038, 0.9580000000000001, -0.162, 192.0, 0.0, 0.0, 0.0, 0.0, 0.0, 0.0, 0.0, 0.0, 0.0, 1.66640794710389E9, 0.0, 2022-10-21 20:05:47.103
169.0, -150599.9968171116, -160250.25072696814, 43087.033103350775, -86733.37390820669, 74139.90934370868, -73538.51330739418, 86146.08182264351, -128307.52918810002, -0.038, 0.9580000000000001, -0.162, 192.0, 0.0, 0.0, 0.0, 0.0, 0.0, 0.0, 0.0, 0.0, 0.0, 1.6664079471038997E9, 0.0, 2022-10-21 20:05:47.103
170.0, -150602.2990467905, -160250.40718917933, 43084.73087367188, -86714.8666637977, 74148.87239323526, -73528.83500204505, 86162.46565132924, -128300.06370545193, -0.038, 0.9580000000000001, -0.162, 192.0, 0.0, 0.0, 0.0, 0.0, 0.0, 0.0, 0.0, 0.0, 0.0, 1.66640794710392E9, 0.0, 2022-10-21 20:05:47.103
171.0, -150596.35348276538, -160243.50050014263, 43091.16817607501, -86690.70442804151, 74163.8033585314, -73487.88660620291, 86211.1477507529, -128293.82756874891, -0.036000000000000004, 0.9540000000000001, -0.162, 192.0, 254.0, 224.0, 29.0, 208.0, 250.0, 240.0, 0.0, 0.0, 0.0, 1.6664079471039305E9, 0.0, 2022-10-21 20:05:47.103
172.0, -150596.42053799875, -160246.2721164551, 43086.5190132283, -86696.62764032217, 74162.08227420834, -73492.91574870536, 86201.38003842594, -128299.37080137382, -0.036000000000000004, 0.9540000000000001, -0.162, 192.0, 0.0, 0.0, 0.0, 0.0, 0.0, 0.0, 0.0, 0.0, 0.0, 1.6664079471039405E9, 0.0, 2022-10-21 20:05:47.103
173.0, -150591.12317456285, -160237.53258437308, 43085.133205072074, -86702.43909388054, 74163.35632364229, -73523.73880430924, 86165.05845368606, -128300.9354234857, -0.036000000000000004, 0.9540000000000001, -0.162, 192.0, 0.0, 0.0, 0.0, 0.0, 0.0, 0.0, 0.0, 0.0, 0.0, 1.6664079471039495E9, 0.0, 2022-10-21 20:05:47.103
174.0, -150586.58577043843, -160230.9611715032, 43089.35768477413, -86680.04264593634, 74174.5098441255, -73511.89237974792, 86177.57543058103, -128283.8810424663, -0.036000000000000004, 0.9540000000000001, -0.162, 192.0, 0.0, 0.0, 0.0, 0.0, 0.0, 0.0, 0.0, 0.0, 0.0, 1.666407947103959E9, 0.0, 2022-10-21 20:05:47.103
175.0, -150582.27188375854, -160224.68033131128, 43086.36255101711, -86665.13403238464, 74172.83346329135, -73482.7457049782, 86207.81734082906, -128287.81494949044, -0.036000000000000004, 0.9540000000000001, -0.162, 192.0, 0.0, 0.0, 0.0, 0.0, 0.0, 0.0, 0.0, 0.0, 0.0, 1.6664079471039684E9, 0.0, 2022-10-21 20:05:47.103
176.0, -150591.83843038543, -160231.7658343036, 43063.34025422815, -86700.33802990176, 74150.1017391803, -73498.66014703037, 86189.42185514234, -128313.65356608077, -0.036000000000000004, 0.9540000000000001, -0.162, 192.0, 0.0, 0.0, 0.0, 0.0, 0.0, 0.0, 0.0, 0.0, 0.0, 1.666407947103978E9, 0.0, 2022-10-21 20:05:47.103
177.0, -150593.17953505274, -160239.6783518408, 43070.38105373157, -86704.67426832608, 74154.25916364898, -73518.5531995956, 86161.79509899559, -128306.23278692161, -0.036000000000000004, 0.9540000000000001, -0.162, 192.0, 0.0, 0.0, 0.0, 0.0, 0.0, 0.0, 0.0, 0.0, 0.0, 1.6664079471039872E9, 0.0, 2022-10-21 20:05:47.103
178.0, -150600.01916885606, -160251.74829384664, 43081.28870502576, -86688.46925359599, 74168.51957661148, -73517.03328097264, 86167.02540719813, -128289.3795716023, -0.036000000000000004, 0.9540000000000001, -0.162, 192.0, 0.0, 0.0, 0.0, 0.0, 0.0, 0.0, 0.0, 0.0, 0.0, 1.6664079471039965E9, 0.0, 2022-10-21 20:05:47.103
179.0, -150601.76260492357, -160253.51408165862, 43078.00299859083, -86671.37016908768, 74168.76544580048, -73493.63100452794, 86198.11668373545, -128290.45245533616, -0.036000000000000004, 0.9540000000000001, -0.162, 192.0, 0.0, 0.0, 0.0, 0.0, 0.0, 0.0, 0.0, 0.0, 0.0, 1.666407947104006E9, 0.0, 2022-10-21 20:05:47.104
180.0, -150599.66154094477, -160249.69193335678, 43080.68520792547, -86670.16317488709, 74171.82763479085, -73471.79335019509, 86213.38292519843, -128287.32321111241, -0.036000000000000004, 0.9540000000000001, -0.162, 192.0, 0.0, 0.0, 0.0, 0.0, 0.0, 0.0, 0.0, 0.0, 0.0, 1.666407947104024E9, 0.0, 2022-10-21 20:05:47.104
181.0, -150597.56047696597, -160247.41205542232, 43079.03117883577, -86681.94254421504, 74167.69256206663, -73498.07900167454, 86179.341218393, -128295.77217051652, -0.036000000000000004, 0.9420000000000001, -0.164, 192.0, 254.0, 224.0, 29.0, 112.0, 250.0, 224.0, 0.0, 0.0, 0.0, 1.6664079471040337E9, 0.0, 2022-10-21 20:05:47.104
182.0, -150599.41567175576, -160247.7696833336, 43077.91359161301, -86685.49647158344, 74163.87041376477, -73524.02937698715, 86156.60949428195, -128294.56517631594, -0.036000000000000004, 0.9420000000000001, -0.164, 192.0, 0.0, 0.0, 0.0, 0.0, 0.0, 0.0, 0.0, 0.0, 0.0, 1.6664079471040442E9, 0.0, 2022-10-21 20:05:47.104
183.0, -150595.1911920537, -160242.7628925756, 43082.965085859905, -86666.78806147433, 74170.79945454591, -73503.66693778837, 86188.57248885304, -128287.54672855696, -0.036000000000000004, 0.9420000000000001, -0.164, 192.0, 0.0, 0.0, 0.0, 0.0, 0.0, 0.0, 0.0, 0.0, 0.0, 1.6664079471040537E9, 0.0, 2022-10-21 20:05:47.104
184.0, -150589.46914547315, -160237.6666948398, 43085.91551612801, -86656.1039276247, 74178.756675572, -73476.28605083062, 86214.61227114347, -128288.7313710131, -0.036000000000000004, 0.9420000000000001, -0.164, 192.0, 0.0, 0.0, 0.0, 0.0, 0.0, 0.0, 0.0, 0.0, 0.0, 1.6664079471040633E9, 0.0, 2022-10-21 20:05:47.104
185.0, -150575.7451743776, -160227.34018890146, 43098.94658314545, -86659.27787533736, 74181.7071058401, -73484.01975441215, 86193.10989297747, -128277.15316738524, -0.036000000000000004, 0.9420000000000001, -0.164, 192.0, 0.0, 0.0, 0.0, 0.0, 0.0, 0.0, 0.0, 0.0, 0.0, 1.6664079471040835E9, 0.0, 2022-10-21 20:05:47.104
0.0, 0.0, 0.0, 0.0, 0.0, 0.0, 0.0, 0.0, 0.0, -0.036000000000000004, 0.9420000000000001, -0.164, 192.0, 0.0, 0.0, 0.0, 0.0, 0.0, 0.0, 0.0, 0.0, 0.0, 1.6664079471984017E9, 0.0, 2022-10-21 20:05:47.198
1.0, -150745.6184322379, -160415.47482198177, 42767.067881473056, -86707.62469859418, 74244.89548741526, -73463.344390791, 86223.21769275877, -128298.27556589551, -0.036000000000000004, 0.9420000000000001, -0.158, 192.0, 254.0, 224.0, 29.0, 112.0, 251.0, 16.0, 0.0, 0.0, 0.0, 1.6664079476816244E9, 0.0, 2022-10-21 20:05:47.681
2.0, -150745.23845258218, -160413.64197893644, 42767.76078555117, -86714.68784984206, 74249.2764293285, -73479.28118458763, 86195.90386103439, -128298.3873246178, -0.036000000000000004, 0.9420000000000001, -0.158, 192.0, 0.0, 0.0, 0.0, 0.0, 0.0, 0.0, 0.0, 0.0, 0.0, 1.6664079476818004E9, 0.0, 2022-10-21 20:05:47.681
3.0, -150751.40753405186, -160418.53701097216, 42763.826878527034, -86726.24370172546, 74242.92853390319, -73489.2947661036, 86189.46655863125, -128298.1861589177, -0.036000000000000004, 0.9420000000000001, -0.158, 192.0, 0.0, 0.0, 0.0, 0.0, 0.0, 0.0, 0.0, 0.0, 0.0, 1.6664079476818264E9, 0.0, 2022-10-21 20:05:47.681
4.0, -150750.8710921849, -160415.92185687087, 42767.62667508444, -86714.77725681989, 74245.4766327711, -73466.04895187008, 86223.91059683688, -128288.530205313, -0.036000000000000004, 0.9420000000000001, -0.158, 192.0, 0.0, 0.0, 0.0, 0.0, 0.0, 0.0, 0.0, 0.0, 0.0, 1.6664079476818504E9, 0.0, 2022-10-21 20:05:47.681
5.0, -150757.0401736546, -160423.27558079668, 42761.97168373724, -86719.18055047757, 74244.8731356708, -73457.19766106579, 86228.29153875013, -128294.67693503821, -0.036000000000000004, 0.9420000000000001, -0.158, 192.0, 0.0, 0.0, 0.0, 0.0, 0.0, 0.0, 0.0, 0.0, 0.0, 1.6664079476818743E9, 0.0, 2022-10-21 20:05:47.681
6.0, -150757.21898761022, -160424.50492674173, 42759.0436052136, -86727.74126860396, 74243.017940881, -73481.58341426653, 86193.98161101123, -128301.96360373063, -0.036000000000000004, 0.9420000000000001, -0.158, 192.0, 0.0, 0.0, 0.0, 0.0, 0.0, 0.0, 0.0, 0.0, 0.0, 1.6664079476819096E9, 0.0, 2022-10-21 20:05:47.681
7.0, -150751.1393131184, -160419.1628598169, 42762.1952011818, -86733.64212914016, 74242.5709059919, -73505.47742908924, 86173.37330262344, -128305.31636539893, -0.036000000000000004, 0.9420000000000001, -0.158, 192.0, 0.0, 0.0, 0.0, 0.0, 0.0, 0.0, 0.0, 0.0, 0.0, 1.6664079476819334E9, 0.0, 2022-10-21 20:05:47.681
8.0, -150750.5358160181, -160419.85576389503, 42765.167983194355, -86719.56053013331, 74248.40471129474, -73478.61063225397, 86211.77359959765, -128293.29112688199, -0.028, 0.9420000000000001, -0.158, 192.0, 255.0, 32.0, 29.0, 112.0, 251.0, 16.0, 0.0, 0.0, 0.0, 1.6664079476819572E9, 0.0, 2022-10-21 20:05:47.681
9.0, -150758.64949925538, -160431.29985705615, 42756.361395878965, -86721.70629760102, 74246.79538569396, -73455.29776278709, 86232.53837019663, -128296.64388855027, -0.028, 0.9420000000000001, -0.158, 192.0, 0.0, 0.0, 0.0, 0.0, 0.0, 0.0, 0.0, 0.0, 0.0, 1.6664079476819828E9, 0.0, 2022-10-21 20:05:47.681
10.0, -150760.7952667231, -160429.84699366655, 42752.49454408819, -86735.13969601867, 74235.73127218858, -73485.31615559055, 86196.14973022339, -128308.64677532278, -0.028, 0.9420000000000001, -0.158, 192.0, 0.0, 0.0, 0.0, 0.0, 0.0, 0.0, 0.0, 0.0, 0.0, 1.6664079476820018E9, 0.0, 2022-10-21 20:05:47.682
11.0, -150758.76125797763, -160427.34359828755, 42754.59560806699, -86740.41470771012, 74235.64186521077, -73509.56779832457, 86171.87573574492, -128307.61859507783, -0.028, 0.9420000000000001, -0.158, 192.0, 0.0, 0.0, 0.0, 0.0, 0.0, 0.0, 0.0, 0.0, 0.0, 1.666407947682013E9, 0.0, 2022-10-21 20:05:47.682
12.0, -150754.71559223122, -160425.64486570895, 42760.80939302557, -86721.68394585657, 74247.93532466119, -73474.90024267438, 86209.6501838744, -128294.11814142682, -0.028, 0.9420000000000001, -0.158, 192.0, 0.0, 0.0, 0.0, 0.0, 0.0, 0.0, 0.0, 0.0, 0.0, 1.6664079476820242E9, 0.0, 2022-10-21 20:05:47.682
13.0, -150746.89248167188, -160415.54187721515, 42773.1475559649, -86701.43326538007, 74263.00040042406, -73437.25990501164, 86247.9610738708, -128284.48453956659, -0.028, 0.9420000000000001, -0.158, 192.0, 0.0, 0.0, 0.0, 0.0, 0.0, 0.0, 0.0, 0.0, 0.0, 1.6664079476820357E9, 0.0, 2022-10-21 20:05:47.682
14.0, -150758.2918713441, -160424.19200231935, 42760.02708196963, -86736.88313208618, 74247.33182756089, -73466.80891118156, 86212.1535792534, -128303.19294967568, -0.028, 0.9420000000000001, -0.158, 192.0, 0.0, 0.0, 0.0, 0.0, 0.0, 0.0, 0.0, 0.0, 0.0, 1.6664079476821532E9, 0.0, 2022-10-21 20:05:47.682
15.0, -150757.6883742438, -160428.6623512104, 42760.92115174785, -86747.70137640255, 74245.36487404881, -73496.35791735147, 86182.13518644992, -128303.41646712023, -0.028, 0.9420000000000001, -0.158, 192.0, 0.0, 0.0, 0.0, 0.0, 0.0, 0.0, 0.0, 0.0, 0.0, 1.6664079476821644E9, 0.0, 2022-10-21 20:05:47.682
16.0, -150752.34630731898, -160425.39899651994, 42767.17964019533, -86726.37781219218, 74256.13841487627, -73474.18498685182, 86211.63948913092, -128283.79163548848, -0.028, 0.9420000000000001, -0.158, 192.0, 0.0, 0.0, 0.0, 0.0, 0.0, 0.0, 0.0, 0.0, 0.0, 1.6664079476821768E9, 0.0, 2022-10-21 20:05:47.682
17.0, -150762.47164755722, -160433.49032801276, 42758.90949474687, -86726.95895754802, 74249.05291188395, -73454.47074824224, 86236.58403594304, -128291.83826349239, -0.03, 0.9420000000000001, -0.16, 192.0, 255.0, 16.0, 29.0, 112.0, 251.0, 0.0, 0.0, 0.0, 0.0, 1.6664079476821878E9, 0.0, 2022-10-21 20:05:47.682
18.0, -150770.5406273056, -160437.33482805907, 42750.46053534276, -86738.04542279786, 74241.1180426023, -73470.76516995016, 86212.91353856487, -128305.85280726587, -0.03, 0.9420000000000001, -0.16, 192.0, 0.0, 0.0, 0.0, 0.0, 0.0, 0.0, 0.0, 0.0, 0.0, 1.6664079476822002E9, 0.0, 2022-10-21 20:05:47.682
19.0, -150766.47260981472, -160431.50102275625, 42753.835648755514, -86748.84131536976, 74239.30755130143, -73500.6494522869, 86178.93888699281, -128303.41646712023, -0.03, 0.9420000000000001, -0.16, 192.0, 0.0, 0.0, 0.0, 0.0, 0.0, 0.0, 0.0, 0.0, 0.0, 1.6664079476822112E9, 0.0, 2022-10-21 20:05:47.682
20.0, -150758.0236504106, -160427.67887445437, 42760.27295115864, -86733.41861169561, 74244.71667345961, -73498.79425749711, 86188.37132315294, -128299.72842928511, -0.03, 0.9420000000000001, -0.16, 192.0, 0.0, 0.0, 0.0, 0.0, 0.0, 0.0, 0.0, 0.0, 0.0, 1.6664079476822226E9, 0.0, 2022-10-21 20:05:47.682
21.0, -150761.7787434791, -160432.73036870128, 42756.562561579056, -86723.62854762418, 74244.98489439308, -73469.91580366086, 86224.89407359292, -128301.51656884153, -0.03, 0.9420000000000001, -0.16, 192.0, 0.0, 0.0, 0.0, 0.0, 0.0, 0.0, 0.0, 0.0, 0.0, 1.6664079476822336E9, 0.0, 2022-10-21 20:05:47.682
22.0, -150760.81761846752, -160429.42231052188, 42760.36235813646, -86738.49245768697, 74243.64378972576, -73463.27733555762, 86223.32945148104, -128299.2366909071, -0.03, 0.9420000000000001, -0.16, 192.0, 0.0, 0.0, 0.0, 0.0, 0.0, 0.0, 0.0, 0.0, 0.0, 1.6664079476822448E9, 0.0, 2022-10-21 20:05:47.682
23.0, -150758.7389062332, -160429.6681797109, 42761.457593614774, -86752.1717252936, 74240.51454550202, -73494.01098418367, 86185.84557602949, -128303.75174328707, -0.03, 0.9420000000000001, -0.16, 192.0, 0.0, 0.0, 0.0, 0.0, 0.0, 0.0, 0.0, 0.0, 0.0, 1.6664079476822555E9, 0.0, 2022-10-21 20:05:47.682
24.0, -150754.26855734212, -160423.99083661925, 42766.911419261865, -86739.34182397627, 74248.11413861682, -73498.92836796385, 86188.68424757532, -128293.1793681597, -0.03, 0.9420000000000001, -0.16, 192.0, 0.0, 0.0, 0.0, 0.0, 0.0, 0.0, 0.0, 0.0, 0.0, 1.6664079476822667E9, 0.0, 2022-10-21 20:05:47.682
25.0, -150759.1859411223, -160430.0705111111, 42761.21172442576, -86726.35546044772, 74248.65058048375, -73477.15776886437, 86222.18951251383, -128293.29112688199, -0.03, 0.9420000000000001, -0.16, 192.0, 0.0, 0.0, 0.0, 0.0, 0.0, 0.0, 0.0, 0.0, 0.0, 1.6664079476822777E9, 0.0, 2022-10-21 20:05:47.682
26.0, -150767.0314034261, -160442.54278451717, 42749.47705858673, -86750.0706613148, 74233.0714145984, -73481.9410421778, 86211.43832343082, -128310.83724627939, -0.03, 0.9420000000000001, -0.16, 192.0, 0.0, 0.0, 0.0, 0.0, 0.0, 0.0, 0.0, 0.0, 0.0, 1.6664079476822884E9, 0.0, 2022-10-21 20:05:47.682
27.0, -150764.01391792463, -160437.5136420147, 42754.93088423382, -86751.99291133796, 74239.2181443236, -73491.30642310459, 86186.24790742969, -128304.48935085408, -0.032, 0.9480000000000001, -0.16, 192.0, 255.0, 0.0, 29.0, 160.0, 251.0, 0.0, 0.0, 0.0, 0.0, 1.6664079476823E9, 0.0, 2022-10-21 20:05:47.682
28.0, -150765.7350022477, -160436.77603444768, 42754.03681445561, -86754.18338229459, 74237.22883906709, -73503.21990289926, 86178.26833465915, -128301.89654849727, -0.032, 0.9480000000000001, -0.16, 192.0, 0.0, 0.0, 0.0, 0.0, 0.0, 0.0, 0.0, 0.0, 0.0, 1.666407947682313E9, 0.0, 2022-10-21 20:05:47.682
29.0, -150767.16551389283, -160439.43589203787, 42750.684052787314, -86744.14744903415, 74232.51262098702, -73492.22284462725, 86206.72210535075, -128306.14337994378, -0.032, 0.9480000000000001, -0.16, 192.0, 0.0, 0.0, 0.0, 0.0, 0.0, 0.0, 0.0, 0.0, 0.0, 1.6664079476823237E9, 0.0, 2022-10-21 20:05:47.682
30.0, -150772.77580175112, -160441.73812171677, 42747.84538124149, -86744.25920775643, 74236.15595533323, -73466.96537339276, 86225.8999020934, -128303.52822584251, -0.032, 0.9480000000000001, -0.16, 192.0, 0.0, 0.0, 0.0, 0.0, 0.0, 0.0, 0.0, 0.0, 0.0, 1.6664079476823485E9, 0.0, 2022-10-21 20:05:47.682
31.0, -150771.01001393914, -160438.7653397042, 42747.28658763011, -86758.31845501882, 74238.5699437344, -73480.17525436584, 86201.42474191485, -128304.7352200431, -0.032, 0.9480000000000001, -0.16, 192.0, 0.0, 0.0, 0.0, 0.0, 0.0, 0.0, 0.0, 0.0, 0.0, 1.6664079476823592E9, 0.0, 2022-10-21 20:05:47.682
32.0, -150765.46678131423, -160434.13852860196, 42751.64517779889, -86762.11825157622, 74236.15595533323, -73506.95264422329, 86180.83878527151, -128300.3319263854, -0.032, 0.9480000000000001, -0.16, 192.0, 0.0, 0.0, 0.0, 0.0, 0.0, 0.0, 0.0, 0.0, 0.0, 1.66640794768237E9, 0.0, 2022-10-21 20:05:47.682
33.0, -150756.5931387655, -160426.20365932034, 42763.73747154921, -86738.82773385379, 74248.00237989455, -73480.15290262138, 86219.19437875682, -128281.71292325413, -0.032, 0.9480000000000001, -0.16, 192.0, 0.0, 0.0, 0.0, 0.0, 0.0, 0.0, 0.0, 0.0, 0.0, 1.666407947682381E9, 0.0, 2022-10-21 20:05:47.682
34.0, -150756.36962132092, -160424.19200231935, 42762.88810525991, -86720.34284118925, 74260.83228121189, -73450.69330342929, 86248.54221922663, -128280.99766743157, -0.032, 0.9480000000000001, -0.16, 192.0, 0.0, 0.0, 0.0, 0.0, 0.0, 0.0, 0.0, 0.0, 0.0, 1.666407947682392E9, 0.0, 2022-10-21 20:05:47.682
35.0, -150767.05375517058, -160434.9208396579, 42748.69474753079, -86744.90740834564, 74243.06264436993, -73483.2374433562, 86209.38196294093, -128304.62346132082, -0.032, 0.9480000000000001, -0.16, 192.0, 0.0, 0.0, 0.0, 0.0, 0.0, 0.0, 0.0, 0.0, 0.0, 1.6664079476824024E9, 0.0, 2022-10-21 20:05:47.682
36.0, -150769.80301973858, -160444.2191653513, 42741.966872449746, -86764.04050159937, 74227.10349882883, -73519.22375192925, 86172.61334331195, -128305.85280726587, -0.032, 0.9480000000000001, -0.16, 192.0, 0.0, 0.0, 0.0, 0.0, 0.0, 0.0, 0.0, 0.0, 0.0, 1.666407947682413E9, 0.0, 2022-10-21 20:05:47.682
37.0, -150766.76318249264, -160440.19585134936, 42744.22439863973, -86747.969597336, 74235.8206791664, -73501.63292904293, 86198.4966633912, -128300.62249906332, -0.038, 0.9520000000000001, -0.162, 192.0, 254.0, 208.0, 29.0, 192.0, 250.0, 240.0, 0.0, 0.0, 0.0, 1.6664079476824243E9, 0.0, 2022-10-21 20:05:47.682
38.0, -150763.2763103576, -160436.23959258077, 42747.755974263666, -86747.85783861374, 74233.9207808877, -73475.07905663003, 86226.27988174914, -128299.84018800738, -0.038, 0.9520000000000001, -0.162, 192.0, 0.0, 0.0, 0.0, 0.0, 0.0, 0.0, 0.0, 0.0, 0.0, 1.6664079476824367E9, 0.0, 2022-10-21 20:05:47.682
39.0, -150759.1412376334, -160431.8586506675, 42752.89687548839, -86754.85393462825, 74232.06558609792, -73490.5464637931, 86204.48693090522, -128304.98108923211, -0.038, 0.9520000000000001, -0.162, 192.0, 0.0, 0.0, 0.0, 0.0, 0.0, 0.0, 0.0, 0.0, 0.0, 1.666407947682448E9, 0.0, 2022-10-21 20:05:47.682
40.0, -150759.56592077803, -160431.63513322297, 42756.3390441345, -86761.29123703137, 74235.86538265532, -73514.01579547118, 86176.7931195251, -128305.31636539893, -0.038, 0.9520000000000001, -0.162, 192.0, 0.0, 0.0, 0.0, 0.0, 0.0, 0.0, 0.0, 0.0, 0.0, 1.6664079476824603E9, 0.0, 2022-10-21 20:05:47.682
41.0, -150759.76708647812, -160429.5117174997, 42761.21172442576, -86748.90837060314, 74243.95671414814, -73493.2510248722, 86199.97187852525, -128293.51464432654, -0.038, 0.9520000000000001, -0.162, 192.0, 0.0, 0.0, 0.0, 0.0, 0.0, 0.0, 0.0, 0.0, 0.0, 1.6664079476824713E9, 0.0, 2022-10-21 20:05:47.682
42.0, -150770.27240637213, -160436.28429606967, 42753.74624177769, -86746.51673394641, 74241.98976063606, -73463.63496346891, 86233.92417835286, -128296.286260639, -0.038, 0.9520000000000001, -0.162, 192.0, 0.0, 0.0, 0.0, 0.0, 0.0, 0.0, 0.0, 0.0, 0.0, 1.666407947682482E9, 0.0, 2022-10-21 20:05:47.682
43.0, -150765.3326708475, -160432.57390649008, 42753.142744677396, -86749.8247921258, 74240.4698420131, -73470.76516995016, 86220.53548342413, -128299.10258044036, -0.038, 0.9520000000000001, -0.162, 192.0, 0.0, 0.0, 0.0, 0.0, 0.0, 0.0, 0.0, 0.0, 0.0, 1.6664079476824932E9, 0.0, 2022-10-21 20:05:47.682
44.0, -150757.62131901042, -160425.2648860532, 42758.395404624396, -86748.1707630361, 74247.86826942781, -73492.96045219427, 86191.47821563223, -128294.29695538247, -0.038, 0.9520000000000001, -0.162, 192.0, 0.0, 0.0, 0.0, 0.0, 0.0, 0.0, 0.0, 0.0, 0.0, 1.666407947682504E9, 0.0, 2022-10-21 20:05:47.682
45.0, -150764.1927318803, -160434.78672919117, 42752.852171999475, -86758.85489688575, 74247.4212345387, -73496.15675165138, 86195.43447440083, -128298.81200776245, -0.038, 0.9520000000000001, -0.162, 192.0, 0.0, 0.0, 0.0, 0.0, 0.0, 0.0, 0.0, 0.0, 0.0, 1.6664079476825387E9, 0.0, 2022-10-21 20:05:47.682
46.0, -150773.7369267627, -160444.3756275625, 42743.6879567728, -86763.12408007671, 74237.85468791184, -73481.04697239959, 86220.64724214641, -128311.03841197949, -0.036000000000000004, 0.9480000000000001, -0.156, 192.0, 254.0, 224.0, 29.0, 160.0, 251.0, 32.0, 0.0, 0.0, 0.0, 1.66640794768255E9, 0.0, 2022-10-21 20:05:47.682
47.0, -150768.10428715998, -160437.40188329242, 42749.7899830091, -86764.04050159937, 74238.27937105649, -73475.54844326359, 86219.57435841256, -128304.69051655418, -0.036000000000000004, 0.9480000000000001, -0.156, 192.0, 0.0, 0.0, 0.0, 0.0, 0.0, 0.0, 0.0, 0.0, 0.0, 1.6664079476825616E9, 0.0, 2022-10-21 20:05:47.682
48.0, -150766.8972929594, -160438.74298795976, 42749.96879696474, -86770.16487958013, 74238.7711094345, -73503.8010482551, 86183.65510507287, -128306.05397296596, -0.036000000000000004, 0.9480000000000001, -0.156, 192.0, 0.0, 0.0, 0.0, 0.0, 0.0, 0.0, 0.0, 0.0, 0.0, 1.6664079476825726E9, 0.0, 2022-10-21 20:05:47.682
49.0, -150763.81275222453, -160437.60304899252, 42752.47219234374, -86763.03467309888, 74241.65448446924, -73514.23931291573, 86182.20224168328, -128303.39411537578, -0.036000000000000004, 0.9480000000000001, -0.156, 192.0, 0.0, 0.0, 0.0, 0.0, 0.0, 0.0, 0.0, 0.0, 0.0, 1.6664079476825867E9, 0.0, 2022-10-21 20:05:47.682
50.0, -150764.01391792463, -160441.49225252777, 42750.81816325404, -86748.50603920294, 74245.05194962645, -73486.38903932441, 86219.95433806829, -128301.04718220797, -0.036000000000000004, 0.9480000000000001, -0.156, 192.0, 0.0, 0.0, 0.0, 0.0, 0.0, 0.0, 0.0, 0.0, 0.0, 1.6664079476825976E9, 0.0, 2022-10-21 20:05:47.682
51.0, -150765.82440922552, -160440.19585134936, 42746.95131146328, -86751.43411772659, 74246.75068220505, -73468.4405885268, 86231.66665216288, -128300.98012697461, -0.036000000000000004, 0.9480000000000001, -0.156, 192.0, 0.0, 0.0, 0.0, 0.0, 0.0, 0.0, 0.0, 0.0, 0.0, 1.6664079476826084E9, 0.0, 2022-10-21 20:05:47.682
52.0, -150767.12081040393, -160439.5700025046, 42746.280759129615, -86771.50598424744, 74236.98296987808, -73495.21797838426, 86192.48404413273, -128305.36106888784, -0.036000000000000004, 0.9480000000000001, -0.156, 192.0, 0.0, 0.0, 0.0, 0.0, 0.0, 0.0, 0.0, 0.0, 0.0, 1.666407947682619E9, 0.0, 2022-10-21 20:05:47.682
53.0, -150768.55132204908, -160442.98981940627, 42745.230227140215, -86772.46710925903, 74239.6204757238, -73512.38411812593, 86180.54821259358, -128303.12589444232, -0.036000000000000004, 0.9480000000000001, -0.156, 192.0, 0.0, 0.0, 0.0, 0.0, 0.0, 0.0, 0.0, 0.0, 0.0, 1.66640794768263E9, 0.0, 2022-10-21 20:05:47.682
54.0, -150760.4823423007, -160434.25028732425, 42750.72875627622, -86741.75581237744, 74253.81383345292, -73475.68255373032, 86227.352765483, -128291.45828383665, -0.036000000000000004, 0.9480000000000001, -0.156, 192.0, 0.0, 0.0, 0.0, 0.0, 0.0, 0.0, 0.0, 0.0, 0.0, 1.6664079476826408E9, 0.0, 2022-10-21 20:05:47.682
55.0, -150761.3764120789, -160432.59625823455, 42749.25354114217, -86741.10761178823, 74257.09953988786, -73453.5319749751, 86244.89888488041, -128289.49133032458, -0.036000000000000004, 0.9480000000000001, -0.156, 192.0, 0.0, 0.0, 0.0, 0.0, 0.0, 0.0, 0.0, 0.0, 0.0, 1.6664079476826515E9, 0.0, 2022-10-21 20:05:47.682
56.0, -150773.8933889739, -160446.23082235229, 42733.71907874574, -86776.71394070554, 74242.03446412498, -73485.83024571303, 86200.59772737, -128306.43395262171, -0.036000000000000004, 0.9420000000000001, -0.16, 192.0, 254.0, 224.0, 29.0, 112.0, 251.0, 0.0, 0.0, 0.0, 0.0, 1.6664079476826625E9, 0.0, 2022-10-21 20:05:47.682
57.0, -150772.82050524003, -160448.53305203118, 42739.75404974867, -86772.89179240368, 74245.58839149337, -73510.43951635832, 86183.47629111723, -128300.2872228965, -0.036000000000000004, 0.9420000000000001, -0.16, 192.0, 0.0, 0.0, 0.0, 0.0, 0.0, 0.0, 0.0, 0.0, 0.0, 1.666407947682674E9, 0.0, 2022-10-21 20:05:47.682
58.0, -150783.66110130085, -160459.26188936972, 42729.96398567724, -86765.24749579997, 74240.69335945765, -73505.54448432261, 86200.4412651588, -128309.04910672297, -0.036000000000000004, 0.9420000000000001, -0.16, 192.0, 0.0, 0.0, 0.0, 0.0, 0.0, 0.0, 0.0, 0.0, 0.0, 1.666407947682685E9, 0.0, 2022-10-21 20:05:47.682
59.0, -150781.0906506885, -160454.6797817564, 42730.85805545546, -86762.4311759986, 74242.41444378071, -73471.83805368401, 86228.42564921685, -128304.28818515399, -0.036000000000000004, 0.9420000000000001, -0.16, 192.0, 0.0, 0.0, 0.0, 0.0, 0.0, 0.0, 0.0, 0.0, 0.0, 1.6664079476826963E9, 0.0, 2022-10-21 20:05:47.682
60.0, -150771.7923249951, -160448.53305203118, 42736.89302645839, -86770.07547260232, 74244.85078392635, -73474.09557987399, 86210.52190190816, -128300.37662987431, -0.036000000000000004, 0.9420000000000001, -0.16, 192.0, 0.0, 0.0, 0.0, 0.0, 0.0, 0.0, 0.0, 0.0, 0.0, 1.6664079476827176E9, 0.0, 2022-10-21 20:05:47.682
61.0, -150768.90894996034, -160448.80127296463, 42737.09419215849, -86765.76158592243, 74246.5271647605, -73503.53282732163, 86181.10700620497, -128303.50587409806, -0.036000000000000004, 0.9420000000000001, -0.16, 192.0, 0.0, 0.0, 0.0, 0.0, 0.0, 0.0, 0.0, 0.0, 0.0, 1.6664079476827283E9, 0.0, 2022-10-21 20:05:47.682
62.0, -150767.00905168164, -160448.0636653976, 42733.94259619029, -86761.29123703137, 74240.9168769022, -73501.0517836871, 86196.82028255705, -128303.72939154261, -0.036000000000000004, 0.9420000000000001, -0.16, 192.0, 0.0, 0.0, 0.0, 0.0, 0.0, 0.0, 0.0, 0.0, 0.0, 1.6664079476827395E9, 0.0, 2022-10-21 20:05:47.682
63.0, -150765.9361679478, -160447.68368574188, 42735.395459579886, -86763.54876322136, 74236.8712111558, -73478.11889387594, 86225.96695732677, -128298.29791763997, -0.036000000000000004, 0.9420000000000001, -0.16, 192.0, 0.0, 0.0, 0.0, 0.0, 0.0, 0.0, 0.0, 0.0, 0.0, 1.6664079476827507E9, 0.0, 2022-10-21 20:05:47.682
64.0, -150770.76414475014, -160446.78961596367, 42733.9872996792, -86779.99964714047, 74234.34546403235, -73486.85842595798, 86206.85621581749, -128313.60886259185, -0.036000000000000004, 0.9420000000000001, -0.16, 192.0, 0.0, 0.0, 0.0, 0.0, 0.0, 0.0, 0.0, 0.0, 0.0, 1.666407947682762E9, 0.0, 2022-10-21 20:05:47.682
65.0, -150764.7962289806, -160439.0112088932, 42745.56550330705, -86777.33978955029, 74244.96254264863, -73502.68346103233, 86184.10213996198, -128299.95194672966, -0.036000000000000004, 0.9420000000000001, -0.16, 192.0, 0.0, 0.0, 0.0, 0.0, 0.0, 0.0, 0.0, 0.0, 0.0, 1.666407947682773E9, 0.0, 2022-10-21 20:05:47.682
66.0, -150778.20727565375, -160453.8304154671, 42742.3915555944, -86768.66731270163, 74246.88479267179, -73500.4482865868, 86193.6463348444, -128304.57875783191, -0.034, 0.9440000000000001, -0.162, 192.0, 254.0, 240.0, 29.0, 128.0, 250.0, 240.0, 0.0, 0.0, 0.0, 1.6664079476827843E9, 0.0, 2022-10-21 20:05:47.682
67.0, -150779.36956636544, -160456.0655899126, 42740.46930557124, -86765.24749579997, 74243.84495542586, -73476.04018164161, 86226.19047477133, -128306.72452529962, -0.034, 0.9440000000000001, -0.162, 192.0, 0.0, 0.0, 0.0, 0.0, 0.0, 0.0, 0.0, 0.0, 0.0, 1.666407947682796E9, 0.0, 2022-10-21 20:05:47.682
68.0, -150764.86328421393, -160439.4582437823, 42753.9921109667, -86759.21252479703, 74255.08788288687, -73468.06060887106, 86232.89599810791, -128296.7332955281, -0.034, 0.9440000000000001, -0.162, 192.0, 0.0, 0.0, 0.0, 0.0, 0.0, 0.0, 0.0, 0.0, 0.0, 1.666407947682807E9, 0.0, 2022-10-21 20:05:47.682
69.0, -150763.05279291308, -160437.04425538116, 42757.389576123904, -86772.46710925903, 74251.91393517422, -73496.0449929291, 86198.00492501319, -128294.05108619346, -0.034, 0.9440000000000001, -0.162, 192.0, 0.0, 0.0, 0.0, 0.0, 0.0, 0.0, 0.0, 0.0, 0.0, 1.666407947682818E9, 0.0, 2022-10-21 20:05:47.682
70.0, -150767.97017669323, -160440.44172053837, 42757.85896275747, -86771.26011505844, 74254.81966195341, -73492.848693472, 86203.7940268271, -128294.81104550495, -0.034, 0.9440000000000001, -0.162, 192.0, 0.0, 0.0, 0.0, 0.0, 0.0, 0.0, 0.0, 0.0, 0.0, 1.6664079476828296E9, 0.0, 2022-10-21 20:05:47.682
71.0, -150769.1324674049, -160442.94511591736, 42759.33417789152, -86763.97344636601, 74253.14328111926, -73463.45614951327, 86239.98150110025, -128286.76441750104, -0.034, 0.9440000000000001, -0.162, 192.0, 0.0, 0.0, 0.0, 0.0, 0.0, 0.0, 0.0, 0.0, 0.0, 1.6664079476828406E9, 0.0, 2022-10-21 20:05:47.682
72.0, -150760.4823423007, -160437.9606769038, 42765.34679714999, -86756.21739104002, 74256.29487708746, -73452.95082961928, 86243.44602149082, -128285.24449887808, -0.034, 0.9440000000000001, -0.162, 192.0, 0.0, 0.0, 0.0, 0.0, 0.0, 0.0, 0.0, 0.0, 0.0, 1.6664079476828516E9, 0.0, 2022-10-21 20:05:47.682
73.0, -150752.99450790818, -160431.07633961158, 42774.22043969875, -86751.38941423767, 74264.65442951374, -73473.64854498488, 86214.27699497665, -128280.95296394265, -0.034, 0.9440000000000001, -0.162, 192.0, 0.0, 0.0, 0.0, 0.0, 0.0, 0.0, 0.0, 0.0, 0.0, 1.6664079476828625E9, 0.0, 2022-10-21 20:05:47.682
74.0, -150759.1412376334, -160435.99372339176, 42771.09119547501, -86763.481707988, 74260.65346725626, -73495.32973710654, 86199.10016049149, -128283.63517327729, -0.034, 0.9440000000000001, -0.162, 192.0, 0.0, 0.0, 0.0, 0.0, 0.0, 0.0, 0.0, 0.0, 0.0, 1.6664079476828735E9, 0.0, 2022-10-21 20:05:47.682
75.0, -150772.66404302884, -160446.7672642192, 42758.663625557856, -86759.16782130812, 74253.2326880971, -73478.67768748733, 86224.69290789282, -128292.39705710376, -0.038, 0.9560000000000001, -0.162, 192.0, 254.0, 208.0, 29.0, 224.0, 250.0, 240.0, 0.0, 0.0, 0.0, 1.6664079476828961E9, 0.0, 2022-10-21 20:05:47.682
76.0, -150775.92739771932, -160451.19290962137, 42756.83078251252, -86763.79463241037, 74247.93532466119, -73464.79725418058, 86233.63360567494, -128296.95681297265, -0.038, 0.9560000000000001, -0.162, 192.0, 0.0, 0.0, 0.0, 0.0, 0.0, 0.0, 0.0, 0.0, 0.0, 1.666407947682908E9, 0.0, 2022-10-21 20:05:47.682
77.0, -150769.80301973858, -160444.84501419606, 42766.285570417116, -86770.23193481349, 74254.1267578753, -73473.89441417389, 86210.74541935271, -128291.10065592536, -0.038, 0.9560000000000001, -0.162, 192.0, 0.0, 0.0, 0.0, 0.0, 0.0, 0.0, 0.0, 0.0, 0.0, 1.6664079476829188E9, 0.0, 2022-10-21 20:05:47.682
78.0, -150768.55132204908, -160443.86153744, 42767.961951251265, -86769.15905107964, 74259.31236258893, -73485.15969337938, 86199.9495267808, -128285.24449887808, -0.038, 0.9560000000000001, -0.162, 192.0, 0.0, 0.0, 0.0, 0.0, 0.0, 0.0, 0.0, 0.0, 0.0, 1.6664079476829298E9, 0.0, 2022-10-21 20:05:47.682
79.0, -150770.85355172798, -160445.60497350752, 42763.782175038126, -86755.36802475071, 74258.15007187726, -73471.16750135036, 86226.19047477133, -128283.16578664373, -0.038, 0.9560000000000001, -0.162, 192.0, 0.0, 0.0, 0.0, 0.0, 0.0, 0.0, 0.0, 0.0, 0.0, 1.6664079476829405E9, 0.0, 2022-10-21 20:05:47.682
80.0, -150772.30641511755, -160448.622459009, 42756.786079023615, -86763.97344636601, 74246.90714441624, -73467.83709142651, 86233.34303299703, -128297.60501356186, -0.038, 0.9560000000000001, -0.162, 192.0, 0.0, 0.0, 0.0, 0.0, 0.0, 0.0, 0.0, 0.0, 0.0, 1.6664079476829517E9, 0.0, 2022-10-21 20:05:47.682
81.0, -150774.42983084082, -160451.3270200881, 42754.01446271115, -86777.85387967275, 74244.73902520406, -73497.22963538524, 86200.32950643654, -128301.62832756381, -0.038, 0.9560000000000001, -0.162, 192.0, 0.0, 0.0, 0.0, 0.0, 0.0, 0.0, 0.0, 0.0, 0.0, 1.6664079476829624E9, 0.0, 2022-10-21 20:05:47.682
82.0, -150766.76318249264, -160444.04035139567, 42763.44689887129, -86769.27080980192, 74259.26765910002, -73499.37540285295, 86193.84750054449, -128287.85965297934, -0.038, 0.9560000000000001, -0.162, 192.0, 0.0, 0.0, 0.0, 0.0, 0.0, 0.0, 0.0, 0.0, 0.0, 1.6664079476829731E9, 0.0, 2022-10-21 20:05:47.682
83.0, -150765.3326708475, -160441.29108682767, 42767.49256461771, -86753.73634740549, 74266.53197604799, -73471.01103913916, 86229.58793992853, -128276.30380109594, -0.038, 0.9560000000000001, -0.162, 192.0, 0.0, 0.0, 0.0, 0.0, 0.0, 0.0, 0.0, 0.0, 0.0, 1.666407947682984E9, 0.0, 2022-10-21 20:05:47.682
84.0, -150763.90215920238, -160437.37953154798, 42770.35358790799, -86738.53716117587, 74272.85751972884, -73441.88671611389, 86263.00379788922, -128268.97242891461, -0.038, 0.9560000000000001, -0.162, 192.0, 0.0, 0.0, 0.0, 0.0, 0.0, 0.0, 0.0, 0.0, 0.0, 1.666407947682995E9, 0.0, 2022-10-21 20:05:47.682
85.0, -150763.2763103576, -160440.68758972737, 42767.15728845087, -86753.40107123865, 74271.78463599499, -73453.2861057861, 86239.73563191124, -128277.15316738524, -0.038, 0.9520000000000001, -0.16, 192.0, 254.0, 208.0, 29.0, 192.0, 251.0, 0.0, 0.0, 0.0, 0.0, 1.666407947683006E9, 0.0, 2022-10-21 20:05:47.683
86.0, -150757.71072598823, -160436.3737030475, 42768.31957916255, -86758.34080676327, 74271.09173191688, -73484.82441721254, 86205.850387317, -128277.30962959644, -0.038, 0.9520000000000001, -0.16, 192.0, 0.0, 0.0, 0.0, 0.0, 0.0, 0.0, 0.0, 0.0, 0.0, 1.6664079476830175E9, 0.0, 2022-10-21 20:05:47.683
87.0, -150764.55035979158, -160440.1734996049, 42763.67041631585, -86745.64501591265, 74273.84099648488, -73471.77099845064, 86224.93877708183, -128269.86649869282, -0.038, 0.9520000000000001, -0.16, 192.0, 0.0, 0.0, 0.0, 0.0, 0.0, 0.0, 0.0, 0.0, 0.0, 1.6664079476830287E9, 0.0, 2022-10-21 20:05:47.683
88.0, -150765.75735399214, -160438.9665054043, 42764.29626516059, -86747.2766932579, 74269.54946154947, -73446.17825104932, 86254.84541116303, -128276.77318772952, -0.038, 0.9520000000000001, -0.16, 192.0, 0.0, 0.0, 0.0, 0.0, 0.0, 0.0, 0.0, 0.0, 0.0, 1.6664079476830397E9, 0.0, 2022-10-21 20:05:47.683
89.0, -150761.9352056903, -160435.6584472249, 42767.09023321751, -86752.95403634955, 74267.38134233729, -73455.87890814291, 86239.82503888906, -128277.82371971892, -0.038, 0.9520000000000001, -0.16, 192.0, 0.0, 0.0, 0.0, 0.0, 0.0, 0.0, 0.0, 0.0, 0.0, 1.6664079476830504E9, 0.0, 2022-10-21 20:05:47.683
90.0, -150759.6329760114, -160436.4631100253, 42770.01831174115, -86753.35636774974, 74271.98580169509, -73477.06836188654, 86212.95824205378, -128271.54287952697, -0.038, 0.9520000000000001, -0.16, 192.0, 0.0, 0.0, 0.0, 0.0, 0.0, 0.0, 0.0, 0.0, 0.0, 1.6664079476830733E9, 0.0, 2022-10-21 20:05:47.683
91.0, -150757.91189168833, -160435.47963326928, 42772.991093753706, -86741.57699842179, 74277.05964768644, -73472.06157112856, 86224.93877708183, -128266.4243300467, -0.038, 0.9520000000000001, -0.16, 192.0, 0.0, 0.0, 0.0, 0.0, 0.0, 0.0, 0.0, 0.0, 0.0, 1.6664079476830842E9, 0.0, 2022-10-21 20:05:47.683
92.0, -150765.06444991403, -160439.6594094824, 42764.78800353861, -86728.43417268207, 74273.63983078478, -73454.35898951995, 86250.48682099424, -128272.50400453854, -0.038, 0.9520000000000001, -0.16, 192.0, 0.0, 0.0, 0.0, 0.0, 0.0, 0.0, 0.0, 0.0, 0.0, 1.6664079476830964E9, 0.0, 2022-10-21 20:05:47.683
93.0, -150764.8409324695, -160442.69924672833, 42760.898800003386, -86726.44486742555, 74278.19958665366, -73447.07232082753, 86246.37410001447, -128278.56132728593, -0.038, 0.9520000000000001, -0.16, 192.0, 0.0, 0.0, 0.0, 0.0, 0.0, 0.0, 0.0, 0.0, 0.0, 1.6664079476831071E9, 0.0, 2022-10-21 20:05:47.683
94.0, -150763.65629001337, -160442.69924672833, 42761.70346280378, -86736.74902161944, 74276.45615058615, -73473.89441417389, 86210.87952981945, -128278.20369937464, -0.038, 0.9520000000000001, -0.16, 192.0, 0.0, 0.0, 0.0, 0.0, 0.0, 0.0, 0.0, 0.0, 0.0, 1.666407947683118E9, 0.0, 2022-10-21 20:05:47.683
95.0, -150763.32101384652, -160441.98399090578, 42763.53630584911, -86725.23787322496, 74279.67480178771, -73485.5396730351, 86209.27020421866, -128272.50400453854, -0.032, 0.9460000000000001, -0.158, 192.0, 255.0, 0.0, 29.0, 144.0, 251.0, 16.0, 0.0, 0.0, 0.0, 1.66640794768313E9, 0.0, 2022-10-21 20:05:47.683
96.0, -150769.9818336942, -160450.09767414303, 42757.36722437945, -86719.60523362222, 74276.4785023306, -73456.08007384301, 86241.63553018995, -128275.54384178447, -0.032, 0.9460000000000001, -0.158, 192.0, 0.0, 0.0, 0.0, 0.0, 0.0, 0.0, 0.0, 0.0, 0.0, 1.6664079476831417E9, 0.0, 2022-10-21 20:05:47.683
97.0, -150776.91087447535, -160456.7361422463, 42749.36529986445, -86737.03959429737, 74267.80602548194, -73451.6320766964, 86239.93679761134, -128281.9811441876, -0.032, 0.9460000000000001, -0.158, 192.0, 0.0, 0.0, 0.0, 0.0, 0.0, 0.0, 0.0, 0.0, 0.0, 1.6664079476831536E9, 0.0, 2022-10-21 20:05:47.683
98.0, -150759.65532775587, -160440.8217001941, 42766.68790181731, -86732.34572796176, 74277.03729594199, -73471.05574262807, 86215.21576824377, -128277.08611215188, -0.032, 0.9460000000000001, -0.158, 192.0, 0.0, 0.0, 0.0, 0.0, 0.0, 0.0, 0.0, 0.0, 0.0, 1.6664079476831617E9, 0.0, 2022-10-21 20:05:47.683
99.0, -150760.81761846752, -160439.63705773797, 42769.347759407494, -86722.60036737924, 74281.59705181087, -73483.30449858958, 86207.41500942886, -128279.6789145087, -0.032, 0.9460000000000001, -0.158, 192.0, 0.0, 0.0, 0.0, 0.0, 0.0, 0.0, 0.0, 0.0, 0.0, 1.6664079476831703E9, 0.0, 2022-10-21 20:05:47.683
100.0, -150767.56784529303, -160443.99564790676, 42765.12327970544, -86708.47406488348, 74278.46780758713, -73464.17140533584, 86235.5558556981, -128275.36502782883, -0.032, 0.9460000000000001, -0.158, 192.0, 0.0, 0.0, 0.0, 0.0, 0.0, 0.0, 0.0, 0.0, 0.0, 1.6664079476831784E9, 0.0, 2022-10-21 20:05:47.683
101.0, -150768.9983569382, -160448.0189619087, 42762.441070370805, -86712.49737888544, 74273.0810371734, -73452.36968426344, 86244.42949824686, -128283.18813838818, -0.032, 0.9460000000000001, -0.158, 192.0, 0.0, 0.0, 0.0, 0.0, 0.0, 0.0, 0.0, 0.0, 0.0, 1.6664079476831868E9, 0.0, 2022-10-21 20:05:47.683
102.0, -150769.02070868263, -160445.98495316328, 42765.68207331682, -86719.82875106679, 74274.64565928528, -73470.29578331659, 86217.85327408949, -128283.70222851065, -0.032, 0.9460000000000001, -0.158, 192.0, 0.0, 0.0, 0.0, 0.0, 0.0, 0.0, 0.0, 0.0, 0.0, 1.666407947683195E9, 0.0, 2022-10-21 20:05:47.683
103.0, -150767.21021738174, -160443.5709647621, 42767.470212873246, -86720.722820845, 74275.94206046368, -73487.75249573619, 86200.7988930701, -128278.8295482194, -0.032, 0.9460000000000001, -0.158, 192.0, 0.0, 0.0, 0.0, 0.0, 0.0, 0.0, 0.0, 0.0, 0.0, 1.6664079476832032E9, 0.0, 2022-10-21 20:05:47.683
104.0, -150765.1315051474, -160442.65454323942, 42769.25835242967, -86703.86960552569, 74282.89345298929, -73460.66218145636, 86233.14186729693, -128270.40294055975, -0.032, 0.9460000000000001, -0.158, 192.0, 0.0, 0.0, 0.0, 0.0, 0.0, 0.0, 0.0, 0.0, 0.0, 1.6664079476832113E9, 0.0, 2022-10-21 20:05:47.683
105.0, -150761.46581905673, -160438.608877493, 42778.288457189614, -86687.64223905114, 74290.60480482636, -73432.90131484286, 86261.10389961052, -128266.08905387987, -0.04, 0.9440000000000001, -0.156, 192.0, 254.0, 192.0, 29.0, 128.0, 251.0, 32.0, 0.0, 0.0, 0.0, 1.6664079476832275E9, 0.0, 2022-10-21 20:05:47.683
106.0, -150766.02557492562, -160442.69924672833, 42772.432300142325, -86706.73062881597, 74281.01590645504, -73457.62234421044, 86227.3974689719, -128280.21535637563, -0.04, 0.9440000000000001, -0.156, 192.0, 0.0, 0.0, 0.0, 0.0, 0.0, 0.0, 0.0, 0.0, 0.0, 1.6664079476832364E9, 0.0, 2022-10-21 20:05:47.683
107.0, -150770.4959238167, -160446.78961596367, 42769.52657336314, -86717.90650104362, 74276.6349645418, -73484.6903067458, 86199.70365759179, -128281.48940580958, -0.04, 0.9440000000000001, -0.156, 192.0, 0.0, 0.0, 0.0, 0.0, 0.0, 0.0, 0.0, 0.0, 0.0, 1.6664079476832452E9, 0.0, 2022-10-21 20:05:47.683
108.0, -150766.6961272593, -160444.08505488458, 42775.96387576627, -86698.52753860087, 74285.64271755728, -73468.68645771581, 86226.5481026826, -128276.05793190694, -0.04, 0.9440000000000001, -0.156, 192.0, 0.0, 0.0, 0.0, 0.0, 0.0, 0.0, 0.0, 0.0, 0.0, 1.6664079476832535E9, 0.0, 2022-10-21 20:05:47.683
109.0, -150776.37443260843, -160451.5728892771, 42767.336102406516, -86700.47214036848, 74279.51833957653, -73447.76522490564, 86247.62579770396, -128282.60699303234, -0.04, 0.9440000000000001, -0.156, 192.0, 0.0, 0.0, 0.0, 0.0, 0.0, 0.0, 0.0, 0.0, 0.0, 1.6664079476832616E9, 0.0, 2022-10-21 20:05:47.683
110.0, -150771.5464558061, -160448.5777555201, 42769.41481464086, -86707.69175382754, 74278.24429014258, -73457.53293723261, 86228.35859398349, -128285.69153376718, -0.04, 0.9440000000000001, -0.156, 192.0, 0.0, 0.0, 0.0, 0.0, 0.0, 0.0, 0.0, 0.0, 0.0, 1.66640794768327E9, 0.0, 2022-10-21 20:05:47.683
111.0, -150767.50079005968, -160446.8119677081, 42771.113547219466, -86723.96382379101, 74273.61747904033, -73488.37834458094, 86196.66382034586, -128286.85382447885, -0.04, 0.9440000000000001, -0.156, 192.0, 0.0, 0.0, 0.0, 0.0, 0.0, 0.0, 0.0, 0.0, 0.0, 1.6664079476832783E9, 0.0, 2022-10-21 20:05:47.683
112.0, -150781.00124371066, -160458.0772469136, 42759.46828835825, -86722.13098074567, 74263.20156612416, -73496.80495224059, 86200.21774771425, -128297.02386820602, -0.04, 0.9440000000000001, -0.156, 192.0, 0.0, 0.0, 0.0, 0.0, 0.0, 0.0, 0.0, 0.0, 0.0, 1.6664079476832871E9, 0.0, 2022-10-21 20:05:47.683
113.0, -150775.2344936412, -160450.0306189097, 42767.98430299572, -86707.15531196063, 74270.42117958322, -73460.48336750071, 86242.23902729024, -128286.58560354539, -0.04, 0.9440000000000001, -0.156, 192.0, 0.0, 0.0, 0.0, 0.0, 0.0, 0.0, 0.0, 0.0, 0.0, 1.6664079476832964E9, 0.0, 2022-10-21 20:05:47.683
114.0, -150770.0935924165, -160446.14141537447, 42774.265143187666, -86710.59748060674, 74273.30455461795, -73455.1860040648, 86238.88626562194, -128284.5739465444, -0.034, 0.9440000000000001, -0.154, 192.0, 254.0, 240.0, 29.0, 128.0, 251.0, 48.0, 0.0, 0.0, 0.0, 1.6664079476833045E9, 0.0, 2022-10-21 20:05:47.683
115.0, -150766.91964470383, -160443.7721304622, 42774.06397748757, -86716.3642306762, 74268.09659815987, -73492.33460334952, 86195.12154997844, -128287.25615587905, -0.034, 0.9440000000000001, -0.154, 192.0, 0.0, 0.0, 0.0, 0.0, 0.0, 0.0, 0.0, 0.0, 0.0, 1.6664079476833131E9, 0.0, 2022-10-21 20:05:47.683
116.0, -150775.8379907415, -160448.8236247091, 42777.43909090031, -86696.73939904445, 74278.95954596515, -73489.31711784806, 86207.45971291777, -128278.13664414128, -0.034, 0.9440000000000001, -0.154, 192.0, 0.0, 0.0, 0.0, 0.0, 0.0, 0.0, 0.0, 0.0, 0.0, 1.6664079476833212E9, 0.0, 2022-10-21 20:05:47.683
117.0, -150776.6873570308, -160448.48834854228, 42772.02996874213, -86691.33027688626, 74280.94885122166, -73456.46005349875, 86246.01647210318, -128284.7304087556, -0.034, 0.9440000000000001, -0.154, 192.0, 0.0, 0.0, 0.0, 0.0, 0.0, 0.0, 0.0, 0.0, 0.0, 1.6664079476833296E9, 0.0, 2022-10-21 20:05:47.683
118.0, -150771.1888278948, -160440.9111071719, 42765.302093661085, -86708.54112011685, 74273.14809240677, -73458.60582096646, 86237.52280921016, -128297.5379583285, -0.034, 0.9440000000000001, -0.154, 192.0, 0.0, 0.0, 0.0, 0.0, 0.0, 0.0, 0.0, 0.0, 0.0, 1.6664079476833377E9, 0.0, 2022-10-21 20:05:47.683
119.0, -150775.5921215525, -160452.28814509968, 42767.246695428694, -86712.69854458554, 74273.4833685736, -73488.26658585866, 86198.7425325802, -128297.51560658403, -0.034, 0.9440000000000001, -0.154, 192.0, 0.0, 0.0, 0.0, 0.0, 0.0, 0.0, 0.0, 0.0, 0.0, 1.666407947683346E9, 0.0, 2022-10-21 20:05:47.683
120.0, -150785.4939443462, -160468.51551157422, 42773.16990770935, -86699.71218105701, 74280.34535412137, -73489.83120797054, 86201.6482593594, -128285.28920236698, -0.034, 0.9440000000000001, -0.154, 192.0, 0.0, 0.0, 0.0, 0.0, 0.0, 0.0, 0.0, 0.0, 0.0, 1.6664079476834505E9, 0.0, 2022-10-21 20:05:47.683
121.0, -150799.35202590848, -160480.76426753573, 42761.36818663695, -86699.15338744562, 74272.11991216183, -73472.15097810638, 86227.57628292755, -128293.91697572672, -0.034, 0.9440000000000001, -0.154, 192.0, 0.0, 0.0, 0.0, 0.0, 0.0, 0.0, 0.0, 0.0, 0.0, 1.66640794816086E9, 0.0, 2022-10-21 20:05:48.160
122.0, -150808.51624113516, -160483.53588384818, 42749.90174173138, -86713.34674517474, 74262.08397890138, -73467.9935536377, 86227.57628292755, -128303.23765316459, -0.034, 0.9440000000000001, -0.154, 192.0, 0.0, 0.0, 0.0, 0.0, 0.0, 0.0, 0.0, 0.0, 0.0, 1.6664079481609468E9, 0.0, 2022-10-21 20:05:48.160
123.0, -150807.10808123447, -160486.17338969393, 42749.11943067544, -86715.5148643869, 74260.87698470081, -73492.17814113834, 86192.595802855, -128304.06466770943, -0.034, 0.9440000000000001, -0.154, 192.0, 0.0, 0.0, 0.0, 0.0, 0.0, 0.0, 0.0, 0.0, 0.0, 1.6664079481609635E9, 0.0, 2022-10-21 20:05:48.160
124.0, -150816.31699995007, -160501.9313695349, 42741.40807883836, -86712.74324807445, 74258.79827246646, -73506.59501631201, 86179.40827362637, -128308.75853404506, -0.032, 0.9420000000000001, -0.148, 192.0, 255.0, 0.0, 29.0, 112.0, 251.0, 96.0, 0.0, 0.0, 0.0, 1.6664079481609793E9, 0.0, 2022-10-21 20:05:48.160
125.0, -150822.86606107547, -160509.3745004385, 42742.302148616574, -86695.15242518812, 74260.60876376733, -73483.75153347869, 86213.15940775388, -128305.09284795438, -0.032, 0.9420000000000001, -0.148, 192.0, 0.0, 0.0, 0.0, 0.0, 0.0, 0.0, 0.0, 0.0, 0.0, 1.666407948160997E9, 0.0, 2022-10-21 20:05:48.160
126.0, -150822.12845350846, -160511.3414539506, 42748.58298880851, -86693.1631199316, 74261.63694401228, -73465.46780651425, 86234.08064056405, -128301.47186535262, -0.032, 0.9420000000000001, -0.148, 192.0, 0.0, 0.0, 0.0, 0.0, 0.0, 0.0, 0.0, 0.0, 0.0, 1.666407948161012E9, 0.0, 2022-10-21 20:05:48.161
127.0, -150824.36362795398, -160510.9838260393, 42748.40417485287, -86697.47700661147, 74259.71469398912, -73493.18396963882, 86198.34020118, -128305.18225493221, -0.032, 0.9420000000000001, -0.148, 192.0, 0.0, 0.0, 0.0, 0.0, 0.0, 0.0, 0.0, 0.0, 0.0, 1.6664079481610274E9, 0.0, 2022-10-21 20:05:48.161
128.0, -150832.23144200223, -160519.85746858807, 42737.45182006977, -86712.98911726345, 74249.00820839504, -73526.26455143269, 86164.74552926369, -128312.11129571334, -0.032, 0.9420000000000001, -0.148, 192.0, 0.0, 0.0, 0.0, 0.0, 0.0, 0.0, 0.0, 0.0, 0.0, 1.6664079481610427E9, 0.0, 2022-10-21 20:05:48.161
129.0, -150838.44522696082, -160529.87105010403, 42736.62480552492, -86701.41091363561, 74249.65640898424, -73505.18685641132, 86191.45586388778, -128313.94413875868, -0.032, 0.9420000000000001, -0.148, 192.0, 0.0, 0.0, 0.0, 0.0, 0.0, 0.0, 0.0, 0.0, 0.0, 1.666407948161058E9, 0.0, 2022-10-21 20:05:48.161
130.0, -150838.3111164941, -160533.38027398352, 42742.21274163875, -86680.89201222564, 74264.52031904702, -73459.09755934449, 86232.851294619, -128302.36593513083, -0.032, 0.9420000000000001, -0.148, 192.0, 0.0, 0.0, 0.0, 0.0, 0.0, 0.0, 0.0, 0.0, 0.0, 1.666407948161073E9, 0.0, 2022-10-21 20:05:48.161
131.0, -150836.34416298202, -160533.58143968362, 42746.303110874076, -86689.3633233742, 74269.12477840482, -73469.87110017193, 86214.72402986576, -128297.80617926196, -0.032, 0.9420000000000001, -0.148, 192.0, 0.0, 0.0, 0.0, 0.0, 0.0, 0.0, 0.0, 0.0, 0.0, 1.6664079481610882E9, 0.0, 2022-10-21 20:05:48.161
132.0, -150842.7144101518, -160539.01291358625, 42740.17873289332, -86708.20584395003, 74258.28418234398, -73506.32679537854, 86176.77076778065, -128305.96456598814, -0.032, 0.9420000000000001, -0.148, 192.0, 0.0, 0.0, 0.0, 0.0, 0.0, 0.0, 0.0, 0.0, 0.0, 1.6664079481611035E9, 0.0, 2022-10-21 20:05:48.161
133.0, -150845.57543344205, -160547.08189333463, 42737.22830262522, -86697.70052405602, 74257.05483639895, -73501.74468776521, 86191.5452708656, -128309.87612126782, -0.032, 0.9420000000000001, -0.148, 192.0, 0.0, 0.0, 0.0, 0.0, 0.0, 0.0, 0.0, 0.0, 0.0, 1.6664079481611197E9, 0.0, 2022-10-21 20:05:48.161
134.0, -150856.9077678809, -160561.0964371081, 42729.96398567724, -86694.54892808782, 74255.22199335361, -73475.95077466378, 86223.68707939233, -128309.56319684544, -0.038, 0.9460000000000001, -0.148, 192.0, 254.0, 208.0, 29.0, 144.0, 251.0, 96.0, 0.0, 0.0, 0.0, 1.6664079481611428E9, 0.0, 2022-10-21 20:05:48.161
135.0, -150864.86498890698, -160568.42780928945, 42724.10782862995, -86708.3176026723, 74248.60587699484, -73482.29867008909, 86200.95535528129, -128322.81778130744, -0.038, 0.9460000000000001, -0.148, 192.0, 0.0, 0.0, 0.0, 0.0, 0.0, 0.0, 0.0, 0.0, 0.0, 1.66640794816122E9, 0.0, 2022-10-21 20:05:48.161
136.0, -150860.84167490504, -160564.4939022653, 42730.478075799714, -86710.2622044399, 74250.773996207, -73504.60571105548, 86172.05454970057, -128314.70409807017, -0.038, 0.9460000000000001, -0.148, 192.0, 0.0, 0.0, 0.0, 0.0, 0.0, 0.0, 0.0, 0.0, 0.0, 1.6664079481612353E9, 0.0, 2022-10-21 20:05:48.161
137.0, -150863.54623598413, -160571.0429633907, 42733.920244445835, -86687.64223905114, 74259.02178991101, -73501.9011499764, 86184.07978821752, -128307.66329856674, -0.038, 0.9460000000000001, -0.148, 192.0, 0.0, 0.0, 0.0, 0.0, 0.0, 0.0, 0.0, 0.0, 0.0, 1.6664079481612506E9, 0.0, 2022-10-21 20:05:48.161
138.0, -150880.3100443256, -160587.71736475438, 42720.12921811691, -86691.82201526428, 74249.96933340661, -73484.19856836779, 86208.44318967381, -128322.10252548488, -0.038, 0.9460000000000001, -0.148, 192.0, 0.0, 0.0, 0.0, 0.0, 0.0, 0.0, 0.0, 0.0, 0.0, 1.6664079481612656E9, 0.0, 2022-10-21 20:05:48.161
139.0, -150883.0146054047, -160589.97489094437, 42713.66956396933, -86705.79185554884, 74243.06264436993, -73486.18787362431, 86197.93786977981, -128327.35518543186, -0.038, 0.9460000000000001, -0.148, 192.0, 0.0, 0.0, 0.0, 0.0, 0.0, 0.0, 0.0, 0.0, 0.0, 1.6664079481612806E9, 0.0, 2022-10-21 20:05:48.161
140.0, -150878.47720128027, -160589.9525391999, 42714.474226769715, -86714.03964925285, 74246.1248333603, -73511.62415881445, 86168.76884326564, -128321.5884353624, -0.038, 0.9460000000000001, -0.148, 192.0, 0.0, 0.0, 0.0, 0.0, 0.0, 0.0, 0.0, 0.0, 0.0, 1.6664079481612957E9, 0.0, 2022-10-21 20:05:48.161
141.0, -150888.7143002408, -160602.89419923953, 42712.57432849101, -86708.20584395003, 74245.38722579328, -73524.54346710962, 86170.46757584425, -128316.3357754154, -0.038, 0.9460000000000001, -0.148, 192.0, 0.0, 0.0, 0.0, 0.0, 0.0, 0.0, 0.0, 0.0, 0.0, 1.6664079481613104E9, 0.0, 2022-10-21 20:05:48.161
142.0, -150889.22839036328, -160602.44716435042, 42713.46839826923, -86689.98917221895, 74252.11510087432, -73491.66405101586, 86210.63366063042, -128318.45919113865, -0.038, 0.9460000000000001, -0.148, 192.0, 0.0, 0.0, 0.0, 0.0, 0.0, 0.0, 0.0, 0.0, 0.0, 1.6664079481613257E9, 0.0, 2022-10-21 20:05:48.161
143.0, -150891.5082682977, -160604.8164492627, 42707.54518598857, -86702.10381771372, 74247.53299326099, -73477.58245200902, 86215.66280313287, -128320.00146150608, -0.038, 0.9440000000000001, -0.15, 192.0, 254.0, 208.0, 29.0, 128.0, 251.0, 80.0, 0.0, 0.0, 0.0, 1.6664079481613405E9, 0.0, 2022-10-21 20:05:48.161
144.0, -150889.42955606338, -160602.17894341695, 42708.34984878896, -86710.2622044399, 74244.35904554834, -73502.61640579897, 86178.2459829147, -128323.19776096319, -0.038, 0.9440000000000001, -0.15, 192.0, 0.0, 0.0, 0.0, 0.0, 0.0, 0.0, 0.0, 0.0, 0.0, 1.6664079481613576E9, 0.0, 2022-10-21 20:05:48.161
145.0, -150890.5694950306, -160605.53170508525, 42713.93778490279, -86694.57127983228, 74258.93238293318, -73504.22573139975, 86179.92236374883, -128317.40865914925, -0.038, 0.9440000000000001, -0.15, 192.0, 0.0, 0.0, 0.0, 0.0, 0.0, 0.0, 0.0, 0.0, 0.0, 1.666407948161373E9, 0.0, 2022-10-21 20:05:48.161
146.0, -150891.48591655327, -160609.33150164265, 42714.31776455853, -86679.01446569139, 74263.29097310198, -73477.13541711992, 86214.94754731031, -128310.27845266802, -0.038, 0.9440000000000001, -0.15, 192.0, 0.0, 0.0, 0.0, 0.0, 0.0, 0.0, 0.0, 0.0, 0.0, 1.6664079481613877E9, 0.0, 2022-10-21 20:05:48.161
147.0, -150905.7686812602, -160621.17792620396, 42696.95045911676, -86706.35064916023, 74245.63309498229, -73475.45903628577, 86212.31004146457, -128327.6457581098, -0.038, 0.9440000000000001, -0.15, 192.0, 0.0, 0.0, 0.0, 0.0, 0.0, 0.0, 0.0, 0.0, 0.0, 1.6664079481614027E9, 0.0, 2022-10-21 20:05:48.161
148.0, -150916.54222208765, -160633.87371705458, 42689.39556949086, -86726.93660580357, 74235.12777508829, -73508.42785935734, 86171.71927353374, -128339.04514778199, -0.038, 0.9440000000000001, -0.15, 192.0, 0.0, 0.0, 0.0, 0.0, 0.0, 0.0, 0.0, 0.0, 0.0, 1.6664079481614177E9, 0.0, 2022-10-21 20:05:48.161
149.0, -150924.4770913693, -160648.29059222827, 42684.79111013307, -86727.31658545931, 74233.00435936503, -73534.06531024758, 86151.75916573514, -128342.35320596138, -0.038, 0.9440000000000001, -0.15, 192.0, 0.0, 0.0, 0.0, 0.0, 0.0, 0.0, 0.0, 0.0, 0.0, 1.6664079481614327E9, 0.0, 2022-10-21 20:05:48.161
150.0, -150910.68606504035, -160631.70559784243, 42705.22060456522, -86695.53240484386, 74249.83522293989, -73491.21701612676, 86202.11764599296, -128314.52528411453, -0.038, 0.9440000000000001, -0.15, 192.0, 0.0, 0.0, 0.0, 0.0, 0.0, 0.0, 0.0, 0.0, 0.0, 1.6664079481614642E9, 0.0, 2022-10-21 20:05:48.161
151.0, -150912.65301855243, -160634.43251066597, 42704.81827316502, -86694.23600366546, 74252.29391482996, -73467.30064955958, 86226.34693698252, -128313.74297305859, -0.038, 0.9440000000000001, -0.15, 192.0, 0.0, 0.0, 0.0, 0.0, 0.0, 0.0, 0.0, 0.0, 0.0, 1.6664079481614792E9, 0.0, 2022-10-21 20:05:48.161
152.0, -150917.74921628824, -160639.72987410187, 42698.78330216209, -86713.7714283194, 74240.04515886845, -73495.53090280664, 86187.65606733038, -128326.34935693139, -0.038, 0.9440000000000001, -0.15, 192.0, 0.0, 0.0, 0.0, 0.0, 0.0, 0.0, 0.0, 0.0, 0.0, 1.6664079481614938E9, 0.0, 2022-10-21 20:05:48.161
153.0, -150916.36340813202, -160638.43347292347, 42703.432465008795, -86708.7646375614, 74246.79538569396, -73512.54058033712, 86169.66291304385, -128322.12487722933, -0.044, 0.9460000000000001, -0.152, 192.0, 254.0, 160.0, 29.0, 144.0, 251.0, 64.0, 0.0, 0.0, 0.0, 1.6664079481615086E9, 0.0, 2022-10-21 20:05:48.161
154.0, -150918.15154768844, -160637.42764442298, 42704.125369086905, -86696.53823334436, 74247.8235659389, -73495.3967923399, 86194.16042496687, -128317.94510101619, -0.044, 0.9460000000000001, -0.152, 192.0, 0.0, 0.0, 0.0, 0.0, 0.0, 0.0, 0.0, 0.0, 0.0, 1.6664079481615264E9, 0.0, 2022-10-21 20:05:48.161
155.0, -150919.4255971224, -160637.78527233427, 42709.06510461153, -86686.0105617059, 74256.54074627647, -73454.7836726646, 86229.0962015505, -128314.07824922542, -0.044, 0.9460000000000001, -0.152, 192.0, 0.0, 0.0, 0.0, 0.0, 0.0, 0.0, 0.0, 0.0, 0.0, 1.6664079481615412E9, 0.0, 2022-10-21 20:05:48.161
156.0, -150917.34688488804, -160635.5053943998, 42711.14381684588, -86694.34776238773, 74256.58544976538, -73464.68549545831, 86208.04085827361, -128315.03937423699, -0.044, 0.9460000000000001, -0.152, 192.0, 0.0, 0.0, 0.0, 0.0, 0.0, 0.0, 0.0, 0.0, 0.0, 1.666407948161558E9, 0.0, 2022-10-21 20:05:48.161
157.0, -150939.31864968763, -160654.99611556483, 42686.713360156224, -86735.76554486342, 74230.79153666396, -73521.7494990527, 86151.53564829059, -128338.37459544833, -0.044, 0.9460000000000001, -0.152, 192.0, 0.0, 0.0, 0.0, 0.0, 0.0, 0.0, 0.0, 0.0, 0.0, 1.666407948161573E9, 0.0, 2022-10-21 20:05:48.161
158.0, -150946.6723736134, -160668.29540351575, 42677.54914492955, -86733.97740530699, 74223.21429529361, -73525.92927526585, 86158.04000592709, -128347.44940369719, -0.044, 0.9460000000000001, -0.152, 192.0, 0.0, 0.0, 0.0, 0.0, 0.0, 0.0, 0.0, 0.0, 0.0, 1.666407948161588E9, 0.0, 2022-10-21 20:05:48.161
159.0, -150943.36431543404, -160670.59763319464, 42682.57828743199, -86718.2641289549, 74233.42904250968, -73489.0488969146, 86200.46361690326, -128337.50287741458, -0.044, 0.9460000000000001, -0.152, 192.0, 0.0, 0.0, 0.0, 0.0, 0.0, 0.0, 0.0, 0.0, 0.0, 1.6664079481616027E9, 0.0, 2022-10-21 20:05:48.161
160.0, -150942.69376310037, -160669.86002562763, 42685.43931072227, -86725.72961160298, 74232.51262098702, -73494.25685337267, 86186.40436964088, -128336.72056635864, -0.044, 0.9460000000000001, -0.152, 192.0, 0.0, 0.0, 0.0, 0.0, 0.0, 0.0, 0.0, 0.0, 0.0, 1.6664079481616175E9, 0.0, 2022-10-21 20:05:48.161
161.0, -150939.2292427098, -160665.21086278092, 42685.461662466725, -86729.08237327127, 74239.59812397935, -73517.5026676062, 86153.36849133593, -128335.46886866915, -0.044, 0.9460000000000001, -0.152, 192.0, 0.0, 0.0, 0.0, 0.0, 0.0, 0.0, 0.0, 0.0, 0.0, 1.6664079481616325E9, 0.0, 2022-10-21 20:05:48.161
162.0, -150935.76472231923, -160659.913499345, 42683.584115932485, -86720.09697200025, 74243.08499611438, -73515.02162397165, 86164.65612228586, -128333.47956341262, -0.044, 0.9460000000000001, -0.152, 192.0, 0.0, 0.0, 0.0, 0.0, 0.0, 0.0, 0.0, 0.0, 0.0, 1.666407948161647E9, 0.0, 2022-10-21 20:05:48.161
163.0, -150944.50425440125, -160669.90472911653, 42678.28675249658, -86709.09991372823, 74238.99462687905, -73485.87494920194, 86199.88247154743, -128336.541752403, -0.042, 0.9520000000000001, -0.158, 192.0, 254.0, 176.0, 29.0, 192.0, 251.0, 16.0, 0.0, 0.0, 0.0, 1.6664079481616623E9, 0.0, 2022-10-21 20:05:48.161
164.0, -150952.9755655498, -160681.57233972222, 42674.911639083824, -86729.39529769366, 74227.61758895131, -73492.66987951635, 86188.05839873057, -128343.51549667306, -0.042, 0.9520000000000001, -0.158, 192.0, 0.0, 0.0, 0.0, 0.0, 0.0, 0.0, 0.0, 0.0, 0.0, 1.6664079481616783E9, 0.0, 2022-10-21 20:05:48.161
165.0, -150955.1213330175, -160682.53346473377, 42674.30814198353, -86741.6217019107, 74229.87511514129, -73520.96718799678, 86153.83787796949, -128344.52132517354, -0.042, 0.9520000000000001, -0.158, 192.0, 0.0, 0.0, 0.0, 0.0, 0.0, 0.0, 0.0, 0.0, 0.0, 1.6664079481617067E9, 0.0, 2022-10-21 20:05:48.161
166.0, -150955.99305105128, -160680.18653156597, 42670.240124492666, -86732.47983842848, 74232.06558609792, -73529.14792646741, 86151.87092445743, -128345.32598797393, -0.042, 0.9520000000000001, -0.158, 192.0, 0.0, 0.0, 0.0, 0.0, 0.0, 0.0, 0.0, 0.0, 0.0, 1.6664079481617224E9, 0.0, 2022-10-21 20:05:48.161
167.0, -150950.13689400398, -160675.85029314164, 42666.32856921299, -86723.31562320181, 74228.86928664081, -73505.43272560033, 86182.93984925031, -128349.37165372034, -0.042, 0.9520000000000001, -0.158, 192.0, 0.0, 0.0, 0.0, 0.0, 0.0, 0.0, 0.0, 0.0, 0.0, 1.6664079481617372E9, 0.0, 2022-10-21 20:05:48.161
168.0, -150953.19908299437, -160681.57233972222, 42665.03216803457, -86731.89869307265, 74229.29396978546, -73490.7476294932, 86192.32758192153, -128349.17048802025, -0.042, 0.9520000000000001, -0.158, 192.0, 0.0, 0.0, 0.0, 0.0, 0.0, 0.0, 0.0, 0.0, 0.0, 1.6664079481617525E9, 0.0, 2022-10-21 20:05:48.161
169.0, -150954.60724289506, -160687.49555200286, 42671.40241520434, -86738.15718152013, 74232.15499307573, -73512.47352510375, 86162.66681702934, -128348.38817696432, -0.042, 0.9520000000000001, -0.158, 192.0, 0.0, 0.0, 0.0, 0.0, 0.0, 0.0, 0.0, 0.0, 0.0, 1.6664079481617675E9, 0.0, 2022-10-21 20:05:48.161
170.0, -150966.632481412, -160700.23604634238, 42656.49380165265, -86753.08814681628, 74217.62635917978, -73548.10220576552, 86133.81071493754, -128362.55918294897, -0.042, 0.9520000000000001, -0.158, 192.0, 0.0, 0.0, 0.0, 0.0, 0.0, 0.0, 0.0, 0.0, 0.0, 1.6664079481617827E9, 0.0, 2022-10-21 20:05:48.161
171.0, -150966.85599885657, -160700.83954344268, 42656.98554003066, -86739.99002456547, 74220.04034758096, -73515.02162397165, 86171.62986655592, -128357.3512264909, -0.042, 0.9520000000000001, -0.158, 192.0, 0.0, 0.0, 0.0, 0.0, 0.0, 0.0, 0.0, 0.0, 0.0, 1.666407948161798E9, 0.0, 2022-10-21 20:05:48.161
172.0, -150962.31859473212, -160694.64811022856, 42662.50642091113, -86735.11734427421, 74225.40476625023, -73489.31711784806, 86193.57927961103, -128352.63500841083, -0.042, 0.9480000000000001, -0.158, 192.0, 254.0, 176.0, 29.0, 160.0, 251.0, 16.0, 0.0, 0.0, 0.0, 1.6664079481618128E9, 0.0, 2022-10-21 20:05:48.161
173.0, -150949.5333969037, -160681.75115367785, 42667.60261864694, -86739.47593444299, 74229.0704523409, -73512.20530417029, 86167.29362813159, -128345.10247052938, -0.042, 0.9480000000000001, -0.158, 192.0, 0.0, 0.0, 0.0, 0.0, 0.0, 0.0, 0.0, 0.0, 0.0, 1.6664079481618292E9, 0.0, 2022-10-21 20:05:48.161
174.0, -150949.10871375905, -160680.29829028825, 42665.30038896804, -86741.01820481042, 74227.61758895131, -73539.74265333923, 86143.5337237756, -128344.90130482928, -0.042, 0.9480000000000001, -0.158, 192.0, 0.0, 0.0, 0.0, 0.0, 0.0, 0.0, 0.0, 0.0, 0.0, 1.666407948161844E9, 0.0, 2022-10-21 20:05:48.161
175.0, -150957.2223969963, -160692.03295612728, 42665.43449943477, -86726.4225156811, 74227.70699592913, -73524.4093566429, 86169.48409908821, -128344.96836006264, -0.042, 0.9480000000000001, -0.158, 192.0, 0.0, 0.0, 0.0, 0.0, 0.0, 0.0, 0.0, 0.0, 0.0, 1.6664079481618593E9, 0.0, 2022-10-21 20:05:48.161
176.0, -150960.44104819788, -160696.05627012925, 42667.75908085812, -86710.73159107348, 74237.83233616738, -73485.87494920194, 86206.36447743946, -128334.91007505776, -0.042, 0.9480000000000001, -0.158, 192.0, 0.0, 0.0, 0.0, 0.0, 0.0, 0.0, 0.0, 0.0, 0.0, 1.6664079481618743E9, 0.0, 2022-10-21 20:05:48.161
177.0, -150966.61012966753, -160699.69960447546, 42660.24889472114, -86716.90067254314, 74239.5757722349, -73494.3015568616, 86185.97968649623, -128346.30946472997, -0.042, 0.9480000000000001, -0.158, 192.0, 0.0, 0.0, 0.0, 0.0, 0.0, 0.0, 0.0, 0.0, 0.0, 1.6664079481618905E9, 0.0, 2022-10-21 20:05:48.161
178.0, -150962.7879813657, -160696.54800850726, 42656.13617374136, -86743.9239315896, 74227.77405116249, -73530.06434799008, 86147.95936917776, -128355.2501625121, -0.042, 0.9480000000000001, -0.158, 192.0, 0.0, 0.0, 0.0, 0.0, 0.0, 0.0, 0.0, 0.0, 0.0, 1.6664079481619058E9, 0.0, 2022-10-21 20:05:48.161
179.0, -150971.86278961453, -160704.99696791137, 42648.894208537844, -86736.41374545262, 74222.70020517113, -73528.11974622247, 86161.19160189529, -128355.31721774545, -0.042, 0.9480000000000001, -0.158, 192.0, 0.0, 0.0, 0.0, 0.0, 0.0, 0.0, 0.0, 0.0, 0.0, 1.6664079481619208E9, 0.0, 2022-10-21 20:05:48.161
180.0, -150982.5916269531, -160715.0329011718, 42644.15563871332, -86729.32824246028, 74221.94024585966, -73497.0508214296, 86189.84653828699, -128356.47950845714, -0.042, 0.9480000000000001, -0.158, 192.0, 0.0, 0.0, 0.0, 0.0, 0.0, 0.0, 0.0, 0.0, 0.0, 1.6664079481619487E9, 0.0, 2022-10-21 20:05:48.161
181.0, -150979.7306036628, -160711.9260086925, 42645.04970849153, -86739.02889955389, 74217.89458011325, -73509.25487390219, 86170.62403805544, -128362.53683120452, -0.042, 0.9480000000000001, -0.158, 192.0, 0.0, 0.0, 0.0, 0.0, 0.0, 0.0, 0.0, 0.0, 0.0, 1.6664079481619625E9, 0.0, 2022-10-21 20:05:48.161
182.0, -150976.75782165024, -160707.1203836346, 42651.24114170565, -86741.84521935525, 74222.18611504867, -73539.65324636141, 86142.34908131947, -128356.25599101259, -0.042, 0.9460000000000001, -0.156, 192.0, 254.0, 176.0, 29.0, 144.0, 251.0, 32.0, 0.0, 0.0, 0.0, 1.666407948161971E9, 0.0, 2022-10-21 20:05:48.161
183.0, -150972.82391462612, -160700.63837774258, 42649.7659265716, -86735.81024835233, 74225.29300752796, -73532.36657766897, 86158.7329100052, -128350.17631652074, -0.042, 0.9460000000000001, -0.156, 192.0, 0.0, 0.0, 0.0, 0.0, 0.0, 0.0, 0.0, 0.0, 0.0, 1.6664079481619804E9, 0.0, 2022-10-21 20:05:48.161
184.0, -150972.9356733484, -160702.44886904347, 42647.642510848345, -86734.69266112956, 74224.51069647202, -73497.98959469672, 86193.82514880004, -128349.50576418708, -0.042, 0.9460000000000001, -0.156, 192.0, 0.0, 0.0, 0.0, 0.0, 0.0, 0.0, 0.0, 0.0, 0.0, 1.6664079481619892E9, 0.0, 2022-10-21 20:05:48.161
185.0, -150982.61397869754, -160711.8813052036, 42647.19547595924, -86742.91810308912, 74221.73908015956, -73493.9439289503, 86184.66093357337, -128357.82061312445, -0.042, 0.9460000000000001, -0.156, 192.0, 0.0, 0.0, 0.0, 0.0, 0.0, 0.0, 0.0, 0.0, 0.0, 1.666407948161998E9, 0.0, 2022-10-21 20:05:48.161
186.0, -150979.90941761844, -160710.7860697253, 42655.08564175197, -86736.36904196371, 74229.22691455208, -73518.97788274025, 86157.28004661562, -128349.57281942044, -0.042, 0.9460000000000001, -0.156, 192.0, 0.0, 0.0, 0.0, 0.0, 0.0, 0.0, 0.0, 0.0, 0.0, 1.6664079481620064E9, 0.0, 2022-10-21 20:05:48.162
187.0, -150981.71990891933, -160712.0824709037, 42651.0176242611, -86727.49539941495, 74228.22108605159, -73530.82430730156, 86158.97877919422, -128345.77302286304, -0.042, 0.9460000000000001, -0.156, 192.0, 0.0, 0.0, 0.0, 0.0, 0.0, 0.0, 0.0, 0.0, 0.0, 1.666407948162015E9, 0.0, 2022-10-21 20:05:48.162
188.0, -150987.35254852206, -160717.06690991722, 42638.075964221476, -86737.10664953073, 74216.19584753465, -73508.56196982408, 86187.03021848563, -128358.4017584803, -0.042, 0.9460000000000001, -0.156, 192.0, 0.0, 0.0, 0.0, 0.0, 0.0, 0.0, 0.0, 0.0, 0.0, 1.6664079481620235E9, 0.0, 2022-10-21 20:05:48.162
189.0, -150984.62563569853, -160716.82104072822, 42639.43942063325, -86745.64501591265, 74214.1171353003, -73498.5036848192, 86187.07492197453, -128361.28513351502, -0.042, 0.9460000000000001, -0.156, 192.0, 0.0, 0.0, 0.0, 0.0, 0.0, 0.0, 0.0, 0.0, 0.0, 1.6664079481620324E9, 0.0, 2022-10-21 20:05:48.162
190.0, -150980.55761820765, -160715.2787703608, 42646.949606770235, -86749.71303340353, 74218.60983593581, -73525.97397875476, 86153.41319482484, -128357.73120614664, -0.042, 0.9460000000000001, -0.156, 192.0, 0.0, 0.0, 0.0, 0.0, 0.0, 0.0, 0.0, 0.0, 0.0, 1.6664079481620412E9, 0.0, 2022-10-21 20:05:48.162
191.0, -150982.16694380844, -160715.5916947832, 42652.02345276159, -86747.25434151344, 74222.61079819332, -73537.08279574905, 86149.23341861171, -128357.41828172425, -0.042, 0.9460000000000001, -0.156, 192.0, 0.0, 0.0, 0.0, 0.0, 0.0, 0.0, 0.0, 0.0, 0.0, 1.6664079481620495E9, 0.0, 2022-10-21 20:05:48.162
192.0, -150993.09694684707, -160727.77339551132, 42643.462734635206, -86737.37487046419, 74221.49321097056, -73513.41229837088, 86183.49864286168, -128357.10535730189, -0.044, 0.9420000000000001, -0.158, 192.0, 254.0, 160.0, 29.0, 112.0, 251.0, 16.0, 0.0, 0.0, 0.0, 1.6664079481620584E9, 0.0, 2022-10-21 20:05:48.162
193.0, -150990.37003402354, -160725.15824141007, 42641.04874623403, -86746.78495487988, 74211.54668468794, -73507.55614132358, 86187.70077081928, -128357.61944742435, -0.044, 0.9420000000000001, -0.158, 192.0, 0.0, 0.0, 0.0, 0.0, 0.0, 0.0, 0.0, 0.0, 0.0, 1.6664079481620677E9, 0.0, 2022-10-21 20:05:48.162
194.0, -150982.97160660883, -160718.45271807347, 42648.04484224854, -86749.28835025888, 74215.5699986899, -73529.32674042306, 86156.05070067057, -128357.46298521316, -0.044, 0.9420000000000001, -0.158, 192.0, 0.0, 0.0, 0.0, 0.0, 0.0, 0.0, 0.0, 0.0, 0.0, 1.6664079481620765E9, 0.0, 2022-10-21 20:05:48.162
195.0, -150978.07657457312, -160711.16604938105, 42648.08954573746, -86746.82965836879, 74225.44946973913, -73534.53469688115, 86146.32769183251, -128352.52324968854, -0.044, 0.9420000000000001, -0.158, 192.0, 0.0, 0.0, 0.0, 0.0, 0.0, 0.0, 0.0, 0.0, 0.0, 1.6664079481620927E9, 0.0, 2022-10-21 20:05:48.162
196.0, -150971.77338263672, -160702.672386488, 42655.35386268543, -86722.15333249014, 74240.17926933519, -73496.49202781821, 86193.08754123302, -128338.93338905972, -0.044, 0.9420000000000001, -0.158, 192.0, 0.0, 0.0, 0.0, 0.0, 0.0, 0.0, 0.0, 0.0, 0.0, 1.6664079481621013E9, 0.0, 2022-10-21 20:05:48.162
197.0, -150972.0863070591, -160705.51105803385, 42660.33830169896, -86719.58288187777, 74237.05002511144, -73476.80014095308, 86214.03112578763, -128334.93242680222, -0.044, 0.9420000000000001, -0.158, 192.0, 0.0, 0.0, 0.0, 0.0, 0.0, 0.0, 0.0, 0.0, 0.0, 1.66640794816211E9, 0.0, 2022-10-21 20:05:48.162
198.0, -150979.149458307, -160714.2282383714, 42655.130345240876, -86738.04542279786, 74230.99270236406, -73503.48812383272, 86177.35191313647, -128341.83911583891, -0.044, 0.9420000000000001, -0.158, 192.0, 0.0, 0.0, 0.0, 0.0, 0.0, 0.0, 0.0, 0.0, 0.0, 1.6664079481621192E9, 0.0, 2022-10-21 20:05:48.162
199.0, -150982.144592064, -160717.1339651506, 42652.58224637297, -86748.23781826948, 74229.00339710753, -73528.38796715594, 86149.50163954517, -128342.53201991702, -0.044, 0.9420000000000001, -0.158, 192.0, 0.0, 0.0, 0.0, 0.0, 0.0, 0.0, 0.0, 0.0, 0.0, 1.666407948162128E9, 0.0, 2022-10-21 20:05:48.162
200.0, -150991.42056601294, -160725.71703502143, 42639.99821424463, -86747.25434151344, 74219.54860920295, -73528.23150494475, 86161.2810088731, -128356.88183985733, -0.044, 0.9420000000000001, -0.158, 192.0, 0.0, 0.0, 0.0, 0.0, 0.0, 0.0, 0.0, 0.0, 0.0, 1.6664079481621366E9, 0.0, 2022-10-21 20:05:48.162
201.0, -150994.57216198114, -160733.27192464733, 42631.72806879617, -86746.09205080176, 74214.78768763396, -73511.06536520307, 86182.40340738338, -128365.30844751697, -0.044, 0.9420000000000001, -0.158, 192.0, 0.0, 0.0, 0.0, 0.0, 0.0, 0.0, 0.0, 0.0, 0.0, 1.6664079481621451E9, 0.0, 2022-10-21 20:05:48.162
202.0, -150991.6887869464, -160734.92595373702, 42634.34322289744, -86755.99387359546, 74216.55347544592, -73514.66399606038, 86163.51618331864, -128366.8507178844, -0.042, 0.9460000000000001, -0.156, 192.0, 254.0, 176.0, 29.0, 144.0, 251.0, 32.0, 0.0, 0.0, 0.0, 1.666407948162154E9, 0.0, 2022-10-21 20:05:48.162
203.0, -150991.91230439095, -160731.90846823555, 42635.34905139793, -86762.8782108877, 74217.58165569087, -73536.61340911548, 86137.1858283503, -128360.18989803671, -0.042, 0.9460000000000001, -0.156, 192.0, 0.0, 0.0, 0.0, 0.0, 0.0, 0.0, 0.0, 0.0, 0.0, 1.6664079481621633E9, 0.0, 2022-10-21 20:05:48.162
204.0, -150990.28062704572, -160725.11353792113, 42642.121629967885, -86742.06873679982, 74224.82362089439, -73531.4054526574, 86156.92241870433, -128352.12091828835, -0.042, 0.9460000000000001, -0.156, 192.0, 0.0, 0.0, 0.0, 0.0, 0.0, 0.0, 0.0, 0.0, 0.0, 1.6664079481621716E9, 0.0, 2022-10-21 20:05:48.162
205.0, -150999.26602831675, -160731.3943781131, 42639.68528982226, -86735.13969601867, 74231.84206865336, -73493.18396963882, 86196.28384069013, -128348.27641824204, -0.042, 0.9460000000000001, -0.156, 192.0, 0.0, 0.0, 0.0, 0.0, 0.0, 0.0, 0.0, 0.0, 0.0, 1.6664079481621804E9, 0.0, 2022-10-21 20:05:48.162
206.0, -150996.18148758193, -160726.8346222442, 42645.80966780301, -86743.81217286733, 74235.26188555502, -73488.98184168123, 86188.97482025324, -128343.80606935098, -0.042, 0.9460000000000001, -0.156, 192.0, 0.0, 0.0, 0.0, 0.0, 0.0, 0.0, 0.0, 0.0, 0.0, 1.666407948162189E9, 0.0, 2022-10-21 20:05:48.162
207.0, -150996.18148758193, -160726.3428838662, 42648.24600794864, -86747.25434151344, 74237.80998442293, -73517.77088853966, 86157.32475010453, -128343.47079318414, -0.042, 0.9460000000000001, -0.156, 192.0, 0.0, 0.0, 0.0, 0.0, 0.0, 0.0, 0.0, 0.0, 0.0, 1.6664079481621978E9, 0.0, 2022-10-21 20:05:48.162
208.0, -150997.29907480467, -160729.2933141343, 42646.793144559044, -86738.13482977568, 74236.75945243353, -73523.3588246535, 86158.88937221639, -128350.93627583222, -0.042, 0.9460000000000001, -0.156, 192.0, 0.0, 0.0, 0.0, 0.0, 0.0, 0.0, 0.0, 0.0, 0.0, 1.6664079481622066E9, 0.0, 2022-10-21 20:05:48.162
209.0, -151000.94240915088, -160735.82002351523, 42645.31792942499, -86732.3233762173, 74236.49123150007, -73493.6980597613, 86192.01465749915, -128347.8964385863, -0.042, 0.9460000000000001, -0.156, 192.0, 0.0, 0.0, 0.0, 0.0, 0.0, 0.0, 0.0, 0.0, 0.0, 1.6664079481622152E9, 0.0, 2022-10-21 20:05:48.162
210.0, -150999.53424925022, -160734.9483054815, 42646.63668234786, -86732.07750702828, 74237.40765302273, -73485.7408387352, 86192.17111971034, -128344.45426994018, -0.042, 0.9460000000000001, -0.156, 192.0, 0.0, 0.0, 0.0, 0.0, 0.0, 0.0, 0.0, 0.0, 0.0, 1.6664079481622312E9, 0.0, 2022-10-21 20:05:48.162
211.0, -151003.22228708534, -160736.7364450379, 42635.14788569783, -86763.34759752126, 74222.74490866005, -73522.8000310421, 86146.4841540437, -128359.83227012544, -0.038, 0.9460000000000001, -0.156, 192.0, 254.0, 208.0, 29.0, 144.0, 251.0, 32.0, 0.0, 0.0, 0.0, 1.6664079481622403E9, 0.0, 2022-10-21 20:05:48.162
212.0, -151000.38361553953, -160730.92499147952, 42636.176065942775, -86761.06771958682, 74223.39310924926, -73532.858316047, 86145.61243600993, -128355.20545902319, -0.038, 0.9460000000000001, -0.156, 192.0, 0.0, 0.0, 0.0, 0.0, 0.0, 0.0, 0.0, 0.0, 0.0, 1.66640794816225E9, 0.0, 2022-10-21 20:05:48.162
213.0, -150995.6897492039, -160726.6334565441, 42642.65807183481, -86738.6712716426, 74235.1724785772, -73491.44053357131, 86194.40629415588, -128343.62725539533, -0.038, 0.9460000000000001, -0.156, 192.0, 0.0, 0.0, 0.0, 0.0, 0.0, 0.0, 0.0, 0.0, 0.0, 1.6664079481622589E9, 0.0, 2022-10-21 20:05:48.162
214.0, -151001.23298182883, -160732.0872821912, 42646.23435094766, -86744.3709664787, 74232.95965587613, -73483.1927398673, 86200.6424308589, -128338.53105765952, -0.038, 0.9460000000000001, -0.156, 192.0, 0.0, 0.0, 0.0, 0.0, 0.0, 0.0, 0.0, 0.0, 0.0, 1.6664079481622674E9, 0.0, 2022-10-21 20:05:48.162
215.0, -151002.99876964078, -160735.1494711816, 42651.50936263912, -86750.16006829264, 74234.27840879899, -73510.30540589159, 86167.9418287208, -128336.20647623617, -0.038, 0.9460000000000001, -0.156, 192.0, 0.0, 0.0, 0.0, 0.0, 0.0, 0.0, 0.0, 0.0, 0.0, 1.6664079481622763E9, 0.0, 2022-10-21 20:05:48.162
216.0, -150999.42249052794, -160731.3943781131, 42655.44326966325, -86739.49828618745, 74242.43679552518, -73517.5473710951, 86164.32084611904, -128327.37753717632, -0.038, 0.9460000000000001, -0.156, 192.0, 0.0, 0.0, 0.0, 0.0, 0.0, 0.0, 0.0, 0.0, 0.0, 1.6664079481622849E9, 0.0, 2022-10-21 20:05:48.162
217.0, -151004.42928128593, -160733.27192464733, 42649.251836449126, -86730.98227154998, 74235.91008614423, -73501.00708019818, 86191.18764295432, -128343.69431062869, -0.038, 0.9460000000000001, -0.156, 192.0, 0.0, 0.0, 0.0, 0.0, 0.0, 0.0, 0.0, 0.0, 0.0, 1.666407948162294E9, 0.0, 2022-10-21 20:05:48.162
218.0, -151015.62750525805, -160744.78307304182, 42637.42776363227, -86750.24947527045, 74220.75560340352, -73492.17814113834, 86192.28287843263, -128354.93723808971, -0.038, 0.9460000000000001, -0.156, 192.0, 0.0, 0.0, 0.0, 0.0, 0.0, 0.0, 0.0, 0.0, 0.0, 1.6664079481623025E9, 0.0, 2022-10-21 20:05:48.162
219.0, -151016.9462581809, -160750.86274753365, 42635.63962407585, -86765.80628941135, 74217.7157661576, -73514.26166466018, 86158.12941290492, -128362.80505213799, -0.038, 0.9460000000000001, -0.156, 192.0, 0.0, 0.0, 0.0, 0.0, 0.0, 0.0, 0.0, 0.0, 0.0, 1.6664079481623113E9, 0.0, 2022-10-21 20:05:48.162
220.0, -151009.05609238817, -160746.25828817586, 42644.423859646784, -86754.11632706122, 74229.29396978546, -73530.5560863681, 86144.94188367628, -128354.37844447834, -0.038, 0.9460000000000001, -0.156, 192.0, 0.0, 0.0, 0.0, 0.0, 0.0, 0.0, 0.0, 0.0, 0.0, 1.6664079481623209E9, 0.0, 2022-10-21 20:05:48.162
221.0, -151006.39623479798, -160739.3515991392, 42647.642510848345, -86731.11638201671, 74240.51454550202, -73497.11787666296, 86185.37618939593, -128342.19674375019, -0.03, 0.9400000000000001, -0.156, 192.0, 255.0, 16.0, 29.0, 96.0, 251.0, 32.0, 0.0, 0.0, 0.0, 1.6664079481623294E9, 0.0, 2022-10-21 20:05:48.162
222.0, -151002.55173475167, -160731.5508403243, 42652.179914972774, -86729.06002152682, 74244.20258333714, -73470.58635599451, 86212.26533797567, -128331.80318257847, -0.03, 0.9400000000000001, -0.156, 192.0, 0.0, 0.0, 0.0, 0.0, 0.0, 0.0, 0.0, 0.0, 0.0, 1.6664079481623387E9, 0.0, 2022-10-21 20:05:48.162
223.0, -151009.21255459936, -160736.46822410444, 42647.016662003596, -86749.3777572367, 74236.60299022234, -73492.4016585829, 86181.95637249427, -128341.95087456118, -0.03, 0.9400000000000001, -0.156, 192.0, 0.0, 0.0, 0.0, 0.0, 0.0, 0.0, 0.0, 0.0, 0.0, 1.666407948162349E9, 0.0, 2022-10-21 20:05:48.162
224.0, -151005.61392374206, -160732.1319856801, 42646.21199920321, -86754.20573403905, 74236.04419661095, -73520.83307753004, 86155.08957565899, -128340.27449372703, -0.03, 0.9400000000000001, -0.156, 192.0, 0.0, 0.0, 0.0, 0.0, 0.0, 0.0, 0.0, 0.0, 0.0, 1.6664079481623576E9, 0.0, 2022-10-21 20:05:48.162
225.0, -151010.33014182214, -160737.00466597136, 42643.507438124114, -86744.63918741218, 74234.50192624354, -73508.38315586843, 86177.48602360321, -128333.36780469035, -0.03, 0.9400000000000001, -0.156, 192.0, 0.0, 0.0, 0.0, 0.0, 0.0, 0.0, 0.0, 0.0, 0.0, 1.6664079481623664E9, 0.0, 2022-10-21 20:05:48.162
226.0, -151026.33399085212, -160753.03086674583, 42631.348089140425, -86748.64014966968, 74223.68368192717, -73494.5027225617, 86193.26635518865, -128356.47950845714, -0.03, 0.9400000000000001, -0.156, 192.0, 0.0, 0.0, 0.0, 0.0, 0.0, 0.0, 0.0, 0.0, 0.0, 1.666407948162383E9, 0.0, 2022-10-21 20:05:48.162
227.0, -151019.2484878598, -160748.76168355485, 42637.27130142108, -86755.5244869619, 74225.36006276132, -73504.51630407767, 86176.07786370252, -128353.01498806656, -0.03, 0.9400000000000001, -0.156, 192.0, 0.0, 0.0, 0.0, 0.0, 0.0, 0.0, 0.0, 0.0, 0.0, 1.6664079481623917E9, 0.0, 2022-10-21 20:05:48.162
228.0, -151010.73247322234, -160739.3963026281, 42647.217827703695, -86740.16883852112, 74240.8721734133, -73523.58234209805, 86154.26256111414, -128342.42026119474, -0.03, 0.9400000000000001, -0.156, 192.0, 0.0, 0.0, 0.0, 0.0, 0.0, 0.0, 0.0, 0.0, 0.0, 1.6664079481624007E9, 0.0, 2022-10-21 20:05:48.162
229.0, -151017.01331341427, -160747.86761377665, 42642.188685201254, -86742.11344028873, 74244.2696385705, -73502.39288835441, 86174.80381426857, -128338.37459544833, -0.03, 0.9400000000000001, -0.156, 192.0, 0.0, 0.0, 0.0, 0.0, 0.0, 0.0, 0.0, 0.0, 0.0, 1.6664079481624095E9, 0.0, 2022-10-21 20:05:48.162
230.0, -151023.0482844172, -160753.67906733503, 42638.567702599496, -86745.04151881237, 74242.1685745917, -73470.89928041688, 86211.23715773072, -128337.81580183696, -0.03, 0.9400000000000001, -0.156, 192.0, 0.0, 0.0, 0.0, 0.0, 0.0, 0.0, 0.0, 0.0, 0.0, 1.666407948162418E9, 0.0, 2022-10-21 20:05:48.162
231.0, -151016.7897959697, -160743.0396369743, 42645.31792942499, -86750.60710318174, 74239.73223444608, -73473.00034439568, 86202.58703262651, -128335.98295879162, -0.034, 0.9420000000000001, -0.156, 192.0, 254.0, 240.0, 29.0, 112.0, 251.0, 32.0, 0.0, 0.0, 0.0, 1.6664079481624267E9, 0.0, 2022-10-21 20:05:48.162
232.0, -151009.07844413264, -160732.95900022495, 42652.44813590624, -86754.36219625024, 74243.44262402566, -73497.6543185299, 86172.54628807859, -128329.5456563885, -0.034, 0.9420000000000001, -0.156, 192.0, 0.0, 0.0, 0.0, 0.0, 0.0, 0.0, 0.0, 0.0, 0.0, 1.6664079481624358E9, 0.0, 2022-10-21 20:05:48.162
233.0, -151010.55365926668, -160736.691741549, 42652.55989462852, -86738.98419606498, 74246.5271647605, -73503.19755115481, 86177.55307883657, -128318.4368393942, -0.034, 0.9420000000000001, -0.156, 192.0, 0.0, 0.0, 0.0, 0.0, 0.0, 0.0, 0.0, 0.0, 0.0, 1.6664079481624444E9, 0.0, 2022-10-21 20:05:48.162
234.0, -151029.1503106535, -160756.36127666966, 42629.314080394994, -86745.39914672365, 74231.43973725317, -73491.57464403805, 86195.45682614528, -128342.06263328347, -0.034, 0.9420000000000001, -0.156, 192.0, 0.0, 0.0, 0.0, 0.0, 0.0, 0.0, 0.0, 0.0, 0.0, 1.6664079481624532E9, 0.0, 2022-10-21 20:05:48.162
235.0, -151027.71979900837, -160754.17080571305, 42625.1119524374, -86755.85976312874, 74228.08697558487, -73488.6912690033, 86190.40533189838, -128348.09760428639, -0.034, 0.9420000000000001, -0.156, 192.0, 0.0, 0.0, 0.0, 0.0, 0.0, 0.0, 0.0, 0.0, 0.0, 1.6664079481624627E9, 0.0, 2022-10-21 20:05:48.162
236.0, -151029.66440077598, -160752.65088709007, 42628.77763852807, -86767.54972547886, 74224.19777204965, -73518.73201355124, 86153.36849133593, -128351.8974008438, -0.034, 0.9420000000000001, -0.156, 192.0, 0.0, 0.0, 0.0, 0.0, 0.0, 0.0, 0.0, 0.0, 0.0, 1.6664079481624713E9, 0.0, 2022-10-21 20:05:48.162
237.0, -151027.80920598618, -160755.28839293582, 42631.12457169587, -86757.31262651832, 74227.90816162922, -73523.49293512022, 86153.16732563583, -128346.93531357472, -0.034, 0.9420000000000001, -0.156, 192.0, 0.0, 0.0, 0.0, 0.0, 0.0, 0.0, 0.0, 0.0, 0.0, 1.6664079481624796E9, 0.0, 2022-10-21 20:05:48.162
238.0, -151028.45740657538, -160759.42346566005, 42629.403487372816, -86754.80923113934, 74226.47764998408, -73499.08483017502, 86186.00203824068, -128348.70110138669, -0.034, 0.9420000000000001, -0.156, 192.0, 0.0, 0.0, 0.0, 0.0, 0.0, 0.0, 0.0, 0.0, 0.0, 1.6664079481624885E9, 0.0, 2022-10-21 20:05:48.162
239.0, -151017.75092098129, -160747.97937249893, 42637.718336310194, -86759.50309747495, 74233.76431867652, -73483.05862940058, 86199.5918988695, -128344.16369726227, -0.034, 0.9420000000000001, -0.156, 192.0, 0.0, 0.0, 0.0, 0.0, 0.0, 0.0, 0.0, 0.0, 0.0, 1.6664079481624978E9, 0.0, 2022-10-21 20:05:48.162
240.0, -151008.16202260996, -160737.22818341592, 42649.29653993804, -86750.65180667065, 74245.25311532654, -73501.16354240937, 86175.58612532451, -128337.03349078102, -0.04, 0.9460000000000001, -0.158, 192.0, 254.0, 192.0, 29.0, 144.0, 251.0, 16.0, 0.0, 0.0, 0.0, 1.6664079481625063E9, 0.0, 2022-10-21 20:05:48.162
241.0, -151010.79952845568, -160736.35646538215, 42648.760098071114, -86746.0249955684, 74247.19771709415, -73518.12851645095, 86166.19839265328, -128331.26674071155, -0.04, 0.9460000000000001, -0.158, 192.0, 0.0, 0.0, 0.0, 0.0, 0.0, 0.0, 0.0, 0.0, 0.0, 1.666407948640231E9, 0.0, 2022-10-21 20:05:48.640
242.0, -151015.80631921368, -160741.72088405144, 42639.126496210876, -86745.8685333572, 74243.53203100349, -73498.68249877483, 86192.90872727738, -128337.97226404813, -0.04, 0.9460000000000001, -0.158, 192.0, 0.0, 0.0, 0.0, 0.0, 0.0, 0.0, 0.0, 0.0, 0.0, 1.6664079486403468E9, 0.0, 2022-10-21 20:05:48.640
243.0, -151019.85198496009, -160748.20288994347, 42636.95837699871, -86755.725652662, 74236.51358324452, -73485.13734163491, 86204.5986896275, -128344.90130482928, -0.04, 0.9460000000000001, -0.158, 192.0, 0.0, 0.0, 0.0, 0.0, 0.0, 0.0, 0.0, 0.0, 0.0, 1.6664079486403787E9, 0.0, 2022-10-21 20:05:48.640
244.0, -151029.1950141424, -160758.46234064846, 42634.47733336417, -86763.03467309888, 74234.770147177, -73502.28112963213, 86174.8932212464, -128346.71179613017, -0.04, 0.9460000000000001, -0.158, 192.0, 0.0, 0.0, 0.0, 0.0, 0.0, 0.0, 0.0, 0.0, 0.0, 1.6664079486404097E9, 0.0, 2022-10-21 20:05:48.640
245.0, -151029.48558682032, -160757.25534644787, 42631.30338565152, -86772.62357147022, 74232.98200762058, -73527.6056561, 86149.61339826744, -128349.28224674253, -0.04, 0.9460000000000001, -0.158, 192.0, 0.0, 0.0, 0.0, 0.0, 0.0, 0.0, 0.0, 0.0, 0.0, 1.66640794864044E9, 0.0, 2022-10-21 20:05:48.640
246.0, -151024.3893890845, -160750.75098881137, 42631.23633041815, -86761.91708587612, 74235.01601636602, -73515.33454839404, 86175.63082881342, -128345.88478158532, -0.04, 0.9460000000000001, -0.158, 192.0, 0.0, 0.0, 0.0, 0.0, 0.0, 0.0, 0.0, 0.0, 0.0, 1.6664079486404736E9, 0.0, 2022-10-21 20:05:48.640
247.0, -151024.56820304017, -160754.99782025788, 42630.454019362216, -86757.91612361862, 74237.38530127828, -73481.18108286633, 86206.9456227953, -128339.20160999318, -0.04, 0.9460000000000001, -0.158, 192.0, 0.0, 0.0, 0.0, 0.0, 0.0, 0.0, 0.0, 0.0, 0.0, 1.6664079486405053E9, 0.0, 2022-10-21 20:05:48.640
248.0, -151021.95304893889, -160755.62366910264, 42626.09542919343, -86770.00841736894, 74230.59037096387, -73499.30834761958, 86178.0448172146, -128345.43774669622, -0.04, 0.9460000000000001, -0.158, 192.0, 0.0, 0.0, 0.0, 0.0, 0.0, 0.0, 0.0, 0.0, 0.0, 1.666407948640536E9, 0.0, 2022-10-21 20:05:48.640
249.0, -151015.18047036894, -160747.91231726555, 42637.651281076825, -86760.24070504197, 74240.98393213558, -73517.52501935065, 86161.25865712865, -128336.16177274726, -0.04, 0.9460000000000001, -0.158, 192.0, 0.0, 0.0, 0.0, 0.0, 0.0, 0.0, 0.0, 0.0, 0.0, 1.6664079486405666E9, 0.0, 2022-10-21 20:05:48.640
250.0, -151026.2892873632, -160757.72473308144, 42634.00794673061, -86752.14937354915, 74245.0743013709, -73504.35984186648, 86186.40436964088, -128332.4960866566, -0.042, 0.9540000000000001, -0.16, 192.0, 254.0, 176.0, 29.0, 208.0, 251.0, 0.0, 0.0, 0.0, 0.0, 1.666407948640598E9, 0.0, 2022-10-21 20:05:48.640
251.0, -151031.0949124211, -160760.36223892716, 42628.82234201698, -86751.38941423767, 74244.0237693815, -73474.94494616329, 86216.98155605573, -128333.97130179065, -0.042, 0.9540000000000001, -0.16, 192.0, 0.0, 0.0, 0.0, 0.0, 0.0, 0.0, 0.0, 0.0, 0.0, 1.666407948640631E9, 0.0, 2022-10-21 20:05:48.640
252.0, -151035.3417438676, -160765.97252678545, 42619.05462969001, -86773.58469648179, 74226.65646393973, -73502.57170231006, 86182.44811087228, -128353.41731946675, -0.042, 0.9540000000000001, -0.16, 192.0, 0.0, 0.0, 0.0, 0.0, 0.0, 0.0, 0.0, 0.0, 0.0, 1.6664079486406615E9, 0.0, 2022-10-21 20:05:48.640
253.0, -151039.56622356968, -160767.71596285296, 42616.28301337755, -86787.55453676636, 74218.3192632579, -73538.82623181657, 86143.04198539758, -128362.8944591158, -0.042, 0.9540000000000001, -0.16, 192.0, 0.0, 0.0, 0.0, 0.0, 0.0, 0.0, 0.0, 0.0, 0.0, 1.6664079486406913E9, 0.0, 2022-10-21 20:05:48.640
254.0, -151034.4476740894, -160764.40790467357, 42622.18387391375, -86772.62357147022, 74222.9684261046, -73530.109051479, 86158.91172396085, -128350.35513047638, -0.042, 0.9540000000000001, -0.16, 192.0, 0.0, 0.0, 0.0, 0.0, 0.0, 0.0, 0.0, 0.0, 0.0, 1.6664079486407216E9, 0.0, 2022-10-21 20:05:48.640
255.0, -151036.5934415571, -160765.74900934089, 42620.48514133515, -86758.81019339684, 74231.32797853088, -73491.37347833795, 86200.26245120316, -128345.08011878493, -0.042, 0.9540000000000001, -0.16, 192.0, 0.0, 0.0, 0.0, 0.0, 0.0, 0.0, 0.0, 0.0, 0.0, 1.6664079486407518E9, 0.0, 2022-10-21 20:05:48.640
0.0, -151035.58761305662, -160763.33502093973, 42620.99923145762, -86776.982161639, 74224.06366158291, -73492.848693472, 86192.88637553292, -128348.76815662005, -0.042, 0.9540000000000001, -0.16, 192.0, 0.0, 0.0, 0.0, 0.0, 0.0, 0.0, 0.0, 0.0, 0.0, 1.6664079486408746E9, 0.0, 2022-10-21 20:05:48.640
1.0, -151023.8976507065, -160752.78499755682, 42629.336432139455, -86782.97242915303, 74225.74004241706, -73523.58234209805, 86160.00695943915, -128341.86146758337, -0.042, 0.9540000000000001, -0.16, 192.0, 0.0, 0.0, 0.0, 0.0, 0.0, 0.0, 0.0, 0.0, 0.0, 1.6664079486409044E9, 0.0, 2022-10-21 20:05:48.640
2.0, -151026.1998803854, -160755.37779991364, 42624.642565803835, -86775.21637382703, 74226.87998138428, -73527.98563575574, 86163.71734901874, -128338.88868557081, -0.042, 0.9540000000000001, -0.16, 192.0, 0.0, 0.0, 0.0, 0.0, 0.0, 0.0, 0.0, 0.0, 0.0, 1.6664079486409357E9, 0.0, 2022-10-21 20:05:48.640
3.0, -151024.67996176242, -160753.72377082394, 42629.69406005074, -86758.11728931872, 74232.24440005355, -73496.8496557295, 86203.92813729384, -128333.63602562381, -0.042, 0.9540000000000001, -0.16, 192.0, 0.0, 0.0, 0.0, 0.0, 0.0, 0.0, 0.0, 0.0, 0.0, 1.6664079486409664E9, 0.0, 2022-10-21 20:05:48.640
4.0, -151024.56820304017, -160753.05321849027, 42631.6610135628, -86760.17364980861, 74237.60881872283, -73478.65533574288, 86212.75707635368, -128335.53592390251, -0.044, 0.9500000000000001, -0.16, 192.0, 254.0, 160.0, 29.0, 176.0, 251.0, 0.0, 0.0, 0.0, 0.0, 1.6664079486409974E9, 0.0, 2022-10-21 20:05:48.640
5.0, -151031.60900254358, -160760.36223892716, 42623.90495823681, -86783.0841878753, 74228.44460349616, -73505.99151921172, 86173.68622704581, -128343.91782807324, -0.044, 0.9500000000000001, -0.16, 192.0, 0.0, 0.0, 0.0, 0.0, 0.0, 0.0, 0.0, 0.0, 0.0, 1.6664079486410296E9, 0.0, 2022-10-21 20:05:48.641
6.0, -151039.36505786958, -160767.13481749714, 42616.97591745567, -86788.5827170113, 74219.88388536977, -73530.04199624562, 86157.05652917105, -128350.19866826519, -0.044, 0.9500000000000001, -0.16, 192.0, 0.0, 0.0, 0.0, 0.0, 0.0, 0.0, 0.0, 0.0, 0.0, 1.666407948641068E9, 0.0, 2022-10-21 20:05:48.641
7.0, -151046.9646509844, -160773.41565768907, 42612.81849298698, -86781.40780704115, 74214.89944635624, -73514.90986524938, 86183.83391902852, -128350.73511013213, -0.044, 0.9500000000000001, -0.16, 192.0, 0.0, 0.0, 0.0, 0.0, 0.0, 0.0, 0.0, 0.0, 0.0, 1.6664079486410985E9, 0.0, 2022-10-21 20:05:48.641
8.0, -151040.37088637007, -160766.26309946337, 42623.23440590315, -86767.92970513461, 74228.84693489634, -73487.77484748064, 86204.5986896275, -128344.20840075117, -0.044, 0.9500000000000001, -0.16, 192.0, 0.0, 0.0, 0.0, 0.0, 0.0, 0.0, 0.0, 0.0, 0.0, 1.6664079486411278E9, 0.0, 2022-10-21 20:05:48.641
9.0, -151036.3028688792, -160763.06680000626, 42625.51428383759, -86776.66923721663, 74229.11515582982, -73506.28209188963, 86172.81450901205, -128347.91879033075, -0.044, 0.9500000000000001, -0.16, 192.0, 0.0, 0.0, 0.0, 0.0, 0.0, 0.0, 0.0, 0.0, 0.0, 1.6664079486411576E9, 0.0, 2022-10-21 20:05:48.641
