%OpenBCI Raw EEG Data
%Number of channels = 8
%Sample Rate = 250 Hz
%Board = OpenBCI_GUI$BoardCytonSerial
Sample Index, EXG Channel 0, EXG Channel 1, EXG Channel 2, EXG Channel 3, EXG Channel 4, EXG Channel 5, EXG Channel 6, EXG Channel 7, Accel Channel 0, Accel Channel 1, Accel Channel 2, Other, Other, Other, Other, Other, Other, Other, Analog Channel 0, Analog Channel 1, Analog Channel 2, Timestamp, Other, Timestamp (Formatted)
185.0, -151994.25393274473, -161643.4573106119, 40118.65438445263, -87957.7130624906, 74632.00534963672, -73548.34807495453, 86140.02449989611, -128528.833809952, 0.0, 0.0, 0.0, 192.0, 0.0, 0.0, 0.0, 0.0, 0.0, 0.0, 0.0, 0.0, 0.0, 1.6664079826268368E9, 0.0, 2022-10-21 20:06:22.626
186.0, -151989.04597628667, -161642.22796466685, 40118.27440479689, -87951.52162927648, 74633.14528860395, -73554.98654305775, 86140.82916269651, -128527.17978086231, 0.0, 0.0, 0.0, 192.0, 0.0, 0.0, 0.0, 0.0, 0.0, 0.0, 0.0, 0.0, 0.0, 1.6664079826268563E9, 0.0, 2022-10-21 20:06:22.626
187.0, -151990.54354316517, -161644.53019434575, 40118.542625730355, -87941.53039950495, 74630.6195414805, -73529.17027821187, 86172.5909915675, -128524.85519943896, 0.0, 0.0, 0.0, 192.0, 0.0, 0.0, 0.0, 0.0, 0.0, 0.0, 0.0, 0.0, 0.0, 1.6664079826268687E9, 0.0, 2022-10-21 20:06:22.626
188.0, -151983.25687447275, -161637.42233960895, 40130.16553284711, -87928.67814644316, 74649.55146903414, -73496.78260049612, 86194.31688717805, -128511.95824288826, 0.0, 0.0, 0.0, 192.0, 0.0, 0.0, 0.0, 0.0, 0.0, 0.0, 0.0, 0.0, 0.0, 1.6664079826268811E9, 0.0, 2022-10-21 20:06:22.626
189.0, -151973.80208656815, -161628.5039935713, 40138.79330620686, -87923.29137602942, 74663.78953025216, -73506.70677503428, 86175.31790439105, -128497.51901597012, 0.0, 0.0, 0.0, 192.0, 0.0, 0.0, 0.0, 0.0, 0.0, 0.0, 0.0, 0.0, 0.0, 1.6664079826268928E9, 0.0, 2022-10-21 20:06:22.626
190.0, -151988.3307204641, -161640.52923208824, 40125.2705008114, -87948.6606059862, 74645.75167247673, -73537.37336842697, 86152.04973841307, -128507.48789399718, 0.0, 0.0, 0.0, 192.0, 0.0, 0.0, 0.0, 0.0, 0.0, 0.0, 0.0, 0.0, 0.0, 1.6664079826269054E9, 0.0, 2022-10-21 20:06:22.626
191.0, -151992.6669588884, -161646.0054094798, 40122.90121589914, -87939.02700412596, 74637.19095435036, -73518.86612401798, 86179.85530851547, -128508.56077773105, -0.032, 0.9480000000000001, -0.15, 192.0, 255.0, 0.0, 29.0, 160.0, 251.0, 80.0, 0.0, 0.0, 0.0, 1.6664079826269152E9, 0.0, 2022-10-21 20:06:22.626
192.0, -152002.6358369155, -161653.49324387233, 40111.52417797139, -87948.43708854164, 74629.03256762416, -73509.09841169101, 86185.71146556277, -128524.1846471053, -0.032, 0.9480000000000001, -0.15, 192.0, 0.0, 0.0, 0.0, 0.0, 0.0, 0.0, 0.0, 0.0, 0.0, 1.6664079826269271E9, 0.0, 2022-10-21 20:06:22.626
193.0, -152000.6688834034, -161650.67692407095, 40117.000355362936, -87961.28934160345, 74626.618579223, -73533.4618131473, 86152.18384887981, -128525.10106862798, -0.032, 0.9480000000000001, -0.15, 192.0, 0.0, 0.0, 0.0, 0.0, 0.0, 0.0, 0.0, 0.0, 0.0, 1.6664079826269376E9, 0.0, 2022-10-21 20:06:22.626
194.0, -151996.64556940147, -161649.38052289255, 40125.9187014006, -87956.55077177892, 74639.11320437351, -73546.49288016473, 86141.834991197, -128515.333356301, -0.032, 0.9480000000000001, -0.15, 192.0, 0.0, 0.0, 0.0, 0.0, 0.0, 0.0, 0.0, 0.0, 0.0, 1.666407982626948E9, 0.0, 2022-10-21 20:06:22.626
195.0, -152001.96528458182, -161648.37469439206, 40127.88565491267, -87942.22330358307, 74647.40570156643, -73521.72714730825, 86178.84948001498, -128504.3810015179, -0.032, 0.9480000000000001, -0.15, 192.0, 0.0, 0.0, 0.0, 0.0, 0.0, 0.0, 0.0, 0.0, 0.0, 1.666407982626958E9, 0.0, 2022-10-21 20:06:22.626
196.0, -152011.9788660978, -161663.41741841048, 40118.72143968599, -87948.32532981937, 74640.32019857409, -73505.36567036697, 86195.07684648954, -128515.333356301, -0.032, 0.9480000000000001, -0.15, 192.0, 0.0, 0.0, 0.0, 0.0, 0.0, 0.0, 0.0, 0.0, 0.0, 1.6664079826269681E9, 0.0, 2022-10-21 20:06:22.626
197.0, -152029.56968898413, -161681.9693663084, 40106.20446279102, -87971.48173707507, 74624.78573617766, -73532.56774336907, 86156.27421811513, -128532.9912344207, -0.032, 0.9480000000000001, -0.15, 192.0, 0.0, 0.0, 0.0, 0.0, 0.0, 0.0, 0.0, 0.0, 0.0, 1.666407982626978E9, 0.0, 2022-10-21 20:06:22.626
198.0, -152024.24997380376, -161678.39308719552, 40112.731172171974, -87975.37094061029, 74628.18320133486, -73555.6570953914, 86131.17320909181, -128527.5374087736, -0.032, 0.9480000000000001, -0.15, 192.0, 0.0, 0.0, 0.0, 0.0, 0.0, 0.0, 0.0, 0.0, 0.0, 1.6664079826269882E9, 0.0, 2022-10-21 20:06:22.626
199.0, -152023.132386581, -161681.8129040972, 40116.19569256255, -87957.40013806822, 74638.91203867341, -73536.12167073747, 86161.59393329549, -128518.95433890277, -0.032, 0.9480000000000001, -0.15, 192.0, 0.0, 0.0, 0.0, 0.0, 0.0, 0.0, 0.0, 0.0, 0.0, 1.6664079826269982E9, 0.0, 2022-10-21 20:06:22.626
200.0, -152050.26740434975, -161708.99262535485, 40105.48920696846, -87971.99582719753, 74626.57387573409, -73523.06825197556, 86179.60943932646, -128529.77258321914, -0.032, 0.9480000000000001, -0.15, 192.0, 0.0, 0.0, 0.0, 0.0, 0.0, 0.0, 0.0, 0.0, 0.0, 1.6664079826270082E9, 0.0, 2022-10-21 20:06:22.627
201.0, -152050.51327353876, -161714.58056146867, 40113.73700067246, -87969.11245216281, 74637.23565783926, -73521.12365020796, 86171.92043923384, -128525.21282735025, -0.022, 0.9440000000000001, -0.15, 192.0, 255.0, 80.0, 29.0, 128.0, 251.0, 80.0, 0.0, 0.0, 0.0, 1.6664079826271353E9, 0.0, 2022-10-21 20:06:22.627
202.0, -152037.83983443258, -161705.8186776422, 40112.03826809386, -87978.18726041165, 74636.83332643907, -73549.35390345502, 86139.75627896265, -128520.47425752573, -0.022, 0.9440000000000001, -0.15, 192.0, 0.0, 0.0, 0.0, 0.0, 0.0, 0.0, 0.0, 0.0, 0.0, 1.666407982627147E9, 0.0, 2022-10-21 20:06:22.627
203.0, -152047.4287328039, -161710.31137827772, 40096.8167301198, -87991.97828674059, 74623.60109372153, -73557.84756634803, 86139.39865105136, -128531.62777800891, -0.022, 0.9440000000000001, -0.15, 192.0, 0.0, 0.0, 0.0, 0.0, 0.0, 0.0, 0.0, 0.0, 0.0, 1.6664079826271577E9, 0.0, 2022-10-21 20:06:22.627
204.0, -152071.7027272824, -161728.50569826434, 40099.29777375433, -87976.51087957752, 74632.7206054593, -73521.16835369688, 86179.07299745953, -128525.0340133946, -0.022, 0.9440000000000001, -0.15, 192.0, 0.0, 0.0, 0.0, 0.0, 0.0, 0.0, 0.0, 0.0, 0.0, 1.6664079826271675E9, 0.0, 2022-10-21 20:06:22.627
205.0, -152100.02238750726, -161761.72039052492, 40100.68358191056, -87982.97053372509, 74636.45334678332, -73520.4978013632, 86171.2945903891, -128527.0903738845, -0.022, 0.9440000000000001, -0.15, 192.0, 0.0, 0.0, 0.0, 0.0, 0.0, 0.0, 0.0, 0.0, 0.0, 1.6664079826271777E9, 0.0, 2022-10-21 20:06:22.627
206.0, -152103.53161138674, -161767.7777132723, 40114.13933207266, -87982.92583023618, 74645.30463758763, -73541.08375800654, 86147.37822382191, -128517.18855109079, -0.022, 0.9440000000000001, -0.15, 192.0, 0.0, 0.0, 0.0, 0.0, 0.0, 0.0, 0.0, 0.0, 0.0, 1.6664079826271875E9, 0.0, 2022-10-21 20:06:22.627
207.0, -152120.92126857297, -161777.3889633881, 40105.13157905717, -87977.29319063344, 74640.49901252973, -73552.68431337885, 86144.02546215362, -128519.06609762504, -0.022, 0.9440000000000001, -0.15, 192.0, 0.0, 0.0, 0.0, 0.0, 0.0, 0.0, 0.0, 0.0, 0.0, 1.6664079826272004E9, 0.0, 2022-10-21 20:06:22.627
208.0, -152151.163178821, -161803.51815265635, 40090.98292481696, -87990.01133322851, 74629.30078855762, -73533.7076823363, 86169.61820955494, -128528.36442331845, -0.022, 0.9440000000000001, -0.15, 192.0, 0.0, 0.0, 0.0, 0.0, 0.0, 0.0, 0.0, 0.0, 0.0, 1.6664079826272104E9, 0.0, 2022-10-21 20:06:22.627
209.0, -152163.94837664944, -161814.8951905841, 40091.25114575042, -88000.60606010033, 74626.97620713427, -73529.75142356771, 86168.29945663208, -128527.7385744737, -0.022, 0.9440000000000001, -0.15, 192.0, 0.0, 0.0, 0.0, 0.0, 0.0, 0.0, 0.0, 0.0, 0.0, 1.6664079826272204E9, 0.0, 2022-10-21 20:06:22.627
210.0, -152170.92212091948, -161819.00791156388, 40092.391084717645, -88003.78000781298, 74632.09475661455, -73550.49384242223, 86140.27036908512, -128525.30223432808, -0.022, 0.9440000000000001, -0.15, 192.0, 0.0, 0.0, 0.0, 0.0, 0.0, 0.0, 0.0, 0.0, 0.0, 1.6664079826272304E9, 0.0, 2022-10-21 20:06:22.627
211.0, -152171.07858313067, -161819.946684831, 40097.75550338692, -88001.54483336746, 74633.8158409376, -73557.04290354764, 86138.6833952288, -128512.42762952182, -0.006, 0.9500000000000001, -0.14400000000000002, 192.0, 255.0, 208.0, 29.0, 176.0, 251.0, 128.0, 0.0, 0.0, 0.0, 1.6664079826272404E9, 0.0, 2022-10-21 20:06:22.627
212.0, -152172.28557733126, -161814.02347255035, 40103.142273800644, -87973.49339407604, 74650.93727719037, -73516.87681876145, 86183.90097426188, -128504.336298029, -0.006, 0.9500000000000001, -0.14400000000000002, 192.0, 0.0, 0.0, 0.0, 0.0, 0.0, 0.0, 0.0, 0.0, 0.0, 1.6664079826272516E9, 0.0, 2022-10-21 20:06:22.627
213.0, -152175.12424887708, -161810.60365564868, 40106.875015124686, -87971.79466149744, 74653.32891384709, -73500.78356275363, 86195.3897709119, -128498.4801409817, -0.006, 0.9500000000000001, -0.14400000000000002, 192.0, 0.0, 0.0, 0.0, 0.0, 0.0, 0.0, 0.0, 0.0, 0.0, 1.6664079826272616E9, 0.0, 2022-10-21 20:06:22.627
214.0, -152167.70346971793, -161801.70766135547, 40107.8137883918, -87988.37965588328, 74646.4669282993, -73530.5113828792, 86160.588104795, -128496.26731828062, -0.006, 0.9500000000000001, -0.14400000000000002, 192.0, 0.0, 0.0, 0.0, 0.0, 0.0, 0.0, 0.0, 0.0, 0.0, 1.6664079826272717E9, 0.0, 2022-10-21 20:06:22.627
215.0, -152171.19034185295, -161798.71252759846, 40106.718552913495, -87997.65562983222, 74646.10930038802, -73542.82719407407, 86150.55217153457, -128496.04380083607, -0.006, 0.9500000000000001, -0.14400000000000002, 192.0, 0.0, 0.0, 0.0, 0.0, 0.0, 0.0, 0.0, 0.0, 0.0, 1.6664079826272817E9, 0.0, 2022-10-21 20:06:22.627
216.0, -152175.83950469966, -161797.93021654253, 40103.96928834549, -87987.95497273863, 74645.52815503218, -73524.92344676536, 86178.22363117023, -128498.05545783705, -0.006, 0.9500000000000001, -0.14400000000000002, 192.0, 0.0, 0.0, 0.0, 0.0, 0.0, 0.0, 0.0, 0.0, 0.0, 1.6664079826273315E9, 0.0, 2022-10-21 20:06:22.627
217.0, -152175.50422853284, -161792.90107404007, 40099.94597434354, -87993.40879838572, 74641.72835847478, -73510.77479252515, 86191.07588423204, -128503.2857660396, -0.006, 0.9500000000000001, -0.14400000000000002, 192.0, 0.0, 0.0, 0.0, 0.0, 0.0, 0.0, 0.0, 0.0, 0.0, 1.666407982627342E9, 0.0, 2022-10-21 20:06:22.627
218.0, -152170.69860347494, -161781.61344309014, 40104.12575055668, -87999.95785951112, 74643.47179454229, -73523.8505630315, 86164.92434321933, -128504.96214687375, -0.006, 0.9500000000000001, -0.14400000000000002, 192.0, 0.0, 0.0, 0.0, 0.0, 0.0, 0.0, 0.0, 0.0, 0.0, 1.666407982627352E9, 0.0, 2022-10-21 20:06:22.627
219.0, -152164.66363247202, -161771.37634412962, 40103.008163333914, -88003.82471130189, 74643.31533233111, -73543.63185687446, 86143.64548249787, -128500.8270741495, -0.006, 0.9500000000000001, -0.14400000000000002, 192.0, 0.0, 0.0, 0.0, 0.0, 0.0, 0.0, 0.0, 0.0, 0.0, 1.666407982627362E9, 0.0, 2022-10-21 20:06:22.627
220.0, -152172.665556987, -161773.41035287504, 40100.281250510365, -87996.89567052075, 74645.55050677664, -73523.6493973314, 86173.2391921567, -128501.54232997207, -0.008, 0.9560000000000001, -0.148, 192.0, 255.0, 192.0, 29.0, 224.0, 251.0, 96.0, 0.0, 0.0, 0.0, 1.666407982627372E9, 0.0, 2022-10-21 20:06:22.627
221.0, -152155.83469341215, -161757.4735590784, 40115.01105010641, -87977.09202493334, 74659.09566391655, -73487.52897829164, 86210.14192225241, -128488.31009725454, -0.008, 0.9560000000000001, -0.148, 192.0, 0.0, 0.0, 0.0, 0.0, 0.0, 0.0, 0.0, 0.0, 0.0, 1.6664079826273828E9, 0.0, 2022-10-21 20:06:22.627
222.0, -152141.44016998293, -161744.19662287197, 40114.27344253939, -87994.92871700868, 74653.1724516359, -73503.73399302173, 86185.55500335158, -128487.59484143197, -0.008, 0.9560000000000001, -0.148, 192.0, 0.0, 0.0, 0.0, 0.0, 0.0, 0.0, 0.0, 0.0, 0.0, 1.6664079826273928E9, 0.0, 2022-10-21 20:06:22.627
223.0, -152132.2983065007, -161727.41046278604, 40132.870093926205, -87987.53028959398, 74664.86241398602, -73517.25679841719, 86170.98166596671, -128471.76980635761, -0.008, 0.9560000000000001, -0.148, 192.0, 0.0, 0.0, 0.0, 0.0, 0.0, 0.0, 0.0, 0.0, 0.0, 1.6664079826274028E9, 0.0, 2022-10-21 20:06:22.627
224.0, -152126.5539081757, -161717.46393650342, 40134.76999220491, -87969.09010041835, 74674.07133270161, -73497.02846968514, 86199.25662270268, -128464.50548940964, -0.008, 0.9560000000000001, -0.148, 192.0, 0.0, 0.0, 0.0, 0.0, 0.0, 0.0, 0.0, 0.0, 0.0, 1.6664079826274126E9, 0.0, 2022-10-21 20:06:22.627
225.0, -152140.0096583378, -161725.51056450733, 40113.31231752781, -87991.15127219574, 74652.85952721353, -73491.88756846041, 86212.3994484424, -128477.44714944926, -0.008, 0.9560000000000001, -0.148, 192.0, 0.0, 0.0, 0.0, 0.0, 0.0, 0.0, 0.0, 0.0, 0.0, 1.6664079826274226E9, 0.0, 2022-10-21 20:06:22.627
226.0, -152138.37798099258, -161723.923590651, 40108.73020991447, -88007.66921134821, 74650.93727719037, -73497.56491155206, 86196.17208196784, -128486.074922809, -0.008, 0.9560000000000001, -0.148, 192.0, 0.0, 0.0, 0.0, 0.0, 0.0, 0.0, 0.0, 0.0, 0.0, 1.6664079826274328E9, 0.0, 2022-10-21 20:06:22.627
227.0, -152124.4528441969, -161711.3172067782, 40116.53096872938, -88013.21244397313, 74655.9664196928, -73532.76890906917, 86160.94573270628, -128483.79504487457, -0.008, 0.9560000000000001, -0.148, 192.0, 0.0, 0.0, 0.0, 0.0, 0.0, 0.0, 0.0, 0.0, 0.0, 1.6664079826274426E9, 0.0, 2022-10-21 20:06:22.627
228.0, -152122.97762906287, -161704.85755263062, 40123.25884381042, -87999.13084496628, 74664.01304769672, -73529.6620165899, 86173.17213692334, -128476.19545175976, -0.008, 0.9560000000000001, -0.148, 192.0, 0.0, 0.0, 0.0, 0.0, 0.0, 0.0, 0.0, 0.0, 0.0, 1.6664079826274536E9, 0.0, 2022-10-21 20:06:22.627
229.0, -152123.5587744187, -161704.49992471933, 40122.00714612092, -87994.43697863066, 74670.00331521075, -73486.81372246906, 86214.65697463238, -128469.60168714545, -0.008, 0.9560000000000001, -0.148, 192.0, 0.0, 0.0, 0.0, 0.0, 0.0, 0.0, 0.0, 0.0, 0.0, 1.6664079826274636E9, 0.0, 2022-10-21 20:06:22.627
230.0, -152119.37899820556, -161700.6777764175, 40113.73700067246, -88011.71487709462, 74662.04609418465, -73491.06055391557, 86201.82707331504, -128478.09535003846, 0.002, 0.9480000000000001, -0.15, 192.0, 0.0, 16.0, 29.0, 160.0, 251.0, 80.0, 0.0, 0.0, 0.0, 1.6664079826274734E9, 0.0, 2022-10-21 20:06:22.627
231.0, -152111.6005911351, -161689.166628023, 40113.647593694644, -88021.59434814386, 74658.626277283, -73523.93997000933, 86163.56088680755, -128483.86210010793, 0.002, 0.9480000000000001, -0.15, 192.0, 0.0, 0.0, 0.0, 0.0, 0.0, 0.0, 0.0, 0.0, 0.0, 1.6664079826274943E9, 0.0, 2022-10-21 20:06:22.627
232.0, -152109.34306494513, -161685.63505239907, 40117.64855595214, -88012.4748364061, 74661.8225767401, -73525.97397875476, 86168.56767756554, -128477.06716979352, 0.002, 0.9480000000000001, -0.15, 192.0, 0.0, 0.0, 0.0, 0.0, 0.0, 0.0, 0.0, 0.0, 0.0, 1.6664079826275043E9, 0.0, 2022-10-21 20:06:22.627
233.0, -152111.68999811294, -161688.674889645, 40115.458084995524, -88011.15608348323, 74664.61654479701, -73489.65239401489, 86209.62783212995, -128470.31694296801, 0.002, 0.9480000000000001, -0.15, 192.0, 0.0, 0.0, 0.0, 0.0, 0.0, 0.0, 0.0, 0.0, 0.0, 1.6664079826275144E9, 0.0, 2022-10-21 20:06:22.627
234.0, -152098.63657935103, -161677.18609299496, 40119.794323419854, -88014.97823178509, 74666.29292563116, -73478.81179795407, 86215.64045138842, -128464.572544643, 0.002, 0.9480000000000001, -0.15, 192.0, 0.0, 0.0, 0.0, 0.0, 0.0, 0.0, 0.0, 0.0, 0.0, 1.6664079826275244E9, 0.0, 2022-10-21 20:06:22.627
235.0, -152087.7959832902, -161672.78279933726, 40120.66604145361, -88018.64391787576, 74666.8293674981, -73505.99151921172, 86182.06813121655, -128465.80189058805, 0.002, 0.9480000000000001, -0.15, 192.0, 0.0, 0.0, 0.0, 0.0, 0.0, 0.0, 0.0, 0.0, 0.0, 1.6664079826275344E9, 0.0, 2022-10-21 20:06:22.627
236.0, -152076.4412971069, -161658.92471777496, 40129.40557353563, -87994.8169582864, 74674.69718154636, -73515.89334200542, 86177.55307883657, -128462.4714806642, 0.002, 0.9480000000000001, -0.15, 192.0, 0.0, 0.0, 0.0, 0.0, 0.0, 0.0, 0.0, 0.0, 0.0, 1.6664079826275442E9, 0.0, 2022-10-21 20:06:22.627
237.0, -152095.93201827194, -161681.09764827462, 40102.00233483343, -88013.27949920649, 74646.37752132148, -73524.76698455417, 86181.97872423872, -128487.41602747633, 0.002, 0.9480000000000001, -0.15, 192.0, 0.0, 0.0, 0.0, 0.0, 0.0, 0.0, 0.0, 0.0, 0.0, 1.666407982627554E9, 0.0, 2022-10-21 20:06:22.627
238.0, -152108.09136725563, -161686.12679077708, 40095.7661981304, -88030.69150813717, 74639.11320437351, -73502.92933022133, 86192.79696855509, -128492.6239839344, 0.002, 0.9480000000000001, -0.15, 192.0, 0.0, 0.0, 0.0, 0.0, 0.0, 0.0, 0.0, 0.0, 0.0, 1.666407982627564E9, 0.0, 2022-10-21 20:06:22.627
239.0, -152102.32461718615, -161670.8158458252, 40110.09366632625, -88033.99956631656, 74647.98684692227, -73507.01969945666, 86176.61430556946, -128476.53072792658, 0.002, 0.9480000000000001, -0.15, 192.0, 0.0, 0.0, 0.0, 0.0, 0.0, 0.0, 0.0, 0.0, 0.0, 1.666407982627574E9, 0.0, 2022-10-21 20:06:22.627
240.0, -152101.85523055258, -161668.91594754648, 40108.70785817002, -88030.66915639272, 74649.10443414503, -73528.14209796692, 86162.06331992905, -128476.68719013777, -0.008, 0.9420000000000001, -0.148, 192.0, 255.0, 192.0, 29.0, 112.0, 251.0, 96.0, 0.0, 0.0, 0.0, 1.6664079826275837E9, 0.0, 2022-10-21 20:06:22.627
241.0, -152101.40819566348, -161669.8547208136, 40104.14810230114, -88018.06277251993, 74648.00919866672, -73511.51240009218, 86187.9913434972, -128481.49281519567, -0.008, 0.9420000000000001, -0.148, 192.0, 0.0, 0.0, 0.0, 0.0, 0.0, 0.0, 0.0, 0.0, 0.0, 1.6664079826275947E9, 0.0, 2022-10-21 20:06:22.627
242.0, -152096.15553571648, -161667.68660160145, 40105.35509650172, -88016.5205021525, 74650.17731787889, -73482.45513230028, 86211.68419261982, -128478.02829480509, -0.008, 0.9420000000000001, -0.148, 192.0, 0.0, 0.0, 0.0, 0.0, 0.0, 0.0, 0.0, 0.0, 0.0, 1.6664079826276047E9, 0.0, 2022-10-21 20:06:22.627
243.0, -152094.65796883797, -161666.52431088977, 40104.17045404559, -88027.6740226357, 74645.01406490972, -73498.92836796385, 86183.09631146149, -128480.53169018409, -0.008, 0.9420000000000001, -0.148, 192.0, 0.0, 0.0, 0.0, 0.0, 0.0, 0.0, 0.0, 0.0, 0.0, 1.6664079826276133E9, 0.0, 2022-10-21 20:06:22.627
244.0, -152078.22943666333, -161655.16962470647, 40113.647593694644, -88024.76829585651, 74650.53494579018, -73521.61538858598, 86161.90685771786, -128473.89322208086, -0.008, 0.9420000000000001, -0.148, 192.0, 0.0, 0.0, 0.0, 0.0, 0.0, 0.0, 0.0, 0.0, 0.0, 1.666407982627643E9, 0.0, 2022-10-21 20:06:22.627
245.0, -152080.08463145312, -161655.03551423975, 40110.38423900417, -88005.72460958059, 74654.2229836253, -73517.21209492828, 86181.2411166717, -128475.41314070382, -0.008, 0.9420000000000001, -0.148, 192.0, 0.0, 0.0, 0.0, 0.0, 0.0, 0.0, 0.0, 0.0, 0.0, 1.6664079826276908E9, 0.0, 2022-10-21 20:06:22.627
246.0, -152089.29355016872, -161663.19390096594, 40097.44257896455, -88006.23869970307, 74646.06459689912, -73501.43176334283, 86197.22261395724, -128492.51222521214, -0.008, 0.9420000000000001, -0.148, 192.0, 0.0, 0.0, 0.0, 0.0, 0.0, 0.0, 0.0, 0.0, 0.0, 1.6664079826279056E9, 0.0, 2022-10-21 20:06:22.627
247.0, -152081.02340472024, -161661.27165094277, 40093.93335508506, -88029.4845139366, 74637.74974796173, -73517.86029551749, 86170.13229967741, -128496.91551886984, -0.008, 0.9420000000000001, -0.148, 192.0, 0.0, 0.0, 0.0, 0.0, 0.0, 0.0, 0.0, 0.0, 0.0, 1.6664079826279156E9, 0.0, 2022-10-21 20:06:22.627
248.0, -152068.81935224764, -161654.23085143935, 40097.97902083147, -88027.51756042452, 74643.96353292032, -73539.96617078378, 86145.8359534545, -128490.34410599997, -0.008, 0.9420000000000001, -0.148, 192.0, 0.0, 0.0, 0.0, 0.0, 0.0, 0.0, 0.0, 0.0, 0.0, 1.666407982627925E9, 0.0, 2022-10-21 20:06:22.627
249.0, -152064.0360789342, -161651.45923512688, 40103.74577090094, -88011.51371139452, 74649.52911728968, -73523.55999035359, 86169.90878223286, -128478.40827446083, -0.008, 0.9420000000000001, -0.148, 192.0, 0.0, 0.0, 0.0, 0.0, 0.0, 0.0, 0.0, 0.0, 0.0, 1.666407982627935E9, 0.0, 2022-10-21 20:06:22.627
250.0, -152062.62791903352, -161646.74301704683, 40106.91971861359, -87995.4204553867, 74657.55339354914, -73483.1927398673, 86210.7007158638, -128468.59585864496, -0.02, 0.9380000000000001, -0.15, 192.0, 255.0, 96.0, 29.0, 80.0, 251.0, 80.0, 0.0, 0.0, 0.0, 1.666407982627944E9, 0.0, 2022-10-21 20:06:22.627
251.0, -152055.8329887191, -161654.83434853965, 40097.0625993088, -88027.76342961352, 74646.04224515465, -73491.64169927141, 86194.71921857825, -128475.83782384847, -0.02, 0.9380000000000001, -0.15, 192.0, 0.0, 0.0, 0.0, 0.0, 0.0, 0.0, 0.0, 0.0, 0.0, 1.666407982627954E9, 0.0, 2022-10-21 20:06:22.627
252.0, -152068.12644816953, -161655.79547355123, 40096.235584763956, -88036.41355471773, 74640.34255031856, -73529.39379565642, 86156.54243904859, -128480.53169018409, -0.02, 0.9380000000000001, -0.15, 192.0, 0.0, 0.0, 0.0, 0.0, 0.0, 0.0, 0.0, 0.0, 0.0, 1.6664079826279633E9, 0.0, 2022-10-21 20:06:22.627
253.0, -152097.2507711948, -161666.39020042305, 40086.33376197026, -88034.1336767833, 74635.55927700512, -73535.76404282618, 86156.11775590394, -128487.61719317643, -0.02, 0.9380000000000001, -0.15, 192.0, 0.0, 0.0, 0.0, 0.0, 0.0, 0.0, 0.0, 0.0, 0.0, 1.6664079826279724E9, 0.0, 2022-10-21 20:06:22.627
254.0, -152097.38488166154, -161661.31635443168, 40086.244354992436, -88024.50007492305, 74637.1686026059, -73504.87393198896, 86193.10989297747, -128484.93498384178, -0.02, 0.9380000000000001, -0.15, 192.0, 0.0, 0.0, 0.0, 0.0, 0.0, 0.0, 0.0, 0.0, 0.0, 1.6664079826279814E9, 0.0, 2022-10-21 20:06:22.627
255.0, -152094.36739616006, -161656.57778460716, 40091.07233179478, -88032.21142676013, 74636.25218108323, -73498.25781563018, 86192.03700924362, -128486.03021932009, -0.02, 0.9380000000000001, -0.15, 192.0, 0.0, 0.0, 0.0, 0.0, 0.0, 0.0, 0.0, 0.0, 0.0, 1.6664079826279905E9, 0.0, 2022-10-21 20:06:22.627
0.0, -152097.78721306173, -161657.22598519636, 40091.85464285072, -88039.47574370811, 74633.79348919315, -73524.6999293208, 86156.78830823759, -128484.86792860842, -0.02, 0.9380000000000001, -0.15, 192.0, 0.0, 0.0, 0.0, 0.0, 0.0, 0.0, 0.0, 0.0, 0.0, 1.6664079826279995E9, 0.0, 2022-10-21 20:06:22.627
1.0, -152082.72213729884, -161648.79937753672, 40097.911965598105, -88030.93737732618, 74642.82359395309, -73525.66105433239, 86162.8903344739, -128467.94765805575, -0.02, 0.9380000000000001, -0.15, 192.0, 0.0, 0.0, 0.0, 0.0, 0.0, 0.0, 0.0, 0.0, 0.0, 1.6664079826280088E9, 0.0, 2022-10-21 20:06:22.628
2.0, -152079.2576169083, -161654.11909271707, 40093.0616370513, -88020.4767609211, 74639.44848054033, -73503.71164127727, 86193.60163135549, -128470.4734051792, -0.02, 0.9380000000000001, -0.15, 192.0, 0.0, 0.0, 0.0, 0.0, 0.0, 0.0, 0.0, 0.0, 0.0, 1.666407982628018E9, 0.0, 2022-10-21 20:06:22.628
3.0, -152080.3975558755, -161659.908194531, 40091.09468353924, -88028.81396160292, 74634.50874501572, -73500.09065867552, 86192.48404413273, -128484.59970767495, -0.02, 0.936, -0.14, 192.0, 255.0, 96.0, 29.0, 64.0, 251.0, 160.0, 0.0, 0.0, 0.0, 1.6664079826280272E9, 0.0, 2022-10-21 20:06:22.628
4.0, -152085.13612570002, -161658.18711020795, 40093.19574751804, -88032.77022037152, 74641.54954451913, -73520.47544961875, 86164.9913984527, -128489.38298098839, -0.02, 0.936, -0.14, 192.0, 0.0, 0.0, 0.0, 0.0, 0.0, 0.0, 0.0, 0.0, 0.0, 1.6664079826280372E9, 0.0, 2022-10-21 20:06:22.628
5.0, -152088.10890771257, -161654.47672062836, 40098.7166283985, -88027.45050519115, 74650.93727719037, -73521.0565949746, 86164.5890670525, -128479.59291691697, -0.02, 0.936, -0.14, 192.0, 0.0, 0.0, 0.0, 0.0, 0.0, 0.0, 0.0, 0.0, 0.0, 1.666407982628067E9, 0.0, 2022-10-21 20:06:22.628
6.0, -152096.24494269432, -161660.77991256476, 40092.56989867329, -88024.25420573405, 74646.35516957703, -73505.32096687806, 86188.84070978651, -128484.24207976367, -0.02, 0.936, -0.14, 192.0, 0.0, 0.0, 0.0, 0.0, 0.0, 0.0, 0.0, 0.0, 0.0, 1.6664079826280763E9, 0.0, 2022-10-21 20:06:22.628
7.0, -152091.90870426997, -161654.76729330627, 40102.181148789066, -88012.81011257293, 74653.95476269184, -73478.92355667634, 86210.63366063042, -128473.33442846948, -0.02, 0.936, -0.14, 192.0, 0.0, 0.0, 0.0, 0.0, 0.0, 0.0, 0.0, 0.0, 0.0, 1.6664079826280856E9, 0.0, 2022-10-21 20:06:22.628
8.0, -152097.45193689488, -161657.82948229666, 40100.84004412175, -88029.03747904747, 74651.87605045749, -73499.3977545974, 86183.20807018377, -128475.68136163728, -0.02, 0.936, -0.14, 192.0, 0.0, 0.0, 0.0, 0.0, 0.0, 0.0, 0.0, 0.0, 0.0, 1.666407982628095E9, 0.0, 2022-10-21 20:06:22.628
9.0, -152106.37028293256, -161666.9042905455, 40090.5135381834, -88047.45531647865, 74644.32116083159, -73529.63966484542, 86157.4365088268, -128488.15363504335, -0.02, 0.936, -0.14, 192.0, 0.0, 0.0, 0.0, 0.0, 0.0, 0.0, 0.0, 0.0, 0.0, 1.6664079826281037E9, 0.0, 2022-10-21 20:06:22.628
10.0, -152104.44803290942, -161666.99369752334, 40092.815767862296, -88031.00443255955, 74646.0198934102, -73508.83019075754, 86188.72895106423, -128485.31496349753, -0.02, 0.936, -0.14, 192.0, 0.0, 0.0, 0.0, 0.0, 0.0, 0.0, 0.0, 0.0, 0.0, 1.6664079826281128E9, 0.0, 2022-10-21 20:06:22.628
11.0, -152093.09334672612, -161658.81295905268, 40102.091741811244, -88022.3766591998, 74654.31239060311, -73478.83414969852, 86220.06609679057, -128473.11091102492, -0.02, 0.936, -0.14, 192.0, 0.0, 0.0, 0.0, 0.0, 0.0, 0.0, 0.0, 0.0, 0.0, 1.666407982628122E9, 0.0, 2022-10-21 20:06:22.628
12.0, -152090.83582053613, -161658.03064799675, 40101.15296854413, -88029.70803138115, 74651.16079463492, -73497.22963538524, 86193.91455577785, -128477.73772212717, -0.02, 0.936, -0.14, 192.0, 0.0, 0.0, 0.0, 0.0, 0.0, 0.0, 0.0, 0.0, 0.0, 1.6664079826281312E9, 0.0, 2022-10-21 20:06:22.628
13.0, -152090.67935832494, -161658.58944160814, 40098.76133188741, -88034.3795459723, 74643.31533233111, -73533.64062710293, 86158.66585477184, -128481.20224251774, -0.032, 0.9440000000000001, -0.138, 192.0, 255.0, 0.0, 29.0, 128.0, 251.0, 176.0, 0.0, 0.0, 0.0, 1.6664079826281404E9, 0.0, 2022-10-21 20:06:22.628
14.0, -152098.97185551786, -161665.8537585561, 40090.87116609469, -88028.38927845827, 74638.59911425103, -73533.37240616947, 86168.7911950101, -128489.53944319958, -0.032, 0.9440000000000001, -0.138, 192.0, 0.0, 0.0, 0.0, 0.0, 0.0, 0.0, 0.0, 0.0, 0.0, 1.66640798262815E9, 0.0, 2022-10-21 20:06:22.628
15.0, -152095.70850082737, -161664.1997294664, 40094.69331439654, -88017.9733655421, 74647.36099807752, -73498.07900167454, 86203.36934368245, -128486.8795856094, -0.032, 0.9440000000000001, -0.138, 192.0, 0.0, 0.0, 0.0, 0.0, 0.0, 0.0, 0.0, 0.0, 0.0, 1.666407982628162E9, 0.0, 2022-10-21 20:06:22.628
16.0, -152094.72502407135, -161664.66911609998, 40089.55241317182, -88025.17062725671, 74645.57285852109, -73511.11006869198, 86185.04091322911, -128491.88637636739, -0.032, 0.9440000000000001, -0.138, 192.0, 0.0, 0.0, 0.0, 0.0, 0.0, 0.0, 0.0, 0.0, 0.0, 1.666407982628172E9, 0.0, 2022-10-21 20:06:22.628
17.0, -152091.70753856987, -161661.24929919833, 40090.446482950036, -88035.40772621725, 74638.39794855093, -73546.80580458711, 86149.14401163388, -128498.81541714854, -0.032, 0.9440000000000001, -0.138, 192.0, 0.0, 0.0, 0.0, 0.0, 0.0, 0.0, 0.0, 0.0, 0.0, 1.6664079826281817E9, 0.0, 2022-10-21 20:06:22.628
18.0, -152085.2031809334, -161659.93054627546, 40095.83325336376, -88012.16191198373, 74643.22592535328, -73543.54244989663, 86160.34223560599, -128493.76392290163, -0.032, 0.9440000000000001, -0.138, 192.0, 0.0, 0.0, 0.0, 0.0, 0.0, 0.0, 0.0, 0.0, 0.0, 1.6664079826281917E9, 0.0, 2022-10-21 20:06:22.628
19.0, -152087.61716933455, -161663.3056596882, 40091.22879400597, -87995.28634491996, 74650.2667248567, -73511.11006869198, 86195.16625346735, -128492.80279789005, -0.032, 0.9440000000000001, -0.138, 192.0, 0.0, 0.0, 0.0, 0.0, 0.0, 0.0, 0.0, 0.0, 0.0, 1.6664079826282024E9, 0.0, 2022-10-21 20:06:22.628
20.0, -152084.37616638854, -161660.01995325327, 40091.8099393618, -88015.98406028558, 74645.97518992129, -73504.33749012202, 86192.81932029955, -128490.25469902215, -0.032, 0.9440000000000001, -0.138, 192.0, 0.0, 0.0, 0.0, 0.0, 0.0, 0.0, 0.0, 0.0, 0.0, 1.666407982628236E9, 0.0, 2022-10-21 20:06:22.628
21.0, -152083.01270997676, -161658.67884858596, 40096.794378375336, -88027.89754008026, 74645.21523060981, -73525.37048165446, 86164.9913984527, -128480.97872507319, -0.032, 0.9440000000000001, -0.138, 192.0, 0.0, 0.0, 0.0, 0.0, 0.0, 0.0, 0.0, 0.0, 0.0, 1.6664079826282463E9, 0.0, 2022-10-21 20:06:22.628
22.0, -152089.87469552454, -161666.34549693414, 40087.58545965976, -88021.61669988831, 74643.29298058664, -73537.7086445938, 86161.99626469568, -128487.5277861986, -0.032, 0.9440000000000001, -0.138, 192.0, 0.0, 0.0, 0.0, 0.0, 0.0, 0.0, 0.0, 0.0, 0.0, 1.6664079826282563E9, 0.0, 2022-10-21 20:06:22.628
23.0, -152104.62684686505, -161676.2026162389, 40077.37071244368, -88017.34751669735, 74633.32410255958, -73521.9059612639, 86188.05839873057, -128495.64146943588, -0.05, 0.9440000000000001, -0.138, 192.0, 254.0, 112.0, 29.0, 128.0, 251.0, 176.0, 0.0, 0.0, 0.0, 1.6664079826282663E9, 0.0, 2022-10-21 20:06:22.628
24.0, -152101.69876834142, -161670.63703186956, 40081.282267723356, -88024.45537143415, 74632.38532929246, -73507.86906574597, 86190.36062840947, -128493.65216417935, -0.05, 0.9440000000000001, -0.138, 192.0, 0.0, 0.0, 0.0, 0.0, 0.0, 0.0, 0.0, 0.0, 0.0, 1.6664079826282773E9, 0.0, 2022-10-21 20:06:22.628
25.0, -152094.41209964897, -161664.71381958888, 40085.685561381055, -88025.88588307929, 74636.29688457213, -73529.12557472296, 86162.97974145171, -128483.68328615229, -0.05, 0.9440000000000001, -0.138, 192.0, 0.0, 0.0, 0.0, 0.0, 0.0, 0.0, 0.0, 0.0, 0.0, 1.6664079826282873E9, 0.0, 2022-10-21 20:06:22.628
26.0, -152094.38974790453, -161664.28913644425, 40085.88672708115, -88024.65653713424, 74635.60398049402, -73546.93991505384, 86156.78830823759, -128482.72216114071, -0.05, 0.9440000000000001, -0.138, 192.0, 0.0, 0.0, 0.0, 0.0, 0.0, 0.0, 0.0, 0.0, 0.0, 1.666407982628297E9, 0.0, 2022-10-21 20:06:22.628
27.0, -152091.3499106586, -161662.0539619987, 40089.44065444954, -88005.72460958059, 74639.94021891836, -73516.47448736125, 86192.72991332173, -128475.94958257076, -0.05, 0.9440000000000001, -0.138, 192.0, 0.0, 0.0, 0.0, 0.0, 0.0, 0.0, 0.0, 0.0, 0.0, 1.6664079826283069E9, 0.0, 2022-10-21 20:06:22.628
28.0, -152090.79111704722, -161661.94220327644, 40089.530061427366, -88008.25035670404, 74644.07529164258, -73491.1946643823, 86207.03502977312, -128475.77076861511, -0.05, 0.9440000000000001, -0.138, 192.0, 0.0, 0.0, 0.0, 0.0, 0.0, 0.0, 0.0, 0.0, 0.0, 1.6664079826283169E9, 0.0, 2022-10-21 20:06:22.628
29.0, -152088.3994803905, -161660.64580209804, 40089.395950960636, -88031.09383953737, 74641.61659975251, -73515.26749316067, 86176.52489859163, -128481.76103612913, -0.05, 0.9440000000000001, -0.138, 192.0, 0.0, 0.0, 0.0, 0.0, 0.0, 0.0, 0.0, 0.0, 0.0, 1.6664079826283267E9, 0.0, 2022-10-21 20:06:22.628
30.0, -152082.43156462093, -161657.67302008547, 40094.000410318426, -88032.34553722687, 74643.06946314209, -73536.54635388212, 86160.05166292808, -128484.95733558624, -0.05, 0.9440000000000001, -0.138, 192.0, 0.0, 0.0, 0.0, 0.0, 0.0, 0.0, 0.0, 0.0, 0.0, 1.6664079826283367E9, 0.0, 2022-10-21 20:06:22.628
31.0, -152084.7561460443, -161660.31052593119, 40092.83811960675, -88016.76637134152, 74642.55537301963, -73523.3588246535, 86183.61040158397, -128483.81739661902, -0.05, 0.9440000000000001, -0.138, 192.0, 0.0, 0.0, 0.0, 0.0, 0.0, 0.0, 0.0, 0.0, 0.0, 1.6664079826283464E9, 0.0, 2022-10-21 20:06:22.628
32.0, -152098.05543399518, -161675.28619471626, 40081.88576482365, -88027.15993251324, 74635.84984968303, -73511.62415881445, 86193.4451691443, -128496.1332078139, -0.056, 0.9520000000000001, -0.14, 192.0, 254.0, 64.0, 29.0, 192.0, 251.0, 160.0, 0.0, 0.0, 0.0, 1.6664079826283565E9, 0.0, 2022-10-21 20:06:22.628
33.0, -152095.93201827194, -161675.24149122735, 40082.332799712756, -88045.08603156639, 74631.62536998097, -73529.6620165899, 86166.7348345202, -128500.22357704921, -0.056, 0.9520000000000001, -0.14, 192.0, 0.0, 0.0, 0.0, 0.0, 0.0, 0.0, 0.0, 0.0, 0.0, 1.6664079826283667E9, 0.0, 2022-10-21 20:06:22.628
34.0, -152085.09142221112, -161663.48447364385, 40091.85464285072, -88035.56418842843, 74638.10737587302, -73545.59881038652, 86151.73681399069, -128488.51126295463, -0.056, 0.9520000000000001, -0.14, 192.0, 0.0, 0.0, 0.0, 0.0, 0.0, 0.0, 0.0, 0.0, 0.0, 1.6664079826283767E9, 0.0, 2022-10-21 20:06:22.628
35.0, -152081.4927913538, -161662.76921782127, 40091.40760796161, -88015.6711358632, 74645.23758235427, -73529.03616774514, 86177.88835500341, -128481.73868438468, -0.056, 0.9520000000000001, -0.14, 192.0, 0.0, 0.0, 0.0, 0.0, 0.0, 0.0, 0.0, 0.0, 0.0, 1.66640798262846E9, 0.0, 2022-10-21 20:06:22.628
36.0, -152070.898064482, -161658.09770323013, 40097.6660964091, -87998.08031297688, 74656.18993713736, -73494.88270221742, 86211.84065483102, -128476.59778315996, -0.056, 0.9520000000000001, -0.14, 192.0, 0.0, 0.0, 0.0, 0.0, 0.0, 0.0, 0.0, 0.0, 0.0, 1.6664079826284711E9, 0.0, 2022-10-21 20:06:22.628
37.0, -152075.83780000661, -161661.36105792059, 40098.49311095395, -88016.78872308598, 74648.38917832247, -73512.2500076592, 86186.62788708543, -128479.86113785043, -0.056, 0.9520000000000001, -0.14, 192.0, 0.0, 0.0, 0.0, 0.0, 0.0, 0.0, 0.0, 0.0, 0.0, 1.6664079826284811E9, 0.0, 2022-10-21 20:06:22.628
38.0, -152084.08559371062, -161670.14529349154, 40086.62433464817, -88033.01608956052, 74638.82263169558, -73547.23048773177, 86149.12165988942, -128491.88637636739, -0.056, 0.9520000000000001, -0.14, 192.0, 0.0, 0.0, 0.0, 0.0, 0.0, 0.0, 0.0, 0.0, 0.0, 1.6664079826284907E9, 0.0, 2022-10-21 20:06:22.628
39.0, -152087.12543095654, -161673.90038656, 40081.10345376771, -88028.79160985847, 74632.16181184791, -73547.09637726503, 86160.36458735044, -128489.56179494403, -0.056, 0.9520000000000001, -0.14, 192.0, 0.0, 0.0, 0.0, 0.0, 0.0, 0.0, 0.0, 0.0, 0.0, 1.6664079826285007E9, 0.0, 2022-10-21 20:06:22.628
40.0, -152098.68128283994, -161685.23272099887, 40070.106395495706, -88034.89363609477, 74625.67980595586, -73521.57068509706, 86185.42089288484, -128498.86012063744, -0.056, 0.9520000000000001, -0.14, 192.0, 0.0, 0.0, 0.0, 0.0, 0.0, 0.0, 0.0, 0.0, 0.0, 1.6664079826285107E9, 0.0, 2022-10-21 20:06:22.628
41.0, -152096.11083222757, -161682.9528430644, 40072.72154959697, -88043.72257515462, 74625.3668815335, -73521.72714730825, 86175.42966311332, -128501.20705380525, -0.056, 0.9520000000000001, -0.14, 192.0, 0.0, 0.0, 0.0, 0.0, 0.0, 0.0, 0.0, 0.0, 0.0, 1.6664079826285205E9, 0.0, 2022-10-21 20:06:22.628
42.0, -152088.31007341266, -161671.97813653687, 40080.142328756134, -88047.4329647342, 74630.97716939177, -73547.43165343185, 86147.333520333, -128496.9825741032, -0.064, 0.9520000000000001, -0.138, 192.0, 254.0, 0.0, 29.0, 192.0, 251.0, 176.0, 0.0, 0.0, 0.0, 1.6664079826285305E9, 0.0, 2022-10-21 20:06:22.628
43.0, -152085.11377395556, -161661.42811315396, 40078.39889268862, -88036.94999658466, 74633.12293685948, -73546.17995574237, 86155.31309310354, -128497.60842294795, -0.064, 0.9520000000000001, -0.138, 192.0, 0.0, 0.0, 0.0, 0.0, 0.0, 0.0, 0.0, 0.0, 0.0, 1.6664079826285412E9, 0.0, 2022-10-21 20:06:22.628
44.0, -152079.145858186, -161649.76050254828, 40077.21425023249, -88025.50590342355, 74630.57483799157, -73516.18391468334, 86189.86889003144, -128494.30036476855, -0.064, 0.9520000000000001, -0.138, 192.0, 0.0, 0.0, 0.0, 0.0, 0.0, 0.0, 0.0, 0.0, 0.0, 1.666407982628551E9, 0.0, 2022-10-21 20:06:22.628
45.0, -152089.49471586882, -161668.06658125718, 40080.11997701168, -88031.36206047083, 74630.39602403594, -73514.77575478265, 86186.27025917414, -128494.6803444243, -0.064, 0.9520000000000001, -0.138, 192.0, 0.0, 0.0, 0.0, 0.0, 0.0, 0.0, 0.0, 0.0, 0.0, 1.6664079826285608E9, 0.0, 2022-10-21 20:06:22.628
46.0, -152088.75710830177, -161683.84691284262, 40093.68748589605, -88029.68567963669, 74645.30463758763, -73527.0021589997, 86165.46078508625, -128483.39271347437, -0.064, 0.9520000000000001, -0.138, 192.0, 0.0, 0.0, 0.0, 0.0, 0.0, 0.0, 0.0, 0.0, 0.0, 1.6664079826285715E9, 0.0, 2022-10-21 20:06:22.628
47.0, -152077.0894976961, -161673.09572375962, 40099.588346432254, -88013.14538873975, 74657.1734138934, -73524.63287408745, 86172.23336365621, -128476.55307967104, -0.064, 0.9520000000000001, -0.138, 192.0, 0.0, 0.0, 0.0, 0.0, 0.0, 0.0, 0.0, 0.0, 0.0, 1.6664079826285815E9, 0.0, 2022-10-21 20:06:22.628
48.0, -152079.5481895862, -161671.37463943657, 40087.27253523738, -88015.04528701845, 74649.48441380078, -73507.17616166784, 86200.1953959698, -128482.0739605515, -0.064, 0.9520000000000001, -0.138, 192.0, 0.0, 0.0, 0.0, 0.0, 0.0, 0.0, 0.0, 0.0, 0.0, 1.6664079826285913E9, 0.0, 2022-10-21 20:06:22.628
49.0, -152091.1487449585, -161679.2648052293, 40071.291037951836, -88042.40382223176, 74631.93829440336, -73513.23348441524, 86190.51709062065, -128501.31881252752, -0.064, 0.9520000000000001, -0.138, 192.0, 0.0, 0.0, 0.0, 0.0, 0.0, 0.0, 0.0, 0.0, 0.0, 1.6664079826286016E9, 0.0, 2022-10-21 20:06:22.628
50.0, -152085.94078850042, -161675.08502901616, 40074.01795077538, -88056.86540089434, 74626.4621170118, -73538.49095564973, 86157.57061929353, -128502.2352340502, -0.064, 0.9520000000000001, -0.138, 192.0, 0.0, 0.0, 0.0, 0.0, 0.0, 0.0, 0.0, 0.0, 0.0, 1.6664079826286223E9, 0.0, 2022-10-21 20:06:22.628
0.0, 0.0, 0.0, 0.0, 0.0, 0.0, 0.0, 0.0, 0.0, -0.064, 0.9520000000000001, -0.138, 192.0, 0.0, 0.0, 0.0, 0.0, 0.0, 0.0, 0.0, 0.0, 0.0, 1.6664079827023184E9, 0.0, 2022-10-21 20:06:22.702
1.0, -152732.57675559245, -162290.2050364262, 39160.61391360926, -88100.83128223792, 74710.32586220812, -73628.99316894927, 86114.25293853914, -128559.96978997825, -0.048, 0.9500000000000001, -0.14, 192.0, 254.0, 128.0, 29.0, 176.0, 251.0, 160.0, 0.0, 0.0, 0.0, 1.6664079827184124E9, 0.0, 2022-10-21 20:06:22.718
2.0, -152731.52622360305, -162289.22155967017, 39160.94918977609, -88082.41344480675, 74712.67279537593, -73597.38780228946, 86153.81552622504, -128553.17485966384, -0.048, 0.9500000000000001, -0.14, 192.0, 0.0, 0.0, 0.0, 0.0, 0.0, 0.0, 0.0, 0.0, 0.0, 1.6664079831972141E9, 0.0, 2022-10-21 20:06:23.197
3.0, -152736.3989038943, -162291.43438237126, 39150.73444256001, -88089.45424431018, 74708.7835918407, -73586.39074401745, 86159.31405536104, -128558.42751961084, -0.048, 0.9500000000000001, -0.14, 192.0, 0.0, 0.0, 0.0, 0.0, 0.0, 0.0, 0.0, 0.0, 0.0, 1.6664079831972802E9, 0.0, 2022-10-21 20:06:23.197
4.0, -152734.9460405047, -162290.67442305977, 39144.31949190134, -88100.27248862655, 74704.08972550508, -73612.54228503017, 86123.573615977, -128563.18844117981, -0.048, 0.9500000000000001, -0.14, 192.0, 0.0, 0.0, 0.0, 0.0, 0.0, 0.0, 0.0, 0.0, 0.0, 1.6664079831973057E9, 0.0, 2022-10-21 20:06:23.197
5.0, -152730.07336021346, -162287.41106836929, 39144.81123027936, -88095.57862229092, 74705.94492029487, -73628.0767474266, 86109.87199662591, -128557.6899120438, -0.048, 0.9500000000000001, -0.14, 192.0, 0.0, 0.0, 0.0, 0.0, 0.0, 0.0, 0.0, 0.0, 0.0, 1.6664079831973636E9, 0.0, 2022-10-21 20:06:23.197
6.0, -152735.43777888274, -162291.68025156026, 39141.637282566706, -88084.15688087427, 74708.94005405188, -73598.90772091242, 86146.90883718836, -128552.97369396374, -0.048, 0.9500000000000001, -0.14, 192.0, 0.0, 0.0, 0.0, 0.0, 0.0, 0.0, 0.0, 0.0, 0.0, 1.6664079831974287E9, 0.0, 2022-10-21 20:06:23.197
7.0, -152730.07336021346, -162286.6511090578, 39143.98421573451, -88076.91491567074, 74716.76316461124, -73568.91167985341, 86172.25571540066, -128543.96594094826, -0.042, 0.9540000000000001, -0.136, 192.0, 254.0, 176.0, 29.0, 208.0, 251.0, 192.0, 0.0, 0.0, 0.0, 1.666407983197446E9, 0.0, 2022-10-21 20:06:23.197
8.0, -152732.26383117007, -162289.8921120038, 39137.926892987125, -88091.37649433334, 74712.67279537593, -73593.47624700979, 86139.55511326256, -128558.36046437747, -0.042, 0.9540000000000001, -0.136, 192.0, 0.0, 0.0, 0.0, 0.0, 0.0, 0.0, 0.0, 0.0, 0.0, 1.6664079831974633E9, 0.0, 2022-10-21 20:06:23.197
9.0, -152737.87411902836, -162296.8658562739, 39127.846256237775, -88115.53873008952, 74697.49596089077, -73630.91541897242, 86104.95461284574, -128569.46928137176, -0.042, 0.9540000000000001, -0.136, 192.0, 0.0, 0.0, 0.0, 0.0, 0.0, 0.0, 0.0, 0.0, 0.0, 1.6664079831974723E9, 0.0, 2022-10-21 20:06:23.197
10.0, -152744.6466975983, -162304.6666150888, 39123.51001781345, -88106.30745962948, 74695.77487656771, -73615.09038389807, 86130.01091838014, -128570.43040638334, -0.042, 0.9540000000000001, -0.136, 192.0, 0.0, 0.0, 0.0, 0.0, 0.0, 0.0, 0.0, 0.0, 0.0, 1.6664079831974812E9, 0.0, 2022-10-21 20:06:23.197
11.0, -152744.1549592203, -162301.58207435397, 39125.14169515869, -88103.33467761692, 74697.47360914631, -73596.82900867809, 86150.39570932338, -128569.2457639272, -0.042, 0.9540000000000001, -0.136, 192.0, 0.0, 0.0, 0.0, 0.0, 0.0, 0.0, 0.0, 0.0, 0.0, 1.6664079831974905E9, 0.0, 2022-10-21 20:06:23.197
12.0, -152739.88577602935, -162297.58111209646, 39122.79476199088, -88112.76711377707, 74696.02074575672, -73615.53741878718, 86120.33261303099, -128574.43136864083, -0.042, 0.9540000000000001, -0.136, 192.0, 0.0, 0.0, 0.0, 0.0, 0.0, 0.0, 0.0, 0.0, 0.0, 1.6664079831974993E9, 0.0, 2022-10-21 20:06:23.197
13.0, -152739.72931381816, -162301.53737086503, 39120.425477078614, -88122.75834354859, 74696.82540855711, -73633.3294073736, 86097.37737147539, -128571.52564186165, -0.042, 0.9540000000000001, -0.136, 192.0, 0.0, 0.0, 0.0, 0.0, 0.0, 0.0, 0.0, 0.0, 0.0, 1.666407983197508E9, 0.0, 2022-10-21 20:06:23.197
14.0, -152735.68364807175, -162296.21765568468, 39125.186398647595, -88111.29189864302, 74696.7807050682, -73620.9241892009, 86120.51142698663, -128567.59173483751, -0.042, 0.9540000000000001, -0.136, 192.0, 0.0, 0.0, 0.0, 0.0, 0.0, 0.0, 0.0, 0.0, 0.0, 1.6664079831975172E9, 0.0, 2022-10-21 20:06:23.197
15.0, -152734.27548817106, -162289.33331839246, 39128.963843460544, -88096.47269206915, 74705.74375459478, -73589.89996789694, 86155.44720357028, -128563.7919382801, -0.042, 0.9540000000000001, -0.136, 192.0, 0.0, 0.0, 0.0, 0.0, 0.0, 0.0, 0.0, 0.0, 0.0, 1.6664079831975875E9, 0.0, 2022-10-21 20:06:23.197
16.0, -152738.00822949508, -162293.3119289055, 39126.01341319244, -88106.41921835176, 74706.70487960636, -73596.82900867809, 86136.04588938307, -128569.93866800531, -0.042, 0.9540000000000001, -0.136, 192.0, 0.0, 0.0, 0.0, 0.0, 0.0, 0.0, 0.0, 0.0, 0.0, 1.666407983197597E9, 0.0, 2022-10-21 20:06:23.197
17.0, -152729.0004764796, -162284.66180380128, 39130.729631272516, -88102.10533167188, 74712.38222269801, -73616.87852345449, 86112.1742263048, -128562.96492373526, -0.032, 0.9540000000000001, -0.136, 192.0, 255.0, 0.0, 29.0, 208.0, 251.0, 192.0, 0.0, 0.0, 0.0, 1.666407983197606E9, 0.0, 2022-10-21 20:06:23.197
18.0, -152721.42323510925, -162275.6987542747, 39138.53039008741, -88083.37456981833, 74724.51921993724, -73605.56854076011, 86134.61537773794, -128551.85610674098, -0.032, 0.9540000000000001, -0.136, 192.0, 0.0, 0.0, 0.0, 0.0, 0.0, 0.0, 0.0, 0.0, 0.0, 1.666407983197616E9, 0.0, 2022-10-21 20:06:23.197
19.0, -152731.97325849216, -162287.67928930276, 39126.19222714809, -88095.28804961301, 74715.48911517729, -73585.94370912835, 86161.81745074004, -128556.6393800544, -0.032, 0.9540000000000001, -0.136, 192.0, 0.0, 0.0, 0.0, 0.0, 0.0, 0.0, 0.0, 0.0, 0.0, 1.6664079831976247E9, 0.0, 2022-10-21 20:06:23.197
20.0, -152737.71765681717, -162292.01552772708, 39118.212654377545, -88116.92453824574, 74701.02753651471, -73599.86884592401, 86138.59398825097, -128570.56451685006, -0.032, 0.9540000000000001, -0.136, 192.0, 0.0, 0.0, 0.0, 0.0, 0.0, 0.0, 0.0, 0.0, 0.0, 1.6664079831976335E9, 0.0, 2022-10-21 20:06:23.197
21.0, -152734.9907439936, -162291.16616143778, 39117.8326747218, -88123.27243367105, 74700.62520511451, -73634.51404982973, 86101.1771680328, -128574.31960991856, -0.032, 0.9540000000000001, -0.136, 192.0, 0.0, 0.0, 0.0, 0.0, 0.0, 0.0, 0.0, 0.0, 0.0, 1.6664079831976428E9, 0.0, 2022-10-21 20:06:23.197
22.0, -152734.5437091045, -162294.47421961717, 39117.1844741326, -88111.06838119846, 74707.9342255514, -73628.6802445269, 86112.48715072717, -128566.0494644701, -0.032, 0.9540000000000001, -0.136, 192.0, 0.0, 0.0, 0.0, 0.0, 0.0, 0.0, 0.0, 0.0, 0.0, 1.6664079831976535E9, 0.0, 2022-10-21 20:06:23.197
23.0, -152740.6904388297, -162299.5033621196, 39111.19420661857, -88101.56888980496, 74708.87299881852, -73596.69489821135, 86151.60270352397, -128563.344903391, -0.032, 0.9540000000000001, -0.136, 192.0, 0.0, 0.0, 0.0, 0.0, 0.0, 0.0, 0.0, 0.0, 0.0, 1.666407983197662E9, 0.0, 2022-10-21 20:06:23.197
24.0, -152743.21618595318, -162302.2079231987, 39103.84048269278, -88108.49793058609, 74704.46970516082, -73591.97868013129, 86149.00990116716, -128569.93866800531, -0.032, 0.9540000000000001, -0.136, 192.0, 0.0, 0.0, 0.0, 0.0, 0.0, 0.0, 0.0, 0.0, 0.0, 1.6664079831976712E9, 0.0, 2022-10-21 20:06:23.197
25.0, -152734.7001713157, -162290.33914689295, 39107.55087227236, -88111.29189864302, 74711.42109768643, -73612.54228503017, 86118.67858394129, -128565.49067085871, -0.032, 0.9540000000000001, -0.136, 192.0, 0.0, 0.0, 0.0, 0.0, 0.0, 0.0, 0.0, 0.0, 0.0, 1.6664079831976802E9, 0.0, 2022-10-21 20:06:23.197
26.0, -152732.82262478146, -162288.5510073365, 39105.22629084901, -88101.81475899396, 74717.0313855447, -73614.39747981996, 86117.49394148517, -128562.00379872369, -0.032, 0.9540000000000001, -0.136, 192.0, 0.0, 0.0, 0.0, 0.0, 0.0, 0.0, 0.0, 0.0, 0.0, 1.6664079831976893E9, 0.0, 2022-10-21 20:06:23.197
27.0, -152741.7409708191, -162298.296367919, 39093.84925292126, -88106.97801196313, 74704.93909179438, -73600.89702616895, 86142.12556387491, -128568.97754299374, -0.032, 0.9480000000000001, -0.134, 192.0, 255.0, 0.0, 29.0, 160.0, 251.0, 208.0, 0.0, 0.0, 0.0, 1.666407983197698E9, 0.0, 2022-10-21 20:06:23.197
28.0, -152739.68461032925, -162296.2623591736, 39094.94448839957, -88114.24232891112, 74700.49109464778, -73591.866921409, 86147.84761045547, -128566.00476098119, -0.032, 0.9480000000000001, -0.134, 192.0, 0.0, 0.0, 0.0, 0.0, 0.0, 0.0, 0.0, 0.0, 0.0, 1.6664079831977084E9, 0.0, 2022-10-21 20:06:23.197
29.0, -152731.86149976988, -162287.23225441366, 39098.565471001326, -88109.66022129777, 74709.11886800753, -73608.87659893949, 86122.00899386514, -128562.78610977961, -0.032, 0.9480000000000001, -0.134, 192.0, 0.0, 0.0, 0.0, 0.0, 0.0, 0.0, 0.0, 0.0, 0.0, 1.6664079831977174E9, 0.0, 2022-10-21 20:06:23.197
30.0, -152739.9975347516, -162298.4081266413, 39088.93186914109, -88118.93619524673, 74697.80888531315, -73639.69965454336, 86095.85745285243, -128573.35848490697, -0.032, 0.9480000000000001, -0.134, 192.0, 0.0, 0.0, 0.0, 0.0, 0.0, 0.0, 0.0, 0.0, 0.0, 1.6664079831977353E9, 0.0, 2022-10-21 20:06:23.197
31.0, -152748.4017906668, -162307.818211057, 39080.08057833679, -88119.18206443574, 74692.95855676635, -73624.36635784703, 86123.21598806573, -128574.20785119628, -0.032, 0.9480000000000001, -0.134, 192.0, 0.0, 0.0, 0.0, 0.0, 0.0, 0.0, 0.0, 0.0, 0.0, 1.6664079831977444E9, 0.0, 2022-10-21 20:06:23.197
32.0, -152746.5018923881, -162304.42074589978, 39081.86871789321, -88115.80695102298, 74697.07127774612, -73597.03017437819, 86149.18871512279, -128569.0445982271, -0.032, 0.9480000000000001, -0.134, 192.0, 0.0, 0.0, 0.0, 0.0, 0.0, 0.0, 0.0, 0.0, 0.0, 1.6664079831977532E9, 0.0, 2022-10-21 20:06:23.197
33.0, -152746.63600285482, -162303.28080693257, 39080.974648115, -88125.41820113876, 74695.35019342306, -73610.79884896266, 86121.18197932029, -128573.26907792916, -0.032, 0.9480000000000001, -0.134, 192.0, 0.0, 0.0, 0.0, 0.0, 0.0, 0.0, 0.0, 0.0, 0.0, 1.666407983197762E9, 0.0, 2022-10-21 20:06:23.197
34.0, -152745.1607877208, -162300.68800457573, 39080.594668459256, -88130.6038058524, 74693.65146084446, -73635.96691321932, 86096.14802553035, -128572.46441512876, -0.032, 0.9480000000000001, -0.134, 192.0, 0.0, 0.0, 0.0, 0.0, 0.0, 0.0, 0.0, 0.0, 0.0, 1.6664079831977708E9, 0.0, 2022-10-21 20:06:23.197
35.0, -152745.58547086542, -162303.03493774353, 39079.41002600313, -88115.42697136724, 74699.95465278086, -73619.89600895596, 86126.25582531164, -128570.2962959166, -0.032, 0.9480000000000001, -0.134, 192.0, 0.0, 0.0, 0.0, 0.0, 0.0, 0.0, 0.0, 0.0, 0.0, 1.6664079831977797E9, 0.0, 2022-10-21 20:06:23.197
36.0, -152750.27933720106, -162309.24872270212, 39074.96202885652, -88116.18693067873, 74696.80305681266, -73599.39945929045, 86148.04877615557, -128574.65488608538, -0.032, 0.9480000000000001, -0.134, 192.0, 0.0, 0.0, 0.0, 0.0, 0.0, 0.0, 0.0, 0.0, 0.0, 1.6664079831977885E9, 0.0, 2022-10-21 20:06:23.197
37.0, -152747.3065551885, -162303.14669646582, 39078.82888064729, -88123.56300634898, 74696.08780099009, -73612.09525014106, 86124.5794444775, -128578.27586868715, -0.026000000000000002, 0.9400000000000001, -0.14400000000000002, 192.0, 255.0, 48.0, 29.0, 96.0, 251.0, 128.0, 0.0, 0.0, 0.0, 1.6664079831977975E9, 0.0, 2022-10-21 20:06:23.197
38.0, -152743.77497956457, -162297.2011324407, 39086.607287717736, -88125.90993951679, 74703.26271096023, -73620.29834035615, 86106.20631053524, -128571.57034535056, -0.026000000000000002, 0.9400000000000001, -0.14400000000000002, 192.0, 0.0, 0.0, 0.0, 0.0, 0.0, 0.0, 0.0, 0.0, 0.0, 1.666407983197807E9, 0.0, 2022-10-21 20:06:23.197
39.0, -152743.23853769762, -162297.9610917522, 39087.70252319605, -88113.92940448874, 74704.89438830547, -73612.02819490769, 86126.4793427562, -128567.0999964595, -0.026000000000000002, 0.9400000000000001, -0.14400000000000002, 192.0, 0.0, 0.0, 0.0, 0.0, 0.0, 0.0, 0.0, 0.0, 0.0, 1.666407983197816E9, 0.0, 2022-10-21 20:06:23.197
40.0, -152753.18506398023, -162307.4605831457, 39076.325485268295, -88121.68545981473, 74699.50761789175, -73593.00686037623, 86153.56965703603, -128574.58783085202, -0.026000000000000002, 0.9400000000000001, -0.14400000000000002, 192.0, 0.0, 0.0, 0.0, 0.0, 0.0, 0.0, 0.0, 0.0, 0.0, 1.6664079831978247E9, 0.0, 2022-10-21 20:06:23.197
41.0, -152752.42510466877, -162304.4654493887, 39079.5217847254, -88134.31419543197, 74697.51831263522, -73594.21385457681, 86141.85734294145, -128569.0445982271, -0.026000000000000002, 0.9400000000000001, -0.14400000000000002, 192.0, 0.0, 0.0, 0.0, 0.0, 0.0, 0.0, 0.0, 0.0, 0.0, 1.6664079831978335E9, 0.0, 2022-10-21 20:06:23.197
42.0, -152752.42510466877, -162301.9173505208, 39085.8249766618, -88138.53867513403, 74705.74375459478, -73617.59377927707, 86113.02359259411, -128564.41778712485, -0.026000000000000002, 0.9400000000000001, -0.14400000000000002, 192.0, 0.0, 0.0, 0.0, 0.0, 0.0, 0.0, 0.0, 0.0, 0.0, 1.6664079831978428E9, 0.0, 2022-10-21 20:06:23.197
43.0, -152760.49408441712, -162313.65201635982, 39076.16902305711, -88138.67278560076, 74699.37350742501, -73623.89697121346, 86114.29764202806, -128569.6480953274, -0.026000000000000002, 0.9400000000000001, -0.14400000000000002, 192.0, 0.0, 0.0, 0.0, 0.0, 0.0, 0.0, 0.0, 0.0, 0.0, 1.6664079831978517E9, 0.0, 2022-10-21 20:06:23.197
44.0, -152752.02277326857, -162306.8570860454, 39082.78513941588, -88120.38905863633, 74708.11303950704, -73587.19540681785, 86160.67751177282, -128555.70060678729, -0.026000000000000002, 0.9400000000000001, -0.14400000000000002, 192.0, 0.0, 0.0, 0.0, 0.0, 0.0, 0.0, 0.0, 0.0, 0.0, 1.6664079831978605E9, 0.0, 2022-10-21 20:06:23.197
45.0, -152747.73123833316, -162303.77254531058, 39089.334200541285, -88127.80983779549, 74713.70097562087, -73582.07685733758, 86160.07401467253, -128552.23608639672, -0.026000000000000002, 0.9400000000000001, -0.14400000000000002, 192.0, 0.0, 0.0, 0.0, 0.0, 0.0, 0.0, 0.0, 0.0, 0.0, 1.6664079831978776E9, 0.0, 2022-10-21 20:06:23.197
46.0, -152740.1987004517, -162295.8153242845, 39092.619906976215, -88128.16746570676, 74717.32195822263, -73613.39165131947, 86122.85836015444, -128554.85124049798, -0.022, 0.9440000000000001, -0.136, 192.0, 255.0, 80.0, 29.0, 128.0, 251.0, 192.0, 0.0, 0.0, 0.0, 1.6664079831978867E9, 0.0, 2022-10-21 20:06:23.197
47.0, -152751.1957587237, -162306.4547546452, 39080.86288939272, -88139.29863444551, 74709.32003370763, -73629.75312826075, 86116.19754030676, -128564.17191793585, -0.022, 0.9440000000000001, -0.136, 192.0, 0.0, 0.0, 0.0, 0.0, 0.0, 0.0, 0.0, 0.0, 0.0, 1.6664079831978965E9, 0.0, 2022-10-21 20:06:23.197
48.0, -152758.5494826495, -162315.0154727716, 39074.93967711207, -88140.1032972459, 74698.56884462462, -73610.41886930692, 86144.49484878717, -128568.77637729365, -0.022, 0.9440000000000001, -0.136, 192.0, 0.0, 0.0, 0.0, 0.0, 0.0, 0.0, 0.0, 0.0, 0.0, 1.6664079831979053E9, 0.0, 2022-10-21 20:06:23.197
49.0, -152759.3988489388, -162313.49555414863, 39075.16319455662, -88142.78550658053, 74702.86037956005, -73590.4140580194, 86152.13914539089, -128564.77541503614, -0.022, 0.9440000000000001, -0.136, 192.0, 0.0, 0.0, 0.0, 0.0, 0.0, 0.0, 0.0, 0.0, 0.0, 1.6664079831979148E9, 0.0, 2022-10-21 20:06:23.197
50.0, -152742.2997644305, -162294.6977370617, 39092.10581685374, -88135.36472742137, 74718.2830832342, -73598.41598253441, 86134.59302599347, -128547.22929563872, -0.022, 0.9440000000000001, -0.136, 192.0, 0.0, 0.0, 0.0, 0.0, 0.0, 0.0, 0.0, 0.0, 0.0, 1.666407983197924E9, 0.0, 2022-10-21 20:06:23.197
51.0, -152748.26768020008, -162302.38673715433, 39083.656857449634, -88138.02458501156, 74717.34430996708, -73615.78328797618, 86124.28887179958, -128547.27399912763, -0.022, 0.9440000000000001, -0.136, 192.0, 0.0, 0.0, 0.0, 0.0, 0.0, 0.0, 0.0, 0.0, 0.0, 1.6664079831979327E9, 0.0, 2022-10-21 20:06:23.197
52.0, -152764.27152923009, -162316.60244662792, 39066.624828174696, -88138.94100653422, 74705.72140285032, -73603.26631108121, 86147.55703777756, -128553.97952246423, -0.022, 0.9440000000000001, -0.136, 192.0, 0.0, 0.0, 0.0, 0.0, 0.0, 0.0, 0.0, 0.0, 0.0, 1.666407983197942E9, 0.0, 2022-10-21 20:06:23.197
53.0, -152766.14907576432, -162318.34588269543, 39065.551944440835, -88141.28793970203, 74703.95561503836, -73594.88440691047, 86155.04487217008, -128562.8978685019, -0.022, 0.9440000000000001, -0.136, 192.0, 0.0, 0.0, 0.0, 0.0, 0.0, 0.0, 0.0, 0.0, 0.0, 1.6664079831979508E9, 0.0, 2022-10-21 20:06:23.197
54.0, -152760.62819488384, -162313.4061471708, 39067.49654620845, -88149.51338166159, 74705.58729238359, -73618.13022114399, 86124.53474098859, -128562.02615046814, -0.022, 0.9440000000000001, -0.136, 192.0, 0.0, 0.0, 0.0, 0.0, 0.0, 0.0, 0.0, 0.0, 0.0, 1.6664079831979597E9, 0.0, 2022-10-21 20:06:23.197
55.0, -152757.38719193783, -162310.58982736943, 39069.3740927427, -88149.75925085059, 74709.45414417436, -73627.33913985958, 86115.30347052854, -128553.91246723087, -0.022, 0.9440000000000001, -0.136, 192.0, 0.0, 0.0, 0.0, 0.0, 0.0, 0.0, 0.0, 0.0, 0.0, 1.6664079831979685E9, 0.0, 2022-10-21 20:06:23.197
56.0, -152759.4659041722, -162311.34978668092, 39068.39061598666, -88135.70000358821, 74714.19271399888, -73597.119581356, 86150.57452327902, -128544.99412119319, -0.026000000000000002, 0.9480000000000001, -0.134, 192.0, 255.0, 48.0, 29.0, 160.0, 251.0, 208.0, 0.0, 0.0, 0.0, 1.6664079831979775E9, 0.0, 2022-10-21 20:06:23.197
57.0, -152755.64375587032, -162304.64426334432, 39066.133089796676, -88124.65824182729, 74716.91962682243, -73579.86403463651, 86169.39469211039, -128548.95037996178, -0.026000000000000002, 0.9480000000000001, -0.134, 192.0, 0.0, 0.0, 0.0, 0.0, 0.0, 0.0, 0.0, 0.0, 0.0, 1.6664079831979868E9, 0.0, 2022-10-21 20:06:23.197
58.0, -152766.48435193114, -162314.94841753822, 39047.9164180656, -88156.21890499818, 74695.4843038898, -73623.18171539089, 86121.80782816504, -128574.58783085202, -0.026000000000000002, 0.9480000000000001, -0.134, 192.0, 0.0, 0.0, 0.0, 0.0, 0.0, 0.0, 0.0, 0.0, 0.0, 1.666407983197996E9, 0.0, 2022-10-21 20:06:23.197
59.0, -152764.13741876333, -162314.68019660475, 39048.966950055, -88167.43948071475, 74690.9245480209, -73644.05824471214, 86096.10332204144, -128572.1961941953, -0.026000000000000002, 0.9480000000000001, -0.134, 192.0, 0.0, 0.0, 0.0, 0.0, 0.0, 0.0, 0.0, 0.0, 0.0, 1.6664079831980045E9, 0.0, 2022-10-21 20:06:23.198
60.0, -152765.50087517512, -162317.6753303618, 39047.22351398748, -88154.2519514861, 74697.00422251275, -73616.49854379875, 86125.69703170026, -128565.31185690306, -0.026000000000000002, 0.9480000000000001, -0.134, 192.0, 0.0, 0.0, 0.0, 0.0, 0.0, 0.0, 0.0, 0.0, 0.0, 1.6664079831980217E9, 0.0, 2022-10-21 20:06:23.198
61.0, -152772.0052328116, -162325.87842057686, 39039.17688598357, -88159.88459108885, 74690.49986487626, -73599.98060464628, 86145.27715984311, -128576.10774947498, -0.026000000000000002, 0.9480000000000001, -0.134, 192.0, 0.0, 0.0, 0.0, 0.0, 0.0, 0.0, 0.0, 0.0, 0.0, 1.6664079831980307E9, 0.0, 2022-10-21 20:06:23.198
62.0, -152766.32788971995, -162319.061138518, 39046.57531339828, -88167.2159632702, 74689.15876020894, -73614.39747981996, 86124.5794444775, -128574.14079596291, -0.026000000000000002, 0.9480000000000001, -0.134, 192.0, 0.0, 0.0, 0.0, 0.0, 0.0, 0.0, 0.0, 0.0, 0.0, 1.6664079831980422E9, 0.0, 2022-10-21 20:06:23.198
63.0, -152754.0120785251, -162307.0582517455, 39058.91347633761, -88163.5055736906, 74696.55718762365, -73630.22251489431, 86104.9769645902, -128554.13598467542, -0.026000000000000002, 0.9480000000000001, -0.134, 192.0, 0.0, 0.0, 0.0, 0.0, 0.0, 0.0, 0.0, 0.0, 0.0, 1.6664079831980512E9, 0.0, 2022-10-21 20:06:23.198
64.0, -152764.02566004105, -162321.87745831936, 39043.714290108, -88168.53471619305, 74688.64467008646, -73632.6365032955, 86112.35304026045, -128571.65975232837, -0.026000000000000002, 0.9480000000000001, -0.134, 192.0, 0.0, 0.0, 0.0, 0.0, 0.0, 0.0, 0.0, 0.0, 0.0, 1.6664079831980605E9, 0.0, 2022-10-21 20:06:23.198
65.0, -152763.9139013188, -162320.3128362075, 39042.48494416296, -88163.75144287961, 74689.98577475379, -73601.3217093136, 86146.81943021053, -128571.68210407282, -0.026000000000000002, 0.9480000000000001, -0.134, 192.0, 0.0, 0.0, 0.0, 0.0, 0.0, 0.0, 0.0, 0.0, 0.0, 1.666407983198069E9, 0.0, 2022-10-21 20:06:23.198
66.0, -152760.69525011722, -162315.44015591624, 39048.721080865995, -88161.94095157874, 74696.28896669019, -73601.09819186905, 86137.67756672831, -128573.35848490697, -0.028, 0.9400000000000001, -0.13, 192.0, 255.0, 32.0, 29.0, 96.0, 251.0, 240.0, 0.0, 0.0, 0.0, 1.6664079831980782E9, 0.0, 2022-10-21 20:06:23.198
67.0, -152749.1617499783, -162303.77254531058, 39062.57916242828, -88148.44049792773, 74710.14704825247, -73617.28085485469, 86115.72815367319, -128559.16512717785, -0.028, 0.9400000000000001, -0.13, 192.0, 0.0, 0.0, 0.0, 0.0, 0.0, 0.0, 0.0, 0.0, 0.0, 1.6664079831980877E9, 0.0, 2022-10-21 20:06:23.198
68.0, -152757.63306112683, -162309.74046108013, 39053.14672626814, -88160.33162597795, 74696.08780099009, -73631.8318404951, 86112.06246758252, -128563.97075223575, -0.028, 0.9400000000000001, -0.13, 192.0, 0.0, 0.0, 0.0, 0.0, 0.0, 0.0, 0.0, 0.0, 0.0, 1.6664079831980968E9, 0.0, 2022-10-21 20:06:23.198
69.0, -152763.53392166304, -162317.0718332615, 39046.284740720366, -88155.95068406471, 74696.19955971236, -73600.44999127985, 86151.53564829059, -128567.32351390405, -0.028, 0.9400000000000001, -0.13, 192.0, 0.0, 0.0, 0.0, 0.0, 0.0, 0.0, 0.0, 0.0, 0.0, 1.6664079831981056E9, 0.0, 2022-10-21 20:06:23.198
70.0, -152759.93529080573, -162316.37892918335, 39045.94946455353, -88168.89234410434, 74694.72434457831, -73599.08653486807, 86145.14304937638, -128575.32543841905, -0.028, 0.9400000000000001, -0.13, 192.0, 0.0, 0.0, 0.0, 0.0, 0.0, 0.0, 0.0, 0.0, 0.0, 1.6664079831981187E9, 0.0, 2022-10-21 20:06:23.198
71.0, -152762.52809316255, -162319.35171119592, 39044.9659877975, -88175.50846046311, 74693.7855713112, -73631.60832305055, 86105.64751692385, -128575.70541807478, -0.028, 0.9400000000000001, -0.13, 192.0, 0.0, 0.0, 0.0, 0.0, 0.0, 0.0, 0.0, 0.0, 0.0, 1.6664079831981275E9, 0.0, 2022-10-21 20:06:23.198
72.0, -152764.6515088858, -162319.6646356183, 39046.0165197869, -88171.19457378323, 74696.49013239029, -73638.76088127623, 86104.3734674899, -128568.06112147107, -0.028, 0.9400000000000001, -0.13, 192.0, 0.0, 0.0, 0.0, 0.0, 0.0, 0.0, 0.0, 0.0, 0.0, 1.6664079831981363E9, 0.0, 2022-10-21 20:06:23.198
73.0, -152764.4056396968, -162320.9163333078, 39042.999034285436, -88162.70091089021, 74701.74279233727, -73606.17203786041, 86142.84081969748, -128561.93674349031, -0.028, 0.9400000000000001, -0.13, 192.0, 0.0, 0.0, 0.0, 0.0, 0.0, 0.0, 0.0, 0.0, 0.0, 1.6664079831981452E9, 0.0, 2022-10-21 20:06:23.198
74.0, -152765.67968913075, -162323.64324613134, 39040.98737728446, -88167.059501059, 74701.96630978183, -73590.3693545305, 86152.54147679108, -128562.83081326853, -0.028, 0.9400000000000001, -0.13, 192.0, 0.0, 0.0, 0.0, 0.0, 0.0, 0.0, 0.0, 0.0, 0.0, 1.6664079831981542E9, 0.0, 2022-10-21 20:06:23.198
75.0, -152759.7117733612, -162315.32839719398, 39049.8163163443, -88167.84181211494, 74704.62616737201, -73612.54228503017, 86123.26069155463, -128557.60050506599, -0.022, 0.9400000000000001, -0.132, 192.0, 255.0, 80.0, 29.0, 96.0, 251.0, 224.0, 0.0, 0.0, 0.0, 1.6664079831981711E9, 0.0, 2022-10-21 20:06:23.198
76.0, -152763.73508736314, -162318.63645537334, 39044.40719418612, -88171.0157598276, 74701.67573710391, -73635.60928530805, 86104.73109540119, -128569.73750230522, -0.022, 0.9400000000000001, -0.132, 192.0, 0.0, 0.0, 0.0, 0.0, 0.0, 0.0, 0.0, 0.0, 0.0, 1.666407983198181E9, 0.0, 2022-10-21 20:06:23.198
77.0, -152771.7593636226, -162328.20300200023, 39034.55007488133, -88163.5055736906, 74695.14902772296, -73621.14770664545, 86127.3287090455, -128577.71707507577, -0.022, 0.9400000000000001, -0.132, 192.0, 0.0, 0.0, 0.0, 0.0, 0.0, 0.0, 0.0, 0.0, 0.0, 1.6664079831981897E9, 0.0, 2022-10-21 20:06:23.198
78.0, -152769.12185777686, -162326.66073163282, 39037.880484805166, -88172.49097496163, 74692.28800443269, -73604.62976749298, 86142.41613655283, -128574.47607212975, -0.022, 0.9400000000000001, -0.132, 192.0, 0.0, 0.0, 0.0, 0.0, 0.0, 0.0, 0.0, 0.0, 0.0, 1.6664079831981988E9, 0.0, 2022-10-21 20:06:23.198
79.0, -152769.23361649914, -162324.89494382084, 39037.72402259398, -88179.84469888743, 74695.86428354554, -73618.30903509964, 86118.54447347457, -128571.7044558173, -0.022, 0.9400000000000001, -0.132, 192.0, 0.0, 0.0, 0.0, 0.0, 0.0, 0.0, 0.0, 0.0, 0.0, 1.6664079831982076E9, 0.0, 2022-10-21 20:06:23.198
80.0, -152762.68455537374, -162319.4187664293, 39041.56852264029, -88176.78250989706, 74699.66408010294, -73633.17294516241, 86104.48522621217, -128564.35073189149, -0.022, 0.9400000000000001, -0.132, 192.0, 0.0, 0.0, 0.0, 0.0, 0.0, 0.0, 0.0, 0.0, 0.0, 1.6664079831982164E9, 0.0, 2022-10-21 20:06:23.198
81.0, -152769.8594653439, -162325.61019964342, 39032.40430741362, -88180.80582389902, 74692.69033583289, -73620.81243047863, 86128.06631661253, -128567.3011621596, -0.022, 0.9400000000000001, -0.132, 192.0, 0.0, 0.0, 0.0, 0.0, 0.0, 0.0, 0.0, 0.0, 0.0, 1.6664079831982253E9, 0.0, 2022-10-21 20:06:23.198
82.0, -152773.39104096784, -162331.8686880909, 39026.23522594395, -88189.34419028094, 74687.86235903054, -73592.4704185093, 86152.58618027999, -128572.01738023966, -0.022, 0.9400000000000001, -0.132, 192.0, 0.0, 0.0, 0.0, 0.0, 0.0, 0.0, 0.0, 0.0, 0.0, 1.666407983198234E9, 0.0, 2022-10-21 20:06:23.198
83.0, -152767.37842170935, -162328.76179561162, 39030.0126707569, -88199.9165654083, 74684.28607991769, -73613.92809318639, 86124.26652005513, -128574.34196166301, -0.022, 0.9400000000000001, -0.132, 192.0, 0.0, 0.0, 0.0, 0.0, 0.0, 0.0, 0.0, 0.0, 0.0, 1.666407983198243E9, 0.0, 2022-10-21 20:06:23.198
84.0, -152758.43772392723, -162319.15054549582, 39039.64627261714, -88196.9214316513, 74689.94107126488, -73630.64719803896, 86101.89242385536, -128564.03780746911, -0.022, 0.9400000000000001, -0.132, 192.0, 0.0, 0.0, 0.0, 0.0, 0.0, 0.0, 0.0, 0.0, 0.0, 1.6664079831982517E9, 0.0, 2022-10-21 20:06:23.198
85.0, -152754.57087213648, -162313.6073128709, 39045.6141883867, -88175.86608837439, 74695.26078644524, -73616.6773577544, 86124.24416831067, -128561.6461708124, -0.02, 0.9460000000000001, -0.134, 192.0, 255.0, 96.0, 29.0, 144.0, 251.0, 208.0, 0.0, 0.0, 0.0, 1.6664079831982605E9, 0.0, 2022-10-21 20:06:23.198
86.0, -152764.27152923009, -162321.49747866363, 39034.952406281525, -88183.75625416712, 74684.42019038442, -73601.88050292498, 86143.98075866471, -128574.07374072955, -0.02, 0.9460000000000001, -0.134, 192.0, 0.0, 0.0, 0.0, 0.0, 0.0, 0.0, 0.0, 0.0, 0.0, 1.66640798319827E9, 0.0, 2022-10-21 20:06:23.198
87.0, -152767.17725600925, -162324.09028102044, 39030.92909227957, -88203.64930673235, 74676.30650714714, -73616.74441298777, 86118.52212173012, -128581.80744431108, -0.02, 0.9460000000000001, -0.134, 192.0, 0.0, 0.0, 0.0, 0.0, 0.0, 0.0, 0.0, 0.0, 0.0, 1.666407983198279E9, 0.0, 2022-10-21 20:06:23.198
88.0, -152759.82353208348, -162319.9105048073, 39036.02529001538, -88204.38691429936, 74685.0236874847, -73635.2293056523, 86093.13054002888, -128580.84631929951, -0.02, 0.9460000000000001, -0.134, 192.0, 0.0, 0.0, 0.0, 0.0, 0.0, 0.0, 0.0, 0.0, 0.0, 1.6664079831982875E9, 0.0, 2022-10-21 20:06:23.198
89.0, -152753.43093316923, -162316.1107082499, 39045.74829885344, -88188.87480364738, 74689.73990556478, -73629.57431430511, 86108.84381638096, -128570.0504267276, -0.02, 0.9460000000000001, -0.134, 192.0, 0.0, 0.0, 0.0, 0.0, 0.0, 0.0, 0.0, 0.0, 0.0, 1.6664079831982965E9, 0.0, 2022-10-21 20:06:23.198
90.0, -152751.3969244238, -162309.2040192132, 39050.8668483337, -88180.35878900992, 74690.65632708745, -73606.39555530496, 86141.09738362997, -128567.61408658196, -0.02, 0.9460000000000001, -0.134, 192.0, 0.0, 0.0, 0.0, 0.0, 0.0, 0.0, 0.0, 0.0, 0.0, 1.6664079831983132E9, 0.0, 2022-10-21 20:06:23.198
91.0, -152752.5592151355, -162310.38866166933, 39050.598627400235, -88186.17024256829, 74693.85262654455, -73604.58506400407, 86134.21304633774, -128572.10678721748, -0.02, 0.9460000000000001, -0.134, 192.0, 0.0, 0.0, 0.0, 0.0, 0.0, 0.0, 0.0, 0.0, 0.0, 1.666407983198322E9, 0.0, 2022-10-21 20:06:23.198
92.0, -152750.18993022322, -162309.4722401467, 39051.33623496726, -88195.44621651724, 74695.97604226781, -73625.39453809196, 86103.9711360897, -128575.16897620786, -0.02, 0.9460000000000001, -0.134, 192.0, 0.0, 0.0, 0.0, 0.0, 0.0, 0.0, 0.0, 0.0, 0.0, 1.6664079831983316E9, 0.0, 2022-10-21 20:06:23.198
93.0, -152758.12479950488, -162318.30117920652, 39047.08940352075, -88192.62989671588, 74692.60092885506, -73631.4295090949, 86103.99348783416, -128577.67237158686, -0.02, 0.9460000000000001, -0.134, 192.0, 0.0, 0.0, 0.0, 0.0, 0.0, 0.0, 0.0, 0.0, 0.0, 1.6664079831983407E9, 0.0, 2022-10-21 20:06:23.198
94.0, -152762.34927920692, -162320.17872574076, 39043.93780755255, -88185.11971057889, 74686.4765508743, -73610.12829662899, 86133.94482540427, -128576.37597040845, -0.02, 0.9460000000000001, -0.134, 192.0, 0.0, 0.0, 0.0, 0.0, 0.0, 0.0, 0.0, 0.0, 0.0, 1.6664079831983497E9, 0.0, 2022-10-21 20:06:23.198
95.0, -152754.7496860921, -162308.555818624, 39052.990264056956, -88181.99046635514, 74691.2821759322, -73598.30422381214, 86137.11877311692, -128566.094167959, -0.022, 0.9500000000000001, -0.134, 192.0, 255.0, 80.0, 29.0, 176.0, 251.0, 208.0, 0.0, 0.0, 0.0, 1.6664079831983583E9, 0.0, 2022-10-21 20:06:23.198
96.0, -152758.99651753862, -162314.05434776001, 39050.464516933505, -88203.69401022125, 74687.34826890806, -73627.36149160404, 86099.59019417646, -128573.60435409598, -0.022, 0.9500000000000001, -0.134, 192.0, 0.0, 0.0, 0.0, 0.0, 0.0, 0.0, 0.0, 0.0, 0.0, 1.6664079831983688E9, 0.0, 2022-10-21 20:06:23.198
97.0, -152759.42120068328, -162316.58009488345, 39052.61028440121, -88197.83785317396, 74691.3268794211, -73635.07284344111, 86097.8244063645, -128566.02711272564, -0.022, 0.9500000000000001, -0.134, 192.0, 0.0, 0.0, 0.0, 0.0, 0.0, 0.0, 0.0, 0.0, 0.0, 1.6664079831983778E9, 0.0, 2022-10-21 20:06:23.198
98.0, -152759.62236638338, -162316.28952220554, 39055.62776990268, -88180.40349249882, 74699.2841004472, -73608.36250881702, 86135.68826147179, -128563.27784815764, -0.022, 0.9500000000000001, -0.134, 192.0, 0.0, 0.0, 0.0, 0.0, 0.0, 0.0, 0.0, 0.0, 0.0, 1.6664079831983867E9, 0.0, 2022-10-21 20:06:23.198
99.0, -152766.6184623979, -162324.35850195392, 39050.84449658925, -88193.94864963874, 74691.125713721, -73604.49565702626, 86139.1304301179, -128573.17967095133, -0.022, 0.9500000000000001, -0.134, 192.0, 0.0, 0.0, 0.0, 0.0, 0.0, 0.0, 0.0, 0.0, 0.0, 1.6664079831983955E9, 0.0, 2022-10-21 20:06:23.198
100.0, -152765.8585030864, -162324.8725920764, 39054.0184443019, -88201.43648403126, 74695.64076610099, -73619.6277880225, 86115.50463622864, -128569.8492610275, -0.022, 0.9500000000000001, -0.134, 192.0, 0.0, 0.0, 0.0, 0.0, 0.0, 0.0, 0.0, 0.0, 0.0, 1.6664079831984043E9, 0.0, 2022-10-21 20:06:23.198
101.0, -152761.18698849523, -162318.0106065286, 39062.37799672818, -88189.63476295886, 74705.76610633923, -73621.28181711219, 86115.50463622864, -128555.43238585383, -0.022, 0.9500000000000001, -0.134, 192.0, 0.0, 0.0, 0.0, 0.0, 0.0, 0.0, 0.0, 0.0, 0.0, 1.6664079831984131E9, 0.0, 2022-10-21 20:06:23.198
102.0, -152761.47756117315, -162317.49651640613, 39064.657874662626, -88168.57941968196, 74712.69514712038, -73595.53260749967, 86150.57452327902, -128554.22539165324, -0.022, 0.9500000000000001, -0.134, 192.0, 0.0, 0.0, 0.0, 0.0, 0.0, 0.0, 0.0, 0.0, 0.0, 1.666407983198422E9, 0.0, 2022-10-21 20:06:23.198
103.0, -152773.77102062356, -162331.08637703495, 39054.84545884674, -88187.17607106878, 74703.57563538261, -73582.47918873778, 86161.97391295123, -128558.60633356648, -0.022, 0.9500000000000001, -0.134, 192.0, 0.0, 0.0, 0.0, 0.0, 0.0, 0.0, 0.0, 0.0, 0.0, 1.6664079831984327E9, 0.0, 2022-10-21 20:06:23.198
104.0, -152777.05672705852, -162332.94157182475, 39051.96208381201, -88203.09051312096, 74695.4843038898, -73610.88825594047, 86126.36758403393, -128559.47805160024, -0.022, 0.9500000000000001, -0.134, 192.0, 0.0, 0.0, 0.0, 0.0, 0.0, 0.0, 0.0, 0.0, 0.0, 1.6664079831984422E9, 0.0, 2022-10-21 20:06:23.198
105.0, -152771.0664595445, -162327.13011826636, 39052.72204312349, -88202.35290555393, 74696.35602192355, -73631.45186083936, 86104.46287446772, -128565.02128422515, -0.028, 0.9460000000000001, -0.138, 192.0, 255.0, 32.0, 29.0, 144.0, 251.0, 176.0, 0.0, 0.0, 0.0, 1.66640798319846E9, 0.0, 2022-10-21 20:06:23.198
106.0, -152770.32885197745, -162321.45277517472, 39053.92903732408, -88192.22756531568, 74701.36281268155, -73609.83772395107, 86135.7329649607, -128558.27105739964, -0.028, 0.9460000000000001, -0.138, 192.0, 0.0, 0.0, 0.0, 0.0, 0.0, 0.0, 0.0, 0.0, 0.0, 1.6664079831984706E9, 0.0, 2022-10-21 20:06:23.198
107.0, -152774.77684912406, -162326.28075197706, 39059.38286297117, -88198.59781248544, 74697.00422251275, -73590.45876150833, 86158.88937221639, -128559.7909760226, -0.028, 0.9460000000000001, -0.138, 192.0, 0.0, 0.0, 0.0, 0.0, 0.0, 0.0, 0.0, 0.0, 0.0, 1.6664079831984801E9, 0.0, 2022-10-21 20:06:23.198
108.0, -152772.92165433426, -162330.79580435704, 39059.695787393546, -88207.51615852311, 74692.19859745486, -73609.16717161742, 86133.54249400408, -128565.13304294743, -0.028, 0.9460000000000001, -0.138, 192.0, 0.0, 0.0, 0.0, 0.0, 0.0, 0.0, 0.0, 0.0, 0.0, 1.66640798319849E9, 0.0, 2022-10-21 20:06:23.198
109.0, -152771.1111630334, -162329.67821713426, 39059.87460134919, -88210.69010623576, 74689.98577475379, -73632.70355852885, 86104.01583957861, -128567.52467960415, -0.028, 0.9460000000000001, -0.138, 192.0, 0.0, 0.0, 0.0, 0.0, 0.0, 0.0, 0.0, 0.0, 0.0, 1.6664079831984994E9, 0.0, 2022-10-21 20:06:23.198
110.0, -152774.3074624905, -162333.00862705812, 39056.745357125445, -88207.78437945657, 74688.42115264191, -73625.23807588078, 86115.59404320647, -128569.82690928305, -0.028, 0.9460000000000001, -0.138, 192.0, 0.0, 0.0, 0.0, 0.0, 0.0, 0.0, 0.0, 0.0, 0.0, 1.666407983198509E9, 0.0, 2022-10-21 20:06:23.198
111.0, -152781.63883467184, -162341.23406901766, 39051.04566228935, -88212.63470800337, 74687.5270828637, -73594.616185977, 86148.11583138893, -128574.47607212975, -0.028, 0.9460000000000001, -0.138, 192.0, 0.0, 0.0, 0.0, 0.0, 0.0, 0.0, 0.0, 0.0, 0.0, 1.66640798319852E9, 0.0, 2022-10-21 20:06:23.198
112.0, -152779.1130875484, -162339.08830154996, 39056.38772921416, -88222.93886219728, 74684.46489387333, -73600.51704651321, 86132.1343341034, -128574.78899655212, -0.028, 0.9460000000000001, -0.138, 192.0, 0.0, 0.0, 0.0, 0.0, 0.0, 0.0, 0.0, 0.0, 0.0, 1.6664079831985295E9, 0.0, 2022-10-21 20:06:23.198
113.0, -152780.20832302672, -162341.59169692895, 39059.24875250444, -88224.48113256469, 74683.86139677303, -73637.50918358675, 86095.85745285243, -128576.53243261963, -0.028, 0.9460000000000001, -0.138, 192.0, 0.0, 0.0, 0.0, 0.0, 0.0, 0.0, 0.0, 0.0, 0.0, 1.66640798319854E9, 0.0, 2022-10-21 20:06:23.198
114.0, -152778.01785207007, -162340.20588877273, 39063.115604295206, -88213.86405394842, 74688.5329113642, -73634.51404982973, 86106.96626984671, -128573.0008569957, -0.026000000000000002, 0.9520000000000001, -0.136, 192.0, 255.0, 48.0, 29.0, 192.0, 251.0, 192.0, 0.0, 0.0, 0.0, 1.6664079831985495E9, 0.0, 2022-10-21 20:06:23.198
115.0, -152771.62525315586, -162328.2700572336, 39069.86583112071, -88197.94961189624, 74697.4289056574, -73601.25465408023, 86147.48998254418, -128567.0999964595, -0.026000000000000002, 0.9520000000000001, -0.136, 192.0, 0.0, 0.0, 0.0, 0.0, 0.0, 0.0, 0.0, 0.0, 0.0, 1.6664079831985595E9, 0.0, 2022-10-21 20:06:23.198
116.0, -152768.89834033232, -162327.77831885556, 39075.49847072345, -88197.88255666287, 74703.97796678281, -73591.35283128654, 86148.22759011122, -128566.094167959, -0.026000000000000002, 0.9520000000000001, -0.136, 192.0, 0.0, 0.0, 0.0, 0.0, 0.0, 0.0, 0.0, 0.0, 0.0, 1.6664079831985693E9, 0.0, 2022-10-21 20:06:23.198
117.0, -152767.6689943873, -162326.3701589549, 39080.952296370546, -88206.33151606697, 74704.53676039418, -73621.55003804565, 86113.85060713896, -128571.41388313936, -0.026000000000000002, 0.9520000000000001, -0.136, 192.0, 0.0, 0.0, 0.0, 0.0, 0.0, 0.0, 0.0, 0.0, 0.0, 1.6664079831985788E9, 0.0, 2022-10-21 20:06:23.198
118.0, -152772.02758455605, -162333.65682764733, 39078.40419750264, -88202.48701602066, 74701.385164426, -73635.8328027526, 86106.31806925751, -128573.17967095133, -0.026000000000000002, 0.9520000000000001, -0.136, 192.0, 0.0, 0.0, 0.0, 0.0, 0.0, 0.0, 0.0, 0.0, 0.0, 1.6664079831985884E9, 0.0, 2022-10-21 20:06:23.198
119.0, -152776.22971251365, -162340.42940621727, 39079.9241161256, -88198.91073690781, 74704.29089120518, -73600.60645349103, 86147.57938952201, -128563.68017955784, -0.026000000000000002, 0.9520000000000001, -0.136, 192.0, 0.0, 0.0, 0.0, 0.0, 0.0, 0.0, 0.0, 0.0, 0.0, 1.666407983198598E9, 0.0, 2022-10-21 20:06:23.198
120.0, -152771.20057001122, -162331.93574332425, 39086.40612201764, -88203.9175276658, 74708.80594358516, -73578.43352299137, 86162.62211354043, -128557.08641494352, -0.026000000000000002, 0.9520000000000001, -0.136, 192.0, 0.0, 0.0, 0.0, 0.0, 0.0, 0.0, 0.0, 0.0, 0.0, 1.6664079831986165E9, 0.0, 2022-10-21 20:06:23.198
121.0, -152760.62819488384, -162318.5246966511, 39096.464407022526, -88200.69887646424, 74717.27725473372, -73601.99226164726, 86134.66008122684, -128550.26913288464, -0.026000000000000002, 0.9520000000000001, -0.136, 192.0, 0.0, 0.0, 0.0, 0.0, 0.0, 0.0, 0.0, 0.0, 0.0, 1.666407983198626E9, 0.0, 2022-10-21 20:06:23.198
122.0, -152775.3579944799, -162335.08733929245, 39083.79096791637, -88218.15558888383, 74704.62616737201, -73634.15642191845, 86108.93322335878, -128564.1495661914, -0.026000000000000002, 0.9520000000000001, -0.136, 192.0, 0.0, 0.0, 0.0, 0.0, 0.0, 0.0, 0.0, 0.0, 0.0, 1.6664079831986358E9, 0.0, 2022-10-21 20:06:23.198
123.0, -152776.98967182514, -162334.14856602534, 39086.964915629025, -88209.99720215765, 74703.17330398242, -73610.39651756246, 86140.3821278074, -128561.60146732349, -0.026000000000000002, 0.9520000000000001, -0.136, 192.0, 0.0, 0.0, 0.0, 0.0, 0.0, 0.0, 0.0, 0.0, 0.0, 1.6664079836775813E9, 0.0, 2022-10-21 20:06:23.677
124.0, -152768.4066019543, -162324.7161298652, 39097.224366334005, -88203.53754801006, 74716.87492333353, -73579.57346195859, 86167.45009034278, -128547.34105436101, -0.03, 0.9500000000000001, -0.138, 192.0, 255.0, 16.0, 29.0, 176.0, 251.0, 176.0, 0.0, 0.0, 0.0, 1.666407983677628E9, 0.0, 2022-10-21 20:06:23.677
125.0, -152763.93625306324, -162321.25160947462, 39101.35943905824, -88208.61139400142, 74718.84187684559, -73600.8746744245, 86140.40447955186, -128541.88722871391, -0.03, 0.9500000000000001, -0.138, 192.0, 0.0, 0.0, 0.0, 0.0, 0.0, 0.0, 0.0, 0.0, 0.0, 1.6664079836776624E9, 0.0, 2022-10-21 20:06:23.677
126.0, -152766.73022112015, -162326.45956593272, 39100.934755913586, -88212.16532136982, 74719.51242917925, -73622.10883165704, 86121.56195897603, -128541.86487696946, -0.03, 0.9500000000000001, -0.138, 192.0, 0.0, 0.0, 0.0, 0.0, 0.0, 0.0, 0.0, 0.0, 0.0, 1.6664079836776707E9, 0.0, 2022-10-21 20:06:23.677
127.0, -152776.38617472484, -162335.10969103692, 39092.95518314304, -88208.85726319042, 74716.87492333353, -73601.96990990281, 86148.74168023368, -128550.51500207366, -0.03, 0.9500000000000001, -0.138, 192.0, 0.0, 0.0, 0.0, 0.0, 0.0, 0.0, 0.0, 0.0, 0.0, 1.6664079836776793E9, 0.0, 2022-10-21 20:06:23.677
128.0, -152781.52707594956, -162340.47410970618, 39089.80358717484, -88208.45493179023, 74711.13052500851, -73587.17305507339, 86164.72317751923, -128552.14667941889, -0.03, 0.9500000000000001, -0.138, 192.0, 0.0, 0.0, 0.0, 0.0, 0.0, 0.0, 0.0, 0.0, 0.0, 1.6664079836777153E9, 0.0, 2022-10-21 20:06:23.677
129.0, -152776.98967182514, -162335.62378115937, 39094.11747385472, -88217.88736795037, 74711.77872559772, -73597.90189241194, 86145.27715984311, -128549.33035961752, -0.03, 0.9500000000000001, -0.138, 192.0, 0.0, 0.0, 0.0, 0.0, 0.0, 0.0, 0.0, 0.0, 0.0, 1.6664079836777368E9, 0.0, 2022-10-21 20:06:23.677
130.0, -152777.34729973643, -162333.70153113623, 39091.25645056444, -88225.39755408735, 74707.88952206248, -73625.1263171585, 86120.64553745337, -128550.2914846291, -0.03, 0.9500000000000001, -0.138, 192.0, 0.0, 0.0, 0.0, 0.0, 0.0, 0.0, 0.0, 0.0, 0.0, 1.6664079836777449E9, 0.0, 2022-10-21 20:06:23.677
131.0, -152782.15292479433, -162338.10482479393, 39087.03197086239, -88219.22847261769, 74709.07416451862, -73610.30711058463, 86145.76889822113, -128546.96107470526, -0.03, 0.9500000000000001, -0.138, 192.0, 0.0, 0.0, 0.0, 0.0, 0.0, 0.0, 0.0, 0.0, 0.0, 1.6664079836777532E9, 0.0, 2022-10-21 20:06:23.677
132.0, -152779.58247418195, -162329.65586538982, 39090.72000869751, -88215.2722138491, 74709.92353080792, -73581.07102883709, 86174.75911077966, -128545.4411560823, -0.03, 0.9500000000000001, -0.138, 192.0, 0.0, 0.0, 0.0, 0.0, 0.0, 0.0, 0.0, 0.0, 0.0, 1.6664079836777613E9, 0.0, 2022-10-21 20:06:23.677
133.0, -152777.10143054742, -162328.3147607225, 39093.20105233205, -88225.93399595428, 74708.53772265169, -73596.71724995581, 86153.59200878048, -128551.76669976315, -0.03, 0.9500000000000001, -0.138, 192.0, 0.0, 0.0, 0.0, 0.0, 0.0, 0.0, 0.0, 0.0, 0.0, 1.66640798367777E9, 0.0, 2022-10-21 20:06:23.677
134.0, -152769.94887232172, -162324.78318509855, 39100.9794594025, -88225.28579536508, 74712.51633316473, -73620.58891303408, 86125.60762472244, -128549.71033927327, -0.034, 0.9520000000000001, -0.138, 192.0, 254.0, 240.0, 29.0, 192.0, 251.0, 176.0, 0.0, 0.0, 0.0, 1.6664079836777835E9, 0.0, 2022-10-21 20:06:23.677
135.0, -152775.93913983574, -162331.62281890187, 39100.443017535574, -88209.63957424636, 74718.4842489343, -73597.18663658937, 86146.26063659915, -128544.63649328191, -0.034, 0.9520000000000001, -0.138, 192.0, 0.0, 0.0, 0.0, 0.0, 0.0, 0.0, 0.0, 0.0, 0.0, 1.6664079836778424E9, 0.0, 2022-10-21 20:06:23.677
136.0, -152790.13249756486, -162347.85018537645, 39089.624773219206, -88222.64828951935, 74709.81177208564, -73578.23235729127, 86170.13229967741, -128557.06406319905, -0.034, 0.9520000000000001, -0.138, 192.0, 0.0, 0.0, 0.0, 0.0, 0.0, 0.0, 0.0, 0.0, 0.0, 1.6664079836778507E9, 0.0, 2022-10-21 20:06:23.677
137.0, -152790.37836675387, -162349.72773191068, 39088.68599995208, -88235.12056292541, 74700.3793359255, -73593.99033713226, 86147.13235463291, -128562.60729582398, -0.034, 0.9520000000000001, -0.138, 192.0, 0.0, 0.0, 0.0, 0.0, 0.0, 0.0, 0.0, 0.0, 0.0, 1.666407983677859E9, 0.0, 2022-10-21 20:06:23.677
138.0, -152786.62327368537, -162346.17380454228, 39092.485796509485, -88235.4334873478, 74704.46970516082, -73621.9747211903, 86111.90600537133, -128563.16608943536, -0.034, 0.9520000000000001, -0.138, 192.0, 0.0, 0.0, 0.0, 0.0, 0.0, 0.0, 0.0, 0.0, 0.0, 1.6664079836778674E9, 0.0, 2022-10-21 20:06:23.677
139.0, -152779.9624538377, -162337.94836258274, 39099.79481694637, -88216.23333886068, 74717.79134485619, -73608.18369486138, 86128.55805499054, -128555.32062713154, -0.034, 0.9520000000000001, -0.138, 192.0, 0.0, 0.0, 0.0, 0.0, 0.0, 0.0, 0.0, 0.0, 0.0, 1.6664079836778755E9, 0.0, 2022-10-21 20:06:23.677
140.0, -152780.99063408264, -162336.47314744868, 39100.82299719131, -88209.14783586834, 74716.36083321105, -73582.88152013798, 86162.5327065626, -128550.11267067346, -0.034, 0.9520000000000001, -0.138, 192.0, 0.0, 0.0, 0.0, 0.0, 0.0, 0.0, 0.0, 0.0, 0.0, 1.666407983677884E9, 0.0, 2022-10-21 20:06:23.677
141.0, -152789.57370395347, -162345.07856906398, 39092.15052034265, -88224.65994652033, 74711.7340221088, -73581.94274687085, 86157.41415708234, -128559.81332776706, -0.034, 0.9520000000000001, -0.138, 192.0, 0.0, 0.0, 0.0, 0.0, 0.0, 0.0, 0.0, 0.0, 0.0, 1.6664079836778924E9, 0.0, 2022-10-21 20:06:23.677
142.0, -152790.17720105377, -162342.17284228478, 39089.73653194148, -88240.3285193835, 74703.21800747133, -73620.03011942269, 86114.87878738389, -128568.77637729365, -0.034, 0.9520000000000001, -0.138, 192.0, 0.0, 0.0, 0.0, 0.0, 0.0, 0.0, 0.0, 0.0, 0.0, 1.6664079836779003E9, 0.0, 2022-10-21 20:06:23.677
143.0, -152782.97993933916, -162338.73067363867, 39094.475101766, -88230.27023437861, 74709.47649591882, -73623.89697121346, 86113.96236586123, -128560.08154870053, -0.032, 0.9460000000000001, -0.136, 192.0, 255.0, 0.0, 29.0, 144.0, 251.0, 192.0, 0.0, 0.0, 0.0, 1.6664079836779087E9, 0.0, 2022-10-21 20:06:23.677
144.0, -152777.10143054742, -162338.84243236095, 39099.34778205726, -88206.04094338906, 74720.384147213, -73587.06129635111, 86158.2858751161, -128549.21860089524, -0.032, 0.9460000000000001, -0.136, 192.0, 0.0, 0.0, 0.0, 0.0, 0.0, 0.0, 0.0, 0.0, 0.0, 1.6664079836779177E9, 0.0, 2022-10-21 20:06:23.677
145.0, -152770.4629624442, -162334.77441487007, 39106.07565713831, -88201.25767007562, 74726.21795251584, -73573.53849095566, 86170.57933456652, -128545.93289446032, -0.032, 0.9460000000000001, -0.136, 192.0, 0.0, 0.0, 0.0, 0.0, 0.0, 0.0, 0.0, 0.0, 0.0, 1.666407983677926E9, 0.0, 2022-10-21 20:06:23.677
146.0, -152775.87208460236, -162339.13300503886, 39096.799683189354, -88233.3771268579, 74712.11400176454, -73613.48105829729, 86123.86418865493, -128560.32741788954, -0.032, 0.9460000000000001, -0.136, 192.0, 0.0, 0.0, 0.0, 0.0, 0.0, 0.0, 0.0, 0.0, 0.0, 1.6664079836779344E9, 0.0, 2022-10-21 20:06:23.677
147.0, -152778.37547998136, -162339.24476376115, 39099.37013380172, -88237.02046120411, 74715.04208028819, -73630.55779106115, 86109.78258964808, -128560.88621150091, -0.032, 0.9460000000000001, -0.136, 192.0, 0.0, 0.0, 0.0, 0.0, 0.0, 0.0, 0.0, 0.0, 0.0, 1.6664079836779425E9, 0.0, 2022-10-21 20:06:23.677
148.0, -152783.1140498059, -162344.49742370815, 39097.850215178754, -88222.60358603044, 74722.77578386973, -73599.46651452381, 86147.80290696656, -128561.17678417884, -0.032, 0.9460000000000001, -0.136, 192.0, 0.0, 0.0, 0.0, 0.0, 0.0, 0.0, 0.0, 0.0, 0.0, 1.666407983677952E9, 0.0, 2022-10-21 20:06:23.677
149.0, -152776.45322995822, -162337.56838292698, 39103.99694490396, -88222.8718069639, 74723.31222573665, -73577.11477006851, 86167.83006999851, -128557.15347017688, -0.032, 0.9460000000000001, -0.136, 192.0, 0.0, 0.0, 0.0, 0.0, 0.0, 0.0, 0.0, 0.0, 0.0, 1.6664079836779602E9, 0.0, 2022-10-21 20:06:23.677
150.0, -152776.1626572803, -162336.49549919314, 39104.95806991554, -88231.79015300157, 74725.4356414599, -73590.5705202306, 86144.36073832045, -128557.4887463437, -0.032, 0.9460000000000001, -0.136, 192.0, 0.0, 0.0, 0.0, 0.0, 0.0, 0.0, 0.0, 0.0, 0.0, 1.6664079836779766E9, 0.0, 2022-10-21 20:06:23.677
151.0, -152768.27249148756, -162325.78901359905, 39114.725782242516, -88232.99714720216, 74728.20725777236, -73607.62490125, 86130.4803050137, -128547.02812993863, -0.032, 0.9460000000000001, -0.136, 192.0, 0.0, 0.0, 0.0, 0.0, 0.0, 0.0, 0.0, 0.0, 0.0, 1.6664079836779847E9, 0.0, 2022-10-21 20:06:23.677
152.0, -152762.03635478453, -162321.20690598572, 39120.023145678424, -88216.85918770543, 74734.01871133075, -73592.35865978702, 86161.72804376222, -128539.89792345738, -0.032, 0.9460000000000001, -0.136, 192.0, 0.0, 0.0, 0.0, 0.0, 0.0, 0.0, 0.0, 0.0, 0.0, 1.6664079836779928E9, 0.0, 2022-10-21 20:06:23.677
153.0, -152778.62134917037, -162340.58586842846, 39105.58391876029, -88226.8280657325, 74724.80979261515, -73573.69495316684, 86178.20127942578, -128551.63258929642, -0.026000000000000002, 0.9480000000000001, -0.138, 192.0, 255.0, 48.0, 29.0, 160.0, 251.0, 176.0, 0.0, 0.0, 0.0, 1.666407983678001E9, 0.0, 2022-10-21 20:06:23.678
154.0, -152779.89539860433, -162341.14466203985, 39105.29334608238, -88240.23911240567, 74717.70193787837, -73591.08461035306, 86148.85343895596, -128558.24870565519, -0.026000000000000002, 0.9480000000000001, -0.138, 192.0, 0.0, 0.0, 0.0, 0.0, 0.0, 0.0, 0.0, 0.0, 0.0, 1.6664079836780095E9, 0.0, 2022-10-21 20:06:23.678
155.0, -152768.0713257875, -162331.35459796843, 39112.35649733025, -88245.82704851951, 74718.21602800084, -73614.41983156442, 86125.89819740035, -128550.26913288464, -0.026000000000000002, 0.9480000000000001, -0.138, 192.0, 0.0, 0.0, 0.0, 0.0, 0.0, 0.0, 0.0, 0.0, 0.0, 1.6664079836780176E9, 0.0, 2022-10-21 20:06:23.678
156.0, -152777.79433462553, -162342.08343530697, 39099.79481694637, -88249.13510669889, 74702.01101327075, -73616.81146822113, 86129.78740093559, -128557.95813297728, -0.026000000000000002, 0.9480000000000001, -0.138, 192.0, 0.0, 0.0, 0.0, 0.0, 0.0, 0.0, 0.0, 0.0, 0.0, 1.666407983678027E9, 0.0, 2022-10-21 20:06:23.678
157.0, -152787.65145393033, -162349.79478714406, 39092.28463080939, -88249.02334797662, 74695.1266759785, -73593.58800573206, 86152.29560760208, -128563.47901385774, -0.026000000000000002, 0.9480000000000001, -0.138, 192.0, 0.0, 0.0, 0.0, 0.0, 0.0, 0.0, 0.0, 0.0, 0.0, 1.666407983678035E9, 0.0, 2022-10-21 20:06:23.678
158.0, -152783.85165737293, -162346.97846734268, 39096.21853783352, -88257.24878993617, 74695.14902772296, -73603.8251046926, 86136.20235159426, -128562.02615046814, -0.026000000000000002, 0.9480000000000001, -0.138, 192.0, 0.0, 0.0, 0.0, 0.0, 0.0, 0.0, 0.0, 0.0, 0.0, 1.6664079836780431E9, 0.0, 2022-10-21 20:06:23.678
159.0, -152777.36965148087, -162341.61404867342, 39103.2816890814, -88259.46161263724, 74706.25784471726, -73624.61222703604, 86114.45410423924, -128560.50623184518, -0.026000000000000002, 0.9480000000000001, -0.138, 192.0, 0.0, 0.0, 0.0, 0.0, 0.0, 0.0, 0.0, 0.0, 0.0, 1.6664079836780512E9, 0.0, 2022-10-21 20:06:23.678
160.0, -152772.07228804496, -162334.55089742554, 39112.31179384134, -88246.16232468633, 74714.52799016572, -73609.16717161742, 86136.24705508316, -128548.61510379496, -0.026000000000000002, 0.9480000000000001, -0.138, 192.0, 0.0, 0.0, 0.0, 0.0, 0.0, 0.0, 0.0, 0.0, 0.0, 1.666407983678059E9, 0.0, 2022-10-21 20:06:23.678
161.0, -152772.564026423, -162335.42261545928, 39115.128113642706, -88230.06906867851, 74717.05373728917, -73581.24984279273, 86169.61820955494, -128549.62093229544, -0.026000000000000002, 0.9480000000000001, -0.138, 192.0, 0.0, 0.0, 0.0, 0.0, 0.0, 0.0, 0.0, 0.0, 0.0, 1.6664079836780674E9, 0.0, 2022-10-21 20:06:23.678
162.0, -152778.15196253682, -162341.1670137843, 39110.70246824056, -88241.31199613953, 74716.15966751095, -73578.50057822473, 86160.47634607273, -128559.18747892231, -0.026000000000000002, 0.9480000000000001, -0.138, 192.0, 0.0, 0.0, 0.0, 0.0, 0.0, 0.0, 0.0, 0.0, 0.0, 1.6664079836780756E9, 0.0, 2022-10-21 20:06:23.678
163.0, -152781.99646258313, -162346.37497024238, 39105.69567748257, -88264.04372025059, 74704.7826295832, -73616.74441298777, 86117.09161008497, -128568.77637729365, -0.032, 0.96, -0.14200000000000002, 192.0, 255.0, 0.0, 30.0, 0.0, 251.0, 144.0, 0.0, 0.0, 0.0, 1.6664079836780846E9, 0.0, 2022-10-21 20:06:23.678
164.0, -152776.45322995822, -162338.30599049403, 39115.44103806508, -88244.06126070753, 74715.3326529661, -73619.96306418933, 86124.95942413324, -128562.00379872369, -0.032, 0.96, -0.14200000000000002, 192.0, 0.0, 0.0, 0.0, 0.0, 0.0, 0.0, 0.0, 0.0, 0.0, 1.6664079836780932E9, 0.0, 2022-10-21 20:06:23.678
165.0, -152774.82155261296, -162335.48967069265, 39117.720915999525, -88222.89415870835, 74721.32292048013, -73588.35769752953, 86163.42677634083, -128558.22635391074, -0.032, 0.96, -0.14200000000000002, 192.0, 0.0, 0.0, 0.0, 0.0, 0.0, 0.0, 0.0, 0.0, 0.0, 1.6664079836781087E9, 0.0, 2022-10-21 20:06:23.678
166.0, -152781.68353816075, -162343.58100218547, 39106.14271237168, -88244.28477815208, 74705.34142319458, -73596.11375285551, 86150.19454362328, -128567.7929005376, -0.032, 0.96, -0.14200000000000002, 192.0, 0.0, 0.0, 0.0, 0.0, 0.0, 0.0, 0.0, 0.0, 0.0, 1.6664079836781173E9, 0.0, 2022-10-21 20:06:23.678
167.0, -152780.67770966026, -162347.11257780943, 39104.80160770436, -88251.75026080017, 74705.76610633923, -73624.36635784703, 86115.19171180627, -128564.77541503614, -0.032, 0.96, -0.14200000000000002, 192.0, 0.0, 0.0, 0.0, 0.0, 0.0, 0.0, 0.0, 0.0, 0.0, 1.6664079836781254E9, 0.0, 2022-10-21 20:06:23.678
168.0, -152783.69519516174, -162348.31957201, 39103.21463384803, -88249.00099623216, 74706.21314122833, -73640.61607606603, 86104.90990935682, -128569.2457639272, -0.032, 0.96, -0.14200000000000002, 192.0, 0.0, 0.0, 0.0, 0.0, 0.0, 0.0, 0.0, 0.0, 0.0, 1.6664079836781335E9, 0.0, 2022-10-21 20:06:23.678
169.0, -152788.34435800844, -162348.1184063099, 39100.82299719131, -88231.18665590129, 74712.29281572018, -73612.87756119699, 86143.2878545866, -128561.13208068993, -0.032, 0.96, -0.14200000000000002, 192.0, 0.0, 0.0, 0.0, 0.0, 0.0, 0.0, 0.0, 0.0, 0.0, 1.6664079836781416E9, 0.0, 2022-10-21 20:06:23.678
170.0, -152789.55135220903, -162349.92889761078, 39101.11356986923, -88230.8737314789, 74716.40553669997, -73591.35283128654, 86159.55992455005, -128557.95813297728, -0.032, 0.96, -0.14200000000000002, 192.0, 0.0, 0.0, 0.0, 0.0, 0.0, 0.0, 0.0, 0.0, 0.0, 1.66640798367815E9, 0.0, 2022-10-21 20:06:23.678
171.0, -152773.03341305655, -162333.18744101375, 39116.29040435438, -88220.01078367363, 74728.49783045029, -73602.55105525865, 86137.76697370612, -128549.82209799554, -0.032, 0.96, -0.14200000000000002, 192.0, 0.0, 0.0, 0.0, 0.0, 0.0, 0.0, 0.0, 0.0, 0.0, 1.6664079836781588E9, 0.0, 2022-10-21 20:06:23.678
172.0, -152774.84390435743, -162334.90852533682, 39111.350668829764, -88229.01853668911, 74728.7884031282, -73628.43437533789, 86117.15866531833, -128554.65007479789, -0.034, 0.9580000000000001, -0.136, 192.0, 254.0, 240.0, 29.0, 240.0, 251.0, 192.0, 0.0, 0.0, 0.0, 1.666407983678167E9, 0.0, 2022-10-21 20:06:23.678
173.0, -152783.04699457253, -162340.04942656154, 39105.896843182665, -88217.57444352799, 74729.41425197295, -73603.19925584785, 86148.85343895596, -128551.83375499652, -0.034, 0.9580000000000001, -0.136, 192.0, 0.0, 0.0, 0.0, 0.0, 0.0, 0.0, 0.0, 0.0, 0.0, 1.666407983678176E9, 0.0, 2022-10-21 20:06:23.678
174.0, -152786.26564577408, -162340.40705447283, 39105.1815873601, -88213.52877778158, 74726.6873391494, -73581.62982244848, 86167.20422115376, -128554.22539165324, -0.034, 0.9580000000000001, -0.136, 192.0, 0.0, 0.0, 0.0, 0.0, 0.0, 0.0, 0.0, 0.0, 0.0, 1.6664079836781847E9, 0.0, 2022-10-21 20:06:23.678
175.0, -152770.0159275551, -162325.00670254312, 39121.207788134554, -88210.24307134666, 74737.81850788815, -73592.00103187574, 86147.66879649983, -128542.51307755866, -0.034, 0.9580000000000001, -0.136, 192.0, 0.0, 0.0, 0.0, 0.0, 0.0, 0.0, 0.0, 0.0, 0.0, 1.666407983678193E9, 0.0, 2022-10-21 20:06:23.678
176.0, -152769.52418917706, -162325.78901359905, 39120.850160223265, -88216.3227458385, 74738.0420253327, -73621.63944502348, 86121.00316536464, -128541.37313859143, -0.034, 0.9580000000000001, -0.136, 192.0, 0.0, 0.0, 0.0, 0.0, 0.0, 0.0, 0.0, 0.0, 0.0, 1.6664079836782012E9, 0.0, 2022-10-21 20:06:23.678
177.0, -152779.85069511543, -162335.10969103692, 39112.669421752624, -88209.84073994646, 74737.37147299903, -73603.84745643706, 86147.7358517332, -128544.36827234845, -0.034, 0.9580000000000001, -0.136, 192.0, 0.0, 0.0, 0.0, 0.0, 0.0, 0.0, 0.0, 0.0, 0.0, 1.66640798367821E9, 0.0, 2022-10-21 20:06:23.678
178.0, -152778.30842474801, -162332.09220553545, 39115.23987236498, -88201.90587066482, 74734.8457258756, -73575.17016830089, 86173.52976483462, -128546.35757760497, -0.034, 0.9580000000000001, -0.136, 192.0, 0.0, 0.0, 0.0, 0.0, 0.0, 0.0, 0.0, 0.0, 0.0, 1.6664079836782184E9, 0.0, 2022-10-21 20:06:23.678
179.0, -152777.34729973643, -162331.71222587972, 39115.955128187554, -88208.83491144597, 74732.20822002986, -73596.00199413324, 86148.49581104468, -128550.64911254038, -0.034, 0.9580000000000001, -0.136, 192.0, 0.0, 0.0, 0.0, 0.0, 0.0, 0.0, 0.0, 0.0, 0.0, 1.6664079836782277E9, 0.0, 2022-10-21 20:06:23.678
180.0, -152773.3686892234, -162326.7724903551, 39121.073677667824, -88208.90196667933, 74736.96914159885, -73614.95627343134, 86123.573615977, -128542.4907258142, -0.034, 0.9580000000000001, -0.136, 192.0, 0.0, 0.0, 0.0, 0.0, 0.0, 0.0, 0.0, 0.0, 0.0, 1.6664079836782353E9, 0.0, 2022-10-21 20:06:23.678
181.0, -152775.62621541336, -162326.70543512172, 39118.50322705546, -88200.05067587504, 74738.39965324398, -73596.04669762215, 86143.44431679777, -128537.81921122305, -0.034, 0.9580000000000001, -0.136, 192.0, 0.0, 0.0, 0.0, 0.0, 0.0, 0.0, 0.0, 0.0, 0.0, 1.666407983678254E9, 0.0, 2022-10-21 20:06:23.678
182.0, -152764.04801178552, -162315.28369370505, 39123.33120385781, -88185.94672512374, 74738.71257766636, -73564.57544142907, 86178.78242478162, -128531.60542626446, -0.034, 0.9460000000000001, -0.136, 192.0, 254.0, 240.0, 29.0, 144.0, 251.0, 192.0, 0.0, 0.0, 0.0, 1.6664079836782615E9, 0.0, 2022-10-21 20:06:23.678
183.0, -152766.59611065342, -162321.072795519, 39121.38660209019, -88201.28002182007, 74730.91181885145, -73583.17209281589, 86154.95546519227, -128538.33330134551, -0.034, 0.9460000000000001, -0.136, 192.0, 0.0, 0.0, 0.0, 0.0, 0.0, 0.0, 0.0, 0.0, 0.0, 1.66640798367827E9, 0.0, 2022-10-21 20:06:23.678
184.0, -152774.75449737962, -162332.20396425773, 39121.498360812475, -88203.4704927767, 74731.06828106265, -73614.59864552005, 86118.34330777447, -128545.68702527131, -0.034, 0.9460000000000001, -0.136, 192.0, 0.0, 0.0, 0.0, 0.0, 0.0, 0.0, 0.0, 0.0, 0.0, 1.6664079836782775E9, 0.0, 2022-10-21 20:06:23.678
185.0, -152774.97801482416, -162331.2651909906, 39126.25928238145, -88191.57936472648, 74735.5386299537, -73608.34015707257, 86128.9827381352, -128546.42463283833, -0.034, 0.9460000000000001, -0.136, 192.0, 0.0, 0.0, 0.0, 0.0, 0.0, 0.0, 0.0, 0.0, 0.0, 1.6664079836782854E9, 0.0, 2022-10-21 20:06:23.678
186.0, -152767.60193915392, -162324.00087404263, 39132.182494662105, -88182.03516984406, 74738.26554277726, -73577.27123227969, 86165.55019206408, -128541.93193220282, -0.034, 0.9460000000000001, -0.136, 192.0, 0.0, 0.0, 0.0, 0.0, 0.0, 0.0, 0.0, 0.0, 0.0, 1.6664079836782932E9, 0.0, 2022-10-21 20:06:23.678
187.0, -152759.82353208348, -162316.066004761, 39137.25634065346, -88181.31991402149, 74741.17126955643, -73571.45977872131, 86163.60559029646, -128540.88140021342, -0.034, 0.9460000000000001, -0.136, 192.0, 0.0, 0.0, 0.0, 0.0, 0.0, 0.0, 0.0, 0.0, 0.0, 1.6664079836783009E9, 0.0, 2022-10-21 20:06:23.678
188.0, -152755.9119768038, -162313.316740193, 39144.69947155708, -88184.27034428959, 74741.08186257862, -73598.86301742351, 86129.6309387244, -128545.57526654903, -0.034, 0.9460000000000001, -0.136, 192.0, 0.0, 0.0, 0.0, 0.0, 0.0, 0.0, 0.0, 0.0, 0.0, 1.6664079836783087E9, 0.0, 2022-10-21 20:06:23.678
189.0, -152768.58541590994, -162328.4712229337, 39138.01629996494, -88200.34124855296, 74727.2908362497, -73620.85713396754, 86114.29764202806, -128558.71809228875, -0.034, 0.9460000000000001, -0.136, 192.0, 0.0, 0.0, 0.0, 0.0, 0.0, 0.0, 0.0, 0.0, 0.0, 1.6664079836783164E9, 0.0, 2022-10-21 20:06:23.678
190.0, -152772.69813688972, -162331.30989447952, 39134.93175923011, -88188.02543735808, 74723.31222573665, -73596.62784297799, 86146.77472672162, -128557.57815332153, -0.034, 0.9460000000000001, -0.136, 192.0, 0.0, 0.0, 0.0, 0.0, 0.0, 0.0, 0.0, 0.0, 0.0, 1.6664079836783245E9, 0.0, 2022-10-21 20:06:23.678
191.0, -152759.53295940554, -162316.1107082499, 39150.37681464873, -88169.18291678226, 74733.97400784183, -73581.36160151502, 86160.61045653945, -128550.47029858474, -0.034, 0.9460000000000001, -0.136, 192.0, 0.0, 0.0, 0.0, 0.0, 0.0, 0.0, 0.0, 0.0, 0.0, 1.666407983678332E9, 0.0, 2022-10-21 20:06:23.678
192.0, -152760.24821522812, -162319.28465596255, 39150.55562860437, -88178.79416689803, 74732.23057177431, -73612.22936060779, 86123.55126423255, -128555.29827538709, -0.024, 0.9480000000000001, -0.136, 192.0, 255.0, 64.0, 29.0, 160.0, 251.0, 192.0, 0.0, 0.0, 0.0, 1.6664079836783397E9, 0.0, 2022-10-21 20:06:23.678
193.0, -152763.9586048077, -162322.39154844184, 39147.426384380626, -88186.32670477948, 74731.02357757374, -73626.42271833691, 86107.61447043592, -128556.5946765655, -0.024, 0.9480000000000001, -0.136, 192.0, 0.0, 0.0, 0.0, 0.0, 0.0, 0.0, 0.0, 0.0, 0.0, 1.6664079836783483E9, 0.0, 2022-10-21 20:06:23.678
194.0, -152762.63985188483, -162317.85414431742, 39150.82384953783, -88168.15473653731, 74737.55028695468, -73594.370316788, 86147.60174126647, -128544.591789793, -0.024, 0.9480000000000001, -0.136, 192.0, 0.0, 0.0, 0.0, 0.0, 0.0, 0.0, 0.0, 0.0, 0.0, 1.666407983678356E9, 0.0, 2022-10-21 20:06:23.678
195.0, -152767.62429089835, -162323.1738594978, 39149.16982044814, -88166.76892838108, 74740.05368233367, -73574.23139503377, 86162.95738970726, -128552.97369396374, -0.024, 0.9480000000000001, -0.136, 192.0, 0.0, 0.0, 0.0, 0.0, 0.0, 0.0, 0.0, 0.0, 0.0, 1.6664079836783636E9, 0.0, 2022-10-21 20:06:23.678
196.0, -152769.0100990546, -162328.5159264226, 39153.930742017124, -88172.53567845056, 74736.65621717647, -73602.61811049201, 86128.53570324609, -128558.78514752213, -0.024, 0.9480000000000001, -0.136, 192.0, 0.0, 0.0, 0.0, 0.0, 0.0, 0.0, 0.0, 0.0, 0.0, 1.6664079836783788E9, 0.0, 2022-10-21 20:06:23.678
197.0, -152765.7690961086, -162323.0621007755, 39158.22227695254, -88171.12751854987, 74735.65038867597, -73630.3789771055, 86107.23449078017, -128552.63841779692, -0.024, 0.9480000000000001, -0.136, 192.0, 0.0, 0.0, 0.0, 0.0, 0.0, 0.0, 0.0, 0.0, 0.0, 1.6664079836783867E9, 0.0, 2022-10-21 20:06:23.678
198.0, -152772.5193229341, -162327.68891187775, 39159.47397464204, -88147.2558554716, 74748.5920487156, -73596.2702150667, 86146.90883718836, -128545.37410084893, -0.024, 0.9480000000000001, -0.136, 192.0, 0.0, 0.0, 0.0, 0.0, 0.0, 0.0, 0.0, 0.0, 0.0, 1.6664079836783953E9, 0.0, 2022-10-21 20:06:23.678
199.0, -152783.71754690618, -162338.79772887204, 39153.6401693392, -88157.73882362114, 74746.11100508107, -73566.94472634135, 86170.62403805544, -128552.90663873038, -0.024, 0.9480000000000001, -0.136, 192.0, 0.0, 0.0, 0.0, 0.0, 0.0, 0.0, 0.0, 0.0, 0.0, 1.666407983678403E9, 0.0, 2022-10-21 20:06:23.678
200.0, -152773.70396539022, -162327.08541477745, 39166.22420146754, -88168.04297781503, 74745.03812134721, -73591.30812779763, 86141.70088073026, -128554.51596433115, -0.024, 0.9480000000000001, -0.136, 192.0, 0.0, 0.0, 0.0, 0.0, 0.0, 0.0, 0.0, 0.0, 0.0, 1.6664079836784108E9, 0.0, 2022-10-21 20:06:23.678
201.0, -152769.6582996438, -162324.20203974273, 39173.8461463268, -88167.55123943702, 74749.50847023827, -73615.13508738698, 86120.55613047554, -128547.11753691644, -0.024, 0.9480000000000001, -0.136, 192.0, 0.0, 0.0, 0.0, 0.0, 0.0, 0.0, 0.0, 0.0, 0.0, 1.6664079836784189E9, 0.0, 2022-10-21 20:06:23.678
202.0, -152773.63691015684, -162326.50426942162, 39169.48755615801, -88157.42589919876, 74751.05074060569, -73606.61907274951, 86142.2373225972, -128544.52473455963, -0.024, 0.9540000000000001, -0.13, 192.0, 255.0, 64.0, 29.0, 208.0, 251.0, 240.0, 0.0, 0.0, 0.0, 1.6664079836784265E9, 0.0, 2022-10-21 20:06:23.678
203.0, -152777.23554101415, -162329.67821713426, 39167.498250901495, -88160.77866086706, 74745.14988006948, -73580.64634569244, 86172.81450901205, -128548.03395843912, -0.024, 0.9540000000000001, -0.13, 192.0, 0.0, 0.0, 0.0, 0.0, 0.0, 0.0, 0.0, 0.0, 0.0, 1.6664079836784348E9, 0.0, 2022-10-21 20:06:23.678
204.0, -152780.1636195378, -162331.53341192406, 39166.11244274527, -88174.45792847371, 74737.3938247435, -73593.65506096544, 86149.05460465606, -128556.52762133213, -0.024, 0.9540000000000001, -0.13, 192.0, 0.0, 0.0, 0.0, 0.0, 0.0, 0.0, 0.0, 0.0, 0.0, 1.6664079836784427E9, 0.0, 2022-10-21 20:06:23.678
205.0, -152777.25789275861, -162329.43234794526, 39174.56140214937, -88174.54733545153, 74739.11490906656, -73617.63848276598, 86120.28790954208, -128549.62093229544, -0.024, 0.9540000000000001, -0.13, 192.0, 0.0, 0.0, 0.0, 0.0, 0.0, 0.0, 0.0, 0.0, 0.0, 1.6664079836784503E9, 0.0, 2022-10-21 20:06:23.678
206.0, -152779.1130875484, -162330.75110086813, 39173.53322190443, -88159.79518411103, 74748.54734522669, -73604.2274360928, 86141.58912200798, -128539.56264729056, -0.024, 0.9540000000000001, -0.13, 192.0, 0.0, 0.0, 0.0, 0.0, 0.0, 0.0, 0.0, 0.0, 0.0, 1.6664079836784582E9, 0.0, 2022-10-21 20:06:23.678
207.0, -152785.59509344044, -162335.06498754802, 39166.872402056746, -88161.9633033232, 74740.92540036743, -73579.75227591423, 86168.27710488762, -128550.38089160692, -0.024, 0.9540000000000001, -0.13, 192.0, 0.0, 0.0, 0.0, 0.0, 0.0, 0.0, 0.0, 0.0, 0.0, 1.666407983678466E9, 0.0, 2022-10-21 20:06:23.678
208.0, -152786.46681147418, -162337.3672172269, 39169.53225964693, -88165.09254754694, 74737.21501078786, -73584.84847365004, 86152.96615993574, -128554.96299922027, -0.024, 0.9540000000000001, -0.13, 192.0, 0.0, 0.0, 0.0, 0.0, 0.0, 0.0, 0.0, 0.0, 0.0, 1.666407983678474E9, 0.0, 2022-10-21 20:06:23.678
209.0, -152792.09945107694, -162342.53047019607, 39164.23489621102, -88175.73197790766, 74733.05758631916, -73617.83964846608, 86111.50367397115, -128561.78028127913, -0.024, 0.9540000000000001, -0.13, 192.0, 0.0, 0.0, 0.0, 0.0, 0.0, 0.0, 0.0, 0.0, 0.0, 1.6664079836784816E9, 0.0, 2022-10-21 20:06:23.678
210.0, -152788.74668940864, -162339.98237132817, 39167.31943694585, -88169.42878597126, 74733.4375659749, -73616.63265426549, 86119.61735720842, -128557.6452085549, -0.024, 0.9540000000000001, -0.13, 192.0, 0.0, 0.0, 0.0, 0.0, 0.0, 0.0, 0.0, 0.0, 0.0, 1.6664079836784894E9, 0.0, 2022-10-21 20:06:23.678
211.0, -152784.20928528422, -162338.19423177175, 39169.97929453603, -88150.78743109554, 74736.76797589875, -73584.89317713895, 86160.2304768837, -128552.28078988563, -0.022, 0.9520000000000001, -0.132, 192.0, 255.0, 80.0, 29.0, 192.0, 251.0, 224.0, 0.0, 0.0, 0.0, 1.6664079836785045E9, 0.0, 2022-10-21 20:06:23.678
212.0, -152782.21998002767, -162334.50619393663, 39171.2980474589, -88151.83796308494, 74737.14795555448, -73577.78532240217, 86158.084709416, -128556.1923451653, -0.022, 0.9520000000000001, -0.132, 192.0, 0.0, 0.0, 0.0, 0.0, 0.0, 0.0, 0.0, 0.0, 0.0, 1.6664079836785133E9, 0.0, 2022-10-21 20:06:23.678
213.0, -152784.56691319548, -162338.08247304946, 39166.20184972308, -88175.97784709667, 74723.89337109249, -73617.5267240437, 86111.66013618233, -128567.65879007087, -0.022, 0.9520000000000001, -0.132, 192.0, 0.0, 0.0, 0.0, 0.0, 0.0, 0.0, 0.0, 0.0, 0.0, 1.6664079836785212E9, 0.0, 2022-10-21 20:06:23.678
214.0, -152781.81764862748, -162339.42357771678, 39169.12992824673, -88172.80389938402, 74721.94876932488, -73634.91638122992, 86102.69708665575, -128561.15443243438, -0.022, 0.9520000000000001, -0.132, 192.0, 0.0, 0.0, 0.0, 0.0, 0.0, 0.0, 0.0, 0.0, 0.0, 1.666407983678529E9, 0.0, 2022-10-21 20:06:23.678
215.0, -152779.49306720414, -162334.37208346988, 39174.47199517155, -88148.28403571654, 74731.00122582927, -73601.36641280251, 86145.34421507647, -128552.01256895217, -0.022, 0.9520000000000001, -0.132, 192.0, 0.0, 0.0, 0.0, 0.0, 0.0, 0.0, 0.0, 0.0, 0.0, 1.666407983678537E9, 0.0, 2022-10-21 20:06:23.678
216.0, -152784.8127823845, -162335.15439452583, 39171.78978583691, -88159.83988759994, 74730.21891477334, -73583.93205212738, 86158.2858751161, -128555.83471725402, -0.022, 0.9520000000000001, -0.132, 192.0, 0.0, 0.0, 0.0, 0.0, 0.0, 0.0, 0.0, 0.0, 0.0, 1.6664079836785443E9, 0.0, 2022-10-21 20:06:23.678
217.0, -152783.09169806144, -162334.32737998097, 39178.62941964024, -88172.20040228372, 74731.22474327382, -73607.44608729436, 86128.11102010144, -128558.5392783331, -0.022, 0.9520000000000001, -0.132, 192.0, 0.0, 0.0, 0.0, 0.0, 0.0, 0.0, 0.0, 0.0, 0.0, 1.6664079836785529E9, 0.0, 2022-10-21 20:06:23.678
218.0, -152780.45419221572, -162332.82981310246, 39180.32815221884, -88163.9079050908, 74736.38799624301, -73621.9747211903, 86115.39287750637, -128554.27009514214, -0.022, 0.9520000000000001, -0.132, 192.0, 0.0, 0.0, 0.0, 0.0, 0.0, 0.0, 0.0, 0.0, 0.0, 1.6664079836785605E9, 0.0, 2022-10-21 20:06:23.678
219.0, -152783.02464282807, -162335.53437418156, 39176.21543123906, -88154.27430323057, 74736.09742356508, -73599.13123835697, 86145.09834588747, -128552.28078988563, -0.022, 0.9520000000000001, -0.132, 192.0, 0.0, 0.0, 0.0, 0.0, 0.0, 0.0, 0.0, 0.0, 0.0, 1.6664079836785684E9, 0.0, 2022-10-21 20:06:23.678
220.0, -152787.13736380785, -162337.99306607165, 39173.13089050423, -88164.13142253536, 74729.1907345284, -73592.38101153148, 86155.93894194829, -128554.65007479789, -0.022, 0.9520000000000001, -0.132, 192.0, 0.0, 0.0, 0.0, 0.0, 0.0, 0.0, 0.0, 0.0, 0.0, 1.6664079836785767E9, 0.0, 2022-10-21 20:06:23.678
221.0, -152787.49499171914, -162335.31085673702, 39170.33692244732, -88171.75336739462, 74727.46965020534, -73613.68222399738, 86127.88750265689, -128557.0417114546, -0.026000000000000002, 0.9540000000000001, -0.128, 192.0, 255.0, 48.0, 29.0, 208.0, 252.0, 0.0, 0.0, 0.0, 0.0, 1.6664079836785846E9, 0.0, 2022-10-21 20:06:23.678
222.0, -152776.02854681356, -162327.6218566444, 39180.57402140785, -88161.91859983429, 74737.8408596326, -73621.03594792318, 86115.52698797309, -128547.40810959437, -0.026000000000000002, 0.9540000000000001, -0.128, 192.0, 0.0, 0.0, 0.0, 0.0, 0.0, 0.0, 0.0, 0.0, 0.0, 1.6664079836785927E9, 0.0, 2022-10-21 20:06:23.678
223.0, -152784.07517481747, -162335.71318813722, 39172.035655025924, -88148.9545880502, 74739.04785383318, -73606.66377623842, 86140.35977606295, -128548.43628983932, -0.026000000000000002, 0.9540000000000001, -0.128, 192.0, 0.0, 0.0, 0.0, 0.0, 0.0, 0.0, 0.0, 0.0, 0.0, 1.6664079836786003E9, 0.0, 2022-10-21 20:06:23.678
224.0, -152785.93036960726, -162338.10482479393, 39172.81796608186, -88147.0546897715, 74739.27137127773, -73587.0165928622, 86164.6337705414, -128548.72686251723, -0.026000000000000002, 0.9540000000000001, -0.128, 192.0, 0.0, 0.0, 0.0, 0.0, 0.0, 0.0, 0.0, 0.0, 0.0, 1.666407983678609E9, 0.0, 2022-10-21 20:06:23.678
225.0, -152785.77390739607, -162338.82008061648, 39174.47199517155, -88160.01870155559, 74737.34912125458, -73594.99616563275, 86143.3325580755, -128556.6393800544, -0.026000000000000002, 0.9540000000000001, -0.128, 192.0, 0.0, 0.0, 0.0, 0.0, 0.0, 0.0, 0.0, 0.0, 0.0, 1.6664079836786168E9, 0.0, 2022-10-21 20:06:23.678
226.0, -152785.05865157352, -162335.55672592603, 39181.35633246379, -88158.76700386609, 74741.23832478981, -73615.67152925392, 86121.13727583138, -128552.1913829078, -0.026000000000000002, 0.9540000000000001, -0.128, 192.0, 0.0, 0.0, 0.0, 0.0, 0.0, 0.0, 0.0, 0.0, 0.0, 1.6664079836786313E9, 0.0, 2022-10-21 20:06:23.678
227.0, -152799.78845116956, -162350.97942960018, 39170.068701513854, -88156.1071462759, 74738.57846719962, -73613.92809318639, 86136.00118589416, -128559.67921730033, -0.026000000000000002, 0.9540000000000001, -0.128, 192.0, 0.0, 0.0, 0.0, 0.0, 0.0, 0.0, 0.0, 0.0, 0.0, 1.666407983678639E9, 0.0, 2022-10-21 20:06:23.678
228.0, -152806.89630590635, -162355.5615372135, 39161.86561129876, -88163.0138353126, 74723.7369088813, -73595.10792435502, 86160.6328082839, -128561.4450051123, -0.026000000000000002, 0.9540000000000001, -0.128, 192.0, 0.0, 0.0, 0.0, 0.0, 0.0, 0.0, 0.0, 0.0, 0.0, 1.6664079836786475E9, 0.0, 2022-10-21 20:06:23.678
229.0, -152804.10233784944, -162350.53239471107, 39161.060948498365, -88169.38408248236, 74715.10913552155, -73606.30614832713, 86139.01867139562, -128564.03780746911, -0.026000000000000002, 0.9540000000000001, -0.128, 192.0, 0.0, 0.0, 0.0, 0.0, 0.0, 0.0, 0.0, 0.0, 0.0, 1.6664079836786551E9, 0.0, 2022-10-21 20:06:23.678
230.0, -152805.37638728338, -162350.10771156644, 39161.50798338747, -88180.80582389902, 74716.1373157665, -73631.36245386154, 86106.69804891325, -128565.6471330699, -0.026000000000000002, 0.9540000000000001, -0.128, 192.0, 0.0, 0.0, 0.0, 0.0, 0.0, 0.0, 0.0, 0.0, 0.0, 1.6664079836786628E9, 0.0, 2022-10-21 20:06:23.678
231.0, -152809.39970128535, -162352.58875520097, 39166.023035767445, -88168.28884700405, 74723.58044667011, -73615.872694954, 86122.56778747652, -128556.3935108654, -0.02, 0.9420000000000001, -0.134, 192.0, 255.0, 96.0, 29.0, 112.0, 251.0, 208.0, 0.0, 0.0, 0.0, 1.666407983678671E9, 0.0, 2022-10-21 20:06:23.678
232.0, -152814.85352693242, -162360.0765895935, 39163.69845434409, -88161.44921320071, 74725.32388273763, -73580.64634569244, 86161.16925015084, -128553.53248757512, -0.02, 0.9420000000000001, -0.134, 192.0, 0.0, 0.0, 0.0, 0.0, 0.0, 0.0, 0.0, 0.0, 0.0, 1.666407983678679E9, 0.0, 2022-10-21 20:06:23.678
233.0, -152802.94004713776, -162348.85601387694, 39172.259172470476, -88163.8632016019, 74725.74856588228, -73580.33342127007, 86154.46372681424, -128551.61023755197, -0.02, 0.9420000000000001, -0.134, 192.0, 0.0, 0.0, 0.0, 0.0, 0.0, 0.0, 0.0, 0.0, 0.0, 1.6664079836786869E9, 0.0, 2022-10-21 20:06:23.678
234.0, -152796.72626217917, -162344.1174440524, 39176.97539055054, -88177.09543431943, 74726.0838420491, -73612.38582281898, 86118.56682521902, -128554.76183352017, -0.02, 0.9420000000000001, -0.134, 192.0, 0.0, 0.0, 0.0, 0.0, 0.0, 0.0, 0.0, 0.0, 0.0, 1.6664079836786945E9, 0.0, 2022-10-21 20:06:23.678
235.0, -152799.9672651252, -162348.05135107654, 39171.342750947806, -88177.58717269746, 74723.3345774811, -73625.9309799589, 86112.64361293837, -128566.11651970346, -0.02, 0.9420000000000001, -0.134, 192.0, 0.0, 0.0, 0.0, 0.0, 0.0, 0.0, 0.0, 0.0, 0.0, 1.666407983678702E9, 0.0, 2022-10-21 20:06:23.678
236.0, -152802.4706605042, -162347.09022606496, 39168.77230033545, -88171.21692552768, 74722.55226642518, -73599.91354941292, 86147.11000288845, -128564.90952550287, -0.02, 0.9420000000000001, -0.134, 192.0, 0.0, 0.0, 0.0, 0.0, 0.0, 0.0, 0.0, 0.0, 0.0, 1.66640798367871E9, 0.0, 2022-10-21 20:06:23.678
237.0, -152795.27339878958, -162340.29529575055, 39178.56236440687, -88166.27719000306, 74727.3355397386, -73586.50250273974, 86156.94477044878, -128562.02615046814, -0.02, 0.9420000000000001, -0.134, 192.0, 0.0, 0.0, 0.0, 0.0, 0.0, 0.0, 0.0, 0.0, 0.0, 1.6664079836787176E9, 0.0, 2022-10-21 20:06:23.678
238.0, -152791.47360223217, -162341.30112425104, 39184.530280176434, -88174.83790812946, 74724.49686819279, -73615.49271529827, 86122.05369735404, -128566.54120284811, -0.02, 0.9420000000000001, -0.134, 192.0, 0.0, 0.0, 0.0, 0.0, 0.0, 0.0, 0.0, 0.0, 0.0, 1.6664079836787252E9, 0.0, 2022-10-21 20:06:23.678
239.0, -152793.8652388889, -162344.16214754133, 39187.056027299885, -88176.17901279677, 74721.72525188033, -73630.53543931669, 86110.94488035976, -128567.85995577097, -0.02, 0.9420000000000001, -0.134, 192.0, 0.0, 0.0, 0.0, 0.0, 0.0, 0.0, 0.0, 0.0, 0.0, 1.666407983678734E9, 0.0, 2022-10-21 20:06:23.678
240.0, -152799.810802914, -162345.03386557507, 39185.603163910295, -88168.15473653731, 74723.17811526991, -73601.58993024706, 86145.03129065411, -128565.42361562535, -0.026000000000000002, 0.9480000000000001, -0.134, 192.0, 255.0, 48.0, 29.0, 160.0, 251.0, 208.0, 0.0, 0.0, 0.0, 1.6664079836787417E9, 0.0, 2022-10-21 20:06:23.678
241.0, -152794.1111080779, -162337.50132769364, 39187.88304184473, -88168.89234410434, 74722.57461816963, -73582.63565094897, 86159.5822762945, -128562.58494407951, -0.026000000000000002, 0.9480000000000001, -0.134, 192.0, 0.0, 0.0, 0.0, 0.0, 0.0, 0.0, 0.0, 0.0, 0.0, 1.6664079836787574E9, 0.0, 2022-10-21 20:06:23.678
242.0, -152789.73016616466, -162337.27781024907, 39189.73823663453, -88173.45209997322, 74722.17228676943, -73606.99905240526, 86126.09936310045, -128566.36238889246, -0.026000000000000002, 0.9480000000000001, -0.134, 192.0, 0.0, 0.0, 0.0, 0.0, 0.0, 0.0, 0.0, 0.0, 0.0, 1.6664079836787653E9, 0.0, 2022-10-21 20:06:23.678
243.0, -152790.98186385416, -162343.31278125203, 39192.68866690262, -88179.24120178714, 74722.57461816963, -73628.99316894927, 86108.06150532502, -128562.6967028018, -0.026000000000000002, 0.9480000000000001, -0.134, 192.0, 0.0, 0.0, 0.0, 0.0, 0.0, 0.0, 0.0, 0.0, 0.0, 1.6664079841564734E9, 0.0, 2022-10-21 20:06:24.156
244.0, -152786.06448007398, -162340.00472307263, 39200.08709431733, -88157.29178873204, 74732.43173747441, -73604.42860179288, 86143.31020633105, -128548.05631018357, -0.026000000000000002, 0.9480000000000001, -0.134, 192.0, 0.0, 0.0, 0.0, 0.0, 0.0, 0.0, 0.0, 0.0, 0.0, 1.6664079841566267E9, 0.0, 2022-10-21 20:06:24.156
245.0, -152783.29286376154, -162337.59073467145, 39201.89758561821, -88151.97207355167, 74738.64552243298, -73573.27027002219, 86171.85338400047, -128546.51403981616, -0.026000000000000002, 0.9480000000000001, -0.134, 192.0, 0.0, 0.0, 0.0, 0.0, 0.0, 0.0, 0.0, 0.0, 0.0, 1.6664079841566443E9, 0.0, 2022-10-21 20:06:24.156
246.0, -152783.38227073936, -162339.15535678333, 39194.09682680331, -88178.03420758656, 74726.2403042603, -73598.23716857877, 86134.57067424901, -128560.95326673429, -0.026000000000000002, 0.9480000000000001, -0.134, 192.0, 0.0, 0.0, 0.0, 0.0, 0.0, 0.0, 0.0, 0.0, 0.0, 1.666407984156667E9, 0.0, 2022-10-21 20:06:24.156
247.0, -152783.24816027263, -162339.31181899452, 39190.22997501254, -88183.57744021148, 74722.35110072508, -73636.39159636397, 86097.06444705301, -128573.98433375172, -0.026000000000000002, 0.9480000000000001, -0.134, 192.0, 0.0, 0.0, 0.0, 0.0, 0.0, 0.0, 0.0, 0.0, 0.0, 1.6664079841566913E9, 0.0, 2022-10-21 20:06:24.156
248.0, -152789.23842778665, -162347.24668827615, 39187.815986611364, -88178.43653898676, 74721.47938269131, -73621.30416885664, 86120.1761508198, -128571.83856628402, -0.026000000000000002, 0.9480000000000001, -0.134, 192.0, 0.0, 0.0, 0.0, 0.0, 0.0, 0.0, 0.0, 0.0, 0.0, 1.6664079841567128E9, 0.0, 2022-10-21 20:06:24.156
249.0, -152794.55814296703, -162352.7228656677, 39184.84320459881, -88181.85635588842, 74719.9818158128, -73600.53939825766, 86146.84178195498, -128572.26324942867, -0.026000000000000002, 0.9480000000000001, -0.134, 192.0, 0.0, 0.0, 0.0, 0.0, 0.0, 0.0, 0.0, 0.0, 0.0, 1.6664079841567297E9, 0.0, 2022-10-21 20:06:24.156
250.0, -152795.63102670087, -162353.4157697458, 39188.33007673384, -88190.19355657024, 74720.22768500182, -73605.21091284882, 86131.95552014775, -128577.06887448656, -0.03, 0.9480000000000001, -0.14, 192.0, 255.0, 16.0, 29.0, 160.0, 251.0, 160.0, 0.0, 0.0, 0.0, 1.6664079841567466E9, 0.0, 2022-10-21 20:06:24.156
251.0, -152788.07613707497, -162345.1679760418, 39201.674068173656, -88185.38793151235, 74732.5881996856, -73618.33138684409, 86117.27042404062, -128563.97075223575, -0.03, 0.9480000000000001, -0.14, 192.0, 0.0, 0.0, 0.0, 0.0, 0.0, 0.0, 0.0, 0.0, 0.0, 1.6664079841567655E9, 0.0, 2022-10-21 20:06:24.156
252.0, -152786.26564577408, -162340.56351668402, 39201.741123407024, -88170.0099313271, 74734.6445601755, -73608.85424719503, 86135.15181960486, -128555.43238585383, -0.03, 0.9480000000000001, -0.14, 192.0, 0.0, 0.0, 0.0, 0.0, 0.0, 0.0, 0.0, 0.0, 0.0, 1.6664079841567874E9, 0.0, 2022-10-21 20:06:24.156
253.0, -152777.4590584587, -162329.1194235229, 39204.6021466973, -88163.48322194615, 74735.7397956538, -73576.64538343494, 86172.09925318947, -128548.88332472842, -0.03, 0.9480000000000001, -0.14, 192.0, 0.0, 0.0, 0.0, 0.0, 0.0, 0.0, 0.0, 0.0, 0.0, 1.666407984156804E9, 0.0, 2022-10-21 20:06:24.156
254.0, -152787.11501206338, -162341.34582773995, 39194.29799250341, -88192.85341416043, 74720.16062976845, -73591.08461035306, 86149.68045350081, -128565.4459673698, -0.03, 0.9480000000000001, -0.14, 192.0, 0.0, 0.0, 0.0, 0.0, 0.0, 0.0, 0.0, 0.0, 0.0, 1.6664079841568215E9, 0.0, 2022-10-21 20:06:24.156
255.0, -152797.84384940195, -162355.5168337246, 39191.79459712441, -88197.1225973514, 74718.14897276748, -73619.80660197814, 86118.76799091912, -128567.61408658196, -0.03, 0.9480000000000001, -0.14, 192.0, 0.0, 0.0, 0.0, 0.0, 0.0, 0.0, 0.0, 0.0, 0.0, 1.6664079841568477E9, 0.0, 2022-10-21 20:06:24.156
0.0, -152789.8642766314, -162349.30304876604, 39196.779036137945, -88185.43263500127, 74723.3345774811, -73612.94461643037, 86130.54736024706, -128558.092243444, -0.03, 0.9480000000000001, -0.14, 192.0, 0.0, 0.0, 0.0, 0.0, 0.0, 0.0, 0.0, 0.0, 0.0, 1.666407984156927E9, 0.0, 2022-10-21 20:06:24.156
1.0, -152788.85844813092, -162349.99595284415, 39194.38739948123, -88172.69214066173, 74721.41232745795, -73588.5141597407, 86160.14106990589, -128561.86968825695, -0.03, 0.9480000000000001, -0.14, 192.0, 0.0, 0.0, 0.0, 0.0, 0.0, 0.0, 0.0, 0.0, 0.0, 1.6664079841569445E9, 0.0, 2022-10-21 20:06:24.156
2.0, -152792.99352085515, -162348.81131038803, 39187.52541393345, -88183.53273672257, 74711.39874594197, -73591.35283128654, 86151.58035177951, -128568.26228717116, -0.03, 0.9480000000000001, -0.14, 192.0, 0.0, 0.0, 0.0, 0.0, 0.0, 0.0, 0.0, 0.0, 0.0, 1.666407984156962E9, 0.0, 2022-10-21 20:06:24.156
3.0, -152784.32104400647, -162339.22241201668, 39196.66727741567, -88188.07014084699, 74715.39970819947, -73614.73275598678, 86121.89723514287, -128559.61216206696, -0.03, 0.9480000000000001, -0.14, 192.0, 0.0, 0.0, 0.0, 0.0, 0.0, 0.0, 0.0, 0.0, 0.0, 1.6664079841569788E9, 0.0, 2022-10-21 20:06:24.156
4.0, -152788.83609638645, -162343.75981614113, 39195.08030355934, -88184.98560011215, 74714.86326633254, -73625.90862821444, 86116.44340949577, -128561.55676383458, -0.032, 0.9460000000000001, -0.14, 192.0, 255.0, 0.0, 29.0, 144.0, 251.0, 160.0, 0.0, 0.0, 0.0, 1.6664079841569986E9, 0.0, 2022-10-21 20:06:24.156
5.0, -152796.74861392364, -162349.8171388885, 39189.60412616779, -88179.39766399833, 74713.94684480988, -73598.23716857877, 86148.04877615557, -128566.07181621455, -0.032, 0.9460000000000001, -0.14, 192.0, 0.0, 0.0, 0.0, 0.0, 0.0, 0.0, 0.0, 0.0, 0.0, 1.6664079841570165E9, 0.0, 2022-10-21 20:06:24.157
6.0, -152789.35018650893, -162342.70928415173, 39194.20858552559, -88180.80582389902, 74715.26559773274, -73582.54624397114, 86154.30726460306, -128565.91535400336, -0.032, 0.9460000000000001, -0.14, 192.0, 0.0, 0.0, 0.0, 0.0, 0.0, 0.0, 0.0, 0.0, 0.0, 1.6664079841570375E9, 0.0, 2022-10-21 20:06:24.157
7.0, -152783.13640155035, -162339.35652248343, 39201.02586758445, -88179.10709132042, 74719.44537394588, -73605.14385761546, 86122.14310433187, -128565.62478132544, -0.032, 0.9460000000000001, -0.14, 192.0, 0.0, 0.0, 0.0, 0.0, 0.0, 0.0, 0.0, 0.0, 0.0, 1.6664079841570542E9, 0.0, 2022-10-21 20:06:24.157
8.0, -152780.67770966026, -162337.83660386046, 39210.86063514479, -88159.41520445529, 74734.80102238667, -73610.73179372928, 86118.23154905219, -128553.17485966384, -0.032, 0.9460000000000001, -0.14, 192.0, 0.0, 0.0, 0.0, 0.0, 0.0, 0.0, 0.0, 0.0, 0.0, 1.666407984157076E9, 0.0, 2022-10-21 20:06:24.157
9.0, -152792.12180282138, -162348.63249643237, 39196.37670473775, -88161.806841112, 74724.5415716817, -73598.86301742351, 86137.1858283503, -128564.03780746911, -0.032, 0.9460000000000001, -0.14, 192.0, 0.0, 0.0, 0.0, 0.0, 0.0, 0.0, 0.0, 0.0, 0.0, 1.6664079841570933E9, 0.0, 2022-10-21 20:06:24.157
