%OpenBCI Raw EEG Data
%Number of channels = 8
%Sample Rate = 250 Hz
%Board = OpenBCI_GUI$BoardCytonSerial
Sample Index, EXG Channel 0, EXG Channel 1, EXG Channel 2, EXG Channel 3, EXG Channel 4, EXG Channel 5, EXG Channel 6, EXG Channel 7, Accel Channel 0, Accel Channel 1, Accel Channel 2, Other, Other, Other, Other, Other, Other, Other, Analog Channel 0, Analog Channel 1, Analog Channel 2, Timestamp, Other, Timestamp (Formatted)
208.0, -59424.392512368264, -87344.93998824836, 36332.738260357175, -10041.521196546699, 72791.76387688683, 44787.06208313252, 7463.04630792693, 11221.849765998099, 0.0, 0.0, 0.0, 192.0, 0.0, 0.0, 0.0, 0.0, 0.0, 0.0, 0.0, 0.0, 0.0, 1.6665551636937091E9, 0.0, 2022-10-23 12:59:23.693
209.0, -59337.39952294821, -87262.1938302748, 35145.50300186909, -10843.43473236975, 72509.05901301611, 44134.97229039339, 6531.872633918838, 10021.382274792466, 0.0, 0.0, 0.0, 192.0, 0.0, 0.0, 0.0, 0.0, 0.0, 0.0, 0.0, 0.0, 0.0, 1.6665551636937304E9, 0.0, 2022-10-23 12:59:23.693
210.0, -59351.771694632975, -87271.62626643495, 33404.41386752294, -11754.916519512715, 72564.02195263171, 43361.57958049531, 5483.598170709392, 9043.69462057288, 0.044, 0.9460000000000001, 0.134, 192.0, 1.0, 96.0, 29.0, 144.0, 4.0, 48.0, 0.0, 0.0, 0.0, 1.6665551636937428E9, 0.0, 2022-10-23 12:59:23.693
211.0, -59399.604427767335, -87317.69321175733, 33761.08065379628, -11465.640242772131, 72704.6591287445, 43594.82003388644, 5846.746962874766, 9610.020769836996, 0.044, 0.9460000000000001, 0.134, 192.0, 0.0, 0.0, 0.0, 0.0, 0.0, 0.0, 0.0, 0.0, 0.0, 1.6665551636937606E9, 0.0, 2022-10-23 12:59:23.693
212.0, -59436.015419485026, -87353.52305811919, 35983.604011965275, -10228.404131937521, 72808.37122301712, 44620.78745612949, 7264.205189252519, 11075.62465377148, 0.044, 0.9460000000000001, 0.134, 192.0, 0.0, 0.0, 0.0, 0.0, 0.0, 0.0, 0.0, 0.0, 0.0, 1.6665551636937752E9, 0.0, 2022-10-23 12:59:23.693
213.0, -59359.661860425695, -87285.99843811971, 35521.928730240914, -10636.14465429123, 72538.80918488612, 44292.66384752558, 6783.732090441238, 10333.90436576657, 0.044, 0.9460000000000001, 0.134, 192.0, 0.0, 0.0, 0.0, 0.0, 0.0, 0.0, 0.0, 0.0, 0.0, 1.6665551636937892E9, 0.0, 2022-10-23 12:59:23.693
214.0, -59350.005906821, -87275.31430427007, 33462.818975784656, -11747.451036864644, 72535.70229240684, 43357.60096998227, 5495.936333648722, 9050.623661354026, 0.044, 0.9460000000000001, 0.134, 192.0, 0.0, 0.0, 0.0, 0.0, 0.0, 0.0, 0.0, 0.0, 0.0, 1.6665551636938033E9, 0.0, 2022-10-23 12:59:23.693
215.0, -59390.86489568531, -87314.22869136676, 33526.05206084872, -11603.841078739295, 72679.55811972119, 43471.79603240443, 5683.780394051122, 9438.87346254271, 0.044, 0.9460000000000001, 0.134, 192.0, 0.0, 0.0, 0.0, 0.0, 0.0, 0.0, 0.0, 0.0, 0.0, 1.6665551636938174E9, 0.0, 2022-10-23 12:59:23.693
216.0, -59435.9260125072, -87357.88164828798, 35560.306675470674, -10443.338506619753, 72813.7356416864, 44433.50218933847, 7019.922974100468, 10866.948767536733, 0.044, 0.9460000000000001, 0.134, 192.0, 0.0, 0.0, 0.0, 0.0, 0.0, 0.0, 0.0, 0.0, 0.0, 1.6665551636938312E9, 0.0, 2022-10-23 12:59:23.693
217.0, -59380.001947880024, -87310.42889480936, 35967.041369323895, -10342.42038040404, 72607.94313048638, 44540.27647260147, 7118.449463659462, 10719.31549540943, 0.044, 0.9460000000000001, 0.134, 192.0, 0.0, 0.0, 0.0, 0.0, 0.0, 0.0, 0.0, 0.0, 0.0, 1.6665551636938436E9, 0.0, 2022-10-23 12:59:23.693
218.0, -59351.68228765515, -87284.45616775229, 33742.662816365104, -11578.181276104604, 72511.27183571718, 43521.55101556194, 5684.741519062701, 9198.256933481329, 0.044, 0.9460000000000001, 0.134, 192.0, 0.0, 0.0, 0.0, 0.0, 0.0, 0.0, 0.0, 0.0, 0.0, 1.6665551636938546E9, 0.0, 2022-10-23 12:59:23.693
219.0, -59388.22738983958, -87320.10720015851, 33455.66641755896, -11634.06063724287, 72648.95858156188, 43465.78341314595, 5637.981669662198, 9338.424722960559, 0.044, 0.9460000000000001, 0.134, 192.0, 0.0, 0.0, 0.0, 0.0, 0.0, 0.0, 0.0, 0.0, 0.0, 1.6665551636938667E9, 0.0, 2022-10-23 12:59:23.693
220.0, -59434.0261142285, -87363.44723265735, 35176.68368538424, -10631.182567022153, 72799.65404267955, 44295.99425744942, 6801.233506349744, 10630.512014688495, 0.038, 0.9540000000000001, 0.14200000000000002, 192.0, 1.0, 48.0, 29.0, 208.0, 4.0, 112.0, 0.0, 0.0, 0.0, 1.6665551636938775E9, 0.0, 2022-10-23 12:59:23.693
221.0, -59385.1652008492, -87319.10137165802, 36270.91333519379, -10145.300346052689, 72648.55625016168, 44706.03700948203, 7338.815312244334, 10981.926141014832, 0.038, 0.9540000000000001, 0.14200000000000002, 192.0, 0.0, 0.0, 0.0, 0.0, 0.0, 0.0, 0.0, 0.0, 0.0, 1.666555163693889E9, 0.0, 2022-10-23 12:59:23.693
222.0, -59330.090502511324, -87265.88186810994, 34008.78268584999, -11450.59751875371, 72496.72085007679, 43624.25728133408, 5824.2834596971825, 9318.911650051075, 0.038, 0.9540000000000001, 0.14200000000000002, 192.0, 0.0, 0.0, 0.0, 0.0, 0.0, 0.0, 0.0, 0.0, 0.0, 1.6665551636938996E9, 0.0, 2022-10-23 12:59:23.693
223.0, -59377.23033156757, -87310.22772910926, 33368.53931767217, -11699.104213607814, 72638.45326166788, 43404.36081938277, 5547.904139507311, 9222.128596559596, 0.038, 0.9540000000000001, 0.14200000000000002, 192.0, 0.0, 0.0, 0.0, 0.0, 0.0, 0.0, 0.0, 0.0, 0.0, 1.6665551636939104E9, 0.0, 2022-10-23 12:59:23.693
224.0, -59431.14273919377, -87360.27328494469, 34728.531209055334, -10876.515314163604, 72777.0340772908, 44089.01710379328, 6512.605430198363, 10341.883938537114, 0.038, 0.9540000000000001, 0.14200000000000002, 192.0, 0.0, 0.0, 0.0, 0.0, 0.0, 0.0, 0.0, 0.0, 0.0, 1.666555163694039E9, 0.0, 2022-10-23 12:59:23.694
225.0, -59410.020340683506, -87343.93415974786, 36416.19967415329, -10032.736960975762, 72701.9098641765, 44790.45954828973, 7463.314528860394, 11164.003451347764, 0.038, 0.9540000000000001, 0.14200000000000002, 192.0, 0.0, 0.0, 0.0, 0.0, 0.0, 0.0, 0.0, 0.0, 0.0, 1.6665551636940508E9, 0.0, 2022-10-23 12:59:23.694
226.0, -59340.97580206106, -87278.55530721608, 34404.60972840902, -11235.372571393558, 72485.29910866013, 43807.56393761205, 6071.091421972683, 9556.488341866534, 0.038, 0.9540000000000001, 0.14200000000000002, 192.0, 0.0, 0.0, 0.0, 0.0, 0.0, 0.0, 0.0, 0.0, 0.0, 1.666555163694062E9, 0.0, 2022-10-23 12:59:23.694
227.0, -59362.99227034954, -87299.49889177071, 33386.21954753632, -11699.372434541277, 72606.0879356966, 43412.87683402024, 5540.95274698171, 9165.19870343193, 0.038, 0.9540000000000001, 0.14200000000000002, 192.0, 0.0, 0.0, 0.0, 0.0, 0.0, 0.0, 0.0, 0.0, 0.0, 1.6665551636940732E9, 0.0, 2022-10-23 12:59:23.694
228.0, -59409.238029627566, -87344.82822952607, 34358.60983832, -11083.492467819748, 72747.35096065413, 43922.94364249035, 6275.00638663845, 10069.259711415734, 0.038, 0.9540000000000001, 0.14200000000000002, 192.0, 0.0, 0.0, 0.0, 0.0, 0.0, 0.0, 0.0, 0.0, 0.0, 1.666555163694084E9, 0.0, 2022-10-23 12:59:23.694
229.0, -59418.29048613197, -87356.7193575763, 36475.94588708233, -9961.926634541349, 72757.9233357815, 44860.66637762384, 7546.261852534039, 11272.85644684511, 0.038, 0.9540000000000001, 0.14200000000000002, 192.0, 0.0, 0.0, 0.0, 0.0, 0.0, 0.0, 0.0, 0.0, 0.0, 1.666555163694095E9, 0.0, 2022-10-23 12:59:23.694
230.0, -59338.24888923751, -87280.74577817271, 34925.36067072877, -10947.124474897919, 72491.46819012979, 44058.417565633965, 6402.143109100236, 9868.116363062425, 0.036000000000000004, 0.9540000000000001, 0.14200000000000002, 192.0, 1.0, 32.0, 29.0, 208.0, 4.0, 112.0, 0.0, 0.0, 0.0, 1.6665551636941078E9, 0.0, 2022-10-23 12:59:23.694
231.0, -59357.784313891454, -87293.77684519015, 33476.945278280415, -11676.685413919142, 72584.58555753059, 43436.52497965396, 5561.985738514154, 9124.943211667922, 0.036000000000000004, 0.9540000000000001, 0.14200000000000002, 192.0, 0.0, 0.0, 0.0, 0.0, 0.0, 0.0, 0.0, 0.0, 0.0, 1.6665551636941197E9, 0.0, 2022-10-23 12:59:23.694
232.0, -59408.00868368253, -87340.38023237947, 34075.52499479354, -11263.401658940515, 72724.55218130973, 43776.62912328591, 6067.626901582111, 9815.008618236616, 0.036000000000000004, 0.9540000000000001, 0.14200000000000002, 192.0, 0.0, 0.0, 0.0, 0.0, 0.0, 0.0, 0.0, 0.0, 0.0, 1.6665551636941304E9, 0.0, 2022-10-23 12:59:23.694
233.0, -59422.53731757848, -87355.26649418671, 36321.562388129525, -10041.94587969135, 72800.59281594669, 44791.35361806794, 7462.711031760101, 11209.98098969233, 0.036000000000000004, 0.9540000000000001, 0.14200000000000002, 192.0, 0.0, 0.0, 0.0, 0.0, 0.0, 0.0, 0.0, 0.0, 0.0, 1.6665551636941411E9, 0.0, 2022-10-23 12:59:23.694
234.0, -59340.03702879394, -87276.92362987086, 35412.42753415436, -10684.223256614598, 72542.98896109927, 44278.828117707744, 6712.407673884353, 10187.835715751138, 0.036000000000000004, 0.9540000000000001, 0.14200000000000002, 192.0, 0.0, 0.0, 0.0, 0.0, 0.0, 0.0, 0.0, 0.0, 0.0, 1.666555163694152E9, 0.0, 2022-10-23 12:59:23.694
235.0, -59359.79597089243, -87293.66508646788, 33586.915861000525, -11646.622317626754, 72562.2785165642, 43478.34509352983, 5606.152785557841, 9117.56713599767, 0.036000000000000004, 0.9540000000000001, 0.14200000000000002, 192.0, 0.0, 0.0, 0.0, 0.0, 0.0, 0.0, 0.0, 0.0, 0.0, 1.6665551636941626E9, 0.0, 2022-10-23 12:59:23.694
236.0, -59382.77356419249, -87317.29088035713, 33831.17572440812, -11434.437207512523, 72696.14311410704, 43661.02590096306, 5901.888716446008, 9605.684531412666, 0.036000000000000004, 0.9540000000000001, 0.14200000000000002, 192.0, 0.0, 0.0, 0.0, 0.0, 0.0, 0.0, 0.0, 0.0, 0.0, 1.666555163694173E9, 0.0, 2022-10-23 12:59:23.694
237.0, -59413.95424770764, -87350.66203482891, 36019.679727516144, -10231.64513488354, 72835.12626113014, 44683.28293362653, 7321.380951569195, 11088.85688648902, 0.036000000000000004, 0.9540000000000001, 0.14200000000000002, 192.0, 0.0, 0.0, 0.0, 0.0, 0.0, 0.0, 0.0, 0.0, 0.0, 1.666555163694184E9, 0.0, 2022-10-23 12:59:23.694
238.0, -59349.73768588754, -87293.53097600114, 35861.58583898376, -10473.088678489767, 72586.26193836474, 44508.44758849712, 7043.951099389923, 10544.390743302196, 0.036000000000000004, 0.9540000000000001, 0.14200000000000002, 192.0, 0.0, 0.0, 0.0, 0.0, 0.0, 0.0, 0.0, 0.0, 0.0, 1.6665551636941948E9, 0.0, 2022-10-23 12:59:23.694
239.0, -59346.049648052416, -87286.93721138683, 33721.49571436593, -11644.297736203402, 72539.34562675306, 43531.18461742218, 5685.926161518832, 9149.306613124207, 0.038, 0.9520000000000001, 0.14, 192.0, 1.0, 48.0, 29.0, 192.0, 4.0, 96.0, 0.0, 0.0, 0.0, 1.6665551636942053E9, 0.0, 2022-10-23 12:59:23.694
240.0, -59390.75313696303, -87326.43274383935, 33635.352091235174, -11594.095718156781, 72671.8020643952, 43558.52080089102, 5762.302072322616, 9420.925011745097, 0.038, 0.9520000000000001, 0.14, 192.0, 0.0, 0.0, 0.0, 0.0, 0.0, 0.0, 0.0, 0.0, 0.0, 1.6665551636942496E9, 0.0, 2022-10-23 12:59:23.694
241.0, -59438.92114626422, -87374.39958744045, 35569.80616686418, -10484.935103051079, 72810.7852114183, 44475.143489258706, 7040.151302832521, 10808.09662438591, 0.038, 0.9520000000000001, 0.14, 192.0, 0.0, 0.0, 0.0, 0.0, 0.0, 0.0, 0.0, 0.0, 0.0, 1.6665551636942608E9, 0.0, 2022-10-23 12:59:23.694
242.0, -59383.13119210377, -87326.63390953945, 36183.629773095825, -10277.600321483651, 72613.10638345557, 44657.15374435827, 7258.080811271765, 10801.99459814961, 0.038, 0.9520000000000001, 0.14, 192.0, 0.0, 0.0, 0.0, 0.0, 0.0, 0.0, 0.0, 0.0, 0.0, 1.666555163694271E9, 0.0, 2022-10-23 12:59:23.694
243.0, -59347.18958701964, -87291.40756027789, 33880.260155231976, -11582.137534873193, 72502.6664141019, 43568.89201031828, 5746.141761081429, 9190.791450833256, 0.038, 0.9520000000000001, 0.14, 192.0, 0.0, 0.0, 0.0, 0.0, 0.0, 0.0, 0.0, 0.0, 0.0, 1.6665551636942823E9, 0.0, 2022-10-23 12:59:23.694
244.0, -59381.92419790319, -87323.75053450472, 33511.94811009742, -11666.44831495861, 72660.71559914538, 43493.38781754825, 5658.746440261179, 9293.721234049945, 0.038, 0.9520000000000001, 0.14, 192.0, 0.0, 0.0, 0.0, 0.0, 0.0, 0.0, 0.0, 0.0, 0.0, 1.6665551636942928E9, 0.0, 2022-10-23 12:59:23.694
245.0, -59435.97071599612, -87371.80678508364, 35134.46124010816, -10706.060910947432, 72795.47426646642, 44294.0049521929, 6774.344357770009, 10542.244975834486, 0.038, 0.9520000000000001, 0.14, 192.0, 0.0, 0.0, 0.0, 0.0, 0.0, 0.0, 0.0, 0.0, 0.0, 1.6665551636943035E9, 0.0, 2022-10-23 12:59:23.694
246.0, -59390.909599174214, -87330.8583892415, 36451.62718911495, -10088.37045292502, 72663.48721545783, 44812.4760165782, 7465.326185861371, 11057.296223318128, 0.038, 0.9520000000000001, 0.14, 192.0, 0.0, 0.0, 0.0, 0.0, 0.0, 0.0, 0.0, 0.0, 0.0, 1.6665551636943142E9, 0.0, 2022-10-23 12:59:23.694
247.0, -59328.65999086619, -87269.3016850116, 34207.288528357574, -11405.78227112082, 72484.33798364854, 43713.73131438867, 5937.383286641037, 9359.636528448646, 0.038, 0.9520000000000001, 0.14, 192.0, 0.0, 0.0, 0.0, 0.0, 0.0, 0.0, 0.0, 0.0, 0.0, 1.6665551636943247E9, 0.0, 2022-10-23 12:59:23.694
248.0, -59367.68613668515, -87303.63396449495, 33428.6878620014, -11729.770807000496, 72634.00526452127, 43428.388944672224, 5571.3511194409275, 9167.411526133004, 0.038, 0.9520000000000001, 0.14, 192.0, 0.0, 0.0, 0.0, 0.0, 0.0, 0.0, 0.0, 0.0, 0.0, 1.6665551636943357E9, 0.0, 2022-10-23 12:59:23.694
249.0, -59415.98825645307, -87348.94095050586, 34632.977501508896, -10992.7443853312, 72781.25855699283, 44036.57991130113, 6439.850501996339, 10204.845393281626, 0.034, 0.9440000000000001, 0.14200000000000002, 192.0, 1.0, 16.0, 29.0, 128.0, 4.0, 112.0, 0.0, 0.0, 0.0, 1.6665551636943464E9, 0.0, 2022-10-23 12:59:23.694
250.0, -59393.25653234203, -87327.79620025113, 36497.448265248335, -10026.903155672928, 72753.7212078239, 44848.05999375105, 7528.179291269696, 11189.97617840483, 0.034, 0.9440000000000001, 0.14200000000000002, 192.0, 0.0, 0.0, 0.0, 0.0, 0.0, 0.0, 0.0, 0.0, 0.0, 1.666555163694358E9, 0.0, 2022-10-23 12:59:23.694
251.0, -59313.5502116144, -87251.08501328052, 34591.20209112192, -11180.20846607786, 72514.17756249638, 43902.111816658, 6185.666464050587, 9625.063493855418, 0.034, 0.9440000000000001, 0.14200000000000002, 192.0, 0.0, 0.0, 0.0, 0.0, 0.0, 0.0, 0.0, 0.0, 0.0, 1.66655516369437E9, 0.0, 2022-10-23 12:59:23.694
252.0, -59352.77752313347, -87289.48531025473, 33426.31857708914, -11725.635734276264, 72625.6904155839, 43436.23440697604, 5553.134447709853, 9131.246403604318, 0.034, 0.9440000000000001, 0.14200000000000002, 192.0, 0.0, 0.0, 0.0, 0.0, 0.0, 0.0, 0.0, 0.0, 0.0, 1.6665551636943812E9, 0.0, 2022-10-23 12:59:23.694
253.0, -59406.37700633729, -87339.10618294551, 34249.376863166915, -11188.590370248601, 72750.77077755581, 43875.44618552282, 6192.640208320643, 9952.20362570329, 0.034, 0.9440000000000001, 0.14200000000000002, 192.0, 0.0, 0.0, 0.0, 0.0, 0.0, 0.0, 0.0, 0.0, 0.0, 1.6665551636943915E9, 0.0, 2022-10-23 12:59:23.694
254.0, -59418.402244854246, -87351.39964239593, 36402.18513037982, -10033.385161564966, 72778.08460928018, 44827.65285106336, 7499.546706622447, 11217.6476380405, 0.034, 0.9440000000000001, 0.14200000000000002, 192.0, 0.0, 0.0, 0.0, 0.0, 0.0, 0.0, 0.0, 0.0, 0.0, 1.6665551636944025E9, 0.0, 2022-10-23 12:59:23.694
255.0, -59345.73672363004, -87286.71369394228, 34995.88042448526, -10938.809625960545, 72498.93367277786, 44073.39323441902, 6432.854405981828, 9887.741194694185, 0.034, 0.9440000000000001, 0.14200000000000002, 192.0, 0.0, 0.0, 0.0, 0.0, 0.0, 0.0, 0.0, 0.0, 0.0, 1.666555163694424E9, 0.0, 2022-10-23 12:59:23.694
0.0, -59363.14873256072, -87300.9070516714, 33416.46145778435, -11728.966144200105, 72575.73426672629, 43392.98378145502, 5502.507746518582, 9044.633393840002, 0.034, 0.9440000000000001, 0.14200000000000002, 192.0, 0.0, 0.0, 0.0, 0.0, 0.0, 0.0, 0.0, 0.0, 0.0, 1.666555163694435E9, 0.0, 2022-10-23 12:59:23.694
1.0, -59397.88334344427, -87332.98180496476, 33890.85488210379, -11365.124447956616, 72716.93023645047, 43676.53801161504, 5931.236556915826, 9673.097392689871, 0.034, 0.9440000000000001, 0.14200000000000002, 192.0, 0.0, 0.0, 0.0, 0.0, 0.0, 0.0, 0.0, 0.0, 0.0, 1.6665551636944454E9, 0.0, 2022-10-23 12:59:23.694
2.0, -59429.68987580417, -87365.95062803634, 36145.05066216596, -10105.581296155608, 72809.60056896217, 44708.69686707221, 7347.532492581903, 11118.383540914481, 0.034, 0.9440000000000001, 0.14200000000000002, 192.0, 0.0, 0.0, 0.0, 0.0, 0.0, 0.0, 0.0, 0.0, 0.0, 1.666555163694456E9, 0.0, 2022-10-23 12:59:23.694
3.0, -59349.380057976254, -87288.34537128752, 35456.88515387597, -10611.088348756832, 72541.71491166532, 44284.997199177415, 6723.650601345373, 10225.118425502591, 0.04, 0.9480000000000001, 0.14, 192.0, 1.0, 64.0, 29.0, 160.0, 4.0, 96.0, 0.0, 0.0, 0.0, 1.6665551636944678E9, 0.0, 2022-10-23 12:59:23.694
4.0, -59350.18472077665, -87282.22099330676, 33523.90629338101, -11631.780759308429, 72563.91019390944, 43423.38215391424, 5533.442560844727, 9060.503132403272, 0.04, 0.9480000000000001, 0.14, 192.0, 0.0, 0.0, 0.0, 0.0, 0.0, 0.0, 0.0, 0.0, 0.0, 1.6665551636944795E9, 0.0, 2022-10-23 12:59:23.694
5.0, -59394.485878287065, -87322.05180192612, 33698.71928676597, -11439.93573664853, 72703.18391361045, 43588.49449020559, 5792.543982570646, 9519.540908281911, 0.04, 0.9480000000000001, 0.14, 192.0, 0.0, 0.0, 0.0, 0.0, 0.0, 0.0, 0.0, 0.0, 0.0, 1.6665551636944897E9, 0.0, 2022-10-23 12:59:23.694
6.0, -59435.456625873645, -87363.0672530016, 35836.12720204916, -10227.845338326137, 72824.97856914742, 44595.664095361724, 7181.906066168078, 10981.546161359092, 0.04, 0.9480000000000001, 0.14, 192.0, 0.0, 0.0, 0.0, 0.0, 0.0, 0.0, 0.0, 0.0, 0.0, 1.6665551636945064E9, 0.0, 2022-10-23 12:59:23.694
7.0, -59367.23910179605, -87302.60578425, 35942.16387774514, -10309.719778265928, 72585.70314475337, 44541.416411568694, 7068.761535735314, 10614.217592980576, 0.04, 0.9480000000000001, 0.14, 192.0, 0.0, 0.0, 0.0, 0.0, 0.0, 0.0, 0.0, 0.0, 0.0, 1.6665551636945164E9, 0.0, 2022-10-23 12:59:23.694
8.0, -59352.97868883356, -87283.98678111873, 33735.35379592822, -11530.437949948067, 72520.6148648995, 43520.813407994916, 5649.984556434698, 9139.628307775058, 0.04, 0.9480000000000001, 0.14, 192.0, 0.0, 0.0, 0.0, 0.0, 0.0, 0.0, 0.0, 0.0, 0.0, 1.6665551636945264E9, 0.0, 2022-10-23 12:59:23.694
9.0, -59401.90665744623, -87328.04206944014, 33553.61176176211, -11528.672162136098, 72661.14028229003, 43510.06221891192, 5667.821248510033, 9354.98736560194, 0.04, 0.9480000000000001, 0.14, 192.0, 0.0, 0.0, 0.0, 0.0, 0.0, 0.0, 0.0, 0.0, 0.0, 1.6665551636945364E9, 0.0, 2022-10-23 12:59:23.694
10.0, -59444.91141377824, -87368.29756120415, 35383.39261810692, -10468.864198787714, 72808.2818160393, 44382.76372942492, 6889.79111788167, 10697.567248054416, 0.04, 0.9480000000000001, 0.14, 192.0, 0.0, 0.0, 0.0, 0.0, 0.0, 0.0, 0.0, 0.0, 0.0, 1.6665551636945472E9, 0.0, 2022-10-23 12:59:23.694
11.0, -59381.09718335834, -87312.44055181033, 36249.63447447235, -10105.290723477689, 72654.43475895343, 44690.48019534114, 7283.740613906457, 10884.15961076732, 0.04, 0.9480000000000001, 0.14, 192.0, 0.0, 0.0, 0.0, 0.0, 0.0, 0.0, 0.0, 0.0, 0.0, 1.6665551636945572E9, 0.0, 2022-10-23 12:59:23.694
12.0, -59345.692020141134, -87276.02956009265, 33945.6613595082, -11423.730721918431, 72512.63529212897, 43588.762711139054, 5752.064973362086, 9229.7281896744, 0.036000000000000004, 0.9520000000000001, 0.14, 192.0, 1.0, 32.0, 29.0, 192.0, 4.0, 96.0, 0.0, 0.0, 0.0, 1.6665551636945672E9, 0.0, 2022-10-23 12:59:23.694
13.0, -59384.18172409317, -87309.53482503115, 33438.58968479511, -11590.139459388192, 72666.81762538166, 43437.77667734345, 5565.539665882548, 9232.835082153688, 0.036000000000000004, 0.9520000000000001, 0.14, 192.0, 0.0, 0.0, 0.0, 0.0, 0.0, 0.0, 0.0, 0.0, 0.0, 1.6665551636945777E9, 0.0, 2022-10-23 12:59:23.694
14.0, -59431.03098047149, -87355.04297674214, 34937.18474354562, -10687.173686882697, 72824.12920285812, 44185.7778055403, 6610.997809290625, 10426.261773855898, 0.036000000000000004, 0.9520000000000001, 0.14, 192.0, 0.0, 0.0, 0.0, 0.0, 0.0, 0.0, 0.0, 0.0, 0.0, 1.6665551636945877E9, 0.0, 2022-10-23 12:59:23.694
15.0, -59415.49651807506, -87344.85058127053, 36482.71846565229, -9918.38543634241, 72718.18193413997, 44832.592586587976, 7468.388374851749, 11123.077407250095, 0.036000000000000004, 0.9520000000000001, 0.14, 192.0, 0.0, 0.0, 0.0, 0.0, 0.0, 0.0, 0.0, 0.0, 0.0, 1.666555163694625E9, 0.0, 2022-10-23 12:59:23.694
16.0, -59351.212901021594, -87281.99747586221, 34357.89458249743, -11171.759506673754, 72504.32044319158, 43798.690295063294, 6007.835985164164, 9462.029869798407, 0.036000000000000004, 0.9520000000000001, 0.14, 192.0, 0.0, 0.0, 0.0, 0.0, 0.0, 0.0, 0.0, 0.0, 0.0, 1.666555163694636E9, 0.0, 2022-10-23 12:59:23.694
17.0, -59389.18851485116, -87315.79331347863, 33441.651873785486, -11584.23859885199, 72628.88671504101, 43435.72031685356, 5530.335668365439, 9146.33383111165, 0.036000000000000004, 0.9520000000000001, 0.14, 192.0, 0.0, 0.0, 0.0, 0.0, 0.0, 0.0, 0.0, 0.0, 0.0, 1.6665551636946464E9, 0.0, 2022-10-23 12:59:23.694
18.0, -59430.33807639338, -87354.30536917513, 34540.77655563075, -10896.564828940014, 72777.32464996871, 44005.42157953043, 6338.083009491326, 10125.876680121026, 0.036000000000000004, 0.9520000000000001, 0.14, 192.0, 0.0, 0.0, 0.0, 0.0, 0.0, 0.0, 0.0, 0.0, 0.0, 1.6665551636946564E9, 0.0, 2022-10-23 12:59:23.694
19.0, -59420.03392219948, -87345.72229930428, 36522.70573648283, -9859.33212749149, 72768.78628358679, 44868.2883224831, 7505.782843325477, 11212.327922860137, 0.036000000000000004, 0.9520000000000001, 0.14, 192.0, 0.0, 0.0, 0.0, 0.0, 0.0, 0.0, 0.0, 0.0, 0.0, 1.6665551636946664E9, 0.0, 2022-10-23 12:59:23.694
20.0, -59349.93885158764, -87278.10827232698, 34743.64098830712, -10966.50343734067, 72504.96864378078, 43955.018395783714, 6217.830624321774, 9684.161506195249, 0.036000000000000004, 0.9520000000000001, 0.14, 192.0, 0.0, 0.0, 0.0, 0.0, 0.0, 0.0, 0.0, 0.0, 0.0, 1.6665551636946766E9, 0.0, 2022-10-23 12:59:23.694
21.0, -59372.245892554034, -87292.5027957562, 33427.860847456555, -11607.14913691868, 72613.06167996666, 43403.31028739337, 5473.294016515496, 9063.36415569355, 0.036000000000000004, 0.9520000000000001, 0.14, 192.0, 0.0, 0.0, 0.0, 0.0, 0.0, 0.0, 0.0, 0.0, 0.0, 1.666555163694687E9, 0.0, 2022-10-23 12:59:23.694
22.0, -59399.40326206724, -87310.58535702055, 34142.60257990391, -11125.558450884635, 72741.2265826734, 43799.85258577497, 6051.287776385281, 9827.793816065052, 0.032, 0.96, 0.146, 192.0, 1.0, 0.0, 30.0, 0.0, 4.0, 144.0, 0.0, 0.0, 0.0, 1.666555163694697E9, 0.0, 2022-10-23 12:59:23.694
23.0, -59433.981410739594, -87351.17612495138, 36343.578856418, -9936.15507318438, 72788.47817045191, 44782.3682167969, 7402.249563008495, 11164.003451347764, 0.032, 0.96, 0.146, 192.0, 0.0, 0.0, 0.0, 0.0, 0.0, 0.0, 0.0, 0.0, 0.0, 1.6665551636947076E9, 0.0, 2022-10-23 12:59:23.694
24.0, -59370.74832567553, -87303.0528191391, 35154.64486535131, -10732.346562426874, 72527.5215539362, 44127.283290300766, 6470.338281433378, 9969.570931145065, 0.032, 0.96, 0.146, 192.0, 0.0, 0.0, 0.0, 0.0, 0.0, 0.0, 0.0, 0.0, 0.0, 1.6665551636947176E9, 0.0, 2022-10-23 12:59:23.694
25.0, -59385.835753182866, -87316.75443849021, 33439.95314120688, -11614.748730033485, 72594.59913904656, 43374.11890913474, 5442.2697952115295, 9012.35747484654, 0.032, 0.96, 0.146, 192.0, 0.0, 0.0, 0.0, 0.0, 0.0, 0.0, 0.0, 0.0, 0.0, 1.666555163694728E9, 0.0, 2022-10-23 12:59:23.694
26.0, -59411.42850058419, -87336.69219454435, 33811.0815061428, -11309.826232174186, 72731.23535290186, 43619.25049057609, 5814.336933414571, 9582.170496245682, 0.032, 0.96, 0.146, 192.0, 0.0, 0.0, 0.0, 0.0, 0.0, 0.0, 0.0, 0.0, 0.0, 1.666555163694738E9, 0.0, 2022-10-23 12:59:23.694
27.0, -59433.95905899514, -87358.8204215551, 36037.47171610257, -10067.493923603764, 72838.94840943199, 44648.90595065427, 7230.81168303629, 11046.545034235125, 0.032, 0.96, 0.146, 192.0, 0.0, 0.0, 0.0, 0.0, 0.0, 0.0, 0.0, 0.0, 0.0, 1.6665551636947477E9, 0.0, 2022-10-23 12:59:23.694
28.0, -59350.76586613249, -87284.81379566358, 35616.029574397755, -10439.896337973636, 72572.71678122482, 44354.332310477774, 6781.876895651448, 10329.523423853328, 0.032, 0.96, 0.146, 192.0, 0.0, 0.0, 0.0, 0.0, 0.0, 0.0, 0.0, 0.0, 0.0, 1.6665551636947577E9, 0.0, 2022-10-23 12:59:23.694
29.0, -59352.621060922276, -87287.80892942059, 33564.809985734224, -11545.793598388864, 72554.3212955381, 43427.87485454975, 5495.690464459713, 9037.302021658663, 0.032, 0.96, 0.146, 192.0, 0.0, 0.0, 0.0, 0.0, 0.0, 0.0, 0.0, 0.0, 0.0, 1.6665551636947677E9, 0.0, 2022-10-23 12:59:23.694
30.0, -59390.28375032947, -87323.39290659344, 33625.159695763556, -11404.68703564251, 72708.10129739062, 43541.68993731617, 5677.320739903538, 9416.231145409483, 0.032, 0.96, 0.146, 192.0, 0.0, 0.0, 0.0, 0.0, 0.0, 0.0, 0.0, 0.0, 0.0, 1.6665551636947777E9, 0.0, 2022-10-23 12:59:23.694
31.0, -59423.364332123325, -87356.36172966502, 35680.15672924003, -10229.722884860383, 72845.65393276858, 44521.38924853674, 7031.232956794854, 10859.215063955196, 0.032, 0.96, 0.146, 192.0, 0.0, 0.0, 0.0, 0.0, 0.0, 0.0, 0.0, 0.0, 0.0, 1.6665551636947985E9, 0.0, 2022-10-23 12:59:23.694
32.0, -59359.57245344788, -87294.33563880154, 36046.97120749608, -10163.807590461684, 72620.88479052602, 44587.95274352464, 7088.654588300537, 10674.410840798717, 0.024, 0.9520000000000001, 0.152, 192.0, 0.0, 192.0, 29.0, 192.0, 4.0, 192.0, 0.0, 0.0, 0.0, 1.6665551636948085E9, 0.0, 2022-10-23 12:59:23.694
33.0, -59332.21391823458, -87260.11511804046, 33795.70350595755, -11420.02033233885, 72538.8762401195, 43538.56069309243, 5627.2304805791955, 9131.46992104887, 0.024, 0.9520000000000001, 0.152, 192.0, 0.0, 0.0, 0.0, 0.0, 0.0, 0.0, 0.0, 0.0, 0.0, 1.6665551636948197E9, 0.0, 2022-10-23 12:59:23.694
34.0, -59369.116648330295, -87290.69230445533, 33513.512732209296, -11470.065888174282, 72679.24519529882, 43485.14002384425, 5585.767994614601, 9279.6396350431, 0.024, 0.9520000000000001, 0.152, 192.0, 0.0, 0.0, 0.0, 0.0, 0.0, 0.0, 0.0, 0.0, 0.0, 1.6665551636948295E9, 0.0, 2022-10-23 12:59:23.694
35.0, -59412.456680829135, -87330.09842993003, 35227.042165642044, -10471.524056377895, 72831.10294712818, 44312.51219660189, 6753.378421470931, 10580.265293152965, 0.024, 0.9520000000000001, 0.152, 192.0, 0.0, 0.0, 0.0, 0.0, 0.0, 0.0, 0.0, 0.0, 0.0, 1.6665551636948395E9, 0.0, 2022-10-23 12:59:23.694
36.0, -59365.98740410655, -87290.4017317774, 36328.111449254924, -9977.528152171153, 72692.34331754963, 44727.025297525564, 7306.427634528593, 10946.386867330893, 0.024, 0.9520000000000001, 0.152, 192.0, 0.0, 0.0, 0.0, 0.0, 0.0, 0.0, 0.0, 0.0, 0.0, 1.6665551636948495E9, 0.0, 2022-10-23 12:59:23.694
37.0, -59326.87185130976, -87251.24147549171, 34048.54643923598, -11298.873877391086, 72529.35439698154, 43616.83650217492, 5770.013424159697, 9268.731983748912, 0.024, 0.9520000000000001, 0.152, 192.0, 0.0, 0.0, 0.0, 0.0, 0.0, 0.0, 0.0, 0.0, 0.0, 1.6665551636948605E9, 0.0, 2022-10-23 12:59:23.694
38.0, -59364.37807850577, -87283.58444971853, 33416.103829873064, -11541.502063453445, 72675.71361967488, 43397.81175825736, 5496.718644704658, 9178.00625300482, 0.024, 0.9520000000000001, 0.152, 192.0, 0.0, 0.0, 0.0, 0.0, 0.0, 0.0, 0.0, 0.0, 0.0, 1.6665551636948717E9, 0.0, 2022-10-23 12:59:23.694
39.0, -59403.09129990236, -87321.00126993672, 34769.32314268627, -10723.361161155839, 72834.3886535631, 44072.119184985066, 6459.631795839286, 10303.908324707547, 0.024, 0.9520000000000001, 0.152, 192.0, 0.0, 0.0, 0.0, 0.0, 0.0, 0.0, 0.0, 0.0, 0.0, 1.6665551636948817E9, 0.0, 2022-10-23 12:59:23.694
40.0, -59394.39647130924, -87317.06736291258, 36493.670820435385, -9849.564415164521, 72762.41603641702, 44806.19517638626, 7448.7635432199895, 11165.232797292805, 0.024, 0.9520000000000001, 0.152, 192.0, 0.0, 0.0, 0.0, 0.0, 0.0, 0.0, 0.0, 0.0, 0.0, 1.6665551636948917E9, 0.0, 2022-10-23 12:59:23.694
41.0, -59324.65902860869, -87245.96646380026, 34450.855487687055, -11081.279645118671, 72527.49920219174, 43786.57564956852, 6020.464720781412, 9524.16771938416, 0.024, 0.9520000000000001, 0.152, 192.0, 0.0, 0.0, 0.0, 0.0, 0.0, 0.0, 0.0, 0.0, 0.0, 1.6665551636949017E9, 0.0, 2022-10-23 12:59:23.694
42.0, -59357.49374121353, -87271.13452805692, 33426.609149767064, -11549.213415290526, 72666.39294223701, 43380.10917664876, 5482.9499701201885, 9136.499063551315, 0.036000000000000004, 0.9500000000000001, 0.146, 192.0, 1.0, 32.0, 29.0, 176.0, 4.0, 144.0, 0.0, 0.0, 0.0, 1.6665551636949117E9, 0.0, 2022-10-23 12:59:23.694
43.0, -59415.541221563966, -87327.95266246232, 34402.91099583042, -10929.511300267137, 72803.00680434785, 43896.97091543328, 6226.212528492514, 10051.110094918025, 0.036000000000000004, 0.9500000000000001, 0.146, 192.0, 0.0, 0.0, 0.0, 0.0, 0.0, 0.0, 0.0, 0.0, 0.0, 1.6665551636949372E9, 0.0, 2022-10-23 12:59:23.694
44.0, -59416.725864020096, -87334.34526137654, 36499.03523910466, -9821.84825203994, 72809.22058930642, 44824.0318684616, 7492.841183285855, 11248.716562833377, 0.036000000000000004, 0.9500000000000001, 0.146, 192.0, 0.0, 0.0, 0.0, 0.0, 0.0, 0.0, 0.0, 0.0, 0.0, 1.6665551636949835E9, 0.0, 2022-10-23 12:59:23.694
45.0, -59330.6045926338, -87251.97908305873, 34902.09250475079, -10838.38323812285, 72537.71394940781, 43984.74621590927, 6312.266744645446, 9811.745263546141, 0.036000000000000004, 0.9500000000000001, 0.146, 192.0, 0.0, 0.0, 0.0, 0.0, 0.0, 0.0, 0.0, 0.0, 0.0, 1.6665551636950245E9, 0.0, 2022-10-23 12:59:23.695
46.0, -59357.65020342472, -87272.36387400197, 33442.411833096965, -11571.341642301279, 72624.0363864942, 43357.846839171274, 5464.867408855845, 9069.332071463117, 0.036000000000000004, 0.9500000000000001, 0.146, 192.0, 0.0, 0.0, 0.0, 0.0, 0.0, 0.0, 0.0, 0.0, 0.0, 1.666555163695104E9, 0.0, 2022-10-23 12:59:23.695
47.0, -59413.931895963186, -87326.11981941698, 34031.5814651944, -11161.54475945768, 72752.69302757896, 43696.87809906937, 5969.569798656678, 9765.655966479299, 0.036000000000000004, 0.9500000000000001, 0.146, 192.0, 0.0, 0.0, 0.0, 0.0, 0.0, 0.0, 0.0, 0.0, 0.0, 1.6665551636951296E9, 0.0, 2022-10-23 12:59:23.695
48.0, -59437.51298636353, -87352.67369182988, 36274.26609686209, -9936.758570284674, 72827.48196452642, 44717.592861365425, 7373.594626616791, 11176.252207309271, 0.036000000000000004, 0.9500000000000001, 0.146, 192.0, 0.0, 0.0, 0.0, 0.0, 0.0, 0.0, 0.0, 0.0, 0.0, 1.6665551636951392E9, 0.0, 2022-10-23 12:59:23.695
49.0, -59358.81249413639, -87280.11992932796, 35353.016597392154, -10586.635540322726, 72563.39610378696, 44194.673799833516, 6612.49537616913, 10141.120569839546, 0.036000000000000004, 0.9500000000000001, 0.146, 192.0, 0.0, 0.0, 0.0, 0.0, 0.0, 0.0, 0.0, 0.0, 0.0, 1.6665551636951492E9, 0.0, 2022-10-23 12:59:23.695
50.0, -59357.20316853561, -87274.82256589206, 33531.10355509562, -11542.194967531559, 72603.80805776216, 43388.960467453064, 5499.959647650677, 9070.69552787489, 0.036000000000000004, 0.9500000000000001, 0.146, 192.0, 0.0, 0.0, 0.0, 0.0, 0.0, 0.0, 0.0, 0.0, 0.0, 1.666555163695159E9, 0.0, 2022-10-23 12:59:23.695
51.0, -59393.63651199776, -87307.612575008, 33779.83376739428, -11314.028360131784, 72745.98750424237, 43573.85409758736, 5793.750976771233, 9564.870246037275, 0.048, 0.9480000000000001, 0.14200000000000002, 192.0, 1.0, 128.0, 29.0, 160.0, 4.0, 112.0, 0.0, 0.0, 0.0, 1.6665551636951687E9, 0.0, 2022-10-23 12:59:23.695
52.0, -59431.83564327189, -87347.57749409408, 35979.35718051877, -10076.881656274994, 72862.12716843214, 44609.11984552382, 7222.586241076737, 11053.004688382709, 0.048, 0.9480000000000001, 0.14200000000000002, 192.0, 0.0, 0.0, 0.0, 0.0, 0.0, 0.0, 0.0, 0.0, 0.0, 1.6665551636951792E9, 0.0, 2022-10-23 12:59:23.695
53.0, -59360.444171481635, -87285.19377531932, 35812.92609130455, -10319.107510937156, 72592.05104017866, 44418.95120369807, 6932.862929447047, 10493.160545010633, 0.048, 0.9480000000000001, 0.14200000000000002, 192.0, 0.0, 0.0, 0.0, 0.0, 0.0, 0.0, 0.0, 0.0, 0.0, 1.6665551636951892E9, 0.0, 2022-10-23 12:59:23.695
54.0, -59361.494703471035, -87282.53391772913, 33665.638704972116, -11497.782051298864, 72548.26397279072, 43425.50556963749, 5565.517314138093, 9093.22608628584, 0.048, 0.9480000000000001, 0.14200000000000002, 192.0, 0.0, 0.0, 0.0, 0.0, 0.0, 0.0, 0.0, 0.0, 0.0, 1.6665551636951993E9, 0.0, 2022-10-23 12:59:23.695
55.0, -59397.10103238834, -87314.56396753358, 33615.32492820322, -11422.680189929031, 72691.6057099826, 43483.57540173238, 5677.521905603637, 9401.47899406898, 0.048, 0.9480000000000001, 0.14200000000000002, 192.0, 0.0, 0.0, 0.0, 0.0, 0.0, 0.0, 0.0, 0.0, 0.0, 1.6665551636952093E9, 0.0, 2022-10-23 12:59:23.695
56.0, -59442.07274223241, -87357.47931688778, 35566.52046042925, -10303.528345051807, 72838.3896158206, 44418.6829827646, 6978.058156735678, 10807.068444140965, 0.048, 0.9480000000000001, 0.14200000000000002, 192.0, 0.0, 0.0, 0.0, 0.0, 0.0, 0.0, 0.0, 0.0, 0.0, 1.6665551636952188E9, 0.0, 2022-10-23 12:59:23.695
57.0, -59376.872703656285, -87299.74476095971, 36185.59672660789, -10097.646426873975, 72650.00911355128, 44600.60383088635, 7202.022636177855, 10805.168545862263, 0.048, 0.9480000000000001, 0.14200000000000002, 192.0, 0.0, 0.0, 0.0, 0.0, 0.0, 0.0, 0.0, 0.0, 0.0, 1.6665551636952286E9, 0.0, 2022-10-23 12:59:23.695
58.0, -59347.144883530724, -87269.52520245615, 33914.435972504136, -11378.87077079663, 72541.75961515422, 43537.35369889184, 5713.08353103203, 9214.618410422612, 0.048, 0.9480000000000001, 0.14200000000000002, 192.0, 0.0, 0.0, 0.0, 0.0, 0.0, 0.0, 0.0, 0.0, 0.0, 1.6665551636952384E9, 0.0, 2022-10-23 12:59:23.695
59.0, -59396.40812831022, -87312.48525529925, 33516.84314213313, -11494.831621030764, 72669.41042773849, 43433.775715085954, 5595.781576130578, 9287.306283391272, 0.048, 0.9480000000000001, 0.14200000000000002, 192.0, 0.0, 0.0, 0.0, 0.0, 0.0, 0.0, 0.0, 0.0, 0.0, 1.6665551636952496E9, 0.0, 2022-10-23 12:59:23.695
60.0, -59434.115521206324, -87349.20917143932, 35092.9316989102, -10572.620996549249, 72815.23320856491, 44198.160671968544, 6676.1754961223005, 10514.305295265352, 0.048, 0.9480000000000001, 0.14200000000000002, 192.0, 0.0, 0.0, 0.0, 0.0, 0.0, 0.0, 0.0, 0.0, 0.0, 1.6665551636952603E9, 0.0, 2022-10-23 12:59:23.695
61.0, -59380.87366591379, -87299.47654002625, 36437.83616278603, -9929.024866703137, 72710.7611549808, 44749.824076869976, 7401.288437996917, 11069.76849672419, 0.052000000000000005, 0.9540000000000001, 0.132, 192.0, 1.0, 160.0, 29.0, 208.0, 4.0, 32.0, 0.0, 0.0, 0.0, 1.6665551636952703E9, 0.0, 2022-10-23 12:59:23.695
62.0, -59322.02152276296, -87241.20554223127, 34203.06404865552, -11240.26760342927, 72509.64015837196, 43658.07547069496, 5875.200733566372, 9370.231255320461, 0.052000000000000005, 0.9540000000000001, 0.132, 192.0, 0.0, 0.0, 0.0, 0.0, 0.0, 0.0, 0.0, 0.0, 0.0, 1.6665551636952908E9, 0.0, 2022-10-23 12:59:23.695
63.0, -59365.1603895617, -87278.04121709362, 33406.9843181353, -11576.996633648472, 72659.46390145588, 43356.97512113752, 5486.8838771443225, 9167.277415666273, 0.052000000000000005, 0.9540000000000001, 0.132, 192.0, 0.0, 0.0, 0.0, 0.0, 0.0, 0.0, 0.0, 0.0, 0.0, 1.6665551636953008E9, 0.0, 2022-10-23 12:59:23.695
64.0, -59422.604372811846, -87335.73106953276, 34634.11744047611, -10818.870165213368, 72816.2390370654, 43993.21752705783, 6383.188829802136, 10239.803521609727, 0.052000000000000005, 0.9540000000000001, 0.132, 192.0, 0.0, 0.0, 0.0, 0.0, 0.0, 0.0, 0.0, 0.0, 0.0, 1.6665551636953108E9, 0.0, 2022-10-23 12:59:23.695
65.0, -59407.09226215986, -87325.60572929452, 36504.39965777393, -9853.699487888753, 72771.15556849905, 44810.46435957722, 7483.609912825813, 11233.942059748419, 0.052000000000000005, 0.9540000000000001, 0.132, 192.0, 0.0, 0.0, 0.0, 0.0, 0.0, 0.0, 0.0, 0.0, 0.0, 1.6665551636953208E9, 0.0, 2022-10-23 12:59:23.695
66.0, -59329.41995017767, -87250.19094350231, 34585.502396285825, -11023.99212407972, 72526.33691148006, 43843.12556304045, 6121.44990223049, 9640.553252762944, 0.052000000000000005, 0.9540000000000001, 0.132, 192.0, 0.0, 0.0, 0.0, 0.0, 0.0, 0.0, 0.0, 0.0, 0.0, 1.6665551636953304E9, 0.0, 2022-10-23 12:59:23.695
67.0, -59356.107933057305, -87271.8497838795, 33416.819085695635, -11572.90626441315, 72643.46005242587, 43371.74962422247, 5485.967455621655, 9137.996630429821, 0.052000000000000005, 0.9540000000000001, 0.132, 192.0, 0.0, 0.0, 0.0, 0.0, 0.0, 0.0, 0.0, 0.0, 0.0, 1.6665551636953404E9, 0.0, 2022-10-23 12:59:23.695
68.0, -59404.3206458474, -87315.79331347863, 34244.99592125368, -11031.65877242789, 72782.24203374887, 43821.17614998533, 6139.778332683842, 9970.286186967634, 0.052000000000000005, 0.9540000000000001, 0.132, 192.0, 0.0, 0.0, 0.0, 0.0, 0.0, 0.0, 0.0, 0.0, 0.0, 1.6665551636953504E9, 0.0, 2022-10-23 12:59:23.695
69.0, -59414.46833783011, -87326.07511592808, 36418.88188348793, -9860.673232158808, 72819.97177838943, 44802.23891761767, 7478.156087178718, 11264.27337697427, 0.052000000000000005, 0.9540000000000001, 0.132, 192.0, 0.0, 0.0, 0.0, 0.0, 0.0, 0.0, 0.0, 0.0, 0.0, 1.6665551636953604E9, 0.0, 2022-10-23 12:59:23.695
70.0, -59327.095368754315, -87244.06656552156, 35036.51589590501, -10757.246405750086, 72545.58176345608, 44070.152231473, 6431.245080381046, 9946.146302955902, 0.052000000000000005, 0.9540000000000001, 0.132, 192.0, 0.0, 0.0, 0.0, 0.0, 0.0, 0.0, 0.0, 0.0, 0.0, 1.6665551636953704E9, 0.0, 2022-10-23 12:59:23.695
71.0, -59344.55208117391, -87258.72930988423, 33418.85309444107, -11592.173468133626, 72612.99462473328, 43356.14810659267, 5464.800353622479, 9067.610987140059, 0.048, 0.9500000000000001, 0.134, 192.0, 1.0, 128.0, 29.0, 176.0, 4.0, 48.0, 0.0, 0.0, 0.0, 1.6665551636953804E9, 0.0, 2022-10-23 12:59:23.695
72.0, -59388.9202939177, -87304.79625520662, 33900.91316710868, -11231.84099576962, 72760.65024860504, 43658.03076720605, 5912.818719484654, 9713.01760828705, 0.048, 0.9500000000000001, 0.134, 192.0, 0.0, 0.0, 0.0, 0.0, 0.0, 0.0, 0.0, 0.0, 0.0, 1.6665551636953914E9, 0.0, 2022-10-23 12:59:23.695
73.0, -59408.120442404805, -87324.108162416, 36168.229421166114, -9974.376556202955, 72859.33320037523, 44713.34602991892, 7359.870655521233, 11182.465992267847, 0.048, 0.9500000000000001, 0.134, 192.0, 0.0, 0.0, 0.0, 0.0, 0.0, 0.0, 0.0, 0.0, 0.0, 1.6665551636954012E9, 0.0, 2022-10-23 12:59:23.695
74.0, -59325.03900826443, -87244.35713819947, 35470.0726831046, -10511.354864997253, 72597.52721757021, 44276.99527466241, 6729.976145026225, 10284.37290005361, 0.048, 0.9500000000000001, 0.134, 192.0, 0.0, 0.0, 0.0, 0.0, 0.0, 0.0, 0.0, 0.0, 0.0, 1.6665551636954124E9, 0.0, 2022-10-23 12:59:23.695
75.0, -59337.19835724811, -87252.42611794783, 33533.89752315253, -11538.059894807328, 72613.24049392229, 43417.30247942239, 5536.661212046291, 9110.034598116232, 0.048, 0.9500000000000001, 0.134, 192.0, 0.0, 0.0, 0.0, 0.0, 0.0, 0.0, 0.0, 0.0, 0.0, 1.666555163695422E9, 0.0, 2022-10-23 12:59:23.695
76.0, -59380.89601765824, -87294.55915624609, 33686.895213949116, -11352.652174550554, 72744.80286178623, 43570.322521963426, 5779.602322531024, 9545.93831848363, 0.048, 0.9500000000000001, 0.134, 192.0, 0.0, 0.0, 0.0, 0.0, 0.0, 0.0, 0.0, 0.0, 0.0, 1.666555163695432E9, 0.0, 2022-10-23 12:59:23.695
0.0, 0.0, 0.0, 0.0, 0.0, 0.0, 0.0, 0.0, 0.0, 0.05, 0.9460000000000001, 0.13, 192.0, 1.0, 144.0, 29.0, 144.0, 4.0, 16.0, 0.0, 0.0, 0.0, 1.6665551638137362E9, 0.0, 2022-10-23 12:59:23.813
1.0, -59544.30962137099, -87523.75394389081, 34583.9154224295, -11259.221882727372, 72890.8044565683, 44069.83930705063, 6225.787845347863, 9291.687225304511, 0.05, 0.9460000000000001, 0.13, 192.0, 0.0, 0.0, 0.0, 0.0, 0.0, 0.0, 0.0, 0.0, 0.0, 1.6665551642926507E9, 0.0, 2022-10-23 12:59:24.292
2.0, -59584.96744453519, -87560.20963909742, 33966.47083359609, -11479.520676078877, 73042.72926363102, 43880.36356930299, 5978.957531327907, 9216.026570323298, 0.05, 0.9460000000000001, 0.13, 192.0, 0.0, 0.0, 0.0, 0.0, 0.0, 0.0, 0.0, 0.0, 0.0, 1.666555164292698E9, 0.0, 2022-10-23 12:59:24.292
3.0, -59630.632058457384, -87599.5263575943, 35282.563898869026, -10690.280579361985, 73188.59674794636, 44532.43101029766, 6915.719141449827, 10315.62063880213, 0.05, 0.9460000000000001, 0.13, 192.0, 0.0, 0.0, 0.0, 0.0, 0.0, 0.0, 0.0, 0.0, 0.0, 1.6665551642927372E9, 0.0, 2022-10-23 12:59:24.292
4.0, -59626.36287526642, -87592.53026157978, 36977.69784661506, -9842.680077872286, 73117.89818023422, 45245.831638077696, 7882.029757741661, 11168.02676534972, 0.05, 0.9460000000000001, 0.13, 192.0, 0.0, 0.0, 0.0, 0.0, 0.0, 0.0, 0.0, 0.0, 0.0, 1.6665551642927604E9, 0.0, 2022-10-23 12:59:24.292
5.0, -59570.19294145024, -87537.18734230845, 34940.0457668359, -11061.073668131074, 72876.52169186136, 44232.38119272962, 6455.8767027707945, 9529.576841542344, 0.05, 0.9460000000000001, 0.13, 192.0, 0.0, 0.0, 0.0, 0.0, 0.0, 0.0, 0.0, 0.0, 0.0, 1.6665551642927864E9, 0.0, 2022-10-23 12:59:24.292
6.0, -59599.876058086884, -87557.95211290743, 33902.74601015401, -11520.223202731991, 73011.0344899934, 43827.70285936628, 5907.856632215576, 9128.407732058493, 0.05, 0.9460000000000001, 0.13, 192.0, 0.0, 0.0, 0.0, 0.0, 0.0, 0.0, 0.0, 0.0, 0.0, 1.6665551642928138E9, 0.0, 2022-10-23 12:59:24.292
7.0, -59635.59414572646, -87593.13375868008, 34869.30249563485, -10888.808773614022, 73169.46365469262, 44345.25750222892, 6646.760600419117, 10047.51146406072, 0.054, 0.9460000000000001, 0.14, 192.0, 1.0, 176.0, 29.0, 144.0, 4.0, 96.0, 0.0, 0.0, 0.0, 1.666555164292836E9, 0.0, 2022-10-23 12:59:24.292
8.0, -59640.24330857317, -87601.33684889518, 36991.04183805488, -9760.805637932497, 73183.70171591065, 45297.911202658564, 7941.485397992778, 11282.691214405444, 0.054, 0.9460000000000001, 0.14, 192.0, 0.0, 0.0, 0.0, 0.0, 0.0, 0.0, 0.0, 0.0, 0.0, 1.666555164292863E9, 0.0, 2022-10-23 12:59:24.292
9.0, -59546.85772023889, -87507.1018942716, 35397.630679324946, -10776.982996104121, 72902.38266019615, 44457.038576249906, 6760.396869229898, 9843.99883079515, 0.054, 0.9460000000000001, 0.14, 192.0, 0.0, 0.0, 0.0, 0.0, 0.0, 0.0, 0.0, 0.0, 0.0, 1.6665551642928853E9, 0.0, 2022-10-23 12:59:24.292
10.0, -59584.54276139054, -87540.78597316575, 33928.47286802207, -11512.154222983627, 72998.0257747204, 43829.602757644985, 5911.365856095059, 9099.529278222237, 0.054, 0.9460000000000001, 0.14, 192.0, 0.0, 0.0, 0.0, 0.0, 0.0, 0.0, 0.0, 0.0, 0.0, 1.6665551642929077E9, 0.0, 2022-10-23 12:59:24.292
11.0, -59640.13154985089, -87595.90537499254, 34521.08466876563, -11099.630427316479, 73115.86417148879, 44176.32301763571, 6423.198452377135, 9799.921190729285, 0.054, 0.9460000000000001, 0.14, 192.0, 0.0, 0.0, 0.0, 0.0, 0.0, 0.0, 0.0, 0.0, 0.0, 1.6665551642929296E9, 0.0, 2022-10-23 12:59:24.292
12.0, -59661.99155592818, -87620.11231423763, 36743.719785656904, -9897.128927365415, 73186.11570431181, 45179.268143089794, 7810.303009784581, 11199.185097120417, 0.054, 0.9460000000000001, 0.14, 192.0, 0.0, 0.0, 0.0, 0.0, 0.0, 0.0, 0.0, 0.0, 0.0, 1.6665551642929516E9, 0.0, 2022-10-23 12:59:24.292
13.0, -59567.711897815694, -87530.8617986276, 35845.42552774257, -10528.431597761108, 72939.68772169205, 44668.97781717513, 7067.68865200146, 10187.433384350943, 0.054, 0.9460000000000001, 0.14, 192.0, 0.0, 0.0, 0.0, 0.0, 0.0, 0.0, 0.0, 0.0, 0.0, 1.6665551642929738E9, 0.0, 2022-10-23 12:59:24.292
14.0, -59571.35523216191, -87530.48181897185, 34001.38425843528, -11491.255341917915, 72985.3299838698, 43849.27229276566, 5943.105333221595, 9104.75958642478, 0.054, 0.9460000000000001, 0.14, 192.0, 0.0, 0.0, 0.0, 0.0, 0.0, 0.0, 0.0, 0.0, 0.0, 1.666555164292996E9, 0.0, 2022-10-23 12:59:24.292
15.0, -59615.052892572035, -87579.94622945145, 34237.9327700058, -11269.347222965625, 73107.97400569606, 44024.2417483618, 6228.604165149232, 9588.160763759704, 0.054, 0.9460000000000001, 0.14, 192.0, 0.0, 0.0, 0.0, 0.0, 0.0, 0.0, 0.0, 0.0, 0.0, 1.6665551642930176E9, 0.0, 2022-10-23 12:59:24.293
16.0, -59663.42206757332, -87629.00830853084, 36421.228816655734, -10047.757333249729, 73216.82700119341, 45043.369536801525, 7641.256766469093, 11063.755877465712, 0.054, 0.9460000000000001, 0.14, 192.0, 0.0, 0.0, 0.0, 0.0, 0.0, 0.0, 0.0, 0.0, 0.0, 1.666555164293124E9, 0.0, 2022-10-23 12:59:24.293
17.0, -59591.60591263842, -87556.23102858437, 36268.65580900381, -10278.27087381731, 72957.81498644532, 44861.26987472414, 7361.435277633104, 10522.50838548045, 0.066, 0.9460000000000001, 0.13, 192.0, 2.0, 16.0, 29.0, 144.0, 4.0, 16.0, 0.0, 0.0, 0.0, 1.6665551642931461E9, 0.0, 2022-10-23 12:59:24.293
18.0, -59575.199732208224, -87534.77335390728, 34121.88251279384, -11447.512978018878, 72931.08230007677, 43875.89322041193, 5997.800051903731, 9128.608897758591, 0.066, 0.9460000000000001, 0.13, 192.0, 0.0, 0.0, 0.0, 0.0, 0.0, 0.0, 0.0, 0.0, 0.0, 1.66655516429317E9, 0.0, 2022-10-23 12:59:24.293
19.0, -59624.44062524327, -87584.01424694232, 34054.0896718609, -11380.077764997217, 73075.0498861134, 43926.005831480725, 6100.193393253493, 9428.39049439317, 0.066, 0.9460000000000001, 0.13, 192.0, 0.0, 0.0, 0.0, 0.0, 0.0, 0.0, 0.0, 0.0, 0.0, 1.666555164293192E9, 0.0, 2022-10-23 12:59:24.293
20.0, -59669.70290776526, -87625.67789860701, 35955.59727616278, -10302.813089229237, 73195.39167826077, 44818.5780428145, 7359.110696209753, 10798.70889171468, 0.066, 0.9460000000000001, 0.13, 192.0, 0.0, 0.0, 0.0, 0.0, 0.0, 0.0, 0.0, 0.0, 0.0, 1.666555164293214E9, 0.0, 2022-10-23 12:59:24.293
21.0, -59595.673930129284, -87557.92976116297, 36600.78037986522, -10070.533760849687, 73030.05582452487, 45025.823417404106, 7611.059559709974, 10835.43280785475, 0.066, 0.9460000000000001, 0.13, 192.0, 0.0, 0.0, 0.0, 0.0, 0.0, 0.0, 0.0, 0.0, 0.0, 1.6665551642932363E9, 0.0, 2022-10-23 12:59:24.293
22.0, -59556.3572116324, -87520.04355431123, 34316.87913142194, -11353.166264673027, 72916.6654249031, 43954.72782310579, 6113.135053293116, 9235.517291488326, 0.066, 0.9460000000000001, 0.13, 192.0, 0.0, 0.0, 0.0, 0.0, 0.0, 0.0, 0.0, 0.0, 0.0, 1.6665551642932577E9, 0.0, 2022-10-23 12:59:24.293
23.0, -59611.007226825626, -87570.20086886894, 33903.70713516559, -11474.759754509898, 73056.81086263787, 43844.354908985486, 5990.6921971669435, 9302.281952176327, 0.066, 0.9460000000000001, 0.13, 192.0, 0.0, 0.0, 0.0, 0.0, 0.0, 0.0, 0.0, 0.0, 0.0, 1.6665551642932796E9, 0.0, 2022-10-23 12:59:24.293
24.0, -59660.80691347205, -87619.64292760407, 35500.06872416362, -10533.326629796818, 73196.06223059443, 44634.22085454713, 7098.556411094238, 10549.75516197147, 0.066, 0.9460000000000001, 0.13, 192.0, 0.0, 0.0, 0.0, 0.0, 0.0, 0.0, 0.0, 0.0, 0.0, 1.666555164293301E9, 0.0, 2022-10-23 12:59:24.293
25.0, -59627.03342760008, -87592.37379936861, 36817.637004570606, -9921.20175614378, 73062.80113015189, 45153.13895382154, 7793.7403671431985, 11076.742240994245, 0.066, 0.9460000000000001, 0.13, 192.0, 0.0, 0.0, 0.0, 0.0, 0.0, 0.0, 0.0, 0.0, 0.0, 1.6665551642933252E9, 0.0, 2022-10-23 12:59:24.293
26.0, -59563.84504602493, -87536.94147311944, 34612.43624835447, -11198.82746920913, 72893.37490718067, 44090.02293229377, 6299.928581706117, 9408.43038659458, 0.066, 0.9460000000000001, 0.13, 192.0, 0.0, 0.0, 0.0, 0.0, 0.0, 0.0, 0.0, 0.0, 0.0, 1.6665551642933474E9, 0.0, 2022-10-23 12:59:24.293
27.0, -59582.21817996719, -87557.6168367406, 33879.5001959205, -11477.799591755818, 73050.12769104572, 43852.24507477821, 5977.012929560296, 9248.794227694778, 0.056, 0.9500000000000001, 0.14, 192.0, 1.0, 192.0, 29.0, 176.0, 4.0, 96.0, 0.0, 0.0, 0.0, 1.6665551642933693E9, 0.0, 2022-10-23 12:59:24.293
28.0, -59637.15876783834, -87602.4767878624, 35073.15040506726, -10752.686649881203, 73177.57733792989, 44453.88698028171, 6837.2421666672435, 10273.107620848134, 0.056, 0.9500000000000001, 0.14, 192.0, 0.0, 0.0, 0.0, 0.0, 0.0, 0.0, 0.0, 0.0, 0.0, 1.666555164293393E9, 0.0, 2022-10-23 12:59:24.293
29.0, -59638.410465527835, -87602.38738088458, 36915.38118307367, -9815.790929292552, 73134.30436066442, 45236.041574006274, 7905.409682441913, 11239.41823713997, 0.056, 0.9500000000000001, 0.14, 192.0, 0.0, 0.0, 0.0, 0.0, 0.0, 0.0, 0.0, 0.0, 0.0, 1.6665551642934144E9, 0.0, 2022-10-23 12:59:24.293
30.0, -59562.63805182434, -87537.38850800855, 35020.892026530746, -10962.189550660796, 72894.67130835907, 44288.59583003472, 6564.3497186124, 9665.989537953084, 0.056, 0.9500000000000001, 0.14, 192.0, 0.0, 0.0, 0.0, 0.0, 0.0, 0.0, 0.0, 0.0, 0.0, 1.666555164293436E9, 0.0, 2022-10-23 12:59:24.293
31.0, -59591.5165056606, -87557.6168367406, 33841.390471624196, -11516.08813000776, 73015.19191446209, 43810.156739968865, 5918.049027687196, 9154.00047945982, 0.056, 0.9500000000000001, 0.14, 192.0, 0.0, 0.0, 0.0, 0.0, 0.0, 0.0, 0.0, 0.0, 0.0, 1.666555164293458E9, 0.0, 2022-10-23 12:59:24.293
32.0, -59645.4289132868, -87600.24161341687, 34685.68291493451, -10960.490818082193, 73161.52878541098, 44274.089547883224, 6585.226247933656, 10003.098547828025, 0.056, 0.9500000000000001, 0.14, 192.0, 0.0, 0.0, 0.0, 0.0, 0.0, 0.0, 0.0, 0.0, 0.0, 1.6665551642935023E9, 0.0, 2022-10-23 12:59:24.293
33.0, -59656.783599470094, -87617.184235714, 36862.13932778112, -9795.048510438028, 73187.1215328123, 45251.3301672137, 7921.368827983002, 11298.33743552416, 0.056, 0.9500000000000001, 0.14, 192.0, 0.0, 0.0, 0.0, 0.0, 0.0, 0.0, 0.0, 0.0, 0.0, 1.6665551642935247E9, 0.0, 2022-10-23 12:59:24.293
34.0, -59570.863493783894, -87538.95313012041, 35472.35256103904, -10696.248495131553, 72907.88118933215, 44508.8052164084, 6865.40536468093, 9969.63798637843, 0.056, 0.9500000000000001, 0.14, 192.0, 0.0, 0.0, 0.0, 0.0, 0.0, 0.0, 0.0, 0.0, 0.0, 1.6665551642935474E9, 0.0, 2022-10-23 12:59:24.293
35.0, -59597.149145263335, -87563.98708391037, 33868.65959985967, -11510.32137993829, 72983.4300855911, 43812.99541151469, 5915.567984052656, 9098.56815321066, 0.056, 0.9500000000000001, 0.14, 192.0, 0.0, 0.0, 0.0, 0.0, 0.0, 0.0, 0.0, 0.0, 0.0, 1.66655516429357E9, 0.0, 2022-10-23 12:59:24.293
36.0, -59638.63398297239, -87602.38738088458, 34344.88586722444, -11155.330974499104, 73123.01672971448, 44109.9606883479, 6357.104344022792, 9732.821253874452, 0.052000000000000005, 0.9540000000000001, 0.14, 192.0, 1.0, 160.0, 29.0, 208.0, 4.0, 96.0, 0.0, 0.0, 0.0, 1.6665551642935922E9, 0.0, 2022-10-23 12:59:24.293
37.0, -59652.20149185676, -87616.84895954716, 36588.889251814995, -9919.480671820722, 73221.81144020695, 45143.5053519613, 7780.619893147933, 11184.991739391297, 0.052000000000000005, 0.9540000000000001, 0.14, 192.0, 0.0, 0.0, 0.0, 0.0, 0.0, 0.0, 0.0, 0.0, 0.0, 1.666555164293616E9, 0.0, 2022-10-23 12:59:24.293
38.0, -59581.6146828669, -87551.62656922657, 35905.41760986061, -10442.198567652533, 72944.40393977212, 44719.58216662195, 7163.532932225816, 10295.437013558987, 0.052000000000000005, 0.9540000000000001, 0.14, 192.0, 0.0, 0.0, 0.0, 0.0, 0.0, 0.0, 0.0, 0.0, 0.0, 1.6665551642936385E9, 0.0, 2022-10-23 12:59:24.293
39.0, -59580.11711598839, -87548.5196767473, 33934.776059958465, -11491.009472728905, 72953.36698929871, 43827.94872855529, 5939.596109342112, 9089.672158917447, 0.052000000000000005, 0.9540000000000001, 0.14, 192.0, 0.0, 0.0, 0.0, 0.0, 0.0, 0.0, 0.0, 0.0, 0.0, 1.666555164293661E9, 0.0, 2022-10-23 12:59:24.293
40.0, -59628.79921541205, -87599.10167444964, 34086.0973699209, -11305.355883283126, 73098.4521625581, 43980.58879144058, 6181.576094815266, 9530.247393876005, 0.052000000000000005, 0.9540000000000001, 0.14, 192.0, 0.0, 0.0, 0.0, 0.0, 0.0, 0.0, 0.0, 0.0, 0.0, 1.666555164293684E9, 0.0, 2022-10-23 12:59:24.293
41.0, -59667.42302983082, -87636.02675628982, 36203.768694850056, -10112.733854381306, 73223.04078615198, 44982.50573664972, 7567.496009766581, 10995.56070513257, 0.052000000000000005, 0.9540000000000001, 0.14, 192.0, 0.0, 0.0, 0.0, 0.0, 0.0, 0.0, 0.0, 0.0, 0.0, 1.6665551642937062E9, 0.0, 2022-10-23 12:59:24.293
42.0, -59600.27838948708, -87565.68581648897, 36325.63040562039, -10185.868762239072, 72994.42714386311, 44939.344518106525, 7470.020052196986, 10645.420628240185, 0.052000000000000005, 0.9540000000000001, 0.14, 192.0, 0.0, 0.0, 0.0, 0.0, 0.0, 0.0, 0.0, 0.0, 0.0, 1.6665551642937207E9, 0.0, 2022-10-23 12:59:24.293
43.0, -59606.40276746784, -87565.10467113313, 34131.918446054275, -11389.644311624088, 72924.86851511819, 43932.33137516158, 6062.754221290854, 9171.792468046246, 0.052000000000000005, 0.9540000000000001, 0.14, 192.0, 0.0, 0.0, 0.0, 0.0, 0.0, 0.0, 0.0, 0.0, 0.0, 1.6665551642937305E9, 0.0, 2022-10-23 12:59:24.293
44.0, -59641.51735800712, -87604.8237210302, 33946.35426358632, -11391.007768035863, 73051.37938873522, 43919.68028779987, 6079.048642998772, 9378.479049024469, 0.052000000000000005, 0.9540000000000001, 0.14, 192.0, 0.0, 0.0, 0.0, 0.0, 0.0, 0.0, 0.0, 0.0, 0.0, 1.6665551642937396E9, 0.0, 2022-10-23 12:59:24.293
45.0, -59684.85739050596, -87636.65260513457, 35770.07779718373, -10339.157025713566, 73205.89699815477, 44796.025132659095, 7305.645323472658, 10731.094864737375, 0.052000000000000005, 0.9540000000000001, 0.14, 192.0, 0.0, 0.0, 0.0, 0.0, 0.0, 0.0, 0.0, 0.0, 0.0, 1.666555164293749E9, 0.0, 2022-10-23 12:59:24.293
46.0, -59633.80600617004, -87584.75185450935, 36620.33815626361, -10000.483393726754, 73042.3939874642, 45083.60267682108, 7684.015653612096, 10911.473442491704, 0.044, 0.9500000000000001, 0.134, 192.0, 1.0, 96.0, 29.0, 176.0, 4.0, 48.0, 0.0, 0.0, 0.0, 1.6665551642937593E9, 0.0, 2022-10-23 12:59:24.293
47.0, -59589.884828315364, -87542.08237434416, 34339.61085553299, -11295.118784322594, 72916.39720396962, 44004.41575102994, 6174.98233020095, 9276.733908263912, 0.044, 0.9500000000000001, 0.134, 192.0, 0.0, 0.0, 0.0, 0.0, 0.0, 0.0, 0.0, 0.0, 0.0, 1.6665551642937694E9, 0.0, 2022-10-23 12:59:24.293
48.0, -59632.48725324718, -87587.74698826636, 33797.06696236932, -11495.256304175415, 73043.01983630894, 43824.350097697985, 5959.5785688851565, 9251.074105629219, 0.044, 0.9500000000000001, 0.134, 192.0, 0.0, 0.0, 0.0, 0.0, 0.0, 0.0, 0.0, 0.0, 0.0, 1.6665551642937875E9, 0.0, 2022-10-23 12:59:24.293
49.0, -59673.79327700059, -87621.65458460506, 35275.277230176594, -10613.703502858103, 73202.276015553, 44562.20353391213, 6998.644113379016, 10446.82537875478, 0.044, 0.9500000000000001, 0.134, 192.0, 0.0, 0.0, 0.0, 0.0, 0.0, 0.0, 0.0, 0.0, 0.0, 1.6665551642937965E9, 0.0, 2022-10-23 12:59:24.293
50.0, -59645.29480282007, -87596.08418894818, 36830.15398146558, -9844.915252317816, 73119.8651337463, 45219.09895170915, 7874.2737024156695, 11173.145314829984, 0.044, 0.9500000000000001, 0.134, 192.0, 0.0, 0.0, 0.0, 0.0, 0.0, 0.0, 0.0, 0.0, 0.0, 1.666555164293806E9, 0.0, 2022-10-23 12:59:24.293
51.0, -59579.55832237701, -87538.34963302013, 34695.115351094646, -11105.777157041688, 72895.2524537149, 44175.160726924034, 6407.462824280599, 9502.799451684887, 0.044, 0.9500000000000001, 0.134, 192.0, 0.0, 0.0, 0.0, 0.0, 0.0, 0.0, 0.0, 0.0, 0.0, 1.6665551642938156E9, 0.0, 2022-10-23 12:59:24.293
52.0, -59613.108290804426, -87574.04536891525, 33739.53357214136, -11544.09486581026, 73018.1870482191, 43786.01685595714, 5908.437777571414, 9164.796372031733, 0.044, 0.9500000000000001, 0.134, 192.0, 0.0, 0.0, 0.0, 0.0, 0.0, 0.0, 0.0, 0.0, 0.0, 1.666555164293825E9, 0.0, 2022-10-23 12:59:24.293
53.0, -59661.38805882789, -87618.6370991036, 34832.60093123924, -10858.410401154804, 73186.6744979232, 44360.1214122917, 6728.053895003069, 10159.560759015174, 0.044, 0.9500000000000001, 0.134, 192.0, 0.0, 0.0, 0.0, 0.0, 0.0, 0.0, 0.0, 0.0, 0.0, 1.6665551642938342E9, 0.0, 2022-10-23 12:59:24.293
54.0, -59664.539654796085, -87622.39219217208, 36846.60486538468, -9803.18454541976, 73175.81155011793, 45251.844257336175, 7933.572880455599, 11282.154772538517, 0.044, 0.9500000000000001, 0.134, 192.0, 0.0, 0.0, 0.0, 0.0, 0.0, 0.0, 0.0, 0.0, 0.0, 1.6665551642938435E9, 0.0, 2022-10-23 12:59:24.293
55.0, -59581.34646193343, -87543.44583075594, 35093.71400996614, -10887.467668946705, 72913.37971846816, 44357.23803725696, 6667.8382954404715, 9768.762858958586, 0.044, 0.9500000000000001, 0.134, 192.0, 0.0, 0.0, 0.0, 0.0, 0.0, 0.0, 0.0, 0.0, 0.0, 1.6665551642938528E9, 0.0, 2022-10-23 12:59:24.293
56.0, -59613.46591871571, -87573.12894739259, 33775.56458420331, -11526.794615601852, 73017.18121971861, 43809.128559723926, 5926.632097558034, 9140.835301975645, 0.048, 0.9520000000000001, 0.138, 192.0, 1.0, 128.0, 29.0, 192.0, 4.0, 80.0, 0.0, 0.0, 0.0, 1.666555164293863E9, 0.0, 2022-10-23 12:59:24.293
57.0, -59659.68932624928, -87622.10161949416, 34466.25583961676, -11067.823894956577, 73146.70957883711, 44190.38226489809, 6491.438328199188, 9891.518639507132, 0.048, 0.9520000000000001, 0.138, 192.0, 0.0, 0.0, 0.0, 0.0, 0.0, 0.0, 0.0, 0.0, 0.0, 1.6665551642938733E9, 0.0, 2022-10-23 12:59:24.293
58.0, -59669.658204276355, -87638.932483069, 36664.460499818386, -9887.785898183096, 73201.40429751924, 45175.84832618813, 7850.022059681662, 11241.385190652036, 0.048, 0.9520000000000001, 0.138, 192.0, 0.0, 0.0, 0.0, 0.0, 0.0, 0.0, 0.0, 0.0, 0.0, 1.666555164293883E9, 0.0, 2022-10-23 12:59:24.293
59.0, -59572.29400542904, -87544.33990053415, 35517.50308483876, -10647.275823029975, 72947.60023922924, 44556.54854256494, 6954.588825057605, 10077.239284186278, 0.048, 0.9520000000000001, 0.138, 192.0, 0.0, 0.0, 0.0, 0.0, 0.0, 0.0, 0.0, 0.0, 0.0, 1.6665551642938924E9, 0.0, 2022-10-23 12:59:24.293
60.0, -59569.45533388321, -87546.55272323522, 33803.12428511671, -11526.057008034828, 73010.52039987092, 43807.47453063423, 5926.430931857936, 9110.928667894445, 0.048, 0.9520000000000001, 0.138, 192.0, 0.0, 0.0, 0.0, 0.0, 0.0, 0.0, 0.0, 0.0, 0.0, 1.6665551642939017E9, 0.0, 2022-10-23 12:59:24.293
61.0, -59623.61361069842, -87599.39224712757, 34144.25660899361, -11252.136379735039, 73129.16345943969, 44029.829684475626, 6275.72164246102, 9657.652337271255, 0.048, 0.9520000000000001, 0.138, 192.0, 0.0, 0.0, 0.0, 0.0, 0.0, 0.0, 0.0, 0.0, 0.0, 1.666555164293911E9, 0.0, 2022-10-23 12:59:24.293
62.0, -59679.492971836684, -87639.9383115695, 36369.6856939418, -10021.561088748109, 73229.70160599967, 45058.97105443133, 7700.354778808925, 11131.280497465194, 0.048, 0.9520000000000001, 0.138, 192.0, 0.0, 0.0, 0.0, 0.0, 0.0, 0.0, 0.0, 0.0, 0.0, 1.6665551642939205E9, 0.0, 2022-10-23 12:59:24.293
63.0, -59607.296837246045, -87566.0657961447, 35940.10751725525, -10407.463956768985, 72960.76541671342, 44747.499495446624, 7243.2616046978965, 10406.167555590577, 0.048, 0.9520000000000001, 0.138, 192.0, 0.0, 0.0, 0.0, 0.0, 0.0, 0.0, 0.0, 0.0, 0.0, 1.666555164293942E9, 0.0, 2022-10-23 12:59:24.293
64.0, -59604.59227616695, -87553.72763320537, 33901.56136769788, -11497.312664665302, 72960.54189926886, 43830.56388265656, 5971.46969693538, 9125.770226212768, 0.048, 0.9520000000000001, 0.138, 192.0, 0.0, 0.0, 0.0, 0.0, 0.0, 0.0, 0.0, 0.0, 0.0, 1.6665551642939515E9, 0.0, 2022-10-23 12:59:24.293
65.0, -59653.54259652407, -87602.49913960685, 33937.078289637364, -11378.021404507328, 73097.35692707979, 43921.64724131194, 6134.9727076259505, 9484.314559020348, 0.048, 0.9520000000000001, 0.138, 192.0, 0.0, 0.0, 0.0, 0.0, 0.0, 0.0, 0.0, 0.0, 0.0, 1.6665551642939606E9, 0.0, 2022-10-23 12:59:24.293
66.0, -59698.62606509043, -87651.0918320527, 35977.12200607324, -10219.195213221934, 73239.55872530445, 44889.7459971602, 7481.285331402461, 10924.593916486969, 0.052000000000000005, 0.9500000000000001, 0.136, 192.0, 1.0, 160.0, 29.0, 176.0, 4.0, 64.0, 0.0, 0.0, 0.0, 1.66655516429397E9, 0.0, 2022-10-23 12:59:24.293
67.0, -59629.55917472353, -87590.54095632327, 36361.05792058205, -10143.758075685273, 73021.1374784872, 44968.5135446207, 7554.7331636826, 10755.860597593857, 0.052000000000000005, 0.9500000000000001, 0.136, 192.0, 0.0, 0.0, 0.0, 0.0, 0.0, 0.0, 0.0, 0.0, 0.0, 1.666555164293982E9, 0.0, 2022-10-23 12:59:24.293
68.0, -59592.23176148317, -87558.39914779653, 34083.549271052994, -11419.193317794005, 72928.35538725322, 43895.00396192121, 6070.219703938926, 9190.903209555532, 0.052000000000000005, 0.9500000000000001, 0.136, 192.0, 0.0, 0.0, 0.0, 0.0, 0.0, 0.0, 0.0, 0.0, 0.0, 1.6665551642939916E9, 0.0, 2022-10-23 12:59:24.293
69.0, -59630.81087241303, -87596.50887209283, 33789.847348910254, -11476.637301044144, 73071.78653142293, 43834.2966239806, 6021.582308004178, 9338.089446793729, 0.052000000000000005, 0.9500000000000001, 0.136, 192.0, 0.0, 0.0, 0.0, 0.0, 0.0, 0.0, 0.0, 0.0, 0.0, 1.6665551642940009E9, 0.0, 2022-10-23 12:59:24.294
70.0, -59679.7388410257, -87637.61373014614, 35499.778151485705, -10483.236370472476, 73212.89309416928, 44656.23732283561, 7183.403633046584, 10634.982363579556, 0.052000000000000005, 0.9500000000000001, 0.136, 192.0, 0.0, 0.0, 0.0, 0.0, 0.0, 0.0, 0.0, 0.0, 0.0, 1.66655516429401E9, 0.0, 2022-10-23 12:59:24.294
71.0, -59622.808947898026, -87584.70715102043, 36603.082609544115, -9989.3075214991, 73082.62712748375, 45074.460813338854, 7739.045648461062, 11007.876516327444, 0.052000000000000005, 0.9500000000000001, 0.136, 192.0, 0.0, 0.0, 0.0, 0.0, 0.0, 0.0, 0.0, 0.0, 0.0, 1.6665551642940192E9, 0.0, 2022-10-23 12:59:24.294
72.0, -59590.33186320447, -87547.15622033551, 34382.548556631635, -11253.790408824732, 72932.57986695528, 44027.929786196924, 6259.606034708743, 9374.075755366774, 0.052000000000000005, 0.9500000000000001, 0.136, 192.0, 0.0, 0.0, 0.0, 0.0, 0.0, 0.0, 0.0, 0.0, 0.0, 1.6665551642940283E9, 0.0, 2022-10-23 12:59:24.294
73.0, -59637.33758179398, -87593.44668310246, 33755.58212466027, -11490.51773435089, 73052.83225212482, 43824.506559909176, 5994.3355315131585, 9277.40446059757, 0.052000000000000005, 0.9500000000000001, 0.136, 192.0, 0.0, 0.0, 0.0, 0.0, 0.0, 0.0, 0.0, 0.0, 0.0, 1.6665551642940378E9, 0.0, 2022-10-23 12:59:24.294
74.0, -59675.603768301466, -87631.62346263212, 35105.29221359399, -10677.0706983889, 73204.15356208725, 44506.3018210294, 6955.885226236013, 10392.935322873036, 0.052000000000000005, 0.9500000000000001, 0.136, 192.0, 0.0, 0.0, 0.0, 0.0, 0.0, 0.0, 0.0, 0.0, 0.0, 1.666555164294047E9, 0.0, 2022-10-23 12:59:24.294
75.0, -59654.816645958024, -87612.84799728966, 36790.21141412394, -9835.706333602231, 73138.10415722182, 45213.242794661855, 7914.506842435222, 11220.821585753154, 0.05, 0.9520000000000001, 0.134, 192.0, 1.0, 144.0, 29.0, 192.0, 4.0, 48.0, 0.0, 0.0, 0.0, 1.6665551642940564E9, 0.0, 2022-10-23 12:59:24.294
76.0, -59581.011185766605, -87542.2164848109, 34728.24063637741, -11069.343813579539, 72914.74317487993, 44185.39782588456, 6476.261493714034, 9568.111248983294, 0.05, 0.9520000000000001, 0.134, 192.0, 0.0, 0.0, 0.0, 0.0, 0.0, 0.0, 0.0, 0.0, 0.0, 1.6665551642940664E9, 0.0, 2022-10-23 12:59:24.294
77.0, -59610.56019193652, -87563.87532518808, 33685.263536603874, -11541.390304731167, 73057.25789752697, 43773.678693017806, 5928.286126647727, 9169.400831389527, 0.05, 0.9520000000000001, 0.134, 192.0, 0.0, 0.0, 0.0, 0.0, 0.0, 0.0, 0.0, 0.0, 0.0, 1.666555164294076E9, 0.0, 2022-10-23 12:59:24.294
78.0, -59676.363727612945, -87628.42716317502, 34659.97840881091, -10920.235326318185, 73192.5753584594, 44296.21777489397, 6673.426231554298, 10091.65615935995, 0.05, 0.9520000000000001, 0.134, 192.0, 0.0, 0.0, 0.0, 0.0, 0.0, 0.0, 0.0, 0.0, 0.0, 1.6665551642940853E9, 0.0, 2022-10-23 12:59:24.294
79.0, -59679.31415788105, -87638.66426213554, 36736.85780010913, -9830.85600505543, 73182.11474205431, 45208.28070739278, 7921.257069260725, 11278.354975981114, 0.05, 0.9520000000000001, 0.134, 192.0, 0.0, 0.0, 0.0, 0.0, 0.0, 0.0, 0.0, 0.0, 0.0, 1.6665551642941031E9, 0.0, 2022-10-23 12:59:24.294
80.0, -59598.93728481976, -87562.35540656513, 35132.78485927401, -10846.42986612676, 72916.37485222517, 44367.58689493977, 6735.3405636954985, 9838.254432470136, 0.05, 0.9520000000000001, 0.134, 192.0, 0.0, 0.0, 0.0, 0.0, 0.0, 0.0, 0.0, 0.0, 0.0, 1.6665551642941127E9, 0.0, 2022-10-23 12:59:24.294
81.0, -59619.43383448528, -87580.25915387382, 33684.995315670414, -11562.088020096782, 73016.7341848295, 43756.02081489811, 5900.055873400674, 9109.542859738214, 0.05, 0.9520000000000001, 0.134, 192.0, 0.0, 0.0, 0.0, 0.0, 0.0, 0.0, 0.0, 0.0, 0.0, 1.6665551642941232E9, 0.0, 2022-10-23 12:59:24.294
82.0, -59670.82049498803, -87641.05589879226, 34277.27184024714, -11148.334878484593, 73142.77567181298, 44098.136615531046, 6405.875850424272, 9807.006693721616, 0.05, 0.9520000000000001, 0.134, 192.0, 0.0, 0.0, 0.0, 0.0, 0.0, 0.0, 0.0, 0.0, 0.0, 1.6665551642941327E9, 0.0, 2022-10-23 12:59:24.294
83.0, -59677.32485262452, -87641.90526508156, 36550.913637985424, -9899.3864535554, 73236.02714968052, 45147.12633456306, 7838.421504309357, 11245.386152909536, 0.05, 0.9520000000000001, 0.134, 192.0, 0.0, 0.0, 0.0, 0.0, 0.0, 0.0, 0.0, 0.0, 0.0, 1.6665551642941425E9, 0.0, 2022-10-23 12:59:24.294
84.0, -59600.61366565391, -87565.6187612556, 35630.088821660145, -10546.245938091986, 72966.15218712714, 44626.80007538797, 7078.126916662088, 10212.042654996236, 0.05, 0.9520000000000001, 0.134, 192.0, 0.0, 0.0, 0.0, 0.0, 0.0, 0.0, 0.0, 0.0, 0.0, 1.666555164294152E9, 0.0, 2022-10-23 12:59:24.294
85.0, -59607.09567154595, -87564.52352577729, 33796.910500158134, -11505.336940924757, 72997.93636774259, 43813.71066733726, 5958.796257829221, 9133.61568851658, 0.046, 0.9480000000000001, 0.134, 192.0, 1.0, 112.0, 29.0, 160.0, 4.0, 48.0, 0.0, 0.0, 0.0, 1.6665551642941616E9, 0.0, 2022-10-23 12:59:24.294
86.0, -59656.13539888089, -87607.79650304276, 34055.654293972766, -11265.592129897133, 73139.66877933369, 44011.1883295999, 6265.439840011578, 9636.932270161185, 0.046, 0.9480000000000001, 0.134, 192.0, 0.0, 0.0, 0.0, 0.0, 0.0, 0.0, 0.0, 0.0, 0.0, 1.6665551642941716E9, 0.0, 2022-10-23 12:59:24.294
87.0, -59702.62702734793, -87658.44555597848, 36235.03878534303, -10051.780647251684, 73245.61604805184, 45023.70000168085, 7672.258636028605, 11104.570162841103, 0.046, 0.9480000000000001, 0.134, 192.0, 0.0, 0.0, 0.0, 0.0, 0.0, 0.0, 0.0, 0.0, 0.0, 1.666555164294181E9, 0.0, 2022-10-23 12:59:24.294
88.0, -59625.08882583247, -87590.31743887872, 36068.85356531782, -10288.552676266752, 72991.16378917263, 44842.15913321485, 7385.776327344934, 10551.364487572251, 0.046, 0.9480000000000001, 0.134, 192.0, 0.0, 0.0, 0.0, 0.0, 0.0, 0.0, 0.0, 0.0, 0.0, 1.666555164294191E9, 0.0, 2022-10-23 12:59:24.294
89.0, -59624.217107798715, -87588.84222374466, 33939.9616646721, -11446.462446029478, 72954.37281779919, 43870.46174650929, 6034.76983723281, 9165.757497043312, 0.046, 0.9480000000000001, 0.134, 192.0, 0.0, 0.0, 0.0, 0.0, 0.0, 0.0, 0.0, 0.0, 0.0, 1.6665551642942011E9, 0.0, 2022-10-23 12:59:24.294
90.0, -59664.1820268848, -87632.29401496578, 33875.208660985074, -11382.625863865122, 73086.04694438541, 43918.07096219909, 6130.5470622238, 9458.051259285363, 0.046, 0.9480000000000001, 0.134, 192.0, 0.0, 0.0, 0.0, 0.0, 0.0, 0.0, 0.0, 0.0, 0.0, 1.6665551642942104E9, 0.0, 2022-10-23 12:59:24.294
91.0, -59703.94578027079, -87674.80703291978, 35830.69572814652, -10263.876350388093, 73229.03105366601, 44855.8384008215, 7430.636278466735, 10865.831180313968, 0.046, 0.9480000000000001, 0.134, 192.0, 0.0, 0.0, 0.0, 0.0, 0.0, 0.0, 0.0, 0.0, 0.0, 1.66655516429422E9, 0.0, 2022-10-23 12:59:24.294
92.0, -59635.50473874864, -87608.48940712088, 36447.44741290181, -10056.988603709771, 73038.05774903986, 45039.18976058838, 7652.633804396845, 10863.327784934972, 0.046, 0.9480000000000001, 0.134, 192.0, 0.0, 0.0, 0.0, 0.0, 0.0, 0.0, 0.0, 0.0, 0.0, 1.6665551642942295E9, 0.0, 2022-10-23 12:59:24.294
93.0, -59595.495116173646, -87569.57502002419, 34136.8581815789, -11366.040869479284, 72935.75381466793, 43938.254587442236, 6129.273012789848, 9242.982774136397, 0.046, 0.9480000000000001, 0.134, 192.0, 0.0, 0.0, 0.0, 0.0, 0.0, 0.0, 0.0, 0.0, 0.0, 1.6665551642942388E9, 0.0, 2022-10-23 12:59:24.294
94.0, -59638.052837616546, -87609.53993911028, 33725.183752201054, -11491.635321573654, 73078.15677859269, 43816.77285632764, 6002.583325217167, 9310.350931924693, 0.046, 0.9480000000000001, 0.134, 192.0, 0.0, 0.0, 0.0, 0.0, 0.0, 0.0, 0.0, 0.0, 0.0, 1.6665551642942564E9, 0.0, 2022-10-23 12:59:24.294
95.0, -59695.85444877797, -87664.25700953687, 35328.47438198023, -10548.905795682169, 73225.49947804207, 44600.916755308725, 7108.637047843582, 10560.372240587742, 0.052000000000000005, 0.9480000000000001, 0.136, 192.0, 1.0, 160.0, 29.0, 160.0, 4.0, 64.0, 0.0, 0.0, 0.0, 1.6665551642942667E9, 0.0, 2022-10-23 12:59:24.294
96.0, -59662.460942561745, -87636.80906734575, 36647.62963624354, -9928.264907391656, 73096.03817415693, 45126.94270931992, 7810.101844084484, 11089.929770222876, 0.052000000000000005, 0.9480000000000001, 0.136, 192.0, 0.0, 0.0, 0.0, 0.0, 0.0, 0.0, 0.0, 0.0, 0.0, 1.666555164294277E9, 0.0, 2022-10-23 12:59:24.294
97.0, -59584.63216836836, -87560.03082514177, 34418.04312682666, -11226.431873611436, 72918.27475050387, 44042.056088692676, 6293.066596158337, 9401.456642324525, 0.052000000000000005, 0.9480000000000001, 0.136, 192.0, 0.0, 0.0, 0.0, 0.0, 0.0, 0.0, 0.0, 0.0, 0.0, 1.6665551642942863E9, 0.0, 2022-10-23 12:59:24.294
98.0, -59628.21807005621, -87597.24647965987, 33645.32096926224, -11549.414580990622, 73068.81374941037, 43758.41245155483, 5927.816740014165, 9213.232602266384, 0.052000000000000005, 0.9480000000000001, 0.136, 192.0, 0.0, 0.0, 0.0, 0.0, 0.0, 0.0, 0.0, 0.0, 0.0, 1.6665551642942955E9, 0.0, 2022-10-23 12:59:24.294
99.0, -59700.03422499111, -87660.83719263521, 34876.14212943818, -10799.580609748436, 73204.51118999853, 44389.6257149727, 6823.585250805051, 10273.688766203972, 0.052000000000000005, 0.9480000000000001, 0.136, 192.0, 0.0, 0.0, 0.0, 0.0, 0.0, 0.0, 0.0, 0.0, 0.0, 1.666555164294305E9, 0.0, 2022-10-23 12:59:24.294
100.0, -59685.4385358618, -87656.23273327741, 36738.154201287536, -9847.552758163543, 73157.39371268675, 45194.288515363754, 7911.601115656033, 11251.823455312664, 0.052000000000000005, 0.9480000000000001, 0.136, 192.0, 0.0, 0.0, 0.0, 0.0, 0.0, 0.0, 0.0, 0.0, 0.0, 1.6665551642943144E9, 0.0, 2022-10-23 12:59:24.294
101.0, -59600.27838948708, -87579.3203806067, 34850.28116110339, -10989.16810621835, 72924.15325929562, 44255.91757964106, 6580.755899042595, 9684.474430617624, 0.052000000000000005, 0.9480000000000001, 0.136, 192.0, 0.0, 0.0, 0.0, 0.0, 0.0, 0.0, 0.0, 0.0, 0.0, 1.666555164294324E9, 0.0, 2022-10-23 12:59:24.294
102.0, -59637.02465737161, -87604.60020358565, 33675.31701032126, -11547.112351311725, 73032.78273734842, 43775.556239552054, 5936.176292440449, 9171.457191879415, 0.052000000000000005, 0.9480000000000001, 0.136, 192.0, 0.0, 0.0, 0.0, 0.0, 0.0, 0.0, 0.0, 0.0, 0.0, 1.6665551642943335E9, 0.0, 2022-10-23 12:59:24.294
103.0, -59693.93219875482, -87657.86441062266, 34496.363639398056, -11019.27590599965, 73166.55792791343, 44212.75636109786, 6578.699538552706, 9999.231696037257, 0.052000000000000005, 0.9480000000000001, 0.136, 192.0, 0.0, 0.0, 0.0, 0.0, 0.0, 0.0, 0.0, 0.0, 0.0, 1.6665551642943428E9, 0.0, 2022-10-23 12:59:24.294
104.0, -59700.61537034695, -87668.03445434982, 36662.091214906126, -9862.751944393152, 73207.37221328882, 45180.18456461246, 7903.688598118854, 11288.748537152833, 0.05, 0.9480000000000001, 0.132, 192.0, 1.0, 144.0, 29.0, 160.0, 4.0, 32.0, 0.0, 0.0, 0.0, 1.666555164294352E9, 0.0, 2022-10-23 12:59:24.294
105.0, -59610.13550879187, -87581.1755753965, 35285.20140471475, -10748.708039368157, 72945.78974792836, 44454.870457037745, 6861.851437312536, 9983.429012707355, 0.05, 0.9480000000000001, 0.132, 192.0, 0.0, 0.0, 0.0, 0.0, 0.0, 0.0, 0.0, 0.0, 0.0, 1.6665551642943618E9, 0.0, 2022-10-23 12:59:24.294
106.0, -59627.83809040047, -87588.81987200021, 33719.171132942574, -11534.349505227747, 73029.72054835803, 43785.14513792338, 5941.227786687349, 9146.199720644918, 0.05, 0.9480000000000001, 0.132, 192.0, 0.0, 0.0, 0.0, 0.0, 0.0, 0.0, 0.0, 0.0, 0.0, 1.6665551642943711E9, 0.0, 2022-10-23 12:59:24.294
107.0, -59682.71162303825, -87637.90430282406, 34190.14474036035, -11188.724480715333, 73158.04191327596, 44071.24746695131, 6372.236475019035, 9768.628748491854, 0.05, 0.9480000000000001, 0.132, 192.0, 0.0, 0.0, 0.0, 0.0, 0.0, 0.0, 0.0, 0.0, 0.0, 1.6665551642943804E9, 0.0, 2022-10-23 12:59:24.294
108.0, -59722.02834153514, -87677.31042829876, 36445.703976834295, -9950.97427975825, 73243.31381837295, 45107.0943602436, 7799.976503846229, 11219.07814968564, 0.05, 0.9480000000000001, 0.132, 192.0, 0.0, 0.0, 0.0, 0.0, 0.0, 0.0, 0.0, 0.0, 0.0, 1.6665551642943897E9, 0.0, 2022-10-23 12:59:24.294
109.0, -59633.35897128093, -87593.58079356918, 35740.41703229154, -10491.998254298956, 72964.43110280408, 44667.97198867464, 7162.013013602855, 10308.043397431778, 0.05, 0.9480000000000001, 0.132, 192.0, 0.0, 0.0, 0.0, 0.0, 0.0, 0.0, 0.0, 0.0, 0.0, 1.6665551642943993E9, 0.0, 2022-10-23 12:59:24.294
110.0, -59626.89931713335, -87583.03077018628, 33797.268128069416, -11518.613877131209, 72995.09769619677, 43802.7359608097, 5963.043089275729, 9129.324153581161, 0.05, 0.9480000000000001, 0.132, 192.0, 0.0, 0.0, 0.0, 0.0, 0.0, 0.0, 0.0, 0.0, 0.0, 1.6665551642944186E9, 0.0, 2022-10-23 12:59:24.294
111.0, -59666.216035630234, -87622.05691600525, 33947.091871153345, -11335.754255742342, 73135.62311358728, 43948.089355002565, 6199.435138635056, 9564.959653015096, 0.05, 0.9480000000000001, 0.132, 192.0, 0.0, 0.0, 0.0, 0.0, 0.0, 0.0, 0.0, 0.0, 0.0, 1.666555164294428E9, 0.0, 2022-10-23 12:59:24.294
112.0, -59721.313085712565, -87677.60100097669, 36084.38802771426, -10129.877642378528, 73266.96196400667, 44957.158858437404, 7596.665036280756, 11039.817159154078, 0.05, 0.9480000000000001, 0.132, 192.0, 0.0, 0.0, 0.0, 0.0, 0.0, 0.0, 0.0, 0.0, 0.0, 1.6665551642944372E9, 0.0, 2022-10-23 12:59:24.294
113.0, -59656.716544236726, -87619.933500282, 36174.15263344677, -10227.778283092772, 73017.74001333, 44887.35436050348, 7470.936473719654, 10659.010488869011, 0.05, 0.9480000000000001, 0.132, 192.0, 0.0, 0.0, 0.0, 0.0, 0.0, 0.0, 0.0, 0.0, 0.0, 1.6665551642944467E9, 0.0, 2022-10-23 12:59:24.294
114.0, -59640.39977078435, -87608.75762805434, 33960.74878701553, -11448.27293733036, 72950.68477996407, 43861.342234771524, 6045.073991426706, 9177.916846027, 0.05, 0.9520000000000001, 0.136, 192.0, 1.0, 144.0, 29.0, 192.0, 4.0, 64.0, 0.0, 0.0, 0.0, 1.666555164294456E9, 0.0, 2022-10-23 12:59:24.294
115.0, -59664.31613735153, -87631.69051786549, 33821.40801208115, -11409.246791511392, 73112.98079645405, 43892.813490964596, 6106.92126833454, 9436.548881119357, 0.05, 0.9520000000000001, 0.136, 192.0, 0.0, 0.0, 0.0, 0.0, 0.0, 0.0, 0.0, 0.0, 0.0, 1.666555164294466E9, 0.0, 2022-10-23 12:59:24.294
116.0, -59714.78637633162, -87677.4892422544, 35641.77878401027, -10365.308566726277, 73246.59952480788, 44759.92706536377, 7325.091341148775, 10776.580664703926, 0.05, 0.9520000000000001, 0.136, 192.0, 0.0, 0.0, 0.0, 0.0, 0.0, 0.0, 0.0, 0.0, 0.0, 1.6665551642944753E9, 0.0, 2022-10-23 12:59:24.294
117.0, -59657.632965759396, -87627.01900327433, 36525.79027721766, -9995.566009946586, 73090.89727293221, 45081.36750237555, 7732.6754012913, 10974.125382199929, 0.05, 0.9520000000000001, 0.136, 192.0, 0.0, 0.0, 0.0, 0.0, 0.0, 0.0, 0.0, 0.0, 0.0, 1.6665551642944844E9, 0.0, 2022-10-23 12:59:24.294
118.0, -59606.872154101395, -87580.14739515155, 34258.92105804933, -11280.523095193279, 72950.97535264198, 44012.77530345623, 6230.839339594762, 9333.015600802375, 0.05, 0.9520000000000001, 0.136, 192.0, 0.0, 0.0, 0.0, 0.0, 0.0, 0.0, 0.0, 0.0, 0.0, 1.6665551644437711E9, 0.0, 2022-10-23 12:59:24.443
119.0, -59664.91963445183, -87633.85863707765, 33752.3634734587, -11453.41383855508, 73092.19367411062, 43861.63280744944, 6044.202273392949, 9322.398522186104, 0.05, 0.9520000000000001, 0.136, 192.0, 0.0, 0.0, 0.0, 0.0, 0.0, 0.0, 0.0, 0.0, 0.0, 1.6665551644438E9, 0.0, 2022-10-23 12:59:24.443
120.0, -59710.38308267392, -87672.57185847424, 35243.627160027885, -10565.602548790283, 73236.51888805853, 44607.689333878676, 7089.25808540083, 10512.964190598035, 0.05, 0.9520000000000001, 0.136, 192.0, 0.0, 0.0, 0.0, 0.0, 0.0, 0.0, 0.0, 0.0, 0.0, 1.6665551644438205E9, 0.0, 2022-10-23 12:59:24.443
121.0, -59674.50853282315, -87642.17348601503, 36727.581826160174, -9856.71697339022, 73138.6629508332, 45200.50230032233, 7894.122051491982, 11172.83239040761, 0.05, 0.9520000000000001, 0.136, 192.0, 0.0, 0.0, 0.0, 0.0, 0.0, 0.0, 0.0, 0.0, 0.0, 1.6665551644438396E9, 0.0, 2022-10-23 12:59:24.443
122.0, -59620.998456597146, -87596.62063081512, 34603.60730929462, -11106.268895419706, 72941.29704729284, 44167.538782064774, 6435.335449616367, 9515.83051870233, 0.05, 0.9520000000000001, 0.136, 192.0, 0.0, 0.0, 0.0, 0.0, 0.0, 0.0, 0.0, 0.0, 0.0, 1.6665551644438539E9, 0.0, 2022-10-23 12:59:24.443
123.0, -59650.65922148934, -87615.64196534657, 33720.221664931974, -11486.025033715372, 73077.08389485884, 43839.30341473859, 5994.961380357908, 9230.845776897166, 0.05, 0.9520000000000001, 0.136, 192.0, 0.0, 0.0, 0.0, 0.0, 0.0, 0.0, 0.0, 0.0, 0.0, 1.666555164443868E9, 0.0, 2022-10-23 12:59:24.443
124.0, -59696.52500111163, -87658.66907342304, 34784.18705274905, -10833.66702004278, 73207.61808247783, 44376.66170318863, 6774.813744403571, 10185.466430838875, 0.046, 0.9520000000000001, 0.138, 192.0, 1.0, 112.0, 29.0, 192.0, 4.0, 80.0, 0.0, 0.0, 0.0, 1.6665551644438818E9, 0.0, 2022-10-23 12:59:24.443
125.0, -59700.838887791506, -87669.28615203932, 36741.88694261157, -9823.636391596365, 73186.56273920092, 45216.68496330798, 7927.0461710746495, 11259.333641449648, 0.046, 0.9520000000000001, 0.138, 192.0, 0.0, 0.0, 0.0, 0.0, 0.0, 0.0, 0.0, 0.0, 0.0, 1.6665551644438987E9, 0.0, 2022-10-23 12:59:24.443
126.0, -59613.17534603779, -87589.24455514486, 34997.84737799733, -10893.72615739419, 72944.8733264057, 44337.8143713253, 6672.487458287175, 9760.31389955448, 0.046, 0.9520000000000001, 0.138, 192.0, 0.0, 0.0, 0.0, 0.0, 0.0, 0.0, 0.0, 0.0, 0.0, 1.6665551644440792E9, 0.0, 2022-10-23 12:59:24.444
127.0, -59635.41533177082, -87608.35529665415, 33729.67645283657, -11493.579923341265, 73068.67963894363, 43831.94969081279, 5971.5591039132005, 9177.000424504331, 0.046, 0.9520000000000001, 0.138, 192.0, 0.0, 0.0, 0.0, 0.0, 0.0, 0.0, 0.0, 0.0, 0.0, 1.666555164444094E9, 0.0, 2022-10-23 12:59:24.444
128.0, -59698.53665811261, -87663.27353278083, 34443.72528120581, -11020.527603689146, 73183.88052986629, 44228.76021012786, 6550.111657394369, 9937.742047040707, 0.046, 0.9520000000000001, 0.138, 192.0, 0.0, 0.0, 0.0, 0.0, 0.0, 0.0, 0.0, 0.0, 0.0, 1.6665551644441082E9, 0.0, 2022-10-23 12:59:24.444
129.0, -59731.12550152845, -87696.93525993053, 36627.53541797822, -9859.153313535848, 73213.2283703361, 45194.10970140812, 7886.544810121633, 11259.825379827666, 0.046, 0.9520000000000001, 0.138, 192.0, 0.0, 0.0, 0.0, 0.0, 0.0, 0.0, 0.0, 0.0, 0.0, 1.6665551644441223E9, 0.0, 2022-10-23 12:59:24.444
130.0, -59651.59799475646, -87622.34748868317, 35459.65677018843, -10641.576128193872, 72937.60900945771, 44556.325025120386, 6970.458563620873, 10071.785458539183, 0.046, 0.9520000000000001, 0.138, 192.0, 0.0, 0.0, 0.0, 0.0, 0.0, 0.0, 0.0, 0.0, 0.0, 1.6665551644441369E9, 0.0, 2022-10-23 12:59:24.444
131.0, -59643.66312547483, -87610.81398854424, 33774.29053476936, -11497.446775132034, 73012.26383593844, 43832.55318791309, 5967.669900377978, 9130.821720459668, 0.046, 0.9520000000000001, 0.138, 192.0, 0.0, 0.0, 0.0, 0.0, 0.0, 0.0, 0.0, 0.0, 0.0, 1.666555164444156E9, 0.0, 2022-10-23 12:59:24.444
132.0, -59688.79129753009, -87656.50095421087, 34133.86304782189, -11206.851745468586, 73138.4617851331, 44068.43114714994, 6329.477587876033, 9688.318930663936, 0.046, 0.9520000000000001, 0.138, 192.0, 0.0, 0.0, 0.0, 0.0, 0.0, 0.0, 0.0, 0.0, 0.0, 1.66655516444417E9, 0.0, 2022-10-23 12:59:24.444
133.0, -59726.7445596152, -87695.52710002984, 36354.57591469001, -9978.489277182733, 73233.45669906816, 45090.151737946486, 7743.985383985685, 11147.217291261828, 0.046, 0.9520000000000001, 0.138, 192.0, 0.0, 0.0, 0.0, 0.0, 0.0, 0.0, 0.0, 0.0, 0.0, 1.6665551644441838E9, 0.0, 2022-10-23 12:59:24.444
134.0, -59641.405599284844, -87617.74302932537, 35934.4301741636, -10352.344554942198, 72975.71873375401, 44791.688894234765, 7295.452928001038, 10428.318134345787, 0.052000000000000005, 0.9480000000000001, 0.132, 192.0, 1.0, 160.0, 29.0, 160.0, 4.0, 32.0, 0.0, 0.0, 0.0, 1.6665551644441977E9, 0.0, 2022-10-23 12:59:24.444
135.0, -59630.363837523924, -87601.40390412854, 33884.46228318957, -11452.676230988054, 72977.03748667687, 43862.01278710518, 6006.964267130407, 9139.04716241922, 0.052000000000000005, 0.9480000000000001, 0.132, 192.0, 0.0, 0.0, 0.0, 0.0, 0.0, 0.0, 0.0, 0.0, 0.0, 1.6665551644442132E9, 0.0, 2022-10-23 12:59:24.444
136.0, -59668.451210075764, -87633.34454695518, 33943.67205425168, -11313.067235120207, 73126.50360184952, 43973.615047170526, 6189.063929207794, 9521.194937371605, 0.052000000000000005, 0.9480000000000001, 0.132, 192.0, 0.0, 0.0, 0.0, 0.0, 0.0, 0.0, 0.0, 0.0, 0.0, 1.6665551644442272E9, 0.0, 2022-10-23 12:59:24.444
137.0, -59714.4958036537, -87678.4950707549, 35994.936346404116, -10147.379058287032, 73266.93961226221, 44948.86636124449, 7543.11025656584, 10967.6880797968, 0.052000000000000005, 0.9480000000000001, 0.132, 192.0, 0.0, 0.0, 0.0, 0.0, 0.0, 0.0, 0.0, 0.0, 0.0, 1.6665551644442413E9, 0.0, 2022-10-23 12:59:24.444
138.0, -59664.76317224064, -87634.32802371122, 36360.61088569294, -10085.509429634742, 73041.81284210835, 45017.62032718901, 7600.889515982809, 10781.721565928647, 0.052000000000000005, 0.9480000000000001, 0.132, 192.0, 0.0, 0.0, 0.0, 0.0, 0.0, 0.0, 0.0, 0.0, 0.0, 1.6665551644442549E9, 0.0, 2022-10-23 12:59:24.444
139.0, -59637.24817481616, -87606.4777501199, 34136.83582983445, -11314.38598804307, 72964.94519292655, 43999.72188469433, 6163.582940528744, 9255.522102775825, 0.052000000000000005, 0.9480000000000001, 0.132, 192.0, 0.0, 0.0, 0.0, 0.0, 0.0, 0.0, 0.0, 0.0, 0.0, 1.6665551644442687E9, 0.0, 2022-10-23 12:59:24.444
140.0, -59672.96626245574, -87641.16765751454, 33841.47987860202, -11376.389727162092, 73106.02940392845, 43937.09229673056, 6107.927096835029, 9392.113613142206, 0.052000000000000005, 0.9480000000000001, 0.132, 192.0, 0.0, 0.0, 0.0, 0.0, 0.0, 0.0, 0.0, 0.0, 0.0, 1.6665551644442828E9, 0.0, 2022-10-23 12:59:24.444
141.0, -59722.564783402064, -87692.28609708382, 35564.88878308401, -10377.28910175432, 73246.39835910778, 44774.81332717101, 7278.756174892924, 10697.433137587685, 0.052000000000000005, 0.9480000000000001, 0.132, 192.0, 0.0, 0.0, 0.0, 0.0, 0.0, 0.0, 0.0, 0.0, 0.0, 1.66655516444432E9, 0.0, 2022-10-23 12:59:24.444
142.0, -59669.12176240943, -87647.82847736221, 36679.97261047037, -9876.967653866728, 73104.8000579834, 45208.146596926046, 7840.74608573271, 11066.326328078072, 0.052000000000000005, 0.9480000000000001, 0.132, 192.0, 0.0, 0.0, 0.0, 0.0, 0.0, 0.0, 0.0, 0.0, 0.0, 1.6665551644443352E9, 0.0, 2022-10-23 12:59:24.444
143.0, -59631.03438985758, -87603.10263670715, 34410.10825754503, -11186.355195803071, 72935.97733211248, 44116.77797040677, 6312.691427790097, 9379.976615902975, 0.05, 0.9440000000000001, 0.132, 192.0, 1.0, 144.0, 29.0, 128.0, 4.0, 32.0, 0.0, 0.0, 0.0, 1.6665551644443448E9, 0.0, 2022-10-23 12:59:24.444
144.0, -59665.54548329658, -87630.84115157618, 33743.89216231015, -11455.872530445164, 73074.2005198241, 43874.82033667807, 6010.540546243256, 9257.310242332249, 0.05, 0.9440000000000001, 0.132, 192.0, 0.0, 0.0, 0.0, 0.0, 0.0, 0.0, 0.0, 0.0, 0.0, 1.666555164444355E9, 0.0, 2022-10-23 12:59:24.444
145.0, -59709.10903323997, -87678.31625679925, 35105.94041418319, -10631.942526333634, 73235.75892874705, 44565.48924034706, 6984.674273094449, 10394.030558351345, 0.05, 0.9440000000000001, 0.132, 192.0, 0.0, 0.0, 0.0, 0.0, 0.0, 0.0, 0.0, 0.0, 0.0, 1.6665551644443648E9, 0.0, 2022-10-23 12:59:24.444
146.0, -59685.2373701617, -87667.3415502717, 36796.49225431588, -9790.533458058055, 73147.82716605987, 45275.82767913672, 7945.285194550181, 11226.253059655794, 0.05, 0.9440000000000001, 0.132, 192.0, 0.0, 0.0, 0.0, 0.0, 0.0, 0.0, 0.0, 0.0, 0.0, 1.6665551644443743E9, 0.0, 2022-10-23 12:59:24.444
147.0, -59637.51639574962, -87612.91505252304, 34728.77707824434, -11034.072760829064, 72912.12802077866, 44238.37146024364, 6494.589924167386, 9561.6068913468, 0.05, 0.9440000000000001, 0.132, 192.0, 0.0, 0.0, 0.0, 0.0, 0.0, 0.0, 0.0, 0.0, 0.0, 1.666555164444384E9, 0.0, 2022-10-23 12:59:24.444
148.0, -59667.89241646438, -87633.38925044409, 33680.457911545986, -11513.405920673124, 73055.58151669282, 43821.13144649642, 5938.3891151415255, 9154.894549238034, 0.05, 0.9440000000000001, 0.132, 192.0, 0.0, 0.0, 0.0, 0.0, 0.0, 0.0, 0.0, 0.0, 0.0, 1.6665551644443934E9, 0.0, 2022-10-23 12:59:24.444
149.0, -59705.68921633831, -87671.9460096295, 34659.48667043289, -10883.489058433659, 73219.77743146151, 44350.845438342745, 6687.731348005695, 10086.649368601962, 0.05, 0.9440000000000001, 0.132, 192.0, 0.0, 0.0, 0.0, 0.0, 0.0, 0.0, 0.0, 0.0, 0.0, 1.6665551644444027E9, 0.0, 2022-10-23 12:59:24.444
150.0, -59701.53179186962, -87672.23658230742, 36738.08714605417, -9793.014501692594, 73221.47616404011, 45263.377757475115, 7936.299793279147, 11281.059537060206, 0.05, 0.9440000000000001, 0.132, 192.0, 0.0, 0.0, 0.0, 0.0, 0.0, 0.0, 0.0, 0.0, 0.0, 1.6665551644444125E9, 0.0, 2022-10-23 12:59:24.444
151.0, -59612.70595940423, -87588.66340978902, 35155.71774908516, -10790.975188133143, 72967.94032668357, 44441.235892920005, 6768.510552467174, 9864.562435694032, 0.05, 0.9440000000000001, 0.132, 192.0, 0.0, 0.0, 0.0, 0.0, 0.0, 0.0, 0.0, 0.0, 0.0, 1.666555164444422E9, 0.0, 2022-10-23 12:59:24.444
152.0, -59638.34341029447, -87611.2833751778, 33752.92226707009, -11469.529446307355, 73063.42697899663, 43867.19839181881, 5973.011967302796, 9165.533979598758, 0.05, 0.9440000000000001, 0.132, 192.0, 0.0, 0.0, 0.0, 0.0, 0.0, 0.0, 0.0, 0.0, 0.0, 1.6665551644444315E9, 0.0, 2022-10-23 12:59:24.444
153.0, -59695.29565516659, -87665.01696884834, 34353.42423360637, -11053.004688382709, 73179.5219396975, 44216.064419277245, 6486.789165352484, 9861.455543214744, 0.046, 0.9440000000000001, 0.134, 192.0, 1.0, 112.0, 29.0, 128.0, 4.0, 48.0, 0.0, 0.0, 0.0, 1.6665551644444423E9, 0.0, 2022-10-23 12:59:24.444
154.0, -59721.603658390486, -87692.24139359492, 36571.09726322857, -9857.409877468333, 73243.04559743949, 45209.822977760195, 7865.869446500475, 11248.940080277931, 0.046, 0.9440000000000001, 0.134, 192.0, 0.0, 0.0, 0.0, 0.0, 0.0, 0.0, 0.0, 0.0, 0.0, 1.6665551644444523E9, 0.0, 2022-10-23 12:59:24.444
155.0, -59649.96631741123, -87625.96847128493, 35634.31330136219, -10519.535603467895, 72971.98599242998, 44672.06235790996, 7089.302788889741, 10202.185535691446, 0.046, 0.9440000000000001, 0.134, 192.0, 0.0, 0.0, 0.0, 0.0, 0.0, 0.0, 0.0, 0.0, 0.0, 1.666555164444462E9, 0.0, 2022-10-23 12:59:24.444
156.0, -59662.63975651738, -87638.5301516688, 33821.89975045917, -11460.834617714241, 73007.70408006955, 43880.31886581408, 5986.557124442712, 9138.309554852194, 0.046, 0.9440000000000001, 0.134, 192.0, 0.0, 0.0, 0.0, 0.0, 0.0, 0.0, 0.0, 0.0, 0.0, 1.6665551645440028E9, 0.0, 2022-10-23 12:59:24.544
157.0, -59703.16346921486, -87680.01498937786, 34057.59889574038, -11239.395885395514, 73134.32671240887, 44055.981225488336, 6267.227979568002, 9617.57565946289, 0.046, 0.9440000000000001, 0.134, 192.0, 0.0, 0.0, 0.0, 0.0, 0.0, 0.0, 0.0, 0.0, 0.0, 1.66655516454408E9, 0.0, 2022-10-23 12:59:24.544
158.0, -59747.531681958644, -87724.45025735501, 36239.687948189734, -10019.191803835845, 73254.55674583396, 45077.63476105151, 7679.94763612123, 11092.746090024244, 0.046, 0.9440000000000001, 0.134, 192.0, 0.0, 0.0, 0.0, 0.0, 0.0, 0.0, 0.0, 0.0, 0.0, 1.6665551645440948E9, 0.0, 2022-10-23 12:59:24.544
159.0, -59651.46388428973, -87631.89168356558, 36103.90110062374, -10229.342905204643, 73027.46302216804, 44923.56418652108, 7421.740284173523, 10571.123429670743, 0.046, 0.9440000000000001, 0.134, 192.0, 0.0, 0.0, 0.0, 0.0, 0.0, 0.0, 0.0, 0.0, 0.0, 1.6665551645441065E9, 0.0, 2022-10-23 12:59:24.544
160.0, -59644.24427083067, -87620.00055551536, 33985.00042974954, -11376.613244606644, 72997.62344332022, 43964.249666243755, 6081.127355233116, 9196.155869502529, 0.046, 0.9440000000000001, 0.134, 192.0, 0.0, 0.0, 0.0, 0.0, 0.0, 0.0, 0.0, 0.0, 0.0, 1.6665551645441184E9, 0.0, 2022-10-23 12:59:24.544
161.0, -59684.611521316954, -87653.79639313178, 33925.38832728724, -11306.09349085015, 73137.38890139924, 44018.02796340323, 6182.045481448828, 9491.534172479413, 0.046, 0.9440000000000001, 0.134, 192.0, 0.0, 0.0, 0.0, 0.0, 0.0, 0.0, 0.0, 0.0, 0.0, 1.6665551645441296E9, 0.0, 2022-10-23 12:59:24.544
162.0, -59725.515213670165, -87694.85654769618, 35861.98817038396, -10202.16318394699, 73278.60722286788, 44938.361041350494, 7467.7848777514555, 10881.924436321788, 0.046, 0.9440000000000001, 0.134, 192.0, 0.0, 0.0, 0.0, 0.0, 0.0, 0.0, 0.0, 0.0, 0.0, 1.6665551645441413E9, 0.0, 2022-10-23 12:59:24.544
163.0, -59666.66307051934, -87639.26775923584, 36515.15084685694, -9964.20651247579, 73091.72428747706, 45157.58695096814, 7725.612250043422, 10907.226611045196, 0.046, 0.9420000000000001, 0.14200000000000002, 192.0, 1.0, 112.0, 29.0, 112.0, 4.0, 112.0, 0.0, 0.0, 0.0, 1.6665551645441525E9, 0.0, 2022-10-23 12:59:24.544
164.0, -59614.494098960655, -87587.70228477745, 34238.26804617263, -11243.307440675193, 72977.43981807707, 44090.089987527135, 6229.922918072095, 9301.41023414257, 0.046, 0.9420000000000001, 0.14200000000000002, 192.0, 0.0, 0.0, 0.0, 0.0, 0.0, 0.0, 0.0, 0.0, 0.0, 1.666555164544165E9, 0.0, 2022-10-23 12:59:24.544
165.0, -59658.16940762632, -87636.31732896774, 33836.36132912175, -11359.20123567596, 73120.58038956886, 43981.236992029786, 6108.038855557305, 9369.38188903116, 0.046, 0.9420000000000001, 0.14200000000000002, 192.0, 0.0, 0.0, 0.0, 0.0, 0.0, 0.0, 0.0, 0.0, 0.0, 1.666555164544176E9, 0.0, 2022-10-23 12:59:24.544
166.0, -59729.15854801638, -87707.48528331344, 35416.89788304542, -10439.739875762449, 73243.44792883968, 44744.90669308981, 7188.723348226947, 10590.547095602406, 0.046, 0.9420000000000001, 0.14200000000000002, 192.0, 0.0, 0.0, 0.0, 0.0, 0.0, 0.0, 0.0, 0.0, 0.0, 1.6665551645441873E9, 0.0, 2022-10-23 12:59:24.544
167.0, -59692.27816966512, -87681.71372195646, 36741.708128655926, -9820.84242353945, 73123.86609600378, 45271.44673722348, 7892.13274623546, 11123.524442139202, 0.046, 0.9420000000000001, 0.14200000000000002, 192.0, 0.0, 0.0, 0.0, 0.0, 0.0, 0.0, 0.0, 0.0, 0.0, 1.6665551645441985E9, 0.0, 2022-10-23 12:59:24.544
168.0, -59633.314267792026, -87623.77800032831, 34553.829974392655, -11090.62267430099, 72954.28341082137, 44224.111047281156, 6413.229574350068, 9465.025003555418, 0.046, 0.9420000000000001, 0.14200000000000002, 192.0, 0.0, 0.0, 0.0, 0.0, 0.0, 0.0, 0.0, 0.0, 0.0, 1.6665551645442095E9, 0.0, 2022-10-23 12:59:24.544
169.0, -59666.66307051934, -87648.1861052735, 33791.680191955595, -11407.212782765959, 73089.37735430925, 43953.67729111639, 6054.327613631202, 9267.390879081593, 0.046, 0.9420000000000001, 0.14200000000000002, 192.0, 0.0, 0.0, 0.0, 0.0, 0.0, 0.0, 0.0, 0.0, 0.0, 1.6665551645442204E9, 0.0, 2022-10-23 12:59:24.544
170.0, -59715.7475013432, -87696.51057678588, 34973.86395619678, -10698.64013178827, 73223.286655341, 44540.58939702385, 6902.062225587634, 10284.79758319826, 0.046, 0.9420000000000001, 0.14200000000000002, 192.0, 0.0, 0.0, 0.0, 0.0, 0.0, 0.0, 0.0, 0.0, 0.0, 1.6665551645442317E9, 0.0, 2022-10-23 12:59:24.544
171.0, -59700.838887791506, -87681.60196323419, 36831.20451345498, -9747.68516393723, 73195.21286430513, 45340.893607246115, 7987.373529359524, 11270.509513677302, 0.046, 0.9420000000000001, 0.14200000000000002, 192.0, 0.0, 0.0, 0.0, 0.0, 0.0, 0.0, 0.0, 0.0, 0.0, 1.6665551645442426E9, 0.0, 2022-10-23 12:59:24.544
172.0, -59631.95081138025, -87614.05499149025, 34938.9952348465, -10890.865134103911, 72948.717826452, 44399.79575869987, 6652.08031559948, 9700.63474185881, 0.046, 0.9500000000000001, 0.138, 192.0, 1.0, 112.0, 29.0, 176.0, 4.0, 80.0, 0.0, 0.0, 0.0, 1.6665551645442672E9, 0.0, 2022-10-23 12:59:24.544
173.0, -59654.056686646545, -87635.08798302269, 33766.579182932284, -11443.22144308346, 73060.96828710656, 43924.888244257956, 6010.585249732167, 9192.266665967307, 0.046, 0.9500000000000001, 0.138, 192.0, 0.0, 0.0, 0.0, 0.0, 0.0, 0.0, 0.0, 0.0, 0.0, 1.666555164544279E9, 0.0, 2022-10-23 12:59:24.544
174.0, -59711.1430419854, -87692.77783546183, 34572.40427403501, -10927.477291521704, 73192.03891659247, 44353.19237151055, 6638.3116410150105, 10005.289018784646, 0.046, 0.9500000000000001, 0.138, 192.0, 0.0, 0.0, 0.0, 0.0, 0.0, 0.0, 0.0, 0.0, 0.0, 1.6665551645442939E9, 0.0, 2022-10-23 12:59:24.544
175.0, -59711.81359431906, -87687.92750691505, 36727.112439526616, -9782.419774820779, 73236.72005375863, 45308.751798719386, 7952.2812905646915, 11286.915694107496, 0.046, 0.9500000000000001, 0.138, 192.0, 0.0, 0.0, 0.0, 0.0, 0.0, 0.0, 0.0, 0.0, 0.0, 1.6665551645443048E9, 0.0, 2022-10-23 12:59:24.544
176.0, -59632.68841894728, -87611.03750598879, 35334.84462914999, -10686.614893271315, 72974.35527734224, 44564.93044673568, 6898.530649963695, 9973.862466080484, 0.046, 0.9500000000000001, 0.138, 192.0, 0.0, 0.0, 0.0, 0.0, 0.0, 0.0, 0.0, 0.0, 0.0, 1.666555164544317E9, 0.0, 2022-10-23 12:59:24.544
177.0, -59672.27335837762, -87648.3872709736, 33766.78034863238, -11477.240798144436, 73033.76621410444, 43896.68034275536, 5978.264627249793, 9132.81102571619, 0.046, 0.9500000000000001, 0.138, 192.0, 0.0, 0.0, 0.0, 0.0, 0.0, 0.0, 0.0, 0.0, 0.0, 1.666555164544328E9, 0.0, 2022-10-23 12:59:24.544
178.0, -59708.68435009532, -87683.81478593526, 34238.22334268372, -11129.559413142135, 73161.48408192207, 44186.202488684954, 6409.0945016258365, 9757.162303586281, 0.046, 0.9500000000000001, 0.138, 192.0, 0.0, 0.0, 0.0, 0.0, 0.0, 0.0, 0.0, 0.0, 0.0, 1.6665551645443392E9, 0.0, 2022-10-23 12:59:24.544
179.0, -59729.80674860558, -87705.58538503473, 36475.81177661559, -9904.147375124381, 73260.92699300373, 45210.6723440495, 7823.535242502123, 11206.605876279578, 0.046, 0.9500000000000001, 0.138, 192.0, 0.0, 0.0, 0.0, 0.0, 0.0, 0.0, 0.0, 0.0, 0.0, 1.6665551645443504E9, 0.0, 2022-10-23 12:59:24.544
180.0, -59649.49693077766, -87629.41063993104, 35787.579213092235, -10428.675762257071, 73001.3785363887, 44786.525641265594, 7204.704845512491, 10323.533156339307, 0.046, 0.9500000000000001, 0.138, 192.0, 0.0, 0.0, 0.0, 0.0, 0.0, 0.0, 0.0, 0.0, 0.0, 1.666555164544361E9, 0.0, 2022-10-23 12:59:24.544
181.0, -59651.329773823, -87632.71869811043, 33864.50217539098, -11439.868681415162, 73022.12095524323, 43935.862950785515, 6021.559956259723, 9157.219130661384, 0.046, 0.9500000000000001, 0.138, 192.0, 0.0, 0.0, 0.0, 0.0, 0.0, 0.0, 0.0, 0.0, 0.0, 1.666555164544372E9, 0.0, 2022-10-23 12:59:24.544
182.0, -59683.76215502765, -87669.62142820614, 34006.63691838228, -11267.715545620387, 73151.4705004061, 44074.421414663964, 6248.385458992178, 9580.583522389355, 0.052000000000000005, 0.9540000000000001, 0.136, 192.0, 1.0, 160.0, 29.0, 208.0, 4.0, 64.0, 0.0, 0.0, 0.0, 1.6665551650143147E9, 0.0, 2022-10-23 12:59:25.014
183.0, -59731.527832928645, -87714.2578618834, 36138.72511848511, -10067.069240459114, 73287.81614158346, 45081.41220586446, 7642.352001947404, 11055.642194228434, 0.052000000000000005, 0.9540000000000001, 0.136, 192.0, 0.0, 0.0, 0.0, 0.0, 0.0, 0.0, 0.0, 0.0, 0.0, 1.6665551650144048E9, 0.0, 2022-10-23 12:59:25.014
184.0, -59653.632003501894, -87629.76826784233, 36262.01734090058, -10135.554985470175, 73058.64370568321, 45042.453115278855, 7550.463980491636, 10706.35148362535, 0.052000000000000005, 0.9540000000000001, 0.136, 192.0, 0.0, 0.0, 0.0, 0.0, 0.0, 0.0, 0.0, 0.0, 0.0, 1.666555165014454E9, 0.0, 2022-10-23 12:59:25.014
185.0, -59633.023695114105, -87602.2756221623, 34051.56392473745, -11352.853340250653, 72997.9810712315, 44022.45360880537, 6132.290498291314, 9227.291849528772, 0.052000000000000005, 0.9540000000000001, 0.136, 192.0, 0.0, 0.0, 0.0, 0.0, 0.0, 0.0, 0.0, 0.0, 0.0, 1.6665551650145056E9, 0.0, 2022-10-23 12:59:25.014
186.0, -59675.04497469008, -87644.56512267175, 33892.687725149124, -11333.362619085625, 73138.17121245519, 44035.86465547856, 6176.03286219035, 9460.956986064552, 0.052000000000000005, 0.9540000000000001, 0.136, 192.0, 0.0, 0.0, 0.0, 0.0, 0.0, 0.0, 0.0, 0.0, 0.0, 1.666555165014554E9, 0.0, 2022-10-23 12:59:25.014
187.0, -59722.18480374632, -87694.14129187362, 35745.423823049525, -10263.272853287799, 73281.73646709161, 44936.01410818269, 7426.076522597853, 10824.771025749567, 0.052000000000000005, 0.9540000000000001, 0.136, 192.0, 0.0, 0.0, 0.0, 0.0, 0.0, 0.0, 0.0, 0.0, 0.0, 1.666555165014604E9, 0.0, 2022-10-23 12:59:25.014
188.0, -59680.968186970735, -87663.36293975866, 36621.41103999747, -9910.808194972062, 73094.69706948962, 45242.16595198702, 7819.713094200265, 11000.925123801842, 0.052000000000000005, 0.9540000000000001, 0.136, 192.0, 0.0, 0.0, 0.0, 0.0, 0.0, 0.0, 0.0, 0.0, 0.0, 1.6665551650148048E9, 0.0, 2022-10-23 12:59:25.014
189.0, -59648.87108193291, -87624.20268347296, 34301.098799836494, -11243.195681952917, 72936.9161053796, 44122.96940362089, 6265.596302222765, 9314.84363256021, 0.052000000000000005, 0.9540000000000001, 0.136, 192.0, 0.0, 0.0, 0.0, 0.0, 0.0, 0.0, 0.0, 0.0, 0.0, 1.666555165014862E9, 0.0, 2022-10-23 12:59:25.014
190.0, -59682.46575384924, -87656.16567804405, 33780.9737063615, -11422.300210273292, 73089.55616826488, 43962.7297476208, 6069.280930671804, 9303.60070509919, 0.052000000000000005, 0.9540000000000001, 0.136, 192.0, 0.0, 0.0, 0.0, 0.0, 0.0, 0.0, 0.0, 0.0, 0.0, 1.6665551650149124E9, 0.0, 2022-10-23 12:59:25.014
191.0, -59713.48997515321, -87686.69816097, 35253.28311363258, -10546.983545659012, 73250.10874868736, 44694.727026787645, 7101.238620428875, 10489.40545194214, 0.052000000000000005, 0.9540000000000001, 0.136, 192.0, 0.0, 0.0, 0.0, 0.0, 0.0, 0.0, 0.0, 0.0, 0.0, 1.6665551650149574E9, 0.0, 2022-10-23 12:59:25.014
192.0, -59680.23057940371, -87662.04418683579, 36778.18617560699, -9803.385711119856, 73164.32275346789, 45322.162845392566, 7945.843988161563, 11188.97034990434, 0.056, 0.9500000000000001, 0.132, 192.0, 1.0, 192.0, 29.0, 176.0, 4.0, 32.0, 0.0, 0.0, 0.0, 1.6665551650150237E9, 0.0, 2022-10-23 12:59:25.015
193.0, -59629.313305534524, -87608.84703503216, 34637.939588777976, -11066.818066456088, 72945.78974792836, 44275.00596940589, 6471.56762737842, 9519.675018748643, 0.056, 0.9500000000000001, 0.132, 192.0, 0.0, 0.0, 0.0, 0.0, 0.0, 0.0, 0.0, 0.0, 0.0, 1.666555165015078E9, 0.0, 2022-10-23 12:59:25.015
194.0, -59662.37153558392, -87640.00536680286, 33726.100173723724, -11470.490571318935, 73075.76514193596, 43922.720125045795, 6004.840851407153, 9214.841927867166, 0.056, 0.9500000000000001, 0.132, 192.0, 0.0, 0.0, 0.0, 0.0, 0.0, 0.0, 0.0, 0.0, 0.0, 1.666555165015134E9, 0.0, 2022-10-23 12:59:25.015
195.0, -59706.2927134386, -87679.92558240004, 34828.55526549283, -10780.536923472515, 73236.07185316943, 44502.054989582895, 6825.127521172467, 10207.460547382898, 0.056, 0.9500000000000001, 0.132, 192.0, 0.0, 0.0, 0.0, 0.0, 0.0, 0.0, 0.0, 0.0, 0.0, 1.6665551650151896E9, 0.0, 2022-10-23 12:59:25.015
196.0, -59708.796108817594, -87680.5961347337, 36798.749780505874, -9762.59377748892, 73211.1273063573, 45350.14722945062, 7988.312302626647, 11287.94387435244, 0.056, 0.9500000000000001, 0.132, 192.0, 0.0, 0.0, 0.0, 0.0, 0.0, 0.0, 0.0, 0.0, 0.0, 1.6665551650152383E9, 0.0, 2022-10-23 12:59:25.015
197.0, -59642.36672429642, -87617.51951188082, 35028.33515743437, -10859.013898255098, 72951.69060846456, 44439.17953243012, 6707.46793835973, 9762.370260044368, 0.056, 0.9500000000000001, 0.132, 192.0, 0.0, 0.0, 0.0, 0.0, 0.0, 0.0, 0.0, 0.0, 0.0, 1.66655516501529E9, 0.0, 2022-10-23 12:59:25.015
198.0, -59670.30640486556, -87636.80906734575, 33735.44320290604, -11475.542065565833, 73065.93037437563, 43911.812473751605, 5986.981807587363, 9157.934386483954, 0.056, 0.9500000000000001, 0.132, 192.0, 0.0, 0.0, 0.0, 0.0, 0.0, 0.0, 0.0, 0.0, 0.0, 1.6665551650153377E9, 0.0, 2022-10-23 12:59:25.015
199.0, -59709.62312336244, -87673.53298348583, 34436.95270263585, -11007.049501782598, 73198.65503295124, 44297.87180398367, 6556.660718519774, 9915.546764796587, 0.056, 0.9500000000000001, 0.132, 192.0, 0.0, 0.0, 0.0, 0.0, 0.0, 0.0, 0.0, 0.0, 0.0, 1.666555165015369E9, 0.0, 2022-10-23 12:59:25.015
200.0, -59723.23533573572, -87696.64468725261, 36650.73652872283, -9815.433301381267, 73261.12815870382, 45291.29508629979, 7924.8109966291195, 11276.589188169144, 0.056, 0.9500000000000001, 0.132, 192.0, 0.0, 0.0, 0.0, 0.0, 0.0, 0.0, 0.0, 0.0, 0.0, 1.6665551650153997E9, 0.0, 2022-10-23 12:59:25.015
201.0, -59639.14807309486, -87620.93932878248, 35493.72082873831, -10591.776441547447, 72982.11133266822, 44656.907875169265, 7015.117349042577, 10098.249923974266, 0.054, 0.9460000000000001, 0.124, 192.0, 1.0, 176.0, 29.0, 144.0, 3.0, 224.0, 0.0, 0.0, 0.0, 1.6665551650154302E9, 0.0, 2022-10-23 12:59:25.015
202.0, -59661.85744546145, -87636.92082606803, 33798.251604825455, -11459.26999560237, 73035.33083621632, 43924.955299491325, 6001.823365905687, 9143.361049099094, 0.054, 0.9460000000000001, 0.124, 192.0, 0.0, 0.0, 0.0, 0.0, 0.0, 0.0, 0.0, 0.0, 0.0, 1.6665551650154636E9, 0.0, 2022-10-23 12:59:25.015
203.0, -59691.875838264925, -87662.75944265837, 34160.70749291271, -11166.730364171312, 73163.27222147849, 44166.33178786418, 6366.179152271647, 9699.695968591686, 0.054, 0.9460000000000001, 0.124, 192.0, 0.0, 0.0, 0.0, 0.0, 0.0, 0.0, 0.0, 0.0, 0.0, 1.6665551650154948E9, 0.0, 2022-10-23 12:59:25.015
204.0, -59725.42580669234, -87706.03241992384, 36386.695371472284, -9933.428160360832, 73275.63444085533, 45194.69084676395, 7787.9289135848185, 11167.982061860808, 0.054, 0.9460000000000001, 0.124, 192.0, 0.0, 0.0, 0.0, 0.0, 0.0, 0.0, 0.0, 0.0, 0.0, 1.6665551650155785E9, 0.0, 2022-10-23 12:59:25.015
205.0, -59650.078076133505, -87634.99857604488, 35991.53888124691, -10290.430222800996, 73016.17539121812, 44917.86449168497, 7361.547036355381, 10465.779658052881, 0.054, 0.9460000000000001, 0.124, 192.0, 0.0, 0.0, 0.0, 0.0, 0.0, 0.0, 0.0, 0.0, 0.0, 1.6665551650156095E9, 0.0, 2022-10-23 12:59:25.015
206.0, -59643.90899466384, -87624.06857300623, 33936.09481288133, -11395.075785526727, 73004.68659456809, 43989.10480607806, 6071.717270817432, 9164.326985398173, 0.054, 0.9460000000000001, 0.124, 192.0, 0.0, 0.0, 0.0, 0.0, 0.0, 0.0, 0.0, 0.0, 0.0, 1.66655516501564E9, 0.0, 2022-10-23 12:59:25.015
207.0, -59682.6892712938, -87658.60201818967, 33970.02476096449, -11275.449249201924, 73149.83882306085, 44084.2561822243, 6232.85099659574, 9523.810091472877, 0.054, 0.9460000000000001, 0.124, 192.0, 0.0, 0.0, 0.0, 0.0, 0.0, 0.0, 0.0, 0.0, 0.0, 1.6665551650156703E9, 0.0, 2022-10-23 12:59:25.015
208.0, -59726.23046949274, -87701.00327742139, 36021.221997883564, -10105.804813600162, 73290.76657185156, 45067.978807446816, 7589.668940266245, 10973.186608932807, 0.054, 0.9460000000000001, 0.124, 192.0, 0.0, 0.0, 0.0, 0.0, 0.0, 0.0, 0.0, 0.0, 0.0, 1.6665551650157003E9, 0.0, 2022-10-23 12:59:25.015
209.0, -59655.28603259159, -87639.7371458694, 36343.89178084037, -10074.288853918179, 73061.46002548457, 45105.529738131736, 7615.306391156482, 10756.911129583255, 0.054, 0.9460000000000001, 0.124, 192.0, 0.0, 0.0, 0.0, 0.0, 0.0, 0.0, 0.0, 0.0, 0.0, 1.6665551650157304E9, 0.0, 2022-10-23 12:59:25.015
210.0, -59638.90220390585, -87624.40384917306, 34054.58141023891, -11348.360639615135, 72976.0763616653, 44039.15036191349, 6129.87650989014, 9190.322064199694, 0.054, 0.9460000000000001, 0.124, 192.0, 0.0, 0.0, 0.0, 0.0, 0.0, 0.0, 0.0, 0.0, 0.0, 1.666555165015762E9, 0.0, 2022-10-23 12:59:25.015
211.0, -59678.01775670263, -87661.82066939124, 33770.11075855622, -11395.947503560485, 73118.2558081455, 43986.44494848787, 6088.68224485901, 9347.857159120698, 0.05, 0.9560000000000001, 0.13, 192.0, 1.0, 144.0, 29.0, 224.0, 4.0, 16.0, 0.0, 0.0, 0.0, 1.666555165015792E9, 0.0, 2022-10-23 12:59:25.015
212.0, -59711.63478036342, -87699.52806228734, 35489.33988682507, -10394.946979874014, 73277.02024901155, 44818.84626374797, 7259.421915939083, 10657.177645823676, 0.05, 0.9560000000000001, 0.13, 192.0, 0.0, 0.0, 0.0, 0.0, 0.0, 0.0, 0.0, 0.0, 0.0, 1.6665551650158253E9, 0.0, 2022-10-23 12:59:25.015
213.0, -59667.17716064181, -87652.63410242011, 36613.02913582673, -9889.059947617048, 73143.51327938, 45251.978367802905, 7829.726675716242, 11040.107731831997, 0.05, 0.9560000000000001, 0.13, 192.0, 0.0, 0.0, 0.0, 0.0, 0.0, 0.0, 0.0, 0.0, 0.0, 1.6665551650158553E9, 0.0, 2022-10-23 12:59:25.015
214.0, -59623.99359035416, -87605.38251464159, 34342.60598929, -11196.189963363406, 72977.66333552162, 44164.56600005222, 6308.824575999329, 9363.548083728325, 0.05, 0.9560000000000001, 0.13, 192.0, 0.0, 0.0, 0.0, 0.0, 0.0, 0.0, 0.0, 0.0, 0.0, 1.6665551650158937E9, 0.0, 2022-10-23 12:59:25.015
215.0, -59655.21897735822, -87631.10937250964, 33705.3577548692, -11432.939640634018, 73127.33061639436, 43958.48291617429, 6043.934052459485, 9275.88454197461, 0.05, 0.9560000000000001, 0.13, 192.0, 0.0, 0.0, 0.0, 0.0, 0.0, 0.0, 0.0, 0.0, 0.0, 1.6665551650159347E9, 0.0, 2022-10-23 12:59:25.015
216.0, -59715.18870773181, -87688.01691389286, 35029.430392912676, -10642.24668052753, 73259.71999880315, 44619.20048227316, 6985.613046361572, 10381.29006401182, 0.05, 0.9560000000000001, 0.13, 192.0, 0.0, 0.0, 0.0, 0.0, 0.0, 0.0, 0.0, 0.0, 0.0, 1.6665551650159757E9, 0.0, 2022-10-23 12:59:25.015
217.0, -59694.22277143273, -87670.04611135079, 36728.45354419393, -9793.282722626058, 73191.03308809198, 45338.233749655934, 7956.461066777834, 11226.744798033811, 0.05, 0.9560000000000001, 0.13, 192.0, 0.0, 0.0, 0.0, 0.0, 0.0, 0.0, 0.0, 0.0, 0.0, 1.6665551650160232E9, 0.0, 2022-10-23 12:59:25.016
218.0, -59624.41827349881, -87603.7731890408, 34701.57500524223, -10998.89111505641, 72971.85188196324, 44343.379955694676, 6551.318651594956, 9602.04119706645, 0.05, 0.9560000000000001, 0.13, 192.0, 0.0, 0.0, 0.0, 0.0, 0.0, 0.0, 0.0, 0.0, 0.0, 1.6665551650160651E9, 0.0, 2022-10-23 12:59:25.016
219.0, -59663.89145420688, -87642.35229997066, 33654.06050134427, -11480.012414456894, 73081.21896758306, 43927.39163963695, 5998.448252492935, 9191.841982822656, 0.05, 0.9560000000000001, 0.13, 192.0, 0.0, 0.0, 0.0, 0.0, 0.0, 0.0, 0.0, 0.0, 0.0, 1.6665551650161724E9, 0.0, 2022-10-23 12:59:25.016
220.0, -59709.31019894007, -87685.69233246951, 34599.963974948405, -10883.53376192257, 73211.5296377575, 44423.622718289225, 6716.542746608585, 10089.37628142551, 0.05, 0.9560000000000001, 0.13, 192.0, 0.0, 0.0, 0.0, 0.0, 0.0, 0.0, 0.0, 0.0, 0.0, 1.6665551650161984E9, 0.0, 2022-10-23 12:59:25.016
221.0, -59704.92925702683, -87685.6476289806, 36719.37873594508, -9757.40817277529, 73237.21179213664, 45373.28128496186, 8005.567849346144, 11320.28684857927, 0.048, 0.9460000000000001, 0.134, 192.0, 1.0, 128.0, 29.0, 144.0, 4.0, 48.0, 0.0, 0.0, 0.0, 1.66655516501621E9, 0.0, 2022-10-23 12:59:25.016
222.0, -59621.0208083416, -87607.30476466475, 35151.00153100509, -10747.590452145392, 72966.44275980505, 44562.807031012424, 6850.608509851517, 9905.600238513976, 0.048, 0.9460000000000001, 0.134, 192.0, 0.0, 0.0, 0.0, 0.0, 0.0, 0.0, 0.0, 0.0, 0.0, 1.6665551650162225E9, 0.0, 2022-10-23 12:59:25.016
223.0, -59635.72825619319, -87616.82660780271, 33684.436522059026, -11480.41474585709, 73055.20153703708, 43933.11368621751, 5998.5600112152115, 9157.420296361483, 0.048, 0.9460000000000001, 0.134, 192.0, 0.0, 0.0, 0.0, 0.0, 0.0, 0.0, 0.0, 0.0, 0.0, 1.666555165016236E9, 0.0, 2022-10-23 12:59:25.016
224.0, -59670.93225371031, -87650.37657623012, 34239.69855781776, -11095.405947614427, 73187.34505025686, 44243.400602746085, 6474.026319268503, 9832.264164956114, 0.048, 0.9460000000000001, 0.134, 192.0, 0.0, 0.0, 0.0, 0.0, 0.0, 0.0, 0.0, 0.0, 0.0, 1.6665551650162475E9, 0.0, 2022-10-23 12:59:25.016
225.0, -59702.60467560348, -87683.5018615129, 36473.5095469367, -9882.95792138075, 73271.83464429792, 45252.20188524746, 7870.719775047276, 11244.246213942315, 0.048, 0.9460000000000001, 0.134, 192.0, 0.0, 0.0, 0.0, 0.0, 0.0, 0.0, 0.0, 0.0, 0.0, 1.666555165016259E9, 0.0, 2022-10-23 12:59:25.016
226.0, -59640.55623299554, -87625.76730558483, 35555.836326579614, -10529.79505417288, 72987.34164087077, 44732.4567714282, 7113.912059535034, 10210.366274162088, 0.048, 0.9460000000000001, 0.134, 192.0, 0.0, 0.0, 0.0, 0.0, 0.0, 0.0, 0.0, 0.0, 0.0, 1.6665551650162706E9, 0.0, 2022-10-23 12:59:25.016
227.0, -59646.09946562046, -87627.06370676323, 33748.78719434586, -11462.801571226308, 73029.27351346893, 43949.09518350306, 6024.599793505645, 9154.447514348927, 0.048, 0.9460000000000001, 0.134, 192.0, 0.0, 0.0, 0.0, 0.0, 0.0, 0.0, 0.0, 0.0, 0.0, 1.666555165016282E9, 0.0, 2022-10-23 12:59:25.016
228.0, -59681.28111139311, -87654.62340767663, 34030.03919482698, -11204.16953613395, 73175.52097744, 44165.25890413033, 6349.951785797094, 9670.05755544395, 0.048, 0.9460000000000001, 0.134, 192.0, 0.0, 0.0, 0.0, 0.0, 0.0, 0.0, 0.0, 0.0, 0.0, 1.6665551650162935E9, 0.0, 2022-10-23 12:59:25.016
229.0, -59725.023475292146, -87695.32593432974, 36196.05734301297, -10000.483393726754, 73280.93180429123, 45164.9630266384, 7743.739514796676, 11122.608020616535, 0.048, 0.9460000000000001, 0.134, 192.0, 0.0, 0.0, 0.0, 0.0, 0.0, 0.0, 0.0, 0.0, 0.0, 1.6665551650163052E9, 0.0, 2022-10-23 12:59:25.016
230.0, -59651.955622667745, -87622.45924740545, 36042.210285927096, -10228.672352870984, 73036.44842343908, 44989.9712192978, 7469.8412382413435, 10581.785211775925, 0.048, 0.9460000000000001, 0.134, 192.0, 0.0, 0.0, 0.0, 0.0, 0.0, 0.0, 0.0, 0.0, 0.0, 1.6665551650163167E9, 0.0, 2022-10-23 12:59:25.016
231.0, -59632.263735802626, -87599.81693027222, 33896.398114728705, -11397.579180905723, 73010.90037952666, 44003.678143462916, 6105.960143322962, 9186.969302531399, 0.046, 0.9460000000000001, 0.13, 192.0, 1.0, 112.0, 29.0, 144.0, 4.0, 16.0, 0.0, 0.0, 0.0, 1.6665551650163279E9, 0.0, 2022-10-23 12:59:25.016
232.0, -59682.42105036033, -87646.19680001699, 33843.960922236554, -11323.438444547468, 73154.33152369637, 44059.177524945444, 6215.5060428984225, 9495.333969036814, 0.046, 0.9460000000000001, 0.13, 192.0, 0.0, 0.0, 0.0, 0.0, 0.0, 0.0, 0.0, 0.0, 0.0, 1.66655516501634E9, 0.0, 2022-10-23 12:59:25.016
233.0, -59739.64151616592, -87706.45710306849, 35785.79107353581, -10223.978486535369, 73277.93667053423, 44978.75064358123, 7500.306665933927, 10886.8194683575, 0.046, 0.9460000000000001, 0.13, 192.0, 0.0, 0.0, 0.0, 0.0, 0.0, 0.0, 0.0, 0.0, 0.0, 1.6665551650163517E9, 0.0, 2022-10-23 12:59:25.016
234.0, -59677.39190785789, -87650.62244541913, 36437.12090696346, -9999.70108267082, 73087.6562699862, 45181.68213149096, 7747.136979953883, 10905.594933699958, 0.046, 0.9460000000000001, 0.13, 192.0, 0.0, 0.0, 0.0, 0.0, 0.0, 0.0, 0.0, 0.0, 0.0, 1.666555165016363E9, 0.0, 2022-10-23 12:59:25.016
235.0, -59632.80017766955, -87606.54480535326, 34150.872725352376, -11292.682444176966, 72976.38928608767, 44094.58268816265, 6238.841264109763, 9289.7426235369, 0.046, 0.9460000000000001, 0.13, 192.0, 0.0, 0.0, 0.0, 0.0, 0.0, 0.0, 0.0, 0.0, 0.0, 1.6665551650163863E9, 0.0, 2022-10-23 12:59:25.016
236.0, -59678.57655031402, -87652.81291637575, 33804.91242467313, -11364.789171789787, 73138.43943338864, 44028.93561469742, 6164.924045196062, 9401.590752791257, 0.046, 0.9460000000000001, 0.13, 192.0, 0.0, 0.0, 0.0, 0.0, 0.0, 0.0, 0.0, 0.0, 0.0, 1.6665551650163977E9, 0.0, 2022-10-23 12:59:25.016
237.0, -59716.77568158814, -87698.83515820923, 35446.24572351524, -10399.663197954083, 73278.58487112343, 44842.40500240386, 7298.984503624976, 10665.53719824996, 0.046, 0.9460000000000001, 0.13, 192.0, 0.0, 0.0, 0.0, 0.0, 0.0, 0.0, 0.0, 0.0, 0.0, 1.6665551650164092E9, 0.0, 2022-10-23 12:59:25.016
238.0, -59691.473506864735, -87676.70693119848, 36799.84501598418, -9767.578216502454, 73148.3189044379, 45384.50186067842, 8018.598916363588, 11202.157879132972, 0.046, 0.9460000000000001, 0.13, 192.0, 0.0, 0.0, 0.0, 0.0, 0.0, 0.0, 0.0, 0.0, 0.0, 1.6665551650164216E9, 0.0, 2022-10-23 12:59:25.016
239.0, -59630.81087241303, -87609.65169783255, 34599.74045750385, -11050.680106959357, 72965.79455921585, 44319.86592052769, 6520.987334369103, 9513.707102979077, 0.046, 0.9460000000000001, 0.13, 192.0, 0.0, 0.0, 0.0, 0.0, 0.0, 0.0, 0.0, 0.0, 0.0, 1.6665551650164337E9, 0.0, 2022-10-23 12:59:25.016
240.0, -59681.66109104885, -87639.87125633613, 33808.533407274896, -11389.465497668445, 73107.9516539516, 44016.99978315828, 6134.302155292292, 9293.251847416383, 0.056, 0.9460000000000001, 0.122, 192.0, 1.0, 192.0, 29.0, 144.0, 3.0, 208.0, 0.0, 0.0, 0.0, 1.6665551650164447E9, 0.0, 2022-10-23 12:59:25.016
241.0, -59726.901021826394, -87675.0976055977, 35019.282700929965, -10654.026049855478, 73252.3439231329, 44629.90696786725, 7008.031846050245, 10333.90436576657, 0.056, 0.9460000000000001, 0.122, 192.0, 0.0, 0.0, 0.0, 0.0, 0.0, 0.0, 0.0, 0.0, 0.0, 1.6665551650164564E9, 0.0, 2022-10-23 12:59:25.016
242.0, -59715.88161180993, -87672.54950672979, 36849.89057181961, -9729.40143697279, 73210.54616100148, 45400.70687540852, 8062.967129107372, 11289.173220297484, 0.056, 0.9460000000000001, 0.122, 192.0, 0.0, 0.0, 0.0, 0.0, 0.0, 0.0, 0.0, 0.0, 0.0, 1.6665551650164676E9, 0.0, 2022-10-23 12:59:25.016
243.0, -59646.23357608719, -87608.06472397623, 34970.82411895086, -10861.606700611914, 72974.64585002016, 44471.88013456824, 6739.945023053292, 9729.110864294871, 0.056, 0.9460000000000001, 0.122, 192.0, 0.0, 0.0, 0.0, 0.0, 0.0, 0.0, 0.0, 0.0, 0.0, 1.6665551650164783E9, 0.0, 2022-10-23 12:59:25.016
244.0, -59672.40746884436, -87626.52726489631, 33792.39544777816, -11418.612172438166, 73072.36767677875, 43993.23987880229, 6095.231305984415, 9211.399759221049, 0.056, 0.9460000000000001, 0.122, 192.0, 0.0, 0.0, 0.0, 0.0, 0.0, 0.0, 0.0, 0.0, 0.0, 1.6665551650164895E9, 0.0, 2022-10-23 12:59:25.016
245.0, -59711.27715245213, -87652.32117799774, 34609.91050123102, -10891.513334693114, 73209.8756086678, 44428.36128811375, 6735.80995032906, 10034.726266232285, 0.056, 0.9460000000000001, 0.122, 192.0, 0.0, 0.0, 0.0, 0.0, 0.0, 0.0, 0.0, 0.0, 0.0, 1.6665551650165005E9, 0.0, 2022-10-23 12:59:25.016
246.0, -59716.75332984368, -87665.95574211548, 36799.64385028408, -9719.656076390276, 73246.44306259669, 45412.28507903637, 8078.211018825891, 11338.168244143515, 0.056, 0.9460000000000001, 0.122, 192.0, 0.0, 0.0, 0.0, 0.0, 0.0, 0.0, 0.0, 0.0, 0.0, 1.6665551650165112E9, 0.0, 2022-10-23 12:59:25.016
247.0, -59636.152939337844, -87611.7304100669, 35438.78024086717, -10599.800717806902, 72985.70996352553, 44695.26346865457, 7049.606090737116, 10037.989620922759, 0.056, 0.9460000000000001, 0.122, 192.0, 0.0, 0.0, 0.0, 0.0, 0.0, 0.0, 0.0, 0.0, 0.0, 1.666555165016522E9, 0.0, 2022-10-23 12:59:25.016
248.0, -59677.6377770469, -87653.81874487625, 33886.51864367946, -11378.088459740695, 73063.22581329654, 44039.552693313686, 6141.879396662641, 9203.44253819496, 0.056, 0.9460000000000001, 0.122, 192.0, 0.0, 0.0, 0.0, 0.0, 0.0, 0.0, 0.0, 0.0, 0.0, 1.6665551650165331E9, 0.0, 2022-10-23 12:59:25.016
249.0, -59723.72707411374, -87698.94691693151, 34365.65063782342, -11027.903679359399, 73185.2216345336, 44333.54518813434, 6574.989148973125, 9822.295286929046, 0.056, 0.9460000000000001, 0.122, 192.0, 0.0, 0.0, 0.0, 0.0, 0.0, 0.0, 0.0, 0.0, 0.0, 1.666555165016544E9, 0.0, 2022-10-23 12:59:25.016
250.0, -59752.78434190564, -87725.09845794422, 36579.56857437713, -9827.369132920401, 73269.51006287457, 45327.01317393937, 7954.963499899328, 11234.523205104257, 0.054, 0.9560000000000001, 0.124, 192.0, 1.0, 176.0, 29.0, 224.0, 3.0, 224.0, 0.0, 0.0, 0.0, 1.666555165016565E9, 0.0, 2022-10-23 12:59:25.016
251.0, -59678.19657065828, -87648.02964306231, 35917.06286872183, -10333.367923899643, 73010.29688242637, 44918.602099252, 7353.12042869573, 10359.564168401263, 0.054, 0.9560000000000001, 0.124, 192.0, 0.0, 0.0, 0.0, 0.0, 0.0, 0.0, 0.0, 0.0, 0.0, 1.6665551650165772E9, 0.0, 2022-10-23 12:59:25.016
252.0, -59689.931236497316, -87667.11803282714, 33993.851720553845, -11342.348020356658, 73025.42901342262, 44073.01325476328, 6171.495458065922, 9183.39302341855, 0.054, 0.9560000000000001, 0.124, 192.0, 0.0, 0.0, 0.0, 0.0, 0.0, 0.0, 0.0, 0.0, 0.0, 1.6665551650165884E9, 0.0, 2022-10-23 12:59:25.016
253.0, -59732.556013173584, -87712.91675721607, 34129.9067890533, -11173.637053208, 73158.35483769832, 44206.631983117106, 6389.112042082792, 9598.688435398155, 0.054, 0.9560000000000001, 0.124, 192.0, 0.0, 0.0, 0.0, 0.0, 0.0, 0.0, 0.0, 0.0, 0.0, 1.6665551650166004E9, 0.0, 2022-10-23 12:59:25.016
254.0, -59776.81246719509, -87753.14989723562, 36217.09033454541, -10010.921658387382, 73277.6460978563, 45172.71908196439, 7737.0339914600845, 11032.910470117387, 0.054, 0.9560000000000001, 0.124, 192.0, 0.0, 0.0, 0.0, 0.0, 0.0, 0.0, 0.0, 0.0, 0.0, 1.666555165016612E9, 0.0, 2022-10-23 12:59:25.016
255.0, -59699.1401552129, -87681.15492834509, 36343.355338973444, -10083.251903444756, 73051.40174047968, 45126.60743315309, 7638.663964112278, 10684.78205022598, 0.054, 0.9560000000000001, 0.124, 192.0, 0.0, 0.0, 0.0, 0.0, 0.0, 0.0, 0.0, 0.0, 0.0, 1.6665551650166233E9, 0.0, 2022-10-23 12:59:25.016
0.0, -59689.350091141474, -87669.97905611743, 34133.9077513108, -11299.969112869396, 72993.66718455162, 44105.24447026783, 6219.238784222458, 9208.337570230671, 0.054, 0.9560000000000001, 0.124, 192.0, 0.0, 0.0, 0.0, 0.0, 0.0, 0.0, 0.0, 0.0, 0.0, 1.666555165016635E9, 0.0, 2022-10-23 12:59:25.016
1.0, -59731.25961199518, -87711.44154208203, 33956.23373463556, -11294.7164529224, 73124.06726170388, 44099.96945857638, 6243.1551507896365, 9424.635401324678, 0.054, 0.9560000000000001, 0.124, 192.0, 0.0, 0.0, 0.0, 0.0, 0.0, 0.0, 0.0, 0.0, 0.0, 1.666555165016646E9, 0.0, 2022-10-23 12:59:25.016
2.0, -59773.66087122689, -87751.65233035712, 35780.76193103337, -10246.464341457407, 73266.44787388419, 44973.92266677888, 7467.069621928886, 10769.249292522585, 0.054, 0.9560000000000001, 0.124, 192.0, 0.0, 0.0, 0.0, 0.0, 0.0, 0.0, 0.0, 0.0, 0.0, 1.6665551650166583E9, 0.0, 2022-10-23 12:59:25.016
3.0, -59712.797071075096, -87698.90221344259, 36673.043569689224, -9878.733441678696, 73110.56680805288, 45292.01034212236, 7876.866504772485, 10971.532579843115, 0.054, 0.9560000000000001, 0.124, 192.0, 0.0, 0.0, 0.0, 0.0, 0.0, 0.0, 0.0, 0.0, 0.0, 1.666555165016671E9, 0.0, 2022-10-23 12:59:25.016
4.0, -59663.5338262956, -87648.25316050687, 34405.72731563179, -11162.215311791339, 72986.8275507483, 44225.18393101501, 6376.885637865739, 9341.889243351132, 0.056, 0.9540000000000001, 0.122, 192.0, 1.0, 192.0, 29.0, 208.0, 3.0, 208.0, 0.0, 0.0, 0.0, 1.666555165016682E9, 0.0, 2022-10-23 12:59:25.016
5.0, -59711.83594606352, -87684.10535861319, 33863.7422160795, -11360.38587813209, 73115.37243311077, 44043.643062549, 6157.257396847892, 9309.412158657571, 0.056, 0.9540000000000001, 0.122, 192.0, 0.0, 0.0, 0.0, 0.0, 0.0, 0.0, 0.0, 0.0, 0.0, 1.666555165016694E9, 0.0, 2022-10-23 12:59:25.016
6.0, -59771.02336538117, -87737.10134471672, 35310.30241373806, -10509.209097529543, 73253.48386210011, 44750.38287048136, 7163.018842103344, 10470.69704183305, 0.056, 0.9540000000000001, 0.122, 192.0, 0.0, 0.0, 0.0, 0.0, 0.0, 0.0, 0.0, 0.0, 0.0, 1.6665551650167053E9, 0.0, 2022-10-23 12:59:25.016
7.0, -59744.938879601825, -87717.63297529615, 36866.16264178308, -9743.371277257356, 73165.28387847947, 45401.95857309802, 8033.2840124707245, 11193.552457517679, 0.056, 0.9540000000000001, 0.122, 192.0, 0.0, 0.0, 0.0, 0.0, 0.0, 0.0, 0.0, 0.0, 0.0, 1.666555165016716E9, 0.0, 2022-10-23 12:59:25.016
8.0, -59677.39190785789, -87654.75751814336, 34715.72365948244, -11015.811385609077, 72946.7732246844, 44342.77645859438, 6547.96588992666, 9508.074463376339, 0.056, 0.9540000000000001, 0.122, 192.0, 0.0, 0.0, 0.0, 0.0, 0.0, 0.0, 0.0, 0.0, 0.0, 1.666555165016727E9, 0.0, 2022-10-23 12:59:25.016
9.0, -59706.91856228335, -87676.5951724762, 33780.146691816655, -11435.018352868361, 73090.89727293221, 43970.9775413248, 6066.375203892613, 9189.427994421481, 0.056, 0.9540000000000001, 0.122, 192.0, 0.0, 0.0, 0.0, 0.0, 0.0, 0.0, 0.0, 0.0, 0.0, 1.6665551650167384E9, 0.0, 2022-10-23 12:59:25.016
10.0, -59751.48794072723, -87727.15481843411, 34850.41527157012, -10773.496123969093, 73237.90469621477, 44517.723562446066, 6857.872826799492, 10161.170084615957, 0.056, 0.9540000000000001, 0.122, 192.0, 0.0, 0.0, 0.0, 0.0, 0.0, 0.0, 0.0, 0.0, 0.0, 1.6665551650167596E9, 0.0, 2022-10-23 12:59:25.016
