%OpenBCI Raw EEG Data
%Number of channels = 8
%Sample Rate = 250 Hz
%Board = OpenBCI_GUI$BoardCytonSerial
Sample Index, EXG Channel 0, EXG Channel 1, EXG Channel 2, EXG Channel 3, EXG Channel 4, EXG Channel 5, EXG Channel 6, EXG Channel 7, Accel Channel 0, Accel Channel 1, Accel Channel 2, Other, Other, Other, Other, Other, Other, Other, Analog Channel 0, Analog Channel 1, Analog Channel 2, Timestamp, Other, Timestamp (Formatted)
107.0, -69618.68788226698, -101344.10576154063, 53706.68217023399, 11146.54673892817, 86227.24100676073, 70695.90785454605, 29396.991955875394, 19009.510458649453, 0.0, 0.0, 0.0, 192.0, 0.0, 0.0, 0.0, 0.0, 0.0, 0.0, 0.0, 0.0, 0.0, 1.6665554935740004E9, 0.0, 2022-10-23 13:04:53.574
108.0, -69670.7450951034, -101394.5312970318, 55816.3739223926, 12252.868682488046, 86499.8652338821, 71632.33418850115, 30760.604829860313, 20441.4749671787, 0.0, 0.0, 0.0, 192.0, 0.0, 0.0, 0.0, 0.0, 0.0, 0.0, 0.0, 0.0, 0.0, 1.6665554935740228E9, 0.0, 2022-10-23 13:04:53.574
109.0, -69600.51591402483, -101333.06399977971, 55944.71763905497, 12115.96424769929, 86228.51505619468, 71573.72791453933, 30686.50879699097, 20150.187033437138, 0.024, 0.9480000000000001, 0.106, 192.0, 0.0, 192.0, 29.0, 160.0, 3.0, 80.0, 0.0, 0.0, 0.0, 1.6665554935740335E9, 0.0, 2022-10-23 13:04:53.574
110.0, -69581.38282077108, -101310.53344136875, 53752.2350254339, 10999.60637087898, 85989.46314924517, 70620.20249607593, 29284.89795743203, 18696.876608953073, 0.024, 0.9480000000000001, 0.106, 192.0, 0.0, 0.0, 0.0, 0.0, 0.0, 0.0, 0.0, 0.0, 0.0, 1.6665554935740516E9, 0.0, 2022-10-23 13:04:53.574
111.0, -69622.04064393528, -101348.35259298714, 53613.14011968853, 11086.085270176563, 86182.22459342773, 70659.29569712827, 29325.399318385043, 18898.60110266222, 0.024, 0.9480000000000001, 0.106, 192.0, 0.0, 0.0, 0.0, 0.0, 0.0, 0.0, 0.0, 0.0, 0.0, 1.666555493574066E9, 0.0, 2022-10-23 13:04:53.574
112.0, -69664.71012410047, -101390.55268651876, 55457.98605179621, 12089.29861656411, 86468.72925385585, 71499.29660550316, 30545.648103433625, 20223.14312733926, 0.024, 0.9480000000000001, 0.106, 192.0, 0.0, 0.0, 0.0, 0.0, 0.0, 0.0, 0.0, 0.0, 0.0, 1.6665554935740807E9, 0.0, 2022-10-23 13:04:53.574
113.0, -69609.94835018496, -101340.59653766114, 56372.08299304044, 12368.58366353317, 86321.11833347302, 71785.66715546456, 30976.92501269877, 20474.82376990602, 0.024, 0.9480000000000001, 0.106, 192.0, 0.0, 0.0, 0.0, 0.0, 0.0, 0.0, 0.0, 0.0, 0.0, 1.666555493574095E9, 0.0, 2022-10-23 13:04:53.574
114.0, -69562.9649833399, -101294.32842663866, 54085.47718351808, 11131.056980020641, 85977.92964910623, 70741.3489510237, 29462.996657251915, 18846.745055525906, 0.024, 0.9480000000000001, 0.106, 192.0, 0.0, 0.0, 0.0, 0.0, 0.0, 0.0, 0.0, 0.0, 0.0, 1.6665554935741076E9, 0.0, 2022-10-23 13:04:53.574
115.0, -69613.05524266425, -101341.78118011728, 53572.7952209467, 11019.99116182222, 86134.81654343804, 70602.99165284535, 29255.818337895675, 18787.3341187637, 0.024, 0.9480000000000001, 0.106, 192.0, 0.0, 0.0, 0.0, 0.0, 0.0, 0.0, 0.0, 0.0, 0.0, 1.6665554935741184E9, 0.0, 2022-10-23 13:04:53.574
116.0, -69662.05026651028, -101388.00458765085, 55041.66245957166, 11859.187407396723, 86410.90529094999, 71298.9802716947, 30269.71581813286, 19922.914495815578, 0.024, 0.9480000000000001, 0.106, 192.0, 0.0, 0.0, 0.0, 0.0, 0.0, 0.0, 0.0, 0.0, 0.0, 1.6665554935741289E9, 0.0, 2022-10-23 13:04:53.574
117.0, -69629.41671960554, -101362.18832280497, 56592.09121371403, 12510.249019890907, 86404.33387808013, 71894.47544747299, 31139.466898377766, 20664.4783216093, 0.024, 0.9480000000000001, 0.106, 192.0, 0.0, 0.0, 0.0, 0.0, 0.0, 0.0, 0.0, 0.0, 0.0, 1.6665554935741403E9, 0.0, 2022-10-23 13:04:53.574
118.0, -69557.10882629262, -101290.68509229245, 54468.317862548574, 11303.813612915708, 86004.46116977467, 70900.22515061202, 29693.197273397123, 19048.67071493515, 0.024, 0.9480000000000001, 0.106, 192.0, 0.0, 0.0, 0.0, 0.0, 0.0, 0.0, 0.0, 0.0, 0.0, 1.6665554935741515E9, 0.0, 2022-10-23 13:04:53.574
119.0, -69593.6762802215, -101321.70931359641, 53532.249156504775, 10961.697812282779, 86100.3278017435, 70559.87513779105, 29195.803904033175, 18687.13124837056, 0.028, 0.9520000000000001, 0.10200000000000001, 192.0, 0.0, 224.0, 29.0, 192.0, 3.0, 48.0, 0.0, 0.0, 0.0, 1.6665554935741622E9, 0.0, 2022-10-23 13:04:53.574
120.0, -69645.8899552691, -101370.03378510878, 54601.71307345785, 11612.714721288052, 86360.45740371435, 71088.85152207036, 29972.124692454898, 19609.766555996724, 0.028, 0.9520000000000001, 0.10200000000000001, 192.0, 0.0, 0.0, 0.0, 0.0, 0.0, 0.0, 0.0, 0.0, 0.0, 1.6665554935741737E9, 0.0, 2022-10-23 13:04:53.574
121.0, -69648.92979251502, -101375.21938982242, 56590.32542590206, 12529.471520122472, 86458.53685838424, 71892.4190869831, 31150.106328738493, 20721.05058682568, 0.028, 0.9520000000000001, 0.10200000000000001, 192.0, 0.0, 0.0, 0.0, 0.0, 0.0, 0.0, 0.0, 0.0, 0.0, 1.6665554935741847E9, 0.0, 2022-10-23 13:04:53.574
122.0, -69566.34009675265, -101303.06795872068, 54856.34414629271, 11475.407955099101, 86024.44362931773, 71038.60480053483, 29919.106354606913, 19281.106505525888, 0.028, 0.9520000000000001, 0.10200000000000001, 192.0, 0.0, 0.0, 0.0, 0.0, 0.0, 0.0, 0.0, 0.0, 0.0, 1.6665554935741956E9, 0.0, 2022-10-23 13:04:53.574
123.0, -69579.34881202565, -101318.33420018366, 53525.387170956994, 10917.73193093919, 86055.80312678852, 70523.39709084, 29155.838984947084, 18618.55609638168, 0.028, 0.9520000000000001, 0.10200000000000001, 192.0, 0.0, 0.0, 0.0, 0.0, 0.0, 0.0, 0.0, 0.0, 0.0, 1.666555493574318E9, 0.0, 2022-10-23 13:04:53.574
124.0, -69627.04743469328, -101362.16597106052, 54222.96276366267, 11402.898896086084, 86296.91139422792, 70906.26012161495, 29711.860980017304, 19332.426110795273, 0.028, 0.9520000000000001, 0.10200000000000001, 192.0, 0.0, 0.0, 0.0, 0.0, 0.0, 0.0, 0.0, 0.0, 0.0, 1.6665554935743294E9, 0.0, 2022-10-23 13:04:53.574
125.0, -69651.3437809162, -101383.46718352643, 56437.394790338854, 12492.009996415378, 86491.84095762265, 71841.16653694709, 31076.926717391816, 20689.17699923241, 0.028, 0.9520000000000001, 0.10200000000000001, 192.0, 0.0, 0.0, 0.0, 0.0, 0.0, 0.0, 0.0, 0.0, 0.0, 1.66655549357434E9, 0.0, 2022-10-23 13:04:53.574
126.0, -69569.93872760996, -101307.29243842274, 55335.05145729202, 11743.248908907046, 86105.91573785731, 71260.40116076484, 30234.33300666011, 19613.298131620664, 0.028, 0.9520000000000001, 0.10200000000000001, 192.0, 0.0, 0.0, 0.0, 0.0, 0.0, 0.0, 0.0, 0.0, 0.0, 1.6665554935743508E9, 0.0, 2022-10-23 13:04:53.574
127.0, -69580.35464052614, -101313.39446465904, 53614.14594818902, 10953.450018578771, 86033.71960326667, 70561.12683548055, 29197.10030521158, 18621.64063711651, 0.028, 0.9520000000000001, 0.10200000000000001, 192.0, 0.0, 0.0, 0.0, 0.0, 0.0, 0.0, 0.0, 0.0, 0.0, 1.666555493574361E9, 0.0, 2022-10-23 13:04:53.574
128.0, -69624.76755675883, -101357.673270425, 53953.46778076504, 11261.166484494983, 86244.87653313596, 70786.25360563441, 29528.46491676151, 19116.843535523836, 0.028, 0.9520000000000001, 0.10200000000000001, 192.0, 0.0, 0.0, 0.0, 0.0, 0.0, 0.0, 0.0, 0.0, 0.0, 1.6665554935743797E9, 0.0, 2022-10-23 13:04:53.574
129.0, -69661.46912115444, -101396.20767786595, 56173.130115643755, 12400.859582526635, 86506.63781245206, 71755.98403882791, 30938.45766049119, 20569.21518674078, 0.028, 0.9540000000000001, 0.1, 192.0, 0.0, 224.0, 29.0, 208.0, 3.0, 32.0, 0.0, 0.0, 0.0, 1.6665554935743935E9, 0.0, 2022-10-23 13:04:53.574
130.0, -69575.3254980237, -101314.13207222606, 55782.08634639816, 11989.878057226904, 86173.21684041225, 71460.78454980666, 30527.43143170255, 19931.18464126404, 0.028, 0.9540000000000001, 0.1, 192.0, 0.0, 0.0, 0.0, 0.0, 0.0, 0.0, 0.0, 0.0, 0.0, 1.6665554935744054E9, 0.0, 2022-10-23 13:04:53.574
131.0, -69580.73462018187, -101316.72487458288, 53696.042739873265, 10952.220672633728, 85985.03750384302, 70558.13170172354, 29213.238264708314, 18607.559038109666, 0.028, 0.9540000000000001, 0.1, 192.0, 0.0, 0.0, 0.0, 0.0, 0.0, 0.0, 0.0, 0.0, 0.0, 1.6665554935744162E9, 0.0, 2022-10-23 13:04:53.574
132.0, -69623.47115558042, -101355.14752330155, 53726.19524314347, 11118.271782192205, 86194.45099764479, 70660.86031924014, 29360.268039735325, 18920.326998272776, 0.028, 0.9540000000000001, 0.1, 192.0, 0.0, 0.0, 0.0, 0.0, 0.0, 0.0, 0.0, 0.0, 0.0, 1.6665554935744271E9, 0.0, 2022-10-23 13:04:53.574
133.0, -69665.17951073403, -101395.00068366536, 55733.94068884143, 12189.74735614626, 86484.30841974121, 71560.51803356624, 30670.415540983147, 20319.345035474904, 0.028, 0.9540000000000001, 0.1, 192.0, 0.0, 0.0, 0.0, 0.0, 0.0, 0.0, 0.0, 0.0, 0.0, 1.6665554935744376E9, 0.0, 2022-10-23 13:04:53.574
134.0, -69606.39442281656, -101344.08340979618, 56167.09514464082, 12217.552926248662, 86267.09416712454, 71640.82785139416, 30795.942937844153, 20242.09740663736, 0.028, 0.9540000000000001, 0.1, 192.0, 0.0, 0.0, 0.0, 0.0, 0.0, 0.0, 0.0, 0.0, 0.0, 1.6665554935744483E9, 0.0, 2022-10-23 13:04:53.574
135.0, -69567.72590490889, -101303.44793837643, 53902.081120262286, 11038.408999253394, 85979.80719564047, 70638.39681606255, 29330.204943442935, 18703.872704967584, 0.028, 0.9540000000000001, 0.1, 192.0, 0.0, 0.0, 0.0, 0.0, 0.0, 0.0, 0.0, 0.0, 0.0, 1.6665554935744593E9, 0.0, 2022-10-23 13:04:53.574
136.0, -69614.06107116475, -101342.18351151748, 53615.777625534254, 11057.18446459585, 86174.66970380185, 70612.37938551657, 29280.069980629683, 18814.759709210364, 0.028, 0.9540000000000001, 0.1, 192.0, 0.0, 0.0, 0.0, 0.0, 0.0, 0.0, 0.0, 0.0, 0.0, 1.6665554935744696E9, 0.0, 2022-10-23 13:04:53.574
137.0, -69666.1406357456, -101392.40788130855, 55353.7151639122, 12028.993610023692, 86468.2598672223, 71434.63300879396, 30458.521003546837, 20100.052070623886, 0.028, 0.9540000000000001, 0.1, 192.0, 0.0, 0.0, 0.0, 0.0, 0.0, 0.0, 0.0, 0.0, 0.0, 1.6665554935744803E9, 0.0, 2022-10-23 13:04:53.574
138.0, -69623.33704511369, -101357.13682855807, 56501.05255854757, 12437.807016111257, 86346.7334326188, 71830.48240309744, 31046.505993188144, 20524.042311196605, 0.028, 0.9560000000000001, 0.096, 192.0, 0.0, 224.0, 29.0, 224.0, 3.0, 0.0, 0.0, 0.0, 0.0, 1.666555493574524E9, 0.0, 2022-10-23 13:04:53.574
139.0, -69568.91054736503, -101300.43045287496, 54229.35536257689, 11189.015053393252, 85969.12306179084, 70783.0126026884, 29528.28610280587, 18868.49330288092, 0.028, 0.9560000000000001, 0.096, 192.0, 0.0, 0.0, 0.0, 0.0, 0.0, 0.0, 0.0, 0.0, 0.0, 1.6665554935745356E9, 0.0, 2022-10-23 13:04:53.574
140.0, -69607.42260306151, -101333.46633117991, 53563.85452316458, 11005.596638393003, 86122.9254153878, 70586.22784450387, 29225.107041014082, 18715.76383301781, 0.028, 0.9560000000000001, 0.096, 192.0, 0.0, 0.0, 0.0, 0.0, 0.0, 0.0, 0.0, 0.0, 0.0, 1.666555493574546E9, 0.0, 2022-10-23 13:04:53.574
141.0, -69655.00946700686, -101381.61198873664, 54898.61129505769, 11791.036938552492, 86413.47574156235, 71240.06107331051, 30165.556688971126, 19794.168447753007, 0.028, 0.9560000000000001, 0.096, 192.0, 0.0, 0.0, 0.0, 0.0, 0.0, 0.0, 0.0, 0.0, 0.0, 1.6665554935745568E9, 0.0, 2022-10-23 13:04:53.574
142.0, -69639.40794937706, -101370.72668918691, 56611.58193487906, 12526.655200321104, 86420.51654106576, 71896.10712481823, 31138.215200688268, 20662.064333208124, 0.028, 0.9560000000000001, 0.096, 192.0, 0.0, 0.0, 0.0, 0.0, 0.0, 0.0, 0.0, 0.0, 0.0, 1.6665554935745673E9, 0.0, 2022-10-23 13:04:53.574
143.0, -69570.1175415656, -101301.23511567536, 54579.47308772482, 11343.465607579423, 85990.60308821239, 70915.20081939707, 29731.12818373778, 19070.418962290165, 0.028, 0.9560000000000001, 0.096, 192.0, 0.0, 0.0, 0.0, 0.0, 0.0, 0.0, 0.0, 0.0, 0.0, 1.666555493574578E9, 0.0, 2022-10-23 13:04:53.574
144.0, -69599.55478901324, -101325.0173717758, 53529.92457508142, 10956.64631803588, 86090.78360686108, 70544.18421318343, 29171.172281643427, 18634.716407622866, 0.028, 0.9560000000000001, 0.096, 192.0, 0.0, 0.0, 0.0, 0.0, 0.0, 0.0, 0.0, 0.0, 0.0, 1.6665554935745883E9, 0.0, 2022-10-23 13:04:53.574
145.0, -69641.79958603378, -101366.65867169603, 54471.201237583315, 11557.371802016713, 86349.66151114245, 71033.39684407673, 29878.202662253698, 19494.208037162785, 0.028, 0.9560000000000001, 0.096, 192.0, 0.0, 0.0, 0.0, 0.0, 0.0, 0.0, 0.0, 0.0, 0.0, 1.6665554935745993E9, 0.0, 2022-10-23 13:04:53.574
146.0, -69650.80733904926, -101379.95795964694, 56573.159286160386, 12550.705677355014, 86480.55332667271, 71897.42587774109, 31144.49604088021, 20718.3907292355, 0.028, 0.9560000000000001, 0.096, 192.0, 0.0, 0.0, 0.0, 0.0, 0.0, 0.0, 0.0, 0.0, 0.0, 1.6665554935746095E9, 0.0, 2022-10-23 13:04:53.574
147.0, -69566.87653861959, -101298.86583076308, 55058.06864000185, 11599.907171715162, 86065.52613562658, 71141.35576979587, 30048.187678836308, 19404.532838408093, 0.028, 0.9560000000000001, 0.096, 192.0, 0.0, 0.0, 0.0, 0.0, 0.0, 0.0, 0.0, 0.0, 0.0, 1.66655549357462E9, 0.0, 2022-10-23 13:04:53.574
148.0, -69589.83178017518, -101320.70348509592, 53571.83409593512, 10946.677440008812, 86047.15300168432, 70550.80032954221, 29174.994429945284, 18612.811698056663, 0.03, 0.9480000000000001, 0.098, 192.0, 0.0, 240.0, 29.0, 160.0, 3.0, 16.0, 0.0, 0.0, 0.0, 1.6665554935746307E9, 0.0, 2022-10-23 13:04:53.574
149.0, -69633.26121965185, -101367.93272112998, 54138.74139055507, 11366.77847704631, 86278.62766726347, 70878.6333654682, 29651.555973476887, 19252.13864471181, 0.03, 0.9480000000000001, 0.098, 192.0, 0.0, 0.0, 0.0, 0.0, 0.0, 0.0, 0.0, 0.0, 0.0, 1.6665554935746424E9, 0.0, 2022-10-23 13:04:53.574
150.0, -69667.12411250164, -101398.26403835583, 56401.22966781016, 12496.972083684455, 86504.89437638455, 71854.57758362027, 31065.124996319413, 20676.05652523715, 0.03, 0.9480000000000001, 0.098, 192.0, 0.0, 0.0, 0.0, 0.0, 0.0, 0.0, 0.0, 0.0, 0.0, 1.6665554935746546E9, 0.0, 2022-10-23 13:04:53.574
151.0, -69585.69670745096, -101320.94935428494, 55524.95187818431, 11833.974639651136, 86107.21213903572, 71344.30960945007, 30344.19183065794, 19723.38047306305, 0.03, 0.9480000000000001, 0.098, 192.0, 0.0, 0.0, 0.0, 0.0, 0.0, 0.0, 0.0, 0.0, 0.0, 1.6665554935746653E9, 0.0, 2022-10-23 13:04:53.574
152.0, -69590.68114646449, -101321.17287172949, 53662.02338481229, 10954.232329634706, 86018.09573389242, 70570.8051408297, 29203.87288378154, 18614.376320168536, 0.03, 0.9480000000000001, 0.098, 192.0, 0.0, 0.0, 0.0, 0.0, 0.0, 0.0, 0.0, 0.0, 0.0, 1.6665554935746758E9, 0.0, 2022-10-23 13:04:53.574
153.0, -69638.80445227676, -101365.40697400653, 53896.51553589291, 11213.892544972008, 86232.87364636346, 70757.26339307587, 29475.44657891352, 19051.218813803054, 0.03, 0.9480000000000001, 0.098, 192.0, 0.0, 0.0, 0.0, 0.0, 0.0, 0.0, 0.0, 0.0, 0.0, 1.6665554935746863E9, 0.0, 2022-10-23 13:04:53.574
154.0, -69684.2008452655, -101410.13281466161, 56044.60758502574, 12323.589601944639, 86490.1645767885, 71695.20964565393, 30845.38499657929, 20484.278557810612, 0.03, 0.9480000000000001, 0.098, 192.0, 0.0, 0.0, 0.0, 0.0, 0.0, 0.0, 0.0, 0.0, 0.0, 1.6665554935747082E9, 0.0, 2022-10-23 13:04:53.574
155.0, -69604.65098674905, -101338.09314228216, 55942.52716809836, 12058.453209215786, 86183.09631146149, 71519.50258249075, 30613.95503448904, 20035.34377042577, 0.03, 0.9480000000000001, 0.098, 192.0, 0.0, 0.0, 0.0, 0.0, 0.0, 0.0, 0.0, 0.0, 0.0, 1.6665554935747187E9, 0.0, 2022-10-23 13:04:53.574
156.0, -69575.59371895716, -101309.59466810164, 53782.7451566154, 10975.399431633883, 85987.25032654409, 70586.20549275941, 29244.374244734558, 18636.45984369038, 0.03, 0.9480000000000001, 0.098, 192.0, 0.0, 0.0, 0.0, 0.0, 0.0, 0.0, 0.0, 0.0, 0.0, 1.666555493574747E9, 0.0, 2022-10-23 13:04:53.574
157.0, -69619.62665553411, -101352.44296222246, 53687.95140838044, 11082.330177108071, 86188.34897140849, 70633.5688392602, 29308.300233876736, 18870.661422093086, 0.03, 0.9480000000000001, 0.098, 192.0, 0.0, 0.0, 0.0, 0.0, 0.0, 0.0, 0.0, 0.0, 0.0, 1.666555493574788E9, 0.0, 2022-10-23 13:04:53.574
158.0, -69667.52644390184, -101403.53905004729, 55569.38714616146, 12096.071195134067, 86464.03538752024, 71478.50948315972, 30544.48581272195, 20207.407499242723, 0.028, 0.9540000000000001, 0.096, 192.0, 0.0, 224.0, 29.0, 208.0, 3.0, 0.0, 0.0, 0.0, 0.0, 1.6665554935748289E9, 0.0, 2022-10-23 13:04:53.574
159.0, -69605.45564954945, -101346.13977028606, 56304.67013176324, 12288.698528849904, 86297.02315295019, 71699.61293931163, 30870.06132245795, 20345.87655614335, 0.028, 0.9540000000000001, 0.096, 192.0, 0.0, 0.0, 0.0, 0.0, 0.0, 0.0, 0.0, 0.0, 0.0, 1.6665554935748713E9, 0.0, 2022-10-23 13:04:53.574
160.0, -69572.68799217796, -101305.99603724433, 54027.608517123284, 11080.85496197402, 85973.77222463753, 70685.38018290761, 29383.066819079737, 18758.23214748289, 0.028, 0.9540000000000001, 0.096, 192.0, 0.0, 0.0, 0.0, 0.0, 0.0, 0.0, 0.0, 0.0, 0.0, 1.6665554935749128E9, 0.0, 2022-10-23 13:04:53.574
161.0, -69630.5343068283, -101358.99202334786, 53572.03526163522, 10998.622894122946, 86128.9827381352, 70567.56413788369, 29209.50552338428, 18748.71030434493, 0.028, 0.9540000000000001, 0.096, 192.0, 0.0, 0.0, 0.0, 0.0, 0.0, 0.0, 0.0, 0.0, 0.0, 1.6665554935749536E9, 0.0, 2022-10-23 13:04:53.574
162.0, -69682.27859524234, -101407.80823323826, 55122.77694019997, 11877.515837850075, 86422.17057015546, 71296.56628329352, 30270.47577744434, 19941.37703673566, 0.028, 0.9540000000000001, 0.096, 192.0, 0.0, 0.0, 0.0, 0.0, 0.0, 0.0, 0.0, 0.0, 0.0, 1.6665554935749936E9, 0.0, 2022-10-23 13:04:53.574
163.0, -69654.45067339548, -101381.0755468697, 56530.71332343976, 12447.239452271397, 86384.35141853707, 71821.18407740403, 31043.354397219944, 20580.726335135263, 0.028, 0.9540000000000001, 0.096, 192.0, 0.0, 0.0, 0.0, 0.0, 0.0, 0.0, 0.0, 0.0, 0.0, 1.6665554935750344E9, 0.0, 2022-10-23 13:04:53.575
164.0, -69607.64612050606, -101329.59947938913, 54355.486256538185, 11233.875004515054, 85995.72163769265, 70814.77443155937, 29578.264603407933, 18960.56013829233, 0.028, 0.9540000000000001, 0.096, 192.0, 0.0, 0.0, 0.0, 0.0, 0.0, 0.0, 0.0, 0.0, 0.0, 1.666555493575075E9, 0.0, 2022-10-23 13:04:53.575
165.0, -69644.48179536841, -101355.10281981264, 53541.055743820165, 10968.582149575013, 86117.24807229616, 70545.77118703976, 29171.39579908798, 18693.389736818044, 0.028, 0.9540000000000001, 0.096, 192.0, 0.0, 0.0, 0.0, 0.0, 0.0, 0.0, 0.0, 0.0, 0.0, 1.6665554935751157E9, 0.0, 2022-10-23 13:04:53.575
166.0, -69699.82471463975, -101401.75091049087, 54709.49318522134, 11673.26559701748, 86388.91117440596, 71123.9884643541, 30010.949672573766, 19674.161931772465, 0.028, 0.9540000000000001, 0.096, 192.0, 0.0, 0.0, 0.0, 0.0, 0.0, 0.0, 0.0, 0.0, 0.0, 1.666555493575156E9, 0.0, 2022-10-23 13:04:53.575
167.0, -69710.19592406701, -101413.35146586318, 56612.49835640173, 12533.986572502443, 86458.33569268414, 71887.09937180273, 31130.88382850693, 20710.76878437624, 0.028, 0.9540000000000001, 0.096, 192.0, 0.0, 0.0, 0.0, 0.0, 0.0, 0.0, 0.0, 0.0, 0.0, 1.6665554935751808E9, 0.0, 2022-10-23 13:04:53.575
168.0, -69642.71600755645, -101347.92790984249, 54750.70980199693, 11422.724893417942, 86019.72741123765, 70979.5514916839, 29824.75964126106, 19203.99298715508, 0.028, 0.96, 0.092, 192.0, 0.0, 224.0, 30.0, 0.0, 2.0, 224.0, 0.0, 0.0, 0.0, 1.6665554935751972E9, 0.0, 2022-10-23 13:04:53.575
169.0, -69676.02010679485, -101371.97838687639, 53525.85655759055, 10933.378152057905, 86078.44544392174, 70519.39612858249, 29139.455156261345, 18629.128471509037, 0.028, 0.96, 0.092, 192.0, 0.0, 0.0, 0.0, 0.0, 0.0, 0.0, 0.0, 0.0, 0.0, 1.6665554935752568E9, 0.0, 2022-10-23 13:04:53.575
170.0, -69727.47382253097, -101413.95496296347, 54300.00922680012, 11453.07856238825, 86323.97935676329, 70930.64587481569, 29740.001826286534, 19390.428887656795, 0.028, 0.96, 0.092, 192.0, 0.0, 0.0, 0.0, 0.0, 0.0, 0.0, 0.0, 0.0, 0.0, 1.6665554935752735E9, 0.0, 2022-10-23 13:04:53.575
171.0, -69750.33965710875, -101433.15511145057, 56489.13907875289, 12513.266505392374, 86503.57562346169, 71851.49304288543, 31081.57588023852, 20715.328540245122, 0.028, 0.96, 0.092, 192.0, 0.0, 0.0, 0.0, 0.0, 0.0, 0.0, 0.0, 0.0, 0.0, 1.666555493575292E9, 0.0, 2022-10-23 13:04:53.575
172.0, -69671.48270267043, -101351.21361627741, 55192.35792068934, 11657.39585845421, 86091.1188830279, 71175.30806962348, 30112.270130189674, 19521.566572376083, 0.028, 0.96, 0.092, 192.0, 0.0, 0.0, 0.0, 0.0, 0.0, 0.0, 0.0, 0.0, 0.0, 1.6665554935753088E9, 0.0, 2022-10-23 13:04:53.575
173.0, -69691.64397616911, -101361.31660477121, 53577.22086634885, 10936.35093407046, 86059.80408904603, 70533.16480316696, 29156.688351236386, 18628.368512197558, 0.028, 0.96, 0.092, 192.0, 0.0, 0.0, 0.0, 0.0, 0.0, 0.0, 0.0, 0.0, 0.0, 1.6665554935753253E9, 0.0, 2022-10-23 13:04:53.575
174.0, -69728.43494754254, -101392.11730863062, 54050.16142727869, 11325.695970737455, 86298.1183884285, 70841.4177109501, 29589.887510524695, 19221.784975741502, 0.028, 0.96, 0.092, 192.0, 0.0, 0.0, 0.0, 0.0, 0.0, 0.0, 0.0, 0.0, 0.0, 1.6665554935753417E9, 0.0, 2022-10-23 13:04:53.575
175.0, -69767.2152241725, -101427.61187882566, 56288.53217226651, 12455.710763419958, 86529.05661214073, 71810.63405402114, 31000.729620543676, 20659.337420384578, 0.028, 0.96, 0.092, 192.0, 0.0, 0.0, 0.0, 0.0, 0.0, 0.0, 0.0, 0.0, 0.0, 1.666555493575358E9, 0.0, 2022-10-23 13:04:53.575
176.0, -69682.61387140916, -101349.44782846545, 55696.903848278984, 11931.495300709641, 86161.75039550668, 71421.19961037632, 30456.017608167844, 19886.45880060897, 0.028, 0.96, 0.092, 192.0, 0.0, 0.0, 0.0, 0.0, 0.0, 0.0, 0.0, 0.0, 0.0, 1.6665554935753827E9, 0.0, 2022-10-23 13:04:53.575
177.0, -69663.54783338879, -101330.82882533417, 53673.82510588469, 10941.245966106173, 86019.86152170438, 70554.1530912105, 29189.411305118956, 18633.822337844653, 0.02, 0.9560000000000001, 0.08600000000000001, 192.0, 0.0, 160.0, 29.0, 224.0, 2.0, 176.0, 0.0, 0.0, 0.0, 1.6665554935754E9, 0.0, 2022-10-23 13:04:53.575
178.0, -69721.32709280576, -101379.8238491802, 53783.97450256044, 11149.58657617409, 86243.84835289101, 70695.52787489032, 29389.34765927168, 19003.162563224145, 0.02, 0.9560000000000001, 0.08600000000000001, 192.0, 0.0, 0.0, 0.0, 0.0, 0.0, 0.0, 0.0, 0.0, 0.0, 1.6665554935754104E9, 0.0, 2022-10-23 13:04:53.575
179.0, -69774.8148172873, -101423.3873991236, 55877.37183301114, 12257.562548823662, 86530.08479238568, 71636.42455773646, 30750.6583035777, 20442.14551951236, 0.02, 0.9560000000000001, 0.08600000000000001, 192.0, 0.0, 0.0, 0.0, 0.0, 0.0, 0.0, 0.0, 0.0, 0.0, 1.6665554935754201E9, 0.0, 2022-10-23 13:04:53.575
180.0, -69695.73434540443, -101348.73257264288, 56092.954408282574, 12158.723134842294, 86266.17774560188, 71603.61219687607, 30725.020852687463, 20209.37445275479, 0.02, 0.9560000000000001, 0.08600000000000001, 192.0, 0.0, 0.0, 0.0, 0.0, 0.0, 0.0, 0.0, 0.0, 0.0, 1.66655549357543E9, 0.0, 2022-10-23 13:04:53.575
181.0, -69662.43024616603, -101313.97561001488, 53857.958776707506, 11012.592734407513, 86016.64287050282, 70625.27634206729, 29292.98928892485, 18721.441176109456, 0.02, 0.9560000000000001, 0.08600000000000001, 192.0, 0.0, 0.0, 0.0, 0.0, 0.0, 0.0, 0.0, 0.0, 0.0, 1.6665554935754397E9, 0.0, 2022-10-23 13:04:53.575
182.0, -69701.59050245173, -101348.4196482205, 53640.453951412914, 11058.749086707723, 86206.2974222061, 70626.14806010104, 29286.17200686598, 18881.278500709355, 0.02, 0.9560000000000001, 0.08600000000000001, 192.0, 0.0, 0.0, 0.0, 0.0, 0.0, 0.0, 0.0, 0.0, 0.0, 1.6665554935754492E9, 0.0, 2022-10-23 13:04:53.575
183.0, -69752.217203643, -101395.55947727675, 55424.50313860216, 12036.727313605228, 86495.01490533531, 71448.08875895604, 30480.55982357977, 20185.838065843353, 0.02, 0.9560000000000001, 0.08600000000000001, 192.0, 0.0, 0.0, 0.0, 0.0, 0.0, 0.0, 0.0, 0.0, 0.0, 1.666555493575459E9, 0.0, 2022-10-23 13:04:53.575
184.0, -69696.85193262719, -101345.80449411923, 56439.69702001775, 12380.675957283493, 86371.52151721973, 71793.11028636817, 30990.76074251661, 20522.88002048493, 0.02, 0.9560000000000001, 0.08600000000000001, 192.0, 0.0, 0.0, 0.0, 0.0, 0.0, 0.0, 0.0, 0.0, 0.0, 1.6665554935754688E9, 0.0, 2022-10-23 13:04:53.575
185.0, -69634.937600486, -101285.49948757881, 54146.36333541433, 11136.10847426754, 86012.61955650087, 70744.18762256952, 29469.67982884405, 18879.3562506862, 0.02, 0.9560000000000001, 0.08600000000000001, 192.0, 0.0, 0.0, 0.0, 0.0, 0.0, 0.0, 0.0, 0.0, 0.0, 1.6665554935755093E9, 0.0, 2022-10-23 13:04:53.575
186.0, -69671.88503407063, -101322.5139763968, 53568.682499966926, 10994.152545231886, 86167.18186940931, 70582.74097236883, 29222.804811335187, 18784.00370883986, 0.02, 0.9560000000000001, 0.08600000000000001, 192.0, 0.0, 0.0, 0.0, 0.0, 0.0, 0.0, 0.0, 0.0, 0.0, 1.666555493575519E9, 0.0, 2022-10-23 13:04:53.575
187.0, -69712.09582234571, -101359.48376172587, 54979.703423941544, 11806.504345715564, 86442.6000645876, 71260.2670502981, 30204.31461385663, 19896.248864680394, 0.02, 0.9500000000000001, 0.09, 192.0, 0.0, 160.0, 29.0, 176.0, 2.0, 208.0, 0.0, 0.0, 0.0, 1.6665554935755289E9, 0.0, 2022-10-23 13:04:53.575
188.0, -69682.05507779779, -101330.87352882308, 56594.16992594838, 12489.506601036383, 86438.37558488555, 71878.717467632, 31114.991738199205, 20693.24501672328, 0.02, 0.9500000000000001, 0.09, 192.0, 0.0, 0.0, 0.0, 0.0, 0.0, 0.0, 0.0, 0.0, 0.0, 1.666555493575539E9, 0.0, 2022-10-23 13:04:53.575
189.0, -69608.182562373, -101263.19244661242, 54499.25267687472, 11288.882647619565, 86025.02477467355, 70885.6294614827, 29681.239090113533, 19087.450991565107, 0.02, 0.9500000000000001, 0.09, 192.0, 0.0, 0.0, 0.0, 0.0, 0.0, 0.0, 0.0, 0.0, 0.0, 1.6665554935755491E9, 0.0, 2022-10-23 13:04:53.575
190.0, -69631.9871702179, -101288.159345169, 53540.429894975416, 10945.895128952878, 86130.10032535795, 70553.59429759912, 29182.079932937617, 18718.714263285907, 0.02, 0.9500000000000001, 0.09, 192.0, 0.0, 0.0, 0.0, 0.0, 0.0, 0.0, 0.0, 0.0, 0.0, 1.666555493575559E9, 0.0, 2022-10-23 13:04:53.575
191.0, -69666.40885667907, -101316.4119501605, 54554.1262095125, 11575.990805147983, 86384.66434295946, 71064.08578921387, 29927.957645411214, 19615.421547343918, 0.02, 0.9500000000000001, 0.09, 192.0, 0.0, 0.0, 0.0, 0.0, 0.0, 0.0, 0.0, 0.0, 0.0, 1.666555493575569E9, 0.0, 2022-10-23 13:04:53.575
192.0, -69668.0405340243, -101318.73653158385, 56613.12420524648, 12542.860215051202, 86516.0702486122, 71914.03322387139, 31166.02077079067, 20795.616006328586, 0.02, 0.9500000000000001, 0.09, 192.0, 0.0, 0.0, 0.0, 0.0, 0.0, 0.0, 0.0, 0.0, 0.0, 1.6665554935755785E9, 0.0, 2022-10-23 13:04:53.575
193.0, -69581.85220740465, -101239.90192888999, 54970.002766847945, 11528.85097609174, 86078.87012706639, 71100.87676058731, 29989.424942663307, 19401.180076739798, 0.02, 0.9500000000000001, 0.09, 192.0, 0.0, 0.0, 0.0, 0.0, 0.0, 0.0, 0.0, 0.0, 0.0, 1.6665554935755897E9, 0.0, 2022-10-23 13:04:53.575
194.0, -69600.80648670274, -101259.25853958828, 53568.30252031118, 10929.801872945056, 86090.85066209444, 70549.43687313043, 29175.799092745674, 18683.46556227989, 0.02, 0.9500000000000001, 0.09, 192.0, 0.0, 0.0, 0.0, 0.0, 0.0, 0.0, 0.0, 0.0, 0.0, 1.6665554935755992E9, 0.0, 2022-10-23 13:04:53.575
195.0, -69645.95701050246, -101306.95716225592, 54225.48851078612, 11398.137974517105, 86339.379708693, 70922.30867413386, 29712.911512006704, 19380.236492185177, 0.02, 0.9500000000000001, 0.09, 192.0, 0.0, 0.0, 0.0, 0.0, 0.0, 0.0, 0.0, 0.0, 0.0, 1.666555493575609E9, 0.0, 2022-10-23 13:04:53.575
196.0, -69669.694563114, -101327.09608401015, 56496.55985791205, 12526.901069510111, 86554.35878686415, 71902.7679446659, 31131.97906398524, 20792.330299893656, 0.02, 0.9500000000000001, 0.09, 192.0, 0.0, 0.0, 0.0, 0.0, 0.0, 0.0, 0.0, 0.0, 0.0, 1.6665554935756187E9, 0.0, 2022-10-23 13:04:53.575
197.0, -69586.79194292927, -101246.96508013786, 55477.65558691688, 11800.67054041273, 86146.81943021053, 71344.64488561689, 30332.14424039653, 19753.868252500088, 0.024, 0.9520000000000001, 0.088, 192.0, 0.0, 192.0, 29.0, 192.0, 2.0, 192.0, 0.0, 0.0, 0.0, 1.6665554935756285E9, 0.0, 2022-10-23 13:04:53.575
198.0, -69597.54313201227, -101253.71530696336, 53685.93975137946, 10959.753210515168, 86053.4114901318, 70602.65637667851, 29239.993302821316, 18700.49759155483, 0.024, 0.9520000000000001, 0.088, 192.0, 0.0, 0.0, 0.0, 0.0, 0.0, 0.0, 0.0, 0.0, 0.0, 1.6665554935756388E9, 0.0, 2022-10-23 13:04:53.575
199.0, -69633.95412372997, -101283.28666487774, 53975.8418769648, 11244.715600575877, 86272.72680672727, 70810.0135099904, 29542.255943090433, 19171.85117862835, 0.024, 0.9520000000000001, 0.088, 192.0, 0.0, 0.0, 0.0, 0.0, 0.0, 0.0, 0.0, 0.0, 0.0, 1.6665554935756495E9, 0.0, 2022-10-23 13:04:53.575
200.0, -69674.63429863863, -101323.63156361956, 56165.84344695133, 12370.438858322961, 86538.26553085633, 71767.40578024456, 30936.64716919031, 20615.59505648554, 0.024, 0.9520000000000001, 0.088, 192.0, 0.0, 0.0, 0.0, 0.0, 0.0, 0.0, 0.0, 0.0, 0.0, 1.6665554935756729E9, 0.0, 2022-10-23 13:04:53.575
201.0, -69596.87257967862, -101252.28479531824, 55916.12975789663, 12035.609726382461, 86224.96112882628, 71540.80379495666, 30619.72178455851, 20069.810160375855, 0.024, 0.9520000000000001, 0.088, 192.0, 0.0, 0.0, 0.0, 0.0, 0.0, 0.0, 0.0, 0.0, 0.0, 1.6665554935756829E9, 0.0, 2022-10-23 13:04:53.575
202.0, -69580.35464052614, -101232.86112938657, 53817.3009535433, 10994.577228376536, 86039.39694635832, 70642.4201300645, 29297.70550700492, 18728.772548290795, 0.024, 0.9520000000000001, 0.088, 192.0, 0.0, 0.0, 0.0, 0.0, 0.0, 0.0, 0.0, 0.0, 0.0, 1.6665554935756927E9, 0.0, 2022-10-23 13:04:53.575
203.0, -69621.0348154348, -101269.71915599337, 53795.06096781027, 11130.475834664803, 86230.68317540684, 70719.4442414575, 29406.469095524444, 19005.308330691856, 0.024, 0.9520000000000001, 0.088, 192.0, 0.0, 0.0, 0.0, 0.0, 0.0, 0.0, 0.0, 0.0, 0.0, 1.6665554935757024E9, 0.0, 2022-10-23 13:04:53.575
204.0, -69662.58670837722, -101311.89689778053, 55774.12912537207, 12188.965045090325, 86523.66984172701, 71612.01645279127, 30702.825570443343, 20395.45272534522, 0.024, 0.9520000000000001, 0.088, 192.0, 0.0, 0.0, 0.0, 0.0, 0.0, 0.0, 0.0, 0.0, 0.0, 1.666555493575712E9, 0.0, 2022-10-23 13:04:53.575
205.0, -69594.86092267763, -101255.61520524207, 56329.949954742195, 12275.779220554736, 86321.25244393974, 71743.40000669956, 30905.131209508327, 20401.577103325977, 0.024, 0.9520000000000001, 0.088, 192.0, 0.0, 0.0, 0.0, 0.0, 0.0, 0.0, 0.0, 0.0, 0.0, 1.6665554935757215E9, 0.0, 2022-10-23 13:04:53.575
206.0, -69561.51211995032, -101221.48409145881, 54020.478310642044, 11052.065915115585, 86008.19391109872, 70697.65129061358, 29391.471074994934, 18807.271874817834, 0.028, 0.9500000000000001, 0.078, 192.0, 0.0, 224.0, 29.0, 176.0, 2.0, 112.0, 0.0, 0.0, 0.0, 1.6665554935757315E9, 0.0, 2022-10-23 13:04:53.575
207.0, -69605.50035303835, -101264.06416464617, 53689.471327003404, 11041.89587138842, 86196.95439302379, 70653.55129880326, 29308.18847515446, 18885.435925178044, 0.028, 0.9500000000000001, 0.078, 192.0, 0.0, 0.0, 0.0, 0.0, 0.0, 0.0, 0.0, 0.0, 0.0, 1.666555493575742E9, 0.0, 2022-10-23 13:04:53.575
208.0, -69644.10181571267, -101300.02812147477, 55318.04177976153, 11943.073504337492, 86466.89641081053, 71405.19576134632, 30405.323851743207, 20103.628349736733, 0.028, 0.9500000000000001, 0.078, 192.0, 0.0, 0.0, 0.0, 0.0, 0.0, 0.0, 0.0, 0.0, 0.0, 1.6665554935757515E9, 0.0, 2022-10-23 13:04:53.575
209.0, -69613.54698104227, -101270.99320542732, 56567.996033191215, 12409.733225075392, 86385.53606099321, 71847.64854283912, 31064.365037007934, 20614.589227985052, 0.028, 0.9500000000000001, 0.078, 192.0, 0.0, 0.0, 0.0, 0.0, 0.0, 0.0, 0.0, 0.0, 0.0, 1.6665554935757613E9, 0.0, 2022-10-23 13:04:53.575
210.0, -69555.29833499173, -101212.87866984353, 54325.26669803461, 11169.345518272581, 86005.01996338606, 70810.63935883515, 29558.46095782053, 18966.88568197318, 0.028, 0.9500000000000001, 0.078, 192.0, 0.0, 0.0, 0.0, 0.0, 0.0, 0.0, 0.0, 0.0, 0.0, 1.666555493575771E9, 0.0, 2022-10-23 13:04:53.575
211.0, -69591.28464356478, -101245.48986500381, 53591.235410122325, 10947.8844342094, 86142.8855231864, 70576.32602171016, 29204.25286343728, 18762.52368241831, 0.028, 0.9500000000000001, 0.078, 192.0, 0.0, 0.0, 0.0, 0.0, 0.0, 0.0, 0.0, 0.0, 0.0, 1.666555493575781E9, 0.0, 2022-10-23 13:04:53.575
212.0, -69645.84525178019, -101298.01646447378, 54854.89128290311, 11698.478364763067, 86420.51654106576, 71196.74339255612, 30103.172970196363, 19801.723337378902, 0.028, 0.9500000000000001, 0.078, 192.0, 0.0, 0.0, 0.0, 0.0, 0.0, 0.0, 0.0, 0.0, 0.0, 1.666555493575791E9, 0.0, 2022-10-23 13:04:53.575
213.0, -69628.18737366049, -101284.78423175625, 56676.51375252173, 12509.578467557249, 86465.24238172083, 71922.90686642013, 31166.087826024035, 20766.335221092133, 0.028, 0.9500000000000001, 0.078, 192.0, 0.0, 0.0, 0.0, 0.0, 0.0, 0.0, 0.0, 0.0, 0.0, 1.666555493575801E9, 0.0, 2022-10-23 13:04:53.575
214.0, -69550.02332330028, -101214.2421262553, 54698.317312993684, 11342.280965123293, 86021.78377172754, 70958.96553504057, 29783.69948669666, 19194.202923083656, 0.028, 0.9500000000000001, 0.078, 192.0, 0.0, 0.0, 0.0, 0.0, 0.0, 0.0, 0.0, 0.0, 0.0, 1.666555493575812E9, 0.0, 2022-10-23 13:04:53.575
215.0, -69583.95327138345, -101242.58413822463, 53569.95654940088, 10908.38890175687, 86109.1790925478, 70546.1511666955, 29166.701932752363, 18695.93783568595, 0.028, 0.9500000000000001, 0.078, 192.0, 0.0, 0.0, 0.0, 0.0, 0.0, 0.0, 0.0, 0.0, 0.0, 1.666555493575822E9, 0.0, 2022-10-23 13:04:53.575
216.0, -69623.67232128052, -101280.78326949874, 54447.575443694055, 11482.359347624702, 86367.7887758957, 71009.16755308719, 29836.784879778017, 19516.828002551556, 0.028, 0.966, 0.088, 192.0, 0.0, 224.0, 30.0, 48.0, 2.0, 192.0, 0.0, 0.0, 0.0, 1.666555493575846E9, 0.0, 2022-10-23 13:04:53.575
217.0, -69632.14363242908, -101293.09908069362, 56586.32446364457, 12506.650389033603, 86527.93902491797, 71895.30246201783, 31134.929494253338, 20786.652956802005, 0.028, 0.966, 0.088, 192.0, 0.0, 0.0, 0.0, 0.0, 0.0, 0.0, 0.0, 0.0, 0.0, 1.6665554935758576E9, 0.0, 2022-10-23 13:04:53.575
218.0, -69552.28084949027, -101217.32666699013, 55139.65250726372, 11576.415488292634, 86097.77970287559, 71149.17888035523, 30067.61134476797, 19501.070022710566, 0.028, 0.966, 0.088, 192.0, 0.0, 0.0, 0.0, 0.0, 0.0, 0.0, 0.0, 0.0, 0.0, 1.6665554935758684E9, 0.0, 2022-10-23 13:04:53.575
219.0, -69572.24095728886, -101232.61526019756, 53584.7981077192, 10887.937055580265, 86078.53485089957, 70524.60408504058, 29150.09458662207, 18660.44326549092, 0.028, 0.966, 0.088, 192.0, 0.0, 0.0, 0.0, 0.0, 0.0, 0.0, 0.0, 0.0, 0.0, 1.666555493575879E9, 0.0, 2022-10-23 13:04:53.575
220.0, -69617.30207411076, -101273.94363569542, 54108.633590773774, 11298.42684250198, 86321.52066487321, 70845.28456274087, 29611.568702646342, 19283.47579043815, 0.028, 0.966, 0.088, 192.0, 0.0, 0.0, 0.0, 0.0, 0.0, 0.0, 0.0, 0.0, 0.0, 1.66655549357589E9, 0.0, 2022-10-23 13:04:53.575
221.0, -69639.76557728834, -101299.64814181902, 56354.51452189857, 12429.916850318534, 86548.43557458349, 71815.5514378013, 31023.3719376769, 20715.06031931166, 0.028, 0.966, 0.088, 192.0, 0.0, 0.0, 0.0, 0.0, 0.0, 0.0, 0.0, 0.0, 0.0, 1.666555493575901E9, 0.0, 2022-10-23 13:04:53.575
222.0, -69555.92418383648, -101226.82615838363, 55594.711672629324, 11827.872613414838, 86162.6891687738, 71358.838243346, 30379.731104341878, 19836.63676221809, 0.028, 0.966, 0.088, 192.0, 0.0, 0.0, 0.0, 0.0, 0.0, 0.0, 0.0, 0.0, 0.0, 1.6665554935759115E9, 0.0, 2022-10-23 13:04:53.575
223.0, -69552.30320123472, -101215.40441696697, 53664.25855925782, 10903.471517976704, 86043.88964699383, 70547.91695450747, 29190.506540597267, 18666.925271382963, 0.028, 0.966, 0.088, 192.0, 0.0, 0.0, 0.0, 0.0, 0.0, 0.0, 0.0, 0.0, 0.0, 1.666555493575922E9, 0.0, 2022-10-23 13:04:53.575
224.0, -69599.55478901324, -101258.56563551017, 53835.24940434092, 11140.556471414146, 86269.79872820363, 70711.1964477535, 29428.999653935392, 19076.252767593, 0.028, 0.966, 0.088, 192.0, 0.0, 0.0, 0.0, 0.0, 0.0, 0.0, 0.0, 0.0, 0.0, 1.6665554935759327E9, 0.0, 2022-10-23 13:04:53.575
225.0, -69644.95118200197, -101303.91732500998, 55984.12376452968, 12268.894883262503, 86552.39183335207, 71674.84720645515, 30823.346176546358, 20534.078244457036, 0.028, 0.966, 0.088, 192.0, 0.0, 0.0, 0.0, 0.0, 0.0, 0.0, 0.0, 0.0, 0.0, 1.6665554935759437E9, 0.0, 2022-10-23 13:04:53.575
226.0, -69570.20694854343, -101235.31982127664, 56031.04007614137, 12081.855485660493, 86263.83081243405, 71573.16912092795, 30695.427143028635, 20189.168475767194, 0.026000000000000002, 0.9560000000000001, 0.08, 192.0, 0.0, 208.0, 29.0, 224.0, 2.0, 128.0, 0.0, 0.0, 0.0, 1.6665554935759547E9, 0.0, 2022-10-23 13:04:53.575
227.0, -69542.04375052975, -101205.72611161783, 53851.879102215666, 10980.808553792067, 86040.53688532555, 70632.89828692655, 29314.71518453541, 18761.473150428912, 0.026000000000000002, 0.9560000000000001, 0.08, 192.0, 0.0, 0.0, 0.0, 0.0, 0.0, 0.0, 0.0, 0.0, 0.0, 1.666555493575966E9, 0.0, 2022-10-23 13:04:53.575
228.0, -69585.24967256185, -101246.51804524875, 53705.45282428895, 11059.37493555247, 86225.6987363933, 70664.5260053308, 29353.495461165367, 18961.856539470737, 0.026000000000000002, 0.9560000000000001, 0.08, 192.0, 0.0, 0.0, 0.0, 0.0, 0.0, 0.0, 0.0, 0.0, 0.0, 1.6665554935759776E9, 0.0, 2022-10-23 13:04:53.575
0.0, 0.0, 0.0, 0.0, 0.0, 0.0, 0.0, 0.0, 0.0, 0.026000000000000002, 0.9560000000000001, 0.08, 192.0, 0.0, 0.0, 0.0, 0.0, 0.0, 0.0, 0.0, 0.0, 0.0, 1.6665554936831396E9, 0.0, 2022-10-23 13:04:53.683
1.0, -69550.53741342276, -101374.86176191113, 56186.630569294764, 12245.80553124017, 86270.37987355946, 71891.61442418271, 31082.00056338317, 20462.329144755502, 0.042, 0.9560000000000001, 0.08600000000000001, 192.0, 1.0, 80.0, 29.0, 224.0, 2.0, 176.0, 0.0, 0.0, 0.0, 1.666555494175742E9, 0.0, 2022-10-23 13:04:54.175
2.0, -69492.15465690549, -101314.62381060408, 53930.5795944428, 11072.785982225656, 85981.03654158552, 70884.7800951934, 29603.589129875796, 18900.50100094092, 0.042, 0.9560000000000001, 0.08600000000000001, 192.0, 0.0, 0.0, 0.0, 0.0, 0.0, 0.0, 0.0, 0.0, 0.0, 1.6665554941759565E9, 0.0, 2022-10-23 13:04:54.175
3.0, -69547.40816919901, -101364.75877341733, 53613.654209811, 11067.868598445488, 86163.42677634083, 70836.20975449203, 29523.592236470253, 18981.168446680123, 0.042, 0.9560000000000001, 0.08600000000000001, 192.0, 0.0, 0.0, 0.0, 0.0, 0.0, 0.0, 0.0, 0.0, 0.0, 1.6665554941759844E9, 0.0, 2022-10-23 13:04:54.175
4.0, -69600.94059716948, -101413.0385414408, 55287.15166892429, 11996.382414863398, 86447.47274487886, 71620.51011568429, 30663.084168801808, 20237.649409490754, 0.042, 0.9560000000000001, 0.08600000000000001, 192.0, 0.0, 0.0, 0.0, 0.0, 0.0, 0.0, 0.0, 0.0, 0.0, 1.66655549417601E9, 0.0, 2022-10-23 13:04:54.176
5.0, -69570.22930028789, -101390.21741035194, 56481.98652052719, 12435.750655621368, 86348.56627566412, 72042.04166436693, 31291.838740329593, 20709.47238319783, 0.042, 0.9560000000000001, 0.08600000000000001, 192.0, 0.0, 0.0, 0.0, 0.0, 0.0, 0.0, 0.0, 0.0, 0.0, 1.6665554941760347E9, 0.0, 2022-10-23 13:04:54.176
6.0, -69501.27416864326, -101328.21367123291, 54210.49049025661, 11185.282312069216, 85964.4962506886, 70978.07627654985, 29748.85311709084, 19027.302447235877, 0.042, 0.9560000000000001, 0.08600000000000001, 192.0, 0.0, 0.0, 0.0, 0.0, 0.0, 0.0, 0.0, 0.0, 0.0, 1.6665554941760666E9, 0.0, 2022-10-23 13:04:54.176
7.0, -69528.07391024518, -101355.90748261304, 53498.85565028854, 10973.83480952201, 86114.23058679469, 70741.72893067944, 29400.523531499333, 18835.904459465084, 0.044, 0.9500000000000001, 0.096, 192.0, 1.0, 96.0, 29.0, 176.0, 3.0, 0.0, 0.0, 0.0, 0.0, 1.6665554941760907E9, 0.0, 2022-10-23 13:04:54.176
8.0, -69574.18555905647, -101397.50407904436, 54806.56681139074, 11750.379115388288, 86415.77797124124, 71389.88481639443, 30337.48630732135, 19919.517030658368, 0.044, 0.9500000000000001, 0.096, 192.0, 0.0, 0.0, 0.0, 0.0, 0.0, 0.0, 0.0, 0.0, 0.0, 1.6665554941761165E9, 0.0, 2022-10-23 13:04:54.176
9.0, -69569.17876829849, -101393.25724759785, 56576.936730973335, 12526.096406709721, 86448.67973907945, 72097.76456329401, 31375.68013378145, 20858.580870459184, 0.044, 0.9500000000000001, 0.096, 192.0, 0.0, 0.0, 0.0, 0.0, 0.0, 0.0, 0.0, 0.0, 0.0, 1.66655549417614E9, 0.0, 2022-10-23 13:04:54.176
10.0, -69509.47725885836, -101337.10966552612, 54583.13877381549, 11361.235244421392, 86005.84697793091, 71133.44325225869, 29981.73594257068, 19268.634232119828, 0.044, 0.9500000000000001, 0.096, 192.0, 0.0, 0.0, 0.0, 0.0, 0.0, 0.0, 0.0, 0.0, 0.0, 1.6665554941761634E9, 0.0, 2022-10-23 13:04:54.176
11.0, -69544.07775927517, -101368.49151474137, 53521.78854009969, 10964.245911150683, 86089.77777836059, 70754.89410816361, 29408.63721473661, 18805.662549217053, 0.044, 0.9500000000000001, 0.096, 192.0, 0.0, 0.0, 0.0, 0.0, 0.0, 0.0, 0.0, 0.0, 0.0, 1.6665554941761873E9, 0.0, 2022-10-23 13:04:54.176
12.0, -69581.13695158207, -101402.62262852462, 54430.096379530005, 11542.28437450938, 86331.64600511146, 71228.72873887166, 30102.18949344033, 19645.79756805868, 0.044, 0.9500000000000001, 0.096, 192.0, 0.0, 0.0, 0.0, 0.0, 0.0, 0.0, 0.0, 0.0, 0.0, 1.666555494176211E9, 0.0, 2022-10-23 13:04:54.176
13.0, -69579.84055040366, -101405.97539019292, 56559.79294297611, 12550.81743607729, 86477.08880628215, 72121.1221362498, 31408.090163241646, 20915.33194963121, 0.044, 0.9500000000000001, 0.096, 192.0, 0.0, 0.0, 0.0, 0.0, 0.0, 0.0, 0.0, 0.0, 0.0, 1.6665554941762345E9, 0.0, 2022-10-23 13:04:54.176
14.0, -69502.72703203285, -101330.89588056755, 55084.91308509268, 11617.565049834855, 86063.3133129255, 71374.95385109828, 30324.34348158163, 19604.40213732745, 0.044, 0.9500000000000001, 0.096, 192.0, 0.0, 0.0, 0.0, 0.0, 0.0, 0.0, 0.0, 0.0, 0.0, 1.6665554941762578E9, 0.0, 2022-10-23 13:04:54.176
15.0, -69528.69975908993, -101349.09020055416, 53561.75345918578, 10941.35772482845, 86041.63212080386, 70754.96116339698, 29408.368993803146, 18769.81035111074, 0.044, 0.9500000000000001, 0.096, 192.0, 0.0, 0.0, 0.0, 0.0, 0.0, 0.0, 0.0, 0.0, 0.0, 1.6665554941762812E9, 0.0, 2022-10-23 13:04:54.176
16.0, -69583.23801556087, -101403.91902970303, 54069.138058321245, 11320.19744160145, 86256.18651583034, 71044.95269596014, 29842.28340891402, 19372.346326392453, 0.044, 0.9500000000000001, 0.096, 192.0, 0.0, 0.0, 0.0, 0.0, 0.0, 0.0, 0.0, 0.0, 0.0, 1.6665554941763046E9, 0.0, 2022-10-23 13:04:54.176
17.0, -69598.61601574613, -101423.63326831261, 56279.92675065121, 12416.0811205007, 86484.39782671903, 71989.4927131525, 31231.824306467093, 20788.597558569618, 0.056, 0.9460000000000001, 0.096, 192.0, 1.0, 192.0, 29.0, 144.0, 3.0, 0.0, 0.0, 0.0, 0.0, 1.6665554941763284E9, 0.0, 2022-10-23 13:04:54.176
18.0, -69535.20411672641, -101369.58675021968, 55462.34464196499, 11795.283769999001, 86115.72815367319, 71514.16051556593, 30553.158289570605, 19876.132294670617, 0.056, 0.9460000000000001, 0.096, 192.0, 0.0, 0.0, 0.0, 0.0, 0.0, 0.0, 0.0, 0.0, 0.0, 1.6665554941763997E9, 0.0, 2022-10-23 13:04:54.176
19.0, -69524.69879683242, -101353.00175583384, 53575.879761681535, 10908.120680823407, 86008.61859424337, 70730.4412997295, 29388.92297612703, 18736.88623152807, 0.056, 0.9460000000000001, 0.096, 192.0, 0.0, 0.0, 0.0, 0.0, 0.0, 0.0, 0.0, 0.0, 0.0, 1.6665554941764247E9, 0.0, 2022-10-23 13:04:54.176
20.0, -69568.23999503136, -101387.75871846185, 53748.479932365415, 11142.366962715027, 86220.31196597958, 70893.78784820889, 29625.2926737419, 19146.034913782467, 0.056, 0.9460000000000001, 0.096, 192.0, 0.0, 0.0, 0.0, 0.0, 0.0, 0.0, 0.0, 0.0, 0.0, 1.6665554941764493E9, 0.0, 2022-10-23 13:04:54.176
21.0, -69615.89391421007, -101437.33488766372, 55908.172536870545, 12271.130057708033, 86504.64850719554, 71861.97601103497, 31034.301940715548, 20627.30737058012, 0.056, 0.9460000000000001, 0.096, 192.0, 0.0, 0.0, 0.0, 0.0, 0.0, 0.0, 0.0, 0.0, 0.0, 1.6665554941764731E9, 0.0, 2022-10-23 13:04:54.176
22.0, -69534.80178532623, -101366.81513390722, 55907.85961244817, 12066.835113386525, 86219.57435841256, 71748.63031490211, 30877.39269463929, 20250.30049685246, 0.056, 0.9460000000000001, 0.096, 192.0, 0.0, 0.0, 0.0, 0.0, 0.0, 0.0, 0.0, 0.0, 0.0, 1.6665554941764972E9, 0.0, 2022-10-23 13:04:54.176
23.0, -69501.4529825989, -101332.52755791278, 53735.56062407025, 10973.968919988743, 85995.051085359, 70798.39060287364, 29480.766294093883, 18814.670302232542, 0.056, 0.9460000000000001, 0.096, 192.0, 0.0, 0.0, 0.0, 0.0, 0.0, 0.0, 0.0, 0.0, 0.0, 1.6665554941765213E9, 0.0, 2022-10-23 13:04:54.176
24.0, -69546.24587848735, -101369.29617754176, 53607.50748008579, 11061.699516975823, 86187.38784639692, 70833.08051026828, 29523.636939959164, 19025.67076989064, 0.056, 0.9460000000000001, 0.096, 192.0, 0.0, 0.0, 0.0, 0.0, 0.0, 0.0, 0.0, 0.0, 0.0, 1.6665554941765451E9, 0.0, 2022-10-23 13:04:54.176
25.0, -69603.26517859283, -101418.96175372145, 55466.85969434497, 12061.403639483886, 86471.2102974904, 71680.72571524688, 30764.62814386227, 20371.5587105225, 0.056, 0.9460000000000001, 0.096, 192.0, 0.0, 0.0, 0.0, 0.0, 0.0, 0.0, 0.0, 0.0, 0.0, 1.6665554941765604E9, 0.0, 2022-10-23 13:04:54.176
26.0, -69562.29443100624, -101386.05998588324, 56200.98038923507, 12240.955202693369, 86291.05523718063, 71886.98761308046, 31086.940298907793, 20512.955845946773, 0.056, 0.9460000000000001, 0.096, 192.0, 0.0, 0.0, 0.0, 0.0, 0.0, 0.0, 0.0, 0.0, 0.0, 1.6665554941765687E9, 0.0, 2022-10-23 13:04:54.176
27.0, -69518.39560489602, -101344.6198516631, 53908.45136743205, 11028.194252037318, 85970.75473913607, 70849.08435929827, 29570.508548081943, 18900.992739318935, 0.056, 0.9480000000000001, 0.096, 192.0, 1.0, 192.0, 29.0, 160.0, 3.0, 0.0, 0.0, 0.0, 0.0, 1.666555494176579E9, 0.0, 2022-10-23 13:04:54.176
28.0, -69565.04369557425, -101388.94336091797, 53448.72068747529, 10952.533597056103, 86135.10711611595, 70737.77267191085, 29398.35541228717, 18893.996643304425, 0.056, 0.9480000000000001, 0.096, 192.0, 0.0, 0.0, 0.0, 0.0, 0.0, 0.0, 0.0, 0.0, 0.0, 1.6665554941765893E9, 0.0, 2022-10-23 13:04:54.176
29.0, -69599.10775412414, -101418.62647755463, 55005.92202018762, 11847.2962793465, 86443.6058930881, 71492.88165484449, 30485.678373060036, 20109.439803295114, 0.056, 0.9480000000000001, 0.096, 192.0, 0.0, 0.0, 0.0, 0.0, 0.0, 0.0, 0.0, 0.0, 0.0, 1.6665554941765983E9, 0.0, 2022-10-23 13:04:54.176
30.0, -69578.0747625917, -101403.02495992482, 56466.74263080867, 12446.233623770908, 86406.92668043694, 72057.17379536317, 31310.010708571757, 20790.430401614954, 0.056, 0.9480000000000001, 0.096, 192.0, 0.0, 0.0, 0.0, 0.0, 0.0, 0.0, 0.0, 0.0, 0.0, 1.6665554941766067E9, 0.0, 2022-10-23 13:04:54.176
31.0, -69508.65024431351, -101342.5187876843, 54278.797421312025, 11219.636943297022, 85990.58073646793, 71023.29385558295, 29812.15325738827, 19128.757015318515, 0.056, 0.9480000000000001, 0.096, 192.0, 0.0, 0.0, 0.0, 0.0, 0.0, 0.0, 0.0, 0.0, 0.0, 1.6665554941766152E9, 0.0, 2022-10-23 13:04:54.176
32.0, -69544.99418079785, -101375.04057586678, 53448.94420491984, 10949.225538876717, 86116.59987170696, 70745.86400340367, 29392.275737795324, 18849.315506138268, 0.056, 0.9480000000000001, 0.096, 192.0, 0.0, 0.0, 0.0, 0.0, 0.0, 0.0, 0.0, 0.0, 0.0, 1.6665554941766236E9, 0.0, 2022-10-23 13:04:54.176
33.0, -69589.25063481936, -101414.75962576385, 54571.53821844319, 11623.957648749072, 86374.87427888803, 71298.24266412767, 30205.052221423655, 19813.79327938477, 0.056, 0.9480000000000001, 0.096, 192.0, 0.0, 0.0, 0.0, 0.0, 0.0, 0.0, 0.0, 0.0, 0.0, 1.666555494176632E9, 0.0, 2022-10-23 13:04:54.176
34.0, -69594.88327442209, -101424.7955590243, 56498.705625379764, 12500.526011052849, 86458.02276826177, 72080.7101822746, 31355.29534283821, 20890.141533630078, 0.056, 0.9480000000000001, 0.096, 192.0, 0.0, 0.0, 0.0, 0.0, 0.0, 0.0, 0.0, 0.0, 0.0, 1.6665554941766489E9, 0.0, 2022-10-23 13:04:54.176
35.0, -69523.13417472054, -101358.09795356965, 54683.54280990873, 11417.78515789332, 86020.24150136013, 71191.37897388685, 30067.63369651243, 19388.84191380047, 0.056, 0.9480000000000001, 0.096, 192.0, 0.0, 0.0, 0.0, 0.0, 0.0, 0.0, 0.0, 0.0, 0.0, 1.6665554941766627E9, 0.0, 2022-10-23 13:04:54.176
36.0, -69540.30031446223, -101373.52065724382, 53455.3144520896, 10929.935983411788, 86079.47362416668, 70730.3965962406, 29374.416693975534, 18798.666453202542, 0.056, 0.9480000000000001, 0.096, 192.0, 0.0, 0.0, 0.0, 0.0, 0.0, 0.0, 0.0, 0.0, 0.0, 1.666555494176674E9, 0.0, 2022-10-23 13:04:54.176
37.0, -69575.48196023489, -101404.25430586986, 54228.08131314294, 11453.525597277356, 86333.70236560135, 71153.26924959055, 29987.860320551437, 19569.287546788164, 0.054, 0.9580000000000001, 0.088, 192.0, 1.0, 176.0, 29.0, 240.0, 2.0, 192.0, 0.0, 0.0, 0.0, 1.6665554941766825E9, 0.0, 2022-10-23 13:04:54.176
38.0, -69597.83370469019, -101422.04629445629, 56414.327790060976, 12507.119775667165, 86510.10233284264, 72077.40212409523, 31341.750185698296, 20905.13955415959, 0.054, 0.9580000000000001, 0.088, 192.0, 0.0, 0.0, 0.0, 0.0, 0.0, 0.0, 0.0, 0.0, 0.0, 1.6665554941766913E9, 0.0, 2022-10-23 13:04:54.176
39.0, -69525.05642474371, -101357.49445646936, 55139.92072819719, 11655.004221797493, 86075.74088284266, 71394.86925540796, 30366.38711290206, 19698.681795439934, 0.054, 0.9580000000000001, 0.088, 192.0, 0.0, 0.0, 0.0, 0.0, 0.0, 0.0, 0.0, 0.0, 0.0, 1.6665554941766999E9, 0.0, 2022-10-23 13:04:54.176
40.0, -69526.86691604459, -101355.7733721463, 53487.63507457198, 10913.082768092487, 86036.42416434576, 70719.35483447967, 29364.67133339302, 18762.18840625148, 0.054, 0.9580000000000001, 0.088, 192.0, 0.0, 0.0, 0.0, 0.0, 0.0, 0.0, 0.0, 0.0, 0.0, 1.6665554941767085E9, 0.0, 2022-10-23 13:04:54.176
41.0, -69577.51596898031, -101400.99095117938, 53907.55729765383, 11269.101353776618, 86275.45371955082, 70991.59908194531, 29759.13491954028, 19321.093776356432, 0.054, 0.9580000000000001, 0.088, 192.0, 0.0, 0.0, 0.0, 0.0, 0.0, 0.0, 0.0, 0.0, 0.0, 1.6665554941767168E9, 0.0, 2022-10-23 13:04:54.176
42.0, -69614.66456826503, -101437.8936812751, 56132.315830268366, 12392.768251033815, 86515.75732418982, 71961.73184653901, 31176.12375928447, 20776.751134008307, 0.054, 0.9580000000000001, 0.088, 192.0, 0.0, 0.0, 0.0, 0.0, 0.0, 0.0, 0.0, 0.0, 0.0, 1.6665554941767251E9, 0.0, 2022-10-23 13:04:54.176
43.0, -69529.83969805714, -101359.3272995147, 55591.358910961026, 11904.852021318917, 86162.46565132924, 71594.96207177188, 30661.318380989836, 20034.852032047755, 0.054, 0.9580000000000001, 0.088, 192.0, 0.0, 0.0, 0.0, 0.0, 0.0, 0.0, 0.0, 0.0, 0.0, 1.6665554941767335E9, 0.0, 2022-10-23 13:04:54.176
44.0, -69529.6608841015, -101357.96384310292, 53611.7543115323, 10952.645355778379, 86022.76724848358, 70759.92325066606, 29421.847095709694, 18794.2855112893, 0.054, 0.9580000000000001, 0.088, 192.0, 0.0, 0.0, 0.0, 0.0, 0.0, 0.0, 0.0, 0.0, 0.0, 1.666555494176742E9, 0.0, 2022-10-23 13:04:54.176
45.0, -69573.69382067845, -101398.7334249894, 53716.36047558314, 11158.571977445125, 86231.10785855149, 70901.20862736805, 29618.810667849863, 19156.003791809537, 0.054, 0.9580000000000001, 0.088, 192.0, 0.0, 0.0, 0.0, 0.0, 0.0, 0.0, 0.0, 0.0, 0.0, 1.6665554941767504E9, 0.0, 2022-10-23 13:04:54.176
46.0, -69612.47409730841, -101434.76443705136, 55777.19131436245, 12241.581051538116, 86504.08971358415, 71826.12381292866, 30968.811329461496, 20584.59318692603, 0.052000000000000005, 0.9540000000000001, 0.092, 192.0, 1.0, 160.0, 29.0, 208.0, 2.0, 224.0, 0.0, 0.0, 0.0, 1.6665554941767588E9, 0.0, 2022-10-23 13:04:54.176
47.0, -69548.39164595505, -101379.10859335764, 56036.33743957728, 12164.735754100771, 86245.54708546962, 71817.40663259108, 30975.293335353537, 20380.722925749174, 0.052000000000000005, 0.9540000000000001, 0.092, 192.0, 0.0, 0.0, 0.0, 0.0, 0.0, 0.0, 0.0, 0.0, 0.0, 1.6665554941767676E9, 0.0, 2022-10-23 13:04:54.176
48.0, -69524.89996253252, -101355.75102040185, 53802.45939522498, 11014.783205364134, 85984.18813755372, 70826.68791135406, 29524.32984403728, 18864.939375512527, 0.052000000000000005, 0.9540000000000001, 0.092, 192.0, 0.0, 0.0, 0.0, 0.0, 0.0, 0.0, 0.0, 0.0, 0.0, 1.6665554941767764E9, 0.0, 2022-10-23 13:04:54.176
49.0, -69574.0738003342, -101398.84518371167, 53574.51630526976, 11054.14462734993, 86173.3956543679, 70821.61406536271, 29503.877997860673, 19011.633874372706, 0.052000000000000005, 0.9540000000000001, 0.092, 192.0, 0.0, 0.0, 0.0, 0.0, 0.0, 0.0, 0.0, 0.0, 0.0, 1.6665554941767936E9, 0.0, 2022-10-23 13:04:54.176
50.0, -69609.41190831804, -101433.26687017285, 55354.631585434865, 12038.157825250368, 86472.1043672686, 71660.18446209245, 30714.09084964882, 20333.918372859764, 0.052000000000000005, 0.9540000000000001, 0.092, 192.0, 0.0, 0.0, 0.0, 0.0, 0.0, 0.0, 0.0, 0.0, 0.0, 1.666555494176802E9, 0.0, 2022-10-23 13:04:54.176
51.0, -69560.23807051637, -101385.21061959394, 56368.28319648304, 12371.087058912166, 86339.80439183765, 71993.31486145436, 31219.352033061034, 20673.888406024984, 0.052000000000000005, 0.9540000000000001, 0.092, 192.0, 0.0, 0.0, 0.0, 0.0, 0.0, 0.0, 0.0, 0.0, 0.0, 1.6665554941768103E9, 0.0, 2022-10-23 13:04:54.176
52.0, -69509.05257571371, -101333.15340675753, 54098.10591913533, 11141.15996851444, 85988.1443963223, 70948.32610467984, 29696.77355250997, 19029.738787381506, 0.052000000000000005, 0.9540000000000001, 0.092, 192.0, 0.0, 0.0, 0.0, 0.0, 0.0, 0.0, 0.0, 0.0, 0.0, 1.6665554941768188E9, 0.0, 2022-10-23 13:04:54.176
53.0, -69555.14187278056, -101377.94630264597, 53524.53780466769, 11006.110728515474, 86150.30630234556, 70789.29344288033, 29453.363055391677, 18938.387207792664, 0.052000000000000005, 0.9540000000000001, 0.092, 192.0, 0.0, 0.0, 0.0, 0.0, 0.0, 0.0, 0.0, 0.0, 0.0, 1.6665554941768272E9, 0.0, 2022-10-23 13:04:54.176
54.0, -69603.95808267094, -101426.3378293917, 54920.44894939053, 11805.3867584928, 86412.15698863947, 71458.1693957054, 30433.956436390454, 20048.128968254205, 0.052000000000000005, 0.9540000000000001, 0.092, 192.0, 0.0, 0.0, 0.0, 0.0, 0.0, 0.0, 0.0, 0.0, 0.0, 1.6665554941768355E9, 0.0, 2022-10-23 13:04:54.176
55.0, -69598.01251864583, -101425.37670438012, 56555.0990766405, 12492.702900493492, 86405.31735483615, 72083.72766777607, 31367.387636588533, 20864.727600184393, 0.052000000000000005, 0.9540000000000001, 0.092, 192.0, 0.0, 0.0, 0.0, 0.0, 0.0, 0.0, 0.0, 0.0, 0.0, 1.666555494176844E9, 0.0, 2022-10-23 13:04:54.176
56.0, -69534.98059928186, -101367.99977636336, 54516.82114801659, 11331.172148129004, 86001.04135287301, 71120.47924047461, 29962.64755280585, 19268.05308676399, 0.052000000000000005, 0.9480000000000001, 0.08600000000000001, 192.0, 1.0, 160.0, 29.0, 160.0, 2.0, 176.0, 0.0, 0.0, 0.0, 1.6665554941768522E9, 0.0, 2022-10-23 13:04:54.176
57.0, -69552.59377391265, -101380.8296776807, 53557.551331228184, 10990.553914374581, 86097.95851683123, 70785.27012887837, 29452.513689102376, 18877.411648918587, 0.052000000000000005, 0.9480000000000001, 0.08600000000000001, 192.0, 0.0, 0.0, 0.0, 0.0, 0.0, 0.0, 0.0, 0.0, 0.0, 1.6665554941768613E9, 0.0, 2022-10-23 13:04:54.176
58.0, -69593.65392847704, -101422.24746015639, 54565.25737825124, 11615.195764922591, 86350.9802640653, 71298.91321646133, 30200.73833474378, 19777.069363244696, 0.052000000000000005, 0.9480000000000001, 0.08600000000000001, 192.0, 0.0, 0.0, 0.0, 0.0, 0.0, 0.0, 0.0, 0.0, 0.0, 1.6665554941768696E9, 0.0, 2022-10-23 13:04:54.176
59.0, -69611.28945485229, -101438.83245454222, 56633.26312700071, 12575.404354978127, 86466.20350673242, 72155.52147096652, 31453.79948065275, 20974.228796270945, 0.052000000000000005, 0.9480000000000001, 0.08600000000000001, 192.0, 0.0, 0.0, 0.0, 0.0, 0.0, 0.0, 0.0, 0.0, 0.0, 1.666555494176878E9, 0.0, 2022-10-23 13:04:54.176
60.0, -69524.29646543223, -101349.93956684346, 54966.8735226242, 11537.523452940399, 86017.96162342568, 71303.71884151922, 30233.28247467071, 19533.63651438195, 0.052000000000000005, 0.9480000000000001, 0.08600000000000001, 192.0, 0.0, 0.0, 0.0, 0.0, 0.0, 0.0, 0.0, 0.0, 0.0, 1.6665554941768863E9, 0.0, 2022-10-23 13:04:54.176
61.0, -69552.83964310166, -101374.95116888895, 53577.2432180933, 10952.667707522834, 86057.36774890039, 70761.97961115594, 29422.00355792088, 18815.072633632735, 0.052000000000000005, 0.9480000000000001, 0.08600000000000001, 192.0, 0.0, 0.0, 0.0, 0.0, 0.0, 0.0, 0.0, 0.0, 0.0, 1.666555494176895E9, 0.0, 2022-10-23 13:04:54.176
62.0, -69595.82204768922, -101417.6877042875, 54239.68186851524, 11424.803605652287, 86308.33313564457, 71147.30133382099, 29971.275326165596, 19519.845488053023, 0.052000000000000005, 0.9480000000000001, 0.08600000000000001, 192.0, 0.0, 0.0, 0.0, 0.0, 0.0, 0.0, 0.0, 0.0, 0.0, 1.6665554941769032E9, 0.0, 2022-10-23 13:04:54.176
63.0, -69614.66456826503, -101444.37568716714, 56465.423877885805, 12510.181964657542, 86503.37445776159, 72093.80830452542, 31361.68794175243, 20909.364033861642, 0.052000000000000005, 0.9480000000000001, 0.08600000000000001, 192.0, 0.0, 0.0, 0.0, 0.0, 0.0, 0.0, 0.0, 0.0, 0.0, 1.6665554941769116E9, 0.0, 2022-10-23 13:04:54.176
64.0, -69530.0632155017, -101367.46333449642, 55471.35239498048, 11794.18853452069, 86106.04984832405, 71537.20516409936, 30567.977496144475, 19873.69595452499, 0.052000000000000005, 0.9480000000000001, 0.08600000000000001, 192.0, 0.0, 0.0, 0.0, 0.0, 0.0, 0.0, 0.0, 0.0, 0.0, 1.6665554941769197E9, 0.0, 2022-10-23 13:04:54.176
65.0, -69540.25561097331, -101366.99394786287, 53686.23032405738, 10961.139018671396, 86025.69532700723, 70795.41782086108, 29470.12686373316, 18807.160116095558, 0.052000000000000005, 0.9480000000000001, 0.08600000000000001, 192.0, 0.0, 0.0, 0.0, 0.0, 0.0, 0.0, 0.0, 0.0, 0.0, 1.666555494176936E9, 0.0, 2022-10-23 13:04:54.176
66.0, -69588.28950980777, -101408.50113731637, 53968.756373972465, 11241.519301118768, 86242.44019299033, 71002.95376812862, 29773.440035991676, 19274.33392695593, 0.056, 0.9520000000000001, 0.084, 192.0, 1.0, 192.0, 29.0, 192.0, 2.0, 160.0, 0.0, 0.0, 0.0, 1.6665554941769445E9, 0.0, 2022-10-23 13:04:54.176
67.0, -69621.25833287936, -101446.38734416812, 56155.382830546245, 12363.621576264093, 86509.54353923125, 71968.25855591995, 31184.50566345521, 20739.446072512397, 0.056, 0.9520000000000001, 0.084, 192.0, 0.0, 0.0, 0.0, 0.0, 0.0, 0.0, 0.0, 0.0, 0.0, 1.6665554941769533E9, 0.0, 2022-10-23 13:04:54.176
68.0, -69538.3110092057, -101374.25826481084, 55940.35904888619, 12046.830302099026, 86204.03989601611, 71754.91115509406, 30887.674497088734, 20215.118851079806, 0.056, 0.9520000000000001, 0.084, 192.0, 0.0, 0.0, 0.0, 0.0, 0.0, 0.0, 0.0, 0.0, 0.0, 1.666555494176962E9, 0.0, 2022-10-23 13:04:54.176
69.0, -69526.37517766657, -101353.96288084541, 53862.22795989847, 11022.583964179035, 86025.36005084039, 70869.51385373043, 29568.80981550334, 18871.60019536021, 0.056, 0.9520000000000001, 0.084, 192.0, 0.0, 0.0, 0.0, 0.0, 0.0, 0.0, 0.0, 0.0, 0.0, 1.6665554941769705E9, 0.0, 2022-10-23 13:04:54.176
70.0, -69568.95525085393, -101387.7810702063, 53812.31651452977, 11138.075427779608, 86205.62686987245, 70926.51080209146, 29653.701740944594, 19126.611247850808, 0.056, 0.9520000000000001, 0.084, 192.0, 0.0, 0.0, 0.0, 0.0, 0.0, 0.0, 0.0, 0.0, 0.0, 1.66655549417698E9, 0.0, 2022-10-23 13:04:54.176
71.0, -69616.16213514355, -101431.83635852771, 55759.73460194285, 12172.335347215576, 86490.81277737771, 71802.56507427276, 30937.74240466862, 20509.603084278475, 0.056, 0.9520000000000001, 0.084, 192.0, 0.0, 0.0, 0.0, 0.0, 0.0, 0.0, 0.0, 0.0, 0.0, 1.6665554941769884E9, 0.0, 2022-10-23 13:04:54.176
72.0, -69571.8162741442, -101394.91127668755, 56342.668097337264, 12269.006641984779, 86287.03192317867, 71942.91167770764, 31156.342465441525, 20531.753663033684, 0.056, 0.9520000000000001, 0.084, 192.0, 0.0, 0.0, 0.0, 0.0, 0.0, 0.0, 0.0, 0.0, 0.0, 1.6665554941769967E9, 0.0, 2022-10-23 13:04:54.176
73.0, -69517.68034907346, -101343.01052606232, 54046.24987199901, 11059.598452997025, 85978.06375957296, 70901.38744132369, 29638.81547913736, 18933.827451923782, 0.056, 0.9520000000000001, 0.084, 192.0, 0.0, 0.0, 0.0, 0.0, 0.0, 0.0, 0.0, 0.0, 0.0, 1.6665554941770053E9, 0.0, 2022-10-23 13:04:54.177
74.0, -69552.70553263492, -101376.09110785618, 53688.420795014004, 11040.219490554273, 86174.91557299085, 70840.970676061, 29537.56207675482, 19001.396775412177, 0.056, 0.9520000000000001, 0.084, 192.0, 0.0, 0.0, 0.0, 0.0, 0.0, 0.0, 0.0, 0.0, 0.0, 1.6665554941770136E9, 0.0, 2022-10-23 13:04:54.177
75.0, -69604.36041407114, -101429.93646024901, 55325.775483343066, 11956.529254499586, 86467.23168697735, 71618.69962438341, 30664.201756024573, 20248.646467762766, 0.052000000000000005, 0.9520000000000001, 0.084, 192.0, 1.0, 160.0, 29.0, 192.0, 2.0, 160.0, 0.0, 0.0, 0.0, 1.6665554941770234E9, 0.0, 2022-10-23 13:04:54.177
76.0, -69570.16224505451, -101402.01913142433, 56625.48471993026, 12453.408533741062, 86386.27366856023, 72098.52452260548, 31371.902688968505, 20803.43911688794, 0.052000000000000005, 0.9520000000000001, 0.084, 192.0, 0.0, 0.0, 0.0, 0.0, 0.0, 0.0, 0.0, 0.0, 0.0, 1.6665554941770325E9, 0.0, 2022-10-23 13:04:54.177
77.0, -69505.94568323441, -101339.65776439403, 54396.76992854714, 11219.145204919007, 85991.96654462416, 71060.68832405667, 29859.494252144606, 19140.335218946366, 0.052000000000000005, 0.9520000000000001, 0.084, 192.0, 0.0, 0.0, 0.0, 0.0, 0.0, 0.0, 0.0, 0.0, 0.0, 1.6665554941770408E9, 0.0, 2022-10-23 13:04:54.177
78.0, -69543.00487554132, -101369.38558451958, 53653.79794285273, 10991.55974287507, 86118.09743858546, 70817.43428914956, 29495.719611134486, 18917.98006510497, 0.052000000000000005, 0.9520000000000001, 0.084, 192.0, 0.0, 0.0, 0.0, 0.0, 0.0, 0.0, 0.0, 0.0, 0.0, 1.6665554941770494E9, 0.0, 2022-10-23 13:04:54.177
79.0, -69587.06016386273, -101408.70230301647, 54878.91940819257, 11716.248001605034, 86387.61477322756, 71418.91973244188, 30373.986706016865, 19935.632638410647, 0.052000000000000005, 0.9520000000000001, 0.084, 192.0, 0.0, 0.0, 0.0, 0.0, 0.0, 0.0, 0.0, 0.0, 0.0, 1.666555494177058E9, 0.0, 2022-10-23 13:04:54.177
80.0, -69582.85803590513, -101411.51862281784, 56705.906296480454, 12523.436549119539, 86433.79347727222, 72148.12304355181, 31447.2727712718, 20914.95196997547, 0.052000000000000005, 0.9520000000000001, 0.084, 192.0, 0.0, 0.0, 0.0, 0.0, 0.0, 0.0, 0.0, 0.0, 0.0, 1.6665554941770744E9, 0.0, 2022-10-23 13:04:54.177
81.0, -69513.94760774942, -101344.55279642974, 54769.1276394281, 11385.620997622133, 86002.53891975152, 71205.84055254943, 30083.637545542428, 19352.900308716336, 0.052000000000000005, 0.9520000000000001, 0.084, 192.0, 0.0, 0.0, 0.0, 0.0, 0.0, 0.0, 0.0, 0.0, 0.0, 1.6665554941770828E9, 0.0, 2022-10-23 13:04:54.177
82.0, -69545.0165325423, -101371.44194500947, 53642.10798050261, 10953.11474241194, 86082.35699920142, 70791.75213477042, 29460.806186295296, 18843.16877641306, 0.052000000000000005, 0.9520000000000001, 0.084, 192.0, 0.0, 0.0, 0.0, 0.0, 0.0, 0.0, 0.0, 0.0, 0.0, 1.6665554941770911E9, 0.0, 2022-10-23 13:04:54.177
83.0, -69598.03487039029, -101423.67797180152, 54497.84451697404, 11505.582810113765, 86325.20870270833, 71241.58099193347, 30117.94747328132, 19651.497262894783, 0.052000000000000005, 0.9520000000000001, 0.084, 192.0, 0.0, 0.0, 0.0, 0.0, 0.0, 0.0, 0.0, 0.0, 0.0, 1.6665554941770997E9, 0.0, 2022-10-23 13:04:54.177
84.0, -69605.96973967191, -101435.50204461838, 56636.59353692455, 12519.457938606494, 86473.46782368039, 72131.82862184389, 31425.613930894608, 20929.1900311935, 0.052000000000000005, 0.9520000000000001, 0.084, 192.0, 0.0, 0.0, 0.0, 0.0, 0.0, 0.0, 0.0, 0.0, 0.0, 1.6665554941771083E9, 0.0, 2022-10-23 13:04:54.177
85.0, -69517.99327349583, -101351.63829942206, 55240.07889510142, 11625.365808649756, 86066.10728098241, 71416.57279927407, 30386.72720035639, 19662.06963802214, 0.046, 0.9440000000000001, 0.092, 192.0, 1.0, 112.0, 29.0, 128.0, 2.0, 224.0, 0.0, 0.0, 0.0, 1.6665554941771166E9, 0.0, 2022-10-23 13:04:54.177
86.0, -69539.71916910639, -101366.14458157356, 53704.290533577274, 10949.02437317662, 86047.91296099579, 70805.6102163327, 29471.512671889388, 18815.20674409947, 0.046, 0.9440000000000001, 0.092, 192.0, 0.0, 0.0, 0.0, 0.0, 0.0, 0.0, 0.0, 0.0, 0.0, 1.6665554941771257E9, 0.0, 2022-10-23 13:04:54.177
87.0, -69576.15251256854, -101398.06287265575, 54206.46717625466, 11342.415075590025, 86282.87449870998, 71113.10316480436, 29914.50189524912, 19424.001207828667, 0.046, 0.9440000000000001, 0.092, 192.0, 0.0, 0.0, 0.0, 0.0, 0.0, 0.0, 0.0, 0.0, 0.0, 1.666555494177134E9, 0.0, 2022-10-23 13:04:54.177
88.0, -69609.83659146269, -101435.74791380738, 56465.60269184145, 12475.715574707458, 86527.20141735094, 72101.56435985141, 31351.607305003086, 20884.37478356061, 0.046, 0.9440000000000001, 0.092, 192.0, 0.0, 0.0, 0.0, 0.0, 0.0, 0.0, 0.0, 0.0, 0.0, 1.6665554941771448E9, 0.0, 2022-10-23 13:04:54.177
89.0, -69531.53843063574, -101366.03282285128, 55730.69968589541, 11880.64508207382, 86134.30245331555, 71643.21948805088, 30710.067535646864, 20006.6217788007, 0.046, 0.9440000000000001, 0.092, 192.0, 0.0, 0.0, 0.0, 0.0, 0.0, 0.0, 0.0, 0.0, 0.0, 1.6665554941771533E9, 0.0, 2022-10-23 13:04:54.177
90.0, -69534.46650915939, -101363.82000015021, 53771.055194265275, 10936.574451515015, 86003.0977133629, 70800.89399825264, 29477.771160336873, 18794.374918267124, 0.046, 0.9440000000000001, 0.092, 192.0, 0.0, 0.0, 0.0, 0.0, 0.0, 0.0, 0.0, 0.0, 0.0, 1.6665554941771617E9, 0.0, 2022-10-23 13:04:54.177
91.0, -69572.12919856659, -101394.37483482061, 53952.10432435326, 11177.97329163233, 86219.57435841256, 70977.0480963049, 29724.914398779205, 19208.776260468516, 0.046, 0.9440000000000001, 0.092, 192.0, 0.0, 0.0, 0.0, 0.0, 0.0, 0.0, 0.0, 0.0, 0.0, 1.66655549417717E9, 0.0, 2022-10-23 13:04:54.177
92.0, -69595.71028896693, -101417.19596590949, 56056.386954353686, 12272.605272842084, 86490.23163202187, 71911.01573836991, 31090.471874531733, 20647.84862373455, 0.046, 0.9440000000000001, 0.092, 192.0, 0.0, 0.0, 0.0, 0.0, 0.0, 0.0, 0.0, 0.0, 0.0, 1.6665554941771796E9, 0.0, 2022-10-23 13:04:54.177
93.0, -69555.18657626947, -101388.56338126224, 56126.1467487987, 12099.893343435926, 86222.03305030263, 71814.97029244546, 30974.779245231064, 20317.243971496104, 0.046, 0.9440000000000001, 0.092, 192.0, 0.0, 0.0, 0.0, 0.0, 0.0, 0.0, 0.0, 0.0, 0.0, 1.6665554941771877E9, 0.0, 2022-10-23 13:04:54.177
94.0, -69548.23518374386, -101385.52354401631, 53930.75840839844, 10984.228370693729, 85982.28823927502, 70850.6266296657, 29562.260754377934, 18854.07642770725, 0.046, 0.9440000000000001, 0.092, 192.0, 0.0, 0.0, 0.0, 0.0, 0.0, 0.0, 0.0, 0.0, 0.0, 1.6665554941771965E9, 0.0, 2022-10-23 13:04:54.177
95.0, -69602.25935009234, -101438.60893709767, 53770.0940692537, 11051.484769759747, 86171.5404595781, 70868.5750804633, 29584.32192615532, 19044.110959066267, 0.046, 0.9480000000000001, 0.092, 192.0, 1.0, 112.0, 29.0, 160.0, 2.0, 224.0, 0.0, 0.0, 0.0, 1.6665554941772048E9, 0.0, 2022-10-23 13:04:54.177
96.0, -69649.10860647066, -101485.0558620758, 55620.662047941936, 12057.849712115492, 86471.27735272376, 71724.95981752394, 30829.247037082558, 20399.833667258463, 0.046, 0.9480000000000001, 0.092, 192.0, 0.0, 0.0, 0.0, 0.0, 0.0, 0.0, 0.0, 0.0, 0.0, 1.6665554941772213E9, 0.0, 2022-10-23 13:04:54.177
97.0, -69603.46634429293, -101443.88394878912, 56474.90101753486, 12307.697511636916, 86315.39628689246, 71989.13508524121, 31231.399623322442, 20623.820498445093, 0.046, 0.9480000000000001, 0.092, 192.0, 0.0, 0.0, 0.0, 0.0, 0.0, 0.0, 0.0, 0.0, 0.0, 1.66655549417723E9, 0.0, 2022-10-23 13:04:54.177
98.0, -69570.00578284333, -101411.89860247358, 54213.440920524714, 11107.34177915356, 85991.07247484595, 70968.75559911199, 29733.810393072417, 19010.00219702747, 0.046, 0.9480000000000001, 0.092, 192.0, 0.0, 0.0, 0.0, 0.0, 0.0, 0.0, 0.0, 0.0, 0.0, 1.666555494177239E9, 0.0, 2022-10-23 13:04:54.177
99.0, -69621.07951892371, -101462.68176587604, 53713.05241740375, 11004.344940703504, 86135.7776684496, 70838.221411493, 29531.258884818424, 18960.18015863659, 0.046, 0.9480000000000001, 0.092, 192.0, 0.0, 0.0, 0.0, 0.0, 0.0, 0.0, 0.0, 0.0, 0.0, 1.6665554941772473E9, 0.0, 2022-10-23 13:04:54.177
100.0, -69671.57210964824, -101512.54850775583, 55169.805010533935, 11825.235107569111, 86397.22602334333, 71524.06233835964, 30537.132088796152, 20101.840210180308, 0.046, 0.9480000000000001, 0.092, 192.0, 0.0, 0.0, 0.0, 0.0, 0.0, 0.0, 0.0, 0.0, 0.0, 1.6665554941772556E9, 0.0, 2022-10-23 13:04:54.177
101.0, -69651.76846406085, -101497.8634116487, 56663.52738899319, 12430.006257296356, 86360.70327290337, 72084.4652753431, 31371.567412801676, 20813.028015259268, 0.046, 0.9480000000000001, 0.092, 192.0, 0.0, 0.0, 0.0, 0.0, 0.0, 0.0, 0.0, 0.0, 0.0, 1.666555494177264E9, 0.0, 2022-10-23 13:04:54.177
102.0, -69587.9765853854, -101433.08805621721, 54523.481967864274, 11227.147129434006, 85965.56913442245, 71078.18973996518, 29905.136514322345, 19175.98625135258, 0.046, 0.9480000000000001, 0.092, 192.0, 0.0, 0.0, 0.0, 0.0, 0.0, 0.0, 0.0, 0.0, 0.0, 1.6665554941772723E9, 0.0, 2022-10-23 13:04:54.177
103.0, -69620.47602182342, -101464.62636764365, 53638.174073478476, 10924.593916486969, 86079.20540323322, 70779.34691659771, 29448.512726844878, 18853.472930606953, 0.046, 0.9480000000000001, 0.092, 192.0, 0.0, 0.0, 0.0, 0.0, 0.0, 0.0, 0.0, 0.0, 0.0, 1.666555494177281E9, 0.0, 2022-10-23 13:04:54.177
104.0, -69657.33404843022, -101499.58449597175, 54738.662211735515, 11599.750709503975, 86354.5341914337, 71338.40874891386, 30258.51759416075, 19814.553238696248, 0.046, 0.9480000000000001, 0.092, 192.0, 0.0, 0.0, 0.0, 0.0, 0.0, 0.0, 0.0, 0.0, 0.0, 1.6665554941772892E9, 0.0, 2022-10-23 13:04:54.177
105.0, -69662.98903977741, -101508.14521409813, 56732.79544506019, 12514.205278659498, 86449.19382920192, 72157.89075587878, 31458.672160944006, 20943.204574966978, 0.05, 0.9460000000000001, 0.088, 192.0, 1.0, 144.0, 29.0, 144.0, 2.0, 192.0, 0.0, 0.0, 0.0, 1.6665554941772976E9, 0.0, 2022-10-23 13:04:54.177
106.0, -69588.33421329668, -101437.62546034163, 54958.71513589801, 11437.611155225177, 86004.43881803022, 71272.76167544862, 30185.270927580706, 19457.32765881153, 0.05, 0.9460000000000001, 0.088, 192.0, 0.0, 0.0, 0.0, 0.0, 0.0, 0.0, 0.0, 0.0, 0.0, 1.6665554941773067E9, 0.0, 2022-10-23 13:04:54.177
107.0, -69609.0766321512, -101452.10939074868, 53675.05445182973, 10912.993361114664, 86053.4114901318, 70786.0077364454, 29453.6536280696, 18823.342779081202, 0.05, 0.9460000000000001, 0.088, 192.0, 0.0, 0.0, 0.0, 0.0, 0.0, 0.0, 0.0, 0.0, 0.0, 1.6665554941773152E9, 0.0, 2022-10-23 13:04:54.177
108.0, -69652.23785069441, -101491.49316447892, 54355.26273909363, 11373.573407360722, 86279.47703355277, 71148.46362453265, 29994.096457254465, 19530.753139347213, 0.05, 0.9460000000000001, 0.088, 192.0, 0.0, 0.0, 0.0, 0.0, 0.0, 0.0, 0.0, 0.0, 0.0, 1.6665554941773233E9, 0.0, 2022-10-23 13:04:54.177
109.0, -69674.70135387199, -101515.23071709047, 56560.10586739849, 12444.22196676993, 86473.24430623584, 72080.75488576351, 31362.134976641537, 20897.56231278924, 0.05, 0.9460000000000001, 0.088, 192.0, 0.0, 0.0, 0.0, 0.0, 0.0, 0.0, 0.0, 0.0, 0.0, 1.6665554941773317E9, 0.0, 2022-10-23 13:04:54.177
110.0, -69602.16994311452, -101450.92474829254, 55391.84723995296, 11649.863320572773, 86060.42993789076, 71448.31227640061, 30456.06231165675, 19762.272508415284, 0.05, 0.9460000000000001, 0.088, 192.0, 0.0, 0.0, 0.0, 0.0, 0.0, 0.0, 0.0, 0.0, 0.0, 1.66655549417734E9, 0.0, 2022-10-23 13:04:54.177
111.0, -69611.35651008565, -101459.84309433021, 53716.49458604987, 10896.654235917835, 86011.39021055582, 70774.74245723993, 29446.232848910437, 18802.04156661529, 0.05, 0.9460000000000001, 0.088, 192.0, 0.0, 0.0, 0.0, 0.0, 0.0, 0.0, 0.0, 0.0, 0.0, 1.6665554941773567E9, 0.0, 2022-10-23 13:04:54.177
112.0, -69644.88412676861, -101484.98880684243, 54080.269227059995, 11221.31332413117, 86228.2021317723, 71018.75645145851, 29803.883111939802, 19328.089872370943, 0.05, 0.9460000000000001, 0.088, 192.0, 0.0, 0.0, 0.0, 0.0, 0.0, 0.0, 0.0, 0.0, 0.0, 1.6665554941773677E9, 0.0, 2022-10-23 13:04:54.177
113.0, -69685.07256329925, -101530.3181445978, 56300.42330031673, 12353.384477303563, 86486.87887035357, 71995.41592543316, 31230.41614656641, 20796.39831738452, 0.05, 0.9460000000000001, 0.088, 192.0, 0.0, 0.0, 0.0, 0.0, 0.0, 0.0, 0.0, 0.0, 0.0, 1.666555494177377E9, 0.0, 2022-10-23 13:04:54.177
114.0, -69597.99016690138, -101448.73427733593, 55900.32707456673, 11943.140559570857, 86152.96615993574, 71707.21253242642, 30817.80294392144, 20146.99073398003, 0.056, 0.9480000000000001, 0.09, 192.0, 1.0, 192.0, 29.0, 160.0, 2.0, 208.0, 0.0, 0.0, 0.0, 1.6665554941773853E9, 0.0, 2022-10-23 13:04:54.177
115.0, -69590.7258499534, -101433.87036727315, 53845.82177946828, 10934.160463113842, 85977.75083515058, 70820.02709150637, 29516.014995099904, 18831.702331507484, 0.056, 0.9480000000000001, 0.09, 192.0, 0.0, 0.0, 0.0, 0.0, 0.0, 0.0, 0.0, 0.0, 0.0, 1.6665554941773944E9, 0.0, 2022-10-23 13:04:54.177
116.0, -69629.19320216098, -101466.03452754433, 53886.65841658812, 11103.117299451507, 86189.35479990898, 70927.78485152542, 29670.465549286077, 19151.287573729467, 0.056, 0.9480000000000001, 0.09, 192.0, 0.0, 0.0, 0.0, 0.0, 0.0, 0.0, 0.0, 0.0, 0.0, 1.6665554941774027E9, 0.0, 2022-10-23 13:04:54.177
117.0, -69665.9394700455, -101504.41247277409, 55915.07922590724, 12180.247864752755, 86483.28023949626, 71847.64854283912, 31010.296167170545, 20576.457151944298, 0.056, 0.9480000000000001, 0.09, 192.0, 0.0, 0.0, 0.0, 0.0, 0.0, 0.0, 0.0, 0.0, 0.0, 1.6665554941774113E9, 0.0, 2022-10-23 13:04:54.177
118.0, -69605.679166994, -101446.40969591257, 56299.19395437169, 12176.760992617727, 86251.20207681681, 71900.77863940939, 31102.832389215517, 20459.42341797631, 0.056, 0.9480000000000001, 0.09, 192.0, 0.0, 0.0, 0.0, 0.0, 0.0, 0.0, 0.0, 0.0, 0.0, 1.6665554941774192E9, 0.0, 2022-10-23 13:04:54.177
119.0, -69579.48292249237, -101421.06281770025, 54051.07784880136, 11013.46445244127, 85976.87911711683, 70900.38161282321, 29636.803822136382, 18919.723501172484, 0.056, 0.9480000000000001, 0.09, 192.0, 0.0, 0.0, 0.0, 0.0, 0.0, 0.0, 0.0, 0.0, 0.0, 1.6665554941774275E9, 0.0, 2022-10-23 13:04:54.177
120.0, -69621.23598113489, -101459.7536873524, 53790.85883985268, 11037.8055021531, 86157.8835437159, 70883.99778413746, 29598.15765597316, 19039.90883110867, 0.056, 0.9480000000000001, 0.09, 192.0, 0.0, 0.0, 0.0, 0.0, 0.0, 0.0, 0.0, 0.0, 0.0, 1.666555494177436E9, 0.0, 2022-10-23 13:04:54.177
121.0, -69679.3505167187, -101513.7107984675, 55489.61377020047, 11964.285309825578, 86424.22693064534, 71667.42642729598, 30744.80214653041, 20302.335357944412, 0.056, 0.9480000000000001, 0.09, 192.0, 0.0, 0.0, 0.0, 0.0, 0.0, 0.0, 0.0, 0.0, 0.0, 1.6665554945315447E9, 0.0, 2022-10-23 13:04:54.531
122.0, -69625.05812943676, -101470.7507456244, 56596.516859116186, 12348.042410378745, 86311.88706301297, 72044.9026876572, 31311.687089405907, 20708.4889064418, 0.056, 0.9480000000000001, 0.09, 192.0, 0.0, 0.0, 0.0, 0.0, 0.0, 0.0, 0.0, 0.0, 0.0, 1.6665554945316243E9, 0.0, 2022-10-23 13:04:54.531
123.0, -69575.66077419052, -101423.52150959034, 54340.01884937511, 11120.864584549021, 85956.00258779558, 71006.32888154137, 29793.9812891461, 19057.72317143955, 0.056, 0.9480000000000001, 0.09, 192.0, 0.0, 0.0, 0.0, 0.0, 0.0, 0.0, 0.0, 0.0, 0.0, 1.6665554945316367E9, 0.0, 2022-10-23 13:04:54.531
124.0, -69611.5353240413, -101451.48354190393, 53686.96793162441, 10940.061323650041, 86096.19272901925, 70803.59855933173, 29489.39406745363, 18903.540838186844, 0.056, 0.9520000000000001, 0.092, 192.0, 1.0, 192.0, 29.0, 192.0, 2.0, 224.0, 0.0, 0.0, 0.0, 1.6665554945316484E9, 0.0, 2022-10-23 13:04:54.531
125.0, -69653.91423152856, -101491.02377784536, 55004.35739807575, 11711.50943178051, 86376.81888065564, 71438.43280535136, 30422.914674629534, 19977.720973219988, 0.056, 0.9520000000000001, 0.092, 192.0, 0.0, 0.0, 0.0, 0.0, 0.0, 0.0, 0.0, 0.0, 0.0, 1.6665554945316615E9, 0.0, 2022-10-23 13:04:54.531
126.0, -69644.8394232797, -101485.72641440945, 56715.27167740723, 12451.486283717906, 86397.44954078789, 72108.15812446573, 31415.577997634173, 20866.98512637438, 0.056, 0.9520000000000001, 0.092, 192.0, 0.0, 0.0, 0.0, 0.0, 0.0, 0.0, 0.0, 0.0, 0.0, 1.6665554945316732E9, 0.0, 2022-10-23 13:04:54.531
127.0, -69575.99605035735, -101422.40392236756, 54705.24635377483, 11292.861258132609, 85974.28631476001, 71148.37421755484, 30021.097364556477, 19279.921863069758, 0.056, 0.9520000000000001, 0.092, 192.0, 0.0, 0.0, 0.0, 0.0, 0.0, 0.0, 0.0, 0.0, 0.0, 1.6665554945318468E9, 0.0, 2022-10-23 13:04:54.531
128.0, -69592.24576857637, -101435.61380334066, 53676.395556497046, 10919.453015262248, 86073.57276363048, 70781.64914627661, 29468.092854987724, 18844.26401189137, 0.056, 0.9520000000000001, 0.092, 192.0, 0.0, 0.0, 0.0, 0.0, 0.0, 0.0, 0.0, 0.0, 0.0, 1.6665554945318584E9, 0.0, 2022-10-23 13:04:54.531
129.0, -69639.27383891033, -101487.4027952436, 54620.68970450041, 11512.780071828374, 86317.18442644888, 71268.76071319112, 30181.001744389745, 19705.208504820886, 0.056, 0.9520000000000001, 0.092, 192.0, 0.0, 0.0, 0.0, 0.0, 0.0, 0.0, 0.0, 0.0, 0.0, 1.6665554945318696E9, 0.0, 2022-10-23 13:04:54.531
130.0, -69645.95701050246, -101491.42610924556, 56667.28248206169, 12463.913853635057, 86435.4475063619, 72099.99973773953, 31415.443887167443, 20904.223132636922, 0.056, 0.9520000000000001, 0.092, 192.0, 0.0, 0.0, 0.0, 0.0, 0.0, 0.0, 0.0, 0.0, 0.0, 1.666555494531881E9, 0.0, 2022-10-23 13:04:54.531
131.0, -69569.62580318759, -101418.31355313225, 55116.09376860783, 11501.157164711614, 86033.0043474441, 71318.96273123774, 30284.602079940094, 19557.284660015663, 0.056, 0.9520000000000001, 0.092, 192.0, 0.0, 0.0, 0.0, 0.0, 0.0, 0.0, 0.0, 0.0, 0.0, 1.666555494531892E9, 0.0, 2022-10-23 13:04:54.531
132.0, -69592.6257482321, -101438.89950977558, 53679.34598676515, 10888.227628258184, 86045.92365573927, 70760.57145125527, 29446.00933146588, 18801.52747649282, 0.056, 0.9520000000000001, 0.092, 192.0, 0.0, 0.0, 0.0, 0.0, 0.0, 0.0, 0.0, 0.0, 0.0, 1.666555494531903E9, 0.0, 2022-10-23 13:04:54.531
133.0, -69653.73541757291, -101496.34349302572, 54258.055002457506, 11308.529830995778, 86256.52179199718, 71096.29465297397, 29935.378424570376, 19447.917574395844, 0.056, 0.9520000000000001, 0.092, 192.0, 0.0, 0.0, 0.0, 0.0, 0.0, 0.0, 0.0, 0.0, 0.0, 1.6665554945319138E9, 0.0, 2022-10-23 13:04:54.531
134.0, -69675.61777539465, -101519.92458342608, 56471.52590412211, 12397.640931325072, 86459.11800374008, 72041.1028910998, 31323.041775589205, 20851.852995378136, 0.054, 0.9520000000000001, 0.08600000000000001, 192.0, 1.0, 176.0, 29.0, 192.0, 2.0, 176.0, 0.0, 0.0, 0.0, 1.6665554945319312E9, 0.0, 2022-10-23 13:04:54.531
135.0, -69584.422658017, -101434.85384402917, 55587.13443125897, 11750.580281088387, 86094.13636852938, 71542.41312055745, 30604.43319135108, 19899.89219902661, 0.054, 0.9520000000000001, 0.08600000000000001, 192.0, 0.0, 0.0, 0.0, 0.0, 0.0, 0.0, 0.0, 0.0, 0.0, 1.6665554945319436E9, 0.0, 2022-10-23 13:04:54.531
136.0, -69579.23705330337, -101427.67893405902, 53735.20299615896, 10885.523067179092, 86001.8460156734, 70760.50439602189, 29455.754692048395, 18787.311767019244, 0.054, 0.9520000000000001, 0.08600000000000001, 192.0, 0.0, 0.0, 0.0, 0.0, 0.0, 0.0, 0.0, 0.0, 0.0, 1.6665554945319548E9, 0.0, 2022-10-23 13:04:54.531
137.0, -69628.18737366049, -101475.95870208248, 53966.72236522703, 11144.848006349564, 86215.43928568832, 70941.8888022767, 29727.686015091662, 19231.306818879464, 0.054, 0.9520000000000001, 0.08600000000000001, 192.0, 0.0, 0.0, 0.0, 0.0, 0.0, 0.0, 0.0, 0.0, 0.0, 1.6665554945319655E9, 0.0, 2022-10-23 13:04:54.531
138.0, -69670.45452242548, -101517.80116770283, 56135.378019258744, 12267.844351273103, 86490.49985295533, 71905.09252608925, 31134.124831452948, 20700.777554604716, 0.054, 0.9520000000000001, 0.08600000000000001, 192.0, 0.0, 0.0, 0.0, 0.0, 0.0, 0.0, 0.0, 0.0, 0.0, 1.6665554945319767E9, 0.0, 2022-10-23 13:04:54.531
139.0, -69595.91145466703, -101446.23088195693, 56062.71249803454, 12036.257926971666, 86206.9456227953, 71772.68079193601, 30939.26232329158, 20274.59684307538, 0.054, 0.9520000000000001, 0.08600000000000001, 192.0, 0.0, 0.0, 0.0, 0.0, 0.0, 0.0, 0.0, 0.0, 0.0, 1.6665554945319877E9, 0.0, 2022-10-23 13:04:54.531
140.0, -69577.58302421367, -101429.8917567601, 53916.319181480314, 10958.45680933676, 85982.42234974174, 70838.19905974854, 29560.80789098834, 18860.983116743937, 0.054, 0.9520000000000001, 0.08600000000000001, 192.0, 0.0, 0.0, 0.0, 0.0, 0.0, 0.0, 0.0, 0.0, 0.0, 1.6665554945319984E9, 0.0, 2022-10-23 13:04:54.531
141.0, -69605.61211176064, -101453.80812332728, 53820.8548809117, 11058.95025240782, 86177.88835500341, 70881.226167825, 29622.00696730697, 19091.04962242241, 0.054, 0.9520000000000001, 0.08600000000000001, 192.0, 0.0, 0.0, 0.0, 0.0, 0.0, 0.0, 0.0, 0.0, 0.0, 1.6665554945320096E9, 0.0, 2022-10-23 13:04:54.532
142.0, -69647.90161227007, -101493.21424880199, 55717.668618877964, 12079.128572836946, 86467.92459105547, 71741.32129446522, 30882.265374930546, 20455.020124318617, 0.054, 0.9520000000000001, 0.08600000000000001, 192.0, 0.0, 0.0, 0.0, 0.0, 0.0, 0.0, 0.0, 0.0, 0.0, 1.6665554945320413E9, 0.0, 2022-10-23 13:04:54.532
143.0, -69609.72483274041, -101457.9431960515, 56384.04117632403, 12228.102949631566, 86286.87546096748, 71920.1799535966, 31159.4046544319, 20548.02573299715, 0.056, 0.9500000000000001, 0.09, 192.0, 1.0, 192.0, 29.0, 176.0, 2.0, 208.0, 0.0, 0.0, 0.0, 1.6665554945320525E9, 0.0, 2022-10-23 13:04:54.532
144.0, -69565.73659965237, -101415.8325094977, 54117.21666064461, 11036.531452719148, 85975.13568104932, 70905.09783090328, 29668.029209140448, 18958.615536524718, 0.056, 0.9500000000000001, 0.09, 192.0, 0.0, 0.0, 0.0, 0.0, 0.0, 0.0, 0.0, 0.0, 0.0, 1.666555494532065E9, 0.0, 2022-10-23 13:04:54.532
145.0, -69603.08636463719, -101452.77994308234, 53720.361437840635, 10993.7949173206, 86147.89231394438, 70828.47605091048, 29540.46780353401, 18988.768039794926, 0.056, 0.9500000000000001, 0.09, 192.0, 0.0, 0.0, 0.0, 0.0, 0.0, 0.0, 0.0, 0.0, 0.0, 1.6665554945320756E9, 0.0, 2022-10-23 13:04:54.532
146.0, -69656.32821992972, -101502.19965007302, 55298.88633476333, 11878.946349495214, 86419.64482303201, 71576.47717910733, 30630.472973641514, 20198.243284016047, 0.056, 0.9500000000000001, 0.09, 192.0, 0.0, 0.0, 0.0, 0.0, 0.0, 0.0, 0.0, 0.0, 0.0, 1.6665554945320864E9, 0.0, 2022-10-23 13:04:54.532
147.0, -69625.12518467012, -101470.68369039103, 56639.856891615025, 12396.232771424386, 86344.27474072871, 72058.85017619732, 31356.34587482761, 20785.915349234983, 0.056, 0.9500000000000001, 0.09, 192.0, 0.0, 0.0, 0.0, 0.0, 0.0, 0.0, 0.0, 0.0, 0.0, 1.6665554945320976E9, 0.0, 2022-10-23 13:04:54.532
148.0, -69563.9708118404, -101415.60899205315, 54433.67265864285, 11169.770201417232, 85954.81794533944, 71024.9702364171, 29850.91118227377, 19126.58889610635, 0.056, 0.9500000000000001, 0.09, 192.0, 0.0, 0.0, 0.0, 0.0, 0.0, 0.0, 0.0, 0.0, 0.0, 1.6665554945321083E9, 0.0, 2022-10-23 13:04:54.532
149.0, -69602.37110881461, -101452.22114947095, 53643.471436914384, 10919.676532706802, 86084.97215330269, 70765.93586992453, 29454.793567036817, 18873.96948027247, 0.056, 0.9500000000000001, 0.09, 192.0, 0.0, 0.0, 0.0, 0.0, 0.0, 0.0, 0.0, 0.0, 0.0, 1.6665554945321198E9, 0.0, 2022-10-23 13:04:54.532
150.0, -69652.41666465005, -101493.77304241336, 54823.48708194341, 11623.354151648778, 86343.26891222822, 71348.84701357449, 30306.529141250747, 19867.370410844138, 0.056, 0.9500000000000001, 0.09, 192.0, 0.0, 0.0, 0.0, 0.0, 0.0, 0.0, 0.0, 0.0, 0.0, 1.6665554945321307E9, 0.0, 2022-10-23 13:04:54.532
151.0, -69648.12512971462, -101487.98394059944, 56685.74502298177, 12452.13448430711, 86404.17741586894, 72092.266034158, 31405.340898673643, 20889.47098129642, 0.056, 0.9500000000000001, 0.09, 192.0, 0.0, 0.0, 0.0, 0.0, 0.0, 0.0, 0.0, 0.0, 0.0, 1.666555494532142E9, 0.0, 2022-10-23 13:04:54.532
152.0, -69552.50436693482, -101397.95111393346, 54810.14309050359, 11346.304279125248, 85982.93643986422, 71176.82798824644, 30076.797911739104, 19366.51252108962, 0.056, 0.9500000000000001, 0.09, 192.0, 0.0, 0.0, 0.0, 0.0, 0.0, 0.0, 0.0, 0.0, 0.0, 1.6665554945321531E9, 0.0, 2022-10-23 13:04:54.532
153.0, -69563.59083218465, -101400.90154420157, 53624.91948901647, 10882.192657255251, 86057.27834192257, 70733.95052360899, 29412.325252571733, 18815.854944688672, 0.052000000000000005, 0.9540000000000001, 0.096, 192.0, 1.0, 160.0, 29.0, 208.0, 3.0, 0.0, 0.0, 0.0, 0.0, 1.666555494532164E9, 0.0, 2022-10-23 13:04:54.532
154.0, -69622.24180963538, -101457.22794022894, 54458.52779847715, 11437.767617436364, 86312.0211734797, 71189.74729654161, 30071.098216903, 19621.389463113483, 0.052000000000000005, 0.9540000000000001, 0.096, 192.0, 0.0, 0.0, 0.0, 0.0, 0.0, 0.0, 0.0, 0.0, 0.0, 1.6665554945321758E9, 0.0, 2022-10-23 13:04:54.532
155.0, -69657.91519378606, -101500.25504830541, 56623.33895246255, 12472.675737461537, 86463.58835263114, 72099.08331621687, 31407.240796952345, 20927.133670703613, 0.052000000000000005, 0.9540000000000001, 0.096, 192.0, 0.0, 0.0, 0.0, 0.0, 0.0, 0.0, 0.0, 0.0, 0.0, 1.6665554945321867E9, 0.0, 2022-10-23 13:04:54.532
156.0, -69583.7744574278, -101431.41167538306, 55311.023332002565, 11610.881878242717, 86043.73318478266, 71413.89058993943, 30415.985633848388, 19701.676929196947, 0.052000000000000005, 0.9540000000000001, 0.096, 192.0, 0.0, 0.0, 0.0, 0.0, 0.0, 0.0, 0.0, 0.0, 0.0, 1.666555494532199E9, 0.0, 2022-10-23 13:04:54.532
157.0, -69599.10775412414, -101446.36499242367, 53694.992207883864, 10882.617340399902, 85999.76730343906, 70754.58118374123, 29438.946180218005, 18792.318557777235, 0.052000000000000005, 0.9540000000000001, 0.096, 192.0, 0.0, 0.0, 0.0, 0.0, 0.0, 0.0, 0.0, 0.0, 0.0, 1.66655549453221E9, 0.0, 2022-10-23 13:04:54.532
158.0, -69634.5352690858, -101480.74197539593, 54140.41777138922, 11248.738914577832, 86237.34399525452, 71033.91093419922, 29848.161917705766, 19366.534872834072, 0.052000000000000005, 0.9540000000000001, 0.096, 192.0, 0.0, 0.0, 0.0, 0.0, 0.0, 0.0, 0.0, 0.0, 0.0, 1.666555494532231E9, 0.0, 2022-10-23 13:04:54.532
159.0, -69673.13673176011, -101521.24333634894, 56378.92262684377, 12377.814933993213, 86485.47071045288, 72009.85515235129, 31276.840719800082, 20825.142660754045, 0.052000000000000005, 0.9540000000000001, 0.096, 192.0, 0.0, 0.0, 0.0, 0.0, 0.0, 0.0, 0.0, 0.0, 0.0, 1.6665554945322423E9, 0.0, 2022-10-23 13:04:54.532
160.0, -69588.33421329668, -101443.97335576694, 55751.03977334974, 11840.881328687827, 86108.59794719196, 71601.44407766391, 30705.060744888873, 20017.283560905882, 0.052000000000000005, 0.9540000000000001, 0.096, 192.0, 0.0, 0.0, 0.0, 0.0, 0.0, 0.0, 0.0, 0.0, 0.0, 1.6665554945322533E9, 0.0, 2022-10-23 13:04:54.532
161.0, -69577.56067246922, -101443.03458249982, 53779.571208902744, 10891.759203882124, 85970.46416645816, 70758.53744250983, 29463.577802607753, 18785.47892397391, 0.052000000000000005, 0.9540000000000001, 0.096, 192.0, 0.0, 0.0, 0.0, 0.0, 0.0, 0.0, 0.0, 0.0, 0.0, 1.666555494532264E9, 0.0, 2022-10-23 13:04:54.532
162.0, -69622.37592010212, -101487.06751907678, 53910.23950698847, 11104.212534929817, 86177.4413201143, 70907.02008092644, 29675.092360388324, 19164.184530280178, 0.052000000000000005, 0.9540000000000001, 0.096, 192.0, 0.0, 0.0, 0.0, 0.0, 0.0, 0.0, 0.0, 0.0, 0.0, 1.666555494532275E9, 0.0, 2022-10-23 13:04:54.532
163.0, -69664.39719967809, -101521.66801949359, 56000.75346240443, 12198.822164395115, 86466.04704452123, 71843.17819394806, 31043.488507686678, 20611.169411083392, 0.056, 0.9560000000000001, 0.092, 192.0, 1.0, 192.0, 29.0, 224.0, 2.0, 224.0, 0.0, 0.0, 0.0, 1.6665554945322857E9, 0.0, 2022-10-23 13:04:54.532
164.0, -69601.2311698474, -101465.22986474395, 56222.23689821207, 12112.812651731092, 86216.15454151088, 71833.63399906564, 31035.263065727126, 20381.728754249663, 0.056, 0.9560000000000001, 0.092, 192.0, 0.0, 0.0, 0.0, 0.0, 0.0, 0.0, 0.0, 0.0, 0.0, 1.6665554945322976E9, 0.0, 2022-10-23 13:04:54.532
165.0, -69560.55099493873, -101421.01811421134, 54009.57065934785, 10982.17201020384, 85963.91510533275, 70858.36033324723, 29598.80585656236, 18885.16770424458, 0.056, 0.9560000000000001, 0.092, 192.0, 0.0, 0.0, 0.0, 0.0, 0.0, 0.0, 0.0, 0.0, 0.0, 1.6665554945323083E9, 0.0, 2022-10-23 13:04:54.532
166.0, -69596.64906223405, -101457.00442278439, 53823.000648379406, 11044.935708634343, 86167.45009034278, 70874.4312375106, 29608.551217144875, 19058.10315109529, 0.056, 0.9560000000000001, 0.092, 192.0, 0.0, 0.0, 0.0, 0.0, 0.0, 0.0, 0.0, 0.0, 0.0, 1.6665554945323205E9, 0.0, 2022-10-23 13:04:54.532
167.0, -69661.71499034346, -101520.99746715993, 55613.174213549406, 12012.922705760326, 86447.22687568986, 71699.16590442251, 30812.594987463355, 20366.28369883105, 0.056, 0.9560000000000001, 0.092, 192.0, 0.0, 0.0, 0.0, 0.0, 0.0, 0.0, 0.0, 0.0, 0.0, 1.6665554945323284E9, 0.0, 2022-10-23 13:04:54.532
168.0, -69632.45655685145, -101483.31242600828, 56571.684071026335, 12313.508965195295, 86299.25832739573, 72012.492658197, 31283.345077436577, 20658.5774610731, 0.056, 0.9560000000000001, 0.092, 192.0, 0.0, 0.0, 0.0, 0.0, 0.0, 0.0, 0.0, 0.0, 0.0, 1.666555494532336E9, 0.0, 2022-10-23 13:04:54.532
169.0, -69560.52864319428, -101415.69839903098, 54292.856668574415, 11088.588665555557, 85951.4875354156, 70968.24150898952, 29757.615000917318, 19011.075080761326, 0.056, 0.9560000000000001, 0.092, 192.0, 0.0, 0.0, 0.0, 0.0, 0.0, 0.0, 0.0, 0.0, 0.0, 1.666555494532344E9, 0.0, 2022-10-23 13:04:54.532
170.0, -69598.59366400167, -101455.23863497241, 53739.09219969418, 10961.496646582682, 86108.3744297474, 70810.34878615724, 29517.892541634148, 18922.293951784846, 0.056, 0.9560000000000001, 0.092, 192.0, 0.0, 0.0, 0.0, 0.0, 0.0, 0.0, 0.0, 0.0, 0.0, 1.6665554945323515E9, 0.0, 2022-10-23 13:04:54.532
171.0, -69648.54981285927, -101496.38819651464, 55188.11108924283, 11795.440232210189, 86395.70610472038, 71515.36750976653, 30535.925094595565, 20070.346602242782, 0.056, 0.9560000000000001, 0.092, 192.0, 0.0, 0.0, 0.0, 0.0, 0.0, 0.0, 0.0, 0.0, 0.0, 1.6665554945323594E9, 0.0, 2022-10-23 13:04:54.532
172.0, -69622.19710614647, -101475.77988812684, 56768.75940188878, 12456.917757620546, 86387.5924214831, 72125.41367118522, 31436.40982346652, 20852.45649247843, 0.058, 0.962, 0.092, 192.0, 1.0, 208.0, 30.0, 16.0, 2.0, 224.0, 0.0, 0.0, 0.0, 1.6665554945323718E9, 0.0, 2022-10-23 13:04:54.532
173.0, -69546.3129337207, -101406.55653554876, 54643.15320767799, 11247.04018199923, 85967.4913844456, 71107.73874613509, 29964.301581895543, 19206.697548234173, 0.058, 0.962, 0.092, 192.0, 0.0, 0.0, 0.0, 0.0, 0.0, 0.0, 0.0, 0.0, 0.0, 1.666555494532388E9, 0.0, 2022-10-23 13:04:54.532
174.0, -69576.75600966884, -101437.49134987491, 53733.4819118359, 10943.592899273981, 86099.65724940984, 70802.6597860646, 29496.79249486834, 18870.59436685972, 0.058, 0.962, 0.092, 192.0, 0.0, 0.0, 0.0, 0.0, 0.0, 0.0, 0.0, 0.0, 0.0, 1.666555494532396E9, 0.0, 2022-10-23 13:04:54.532
175.0, -69632.05422545127, -101485.79346964283, 54776.54841858726, 11583.255122095958, 86346.9345983189, 71332.55259186657, 30270.431073955428, 19788.06642151671, 0.058, 0.962, 0.092, 192.0, 0.0, 0.0, 0.0, 0.0, 0.0, 0.0, 0.0, 0.0, 0.0, 1.6665554945324037E9, 0.0, 2022-10-23 13:04:54.532
176.0, -69629.2826091388, -101482.64187367463, 56763.50674194178, 12486.265598090364, 86431.69241329342, 72134.04144454497, 31458.225126054902, 20914.95196997547, 0.058, 0.962, 0.092, 192.0, 0.0, 0.0, 0.0, 0.0, 0.0, 0.0, 0.0, 0.0, 0.0, 1.6665554945324113E9, 0.0, 2022-10-23 13:04:54.532
177.0, -69549.95626806692, -101411.92095421803, 55076.28531173293, 11460.655803758598, 86008.26096633208, 71296.49922806016, 30240.815012552146, 19478.76298174417, 0.058, 0.962, 0.092, 192.0, 0.0, 0.0, 0.0, 0.0, 0.0, 0.0, 0.0, 0.0, 0.0, 1.66655549453242E9, 0.0, 2022-10-23 13:04:54.532
178.0, -69579.5723294702, -101436.06083822977, 53733.59367055818, 10902.890372620866, 86041.22978940366, 70778.76577124189, 29463.331933418744, 18799.851095658672, 0.058, 0.962, 0.092, 192.0, 0.0, 0.0, 0.0, 0.0, 0.0, 0.0, 0.0, 0.0, 0.0, 1.666555494532428E9, 0.0, 2022-10-23 13:04:54.532
179.0, -69630.06492019474, -101478.93148409504, 54402.760196061165, 11369.952424758963, 86275.40901606191, 71148.41892104375, 30006.524027171617, 19504.914522756877, 0.058, 0.962, 0.092, 192.0, 0.0, 0.0, 0.0, 0.0, 0.0, 0.0, 0.0, 0.0, 0.0, 1.666555494532436E9, 0.0, 2022-10-23 13:04:54.532
180.0, -69659.97155427594, -101511.11799611068, 56604.339969675544, 12437.315277733242, 86457.24045720583, 72076.75392350601, 31374.87547098106, 20874.092981111167, 0.058, 0.962, 0.092, 192.0, 0.0, 0.0, 0.0, 0.0, 0.0, 0.0, 0.0, 0.0, 0.0, 1.6665554945324435E9, 0.0, 2022-10-23 13:04:54.532
181.0, -69584.22149231691, -101444.86742554515, 55507.741034953724, 11669.599910926809, 86040.17925741426, 71464.00320100824, 30507.13604773713, 19771.414371897506, 0.058, 0.962, 0.092, 192.0, 0.0, 0.0, 0.0, 0.0, 0.0, 0.0, 0.0, 0.0, 0.0, 1.6665554945324512E9, 0.0, 2022-10-23 13:04:54.532
182.0, -69581.85220740465, -101444.88977728962, 53755.02899349082, 10867.216988470196, 85976.40973048327, 70736.945657366, 29432.77709874834, 18745.446949654455, 0.056, 0.966, 0.094, 192.0, 1.0, 192.0, 30.0, 48.0, 2.0, 240.0, 0.0, 0.0, 0.0, 1.6665554945324593E9, 0.0, 2022-10-23 13:04:54.532
183.0, -69612.13882114159, -101479.13264979514, 54122.87165199181, 11214.049007183195, 86232.4042597299, 71005.97125363008, 29808.532274786507, 19288.34847072941, 0.056, 0.966, 0.094, 192.0, 0.0, 0.0, 0.0, 0.0, 0.0, 0.0, 0.0, 0.0, 0.0, 1.6665554945324676E9, 0.0, 2022-10-23 13:04:54.532
184.0, -69642.20191743397, -101504.90421115211, 56311.57682079993, 12327.165881057488, 86484.08490229666, 71965.77751228542, 31216.35689930402, 20743.603496981086, 0.056, 0.966, 0.094, 192.0, 0.0, 0.0, 0.0, 0.0, 0.0, 0.0, 0.0, 0.0, 0.0, 1.6665554945324755E9, 0.0, 2022-10-23 13:04:54.532
185.0, -69578.61120445862, -101435.63615508511, 55979.005215049416, 11937.619678690397, 86144.20427610926, 71682.55855829222, 30833.985606907085, 20138.832347253843, 0.056, 0.966, 0.094, 192.0, 0.0, 0.0, 0.0, 0.0, 0.0, 0.0, 0.0, 0.0, 0.0, 1.666555494532483E9, 0.0, 2022-10-23 13:04:54.532
186.0, -69574.3196695232, -101428.8412247707, 53893.408643413626, 10910.735834924679, 85958.57303840794, 70778.11757065267, 29504.257977516412, 18792.743240921885, 0.056, 0.966, 0.094, 192.0, 0.0, 0.0, 0.0, 0.0, 0.0, 0.0, 0.0, 0.0, 0.0, 1.6665554945324907E9, 0.0, 2022-10-23 13:04:54.532
187.0, -69606.99791991686, -101468.11323977867, 53895.01796901441, 11064.918168177386, 86159.89520071688, 70868.3739147632, 29634.30042675739, 19091.83193347835, 0.056, 0.966, 0.094, 192.0, 0.0, 0.0, 0.0, 0.0, 0.0, 0.0, 0.0, 0.0, 0.0, 1.6665554945324988E9, 0.0, 2022-10-23 13:04:54.532
188.0, -69665.00069677838, -101514.09077812324, 55859.62454791362, 12100.854468447504, 86432.899407494, 71749.99377131388, 30932.020358088062, 20483.831522921508, 0.056, 0.966, 0.094, 192.0, 0.0, 0.0, 0.0, 0.0, 0.0, 0.0, 0.0, 0.0, 0.0, 1.6665554945325065E9, 0.0, 2022-10-23 13:04:54.532
189.0, -69587.37308828511, -101448.80133256929, 56348.23368170663, 12163.126428499989, 86247.51403898168, 71852.38711266365, 31097.62443275743, 20458.015258075626, 0.056, 0.966, 0.094, 192.0, 0.0, 0.0, 0.0, 0.0, 0.0, 0.0, 0.0, 0.0, 0.0, 1.6665554945325215E9, 0.0, 2022-10-23 13:04:54.532
190.0, -69562.29443100624, -101431.18815793851, 54089.85812543132, 10992.833792309022, 85962.95398032117, 70843.98816156246, 29623.01279580746, 18899.226951506967, 0.056, 0.966, 0.094, 192.0, 0.0, 0.0, 0.0, 0.0, 0.0, 0.0, 0.0, 0.0, 0.0, 1.6665554945325296E9, 0.0, 2022-10-23 13:04:54.532
191.0, -69605.56740827173, -101468.91790257907, 53779.370043202645, 10991.403280663882, 86130.7261742027, 70806.77250704438, 29556.85163221975, 18988.209246183545, 0.056, 0.966, 0.094, 192.0, 0.0, 0.0, 0.0, 0.0, 0.0, 0.0, 0.0, 0.0, 0.0, 1.6665554945325377E9, 0.0, 2022-10-23 13:04:54.532
192.0, -69653.4895483839, -101508.81576643178, 55409.25924888364, 11885.78598329854, 86396.15313960948, 71561.85913823356, 30665.92284034763, 20217.48813599207, 0.052000000000000005, 0.96, 0.098, 192.0, 1.0, 160.0, 30.0, 0.0, 3.0, 16.0, 0.0, 0.0, 0.0, 1.6665554945325456E9, 0.0, 2022-10-23 13:04:54.532
193.0, -69604.69569023796, -101466.99565255591, 56632.48081594477, 12345.58371848866, 86332.89770280095, 72006.01065230498, 31326.99803435779, 20726.325598517134, 0.052000000000000005, 0.96, 0.098, 192.0, 0.0, 0.0, 0.0, 0.0, 0.0, 0.0, 0.0, 0.0, 0.0, 1.666555494532554E9, 0.0, 2022-10-23 13:04:54.532
194.0, -69542.64724763004, -101403.98608493639, 54406.67175134084, 11128.978267786297, 85967.2455152566, 70975.12584628175, 29828.71590002965, 19080.611357761783, 0.052000000000000005, 0.96, 0.098, 192.0, 0.0, 0.0, 0.0, 0.0, 0.0, 0.0, 0.0, 0.0, 0.0, 1.666555494532562E9, 0.0, 2022-10-23 13:04:54.532
195.0, -69599.66654773553, -101452.75759133788, 53723.89301346458, 10940.463655050238, 86107.81563613602, 70769.5568525263, 29514.629186943675, 18902.892637597637, 0.052000000000000005, 0.96, 0.098, 192.0, 0.0, 0.0, 0.0, 0.0, 0.0, 0.0, 0.0, 0.0, 0.0, 1.6665554945325696E9, 0.0, 2022-10-23 13:04:54.532
196.0, -69642.20191743397, -101504.18895532953, 54975.948330873056, 11666.694184147618, 86358.75867113574, 71372.33869699702, 30407.02258432181, 19931.81049010879, 0.052000000000000005, 0.96, 0.098, 192.0, 0.0, 0.0, 0.0, 0.0, 0.0, 0.0, 0.0, 0.0, 0.0, 1.6665554945325775E9, 0.0, 2022-10-23 13:04:54.532
197.0, -69619.26902762282, -101482.30659750779, 56741.490273653304, 12439.84102485669, 86406.12201763655, 72070.20486238062, 31442.400090980544, 20876.59637649016, 0.052000000000000005, 0.96, 0.098, 192.0, 0.0, 0.0, 0.0, 0.0, 0.0, 0.0, 0.0, 0.0, 0.0, 1.6665554945325851E9, 0.0, 2022-10-23 13:04:54.532
198.0, -69542.80370984122, -101406.33301810421, 54776.74958428736, 11309.982694385373, 86000.9966493841, 71126.60361845537, 30073.042818670612, 19313.53888673054, 0.052000000000000005, 0.96, 0.098, 192.0, 0.0, 0.0, 0.0, 0.0, 0.0, 0.0, 0.0, 0.0, 0.0, 1.666555494532594E9, 0.0, 2022-10-23 13:04:54.532
199.0, -69580.13112308158, -101437.93838476401, 53691.10300434864, 10903.762090654624, 86082.02172303459, 70734.57637245374, 29482.21915748348, 18837.804357743786, 0.052000000000000005, 0.96, 0.098, 192.0, 0.0, 0.0, 0.0, 0.0, 0.0, 0.0, 0.0, 0.0, 0.0, 1.666555494532602E9, 0.0, 2022-10-23 13:04:54.532
200.0, -69617.83851597768, -101475.71283289348, 54561.032898549194, 11456.632489756643, 86318.3243654161, 71183.8464360054, 30148.01056957371, 19660.505015910272, 0.052000000000000005, 0.96, 0.098, 192.0, 0.0, 0.0, 0.0, 0.0, 0.0, 0.0, 0.0, 0.0, 0.0, 1.6665554945326097E9, 0.0, 2022-10-23 13:04:54.532
201.0, -69642.60424883416, -101499.8080134163, 56703.89463947948, 12476.095554363199, 86479.36868421659, 72090.61200506831, 31474.832472185193, 20948.323124447244, 0.052000000000000005, 0.96, 0.098, 192.0, 0.0, 0.0, 0.0, 0.0, 0.0, 0.0, 0.0, 0.0, 0.0, 1.6665554945326176E9, 0.0, 2022-10-23 13:04:54.532
202.0, -69552.32555297918, -101418.2912013878, 55210.552240675956, 11523.844185333752, 86036.69238527922, 71319.1862486823, 30367.996438502843, 19618.103756678553, 0.052000000000000005, 0.96, 0.094, 192.0, 1.0, 160.0, 30.0, 0.0, 2.0, 240.0, 0.0, 0.0, 0.0, 1.6665554945326257E9, 0.0, 2022-10-23 13:04:54.532
203.0, -69571.79392239975, -101431.45637887197, 53695.52864975079, 10861.807866312012, 86033.74195501114, 70714.07982278822, 29471.73618933394, 18802.980339882415, 0.052000000000000005, 0.96, 0.094, 192.0, 0.0, 0.0, 0.0, 0.0, 0.0, 0.0, 0.0, 0.0, 0.0, 1.6665554945326335E9, 0.0, 2022-10-23 13:04:54.532
204.0, -69626.30982712624, -101483.89357136413, 54213.35151354689, 11254.483312902847, 86256.76766118618, 71022.265675338, 29926.147154110335, 19417.385091469896, 0.052000000000000005, 0.96, 0.094, 192.0, 0.0, 0.0, 0.0, 0.0, 0.0, 0.0, 0.0, 0.0, 0.0, 1.6665554945326488E9, 0.0, 2022-10-23 13:04:54.532
205.0, -69649.91326927106, -101508.05580712031, 56478.34318618097, 12389.393137621062, 86497.09361756964, 72016.35950998777, 31371.567412801676, 20870.404943276044, 0.052000000000000005, 0.96, 0.094, 192.0, 0.0, 0.0, 0.0, 0.0, 0.0, 0.0, 0.0, 0.0, 0.0, 1.6665554945326576E9, 0.0, 2022-10-23 13:04:54.532
206.0, -69547.29641047675, -101410.937477462, 55702.11180473707, 11791.394566463778, 86119.3267845305, 71560.07099867714, 30718.337681095327, 19974.323508062782, 0.052000000000000005, 0.96, 0.094, 192.0, 0.0, 0.0, 0.0, 0.0, 0.0, 0.0, 0.0, 0.0, 0.0, 1.6665554945326655E9, 0.0, 2022-10-23 13:04:54.532
207.0, -69562.00385832833, -101427.65658231456, 53836.054067141304, 10916.793157672068, 86019.59330077092, 70786.99121320143, 29569.726237026007, 18847.572070070753, 0.052000000000000005, 0.96, 0.094, 192.0, 0.0, 0.0, 0.0, 0.0, 0.0, 0.0, 0.0, 0.0, 0.0, 1.6665554945326731E9, 0.0, 2022-10-23 13:04:54.532
208.0, -69605.45564954945, -101466.5039141779, 54041.041915540925, 11167.31150952715, 86224.42468695935, 70968.08504677833, 29830.79461226399, 19269.1483222423, 0.052000000000000005, 0.96, 0.094, 192.0, 0.0, 0.0, 0.0, 0.0, 0.0, 0.0, 0.0, 0.0, 0.0, 1.66655549499145E9, 0.0, 2022-10-23 13:04:54.991
209.0, -69648.90744077056, -101505.37359778567, 56157.86387418078, 12255.439133100406, 86485.73893138635, 71905.53956097836, 31203.974032875783, 20709.919418086938, 0.052000000000000005, 0.96, 0.094, 192.0, 0.0, 0.0, 0.0, 0.0, 0.0, 0.0, 0.0, 0.0, 0.0, 1.666555494991557E9, 0.0, 2022-10-23 13:04:54.991
210.0, -69576.75600966884, -101434.0938847177, 56149.504321754495, 12037.017886283147, 86192.6405063439, 71780.61566121766, 31037.230019239192, 20321.557858175976, 0.052000000000000005, 0.96, 0.094, 192.0, 0.0, 0.0, 0.0, 0.0, 0.0, 0.0, 0.0, 0.0, 0.0, 1.666555494991573E9, 0.0, 2022-10-23 13:04:54.991
211.0, -69550.93974482296, -101408.00939893835, 53978.07705141033, 10946.342163841982, 85979.65073342928, 70830.13008000018, 29640.603618693785, 18887.291119967835, 0.056, 0.9500000000000001, 0.092, 192.0, 1.0, 192.0, 29.0, 176.0, 2.0, 224.0, 0.0, 0.0, 0.0, 1.666555494991588E9, 0.0, 2022-10-23 13:04:54.991
212.0, -69596.58200700069, -101457.36205069566, 53838.17748286456, 11025.646153169413, 86167.9418287208, 70852.03478956637, 29674.600622010308, 19091.094325911323, 0.056, 0.9500000000000001, 0.092, 192.0, 0.0, 0.0, 0.0, 0.0, 0.0, 0.0, 0.0, 0.0, 0.0, 1.6665554949916058E9, 0.0, 2022-10-23 13:04:54.991
213.0, -69661.53617638782, -101522.49503403844, 55709.420825173955, 12032.279316458622, 86447.67391057896, 71712.9792824959, 30932.31093076598, 20446.392350958868, 0.056, 0.9500000000000001, 0.092, 192.0, 0.0, 0.0, 0.0, 0.0, 0.0, 0.0, 0.0, 0.0, 0.0, 1.6665554949916203E9, 0.0, 2022-10-23 13:04:54.991
214.0, -69615.87156246562, -101478.19387652802, 56504.450023704776, 12248.152464407976, 86276.14662362894, 71952.36646561223, 31299.99712705578, 20622.54644901114, 0.056, 0.9500000000000001, 0.092, 192.0, 0.0, 0.0, 0.0, 0.0, 0.0, 0.0, 0.0, 0.0, 0.0, 1.666555494991635E9, 0.0, 2022-10-23 13:04:54.991
215.0, -69554.15839602452, -101422.80625376776, 54235.032705668535, 11045.919185390376, 85958.05894828546, 70925.50497359097, 29796.26116708054, 19008.124650493224, 0.056, 0.9500000000000001, 0.092, 192.0, 0.0, 0.0, 0.0, 0.0, 0.0, 0.0, 0.0, 0.0, 0.0, 1.6665554949916506E9, 0.0, 2022-10-23 13:04:54.991
216.0, -69593.98920464388, -101451.97528028194, 53767.65772910807, 10963.083620439009, 86121.89723514287, 70810.84052453525, 29619.90590332817, 18987.114010705234, 0.056, 0.9500000000000001, 0.092, 192.0, 0.0, 0.0, 0.0, 0.0, 0.0, 0.0, 0.0, 0.0, 0.0, 1.6665554949916644E9, 0.0, 2022-10-23 13:04:54.991
217.0, -69648.46040588146, -101493.16954531307, 55273.80767748448, 11810.214735295145, 86402.83631120161, 71526.878658161, 30668.716808404544, 20166.10147548932, 0.056, 0.9500000000000001, 0.092, 192.0, 0.0, 0.0, 0.0, 0.0, 0.0, 0.0, 0.0, 0.0, 0.0, 1.666555494991678E9, 0.0, 2022-10-23 13:04:54.991
218.0, -69616.89974271056, -101487.49220222143, 56723.31830541114, 12390.331910888186, 86363.25137177127, 72070.00369668052, 31478.31934432022, 20840.69947489494, 0.056, 0.9500000000000001, 0.092, 192.0, 0.0, 0.0, 0.0, 0.0, 0.0, 0.0, 0.0, 0.0, 0.0, 1.666555494991692E9, 0.0, 2022-10-23 13:04:54.991
219.0, -69565.60248918564, -101431.70224806097, 54563.84921835056, 11176.743945687289, 85957.16487850725, 71052.7758065195, 29997.113942755932, 19186.379812524297, 0.056, 0.9500000000000001, 0.092, 192.0, 0.0, 0.0, 0.0, 0.0, 0.0, 0.0, 0.0, 0.0, 0.0, 1.6665554949917052E9, 0.0, 2022-10-23 13:04:54.991
220.0, -69605.70151873845, -101478.50680095039, 53720.74141749638, 10889.859305603422, 86060.38523440185, 70769.89212869313, 29566.127606168702, 18885.212407733492, 0.056, 0.9500000000000001, 0.092, 192.0, 0.0, 0.0, 0.0, 0.0, 0.0, 0.0, 0.0, 0.0, 0.0, 1.6665554949917848E9, 0.0, 2022-10-23 13:04:54.991
221.0, -69631.67424579553, -101480.56316144028, 54852.87962590213, 11584.998558163472, 86351.49435418777, 71344.22020247224, 30397.50074118385, 19869.27030912284, 0.062, 0.9540000000000001, 0.096, 192.0, 1.0, 240.0, 29.0, 208.0, 3.0, 0.0, 0.0, 0.0, 0.0, 1.666555494991796E9, 0.0, 2022-10-23 13:04:54.991
222.0, -69621.19127764598, -101474.88581834863, 56779.108259571585, 12457.834179143212, 86446.153991956, 72121.21154322762, 31549.01791203236, 20951.161795993066, 0.062, 0.9540000000000001, 0.096, 192.0, 0.0, 0.0, 0.0, 0.0, 0.0, 0.0, 0.0, 0.0, 0.0, 1.6665554949918084E9, 0.0, 2022-10-23 13:04:54.991
223.0, -69557.06412280371, -101419.65465779956, 54991.97453164751, 11393.801736092775, 86029.09279216443, 71246.49837571364, 30278.0977223036, 19473.80089447509, 0.062, 0.9540000000000001, 0.096, 192.0, 0.0, 0.0, 0.0, 0.0, 0.0, 0.0, 0.0, 0.0, 0.0, 1.6665554949918196E9, 0.0, 2022-10-23 13:04:54.991
224.0, -69607.5343617838, -101464.8498850882, 53745.08246720821, 10885.143087523353, 86063.93916177025, 70773.2001868725, 29566.3287718688, 18864.559395856788, 0.062, 0.9540000000000001, 0.096, 192.0, 0.0, 0.0, 0.0, 0.0, 0.0, 0.0, 0.0, 0.0, 0.0, 1.666555494991831E9, 0.0, 2022-10-23 13:04:54.991
225.0, -69643.16304244555, -101501.41733901708, 54486.24396160174, 11377.306148684758, 86281.22046962028, 71171.75414225509, 30152.25740102022, 19603.68688150488, 0.062, 0.9540000000000001, 0.096, 192.0, 0.0, 0.0, 0.0, 0.0, 0.0, 0.0, 0.0, 0.0, 0.0, 1.6665554949918425E9, 0.0, 2022-10-23 13:04:54.991
226.0, -69660.39623742059, -101523.50086253893, 56689.05308116115, 12445.764237137348, 86465.97998928785, 72112.11438323431, 31524.76626929835, 20960.393066453107, 0.062, 0.9540000000000001, 0.096, 192.0, 0.0, 0.0, 0.0, 0.0, 0.0, 0.0, 0.0, 0.0, 0.0, 1.666555494991855E9, 0.0, 2022-10-23 13:04:54.991
227.0, -69593.31865231022, -101453.942233794, 55466.770287367144, 11627.243355184002, 86052.51742035359, 71461.00806725121, 30584.875414952687, 19786.747668593845, 0.062, 0.9540000000000001, 0.096, 192.0, 0.0, 0.0, 0.0, 0.0, 0.0, 0.0, 0.0, 0.0, 0.0, 1.666555494991866E9, 0.0, 2022-10-23 13:04:54.991
228.0, -69580.55580622623, -101436.50787311887, 53799.55366844579, 10878.169343253296, 86013.04423964552, 70777.42466657456, 29570.03916144838, 18832.23877337441, 0.062, 0.9540000000000001, 0.096, 192.0, 0.0, 0.0, 0.0, 0.0, 0.0, 0.0, 0.0, 0.0, 0.0, 1.6665554949918773E9, 0.0, 2022-10-23 13:04:54.991
229.0, -69615.08925140968, -101482.21719052998, 54210.289324556514, 11231.528071347246, 86248.76573667118, 71047.3219808724, 29960.79235801606, 19383.633957342383, 0.062, 0.9540000000000001, 0.096, 192.0, 0.0, 0.0, 0.0, 0.0, 0.0, 0.0, 0.0, 0.0, 0.0, 1.6665554949918883E9, 0.0, 2022-10-23 13:04:54.991
230.0, -69660.93267928752, -101517.957629914, 56424.386075065864, 12346.902471411524, 86492.84678612313, 72012.42560296365, 31375.0542849367, 20836.810271359715, 0.062, 0.9540000000000001, 0.096, 192.0, 0.0, 0.0, 0.0, 0.0, 0.0, 0.0, 0.0, 0.0, 0.0, 1.6665554949918995E9, 0.0, 2022-10-23 13:04:54.991
231.0, -69587.14957084056, -101451.93057679303, 55931.26188889288, 11885.271893176066, 86141.49971503016, 71670.51096803081, 30891.58605236841, 20120.50391680049, 0.076, 0.962, 0.096, 192.0, 2.0, 96.0, 30.0, 16.0, 3.0, 0.0, 0.0, 0.0, 0.0, 1.6665554949919105E9, 0.0, 2022-10-23 13:04:54.991
232.0, -69575.99605035735, -101436.21730044096, 53912.407626200635, 10911.965180869722, 85982.69057067521, 70807.84539077824, 29614.1391532587, 18841.35828511218, 0.076, 0.962, 0.096, 192.0, 0.0, 0.0, 0.0, 0.0, 0.0, 0.0, 0.0, 0.0, 0.0, 1.6665554949919226E9, 0.0, 2022-10-23 13:04:54.991
233.0, -69632.65772255155, -101491.58257145675, 53968.10817338326, 11085.995863198741, 86183.92332600633, 70916.00548219746, 29772.36715225782, 19170.398315238752, 0.076, 0.962, 0.096, 192.0, 0.0, 0.0, 0.0, 0.0, 0.0, 0.0, 0.0, 0.0, 0.0, 1.6665554949919338E9, 0.0, 2022-10-23 13:04:54.991
234.0, -69667.97347879094, -101518.73994096994, 55994.718491401494, 12151.056486494123, 86467.34344569963, 71825.27444663936, 31100.619566514444, 20589.398811983923, 0.076, 0.962, 0.096, 192.0, 0.0, 0.0, 0.0, 0.0, 0.0, 0.0, 0.0, 0.0, 0.0, 1.666555494991945E9, 0.0, 2022-10-23 13:04:54.991
235.0, -69593.74333545487, -101455.05982101678, 56312.02385568903, 12123.765006514193, 86248.09518433752, 71847.3579701612, 31148.49700313771, 20434.5235746531, 0.076, 0.962, 0.096, 192.0, 0.0, 0.0, 0.0, 0.0, 0.0, 0.0, 0.0, 0.0, 0.0, 1.6665554949919677E9, 0.0, 2022-10-23 13:04:54.991
236.0, -69586.88134990708, -101440.79940805428, 54067.28286353146, 10973.432478121815, 85972.27465775903, 70848.90554534264, 29681.328497091356, 18903.22791376447, 0.076, 0.962, 0.096, 192.0, 0.0, 0.0, 0.0, 0.0, 0.0, 0.0, 0.0, 0.0, 0.0, 1.6665554949919784E9, 0.0, 2022-10-23 13:04:54.991
237.0, -69631.92011498453, -101492.2084203015, 53795.30683699928, 10985.055385238575, 86134.77183994911, 70812.98629200296, 29626.700833642582, 19015.076043018824, 0.076, 0.962, 0.096, 192.0, 0.0, 0.0, 0.0, 0.0, 0.0, 0.0, 0.0, 0.0, 0.0, 1.6665554949919894E9, 0.0, 2022-10-23 13:04:54.991
238.0, -69651.1426152161, -101517.01885664689, 55553.1597796869, 11960.038478379069, 86433.9499394834, 71641.72192117237, 30828.19650509316, 20328.419843723757, 0.076, 0.962, 0.096, 192.0, 0.0, 0.0, 0.0, 0.0, 0.0, 0.0, 0.0, 0.0, 0.0, 1.6665554949920003E9, 0.0, 2022-10-23 13:04:54.992
239.0, -69600.69472798047, -101461.13949550861, 56635.095970046044, 12343.057971365211, 86323.91230152993, 72021.67922516815, 31392.198072933923, 20724.001017093782, 0.076, 0.962, 0.096, 192.0, 0.0, 0.0, 0.0, 0.0, 0.0, 0.0, 0.0, 0.0, 0.0, 1.6665554949920127E9, 0.0, 2022-10-23 13:04:54.992
240.0, -69566.7647798973, -101422.62743981212, 54366.95270144376, 11114.762558312721, 85954.2815034725, 70975.46112244859, 29865.864499314368, 19063.132293597733, 0.068, 0.96, 0.096, 192.0, 2.0, 32.0, 30.0, 0.0, 3.0, 0.0, 0.0, 0.0, 0.0, 1.666555494992024E9, 0.0, 2022-10-23 13:04:54.992
241.0, -69617.50323981086, -101467.28622523382, 53726.239946632384, 10936.328582326005, 86094.29283074055, 70772.08259964974, 29565.389998601677, 18915.99075984845, 0.068, 0.96, 0.096, 192.0, 0.0, 0.0, 0.0, 0.0, 0.0, 0.0, 0.0, 0.0, 0.0, 1.6665554949920373E9, 0.0, 2022-10-23 13:04:54.992
242.0, -69674.43313293853, -101517.01885664689, 55098.368835254776, 11734.956411714127, 86378.40585451196, 71444.31131414311, 30540.596609186723, 20025.777223798897, 0.068, 0.96, 0.096, 192.0, 0.0, 0.0, 0.0, 0.0, 0.0, 0.0, 0.0, 0.0, 0.0, 1.6665554949920485E9, 0.0, 2022-10-23 13:04:54.992
243.0, -69655.43415015152, -101504.32306579627, 56754.27547148174, 12438.030533555811, 86378.7858341677, 72089.13678993426, 31493.809103227748, 20869.756742686837, 0.068, 0.96, 0.096, 192.0, 0.0, 0.0, 0.0, 0.0, 0.0, 0.0, 0.0, 0.0, 0.0, 1.6665554949920597E9, 0.0, 2022-10-23 13:04:54.992
244.0, -69570.98925959936, -101437.0443149858, 54722.658362705515, 11282.624159172077, 85967.87136410135, 71127.69885393367, 30085.403333354396, 19273.663374622272, 0.068, 0.96, 0.096, 192.0, 0.0, 0.0, 0.0, 0.0, 0.0, 0.0, 0.0, 0.0, 0.0, 1.666555494992071E9, 0.0, 2022-10-23 13:04:54.992
245.0, -69612.56350428624, -101473.92469333706, 53720.227327373905, 10924.392750786872, 86060.65345533533, 70772.01554441638, 29546.301608836846, 18859.753770798896, 0.068, 0.96, 0.096, 192.0, 0.0, 0.0, 0.0, 0.0, 0.0, 0.0, 0.0, 0.0, 0.0, 1.6665554949920816E9, 0.0, 2022-10-23 13:04:54.992
246.0, -69658.02695250833, -101519.76812121489, 54678.759536595295, 11522.257211477425, 86307.48376935527, 71259.75296017564, 30262.786777351714, 19729.61660976608, 0.068, 0.96, 0.096, 192.0, 0.0, 0.0, 0.0, 0.0, 0.0, 0.0, 0.0, 0.0, 0.0, 1.6665554949920924E9, 0.0, 2022-10-23 13:04:54.992
247.0, -69641.95604824496, -101498.04222560432, 56756.28712848272, 12503.722310509958, 86460.34734968512, 72129.54874390946, 31532.745842068893, 20951.362961693165, 0.068, 0.96, 0.096, 192.0, 0.0, 0.0, 0.0, 0.0, 0.0, 0.0, 0.0, 0.0, 0.0, 1.6665554949921036E9, 0.0, 2022-10-23 13:04:54.992
248.0, -69582.79098067177, -101436.12789346313, 55154.069382437396, 11510.857821805219, 86026.61174852989, 71317.01812947013, 30358.318133153694, 19556.21177628181, 0.068, 0.96, 0.096, 192.0, 0.0, 0.0, 0.0, 0.0, 0.0, 0.0, 0.0, 0.0, 0.0, 1.6665554949921148E9, 0.0, 2022-10-23 13:04:54.992
249.0, -69607.73552748389, -101459.66428037456, 53719.62383027361, 10895.335482994973, 86028.69046076424, 70745.03698885882, 29508.057774073815, 18794.754897922863, 0.068, 0.96, 0.096, 192.0, 0.0, 0.0, 0.0, 0.0, 0.0, 0.0, 0.0, 0.0, 0.0, 1.6665554949921255E9, 0.0, 2022-10-23 13:04:54.992
250.0, -69620.02898693431, -101480.92078935157, 54335.25792780613, 11348.494750081867, 86282.04748416513, 71108.67751940222, 30026.305321014563, 19478.405353832884, 0.064, 0.9580000000000001, 0.092, 192.0, 2.0, 0.0, 29.0, 240.0, 2.0, 224.0, 0.0, 0.0, 0.0, 1.6665554949921367E9, 0.0, 2022-10-23 13:04:54.992
251.0, -69660.30683044277, -101519.47754853698, 56581.04945195311, 12462.863321645656, 86506.59310896315, 72083.72766777607, 31446.289294515766, 20907.866466983138, 0.064, 0.9580000000000001, 0.092, 192.0, 0.0, 0.0, 0.0, 0.0, 0.0, 0.0, 0.0, 0.0, 0.0, 1.666555494992159E9, 0.0, 2022-10-23 13:04:54.992
252.0, -69597.31961456772, -101456.28916696181, 55630.787388180186, 11772.61910112132, 86102.74179014466, 71545.20708861436, 30677.63515444221, 19897.70172806999, 0.064, 0.9580000000000001, 0.092, 192.0, 0.0, 0.0, 0.0, 0.0, 0.0, 0.0, 0.0, 0.0, 0.0, 1.66655549499217E9, 0.0, 2022-10-23 13:04:54.992
253.0, -69591.37405054261, -101459.95485305249, 53790.612970663664, 10906.377244755895, 85991.92184113525, 70764.1030268792, 29530.811849929316, 18790.441011242987, 0.064, 0.9580000000000001, 0.092, 192.0, 0.0, 0.0, 0.0, 0.0, 0.0, 0.0, 0.0, 0.0, 0.0, 1.6665554949921808E9, 0.0, 2022-10-23 13:04:54.992
254.0, -69613.43522232, -101465.38632695512, 54061.672575673176, 11195.675873240933, 86233.87947486395, 70972.86832009177, 29832.493344842595, 19265.81791231846, 0.064, 0.9580000000000001, 0.092, 192.0, 0.0, 0.0, 0.0, 0.0, 0.0, 0.0, 0.0, 0.0, 0.0, 1.6665554949921916E9, 0.0, 2022-10-23 13:04:54.992
255.0, -69666.18533923452, -101520.37161831518, 56237.30197397494, 12313.687779150938, 86496.46776872489, 71937.56961078283, 31243.424861839398, 20732.360569520068, 0.064, 0.9580000000000001, 0.092, 192.0, 0.0, 0.0, 0.0, 0.0, 0.0, 0.0, 0.0, 0.0, 0.0, 1.6665554949922025E9, 0.0, 2022-10-23 13:04:54.992
0.0, -69616.05037642126, -101475.37755672664, 56036.91858493312, 11992.694377028272, 86163.89616297439, 71714.92388426351, 30945.565515227976, 20207.251037031536, 0.064, 0.9580000000000001, 0.092, 192.0, 0.0, 0.0, 0.0, 0.0, 0.0, 0.0, 0.0, 0.0, 0.0, 1.6665554949922135E9, 0.0, 2022-10-23 13:04:54.992
1.0, -69588.73654469688, -101450.83534131473, 53916.14036752467, 10939.994268416676, 85955.84612558439, 70791.79683825932, 29587.00413548996, 18822.269895347345, 0.064, 0.9580000000000001, 0.092, 192.0, 0.0, 0.0, 0.0, 0.0, 0.0, 0.0, 0.0, 0.0, 0.0, 1.6665554949922245E9, 0.0, 2022-10-23 13:04:54.992
2.0, -69606.39442281656, -101464.73812636592, 53869.1122971907, 11076.675185760878, 86170.4899275887, 70863.09890307176, 29684.480093059552, 19095.45291608011, 0.064, 0.9580000000000001, 0.092, 192.0, 0.0, 0.0, 0.0, 0.0, 0.0, 0.0, 0.0, 0.0, 0.0, 1.6665554949922352E9, 0.0, 2022-10-23 13:04:54.992
3.0, -69664.57601363373, -101520.68454273755, 55802.42643385249, 12107.023549917169, 86454.31237868218, 71743.31059972175, 30971.98527717415, 20480.411706019844, 0.064, 0.9580000000000001, 0.092, 192.0, 0.0, 0.0, 0.0, 0.0, 0.0, 0.0, 0.0, 0.0, 0.0, 1.666555494992246E9, 0.0, 2022-10-23 13:04:54.992
4.0, -69603.30988208174, -101464.0005187989, 56428.43174081227, 12234.763769479248, 86264.63547523445, 71906.7689069234, 31224.828210452582, 20540.672009071353, 0.064, 0.9580000000000001, 0.088, 192.0, 2.0, 0.0, 29.0, 240.0, 2.0, 192.0, 0.0, 0.0, 0.0, 1.666555494992257E9, 0.0, 2022-10-23 13:04:54.992
5.0, -69560.46158796092, -101416.8830414871, 54167.217512991134, 11054.703420961312, 85964.89858208879, 70893.94431042008, 29735.39736692874, 18959.107274902737, 0.064, 0.9580000000000001, 0.088, 192.0, 0.0, 0.0, 0.0, 0.0, 0.0, 0.0, 0.0, 0.0, 0.0, 1.6665554949922686E9, 0.0, 2022-10-23 13:04:54.992
6.0, -69608.8754664511, -101463.44172518751, 53767.3895081746, 11002.825022080544, 86125.07118285552, 70804.3585186432, 29597.24123445049, 18988.32100490582, 0.064, 0.9580000000000001, 0.088, 192.0, 0.0, 0.0, 0.0, 0.0, 0.0, 0.0, 0.0, 0.0, 0.0, 1.6665554949922812E9, 0.0, 2022-10-23 13:04:54.992
7.0, -69667.68290611303, -101526.89832769614, 55368.8696466529, 11896.738338081639, 86414.70508750738, 71562.6414492895, 30700.433933786626, 20216.05762434693, 0.064, 0.9580000000000001, 0.088, 192.0, 0.0, 0.0, 0.0, 0.0, 0.0, 0.0, 0.0, 0.0, 0.0, 1.666555494992292E9, 0.0, 2022-10-23 13:04:54.992
8.0, -69653.86952803965, -101522.45033054953, 56685.09682239257, 12396.523344102305, 86337.25629296975, 72043.06984461188, 31419.02016628029, 20784.060154445193, 0.064, 0.9580000000000001, 0.088, 192.0, 0.0, 0.0, 0.0, 0.0, 0.0, 0.0, 0.0, 0.0, 0.0, 1.666555494992303E9, 0.0, 2022-10-23 13:04:54.992
9.0, -69572.46447473341, -101432.32809690572, 54497.196316384834, 11196.25701859677, 85971.80527112547, 71035.11792839979, 29937.63595076036, 19146.79487309395, 0.064, 0.9580000000000001, 0.088, 192.0, 0.0, 0.0, 0.0, 0.0, 0.0, 0.0, 0.0, 0.0, 0.0, 1.6665554949923139E9, 0.0, 2022-10-23 13:04:54.992
10.0, -69601.61114950314, -101454.7916000833, 53737.10289443766, 10965.11762918444, 86115.01289785063, 70792.02035570388, 29565.45705383504, 18921.824565151284, 0.064, 0.9580000000000001, 0.088, 192.0, 0.0, 0.0, 0.0, 0.0, 0.0, 0.0, 0.0, 0.0, 0.0, 1.6665554949923348E9, 0.0, 2022-10-23 13:04:54.992
11.0, -69644.54885060179, -101498.3104465378, 54943.51594966841, 11677.490076719532, 86373.95785736536, 71385.01213610318, 30434.49287825738, 19932.54809767581, 0.064, 0.9580000000000001, 0.088, 192.0, 0.0, 0.0, 0.0, 0.0, 0.0, 0.0, 0.0, 0.0, 0.0, 1.666555494992346E9, 0.0, 2022-10-23 13:04:54.992
12.0, -69659.39040892011, -101516.39300780214, 56769.899340856, 12479.224798586942, 86404.60209901359, 72103.75483080803, 31504.80616149976, 20915.935446731502, 0.064, 0.9580000000000001, 0.088, 192.0, 0.0, 0.0, 0.0, 0.0, 0.0, 0.0, 0.0, 0.0, 0.0, 1.6665554949923568E9, 0.0, 2022-10-23 13:04:54.992
13.0, -69568.77643689829, -101434.7420853069, 54874.292597090316, 11372.277006182314, 85985.88687013232, 71184.6510988058, 30168.39536051695, 19375.184997938275, 0.064, 0.9580000000000001, 0.088, 192.0, 0.0, 0.0, 0.0, 0.0, 0.0, 0.0, 0.0, 0.0, 0.0, 1.6665554949923725E9, 0.0, 2022-10-23 13:04:54.992
14.0, -69590.50233250884, -101446.9461377795, 53703.664684732525, 10914.893259393366, 86056.5630861, 70750.73668369492, 29513.533951465364, 18832.797566985795, 0.054, 0.9520000000000001, 0.092, 192.0, 1.0, 176.0, 29.0, 192.0, 2.0, 224.0, 0.0, 0.0, 0.0, 1.666555494992382E9, 0.0, 2022-10-23 13:04:54.992
15.0, -69659.63627810912, -101516.92944966907, 54519.011618973214, 11442.93087040554, 86293.73744651527, 71179.37608711435, 30143.696682893835, 19622.97643696981, 0.054, 0.9520000000000001, 0.092, 192.0, 0.0, 0.0, 0.0, 0.0, 0.0, 0.0, 0.0, 0.0, 0.0, 1.6665554949923923E9, 0.0, 2022-10-23 13:04:54.992
16.0, -69679.03759229631, -101537.33659235676, 56681.54289502417, 12468.719478692947, 86439.89550350851, 72085.42640035467, 31476.41944604152, 20927.33483640371, 0.054, 0.9520000000000001, 0.092, 192.0, 0.0, 0.0, 0.0, 0.0, 0.0, 0.0, 0.0, 0.0, 0.0, 1.666555494992402E9, 0.0, 2022-10-23 13:04:54.992
