%OpenBCI Raw EEG Data
%Number of channels = 8
%Sample Rate = 250 Hz
%Board = OpenBCI_GUI$BoardCytonSerial
Sample Index, EXG Channel 0, EXG Channel 1, EXG Channel 2, EXG Channel 3, EXG Channel 4, EXG Channel 5, EXG Channel 6, EXG Channel 7, Accel Channel 0, Accel Channel 1, Accel Channel 2, Other, Other, Other, Other, Other, Other, Other, Analog Channel 0, Analog Channel 1, Analog Channel 2, Timestamp, Other, Timestamp (Formatted)
135.0, -68528.77211913731, -100091.11167086502, 56006.07317758479, 8399.450290137565, 85609.55054873832, 68277.00206959272, 26975.068685420596, 18409.70139619129, 0.0, 0.0, 0.0, 192.0, 0.0, 0.0, 0.0, 0.0, 0.0, 0.0, 0.0, 0.0, 0.0, 1.6665554360281768E9, 0.0, 2022-10-23 13:03:56.028
136.0, -68549.93922113648, -100106.13204313899, 54478.465554531285, 7721.0077906856295, 85611.38339178365, 67676.20953037853, 26088.486741600842, 17585.994909524314, 0.0, 0.0, 0.0, 192.0, 0.0, 0.0, 0.0, 0.0, 0.0, 0.0, 0.0, 0.0, 0.0, 1.6665554360281987E9, 0.0, 2022-10-23 13:03:56.028
137.0, -68596.22968390342, -100143.4371046349, 55032.69941004508, 8138.672487577497, 85845.54026669744, 68012.84915361991, 26566.29998282194, 18222.84081254492, 0.0, 0.0, 0.0, 192.0, 0.0, 0.0, 0.0, 0.0, 0.0, 0.0, 0.0, 0.0, 0.0, 1.666555436028213E9, 0.0, 2022-10-23 13:03:56.028
138.0, -68628.81852731926, -100173.85782883858, 57275.02641380148, 9265.200408124972, 86051.35512964192, 68972.85657797534, 27951.30347625059, 19638.17562319942, 0.0, 0.0, 0.0, 192.0, 0.0, 0.0, 0.0, 0.0, 0.0, 0.0, 0.0, 0.0, 0.0, 1.666555436028227E9, 0.0, 2022-10-23 13:03:56.028
139.0, -68551.39208452607, -100107.07081640612, 56503.42184345983, 8670.755764336081, 85679.37739841669, 68516.83628759817, 27298.945462577994, 18742.585926364176, 0.038, 0.964, 0.068, 192.0, 1.0, 48.0, 30.0, 32.0, 2.0, 32.0, 0.0, 0.0, 0.0, 1.6665554360282412E9, 0.0, 2022-10-23 13:03:56.028
140.0, -68551.30267754826, -100105.75206348325, 54575.09214581158, 7735.022334459107, 85566.23286798393, 67696.0802311993, 26106.993986009835, 17560.893900501003, 0.038, 0.964, 0.068, 192.0, 0.0, 0.0, 0.0, 0.0, 0.0, 0.0, 0.0, 0.0, 0.0, 1.6665554360282547E9, 0.0, 2022-10-23 13:03:56.028
141.0, -68593.56982631324, -100143.25829067925, 54751.112133397124, 7960.059697635138, 85781.18959441062, 67853.99530577604, 26336.479346332475, 17961.41480939565, 0.038, 0.964, 0.068, 192.0, 0.0, 0.0, 0.0, 0.0, 0.0, 0.0, 0.0, 0.0, 0.0, 1.6665554360282664E9, 0.0, 2022-10-23 13:03:56.028
142.0, -68637.6474663791, -100182.91028534298, 56890.66581614802, 9080.195019268396, 86051.86921976438, 68800.14464856918, 27700.3380895064, 19407.818544843023, 0.038, 0.964, 0.068, 192.0, 0.0, 0.0, 0.0, 0.0, 0.0, 0.0, 0.0, 0.0, 0.0, 1.6665554360282776E9, 0.0, 2022-10-23 13:03:56.028
143.0, -68558.4328840295, -100117.9784677003, 56919.09723509518, 8904.62206657196, 85775.48989957452, 68697.59484500824, 27556.07993079185, 19048.91658412416, 0.038, 0.964, 0.068, 192.0, 0.0, 0.0, 0.0, 0.0, 0.0, 0.0, 0.0, 0.0, 0.0, 1.6665554360282888E9, 0.0, 2022-10-23 13:03:56.028
144.0, -68524.65939815753, -100085.05434811764, 54724.78177842877, 7783.927951327319, 85542.0929839722, 67736.17926075212, 26160.23584130238, 17599.58477015314, 0.038, 0.964, 0.068, 192.0, 0.0, 0.0, 0.0, 0.0, 0.0, 0.0, 0.0, 0.0, 0.0, 1.6665554360283E9, 0.0, 2022-10-23 13:03:56.028
145.0, -68565.67484923302, -100115.13979615449, 54591.855954153056, 7859.722716775265, 85739.97297763503, 67768.14225532321, 26200.826609233216, 17810.47347908896, 0.038, 0.964, 0.068, 192.0, 0.0, 0.0, 0.0, 0.0, 0.0, 0.0, 0.0, 0.0, 0.0, 1.6665554360283113E9, 0.0, 2022-10-23 13:03:56.028
146.0, -68613.50758236737, -100163.12899150002, 56482.45590716075, 8890.361653609474, 86033.07140267747, 68637.42394893455, 27447.00341784995, 19172.566434450917, 0.038, 0.964, 0.068, 192.0, 0.0, 0.0, 0.0, 0.0, 0.0, 0.0, 0.0, 0.0, 0.0, 1.666555436028322E9, 0.0, 2022-10-23 13:03:56.028
147.0, -68561.27155557532, -100114.67040952091, 57265.14694275224, 9111.286295805729, 85857.69961568114, 68863.51184409998, 27786.034677748048, 19340.048055654534, 0.038, 0.964, 0.068, 192.0, 0.0, 0.0, 0.0, 0.0, 0.0, 0.0, 0.0, 0.0, 0.0, 1.6665554360283337E9, 0.0, 2022-10-23 13:03:56.028
148.0, -68531.70019766095, -100083.48972600576, 54971.41092674863, 7885.740147321242, 85548.30676893076, 67831.35298864282, 26291.52998823285, 17727.861431582147, 0.032, 0.9580000000000001, 0.066, 192.0, 1.0, 0.0, 29.0, 240.0, 2.0, 16.0, 0.0, 0.0, 0.0, 1.6665554360283449E9, 0.0, 2022-10-23 13:03:56.028
149.0, -68568.35705856765, -100121.9347264689, 54524.97953474278, 7805.810309149064, 85718.3364890023, 67737.72153111953, 26140.052216059237, 17724.955704802956, 0.032, 0.9580000000000001, 0.066, 192.0, 0.0, 0.0, 0.0, 0.0, 0.0, 0.0, 0.0, 0.0, 0.0, 1.6665554360283587E9, 0.0, 2022-10-23 13:03:56.028
150.0, -68614.2451899344, -100168.35929970257, 56050.307279861845, 8667.917092790258, 85983.98697185362, 68460.77811250427, 27180.302403009227, 18898.802268362317, 0.032, 0.9580000000000001, 0.066, 192.0, 0.0, 0.0, 0.0, 0.0, 0.0, 0.0, 0.0, 0.0, 0.0, 1.66655543602837E9, 0.0, 2022-10-23 13:03:56.028
151.0, -68590.99937570088, -100140.50902611125, 57507.775128814596, 9268.620225026634, 85929.89575027177, 69002.36088065636, 27968.603726458994, 19568.371125265494, 0.032, 0.9580000000000001, 0.066, 192.0, 0.0, 0.0, 0.0, 0.0, 0.0, 0.0, 0.0, 0.0, 0.0, 1.6665554360285015E9, 0.0, 2022-10-23 13:03:56.028
152.0, -68535.05295932924, -100078.86291490351, 55334.40325670281, 8043.789332364719, 85540.37189964914, 67984.35067943939, 26500.2058744676, 17923.841526966276, 0.032, 0.9580000000000001, 0.066, 192.0, 0.0, 0.0, 0.0, 0.0, 0.0, 0.0, 0.0, 0.0, 0.0, 1.6665554360285132E9, 0.0, 2022-10-23 13:03:56.028
153.0, -68562.38914279809, -100108.0766449066, 54476.96798765278, 7741.10200895095, 85662.59123833076, 67690.20172240755, 26065.01740992277, 17621.847107630623, 0.032, 0.9580000000000001, 0.066, 192.0, 0.0, 0.0, 0.0, 0.0, 0.0, 0.0, 0.0, 0.0, 0.0, 1.6665554360285242E9, 0.0, 2022-10-23 13:03:56.028
154.0, -68604.61158807416, -100151.37197391654, 55620.013847352726, 8430.496863185987, 85934.81313405195, 68260.64059265144, 26883.582995365025, 18597.076069960127, 0.032, 0.9580000000000001, 0.066, 192.0, 0.0, 0.0, 0.0, 0.0, 0.0, 0.0, 0.0, 0.0, 0.0, 1.6665554360285351E9, 0.0, 2022-10-23 13:03:56.028
155.0, -68606.98087298643, -100152.40015416149, 57573.10927785746, 9325.885394321132, 85999.47673076115, 69042.54931718699, 28018.090488683047, 19674.631318406024, 0.032, 0.9580000000000001, 0.066, 192.0, 0.0, 0.0, 0.0, 0.0, 0.0, 0.0, 0.0, 0.0, 0.0, 1.666555436028546E9, 0.0, 2022-10-23 13:03:56.028
156.0, -68526.89457260307, -100079.33230153708, 55725.447025948415, 8215.920116415038, 85564.80235633878, 68122.43975668428, 26708.635891513335, 18158.646602469278, 0.032, 0.9580000000000001, 0.066, 192.0, 0.0, 0.0, 0.0, 0.0, 0.0, 0.0, 0.0, 0.0, 0.0, 1.6665554360285573E9, 0.0, 2022-10-23 13:03:56.028
157.0, -68537.01991284131, -100103.27101984872, 54481.66185398839, 7710.52482253609, 85646.09565092274, 67661.9714691605, 26024.53840071421, 17570.57220585015, 0.032, 0.9580000000000001, 0.066, 192.0, 0.0, 0.0, 0.0, 0.0, 0.0, 0.0, 0.0, 0.0, 0.0, 1.666555436028571E9, 0.0, 2022-10-23 13:03:56.028
158.0, -68583.64565177509, -100141.09017146709, 55247.65613647177, 8220.703389728475, 85884.36524681632, 68076.32810787298, 26622.06758523793, 18332.409063864838, 0.044, 0.962, 0.064, 192.0, 1.0, 96.0, 30.0, 16.0, 2.0, 0.0, 0.0, 0.0, 0.0, 1.666555436028582E9, 0.0, 2022-10-23 13:03:56.028
159.0, -68605.14802994109, -100155.0376600072, 57445.50316876211, 9292.60364682718, 86048.58351332946, 68994.60482533036, 27952.10813905098, 19668.194016002897, 0.044, 0.962, 0.064, 192.0, 0.0, 0.0, 0.0, 0.0, 0.0, 0.0, 0.0, 0.0, 0.0, 1.6665554360285945E9, 0.0, 2022-10-23 13:03:56.028
160.0, -68529.57678193769, -100085.2778655622, 56206.1659939487, 8469.72417470505, 85644.8663049777, 68336.5247650772, 27012.038470749674, 18495.934426299864, 0.044, 0.962, 0.064, 192.0, 0.0, 0.0, 0.0, 0.0, 0.0, 0.0, 0.0, 0.0, 0.0, 1.6665554360286057E9, 0.0, 2022-10-23 13:03:56.028
161.0, -68553.11316884913, -100103.09220589307, 54562.79868636116, 7723.332372108981, 85621.62049074417, 67682.26685312591, 26042.509203256275, 17566.258319170276, 0.044, 0.962, 0.064, 192.0, 0.0, 0.0, 0.0, 0.0, 0.0, 0.0, 0.0, 0.0, 0.0, 1.6665554360286164E9, 0.0, 2022-10-23 13:03:56.028
162.0, -68599.22481766043, -100147.8403982926, 54950.44499044955, 8043.588166664621, 85816.12537099425, 67923.68804498769, 26397.61136741774, 18086.517523112005, 0.044, 0.962, 0.064, 192.0, 0.0, 0.0, 0.0, 0.0, 0.0, 0.0, 0.0, 0.0, 0.0, 1.6665554360286276E9, 0.0, 2022-10-23 13:03:56.028
163.0, -68629.48907965292, -100181.32331148665, 57188.41340403717, 9189.897381055043, 86062.95568501421, 68892.27853921396, 27791.868483050883, 19540.029113296165, 0.044, 0.962, 0.064, 192.0, 0.0, 0.0, 0.0, 0.0, 0.0, 0.0, 0.0, 0.0, 0.0, 1.6665554360286384E9, 0.0, 2022-10-23 13:03:56.028
164.0, -68543.63602920009, -100103.20396461534, 56711.89656399448, 8754.239529876653, 85726.45017223957, 68570.41341905754, 27325.63344545763, 18844.06284619127, 0.044, 0.962, 0.064, 192.0, 0.0, 0.0, 0.0, 0.0, 0.0, 0.0, 0.0, 0.0, 0.0, 1.6665554360286496E9, 0.0, 2022-10-23 13:03:56.028
165.0, -68532.92954360599, -100091.24578133176, 54688.37078671107, 7763.230235961704, 85583.86839435916, 67709.89360927268, 26068.034895424236, 17574.372002407552, 0.044, 0.962, 0.064, 192.0, 0.0, 0.0, 0.0, 0.0, 0.0, 0.0, 0.0, 0.0, 0.0, 1.6665554360286603E9, 0.0, 2022-10-23 13:03:56.028
166.0, -68571.26278534684, -100125.3321916261, 54772.011014462834, 7947.520368995711, 85788.96800148106, 67836.58329684536, 26245.597153377195, 17919.97467517551, 0.044, 0.962, 0.064, 192.0, 0.0, 0.0, 0.0, 0.0, 0.0, 0.0, 0.0, 0.0, 0.0, 1.6665554360286713E9, 0.0, 2022-10-23 13:03:56.028
167.0, -68620.05664349278, -100176.60709340658, 56829.0644084292, 9032.36228613404, 86045.20839991671, 68747.59569735476, 27560.237355260535, 19333.230773595664, 0.044, 0.962, 0.064, 192.0, 0.0, 0.0, 0.0, 0.0, 0.0, 0.0, 0.0, 0.0, 0.0, 1.66655543602873E9, 0.0, 2022-10-23 13:03:56.028
168.0, -68555.01306712783, -100121.5323950687, 57138.74782785748, 8998.655855495435, 85793.5054056055, 68762.52666265091, 27588.26644280749, 19161.904652345736, 0.038, 0.9580000000000001, 0.062, 192.0, 1.0, 48.0, 29.0, 240.0, 1.0, 240.0, 0.0, 0.0, 0.0, 1.6665554360287414E9, 0.0, 2022-10-23 13:03:56.028
169.0, -68525.15113653554, -100090.44111853137, 54902.90282999311, 7843.540053789623, 85541.690652572, 67780.41336302918, 26157.196004056455, 17651.127892867076, 0.038, 0.9580000000000001, 0.062, 192.0, 0.0, 0.0, 0.0, 0.0, 0.0, 0.0, 0.0, 0.0, 0.0, 1.6665554360287533E9, 0.0, 2022-10-23 13:03:56.028
170.0, -68580.22583487342, -100131.92595624042, 54659.76055380828, 7866.160019178394, 85726.11489607274, 67764.40951399917, 26126.149431008034, 17780.23156884093, 0.038, 0.9580000000000001, 0.062, 192.0, 0.0, 0.0, 0.0, 0.0, 0.0, 0.0, 0.0, 0.0, 0.0, 1.6665554360287645E9, 0.0, 2022-10-23 13:03:56.028
171.0, -68629.51143139738, -100172.9414073159, 56419.17811860778, 8837.298612272574, 86008.26096633208, 68574.90611969306, 27290.652965385078, 19069.189616345124, 0.038, 0.9580000000000001, 0.062, 192.0, 0.0, 0.0, 0.0, 0.0, 0.0, 0.0, 0.0, 0.0, 0.0, 1.6665554360287752E9, 0.0, 2022-10-23 13:03:56.028
172.0, -68578.52710229481, -100129.69078179488, 57495.90635250883, 9228.20827105144, 85891.96483993111, 68948.29201081896, 27825.93254160077, 19449.482196507717, 0.038, 0.9580000000000001, 0.062, 192.0, 0.0, 0.0, 0.0, 0.0, 0.0, 0.0, 0.0, 0.0, 0.0, 1.6665554360287864E9, 0.0, 2022-10-23 13:03:56.028
173.0, -68519.51849693281, -100073.7667171677, 55207.132423774296, 7981.383261845502, 85550.1396119761, 67899.36934702031, 26309.81371519729, 17796.973025437954, 0.038, 0.9580000000000001, 0.062, 192.0, 0.0, 0.0, 0.0, 0.0, 0.0, 0.0, 0.0, 0.0, 0.0, 1.6665554360287974E9, 0.0, 2022-10-23 13:03:56.028
174.0, -68564.57961375471, -100114.06691242063, 54601.80248043567, 7815.578021476033, 85710.64748890967, 67721.29299894489, 26043.4479765234, 17680.766306014815, 0.038, 0.9580000000000001, 0.062, 192.0, 0.0, 0.0, 0.0, 0.0, 0.0, 0.0, 0.0, 0.0, 0.0, 1.6665554360288084E9, 0.0, 2022-10-23 13:03:56.028
175.0, -68609.88659976561, -100158.77040133125, 55983.58732266275, 8612.305952585453, 85969.16776527975, 68379.93185280942, 26993.508874596224, 18774.615976168632, 0.038, 0.9580000000000001, 0.062, 192.0, 0.0, 0.0, 0.0, 0.0, 0.0, 0.0, 0.0, 0.0, 0.0, 1.666555436028819E9, 0.0, 2022-10-23 13:03:56.028
176.0, -68591.40170710107, -100153.27187219524, 57656.16836025338, 9341.710429395489, 85962.10461403186, 69028.35595945787, 27927.81179282806, 19608.492506562772, 0.038, 0.9580000000000001, 0.062, 192.0, 0.0, 0.0, 0.0, 0.0, 0.0, 0.0, 0.0, 0.0, 0.0, 1.6665554360288303E9, 0.0, 2022-10-23 13:03:56.028
177.0, -68512.18712475146, -100078.90761839243, 55569.677718839375, 8143.321650424201, 85544.90930377356, 68033.23394456315, 26496.22726395455, 17983.274815472938, 0.032, 0.9500000000000001, 0.062, 192.0, 1.0, 0.0, 29.0, 176.0, 1.0, 240.0, 0.0, 0.0, 0.0, 1.6665554360288413E9, 0.0, 2022-10-23 13:03:56.028
178.0, -68543.2784012888, -100103.96392392683, 54580.2330470363, 7778.407070446858, 85668.42504363359, 67686.93836771707, 25978.247937947268, 17587.53717989173, 0.032, 0.9500000000000001, 0.062, 192.0, 0.0, 0.0, 0.0, 0.0, 0.0, 0.0, 0.0, 0.0, 0.0, 1.666555436028854E9, 0.0, 2022-10-23 13:03:56.028
179.0, -68595.71559378094, -100150.05322099366, 55588.408480692924, 8405.172336718124, 85926.61004383684, 68200.96143495577, 26716.973092195167, 18483.976243016274, 0.032, 0.9500000000000001, 0.062, 192.0, 0.0, 0.0, 0.0, 0.0, 0.0, 0.0, 0.0, 0.0, 0.0, 1.666555436028865E9, 0.0, 2022-10-23 13:03:56.028
180.0, -68599.22481766043, -100152.4895611393, 57647.540586893636, 9375.685080967556, 86031.81970498797, 69033.72037812715, 27928.594103883996, 19663.634260134015, 0.032, 0.9500000000000001, 0.062, 192.0, 0.0, 0.0, 0.0, 0.0, 0.0, 0.0, 0.0, 0.0, 0.0, 1.6665554360288758E9, 0.0, 2022-10-23 13:03:56.028
181.0, -68509.14728750555, -100069.47518223229, 56006.38610200716, 8369.633063034185, 85608.16474058208, 68206.79524025861, 26748.10907222141, 18260.03411531855, 0.032, 0.9500000000000001, 0.062, 192.0, 0.0, 0.0, 0.0, 0.0, 0.0, 0.0, 0.0, 0.0, 0.0, 1.6665554360289156E9, 0.0, 2022-10-23 13:03:56.028
182.0, -68535.29882851825, -100096.11846162302, 54596.393358277484, 7763.073773750517, 85635.54562753983, 67653.20958533401, 25936.94191419386, 17531.61311526455, 0.032, 0.9500000000000001, 0.062, 192.0, 0.0, 0.0, 0.0, 0.0, 0.0, 0.0, 0.0, 0.0, 0.0, 1.6665554360290017E9, 0.0, 2022-10-23 13:03:56.029
183.0, -68579.10824765066, -100140.44197087789, 55253.42288654124, 8228.43709331001, 85869.3225227979, 68026.12608982636, 26472.914394487667, 18225.612428857377, 0.032, 0.9500000000000001, 0.062, 192.0, 0.0, 0.0, 0.0, 0.0, 0.0, 0.0, 0.0, 0.0, 0.0, 1.666555436029043E9, 0.0, 2022-10-23 13:03:56.029
184.0, -68606.6455968196, -100161.69847985488, 57506.99281775866, 9348.974746343463, 86059.312350668, 68981.19377865718, 27851.637047724373, 19623.334064881095, 0.032, 0.9500000000000001, 0.062, 192.0, 0.0, 0.0, 0.0, 0.0, 0.0, 0.0, 0.0, 0.0, 0.0, 1.6665554360290837E9, 0.0, 2022-10-23 13:03:56.029
185.0, -68538.91981112001, -100092.58688599907, 56509.47916620722, 8636.535243575006, 85652.13062192567, 68412.23012354733, 27047.98007583381, 18584.3355756206, 0.032, 0.9500000000000001, 0.062, 192.0, 0.0, 0.0, 0.0, 0.0, 0.0, 0.0, 0.0, 0.0, 0.0, 1.6665554360291247E9, 0.0, 2022-10-23 13:03:56.029
186.0, -68549.62629671411, -100097.34780756806, 54676.54671389422, 7765.420706918324, 85568.60215289619, 67638.14450957114, 25925.69898673284, 17494.196295046368, 0.032, 0.9500000000000001, 0.062, 192.0, 0.0, 0.0, 0.0, 0.0, 0.0, 0.0, 0.0, 0.0, 0.0, 1.6665554360291665E9, 0.0, 2022-10-23 13:03:56.029
187.0, -68580.35994534015, -100130.98718297329, 54969.35456625874, 8054.875797614551, 85796.5005393625, 67850.24021270755, 26227.17931594602, 17972.993013023497, 0.034, 0.9540000000000001, 0.058, 192.0, 1.0, 16.0, 29.0, 208.0, 1.0, 208.0, 0.0, 0.0, 0.0, 1.6665554360292077E9, 0.0, 2022-10-23 13:03:56.029
188.0, -68630.11492849767, -100172.40496544898, 57160.22785427903, 9188.086889754164, 86057.2112866892, 68803.36329977075, 27599.576425501877, 19426.28108576311, 0.034, 0.9540000000000001, 0.058, 192.0, 0.0, 0.0, 0.0, 0.0, 0.0, 0.0, 0.0, 0.0, 0.0, 1.6665554360292516E9, 0.0, 2022-10-23 13:03:56.029
189.0, -68566.36775331113, -100108.0766449066, 56957.47518032494, 8889.177011153342, 85744.84565792629, 68594.26273039136, 27303.3934597246, 18908.033538822358, 0.034, 0.9540000000000001, 0.058, 192.0, 0.0, 0.0, 0.0, 0.0, 0.0, 0.0, 0.0, 0.0, 0.0, 1.6665554360292826E9, 0.0, 2022-10-23 13:03:56.029
190.0, -68546.36294202364, -100088.25064757475, 54837.166349550054, 7828.340867560014, 85557.31452194626, 67681.70805951454, 25972.637650088986, 17540.66557176895, 0.034, 0.9540000000000001, 0.058, 192.0, 0.0, 0.0, 0.0, 0.0, 0.0, 0.0, 0.0, 0.0, 0.0, 1.6665554360292966E9, 0.0, 2022-10-23 13:03:56.029
191.0, -68580.27053836234, -100124.30401138116, 54822.70477088747, 7971.704956496354, 85768.42674832663, 67773.08199084783, 26092.64416606953, 17825.650313574115, 0.034, 0.9540000000000001, 0.058, 192.0, 0.0, 0.0, 0.0, 0.0, 0.0, 0.0, 0.0, 0.0, 0.0, 1.6665554360293112E9, 0.0, 2022-10-23 13:03:56.029
192.0, -68624.01290226137, -100171.30972997067, 56791.91580914448, 9026.707294786847, 86042.36972837088, 68659.66393466758, 27365.106626165703, 19209.938551180192, 0.034, 0.9540000000000001, 0.058, 192.0, 0.0, 0.0, 0.0, 0.0, 0.0, 0.0, 0.0, 0.0, 0.0, 1.6665554360293252E9, 0.0, 2022-10-23 13:03:56.029
193.0, -68563.12675036512, -100118.64902003396, 57401.380825207336, 9157.24148240584, 85846.36728124229, 68819.61301798976, 27591.350983542325, 19248.47295862114, 0.034, 0.9540000000000001, 0.058, 192.0, 0.0, 0.0, 0.0, 0.0, 0.0, 0.0, 0.0, 0.0, 0.0, 1.6665554360293393E9, 0.0, 2022-10-23 13:03:56.029
194.0, -68525.91109584703, -100076.33716778008, 55115.758492441004, 7953.62239523201, 85556.88983880161, 67798.96531092707, 26108.69271858844, 17663.510759295317, 0.034, 0.9540000000000001, 0.058, 192.0, 0.0, 0.0, 0.0, 0.0, 0.0, 0.0, 0.0, 0.0, 0.0, 1.6665554360293536E9, 0.0, 2022-10-23 13:03:56.029
195.0, -68569.6311080016, -100108.881307707, 54771.18399991799, 7929.191938542359, 85735.86025665526, 67746.21519401255, 26016.938807599403, 17726.90030657057, 0.034, 0.9540000000000001, 0.058, 192.0, 0.0, 0.0, 0.0, 0.0, 0.0, 0.0, 0.0, 0.0, 0.0, 1.6665554360293713E9, 0.0, 2022-10-23 13:03:56.029
196.0, -68617.28502718032, -100152.84718905059, 56369.1549145168, 8809.157766003344, 85985.23866954312, 68469.69645854193, 27071.650573211977, 18918.918838372094, 0.034, 0.9540000000000001, 0.058, 192.0, 0.0, 0.0, 0.0, 0.0, 0.0, 0.0, 0.0, 0.0, 0.0, 1.6665554360293863E9, 0.0, 2022-10-23 13:03:56.029
197.0, -68580.85168371817, -100126.47213059332, 57659.409363199404, 9315.22361221595, 85914.98713672008, 68928.28719953146, 27741.554706281986, 19459.831054190523, 0.028, 0.966, 0.058, 192.0, 0.0, 224.0, 30.0, 48.0, 1.0, 208.0, 0.0, 0.0, 0.0, 1.6665554360294003E9, 0.0, 2022-10-23 13:03:56.029
198.0, -68520.3231597332, -100073.49849623424, 55442.719810333234, 8094.147812622526, 85552.95593177747, 67908.95824539164, 26266.093703042712, 17820.889392005134, 0.028, 0.966, 0.058, 192.0, 0.0, 0.0, 0.0, 0.0, 0.0, 0.0, 0.0, 0.0, 0.0, 1.66655543602945E9, 0.0, 2022-10-23 13:03:56.029
199.0, -68564.17728235452, -100113.7316362538, 54698.741996138335, 7855.051202184106, 85677.70101758254, 67665.16776861761, 25906.252969056724, 17594.086241017132, 0.028, 0.966, 0.058, 192.0, 0.0, 0.0, 0.0, 0.0, 0.0, 0.0, 0.0, 0.0, 0.0, 1.6665554360294664E9, 0.0, 2022-10-23 13:03:56.029
200.0, -68620.41427140406, -100165.94531130139, 55948.91976701257, 8593.821059920914, 85939.50700038756, 68273.53754920216, 26782.039020304564, 18622.132375494526, 0.028, 0.966, 0.058, 192.0, 0.0, 0.0, 0.0, 0.0, 0.0, 0.0, 0.0, 0.0, 0.0, 1.6665554360294807E9, 0.0, 2022-10-23 13:03:56.029
201.0, -68602.06348920625, -100151.55078787218, 57803.712225402865, 9435.006610751941, 85990.6477917013, 69013.0897179949, 27846.496146499652, 19613.83457348759, 0.028, 0.966, 0.058, 192.0, 0.0, 0.0, 0.0, 0.0, 0.0, 0.0, 0.0, 0.0, 0.0, 1.6665554360294952E9, 0.0, 2022-10-23 13:03:56.029
202.0, -68518.53502017677, -100071.59859795554, 55889.15120233908, 8318.22405078698, 85586.7517693939, 68098.70220407275, 26523.898723590224, 18082.963595743608, 0.028, 0.966, 0.058, 192.0, 0.0, 0.0, 0.0, 0.0, 0.0, 0.0, 0.0, 0.0, 0.0, 1.6665554360295093E9, 0.0, 2022-10-23 13:03:56.029
203.0, -68549.06750310272, -100096.23022034529, 54720.73611268236, 7841.260175855181, 85653.5164300819, 67655.221242335, 25874.826416352564, 17543.794815992693, 0.028, 0.966, 0.058, 192.0, 0.0, 0.0, 0.0, 0.0, 0.0, 0.0, 0.0, 0.0, 0.0, 1.6665554360295236E9, 0.0, 2022-10-23 13:03:56.029
204.0, -68599.26952114934, -100144.46528487984, 55589.48136442678, 8398.623275592718, 85902.80543599195, 68112.49323040167, 26531.654778916214, 18360.14757873387, 0.028, 0.966, 0.058, 192.0, 0.0, 0.0, 0.0, 0.0, 0.0, 0.0, 0.0, 0.0, 0.0, 1.666555436029538E9, 0.0, 2022-10-23 13:03:56.029
205.0, -68606.8914660086, -100153.18246521741, 57749.64335556547, 9436.414770652626, 86044.33668188295, 69007.88176153682, 27825.284341011567, 19639.002637744266, 0.028, 0.966, 0.058, 192.0, 0.0, 0.0, 0.0, 0.0, 0.0, 0.0, 0.0, 0.0, 0.0, 1.6665554360295522E9, 0.0, 2022-10-23 13:03:56.029
206.0, -68525.10643304663, -100071.4197839999, 56312.62735278933, 8517.981590984058, 85628.97421466997, 68265.60267992051, 26767.979773042178, 18353.15148271936, 0.028, 0.966, 0.058, 192.0, 0.0, 0.0, 0.0, 0.0, 0.0, 0.0, 0.0, 0.0, 0.0, 1.6665554360295663E9, 0.0, 2022-10-23 13:03:56.029
207.0, -68545.87120364561, -100088.25064757475, 54772.011014462834, 7832.252422839692, 85629.60006351472, 67660.98799240447, 25875.139340774935, 17520.772519203725, 0.018000000000000002, 0.964, 0.056, 192.0, 0.0, 144.0, 30.0, 32.0, 1.0, 192.0, 0.0, 0.0, 0.0, 1.6665554360295808E9, 0.0, 2022-10-23 13:03:56.029
208.0, -68586.05964017626, -100128.86376725003, 55301.27797142005, 8232.348648589688, 85858.10194708133, 67984.6412521173, 26334.44533758704, 18141.01107609404, 0.018000000000000002, 0.964, 0.056, 192.0, 0.0, 0.0, 0.0, 0.0, 0.0, 0.0, 0.0, 0.0, 0.0, 1.666555436029596E9, 0.0, 2022-10-23 13:03:56.029
209.0, -68606.0420997193, -100152.60131986157, 57539.20168151876, 9349.153560299106, 86060.11701346839, 68935.10448159033, 27708.96586286615, 19558.514005960704, 0.018000000000000002, 0.964, 0.056, 192.0, 0.0, 0.0, 0.0, 0.0, 0.0, 0.0, 0.0, 0.0, 0.0, 1.666555436029608E9, 0.0, 2022-10-23 13:03:56.029
210.0, -68522.91596209002, -100076.40422301344, 56807.76319596329, 8769.68458529527, 85689.65920086614, 68489.03071749577, 27078.31139305966, 18695.244931607835, 0.018000000000000002, 0.964, 0.056, 192.0, 0.0, 0.0, 0.0, 0.0, 0.0, 0.0, 0.0, 0.0, 0.0, 1.6665554360296175E9, 0.0, 2022-10-23 13:03:56.029
211.0, -68531.38727323858, -100078.23706605878, 54871.632739500135, 7829.771379205154, 85573.2960192318, 67675.56132978933, 25893.534826461655, 17512.10004235507, 0.018000000000000002, 0.964, 0.056, 192.0, 0.0, 0.0, 0.0, 0.0, 0.0, 0.0, 0.0, 0.0, 0.0, 1.666555436029627E9, 0.0, 2022-10-23 13:03:56.029
212.0, -68568.9829074124, -100115.49742406576, 55066.60700638378, 8069.963225121883, 85792.34311489381, 67858.48800641156, 26148.054140574237, 17931.821099736822, 0.018000000000000002, 0.964, 0.056, 192.0, 0.0, 0.0, 0.0, 0.0, 0.0, 0.0, 0.0, 0.0, 0.0, 1.666555436029637E9, 0.0, 2022-10-23 13:03:56.029
213.0, -68603.78457352932, -100152.37780241702, 57203.76905247797, 9183.750651329834, 86058.44063263424, 68807.65483470618, 27509.275377902435, 19381.68935557477, 0.018000000000000002, 0.964, 0.056, 192.0, 0.0, 0.0, 0.0, 0.0, 0.0, 0.0, 0.0, 0.0, 0.0, 1.666555436029657E9, 0.0, 2022-10-23 13:03:56.029
214.0, -68541.55731696574, -100095.24674358926, 57273.8194196009, 9012.06690216862, 85771.10895766127, 68710.5141533034, 27382.876263007674, 19043.95449685508, 0.018000000000000002, 0.964, 0.056, 192.0, 0.0, 0.0, 0.0, 0.0, 0.0, 0.0, 0.0, 0.0, 0.0, 1.6665554360296664E9, 0.0, 2022-10-23 13:03:56.029
215.0, -68513.48352592987, -100070.14573456594, 55072.93255006463, 7886.388347910446, 85551.95010327699, 67748.67388590264, 25988.90972005245, 17586.598406624606, 0.018000000000000002, 0.964, 0.056, 192.0, 0.0, 0.0, 0.0, 0.0, 0.0, 0.0, 0.0, 0.0, 0.0, 1.666555436029676E9, 0.0, 2022-10-23 13:03:56.029
216.0, -68553.15787233805, -100104.72388323832, 54917.8114435448, 7945.687525950376, 85747.72903296103, 67768.38812451222, 26016.11179305456, 17779.80688569628, 0.014, 0.964, 0.054, 192.0, 0.0, 112.0, 30.0, 32.0, 1.0, 176.0, 0.0, 0.0, 0.0, 1.6665554360296857E9, 0.0, 2022-10-23 13:03:56.029
217.0, -68611.9429602555, -100157.5410553862, 56777.14130605952, 8947.29154673714, 86038.10054517991, 68618.17909695853, 27238.953380459952, 19121.760919304004, 0.014, 0.964, 0.054, 192.0, 0.0, 0.0, 0.0, 0.0, 0.0, 0.0, 0.0, 0.0, 0.0, 1.6665554360296957E9, 0.0, 2022-10-23 13:03:56.029
218.0, -68559.41636078553, -100113.3293048536, 57619.757368535684, 9192.087852011664, 85869.94837164263, 68871.98315524854, 27616.004957676527, 19329.810956694004, 0.014, 0.964, 0.054, 192.0, 0.0, 0.0, 0.0, 0.0, 0.0, 0.0, 0.0, 0.0, 0.0, 1.6665554360297053E9, 0.0, 2022-10-23 13:03:56.029
219.0, -68517.52919167628, -100070.50336247723, 55308.56464011248, 7948.481494007289, 85545.02106249584, 67822.07701469386, 26107.575131365673, 17698.31242541223, 0.014, 0.964, 0.054, 192.0, 0.0, 0.0, 0.0, 0.0, 0.0, 0.0, 0.0, 0.0, 0.0, 1.666555436029715E9, 0.0, 2022-10-23 13:03:56.029
220.0, -68560.75746545284, -100108.09899665105, 54831.82428262524, 7852.681917271843, 85721.24221578149, 67712.01702499593, 25939.64647527295, 17676.586529801672, 0.014, 0.964, 0.054, 192.0, 0.0, 0.0, 0.0, 0.0, 0.0, 0.0, 0.0, 0.0, 0.0, 1.6665554360297244E9, 0.0, 2022-10-23 13:03:56.029
221.0, -68608.67960556503, -100150.88023553851, 56299.08219564941, 8671.918055047758, 85977.12498630583, 68393.49936169379, 26931.706301177303, 18811.16107835306, 0.014, 0.964, 0.054, 192.0, 0.0, 0.0, 0.0, 0.0, 0.0, 0.0, 0.0, 0.0, 0.0, 1.666555436029735E9, 0.0, 2022-10-23 13:03:56.029
222.0, -68584.36090759766, -100136.41865687593, 57789.20594325137, 9284.892294990099, 85938.74704107607, 68945.49804276205, 27741.26413360407, 19511.776508304658, 0.014, 0.964, 0.054, 192.0, 0.0, 0.0, 0.0, 0.0, 0.0, 0.0, 0.0, 0.0, 0.0, 1.666555436029745E9, 0.0, 2022-10-23 13:03:56.029
223.0, -68515.65164514205, -100078.28176954768, 55648.758190722256, 8081.519077005277, 85563.46125167147, 67950.82306275643, 26308.226741340965, 17892.72789868449, 0.014, 0.964, 0.054, 192.0, 0.0, 0.0, 0.0, 0.0, 0.0, 0.0, 0.0, 0.0, 0.0, 1.6665554360297549E9, 0.0, 2022-10-23 13:03:56.029
224.0, -68552.66613396003, -100109.64126701848, 54782.449279123466, 7777.2447797351815, 85678.84095654977, 67666.86650119621, 25881.84486411153, 17588.431249669942, 0.014, 0.964, 0.054, 192.0, 0.0, 0.0, 0.0, 0.0, 0.0, 0.0, 0.0, 0.0, 0.0, 1.6665554360297647E9, 0.0, 2022-10-23 13:03:56.029
225.0, -68603.02461421784, -100149.136799471, 55867.090030561696, 8423.210194493557, 85921.29032865648, 68199.97795819974, 26658.567983933448, 18525.259915025224, 0.014, 0.964, 0.054, 192.0, 0.0, 0.0, 0.0, 0.0, 0.0, 0.0, 0.0, 0.0, 0.0, 1.6665554360297744E9, 0.0, 2022-10-23 13:03:56.029
226.0, -68592.11696292364, -100142.25246217877, 57821.41480701147, 9317.347027939204, 86000.37080053936, 68979.02565944502, 27796.048259264026, 19619.534268323692, 0.024, 0.96, 0.042, 192.0, 0.0, 192.0, 30.0, 0.0, 1.0, 80.0, 0.0, 0.0, 0.0, 1.666555436029784E9, 0.0, 2022-10-23 13:03:56.029
227.0, -68518.35620622113, -100074.23610380128, 56035.71159073253, 8244.53034931783, 85581.54381293581, 68100.60210235145, 26542.785947654957, 18153.081018099907, 0.024, 0.96, 0.042, 192.0, 0.0, 0.0, 0.0, 0.0, 0.0, 0.0, 0.0, 0.0, 0.0, 1.666555436029795E9, 0.0, 2022-10-23 13:03:56.029
228.0, -68550.8779944036, -100099.53827852468, 54762.24330213587, 7715.6210202719, 85641.08886016475, 67625.49342220943, 25840.807061291584, 17541.604345036074, 0.024, 0.96, 0.042, 192.0, 0.0, 0.0, 0.0, 0.0, 0.0, 0.0, 0.0, 0.0, 0.0, 1.6665554360298047E9, 0.0, 2022-10-23 13:03:56.029
229.0, -68598.75543102688, -100144.86761628004, 55490.03845334512, 8197.032892350304, 85865.63448496276, 68017.83359263344, 26413.346995514275, 18274.942728870243, 0.024, 0.96, 0.042, 192.0, 0.0, 0.0, 0.0, 0.0, 0.0, 0.0, 0.0, 0.0, 0.0, 1.6665554360298235E9, 0.0, 2022-10-23 13:03:56.029
230.0, -68606.93616949751, -100158.30101469767, 57705.45395677733, 9275.370451852137, 86040.00044345862, 68949.0743218749, 27759.838433246427, 19630.21840217333, 0.024, 0.96, 0.042, 192.0, 0.0, 0.0, 0.0, 0.0, 0.0, 0.0, 0.0, 0.0, 0.0, 1.6665554360298333E9, 0.0, 2022-10-23 13:03:56.029
231.0, -68516.29984573125, -100078.66174920343, 56498.2362387462, 8459.420020511154, 85629.44360130353, 68300.15847684843, 26840.421776821826, 18476.153132456915, 0.024, 0.96, 0.042, 192.0, 0.0, 0.0, 0.0, 0.0, 0.0, 0.0, 0.0, 0.0, 0.0, 1.6665554360298429E9, 0.0, 2022-10-23 13:03:56.029
232.0, -68521.61956091161, -100084.78612718417, 54765.66311903753, 7649.839836339932, 85585.61183042669, 67581.57224435476, 25804.01608991815, 17486.37318448701, 0.024, 0.96, 0.042, 192.0, 0.0, 0.0, 0.0, 0.0, 0.0, 0.0, 0.0, 0.0, 0.0, 1.6665554360298522E9, 0.0, 2022-10-23 13:03:56.029
233.0, -68569.69816323498, -100131.70243879587, 55123.3580855558, 7955.835217933085, 85806.49176913402, 67817.0031687025, 26153.776187154795, 18009.47105997456, 0.024, 0.96, 0.042, 192.0, 0.0, 0.0, 0.0, 0.0, 0.0, 0.0, 0.0, 0.0, 0.0, 1.6665554360298617E9, 0.0, 2022-10-23 13:03:56.029
234.0, -68610.0430619768, -100171.77911660423, 57370.53541785901, 9106.033635858732, 86068.09658623894, 68809.84530566279, 27574.050733333916, 19491.19055166132, 0.024, 0.96, 0.042, 192.0, 0.0, 0.0, 0.0, 0.0, 0.0, 0.0, 0.0, 0.0, 0.0, 1.6665554360298712E9, 0.0, 2022-10-23 13:03:56.029
235.0, -68536.01408434083, -100093.54801101066, 56925.62394447612, 8678.288302217521, 85727.00896585095, 68502.03943276875, 27136.18005945445, 18824.169793626046, 0.024, 0.96, 0.042, 192.0, 0.0, 0.0, 0.0, 0.0, 0.0, 0.0, 0.0, 0.0, 0.0, 1.6665554360298808E9, 0.0, 2022-10-23 13:03:56.029
236.0, -68535.65645642954, -100087.26717081871, 54890.54231530933, 7679.7464704211325, 85586.66236241607, 67647.71105619801, 25888.371573492477, 17551.886147485515, 0.036000000000000004, 0.972, 0.058, 192.0, 1.0, 32.0, 30.0, 96.0, 1.0, 208.0, 0.0, 0.0, 0.0, 1.6665554360298903E9, 0.0, 2022-10-23 13:03:56.029
237.0, -68575.5319685378, -100124.0357904477, 54940.65492637813, 7841.416638066368, 85781.70368453309, 67759.15685405217, 26052.232212094335, 17879.9203491116, 0.036000000000000004, 0.972, 0.058, 192.0, 0.0, 0.0, 0.0, 0.0, 0.0, 0.0, 0.0, 0.0, 0.0, 1.6665554360299003E9, 0.0, 2022-10-23 13:03:56.029
238.0, -68618.67083533655, -100164.82772407863, 56958.97274720344, 8904.934990994334, 86054.059690721, 68655.35004798771, 27352.41083531509, 19284.928653827745, 0.036000000000000004, 0.972, 0.058, 192.0, 0.0, 0.0, 0.0, 0.0, 0.0, 0.0, 0.0, 0.0, 0.0, 1.66655543602991E9, 0.0, 2022-10-23 13:03:56.029
239.0, -68550.47566300341, -100108.12134839552, 57313.96315264263, 8896.910714734879, 85820.52866465195, 68689.6152722377, 27416.493286668458, 19156.69669588765, 0.036000000000000004, 0.972, 0.058, 192.0, 0.0, 0.0, 0.0, 0.0, 0.0, 0.0, 0.0, 0.0, 0.0, 1.6665554360299191E9, 0.0, 2022-10-23 13:03:56.029
240.0, -68520.03258705528, -100079.1758393259, 55048.07741023033, 7722.483005819679, 85559.32617894723, 67678.98114669099, 25964.09928370706, 17623.590543698137, 0.036000000000000004, 0.972, 0.058, 192.0, 0.0, 0.0, 0.0, 0.0, 0.0, 0.0, 0.0, 0.0, 0.0, 1.6665554360299287E9, 0.0, 2022-10-23 13:03:56.029
241.0, -68553.44844501597, -100110.69179900788, 54743.981926915876, 7707.417930056803, 85728.77475366292, 67617.69266339454, 25890.69615491583, 17721.93821930149, 0.036000000000000004, 0.972, 0.058, 192.0, 0.0, 0.0, 0.0, 0.0, 0.0, 0.0, 0.0, 0.0, 0.0, 1.6665554360299392E9, 0.0, 2022-10-23 13:03:56.029
242.0, -68600.32005313874, -100150.76847681624, 56445.48612183167, 8647.845226269392, 86016.24053910263, 68395.46631520585, 27023.527267399702, 19000.167429467136, 0.036000000000000004, 0.972, 0.058, 192.0, 0.0, 0.0, 0.0, 0.0, 0.0, 0.0, 0.0, 0.0, 0.0, 1.66655543602995E9, 0.0, 2022-10-23 13:03:56.029
243.0, -68566.41245680004, -100124.6839910369, 57526.81881509052, 9034.753922790756, 85895.83169172189, 68759.19625272707, 27563.143082039725, 19398.07318426051, 0.036000000000000004, 0.972, 0.058, 192.0, 0.0, 0.0, 0.0, 0.0, 0.0, 0.0, 0.0, 0.0, 0.0, 1.6665554360299597E9, 0.0, 2022-10-23 13:03:56.029
244.0, -68517.86446784312, -100080.74046143776, 55265.001090169084, 7809.788919662109, 85548.35147241969, 67738.70500787557, 26082.183549664445, 17769.86035941367, 0.036000000000000004, 0.972, 0.058, 192.0, 0.0, 0.0, 0.0, 0.0, 0.0, 0.0, 0.0, 0.0, 0.0, 1.6665554360299783E9, 0.0, 2022-10-23 13:03:56.029
245.0, -68549.8274624142, -100108.18840362888, 54645.5001408458, 7643.156664747795, 85701.79619810537, 67574.97847974044, 25824.803212261584, 17653.87715743508, 0.038, 0.96, 0.052000000000000005, 192.0, 1.0, 48.0, 30.0, 0.0, 1.0, 160.0, 0.0, 0.0, 0.0, 1.666555436029988E9, 0.0, 2022-10-23 13:03:56.029
246.0, -68595.51442808086, -100150.23203494931, 55987.99061632045, 8418.829252580315, 85965.3903204668, 68231.58332485954, 26766.504557908127, 18735.209850693926, 0.038, 0.96, 0.052000000000000005, 192.0, 0.0, 0.0, 0.0, 0.0, 0.0, 0.0, 0.0, 0.0, 0.0, 1.66655543603E9, 0.0, 2022-10-23 13:03:56.030
247.0, -68573.67677374801, -100131.34481088458, 57666.181941769355, 9153.106409681608, 85972.2970095035, 68893.57494039237, 27719.270017060044, 19589.985262153776, 0.038, 0.96, 0.052000000000000005, 192.0, 0.0, 0.0, 0.0, 0.0, 0.0, 0.0, 0.0, 0.0, 0.0, 1.6665554360300105E9, 0.0, 2022-10-23 13:03:56.030
248.0, -68506.44272642645, -100064.91542636341, 55612.16838504891, 7982.500849068267, 85572.33489422023, 67930.05829215745, 26326.89044796115, 17993.623673155747, 0.038, 0.96, 0.052000000000000005, 192.0, 0.0, 0.0, 0.0, 0.0, 0.0, 0.0, 0.0, 0.0, 0.0, 1.6665554360300212E9, 0.0, 2022-10-23 13:03:56.030
249.0, -68538.673941931, -100094.71030172233, 54548.091238509565, 7571.16169585725, 85660.84780226325, 67540.53444153481, 25760.407836485843, 17542.990153192302, 0.038, 0.96, 0.052000000000000005, 192.0, 0.0, 0.0, 0.0, 0.0, 0.0, 0.0, 0.0, 0.0, 0.0, 1.6665554360300312E9, 0.0, 2022-10-23 13:03:56.030
250.0, -68599.89536999409, -100153.18246521741, 55506.824613431054, 8174.703499639452, 85916.90938674324, 68031.3563980289, 26474.635478810727, 18420.78786144112, 0.038, 0.96, 0.052000000000000005, 192.0, 0.0, 0.0, 0.0, 0.0, 0.0, 0.0, 0.0, 0.0, 0.0, 1.6665554360300417E9, 0.0, 2022-10-23 13:03:56.030
251.0, -68609.01488173185, -100166.97349154633, 57617.85747025698, 9185.516439141804, 86043.39790861582, 68911.54574293444, 27742.560534782475, 19662.0919897666, 0.038, 0.96, 0.052000000000000005, 192.0, 0.0, 0.0, 0.0, 0.0, 0.0, 0.0, 0.0, 0.0, 0.0, 1.666555436030052E9, 0.0, 2022-10-23 13:03:56.030
252.0, -68524.90526734653, -100090.39641504246, 56036.38214306619, 8213.662590225053, 85613.84208367374, 68117.14239324837, 26606.533122841494, 18295.416926791302, 0.038, 0.96, 0.052000000000000005, 192.0, 0.0, 0.0, 0.0, 0.0, 0.0, 0.0, 0.0, 0.0, 0.0, 1.666555436030062E9, 0.0, 2022-10-23 13:03:56.030
253.0, -68541.55731696574, -100104.38860707148, 54571.53821844319, 7570.558198756958, 85617.7536389534, 67529.29151407379, 25756.85390911745, 17523.052397138166, 0.038, 0.96, 0.052000000000000005, 192.0, 0.0, 0.0, 0.0, 0.0, 0.0, 0.0, 0.0, 0.0, 0.0, 1.6665554360300725E9, 0.0, 2022-10-23 13:03:56.030
254.0, -68576.24722436038, -100131.03188646221, 55162.5183418415, 7994.39197711849, 85849.8094498884, 67859.13620700076, 26246.491223155408, 18187.167428394252, 0.038, 0.96, 0.052000000000000005, 192.0, 0.0, 0.0, 0.0, 0.0, 0.0, 0.0, 0.0, 0.0, 0.0, 1.6665554360300825E9, 0.0, 2022-10-23 13:03:56.030
255.0, -68597.07905019273, -100151.66254659445, 57405.60530490939, 9111.576868483648, 86058.01594948959, 68821.62467499074, 27635.00394046354, 19606.145573394966, 0.04, 0.9580000000000001, 0.048, 192.0, 1.0, 64.0, 29.0, 240.0, 1.0, 128.0, 0.0, 0.0, 0.0, 1.666555436030093E9, 0.0, 2022-10-23 13:03:56.030
0.0, -68520.03258705528, -100084.58496148407, 56463.03224122909, 8442.05271506938, 85672.22484019099, 68296.9174739024, 26887.22632971124, 18617.25969520327, 0.04, 0.9580000000000001, 0.048, 192.0, 0.0, 0.0, 0.0, 0.0, 0.0, 0.0, 0.0, 0.0, 0.0, 1.666555436030104E9, 0.0, 2022-10-23 13:03:56.030
0.0, 0.0, 0.0, 0.0, 0.0, 0.0, 0.0, 0.0, 0.0, 0.046, 0.9580000000000001, 0.074, 192.0, 1.0, 112.0, 29.0, 240.0, 2.0, 80.0, 0.0, 0.0, 0.0, 1.6665554361410573E9, 0.0, 2022-10-23 13:03:56.141
1.0, -68548.1287298356, -100196.23192503833, 56240.677087387696, 8462.795133923904, 85726.71839317303, 68582.81863723024, 27378.89765249463, 18792.13974382159, 0.046, 0.9580000000000001, 0.074, 192.0, 0.0, 0.0, 0.0, 0.0, 0.0, 0.0, 0.0, 0.0, 0.0, 1.6665554366276584E9, 0.0, 2022-10-23 13:03:56.627
2.0, -68565.22781434392, -100205.64200945402, 54340.86821566441, 7543.9149193662315, 85630.78470597086, 67774.78072342643, 26196.222149875422, 17622.24943903082, 0.046, 0.9580000000000001, 0.074, 192.0, 0.0, 0.0, 0.0, 0.0, 0.0, 0.0, 0.0, 0.0, 0.0, 1.6665554366277072E9, 0.0, 2022-10-23 13:03:56.627
3.0, -68619.65431209258, -100256.00048971182, 54548.62768037649, 7791.34873048648, 85862.5722959724, 67964.12235070734, 26464.554842061385, 18056.32031635288, 0.046, 0.9580000000000001, 0.074, 192.0, 0.0, 0.0, 0.0, 0.0, 0.0, 0.0, 0.0, 0.0, 0.0, 1.666555436627854E9, 0.0, 2022-10-23 13:03:56.627
4.0, -68669.96808886148, -100299.38522569957, 56724.05591297817, 8940.116636766987, 86136.93995916129, 68959.55729002444, 27893.837141255994, 19553.171939035885, 0.046, 0.9580000000000001, 0.074, 192.0, 0.0, 0.0, 0.0, 0.0, 0.0, 0.0, 0.0, 0.0, 0.0, 1.666555436627868E9, 0.0, 2022-10-23 13:03:56.627
5.0, -68583.690355264, -100218.09193111563, 56745.692401610904, 8749.456256563219, 85837.31482473788, 68846.79273924741, 27743.745177238605, 19179.741344421072, 0.046, 0.9580000000000001, 0.074, 192.0, 0.0, 0.0, 0.0, 0.0, 0.0, 0.0, 0.0, 0.0, 0.0, 1.66655543662788E9, 0.0, 2022-10-23 13:03:56.627
6.0, -68560.64570673057, -100194.46613722637, 54557.61308164753, 7624.381199405337, 85619.38531629865, 67867.13813151576, 26325.39288108264, 17710.762347073836, 0.046, 0.9580000000000001, 0.074, 192.0, 0.0, 0.0, 0.0, 0.0, 0.0, 0.0, 0.0, 0.0, 0.0, 1.6665554366278973E9, 0.0, 2022-10-23 13:03:56.627
7.0, -68599.85066650518, -100230.22892835486, 54419.92633580284, 7695.727967706677, 85814.76191458249, 67889.40046899325, 26365.022524001903, 17914.92318092861, 0.062, 0.9540000000000001, 0.09, 192.0, 1.0, 240.0, 29.0, 208.0, 2.0, 208.0, 0.0, 0.0, 0.0, 1.6665554366279094E9, 0.0, 2022-10-23 13:03:56.627
8.0, -68646.94579207251, -100267.71280380641, 56281.647834974276, 8712.888802634336, 86099.7243046432, 68749.71911307801, 27617.301358854933, 19279.027793291545, 0.062, 0.9540000000000001, 0.09, 192.0, 0.0, 0.0, 0.0, 0.0, 0.0, 0.0, 0.0, 0.0, 0.0, 1.6665554366279233E9, 0.0, 2022-10-23 13:03:56.627
9.0, -68608.21021893146, -100234.81103596819, 57060.069687374795, 8931.868843062979, 85916.84233150988, 68975.58349079889, 27962.300534522597, 19448.766940685146, 0.062, 0.9540000000000001, 0.09, 192.0, 0.0, 0.0, 0.0, 0.0, 0.0, 0.0, 0.0, 0.0, 0.0, 1.6665554366279352E9, 0.0, 2022-10-23 13:03:56.627
10.0, -68564.02082014333, -100191.42629998045, 54751.58152003068, 7685.04383385704, 85592.76438865237, 67904.44319301167, 26419.896056639678, 17798.895275461113, 0.062, 0.9540000000000001, 0.09, 192.0, 0.0, 0.0, 0.0, 0.0, 0.0, 0.0, 0.0, 0.0, 0.0, 1.6665554366279473E9, 0.0, 2022-10-23 13:03:56.627
11.0, -68590.39587860058, -100206.04434085422, 54296.05296803152, 7607.8409085084095, 85788.23039391404, 67801.40165107271, 26258.829386094738, 17799.85640047269, 0.062, 0.9540000000000001, 0.09, 192.0, 0.0, 0.0, 0.0, 0.0, 0.0, 0.0, 0.0, 0.0, 0.0, 1.6665554366279595E9, 0.0, 2022-10-23 13:03:56.627
12.0, -68641.67078038106, -100253.87707398857, 55795.3185791157, 8460.090572844812, 86054.68553956575, 68517.39508120956, 27301.091230045706, 18977.32394663381, 0.062, 0.9540000000000001, 0.09, 192.0, 0.0, 0.0, 0.0, 0.0, 0.0, 0.0, 0.0, 0.0, 0.0, 1.6665554366279716E9, 0.0, 2022-10-23 13:03:56.627
13.0, -68632.3501029432, -100247.0597919297, 57252.048820501426, 9069.063850529654, 86001.75660869559, 69077.64155598183, 28117.55575150916, 19666.048248535186, 0.062, 0.9540000000000001, 0.09, 192.0, 0.0, 0.0, 0.0, 0.0, 0.0, 0.0, 0.0, 0.0, 0.0, 1.6665554366279836E9, 0.0, 2022-10-23 13:03:56.627
14.0, -68559.10343636316, -100171.82382009314, 55090.07633806185, 7851.229053882248, 85610.48932200544, 68056.79268321904, 26639.010207535055, 18014.18727805463, 0.062, 0.9540000000000001, 0.09, 192.0, 0.0, 0.0, 0.0, 0.0, 0.0, 0.0, 0.0, 0.0, 0.0, 1.6665554366279955E9, 0.0, 2022-10-23 13:03:56.627
15.0, -68587.0431169323, -100198.53415471723, 54253.02585995506, 7565.193780087684, 85741.89522765818, 67777.21706357207, 26220.18321993151, 17726.855603081658, 0.062, 0.9540000000000001, 0.09, 192.0, 0.0, 0.0, 0.0, 0.0, 0.0, 0.0, 0.0, 0.0, 0.0, 1.6665554366280077E9, 0.0, 2022-10-23 13:03:56.628
16.0, -68634.96525704447, -100250.74782976483, 55399.11155690093, 8264.132829205135, 86012.10546637839, 68362.34102992309, 27062.218137051837, 18715.473260339888, 0.062, 0.9540000000000001, 0.09, 192.0, 0.0, 0.0, 0.0, 0.0, 0.0, 0.0, 0.0, 0.0, 0.0, 1.6665554366280193E9, 0.0, 2022-10-23 13:03:56.628
17.0, -68630.40550117558, -100248.37854485257, 57337.99127793209, 9164.885779009555, 86080.23358347817, 69158.89014707686, 28220.910217870503, 19800.359880967128, 0.06, 0.9500000000000001, 0.096, 192.0, 1.0, 224.0, 29.0, 176.0, 3.0, 0.0, 0.0, 0.0, 0.0, 1.666555436628029E9, 0.0, 2022-10-23 13:03:56.628
18.0, -68550.36390428113, -100171.10856427057, 55509.30565706559, 8067.884512887539, 85651.46006959201, 68245.01672327718, 26911.321510234062, 18276.820275404487, 0.06, 0.9500000000000001, 0.096, 192.0, 0.0, 0.0, 0.0, 0.0, 0.0, 0.0, 0.0, 0.0, 0.0, 1.666555436628039E9, 0.0, 2022-10-23 13:03:56.628
19.0, -68575.64372726009, -100195.62842793805, 54244.84512148442, 7540.651564675756, 85709.79812262037, 67756.07231331735, 26188.689611993985, 17653.05014289023, 0.06, 0.9500000000000001, 0.096, 192.0, 0.0, 0.0, 0.0, 0.0, 0.0, 0.0, 0.0, 0.0, 0.0, 1.6665554366280603E9, 0.0, 2022-10-23 13:03:56.628
20.0, -68614.40165214559, -100232.24058535583, 54975.99303436196, 8034.468654926855, 85945.29610220148, 68158.5378239796, 26773.008915544622, 18398.950207108286, 0.06, 0.9500000000000001, 0.096, 192.0, 0.0, 0.0, 0.0, 0.0, 0.0, 0.0, 0.0, 0.0, 0.0, 1.66655543662807E9, 0.0, 2022-10-23 13:03:56.628
21.0, -68647.21401300599, -100261.34255663665, 57145.83333084981, 9103.843164902111, 86114.99054610617, 69087.11869563088, 28122.584894011605, 19745.307534373707, 0.06, 0.9500000000000001, 0.096, 192.0, 0.0, 0.0, 0.0, 0.0, 0.0, 0.0, 0.0, 0.0, 0.0, 1.6665554366280792E9, 0.0, 2022-10-23 13:03:56.628
22.0, -68563.88670967659, -100178.03760505172, 55914.58748752922, 8286.752794593905, 85705.41718070713, 68427.47401326585, 27178.00017333033, 18569.449313813366, 0.06, 0.9500000000000001, 0.096, 192.0, 0.0, 0.0, 0.0, 0.0, 0.0, 0.0, 0.0, 0.0, 0.0, 1.6665554366280887E9, 0.0, 2022-10-23 13:03:56.628
23.0, -68575.0849336487, -100185.7936603777, 54211.67513271274, 7490.114270462307, 85650.47659283598, 67702.27166441342, 26132.854954344628, 17583.178589722942, 0.06, 0.9500000000000001, 0.096, 192.0, 0.0, 0.0, 0.0, 0.0, 0.0, 0.0, 0.0, 0.0, 0.0, 1.6665554366281004E9, 0.0, 2022-10-23 13:03:56.628
24.0, -68610.445393377, -100218.27074507126, 54594.649922209974, 7822.9093936573745, 85883.60528750483, 67952.1865191682, 26504.787982080936, 18128.516450943524, 0.06, 0.9500000000000001, 0.096, 192.0, 0.0, 0.0, 0.0, 0.0, 0.0, 0.0, 0.0, 0.0, 0.0, 1.6665554366281104E9, 0.0, 2022-10-23 13:03:56.628
25.0, -68650.67853339655, -100256.1122484341, 56826.091626416644, 8978.785154674668, 86137.8340289395, 68951.26479283153, 27946.855479103982, 19613.74516650977, 0.06, 0.9500000000000001, 0.096, 192.0, 0.0, 0.0, 0.0, 0.0, 0.0, 0.0, 0.0, 0.0, 0.0, 1.6665554366281197E9, 0.0, 2022-10-23 13:03:56.628
26.0, -68575.688430749, -100190.44282322441, 56315.60013480188, 8525.089445720845, 85793.88538526122, 68610.445393377, 27461.889679657186, 18894.756602615907, 0.06, 0.9500000000000001, 0.096, 192.0, 0.0, 0.0, 0.0, 0.0, 0.0, 0.0, 0.0, 0.0, 0.0, 1.6665554366281288E9, 0.0, 2022-10-23 13:03:56.628
27.0, -68568.93820392349, -100182.66441615396, 54311.587430427964, 7543.9149193662315, 85647.6602730346, 67750.73024639253, 26203.0841354232, 17627.435043744452, 0.058, 0.9500000000000001, 0.096, 192.0, 1.0, 208.0, 29.0, 176.0, 3.0, 0.0, 0.0, 0.0, 0.0, 1.666555436628138E9, 0.0, 2022-10-23 13:03:56.628
28.0, -68602.2870066508, -100212.52634674625, 54405.844736795996, 7740.744381039665, 85858.75014767054, 67889.8698556268, 26399.310099996343, 17987.834571341824, 0.058, 0.9500000000000001, 0.096, 192.0, 0.0, 0.0, 0.0, 0.0, 0.0, 0.0, 0.0, 0.0, 0.0, 1.6665554366281495E9, 0.0, 2022-10-23 13:03:56.628
29.0, -68659.14984454511, -100264.74002179386, 56461.087639461475, 8831.688324414292, 86122.74660143217, 68824.46334653656, 27751.25536337559, 19423.531821195105, 0.058, 0.9500000000000001, 0.096, 192.0, 0.0, 0.0, 0.0, 0.0, 0.0, 0.0, 0.0, 0.0, 0.0, 1.666555436628159E9, 0.0, 2022-10-23 13:03:56.628
30.0, -68593.52512282433, -100203.58564896413, 56772.49214321282, 8805.581486890494, 85870.01542687601, 68854.77231201796, 27796.53999764204, 19256.407827902774, 0.058, 0.9500000000000001, 0.096, 192.0, 0.0, 0.0, 0.0, 0.0, 0.0, 0.0, 0.0, 0.0, 0.0, 1.666555436628168E9, 0.0, 2022-10-23 13:03:56.628
31.0, -68558.52229100732, -100162.72666009983, 54491.45191805982, 7608.176184675239, 85594.41841774207, 67811.48228782204, 26296.91675864658, 17692.031585220288, 0.058, 0.9500000000000001, 0.096, 192.0, 0.0, 0.0, 0.0, 0.0, 0.0, 0.0, 0.0, 0.0, 0.0, 1.666555436628178E9, 0.0, 2022-10-23 13:03:56.628
32.0, -68602.2870066508, -100206.82665191015, 54268.89559851833, 7648.051696783507, 85805.19536795562, 67811.97402620007, 26289.764200420883, 17851.62304063118, 0.058, 0.9500000000000001, 0.096, 192.0, 0.0, 0.0, 0.0, 0.0, 0.0, 0.0, 0.0, 0.0, 0.0, 1.6665554366281872E9, 0.0, 2022-10-23 13:03:56.628
33.0, -68649.6056496627, -100251.84306524314, 56011.75052067644, 8607.2321065941, 86073.23748746366, 68621.06247199327, 27467.924650660116, 19150.728780118083, 0.058, 0.9500000000000001, 0.096, 192.0, 0.0, 0.0, 0.0, 0.0, 0.0, 0.0, 0.0, 0.0, 0.0, 1.6665554366281965E9, 0.0, 2022-10-23 13:03:56.628
34.0, -68631.72425409844, -100239.77312323728, 57055.37582103918, 8981.579122731582, 85942.81505856694, 68982.3337176244, 27999.40443031841, 19518.303217685607, 0.058, 0.9500000000000001, 0.096, 192.0, 0.0, 0.0, 0.0, 0.0, 0.0, 0.0, 0.0, 0.0, 0.0, 1.6665554366282148E9, 0.0, 2022-10-23 13:03:56.628
35.0, -68589.47945707792, -100196.56720120517, 54797.42494790852, 7751.495570122668, 85585.96945833796, 67937.25555387206, 26482.637403325727, 17858.976764556977, 0.058, 0.9500000000000001, 0.096, 192.0, 0.0, 0.0, 0.0, 0.0, 0.0, 0.0, 0.0, 0.0, 0.0, 1.666555436628224E9, 0.0, 2022-10-23 13:03:56.628
36.0, -68588.02659368832, -100185.92777084444, 54203.18146981973, 7598.788452004011, 85760.0448441559, 67763.47074073205, 26223.37951938862, 17751.17430104903, 0.064, 0.9520000000000001, 0.10400000000000001, 192.0, 2.0, 0.0, 29.0, 192.0, 3.0, 64.0, 0.0, 0.0, 0.0, 1.6665554366282337E9, 0.0, 2022-10-23 13:03:56.628
37.0, -68649.44918745151, -100248.60206229713, 55614.850594383555, 8424.059560782858, 86048.09177495143, 68461.22514739337, 27227.978673932397, 18895.851838094215, 0.064, 0.9520000000000001, 0.10400000000000001, 192.0, 0.0, 0.0, 0.0, 0.0, 0.0, 0.0, 0.0, 0.0, 0.0, 1.6665554366282437E9, 0.0, 2022-10-23 13:03:56.628
38.0, -68645.82820484975, -100252.40185885453, 57250.03716350045, 9132.028714660253, 86019.14626588182, 69104.08366967246, 28164.315600909664, 19721.122946873063, 0.064, 0.9520000000000001, 0.10400000000000001, 192.0, 0.0, 0.0, 0.0, 0.0, 0.0, 0.0, 0.0, 0.0, 0.0, 1.6665554366282527E9, 0.0, 2022-10-23 13:03:56.628
39.0, -68568.89350043458, -100175.42245095044, 55204.98665630659, 7963.792438959174, 85623.34157506724, 68134.1297190344, 26750.47835713367, 18115.217162992616, 0.064, 0.9520000000000001, 0.10400000000000001, 192.0, 0.0, 0.0, 0.0, 0.0, 0.0, 0.0, 0.0, 0.0, 0.0, 1.666555436628262E9, 0.0, 2022-10-23 13:03:56.628
40.0, -68589.16653265555, -100194.86846862656, 54214.96083914767, 7587.143193142795, 85721.66689892614, 67773.35021178129, 26218.775060030828, 17703.475678381405, 0.064, 0.9520000000000001, 0.10400000000000001, 192.0, 0.0, 0.0, 0.0, 0.0, 0.0, 0.0, 0.0, 0.0, 0.0, 1.666555436628271E9, 0.0, 2022-10-23 13:03:56.628
41.0, -68644.77767286035, -100249.78670475325, 55223.02451408202, 8215.62954373712, 85979.00253284008, 68293.7658779342, 26974.57694704258, 18606.374395653536, 0.064, 0.9520000000000001, 0.10400000000000001, 192.0, 0.0, 0.0, 0.0, 0.0, 0.0, 0.0, 0.0, 0.0, 0.0, 1.6665554366282804E9, 0.0, 2022-10-23 13:03:56.628
42.0, -68645.6493908941, -100255.17347516699, 57241.1635209517, 9164.05876446471, 86069.34828392844, 69121.13805069185, 28187.807284332193, 19772.330793420173, 0.064, 0.9520000000000001, 0.10400000000000001, 192.0, 0.0, 0.0, 0.0, 0.0, 0.0, 0.0, 0.0, 0.0, 0.0, 1.66655543662829E9, 0.0, 2022-10-23 13:03:56.628
43.0, -68561.11509336413, -100169.58864564761, 55615.07411182811, 8166.5898164021755, 85669.98966574547, 68305.83581994007, 27010.272682937706, 18375.614985896944, 0.064, 0.9520000000000001, 0.10400000000000001, 192.0, 0.0, 0.0, 0.0, 0.0, 0.0, 0.0, 0.0, 0.0, 0.0, 1.6665554366282992E9, 0.0, 2022-10-23 13:03:56.628
44.0, -68595.96146296996, -100199.91996287346, 54215.22906008113, 7556.744820683578, 85690.84384332226, 67747.75746437996, 26193.539940540784, 17645.048218375232, 0.064, 0.9520000000000001, 0.10400000000000001, 192.0, 0.0, 0.0, 0.0, 0.0, 0.0, 0.0, 0.0, 0.0, 0.0, 1.6665554366283085E9, 0.0, 2022-10-23 13:03:56.628
45.0, -68640.1508617581, -100238.96846043688, 54855.42772477004, 8015.357913417568, 85936.44481139717, 68118.03646302658, 26731.322912135474, 18345.507186115647, 0.064, 0.9520000000000001, 0.10400000000000001, 192.0, 0.0, 0.0, 0.0, 0.0, 0.0, 0.0, 0.0, 0.0, 0.0, 1.6665554366283178E9, 0.0, 2022-10-23 13:03:56.628
46.0, -68665.98947834843, -100265.92466424998, 57097.15123142615, 9138.533072296748, 86133.58719749299, 69096.0146899241, 28142.701464021382, 19766.09465671714, 0.054, 0.9480000000000001, 0.10200000000000001, 192.0, 1.0, 176.0, 29.0, 160.0, 3.0, 48.0, 0.0, 0.0, 0.0, 1.6665554366283271E9, 0.0, 2022-10-23 13:03:56.628
47.0, -68600.5435705833, -100215.8567566701, 56068.36748938173, 8408.838022808794, 85715.27430001191, 68509.66137762801, 27312.51297146237, 18697.971844431384, 0.054, 0.9480000000000001, 0.10200000000000001, 192.0, 0.0, 0.0, 0.0, 0.0, 0.0, 0.0, 0.0, 0.0, 0.0, 1.6665554366283371E9, 0.0, 2022-10-23 13:03:56.628
48.0, -68594.37448911363, -100205.84317515412, 54269.90142701881, 7558.8235329179215, 85646.58738930075, 67749.00916206946, 26203.55352205676, 17623.43408148695, 0.054, 0.9480000000000001, 0.10200000000000001, 192.0, 0.0, 0.0, 0.0, 0.0, 0.0, 0.0, 0.0, 0.0, 0.0, 1.6665554366283467E9, 0.0, 2022-10-23 13:03:56.628
49.0, -68636.66398962308, -100236.59917552462, 54573.10284055505, 7851.631385282444, 85879.62667699179, 67973.95711826767, 26530.693653904636, 18118.18994500517, 0.054, 0.9480000000000001, 0.10200000000000001, 192.0, 0.0, 0.0, 0.0, 0.0, 0.0, 0.0, 0.0, 0.0, 0.0, 1.6665554366283631E9, 0.0, 2022-10-23 13:03:56.628
50.0, -68679.1099523437, -100273.52425736478, 56797.30257955821, 9015.754940003746, 86152.02738666862, 68982.5348833245, 27977.186796329832, 19621.948256724867, 0.054, 0.9480000000000001, 0.10200000000000001, 192.0, 0.0, 0.0, 0.0, 0.0, 0.0, 0.0, 0.0, 0.0, 0.0, 1.6665554366283822E9, 0.0, 2022-10-23 13:03:56.628
51.0, -68594.06156469126, -100193.3038465147, 56559.100038898, 8696.48262220414, 85829.84934208982, 68759.19625272707, 27659.23323145309, 19076.67745073765, 0.054, 0.9480000000000001, 0.10200000000000001, 192.0, 0.0, 0.0, 0.0, 0.0, 0.0, 0.0, 0.0, 0.0, 0.0, 1.6665554366283917E9, 0.0, 2022-10-23 13:03:56.628
52.0, -68601.23647466142, -100208.39127402203, 54433.0468097981, 7614.367617889359, 85620.03351688785, 67815.72911926855, 26291.1053050882, 17677.74882051335, 0.054, 0.9480000000000001, 0.10200000000000001, 192.0, 0.0, 0.0, 0.0, 0.0, 0.0, 0.0, 0.0, 0.0, 0.0, 1.6665554366284013E9, 0.0, 2022-10-23 13:03:56.628
53.0, -68641.06728328078, -100242.79060873874, 54431.124559774944, 7763.565512128534, 85833.38091771376, 67915.84258268388, 26426.311007298355, 17973.618861868246, 0.054, 0.9480000000000001, 0.10200000000000001, 192.0, 0.0, 0.0, 0.0, 0.0, 0.0, 0.0, 0.0, 0.0, 0.0, 1.6665554366284106E9, 0.0, 2022-10-23 13:03:56.628
54.0, -68679.02054536589, -100277.3687574111, 56412.9643336492, 8833.498815715173, 86114.90113912836, 68832.93465768512, 27747.81319472947, 19387.0761259885, 0.054, 0.9480000000000001, 0.10200000000000001, 192.0, 0.0, 0.0, 0.0, 0.0, 0.0, 0.0, 0.0, 0.0, 0.0, 1.66655543662842E9, 0.0, 2022-10-23 13:03:56.628
55.0, -68615.11690796816, -100227.56907076467, 56934.56464225825, 8910.165299196875, 85888.38856081826, 68941.18415608218, 27921.016862513647, 19367.585404823472, 0.054, 0.9480000000000001, 0.10200000000000001, 192.0, 0.0, 0.0, 0.0, 0.0, 0.0, 0.0, 0.0, 0.0, 0.0, 1.6665554366284294E9, 0.0, 2022-10-23 13:03:56.628
56.0, -68586.30550936527, -100195.29315177121, 54655.29020491722, 7702.388787554359, 85598.17351081056, 67903.34795753336, 26414.2857687814, 17769.100400102187, 0.056, 0.9460000000000001, 0.098, 192.0, 1.0, 192.0, 29.0, 144.0, 3.0, 16.0, 0.0, 0.0, 0.0, 1.666555436628439E9, 0.0, 2022-10-23 13:03:56.628
57.0, -68628.70676859698, -100229.87130044357, 54312.72736939519, 7674.940845363241, 85782.08366418883, 67846.35100917233, 26318.754412979415, 17831.9088020216, 0.056, 0.9460000000000001, 0.098, 192.0, 0.0, 0.0, 0.0, 0.0, 0.0, 0.0, 0.0, 0.0, 0.0, 1.6665554366284492E9, 0.0, 2022-10-23 13:03:56.628
58.0, -68673.74553367443, -100269.38918464056, 55948.651546079105, 8592.345844786865, 86063.46977513669, 68622.94001852752, 27437.950961345552, 19083.651195007707, 0.056, 0.9460000000000001, 0.098, 192.0, 0.0, 0.0, 0.0, 0.0, 0.0, 0.0, 0.0, 0.0, 0.0, 1.6665554366284585E9, 0.0, 2022-10-23 13:03:56.628
59.0, -68631.38897793162, -100236.44271331343, 57199.36575882027, 9077.579865167125, 85971.67116065875, 69074.48996001363, 28103.40709726895, 19608.090175162575, 0.056, 0.9460000000000001, 0.098, 192.0, 0.0, 0.0, 0.0, 0.0, 0.0, 0.0, 0.0, 0.0, 0.0, 1.666555436628468E9, 0.0, 2022-10-23 13:03:56.628
60.0, -68580.40464882906, -100193.68382617043, 54979.435203008084, 7845.5517107906, 85604.02966785785, 68032.25046780711, 26595.11138142483, 17945.79094002139, 0.056, 0.9460000000000001, 0.098, 192.0, 0.0, 0.0, 0.0, 0.0, 0.0, 0.0, 0.0, 0.0, 0.0, 1.666555436628477E9, 0.0, 2022-10-23 13:03:56.628
61.0, -68630.91959129806, -100231.0112394108, 54262.391240881836, 7614.5911353339125, 85733.87095139873, 67795.21021785858, 26248.502880156386, 17739.439635209994, 0.056, 0.9460000000000001, 0.098, 192.0, 0.0, 0.0, 0.0, 0.0, 0.0, 0.0, 0.0, 0.0, 0.0, 1.6665554366284866E9, 0.0, 2022-10-23 13:03:56.628
62.0, -68678.77467617686, -100274.61949284309, 55530.98684918724, 8363.03929841987, 86002.31540230697, 68421.99783587431, 27158.688266120946, 18792.653833944063, 0.056, 0.9460000000000001, 0.098, 192.0, 0.0, 0.0, 0.0, 0.0, 0.0, 0.0, 0.0, 0.0, 0.0, 1.666555436628496E9, 0.0, 2022-10-23 13:03:56.628
63.0, -68680.51811224439, -100286.26475170431, 57334.97379243062, 9175.636968092558, 86038.07819343546, 69148.98832428317, 28216.149296301523, 19760.70788630341, 0.056, 0.9460000000000001, 0.098, 192.0, 0.0, 0.0, 0.0, 0.0, 0.0, 0.0, 0.0, 0.0, 0.0, 1.6665554366285055E9, 0.0, 2022-10-23 13:03:56.628
64.0, -68599.98477697192, -100207.83248041064, 55416.232993153695, 8059.2343877833355, 85637.11024965171, 68227.98469400224, 26872.65299232638, 18208.289826904514, 0.056, 0.9460000000000001, 0.098, 192.0, 0.0, 0.0, 0.0, 0.0, 0.0, 0.0, 0.0, 0.0, 0.0, 1.6665554366285148E9, 0.0, 2022-10-23 13:03:56.628
65.0, -68599.11305893816, -100198.82472739516, 54297.058796532016, 7611.7748155325435, 85716.77186689043, 67807.32486335337, 26251.43095868003, 17696.613692833627, 0.056, 0.9460000000000001, 0.098, 192.0, 0.0, 0.0, 0.0, 0.0, 0.0, 0.0, 0.0, 0.0, 0.0, 1.6665554366285346E9, 0.0, 2022-10-23 13:03:56.628
66.0, -68653.87483285366, -100252.33480362115, 55142.893510209746, 8150.585967372176, 85944.64790161228, 68242.40156917591, 26898.022222283154, 18502.95287405883, 0.056, 0.9500000000000001, 0.098, 192.0, 1.0, 192.0, 29.0, 176.0, 3.0, 16.0, 0.0, 0.0, 0.0, 1.666555436628544E9, 0.0, 2022-10-23 13:03:56.628
67.0, -68670.21395805049, -100280.63211210158, 57286.13523079577, 9189.271532210294, 86092.39293246185, 69153.05634177403, 28215.791668390237, 19794.459020430928, 0.056, 0.9500000000000001, 0.098, 192.0, 0.0, 0.0, 0.0, 0.0, 0.0, 0.0, 0.0, 0.0, 0.0, 1.6665554366285546E9, 0.0, 2022-10-23 13:03:56.628
68.0, -68580.7399249959, -100194.48848897082, 55844.917100062026, 8269.877227530149, 85679.89148853916, 68407.6927194229, 27140.628056601057, 18489.966510530296, 0.056, 0.9500000000000001, 0.098, 192.0, 0.0, 0.0, 0.0, 0.0, 0.0, 0.0, 0.0, 0.0, 0.0, 1.6665554366285641E9, 0.0, 2022-10-23 13:03:56.628
69.0, -68589.43475358901, -100191.02396858025, 54297.59523839894, 7573.933312169709, 85684.45124440805, 67774.40074377069, 26213.701214039473, 17637.895660149534, 0.056, 0.9500000000000001, 0.098, 192.0, 0.0, 0.0, 0.0, 0.0, 0.0, 0.0, 0.0, 0.0, 0.0, 1.6665554366285737E9, 0.0, 2022-10-23 13:03:56.628
70.0, -68654.34421948722, -100257.65451880152, 54806.52210790183, 7955.298776066158, 85905.50999707103, 68076.77514276208, 26659.171481033743, 18249.595850657923, 0.056, 0.9500000000000001, 0.098, 192.0, 0.0, 0.0, 0.0, 0.0, 0.0, 0.0, 0.0, 0.0, 0.0, 1.6665554366285849E9, 0.0, 2022-10-23 13:03:56.628
71.0, -68700.85819969872, -100310.96342932743, 57072.9219404366, 9103.776109668745, 86120.26555779763, 69079.49675077162, 28104.65879495845, 19717.52431601576, 0.056, 0.9500000000000001, 0.098, 192.0, 0.0, 0.0, 0.0, 0.0, 0.0, 0.0, 0.0, 0.0, 0.0, 1.666555436628594E9, 0.0, 2022-10-23 13:03:56.628
72.0, -68617.53089636932, -100232.08412314465, 56336.99075424561, 8531.504396379518, 85742.54342824739, 68644.48710018244, 27475.6360024972, 18843.01231420187, 0.056, 0.9500000000000001, 0.098, 192.0, 0.0, 0.0, 0.0, 0.0, 0.0, 0.0, 0.0, 0.0, 0.0, 1.6665554366286032E9, 0.0, 2022-10-23 13:03:56.628
73.0, -68597.81665775974, -100200.14348031802, 54443.507426203185, 7618.256821424583, 85637.33376709626, 67840.00311374702, 26294.525121989864, 17672.227939632885, 0.056, 0.9500000000000001, 0.098, 192.0, 0.0, 0.0, 0.0, 0.0, 0.0, 0.0, 0.0, 0.0, 0.0, 1.6665554366286125E9, 0.0, 2022-10-23 13:03:56.628
74.0, -68635.36758844467, -100234.94514643493, 54623.12604464604, 7840.857844454986, 85845.04852831943, 68001.49446743661, 26533.577028939373, 18077.6662323077, 0.056, 0.9500000000000001, 0.098, 192.0, 0.0, 0.0, 0.0, 0.0, 0.0, 0.0, 0.0, 0.0, 0.0, 1.6665554366286218E9, 0.0, 2022-10-23 13:03:56.628
75.0, -68681.2110163225, -100282.8225830582, 56732.14724447099, 8938.283793721652, 86096.90798484183, 68942.05587411593, 27901.034402970603, 19519.24199095273, 0.058, 0.96, 0.092, 192.0, 1.0, 208.0, 30.0, 0.0, 2.0, 224.0, 0.0, 0.0, 0.0, 1.6665554366286309E9, 0.0, 2022-10-23 13:03:56.628
76.0, -68609.6407305766, -100218.67307647146, 56754.72250637085, 8753.010183931612, 85821.22156873008, 68833.85107920779, 27751.92591570925, 19153.723913875096, 0.058, 0.96, 0.092, 192.0, 0.0, 0.0, 0.0, 0.0, 0.0, 0.0, 0.0, 0.0, 0.0, 1.6665554366286414E9, 0.0, 2022-10-23 13:03:56.628
77.0, -68580.76227674035, -100187.09006155611, 54595.5886954771, 7652.879673585853, 85617.44071453104, 67887.25470152554, 26365.089579235268, 17713.712777341938, 0.058, 0.96, 0.092, 192.0, 0.0, 0.0, 0.0, 0.0, 0.0, 0.0, 0.0, 0.0, 0.0, 1.666555436628651E9, 0.0, 2022-10-23 13:03:56.628
78.0, -68624.07995749473, -100222.02583813976, 54468.608435226495, 7732.317773380015, 85813.3537546818, 67921.16229786424, 26412.22940829151, 17929.027131679908, 0.058, 0.96, 0.092, 192.0, 0.0, 0.0, 0.0, 0.0, 0.0, 0.0, 0.0, 0.0, 0.0, 1.66655543662866E9, 0.0, 2022-10-23 13:03:56.628
79.0, -68667.66585918258, -100267.35517589512, 56349.32891718495, 8760.296852624042, 86105.20048203475, 68799.85407589127, 27677.226385739614, 19305.224037793167, 0.058, 0.96, 0.092, 192.0, 0.0, 0.0, 0.0, 0.0, 0.0, 0.0, 0.0, 0.0, 0.0, 1.6665554366286695E9, 0.0, 2022-10-23 13:03:56.628
80.0, -68630.94194304252, -100242.6117947831, 57138.59136564629, 8982.562599487615, 85915.94826173167, 69035.32970372793, 28030.965093489303, 19474.67261250885, 0.058, 0.96, 0.092, 192.0, 0.0, 0.0, 0.0, 0.0, 0.0, 0.0, 0.0, 0.0, 0.0, 1.6665554366286793E9, 0.0, 2022-10-23 13:03:56.628
81.0, -68584.85264597567, -100191.71687265836, 54838.932137362026, 7739.693849050266, 85586.1482722936, 67970.55965311047, 26494.975566265057, 17822.901049006112, 0.058, 0.96, 0.092, 192.0, 0.0, 0.0, 0.0, 0.0, 0.0, 0.0, 0.0, 0.0, 0.0, 1.6665554366286979E9, 0.0, 2022-10-23 13:03:56.628
82.0, -68624.70580633948, -100221.62350673956, 54372.87591372441, 7646.218853738172, 85764.67165525815, 67856.54340464395, 26321.30251184732, 17806.42781334255, 0.058, 0.96, 0.092, 192.0, 0.0, 0.0, 0.0, 0.0, 0.0, 0.0, 0.0, 0.0, 0.0, 1.6665554366287074E9, 0.0, 2022-10-23 13:03:56.628
83.0, -68671.86798714018, -100264.2706351603, 55928.28910688032, 8538.835768560859, 86057.77008030059, 68618.71553882546, 27413.05111802234, 19024.95551406807, 0.058, 0.96, 0.092, 192.0, 0.0, 0.0, 0.0, 0.0, 0.0, 0.0, 0.0, 0.0, 0.0, 1.6665554366287172E9, 0.0, 2022-10-23 13:03:56.628
84.0, -68639.65912338009, -100240.9577656934, 57367.45087712418, 9126.23961284633, 85989.82077715645, 69157.59374589846, 28205.621624663072, 19686.678908667436, 0.058, 0.96, 0.092, 192.0, 0.0, 0.0, 0.0, 0.0, 0.0, 0.0, 0.0, 0.0, 0.0, 1.6665554366287277E9, 0.0, 2022-10-23 13:03:56.628
85.0, -68575.84489296019, -100179.8927998415, 55194.36957769032, 7896.2231154707815, 85601.68273469004, 68124.36200670744, 26711.8545427149, 18025.027874115454, 0.062, 0.9580000000000001, 0.10200000000000001, 192.0, 1.0, 240.0, 29.0, 240.0, 3.0, 48.0, 0.0, 0.0, 0.0, 1.6665554366287374E9, 0.0, 2022-10-23 13:03:56.628
86.0, -68617.75441381388, -100216.3484950481, 54349.272471579614, 7598.989617704108, 85727.27718678441, 67836.62800033427, 26281.87403462816, 17729.917792072036, 0.062, 0.9580000000000001, 0.10200000000000001, 192.0, 0.0, 0.0, 0.0, 0.0, 0.0, 0.0, 0.0, 0.0, 0.0, 1.6665554366287477E9, 0.0, 2022-10-23 13:03:56.628
87.0, -68672.82911215175, -100273.07722247568, 55478.996691584194, 8276.359233422188, 85969.83831761341, 68403.71410890986, 27105.736983506322, 18700.475239810377, 0.062, 0.9580000000000001, 0.10200000000000001, 192.0, 0.0, 0.0, 0.0, 0.0, 0.0, 0.0, 0.0, 0.0, 0.0, 1.6665554366287577E9, 0.0, 2022-10-23 13:03:56.628
88.0, -68672.06915284028, -100275.93824576597, 57379.699633085685, 9141.61761303158, 86017.87221644787, 69164.0310483016, 28224.620607450084, 19754.561156578202, 0.062, 0.9580000000000001, 0.10200000000000001, 192.0, 0.0, 0.0, 0.0, 0.0, 0.0, 0.0, 0.0, 0.0, 0.0, 1.6665554366287675E9, 0.0, 2022-10-23 13:03:56.628
89.0, -68571.46395104694, -100174.05899453867, 55582.10528875653, 8071.97488212286, 85624.79443845683, 68277.58321494857, 26946.123176350975, 18266.784342144056, 0.062, 0.9580000000000001, 0.10200000000000001, 192.0, 0.0, 0.0, 0.0, 0.0, 0.0, 0.0, 0.0, 0.0, 0.0, 1.6665554366287773E9, 0.0, 2022-10-23 13:03:56.628
90.0, -68593.68158503552, -100184.2960934992, 54346.344393055966, 7564.478524265114, 85697.61642189222, 67809.49298256553, 26251.319199957754, 17672.250291377342, 0.062, 0.9580000000000001, 0.10200000000000001, 192.0, 0.0, 0.0, 0.0, 0.0, 0.0, 0.0, 0.0, 0.0, 0.0, 1.6665554366287863E9, 0.0, 2022-10-23 13:03:56.628
91.0, -68639.5473646578, -100230.65361149951, 55104.6049719578, 8071.013757111283, 85930.32043341642, 68222.50851661069, 26853.184622905806, 18433.908335436387, 0.062, 0.9580000000000001, 0.10200000000000001, 192.0, 0.0, 0.0, 0.0, 0.0, 0.0, 0.0, 0.0, 0.0, 0.0, 1.6665554366287968E9, 0.0, 2022-10-23 13:03:56.628
92.0, -68667.55410046031, -100261.83429501466, 57303.94957112665, 9149.708944524402, 86092.45998769523, 69162.68994363426, 28217.803325391214, 19792.045032029753, 0.062, 0.9580000000000001, 0.10200000000000001, 192.0, 0.0, 0.0, 0.0, 0.0, 0.0, 0.0, 0.0, 0.0, 0.0, 1.6665554366288078E9, 0.0, 2022-10-23 13:03:56.628
93.0, -68595.64853854758, -100198.31063727268, 56086.47240239053, 8339.50291150843, 85677.38809316017, 68517.5738951652, 27287.523721161335, 18622.981741783828, 0.062, 0.9580000000000001, 0.10200000000000001, 192.0, 0.0, 0.0, 0.0, 0.0, 0.0, 0.0, 0.0, 0.0, 0.0, 1.666555436628817E9, 0.0, 2022-10-23 13:03:56.628
94.0, -68604.63393981862, -100203.00450360829, 54436.57838542204, 7579.163620372251, 85639.05485141932, 67842.03712249245, 26291.798209166314, 17673.479637322383, 0.062, 0.9580000000000001, 0.10200000000000001, 192.0, 0.0, 0.0, 0.0, 0.0, 0.0, 0.0, 0.0, 0.0, 0.0, 1.6665554366288264E9, 0.0, 2022-10-23 13:03:56.628
95.0, -68626.04691100681, -100220.93060266145, 54824.04587555479, 7905.007351041717, 85860.00184536004, 68090.58852083546, 26659.90908860077, 18207.149887937296, 0.064, 0.9540000000000001, 0.096, 192.0, 2.0, 0.0, 29.0, 208.0, 3.0, 0.0, 0.0, 0.0, 0.0, 1.666555436628836E9, 0.0, 2022-10-23 13:03:56.628
96.0, -68659.21689977848, -100243.61762328359, 57064.09300137675, 9059.40789692496, 86115.79520890657, 69084.79411420753, 28094.622861698015, 19686.27657726724, 0.064, 0.9540000000000001, 0.096, 192.0, 0.0, 0.0, 0.0, 0.0, 0.0, 0.0, 0.0, 0.0, 0.0, 1.666555436628847E9, 0.0, 2022-10-23 13:03:56.628
97.0, -68585.70201226497, -100177.47881144033, 56536.18950083131, 8581.08056558139, 85753.31696907485, 68719.85718248572, 27581.896195637728, 18941.98583864997, 0.064, 0.9540000000000001, 0.096, 192.0, 0.0, 0.0, 0.0, 0.0, 0.0, 0.0, 0.0, 0.0, 0.0, 1.6665554366288664E9, 0.0, 2022-10-23 13:03:56.628
98.0, -68583.46683781945, -100179.87044809705, 54517.93873523936, 7582.40462331827, 85610.98106038345, 67842.6629713372, 26304.337537805743, 17659.8674249491, 0.064, 0.9540000000000001, 0.096, 192.0, 0.0, 0.0, 0.0, 0.0, 0.0, 0.0, 0.0, 0.0, 0.0, 1.6665554366288767E9, 0.0, 2022-10-23 13:03:56.628
99.0, -68629.75730058638, -100224.7080474744, 54626.322344103144, 7783.838544349497, 85833.78324911396, 67991.302071965, 26511.158229250697, 18032.448653274616, 0.064, 0.9540000000000001, 0.096, 192.0, 0.0, 0.0, 0.0, 0.0, 0.0, 0.0, 0.0, 0.0, 0.0, 1.666555436628886E9, 0.0, 2022-10-23 13:03:56.628
100.0, -68665.72125741497, -100255.10641993361, 56704.74400576878, 8890.47341233175, 86110.05081058155, 68941.67589446019, 27880.336687604988, 19486.675499281348, 0.064, 0.9540000000000001, 0.096, 192.0, 0.0, 0.0, 0.0, 0.0, 0.0, 0.0, 0.0, 0.0, 0.0, 1.6665554366288953E9, 0.0, 2022-10-23 13:03:56.628
101.0, -68593.94980596898, -100190.37576799105, 56980.54218060282, 8836.873929127923, 85848.20012428763, 68944.4251590282, 27893.926548233816, 19290.941273086224, 0.064, 0.9540000000000001, 0.096, 192.0, 0.0, 0.0, 0.0, 0.0, 0.0, 0.0, 0.0, 0.0, 0.0, 1.6665554366289043E9, 0.0, 2022-10-23 13:03:56.628
102.0, -68557.15883459555, -100150.72377332734, 54732.224909332384, 7667.6094731819, 85593.5019962194, 67933.50046080357, 26424.969902631034, 17754.79528365079, 0.064, 0.9540000000000001, 0.096, 192.0, 0.0, 0.0, 0.0, 0.0, 0.0, 0.0, 0.0, 0.0, 0.0, 1.6665554366289139E9, 0.0, 2022-10-23 13:03:56.628
103.0, -68610.15482069908, -100207.47485249935, 54512.90959273691, 7706.389749811859, 85790.8008445264, 67935.95915269366, 26417.70558568306, 17908.709395970036, 0.064, 0.9540000000000001, 0.096, 192.0, 0.0, 0.0, 0.0, 0.0, 0.0, 0.0, 0.0, 0.0, 0.0, 1.6665554366289232E9, 0.0, 2022-10-23 13:03:56.628
104.0, -68657.31700149977, -100257.98979496835, 56264.727564421606, 8669.124086990843, 86057.27834192257, 68753.89888929116, 27600.98458540256, 19208.061004645944, 0.062, 0.9540000000000001, 0.094, 192.0, 1.0, 240.0, 29.0, 208.0, 2.0, 240.0, 0.0, 0.0, 0.0, 1.6665554366289327E9, 0.0, 2022-10-23 13:03:56.628
105.0, -68605.34919564119, -100208.14540483302, 57280.994329571055, 9022.393408106973, 85930.54395086097, 69096.7075940022, 28106.603396726063, 19554.602450681024, 0.062, 0.9540000000000001, 0.094, 192.0, 0.0, 0.0, 0.0, 0.0, 0.0, 0.0, 0.0, 0.0, 0.0, 1.6665554366289427E9, 0.0, 2022-10-23 13:03:56.628
106.0, -68550.3862560256, -100155.61880536305, 55006.30199984336, 7783.525619927123, 85590.93154560705, 68041.03470337806, 26580.649802762247, 17893.95724462953, 0.062, 0.9540000000000001, 0.094, 192.0, 0.0, 0.0, 0.0, 0.0, 0.0, 0.0, 0.0, 0.0, 0.0, 1.666555436628952E9, 0.0, 2022-10-23 13:03:56.628
107.0, -68590.73115476742, -100185.05605281069, 54410.33743743151, 7621.229603437138, 85742.76694569194, 67862.2207477356, 26320.989587424945, 17782.55615026428, 0.062, 0.9540000000000001, 0.094, 192.0, 0.0, 0.0, 0.0, 0.0, 0.0, 0.0, 0.0, 0.0, 0.0, 1.6665554366289616E9, 0.0, 2022-10-23 13:03:56.628
108.0, -68630.49490815341, -100216.7061229594, 55757.454724008414, 8392.655359823151, 85996.3474865374, 68499.58074087868, 27262.10978771565, 18872.382506416143, 0.062, 0.9540000000000001, 0.094, 192.0, 0.0, 0.0, 0.0, 0.0, 0.0, 0.0, 0.0, 0.0, 0.0, 1.6665554366289709E9, 0.0, 2022-10-23 13:03:56.628
109.0, -68617.44148939151, -100211.29700080122, 57423.12907256235, 9134.621517017069, 86026.6564520188, 69171.56358618302, 28228.509810985306, 19737.73029300336, 0.062, 0.9540000000000001, 0.094, 192.0, 0.0, 0.0, 0.0, 0.0, 0.0, 0.0, 0.0, 0.0, 0.0, 1.66655543662898E9, 0.0, 2022-10-23 13:03:56.628
110.0, -68545.49122398987, -100145.5381686137, 55387.75687071763, 7975.795325731675, 85633.80219147232, 68209.45509784878, 26826.295474326074, 18142.799215650466, 0.062, 0.9540000000000001, 0.094, 192.0, 0.0, 0.0, 0.0, 0.0, 0.0, 0.0, 0.0, 0.0, 0.0, 1.6665554366289897E9, 0.0, 2022-10-23 13:03:56.628
111.0, -68574.8390644597, -100172.02498579324, 54414.74073108921, 7609.405530620281, 85730.47348624152, 67861.05845702392, 26308.718479718984, 17748.067408569743, 0.062, 0.9540000000000001, 0.094, 192.0, 0.0, 0.0, 0.0, 0.0, 0.0, 0.0, 0.0, 0.0, 0.0, 1.6665554366289988E9, 0.0, 2022-10-23 13:03:56.628
112.0, -68624.01290226137, -100220.88589917254, 55424.16786243533, 8232.348648589688, 85971.46999495865, 68380.60240514307, 27062.866337641044, 18650.54144269722, 0.062, 0.9540000000000001, 0.094, 192.0, 0.0, 0.0, 0.0, 0.0, 0.0, 0.0, 0.0, 0.0, 0.0, 1.6665554366290169E9, 0.0, 2022-10-23 13:03:56.629
113.0, -68627.03038776283, -100225.80328295271, 57471.87822721937, 9196.737014858367, 86068.27540019457, 69231.86859272345, 28298.247253685866, 19836.457948262447, 0.062, 0.9540000000000001, 0.094, 192.0, 0.0, 0.0, 0.0, 0.0, 0.0, 0.0, 0.0, 0.0, 0.0, 1.6665554366290276E9, 0.0, 2022-10-23 13:03:56.629
114.0, -68543.97130536691, -100144.84526453559, 55786.51199180031, 8154.050487762748, 85632.52814203837, 68362.00575375625, 27062.866337641044, 18386.165009279848, 0.056, 0.9540000000000001, 0.098, 192.0, 1.0, 192.0, 29.0, 208.0, 3.0, 16.0, 0.0, 0.0, 0.0, 1.666555436629037E9, 0.0, 2022-10-23 13:03:56.629
115.0, -68572.7827039698, -100166.45940142387, 54404.838908295504, 7566.914864410743, 85682.1266629847, 67824.98274147305, 26264.596136164208, 17677.815875746714, 0.056, 0.9540000000000001, 0.098, 192.0, 0.0, 0.0, 0.0, 0.0, 0.0, 0.0, 0.0, 0.0, 0.0, 1.6665554366290467E9, 0.0, 2022-10-23 13:03:56.629
116.0, -68624.21406796147, -100215.18620433644, 55044.1435032062, 8017.034294251716, 85909.48860758408, 68190.21024587277, 26795.315956511018, 18369.20003523827, 0.056, 0.9540000000000001, 0.098, 192.0, 0.0, 0.0, 0.0, 0.0, 0.0, 0.0, 0.0, 0.0, 0.0, 1.666555436629056E9, 0.0, 2022-10-23 13:03:56.629
117.0, -68651.32673398576, -100247.66328903, 57276.52398067999, 9124.116197123074, 86090.42597894979, 69154.08452201898, 28193.90931056849, 19775.34827892164, 0.056, 0.9540000000000001, 0.098, 192.0, 0.0, 0.0, 0.0, 0.0, 0.0, 0.0, 0.0, 0.0, 0.0, 1.6665554366290665E9, 0.0, 2022-10-23 13:03:56.629
118.0, -68562.25503233136, -100167.86756132456, 56287.68280597721, 8429.043999796391, 85709.46284645353, 68610.87007652165, 27408.446658664547, 18749.17969097849, 0.056, 0.9540000000000001, 0.098, 192.0, 0.0, 0.0, 0.0, 0.0, 0.0, 0.0, 0.0, 0.0, 0.0, 1.6665554366290753E9, 0.0, 2022-10-23 13:03:56.629
119.0, -68568.20059635647, -100170.61682589256, 54493.083595405056, 7577.598998260379, 85634.29392985033, 67852.1177592418, 26300.984776137448, 17670.68566926547, 0.056, 0.9540000000000001, 0.098, 192.0, 0.0, 0.0, 0.0, 0.0, 0.0, 0.0, 0.0, 0.0, 0.0, 1.666555436629084E9, 0.0, 2022-10-23 13:03:56.629
120.0, -68615.40748064607, -100212.86162291309, 54783.85743902415, 7858.739240019231, 85851.84345863384, 68063.14057864435, 26611.875189766313, 18145.995515107574, 0.056, 0.9540000000000001, 0.098, 192.0, 0.0, 0.0, 0.0, 0.0, 0.0, 0.0, 0.0, 0.0, 0.0, 1.6665554366290927E9, 0.0, 2022-10-23 13:03:56.629
121.0, -68654.43362646505, -100248.37854485257, 56965.87943624013, 8986.787079189668, 86100.50661569914, 69029.00416004707, 28014.089526425545, 19612.31465486463, 0.056, 0.9540000000000001, 0.098, 192.0, 0.0, 0.0, 0.0, 0.0, 0.0, 0.0, 0.0, 0.0, 0.0, 1.66655543710575E9, 0.0, 2022-10-23 13:03:57.105
122.0, -68578.25888136135, -100183.6925963989, 56716.72454079682, 8659.66929908625, 85783.40241711169, 68795.27196827793, 27685.831807354905, 19060.606546474286, 0.056, 0.9540000000000001, 0.098, 192.0, 0.0, 0.0, 0.0, 0.0, 0.0, 0.0, 0.0, 0.0, 0.0, 1.666555437105936E9, 0.0, 2022-10-23 13:03:57.105
123.0, -68561.69623871997, -100167.39817469098, 54628.73633250432, 7614.389969633815, 85612.72449645096, 67886.8747218698, 26357.445282631554, 17699.31825391272, 0.056, 0.9540000000000001, 0.098, 192.0, 0.0, 0.0, 0.0, 0.0, 0.0, 0.0, 0.0, 0.0, 0.0, 1.666555437105955E9, 0.0, 2022-10-23 13:03:57.105
124.0, -68605.10332645218, -100202.87039314157, 54617.00166666528, 7752.8813782788975, 85815.54422563843, 67976.34875492439, 26481.542167847416, 17988.28160623093, 0.06, 0.9500000000000001, 0.092, 192.0, 1.0, 224.0, 29.0, 176.0, 2.0, 224.0, 0.0, 0.0, 0.0, 1.6665554371059732E9, 0.0, 2022-10-23 13:03:57.105
125.0, -68651.57260317476, -100241.49420756033, 56580.356547874995, 8807.12375725791, 86095.27630749659, 68874.06186748289, 27779.06093347799, 19391.658233601836, 0.06, 0.9500000000000001, 0.092, 192.0, 0.0, 0.0, 0.0, 0.0, 0.0, 0.0, 0.0, 0.0, 0.0, 1.6665554371059933E9, 0.0, 2022-10-23 13:03:57.105
126.0, -68598.08487869322, -100196.27662852725, 57154.4387524651, 8924.515119137182, 85896.79281673346, 69027.23837223511, 27999.762058229695, 19417.47449844772, 0.06, 0.9500000000000001, 0.092, 192.0, 0.0, 0.0, 0.0, 0.0, 0.0, 0.0, 0.0, 0.0, 0.0, 1.666555437106011E9, 0.0, 2022-10-23 13:03:57.106
127.0, -68553.20257582696, -100152.82483730614, 54862.02148938436, 7709.206069613228, 85594.7536939089, 67982.22726371614, 26486.86188302778, 17811.076976189255, 0.06, 0.9500000000000001, 0.092, 192.0, 0.0, 0.0, 0.0, 0.0, 0.0, 0.0, 0.0, 0.0, 0.0, 1.6665554371060283E9, 0.0, 2022-10-23 13:03:57.106
128.0, -68597.81665775974, -100192.76740464776, 54506.561697311605, 7673.264464529093, 85784.96703922356, 67916.87076292883, 26386.480198678997, 17869.951471084532, 0.06, 0.9500000000000001, 0.092, 192.0, 0.0, 0.0, 0.0, 0.0, 0.0, 0.0, 0.0, 0.0, 0.0, 1.6665554371062129E9, 0.0, 2022-10-23 13:03:57.106
129.0, -68648.17513801756, -100240.64484127103, 56140.54127222792, 8585.1262313278, 86062.97803675866, 68690.50934201591, 27506.012023211963, 19116.508259357008, 0.06, 0.9500000000000001, 0.092, 192.0, 0.0, 0.0, 0.0, 0.0, 0.0, 0.0, 0.0, 0.0, 0.0, 1.6665554371062307E9, 0.0, 2022-10-23 13:03:57.106
130.0, -68615.85451553519, -100215.18620433644, 57405.89587758731, 9078.876266345533, 85974.95686709367, 69158.15253950984, 28185.05801976419, 19650.960821027857, 0.06, 0.9500000000000001, 0.092, 192.0, 0.0, 0.0, 0.0, 0.0, 0.0, 0.0, 0.0, 0.0, 0.0, 1.6665554371062484E9, 0.0, 2022-10-23 13:03:57.106
131.0, -68557.85173867366, -100156.98226177481, 55153.8682167373, 7824.742236702709, 85586.01416182687, 68095.68471857128, 26652.51066118606, 17963.426466396628, 0.06, 0.9500000000000001, 0.092, 192.0, 0.0, 0.0, 0.0, 0.0, 0.0, 0.0, 0.0, 0.0, 0.0, 1.666555437106266E9, 0.0, 2022-10-23 13:03:57.106
132.0, -68591.17818965652, -100189.1017185571, 54407.72228333024, 7582.158754129262, 85724.25970128295, 67842.77473005948, 26285.606775952194, 17740.937202088502, 0.06, 0.9500000000000001, 0.092, 192.0, 0.0, 0.0, 0.0, 0.0, 0.0, 0.0, 0.0, 0.0, 0.0, 1.666555437106284E9, 0.0, 2022-10-23 13:03:57.106
133.0, -68641.98370480344, -100240.5107308043, 55684.36451963956, 8347.169559856602, 86013.11129487888, 68484.85094128262, 27209.829057434687, 18809.06001437426, 0.06, 0.9500000000000001, 0.092, 192.0, 0.0, 0.0, 0.0, 0.0, 0.0, 0.0, 0.0, 0.0, 0.0, 1.6665554371063015E9, 0.0, 2022-10-23 13:03:57.106
134.0, -68628.32678894124, -100224.39512305202, 57491.5701140845, 9166.070421465685, 86047.64474006233, 69217.1387931274, 28272.54274756226, 19782.322023191693, 0.056, 0.9520000000000001, 0.092, 192.0, 1.0, 192.0, 29.0, 192.0, 2.0, 224.0, 0.0, 0.0, 0.0, 1.6665554371063273E9, 0.0, 2022-10-23 13:03:57.106
135.0, -68560.82452068622, -100155.52939838522, 55562.03342223566, 8039.944832318406, 85634.36098508371, 68284.53460747417, 26921.871533616966, 18224.360731167882, 0.056, 0.9520000000000001, 0.092, 192.0, 0.0, 0.0, 0.0, 0.0, 0.0, 0.0, 0.0, 0.0, 0.0, 1.6665554371063464E9, 0.0, 2022-10-23 13:03:57.106
136.0, -68595.62618680313, -100188.00648307879, 54422.116806759455, 7571.698137724178, 85690.3297531998, 67845.12166322728, 26281.985793350435, 17695.563160844227, 0.056, 0.9520000000000001, 0.092, 192.0, 0.0, 0.0, 0.0, 0.0, 0.0, 0.0, 0.0, 0.0, 0.0, 1.666555437106377E9, 0.0, 2022-10-23 13:03:57.106
137.0, -68629.13145174163, -100223.657515485, 55282.904837477785, 8121.841624002651, 85936.15423871926, 68296.17986633538, 26941.22814431526, 18516.050996309637, 0.056, 0.9520000000000001, 0.092, 192.0, 0.0, 0.0, 0.0, 0.0, 0.0, 0.0, 0.0, 0.0, 0.0, 1.6665554371064014E9, 0.0, 2022-10-23 13:03:57.106
138.0, -68630.83018432024, -100230.6089080106, 57406.186450265224, 9145.640927033535, 86085.15096725833, 69187.00864160164, 28239.752738446325, 19793.00615704133, 0.056, 0.9520000000000001, 0.092, 192.0, 0.0, 0.0, 0.0, 0.0, 0.0, 0.0, 0.0, 0.0, 0.0, 1.666555437106424E9, 0.0, 2022-10-23 13:03:57.106
139.0, -68553.85077641616, -100158.65864260896, 55951.803142047305, 8220.05518913927, 85663.46295636451, 68429.61978073357, 27158.308286465202, 18482.32221392658, 0.056, 0.9520000000000001, 0.092, 192.0, 0.0, 0.0, 0.0, 0.0, 0.0, 0.0, 0.0, 0.0, 0.0, 1.6665554371064477E9, 0.0, 2022-10-23 13:03:57.106
140.0, -68571.2851370913, -100166.14647700149, 54391.71843430024, 7517.159881253229, 85656.60097081674, 67787.4988660215, 26224.76532754485, 17622.472956475372, 0.056, 0.9520000000000001, 0.092, 192.0, 0.0, 0.0, 0.0, 0.0, 0.0, 0.0, 0.0, 0.0, 0.0, 1.6665554371064713E9, 0.0, 2022-10-23 13:03:57.106
141.0, -68617.70971032497, -100212.28047755724, 54929.41199891711, 7934.645764189454, 85911.03087795149, 68123.06560552903, 26703.919673433265, 18271.969946857687, 0.056, 0.9520000000000001, 0.092, 192.0, 0.0, 0.0, 0.0, 0.0, 0.0, 0.0, 0.0, 0.0, 0.0, 1.6665554371064894E9, 0.0, 2022-10-23 13:03:57.106
142.0, -68648.01867580636, -100244.82461748418, 57169.54853171689, 9067.521580162238, 86118.94680487477, 69101.58027429346, 28121.199085855376, 19721.793499206724, 0.056, 0.9520000000000001, 0.092, 192.0, 0.0, 0.0, 0.0, 0.0, 0.0, 0.0, 0.0, 0.0, 0.0, 1.6665554371065063E9, 0.0, 2022-10-23 13:03:57.106
143.0, -68571.75452372486, -100172.80729684918, 56409.365702791896, 8475.58033175234, 85737.46958225603, 68641.8495943367, 27468.66225822714, 18833.468119319456, 0.058, 0.9560000000000001, 0.09, 192.0, 1.0, 208.0, 29.0, 224.0, 2.0, 208.0, 0.0, 0.0, 0.0, 1.666555437106548E9, 0.0, 2022-10-23 13:03:57.106
144.0, -68581.23166337391, -100173.3437387161, 54503.92419146588, 7556.096620094374, 85630.89646469313, 67833.47640436607, 26283.14808406211, 17657.16286387001, 0.058, 0.9560000000000001, 0.09, 192.0, 0.0, 0.0, 0.0, 0.0, 0.0, 0.0, 0.0, 0.0, 0.0, 1.666555437106567E9, 0.0, 2022-10-23 13:03:57.106
145.0, -68622.40357666058, -100207.49720424382, 54679.810068584695, 7782.452736193269, 85836.48781019305, 67996.68884237872, 26521.52943867796, 18062.690563522647, 0.058, 0.9560000000000001, 0.09, 192.0, 0.0, 0.0, 0.0, 0.0, 0.0, 0.0, 0.0, 0.0, 0.0, 1.6665554371065843E9, 0.0, 2022-10-23 13:03:57.106
146.0, -68664.22369053647, -100250.74782976483, 56831.277231130276, 8918.18957545633, 86112.64361293837, 68975.33762160988, 27927.72238585024, 19544.49946218723, 0.058, 0.9560000000000001, 0.09, 192.0, 0.0, 0.0, 0.0, 0.0, 0.0, 0.0, 0.0, 0.0, 0.0, 1.6665554371066017E9, 0.0, 2022-10-23 13:03:57.106
147.0, -68585.41143958706, -100181.72564288684, 56867.37529842559, 8744.516521038595, 85834.07382179187, 68879.71685883008, 27789.54390162753, 19187.542103235974, 0.058, 0.9560000000000001, 0.09, 192.0, 0.0, 0.0, 0.0, 0.0, 0.0, 0.0, 0.0, 0.0, 0.0, 1.6665554371066191E9, 0.0, 2022-10-23 13:03:57.106
148.0, -68562.45619803146, -100161.02792752122, 54675.317367949174, 7622.1013214708955, 85613.79738018483, 67909.94172214768, 26374.454960162042, 17721.1335565011, 0.058, 0.9560000000000001, 0.09, 192.0, 0.0, 0.0, 0.0, 0.0, 0.0, 0.0, 0.0, 0.0, 0.0, 1.6665554371066365E9, 0.0, 2022-10-23 13:03:57.106
149.0, -68607.83023927573, -100205.17262282046, 54535.21663370331, 7693.671607216788, 85815.14189423823, 67939.53543180651, 26413.145829814177, 17927.395454334674, 0.058, 0.9560000000000001, 0.09, 192.0, 0.0, 0.0, 0.0, 0.0, 0.0, 0.0, 0.0, 0.0, 0.0, 1.666555437106654E9, 0.0, 2022-10-23 13:03:57.106
150.0, -68652.57843167525, -100246.32218436268, 56419.35693256342, 8724.91404115129, 86103.09941805595, 68822.6975587246, 27683.03783929799, 19302.76534590308, 0.058, 0.9560000000000001, 0.09, 192.0, 0.0, 0.0, 0.0, 0.0, 0.0, 0.0, 0.0, 0.0, 0.0, 1.666555437106671E9, 0.0, 2022-10-23 13:03:57.106
151.0, -68594.17332341353, -100195.71783491586, 57199.11988963126, 8943.424694946372, 85920.01627922253, 69048.2490120231, 28028.26053241021, 19472.70565899678, 0.058, 0.9560000000000001, 0.09, 192.0, 0.0, 0.0, 0.0, 0.0, 0.0, 0.0, 0.0, 0.0, 0.0, 1.6665554371066883E9, 0.0, 2022-10-23 13:03:57.106
152.0, -68554.00723862735, -100154.52356988474, 54908.91544925159, 7715.799834227542, 85603.62733645766, 67999.39340345781, 26505.816162325882, 17839.798967814324, 0.058, 0.9560000000000001, 0.09, 192.0, 0.0, 0.0, 0.0, 0.0, 0.0, 0.0, 0.0, 0.0, 0.0, 1.6665554371067054E9, 0.0, 2022-10-23 13:03:57.106
153.0, -68596.74377402589, -100192.52153545876, 54433.382085964935, 7620.134367958828, 85771.19836463909, 67882.49377995655, 26326.666930516592, 17818.14012743713, 0.06, 0.9560000000000001, 0.09, 192.0, 1.0, 224.0, 29.0, 224.0, 2.0, 208.0, 0.0, 0.0, 0.0, 1.6665554371067228E9, 0.0, 2022-10-23 13:03:57.106
154.0, -68658.27812651136, -100246.8139227407, 55937.52037734036, 8477.279064330944, 86044.15786792731, 68604.76805028535, 27373.13090242516, 18999.966263767037, 0.06, 0.9560000000000001, 0.09, 192.0, 0.0, 0.0, 0.0, 0.0, 0.0, 0.0, 0.0, 0.0, 0.0, 1.6665554371067412E9, 0.0, 2022-10-23 13:03:57.106
155.0, -68627.03038776283, -100221.77996895075, 57407.01346481007, 9092.667292674458, 86001.10840810637, 69165.66272564682, 28192.81407509018, 19693.205618048385, 0.06, 0.9560000000000001, 0.09, 192.0, 0.0, 0.0, 0.0, 0.0, 0.0, 0.0, 0.0, 0.0, 0.0, 1.666555437106758E9, 0.0, 2022-10-23 13:03:57.106
156.0, -68560.01985788583, -100155.08236349611, 55241.84468291339, 7874.69838556032, 85610.84694991673, 68138.62241966992, 26707.048917657008, 18038.32716206636, 0.06, 0.9560000000000001, 0.09, 192.0, 0.0, 0.0, 0.0, 0.0, 0.0, 0.0, 0.0, 0.0, 0.0, 1.666555437106778E9, 0.0, 2022-10-23 13:03:57.106
157.0, -68589.05477393327, -100183.893762099, 54359.129590884404, 7561.148114341273, 85734.65326245467, 67825.98856997355, 26246.11124349967, 17720.775928589814, 0.06, 0.9560000000000001, 0.09, 192.0, 0.0, 0.0, 0.0, 0.0, 0.0, 0.0, 0.0, 0.0, 0.0, 1.666555437106795E9, 0.0, 2022-10-23 13:03:57.106
158.0, -68663.70960041399, -100254.54762632224, 55473.92284559284, 8233.220366623445, 85990.6924951902, 68388.22435000233, 27061.480529484816, 18693.143867629038, 0.06, 0.9560000000000001, 0.09, 192.0, 0.0, 0.0, 0.0, 0.0, 0.0, 0.0, 0.0, 0.0, 0.0, 1.6665554371068125E9, 0.0, 2022-10-23 13:03:57.106
159.0, -68660.60270793471, -100259.0626787022, 57422.54792720651, 9135.448531561915, 86055.02081573258, 69193.26713004913, 28228.867438896592, 19795.777773353788, 0.06, 0.9560000000000001, 0.09, 192.0, 0.0, 0.0, 0.0, 0.0, 0.0, 0.0, 0.0, 0.0, 0.0, 1.6665554371068463E9, 0.0, 2022-10-23 13:03:57.106
160.0, -68577.1412941386, -100178.641102152, 55620.43853049738, 8057.669765671464, 85631.54466528233, 68299.06324137011, 26943.217449571785, 18297.987377403664, 0.06, 0.9560000000000001, 0.09, 192.0, 0.0, 0.0, 0.0, 0.0, 0.0, 0.0, 0.0, 0.0, 0.0, 1.6665554371068635E9, 0.0, 2022-10-23 13:03:57.106
161.0, -68602.62228281764, -100200.23288729583, 54366.01392817664, 7537.611727429835, 85691.40263693365, 67819.3053983814, 26234.980074760926, 17683.35910837163, 0.06, 0.9560000000000001, 0.09, 192.0, 0.0, 0.0, 0.0, 0.0, 0.0, 0.0, 0.0, 0.0, 0.0, 1.666555437106881E9, 0.0, 2022-10-23 13:03:57.106
162.0, -68654.92536484306, -100248.80322799722, 55119.64769597622, 8040.905957329984, 85923.77137229101, 68232.6562085934, 26836.130241886407, 18437.484614549234, 0.06, 0.9560000000000001, 0.09, 192.0, 0.0, 0.0, 0.0, 0.0, 0.0, 0.0, 0.0, 0.0, 0.0, 1.6665554371068985E9, 0.0, 2022-10-23 13:03:57.106
163.0, -68657.96520208898, -100251.44073384294, 57318.54526025597, 9120.986952899331, 86101.08776105497, 69174.44696121776, 28201.844179850126, 19796.805953598734, 0.058, 0.9520000000000001, 0.092, 192.0, 1.0, 208.0, 29.0, 192.0, 2.0, 224.0, 0.0, 0.0, 0.0, 1.6665554371069162E9, 0.0, 2022-10-23 13:03:57.106
164.0, -68582.32689885222, -100181.07744229764, 56068.121620192724, 8285.769317837872, 85685.16650023061, 68498.06082225572, 27238.260476381838, 18598.864209516552, 0.058, 0.9520000000000001, 0.092, 192.0, 0.0, 0.0, 0.0, 0.0, 0.0, 0.0, 0.0, 0.0, 0.0, 1.666555437106938E9, 0.0, 2022-10-23 13:03:57.106
165.0, -68586.48432332091, -100188.4982214568, 54388.1868586763, 7512.309552706427, 85651.57182831429, 67806.4531453196, 26221.27845540982, 17635.034636859255, 0.058, 0.9520000000000001, 0.092, 192.0, 0.0, 0.0, 0.0, 0.0, 0.0, 0.0, 0.0, 0.0, 0.0, 1.666555437106949E9, 0.0, 2022-10-23 13:03:57.106
166.0, -68617.21797194696, -100217.37667529305, 54809.45018642547, 7870.585664580544, 85895.63052602179, 68093.2707301701, 26627.901390540766, 18209.139193193816, 0.058, 0.9520000000000001, 0.092, 192.0, 0.0, 0.0, 0.0, 0.0, 0.0, 0.0, 0.0, 0.0, 0.0, 1.6665554371069596E9, 0.0, 2022-10-23 13:03:57.106
167.0, -68666.86119638219, -100261.18609442546, 57030.58773643825, 9004.40025382045, 86119.68441244178, 69070.57840473395, 28046.656018096928, 19674.36309747256, 0.058, 0.9520000000000001, 0.092, 192.0, 0.0, 0.0, 0.0, 0.0, 0.0, 0.0, 0.0, 0.0, 0.0, 1.6665554371069703E9, 0.0, 2022-10-23 13:03:57.106
168.0, -68592.09461117919, -100189.12407030155, 56527.47232049374, 8543.68609710766, 85770.08077741633, 68717.75611850692, 27553.665942390675, 18953.027600410893, 0.058, 0.9520000000000001, 0.092, 192.0, 0.0, 0.0, 0.0, 0.0, 0.0, 0.0, 0.0, 0.0, 0.0, 1.6665554371069837E9, 0.0, 2022-10-23 13:03:57.106
169.0, -68588.38422159961, -100178.9987300633, 54537.31769768211, 7574.715623225645, 85643.59225554374, 67872.61430890732, 26308.383203552152, 17696.01019573333, 0.058, 0.9520000000000001, 0.092, 192.0, 0.0, 0.0, 0.0, 0.0, 0.0, 0.0, 0.0, 0.0, 0.0, 1.6665554371069944E9, 0.0, 2022-10-23 13:03:57.106
170.0, -68619.60960860367, -100209.06182635568, 54626.76937899225, 7769.041689520084, 85849.6082841883, 68012.24565651962, 26498.820066311368, 18052.341705839837, 0.058, 0.9520000000000001, 0.092, 192.0, 0.0, 0.0, 0.0, 0.0, 0.0, 0.0, 0.0, 0.0, 0.0, 1.6665554371070051E9, 0.0, 2022-10-23 13:03:57.107
171.0, -68671.39860050663, -100267.35517589512, 56656.710106934326, 8839.623193695927, 86101.4230372218, 68924.10742331832, 27823.675015410783, 19466.827150205034, 0.058, 0.9520000000000001, 0.092, 192.0, 0.0, 0.0, 0.0, 0.0, 0.0, 0.0, 0.0, 0.0, 0.0, 1.6665554371070158E9, 0.0, 2022-10-23 13:03:57.107
172.0, -68597.07905019273, -100203.18331756393, 56937.91740392654, 8784.146163957854, 85839.54999918342, 68916.77605113699, 27833.75565216013, 19273.641022877815, 0.06, 0.9540000000000001, 0.096, 192.0, 1.0, 224.0, 29.0, 208.0, 3.0, 0.0, 0.0, 0.0, 0.0, 1.6665554371070268E9, 0.0, 2022-10-23 13:03:57.107
173.0, -68575.97900342691, -100172.80729684918, 54714.72349342388, 7640.563862390979, 85610.26580456088, 67933.3887020813, 26394.95150982756, 17760.98671686491, 0.06, 0.9540000000000001, 0.096, 192.0, 0.0, 0.0, 0.0, 0.0, 0.0, 0.0, 0.0, 0.0, 0.0, 1.6665554371070378E9, 0.0, 2022-10-23 13:03:57.107
174.0, -68633.11006225468, -100222.8081491957, 54462.77462992366, 7656.5006561876135, 85785.23526015703, 67916.9825216511, 26364.016695501414, 17888.793991660357, 0.06, 0.9540000000000001, 0.096, 192.0, 0.0, 0.0, 0.0, 0.0, 0.0, 0.0, 0.0, 0.0, 0.0, 1.6665554371070592E9, 0.0, 2022-10-23 13:03:57.107
175.0, -68671.24213829543, -100258.43682985746, 56204.802537536925, 8618.475034055118, 86066.35315017142, 68732.77649078089, 27544.904058564196, 19190.73840269308, 0.06, 0.9540000000000001, 0.096, 192.0, 0.0, 0.0, 0.0, 0.0, 0.0, 0.0, 0.0, 0.0, 0.0, 1.6665554371070697E9, 0.0, 2022-10-23 13:03:57.107
176.0, -68621.91183828257, -100222.58463175115, 57235.01679122649, 8977.868733152001, 85942.30096844447, 69077.99918389312, 28060.916431059413, 19550.62384016798, 0.06, 0.9540000000000001, 0.096, 192.0, 0.0, 0.0, 0.0, 0.0, 0.0, 0.0, 0.0, 0.0, 0.0, 1.6665554371070807E9, 0.0, 2022-10-23 13:03:57.107
177.0, -68564.84783468817, -100172.27085498224, 54958.78219113138, 7736.0952181929615, 85599.44756024452, 68021.83455489094, 26534.04641557293, 17888.235198048973, 0.06, 0.9540000000000001, 0.096, 192.0, 0.0, 0.0, 0.0, 0.0, 0.0, 0.0, 0.0, 0.0, 0.0, 1.6665554371070929E9, 0.0, 2022-10-23 13:03:57.107
178.0, -68616.41330914656, -100215.56618399218, 54387.56100983155, 7600.509536327069, 85769.23141112702, 67874.08952404137, 26302.705860460504, 17798.783516738837, 0.06, 0.9540000000000001, 0.096, 192.0, 0.0, 0.0, 0.0, 0.0, 0.0, 0.0, 0.0, 0.0, 0.0, 1.666555437107103E9, 0.0, 2022-10-23 13:03:57.107
179.0, -68663.19551029152, -100253.7653152663, 55776.23018935087, 8407.966304775036, 86036.02183294557, 68557.91879390703, 27289.11069501766, 18919.142355816646, 0.06, 0.9540000000000001, 0.096, 192.0, 0.0, 0.0, 0.0, 0.0, 0.0, 0.0, 0.0, 0.0, 0.0, 1.666555437107114E9, 0.0, 2022-10-23 13:03:57.107
180.0, -68644.5541554158, -100235.59334702413, 57419.44103472722, 9121.366932555073, 86027.32700435245, 69200.19617083027, 28228.35334877412, 19752.48244434386, 0.06, 0.9540000000000001, 0.096, 192.0, 0.0, 0.0, 0.0, 0.0, 0.0, 0.0, 0.0, 0.0, 0.0, 1.6665554371071248E9, 0.0, 2022-10-23 13:03:57.107
181.0, -68579.01884067284, -100174.05899453867, 55347.59078593145, 7928.968421097806, 85613.953842396, 68202.77192625665, 26788.185750029774, 18124.381378219292, 0.06, 0.9540000000000001, 0.096, 192.0, 0.0, 0.0, 0.0, 0.0, 0.0, 0.0, 0.0, 0.0, 0.0, 1.6665554371071353E9, 0.0, 2022-10-23 13:03:57.107
182.0, -68614.17813470104, -100202.66922744147, 54342.768113943115, 7547.602957201357, 85712.25681451045, 67836.96327650109, 26247.47469991144, 17708.59422786167, 0.052000000000000005, 0.9540000000000001, 0.098, 192.0, 1.0, 160.0, 29.0, 208.0, 3.0, 16.0, 0.0, 0.0, 0.0, 1.666555437107146E9, 0.0, 2022-10-23 13:03:57.107
183.0, -68665.81066439279, -100251.64189954304, 55343.67923065177, 8177.855095607651, 85971.38058798082, 68358.92121302143, 27000.43791537737, 18616.45503240288, 0.052000000000000005, 0.9540000000000001, 0.098, 192.0, 0.0, 0.0, 0.0, 0.0, 0.0, 0.0, 0.0, 0.0, 0.0, 1.6665554371071577E9, 0.0, 2022-10-23 13:03:57.107
184.0, -68667.88937662714, -100253.67590828848, 57412.98138057964, 9168.171485444485, 86089.04017079355, 69229.87928746692, 28259.109349144623, 19827.561953969234, 0.052000000000000005, 0.9540000000000001, 0.098, 192.0, 0.0, 0.0, 0.0, 0.0, 0.0, 0.0, 0.0, 0.0, 0.0, 1.6665554371071684E9, 0.0, 2022-10-23 13:03:57.107
185.0, -68590.17236115603, -100186.7994888782, 55796.90555297203, 8171.887179838083, 85663.86528776471, 68413.9512078704, 27082.357058806072, 18422.285428319625, 0.052000000000000005, 0.9540000000000001, 0.098, 192.0, 0.0, 0.0, 0.0, 0.0, 0.0, 0.0, 0.0, 0.0, 0.0, 1.6665554371071792E9, 0.0, 2022-10-23 13:03:57.107
186.0, -68603.06931770674, -100203.80916640868, 54385.281131897114, 7557.214207317139, 85682.48429089598, 67851.3130964414, 26253.509670914373, 17675.714811767913, 0.052000000000000005, 0.9540000000000001, 0.098, 192.0, 0.0, 0.0, 0.0, 0.0, 0.0, 0.0, 0.0, 0.0, 0.0, 1.66655543710719E9, 0.0, 2022-10-23 13:03:57.107
187.0, -68647.14695777261, -100245.3610593511, 55022.26114538445, 8016.0284657512275, 85927.83938978189, 68224.2519526782, 26785.05650580603, 18370.943471305785, 0.052000000000000005, 0.9540000000000001, 0.098, 192.0, 0.0, 0.0, 0.0, 0.0, 0.0, 0.0, 0.0, 0.0, 0.0, 1.6665554371072004E9, 0.0, 2022-10-23 13:03:57.107
188.0, -68670.39277200613, -100265.3658706386, 57246.93027102116, 9126.217261101874, 86125.16058983334, 69184.5275979671, 28176.296135937708, 19780.91386329101, 0.052000000000000005, 0.9540000000000001, 0.098, 192.0, 0.0, 0.0, 0.0, 0.0, 0.0, 0.0, 0.0, 0.0, 0.0, 1.6665554371072109E9, 0.0, 2022-10-23 13:03:57.107
189.0, -68584.45031457547, -100186.10658480009, 56232.563404150416, 8406.71460708554, 85717.06243956834, 68604.3880706296, 27356.255335361402, 18727.319684901202, 0.052000000000000005, 0.9540000000000001, 0.098, 192.0, 0.0, 0.0, 0.0, 0.0, 0.0, 0.0, 0.0, 0.0, 0.0, 1.6665554371072218E9, 0.0, 2022-10-23 13:03:57.107
190.0, -68591.84874199018, -100191.4486517249, 54399.85446928197, 7542.39500074327, 85639.12190665268, 67820.40063385971, 26221.121993198634, 17630.608991457106, 0.052000000000000005, 0.9540000000000001, 0.098, 192.0, 0.0, 0.0, 0.0, 0.0, 0.0, 0.0, 0.0, 0.0, 0.0, 1.6665554371072423E9, 0.0, 2022-10-23 13:03:57.107
191.0, -68639.88264082464, -100238.14144589203, 54721.38431327156, 7865.489466844734, 85883.15825261573, 68067.1638926463, 26568.535157267474, 18144.944983118177, 0.052000000000000005, 0.9540000000000001, 0.098, 192.0, 0.0, 0.0, 0.0, 0.0, 0.0, 0.0, 0.0, 0.0, 0.0, 1.6665554371072528E9, 0.0, 2022-10-23 13:03:57.107
192.0, -68680.02637386636, -100274.70889982092, 56904.658008177044, 9002.656817752937, 86124.87001715542, 69036.13436652832, 27975.421008517864, 19613.678111276404, 0.058, 0.9540000000000001, 0.1, 192.0, 1.0, 208.0, 29.0, 208.0, 3.0, 32.0, 0.0, 0.0, 0.0, 1.666555437107263E9, 0.0, 2022-10-23 13:03:57.107
193.0, -68599.06835544924, -100202.26689604127, 56671.50696176374, 8686.379633710341, 85807.81052205688, 68800.41286950266, 27653.310019172433, 19071.849473935305, 0.058, 0.9540000000000001, 0.1, 192.0, 0.0, 0.0, 0.0, 0.0, 0.0, 0.0, 0.0, 0.0, 0.0, 1.6665554371072745E9, 0.0, 2022-10-23 13:03:57.107
194.0, -68591.24524488988, -100188.4982214568, 54576.634416179, 7653.013784052585, 85637.60198802972, 67891.61329169432, 26320.87782870267, 17711.27643719631, 0.058, 0.9540000000000001, 0.1, 192.0, 0.0, 0.0, 0.0, 0.0, 0.0, 0.0, 0.0, 0.0, 0.0, 1.6665554371072853E9, 0.0, 2022-10-23 13:03:57.107
195.0, -68634.83114657774, -100226.160910864, 54556.24962523575, 7803.1280998144275, 85834.96789157008, 67978.98626077012, 26442.359559817265, 17995.590626667814, 0.058, 0.9540000000000001, 0.1, 192.0, 0.0, 0.0, 0.0, 0.0, 0.0, 0.0, 0.0, 0.0, 0.0, 1.6665554371072958E9, 0.0, 2022-10-23 13:03:57.107
196.0, -68682.8650454122, -100268.40570788452, 56517.65990467786, 8873.754307479181, 86106.80980763552, 68880.2085972081, 27747.656732518284, 19398.18494298279, 0.058, 0.9540000000000001, 0.1, 192.0, 0.0, 0.0, 0.0, 0.0, 0.0, 0.0, 0.0, 0.0, 0.0, 1.6665554371073065E9, 0.0, 2022-10-23 13:03:57.107
197.0, -68624.63875110612, -100217.37667529305, 57054.66056521661, 8968.34689001404, 85872.49647051054, 68987.56402582694, 27925.62132187144, 19388.75250682265, 0.058, 0.9540000000000001, 0.1, 192.0, 0.0, 0.0, 0.0, 0.0, 0.0, 0.0, 0.0, 0.0, 0.0, 1.666555437107317E9, 0.0, 2022-10-23 13:03:57.107
198.0, -68586.97606169892, -100185.45838421088, 54782.24811342337, 7785.738442628199, 85594.82074914227, 67960.90369950577, 26433.530620757418, 17803.96912145247, 0.058, 0.9540000000000001, 0.1, 192.0, 0.0, 0.0, 0.0, 0.0, 0.0, 0.0, 0.0, 0.0, 0.0, 1.666555437107329E9, 0.0, 2022-10-23 13:03:57.107
199.0, -68626.71746334046, -100220.34945730561, 54419.456949169275, 7763.230235961704, 85776.6968937751, 67896.7318411746, 26331.316093363297, 17860.49668317994, 0.058, 0.9540000000000001, 0.1, 192.0, 0.0, 0.0, 0.0, 0.0, 0.0, 0.0, 0.0, 0.0, 0.0, 1.6665554371073394E9, 0.0, 2022-10-23 13:03:57.107
200.0, -68679.62404246617, -100267.51163810631, 56050.70961126204, 8694.895648347814, 86062.32983616946, 68677.92530988756, 27455.854708654253, 19112.619055821786, 0.058, 0.9540000000000001, 0.1, 192.0, 0.0, 0.0, 0.0, 0.0, 0.0, 0.0, 0.0, 0.0, 0.0, 1.66655543710735E9, 0.0, 2022-10-23 13:03:57.107
201.0, -68641.13433851414, -100238.99081218134, 57338.460664565646, 9216.920640101509, 85985.73040792113, 69156.4761586757, 28152.402121114985, 19664.014239789754, 0.058, 0.9540000000000001, 0.1, 192.0, 0.0, 0.0, 0.0, 0.0, 0.0, 0.0, 0.0, 0.0, 0.0, 1.6665554371073616E9, 0.0, 2022-10-23 13:03:57.107
202.0, -68582.10338140767, -100183.62554116554, 55135.271565350486, 8012.988628505305, 85620.9052349216, 68131.44750969976, 26662.52424270204, 18012.779118153943, 0.06, 0.9480000000000001, 0.10200000000000001, 192.0, 1.0, 224.0, 29.0, 160.0, 3.0, 48.0, 0.0, 0.0, 0.0, 1.666555437107372E9, 0.0, 2022-10-23 13:03:57.107
203.0, -68620.50367838188, -100217.44373052643, 54398.848640781485, 7788.420651962835, 85753.87576268624, 67892.21678879461, 26306.818581440282, 17793.508505047383, 0.06, 0.9480000000000001, 0.10200000000000001, 192.0, 0.0, 0.0, 0.0, 0.0, 0.0, 0.0, 0.0, 0.0, 0.0, 1.6665554371073835E9, 0.0, 2022-10-23 13:03:57.107
204.0, -68663.91076611409, -100259.55441708022, 55626.4287980114, 8520.440282874142, 86012.48544603413, 68495.35626117662, 27184.169254799996, 18818.626561001132, 0.06, 0.9480000000000001, 0.10200000000000001, 192.0, 0.0, 0.0, 0.0, 0.0, 0.0, 0.0, 0.0, 0.0, 0.0, 1.666555437107394E9, 0.0, 2022-10-23 13:03:57.107
205.0, -68656.73585614393, -100256.53693157875, 57418.725778904656, 9332.36740021317, 86040.42512660327, 69206.85699067796, 28228.040424351744, 19784.043107514754, 0.06, 0.9480000000000001, 0.10200000000000001, 192.0, 0.0, 0.0, 0.0, 0.0, 0.0, 0.0, 0.0, 0.0, 0.0, 1.6665554371074147E9, 0.0, 2022-10-23 13:03:57.107
206.0, -68577.36481158315, -100183.67024465445, 55475.91215084936, 8207.806433177762, 85636.37264208468, 68257.55605191662, 26861.36536137645, 18222.21496370017, 0.06, 0.9480000000000001, 0.10200000000000001, 192.0, 0.0, 0.0, 0.0, 0.0, 0.0, 0.0, 0.0, 0.0, 0.0, 1.6665554371074255E9, 0.0, 2022-10-23 13:03:57.107
207.0, -68613.01584398936, -100214.0015618803, 54338.007192374134, 7763.118477239428, 85721.04105008139, 67830.77184328697, 26231.359092159164, 17703.609788848138, 0.06, 0.9480000000000001, 0.10200000000000001, 192.0, 0.0, 0.0, 0.0, 0.0, 0.0, 0.0, 0.0, 0.0, 0.0, 1.666555437107436E9, 0.0, 2022-10-23 13:03:57.107
208.0, -68666.66003068209, -100257.83333275716, 55192.00029277805, 8325.086036334758, 85967.40197746777, 68280.28777602766, 26887.673364600345, 18520.990731834263, 0.06, 0.9480000000000001, 0.10200000000000001, 192.0, 0.0, 0.0, 0.0, 0.0, 0.0, 0.0, 0.0, 0.0, 0.0, 1.6665554371074467E9, 0.0, 2022-10-23 13:03:57.107
209.0, -68672.89616738513, -100264.76237353831, 57318.96994340062, 9361.625833705168, 86106.98862159117, 69171.00479257165, 28186.42147617596, 19802.10331703464, 0.06, 0.9480000000000001, 0.10200000000000001, 192.0, 0.0, 0.0, 0.0, 0.0, 0.0, 0.0, 0.0, 0.0, 0.0, 1.6665554371074572E9, 0.0, 2022-10-23 13:03:57.107
210.0, -68595.84970424768, -100197.23775353882, 55901.2434960894, 8472.406384039687, 85694.1295497572, 68436.7499872148, 27128.669873317467, 18518.33087424408, 0.06, 0.9480000000000001, 0.10200000000000001, 192.0, 0.0, 0.0, 0.0, 0.0, 0.0, 0.0, 0.0, 0.0, 0.0, 1.666555437107468E9, 0.0, 2022-10-23 13:03:57.107
211.0, -68615.27337017935, -100216.21438458138, 54354.592186759975, 7790.119384541439, 85677.54455537135, 67810.40940408819, 26208.225036647924, 17662.192006372454, 0.062, 0.9480000000000001, 0.09, 192.0, 1.0, 240.0, 29.0, 160.0, 2.0, 208.0, 0.0, 0.0, 0.0, 1.6665554371074789E9, 0.0, 2022-10-23 13:03:57.107
212.0, -68649.49389094042, -100248.19973089693, 54833.97005009295, 8171.887179838083, 85901.82195923591, 68096.69054707176, 26636.015073778042, 18259.318859495983, 0.062, 0.9480000000000001, 0.09, 192.0, 0.0, 0.0, 0.0, 0.0, 0.0, 0.0, 0.0, 0.0, 0.0, 1.6665554371074903E9, 0.0, 2022-10-23 13:03:57.107
213.0, -68685.27903381336, -100279.44746964544, 57083.2707981194, 9325.684228621034, 86133.92247365981, 69088.75037297611, 28069.432445696886, 19727.023807409263, 0.062, 0.9480000000000001, 0.09, 192.0, 0.0, 0.0, 0.0, 0.0, 0.0, 0.0, 0.0, 0.0, 0.0, 1.6665554371075013E9, 0.0, 2022-10-23 13:03:57.107
214.0, -68601.68350955052, -100201.17166056296, 56363.92460631426, 8774.534913842072, 85769.81255648287, 68660.84857712372, 27450.87026964072, 18873.58950061673, 0.062, 0.9480000000000001, 0.09, 192.0, 0.0, 0.0, 0.0, 0.0, 0.0, 0.0, 0.0, 0.0, 0.0, 1.6665554371075118E9, 0.0, 2022-10-23 13:03:57.107
215.0, -68598.66602404905, -100197.93065761693, 54472.27412131717, 7879.302844918114, 85668.60385758923, 67867.42870419368, 26281.181130550045, 17710.98586451839, 0.062, 0.9480000000000001, 0.09, 192.0, 0.0, 0.0, 0.0, 0.0, 0.0, 0.0, 0.0, 0.0, 0.0, 1.6665554371075227E9, 0.0, 2022-10-23 13:03:57.107
216.0, -68645.09059728273, -100240.98011743787, 54662.77803930975, 8126.691952549452, 85871.53534549897, 68043.22517433467, 26536.05807257391, 18127.667084654222, 0.062, 0.9480000000000001, 0.09, 192.0, 0.0, 0.0, 0.0, 0.0, 0.0, 0.0, 0.0, 0.0, 0.0, 1.6665554371075337E9, 0.0, 2022-10-23 13:03:57.107
217.0, -68686.44132452505, -100279.31335917872, 56792.407547522496, 9252.191692851984, 86130.79322943608, 69001.19858994467, 27923.58731312601, 19587.481866774782, 0.062, 0.9480000000000001, 0.09, 192.0, 0.0, 0.0, 0.0, 0.0, 0.0, 0.0, 0.0, 0.0, 0.0, 1.6665554371075442E9, 0.0, 2022-10-23 13:03:57.107
218.0, -68614.26754167886, -100212.25812581279, 56817.46385305689, 9072.483667431316, 85840.01938581698, 68881.9073297867, 27769.695552551217, 19216.644074516782, 0.062, 0.9480000000000001, 0.09, 192.0, 0.0, 0.0, 0.0, 0.0, 0.0, 0.0, 0.0, 0.0, 0.0, 1.6665554371075552E9, 0.0, 2022-10-23 13:03:57.107
219.0, -68597.99547171539, -100193.08032907014, 54646.81889376866, 7977.047023421172, 85632.48343854946, 67925.92321943321, 26374.03027701739, 17765.345307033695, 0.062, 0.9480000000000001, 0.09, 192.0, 0.0, 0.0, 0.0, 0.0, 0.0, 0.0, 0.0, 0.0, 0.0, 1.6665554371075656E9, 0.0, 2022-10-23 13:03:57.107
220.0, -68643.86125133769, -100233.02289641177, 54499.47619431927, 8050.472503956856, 85816.41594367218, 67946.30801037647, 26403.9816145875, 17959.827835539323, 0.062, 0.9480000000000001, 0.09, 192.0, 0.0, 0.0, 0.0, 0.0, 0.0, 0.0, 0.0, 0.0, 0.0, 1.6665554371075773E9, 0.0, 2022-10-23 13:03:57.107
221.0, -68691.73868796095, -100278.24047544485, 56369.937225572736, 9079.345652979095, 86103.25588026714, 68819.5906662453, 27662.13895823228, 19324.558296747007, 0.058, 0.962, 0.1, 192.0, 1.0, 208.0, 30.0, 16.0, 3.0, 32.0, 0.0, 0.0, 0.0, 1.6665554371075978E9, 0.0, 2022-10-23 13:03:57.107
222.0, -68632.95360004349, -100229.73718997685, 57181.55141848939, 9319.805719829288, 85927.61587233734, 69062.08474184094, 28026.49474459824, 19510.0554239816, 0.058, 0.962, 0.1, 192.0, 0.0, 0.0, 0.0, 0.0, 0.0, 0.0, 0.0, 0.0, 0.0, 1.6665554371076093E9, 0.0, 2022-10-23 13:03:57.107
223.0, -68585.00910818686, -100184.2960934992, 54921.85710929121, 8122.467472847399, 85625.2638250904, 68036.27378180907, 26530.268970759986, 17892.54908472885, 0.058, 0.962, 0.1, 192.0, 0.0, 0.0, 0.0, 0.0, 0.0, 0.0, 0.0, 0.0, 0.0, 1.6665554371076198E9, 0.0, 2022-10-23 13:03:57.107
224.0, -68625.35400692868, -100215.76734969228, 54440.89227210192, 8031.138245003015, 85787.47043460255, 67916.53548676199, 26349.197488927544, 17860.697848880034, 0.058, 0.962, 0.1, 192.0, 0.0, 0.0, 0.0, 0.0, 0.0, 0.0, 0.0, 0.0, 0.0, 1.6665554371076312E9, 0.0, 2022-10-23 13:03:57.107
225.0, -68682.77563843437, -100267.53398985077, 55932.29006913782, 8883.99140643971, 86055.69136806624, 68629.198506975, 27387.57012934329, 19031.1916507711, 0.058, 0.962, 0.1, 192.0, 0.0, 0.0, 0.0, 0.0, 0.0, 0.0, 0.0, 0.0, 0.0, 1.6665554371076417E9, 0.0, 2022-10-23 13:03:57.107
226.0, -68651.52789968585, -100241.40480058252, 57389.93673204622, 9490.193067812093, 86001.37662903985, 69174.46931296222, 28196.34565071412, 19715.803231692702, 0.058, 0.962, 0.1, 192.0, 0.0, 0.0, 0.0, 0.0, 0.0, 0.0, 0.0, 0.0, 0.0, 1.6665554371076534E9, 0.0, 2022-10-23 13:03:57.107
227.0, -68589.03242218881, -100183.893762099, 55238.78249392301, 8284.83054457075, 85620.97229015497, 68154.69332393329, 26723.05276668701, 18068.189092658653, 0.058, 0.962, 0.1, 192.0, 0.0, 0.0, 0.0, 0.0, 0.0, 0.0, 0.0, 0.0, 0.0, 1.666555437107664E9, 0.0, 2022-10-23 13:03:57.107
228.0, -68620.79425105981, -100211.52051824577, 54388.1868586763, 8000.985741732806, 85750.45594578458, 67869.6191751503, 26296.357965035197, 17766.775818678834, 0.058, 0.962, 0.1, 192.0, 0.0, 0.0, 0.0, 0.0, 0.0, 0.0, 0.0, 0.0, 0.0, 1.6665554371076744E9, 0.0, 2022-10-23 13:03:57.107
229.0, -68653.71837064247, -100241.80713198271, 55485.50104922069, 8674.443802171207, 86006.18225409773, 68421.17082132946, 27103.63591952752, 18725.24097266686, 0.058, 0.962, 0.1, 192.0, 0.0, 0.0, 0.0, 0.0, 0.0, 0.0, 0.0, 0.0, 0.0, 1.6665554371076849E9, 0.0, 2022-10-23 13:03:57.107
230.0, -68654.83595786523, -100248.62441404158, 57433.947316878715, 9583.399842190724, 86081.95466780123, 69220.7374239847, 28270.709904516927, 19827.78547141379, 0.058, 0.962, 0.1, 192.0, 0.0, 0.0, 0.0, 0.0, 0.0, 0.0, 0.0, 0.0, 0.0, 1.6665554371076953E9, 0.0, 2022-10-23 13:03:57.107
231.0, -68573.94499468149, -100172.2932067267, 55648.10999013305, 8516.215803172088, 85657.13741268366, 68334.55781156514, 26993.374764129494, 18335.67241855531, 0.052000000000000005, 0.9580000000000001, 0.096, 192.0, 1.0, 160.0, 29.0, 240.0, 3.0, 0.0, 0.0, 0.0, 0.0, 1.666555437107706E9, 0.0, 2022-10-23 13:03:57.107
232.0, -68596.83318100372, -100193.63912268152, 54387.89628599838, 8001.946866744383, 85721.57749194831, 67853.54827088694, 26279.974136349458, 17718.518402399826, 0.052000000000000005, 0.9580000000000001, 0.096, 192.0, 0.0, 0.0, 0.0, 0.0, 0.0, 0.0, 0.0, 0.0, 0.0, 1.666555437107717E9, 0.0, 2022-10-23 13:03:57.107
233.0, -68646.78932986133, -100237.04621041373, 55148.481446323574, 8522.809567786404, 85965.23385825561, 68279.55016846063, 26893.708335603278, 18486.077306995074, 0.052000000000000005, 0.9580000000000001, 0.096, 192.0, 0.0, 0.0, 0.0, 0.0, 0.0, 0.0, 0.0, 0.0, 0.0, 1.6665554371077275E9, 0.0, 2022-10-23 13:03:57.107
234.0, -68673.18674006304, -100258.63799555755, 57347.64723153678, 9605.058682567917, 86120.31026128653, 69219.66454025084, 28261.970372434902, 19842.224698331916, 0.052000000000000005, 0.9580000000000001, 0.096, 192.0, 0.0, 0.0, 0.0, 0.0, 0.0, 0.0, 0.0, 0.0, 0.0, 1.666555437107738E9, 0.0, 2022-10-23 13:03:57.107
235.0, -68586.70784076546, -100175.31069222817, 56102.453899676075, 8770.489248095662, 85690.79913983335, 68534.60592444014, 27295.927977076528, 18641.48898619282, 0.052000000000000005, 0.9580000000000001, 0.096, 192.0, 0.0, 0.0, 0.0, 0.0, 0.0, 0.0, 0.0, 0.0, 0.0, 1.6665554371077485E9, 0.0, 2022-10-23 13:03:57.107
236.0, -68595.22385540293, -100184.92194234395, 54392.478393611724, 7980.712709511842, 85658.1655929286, 67813.04690993392, 26250.2463162239, 17653.385419057064, 0.052000000000000005, 0.9580000000000001, 0.096, 192.0, 0.0, 0.0, 0.0, 0.0, 0.0, 0.0, 0.0, 0.0, 0.0, 1.6665554371077683E9, 0.0, 2022-10-23 13:03:57.107
237.0, -68640.95552455849, -100231.12299813307, 54814.61343939465, 8348.13068486818, 85900.7267237576, 68104.02191925311, 26662.010152579565, 18229.74750158161, 0.052000000000000005, 0.9580000000000001, 0.096, 192.0, 0.0, 0.0, 0.0, 0.0, 0.0, 0.0, 0.0, 0.0, 0.0, 1.6665554371077793E9, 0.0, 2022-10-23 13:03:57.107
238.0, -68675.3548592752, -100261.74488803685, 57034.275774273374, 9492.875277146732, 86126.4793427562, 69086.62695725285, 28086.88915811648, 19699.352347773594, 0.052000000000000005, 0.9580000000000001, 0.096, 192.0, 0.0, 0.0, 0.0, 0.0, 0.0, 0.0, 0.0, 0.0, 0.0, 1.6665554371077895E9, 0.0, 2022-10-23 13:03:57.107
239.0, -68600.5882740722, -100189.19112553491, 56587.978492734255, 9075.858780844066, 85791.58315558234, 68777.41292445814, 27643.765824290018, 19020.239295988, 0.052000000000000005, 0.9580000000000001, 0.096, 192.0, 0.0, 0.0, 0.0, 0.0, 0.0, 0.0, 0.0, 0.0, 0.0, 1.6665554371078E9, 0.0, 2022-10-23 13:03:57.107
240.0, -68584.02563143082, -100167.17465724643, 54562.50811368324, 8080.289731060235, 85641.40178458713, 67900.66574819872, 26365.760131568924, 17730.051902538766, 0.052000000000000005, 0.9580000000000001, 0.088, 192.0, 1.0, 160.0, 29.0, 240.0, 2.0, 192.0, 0.0, 0.0, 0.0, 1.6665554371078105E9, 0.0, 2022-10-23 13:03:57.107
241.0, -68629.80200407529, -100212.05696011269, 54583.58580870459, 8224.30202058578, 85827.4130019442, 67984.1942172282, 26498.57419712236, 18037.99188589953, 0.052000000000000005, 0.9580000000000001, 0.088, 192.0, 0.0, 0.0, 0.0, 0.0, 0.0, 0.0, 0.0, 0.0, 0.0, 1.6665554375852013E9, 0.0, 2022-10-23 13:03:57.585
242.0, -68677.6570889541, -100261.5660740812, 56609.54792613363, 9304.986513255419, 86101.46774071071, 68901.64392014073, 27831.36401550341, 19467.877682194434, 0.052000000000000005, 0.9580000000000001, 0.088, 192.0, 0.0, 0.0, 0.0, 0.0, 0.0, 0.0, 0.0, 0.0, 0.0, 1.6665554375853415E9, 0.0, 2022-10-23 13:03:57.585
243.0, -68617.48619288042, -100209.73237868934, 56945.67345925253, 9297.789251540811, 85868.80843267542, 68940.55830723743, 27893.546568578073, 19324.1112618579, 0.052000000000000005, 0.9580000000000001, 0.088, 192.0, 0.0, 0.0, 0.0, 0.0, 0.0, 0.0, 0.0, 0.0, 0.0, 1.6665554375853615E9, 0.0, 2022-10-23 13:03:57.585
244.0, -68594.19567515799, -100181.27860799774, 54730.615583731604, 8157.336194197678, 85616.07725811926, 67959.07085646044, 26454.831833223325, 17803.14210690762, 0.052000000000000005, 0.9580000000000001, 0.088, 192.0, 0.0, 0.0, 0.0, 0.0, 0.0, 0.0, 0.0, 0.0, 0.0, 1.6665554375853739E9, 0.0, 2022-10-23 13:03:57.585
245.0, -68616.77093705785, -100200.05407334019, 54453.4539524858, 8162.052412277748, 85789.77266428145, 67920.11176587484, 26399.04187906288, 17909.379948303693, 0.052000000000000005, 0.9580000000000001, 0.088, 192.0, 0.0, 0.0, 0.0, 0.0, 0.0, 0.0, 0.0, 0.0, 0.0, 1.66655543758539E9, 0.0, 2022-10-23 13:03:57.585
246.0, -68658.27812651136, -100242.23181512736, 56181.02028143648, 9122.126891866552, 86079.94301080026, 68728.82023201231, 27573.849567633817, 19205.021167400024, 0.052000000000000005, 0.9580000000000001, 0.088, 192.0, 0.0, 0.0, 0.0, 0.0, 0.0, 0.0, 0.0, 0.0, 0.0, 1.6665554375854018E9, 0.0, 2022-10-23 13:03:57.585
247.0, -68617.53089636932, -100207.16192807698, 57239.24127092854, 9503.581762740823, 85957.74602386309, 69089.5550357765, 28110.961986894847, 19583.68207021738, 0.052000000000000005, 0.9580000000000001, 0.088, 192.0, 0.0, 0.0, 0.0, 0.0, 0.0, 0.0, 0.0, 0.0, 0.0, 1.666555437585414E9, 0.0, 2022-10-23 13:03:57.585
248.0, -68571.15102662458, -100159.26213970926, 54967.65583368014, 8264.848085027705, 85607.6059469707, 68033.0551306075, 26581.767389985012, 17920.801689720356, 0.052000000000000005, 0.9580000000000001, 0.088, 192.0, 0.0, 0.0, 0.0, 0.0, 0.0, 0.0, 0.0, 0.0, 0.0, 1.6665554375854256E9, 0.0, 2022-10-23 13:03:57.585
249.0, -68616.03332949082, -100199.42822449544, 54350.97120415822, 8096.740614979341, 85766.7950709814, 67850.53078538548, 26307.846761685225, 17800.594008039716, 0.052000000000000005, 0.9580000000000001, 0.088, 192.0, 0.0, 0.0, 0.0, 0.0, 0.0, 0.0, 0.0, 0.0, 0.0, 1.6665554375854373E9, 0.0, 2022-10-23 13:03:57.585
250.0, -68665.43068473705, -100250.6137192981, 55747.55290121471, 8918.9048312789, 86053.43384187625, 68546.94408737947, 27307.573235937743, 18935.973219391493, 0.058, 0.9540000000000001, 0.09, 192.0, 1.0, 208.0, 29.0, 208.0, 2.0, 208.0, 0.0, 0.0, 0.0, 1.6665554375854485E9, 0.0, 2022-10-23 13:03:57.585
251.0, -68642.27427748135, -100232.84408245613, 57434.28259304555, 9662.72618326261, 86044.22492316067, 69219.41867106184, 28285.774980279803, 19802.706814134934, 0.058, 0.9540000000000001, 0.09, 192.0, 0.0, 0.0, 0.0, 0.0, 0.0, 0.0, 0.0, 0.0, 0.0, 1.666555437585462E9, 0.0, 2022-10-23 13:03:57.585
252.0, -68583.37743084162, -100168.69457586939, 55373.7199751997, 8475.15564860769, 85626.09083963525, 68219.13340319793, 26847.08259666951, 18175.186893366204, 0.058, 0.9540000000000001, 0.09, 192.0, 0.0, 0.0, 0.0, 0.0, 0.0, 0.0, 0.0, 0.0, 0.0, 1.6665554375855396E9, 0.0, 2022-10-23 13:03:57.585
253.0, -68617.55324811379, -100194.73435815983, 54372.65239627986, 8099.288713847246, 85726.1819513061, 67857.07984651087, 26310.596026253228, 17755.868167384644, 0.058, 0.9540000000000001, 0.09, 192.0, 0.0, 0.0, 0.0, 0.0, 0.0, 0.0, 0.0, 0.0, 0.0, 1.666555437585551E9, 0.0, 2022-10-23 13:03:57.585
254.0, -68661.92146085757, -100238.92375694797, 55356.33031801347, 8717.29209629203, 85982.86938463085, 68366.7890270697, 27051.7351689023, 18648.239213018325, 0.058, 0.9540000000000001, 0.09, 192.0, 0.0, 0.0, 0.0, 0.0, 0.0, 0.0, 0.0, 0.0, 0.0, 1.6665554375855625E9, 0.0, 2022-10-23 13:03:57.585
255.0, -68662.01086783539, -100247.93150996346, 57439.71406694819, 9714.269305976548, 86100.1266360434, 69244.43027310733, 28321.850695830668, 19869.203253889475, 0.058, 0.9540000000000001, 0.09, 192.0, 0.0, 0.0, 0.0, 0.0, 0.0, 0.0, 0.0, 0.0, 0.0, 1.6665554375855737E9, 0.0, 2022-10-23 13:03:57.585
0.0, -68582.28219536331, -100175.51185792827, 55822.20772769544, 8712.48647123414, 85665.76518604341, 68417.97452187235, 27137.69997807741, 18459.545786326624, 0.058, 0.9540000000000001, 0.09, 192.0, 0.0, 0.0, 0.0, 0.0, 0.0, 0.0, 0.0, 0.0, 0.0, 1.6665554375855849E9, 0.0, 2022-10-23 13:03:57.585
1.0, -68612.92643701154, -100197.88595412803, 54413.10905374397, 8098.573458024676, 85686.10527349774, 67859.42677967869, 26313.837029199247, 17717.959608788446, 0.058, 0.9540000000000001, 0.09, 192.0, 0.0, 0.0, 0.0, 0.0, 0.0, 0.0, 0.0, 0.0, 0.0, 1.666555437585596E9, 0.0, 2022-10-23 13:03:57.585
2.0, -68652.8019491198, -100230.78772196623, 55030.24071815499, 8541.629736617773, 85922.20675017915, 68215.37831012944, 26828.82122144952, 18396.133887306918, 0.058, 0.9540000000000001, 0.09, 192.0, 0.0, 0.0, 0.0, 0.0, 0.0, 0.0, 0.0, 0.0, 0.0, 1.6665554375856073E9, 0.0, 2022-10-23 13:03:57.585
3.0, -68677.16535057609, -100256.0675449452, 57250.19362571164, 9650.097447645361, 86118.76799091912, 69171.31771699402, 28217.333938757653, 19802.751517623845, 0.058, 0.9540000000000001, 0.09, 192.0, 0.0, 0.0, 0.0, 0.0, 0.0, 0.0, 0.0, 0.0, 0.0, 1.6665554375856185E9, 0.0, 2022-10-23 13:03:57.585
4.0, -68597.52608508183, -100185.25721851079, 56301.74205323959, 8975.387689517462, 85733.46861999853, 68638.78740534633, 27450.80321440735, 18796.788906668295, 0.058, 0.9500000000000001, 0.092, 192.0, 1.0, 208.0, 29.0, 176.0, 2.0, 224.0, 0.0, 0.0, 0.0, 1.6665554375856297E9, 0.0, 2022-10-23 13:03:57.585
5.0, -68600.38710837212, -100187.93942784541, 54530.969802256805, 8148.32844118219, 85665.76518604341, 67910.90284715925, 26368.97878277049, 17735.28221074131, 0.058, 0.9500000000000001, 0.092, 192.0, 0.0, 0.0, 0.0, 0.0, 0.0, 0.0, 0.0, 0.0, 0.0, 1.666555437585642E9, 0.0, 2022-10-23 13:03:57.585
6.0, -68633.42298667705, -100218.404855538, 54809.47253816993, 8423.545470660385, 85870.46246176511, 68116.78476533708, 26671.599050950892, 18198.58916981091, 0.058, 0.9500000000000001, 0.092, 192.0, 0.0, 0.0, 0.0, 0.0, 0.0, 0.0, 0.0, 0.0, 0.0, 1.6665554375856674E9, 0.0, 2022-10-23 13:03:57.585
7.0, -68668.49287372743, -100253.65355654401, 56960.62677629314, 9529.26391711997, 86111.03428733758, 69059.46958773966, 28051.39458792145, 19641.103701723063, 0.058, 0.9500000000000001, 0.092, 192.0, 0.0, 0.0, 0.0, 0.0, 0.0, 0.0, 0.0, 0.0, 0.0, 1.6665554375856786E9, 0.0, 2022-10-23 13:03:57.585
8.0, -68592.78751525731, -100181.88210509803, 56750.81095109117, 9220.496919214358, 85801.52968186495, 68838.32142809885, 27746.181517384233, 19113.133145944255, 0.058, 0.9500000000000001, 0.092, 192.0, 0.0, 0.0, 0.0, 0.0, 0.0, 0.0, 0.0, 0.0, 0.0, 1.6665554375856895E9, 0.0, 2022-10-23 13:03:57.585
9.0, -68564.66902073253, -100145.3370029136, 54630.457416827376, 8155.078668007693, 85620.27938607686, 67907.12540234631, 26389.050649291356, 17725.42509143652, 0.058, 0.9500000000000001, 0.092, 192.0, 0.0, 0.0, 0.0, 0.0, 0.0, 0.0, 0.0, 0.0, 0.0, 1.666555437585701E9, 0.0, 2022-10-23 13:03:57.585
10.0, -68596.43084960352, -100175.2436369948, 54601.69072171339, 8287.49040216093, 85827.36829845529, 67990.18448474223, 26504.34094719183, 18006.85590587329, 0.058, 0.9500000000000001, 0.092, 192.0, 0.0, 0.0, 0.0, 0.0, 0.0, 0.0, 0.0, 0.0, 0.0, 1.6665554375857122E9, 0.0, 2022-10-23 13:03:57.585
11.0, -68660.13332130114, -100255.10641993361, 56547.991221903714, 9333.484987435935, 86090.89536558335, 68880.96855651958, 27797.009384275603, 19400.04013777258, 0.058, 0.9500000000000001, 0.092, 192.0, 0.0, 0.0, 0.0, 0.0, 0.0, 0.0, 0.0, 0.0, 0.0, 1.6665554375857236E9, 0.0, 2022-10-23 13:03:57.585
12.0, -68628.28208545233, -100228.21727135387, 57114.40677814565, 9436.705343330545, 85873.7705199445, 69002.18206670071, 27997.14690412842, 19412.9817978122, 0.058, 0.9500000000000001, 0.092, 192.0, 0.0, 0.0, 0.0, 0.0, 0.0, 0.0, 0.0, 0.0, 0.0, 1.6665554375857472E9, 0.0, 2022-10-23 13:03:57.585
13.0, -68601.50469559488, -100194.71200641537, 54871.990367411425, 8263.68579431603, 85604.78962716933, 67996.10769702289, 26528.324368992373, 17842.414121915594, 0.06, 0.9540000000000001, 0.096, 192.0, 1.0, 224.0, 29.0, 208.0, 3.0, 0.0, 0.0, 0.0, 0.0, 1.6665554375857584E9, 0.0, 2022-10-23 13:03:57.585
14.0, -68645.06824553826, -100238.38731508104, 54480.94659816583, 8204.274857553823, 85770.55016404988, 67907.14775409077, 26400.07005930782, 17870.73378214047, 0.06, 0.9540000000000001, 0.096, 192.0, 0.0, 0.0, 0.0, 0.0, 0.0, 0.0, 0.0, 0.0, 0.0, 1.6665554375857704E9, 0.0, 2022-10-23 13:03:57.585
15.0, -68705.90969394562, -100304.57083041321, 56080.10215522077, 9099.529278222237, 86055.57960934397, 68662.27908876886, 27498.50183707498, 19098.02336669247, 0.06, 0.9540000000000001, 0.096, 192.0, 0.0, 0.0, 0.0, 0.0, 0.0, 0.0, 0.0, 0.0, 0.0, 1.6665554375857816E9, 0.0, 2022-10-23 13:03:57.585
16.0, -68666.70473417101, -100282.28614119127, 57358.21960666414, 9597.816717364398, 85966.12792803382, 69125.25077167164, 28183.96278428588, 19642.98124825731, 0.06, 0.9540000000000001, 0.096, 192.0, 0.0, 0.0, 0.0, 0.0, 0.0, 0.0, 0.0, 0.0, 0.0, 1.666555437585793E9, 0.0, 2022-10-23 13:03:57.585
17.0, -68613.7981550453, -100240.46602731539, 55142.602937531825, 8369.454249078542, 85597.43590324353, 68086.5652068335, 26680.80796966648, 17980.302033460383, 0.06, 0.9540000000000001, 0.096, 192.0, 0.0, 0.0, 0.0, 0.0, 0.0, 0.0, 0.0, 0.0, 0.0, 1.6665554375858045E9, 0.0, 2022-10-23 13:03:57.585
18.0, -68665.96712660398, -100277.72638532238, 54425.335457961024, 8154.765743585318, 85747.30434981638, 67869.75328561703, 26347.901087749135, 17780.23156884093, 0.06, 0.9540000000000001, 0.096, 192.0, 0.0, 0.0, 0.0, 0.0, 0.0, 0.0, 0.0, 0.0, 0.0, 1.6665554375858157E9, 0.0, 2022-10-23 13:03:57.585
19.0, -68714.38100509418, -100326.94492661297, 55651.23923435679, 8880.437479071317, 86004.1035418634, 68477.05018246772, 27233.34309260167, 18805.48373526141, 0.06, 0.9540000000000001, 0.096, 192.0, 0.0, 0.0, 0.0, 0.0, 0.0, 0.0, 0.0, 0.0, 0.0, 1.666555437585827E9, 0.0, 2022-10-23 13:03:57.585
