%OpenBCI Raw EEG Data
%Number of channels = 8
%Sample Rate = 250 Hz
%Board = OpenBCI_GUI$BoardCytonSerial
Sample Index, EXG Channel 0, EXG Channel 1, EXG Channel 2, EXG Channel 3, EXG Channel 4, EXG Channel 5, EXG Channel 6, EXG Channel 7, Accel Channel 0, Accel Channel 1, Accel Channel 2, Other, Other, Other, Other, Other, Other, Other, Analog Channel 0, Analog Channel 1, Analog Channel 2, Timestamp, Other, Timestamp (Formatted)
200.0, -58099.1128801242, -85508.56536728924, 32591.659735639067, -12543.642526107136, 70269.54832906107, 40689.92026924137, 3786.8101938736672, 9141.930537453954, 0.0, 0.0, 0.0, 192.0, 0.0, 0.0, 0.0, 0.0, 0.0, 0.0, 0.0, 0.0, 0.0, 1.6665551450868373E9, 0.0, 2022-10-23 12:59:05.086
201.0, -58144.91160451312, -85552.57595212174, 31763.125272169746, -12909.227658418138, 70408.73264178427, 40374.93948637718, 3384.6576076337824, 8913.942744009822, 0.0, 0.0, 0.0, 192.0, 0.0, 0.0, 0.0, 0.0, 0.0, 0.0, 0.0, 0.0, 0.0, 1.6665551450868564E9, 0.0, 2022-10-23 12:59:05.086
202.0, -58190.55386669086, -85597.10062707671, 32942.09038520937, -12180.158457774933, 70554.57777435514, 40989.83597634268, 4255.45921986809, 9955.176407715846, 0.0, 0.0, 0.0, 192.0, 0.0, 0.0, 0.0, 0.0, 0.0, 0.0, 0.0, 0.0, 0.0, 1.6665551450868666E9, 0.0, 2022-10-23 12:59:05.086
203.0, -58164.80465707835, -85575.01710355487, 34852.04694891536, -11186.511658014257, 70526.5486868082, 41827.892282949964, 5385.563419528416, 10981.434402636814, 0.0, 0.0, 0.0, 192.0, 0.0, 0.0, 0.0, 0.0, 0.0, 0.0, 0.0, 0.0, 0.0, 1.6665551450868766E9, 0.0, 2022-10-23 12:59:05.086
204.0, -58095.40249054462, -85509.86176846764, 33013.21363606616, -12316.839375119136, 70288.837884526, 40902.28419331124, 4075.8629531696984, 9430.312744416326, 0.0, 0.0, 0.0, 192.0, 0.0, 0.0, 0.0, 0.0, 0.0, 0.0, 0.0, 0.0, 0.0, 1.6665551450868864E9, 0.0, 2022-10-23 12:59:05.086
205.0, -58129.6677147946, -85541.8918182721, 31794.328307429354, -12907.998312473097, 70392.14764739844, 40401.47100704563, 3402.650761920305, 8884.550200051093, 0.0, 0.0, 0.0, 192.0, 0.0, 0.0, 0.0, 0.0, 0.0, 0.0, 0.0, 0.0, 0.0, 1.6665551450868976E9, 0.0, 2022-10-23 12:59:05.086
206.0, -58178.70744212955, -85588.98694383942, 32569.755026072864, -12400.45725112644, 70534.10357643409, 40820.94619523838, 4019.804778075788, 9688.989482997595, 0.062, 0.9520000000000001, 0.14200000000000002, 192.0, 1.0, 240.0, 29.0, 192.0, 4.0, 112.0, 0.0, 0.0, 0.0, 1.6665551450869071E9, 0.0, 2022-10-23 12:59:05.086
207.0, -58191.492639957985, -85604.20848181349, 34779.60494513571, -11202.448451810891, 70589.55825442771, 41830.93212019588, 5389.989064930566, 11023.545089190613, 0.062, 0.9520000000000001, 0.14200000000000002, 192.0, 0.0, 0.0, 0.0, 0.0, 0.0, 0.0, 0.0, 0.0, 0.0, 1.6665551450869195E9, 0.0, 2022-10-23 12:59:05.086
208.0, -58101.660978992106, -85520.92588197302, 33487.227080729856, -12058.855540615981, 70315.54821915009, 41135.34583274673, 4397.616314603843, 9755.016536118572, 0.062, 0.9520000000000001, 0.14200000000000002, 192.0, 0.0, 0.0, 0.0, 0.0, 0.0, 0.0, 0.0, 0.0, 0.0, 1.6665551450869334E9, 0.0, 2022-10-23 12:59:05.086
209.0, -58113.73092099797, -85530.44772511098, 31835.50022071603, -12924.426844647747, 70378.96011816981, 40398.96761166664, 3406.9199451112686, 8845.054667598566, 0.062, 0.9520000000000001, 0.14200000000000002, 192.0, 0.0, 0.0, 0.0, 0.0, 0.0, 0.0, 0.0, 0.0, 0.0, 1.6665551450869434E9, 0.0, 2022-10-23 12:59:05.086
210.0, -58159.395534920164, -85574.61477215467, 32288.190101169363, -12579.15944804662, 70522.3465588506, 40688.31094364059, 3838.9344619434432, 9473.071631559329, 0.062, 0.9520000000000001, 0.14200000000000002, 192.0, 0.0, 0.0, 0.0, 0.0, 0.0, 0.0, 0.0, 0.0, 0.0, 1.6665551450869536E9, 0.0, 2022-10-23 12:59:05.086
211.0, -58194.89010511519, -85612.8586069177, 34524.30331996719, -11337.341229598669, 70609.74187967085, 41721.408572364875, 5262.628825024227, 10921.911707152332, 0.062, 0.9520000000000001, 0.14200000000000002, 192.0, 0.0, 0.0, 0.0, 0.0, 0.0, 0.0, 0.0, 0.0, 0.0, 1.6665551450869634E9, 0.0, 2022-10-23 12:59:05.086
212.0, -58121.64343853515, -85549.35730092016, 33952.79156598944, -11802.4363282247, 70334.81542287057, 41353.14123071924, 4715.927507391872, 10093.176077982913, 0.062, 0.9520000000000001, 0.14200000000000002, 192.0, 0.0, 0.0, 0.0, 0.0, 0.0, 0.0, 0.0, 0.0, 0.0, 1.6665551450869732E9, 0.0, 2022-10-23 12:59:05.086
213.0, -58124.81738624781, -85549.2455421979, 31990.10723711339, -12858.64566071578, 70339.17401303936, 40471.163746257276, 3495.6563705988374, 8874.938949935311, 0.062, 0.9520000000000001, 0.14200000000000002, 192.0, 0.0, 0.0, 0.0, 0.0, 0.0, 0.0, 0.0, 0.0, 0.0, 1.666555145086985E9, 0.0, 2022-10-23 12:59:05.086
214.0, -58163.240034966475, -85585.81299612677, 32081.145892279852, -12723.082330594341, 70464.74611338926, 40574.78643355208, 3684.528611246182, 9261.802942967766, 0.062, 0.9520000000000001, 0.14200000000000002, 192.0, 0.0, 0.0, 0.0, 0.0, 0.0, 0.0, 0.0, 0.0, 0.0, 1.666555145086995E9, 0.0, 2022-10-23 12:59:05.086
215.0, -58199.71808191754, -85623.47568553397, 34134.1089170109, -11567.05010736586, 70594.02860331877, 41532.84925613991, 5021.9899442183905, 10689.654730517237, 0.062, 0.9520000000000001, 0.14200000000000002, 192.0, 0.0, 0.0, 0.0, 0.0, 0.0, 0.0, 0.0, 0.0, 0.0, 1.6665551450870047E9, 0.0, 2022-10-23 12:59:05.087
216.0, -58132.75225552944, -85563.30478946028, 34359.615666820486, -11574.716755714031, 70390.91830145339, 41542.594616722425, 4995.816051461226, 10412.180174849054, 0.07, 0.9400000000000001, 0.14400000000000002, 192.0, 2.0, 48.0, 29.0, 96.0, 4.0, 128.0, 0.0, 0.0, 0.0, 1.6665551450871456E9, 0.0, 2022-10-23 12:59:05.087
217.0, -58119.3188571118, -85547.01036775236, 32160.047550207088, -12799.10061348684, 70327.43934720031, 40527.4677905402, 3581.37531058494, 8928.091398250031, 0.07, 0.9400000000000001, 0.14400000000000002, 192.0, 0.0, 0.0, 0.0, 0.0, 0.0, 0.0, 0.0, 0.0, 0.0, 1.6665551450871572E9, 0.0, 2022-10-23 12:59:05.087
218.0, -58155.14870347366, -85578.16869952306, 31952.355140728374, -12811.215258981618, 70467.5847849351, 40511.82156942148, 3589.444290333306, 9134.129778639053, 0.07, 0.9400000000000001, 0.14400000000000002, 192.0, 0.0, 0.0, 0.0, 0.0, 0.0, 0.0, 0.0, 0.0, 0.0, 1.6665551450871673E9, 0.0, 2022-10-23 12:59:05.087
219.0, -58204.009616852956, -85630.40472631512, 33745.63559837766, -11765.153618473247, 70606.47852498037, 41387.89819334724, 4807.614363147541, 10471.769925566903, 0.07, 0.9400000000000001, 0.14400000000000002, 192.0, 0.0, 0.0, 0.0, 0.0, 0.0, 0.0, 0.0, 0.0, 0.0, 1.6665551450871773E9, 0.0, 2022-10-23 12:59:05.087
220.0, -58148.3761249037, -85580.76150187988, 34704.614842488154, -11355.043811207273, 70435.93471478639, 41739.245264440215, 5261.108906401266, 10710.575963327405, 0.07, 0.9400000000000001, 0.14400000000000002, 192.0, 0.0, 0.0, 0.0, 0.0, 0.0, 0.0, 0.0, 0.0, 0.0, 1.6665551450871868E9, 0.0, 2022-10-23 12:59:05.087
221.0, -58102.0633103923, -85535.56627459124, 32419.32778588865, -12674.824914315333, 70288.45790487026, 40640.65702446187, 3729.3885623679835, 9038.106684459053, 0.07, 0.9400000000000001, 0.14400000000000002, 192.0, 0.0, 0.0, 0.0, 0.0, 0.0, 0.0, 0.0, 0.0, 0.0, 1.6665551450871973E9, 0.0, 2022-10-23 12:59:05.087
222.0, -58145.15747370214, -85576.8499466002, 31858.522517504993, -12881.01975691554, 70434.66066535244, 40460.166687985264, 3505.5581933925387, 9001.673340996902, 0.07, 0.9400000000000001, 0.14400000000000002, 192.0, 0.0, 0.0, 0.0, 0.0, 0.0, 0.0, 0.0, 0.0, 0.0, 1.66655514508721E9, 0.0, 2022-10-23 12:59:05.087
223.0, -58191.626750424715, -85619.27355757637, 33297.706639493306, -12010.173441192323, 70597.78369638725, 41194.13092066418, 4527.323487677991, 10178.045651679713, 0.07, 0.9400000000000001, 0.14400000000000002, 192.0, 0.0, 0.0, 0.0, 0.0, 0.0, 0.0, 0.0, 0.0, 0.0, 1.6665551450872197E9, 0.0, 2022-10-23 12:59:05.087
224.0, -58164.69289835607, -85596.34066776522, 34900.97491752802, -11209.802175736688, 70514.85872445807, 41874.27215269472, 5429.082265982898, 10929.86892817842, 0.07, 0.9400000000000001, 0.14400000000000002, 192.0, 0.0, 0.0, 0.0, 0.0, 0.0, 0.0, 0.0, 0.0, 0.0, 1.6665551450872293E9, 0.0, 2022-10-23 12:59:05.087
225.0, -58094.73193821096, -85526.62557680912, 32820.698061072595, -12448.89348136109, 70308.64153011341, 40852.998596787285, 3987.6853212935116, 9280.623111799136, 0.07, 0.9400000000000001, 0.14400000000000002, 192.0, 0.0, 0.0, 0.0, 0.0, 0.0, 0.0, 0.0, 0.0, 0.0, 1.6665551450872393E9, 0.0, 2022-10-23 12:59:05.087
226.0, -58131.94759272905, -85559.75086209188, 31885.568128295916, -12866.379364297316, 70437.65579910945, 40497.807025648006, 3512.7778068516027, 8960.590834688048, 0.058, 0.9380000000000001, 0.146, 192.0, 1.0, 208.0, 29.0, 80.0, 4.0, 144.0, 0.0, 0.0, 0.0, 1.6665551450872488E9, 0.0, 2022-10-23 12:59:05.087
227.0, -58183.55777067635, -85610.17639758305, 32908.60747201532, -12227.432397297907, 70570.44751291841, 41031.611386729644, 4275.575789877867, 9896.972465154227, 0.058, 0.9380000000000001, 0.146, 192.0, 0.0, 0.0, 0.0, 0.0, 0.0, 0.0, 0.0, 0.0, 0.0, 1.6665551450872595E9, 0.0, 2022-10-23 12:59:05.087
228.0, -58180.33911947479, -85610.66813596108, 34908.59686238728, -11180.052003866675, 70556.67883833394, 41904.13408328701, 5463.705118144169, 11006.021321537653, 0.058, 0.9380000000000001, 0.146, 192.0, 0.0, 0.0, 0.0, 0.0, 0.0, 0.0, 0.0, 0.0, 0.0, 1.6665551450872695E9, 0.0, 2022-10-23 12:59:05.087
229.0, -58103.09149063725, -85539.34371940419, 33188.496016084675, -12262.52463609274, 70298.0468032416, 41002.5764706822, 4202.038550619906, 9499.73726269451, 0.058, 0.9380000000000001, 0.146, 192.0, 0.0, 0.0, 0.0, 0.0, 0.0, 0.0, 0.0, 0.0, 0.0, 1.666555145087279E9, 0.0, 2022-10-23 12:59:05.087
230.0, -58134.227470663485, -85565.53996390582, 31816.612996651293, -12937.010876776085, 70406.69863303885, 40422.25812938907, 3422.1414830853323, 8841.32192627453, 0.058, 0.9380000000000001, 0.146, 192.0, 0.0, 0.0, 0.0, 0.0, 0.0, 0.0, 0.0, 0.0, 0.0, 1.6665551450872889E9, 0.0, 2022-10-23 12:59:05.087
231.0, -58172.1807327486, -85599.42520850006, 32477.710542405912, -12480.476496276438, 70548.22987892985, 40802.036619429186, 3976.5765042992243, 9590.284179482958, 0.058, 0.9380000000000001, 0.146, 192.0, 0.0, 0.0, 0.0, 0.0, 0.0, 0.0, 0.0, 0.0, 0.0, 1.6665551450872984E9, 0.0, 2022-10-23 12:59:05.087
232.0, -58191.38088123571, -85621.01699364389, 34710.91803442455, -11257.634908871045, 70609.47365873739, 41824.78539047067, 5370.878323421279, 10977.008757234664, 0.058, 0.9380000000000001, 0.146, 192.0, 0.0, 0.0, 0.0, 0.0, 0.0, 0.0, 0.0, 0.0, 0.0, 1.6665551450873387E9, 0.0, 2022-10-23 12:59:05.087
233.0, -58103.40441505962, -85538.18142869252, 33646.10328031817, -11989.453374082254, 70329.31689373456, 41228.82082805882, 4514.471234616189, 9845.85402558494, 0.058, 0.9380000000000001, 0.146, 192.0, 0.0, 0.0, 0.0, 0.0, 0.0, 0.0, 0.0, 0.0, 0.0, 1.6665551450873485E9, 0.0, 2022-10-23 12:59:05.087
234.0, -58115.1167291542, -85545.4904491294, 31887.06569517442, -12908.400643873292, 70375.62970824596, 40454.176420471245, 3450.125867143377, 8840.807836152058, 0.058, 0.9380000000000001, 0.146, 192.0, 0.0, 0.0, 0.0, 0.0, 0.0, 0.0, 0.0, 0.0, 0.0, 1.6665551450873582E9, 0.0, 2022-10-23 12:59:05.087
235.0, -58156.400401163155, -85583.5554699368, 32195.519768657658, -12645.16414942314, 70510.56718952266, 40670.675417265345, 3784.753833383779, 9376.28857806785, 0.064, 0.9440000000000001, 0.146, 192.0, 2.0, 0.0, 29.0, 128.0, 4.0, 144.0, 0.0, 0.0, 0.0, 1.666555145087368E9, 0.0, 2022-10-23 12:59:05.087
236.0, -58190.017424823935, -85616.88192091965, 34400.47465568479, -11404.128242031127, 70627.17624034599, 41705.6952960128, 5206.503594696951, 10849.045020228032, 0.064, 0.9440000000000001, 0.146, 192.0, 0.0, 0.0, 0.0, 0.0, 0.0, 0.0, 0.0, 0.0, 0.0, 1.6665551450873785E9, 0.0, 2022-10-23 12:59:05.087
237.0, -58113.060368664315, -85546.76449856335, 34076.37436108284, -11726.775673243485, 70358.351809782, 41446.6832812647, 4813.939906828393, 10185.82405875016, 0.064, 0.9440000000000001, 0.146, 192.0, 0.0, 0.0, 0.0, 0.0, 0.0, 0.0, 0.0, 0.0, 0.0, 1.666555145087388E9, 0.0, 2022-10-23 12:59:05.087
238.0, -58097.68236847906, -85529.37484137712, 31980.38422827533, -12868.078096875919, 70339.24106827272, 40484.26186850809, 3488.861440284424, 8848.072153100033, 0.064, 0.9440000000000001, 0.146, 192.0, 0.0, 0.0, 0.0, 0.0, 0.0, 0.0, 0.0, 0.0, 0.0, 1.6665551450873978E9, 0.0, 2022-10-23 12:59:05.087
239.0, -58146.09624696925, -85568.08806277372, 31948.600047659882, -12789.019976737498, 70476.12315131702, 40534.53094178807, 3602.6765230508477, 9169.937273256453, 0.064, 0.9440000000000001, 0.146, 192.0, 0.0, 0.0, 0.0, 0.0, 0.0, 0.0, 0.0, 0.0, 0.0, 1.6665551450874076E9, 0.0, 2022-10-23 12:59:05.087
240.0, -58207.76470992145, -85622.53691226685, 33942.97915017357, -11638.083951244826, 70632.80887994873, 41494.80658707698, 4932.02417278578, 10605.09808124281, 0.064, 0.9440000000000001, 0.146, 192.0, 0.0, 0.0, 0.0, 0.0, 0.0, 0.0, 0.0, 0.0, 0.0, 1.6665551450874174E9, 0.0, 2022-10-23 12:59:05.087
241.0, -58151.25949993843, -85572.35724596468, 34434.33754853458, -11493.736385552453, 70428.6256943495, 41627.21832123021, 5078.5175059458625, 10513.925315609613, 0.064, 0.9440000000000001, 0.146, 192.0, 0.0, 0.0, 0.0, 0.0, 0.0, 0.0, 0.0, 0.0, 0.0, 1.6665551450874271E9, 0.0, 2022-10-23 12:59:05.087
242.0, -58116.23431637697, -85539.50018161538, 32155.08546293801, -12783.029709223476, 70324.69008263231, 40549.43955533976, 3585.577438542538, 8932.561747141093, 0.064, 0.9440000000000001, 0.146, 192.0, 0.0, 0.0, 0.0, 0.0, 0.0, 0.0, 0.0, 0.0, 0.0, 1.6665551450874372E9, 0.0, 2022-10-23 12:59:05.087
243.0, -58157.60739536374, -85578.16869952306, 31816.702403629115, -12864.054782873964, 70467.67419191291, 40468.7497578561, 3510.319114961519, 9057.284481201707, 0.064, 0.9440000000000001, 0.146, 192.0, 0.0, 0.0, 0.0, 0.0, 0.0, 0.0, 0.0, 0.0, 0.0, 1.666555145087448E9, 0.0, 2022-10-23 12:59:05.087
244.0, -58209.396387266686, -85628.4601245475, 33475.62652535755, -11882.902608263805, 70604.98095810186, 41281.88386939572, 4650.30278567109, 10333.90436576657, 0.064, 0.9440000000000001, 0.146, 192.0, 0.0, 0.0, 0.0, 0.0, 0.0, 0.0, 0.0, 0.0, 0.0, 1.6665551450874577E9, 0.0, 2022-10-23 12:59:05.087
245.0, -58163.1282762442, -85584.98598158194, 34672.56244093924, -11324.556031770235, 70471.07165707012, 41751.22579946826, 5267.836781482313, 10766.254158765574, 0.064, 0.9400000000000001, 0.136, 192.0, 2.0, 0.0, 29.0, 96.0, 4.0, 64.0, 0.0, 0.0, 0.0, 1.6665551450874677E9, 0.0, 2022-10-23 12:59:05.087
246.0, -58109.66290350711, -85532.45938211196, 32413.06929744116, -12642.526643577416, 70294.7387450622, 40653.71044322377, 3739.8491787730673, 9077.781030867223, 0.064, 0.9400000000000001, 0.136, 192.0, 0.0, 0.0, 0.0, 0.0, 0.0, 0.0, 0.0, 0.0, 0.0, 1.6665551450874777E9, 0.0, 2022-10-23 12:59:05.087
247.0, -58141.581194589286, -85564.17650749403, 31720.165219326645, -12918.347170155905, 70438.43811016537, 40411.037553672504, 3429.7187244556817, 8951.9630613283, 0.064, 0.9400000000000001, 0.136, 192.0, 0.0, 0.0, 0.0, 0.0, 0.0, 0.0, 0.0, 0.0, 0.0, 1.6665551450874977E9, 0.0, 2022-10-23 12:59:05.087
248.0, -58193.54900044787, -85610.37756328315, 33027.74226996211, -12113.036169175646, 70592.48633295135, 41086.216698433964, 4374.0128724590395, 10058.709688032828, 0.064, 0.9400000000000001, 0.136, 192.0, 0.0, 0.0, 0.0, 0.0, 0.0, 0.0, 0.0, 0.0, 0.0, 1.6665551450875072E9, 0.0, 2022-10-23 12:59:05.087
249.0, -58169.2303024805, -85587.08704556072, 34794.938241832046, -11210.226858881339, 70531.48842233281, 41843.35969011304, 5389.631437019281, 10949.73962899919, 0.064, 0.9400000000000001, 0.136, 192.0, 0.0, 0.0, 0.0, 0.0, 0.0, 0.0, 0.0, 0.0, 0.0, 1.6665551450875168E9, 0.0, 2022-10-23 12:59:05.087
250.0, -58107.40537731712, -85526.96085297596, 32806.05766845437, -12416.572858878715, 70300.50549513167, 40844.88491355001, 3988.3111701382604, 9324.99132454292, 0.064, 0.9400000000000001, 0.136, 192.0, 0.0, 0.0, 0.0, 0.0, 0.0, 0.0, 0.0, 0.0, 0.0, 1.6665551450875263E9, 0.0, 2022-10-23 12:59:05.087
251.0, -58145.068066724314, -85564.28826621632, 31740.214734103054, -12903.796184515499, 70430.81616530611, 40428.024879458535, 3427.282384310053, 8902.588057826526, 0.064, 0.9400000000000001, 0.136, 192.0, 0.0, 0.0, 0.0, 0.0, 0.0, 0.0, 0.0, 0.0, 0.0, 1.666555145087536E9, 0.0, 2022-10-23 12:59:05.087
252.0, -58191.93967484709, -85610.8022464278, 32646.488564787935, -12318.001665830812, 70565.57483262716, 40914.77881846176, 4127.316668905815, 9778.664681752287, 0.064, 0.9400000000000001, 0.136, 192.0, 0.0, 0.0, 0.0, 0.0, 0.0, 0.0, 0.0, 0.0, 0.0, 1.666555145087546E9, 0.0, 2022-10-23 12:59:05.087
253.0, -58196.47707897152, -85619.83235118775, 34755.91209601308, -11190.512620271758, 70576.37072519907, 41853.21680941783, 5404.741216271069, 10999.472260412247, 0.064, 0.9400000000000001, 0.136, 192.0, 0.0, 0.0, 0.0, 0.0, 0.0, 0.0, 0.0, 0.0, 0.0, 1.666555145087556E9, 0.0, 2022-10-23 12:59:05.087
254.0, -58117.50836581092, -85546.36216716316, 33262.83791814303, -12145.625012591483, 70307.5462946351, 41069.76581451485, 4287.690435372643, 9617.642714696254, 0.064, 0.9400000000000001, 0.136, 192.0, 0.0, 0.0, 0.0, 0.0, 0.0, 0.0, 0.0, 0.0, 0.0, 1.6665551450875652E9, 0.0, 2022-10-23 12:59:05.087
255.0, -58144.91160451312, -85571.15025176409, 31769.696685039606, -12896.21894314515, 70384.10101939453, 40432.428173116234, 3417.7158376831817, 8843.043010597588, 0.058, 0.9460000000000001, 0.134, 192.0, 1.0, 208.0, 29.0, 144.0, 4.0, 48.0, 0.0, 0.0, 0.0, 1.666555145087575E9, 0.0, 2022-10-23 12:59:05.087
0.0, -58171.59958739276, -85597.16768231007, 32320.264854462726, -12496.882676706635, 70526.74985250829, 40759.36713926401, 3901.496994673848, 9518.736245481521, 0.058, 0.9460000000000001, 0.134, 192.0, 0.0, 0.0, 0.0, 0.0, 0.0, 0.0, 0.0, 0.0, 0.0, 1.6665551450875852E9, 0.0, 2022-10-23 12:59:05.087
1.0, -58198.51108771695, -85622.91689192259, 34542.81056437619, -11277.37149922508, 70607.23848429185, 41768.36958746548, 5293.250714927997, 10925.510338009637, 0.058, 0.9460000000000001, 0.134, 192.0, 0.0, 0.0, 0.0, 0.0, 0.0, 0.0, 0.0, 0.0, 0.0, 1.6665551450875947E9, 0.0, 2022-10-23 12:59:05.087
2.0, -58129.488900838965, -85558.38740568011, 33741.746394842434, -11854.761761994572, 70345.20898404229, 41304.14620687321, 4607.968581672738, 9961.032564763138, 0.058, 0.9460000000000001, 0.134, 192.0, 0.0, 0.0, 0.0, 0.0, 0.0, 0.0, 0.0, 0.0, 0.0, 1.6665551450876043E9, 0.0, 2022-10-23 12:59:05.087
3.0, -58133.06517995181, -85559.90732430307, 31902.846026759868, -12820.088901530375, 70371.360525055, 40499.17048205978, 3490.314303674019, 8866.244121342197, 0.058, 0.9460000000000001, 0.134, 192.0, 0.0, 0.0, 0.0, 0.0, 0.0, 0.0, 0.0, 0.0, 0.0, 1.666555145087614E9, 0.0, 2022-10-23 12:59:05.087
4.0, -58163.9776425335, -85586.41649322707, 32098.088514576975, -12620.331361333296, 70501.0453463847, 40658.06903339255, 3749.7733533112237, 9323.113778008674, 0.058, 0.9460000000000001, 0.134, 192.0, 0.0, 0.0, 0.0, 0.0, 0.0, 0.0, 0.0, 0.0, 0.0, 1.6665551450876238E9, 0.0, 2022-10-23 12:59:05.087
5.0, -58213.933791391115, -85634.24922636143, 34255.27772370312, -11402.049529796783, 70625.07517636719, 41677.308580554556, 5149.886625991658, 10792.584513733926, 0.058, 0.9460000000000001, 0.134, 192.0, 0.0, 0.0, 0.0, 0.0, 0.0, 0.0, 0.0, 0.0, 0.0, 1.6665551450876336E9, 0.0, 2022-10-23 12:59:05.087
6.0, -58143.36933414571, -85569.78679535232, 34195.464455540714, -11586.093793641781, 70365.0573331186, 41537.40901200879, 4921.250631958322, 10297.046339159768, 0.058, 0.9460000000000001, 0.134, 192.0, 0.0, 0.0, 0.0, 0.0, 0.0, 0.0, 0.0, 0.0, 0.0, 1.6665551450876431E9, 0.0, 2022-10-23 12:59:05.087
7.0, -58124.68327578107, -85549.67022534255, 32032.48614460065, -12777.754697532022, 70327.50640243369, 40538.97893893468, 3538.348202508474, 8873.687252245814, 0.058, 0.9460000000000001, 0.134, 192.0, 0.0, 0.0, 0.0, 0.0, 0.0, 0.0, 0.0, 0.0, 0.0, 1.666555145087716E9, 0.0, 2022-10-23 12:59:05.087
8.0, -58155.08164824029, -85575.50884193288, 31927.56705612744, -12731.598345231814, 70476.68194492841, 40572.08187247299, 3615.662886579381, 9152.681726536957, 0.058, 0.9540000000000001, 0.134, 192.0, 1.0, 208.0, 29.0, 208.0, 4.0, 48.0, 0.0, 0.0, 0.0, 1.6665551450877273E9, 0.0, 2022-10-23 12:59:05.087
9.0, -58194.68893941509, -85615.71963020798, 33837.322454133326, -11623.980000493528, 70630.08196712518, 41496.97470628914, 4896.6637130574845, 10548.257595092964, 0.058, 0.9540000000000001, 0.134, 192.0, 0.0, 0.0, 0.0, 0.0, 0.0, 0.0, 0.0, 0.0, 0.0, 1.6665551450877373E9, 0.0, 2022-10-23 12:59:05.087
10.0, -58143.682258568086, -85570.05501628578, 34571.35374204561, -11350.372296616113, 70440.382711933, 41738.28413942864, 5196.512364925428, 10620.520784916973, 0.058, 0.9540000000000001, 0.134, 192.0, 0.0, 0.0, 0.0, 0.0, 0.0, 0.0, 0.0, 0.0, 0.0, 1.666555145087747E9, 0.0, 2022-10-23 12:59:05.087
11.0, -58106.08662439426, -85534.5380943463, 32305.289185677673, -12640.02324819842, 70319.95151280779, 40671.658894021384, 3704.9804574227883, 9006.031931165688, 0.058, 0.9540000000000001, 0.134, 192.0, 0.0, 0.0, 0.0, 0.0, 0.0, 0.0, 0.0, 0.0, 0.0, 1.6665551450877569E9, 0.0, 2022-10-23 12:59:05.087
12.0, -58143.14581670116, -85568.35628370718, 31850.475889501085, -12791.948055261142, 70458.71114238634, 40536.20732262222, 3549.836999158502, 9042.129998461009, 0.058, 0.9540000000000001, 0.134, 192.0, 0.0, 0.0, 0.0, 0.0, 0.0, 0.0, 0.0, 0.0, 0.0, 1.6665551450877664E9, 0.0, 2022-10-23 12:59:05.087
13.0, -58202.64616044118, -85626.60492975771, 33382.777378890205, -11889.518724622576, 70599.68359466596, 41290.73516020002, 4611.813081719051, 10252.186388037968, 0.058, 0.9540000000000001, 0.134, 192.0, 0.0, 0.0, 0.0, 0.0, 0.0, 0.0, 0.0, 0.0, 0.0, 1.666555145087776E9, 0.0, 2022-10-23 12:59:05.087
14.0, -58171.42077343712, -85600.76631316738, 34808.68456467206, -11200.034463409718, 70485.44382875488, 41883.95045804387, 5389.251457363541, 10858.656270343814, 0.058, 0.9540000000000001, 0.134, 192.0, 0.0, 0.0, 0.0, 0.0, 0.0, 0.0, 0.0, 0.0, 0.0, 1.666555145087786E9, 0.0, 2022-10-23 12:59:05.087
15.0, -58105.55018252733, -85538.71787055944, 32630.5517709913, -12487.740813224413, 70299.32085267555, 40823.80721852866, 3902.078140029686, 9183.48243039637, 0.058, 0.9540000000000001, 0.134, 192.0, 0.0, 0.0, 0.0, 0.0, 0.0, 0.0, 0.0, 0.0, 0.0, 1.6665551450877955E9, 0.0, 2022-10-23 12:59:05.087
16.0, -58142.005877733936, -85574.01127505438, 31813.796676849925, -12841.434817485193, 70436.06882525311, 40521.87985442637, 3507.703960860248, 8954.779381129669, 0.058, 0.9540000000000001, 0.134, 192.0, 0.0, 0.0, 0.0, 0.0, 0.0, 0.0, 0.0, 0.0, 0.0, 1.6665551450878055E9, 0.0, 2022-10-23 12:59:05.087
17.0, -58190.88914285769, -85616.47958951945, 32986.01156306405, -12117.81944248908, 70588.32890848267, 41131.36722223368, 4369.542523567978, 9982.490239440232, 0.058, 0.9540000000000001, 0.134, 192.0, 0.0, 0.0, 0.0, 0.0, 0.0, 0.0, 0.0, 0.0, 0.0, 1.6665551450878153E9, 0.0, 2022-10-23 12:59:05.087
18.0, -58186.19527652208, -85615.29494706333, 34904.73001059652, -11122.473910149803, 70554.91305052198, 41969.512935818784, 5498.283266816529, 11004.054368025585, 0.054, 0.9580000000000001, 0.11800000000000001, 192.0, 1.0, 176.0, 29.0, 240.0, 3.0, 176.0, 0.0, 0.0, 0.0, 1.6665551450878248E9, 0.0, 2022-10-23 12:59:05.087
19.0, -58111.98748493046, -85542.96470200595, 33048.30587486099, -12273.76756355376, 70297.6444718414, 41022.1342470806, 4167.527457180912, 9428.546956604358, 0.054, 0.9580000000000001, 0.11800000000000001, 192.0, 0.0, 0.0, 0.0, 0.0, 0.0, 0.0, 0.0, 0.0, 0.0, 1.6665551450878353E9, 0.0, 2022-10-23 12:59:05.087
20.0, -58127.16431941561, -85556.1969347235, 31794.23890045153, -12889.55812329747, 70417.02513897719, 40494.45426397971, 3466.442640595751, 8865.662975986359, 0.054, 0.9580000000000001, 0.11800000000000001, 192.0, 0.0, 0.0, 0.0, 0.0, 0.0, 0.0, 0.0, 0.0, 0.0, 1.6665551450878448E9, 0.0, 2022-10-23 12:59:05.087
21.0, -58183.580122420804, -85611.62926097265, 32587.725828614934, -12360.224111106887, 70563.67493434846, 40941.13152517456, 4106.373084351192, 9697.594904612888, 0.054, 0.9580000000000001, 0.11800000000000001, 192.0, 0.0, 0.0, 0.0, 0.0, 0.0, 0.0, 0.0, 0.0, 0.0, 1.6665551450878546E9, 0.0, 2022-10-23 12:59:05.087
22.0, -58193.61605568124, -85622.87218843367, 34802.22491052448, -11156.515616955236, 70600.53296095526, 41953.77730772225, 5478.971359607143, 11034.631554440446, 0.054, 0.9580000000000001, 0.11800000000000001, 192.0, 0.0, 0.0, 0.0, 0.0, 0.0, 0.0, 0.0, 0.0, 0.0, 1.6665551450878642E9, 0.0, 2022-10-23 12:59:05.087
23.0, -58101.8174412033, -85533.10758270117, 33503.96853732688, -12018.801214552072, 70328.6463414009, 41250.61377890275, 4480.876562699862, 9758.637518720332, 0.054, 0.9580000000000001, 0.11800000000000001, 192.0, 0.0, 0.0, 0.0, 0.0, 0.0, 0.0, 0.0, 0.0, 0.0, 1.6665551450878832E9, 0.0, 2022-10-23 12:59:05.087
24.0, -58124.19153740306, -85551.57012362125, 31858.34370354935, -12873.464867289647, 70400.70836552481, 40530.105296385926, 3503.0995015024546, 8857.70575496027, 0.054, 0.9580000000000001, 0.11800000000000001, 192.0, 0.0, 0.0, 0.0, 0.0, 0.0, 0.0, 0.0, 0.0, 0.0, 1.6665551450878944E9, 0.0, 2022-10-23 12:59:05.087
25.0, -58168.559750146844, -85599.89459513362, 32270.509871305214, -12563.066192038797, 70523.03946292872, 40789.00555241174, 3897.965419049909, 9451.01045978194, 0.054, 0.9580000000000001, 0.11800000000000001, 192.0, 0.0, 0.0, 0.0, 0.0, 0.0, 0.0, 0.0, 0.0, 0.0, 1.666555145087904E9, 0.0, 2022-10-23 12:59:05.087
26.0, -58196.320616760335, -85627.94603442503, 34497.68239232092, -11332.066217907217, 70620.82834492068, 41818.41514330091, 5313.791968082424, 10903.53857321007, 0.054, 0.9580000000000001, 0.11800000000000001, 192.0, 0.0, 0.0, 0.0, 0.0, 0.0, 0.0, 0.0, 0.0, 0.0, 1.6665551450879135E9, 0.0, 2022-10-23 12:59:05.087
27.0, -58109.70760699602, -85545.57985610723, 33935.17839135866, -11789.137040273792, 70360.89990864991, 41461.50248783857, 4779.227647689301, 10094.360720439045, 0.054, 0.9580000000000001, 0.11800000000000001, 192.0, 0.0, 0.0, 0.0, 0.0, 0.0, 0.0, 0.0, 0.0, 0.0, 1.6665551450879235E9, 0.0, 2022-10-23 12:59:05.087
28.0, -58112.568630286296, -85543.88112352863, 31930.137506739797, -12879.298672592482, 70357.860071404, 40548.21020939472, 3526.5017779471614, 8852.85542641347, 0.052000000000000005, 0.964, 0.11800000000000001, 192.0, 1.0, 160.0, 30.0, 32.0, 3.0, 176.0, 0.0, 0.0, 0.0, 1.6665551450879333E9, 0.0, 2022-10-23 12:59:05.087
29.0, -58151.1253894717, -85573.18426050953, 32049.808746553514, -12713.269914778462, 70503.45933478586, 40689.16030992989, 3752.2096934568517, 9275.392803596593, 0.052000000000000005, 0.964, 0.11800000000000001, 192.0, 0.0, 0.0, 0.0, 0.0, 0.0, 0.0, 0.0, 0.0, 0.0, 1.666555145087944E9, 0.0, 2022-10-23 12:59:05.087
30.0, -58181.52376193092, -85601.54862422332, 34137.34991995691, -11531.4214267041, 70613.58637971716, 41679.320237555534, 5121.29874483332, 10721.97535299961, 0.052000000000000005, 0.964, 0.11800000000000001, 192.0, 0.0, 0.0, 0.0, 0.0, 0.0, 0.0, 0.0, 0.0, 0.0, 1.6665551450879548E9, 0.0, 2022-10-23 12:59:05.087
31.0, -58113.28388610887, -85553.96176027796, 34341.42134683387, -11570.089944611782, 70384.59275777254, 41661.8858768804, 5069.219180252455, 10414.817680694781, 0.052000000000000005, 0.964, 0.11800000000000001, 192.0, 0.0, 0.0, 0.0, 0.0, 0.0, 0.0, 0.0, 0.0, 0.0, 1.6665551450879643E9, 0.0, 2022-10-23 12:59:05.087
32.0, -58115.54141229885, -85560.26495221436, 32101.48597973418, -12824.626305654801, 70336.2012310268, 40612.91850959283, 3625.1400262284315, 8906.633723572937, 0.052000000000000005, 0.964, 0.11800000000000001, 192.0, 0.0, 0.0, 0.0, 0.0, 0.0, 0.0, 0.0, 0.0, 0.0, 1.6665551450879743E9, 0.0, 2022-10-23 12:59:05.087
33.0, -58157.94267153057, -85597.0559235878, 31896.74400052357, -12830.616573168823, 70488.32720378962, 40606.81648335654, 3645.0777822825653, 9122.395112800015, 0.052000000000000005, 0.964, 0.11800000000000001, 192.0, 0.0, 0.0, 0.0, 0.0, 0.0, 0.0, 0.0, 0.0, 0.0, 1.6665551450879836E9, 0.0, 2022-10-23 12:59:05.087
34.0, -58209.105814588765, -85648.82256374629, 33677.75335046689, -11797.00485432206, 70620.18014433148, 41472.16426994375, 4851.423782279942, 10452.30155614633, 0.052000000000000005, 0.964, 0.11800000000000001, 192.0, 0.0, 0.0, 0.0, 0.0, 0.0, 0.0, 0.0, 0.0, 0.0, 1.6665551450879931E9, 0.0, 2022-10-23 12:59:05.087
35.0, -58163.46355241103, -85611.91983365058, 34655.64217038658, -11379.92130278603, 70447.98230504779, 41833.79314348616, 5314.440168671628, 10706.999684214556, 0.052000000000000005, 0.964, 0.11800000000000001, 192.0, 0.0, 0.0, 0.0, 0.0, 0.0, 0.0, 0.0, 0.0, 0.0, 1.6665551450880036E9, 0.0, 2022-10-23 12:59:05.088
36.0, -58110.601676774226, -85565.20468773898, 32365.862413151553, -12709.671283921158, 70301.10899223197, 40731.04747903913, 3783.0327490607206, 9035.066847213131, 0.052000000000000005, 0.964, 0.11800000000000001, 192.0, 0.0, 0.0, 0.0, 0.0, 0.0, 0.0, 0.0, 0.0, 0.0, 1.6665551450880132E9, 0.0, 2022-10-23 12:59:05.088
37.0, -58147.34794465875, -85602.48739749043, 31786.281679425443, -12930.059484250485, 70449.92690681541, 40538.464848812204, 3548.406487513362, 8987.479983267784, 0.052000000000000005, 0.964, 0.11800000000000001, 192.0, 0.0, 0.0, 0.0, 0.0, 0.0, 0.0, 0.0, 0.0, 0.0, 1.6665551450880232E9, 0.0, 2022-10-23 12:59:05.088
38.0, -58189.61509342374, -85644.93336021106, 33187.49018758419, -12092.316102065577, 70606.54558021374, 41236.040441517885, 4537.292365705057, 10137.991325615803, 0.052000000000000005, 0.9560000000000001, 0.122, 192.0, 1.0, 160.0, 29.0, 224.0, 3.0, 208.0, 0.0, 0.0, 0.0, 1.6665551450880418E9, 0.0, 2022-10-23 12:59:05.088
39.0, -58165.13993324518, -85627.05196464682, 34790.89257608564, -11297.152793068028, 70519.55259079368, 41910.61608917905, 5439.140550987787, 10894.8213928725, 0.052000000000000005, 0.9560000000000001, 0.122, 192.0, 0.0, 0.0, 0.0, 0.0, 0.0, 0.0, 0.0, 0.0, 0.0, 1.6665551450880525E9, 0.0, 2022-10-23 12:59:05.088
40.0, -58100.811612702804, -85567.37280695114, 32679.747960537432, -12564.317889728296, 70301.35486142097, 40862.87806783654, 3975.101289165174, 9224.654343683045, 0.052000000000000005, 0.9560000000000001, 0.122, 192.0, 0.0, 0.0, 0.0, 0.0, 0.0, 0.0, 0.0, 0.0, 0.0, 1.666555145088062E9, 0.0, 2022-10-23 12:59:05.088
41.0, -58136.686162553575, -85597.21238579898, 31697.209977771043, -13022.260430128626, 70425.78702280368, 40465.218182232165, 3461.614663793405, 8873.79901096809, 0.052000000000000005, 0.9560000000000001, 0.122, 192.0, 0.0, 0.0, 0.0, 0.0, 0.0, 0.0, 0.0, 0.0, 0.0, 1.666555145088072E9, 0.0, 2022-10-23 12:59:05.088
42.0, -58172.58306414879, -85629.66711874808, 32728.966501828017, -12371.042355423255, 70582.13747526855, 41008.65614517405, 4239.03068769344, 9834.007601023628, 0.052000000000000005, 0.9560000000000001, 0.122, 192.0, 0.0, 0.0, 0.0, 0.0, 0.0, 0.0, 0.0, 0.0, 0.0, 1.6665551450880816E9, 0.0, 2022-10-23 12:59:05.088
43.0, -58173.56654090483, -85633.06458390529, 34777.14625324563, -11284.747574895331, 70575.96839379887, 41919.10975207207, 5469.874199613834, 10987.31291142856, 0.052000000000000005, 0.9560000000000001, 0.122, 192.0, 0.0, 0.0, 0.0, 0.0, 0.0, 0.0, 0.0, 0.0, 0.0, 1.6665551450880916E9, 0.0, 2022-10-23 12:59:05.088
44.0, -58106.53365928336, -85570.05501628578, 33128.81685838901, -12312.39137797253, 70311.01081502567, 41081.90281175409, 4276.089880000339, 9534.6506875337, 0.052000000000000005, 0.9560000000000001, 0.122, 192.0, 0.0, 0.0, 0.0, 0.0, 0.0, 0.0, 0.0, 0.0, 0.0, 1.6665551450881011E9, 0.0, 2022-10-23 12:59:05.088
45.0, -58131.38879911767, -85589.2551647729, 31755.033940676924, -12996.287703071559, 70399.14374341295, 40499.751627415615, 3494.315265931519, 8863.56191200756, 0.052000000000000005, 0.9560000000000001, 0.122, 192.0, 0.0, 0.0, 0.0, 0.0, 0.0, 0.0, 0.0, 0.0, 0.0, 1.6665551450881107E9, 0.0, 2022-10-23 12:59:05.088
46.0, -58164.20115997805, -85616.16666509709, 32394.852625710086, -12562.172122260587, 70550.17448069746, 40856.507820666775, 4027.203205490495, 9592.362891717303, 0.052000000000000005, 0.9560000000000001, 0.122, 192.0, 0.0, 0.0, 0.0, 0.0, 0.0, 0.0, 0.0, 0.0, 0.0, 1.6665551450881205E9, 0.0, 2022-10-23 12:59:05.088
47.0, -58179.690918885586, -85633.08693564976, 34616.21369316741, -11354.730886784899, 70616.13447858507, 41859.38589088749, 5405.188251160175, 10967.844542007988, 0.054, 0.9540000000000001, 0.12, 192.0, 1.0, 176.0, 29.0, 208.0, 3.0, 192.0, 0.0, 0.0, 0.0, 1.6665551450881307E9, 0.0, 2022-10-23 12:59:05.088
48.0, -58103.627932504176, -85564.62354238314, 33548.537915770765, -12094.77479395566, 70333.31785599206, 41257.34165398379, 4547.5294646655875, 9835.885147557872, 0.054, 0.9540000000000001, 0.12, 192.0, 0.0, 0.0, 0.0, 0.0, 0.0, 0.0, 0.0, 0.0, 0.0, 1.6665551450881412E9, 0.0, 2022-10-23 12:59:05.088
49.0, -58124.01272344741, -85581.07442630225, 31789.0532957379, -13019.131185904884, 70372.88044367796, 40480.50677543959, 3487.341521661463, 8829.721370902225, 0.054, 0.9540000000000001, 0.12, 192.0, 0.0, 0.0, 0.0, 0.0, 0.0, 0.0, 0.0, 0.0, 0.0, 1.6665551450881507E9, 0.0, 2022-10-23 12:59:05.088
50.0, -58170.571407147814, -85623.96742391199, 32087.024401071598, -12769.685717783657, 70498.16197134995, 40681.42660634835, 3808.5807929731363, 9351.99223184493, 0.054, 0.9540000000000001, 0.12, 192.0, 0.0, 0.0, 0.0, 0.0, 0.0, 0.0, 0.0, 0.0, 0.0, 1.6665551450881605E9, 0.0, 2022-10-23 12:59:05.088
51.0, -58209.441090755594, -85661.25013366345, 34302.48460799272, -11525.788787101363, 70620.51542049831, 41715.23949089521, 5232.968060132034, 10829.800168252012, 0.054, 0.9540000000000001, 0.12, 192.0, 0.0, 0.0, 0.0, 0.0, 0.0, 0.0, 0.0, 0.0, 0.0, 1.6665551450881712E9, 0.0, 2022-10-23 12:59:05.088
52.0, -58124.63857229216, -85580.49328094641, 34032.229665783605, -11812.360502762855, 70370.9581936548, 41498.762845845566, 4885.10786117409, 10206.611181093596, 0.054, 0.9540000000000001, 0.12, 192.0, 0.0, 0.0, 0.0, 0.0, 0.0, 0.0, 0.0, 0.0, 0.0, 1.6665551450881808E9, 0.0, 2022-10-23 12:59:05.088
53.0, -58119.78824374536, -85575.03945529932, 31948.600047659882, -12949.259632737594, 70353.63559170194, 40546.086793671464, 3570.8029354575797, 8872.65907200087, 0.054, 0.9540000000000001, 0.12, 192.0, 0.0, 0.0, 0.0, 0.0, 0.0, 0.0, 0.0, 0.0, 0.0, 1.6665551450881903E9, 0.0, 2022-10-23 12:59:05.088
54.0, -58162.971814033015, -85612.2551098174, 31940.843992333892, -12855.002326369564, 70486.40495376647, 40614.8854631049, 3705.8968789454557, 9202.570820161203, 0.054, 0.9540000000000001, 0.12, 192.0, 0.0, 0.0, 0.0, 0.0, 0.0, 0.0, 0.0, 0.0, 0.0, 1.6665551450882204E9, 0.0, 2022-10-23 12:59:05.088
55.0, -58216.3924832812, -85663.59706683125, 33945.013158919, -11703.619265987787, 70626.68450196797, 41572.56830603699, 5032.115284456645, 10622.353627962308, 0.054, 0.9540000000000001, 0.12, 192.0, 0.0, 0.0, 0.0, 0.0, 0.0, 0.0, 0.0, 0.0, 0.0, 1.6665551450882304E9, 0.0, 2022-10-23 12:59:05.088
56.0, -58152.1759214611, -85607.33772603724, 34482.12557818003, -11529.18625225857, 70428.51393562721, 41742.3521569195, 5210.7057226545485, 10548.861092193258, 0.054, 0.9540000000000001, 0.12, 192.0, 0.0, 0.0, 0.0, 0.0, 0.0, 0.0, 0.0, 0.0, 0.0, 1.6665551450882406E9, 0.0, 2022-10-23 12:59:05.088
57.0, -58114.580287287274, -85568.44569068501, 32196.65970762488, -12830.102483046352, 70324.35480646549, 40657.130260125436, 3710.657800514436, 8953.170055528886, 0.058, 0.9560000000000001, 0.12, 192.0, 1.0, 208.0, 29.0, 224.0, 3.0, 192.0, 0.0, 0.0, 0.0, 1.6665551450882509E9, 0.0, 2022-10-23 12:59:05.088
58.0, -58153.181749961586, -85601.92860387906, 31838.40594749522, -12928.51721388307, 70476.90546237296, 40561.3753868789, 3618.546261614116, 9063.721783604835, 0.058, 0.9560000000000001, 0.12, 192.0, 0.0, 0.0, 0.0, 0.0, 0.0, 0.0, 0.0, 0.0, 0.0, 1.6665551450882616E9, 0.0, 2022-10-23 12:59:05.088
59.0, -58209.530497733416, -85655.66219754961, 33504.52733093826, -11944.638126449363, 70625.23163857838, 41377.07994903087, 4761.100382936047, 10344.208519960466, 0.058, 0.9560000000000001, 0.12, 192.0, 0.0, 0.0, 0.0, 0.0, 0.0, 0.0, 0.0, 0.0, 0.0, 1.6665551450882719E9, 0.0, 2022-10-23 12:59:05.088
60.0, -58170.0796687698, -85620.59231049924, 34728.12887765514, -11373.618110849633, 70487.92487238943, 41861.03991997718, 5394.660579521726, 10787.153039831286, 0.058, 0.9560000000000001, 0.12, 192.0, 0.0, 0.0, 0.0, 0.0, 0.0, 0.0, 0.0, 0.0, 0.0, 1.6665551450882816E9, 0.0, 2022-10-23 12:59:05.088
61.0, -58126.0690839373, -85576.91700183356, 32484.773693653788, -12690.247617989495, 70311.03316677012, 40772.889944659466, 3876.328930417172, 9104.04433060221, 0.058, 0.9560000000000001, 0.12, 192.0, 0.0, 0.0, 0.0, 0.0, 0.0, 0.0, 0.0, 0.0, 0.0, 1.6665551450882916E9, 0.0, 2022-10-23 12:59:05.088
62.0, -58167.59862513526, -85617.55247325331, 31780.492577611516, -12983.860133154409, 70444.4283776794, 40517.364802046395, 3552.8768364044236, 8959.652061420926, 0.058, 0.9560000000000001, 0.12, 192.0, 0.0, 0.0, 0.0, 0.0, 0.0, 0.0, 0.0, 0.0, 0.0, 1.6665551450883012E9, 0.0, 2022-10-23 12:59:05.088
63.0, -58214.15730883567, -85662.3230173973, 33042.71793874716, -12219.743397205282, 70591.63696666204, 41147.6616439416, 4454.1438763313145, 10029.764178963207, 0.058, 0.9560000000000001, 0.12, 192.0, 0.0, 0.0, 0.0, 0.0, 0.0, 0.0, 0.0, 0.0, 0.0, 1.6665551450883112E9, 0.0, 2022-10-23 12:59:05.088
64.0, -58215.07373035834, -85667.64273257766, 34827.68354745908, -11305.959380383418, 70528.56034380918, 41914.95232760338, 5482.234714297619, 10935.725085225713, 0.058, 0.9560000000000001, 0.12, 192.0, 0.0, 0.0, 0.0, 0.0, 0.0, 0.0, 0.0, 0.0, 0.0, 1.6665551450883212E9, 0.0, 2022-10-23 12:59:05.088
65.0, -58137.75904628743, -85593.61375494167, 32840.81463108237, -12519.368531628674, 70301.46662014326, 40915.20350160641, 4077.4275752815697, 9313.770748826355, 0.058, 0.9560000000000001, 0.12, 192.0, 0.0, 0.0, 0.0, 0.0, 0.0, 0.0, 0.0, 0.0, 0.0, 1.6665551450883312E9, 0.0, 2022-10-23 12:59:05.088
0.0, 0.0, 0.0, 0.0, 0.0, 0.0, 0.0, 0.0, 0.0, 0.058, 0.9560000000000001, 0.12, 192.0, 0.0, 0.0, 0.0, 0.0, 0.0, 0.0, 0.0, 0.0, 0.0, 1.6665551451582165E9, 0.0, 2022-10-23 12:59:05.158
1.0, -58406.20349719567, -85917.33406988789, 32985.117493285834, -12265.653880316482, 70723.08757580371, 41523.90855835778, 4488.520859303577, 9365.179761073561, 0.05, 0.9540000000000001, 0.128, 192.0, 1.0, 144.0, 29.0, 208.0, 4.0, 0.0, 0.0, 0.0, 0.0, 1.6665551451742976E9, 0.0, 2022-10-23 12:59:05.174
2.0, -58441.47454994614, -85949.3864714368, 31841.714005674603, -12810.455299670137, 70844.1222720292, 41054.54427654079, 3866.9635494903982, 8884.393737839906, 0.05, 0.9540000000000001, 0.128, 192.0, 0.0, 0.0, 0.0, 0.0, 0.0, 0.0, 0.0, 0.0, 0.0, 1.6665551454527423E9, 0.0, 2022-10-23 12:59:05.452
3.0, -58490.04489064752, -85990.40192251229, 32708.492303906954, -12248.241871385799, 70981.38433472924, 41518.79000887752, 4536.934737793772, 9740.443198733712, 0.05, 0.9540000000000001, 0.128, 192.0, 0.0, 0.0, 0.0, 0.0, 0.0, 0.0, 0.0, 0.0, 0.0, 1.6665551454528136E9, 0.0, 2022-10-23 12:59:05.452
4.0, -58491.07307089247, -85993.12883533584, 34862.30639962034, -11087.649892288435, 71011.84976242183, 42489.12393917131, 5847.283404741694, 11007.205963993783, 0.05, 0.9540000000000001, 0.128, 192.0, 0.0, 0.0, 0.0, 0.0, 0.0, 0.0, 0.0, 0.0, 0.0, 1.6665551454530077E9, 0.0, 2022-10-23 12:59:05.453
5.0, -58413.98190426611, -85921.64795656776, 33410.873521670524, -12020.723464575227, 70744.67936094754, 41722.950842732294, 4761.3239003806, 9658.05466867145, 0.05, 0.9540000000000001, 0.128, 192.0, 0.0, 0.0, 0.0, 0.0, 0.0, 0.0, 0.0, 0.0, 0.0, 1.6665551454530182E9, 0.0, 2022-10-23 12:59:05.453
6.0, -58431.57272715244, -85939.23877945408, 31914.670099576724, -12762.577863046869, 70841.14949001664, 41101.460588152484, 3904.134500519574, 8883.790240739614, 0.05, 0.9540000000000001, 0.128, 192.0, 0.0, 0.0, 0.0, 0.0, 0.0, 0.0, 0.0, 0.0, 0.0, 1.6665551454530325E9, 0.0, 2022-10-23 12:59:05.453
7.0, -58461.9487478672, -85966.08322454491, 32425.943902247418, -12389.795469021257, 70977.4057242162, 41407.56772846791, 4358.679575762699, 9528.526309552946, 0.046, 0.9580000000000001, 0.124, 192.0, 1.0, 112.0, 29.0, 240.0, 3.0, 224.0, 0.0, 0.0, 0.0, 1.6665551454530432E9, 0.0, 2022-10-23 12:59:05.453
8.0, -58497.398614573314, -85998.49325400511, 34655.91039132004, -11168.004413605264, 71041.6669895252, 42421.95694708311, 5752.422601273371, 10942.810588218044, 0.046, 0.9580000000000001, 0.124, 192.0, 0.0, 0.0, 0.0, 0.0, 0.0, 0.0, 0.0, 0.0, 0.0, 1.6665551454530542E9, 0.0, 2022-10-23 12:59:05.453
9.0, -58409.9362385197, -85914.20482566414, 33878.67318137565, -11744.768827530006, 70767.0981606362, 41952.1009268881, 5074.360081477175, 9992.034434322648, 0.046, 0.9580000000000001, 0.124, 192.0, 0.0, 0.0, 0.0, 0.0, 0.0, 0.0, 0.0, 0.0, 0.0, 1.666555145453064E9, 0.0, 2022-10-23 12:59:05.453
10.0, -58420.08393050241, -85919.81511352243, 31956.244344263596, -12768.702241027624, 70795.30606213881, 41086.61902983416, 3892.690407358457, 8838.393847750885, 0.046, 0.9580000000000001, 0.124, 192.0, 0.0, 0.0, 0.0, 0.0, 0.0, 0.0, 0.0, 0.0, 0.0, 1.6665551454530737E9, 0.0, 2022-10-23 12:59:05.453
11.0, -58468.43075375924, -85965.92676233372, 32140.713291253247, -12571.15752353162, 70928.96949398154, 41247.573941656825, 4149.9589860390415, 9295.710539306467, 0.046, 0.9580000000000001, 0.124, 192.0, 0.0, 0.0, 0.0, 0.0, 0.0, 0.0, 0.0, 0.0, 0.0, 1.6665551454530835E9, 0.0, 2022-10-23 12:59:05.453
12.0, -58495.2081436167, -85993.95584988069, 34254.09308124698, -11382.223532464926, 71057.20145192165, 42228.79317150035, 5509.436787299727, 10735.498158395072, 0.046, 0.9580000000000001, 0.124, 192.0, 0.0, 0.0, 0.0, 0.0, 0.0, 0.0, 0.0, 0.0, 0.0, 1.666555145453093E9, 0.0, 2022-10-23 12:59:05.453
13.0, -58441.42984645723, -85946.23487546861, 34295.93554686732, -11491.814135529297, 70834.64513238014, 42159.256894499886, 5366.8997129082345, 10335.84896753418, 0.046, 0.9580000000000001, 0.124, 192.0, 0.0, 0.0, 0.0, 0.0, 0.0, 0.0, 0.0, 0.0, 0.0, 1.6665551454531024E9, 0.0, 2022-10-23 12:59:05.453
14.0, -58421.782663081016, -85923.77137229101, 32112.661851961835, -12695.924961081144, 70775.32360259576, 41151.57319922128, 3975.704786265467, 8891.725110021247, 0.046, 0.9580000000000001, 0.124, 192.0, 0.0, 0.0, 0.0, 0.0, 0.0, 0.0, 0.0, 0.0, 0.0, 1.6665551454531121E9, 0.0, 2022-10-23 12:59:05.453
15.0, -58458.90891062128, -85960.47293668664, 31969.610687447872, -12672.902664292176, 70918.33006362082, 41160.64800747013, 4023.582222888735, 9138.600127530113, 0.046, 0.9580000000000001, 0.124, 192.0, 0.0, 0.0, 0.0, 0.0, 0.0, 0.0, 0.0, 0.0, 0.0, 1.6665551454531217E9, 0.0, 2022-10-23 12:59:05.453
16.0, -58512.68720778075, -86011.54667276701, 33839.11059368975, -11591.547619288876, 71054.09455944235, 42055.097765338156, 5269.200237894087, 10503.755271882448, 0.046, 0.9580000000000001, 0.124, 192.0, 0.0, 0.0, 0.0, 0.0, 0.0, 0.0, 0.0, 0.0, 0.0, 1.6665551454531307E9, 0.0, 2022-10-23 12:59:05.453
17.0, -58446.50369244858, -85951.77810809352, 34644.75687083684, -11266.195626997427, 70886.92586266111, 42334.449867540585, 5619.496776997659, 10643.699543917126, 0.044, 0.9520000000000001, 0.126, 192.0, 1.0, 96.0, 29.0, 192.0, 3.0, 240.0, 0.0, 0.0, 0.0, 1.6665551454531405E9, 0.0, 2022-10-23 12:59:05.453
18.0, -58406.3376076624, -85908.70629652814, 32385.397837805493, -12549.632793621158, 70771.79202697183, 41272.33967451331, 4136.950270766052, 9038.129036203509, 0.044, 0.9520000000000001, 0.126, 192.0, 0.0, 0.0, 0.0, 0.0, 0.0, 0.0, 0.0, 0.0, 0.0, 1.6665551454531503E9, 0.0, 2022-10-23 12:59:05.453
19.0, -58458.3501170099, -85960.96467506465, 31909.417439629728, -12710.878278121743, 70889.20574059556, 41128.7073646435, 3970.0497949182745, 9051.294213687685, 0.044, 0.9520000000000001, 0.126, 192.0, 0.0, 0.0, 0.0, 0.0, 0.0, 0.0, 0.0, 0.0, 0.0, 1.6665551454531915E9, 0.0, 2022-10-23 12:59:05.453
20.0, -58505.28878036604, -86005.51170176407, 33397.171902319424, -11834.600488495886, 71029.28412309696, 41849.37230937151, 4994.452595049453, 10222.033884767758, 0.044, 0.9520000000000001, 0.126, 192.0, 0.0, 0.0, 0.0, 0.0, 0.0, 0.0, 0.0, 0.0, 0.0, 1.6665551454532013E9, 0.0, 2022-10-23 12:59:05.453
21.0, -58468.83308515944, -85972.5428786925, 34867.96139096754, -11111.990942000264, 70944.92863952264, 42456.91507541121, 5798.556601829124, 10868.044003015042, 0.044, 0.9520000000000001, 0.126, 192.0, 0.0, 0.0, 0.0, 0.0, 0.0, 0.0, 0.0, 0.0, 0.0, 1.6665551454532113E9, 0.0, 2022-10-23 12:59:05.453
22.0, -58404.86239252835, -85910.02504945101, 32741.5281822119, -12358.458323294917, 70753.97768664095, 41435.30624333695, 4357.494933306567, 9228.25297454035, 0.044, 0.9520000000000001, 0.126, 192.0, 0.0, 0.0, 0.0, 0.0, 0.0, 0.0, 0.0, 0.0, 0.0, 1.6665551454532208E9, 0.0, 2022-10-23 12:59:05.453
23.0, -58441.92158483525, -85947.97831153612, 31891.200767898652, -12728.08912135233, 70880.75678119145, 41115.43042843705, 3939.673774203512, 8966.603453946525, 0.044, 0.9520000000000001, 0.126, 192.0, 0.0, 0.0, 0.0, 0.0, 0.0, 0.0, 0.0, 0.0, 0.0, 1.66655514545323E9, 0.0, 2022-10-23 12:59:05.453
24.0, -58500.32669309696, -85998.11327434937, 33005.79285690699, -12043.544595664096, 71014.75548920101, 41681.93539165681, 4750.237435130767, 9946.25806167818, 0.044, 0.9520000000000001, 0.126, 192.0, 0.0, 0.0, 0.0, 0.0, 0.0, 0.0, 0.0, 0.0, 0.0, 1.66655514545324E9, 0.0, 2022-10-23 12:59:05.453
25.0, -58504.08178616546, -86009.6020709994, 34955.82609842135, -11031.189385794329, 70978.16568352768, 42531.21227398065, 5894.02090239774, 10997.7958795781, 0.044, 0.9520000000000001, 0.126, 192.0, 0.0, 0.0, 0.0, 0.0, 0.0, 0.0, 0.0, 0.0, 0.0, 1.6665551454532497E9, 0.0, 2022-10-23 12:59:05.453
26.0, -58415.99356126709, -85929.40401189376, 33151.88385866688, -12143.680410823872, 70731.2459625299, 41616.265966447114, 4601.888907180894, 9461.761648864944, 0.044, 0.9520000000000001, 0.126, 192.0, 0.0, 0.0, 0.0, 0.0, 0.0, 0.0, 0.0, 0.0, 0.0, 1.6665551454532592E9, 0.0, 2022-10-23 12:59:05.453
27.0, -58443.82148311395, -85952.26984647154, 31903.74009653808, -12740.673153480668, 70849.35258023175, 41109.79778883431, 3913.4775297018923, 8894.720243778258, 0.046, 0.9480000000000001, 0.13, 192.0, 1.0, 112.0, 29.0, 160.0, 4.0, 16.0, 0.0, 0.0, 0.0, 1.6665551454532688E9, 0.0, 2022-10-23 12:59:05.453
28.0, -58486.26744583457, -85992.9947248691, 32655.675131759064, -12239.479987559318, 70984.46887546407, 41525.62964268084, 4514.270068916091, 9678.171238681227, 0.046, 0.9480000000000001, 0.13, 192.0, 0.0, 0.0, 0.0, 0.0, 0.0, 0.0, 0.0, 0.0, 0.0, 1.6665551454532804E9, 0.0, 2022-10-23 12:59:05.453
29.0, -58488.83789644694, -85995.296954548, 34831.572750994295, -11071.958967680808, 71033.32978884337, 42489.50391882705, 5837.493340670269, 10986.240027694706, 0.046, 0.9480000000000001, 0.13, 192.0, 0.0, 0.0, 0.0, 0.0, 0.0, 0.0, 0.0, 0.0, 0.0, 1.66655514545329E9, 0.0, 2022-10-23 12:59:05.453
30.0, -58413.35605542136, -85924.7324973026, 33610.74282058988, -11884.668396075773, 70764.63946874613, 41828.78635272817, 4891.768681021772, 9774.082574138949, 0.046, 0.9480000000000001, 0.13, 192.0, 0.0, 0.0, 0.0, 0.0, 0.0, 0.0, 0.0, 0.0, 0.0, 1.6665551454533024E9, 0.0, 2022-10-23 12:59:05.453
31.0, -58423.6378578708, -85927.57116884842, 31951.058739549964, -12736.716894712079, 70836.23210623648, 41109.641326623125, 3906.079102287186, 8857.504589260172, 0.046, 0.9480000000000001, 0.13, 192.0, 0.0, 0.0, 0.0, 0.0, 0.0, 0.0, 0.0, 0.0, 0.0, 1.6665551454533117E9, 0.0, 2022-10-23 12:59:05.453
32.0, -58487.47444003516, -85980.47774797413, 32347.288113509196, -12428.016952039832, 70958.71966585156, 41364.451213413624, 4289.053891784417, 9434.96190726303, 0.046, 0.9480000000000001, 0.13, 192.0, 0.0, 0.0, 0.0, 0.0, 0.0, 0.0, 0.0, 0.0, 0.0, 1.6665551454533212E9, 0.0, 2022-10-23 12:59:05.453
33.0, -58504.30530361001, -86010.38438205533, 34553.80762264819, -11211.255039126283, 71050.38416986277, 42370.41382436918, 5678.952417248776, 10871.329709449972, 0.046, 0.9480000000000001, 0.13, 192.0, 0.0, 0.0, 0.0, 0.0, 0.0, 0.0, 0.0, 0.0, 0.0, 1.6665551454533308E9, 0.0, 2022-10-23 12:59:05.453
34.0, -58434.27728823153, -85950.36994819283, 34069.154747623776, -11619.420244624645, 70801.58690233075, 42049.308663524236, 5194.0313212908895, 10113.85144160407, 0.046, 0.9480000000000001, 0.13, 192.0, 0.0, 0.0, 0.0, 0.0, 0.0, 0.0, 0.0, 0.0, 0.0, 1.6665551454533403E9, 0.0, 2022-10-23 12:59:05.453
35.0, -58438.9935063116, -85948.26888421403, 32038.677577814768, -12720.400121259705, 70787.97468995747, 41125.175789019566, 3926.4191897415153, 8845.099371087477, 0.046, 0.9480000000000001, 0.13, 192.0, 0.0, 0.0, 0.0, 0.0, 0.0, 0.0, 0.0, 0.0, 0.0, 1.6665551454534512E9, 0.0, 2022-10-23 12:59:05.453
36.0, -58485.97687315666, -85992.36887602435, 32104.12348557991, -12586.736689416968, 70924.90147649068, 41228.79847631437, 4109.435273341569, 9232.320992031217, 0.046, 0.9480000000000001, 0.13, 192.0, 0.0, 0.0, 0.0, 0.0, 0.0, 0.0, 0.0, 0.0, 0.0, 1.6665551454534934E9, 0.0, 2022-10-23 12:59:05.453
37.0, -58525.24888816463, -86031.79735324351, 34156.08068181046, -11418.031027082328, 71062.7223328021, 42198.14892985212, 5452.261024983051, 10670.365175052308, 0.05, 0.9520000000000001, 0.128, 192.0, 1.0, 144.0, 29.0, 192.0, 4.0, 0.0, 0.0, 0.0, 0.0, 1.666555145453534E9, 0.0, 2022-10-23 12:59:05.453
38.0, -58451.398724484294, -85963.289256488, 34480.89623223498, -11364.811523534241, 70854.56053668982, 42256.017596246915, 5490.728377190635, 10460.147018450143, 0.05, 0.9520000000000001, 0.128, 192.0, 0.0, 0.0, 0.0, 0.0, 0.0, 0.0, 0.0, 0.0, 0.0, 1.6665551454535775E9, 0.0, 2022-10-23 12:59:05.453
39.0, -58441.340439479405, -85952.87334357183, 32232.981292364755, -12622.678294501102, 70774.98832642894, 41204.83740625827, 4037.574414917757, 8932.740561096736, 0.05, 0.9520000000000001, 0.128, 192.0, 0.0, 0.0, 0.0, 0.0, 0.0, 0.0, 0.0, 0.0, 0.0, 1.6665551454536235E9, 0.0, 2022-10-23 12:59:05.453
40.0, -58476.61149222988, -85985.17161430974, 32016.661109526292, -12631.127253905208, 70929.03654921491, 41199.472987589004, 4047.2974237558155, 9137.795464729723, 0.05, 0.9520000000000001, 0.128, 192.0, 0.0, 0.0, 0.0, 0.0, 0.0, 0.0, 0.0, 0.0, 0.0, 1.6665551454536335E9, 0.0, 2022-10-23 12:59:05.453
41.0, -58522.54432708554, -86021.51555079408, 33764.23224976448, -11613.988770722006, 71075.775751564, 42044.23481753288, 5222.395685004674, 10441.528015318872, 0.05, 0.9520000000000001, 0.128, 192.0, 0.0, 0.0, 0.0, 0.0, 0.0, 0.0, 0.0, 0.0, 0.0, 1.666555145453644E9, 0.0, 2022-10-23 12:59:05.453
42.0, -58476.41032652978, -85986.02098059905, 34785.21523299399, -11174.844047408587, 70911.66924377314, 42417.48659819205, 5708.657885629879, 10732.8830042938, 0.05, 0.9520000000000001, 0.128, 192.0, 0.0, 0.0, 0.0, 0.0, 0.0, 0.0, 0.0, 0.0, 0.0, 1.6665551454536543E9, 0.0, 2022-10-23 12:59:05.453
43.0, -58425.60481138287, -85934.2319886961, 32492.596804213146, -12504.258752376885, 70753.39654128511, 41311.16465463217, 4177.004596829963, 9055.205768967364, 0.05, 0.9520000000000001, 0.128, 192.0, 0.0, 0.0, 0.0, 0.0, 0.0, 0.0, 0.0, 0.0, 0.0, 1.6665551454536643E9, 0.0, 2022-10-23 12:59:05.453
44.0, -58468.34134678142, -85969.92772459122, 31899.26974764702, -12723.03762710543, 70910.41754608364, 41118.53732091634, 3937.68446894699, 9000.846326452056, 0.05, 0.9520000000000001, 0.128, 192.0, 0.0, 0.0, 0.0, 0.0, 0.0, 0.0, 0.0, 0.0, 0.0, 1.6665551454536743E9, 0.0, 2022-10-23 12:59:05.453
45.0, -58538.19054820426, -86042.32502488197, 33288.69888647782, -11889.87635253386, 71039.83414647987, 41815.39765779945, 4916.8026348117155, 10135.353819770076, 0.05, 0.9520000000000001, 0.128, 192.0, 0.0, 0.0, 0.0, 0.0, 0.0, 0.0, 0.0, 0.0, 0.0, 1.6665551454536846E9, 0.0, 2022-10-23 12:59:05.453
46.0, -58507.63571353385, -86018.4533618037, 34936.91652261216, -11065.566368766591, 70958.49614840701, 42507.00533473556, 5840.019087793718, 10920.324733296005, 0.048, 0.9460000000000001, 0.13, 192.0, 1.0, 128.0, 29.0, 144.0, 4.0, 16.0, 0.0, 0.0, 0.0, 1.6665551454536943E9, 0.0, 2022-10-23 12:59:05.453
47.0, -58429.49401491809, -85941.85393355537, 32889.34026829484, -12285.099897992599, 70753.48594826293, 41507.81530234996, 4429.288736497014, 9299.21976318595, 0.048, 0.9460000000000001, 0.13, 192.0, 0.0, 0.0, 0.0, 0.0, 0.0, 0.0, 0.0, 0.0, 0.0, 1.6665551454537055E9, 0.0, 2022-10-23 12:59:05.453
48.0, -58460.51823622206, -85969.07835830192, 31922.381451413807, -12715.32627526835, 70883.34958354826, 41145.27000728488, 3941.6854312044898, 8956.656927663915, 0.048, 0.9460000000000001, 0.13, 192.0, 0.0, 0.0, 0.0, 0.0, 0.0, 0.0, 0.0, 0.0, 0.0, 1.6665551454537156E9, 0.0, 2022-10-23 12:59:05.453
49.0, -58508.2615623786, -86016.57581526945, 32909.009803415516, -12099.736881224739, 71016.70009096862, 41658.354301256455, 4679.270646485168, 9868.071659573516, 0.048, 0.9460000000000001, 0.13, 192.0, 0.0, 0.0, 0.0, 0.0, 0.0, 0.0, 0.0, 0.0, 0.0, 1.6665551454537268E9, 0.0, 2022-10-23 12:59:05.453
50.0, -58495.09638489442, -86007.74687620961, 34963.62685723625, -11015.476109442248, 71032.25690510952, 42562.705881918184, 5904.682684502922, 11026.741388647722, 0.048, 0.9460000000000001, 0.13, 192.0, 0.0, 0.0, 0.0, 0.0, 0.0, 0.0, 0.0, 0.0, 0.0, 1.6665551454537606E9, 0.0, 2022-10-23 12:59:05.453
51.0, -58425.11307300485, -85933.76260206255, 33332.55300909913, -12042.918746819347, 70775.3012508513, 41720.93918573132, 4715.055789358114, 9584.18215324666, 0.048, 0.9460000000000001, 0.13, 192.0, 0.0, 0.0, 0.0, 0.0, 0.0, 0.0, 0.0, 0.0, 0.0, 1.6665551454537709E9, 0.0, 2022-10-23 12:59:05.453
52.0, -58440.84870110139, -85962.50694543206, 31895.805227256446, -12763.42722933617, 70861.02019083741, 41103.71811434247, 3888.823555567689, 8866.735859720215, 0.048, 0.9460000000000001, 0.13, 192.0, 0.0, 0.0, 0.0, 0.0, 0.0, 0.0, 0.0, 0.0, 0.0, 1.666555145453781E9, 0.0, 2022-10-23 12:59:05.453
53.0, -58501.600742530914, -86019.45919030419, 32454.352969450116, -12378.194913648953, 70978.36684922778, 41418.430676273194, 4363.708718265142, 9535.053018933895, 0.048, 0.9460000000000001, 0.13, 192.0, 0.0, 0.0, 0.0, 0.0, 0.0, 0.0, 0.0, 0.0, 0.0, 1.666555145453791E9, 0.0, 2022-10-23 12:59:05.453
54.0, -58524.42187361979, -86036.3571091124, 34685.52645272332, -11151.262957008239, 71064.21989968061, 42444.37574677179, 5758.323461809571, 10937.535576526592, 0.048, 0.9460000000000001, 0.13, 192.0, 0.0, 0.0, 0.0, 0.0, 0.0, 0.0, 0.0, 0.0, 0.0, 1.666555145453801E9, 0.0, 2022-10-23 12:59:05.453
55.0, -58453.499788463094, -85966.46320420066, 33690.35973433968, -11846.737485735117, 70783.63845153314, 41875.41209166194, 4947.938614837959, 9861.991985081671, 0.048, 0.9460000000000001, 0.13, 192.0, 0.0, 0.0, 0.0, 0.0, 0.0, 0.0, 0.0, 0.0, 0.0, 1.6665551454538107E9, 0.0, 2022-10-23 12:59:05.453
56.0, -58481.08184112094, -85993.30764929148, 31877.49914854755, -12802.788651321967, 70810.43819313505, 41064.60256154568, 3849.685651026446, 8813.628114894404, 0.044, 0.9480000000000001, 0.134, 192.0, 1.0, 96.0, 29.0, 160.0, 4.0, 48.0, 0.0, 0.0, 0.0, 1.6665551454538205E9, 0.0, 2022-10-23 12:59:05.453
57.0, -58480.59010274293, -86009.91499542177, 32144.64719827738, -12556.29361346884, 70958.87612806275, 41259.666235407145, 4159.8831605771975, 9328.589955400224, 0.044, 0.9480000000000001, 0.134, 192.0, 0.0, 0.0, 0.0, 0.0, 0.0, 0.0, 0.0, 0.0, 0.0, 1.6665551454538312E9, 0.0, 2022-10-23 12:59:05.453
58.0, -58526.075902709475, -86032.33379511045, 34323.98698615873, -11330.568651028712, 71084.31411794593, 42275.374206945206, 5561.762221069601, 10797.010159136076, 0.044, 0.9480000000000001, 0.134, 192.0, 0.0, 0.0, 0.0, 0.0, 0.0, 0.0, 0.0, 0.0, 0.0, 1.6665551454538412E9, 0.0, 2022-10-23 12:59:05.453
59.0, -58450.32584075044, -85967.46903270115, 34125.279977951046, -11571.140476601182, 70841.30595222783, 42096.24732688038, 5269.557865805372, 10238.395361709043, 0.044, 0.9480000000000001, 0.134, 192.0, 0.0, 0.0, 0.0, 0.0, 0.0, 0.0, 0.0, 0.0, 0.0, 1.6665551454538512E9, 0.0, 2022-10-23 12:59:05.453
60.0, -58438.837044100415, -85957.65661688526, 32035.838906268946, -12704.440975718615, 70807.7112803115, 41153.607207966714, 3961.802001214266, 8899.861145002978, 0.044, 0.9480000000000001, 0.134, 192.0, 0.0, 0.0, 0.0, 0.0, 0.0, 0.0, 0.0, 0.0, 0.0, 1.6665551454538612E9, 0.0, 2022-10-23 12:59:05.453
61.0, -58492.592989515426, -86003.4553412742, 31993.504702270595, -12629.227355626506, 70932.27755216093, 41207.49726384846, 4071.6831769565556, 9205.25302949584, 0.044, 0.9480000000000001, 0.134, 192.0, 0.0, 0.0, 0.0, 0.0, 0.0, 0.0, 0.0, 0.0, 0.0, 1.666555145453871E9, 0.0, 2022-10-23 12:59:05.453
62.0, -58568.32069973001, -86058.37357740088, 33920.53799874044, -11533.321324982802, 71055.16744317621, 42109.18898692, 5334.243814259031, 10573.068031438355, 0.044, 0.9480000000000001, 0.134, 192.0, 0.0, 0.0, 0.0, 0.0, 0.0, 0.0, 0.0, 0.0, 0.0, 1.6665551454538808E9, 0.0, 2022-10-23 12:59:05.453
63.0, -58498.00211167361, -86004.99761164161, 34454.74469122227, -11372.925206771519, 70864.10473157224, 42244.99818623045, 5498.551487749993, 10511.444271975073, 0.044, 0.9480000000000001, 0.134, 192.0, 0.0, 0.0, 0.0, 0.0, 0.0, 0.0, 0.0, 0.0, 0.0, 1.6665551454538963E9, 0.0, 2022-10-23 12:59:05.453
64.0, -58434.81373009846, -85966.2396867561, 32194.066905268064, -12641.8337394993, 70769.26627984838, 41192.275725874395, 4034.355763716193, 8944.117599024486, 0.044, 0.9480000000000001, 0.134, 192.0, 0.0, 0.0, 0.0, 0.0, 0.0, 0.0, 0.0, 0.0, 0.0, 1.6665551454539063E9, 0.0, 2022-10-23 12:59:05.453
65.0, -58465.77089616906, -85996.45924525968, 31828.749993890524, -12736.00163888951, 70921.28049388892, 41106.66854461057, 3946.6028149846575, 9048.701411330869, 0.044, 0.9480000000000001, 0.134, 192.0, 0.0, 0.0, 0.0, 0.0, 0.0, 0.0, 0.0, 0.0, 0.0, 1.6665551454539168E9, 0.0, 2022-10-23 12:59:05.453
66.0, -58544.24787095164, -86044.38138537186, 33433.64994927048, -11795.104956043358, 71055.03333270947, 41882.274077209724, 5038.7761043043265, 10284.350548309154, 0.04, 0.9480000000000001, 0.132, 192.0, 1.0, 64.0, 29.0, 160.0, 4.0, 32.0, 0.0, 0.0, 0.0, 1.6665551454539511E9, 0.0, 2022-10-23 12:59:05.453
67.0, -58494.3587773274, -86012.37368731186, 34687.851034146675, -11212.663199026967, 70927.49427884749, 42369.273885401955, 5686.708472574767, 10766.634138421314, 0.04, 0.9480000000000001, 0.132, 192.0, 0.0, 0.0, 0.0, 0.0, 0.0, 0.0, 0.0, 0.0, 0.0, 1.6665551454539623E9, 0.0, 2022-10-23 12:59:05.453
68.0, -58417.89345954579, -85964.83152685541, 32488.305269277727, -12487.09261263521, 70764.41595130158, 41318.58543379133, 4212.722684469543, 9125.52435702376, 0.04, 0.9480000000000001, 0.132, 192.0, 0.0, 0.0, 0.0, 0.0, 0.0, 0.0, 0.0, 0.0, 0.0, 1.6665551459181898E9, 0.0, 2022-10-23 12:59:05.918
69.0, -58468.274291548056, -85989.82077715645, 31778.682086310637, -12765.796514248434, 70910.41754608364, 41082.14868094309, 3901.6981603739455, 8983.479021010282, 0.04, 0.9480000000000001, 0.132, 192.0, 0.0, 0.0, 0.0, 0.0, 0.0, 0.0, 0.0, 0.0, 0.0, 1.666555145918255E9, 0.0, 2022-10-23 12:59:05.918
70.0, -58530.18862368925, -86027.97520494166, 33001.94835686068, -12026.400807666876, 71040.12471915779, 41694.16179587386, 4774.287912164678, 10021.35992304801, 0.04, 0.9480000000000001, 0.132, 192.0, 0.0, 0.0, 0.0, 0.0, 0.0, 0.0, 0.0, 0.0, 0.0, 1.6665551459183097E9, 0.0, 2022-10-23 12:59:05.918
71.0, -58495.4093093168, -86023.99659442862, 34849.968236681016, -11070.371993824481, 71005.05483210742, 42500.25510791005, 5848.803323364655, 10978.84160028, 0.04, 0.9480000000000001, 0.132, 192.0, 0.0, 0.0, 0.0, 0.0, 0.0, 0.0, 0.0, 0.0, 0.0, 1.6665551459183304E9, 0.0, 2022-10-23 12:59:05.918
72.0, -58428.66700037325, -85950.14643074828, 32939.408175874734, -12226.56067926415, 70777.1564456411, 41556.162125606796, 4511.789025281551, 9404.34001735926, 0.04, 0.9480000000000001, 0.132, 192.0, 0.0, 0.0, 0.0, 0.0, 0.0, 0.0, 0.0, 0.0, 0.0, 1.666555145918352E9, 0.0, 2022-10-23 12:59:05.918
73.0, -58464.988585113126, -85977.84024212841, 31775.083455453332, -12786.985967992065, 70888.84811268427, 41072.53743082732, 3876.5077443728146, 8907.348979395507, 0.04, 0.9480000000000001, 0.132, 192.0, 0.0, 0.0, 0.0, 0.0, 0.0, 0.0, 0.0, 0.0, 0.0, 1.666555145918365E9, 0.0, 2022-10-23 12:59:05.918
74.0, -58558.932967058776, -86038.32406262447, 32602.5450351888, -12257.361383123563, 71022.42213754918, 41501.10977901337, 4514.806510783018, 9732.418922474257, 0.04, 0.9480000000000001, 0.132, 192.0, 0.0, 0.0, 0.0, 0.0, 0.0, 0.0, 0.0, 0.0, 0.0, 1.666555145918378E9, 0.0, 2022-10-23 12:59:05.918
75.0, -58535.57539410298, -86052.38330988685, 34766.149194973616, -11093.237828402262, 71050.78650126296, 42469.387348817276, 5830.474892911303, 11008.70353087229, 0.038, 0.9440000000000001, 0.136, 192.0, 1.0, 48.0, 29.0, 128.0, 4.0, 64.0, 0.0, 0.0, 0.0, 1.6665551459183908E9, 0.0, 2022-10-23 12:59:05.918
76.0, -58418.049921756974, -85951.01814878204, 33363.44311993636, -11997.768223019628, 70788.66759403558, 41733.90319751539, 4780.836973290083, 9691.783451054509, 0.038, 0.9440000000000001, 0.136, 192.0, 0.0, 0.0, 0.0, 0.0, 0.0, 0.0, 0.0, 0.0, 0.0, 1.6665551459184055E9, 0.0, 2022-10-23 12:59:05.918
77.0, -58467.15670432529, -86008.3503733099, 31836.282531771965, -12766.24354913754, 70871.68197294259, 41087.28958216782, 3896.266686471306, 8886.13717390742, 0.038, 0.9440000000000001, 0.136, 192.0, 0.0, 0.0, 0.0, 0.0, 0.0, 0.0, 0.0, 0.0, 0.0, 1.666555145918419E9, 0.0, 2022-10-23 12:59:05.918
78.0, -58512.59780080293, -86032.84788523291, 32350.529116455215, -12393.058823711734, 70994.68362268015, 41397.84471962985, 4355.304462349947, 9529.845062475808, 0.038, 0.9440000000000001, 0.136, 192.0, 0.0, 0.0, 0.0, 0.0, 0.0, 0.0, 0.0, 0.0, 0.0, 1.6665551459184315E9, 0.0, 2022-10-23 12:59:05.918
79.0, -58554.70848735672, -86072.321065941, 34589.972745176885, -11164.383431003504, 71071.37245790631, 42413.32917372337, 5752.109676850996, 10946.766846986635, 0.038, 0.9440000000000001, 0.136, 192.0, 0.0, 0.0, 0.0, 0.0, 0.0, 0.0, 0.0, 0.0, 0.0, 1.666555145918444E9, 0.0, 2022-10-23 12:59:05.918
80.0, -58460.6970501777, -85994.4922917476, 33870.02305627144, -11702.188754342647, 70816.89784728264, 41981.24760165782, 5116.716637219982, 10035.106245888024, 0.038, 0.9440000000000001, 0.136, 192.0, 0.0, 0.0, 0.0, 0.0, 0.0, 0.0, 0.0, 0.0, 0.0, 1.6665551459184568E9, 0.0, 2022-10-23 12:59:05.918
81.0, -58478.95842539769, -85974.77805313803, 31976.740893929113, -12707.771385642456, 70842.8258708508, 41140.08440257125, 3958.5609982682467, 8893.289732133118, 0.038, 0.9440000000000001, 0.136, 192.0, 0.0, 0.0, 0.0, 0.0, 0.0, 0.0, 0.0, 0.0, 0.0, 1.6665551459184697E9, 0.0, 2022-10-23 12:59:05.918
82.0, -58492.14595462632, -86012.57485301196, 32192.815207578566, -12486.265598090364, 70978.52331143896, 41324.195721649616, 4237.1307894147385, 9365.224464562472, 0.038, 0.9440000000000001, 0.136, 192.0, 0.0, 0.0, 0.0, 0.0, 0.0, 0.0, 0.0, 0.0, 0.0, 1.66655514591863E9, 0.0, 2022-10-23 12:59:05.918
83.0, -58546.6171558639, -86066.04022574905, 34331.49717229571, -11286.334548751658, 71088.67270811471, 42318.513073743954, 5607.225669291695, 10810.845888953912, 0.038, 0.9440000000000001, 0.136, 192.0, 0.0, 0.0, 0.0, 0.0, 0.0, 0.0, 0.0, 0.0, 0.0, 1.6665551459186435E9, 0.0, 2022-10-23 12:59:05.918
84.0, -58502.56186754249, -86011.68078323374, 34378.055855996114, -11408.844460111197, 70845.28456274087, 42229.217854645, 5447.947138303178, 10389.515505971374, 0.038, 0.9440000000000001, 0.136, 192.0, 0.0, 0.0, 0.0, 0.0, 0.0, 0.0, 0.0, 0.0, 0.0, 1.6665551459186532E9, 0.0, 2022-10-23 12:59:05.918
85.0, -58423.92843054872, -85945.94430279068, 32214.876379355956, -12601.242971568463, 70811.46637338, 41235.10166825076, 4068.777450177366, 8953.192407273342, 0.038, 0.9500000000000001, 0.132, 192.0, 1.0, 48.0, 29.0, 176.0, 4.0, 32.0, 0.0, 0.0, 0.0, 1.6665551459186625E9, 0.0, 2022-10-23 12:59:05.918
86.0, -58481.48417252114, -86003.43298952973, 32068.38304619587, -12583.853314382233, 70962.0500757754, 41238.09680200777, 4108.563555307813, 9190.992616533353, 0.038, 0.9500000000000001, 0.132, 192.0, 0.0, 0.0, 0.0, 0.0, 0.0, 0.0, 0.0, 0.0, 0.0, 1.6665551459186728E9, 0.0, 2022-10-23 12:59:05.918
87.0, -58528.735760299656, -86068.14128972785, 33953.73033925657, -11489.489554105945, 71114.19840028268, 42150.53971416232, 5368.240817575553, 10565.580197045827, 0.038, 0.9500000000000001, 0.132, 192.0, 0.0, 0.0, 0.0, 0.0, 0.0, 0.0, 0.0, 0.0, 0.0, 1.6665551459186869E9, 0.0, 2022-10-23 12:59:05.918
88.0, -58433.785549853514, -85961.25524774256, 34776.31923870078, -11164.249320536772, 70929.77415678193, 42425.42146747369, 5717.173900267351, 10697.83546898788, 0.038, 0.9500000000000001, 0.132, 192.0, 0.0, 0.0, 0.0, 0.0, 0.0, 0.0, 0.0, 0.0, 0.0, 1.6665551459187005E9, 0.0, 2022-10-23 12:59:05.918
89.0, -58434.45610218717, -85977.34850375039, 32489.601670456133, -12480.431792787527, 70777.06703866328, 41333.918730487676, 4201.658570964167, 9050.17662646492, 0.038, 0.9500000000000001, 0.132, 192.0, 0.0, 0.0, 0.0, 0.0, 0.0, 0.0, 0.0, 0.0, 0.0, 1.6665551459187138E9, 0.0, 2022-10-23 12:59:05.918
90.0, -58474.89040790682, -85999.0520476165, 32001.685440741236, -12642.996030210976, 70926.37669162473, 41188.364170594716, 4028.1419787576174, 9056.323356190129, 0.038, 0.9500000000000001, 0.132, 192.0, 0.0, 0.0, 0.0, 0.0, 0.0, 0.0, 0.0, 0.0, 0.0, 1.6665551459187276E9, 0.0, 2022-10-23 12:59:05.918
91.0, -58545.74543783015, -86063.3133129255, 33524.73330792586, -11729.167309900202, 71083.66591735673, 41950.513953031776, 5088.665197928572, 10261.797638153748, 0.038, 0.9500000000000001, 0.132, 192.0, 0.0, 0.0, 0.0, 0.0, 0.0, 0.0, 0.0, 0.0, 0.0, 1.6665551459187417E9, 0.0, 2022-10-23 12:59:05.918
92.0, -58520.39855961783, -86062.061615236, 35039.93571280667, -10981.099126469986, 70973.94120382563, 42588.58920199743, 5921.714713777866, 10928.930154911299, 0.038, 0.9500000000000001, 0.132, 192.0, 0.0, 0.0, 0.0, 0.0, 0.0, 0.0, 0.0, 0.0, 0.0, 1.666555145918758E9, 0.0, 2022-10-23 12:59:05.918
93.0, -58435.57368940994, -85987.25032654409, 32905.67939349167, -12242.922156205435, 70779.79395148682, 41554.485744772646, 4463.97864389165, 9271.6377105281, 0.038, 0.9500000000000001, 0.132, 192.0, 0.0, 0.0, 0.0, 0.0, 0.0, 0.0, 0.0, 0.0, 0.0, 1.666555145918772E9, 0.0, 2022-10-23 12:59:05.918
94.0, -58470.62122471586, -86012.39603905632, 32017.733993260146, -12643.174844166619, 70905.23194137, 41206.91611849262, 4013.4121791615703, 8980.215666319807, 0.038, 0.9500000000000001, 0.132, 192.0, 0.0, 0.0, 0.0, 0.0, 0.0, 0.0, 0.0, 0.0, 0.0, 1.6665551459187856E9, 0.0, 2022-10-23 12:59:05.918
95.0, -58495.14108838333, -86000.72842845065, 33129.59916944494, -11952.1706643308, 71070.27722242799, 41779.74662539323, 4827.842691879594, 9970.286186967634, 0.04, 0.9460000000000001, 0.138, 192.0, 1.0, 64.0, 29.0, 144.0, 4.0, 80.0, 0.0, 0.0, 0.0, 1.6665551459188006E9, 0.0, 2022-10-23 12:59:05.918
96.0, -58504.37235884337, -86026.6564520188, 35097.22323384562, -10926.11383510993, 71047.00905645003, 42640.84758053393, 5985.8195168756865, 11041.113560332486, 0.04, 0.9460000000000001, 0.138, 192.0, 0.0, 0.0, 0.0, 0.0, 0.0, 0.0, 0.0, 0.0, 0.0, 1.6665551459188123E9, 0.0, 2022-10-23 12:59:05.918
97.0, -58439.70876213417, -85970.0394833135, 33300.008869172205, -12045.019810798147, 70785.78421900085, 41722.615566565466, 4692.949914091815, 9504.431129030125, 0.04, 0.9460000000000001, 0.138, 192.0, 0.0, 0.0, 0.0, 0.0, 0.0, 0.0, 0.0, 0.0, 0.0, 1.6665551459189034E9, 0.0, 2022-10-23 12:59:05.918
98.0, -58502.092480908934, -86013.96066116818, 32022.51726657358, -12668.722888079035, 70887.90933941715, 41192.65570553013, 3979.102251422674, 8909.919430007867, 0.04, 0.9460000000000001, 0.138, 192.0, 0.0, 0.0, 0.0, 0.0, 0.0, 0.0, 0.0, 0.0, 0.0, 1.6665551459189136E9, 0.0, 2022-10-23 12:59:05.918
99.0, -58508.954466456715, -86037.09471667942, 32769.311400569844, -12170.994242548257, 71023.85264919432, 41606.94528900925, 4577.927837124806, 9687.827192285918, 0.04, 0.9460000000000001, 0.138, 192.0, 0.0, 0.0, 0.0, 0.0, 0.0, 0.0, 0.0, 0.0, 0.0, 1.6665551459189231E9, 0.0, 2022-10-23 12:59:05.918
100.0, -58516.57641131597, -86047.64474006233, 34956.40724377719, -10996.633588866423, 71071.03718173948, 42580.49787050461, 5910.091806661107, 11003.294408714106, 0.04, 0.9460000000000001, 0.138, 192.0, 0.0, 0.0, 0.0, 0.0, 0.0, 0.0, 0.0, 0.0, 0.0, 1.666555145918933E9, 0.0, 2022-10-23 12:59:05.918
101.0, -58467.40257351429, -85975.53801244951, 33758.08552003926, -11799.262380512046, 70804.5596843433, 41930.62090046655, 4979.096946608656, 9805.486775098656, 0.04, 0.9460000000000001, 0.138, 192.0, 0.0, 0.0, 0.0, 0.0, 0.0, 0.0, 0.0, 0.0, 0.0, 1.6665551459189425E9, 0.0, 2022-10-23 12:59:05.918
102.0, -58461.90404437829, -85978.39903573979, 32080.274174246097, -12668.7899433124, 70856.54984194635, 41199.16006316663, 3978.7893270002996, 8870.0439178996, 0.04, 0.9460000000000001, 0.138, 192.0, 0.0, 0.0, 0.0, 0.0, 0.0, 0.0, 0.0, 0.0, 0.0, 1.6665551459189515E9, 0.0, 2022-10-23 12:59:05.918
103.0, -58489.508448780594, -86023.72837349515, 32442.797117566723, -12384.140477674066, 70987.62047143227, 41427.48313277759, 4334.517340006511, 9426.714113559023, 0.04, 0.9460000000000001, 0.138, 192.0, 0.0, 0.0, 0.0, 0.0, 0.0, 0.0, 0.0, 0.0, 0.0, 1.6665551459189613E9, 0.0, 2022-10-23 12:59:05.918
104.0, -58523.550155586025, -86063.33566466995, 34653.74227210788, -11160.382468746004, 71094.61827213982, 42440.30772928092, 5730.830816129544, 10874.861285073912, 0.04, 0.9460000000000001, 0.138, 192.0, 0.0, 0.0, 0.0, 0.0, 0.0, 0.0, 0.0, 0.0, 0.0, 1.6665551459189708E9, 0.0, 2022-10-23 12:59:05.918
105.0, -58458.28306177653, -85967.4913844456, 34184.10976935742, -11566.111334098738, 70839.62957139369, 42118.48731261341, 5252.056449896866, 10131.285802279212, 0.036000000000000004, 0.9500000000000001, 0.146, 192.0, 1.0, 32.0, 29.0, 176.0, 4.0, 144.0, 0.0, 0.0, 0.0, 1.6665551459189801E9, 0.0, 2022-10-23 12:59:05.918
106.0, -58481.23830333213, -85975.64977117178, 32155.8901257384, -12665.057201988364, 70819.96003627301, 41200.7246852785, 3987.4394521045033, 8862.444324784796, 0.036000000000000004, 0.9500000000000001, 0.146, 192.0, 0.0, 0.0, 0.0, 0.0, 0.0, 0.0, 0.0, 0.0, 0.0, 1.6665551459189904E9, 0.0, 2022-10-23 12:59:05.918
107.0, -58478.600797486404, -86016.64287050282, 32241.8102314246, -12512.350083869707, 70969.001468301, 41326.565006561876, 4188.247524290982, 9260.439486555993, 0.036000000000000004, 0.9500000000000001, 0.146, 192.0, 0.0, 0.0, 0.0, 0.0, 0.0, 0.0, 0.0, 0.0, 0.0, 1.666555145919E9, 0.0, 2022-10-23 12:59:05.919
108.0, -58546.974783775186, -86076.32202819848, 34308.34076504001, -11332.222680118404, 71113.34903399338, 42308.52184397243, 5540.148084181319, 10703.378701612795, 0.036000000000000004, 0.9500000000000001, 0.146, 192.0, 0.0, 0.0, 0.0, 0.0, 0.0, 0.0, 0.0, 0.0, 0.0, 1.6665551459190092E9, 0.0, 2022-10-23 12:59:05.919
109.0, -58448.98473608312, -86005.802274442, 34633.111611975626, -11290.581380198168, 70905.76838323694, 42357.740385263016, 5568.691261850746, 10491.88649557668, 0.036000000000000004, 0.9500000000000001, 0.146, 192.0, 0.0, 0.0, 0.0, 0.0, 0.0, 0.0, 0.0, 0.0, 0.0, 1.6665551459190187E9, 0.0, 2022-10-23 12:59:05.919
110.0, -58439.97698306763, -85989.4407975007, 32334.100584280564, -12595.163297076619, 70810.14762045714, 41261.49907845248, 4072.487839756947, 8928.426674416862, 0.036000000000000004, 0.9500000000000001, 0.146, 192.0, 0.0, 0.0, 0.0, 0.0, 0.0, 0.0, 0.0, 0.0, 0.0, 1.666555145919028E9, 0.0, 2022-10-23 12:59:05.919
111.0, -58552.987403033665, -86102.4735692112, 32044.421976139784, -12660.989184497499, 70933.03751147242, 41189.21353688402, 4022.5987461327013, 9081.13379253552, 0.036000000000000004, 0.9500000000000001, 0.146, 192.0, 0.0, 0.0, 0.0, 0.0, 0.0, 0.0, 0.0, 0.0, 0.0, 1.6665551459190373E9, 0.0, 2022-10-23 12:59:05.919
112.0, -58603.97173213622, -86140.44918304076, 33826.45950632805, -11611.82065150984, 71073.54057711847, 42068.35234980015, 5234.51033049945, 10418.371608063175, 0.036000000000000004, 0.9500000000000001, 0.146, 192.0, 0.0, 0.0, 0.0, 0.0, 0.0, 0.0, 0.0, 0.0, 0.0, 1.6665551459190469E9, 0.0, 2022-10-23 12:59:05.919
113.0, -58534.05547548002, -86075.7185310982, 34895.63285060321, -11141.137616769984, 70910.90928446165, 42470.10260463984, 5751.953214639809, 10739.946155541678, 0.036000000000000004, 0.9500000000000001, 0.146, 192.0, 0.0, 0.0, 0.0, 0.0, 0.0, 0.0, 0.0, 0.0, 0.0, 1.6665551459190724E9, 0.0, 2022-10-23 12:59:05.919
114.0, -58477.19263758572, -86025.2035886292, 32622.482791242935, -12456.426019242528, 70775.77063748486, 41377.526983919975, 4234.3144696133695, 9076.127001777531, 0.036000000000000004, 0.9500000000000001, 0.134, 192.0, 1.0, 32.0, 29.0, 176.0, 4.0, 48.0, 0.0, 0.0, 0.0, 1.6665551459190822E9, 0.0, 2022-10-23 12:59:05.919
115.0, -58539.419894149294, -86095.3657144744, 31996.879815683344, -12699.389481471717, 70914.55261880787, 41161.67618771508, 3967.2111233724504, 8990.720986213802, 0.036000000000000004, 0.9500000000000001, 0.134, 192.0, 0.0, 0.0, 0.0, 0.0, 0.0, 0.0, 0.0, 0.0, 0.0, 1.6665551459190924E9, 0.0, 2022-10-23 12:59:05.919
116.0, -58596.97563612171, -86109.84964488145, 33352.31195119762, -11885.227189687157, 71057.76024553302, 41833.43551557488, 4919.931879035459, 10107.10121477857, 0.036000000000000004, 0.9500000000000001, 0.134, 192.0, 0.0, 0.0, 0.0, 0.0, 0.0, 0.0, 0.0, 0.0, 0.0, 1.666555145919102E9, 0.0, 2022-10-23 12:59:05.919
117.0, -58530.21097543371, -86064.47560363718, 35046.88710533227, -11024.528565946648, 71004.76425942949, 42558.794326638505, 5883.806155181665, 10941.424780061816, 0.036000000000000004, 0.9500000000000001, 0.134, 192.0, 0.0, 0.0, 0.0, 0.0, 0.0, 0.0, 0.0, 0.0, 0.0, 1.6665551459191115E9, 0.0, 2022-10-23 12:59:05.919
118.0, -58477.99730038611, -86031.7079462657, 32987.84440610938, -12267.106743706077, 70773.7589804839, 41537.36430851988, 4456.066126354472, 9301.7455103094, 0.036000000000000004, 0.9500000000000001, 0.134, 192.0, 0.0, 0.0, 0.0, 0.0, 0.0, 0.0, 0.0, 0.0, 0.0, 1.6665551459191213E9, 0.0, 2022-10-23 12:59:05.919
119.0, -58528.69105681075, -86061.05578673551, 31962.681646666726, -12743.221252348572, 70898.21349361104, 41130.47315245547, 3919.5572041937357, 8920.38004641295, 0.036000000000000004, 0.9500000000000001, 0.134, 192.0, 0.0, 0.0, 0.0, 0.0, 0.0, 0.0, 0.0, 0.0, 0.0, 1.6665551459191308E9, 0.0, 2022-10-23 12:59:05.919
120.0, -58572.47812419869, -86089.84483359395, 32949.86879227982, -12115.78543374365, 71048.28310588398, 41652.78871688709, 4665.725489345252, 9843.104761016937, 0.036000000000000004, 0.9500000000000001, 0.134, 192.0, 0.0, 0.0, 0.0, 0.0, 0.0, 0.0, 0.0, 0.0, 0.0, 1.6665551459191403E9, 0.0, 2022-10-23 12:59:05.919
121.0, -58651.8938722484, -86141.65617724136, 35012.93480550466, -11028.104845059497, 71039.94590520214, 42558.77197489404, 5894.177364608928, 11002.780318591633, 0.036000000000000004, 0.9500000000000001, 0.134, 192.0, 0.0, 0.0, 0.0, 0.0, 0.0, 0.0, 0.0, 0.0, 0.0, 1.66655514591915E9, 0.0, 2022-10-23 12:59:05.919
122.0, -58489.70961448069, -86033.92076896677, 33408.213664080344, -12042.941098563802, 70786.32066086777, 41733.232645181735, 4724.912908662905, 9580.874095067275, 0.036000000000000004, 0.9500000000000001, 0.134, 192.0, 0.0, 0.0, 0.0, 0.0, 0.0, 0.0, 0.0, 0.0, 0.0, 1.66655514591916E9, 0.0, 2022-10-23 12:59:05.919
123.0, -58513.67068453678, -86072.29871419653, 31983.08878935442, -12757.392258333239, 70858.00270533595, 41131.43427746705, 3911.4211692120043, 8872.077926645032, 0.036000000000000004, 0.9500000000000001, 0.134, 192.0, 0.0, 0.0, 0.0, 0.0, 0.0, 0.0, 0.0, 0.0, 0.0, 1.6665551459191692E9, 0.0, 2022-10-23 12:59:05.919
124.0, -58547.041839008554, -86122.34427003197, 32598.432314209025, -12326.696494423926, 71008.69816645363, 41490.157424230274, 4433.870844110352, 9582.952807301619, 0.036000000000000004, 0.9500000000000001, 0.14200000000000002, 192.0, 1.0, 32.0, 29.0, 176.0, 4.0, 112.0, 0.0, 0.0, 0.0, 1.6665551459191787E9, 0.0, 2022-10-23 12:59:05.919
125.0, -58602.74238619118, -86180.57056433804, 34837.384204552676, -11103.430223873882, 71074.59110910787, 42503.40670387825, 5821.7577125737325, 10972.001966476675, 0.036000000000000004, 0.9500000000000001, 0.14200000000000002, 192.0, 0.0, 0.0, 0.0, 0.0, 0.0, 0.0, 0.0, 0.0, 0.0, 1.6665551459191887E9, 0.0, 2022-10-23 12:59:05.919
126.0, -58492.88356219335, -86020.33090833794, 33872.86172781727, -11782.18564774819, 70808.62770183416, 41952.190333865925, 5030.595365833684, 9908.10363389297, 0.036000000000000004, 0.9500000000000001, 0.14200000000000002, 192.0, 0.0, 0.0, 0.0, 0.0, 0.0, 0.0, 0.0, 0.0, 0.0, 1.6665551459191985E9, 0.0, 2022-10-23 12:59:05.919
127.0, -58485.14985861181, -86025.47180956266, 32067.511328162116, -12727.7538451855, 70871.19023456458, 41157.742280690945, 3942.0654108602303, 8867.205246353775, 0.036000000000000004, 0.9500000000000001, 0.14200000000000002, 192.0, 0.0, 0.0, 0.0, 0.0, 0.0, 0.0, 0.0, 0.0, 0.0, 1.666555145919208E9, 0.0, 2022-10-23 12:59:05.919
128.0, -58551.89216755536, -86089.84483359395, 32341.074328550618, -12485.818563201257, 70997.43288724816, 41357.388062165744, 4251.905292499697, 9373.71812745549, 0.036000000000000004, 0.9500000000000001, 0.14200000000000002, 192.0, 0.0, 0.0, 0.0, 0.0, 0.0, 0.0, 0.0, 0.0, 0.0, 1.6665551459192176E9, 0.0, 2022-10-23 12:59:05.919
129.0, -58650.12808443643, -86196.57441336804, 34531.63469214853, -11263.245196729327, 71080.93900453318, 42374.86182151578, 5650.0069081791535, 10822.982886193144, 0.036000000000000004, 0.9500000000000001, 0.14200000000000002, 192.0, 0.0, 0.0, 0.0, 0.0, 0.0, 0.0, 0.0, 0.0, 0.0, 1.666555145919236E9, 0.0, 2022-10-23 12:59:05.919
130.0, -58479.025480631055, -86013.35716406789, 34364.443643622835, -11490.383623884158, 70865.35642926174, 42209.88359569116, 5371.280654821474, 10278.807315684238, 0.036000000000000004, 0.9500000000000001, 0.14200000000000002, 192.0, 0.0, 0.0, 0.0, 0.0, 0.0, 0.0, 0.0, 0.0, 0.0, 1.6665551459192455E9, 0.0, 2022-10-23 12:59:05.919
131.0, -58524.19835617523, -86014.98884141313, 32226.47693472826, -12670.108696235264, 70822.73165258547, 41227.01033675794, 4019.156577486584, 8897.581267068537, 0.036000000000000004, 0.9500000000000001, 0.14200000000000002, 192.0, 0.0, 0.0, 0.0, 0.0, 0.0, 0.0, 0.0, 0.0, 0.0, 1.666555145919255E9, 0.0, 2022-10-23 12:59:05.919
132.0, -58569.55004567505, -86088.90606032683, 32162.394483374894, -12611.077739128797, 70952.72939833754, 41270.79740414589, 4116.140796678162, 9192.445479922948, 0.036000000000000004, 0.9500000000000001, 0.14200000000000002, 192.0, 0.0, 0.0, 0.0, 0.0, 0.0, 0.0, 0.0, 0.0, 0.0, 1.6665551459192643E9, 0.0, 2022-10-23 12:59:05.919
133.0, -58600.55191523456, -86146.66296799933, 34104.13522769633, -11502.677083334576, 71070.07605672789, 42194.0585606168, 5394.459413821628, 10575.258502394976, 0.036000000000000004, 0.9500000000000001, 0.14200000000000002, 192.0, 0.0, 0.0, 0.0, 0.0, 0.0, 0.0, 0.0, 0.0, 0.0, 1.6665551459192739E9, 0.0, 2022-10-23 12:59:05.919
134.0, -58516.39759736033, -86061.39106290234, 34718.472924050446, -11283.831153372665, 70914.91024671916, 42392.8549758023, 5621.35197178745, 10576.979586718035, 0.036000000000000004, 0.9460000000000001, 0.14, 192.0, 1.0, 32.0, 29.0, 144.0, 4.0, 96.0, 0.0, 0.0, 0.0, 1.6665551459192843E9, 0.0, 2022-10-23 12:59:05.919
135.0, -58495.878695950356, -86045.36486212788, 32450.195544981427, -12567.558892674315, 70802.12334419768, 41328.21903565157, 4143.566387124823, 8993.470250781806, 0.036000000000000004, 0.9460000000000001, 0.14, 192.0, 0.0, 0.0, 0.0, 0.0, 0.0, 0.0, 0.0, 0.0, 0.0, 1.6665551459192946E9, 0.0, 2022-10-23 12:59:05.919
136.0, -58534.79308304704, -86066.12963272686, 32049.942857020244, -12688.884161577722, 70948.84019480231, 41215.29802266336, 4025.482121167436, 9065.59933013908, 0.036000000000000004, 0.9460000000000001, 0.14, 192.0, 0.0, 0.0, 0.0, 0.0, 0.0, 0.0, 0.0, 0.0, 0.0, 1.666555145919304E9, 0.0, 2022-10-23 12:59:05.919
137.0, -58637.02996218562, -86159.9846076947, 33647.109108818666, -11755.587071846376, 71074.41229515223, 41985.82970927116, 5111.687494717538, 10295.928751937003, 0.036000000000000004, 0.9460000000000001, 0.14, 192.0, 0.0, 0.0, 0.0, 0.0, 0.0, 0.0, 0.0, 0.0, 0.0, 1.6665551459193134E9, 0.0, 2022-10-23 12:59:05.919
138.0, -58547.98061227568, -86142.4831917862, 34987.29735461442, -11107.542944853658, 70973.69533463662, 42543.215160753156, 5831.0336865226855, 10839.545528834526, 0.036000000000000004, 0.9460000000000001, 0.14, 192.0, 0.0, 0.0, 0.0, 0.0, 0.0, 0.0, 0.0, 0.0, 0.0, 1.6665551459193227E9, 0.0, 2022-10-23 12:59:05.919
139.0, -58529.20514693322, -86088.19080450425, 32786.27637461142, -12394.466983612418, 70790.61219580319, 41487.87754629583, 4348.375421568802, 9179.05678499422, 0.036000000000000004, 0.9460000000000001, 0.14, 192.0, 0.0, 0.0, 0.0, 0.0, 0.0, 0.0, 0.0, 0.0, 0.0, 1.666555145919332E9, 0.0, 2022-10-23 12:59:05.919
140.0, -58587.29733077256, -86085.46389168072, 32012.973071691165, -12731.37482778726, 70895.55363602086, 41191.56047005182, 3974.095460664685, 8969.419773747895, 0.036000000000000004, 0.9460000000000001, 0.14, 192.0, 0.0, 0.0, 0.0, 0.0, 0.0, 0.0, 0.0, 0.0, 0.0, 1.6665551459193413E9, 0.0, 2022-10-23 12:59:05.919
141.0, -58577.70843240124, -86132.93899690379, 33270.77278742466, -11951.36600153041, 71067.84088228237, 41842.30915812364, 4886.024282696758, 10042.594080280553, 0.036000000000000004, 0.9460000000000001, 0.14, 192.0, 0.0, 0.0, 0.0, 0.0, 0.0, 0.0, 0.0, 0.0, 0.0, 1.666555145919351E9, 0.0, 2022-10-23 12:59:05.919
142.0, -58627.8880987034, -86203.63756461591, 35094.60807974435, -11024.595621180013, 70993.49898022402, 42618.227615145166, 5932.890586005519, 10970.97378623173, 0.036000000000000004, 0.9460000000000001, 0.14, 192.0, 0.0, 0.0, 0.0, 0.0, 0.0, 0.0, 0.0, 0.0, 0.0, 1.6665551459193604E9, 0.0, 2022-10-23 12:59:05.919
143.0, -58589.86778138492, -86144.24897959817, 33146.698253953255, -12223.163214106944, 70746.06516910376, 41635.063783534024, 4556.090182791971, 9363.078697094763, 0.032, 0.9540000000000001, 0.132, 192.0, 1.0, 0.0, 29.0, 208.0, 4.0, 32.0, 0.0, 0.0, 0.0, 1.66655514591937E9, 0.0, 2022-10-23 12:59:05.919
144.0, -58629.475072559726, -86181.35287539398, 32002.847731452912, -12764.500113070026, 70864.68587692808, 41184.45261531504, 3941.9536521379537, 8882.918522705857, 0.032, 0.9540000000000001, 0.132, 192.0, 0.0, 0.0, 0.0, 0.0, 0.0, 0.0, 0.0, 0.0, 0.0, 1.6665551459193892E9, 0.0, 2022-10-23 12:59:05.919
145.0, -58649.055200702576, -86244.69771918032, 32835.27139845746, -12223.90082167397, 71037.84484122334, 41630.5263794096, 4590.333055297501, 9721.511271180067, 0.032, 0.9540000000000001, 0.132, 192.0, 0.0, 0.0, 0.0, 0.0, 0.0, 0.0, 0.0, 0.0, 0.0, 1.6665551459193988E9, 0.0, 2022-10-23 12:59:05.919
146.0, -58685.1532679979, -86289.08828366856, 34992.706476772604, -11068.04741240113, 71050.49592858505, 42593.84186194442, 5898.759472222266, 10990.330396930027, 0.032, 0.9540000000000001, 0.132, 192.0, 0.0, 0.0, 0.0, 0.0, 0.0, 0.0, 0.0, 0.0, 0.0, 1.6665551459194086E9, 0.0, 2022-10-23 12:59:05.919
147.0, -58654.46432286076, -86212.17593099785, 33598.76228556184, -11972.644862251862, 70761.77844545584, 41862.60454208905, 4850.552064246186, 9669.074078687916, 0.032, 0.9540000000000001, 0.132, 192.0, 0.0, 0.0, 0.0, 0.0, 0.0, 0.0, 0.0, 0.0, 0.0, 1.6665551459194183E9, 0.0, 2022-10-23 12:59:05.919
148.0, -58668.63532884543, -86229.43147771734, 32039.459888870704, -12764.120133414286, 70859.52262395891, 41195.069693931306, 3939.651422459057, 8847.736876933202, 0.032, 0.9540000000000001, 0.132, 192.0, 0.0, 0.0, 0.0, 0.0, 0.0, 0.0, 0.0, 0.0, 0.0, 1.666555145919428E9, 0.0, 2022-10-23 12:59:05.919
149.0, -58700.19599201632, -86273.93380092786, 32521.788182471777, -12410.671998342516, 71003.24434080653, 41484.81535730545, 4376.516267838034, 9482.682881675111, 0.032, 0.9540000000000001, 0.132, 192.0, 0.0, 0.0, 0.0, 0.0, 0.0, 0.0, 0.0, 0.0, 0.0, 1.6665551459194372E9, 0.0, 2022-10-23 12:59:05.919
150.0, -58771.185132406375, -86356.50114494577, 34737.78483125983, -11203.007245422274, 71057.44732111065, 42482.48547106808, 5755.775362941667, 10885.701881134735, 0.032, 0.9540000000000001, 0.132, 192.0, 0.0, 0.0, 0.0, 0.0, 0.0, 0.0, 0.0, 0.0, 0.0, 1.6665551459194467E9, 0.0, 2022-10-23 12:59:05.919
151.0, -58711.394215988425, -86308.15432168894, 34034.26367452904, -11739.739685027562, 70794.50139933842, 42051.65559669204, 5127.780750725359, 9986.379442975456, 0.032, 0.9540000000000001, 0.132, 192.0, 0.0, 0.0, 0.0, 0.0, 0.0, 0.0, 0.0, 0.0, 0.0, 1.6665551459194565E9, 0.0, 2022-10-23 12:59:05.919
152.0, -58714.81403289009, -86291.56932730309, 32102.335346023483, -12770.870360239787, 70822.37402467418, 41187.53715604987, 3941.3725067821156, 8822.300591743064, 0.032, 0.9540000000000001, 0.132, 192.0, 0.0, 0.0, 0.0, 0.0, 0.0, 0.0, 0.0, 0.0, 0.0, 1.6665551459194658E9, 0.0, 2022-10-23 12:59:05.919
153.0, -58760.32218460109, -86334.9317115464, 32248.448699527828, -12601.421785524106, 70947.52144187945, 41323.212244893584, 4169.852038604265, 9250.850588184667, 0.034, 0.9540000000000001, 0.126, 192.0, 1.0, 16.0, 29.0, 208.0, 3.0, 240.0, 0.0, 0.0, 0.0, 1.6665551459194753E9, 0.0, 2022-10-23 12:59:05.919
154.0, -58768.68173702738, -86356.45644145686, 34371.573850104076, -11399.54613441779, 71096.65228088526, 42319.38479177771, 5546.317165650984, 10714.018131973522, 0.034, 0.9540000000000001, 0.126, 192.0, 0.0, 0.0, 0.0, 0.0, 0.0, 0.0, 0.0, 0.0, 0.0, 1.6665551459194853E9, 0.0, 2022-10-23 12:59:05.919
155.0, -58698.832535604546, -86282.09218765405, 34462.76896748173, -11486.472068604478, 70884.17659809311, 42264.10892773973, 5432.435027651194, 10355.071467765745, 0.034, 0.9540000000000001, 0.126, 192.0, 0.0, 0.0, 0.0, 0.0, 0.0, 0.0, 0.0, 0.0, 0.0, 1.6665551459194949E9, 0.0, 2022-10-23 12:59:05.919
156.0, -58697.71494838178, -86285.24378362224, 32243.08428085855, -12728.51380449698, 70794.38964061614, 41228.9325867811, 4011.60168786069, 8880.325720349041, 0.034, 0.9540000000000001, 0.126, 192.0, 0.0, 0.0, 0.0, 0.0, 0.0, 0.0, 0.0, 0.0, 0.0, 1.6665551459195051E9, 0.0, 2022-10-23 12:59:05.919
157.0, -58730.30379179762, -86316.4244671374, 32063.040979271052, -12731.128958598252, 70932.41166262767, 41217.84612153126, 4035.093371283218, 9105.94422888091, 0.034, 0.9540000000000001, 0.126, 192.0, 0.0, 0.0, 0.0, 0.0, 0.0, 0.0, 0.0, 0.0, 0.0, 1.666555145919515E9, 0.0, 2022-10-23 12:59:05.919
158.0, -58782.6739290564, -86369.129880563, 33891.436027459626, -11676.461896474588, 71077.63094635379, 42089.40769307705, 5254.51514178695, 10453.665012558105, 0.034, 0.9540000000000001, 0.126, 192.0, 0.0, 0.0, 0.0, 0.0, 0.0, 0.0, 0.0, 0.0, 0.0, 1.6665551459195244E9, 0.0, 2022-10-23 12:59:05.919
159.0, -58724.827614406066, -86316.04448748166, 34726.698366009994, -11342.415075590025, 70914.77613625242, 42373.85599301529, 5621.262564809628, 10617.324485459863, 0.034, 0.9540000000000001, 0.126, 192.0, 0.0, 0.0, 0.0, 0.0, 0.0, 0.0, 0.0, 0.0, 0.0, 1.666555145919534E9, 0.0, 2022-10-23 12:59:05.919
160.0, -58695.457422191794, -86285.82492897808, 32443.80294606721, -12655.445951872582, 70752.5024715069, 41291.405712533684, 4114.24089839946, 8981.154439586931, 0.034, 0.9540000000000001, 0.126, 192.0, 0.0, 0.0, 0.0, 0.0, 0.0, 0.0, 0.0, 0.0, 0.0, 1.6665551459195528E9, 0.0, 2022-10-23 12:59:05.919
161.0, -58725.05113185062, -86316.51387411522, 31943.883829579812, -12828.739026634577, 70903.55556053585, 41141.313748516295, 3935.0246113568082, 8985.133050099976, 0.034, 0.9540000000000001, 0.126, 192.0, 0.0, 0.0, 0.0, 0.0, 0.0, 0.0, 0.0, 0.0, 0.0, 1.6665551459195623E9, 0.0, 2022-10-23 12:59:05.919
162.0, -58747.62639375048, -86330.30490044414, 33425.916245688946, -11945.59925146094, 71070.36662940582, 41872.86399279404, 4967.585798214173, 10173.351785344099, 0.034, 0.9540000000000001, 0.126, 192.0, 0.0, 0.0, 0.0, 0.0, 0.0, 0.0, 0.0, 0.0, 0.0, 1.6665551459195716E9, 0.0, 2022-10-23 12:59:05.919
163.0, -58698.0055210597, -86273.8667456945, 34944.02437734895, -11198.045158153196, 70984.5582824419, 42501.97619223311, 5804.837442021066, 10867.351098936928, 0.048, 0.9380000000000001, 0.126, 192.0, 1.0, 128.0, 29.0, 80.0, 3.0, 240.0, 0.0, 0.0, 0.0, 1.6665551459195817E9, 0.0, 2022-10-23 12:59:05.919
164.0, -58645.36716286745, -86225.74343988222, 32783.72827574352, -12487.338481824218, 70758.33627680973, 41435.127429381304, 4316.546537464445, 9191.05967176672, 0.048, 0.9380000000000001, 0.126, 192.0, 0.0, 0.0, 0.0, 0.0, 0.0, 0.0, 0.0, 0.0, 0.0, 1.6665551459195917E9, 0.0, 2022-10-23 12:59:05.919
165.0, -58662.30978516457, -86238.48393422175, 31884.964631195624, -12886.764155240555, 70903.17558088012, 41089.45770137998, 3866.1588866900074, 8907.23722067323, 0.048, 0.9380000000000001, 0.126, 192.0, 0.0, 0.0, 0.0, 0.0, 0.0, 0.0, 0.0, 0.0, 0.0, 1.666555145919601E9, 0.0, 2022-10-23 12:59:05.919
166.0, -58715.14930905692, -86291.61403079201, 32963.257487208546, -12222.872641429025, 71033.97798943258, 41640.249388247656, 4656.047183996104, 9876.632377699898, 0.048, 0.9380000000000001, 0.126, 192.0, 0.0, 0.0, 0.0, 0.0, 0.0, 0.0, 0.0, 0.0, 0.0, 1.6665551459196105E9, 0.0, 2022-10-23 12:59:05.919
167.0, -58699.34662572702, -86275.3196090841, 34973.79690096342, -11158.996660589775, 71027.63009400727, 42541.53877991901, 5856.514675201735, 10992.207943464273, 0.048, 0.9380000000000001, 0.126, 192.0, 0.0, 0.0, 0.0, 0.0, 0.0, 0.0, 0.0, 0.0, 0.0, 1.6665551459196205E9, 0.0, 2022-10-23 12:59:05.919
168.0, -58608.50913626065, -86187.74547430819, 33226.15870549187, -12239.032952670212, 70780.66566952059, 41665.66332169334, 4610.002590418171, 9489.880143389719, 0.048, 0.9380000000000001, 0.126, 192.0, 0.0, 0.0, 0.0, 0.0, 0.0, 0.0, 0.0, 0.0, 0.0, 1.6665551459196298E9, 0.0, 2022-10-23 12:59:05.919
169.0, -58621.74136897819, -86192.26052668817, 31929.22108521713, -12871.140285866295, 70888.46813302852, 41132.9094926011, 3889.1811834789737, 8882.203266883287, 0.048, 0.9380000000000001, 0.126, 192.0, 0.0, 0.0, 0.0, 0.0, 0.0, 0.0, 0.0, 0.0, 0.0, 1.6665551459196396E9, 0.0, 2022-10-23 12:59:05.919
170.0, -58672.97156726976, -86245.88236163645, 32643.113451375182, -12392.924713245, 71022.28802708245, 41529.98823284963, 4468.739565460631, 9648.488122044579, 0.048, 0.9380000000000001, 0.126, 192.0, 0.0, 0.0, 0.0, 0.0, 0.0, 0.0, 0.0, 0.0, 0.0, 1.6665551459196494E9, 0.0, 2022-10-23 12:59:05.919
171.0, -58672.34571842501, -86241.34495751202, 34865.99443745547, -11186.243437080793, 71078.68147834319, 42538.23072173962, 5839.080314526595, 11001.618027879957, 0.048, 0.9380000000000001, 0.126, 192.0, 0.0, 0.0, 0.0, 0.0, 0.0, 0.0, 0.0, 0.0, 0.0, 1.6665551459196591E9, 0.0, 2022-10-23 12:59:05.919
172.0, -58591.0300720966, -86168.03123569861, 33675.138196365624, -11992.359100861442, 70793.78614351584, 41881.60352487607, 4907.5266608627635, 9794.601475548921, 0.048, 0.9380000000000001, 0.126, 192.0, 0.0, 0.0, 0.0, 0.0, 0.0, 0.0, 0.0, 0.0, 0.0, 1.6665551459196692E9, 0.0, 2022-10-23 12:59:05.919
173.0, -58617.874517187425, -86192.95343076628, 31968.023713591545, -12882.651434260779, 70848.1232342867, 41130.62961466666, 3887.48245090037, 8836.672763427827, 0.042, 0.9480000000000001, 0.128, 192.0, 1.0, 80.0, 29.0, 160.0, 4.0, 0.0, 0.0, 0.0, 0.0, 1.6665551459196794E9, 0.0, 2022-10-23 12:59:05.919
174.0, -58652.966755982256, -86222.16716076937, 32359.87214563753, -12572.141000287653, 70986.63699467624, 41393.08379806087, 4275.2852171999475, 9420.321514644804, 0.042, 0.9480000000000001, 0.128, 192.0, 0.0, 0.0, 0.0, 0.0, 0.0, 0.0, 0.0, 0.0, 0.0, 1.66655514591969E9, 0.0, 2022-10-23 12:59:05.919
175.0, -58671.98809051372, -86237.7016231658, 34592.29732660024, -11332.647363263055, 71086.7281063471, 42427.991918086045, 5690.93295227682, 10877.275273475085, 0.042, 0.9480000000000001, 0.128, 192.0, 0.0, 0.0, 0.0, 0.0, 0.0, 0.0, 0.0, 0.0, 0.0, 1.6665551459197087E9, 0.0, 2022-10-23 12:59:05.919
176.0, -58572.16519977632, -86138.39282255087, 34157.26532426659, -11719.936039440161, 70836.79089984785, 42127.584472606715, 5231.269327553431, 10146.86496816456, 0.042, 0.9480000000000001, 0.128, 192.0, 0.0, 0.0, 0.0, 0.0, 0.0, 0.0, 0.0, 0.0, 0.0, 1.6665551459197197E9, 0.0, 2022-10-23 12:59:05.919
177.0, -58557.25658622463, -86122.43367700979, 32092.098247062953, -12847.358029765848, 70833.46048992402, 41178.10471988973, 3933.2811752892944, 8853.99536538069, 0.042, 0.9480000000000001, 0.128, 192.0, 0.0, 0.0, 0.0, 0.0, 0.0, 0.0, 0.0, 0.0, 0.0, 1.6665551459197304E9, 0.0, 2022-10-23 12:59:05.919
178.0, -58603.72586294721, -86166.51131707565, 32137.539343540593, -12725.339856784327, 70986.74875339851, 41276.161822815164, 4105.367255850703, 9233.438579253982, 0.042, 0.9480000000000001, 0.128, 192.0, 0.0, 0.0, 0.0, 0.0, 0.0, 0.0, 0.0, 0.0, 0.0, 1.6665551459197392E9, 0.0, 2022-10-23 12:59:05.919
179.0, -58658.01825022916, -86220.66959389087, 34180.4664350112, -11563.026793363904, 71107.00113856807, 42248.73092755448, 5446.918958058233, 10665.805419183424, 0.042, 0.9480000000000001, 0.128, 192.0, 0.0, 0.0, 0.0, 0.0, 0.0, 0.0, 0.0, 0.0, 0.0, 1.6665551459197483E9, 0.0, 2022-10-23 12:59:05.919
180.0, -58588.370214506416, -86161.77274725113, 34525.06327927867, -11510.61195261621, 70885.987089394, 42306.39842824917, 5490.996598124099, 10462.493951617951, 0.042, 0.9480000000000001, 0.128, 192.0, 0.0, 0.0, 0.0, 0.0, 0.0, 0.0, 0.0, 0.0, 0.0, 1.6665551459197578E9, 0.0, 2022-10-23 12:59:05.919
181.0, -58557.86008332492, -86127.61928172343, 32269.526394549182, -12774.804267263922, 70790.16516091408, 41256.98402607251, 4035.4957026834136, 8920.894136535422, 0.042, 0.9480000000000001, 0.128, 192.0, 0.0, 0.0, 0.0, 0.0, 0.0, 0.0, 0.0, 0.0, 0.0, 1.666555145919767E9, 0.0, 2022-10-23 12:59:05.919
182.0, -58585.9785778497, -86152.80969772454, 31963.93334435622, -12845.704000676156, 70934.66918881764, 41186.77719673839, 3976.777669999322, 9061.196036481386, 0.032, 0.9580000000000001, 0.132, 192.0, 1.0, 0.0, 29.0, 240.0, 4.0, 32.0, 0.0, 0.0, 0.0, 1.6665551459197762E9, 0.0, 2022-10-23 12:59:05.919
183.0, -58612.0854153735, -86184.72798880673, 33692.43844657403, -11832.097093116892, 71114.7795456385, 42031.963709826916, 5154.1781609270765, 10379.85955236668, 0.032, 0.9580000000000001, 0.132, 192.0, 0.0, 0.0, 0.0, 0.0, 0.0, 0.0, 0.0, 0.0, 0.0, 1.666555145919786E9, 0.0, 2022-10-23 12:59:05.919
184.0, -58574.26626375512, -86141.25384584116, 34812.059678084814, -11319.415130545513, 70982.81484637439, 42477.210459376634, 5725.868728860465, 10759.88391159581, 0.032, 0.9580000000000001, 0.132, 192.0, 0.0, 0.0, 0.0, 0.0, 0.0, 0.0, 0.0, 0.0, 0.0, 1.666555145919795E9, 0.0, 2022-10-23 12:59:05.919
185.0, -58529.83099577797, -86093.48816794016, 32546.01747346133, -12633.653001028659, 70811.55578035781, 41390.31218174841, 4211.448635035591, 9092.533182207726, 0.032, 0.9580000000000001, 0.132, 192.0, 0.0, 0.0, 0.0, 0.0, 0.0, 0.0, 0.0, 0.0, 0.0, 1.666555145919804E9, 0.0, 2022-10-23 12:59:05.919
186.0, -58568.18658926328, -86133.72130795971, 31905.751753539058, -12885.73597499561, 70949.82367155835, 41169.02991164087, 3937.393896269071, 8997.44886129485, 0.032, 0.9580000000000001, 0.132, 192.0, 0.0, 0.0, 0.0, 0.0, 0.0, 0.0, 0.0, 0.0, 0.0, 1.666555145919813E9, 0.0, 2022-10-23 12:59:05.919
187.0, -58610.56549675054, -86187.9913434972, 33244.46478420076, -12080.827305415549, 71091.0866965159, 41835.04484117566, 4883.8114599956825, 10101.893258320482, 0.032, 0.9580000000000001, 0.132, 192.0, 0.0, 0.0, 0.0, 0.0, 0.0, 0.0, 0.0, 0.0, 0.0, 1.6665551459198225E9, 0.0, 2022-10-23 12:59:05.919
188.0, -58580.43534522478, -86144.9865871652, 34950.551086729894, -11214.674856027945, 71033.01686442099, 42565.991588353114, 5859.867436870031, 10943.302326596062, 0.032, 0.9580000000000001, 0.132, 192.0, 0.0, 0.0, 0.0, 0.0, 0.0, 0.0, 0.0, 0.0, 0.0, 1.6665551459465728E9, 0.0, 2022-10-23 12:59:05.946
189.0, -58521.58320207396, -86090.98477256118, 32903.55597776842, -12448.245280771886, 70795.82015226128, 41550.216561581685, 4438.631765679332, 9301.700806820489, 0.032, 0.9580000000000001, 0.132, 192.0, 0.0, 0.0, 0.0, 0.0, 0.0, 0.0, 0.0, 0.0, 0.0, 1.6665551459466057E9, 0.0, 2022-10-23 12:59:05.946
190.0, -58561.034031037576, -86124.4229822663, 31861.338837306364, -12935.937993042231, 70904.40492682515, 41130.36139373319, 3890.075253257186, 8898.47533684675, 0.032, 0.9580000000000001, 0.132, 192.0, 0.0, 0.0, 0.0, 0.0, 0.0, 0.0, 0.0, 0.0, 0.0, 1.6665551459466164E9, 0.0, 2022-10-23 12:59:05.946
191.0, -58606.07279611502, -86145.05364239856, 32807.01879346595, -12339.72756144137, 71044.48330932658, 41622.7256205947, 4607.521546783632, 9796.344911616436, 0.032, 0.9580000000000001, 0.132, 192.0, 0.0, 0.0, 0.0, 0.0, 0.0, 0.0, 0.0, 0.0, 0.0, 1.6665551459466908E9, 0.0, 2022-10-23 12:59:05.946
192.0, -58606.49747925967, -86154.88840995889, 34888.8826237777, -11237.250117927804, 71054.273373398, 42543.32691947543, 5860.582692692601, 10988.341091673505, 0.04, 0.9580000000000001, 0.134, 192.0, 1.0, 64.0, 29.0, 240.0, 4.0, 48.0, 0.0, 0.0, 0.0, 1.6665551459467003E9, 0.0, 2022-10-23 12:59:05.946
193.0, -58492.21300985969, -86067.09075773845, 33308.34606985403, -12236.171929379932, 70805.02907097686, 41728.69524105731, 4709.400798010922, 9580.360004944803, 0.04, 0.9580000000000001, 0.134, 192.0, 0.0, 0.0, 0.0, 0.0, 0.0, 0.0, 0.0, 0.0, 0.0, 1.6665551464195318E9, 0.0, 2022-10-23 12:59:06.419
194.0, -58524.86890850889, -86086.53677541457, 31863.775177451993, -12960.971946832175, 70895.12895287621, 41113.17290224706, 3882.676825842479, 8857.571644493539, 0.04, 0.9580000000000001, 0.134, 192.0, 0.0, 0.0, 0.0, 0.0, 0.0, 0.0, 0.0, 0.0, 0.0, 1.66655514641958E9, 0.0, 2022-10-23 12:59:06.419
195.0, -58579.608330679934, -86131.82140968101, 32481.95737385242, -12529.583278844748, 71026.0654718954, 41477.19341244619, 4414.067198522949, 9575.956711287106, 0.04, 0.9580000000000001, 0.134, 192.0, 0.0, 0.0, 0.0, 0.0, 0.0, 0.0, 0.0, 0.0, 0.0, 1.6665551464196084E9, 0.0, 2022-10-23 12:59:06.419
196.0, -58593.68992968678, -86152.49677330218, 34732.15219165709, -11298.09156633515, 71093.07600177241, 42509.46402662564, 5819.857814295032, 10982.730803815222, 0.04, 0.9580000000000001, 0.134, 192.0, 0.0, 0.0, 0.0, 0.0, 0.0, 0.0, 0.0, 0.0, 0.0, 1.6665551464196405E9, 0.0, 2022-10-23 12:59:06.419
197.0, -58509.9602949572, -86072.79045257455, 33786.33812503077, -11965.089972625969, 70824.49744039743, 41973.089214931635, 5041.078333983223, 9927.81787250255, 0.04, 0.9580000000000001, 0.134, 192.0, 0.0, 0.0, 0.0, 0.0, 0.0, 0.0, 0.0, 0.0, 0.0, 1.6665551464196677E9, 0.0, 2022-10-23 12:59:06.419
198.0, -58535.32952491397, -86085.44153993626, 31955.93141984122, -12934.328667441448, 70854.71699890101, 41157.451708013024, 3927.290907775272, 8852.22957756872, 0.04, 0.9580000000000001, 0.134, 192.0, 0.0, 0.0, 0.0, 0.0, 0.0, 0.0, 0.0, 0.0, 0.0, 1.6665551464196868E9, 0.0, 2022-10-23 12:59:06.419
199.0, -58559.11178101442, -86109.51436871462, 32206.002736807197, -12706.206763530585, 70991.28615752295, 41340.57955033536, 4223.049190407895, 9348.438304476536, 0.04, 0.9580000000000001, 0.134, 192.0, 0.0, 0.0, 0.0, 0.0, 0.0, 0.0, 0.0, 0.0, 0.0, 1.6665551464196966E9, 0.0, 2022-10-23 12:59:06.419
200.0, -58592.88526688639, -86145.34421507647, 34396.674859127386, -11478.090164433737, 71113.17022003773, 42365.362330122276, 5635.411219049838, 10823.0052379376, 0.04, 0.9580000000000001, 0.134, 192.0, 0.0, 0.0, 0.0, 0.0, 0.0, 0.0, 0.0, 0.0, 0.0, 1.6665551464197068E9, 0.0, 2022-10-23 12:59:06.419
201.0, -58514.408292103806, -86070.9129060403, 34223.4264878543, -11718.259658606012, 70879.86271141324, 42180.49105173243, 5346.492570220539, 10267.810257412226, 0.04, 0.9580000000000001, 0.134, 192.0, 0.0, 0.0, 0.0, 0.0, 0.0, 0.0, 0.0, 0.0, 0.0, 1.6665551464197166E9, 0.0, 2022-10-23 12:59:06.419
202.0, -58504.95350419921, -86060.47464137968, 32106.895101892365, -12875.141248123795, 70842.91527782861, 41213.06284821783, 4012.3616471721707, 8900.397586869907, 0.052000000000000005, 0.9480000000000001, 0.134, 192.0, 1.0, 160.0, 29.0, 160.0, 4.0, 48.0, 0.0, 0.0, 0.0, 1.6665551464197268E9, 0.0, 2022-10-23 12:59:06.419
203.0, -58538.90580402682, -86090.96242081672, 32025.37828986386, -12826.97323882261, 70971.68367763564, 41240.42138343112, 4098.639380769656, 9186.321101942194, 0.052000000000000005, 0.9480000000000001, 0.134, 192.0, 0.0, 0.0, 0.0, 0.0, 0.0, 0.0, 0.0, 0.0, 0.0, 1.666555146419738E9, 0.0, 2022-10-23 12:59:06.419
204.0, -58574.512132944124, -86121.65136595385, 33971.142348187255, -11710.436548046655, 71117.61821718434, 42169.71751090497, 5392.984198687577, 10591.61997933626, 0.052000000000000005, 0.9480000000000001, 0.134, 192.0, 0.0, 0.0, 0.0, 0.0, 0.0, 0.0, 0.0, 0.0, 0.0, 1.6665551464197478E9, 0.0, 2022-10-23 12:59:06.419
205.0, -58513.87185023688, -86067.33662692746, 34580.71912297238, -11503.794670557341, 70927.18135442512, 42353.44885032759, 5614.869965895411, 10584.445069366106, 0.052000000000000005, 0.9480000000000001, 0.134, 192.0, 0.0, 0.0, 0.0, 0.0, 0.0, 0.0, 0.0, 0.0, 0.0, 1.6665551464197576E9, 0.0, 2022-10-23 12:59:06.419
206.0, -58478.57844574195, -86033.1608096553, 32287.564252324613, -12805.850840312343, 70827.13494624317, 41265.343578498796, 4111.379875109181, 8980.461535508817, 0.052000000000000005, 0.9480000000000001, 0.134, 192.0, 0.0, 0.0, 0.0, 0.0, 0.0, 0.0, 0.0, 0.0, 0.0, 1.6665551464198282E9, 0.0, 2022-10-23 12:59:06.419
207.0, -58529.920402755786, -86080.03241777807, 31900.588500569884, -12912.826289275443, 70980.82554111785, 41165.230115083476, 4006.4384348915146, 9073.489495931804, 0.052000000000000005, 0.9480000000000001, 0.134, 192.0, 0.0, 0.0, 0.0, 0.0, 0.0, 0.0, 0.0, 0.0, 0.0, 1.6665551464198384E9, 0.0, 2022-10-23 12:59:06.419
208.0, -58600.373101278914, -86145.6347877544, 33510.02586007427, -11961.55839700203, 71120.92627536372, 41956.86184845708, 5115.129663363656, 10326.952973240968, 0.052000000000000005, 0.9480000000000001, 0.134, 192.0, 0.0, 0.0, 0.0, 0.0, 0.0, 0.0, 0.0, 0.0, 0.0, 1.6665551464198477E9, 0.0, 2022-10-23 12:59:06.419
209.0, -58559.849388581446, -86111.83895013797, 34820.12865783318, -11346.43838959198, 70972.8012648584, 42478.01512217702, 5806.267953666205, 10839.612584067892, 0.052000000000000005, 0.9480000000000001, 0.134, 192.0, 0.0, 0.0, 0.0, 0.0, 0.0, 0.0, 0.0, 0.0, 0.0, 1.6665551464198587E9, 0.0, 2022-10-23 12:59:06.419
210.0, -58494.1576116273, -86042.88381849336, 32598.07468629774, -12650.193291925585, 70791.39450685913, 41394.55901319492, 4300.90031634573, 9158.582587073159, 0.052000000000000005, 0.9480000000000001, 0.134, 192.0, 0.0, 0.0, 0.0, 0.0, 0.0, 0.0, 0.0, 0.0, 0.0, 1.666555146419872E9, 0.0, 2022-10-23 12:59:06.419
211.0, -58542.52678662858, -86088.12374927089, 31835.455517227118, -12970.650252181322, 70925.05793870187, 41117.66560288258, 3945.418172528526, 8974.806544161624, 0.056, 0.9480000000000001, 0.136, 192.0, 1.0, 192.0, 29.0, 160.0, 4.0, 64.0, 0.0, 0.0, 0.0, 1.6665551464198887E9, 0.0, 2022-10-23 12:59:06.419
212.0, -58587.14086856138, -86131.66494746984, 33065.650828558304, -12215.496565758773, 71082.66008885624, 41747.850686055506, 4837.945680373393, 10034.212176109813, 0.056, 0.9480000000000001, 0.136, 192.0, 0.0, 0.0, 0.0, 0.0, 0.0, 0.0, 0.0, 0.0, 0.0, 1.6665551464199045E9, 0.0, 2022-10-23 12:59:06.419
213.0, -58565.5267316731, -86109.49201697017, 34892.99534475748, -11283.831153372665, 71044.23744013756, 42525.89255880029, 5894.244419842294, 10981.523809614637, 0.056, 0.9480000000000001, 0.136, 192.0, 0.0, 0.0, 0.0, 0.0, 0.0, 0.0, 0.0, 0.0, 0.0, 1.6665551464199193E9, 0.0, 2022-10-23 12:59:06.419
214.0, -58493.24119010463, -86043.75553652711, 32963.99509477557, -12462.349231523185, 70809.14179195664, 41550.060099370494, 4530.743304579652, 9387.710319484511, 0.056, 0.9480000000000001, 0.136, 192.0, 0.0, 0.0, 0.0, 0.0, 0.0, 0.0, 0.0, 0.0, 0.0, 1.6665551464199333E9, 0.0, 2022-10-23 12:59:06.419
215.0, -58535.0166004916, -86080.99354278966, 31810.220397737077, -13007.86590669941, 70922.50983983396, 41084.24974492189, 3908.1801662659846, 8901.492822348217, 0.056, 0.9480000000000001, 0.136, 192.0, 0.0, 0.0, 0.0, 0.0, 0.0, 0.0, 0.0, 0.0, 0.0, 1.6665551464199471E9, 0.0, 2022-10-23 12:59:06.419
216.0, -58573.10397304344, -86114.05177283906, 32672.2601261449, -12441.249184757375, 71068.91376601622, 41559.559590764, 4586.712072695741, 9763.800771689508, 0.056, 0.9480000000000001, 0.136, 192.0, 0.0, 0.0, 0.0, 0.0, 0.0, 0.0, 0.0, 0.0, 0.0, 1.6665551464199677E9, 0.0, 2022-10-23 12:59:06.419
217.0, -58586.51501971663, -86133.94482540427, 34857.76899549592, -11260.875911817064, 71104.67655714472, 42551.99939632409, 5928.55434758119, 11060.827798942066, 0.056, 0.9480000000000001, 0.136, 192.0, 0.0, 0.0, 0.0, 0.0, 0.0, 0.0, 0.0, 0.0, 0.0, 1.6665551464199796E9, 0.0, 2022-10-23 12:59:06.419
218.0, -58511.05553043551, -86062.08396698046, 33463.75774905178, -12168.31203321362, 70818.79774556133, 41809.13916935196, 4871.786221478727, 9732.016591074062, 0.056, 0.9480000000000001, 0.136, 192.0, 0.0, 0.0, 0.0, 0.0, 0.0, 0.0, 0.0, 0.0, 0.0, 1.6665551464199893E9, 0.0, 2022-10-23 12:59:06.419
219.0, -58517.44812934973, -86063.67094083679, 31906.064677961433, -12955.13814152934, 70907.46711581554, 41142.05135608332, 3960.684413991501, 8902.56570608207, 0.056, 0.9480000000000001, 0.136, 192.0, 0.0, 0.0, 0.0, 0.0, 0.0, 0.0, 0.0, 0.0, 0.0, 1.666555146419999E9, 0.0, 2022-10-23 12:59:06.419
220.0, -58566.24198749566, -86108.28502276957, 32401.066410668664, -12585.239122538464, 71050.5182803295, 41449.477249321615, 4416.168262501748, 9543.390219615725, 0.056, 0.9480000000000001, 0.136, 192.0, 0.0, 0.0, 0.0, 0.0, 0.0, 0.0, 0.0, 0.0, 0.0, 1.66655514642001E9, 0.0, 2022-10-23 12:59:06.420
221.0, -58593.51111573114, -86137.1858283503, 34674.79761538477, -11320.95740091293, 71143.07685411893, 42509.35226790336, 5858.34751824707, 10998.399376678393, 0.054, 0.9520000000000001, 0.134, 192.0, 1.0, 176.0, 29.0, 192.0, 4.0, 48.0, 0.0, 0.0, 0.0, 1.66655514642002E9, 0.0, 2022-10-23 12:59:06.420
222.0, -58494.537591283035, -86039.44164984723, 33971.94701098764, -11856.572253295453, 70881.8296649253, 42074.14145161408, 5224.429693750107, 10087.543438380175, 0.054, 0.9520000000000001, 0.134, 192.0, 0.0, 0.0, 0.0, 0.0, 0.0, 0.0, 0.0, 0.0, 0.0, 1.6665551464200432E9, 0.0, 2022-10-23 12:59:06.420
223.0, -58500.79607973053, -86043.28614989355, 32006.58047277695, -12911.574591585946, 70891.61972899672, 41177.34476057825, 4001.4986993668917, 8885.444269829306, 0.054, 0.9520000000000001, 0.134, 192.0, 0.0, 0.0, 0.0, 0.0, 0.0, 0.0, 0.0, 0.0, 0.0, 1.6665551464200528E9, 0.0, 2022-10-23 12:59:06.420
224.0, -58550.64046986586, -86094.98573481868, 32163.73558804221, -12723.641124205724, 71026.49015504005, 41329.33662287434, 4243.165760417672, 9325.103083265196, 0.054, 0.9520000000000001, 0.134, 192.0, 0.0, 0.0, 0.0, 0.0, 0.0, 0.0, 0.0, 0.0, 0.0, 1.6665551464200635E9, 0.0, 2022-10-23 12:59:06.420
225.0, -58582.93874060378, -86130.90498815835, 34295.42145674484, -11516.110481752215, 71147.1895750987, 42337.26618734196, 5630.270317825118, 10786.504839242083, 0.054, 0.9520000000000001, 0.134, 192.0, 0.0, 0.0, 0.0, 0.0, 0.0, 0.0, 0.0, 0.0, 0.0, 1.6665551464200745E9, 0.0, 2022-10-23 12:59:06.420
226.0, -58508.01569318959, -86057.92654251178, 34385.74485608874, -11610.77011952044, 70909.52347630543, 42272.49083191047, 5502.798319196501, 10402.144241588621, 0.054, 0.9520000000000001, 0.134, 192.0, 0.0, 0.0, 0.0, 0.0, 0.0, 0.0, 0.0, 0.0, 0.0, 1.666555146420084E9, 0.0, 2022-10-23 12:59:06.420
227.0, -58496.23632386164, -86041.47565859267, 32197.062039025077, -12816.020884039508, 70866.00462985094, 41266.55057269938, 4103.020322682896, 8947.783285115158, 0.054, 0.9520000000000001, 0.134, 192.0, 0.0, 0.0, 0.0, 0.0, 0.0, 0.0, 0.0, 0.0, 0.0, 1.6665551464200935E9, 0.0, 2022-10-23 12:59:06.420
228.0, -58542.39267616185, -86083.92162131329, 32031.972054478178, -12800.48642164307, 71004.54074198494, 41271.73617741301, 4140.884177790186, 9181.24725595084, 0.054, 0.9520000000000001, 0.134, 192.0, 0.0, 0.0, 0.0, 0.0, 0.0, 0.0, 0.0, 0.0, 0.0, 1.6665551464201033E9, 0.0, 2022-10-23 12:59:06.420
229.0, -58584.45865922674, -86129.60858697994, 33841.47987860202, -11758.023411992004, 71137.06423486046, 42132.72537383144, 5347.498398721028, 10512.383045242197, 0.054, 0.9520000000000001, 0.134, 192.0, 0.0, 0.0, 0.0, 0.0, 0.0, 0.0, 0.0, 0.0, 0.0, 1.6665551464201128E9, 0.0, 2022-10-23 12:59:06.420
230.0, -58565.90671132883, -86121.85253165395, 34690.86851964814, -11418.634524182622, 70939.07248247534, 42424.907377351214, 5718.380894467938, 10671.773334952992, 0.054, 0.9520000000000001, 0.134, 192.0, 0.0, 0.0, 0.0, 0.0, 0.0, 0.0, 0.0, 0.0, 0.0, 1.6665551464201224E9, 0.0, 2022-10-23 12:59:06.420
231.0, -58516.15172817132, -86066.97899901617, 32431.218913938872, -12703.993940829509, 70813.03099549186, 41358.75151857752, 4222.557452029879, 9042.577033350115, 0.054, 0.9520000000000001, 0.13, 192.0, 1.0, 176.0, 29.0, 192.0, 4.0, 16.0, 0.0, 0.0, 0.0, 1.6665551464201317E9, 0.0, 2022-10-23 12:59:06.420
232.0, -58535.508338869615, -86080.61356313391, 31957.630152419824, -12843.558233208447, 70990.41443948918, 41237.94033979659, 4067.61515946569, 9072.103687775576, 0.054, 0.9520000000000001, 0.13, 192.0, 0.0, 0.0, 0.0, 0.0, 0.0, 0.0, 0.0, 0.0, 0.0, 1.6665551464201422E9, 0.0, 2022-10-23 12:59:06.420
233.0, -58593.71228143124, -86142.81846795302, 33423.56931252114, -11974.500057041652, 71112.36555723734, 41958.94056069143, 5083.256075770388, 10236.182539007967, 0.054, 0.9520000000000001, 0.13, 192.0, 0.0, 0.0, 0.0, 0.0, 0.0, 0.0, 0.0, 0.0, 0.0, 1.6665551464201517E9, 0.0, 2022-10-23 12:59:06.420
234.0, -58557.189530991265, -86101.0207058216, 34958.19538333361, -11213.22199263835, 71030.49111729756, 42600.81560621448, 5933.114103450072, 10932.998172402165, 0.054, 0.9520000000000001, 0.13, 192.0, 0.0, 0.0, 0.0, 0.0, 0.0, 0.0, 0.0, 0.0, 0.0, 1.6665551464201615E9, 0.0, 2022-10-23 12:59:06.420
235.0, -58478.57844574195, -86023.84013221743, 32818.12761046024, -12484.477458533938, 70829.79480383334, 41543.10870684489, 4458.5024665001, 9264.865131958144, 0.054, 0.9520000000000001, 0.13, 192.0, 0.0, 0.0, 0.0, 0.0, 0.0, 0.0, 0.0, 0.0, 0.0, 1.6665551464201708E9, 0.0, 2022-10-23 12:59:06.420
236.0, -58514.78827175955, -86050.77398428608, 31896.632241801293, -12905.159640927273, 70948.61667735776, 41172.270914586894, 3984.556077069769, 8953.840607862545, 0.054, 0.9520000000000001, 0.13, 192.0, 0.0, 0.0, 0.0, 0.0, 0.0, 0.0, 0.0, 0.0, 0.0, 1.6665551464201803E9, 0.0, 2022-10-23 12:59:06.420
237.0, -58569.572397419506, -86108.91087161432, 32975.081560025406, -12235.300211346175, 71096.00408029606, 41726.169493933856, 4780.2781796787, 9927.661410291365, 0.054, 0.9520000000000001, 0.13, 192.0, 0.0, 0.0, 0.0, 0.0, 0.0, 0.0, 0.0, 0.0, 0.0, 1.66655514642019E9, 0.0, 2022-10-23 12:59:06.420
238.0, -58595.92510413231, -86149.90397094536, 34983.67637201266, -11174.844047408587, 71093.6347953838, 42614.42781858776, 5979.628083661567, 11041.292374288127, 0.054, 0.9520000000000001, 0.13, 192.0, 0.0, 0.0, 0.0, 0.0, 0.0, 0.0, 0.0, 0.0, 0.0, 1.6665551464202085E9, 0.0, 2022-10-23 12:59:06.420
239.0, -58515.39176885984, -86079.36186544441, 33230.87492357194, -12262.792857026203, 70827.69373985454, 41716.06650544006, 4714.74286493574, 9525.50882405148, 0.054, 0.9520000000000001, 0.13, 192.0, 0.0, 0.0, 0.0, 0.0, 0.0, 0.0, 0.0, 0.0, 0.0, 1.6665551464202187E9, 0.0, 2022-10-23 12:59:06.420
240.0, -58551.82511232199, -86111.43661873777, 31930.69630035118, -12898.498821079591, 70914.6867292746, 41174.28257158787, 3981.0915566791964, 8908.511270107183, 0.054, 0.9520000000000001, 0.13, 192.0, 0.0, 0.0, 0.0, 0.0, 0.0, 0.0, 0.0, 0.0, 0.0, 1.6665551464202285E9, 0.0, 2022-10-23 12:59:06.420
241.0, -58585.73270866069, -86139.39865105136, 32645.192163609525, -12419.657399613548, 71049.2218791511, 41574.825832226976, 4560.135848538381, 9673.231503156603, 0.054, 0.9520000000000001, 0.126, 192.0, 1.0, 176.0, 29.0, 192.0, 3.0, 240.0, 0.0, 0.0, 0.0, 1.6665551464202392E9, 0.0, 2022-10-23 12:59:06.420
242.0, -58582.40229873685, -86137.72227021721, 34859.80300424135, -11216.865326984564, 71113.12551654883, 42576.58631522493, 5927.682629547433, 11019.745292633212, 0.054, 0.9520000000000001, 0.126, 192.0, 0.0, 0.0, 0.0, 0.0, 0.0, 0.0, 0.0, 0.0, 0.0, 1.6665551464202497E9, 0.0, 2022-10-23 12:59:06.420
243.0, -58504.72998675466, -86070.95760952921, 33655.42395775604, -12029.172423979333, 70835.33803645827, 41907.84447286659, 4979.879257664592, 9799.89883898483, 0.054, 0.9520000000000001, 0.126, 192.0, 0.0, 0.0, 0.0, 0.0, 0.0, 0.0, 0.0, 0.0, 0.0, 1.6665551464202597E9, 0.0, 2022-10-23 12:59:06.420
244.0, -58530.38978938935, -86093.08583653998, 31958.457166964672, -12904.26557114906, 70898.43701105559, 41168.69463547404, 3968.3957658285817, 8855.269414814642, 0.054, 0.9520000000000001, 0.126, 192.0, 0.0, 0.0, 0.0, 0.0, 0.0, 0.0, 0.0, 0.0, 0.0, 1.6665551464202693E9, 0.0, 2022-10-23 12:59:06.420
245.0, -58565.21380725072, -86128.28983405708, 32329.96551155633, -12603.724015203003, 71023.83029744987, 41413.96032738213, 4340.976994154095, 9424.300125157848, 0.054, 0.9520000000000001, 0.126, 192.0, 0.0, 0.0, 0.0, 0.0, 0.0, 0.0, 0.0, 0.0, 0.0, 1.6665551464202788E9, 0.0, 2022-10-23 12:59:06.420
246.0, -58610.27492407262, -86159.76109025015, 34583.93777417395, -11336.447159820456, 71133.95734238117, 42474.483546553085, 5785.0114446892085, 10911.227573302696, 0.054, 0.9520000000000001, 0.126, 192.0, 0.0, 0.0, 0.0, 0.0, 0.0, 0.0, 0.0, 0.0, 0.0, 1.6665551464202886E9, 0.0, 2022-10-23 12:59:06.420
247.0, -58509.7591292571, -86076.47849040967, 34163.322647013985, -11710.503603280022, 70867.56925196282, 42180.89338313263, 5335.182587526154, 10186.11463142808, 0.054, 0.9520000000000001, 0.126, 192.0, 0.0, 0.0, 0.0, 0.0, 0.0, 0.0, 0.0, 0.0, 0.0, 1.666555146420298E9, 0.0, 2022-10-23 12:59:06.420
248.0, -58490.558980769994, -86064.05092049253, 32086.26444176012, -12844.497006475569, 70854.51583320092, 41219.20957794304, 4022.5316908993354, 8868.345185320995, 0.054, 0.9520000000000001, 0.126, 192.0, 0.0, 0.0, 0.0, 0.0, 0.0, 0.0, 0.0, 0.0, 0.0, 1.666555146420308E9, 0.0, 2022-10-23 12:59:06.420
249.0, -58540.73864707216, -86109.40260999235, 32106.87275014791, -12740.941374414131, 70989.94505285562, 41294.35614280178, 4168.801506614865, 9217.434730223982, 0.054, 0.9520000000000001, 0.126, 192.0, 0.0, 0.0, 0.0, 0.0, 0.0, 0.0, 0.0, 0.0, 0.0, 1.666555146420318E9, 0.0, 2022-10-23 12:59:06.420
250.0, -58600.70837744575, -86166.26544788665, 34141.37323395887, -11581.24346509498, 71129.8893248903, 42258.096308481254, 5503.982961652632, 10651.097971331832, 0.048, 0.9520000000000001, 0.13, 192.0, 1.0, 128.0, 29.0, 192.0, 4.0, 16.0, 0.0, 0.0, 0.0, 1.6665551464203277E9, 0.0, 2022-10-23 12:59:06.420
251.0, -58565.28086248408, -86129.51918000213, 34513.08274425063, -11507.505060136922, 70911.15515365066, 42334.36046056276, 5566.657253105313, 10473.088678489767, 0.048, 0.9520000000000001, 0.13, 192.0, 0.0, 0.0, 0.0, 0.0, 0.0, 0.0, 0.0, 0.0, 0.0, 1.666555146420339E9, 0.0, 2022-10-23 12:59:06.420
252.0, -58525.89708875383, -86094.96338307421, 32273.370894595493, -12761.326165357372, 70824.72095784199, 41291.11513985576, 4114.0397326993625, 8941.703610623314, 0.048, 0.9520000000000001, 0.13, 192.0, 0.0, 0.0, 0.0, 0.0, 0.0, 0.0, 0.0, 0.0, 0.0, 1.6665551464203486E9, 0.0, 2022-10-23 12:59:06.420
253.0, -58543.39850466234, -86107.65917392483, 32020.930292717254, -12789.914046515709, 70986.14525629822, 41264.20363953157, 4101.902735460131, 9123.37858955605, 0.048, 0.9520000000000001, 0.13, 192.0, 0.0, 0.0, 0.0, 0.0, 0.0, 0.0, 0.0, 0.0, 0.0, 1.6665551464203672E9, 0.0, 2022-10-23 12:59:06.420
254.0, -58576.5237899451, -86134.10128761546, 33756.5656014163, -11774.250778466556, 71143.27801981903, 42111.40180962108, 5282.47717410054, 10436.409465838608, 0.048, 0.9520000000000001, 0.13, 192.0, 0.0, 0.0, 0.0, 0.0, 0.0, 0.0, 0.0, 0.0, 0.0, 1.6665551464203768E9, 0.0, 2022-10-23 12:59:06.420
255.0, -58541.20803370572, -86104.86520586791, 34861.009998441936, -11276.209208513405, 70998.97515761557, 42536.2414164831, 5835.124055758007, 10791.891609655811, 0.048, 0.9520000000000001, 0.13, 192.0, 0.0, 0.0, 0.0, 0.0, 0.0, 0.0, 0.0, 0.0, 0.0, 1.6665551464203866E9, 0.0, 2022-10-23 12:59:06.420
0.0, -58500.77372798607, -86061.43576639125, 32610.524607959345, -12577.706584657024, 70832.36525444571, 41457.21095290315, 4328.1694445812045, 9125.680819234947, 0.048, 0.9520000000000001, 0.13, 192.0, 0.0, 0.0, 0.0, 0.0, 0.0, 0.0, 0.0, 0.0, 0.0, 1.6665551464203963E9, 0.0, 2022-10-23 12:59:06.420
1.0, -58521.00205671812, -86090.80595860553, 31956.825489619434, -12842.30653551895, 70963.16766299817, 41219.678964576604, 4036.4791794394473, 9012.715102757824, 0.048, 0.9520000000000001, 0.13, 192.0, 0.0, 0.0, 0.0, 0.0, 0.0, 0.0, 0.0, 0.0, 0.0, 1.6665551464204059E9, 0.0, 2022-10-23 12:59:06.420
2.0, -58572.47812419869, -86141.11973537442, 33297.125494137465, -12034.112159503957, 71112.72318514863, 41890.99125754729, 4985.958932156436, 10121.741607396794, 0.048, 0.9520000000000001, 0.13, 192.0, 0.0, 0.0, 0.0, 0.0, 0.0, 0.0, 0.0, 0.0, 0.0, 1.6665551464204156E9, 0.0, 2022-10-23 12:59:06.420
3.0, -58575.45090621125, -86138.05754638405, 34978.44606381012, -11192.189001105906, 71031.51929754249, 42597.90987943529, 5932.532958094234, 10939.524881783114, 0.048, 0.9520000000000001, 0.13, 192.0, 0.0, 0.0, 0.0, 0.0, 0.0, 0.0, 0.0, 0.0, 0.0, 1.6665551464204252E9, 0.0, 2022-10-23 12:59:06.420
4.0, -58495.47636455016, -86050.55046684152, 32922.644367533256, -12428.799263095769, 70812.3604431582, 41570.355483335916, 4495.360493106901, 9295.665835817557, 0.044, 0.9500000000000001, 0.136, 192.0, 1.0, 96.0, 29.0, 176.0, 4.0, 64.0, 0.0, 0.0, 0.0, 1.6665551464204357E9, 0.0, 2022-10-23 12:59:06.420
5.0, -58489.32963482495, -86062.03926349155, 31907.40578262875, -12884.618387772845, 70968.08504677833, 41175.17664136608, 3971.748527496878, 8925.453892404306, 0.044, 0.9500000000000001, 0.136, 192.0, 0.0, 0.0, 0.0, 0.0, 0.0, 0.0, 0.0, 0.0, 0.0, 1.666555146420446E9, 0.0, 2022-10-23 12:59:06.420
6.0, -58547.28770819756, -86114.58821470597, 32862.18289878165, -12280.76365956827, 71103.49191468858, 41673.57583923052, 4695.408605981899, 9829.939583532761, 0.044, 0.9500000000000001, 0.136, 192.0, 0.0, 0.0, 0.0, 0.0, 0.0, 0.0, 0.0, 0.0, 0.0, 1.6665551464204564E9, 0.0, 2022-10-23 12:59:06.420
7.0, -58580.614159180426, -86147.78055522211, 34929.60750217528, -11190.624378994034, 71094.84178958437, 42582.062492616475, 5935.595147084612, 11012.503327429691, 0.044, 0.9500000000000001, 0.136, 192.0, 0.0, 0.0, 0.0, 0.0, 0.0, 0.0, 0.0, 0.0, 0.0, 1.6665551464204662E9, 0.0, 2022-10-23 12:59:06.420
8.0, -58508.9097629678, -86079.38421718887, 33349.60739011853, -12194.709443415339, 70803.710318054, 41763.31809321858, 4771.426888874399, 9587.579618403866, 0.044, 0.9500000000000001, 0.136, 192.0, 0.0, 0.0, 0.0, 0.0, 0.0, 0.0, 0.0, 0.0, 0.0, 1.6665551464204757E9, 0.0, 2022-10-23 12:59:06.420
9.0, -58517.336370627454, -86083.318124213, 31931.009224773556, -12897.492992579102, 70903.7343744915, 41168.40406279613, 3959.0080331573527, 8878.314063348063, 0.044, 0.9500000000000001, 0.136, 192.0, 0.0, 0.0, 0.0, 0.0, 0.0, 0.0, 0.0, 0.0, 0.0, 1.6665551464204855E9, 0.0, 2022-10-23 12:59:06.420
10.0, -58573.886284099375, -86134.30245331555, 32551.091319452684, -12461.790437911803, 71035.90023945573, 41533.162180562285, 4486.3080366025015, 9589.99360680504, 0.044, 0.9500000000000001, 0.136, 192.0, 0.0, 0.0, 0.0, 0.0, 0.0, 0.0, 0.0, 0.0, 0.0, 1.6665551464204948E9, 0.0, 2022-10-23 12:59:06.420
11.0, -58603.256476313654, -86169.6405612994, 34788.232718495456, -11242.79335055272, 71102.32962397691, 42549.18307652272, 5875.915989388942, 10979.333338658016, 0.044, 0.9500000000000001, 0.136, 192.0, 0.0, 0.0, 0.0, 0.0, 0.0, 0.0, 0.0, 0.0, 0.0, 1.6665551464205048E9, 0.0, 2022-10-23 12:59:06.420
12.0, -58508.19450714523, -86081.61939163439, 33837.8365442558, -11916.78785285805, 70837.05912078133, 42001.49828213433, 5088.508735717384, 9916.083206663514, 0.044, 0.9500000000000001, 0.136, 192.0, 0.0, 0.0, 0.0, 0.0, 0.0, 0.0, 0.0, 0.0, 0.0, 1.6665551464205143E9, 0.0, 2022-10-23 12:59:06.420
13.0, -58511.2119926467, -86083.13931025736, 32027.255836398108, -12867.83222768691, 70889.20574059556, 41200.76938876741, 3992.334484140216, 8861.684365473315, 0.044, 0.9500000000000001, 0.136, 192.0, 0.0, 0.0, 0.0, 0.0, 0.0, 0.0, 0.0, 0.0, 0.0, 1.6665551464205327E9, 0.0, 2022-10-23 12:59:06.420
