%OpenBCI Raw EEG Data
%Number of channels = 8
%Sample Rate = 250 Hz
%Board = OpenBCI_GUI$BoardCytonSerial
Sample Index, EXG Channel 0, EXG Channel 1, EXG Channel 2, EXG Channel 3, EXG Channel 4, EXG Channel 5, EXG Channel 6, EXG Channel 7, Accel Channel 0, Accel Channel 1, Accel Channel 2, Other, Other, Other, Other, Other, Other, Other, Analog Channel 0, Analog Channel 1, Analog Channel 2, Timestamp, Other, Timestamp (Formatted)
130.0, -72659.62036366705, -104428.64649637301, 64810.96176039717, 16789.490495859445, 77233.97192167901, 80791.63203139688, 37035.96884441005, 35014.47707587208, 0.0, 0.0, 0.0, 192.0, 0.0, 0.0, 0.0, 0.0, 0.0, 0.0, 0.0, 0.0, 0.0, 1.6665556900406263E9, 0.0, 2022-10-23 13:08:10.040
131.0, -72697.61832924109, -104462.64349968953, 65474.83092246424, 17125.571325489444, 77366.74128374354, 81163.408596922, 37569.6167432805, 35725.150790828564, 0.0, 0.0, 0.0, 192.0, 0.0, 0.0, 0.0, 0.0, 0.0, 0.0, 0.0, 0.0, 0.0, 1.6665556900406425E9, 0.0, 2022-10-23 13:08:10.040
132.0, -72716.46084981691, -104485.10700286711, 67664.76543721741, 17371.462866242277, 77441.530220691, 82163.35858861907, 38929.20630326346, 37098.39726667372, 0.0, 0.0, 0.0, 192.0, 0.0, 0.0, 0.0, 0.0, 0.0, 0.0, 0.0, 0.0, 0.0, 1.666555690040652E9, 0.0, 2022-10-23 13:08:10.040
133.0, -72641.67191286945, -104416.5989061116, 66556.52124363437, 16721.54119271531, 77159.02652252038, 81558.34156970282, 38074.743816225986, 35989.750741690485, 0.0, 0.0, 0.0, 192.0, 0.0, 0.0, 0.0, 0.0, 0.0, 0.0, 0.0, 0.0, 0.0, 1.66655569004066E9, 0.0, 2022-10-23 13:08:10.040
134.0, -72647.34925596109, -104417.13534797852, 64829.513708295075, 16719.797756647797, 77196.6221566942, 80787.69812437274, 37024.5918064823, 34978.937802188135, 0.0, 0.0, 0.0, 192.0, 0.0, 0.0, 0.0, 0.0, 0.0, 0.0, 0.0, 0.0, 0.0, 1.6665556900406682E9, 0.0, 2022-10-23 13:08:10.040
135.0, -72691.09161986013, -104458.21785428737, 65161.63827915648, 17047.80960652943, 77343.62957997675, 81012.4672666153, 37355.934066287766, 35498.41469507393, 0.0, 0.0, 0.0, 192.0, 0.0, 0.0, 0.0, 0.0, 0.0, 0.0, 0.0, 0.0, 0.0, 1.666555690040676E9, 0.0, 2022-10-23 13:08:10.040
136.0, -72726.58619005515, -104494.76295647181, 67349.6952473754, 17390.797125196117, 77457.64582844327, 82037.89824699143, 38753.968626733855, 36963.1245092302, 0.0, 0.0, 0.0, 192.0, 0.0, 0.0, 0.0, 0.0, 0.0, 0.0, 0.0, 0.0, 0.0, 1.6665556900406837E9, 0.0, 2022-10-23 13:08:10.040
137.0, -72655.06060779818, -104428.31122020617, 66974.23064401516, 16823.10751952023, 77192.77765664789, 81756.48978429912, 38351.63722653833, 36321.80825731853, 0.0, 0.0, 0.0, 192.0, 0.0, 0.0, 0.0, 0.0, 0.0, 0.0, 0.0, 0.0, 0.0, 1.6665556900406916E9, 0.0, 2022-10-23 13:08:10.040
138.0, -72652.11017753008, -104421.96332478087, 64961.05372441456, 16675.429543904014, 77178.96427857451, 80848.96425592474, 37094.753932327505, 35030.72679409108, 0.0, 0.0, 0.0, 192.0, 0.0, 0.0, 0.0, 0.0, 0.0, 0.0, 0.0, 0.0, 0.0, 1.6665556900406995E9, 0.0, 2022-10-23 13:08:10.040
139.0, -72682.73206743384, -104452.33934549562, 64970.55321580807, 16982.6095679533, 77315.73460289653, 80926.81538186257, 37222.36004142285, 35334.84462914999, 0.032, 0.9580000000000001, 0.09, 192.0, 1.0, 0.0, 29.0, 240.0, 2.0, 208.0, 0.0, 0.0, 0.0, 1.666555690040707E9, 0.0, 2022-10-23 13:08:10.040
140.0, -72729.00017845634, -104494.91941868298, 66949.21904196967, 17381.878779158447, 77467.70411344816, 81875.4234165458, 38519.47647565323, 36740.9705210889, 0.032, 0.9580000000000001, 0.09, 192.0, 0.0, 0.0, 0.0, 0.0, 0.0, 0.0, 0.0, 0.0, 0.0, 1.6665556900407171E9, 0.0, 2022-10-23 13:08:10.040
141.0, -72671.3550295061, -104445.61147041459, 67372.15875055299, 16957.620317652265, 77252.38975911018, 81970.23951652522, 38630.3187764071, 36647.09319437661, 0.032, 0.9580000000000001, 0.09, 192.0, 0.0, 0.0, 0.0, 0.0, 0.0, 0.0, 0.0, 0.0, 0.0, 1.6665556900407257E9, 0.0, 2022-10-23 13:08:10.040
142.0, -72646.72340711634, -104419.16935672396, 65141.40995042443, 16618.633761243076, 77141.23453393395, 80922.0544602936, 37184.719703760114, 35098.85491119086, 0.032, 0.9580000000000001, 0.09, 192.0, 0.0, 0.0, 0.0, 0.0, 0.0, 0.0, 0.0, 0.0, 0.0, 1.6665556900407338E9, 0.0, 2022-10-23 13:08:10.040
143.0, -72684.05082035672, -104453.63574667404, 64835.21340313118, 16919.354131144777, 77282.67637284713, 80850.79709897007, 37109.95311855711, 35196.46497922719, 0.032, 0.9580000000000001, 0.09, 192.0, 0.0, 0.0, 0.0, 0.0, 0.0, 0.0, 0.0, 0.0, 0.0, 1.6665556900407417E9, 0.0, 2022-10-23 13:08:10.040
144.0, -72723.34518710914, -104488.99620640233, 66512.8459349687, 17336.14711000289, 77443.60893292534, 81674.12360598131, 38244.57237059741, 36471.25202074671, 0.032, 0.9580000000000001, 0.09, 192.0, 0.0, 0.0, 0.0, 0.0, 0.0, 0.0, 0.0, 0.0, 0.0, 1.6665556900407498E9, 0.0, 2022-10-23 13:08:10.040
145.0, -72682.53090173374, -104453.81456062967, 67691.40871660814, 17111.221505549136, 77309.83374236032, 82136.55884701715, 38858.08305240668, 36934.02253794939, 0.032, 0.9580000000000001, 0.09, 192.0, 0.0, 0.0, 0.0, 0.0, 0.0, 0.0, 0.0, 0.0, 0.0, 1.666555690040758E9, 0.0, 2022-10-23 13:08:10.040
146.0, -72636.7992325782, -104410.72039731985, 65518.28271368537, 16617.180897853483, 77130.68451055104, 81099.95199441338, 37411.366392536926, 35312.9846230727, 0.032, 0.9580000000000001, 0.09, 192.0, 0.0, 0.0, 0.0, 0.0, 0.0, 0.0, 0.0, 0.0, 0.0, 1.6665556900408719E9, 0.0, 2022-10-23 13:08:10.040
147.0, -72665.61063118109, -104437.34132496612, 64880.49803739763, 16883.367822571734, 77264.12442494923, 80889.2420994332, 37125.934615842656, 35165.53016490104, 0.032, 0.9580000000000001, 0.09, 192.0, 0.0, 0.0, 0.0, 0.0, 0.0, 0.0, 0.0, 0.0, 0.0, 1.6665556900408816E9, 0.0, 2022-10-23 13:08:10.040
148.0, -72705.03910840025, -104474.78049692875, 66155.06156147261, 17272.914024938826, 77421.79363033696, 81537.01800549246, 38025.301757490844, 36216.24096825611, 0.026000000000000002, 0.9580000000000001, 0.094, 192.0, 0.0, 208.0, 29.0, 240.0, 2.0, 240.0, 0.0, 0.0, 0.0, 1.66655569004089E9, 0.0, 2022-10-23 13:08:10.040
149.0, -72689.92932914845, -104464.34223226813, 67888.23817828156, 17248.215347315712, 77380.35349611682, 82283.5662702997, 39027.44222014454, 37129.130915299764, 0.026000000000000002, 0.9580000000000001, 0.094, 192.0, 0.0, 0.0, 0.0, 0.0, 0.0, 0.0, 0.0, 0.0, 0.0, 1.6665556900408988E9, 0.0, 2022-10-23 13:08:10.040
150.0, -72624.90810452797, -104401.53383034872, 65895.49075311313, 16620.600714755146, 77127.91289423859, 81277.35779015515, 37637.27547374672, 35523.09102095259, 0.026000000000000002, 0.9580000000000001, 0.094, 192.0, 0.0, 0.0, 0.0, 0.0, 0.0, 0.0, 0.0, 0.0, 0.0, 1.666555690040907E9, 0.0, 2022-10-23 13:08:10.040
151.0, -72654.47946244234, -104423.68440910392, 64832.48649030763, 16824.918010821108, 77251.24982014297, 80851.9370379373, 37061.00279819999, 35064.36616949632, 0.026000000000000002, 0.9580000000000001, 0.094, 192.0, 0.0, 0.0, 0.0, 0.0, 0.0, 0.0, 0.0, 0.0, 0.0, 1.6665556900409148E9, 0.0, 2022-10-23 13:08:10.040
152.0, -72696.6572042295, -104465.77274391327, 65743.96827745059, 17193.721794333673, 77394.77037129049, 81345.53061074384, 37749.57063789018, 35922.67315658011, 0.026000000000000002, 0.9580000000000001, 0.094, 192.0, 0.0, 0.0, 0.0, 0.0, 0.0, 0.0, 0.0, 0.0, 0.0, 1.6665556900409243E9, 0.0, 2022-10-23 13:08:10.040
153.0, -72705.41908805599, -104478.24501731934, 67832.67174156567, 17338.091711770503, 77414.93164478918, 82274.82673821769, 39012.980641481954, 37162.25620058253, 0.026000000000000002, 0.9580000000000001, 0.094, 192.0, 0.0, 0.0, 0.0, 0.0, 0.0, 0.0, 0.0, 0.0, 0.0, 1.6665556900409327E9, 0.0, 2022-10-23 13:08:10.040
154.0, -72632.5971046206, -104413.87199328805, 66325.20304026641, 16662.19731118647, 77129.47751635045, 81471.10271109376, 37902.59068043121, 35805.9523470345, 0.026000000000000002, 0.9580000000000001, 0.094, 192.0, 0.0, 0.0, 0.0, 0.0, 0.0, 0.0, 0.0, 0.0, 0.0, 1.6665556900409408E9, 0.0, 2022-10-23 13:08:10.040
155.0, -72652.31134323018, -104432.55805165268, 64841.44953983421, 16751.581937263243, 77206.63573821017, 80830.07703186, 37031.051460629875, 35005.290508900944, 0.026000000000000002, 0.9580000000000001, 0.094, 192.0, 0.0, 0.0, 0.0, 0.0, 0.0, 0.0, 0.0, 0.0, 0.0, 1.6665556900409489E9, 0.0, 2022-10-23 13:08:10.040
156.0, -72701.3063670762, -104476.94861614093, 65368.995412468365, 17087.43924944869, 77350.51391726898, 81143.33673040113, 37483.56252712757, 35638.02369094177, 0.026000000000000002, 0.9580000000000001, 0.094, 192.0, 0.0, 0.0, 0.0, 0.0, 0.0, 0.0, 0.0, 0.0, 0.0, 1.6665556900409567E9, 0.0, 2022-10-23 13:08:10.040
157.0, -72725.78152725477, -104500.8649827081, 67591.45171540401, 17378.324851790054, 77446.40290098226, 82172.52280384574, 38880.434796861984, 37074.123272195255, 0.026000000000000002, 0.9580000000000001, 0.094, 192.0, 0.0, 0.0, 0.0, 0.0, 0.0, 0.0, 0.0, 0.0, 0.0, 1.6665556900409648E9, 0.0, 2022-10-23 13:08:10.040
158.0, -72649.74089261782, -104430.83696732963, 66768.92987119316, 16737.83561442323, 77152.16453697259, 81683.77955958601, 38193.230413583566, 36136.86992369532, 0.028, 0.9580000000000001, 0.092, 192.0, 0.0, 224.0, 29.0, 240.0, 2.0, 224.0, 0.0, 0.0, 0.0, 1.666555690040973E9, 0.0, 2022-10-23 13:08:10.040
159.0, -72657.96633457737, -104436.11197902108, 64912.505735457635, 16689.30997721076, 77176.14795877313, 80854.30632284956, 37053.60437078528, 35005.91635774569, 0.028, 0.9580000000000001, 0.092, 192.0, 0.0, 0.0, 0.0, 0.0, 0.0, 0.0, 0.0, 0.0, 0.0, 1.666555690040982E9, 0.0, 2022-10-23 13:08:10.040
160.0, -72694.28791931724, -104468.4549532479, 65127.23894443976, 17011.823297956384, 77324.42943148964, 81035.15428723744, 37315.96914720168, 35447.83269737157, 0.028, 0.9580000000000001, 0.092, 192.0, 0.0, 0.0, 0.0, 0.0, 0.0, 0.0, 0.0, 0.0, 0.0, 1.6665556900409904E9, 0.0, 2022-10-23 13:08:10.040
161.0, -72728.57549531168, -104500.97674143038, 67219.54103941216, 17386.147962349412, 77456.46118598714, 82010.45030480031, 38657.140869753464, 36882.34530476872, 0.028, 0.9580000000000001, 0.092, 192.0, 0.0, 0.0, 0.0, 0.0, 0.0, 0.0, 0.0, 0.0, 0.0, 1.666555690041031E9, 0.0, 2022-10-23 13:08:10.041
162.0, -72666.39294223701, -104446.907871593, 67194.64119608894, 16877.019927146426, 77211.48606675697, 81896.2775941226, 38480.584440301, 36482.897279607925, 0.028, 0.9580000000000001, 0.092, 192.0, 0.0, 0.0, 0.0, 0.0, 0.0, 0.0, 0.0, 0.0, 0.0, 1.6665556900410395E9, 0.0, 2022-10-23 13:08:10.041
163.0, -72655.50764268728, -104432.40158944149, 65074.622937991975, 16643.466549332923, 77144.54259211333, 80925.04959405061, 37135.299996769434, 35073.664495189725, 0.028, 0.9580000000000001, 0.092, 192.0, 0.0, 0.0, 0.0, 0.0, 0.0, 0.0, 0.0, 0.0, 0.0, 1.6665556900410476E9, 0.0, 2022-10-23 13:08:10.041
164.0, -72696.16546585149, -104467.29266253623, 64961.85838721495, 16949.05959952588, 77281.91641353566, 80950.12825132946, 37186.79841599446, 35302.09932352297, 0.028, 0.9580000000000001, 0.092, 192.0, 0.0, 0.0, 0.0, 0.0, 0.0, 0.0, 0.0, 0.0, 0.0, 1.666555690041056E9, 0.0, 2022-10-23 13:08:10.041
165.0, -72735.70570179292, -104507.34698860014, 66815.13092698228, 17360.555214948086, 77435.96463632163, 81845.80735514252, 38415.85378835843, 36650.58006651164, 0.028, 0.9580000000000001, 0.092, 192.0, 0.0, 0.0, 0.0, 0.0, 0.0, 0.0, 0.0, 0.0, 0.0, 1.666555690041064E9, 0.0, 2022-10-23 13:08:10.041
166.0, -72684.18493082344, -104461.92824386696, 67588.03189850235, 17023.08857716186, 77262.24687841498, 82122.00786137675, 38765.368016406064, 36811.04323995629, 0.028, 0.9580000000000001, 0.092, 192.0, 0.0, 0.0, 0.0, 0.0, 0.0, 0.0, 0.0, 0.0, 0.0, 1.6665556900410721E9, 0.0, 2022-10-23 13:08:10.041
167.0, -72647.50571817228, -104421.87391780305, 65337.81472895321, 16606.42970877048, 77118.81573424528, 81054.82382235811, 37287.13539685433, 35196.04029608254, 0.028, 0.9580000000000001, 0.092, 192.0, 0.0, 0.0, 0.0, 0.0, 0.0, 0.0, 0.0, 0.0, 0.0, 1.6665556900410805E9, 0.0, 2022-10-23 13:08:10.041
168.0, -72683.89435814552, -104454.39570598552, 64881.03447926456, 16898.05291867887, 77266.31489590585, 80920.02045154816, 37115.13872327074, 35187.23370876714, 0.028, 0.9560000000000001, 0.09, 192.0, 0.0, 224.0, 29.0, 224.0, 2.0, 208.0, 0.0, 0.0, 0.0, 1.6665556900410883E9, 0.0, 2022-10-23 13:08:10.041
169.0, -72716.99729168383, -104481.44131677644, 66362.91043316251, 17297.09861243947, 77417.88207505728, 81651.79421327046, 38128.87974129674, 36352.09487105547, 0.028, 0.9560000000000001, 0.09, 192.0, 0.0, 0.0, 0.0, 0.0, 0.0, 0.0, 0.0, 0.0, 0.0, 1.666555690041097E9, 0.0, 2022-10-23 13:08:10.041
170.0, -72677.83703539813, -104445.16443552548, 67775.54068273792, 17151.611107779874, 77320.04848957641, 82227.15046729452, 38902.8312448062, 37005.346954506276, 0.028, 0.9560000000000001, 0.09, 192.0, 0.0, 0.0, 0.0, 0.0, 0.0, 0.0, 0.0, 0.0, 0.0, 1.666555690041105E9, 0.0, 2022-10-23 13:08:10.041
171.0, -72627.63501735151, -104400.21507742585, 65646.17939545863, 16600.46179300091, 77105.91877769456, 81193.9634315924, 37462.618942572946, 35372.82024297956, 0.028, 0.9560000000000001, 0.09, 192.0, 0.0, 0.0, 0.0, 0.0, 0.0, 0.0, 0.0, 0.0, 0.0, 1.6665556900411131E9, 0.0, 2022-10-23 13:08:10.041
172.0, -72680.74276217732, -104459.78247639925, 64825.71391173767, 16849.728447166497, 77251.92037247663, 80892.3936954014, 37053.358501596274, 35099.391353057785, 0.028, 0.9560000000000001, 0.09, 192.0, 0.0, 0.0, 0.0, 0.0, 0.0, 0.0, 0.0, 0.0, 0.0, 1.6665556900411212E9, 0.0, 2022-10-23 13:08:10.041
173.0, -72723.05461443122, -104506.1176426551, 65923.29632321553, 17216.989960311646, 77398.01137423652, 81452.1260800512, 37841.12338317912, 36052.04505348743, 0.028, 0.9560000000000001, 0.09, 192.0, 0.0, 0.0, 0.0, 0.0, 0.0, 0.0, 0.0, 0.0, 0.0, 1.6665556900411303E9, 0.0, 2022-10-23 13:08:10.041
174.0, -72702.58041651016, -104488.52681976877, 67814.0080349455, 17268.197806858756, 77386.07554269738, 82268.38943581456, 38951.13336457412, 37106.86857782228, 0.028, 0.9560000000000001, 0.09, 192.0, 0.0, 0.0, 0.0, 0.0, 0.0, 0.0, 0.0, 0.0, 0.0, 1.6665556900411382E9, 0.0, 2022-10-23 13:08:10.041
175.0, -72623.85757253857, -104414.20726945487, 66040.0394845056, 16628.222659614403, 77124.73894652593, 81372.19624187902, 37701.22381463335, 35621.93043493396, 0.028, 0.9560000000000001, 0.09, 192.0, 0.0, 0.0, 0.0, 0.0, 0.0, 0.0, 0.0, 0.0, 0.0, 1.6665556900411465E9, 0.0, 2022-10-23 13:08:10.041
176.0, -72642.67774136993, -104429.36175219557, 64811.54290575301, 16792.21740868299, 77231.40147106665, 80869.81843350154, 37013.90767263266, 35029.765669079505, 0.028, 0.9560000000000001, 0.09, 192.0, 0.0, 0.0, 0.0, 0.0, 0.0, 0.0, 0.0, 0.0, 0.0, 1.6665556900411544E9, 0.0, 2022-10-23 13:08:10.041
177.0, -72677.61351795358, -104464.67750843496, 65542.10967327472, 17143.96681117616, 77383.05805719591, 81275.86022327664, 37590.44856911285, 35779.756102532876, 0.028, 0.9540000000000001, 0.088, 192.0, 0.0, 224.0, 29.0, 208.0, 2.0, 192.0, 0.0, 0.0, 0.0, 1.6665556900411716E9, 0.0, 2022-10-23 13:08:10.041
178.0, -72690.152846593, -104480.74841269832, 67712.01702499593, 17363.81856963856, 77450.09093881737, 82260.67808397747, 38930.16742827505, 37123.87825535277, 0.028, 0.9540000000000001, 0.088, 192.0, 0.0, 0.0, 0.0, 0.0, 0.0, 0.0, 0.0, 0.0, 0.0, 1.66655569004118E9, 0.0, 2022-10-23 13:08:10.041
179.0, -72609.01601422025, -104405.15481295048, 66493.89165567061, 16706.11848904115, 77168.25779298041, 81599.62524171176, 38004.80520782533, 35944.935494057594, 0.028, 0.9540000000000001, 0.088, 192.0, 0.0, 0.0, 0.0, 0.0, 0.0, 0.0, 0.0, 0.0, 0.0, 1.666555690041188E9, 0.0, 2022-10-23 13:08:10.041
180.0, -72618.78372654722, -104409.8486792861, 64846.9033654813, 16738.372056290158, 77222.46077328453, 80877.97682022772, 37017.95333837907, 34999.90373848721, 0.028, 0.9540000000000001, 0.088, 192.0, 0.0, 0.0, 0.0, 0.0, 0.0, 0.0, 0.0, 0.0, 0.0, 1.666555690041196E9, 0.0, 2022-10-23 13:08:10.041
181.0, -72662.9954770798, -104448.91952859396, 65234.48261433633, 17062.964089270128, 77367.38948433274, 81130.23860815032, 37386.01951432461, 35544.12401248503, 0.028, 0.9540000000000001, 0.088, 192.0, 0.0, 0.0, 0.0, 0.0, 0.0, 0.0, 0.0, 0.0, 0.0, 1.6665556900412042E9, 0.0, 2022-10-23 13:08:10.041
182.0, -72699.62998624206, -104485.15170635602, 67438.18580367396, 17393.948721164314, 77479.86346243185, 82160.9446002179, 38787.13861550553, 37001.904785860155, 0.028, 0.9540000000000001, 0.088, 192.0, 0.0, 0.0, 0.0, 0.0, 0.0, 0.0, 0.0, 0.0, 0.0, 1.6665556900412123E9, 0.0, 2022-10-23 13:08:10.041
183.0, -72618.51550561374, -104411.05567348668, 66939.96541976517, 16798.65471108612, 77197.5162264724, 81821.55571240852, 38302.46338873666, 36271.561535783, 0.028, 0.9540000000000001, 0.088, 192.0, 0.0, 0.0, 0.0, 0.0, 0.0, 0.0, 0.0, 0.0, 0.0, 1.6665556900412204E9, 0.0, 2022-10-23 13:08:10.041
184.0, -72612.32407239963, -104400.01391172575, 64935.25981131313, 16677.240035204894, 77184.06047631032, 80904.82126531855, 37045.44598405909, 34994.49461632903, 0.028, 0.9540000000000001, 0.088, 192.0, 0.0, 0.0, 0.0, 0.0, 0.0, 0.0, 0.0, 0.0, 0.0, 1.6665556900412285E9, 0.0, 2022-10-23 13:08:10.041
185.0, -72645.0470262822, -104428.71355160637, 64999.543428366596, 17006.525934520476, 77338.01929211846, 81009.74035379176, 37212.815846540434, 35344.81350717706, 0.028, 0.9540000000000001, 0.088, 192.0, 0.0, 0.0, 0.0, 0.0, 0.0, 0.0, 0.0, 0.0, 0.0, 1.6665556900412366E9, 0.0, 2022-10-23 13:08:10.041
186.0, -72684.56491047918, -104465.72804042436, 67002.14797283984, 17397.68146248835, 77483.52914852252, 81961.56703967656, 38524.259748966666, 36764.99864637836, 0.028, 0.9540000000000001, 0.088, 192.0, 0.0, 0.0, 0.0, 0.0, 0.0, 0.0, 0.0, 0.0, 0.0, 1.6665556900412447E9, 0.0, 2022-10-23 13:08:10.041
187.0, -72626.51743012875, -104414.5425456217, 67273.25228133825, 16930.10532022778, 77259.29644814688, 81988.38913302292, 38549.78544113463, 36591.2361849828, 0.024, 0.9540000000000001, 0.08600000000000001, 192.0, 0.0, 192.0, 29.0, 208.0, 2.0, 176.0, 0.0, 0.0, 0.0, 1.6665556900412529E9, 0.0, 2022-10-23 13:08:10.041
188.0, -72605.12681068502, -104392.43667035541, 65051.17595805836, 16620.734825221876, 77167.5648889023, 80961.59469623503, 37129.80146763343, 35082.47108250512, 0.024, 0.9540000000000001, 0.08600000000000001, 192.0, 0.0, 0.0, 0.0, 0.0, 0.0, 0.0, 0.0, 0.0, 0.0, 1.6665556900412612E9, 0.0, 2022-10-23 13:08:10.041
189.0, -72638.81088957917, -104421.94097303641, 64787.73829790811, 16935.715608086062, 77308.82791385984, 80916.73474511322, 37087.64607759072, 35211.55240673452, 0.024, 0.9540000000000001, 0.08600000000000001, 192.0, 0.0, 0.0, 0.0, 0.0, 0.0, 0.0, 0.0, 0.0, 0.0, 1.6665556900412693E9, 0.0, 2022-10-23 13:08:10.041
190.0, -72685.10135234612, -104464.09636307912, 66465.32612625672, 17344.931345573827, 77458.58460171039, 81724.70560368367, 38212.40821032622, 36471.76611086918, 0.024, 0.9540000000000001, 0.08600000000000001, 192.0, 0.0, 0.0, 0.0, 0.0, 0.0, 0.0, 0.0, 0.0, 0.0, 1.6665556900412772E9, 0.0, 2022-10-23 13:08:10.041
191.0, -72650.25498274028, -104437.20721449939, 67513.57823772171, 17080.823133089918, 77309.78903887141, 82120.35383228706, 38742.010443450265, 36839.228789714434, 0.024, 0.9540000000000001, 0.08600000000000001, 192.0, 0.0, 0.0, 0.0, 0.0, 0.0, 0.0, 0.0, 0.0, 0.0, 1.666555690041285E9, 0.0, 2022-10-23 13:08:10.041
192.0, -72597.81779024814, -104384.3900423515, 65278.69436486893, 16603.09929884664, 77131.89150475163, 81043.2232669858, 37255.73119589462, 35193.425141981264, 0.024, 0.9540000000000001, 0.08600000000000001, 192.0, 0.0, 0.0, 0.0, 0.0, 0.0, 0.0, 0.0, 0.0, 0.0, 1.6665556900413156E9, 0.0, 2022-10-23 13:08:10.041
193.0, -72635.92751454444, -104416.42009215595, 64647.190528773135, 16873.018964888928, 77270.80759654136, 80816.3754125089, 36966.387863920674, 35065.23788753008, 0.024, 0.9540000000000001, 0.08600000000000001, 192.0, 0.0, 0.0, 0.0, 0.0, 0.0, 0.0, 0.0, 0.0, 0.0, 1.666555690041324E9, 0.0, 2022-10-23 13:08:10.041
194.0, -72685.23546281284, -104461.79413340022, 65973.54304475106, 17261.872263177906, 77422.39712743726, 81486.50306302345, 37898.03092456233, 36158.70757802815, 0.024, 0.9540000000000001, 0.08600000000000001, 192.0, 0.0, 0.0, 0.0, 0.0, 0.0, 0.0, 0.0, 0.0, 0.0, 1.6665556900413332E9, 0.0, 2022-10-23 13:08:10.041
195.0, -72661.36379973458, -104439.01770580027, 67633.51769846889, 17209.70329161922, 77367.4118360772, 82194.82984481213, 38852.137488381566, 37017.52865523442, 0.024, 0.9540000000000001, 0.08600000000000001, 192.0, 0.0, 0.0, 0.0, 0.0, 0.0, 0.0, 0.0, 0.0, 0.0, 1.6665556900413413E9, 0.0, 2022-10-23 13:08:10.041
196.0, -72597.01312744775, -104379.07032717114, 65632.03074121842, 16618.81257519872, 77135.42308037556, 81207.53094047678, 37477.75107356919, 35432.90173207542, 0.024, 0.9540000000000001, 0.08600000000000001, 192.0, 0.0, 0.0, 0.0, 0.0, 0.0, 0.0, 0.0, 0.0, 0.0, 1.6665556900413496E9, 0.0, 2022-10-23 13:08:10.041
197.0, -72629.51256388576, -104408.0381879852, 64655.013639332494, 16838.95490633904, 77261.95630573705, 80834.56973249553, 36967.17017497661, 35038.84047732836, 0.024, 0.9540000000000001, 0.094, 192.0, 0.0, 192.0, 29.0, 208.0, 2.0, 240.0, 0.0, 0.0, 0.0, 1.6665556900413575E9, 0.0, 2022-10-23 13:08:10.041
198.0, -72675.84773014161, -104451.48997920632, 65584.98031914, 17197.990977524638, 77404.49338012855, 81322.06127906576, 37658.64374144599, 35899.360287113224, 0.024, 0.9540000000000001, 0.094, 192.0, 0.0, 0.0, 0.0, 0.0, 0.0, 0.0, 0.0, 0.0, 0.0, 1.666555690041366E9, 0.0, 2022-10-23 13:08:10.041
199.0, -72680.2063203104, -104460.49773222182, 67614.67517789306, 17311.962522502246, 77404.73924931756, 82217.78508636774, 38877.41731136052, 37085.54501361192, 0.024, 0.9540000000000001, 0.094, 192.0, 0.0, 0.0, 0.0, 0.0, 0.0, 0.0, 0.0, 0.0, 0.0, 1.666555690041374E9, 0.0, 2022-10-23 13:08:10.041
200.0, -72608.30075839767, -104390.67088254343, 66022.3816063859, 16650.172072669517, 77124.11309768118, 81380.60049779422, 37719.06050670869, 35688.940964810965, 0.024, 0.9540000000000001, 0.094, 192.0, 0.0, 0.0, 0.0, 0.0, 0.0, 0.0, 0.0, 0.0, 0.0, 1.666555690041382E9, 0.0, 2022-10-23 13:08:10.041
201.0, -72632.01595926475, -104412.50853687627, 64601.5482665954, 16760.6567455121, 77205.62990970969, 80771.3589991759, 36892.60475547371, 34943.53263897093, 0.024, 0.9540000000000001, 0.094, 192.0, 0.0, 0.0, 0.0, 0.0, 0.0, 0.0, 0.0, 0.0, 0.0, 1.66655569004139E9, 0.0, 2022-10-23 13:08:10.041
202.0, -72669.87981437205, -104448.56190068269, 65188.28155854721, 17106.34882525788, 77350.82684169136, 81115.62056727655, 37385.03603756858, 35615.58253950865, 0.024, 0.9540000000000001, 0.094, 192.0, 0.0, 0.0, 0.0, 0.0, 0.0, 0.0, 0.0, 0.0, 0.0, 1.666555690041398E9, 0.0, 2022-10-23 13:08:10.041
203.0, -72691.71746870488, -104469.75135442632, 67418.7621377423, 17393.658148486396, 77450.31445626193, 82153.7473385033, 38789.686714373434, 37049.64811201669, 0.024, 0.9540000000000001, 0.094, 192.0, 0.0, 0.0, 0.0, 0.0, 0.0, 0.0, 0.0, 0.0, 0.0, 1.666555690041406E9, 0.0, 2022-10-23 13:08:10.041
204.0, -72614.20161893388, -104399.87980125903, 66505.06752789827, 16749.525576773354, 77167.22961273546, 81632.83993397235, 38053.80023167136, 36058.839983801845, 0.024, 0.9540000000000001, 0.094, 192.0, 0.0, 0.0, 0.0, 0.0, 0.0, 0.0, 0.0, 0.0, 0.0, 1.666555690041414E9, 0.0, 2022-10-23 13:08:10.041
205.0, -72623.29877892719, -104404.01487398325, 64700.20886662113, 16712.041701321807, 77191.05657232483, 80825.71844169122, 36949.98168349048, 34968.58894450533, 0.024, 0.9540000000000001, 0.094, 192.0, 0.0, 0.0, 0.0, 0.0, 0.0, 0.0, 0.0, 0.0, 0.0, 1.666555690041422E9, 0.0, 2022-10-23 13:08:10.041
206.0, -72656.71463688787, -104435.03909528723, 64941.49594801616, 17032.90099297774, 77329.52562922545, 81007.99691772425, 37224.8857885463, 35424.22925522676, 0.024, 0.9540000000000001, 0.094, 192.0, 0.0, 0.0, 0.0, 0.0, 0.0, 0.0, 0.0, 0.0, 0.0, 1.66655569004143E9, 0.0, 2022-10-23 13:08:10.041
207.0, -72690.01873612628, -104465.88450263554, 67067.14684571586, 17400.0060439117, 77455.74593016457, 82003.4542087858, 38590.42091255438, 36875.63978143213, 0.036000000000000004, 0.9560000000000001, 0.106, 192.0, 1.0, 32.0, 29.0, 224.0, 3.0, 80.0, 0.0, 0.0, 0.0, 1.666555690041438E9, 0.0, 2022-10-23 13:08:10.041
208.0, -72622.96350276035, -104405.80301353968, 66915.19968690869, 16864.167674084627, 77206.68044169909, 81826.02606129958, 38328.39141230481, 36385.86835692744, 0.036000000000000004, 0.9560000000000001, 0.106, 192.0, 0.0, 0.0, 0.0, 0.0, 0.0, 0.0, 0.0, 0.0, 0.0, 1.6665556900414548E9, 0.0, 2022-10-23 13:08:10.041
209.0, -72617.19675269088, -104395.72237679033, 64817.89080117832, 16653.86011050464, 77156.4113684191, 80863.38113109842, 36999.02141082542, 35002.47418909957, 0.036000000000000004, 0.9560000000000001, 0.106, 192.0, 0.0, 0.0, 0.0, 0.0, 0.0, 0.0, 0.0, 0.0, 0.0, 1.666555690041468E9, 0.0, 2022-10-23 13:08:10.041
210.0, -72655.37353222055, -104426.43367367193, 64728.23795416808, 16959.92254733116, 77278.89892803418, 80886.40342788737, 37061.606295300284, 35242.19664838274, 0.036000000000000004, 0.9560000000000001, 0.106, 192.0, 0.0, 0.0, 0.0, 0.0, 0.0, 0.0, 0.0, 0.0, 0.0, 1.666555690041478E9, 0.0, 2022-10-23 13:08:10.041
211.0, -72702.42395429897, -104474.84755216213, 66605.67272969159, 17370.837017397527, 77423.89469431576, 81779.57913632145, 38302.083409080915, 36601.875615343524, 0.036000000000000004, 0.9560000000000001, 0.106, 192.0, 0.0, 0.0, 0.0, 0.0, 0.0, 0.0, 0.0, 0.0, 0.0, 1.666555690041488E9, 0.0, 2022-10-23 13:08:10.041
212.0, -72648.33273271713, -104430.30052546269, 67238.36120824351, 17003.955483908117, 77232.8319827118, 81971.62532468144, 38553.31701675856, 36664.527555051754, 0.036000000000000004, 0.9560000000000001, 0.106, 192.0, 0.0, 0.0, 0.0, 0.0, 0.0, 0.0, 0.0, 0.0, 0.0, 1.6665556900414958E9, 0.0, 2022-10-23 13:08:10.041
213.0, -72619.87896202553, -104401.35501639308, 64999.69989057779, 16620.176031610496, 77107.25988236188, 80915.08071602354, 37092.13877822623, 35085.15329183976, 0.036000000000000004, 0.9560000000000001, 0.106, 192.0, 0.0, 0.0, 0.0, 0.0, 0.0, 0.0, 0.0, 0.0, 0.0, 1.6665556900415037E9, 0.0, 2022-10-23 13:08:10.041
214.0, -72657.4969479438, -104435.41907494297, 64632.63954313273, 16919.2423724225, 77265.26436391645, 80836.40257554085, 36989.76778862093, 35149.36985365985, 0.036000000000000004, 0.9560000000000001, 0.106, 192.0, 0.0, 0.0, 0.0, 0.0, 0.0, 0.0, 0.0, 0.0, 0.0, 1.6665556900415115E9, 0.0, 2022-10-23 13:08:10.041
215.0, -72692.2092070829, -104470.42190675998, 66178.35207919504, 17320.76910981764, 77419.73726984707, 81602.0615818574, 38049.508696735946, 36353.19010653378, 0.036000000000000004, 0.9560000000000001, 0.106, 192.0, 0.0, 0.0, 0.0, 0.0, 0.0, 0.0, 0.0, 0.0, 0.0, 1.6665556900415196E9, 0.0, 2022-10-23 13:08:10.041
216.0, -72659.12862528904, -104441.67756339045, 67511.3877667651, 17148.168939133757, 77309.74433538251, 82144.62782676553, 38775.783929322235, 36941.35391013073, 0.032, 0.9560000000000001, 0.112, 192.0, 1.0, 0.0, 29.0, 224.0, 3.0, 128.0, 0.0, 0.0, 0.0, 1.6665556900415287E9, 0.0, 2022-10-23 13:08:10.041
217.0, -72601.8411042501, -104384.3453388626, 65334.327856818185, 16614.05165362974, 77106.56697828376, 81079.88012789251, 37302.89337669532, 35287.97302102721, 0.032, 0.9560000000000001, 0.112, 192.0, 0.0, 0.0, 0.0, 0.0, 0.0, 0.0, 0.0, 0.0, 0.0, 1.6665556900415373E9, 0.0, 2022-10-23 13:08:10.041
218.0, -72637.4921366563, -104410.72039731985, 64578.23539712851, 16875.92469166812, 77240.31981710432, 80810.56395895052, 36938.291721140355, 35068.83651838738, 0.032, 0.9560000000000001, 0.112, 192.0, 0.0, 0.0, 0.0, 0.0, 0.0, 0.0, 0.0, 0.0, 0.0, 1.6665556900415452E9, 0.0, 2022-10-23 13:08:10.041
219.0, -72685.12370409057, -104455.53564495275, 65737.57567853638, 17248.237699060166, 77376.68781002615, 81402.2146346825, 37768.10023404363, 36063.0644635039, 0.032, 0.9560000000000001, 0.112, 192.0, 0.0, 0.0, 0.0, 0.0, 0.0, 0.0, 0.0, 0.0, 0.0, 1.6665556900415533E9, 0.0, 2022-10-23 13:08:10.041
220.0, -72683.17910232296, -104458.44137173193, 67559.13109292163, 17266.566129513518, 77348.54696375692, 82180.25650742729, 38830.63511021556, 37059.594638299306, 0.032, 0.9560000000000001, 0.112, 192.0, 0.0, 0.0, 0.0, 0.0, 0.0, 0.0, 0.0, 0.0, 0.0, 1.6665556900415611E9, 0.0, 2022-10-23 13:08:10.041
221.0, -72622.1364882155, -104400.52800184823, 65728.90320168772, 16640.15849115354, 77107.50575155088, 81260.70574053595, 37546.013301135696, 35547.92380904243, 0.032, 0.9560000000000001, 0.112, 192.0, 0.0, 0.0, 0.0, 0.0, 0.0, 0.0, 0.0, 0.0, 0.0, 1.6665556900415692E9, 0.0, 2022-10-23 13:08:10.041
222.0, -72646.76811060526, -104417.98471426782, 64565.85253070027, 16818.74892935144, 77216.64931972616, 80784.14419700435, 36894.325839796766, 34997.78032276396, 0.032, 0.9560000000000001, 0.112, 192.0, 0.0, 0.0, 0.0, 0.0, 0.0, 0.0, 0.0, 0.0, 0.0, 1.666555690041578E9, 0.0, 2022-10-23 13:08:10.041
223.0, -72675.73597141933, -104448.27132800476, 65340.38517956557, 17171.280642900543, 77349.35162655731, 81196.8691583716, 37485.976515528746, 35762.05352092427, 0.032, 0.9560000000000001, 0.112, 192.0, 0.0, 0.0, 0.0, 0.0, 0.0, 0.0, 0.0, 0.0, 0.0, 1.6665556900415938E9, 0.0, 2022-10-23 13:08:10.041
224.0, -72686.53186399124, -104463.71638342338, 67445.2713066663, 17358.700020158296, 77389.71887704359, 82129.20512309136, 38770.17364146395, 37046.027129414935, 0.032, 0.9560000000000001, 0.112, 192.0, 0.0, 0.0, 0.0, 0.0, 0.0, 0.0, 0.0, 0.0, 0.0, 1.666555690041602E9, 0.0, 2022-10-23 13:08:10.041
225.0, -72619.67779632543, -104399.83509777012, 66143.0139712112, 16701.894009339096, 77112.19961788651, 81431.4730681745, 37792.418932011, 35823.90079783211, 0.032, 0.9560000000000001, 0.112, 192.0, 0.0, 0.0, 0.0, 0.0, 0.0, 0.0, 0.0, 0.0, 0.0, 1.666555690041611E9, 0.0, 2022-10-23 13:08:10.041
226.0, -72628.48438364081, -104400.39389138149, 64549.24518456998, 16747.31275407228, 77172.25875523791, 80732.57872254595, 36838.64764435859, 34929.942778342105, 0.032, 0.9580000000000001, 0.10400000000000001, 192.0, 1.0, 0.0, 29.0, 240.0, 3.0, 64.0, 0.0, 0.0, 0.0, 1.666555690041619E9, 0.0, 2022-10-23 13:08:10.041
227.0, -72659.7991776227, -104430.00995278478, 64993.97784399723, 17082.90184532426, 77325.14468731222, 81016.15530445044, 37247.930437079725, 35523.247483163774, 0.032, 0.9580000000000001, 0.10400000000000001, 192.0, 0.0, 0.0, 0.0, 0.0, 0.0, 0.0, 0.0, 0.0, 0.0, 1.666555690041628E9, 0.0, 2022-10-23 13:08:10.041
228.0, -72689.7058117039, -104462.04000258923, 67182.92888199436, 17406.331587592555, 77431.44958394165, 82032.19855215533, 38639.59475035605, 36968.421872666106, 0.032, 0.9580000000000001, 0.10400000000000001, 192.0, 0.0, 0.0, 0.0, 0.0, 0.0, 0.0, 0.0, 0.0, 0.0, 1.666555690041636E9, 0.0, 2022-10-23 13:08:10.041
229.0, -72631.63597960901, -104414.6990078329, 66615.1275175962, 16815.619685127698, 77172.1693482601, 81681.38792292928, 38129.99732851951, 36206.42855244024, 0.032, 0.9580000000000001, 0.10400000000000001, 192.0, 0.0, 0.0, 0.0, 0.0, 0.0, 0.0, 0.0, 0.0, 0.0, 1.6665556900416439E9, 0.0, 2022-10-23 13:08:10.041
230.0, -72636.95569478937, -104416.55420262269, 64675.84546516484, 16696.26136973636, 77158.69124635354, 80804.99837458115, 36923.65132852213, 34985.866842969284, 0.032, 0.9580000000000001, 0.10400000000000001, 192.0, 0.0, 0.0, 0.0, 0.0, 0.0, 0.0, 0.0, 0.0, 0.0, 1.6665556900416517E9, 0.0, 2022-10-23 13:08:10.041
231.0, -72665.78944513672, -104439.77766511175, 64772.06972504494, 17007.531763020965, 77291.55001539589, 80915.32658521255, 37103.851092320816, 35349.28385606812, 0.032, 0.9580000000000001, 0.10400000000000001, 192.0, 0.0, 0.0, 0.0, 0.0, 0.0, 0.0, 0.0, 0.0, 0.0, 1.6665556900416596E9, 0.0, 2022-10-23 13:08:10.041
232.0, -72704.4579630444, -104474.91460739549, 66804.69266232166, 17394.86514268698, 77419.75962159153, 81875.69163747926, 38429.44364898725, 36772.73234995989, 0.032, 0.9580000000000001, 0.10400000000000001, 192.0, 0.0, 0.0, 0.0, 0.0, 0.0, 0.0, 0.0, 0.0, 0.0, 1.6665556900416677E9, 0.0, 2022-10-23 13:08:10.041
233.0, -72644.42117743746, -104422.27624920325, 66979.99739408462, 16917.230715421523, 77182.49585419844, 81847.75195691013, 38379.68866582974, 36504.8690444075, 0.032, 0.9580000000000001, 0.10400000000000001, 192.0, 0.0, 0.0, 0.0, 0.0, 0.0, 0.0, 0.0, 0.0, 0.0, 1.6665556900416756E9, 0.0, 2022-10-23 13:08:10.041
234.0, -72622.42706089343, -104399.72333904784, 64776.09303904689, 16640.739636509377, 77109.91973995206, 80813.20146479625, 36958.631808594684, 35009.559692091905, 0.032, 0.9580000000000001, 0.10400000000000001, 192.0, 0.0, 0.0, 0.0, 0.0, 0.0, 0.0, 0.0, 0.0, 0.0, 1.6665556900416849E9, 0.0, 2022-10-23 13:08:10.041
235.0, -72660.31326774518, -104435.3967231985, 64586.32672862134, 16950.06542802637, 77253.95438122207, 80808.1276188049, 36968.69009359957, 35199.03542983955, 0.032, 0.9580000000000001, 0.10400000000000001, 192.0, 0.0, 0.0, 0.0, 0.0, 0.0, 0.0, 0.0, 0.0, 0.0, 1.666555690041693E9, 0.0, 2022-10-23 13:08:10.041
236.0, -72698.87002693058, -104473.1041160946, 66338.68114217295, 17354.833168367528, 77403.2193306946, 81661.80779478644, 38149.44334619562, 36514.90497766793, 0.034, 0.9480000000000001, 0.10400000000000001, 192.0, 1.0, 16.0, 29.0, 160.0, 3.0, 64.0, 0.0, 0.0, 0.0, 1.666555690041702E9, 0.0, 2022-10-23 13:08:10.041
237.0, -72651.90901182998, -104433.74269410882, 67265.69739171235, 17062.226481703103, 77242.68910201658, 81987.76328417817, 38594.243060856235, 36795.97816419342, 0.034, 0.9480000000000001, 0.10400000000000001, 192.0, 0.0, 0.0, 0.0, 0.0, 0.0, 0.0, 0.0, 0.0, 0.0, 1.6665556900417118E9, 0.0, 2022-10-23 13:08:10.041
238.0, -72616.45914512387, -104396.54939133518, 65038.83779511903, 16618.030264142784, 77097.73803922391, 80923.48497193873, 37119.072630294875, 35174.694380127716, 0.034, 0.9480000000000001, 0.10400000000000001, 192.0, 0.0, 0.0, 0.0, 0.0, 0.0, 0.0, 0.0, 0.0, 0.0, 1.66655569004172E9, 0.0, 2022-10-23 13:08:10.041
239.0, -72650.45614844038, -104421.47158640285, 64490.23657920797, 16895.68363376661, 77239.5375060484, 80745.38627211885, 36889.497862994416, 35099.681925735706, 0.034, 0.9480000000000001, 0.10400000000000001, 192.0, 0.0, 0.0, 0.0, 0.0, 0.0, 0.0, 0.0, 0.0, 0.0, 1.6665556900417364E9, 0.0, 2022-10-23 13:08:10.041
240.0, -72698.78061995275, -104466.46564799138, 65870.14387490081, 17295.08695543849, 77402.8169992944, 81435.76460310991, 37855.94258975299, 36219.750192135594, 0.034, 0.9480000000000001, 0.10400000000000001, 192.0, 0.0, 0.0, 0.0, 0.0, 0.0, 0.0, 0.0, 0.0, 0.0, 1.6665556900417447E9, 0.0, 2022-10-23 13:08:10.041
241.0, -72681.27920404426, -104458.55313045421, 67438.02934146278, 17194.59351236743, 77316.78513488593, 82092.19063427337, 38746.1455161745, 37000.586032937295, 0.034, 0.9480000000000001, 0.10400000000000001, 192.0, 0.0, 0.0, 0.0, 0.0, 0.0, 0.0, 0.0, 0.0, 0.0, 1.6665556900417535E9, 0.0, 2022-10-23 13:08:10.041
242.0, -72615.60977883457, -104397.55521983567, 65373.77868578181, 16612.844659429153, 77099.41442005806, 81065.95499109686, 37325.26747289509, 35378.98932444922, 0.034, 0.9480000000000001, 0.10400000000000001, 192.0, 0.0, 0.0, 0.0, 0.0, 0.0, 0.0, 0.0, 0.0, 0.0, 1.666555690041774E9, 0.0, 2022-10-23 13:08:10.041
243.0, -72651.86430834107, -104426.12074924956, 64452.216261889494, 16840.988915084472, 77230.44034605508, 80713.51268452557, 36846.82838282924, 35026.3682039223, 0.034, 0.9480000000000001, 0.10400000000000001, 192.0, 0.0, 0.0, 0.0, 0.0, 0.0, 0.0, 0.0, 0.0, 0.0, 1.6665556900418155E9, 0.0, 2022-10-23 13:08:10.041
244.0, -72695.67372747348, -104463.87284563457, 65458.17887284504, 17206.797564840028, 77371.30103961242, 81249.55222005275, 37597.467016871815, 35940.196924233074, 0.034, 0.9480000000000001, 0.10400000000000001, 192.0, 0.0, 0.0, 0.0, 0.0, 0.0, 0.0, 0.0, 0.0, 0.0, 1.6665556900418565E9, 0.0, 2022-10-23 13:08:10.041
245.0, -72691.13632334904, -104467.58323521414, 67446.59005958916, 17298.305606640053, 77361.24275460753, 82127.64050097948, 38796.66045864349, 37095.89387129473, 0.034, 0.9500000000000001, 0.112, 192.0, 1.0, 16.0, 29.0, 176.0, 3.0, 128.0, 0.0, 0.0, 0.0, 1.6665556900418985E9, 0.0, 2022-10-23 13:08:10.041
246.0, -72624.75164231678, -104404.73012980583, 65806.19553401417, 16650.01561045833, 77094.16176011108, 81278.45302563347, 37616.5777583811, 35679.173252484, 0.034, 0.9500000000000001, 0.112, 192.0, 0.0, 0.0, 0.0, 0.0, 0.0, 0.0, 0.0, 0.0, 0.0, 1.666555690041942E9, 0.0, 2022-10-23 13:08:10.041
247.0, -72654.14418627552, -104427.88653706152, 64478.367802902205, 16780.32628063277, 77190.02839207988, 80726.2531788651, 36858.0489585458, 35001.02132570998, 0.034, 0.9500000000000001, 0.112, 192.0, 0.0, 0.0, 0.0, 0.0, 0.0, 0.0, 0.0, 0.0, 0.0, 1.6665556900419846E9, 0.0, 2022-10-23 13:08:10.041
248.0, -72692.2092070829, -104462.19646480042, 65114.23022916678, 17117.837621907907, 77331.58198971534, 81092.08418036511, 37382.286773000575, 35696.49585443686, 0.034, 0.9500000000000001, 0.112, 192.0, 0.0, 0.0, 0.0, 0.0, 0.0, 0.0, 0.0, 0.0, 0.0, 1.666555690042025E9, 0.0, 2022-10-23 13:08:10.042
249.0, -72711.07407940317, -104483.69884296642, 67293.77118274823, 17369.38415400793, 77399.44188588165, 82087.29560223766, 38745.00557720728, 37074.81617627337, 0.034, 0.9500000000000001, 0.112, 192.0, 0.0, 0.0, 0.0, 0.0, 0.0, 0.0, 0.0, 0.0, 0.0, 1.666555690042066E9, 0.0, 2022-10-23 13:08:10.042
250.0, -72629.19963946339, -104411.88268803152, 66245.40731256096, 16724.133995072127, 77113.16074289808, 81486.65952523465, 37912.6489654361, 35994.243442326006, 0.034, 0.9500000000000001, 0.112, 192.0, 0.0, 0.0, 0.0, 0.0, 0.0, 0.0, 0.0, 0.0, 0.0, 1.666555690042088E9, 0.0, 2022-10-23 13:08:10.042
251.0, -72642.14129950301, -104421.18101372493, 64521.61842842322, 16719.574239203244, 77158.28891495334, 80730.12003065587, 36869.18012728455, 34980.547127788916, 0.034, 0.9500000000000001, 0.112, 192.0, 0.0, 0.0, 0.0, 0.0, 0.0, 0.0, 0.0, 0.0, 0.0, 1.6665556900420983E9, 0.0, 2022-10-23 13:08:10.042
0.0, 0.0, 0.0, 0.0, 0.0, 0.0, 0.0, 0.0, 0.0, 0.034, 0.9500000000000001, 0.112, 192.0, 0.0, 0.0, 0.0, 0.0, 0.0, 0.0, 0.0, 0.0, 0.0, 1.6665556901488907E9, 0.0, 2022-10-23 13:08:10.148
1.0, -72776.6317458906, -104540.2711081828, 68413.90650438148, 17204.852963072415, 76934.4585459779, 84352.48844057185, 39076.99603760195, 36822.37557439513, 0.038, 0.9540000000000001, 0.108, 192.0, 1.0, 48.0, 29.0, 208.0, 3.0, 96.0, 0.0, 0.0, 0.0, 1.6665556906310785E9, 0.0, 2022-10-23 13:08:10.631
2.0, -72749.38496939957, -104514.38778810356, 66207.63286443149, 16875.410601545645, 76838.05547214216, 83318.22852113587, 37646.77496514022, 35282.11686397992, 0.038, 0.9540000000000001, 0.108, 192.0, 0.0, 0.0, 0.0, 0.0, 0.0, 0.0, 0.0, 0.0, 0.0, 1.6665556906312704E9, 0.0, 2022-10-23 13:08:10.631
3.0, -72782.82317910471, -104536.96305000343, 65895.8036775355, 17175.952157491705, 76976.41277032052, 83259.33167449613, 37576.143452661454, 35377.648219781906, 0.038, 0.9540000000000001, 0.108, 192.0, 0.0, 0.0, 0.0, 0.0, 0.0, 0.0, 0.0, 0.0, 0.0, 1.6665556906312826E9, 0.0, 2022-10-23 13:08:10.631
4.0, -72821.02231037883, -104574.24575975488, 67490.48888569938, 17566.593595337104, 77115.35121385471, 84032.41145997185, 38656.738538353275, 36599.439275197896, 0.038, 0.9540000000000001, 0.108, 192.0, 0.0, 0.0, 0.0, 0.0, 0.0, 0.0, 0.0, 0.0, 0.0, 1.666555690631292E9, 0.0, 2022-10-23 13:08:10.631
5.0, -72786.80178961776, -104547.15544547504, 68648.24219325092, 17352.843863111004, 76994.0259449513, 84485.81659624775, 39267.72347303909, 37060.488708077515, 0.038, 0.9540000000000001, 0.108, 192.0, 0.0, 0.0, 0.0, 0.0, 0.0, 0.0, 0.0, 0.0, 0.0, 1.6665556906313014E9, 0.0, 2022-10-23 13:08:10.631
6.0, -72736.53271633777, -104499.8144507187, 66454.39612321807, 16857.730371681497, 76811.52395147372, 83426.83564744421, 37800.44320827046, 35424.542179649136, 0.038, 0.9540000000000001, 0.108, 192.0, 0.0, 0.0, 0.0, 0.0, 0.0, 0.0, 0.0, 0.0, 0.0, 1.6665556906313164E9, 0.0, 2022-10-23 13:08:10.631
7.0, -72782.37614421561, -104536.65012558104, 65792.60567338535, 17129.77345344704, 76953.34577004264, 83202.87116800204, 37502.15917851438, 35271.14215745236, 0.036000000000000004, 0.9560000000000001, 0.108, 192.0, 1.0, 32.0, 29.0, 224.0, 3.0, 96.0, 0.0, 0.0, 0.0, 1.6665556906313255E9, 0.0, 2022-10-23 13:08:10.631
8.0, -72831.77349946184, -104578.80551562375, 67060.88835726838, 17516.480984268306, 77107.72926899545, 83857.37494914234, 38411.04816330053, 36328.75964984413, 0.036000000000000004, 0.9560000000000001, 0.108, 192.0, 0.0, 0.0, 0.0, 0.0, 0.0, 0.0, 0.0, 0.0, 0.0, 1.6665556906313357E9, 0.0, 2022-10-23 13:08:10.631
9.0, -72819.12241210013, -104566.91438757353, 68758.0786655043, 17486.641405420472, 77053.0345503133, 84574.12833859067, 39392.2003379107, 37224.55051237947, 0.036000000000000004, 0.9560000000000001, 0.108, 192.0, 0.0, 0.0, 0.0, 0.0, 0.0, 0.0, 0.0, 0.0, 0.0, 1.666555690631345E9, 0.0, 2022-10-23 13:08:10.631
10.0, -72747.41801588751, -104502.20608737542, 66811.30877868042, 16899.997520446483, 76823.54918999066, 83600.50870186195, 38041.08208907629, 35662.38709239806, 0.036000000000000004, 0.9560000000000001, 0.108, 192.0, 0.0, 0.0, 0.0, 0.0, 0.0, 0.0, 0.0, 0.0, 0.0, 1.6665556906313543E9, 0.0, 2022-10-23 13:08:10.631
11.0, -72775.6259173901, -104534.05732322423, 65744.77294025099, 17087.99804306007, 76932.58099944366, 83175.5349845332, 37462.73070129522, 35198.11900831688, 0.036000000000000004, 0.9560000000000001, 0.108, 192.0, 0.0, 0.0, 0.0, 0.0, 0.0, 0.0, 0.0, 0.0, 0.0, 1.6665556906313636E9, 0.0, 2022-10-23 13:08:10.631
12.0, -72820.19529583398, -104574.89396034408, 66618.83790717577, 17432.75134953873, 77078.44848375898, 83651.13540305322, 38131.76311633147, 36036.57764632436, 0.036000000000000004, 0.9560000000000001, 0.108, 192.0, 0.0, 0.0, 0.0, 0.0, 0.0, 0.0, 0.0, 0.0, 0.0, 1.6665556906313727E9, 0.0, 2022-10-23 13:08:10.631
13.0, -72833.27106634034, -104589.0426145843, 68704.83681021175, 17575.80251405269, 77100.46495204746, 84593.84257720025, 39411.55694860899, 37289.05764687749, 0.036000000000000004, 0.9560000000000001, 0.108, 192.0, 0.0, 0.0, 0.0, 0.0, 0.0, 0.0, 0.0, 0.0, 0.0, 1.666555690631382E9, 0.0, 2022-10-23 13:08:10.631
14.0, -72764.49474865136, -104523.39554111905, 67251.57108921661, 16918.3930061332, 76814.18380906389, 83832.85508547486, 38345.289331113025, 35971.17644204813, 0.036000000000000004, 0.9560000000000001, 0.108, 192.0, 0.0, 0.0, 0.0, 0.0, 0.0, 0.0, 0.0, 0.0, 0.0, 1.6665556906313913E9, 0.0, 2022-10-23 13:08:10.631
15.0, -72789.50635069684, -104547.13309373059, 65781.8768360468, 17004.849553686327, 76880.81435928517, 83208.16853143794, 37484.7471695837, 35171.69924637071, 0.036000000000000004, 0.9560000000000001, 0.108, 192.0, 0.0, 0.0, 0.0, 0.0, 0.0, 0.0, 0.0, 0.0, 0.0, 1.6665556906314E9, 0.0, 2022-10-23 13:08:10.631
16.0, -72819.52474350033, -104572.85995159864, 66295.40816490748, 17348.351162475486, 77032.3815384366, 83519.43892472255, 37933.41373603508, 35796.51991087436, 0.036000000000000004, 0.9560000000000001, 0.108, 192.0, 0.0, 0.0, 0.0, 0.0, 0.0, 0.0, 0.0, 0.0, 0.0, 1.6665556906314092E9, 0.0, 2022-10-23 13:08:10.631
17.0, -72837.27202859784, -104587.56739945024, 68471.03756320925, 17644.087093363654, 77127.08587969374, 84516.72905882944, 39304.13446475678, 37203.942203991675, 0.034, 0.9540000000000001, 0.10400000000000001, 192.0, 1.0, 16.0, 29.0, 208.0, 3.0, 64.0, 0.0, 0.0, 0.0, 1.6665556906314187E9, 0.0, 2022-10-23 13:08:10.631
18.0, -72776.76585635732, -104535.59959359164, 67665.14541687316, 17020.02638817148, 76850.6395042705, 84036.6806431628, 38632.28572991917, 36280.882213220866, 0.034, 0.9540000000000001, 0.10400000000000001, 192.0, 0.0, 0.0, 0.0, 0.0, 0.0, 0.0, 0.0, 0.0, 0.0, 1.6665556906314397E9, 0.0, 2022-10-23 13:08:10.631
19.0, -72781.12444652611, -104540.36051516063, 65828.50257498056, 16959.028477552947, 76863.71527477686, 83225.35702292407, 37508.551777428605, 35160.54572588751, 0.034, 0.9540000000000001, 0.10400000000000001, 192.0, 0.0, 0.0, 0.0, 0.0, 0.0, 0.0, 0.0, 0.0, 0.0, 1.6665556906314487E9, 0.0, 2022-10-23 13:08:10.631
20.0, -72814.67441495352, -104565.17095150602, 65998.91227470784, 17268.46602779222, 76991.1202181721, 83374.1749375075, 37740.54053313023, 35573.20363202139, 0.034, 0.9540000000000001, 0.10400000000000001, 192.0, 0.0, 0.0, 0.0, 0.0, 0.0, 0.0, 0.0, 0.0, 0.0, 1.6665556906314583E9, 0.0, 2022-10-23 13:08:10.631
21.0, -72856.82980499623, -104610.03090262783, 68064.43697982276, 17636.44279675994, 77111.14908589711, 84338.56330377619, 39077.1748515576, 36997.94852709157, 0.034, 0.9540000000000001, 0.10400000000000001, 192.0, 0.0, 0.0, 0.0, 0.0, 0.0, 0.0, 0.0, 0.0, 0.0, 1.6665556906314673E9, 0.0, 2022-10-23 13:08:10.631
22.0, -72794.89312111058, -104557.63841362458, 68045.14742435783, 17137.261287839567, 76876.94750749439, 84224.70351752086, 38907.145131486075, 36596.086513529604, 0.034, 0.9540000000000001, 0.10400000000000001, 192.0, 0.0, 0.0, 0.0, 0.0, 0.0, 0.0, 0.0, 0.0, 0.0, 1.6665556906314764E9, 0.0, 2022-10-23 13:08:10.631
23.0, -72780.74446687037, -104544.16031171803, 65929.01836979609, 16918.504764855476, 76831.21583833885, 83254.68251164944, 37565.459318811816, 35188.82068262347, 0.034, 0.9540000000000001, 0.10400000000000001, 192.0, 0.0, 0.0, 0.0, 0.0, 0.0, 0.0, 0.0, 0.0, 0.0, 1.6665556906314871E9, 0.0, 2022-10-23 13:08:10.631
24.0, -72810.51699048484, -104559.7841810923, 65841.44423502019, 17239.5205187226, 76976.30101159823, 83311.3665355881, 37651.87116287603, 35444.748156636735, 0.034, 0.9540000000000001, 0.10400000000000001, 192.0, 0.0, 0.0, 0.0, 0.0, 0.0, 0.0, 0.0, 0.0, 0.0, 1.6665556906314964E9, 0.0, 2022-10-23 13:08:10.631
25.0, -72853.85702298368, -104599.77145192283, 67635.99874210343, 17631.10072983512, 77109.38329808513, 84166.79014763715, 38845.901351678534, 36758.4272335085, 0.034, 0.9540000000000001, 0.10400000000000001, 192.0, 0.0, 0.0, 0.0, 0.0, 0.0, 0.0, 0.0, 0.0, 0.0, 1.6665556906315055E9, 0.0, 2022-10-23 13:08:10.631
26.0, -72808.17005731702, -104562.95812880494, 68381.9435098104, 17283.41934483282, 76929.51881045327, 84416.9732233254, 39177.489480673015, 36907.13338936966, 0.034, 0.9540000000000001, 0.10400000000000001, 192.0, 0.0, 0.0, 0.0, 0.0, 0.0, 0.0, 0.0, 0.0, 0.0, 1.6665556906315148E9, 0.0, 2022-10-23 13:08:10.631
27.0, -72767.08755100818, -104523.44024460796, 66133.8050524956, 16881.66908999313, 76796.74944838876, 83345.58705634918, 37698.31808785416, 35302.30048922307, 0.032, 0.9500000000000001, 0.108, 192.0, 1.0, 0.0, 29.0, 176.0, 3.0, 96.0, 0.0, 0.0, 0.0, 1.666555690631524E9, 0.0, 2022-10-23 13:08:10.631
28.0, -72804.99610960437, -104557.9289863025, 65671.23570099303, 17171.63827081183, 76942.34871177062, 83211.49894136179, 37529.36125151649, 35300.69116362228, 0.032, 0.9500000000000001, 0.108, 192.0, 0.0, 0.0, 0.0, 0.0, 0.0, 0.0, 0.0, 0.0, 0.0, 1.666555690631535E9, 0.0, 2022-10-23 13:08:10.631
29.0, -72843.6422757676, -104591.21073379646, 67135.4984802602, 17566.28067091473, 77092.12775136564, 83939.87523792687, 38544.935112587824, 36466.11111952199, 0.032, 0.9500000000000001, 0.108, 192.0, 0.0, 0.0, 0.0, 0.0, 0.0, 0.0, 0.0, 0.0, 0.0, 1.666555690631544E9, 0.0, 2022-10-23 13:08:10.631
30.0, -72819.39063303359, -104576.79385862278, 68564.62431724362, 17433.891288505947, 77002.69842179996, 84533.04583228182, 39346.960407133156, 37145.425337007684, 0.032, 0.9500000000000001, 0.108, 192.0, 0.0, 0.0, 0.0, 0.0, 0.0, 0.0, 0.0, 0.0, 0.0, 1.6665556906315532E9, 0.0, 2022-10-23 13:08:10.631
31.0, -72766.64051611906, -104525.96599173141, 66448.09293128169, 16877.086982379795, 76788.4793029403, 83499.05413377931, 37913.677145681046, 35520.45351510686, 0.032, 0.9500000000000001, 0.108, 192.0, 0.0, 0.0, 0.0, 0.0, 0.0, 0.0, 0.0, 0.0, 0.0, 1.6665556906315625E9, 0.0, 2022-10-23 13:08:10.631
32.0, -72802.00097584736, -104560.05240202576, 65623.64883704769, 17125.124290600335, 76931.32930175416, 83199.51840633374, 37505.57899541605, 35247.20343914073, 0.032, 0.9500000000000001, 0.108, 192.0, 0.0, 0.0, 0.0, 0.0, 0.0, 0.0, 0.0, 0.0, 0.0, 1.6665556906315713E9, 0.0, 2022-10-23 13:08:10.631
33.0, -72846.1456711466, -104598.02801585532, 66726.41685323916, 17503.22639980631, 77086.60687048518, 83782.54130870597, 38313.08046735293, 36214.519883933055, 0.032, 0.9500000000000001, 0.108, 192.0, 0.0, 0.0, 0.0, 0.0, 0.0, 0.0, 0.0, 0.0, 0.0, 1.6665556906315804E9, 0.0, 2022-10-23 13:08:10.631
34.0, -72846.1456711466, -104596.75396642137, 68593.92745422453, 17547.527557316727, 77062.39993124008, 84587.42762654158, 39414.127399221354, 37255.127698794335, 0.032, 0.9500000000000001, 0.108, 192.0, 0.0, 0.0, 0.0, 0.0, 0.0, 0.0, 0.0, 0.0, 0.0, 1.6665556906315997E9, 0.0, 2022-10-23 13:08:10.631
35.0, -72779.09043778067, -104534.32554415769, 66825.47978466509, 16916.068424709847, 76811.34513751807, 83687.85931919329, 38164.10609055831, 35772.827061751734, 0.032, 0.9500000000000001, 0.108, 192.0, 0.0, 0.0, 0.0, 0.0, 0.0, 0.0, 0.0, 0.0, 0.0, 1.666555690631609E9, 0.0, 2022-10-23 13:08:10.631
36.0, -72807.25363579436, -104554.46446591192, 65628.3427033833, 17070.049592262458, 76912.01739454478, 83215.5893105971, 37504.059076793084, 35204.466903742185, 0.032, 0.9500000000000001, 0.108, 192.0, 0.0, 0.0, 0.0, 0.0, 0.0, 0.0, 0.0, 0.0, 0.0, 1.6665556906316187E9, 0.0, 2022-10-23 13:08:10.631
37.0, -72848.20203163648, -104590.45077448497, 66345.18549980945, 17403.71643349128, 77035.35432044916, 83616.22197821403, 38071.458109791056, 35940.37573818871, 0.03, 0.9540000000000001, 0.108, 192.0, 0.0, 240.0, 29.0, 208.0, 3.0, 96.0, 0.0, 0.0, 0.0, 1.666555690631628E9, 0.0, 2022-10-23 13:08:10.631
38.0, -72862.46244459898, -104604.688835703, 68465.7625515178, 17618.047311073224, 77084.03641987282, 84564.20416405251, 39373.35781733487, 37249.13743128031, 0.03, 0.9540000000000001, 0.108, 192.0, 0.0, 0.0, 0.0, 0.0, 0.0, 0.0, 0.0, 0.0, 0.0, 1.6665556906316376E9, 0.0, 2022-10-23 13:08:10.631
39.0, -72791.65211816455, -104536.38190464758, 67278.54964477416, 16985.537646476943, 76816.66485269844, 83923.51376098559, 38471.71079775224, 36096.167397042205, 0.03, 0.9540000000000001, 0.108, 192.0, 0.0, 0.0, 0.0, 0.0, 0.0, 0.0, 0.0, 0.0, 0.0, 1.6665556906316469E9, 0.0, 2022-10-23 13:08:10.631
40.0, -72793.57436818772, -104544.11560822913, 65651.70027633909, 17009.3646060663, 76865.61517305556, 83220.52904612172, 37499.320506968565, 35162.35621718839, 0.03, 0.9540000000000001, 0.108, 192.0, 0.0, 0.0, 0.0, 0.0, 0.0, 0.0, 0.0, 0.0, 0.0, 1.6665556906316557E9, 0.0, 2022-10-23 13:08:10.631
41.0, -72826.45378428148, -104573.9328353325, 66013.50796383715, 17331.274429711633, 77005.98412823488, 83456.78698501432, 37848.25358966036, 35692.673706135, 0.03, 0.9540000000000001, 0.108, 192.0, 0.0, 0.0, 0.0, 0.0, 0.0, 0.0, 0.0, 0.0, 0.0, 1.6665556906316648E9, 0.0, 2022-10-23 13:08:10.631
42.0, -72856.87450848514, -104604.33120779172, 68159.25307980218, 17660.180349371476, 77115.53002781034, 84442.72243293792, 39211.732353178544, 37120.10081053982, 0.03, 0.9540000000000001, 0.108, 192.0, 0.0, 0.0, 0.0, 0.0, 0.0, 0.0, 0.0, 0.0, 0.0, 1.666555690631674E9, 0.0, 2022-10-23 13:08:10.631
43.0, -72785.12540878361, -104535.6219453361, 67702.89751325817, 17095.329415241413, 76871.18075742493, 84134.6036356215, 38768.29609492971, 36431.95765399429, 0.03, 0.9540000000000001, 0.108, 192.0, 0.0, 0.0, 0.0, 0.0, 0.0, 0.0, 0.0, 0.0, 0.0, 1.666555690631683E9, 0.0, 2022-10-23 13:08:10.631
44.0, -72786.71238263993, -104533.38677089057, 65719.58252424985, 16961.59892816531, 76855.22161188384, 83235.70588060688, 37529.96474861679, 35166.69245561272, 0.03, 0.9540000000000001, 0.108, 192.0, 0.0, 0.0, 0.0, 0.0, 0.0, 0.0, 0.0, 0.0, 0.0, 1.666555690631692E9, 0.0, 2022-10-23 13:08:10.631
45.0, -72836.55677277526, -104580.34778599118, 65779.03816450098, 17272.958728427737, 76995.45645659644, 83341.18376269148, 37694.65240176349, 35511.06578243563, 0.03, 0.9540000000000001, 0.108, 192.0, 0.0, 0.0, 0.0, 0.0, 0.0, 0.0, 0.0, 0.0, 0.0, 1.6665556906317012E9, 0.0, 2022-10-23 13:08:10.631
46.0, -72865.949316734, -104607.54985899328, 67769.97509836854, 17660.180349371476, 77138.57467634376, 84288.83067236312, 38999.569594808774, 36922.556093043815, 0.034, 0.9560000000000001, 0.112, 192.0, 1.0, 16.0, 29.0, 224.0, 3.0, 128.0, 0.0, 0.0, 0.0, 1.6665556906317103E9, 0.0, 2022-10-23 13:08:10.631
47.0, -72810.40523176256, -104558.46542816942, 68090.074430713, 17220.20861151321, 76928.04359531922, 84343.14541138953, 39052.34206346775, 36763.83635566668, 0.034, 0.9560000000000001, 0.112, 192.0, 0.0, 0.0, 0.0, 0.0, 0.0, 0.0, 0.0, 0.0, 0.0, 1.6665556906317203E9, 0.0, 2022-10-23 13:08:10.631
48.0, -72789.70751639694, -104541.25458493884, 65906.46545964068, 16909.564067073356, 76838.97189366483, 83330.52198058629, 37645.88089536201, 35262.11205269242, 0.034, 0.9560000000000001, 0.112, 192.0, 0.0, 0.0, 0.0, 0.0, 0.0, 0.0, 0.0, 0.0, 0.0, 1.6665556906317291E9, 0.0, 2022-10-23 13:08:10.631
49.0, -72819.50239175587, -104569.70835563044, 65631.15902318466, 17202.416622926787, 76973.99878191933, 83274.3520467701, 37588.81689176761, 35377.80468199309, 0.034, 0.9560000000000001, 0.112, 192.0, 0.0, 0.0, 0.0, 0.0, 0.0, 0.0, 0.0, 0.0, 0.0, 1.666555690631748E9, 0.0, 2022-10-23 13:08:10.631
50.0, -72858.28266838583, -104603.6383037136, 67314.46889811385, 17617.220296528376, 77136.71948155397, 84096.18098690284, 38726.11835314254, 36655.385691569536, 0.034, 0.9560000000000001, 0.112, 192.0, 0.0, 0.0, 0.0, 0.0, 0.0, 0.0, 0.0, 0.0, 0.0, 1.666555690631757E9, 0.0, 2022-10-23 13:08:10.631
51.0, -72819.21181907796, -104570.9824050644, 68371.72876259431, 17355.302555001086, 76983.36416284612, 84502.60275633368, 39265.55535382692, 37034.11364962025, 0.034, 0.9560000000000001, 0.112, 192.0, 0.0, 0.0, 0.0, 0.0, 0.0, 0.0, 0.0, 0.0, 0.0, 1.666555690631766E9, 0.0, 2022-10-23 13:08:10.631
52.0, -72775.42475169, -104532.20212843444, 66156.38031439547, 16882.67491849362, 76814.29556778618, 83437.40802257157, 37788.79794940924, 35397.31775490257, 0.034, 0.9560000000000001, 0.112, 192.0, 0.0, 0.0, 0.0, 0.0, 0.0, 0.0, 0.0, 0.0, 0.0, 1.666555690631775E9, 0.0, 2022-10-23 13:08:10.631
53.0, -72820.01648187834, -104570.49066668638, 65562.11448456222, 17149.130064145334, 76949.79184267424, 83246.01003480078, 37532.28933004014, 35290.47641640621, 0.034, 0.9560000000000001, 0.112, 192.0, 0.0, 0.0, 0.0, 0.0, 0.0, 0.0, 0.0, 0.0, 0.0, 1.666555690631784E9, 0.0, 2022-10-23 13:08:10.631
54.0, -72853.03000843883, -104606.20875432597, 66856.36989550233, 17530.875507697525, 77094.4970362779, 83892.55659491499, 38440.150134581345, 36353.30186525606, 0.034, 0.9560000000000001, 0.112, 192.0, 0.0, 0.0, 0.0, 0.0, 0.0, 0.0, 0.0, 0.0, 0.0, 1.666555690631793E9, 0.0, 2022-10-23 13:08:10.631
55.0, -72834.5451157743, -104595.90460013207, 68476.73725804535, 17469.207044745333, 77027.5312098898, 84568.20512631001, 39362.71838697414, 37184.45148282665, 0.034, 0.9560000000000001, 0.112, 192.0, 0.0, 0.0, 0.0, 0.0, 0.0, 0.0, 0.0, 0.0, 0.0, 1.666555690631802E9, 0.0, 2022-10-23 13:08:10.631
56.0, -72769.97092604291, -104532.09036971217, 66484.77214393285, 16890.63213951971, 76808.61822469452, 83582.44849234205, 37994.277536186884, 35603.870225414066, 0.03, 0.9500000000000001, 0.1, 192.0, 0.0, 240.0, 29.0, 176.0, 3.0, 32.0, 0.0, 0.0, 0.0, 1.6665556906318111E9, 0.0, 2022-10-23 13:08:10.631
57.0, -72801.39747874707, -104549.3235646872, 65535.471205171496, 17129.3934737913, 76953.88221190956, 83234.92356955094, 37511.32339374106, 35236.139325635355, 0.03, 0.9500000000000001, 0.1, 192.0, 0.0, 0.0, 0.0, 0.0, 0.0, 0.0, 0.0, 0.0, 0.0, 1.666555690631821E9, 0.0, 2022-10-23 13:08:10.631
58.0, -72836.8920489421, -104581.66653891404, 66466.57782394622, 17484.830914119593, 77092.46302753246, 83730.39468889174, 38212.02823067048, 36105.24220529106, 0.03, 0.9500000000000001, 0.1, 192.0, 0.0, 0.0, 0.0, 0.0, 0.0, 0.0, 0.0, 0.0, 0.0, 1.66655569063183E9, 0.0, 2022-10-23 13:08:10.631
59.0, -72852.42651133853, -104602.7889374243, 68485.1191622161, 17587.04544151371, 77092.48537927693, 84622.43045835859, 39432.433477930244, 37290.71167596718, 0.03, 0.9500000000000001, 0.1, 192.0, 0.0, 0.0, 0.0, 0.0, 0.0, 0.0, 0.0, 0.0, 0.0, 1.6665556906318388E9, 0.0, 2022-10-23 13:08:10.631
60.0, -72784.67837389451, -104540.31581167172, 66925.3473788914, 16924.40562539168, 76814.31791953063, 83808.3799252963, 38299.60236544638, 35910.625566318704, 0.03, 0.9500000000000001, 0.1, 192.0, 0.0, 0.0, 0.0, 0.0, 0.0, 0.0, 0.0, 0.0, 0.0, 1.666555690631848E9, 0.0, 2022-10-23 13:08:10.631
61.0, -72807.186580561, -104557.41489618002, 65514.50526887242, 17043.026333215992, 76905.78125784174, 83209.30847040516, 37478.30986718057, 35167.74298760211, 0.03, 0.9500000000000001, 0.1, 192.0, 0.0, 0.0, 0.0, 0.0, 0.0, 0.0, 0.0, 0.0, 0.0, 1.666555690631857E9, 0.0, 2022-10-23 13:08:10.631
62.0, -72842.10000540019, -104588.75204190637, 66121.71275874529, 17396.049785143114, 77060.16475679455, 83578.84986148475, 37992.13176871917, 35856.08730984775, 0.03, 0.9500000000000001, 0.1, 192.0, 0.0, 0.0, 0.0, 0.0, 0.0, 0.0, 0.0, 0.0, 0.0, 1.666555690631866E9, 0.0, 2022-10-23 13:08:10.631
63.0, -72871.67136331456, -104620.22329809944, 68291.08366859957, 17645.964639897902, 77114.47949582094, 84563.9135913746, 39344.41230826525, 37233.62532062833, 0.03, 0.9500000000000001, 0.1, 192.0, 0.0, 0.0, 0.0, 0.0, 0.0, 0.0, 0.0, 0.0, 0.0, 1.6665556906318753E9, 0.0, 2022-10-23 13:08:10.631
64.0, -72799.94461535748, -104557.4819514134, 67385.48039024835, 17015.332521835866, 76839.57539076512, 84047.67770143482, 38612.92911922087, 36245.18647732574, 0.03, 0.9500000000000001, 0.1, 192.0, 0.0, 0.0, 0.0, 0.0, 0.0, 0.0, 0.0, 0.0, 0.0, 1.6665556906318843E9, 0.0, 2022-10-23 13:08:10.631
65.0, -72804.12439157061, -104554.3303554452, 65617.6362177892, 16981.93901561964, 76872.16423418096, 83273.32386652517, 37539.15131558792, 35182.33867673143, 0.03, 0.9500000000000001, 0.1, 192.0, 0.0, 0.0, 0.0, 0.0, 0.0, 0.0, 0.0, 0.0, 0.0, 1.6665556906319015E9, 0.0, 2022-10-23 13:08:10.631
66.0, -72829.38186280512, -104577.35265223416, 65855.07879913793, 17299.780821774104, 77016.3776894066, 83456.4517088475, 37814.01071715483, 35635.92262696298, 0.04, 0.9560000000000001, 0.1, 192.0, 1.0, 64.0, 29.0, 224.0, 3.0, 32.0, 0.0, 0.0, 0.0, 1.6665556906319108E9, 0.0, 2022-10-23 13:08:10.631
67.0, -72868.2515464129, -104613.65188522958, 67938.93193470621, 17657.811064459213, 77143.62617059067, 84419.25310125985, 39150.19800069308, 37054.58784754132, 0.04, 0.9560000000000001, 0.1, 192.0, 0.0, 0.0, 0.0, 0.0, 0.0, 0.0, 0.0, 0.0, 0.0, 1.6665556906319206E9, 0.0, 2022-10-23 13:08:10.631
68.0, -72811.74633642987, -104567.60729165164, 67796.86424694827, 17135.04846513849, 76903.41197292948, 84248.35166315456, 38903.434741906494, 36575.47820514181, 0.04, 0.9560000000000001, 0.1, 192.0, 0.0, 0.0, 0.0, 0.0, 0.0, 0.0, 0.0, 0.0, 0.0, 1.66655569063193E9, 0.0, 2022-10-23 13:08:10.631
69.0, -72792.05444956475, -104546.84252105266, 65732.65829475621, 16942.845814567307, 76858.66378052995, 83313.78052398926, 37604.70898207533, 35219.44257252724, 0.04, 0.9560000000000001, 0.1, 192.0, 0.0, 0.0, 0.0, 0.0, 0.0, 0.0, 0.0, 0.0, 0.0, 1.6665556906319387E9, 0.0, 2022-10-23 13:08:10.631
70.0, -72823.34689180218, -104573.01641380983, 65672.08506728233, 17255.479664263687, 76987.3204216147, 83372.40914969554, 37694.294773852205, 35481.47207277681, 0.04, 0.9560000000000001, 0.1, 192.0, 0.0, 0.0, 0.0, 0.0, 0.0, 0.0, 0.0, 0.0, 0.0, 1.6665556906319492E9, 0.0, 2022-10-23 13:08:10.631
71.0, -72876.92402326156, -104617.92106842055, 67522.42952852602, 17635.280506048264, 77104.30945209377, 84249.55865735516, 38907.86038730865, 36814.93244349152, 0.04, 0.9560000000000001, 0.1, 192.0, 0.0, 0.0, 0.0, 0.0, 0.0, 0.0, 0.0, 0.0, 0.0, 1.6665556906319582E9, 0.0, 2022-10-23 13:08:10.631
72.0, -72827.28079882632, -104569.77541086382, 68147.65252442987, 17285.162780900333, 76929.92114185347, 84445.47169750593, 39158.266980441455, 36876.086816321236, 0.04, 0.9560000000000001, 0.1, 192.0, 0.0, 0.0, 0.0, 0.0, 0.0, 0.0, 0.0, 0.0, 0.0, 1.6665556906319673E9, 0.0, 2022-10-23 13:08:10.631
73.0, -72805.86782763814, -104545.50141638535, 65929.55481166301, 16901.696253025086, 76817.73773643229, 83406.29439428978, 37711.81854150516, 35305.65325089136, 0.04, 0.9560000000000001, 0.1, 192.0, 0.0, 0.0, 0.0, 0.0, 0.0, 0.0, 0.0, 0.0, 0.0, 1.6665556906319764E9, 0.0, 2022-10-23 13:08:10.631
74.0, -72838.63548500961, -104588.37206225062, 65539.42746394008, 17179.86371277138, 76955.87151716609, 83310.74068674335, 37591.47674935779, 35347.629826978424, 0.04, 0.9560000000000001, 0.1, 192.0, 0.0, 0.0, 0.0, 0.0, 0.0, 0.0, 0.0, 0.0, 0.0, 1.6665556906319857E9, 0.0, 2022-10-23 13:08:10.631
75.0, -72864.45174985549, -104607.10282410418, 67071.86306379594, 17588.94533979241, 77104.44356256051, 84068.26365807815, 38644.62389285849, 36546.21977164981, 0.036000000000000004, 0.964, 0.1, 192.0, 1.0, 32.0, 30.0, 32.0, 3.0, 32.0, 0.0, 0.0, 0.0, 1.6665556906319947E9, 0.0, 2022-10-23 13:08:10.631
76.0, -72818.42950802202, -104565.12624801711, 68383.55283541117, 17431.365541382496, 77003.01134622232, 84597.46355980201, 39356.48225027112, 37128.661528666205, 0.036000000000000004, 0.964, 0.1, 192.0, 0.0, 0.0, 0.0, 0.0, 0.0, 0.0, 0.0, 0.0, 0.0, 1.6665556906320045E9, 0.0, 2022-10-23 13:08:10.632
77.0, -72780.76681861482, -104535.6219453361, 66245.96610617235, 16906.948912972082, 76814.78730616419, 83565.61762876721, 37917.94632887201, 35508.02594518971, 0.036000000000000004, 0.964, 0.1, 192.0, 0.0, 0.0, 0.0, 0.0, 0.0, 0.0, 0.0, 0.0, 0.0, 1.6665556906320136E9, 0.0, 2022-10-23 13:08:10.632
78.0, -72813.66858645303, -104566.9814428069, 65467.67836423855, 17135.696665727697, 76927.19422902992, 83271.78159615774, 37530.72470792827, 35258.513421835116, 0.036000000000000004, 0.964, 0.1, 192.0, 0.0, 0.0, 0.0, 0.0, 0.0, 0.0, 0.0, 0.0, 0.0, 1.6665556906320229E9, 0.0, 2022-10-23 13:08:10.632
79.0, -72851.93477296052, -104596.17282106553, 66603.14698256814, 17516.726853457316, 77083.76819893935, 83846.57905657042, 38345.24462762411, 36240.29144529002, 0.036000000000000004, 0.964, 0.1, 192.0, 0.0, 0.0, 0.0, 0.0, 0.0, 0.0, 0.0, 0.0, 0.0, 1.666555690632032E9, 0.0, 2022-10-23 13:08:10.632
80.0, -72859.73553177543, -104612.91427766255, 68439.56630701618, 17535.211746121855, 77050.06176830074, 84643.59756035777, 39428.63368137285, 37255.44062321671, 0.036000000000000004, 0.964, 0.1, 192.0, 0.0, 0.0, 0.0, 0.0, 0.0, 0.0, 0.0, 0.0, 0.0, 1.6665556906320496E9, 0.0, 2022-10-23 13:08:10.632
81.0, -72782.35379247116, -104539.30998317123, 66580.57172066829, 16898.09762216778, 76789.06044829614, 83695.79418847492, 38117.30153766889, 35716.94770061346, 0.036000000000000004, 0.964, 0.1, 192.0, 0.0, 0.0, 0.0, 0.0, 0.0, 0.0, 0.0, 0.0, 0.0, 1.6665556906320589E9, 0.0, 2022-10-23 13:08:10.632
82.0, -72787.60645241814, -104528.96112548842, 65411.97781705592, 17070.89895855176, 76905.37892644155, 83217.98094725382, 37466.50814610817, 35173.24151673812, 0.036000000000000004, 0.964, 0.1, 192.0, 0.0, 0.0, 0.0, 0.0, 0.0, 0.0, 0.0, 0.0, 0.0, 1.666555690632068E9, 0.0, 2022-10-23 13:08:10.632
83.0, -72844.8939734571, -104594.96582686495, 66198.91568409392, 17429.89032624845, 77063.40575974056, 83655.8963246222, 38083.37158958573, 35965.990837334495, 0.036000000000000004, 0.964, 0.1, 192.0, 0.0, 0.0, 0.0, 0.0, 0.0, 0.0, 0.0, 0.0, 0.0, 1.6665556906320765E9, 0.0, 2022-10-23 13:08:10.632
84.0, -72903.58965439674, -104666.93844401103, 68329.9757039518, 17616.72855815036, 77099.39206831361, 84622.98925196996, 39401.051628714995, 37273.14320482531, 0.036000000000000004, 0.964, 0.1, 192.0, 0.0, 0.0, 0.0, 0.0, 0.0, 0.0, 0.0, 0.0, 0.0, 1.6665556906320856E9, 0.0, 2022-10-23 13:08:10.632
85.0, -72838.94840943199, -104589.71316691795, 67011.15572585532, 16960.324878731357, 76811.9262828739, 83914.5060079701, 38412.5680819235, 36034.007195711994, 0.03, 0.9580000000000001, 0.10400000000000001, 192.0, 0.0, 240.0, 29.0, 240.0, 3.0, 64.0, 0.0, 0.0, 0.0, 1.6665556906320949E9, 0.0, 2022-10-23 13:08:10.632
86.0, -72849.23021188143, -104594.42938499802, 65436.38592200112, 17020.94280969415, 76876.67928656093, 83230.72144159334, 37477.12522472444, 35154.264885695564, 0.03, 0.9580000000000001, 0.10400000000000001, 192.0, 0.0, 0.0, 0.0, 0.0, 0.0, 0.0, 0.0, 0.0, 0.0, 1.6665556906321044E9, 0.0, 2022-10-23 13:08:10.632
87.0, -72882.26609018637, -104633.32142035026, 65873.40722959128, 17357.783598635626, 77020.46805864193, 83510.31941298478, 37879.32251445323, 35736.30431131176, 0.03, 0.9580000000000001, 0.10400000000000001, 192.0, 0.0, 0.0, 0.0, 0.0, 0.0, 0.0, 0.0, 0.0, 0.0, 1.6665556906321135E9, 0.0, 2022-10-23 13:08:10.632
88.0, -72920.57698018277, -104676.5049906379, 68035.78204343106, 17661.700267994438, 77103.25892010437, 84501.06048596627, 39244.70117625012, 37148.509877742516, 0.03, 0.9580000000000001, 0.10400000000000001, 192.0, 0.0, 0.0, 0.0, 0.0, 0.0, 0.0, 0.0, 0.0, 0.0, 1.666555690632123E9, 0.0, 2022-10-23 13:08:10.632
89.0, -72854.43816833952, -104621.02796089984, 67449.4734346239, 17078.163275499737, 76847.95729493587, 84135.56476063309, 38720.28454783971, 36374.35720853296, 0.03, 0.9580000000000001, 0.10400000000000001, 192.0, 0.0, 0.0, 0.0, 0.0, 0.0, 0.0, 0.0, 0.0, 0.0, 1.666555690632131E9, 0.0, 2022-10-23 13:08:10.632
90.0, -72856.06984568476, -104624.35837082367, 65555.45366471454, 16979.636785940744, 76850.66185601495, 83300.48123603837, 37555.937475673854, 35191.23467102464, 0.03, 0.9580000000000001, 0.10400000000000001, 192.0, 0.0, 0.0, 0.0, 0.0, 0.0, 0.0, 0.0, 0.0, 0.0, 1.6665556906321392E9, 0.0, 2022-10-23 13:08:10.632
91.0, -72897.21940722698, -104647.67124029055, 65659.83631132082, 17282.011184932137, 76977.59741277664, 83420.42069678554, 37744.25092270981, 35550.9412945439, 0.03, 0.9580000000000001, 0.10400000000000001, 192.0, 0.0, 0.0, 0.0, 0.0, 0.0, 0.0, 0.0, 0.0, 0.0, 1.6665556906321473E9, 0.0, 2022-10-23 13:08:10.632
92.0, -72938.68189319156, -104689.87133382217, 67695.74495503247, 17673.770210000304, 77118.72632726745, 84385.18904270996, 39071.698674166044, 36968.3771691772, 0.03, 0.9580000000000001, 0.10400000000000001, 192.0, 0.0, 0.0, 0.0, 0.0, 0.0, 0.0, 0.0, 0.0, 0.0, 1.6665556906321564E9, 0.0, 2022-10-23 13:08:10.632
93.0, -72893.64312811413, -104669.17361845657, 67886.49474221405, 17196.515762390587, 76882.6472023305, 84378.8187955402, 39040.69680460654, 36716.76358184381, 0.03, 0.9580000000000001, 0.10400000000000001, 192.0, 0.0, 0.0, 0.0, 0.0, 0.0, 0.0, 0.0, 0.0, 0.0, 1.6665556906321645E9, 0.0, 2022-10-23 13:08:10.632
94.0, -72873.83948252672, -104646.77717051235, 65728.79144296545, 16913.229753164025, 76791.72030588631, 83380.96986782193, 37655.559200711155, 35245.8176309845, 0.03, 0.9580000000000001, 0.10400000000000001, 192.0, 0.0, 0.0, 0.0, 0.0, 0.0, 0.0, 0.0, 0.0, 0.0, 1.6665556906321728E9, 0.0, 2022-10-23 13:08:10.632
95.0, -72895.83359907074, -104655.91903399456, 65512.82888803827, 17214.64302714384, 76927.4624499634, 83350.88441978508, 37635.80025861267, 35399.642336325924, 0.034, 0.96, 0.10200000000000001, 192.0, 1.0, 16.0, 30.0, 0.0, 3.0, 48.0, 0.0, 0.0, 0.0, 1.6665556906321816E9, 0.0, 2022-10-23 13:08:10.632
96.0, -72923.59446568423, -104658.73535379594, 67229.68873139485, 17638.05212236072, 77100.08497239172, 84172.19926979534, 38783.09294975912, 36684.666476805985, 0.034, 0.96, 0.10200000000000001, 192.0, 0.0, 0.0, 0.0, 0.0, 0.0, 0.0, 0.0, 0.0, 0.0, 1.666555690632198E9, 0.0, 2022-10-23 13:08:10.632
97.0, -72879.98621225193, -104636.38360934063, 68166.47269326124, 17353.58147067803, 76953.68104620946, 84518.42779140804, 39243.09185064934, 36983.64341064017, 0.034, 0.96, 0.10200000000000001, 192.0, 0.0, 0.0, 0.0, 0.0, 0.0, 0.0, 0.0, 0.0, 0.0, 1.6665556906322064E9, 0.0, 2022-10-23 13:08:10.632
98.0, -72848.47025256995, -104612.10961486216, 65978.54983550905, 16905.384290860213, 76798.51523620072, 83490.87339530866, 37802.499568760344, 35392.13215018894, 0.034, 0.96, 0.10200000000000001, 192.0, 0.0, 0.0, 0.0, 0.0, 0.0, 0.0, 0.0, 0.0, 0.0, 1.6665556906322155E9, 0.0, 2022-10-23 13:08:10.632
99.0, -72875.22529068295, -104634.08137966173, 65446.37715177264, 17179.416677882276, 76932.69275816593, 83328.46562009641, 37583.58658356507, 35321.21006503225, 0.034, 0.96, 0.10200000000000001, 192.0, 0.0, 0.0, 0.0, 0.0, 0.0, 0.0, 0.0, 0.0, 0.0, 1.6665556906322238E9, 0.0, 2022-10-23 13:08:10.632
100.0, -72928.13186980867, -104696.15217401412, 66821.90350555224, 17563.91138600247, 77088.21619608595, 84014.12773300741, 38540.420060207856, 36428.91781674836, 0.034, 0.96, 0.10200000000000001, 192.0, 0.0, 0.0, 0.0, 0.0, 0.0, 0.0, 0.0, 0.0, 0.0, 1.666555690632232E9, 0.0, 2022-10-23 13:08:10.632
101.0, -72924.15325929562, -104674.73920282593, 68383.53048366672, 17461.808617330626, 77000.7761717768, 84670.15143277067, 39426.577320882956, 37198.95776497814, 0.034, 0.96, 0.10200000000000001, 192.0, 0.0, 0.0, 0.0, 0.0, 0.0, 0.0, 0.0, 0.0, 0.0, 1.6665556906322403E9, 0.0, 2022-10-23 13:08:10.632
102.0, -72847.24090662491, -104600.10672808967, 66335.68600841594, 16894.990729688496, 76774.06242776662, 83664.25587704849, 38023.93830107907, 35589.20748105139, 0.034, 0.96, 0.10200000000000001, 192.0, 0.0, 0.0, 0.0, 0.0, 0.0, 0.0, 0.0, 0.0, 0.0, 1.6665556906322489E9, 0.0, 2022-10-23 13:08:10.632
103.0, -72889.12807573416, -104674.13570572564, 65384.865151031634, 17118.41876726374, 76895.0971239921, 83284.87971840856, 37514.676155409354, 35209.428991011264, 0.034, 0.96, 0.10200000000000001, 192.0, 0.0, 0.0, 0.0, 0.0, 0.0, 0.0, 0.0, 0.0, 0.0, 1.666555690632257E9, 0.0, 2022-10-23 13:08:10.632
104.0, -72919.8617243602, -104656.54488283931, 66382.95994793891, 17481.03111756219, 77046.93252407701, 83809.98925089708, 38251.16613521172, 36115.47930425159, 0.034, 0.96, 0.10200000000000001, 192.0, 0.0, 0.0, 0.0, 0.0, 0.0, 0.0, 0.0, 0.0, 0.0, 1.666555690632265E9, 0.0, 2022-10-23 13:08:10.632
105.0, -72923.25918951741, -104669.48654287893, 68357.06601823164, 17586.24077871332, 77059.29303876079, 84677.0357700629, 39434.959225053695, 37257.295818006496, 0.036000000000000004, 0.96, 0.1, 192.0, 1.0, 32.0, 30.0, 0.0, 3.0, 32.0, 0.0, 0.0, 0.0, 1.6665556906322737E9, 0.0, 2022-10-23 13:08:10.632
106.0, -72854.08054042823, -104614.85887943016, 66720.73951014751, 16938.82250056535, 76803.14204730297, 83839.67236753373, 38263.347835939865, 35848.3089027773, 0.036000000000000004, 0.96, 0.1, 192.0, 0.0, 0.0, 0.0, 0.0, 0.0, 0.0, 0.0, 0.0, 0.0, 1.6665556906322825E9, 0.0, 2022-10-23 13:08:10.632
107.0, -72865.39052312262, -104630.3486383377, 65396.7339273374, 17077.671537121718, 76910.40806894399, 83292.09933186762, 37507.74711462821, 35182.62924940935, 0.036000000000000004, 0.96, 0.1, 192.0, 0.0, 0.0, 0.0, 0.0, 0.0, 0.0, 0.0, 0.0, 0.0, 1.6665556906322906E9, 0.0, 2022-10-23 13:08:10.632
108.0, -72909.1552387661, -104670.64883359062, 66009.59640855747, 17405.437517814342, 77042.12689901912, 83637.05380404637, 38005.47576015899, 35862.07757736177, 0.036000000000000004, 0.96, 0.1, 192.0, 0.0, 0.0, 0.0, 0.0, 0.0, 0.0, 0.0, 0.0, 0.0, 1.6665556906322987E9, 0.0, 2022-10-23 13:08:10.632
109.0, -72938.48072749146, -104704.37761597367, 68182.40948705787, 17651.932555667467, 77097.93920492401, 84626.16319968262, 39356.035215382006, 37227.74681183658, 0.036000000000000004, 0.96, 0.1, 192.0, 0.0, 0.0, 0.0, 0.0, 0.0, 0.0, 0.0, 0.0, 0.0, 1.6665556906323068E9, 0.0, 2022-10-23 13:08:10.632
110.0, -72837.89787744259, -104595.92695187652, 67161.851186973, 17037.304286635434, 76835.6861872299, 84059.30060855158, 38556.759185404684, 36179.04766548248, 0.036000000000000004, 0.96, 0.1, 192.0, 0.0, 0.0, 0.0, 0.0, 0.0, 0.0, 0.0, 0.0, 0.0, 1.6665556906323152E9, 0.0, 2022-10-23 13:08:10.632
111.0, -72863.93765973303, -104660.99287998592, 65462.31394556927, 17028.341237108856, 76880.9931732408, 83323.72705027187, 37534.07746959657, 35183.34450523192, 0.036000000000000004, 0.96, 0.1, 192.0, 0.0, 0.0, 0.0, 0.0, 0.0, 0.0, 0.0, 0.0, 0.0, 1.6665556906323311E9, 0.0, 2022-10-23 13:08:10.632
112.0, -72875.11353196067, -104637.56825179677, 65781.0274697575, 17353.29089800011, 77022.926750532, 83553.23476233898, 37864.32449392373, 35690.95262181194, 0.036000000000000004, 0.96, 0.1, 192.0, 0.0, 0.0, 0.0, 0.0, 0.0, 0.0, 0.0, 0.0, 0.0, 1.6665556906323397E9, 0.0, 2022-10-23 13:08:10.632
113.0, -72893.26314845838, -104623.10667313417, 67900.71045168763, 17683.135590927075, 77116.64761503311, 84527.52495140136, 39211.888815389735, 37111.026002290964, 0.036000000000000004, 0.96, 0.1, 192.0, 0.0, 0.0, 0.0, 0.0, 0.0, 0.0, 0.0, 0.0, 0.0, 1.6665556906323493E9, 0.0, 2022-10-23 13:08:10.632
114.0, -72823.25748482437, -104564.83567533919, 67602.24760797592, 17148.86184321187, 76866.33042887812, 84277.38657920201, 38852.58452327067, 36514.94968115684, 0.034, 0.9580000000000001, 0.098, 192.0, 1.0, 16.0, 29.0, 240.0, 3.0, 16.0, 0.0, 0.0, 0.0, 1.6665556906323576E9, 0.0, 2022-10-23 13:08:10.632
115.0, -72832.57816226223, -104575.8327336112, 65559.0299438274, 16966.270442756468, 76824.0856318576, 83344.20124819294, 37562.35242633253, 35189.46888321268, 0.034, 0.9580000000000001, 0.098, 192.0, 0.0, 0.0, 0.0, 0.0, 0.0, 0.0, 0.0, 0.0, 0.0, 1.6665556906323664E9, 0.0, 2022-10-23 13:08:10.632
116.0, -72872.78895053732, -104630.12512089314, 65543.13785351967, 17268.26486209212, 76964.29812482574, 83413.17873158203, 37676.36867479905, 35487.59645075756, 0.034, 0.9580000000000001, 0.098, 192.0, 0.0, 0.0, 0.0, 0.0, 0.0, 0.0, 0.0, 0.0, 0.0, 1.6665556906323743E9, 0.0, 2022-10-23 13:08:10.632
117.0, -72914.54200917983, -104662.1551706976, 67481.8834640841, 17657.364029570108, 77103.32597533775, 84347.43694632495, 38956.654245454585, 36873.53871745333, 0.034, 0.9580000000000001, 0.098, 192.0, 0.0, 0.0, 0.0, 0.0, 0.0, 0.0, 0.0, 0.0, 0.0, 1.6665556906323829E9, 0.0, 2022-10-23 13:08:10.632
118.0, -72864.63056381114, -104620.40211205509, 67997.6499673903, 17265.135617868378, 76906.67532761996, 84492.87974749562, 39134.50707608546, 36846.82838282924, 0.034, 0.9580000000000001, 0.098, 192.0, 0.0, 0.0, 0.0, 0.0, 0.0, 0.0, 0.0, 0.0, 0.0, 1.6665556906323907E9, 0.0, 2022-10-23 13:08:10.632
119.0, -72839.08251989871, -104596.46339374346, 65779.82047555692, 16909.228790906523, 76793.15081753145, 83448.47213607695, 37689.17622437194, 35291.41518967333, 0.034, 0.9580000000000001, 0.098, 192.0, 0.0, 0.0, 0.0, 0.0, 0.0, 0.0, 0.0, 0.0, 0.0, 1.6665556906323988E9, 0.0, 2022-10-23 13:08:10.632
120.0, -72874.37592439365, -104621.76556846686, 65445.66189595007, 17198.84034381394, 76921.49453419383, 83373.97377180742, 37599.36691515052, 35362.02435040764, 0.034, 0.9580000000000001, 0.098, 192.0, 0.0, 0.0, 0.0, 0.0, 0.0, 0.0, 0.0, 0.0, 0.0, 1.6665556906324072E9, 0.0, 2022-10-23 13:08:10.632
121.0, -72911.47982018946, -104658.5565398403, 67045.44330184977, 17615.25334301631, 77087.05390537428, 84159.77169987818, 38688.2321462908, 36593.02432453923, 0.034, 0.9580000000000001, 0.098, 192.0, 0.0, 0.0, 0.0, 0.0, 0.0, 0.0, 0.0, 0.0, 0.0, 1.6665556911108336E9, 0.0, 2022-10-23 13:08:11.110
122.0, -72874.64414532711, -104632.31559184977, 68266.27323225419, 17404.476392802764, 76968.99199116135, 84647.46441214853, 39340.61251170785, 37097.257327706495, 0.034, 0.9580000000000001, 0.098, 192.0, 0.0, 0.0, 0.0, 0.0, 0.0, 0.0, 0.0, 0.0, 0.0, 1.6665556911108944E9, 0.0, 2022-10-23 13:08:11.110
123.0, -72825.29149356979, -104584.2369895264, 66089.81681940757, 16901.986825703007, 76789.46277969632, 83596.37362913771, 37880.41774993155, 35459.81323239961, 0.034, 0.9580000000000001, 0.098, 192.0, 0.0, 0.0, 0.0, 0.0, 0.0, 0.0, 0.0, 0.0, 0.0, 1.6665556911109276E9, 0.0, 2022-10-23 13:08:11.110
124.0, -72883.42838089805, -104642.73150476594, 65379.16545619553, 17147.341924588913, 76908.39641194302, 83335.8193440222, 37535.79855391962, 35259.67571254679, 0.036000000000000004, 0.9560000000000001, 0.096, 192.0, 1.0, 32.0, 29.0, 224.0, 3.0, 0.0, 0.0, 0.0, 0.0, 1.666555691110955E9, 0.0, 2022-10-23 13:08:11.110
125.0, -72914.85493360221, -104656.72369679496, 66592.2169795295, 17527.94742917388, 77056.94610559299, 83950.49231654314, 38397.48065441616, 36282.58094579947, 0.036000000000000004, 0.9560000000000001, 0.096, 192.0, 0.0, 0.0, 0.0, 0.0, 0.0, 0.0, 0.0, 0.0, 0.0, 1.6665556911109884E9, 0.0, 2022-10-23 13:08:11.110
126.0, -72887.07171524427, -104632.82968197223, 68373.20397772836, 17529.71321698585, 77028.91701804604, 84727.70717474309, 39445.57630366997, 37249.83033535843, 0.036000000000000004, 0.9560000000000001, 0.096, 192.0, 0.0, 0.0, 0.0, 0.0, 0.0, 0.0, 0.0, 0.0, 0.0, 1.6665556911110125E9, 0.0, 2022-10-23 13:08:11.111
127.0, -72825.71617671444, -104585.13105930461, 66481.86641715365, 16916.135479943216, 76783.00312554874, 83784.88824187378, 38128.36565117427, 35709.50456970985, 0.036000000000000004, 0.9560000000000001, 0.096, 192.0, 0.0, 0.0, 0.0, 0.0, 0.0, 0.0, 0.0, 0.0, 0.0, 1.6665556911111932E9, 0.0, 2022-10-23 13:08:11.111
128.0, -72864.58586032223, -104616.6470189866, 65402.701843106974, 17097.363423986844, 76884.83767328713, 83354.5277541313, 37535.77620217517, 35225.07521212998, 0.036000000000000004, 0.9560000000000001, 0.096, 192.0, 0.0, 0.0, 0.0, 0.0, 0.0, 0.0, 0.0, 0.0, 0.0, 1.6665556911112044E9, 0.0, 2022-10-23 13:08:11.111
129.0, -72906.78595385385, -104647.8947577351, 66246.41314106145, 17445.111864222512, 77025.00546276635, 83807.84348342937, 38174.94668661913, 36037.76228878049, 0.036000000000000004, 0.9560000000000001, 0.096, 192.0, 0.0, 0.0, 0.0, 0.0, 0.0, 0.0, 0.0, 0.0, 0.0, 1.6665556911112156E9, 0.0, 2022-10-23 13:08:11.111
130.0, -72902.8073433408, -104638.75289425289, 68327.18173589489, 17611.788822625735, 77062.0423033288, 84730.54584628891, 39439.161353011295, 37287.40361778779, 0.036000000000000004, 0.9560000000000001, 0.096, 192.0, 0.0, 0.0, 0.0, 0.0, 0.0, 0.0, 0.0, 0.0, 0.0, 1.6665556911112268E9, 0.0, 2022-10-23 13:08:11.111
131.0, -72844.55869729027, -104595.47991698742, 66914.43972759722, 16962.604756665798, 76785.372410461, 83976.5768023225, 38388.96463977869, 35991.78475043592, 0.036000000000000004, 0.9560000000000001, 0.096, 192.0, 0.0, 0.0, 0.0, 0.0, 0.0, 0.0, 0.0, 0.0, 0.0, 1.6665556911112416E9, 0.0, 2022-10-23 13:08:11.111
132.0, -72874.26416567137, -104624.02309465685, 65420.00209331538, 17041.506414593034, 76854.08167291661, 83335.64053006656, 37507.076562294555, 35174.02382779406, 0.036000000000000004, 0.9560000000000001, 0.096, 192.0, 0.0, 0.0, 0.0, 0.0, 0.0, 0.0, 0.0, 0.0, 0.0, 1.6665556911112523E9, 0.0, 2022-10-23 13:08:11.111
133.0, -72889.30688968979, -104638.14939715259, 65921.19525923673, 17370.01000285268, 76993.24363389536, 83644.76515588346, 37946.57891351925, 35791.08843697172, 0.036000000000000004, 0.9560000000000001, 0.096, 192.0, 0.0, 0.0, 0.0, 0.0, 0.0, 0.0, 0.0, 0.0, 0.0, 1.666555691111263E9, 0.0, 2022-10-23 13:08:11.111
134.0, -72902.27090147388, -104649.90641473609, 68111.91208504583, 17664.181311628978, 77089.445542031, 84653.56643838483, 39325.97211908962, 37208.032573227, 0.038, 0.9540000000000001, 0.096, 192.0, 1.0, 48.0, 29.0, 208.0, 3.0, 0.0, 0.0, 0.0, 0.0, 1.6665556911112792E9, 0.0, 2022-10-23 13:08:11.111
135.0, -72839.46249955446, -104594.89877163158, 67391.76123044029, 17054.96216475513, 76826.79019293669, 84219.04852617366, 38708.102847111564, 36338.01327204863, 0.038, 0.9540000000000001, 0.096, 192.0, 0.0, 0.0, 0.0, 0.0, 0.0, 0.0, 0.0, 0.0, 0.0, 1.666555691111294E9, 0.0, 2022-10-23 13:08:11.111
136.0, -72840.31186584376, -104597.80449841077, 65528.02807426788, 16987.437544755645, 76846.2362106128, 83386.69191440249, 37557.45739429681, 35189.33477274594, 0.038, 0.9540000000000001, 0.096, 192.0, 0.0, 0.0, 0.0, 0.0, 0.0, 0.0, 0.0, 0.0, 0.0, 1.6665556911113048E9, 0.0, 2022-10-23 13:08:11.111
137.0, -72875.29234591631, -104627.88994644761, 65689.74294540203, 17302.395975875377, 76982.44774132344, 83533.60993070721, 37778.91847836, 35595.64478345451, 0.038, 0.9540000000000001, 0.096, 192.0, 0.0, 0.0, 0.0, 0.0, 0.0, 0.0, 0.0, 0.0, 0.0, 1.6665556911113153E9, 0.0, 2022-10-23 13:08:11.111
138.0, -72926.50019246343, -104672.19110395803, 67760.83323488632, 17678.419372847005, 77112.13256265313, 84508.81654129227, 39121.341898601284, 37027.072850116834, 0.038, 0.9540000000000001, 0.096, 192.0, 0.0, 0.0, 0.0, 0.0, 0.0, 0.0, 0.0, 0.0, 0.0, 1.666555691111326E9, 0.0, 2022-10-23 13:08:11.111
139.0, -72873.21363368197, -104631.44387381601, 67827.62024731877, 17180.02017498257, 76861.48010033132, 84444.10824109415, 39005.76102802289, 36674.78700575674, 0.038, 0.9540000000000001, 0.096, 192.0, 0.0, 0.0, 0.0, 0.0, 0.0, 0.0, 0.0, 0.0, 0.0, 1.6665556911113365E9, 0.0, 2022-10-23 13:08:11.111
140.0, -72850.41485433756, -104609.67327471654, 65686.65840466719, 16920.67288406764, 76777.8175208351, 83451.98135995644, 37629.85469458756, 35222.95179640673, 0.038, 0.9540000000000001, 0.096, 192.0, 0.0, 0.0, 0.0, 0.0, 0.0, 0.0, 0.0, 0.0, 0.0, 1.666555691111348E9, 0.0, 2022-10-23 13:08:11.111
141.0, -72860.56254632027, -104610.187364839, 65540.9697343075, 17241.88980363486, 76940.60527570311, 83467.73933979742, 37663.44936650388, 35432.74526986424, 0.038, 0.9540000000000001, 0.096, 192.0, 0.0, 0.0, 0.0, 0.0, 0.0, 0.0, 0.0, 0.0, 0.0, 1.6665556911113575E9, 0.0, 2022-10-23 13:08:11.111
142.0, -72904.6625381306, -104647.69359203501, 67325.01892149674, 17642.58952648515, 77089.22202458644, 84324.12407685806, 38848.67296799099, 36746.2231810359, 0.038, 0.9540000000000001, 0.096, 192.0, 0.0, 0.0, 0.0, 0.0, 0.0, 0.0, 0.0, 0.0, 0.0, 1.6665556911113808E9, 0.0, 2022-10-23 13:08:11.111
143.0, -72872.58778483722, -104623.50900453437, 68150.78176865361, 17323.719540085738, 76920.57811267115, 84620.15058042415, 39233.63706274475, 36951.05456722433, 0.038, 0.9580000000000001, 0.096, 192.0, 1.0, 48.0, 29.0, 240.0, 3.0, 0.0, 0.0, 0.0, 0.0, 1.6665556911113904E9, 0.0, 2022-10-23 13:08:11.111
144.0, -72850.7948339933, -104605.64996071458, 65919.63063712485, 16885.044203405883, 76762.68538983887, 83557.81686995231, 37759.67362638398, 35337.862114651456, 0.038, 0.9580000000000001, 0.096, 192.0, 0.0, 0.0, 0.0, 0.0, 0.0, 0.0, 0.0, 0.0, 0.0, 1.666555691111401E9, 0.0, 2022-10-23 13:08:11.111
145.0, -72877.23694768392, -104628.38168482562, 65448.992305873915, 17165.178616664245, 76905.64714737501, 83424.62282474314, 37581.954906219835, 35320.20423653177, 0.038, 0.9580000000000001, 0.096, 192.0, 0.0, 0.0, 0.0, 0.0, 0.0, 0.0, 0.0, 0.0, 0.0, 1.6665556911114109E9, 0.0, 2022-10-23 13:08:11.111
146.0, -72903.09791601871, -104649.01234495788, 66879.07926786892, 17551.863795741057, 77040.83049784071, 84133.57545537657, 38564.515240730674, 36448.989683269225, 0.038, 0.9580000000000001, 0.096, 192.0, 0.0, 0.0, 0.0, 0.0, 0.0, 0.0, 0.0, 0.0, 0.0, 1.6665556911114204E9, 0.0, 2022-10-23 13:08:11.111
147.0, -72869.57029933576, -104623.75487372337, 68342.42562561341, 17456.17597772789, 76971.11540688461, 84739.06186092638, 39378.16344239276, 37151.84028766636, 0.038, 0.9580000000000001, 0.096, 192.0, 0.0, 0.0, 0.0, 0.0, 0.0, 0.0, 0.0, 0.0, 0.0, 1.666555691111431E9, 0.0, 2022-10-23 13:08:11.111
148.0, -72825.15738310307, -104586.42746048301, 66257.65606852247, 16913.073290952838, 76776.58817489007, 83723.7562207885, 37960.772271248374, 35547.27560845323, 0.038, 0.9580000000000001, 0.096, 192.0, 0.0, 0.0, 0.0, 0.0, 0.0, 0.0, 0.0, 0.0, 0.0, 1.6665556911114435E9, 0.0, 2022-10-23 13:08:11.111
149.0, -72858.32737187474, -104603.77241418033, 65405.026424530326, 17135.271982583046, 76891.99023151281, 83407.92607163503, 37528.37777476046, 35244.02949142808, 0.038, 0.9580000000000001, 0.096, 192.0, 0.0, 0.0, 0.0, 0.0, 0.0, 0.0, 0.0, 0.0, 0.0, 1.6665556911114533E9, 0.0, 2022-10-23 13:08:11.111
150.0, -72896.14652349312, -104636.49536806291, 66445.65659113605, 17484.875617608504, 77020.60216910865, 83941.73043271666, 38281.98919081559, 36165.21193566465, 0.038, 0.9580000000000001, 0.096, 192.0, 0.0, 0.0, 0.0, 0.0, 0.0, 0.0, 0.0, 0.0, 0.0, 1.6665556911114633E9, 0.0, 2022-10-23 13:08:11.111
151.0, -72895.20775022599, -104647.31361237928, 68369.35947768205, 17547.81812999465, 77011.57206434871, 84785.88876556024, 39427.203169727705, 37257.45228021769, 0.038, 0.9580000000000001, 0.096, 192.0, 0.0, 0.0, 0.0, 0.0, 0.0, 0.0, 0.0, 0.0, 0.0, 1.6665556911114728E9, 0.0, 2022-10-23 13:08:11.111
152.0, -72833.7404529739, -104602.16308857956, 66645.81646273333, 16916.493107854498, 76778.37631444649, 83911.24265327962, 38202.17111136569, 35798.37510566415, 0.038, 0.9580000000000001, 0.096, 192.0, 0.0, 0.0, 0.0, 0.0, 0.0, 0.0, 0.0, 0.0, 0.0, 1.666555691111484E9, 0.0, 2022-10-23 13:08:11.111
153.0, -72858.61794455266, -104617.76460620936, 65375.76799103832, 17066.138036982782, 76910.09514452162, 83382.75800737835, 37478.04164624711, 35169.866403325366, 0.04, 0.9540000000000001, 0.1, 192.0, 1.0, 64.0, 29.0, 208.0, 3.0, 32.0, 0.0, 0.0, 0.0, 1.6665556911114984E9, 0.0, 2022-10-23 13:08:11.111
154.0, -72898.6499188721, -104651.6051473147, 66058.41261844785, 17409.34907309402, 77072.12294007813, 83765.93396257567, 38022.53014117839, 35893.839406232764, 0.04, 0.9540000000000001, 0.1, 192.0, 0.0, 0.0, 0.0, 0.0, 0.0, 0.0, 0.0, 0.0, 0.0, 1.6665556911115105E9, 0.0, 2022-10-23 13:08:11.111
155.0, -72926.96957909699, -104684.93159829755, 68202.57076055655, 17638.566212483194, 77148.85647879321, 84734.3009393574, 39348.25680831156, 37236.93337880771, 0.04, 0.9540000000000001, 0.1, 192.0, 0.0, 0.0, 0.0, 0.0, 0.0, 0.0, 0.0, 0.0, 0.0, 1.66655569111152E9, 0.0, 2022-10-23 13:08:11.111
156.0, -72878.06396222877, -104644.36318211118, 67065.06813348152, 16983.816562153883, 76861.16717590895, 84115.85052202351, 38474.79533848707, 36108.416153003716, 0.04, 0.9540000000000001, 0.1, 192.0, 0.0, 0.0, 0.0, 0.0, 0.0, 0.0, 0.0, 0.0, 0.0, 1.6665556911115315E9, 0.0, 2022-10-23 13:08:11.111
157.0, -72870.62083132516, -104637.12121690766, 65426.551154440785, 17010.839821200352, 76908.68698462093, 83410.67533620303, 37494.783102844136, 35160.59042937642, 0.04, 0.9540000000000001, 0.1, 192.0, 0.0, 0.0, 0.0, 0.0, 0.0, 0.0, 0.0, 0.0, 0.0, 1.666555691111541E9, 0.0, 2022-10-23 13:08:11.111
158.0, -72892.10085774671, -104667.54194111133, 65780.22280695711, 17344.059627540068, 77051.00054156788, 83645.86039136177, 37839.067022689225, 35687.622211888105, 0.04, 0.9540000000000001, 0.1, 192.0, 0.0, 0.0, 0.0, 0.0, 0.0, 0.0, 0.0, 0.0, 0.0, 1.666555691111565E9, 0.0, 2022-10-23 13:08:11.111
159.0, -72925.5614191963, -104695.43691819155, 67928.15839387875, 17679.82753274769, 77167.63194413566, 84636.42265038761, 39205.42916124215, 37121.41956346268, 0.04, 0.9540000000000001, 0.1, 192.0, 0.0, 0.0, 0.0, 0.0, 0.0, 0.0, 0.0, 0.0, 0.0, 1.6665556911115751E9, 0.0, 2022-10-23 13:08:11.111
160.0, -72865.1446539336, -104638.5964320417, 67513.10885108815, 17109.61217994835, 76911.3021387222, 84342.72072824488, 38780.56720263567, 36451.04604375912, 0.04, 0.9540000000000001, 0.1, 192.0, 0.0, 0.0, 0.0, 0.0, 0.0, 0.0, 0.0, 0.0, 0.0, 1.6665556911115868E9, 0.0, 2022-10-23 13:08:11.111
161.0, -72867.51393884588, -104642.70915302148, 65502.23416116645, 16958.91671883067, 76886.08937097661, 83422.27589157534, 37512.440980963824, 35161.66331311027, 0.04, 0.9540000000000001, 0.1, 192.0, 0.0, 0.0, 0.0, 0.0, 0.0, 0.0, 0.0, 0.0, 0.0, 1.6665556911116E9, 0.0, 2022-10-23 13:08:11.111
162.0, -72903.9025788191, -104672.68284233604, 65525.50232714443, 17270.164760370822, 77025.58660812219, 83503.30096522582, 37648.138421551994, 35483.59548850006, 0.04, 0.9540000000000001, 0.1, 192.0, 0.0, 0.0, 0.0, 0.0, 0.0, 0.0, 0.0, 0.0, 0.0, 1.66655569111161E9, 0.0, 2022-10-23 13:08:11.111
163.0, -72934.99385535644, -104700.39900546063, 67497.32851950271, 17667.39996283054, 77174.00219130542, 84443.57179922723, 38944.51724821535, 36887.41915076008, 0.04, 0.9540000000000001, 0.10400000000000001, 192.0, 1.0, 64.0, 29.0, 208.0, 3.0, 64.0, 0.0, 0.0, 0.0, 1.6665556911116197E9, 0.0, 2022-10-23 13:08:11.111
164.0, -72879.33801166272, -104651.51574033686, 67878.60457642133, 17240.258126289624, 76971.00364816232, 84527.59200663472, 39037.96989178299, 36771.03361738129, 0.04, 0.9540000000000001, 0.10400000000000001, 192.0, 0.0, 0.0, 0.0, 0.0, 0.0, 0.0, 0.0, 0.0, 0.0, 1.66655569111163E9, 0.0, 2022-10-23 13:08:11.111
165.0, -72857.03097069633, -104622.61493475616, 65684.91496859968, 16918.974151489037, 76878.31096390617, 83505.40202920462, 37619.282319460195, 35254.31129387752, 0.04, 0.9540000000000001, 0.10400000000000001, 192.0, 0.0, 0.0, 0.0, 0.0, 0.0, 0.0, 0.0, 0.0, 0.0, 1.6665556911116433E9, 0.0, 2022-10-23 13:08:11.111
166.0, -72883.98717450943, -104644.76551351137, 65401.00311052837, 17223.986056326157, 77023.68670984349, 83447.443955832, 37561.52541178768, 35372.23909762372, 0.04, 0.9540000000000001, 0.10400000000000001, 192.0, 0.0, 0.0, 0.0, 0.0, 0.0, 0.0, 0.0, 0.0, 0.0, 1.6665556911116543E9, 0.0, 2022-10-23 13:08:11.111
167.0, -72926.70135816353, -104689.62546463317, 67060.35191540145, 17630.58663971265, 77172.03523779336, 84256.15242196947, 38685.61699218953, 36633.99507212581, 0.04, 0.9540000000000001, 0.10400000000000001, 192.0, 0.0, 0.0, 0.0, 0.0, 0.0, 0.0, 0.0, 0.0, 0.0, 1.6665556911116664E9, 0.0, 2022-10-23 13:08:11.111
168.0, -72893.68783160303, -104664.16682769857, 68143.00336158316, 17387.91375016138, 77033.34266344817, 84665.2340489905, 39239.24735060303, 37030.783239696415, 0.04, 0.9540000000000001, 0.10400000000000001, 192.0, 0.0, 0.0, 0.0, 0.0, 0.0, 0.0, 0.0, 0.0, 0.0, 1.6665556911116762E9, 0.0, 2022-10-23 13:08:11.111
169.0, -72846.9950374359, -104616.60231549769, 65948.97847759468, 16902.478564081022, 76860.07194043064, 83616.35608868075, 37777.487966714856, 35406.504321873705, 0.04, 0.9540000000000001, 0.10400000000000001, 192.0, 0.0, 0.0, 0.0, 0.0, 0.0, 0.0, 0.0, 0.0, 0.0, 1.6665556911116855E9, 0.0, 2022-10-23 13:08:11.111
170.0, -72869.59265108021, -104632.91908895006, 65337.85943244213, 17173.024078968057, 76995.25529089634, 83420.15247585207, 37509.91523384038, 35290.16349198383, 0.04, 0.9540000000000001, 0.10400000000000001, 192.0, 0.0, 0.0, 0.0, 0.0, 0.0, 0.0, 0.0, 0.0, 0.0, 1.6665556911116953E9, 0.0, 2022-10-23 13:08:11.111
171.0, -72927.30485526382, -104690.07249952227, 66629.63379974768, 17562.41381912396, 77144.65435083561, 84074.9915331592, 38422.671070417295, 36358.331007758505, 0.04, 0.9540000000000001, 0.10400000000000001, 192.0, 0.0, 0.0, 0.0, 0.0, 0.0, 0.0, 0.0, 0.0, 0.0, 1.666555691111705E9, 0.0, 2022-10-23 13:08:11.111
172.0, -72902.8073433408, -104673.42044990307, 68290.63663371047, 17504.947484129367, 77068.9936958544, 84775.09287298833, 39374.87773595783, 37215.16277970824, 0.04, 0.9540000000000001, 0.10400000000000001, 192.0, 0.0, 0.0, 0.0, 0.0, 0.0, 0.0, 0.0, 0.0, 0.0, 1.6665556911117148E9, 0.0, 2022-10-23 13:08:11.111
173.0, -72852.29240087181, -104625.43125455752, 66314.07187152766, 16905.831325749317, 76833.02632963972, 83791.63846869928, 38006.14631249265, 35632.592217039135, 0.034, 0.9520000000000001, 0.106, 192.0, 1.0, 16.0, 29.0, 192.0, 3.0, 80.0, 0.0, 0.0, 0.0, 1.666555691111735E9, 0.0, 2022-10-23 13:08:11.111
174.0, -72880.6567645856, -104647.4030193571, 65305.82938263767, 17110.461546237653, 76953.32341829818, 83398.11365581914, 37468.02806473113, 35208.311403788495, 0.034, 0.9520000000000001, 0.106, 192.0, 0.0, 0.0, 0.0, 0.0, 0.0, 0.0, 0.0, 0.0, 0.0, 1.666555691111746E9, 0.0, 2022-10-23 13:08:11.111
175.0, -72914.49730569092, -104678.18137147205, 66206.06824231961, 17469.74348661226, 77105.51644629436, 83873.33409468342, 38143.4530786816, 36053.2073441991, 0.034, 0.9520000000000001, 0.106, 192.0, 0.0, 0.0, 0.0, 0.0, 0.0, 0.0, 0.0, 0.0, 0.0, 1.6665556911117556E9, 0.0, 2022-10-23 13:08:11.111
176.0, -72925.78493664086, -104695.54867691382, 68248.79416809013, 17592.700432860904, 77113.29485336482, 84780.16671897969, 39382.119701161355, 37259.93332385222, 0.034, 0.9520000000000001, 0.106, 192.0, 0.0, 0.0, 0.0, 0.0, 0.0, 0.0, 0.0, 0.0, 0.0, 1.6665556911117651E9, 0.0, 2022-10-23 13:08:11.111
177.0, -72865.43522661153, -104638.05999017478, 66717.63261766823, 16937.034361008926, 76832.95927440636, 83974.22986915467, 38261.44793766116, 35893.45942657703, 0.034, 0.9520000000000001, 0.106, 192.0, 0.0, 0.0, 0.0, 0.0, 0.0, 0.0, 0.0, 0.0, 0.0, 1.6665556911117764E9, 0.0, 2022-10-23 13:08:11.111
178.0, -72887.51875013337, -104653.1027141932, 65310.009158850815, 17043.696885549653, 76923.01445281679, 83383.428559712, 37445.832782487014, 35149.41455714876, 0.034, 0.9520000000000001, 0.106, 192.0, 0.0, 0.0, 0.0, 0.0, 0.0, 0.0, 0.0, 0.0, 0.0, 1.666555691111786E9, 0.0, 2022-10-23 13:08:11.111
179.0, -72907.14358176514, -104675.05212724832, 65863.3489445864, 17379.24127331272, 77064.47864347442, 83709.02642119247, 37915.44293349301, 35798.01747775287, 0.034, 0.9520000000000001, 0.106, 192.0, 0.0, 0.0, 0.0, 0.0, 0.0, 0.0, 0.0, 0.0, 0.0, 1.6665556911117957E9, 0.0, 2022-10-23 13:08:11.111
180.0, -72932.55751521082, -104703.59530491773, 68057.08325589696, 17666.863520963612, 77155.96433352999, 84716.15132285969, 39297.00425827554, 37213.285233174, 0.034, 0.9520000000000001, 0.106, 192.0, 0.0, 0.0, 0.0, 0.0, 0.0, 0.0, 0.0, 0.0, 0.0, 1.666555691111805E9, 0.0, 2022-10-23 13:08:11.111
181.0, -72863.31181088828, -104636.49536806291, 67213.05903352011, 17039.919440736707, 76876.38871388302, 84233.01836645823, 38610.76100000871, 36271.80740497201, 0.034, 0.9520000000000001, 0.106, 192.0, 0.0, 0.0, 0.0, 0.0, 0.0, 0.0, 0.0, 0.0, 0.0, 1.6665556911118145E9, 0.0, 2022-10-23 13:08:11.111
182.0, -72864.54115683332, -104634.03667617282, 65419.488003192906, 16992.489039002543, 76885.1505977095, 83438.70442374998, 37511.14457978542, 35178.27065924057, 0.034, 0.9560000000000001, 0.108, 192.0, 1.0, 16.0, 29.0, 224.0, 3.0, 96.0, 0.0, 0.0, 0.0, 1.666555691111824E9, 0.0, 2022-10-23 13:08:11.111
183.0, -72895.87830255965, -104660.88112126365, 65662.6526311222, 17325.686493597805, 77028.42527966801, 83635.26566448995, 37791.90484188853, 35634.93915020694, 0.034, 0.9560000000000001, 0.108, 192.0, 0.0, 0.0, 0.0, 0.0, 0.0, 0.0, 0.0, 0.0, 0.0, 1.6665556911118343E9, 0.0, 2022-10-23 13:08:11.111
184.0, -72929.42827098707, -104689.9160373111, 67800.7534504835, 17691.472791608907, 77159.51826089839, 84655.80161283036, 39179.38937895172, 37096.25149920601, 0.034, 0.9560000000000001, 0.108, 192.0, 0.0, 0.0, 0.0, 0.0, 0.0, 0.0, 0.0, 0.0, 0.0, 1.666555691111844E9, 0.0, 2022-10-23 13:08:11.111
185.0, -72883.13780822013, -104654.30970839379, 67684.94906246055, 17138.37887506233, 76888.77158031125, 84491.67275329505, 38936.69413765599, 36613.632632927016, 0.034, 0.9560000000000001, 0.108, 192.0, 0.0, 0.0, 0.0, 0.0, 0.0, 0.0, 0.0, 0.0, 0.0, 1.6665556911118536E9, 0.0, 2022-10-23 13:08:11.111
186.0, -72862.57420332124, -104632.27088836086, 65578.0736301033, 16933.771006318453, 76851.35476009308, 83521.718802657, 37593.91308950342, 35214.07815385797, 0.034, 0.9560000000000001, 0.108, 192.0, 0.0, 0.0, 0.0, 0.0, 0.0, 0.0, 0.0, 0.0, 0.0, 1.6665556911118634E9, 0.0, 2022-10-23 13:08:11.111
187.0, -72887.8540263002, -104649.12410368015, 65505.63162632366, 17251.165777583814, 77015.03658473928, 83574.15599514914, 37680.21317484536, 35471.70436044984, 0.034, 0.9560000000000001, 0.108, 192.0, 0.0, 0.0, 0.0, 0.0, 0.0, 0.0, 0.0, 0.0, 0.0, 1.666555691111873E9, 0.0, 2022-10-23 13:08:11.111
188.0, -72941.05117810384, -104711.82074687729, 67350.16463400896, 17630.67604669047, 77144.85551653571, 84454.1888778435, 38901.24427094988, 36804.628289297616, 0.034, 0.9560000000000001, 0.108, 192.0, 0.0, 0.0, 0.0, 0.0, 0.0, 0.0, 0.0, 0.0, 0.0, 1.6665556911118827E9, 0.0, 2022-10-23 13:08:11.111
189.0, -72889.03866875633, -104672.52638012487, 68017.83359263344, 17272.735210983185, 76950.61885721909, 84664.07175827882, 39175.14254750521, 36882.14413906862, 0.034, 0.9560000000000001, 0.108, 192.0, 0.0, 0.0, 0.0, 0.0, 0.0, 0.0, 0.0, 0.0, 0.0, 1.6665556911119015E9, 0.0, 2022-10-23 13:08:11.111
190.0, -72868.00567722389, -104637.72471400794, 65790.75047859555, 16910.122860684736, 76854.52870780573, 83611.86338804524, 37714.97013747336, 35298.45598917675, 0.034, 0.9560000000000001, 0.108, 192.0, 0.0, 0.0, 0.0, 0.0, 0.0, 0.0, 0.0, 0.0, 0.0, 1.6665556911119113E9, 0.0, 2022-10-23 13:08:11.111
191.0, -72912.55270392331, -104677.82374356077, 65382.60762484165, 17195.68874784574, 76997.8704449976, 83506.60902340521, 37578.78095850718, 35323.64640517788, 0.034, 0.9560000000000001, 0.108, 192.0, 0.0, 0.0, 0.0, 0.0, 0.0, 0.0, 0.0, 0.0, 0.0, 1.6665556911119213E9, 0.0, 2022-10-23 13:08:11.111
192.0, -72926.54489595233, -104693.49231642394, 66891.79741046399, 17595.606159640094, 77146.39778690312, 84252.82201204562, 38615.67838378887, 36506.813646175106, 0.036000000000000004, 0.96, 0.106, 192.0, 1.0, 32.0, 30.0, 0.0, 3.0, 80.0, 0.0, 0.0, 0.0, 1.666555691111931E9, 0.0, 2022-10-23 13:08:11.111
193.0, -72897.42057292708, -104671.90053128012, 68232.4550428933, 17434.98652398426, 77036.82953558321, 84792.32606796338, 39343.02650010902, 37107.270909222476, 0.036000000000000004, 0.96, 0.106, 192.0, 0.0, 0.0, 0.0, 0.0, 0.0, 0.0, 0.0, 0.0, 0.0, 1.666555691111941E9, 0.0, 2022-10-23 13:08:11.111
194.0, -72844.82691822373, -104617.40697829807, 66111.38625280693, 16909.854639751273, 76850.4830420593, 83768.99615156605, 37913.14070381412, 35494.12316013851, 0.036000000000000004, 0.96, 0.106, 192.0, 0.0, 0.0, 0.0, 0.0, 0.0, 0.0, 0.0, 0.0, 0.0, 1.666555691111951E9, 0.0, 2022-10-23 13:08:11.111
195.0, -72876.56639535027, -104641.41275184308, 65345.19080462347, 17161.691744529217, 76995.23293915189, 83497.37775294516, 37542.34761504503, 35261.8214800145, 0.036000000000000004, 0.96, 0.106, 192.0, 0.0, 0.0, 0.0, 0.0, 0.0, 0.0, 0.0, 0.0, 0.0, 1.6665556911119733E9, 0.0, 2022-10-23 13:08:11.111
196.0, -72939.17363156959, -104698.63321764866, 66499.68075748453, 17533.334199587607, 77144.6096473467, 84100.07019043805, 38376.604125094906, 36254.82007918598, 0.036000000000000004, 0.96, 0.106, 192.0, 0.0, 0.0, 0.0, 0.0, 0.0, 0.0, 0.0, 0.0, 0.0, 1.6665556911119924E9, 0.0, 2022-10-23 13:08:11.111
197.0, -72939.88888739215, -104707.17158403058, 68331.80854699714, 17533.781234476715, 77079.96840238196, 84887.85742376535, 39445.66571064779, 37250.88086734782, 0.036000000000000004, 0.96, 0.106, 192.0, 0.0, 0.0, 0.0, 0.0, 0.0, 0.0, 0.0, 0.0, 0.0, 1.666555691112002E9, 0.0, 2022-10-23 13:08:11.112
198.0, -72857.96974396345, -104628.02405691435, 66525.72053977496, 16925.612619592266, 76849.16428913645, 83983.01410472562, 38176.75717792001, 35749.51419228485, 0.036000000000000004, 0.96, 0.106, 192.0, 0.0, 0.0, 0.0, 0.0, 0.0, 0.0, 0.0, 0.0, 0.0, 1.6665556911120126E9, 0.0, 2022-10-23 13:08:11.112
199.0, -72895.76654383738, -104657.26013866189, 65367.2296246564, 17094.792973374482, 76957.6596567225, 83524.42336373609, 37536.223237064274, 35205.78565666505, 0.036000000000000004, 0.96, 0.106, 192.0, 0.0, 0.0, 0.0, 0.0, 0.0, 0.0, 0.0, 0.0, 0.0, 1.6665556911120224E9, 0.0, 2022-10-23 13:08:11.112
200.0, -72916.35250048072, -104672.0569934913, 66113.01793015217, 17434.517137350696, 77090.25020483139, 83929.32521454398, 38113.457037622575, 35954.41263370665, 0.036000000000000004, 0.96, 0.106, 192.0, 0.0, 0.0, 0.0, 0.0, 0.0, 0.0, 0.0, 0.0, 0.0, 1.6665556911120324E9, 0.0, 2022-10-23 13:08:11.112
201.0, -72936.08909083475, -104693.24644723492, 68227.87293527996, 17628.21735480039, 77130.77391752886, 84872.70294102466, 39406.88543401783, 37246.455221945675, 0.036000000000000004, 0.96, 0.106, 192.0, 0.0, 0.0, 0.0, 0.0, 0.0, 0.0, 0.0, 0.0, 0.0, 1.666555691112042E9, 0.0, 2022-10-23 13:08:11.112
202.0, -72886.11059023268, -104651.47103684796, 66939.36192266487, 16963.543529932922, 76843.57635302262, 84171.6628279284, 38428.75074490914, 36019.45621007159, 0.042, 0.9520000000000001, 0.108, 192.0, 1.0, 80.0, 29.0, 192.0, 3.0, 96.0, 0.0, 0.0, 0.0, 1.6665556911120515E9, 0.0, 2022-10-23 13:08:11.112
203.0, -72896.57120663777, -104667.67605157806, 65373.39870612606, 17017.50064104803, 76915.01252830178, 83507.74896237243, 37501.84625409201, 35138.126926198835, 0.042, 0.9520000000000001, 0.108, 192.0, 0.0, 0.0, 0.0, 0.0, 0.0, 0.0, 0.0, 0.0, 0.0, 1.6665556911120622E9, 0.0, 2022-10-23 13:08:11.112
204.0, -72914.00556731291, -104676.59439761573, 65815.62797017432, 17363.036258582622, 77069.66424818806, 83800.48975950359, 37911.93370961353, 35724.56964547272, 0.042, 0.9520000000000001, 0.108, 192.0, 0.0, 0.0, 0.0, 0.0, 0.0, 0.0, 0.0, 0.0, 0.0, 1.666555691112081E9, 0.0, 2022-10-23 13:08:11.112
205.0, -72922.61098892821, -104674.67214759257, 67968.81621704296, 17672.384401844072, 77156.38901667464, 84785.28526845995, 39269.35515038433, 37138.585703204364, 0.042, 0.9520000000000001, 0.108, 192.0, 0.0, 0.0, 0.0, 0.0, 0.0, 0.0, 0.0, 0.0, 0.0, 1.6665556911120903E9, 0.0, 2022-10-23 13:08:11.112
206.0, -72862.64125855462, -104625.27479234635, 67382.19468381342, 17070.89895855176, 76887.16225471048, 84400.36587719512, 38726.923015942935, 36358.331007758505, 0.042, 0.9520000000000001, 0.108, 192.0, 0.0, 0.0, 0.0, 0.0, 0.0, 0.0, 0.0, 0.0, 0.0, 1.6665556911121E9, 0.0, 2022-10-23 13:08:11.112
207.0, -72870.3526103917, -104630.46039705997, 65440.56569821426, 16963.051791554903, 76890.17974021194, 83524.6692329251, 37516.12901879895, 35138.08222270992, 0.042, 0.9520000000000001, 0.108, 192.0, 0.0, 0.0, 0.0, 0.0, 0.0, 0.0, 0.0, 0.0, 0.0, 1.6665556911121097E9, 0.0, 2022-10-23 13:08:11.112
208.0, -72913.26795974588, -104679.38836567264, 65556.7277141485, 17274.344536583965, 77027.55356163425, 83663.94295262611, 37719.77576253125, 35518.151285427964, 0.042, 0.9520000000000001, 0.108, 192.0, 0.0, 0.0, 0.0, 0.0, 0.0, 0.0, 0.0, 0.0, 0.0, 1.6665556911121192E9, 0.0, 2022-10-23 13:08:11.112
209.0, -72952.87525092068, -104714.32414225629, 67574.17381694005, 17657.78871271476, 77165.2626592234, 84619.30121413484, 39035.645310359636, 36934.581331560774, 0.042, 0.9520000000000001, 0.108, 192.0, 0.0, 0.0, 0.0, 0.0, 0.0, 0.0, 0.0, 0.0, 0.0, 1.6665556911121287E9, 0.0, 2022-10-23 13:08:11.112
210.0, -72890.29036644583, -104653.46034210449, 67804.06150866288, 17205.277646217066, 76943.13102282656, 84629.8735892622, 39028.60451085622, 36710.90742479652, 0.042, 0.9520000000000001, 0.108, 192.0, 0.0, 0.0, 0.0, 0.0, 0.0, 0.0, 0.0, 0.0, 0.0, 1.6665556911121385E9, 0.0, 2022-10-23 13:08:11.112
211.0, -72870.41966562506, -104632.33794359422, 65633.1930319301, 16900.086927424305, 76843.17402162243, 83626.01204228545, 37632.24633124427, 35219.375517293876, 0.036000000000000004, 0.96, 0.11, 192.0, 1.0, 32.0, 30.0, 0.0, 3.0, 112.0, 0.0, 0.0, 0.0, 1.666555691112148E9, 0.0, 2022-10-23 13:08:11.112
212.0, -72895.67713685955, -104647.447722846, 65398.23149421591, 17210.440899186244, 76994.45062809595, 83590.27160290141, 37602.4738076298, 35360.012693406665, 0.036000000000000004, 0.96, 0.11, 192.0, 0.0, 0.0, 0.0, 0.0, 0.0, 0.0, 0.0, 0.0, 0.0, 1.666555691112158E9, 0.0, 2022-10-23 13:08:11.112
213.0, -72935.55264896783, -104700.04137754934, 67122.73563417622, 17635.481671748363, 77163.966258045, 84431.68067117699, 38763.31165591618, 36659.61017127158, 0.036000000000000004, 0.96, 0.11, 192.0, 0.0, 0.0, 0.0, 0.0, 0.0, 0.0, 0.0, 0.0, 0.0, 1.6665556911121676E9, 0.0, 2022-10-23 13:08:11.112
214.0, -72900.08043051725, -104662.33398465325, 68097.80813429454, 17341.0421420386, 77004.91124450103, 84796.12586452077, 39245.997577428534, 36981.140015261175, 0.036000000000000004, 0.96, 0.11, 192.0, 0.0, 0.0, 0.0, 0.0, 0.0, 0.0, 0.0, 0.0, 0.0, 1.6665556911121771E9, 0.0, 2022-10-23 13:08:11.112
215.0, -72849.11845315916, -104617.71990272045, 65849.08853162391, 16882.25023534897, 76848.71725424734, 83708.31116536989, 37744.74266108783, 35339.91847514135, 0.036000000000000004, 0.96, 0.11, 192.0, 0.0, 0.0, 0.0, 0.0, 0.0, 0.0, 0.0, 0.0, 0.0, 1.666555691112187E9, 0.0, 2022-10-23 13:08:11.112
216.0, -72907.68002363206, -104677.08613599374, 65291.92659758647, 17168.06199169898, 76992.52837807279, 83531.59827370623, 37510.96576582977, 35264.14606143785, 0.036000000000000004, 0.96, 0.11, 192.0, 0.0, 0.0, 0.0, 0.0, 0.0, 0.0, 0.0, 0.0, 0.0, 1.6665556911121962E9, 0.0, 2022-10-23 13:08:11.112
217.0, -72936.24555304594, -104707.28334275287, 66636.13815738418, 17532.529536787217, 77111.12673415265, 84200.20600559784, 38449.76138469713, 36358.50982171414, 0.036000000000000004, 0.96, 0.11, 192.0, 0.0, 0.0, 0.0, 0.0, 0.0, 0.0, 0.0, 0.0, 0.0, 1.6665556911122057E9, 0.0, 2022-10-23 13:08:11.112
218.0, -72891.72087809097, -104661.97635674196, 68230.93512427034, 17475.957271570835, 77070.11128307716, 84876.68155153771, 39363.54540151899, 37174.70612224413, 0.036000000000000004, 0.96, 0.11, 192.0, 0.0, 0.0, 0.0, 0.0, 0.0, 0.0, 0.0, 0.0, 0.0, 1.6665556911122153E9, 0.0, 2022-10-23 13:08:11.112
219.0, -72851.17481364904, -104620.71503647746, 66207.2305330313, 16895.996558188985, 76858.73083576332, 83882.43125467673, 37979.32421914628, 35580.24443152481, 0.036000000000000004, 0.96, 0.11, 192.0, 0.0, 0.0, 0.0, 0.0, 0.0, 0.0, 0.0, 0.0, 0.0, 1.6665556911122248E9, 0.0, 2022-10-23 13:08:11.112
220.0, -72877.97455525096, -104644.36318211118, 65246.932535997934, 17103.130174056314, 76973.26117435232, 83502.78687510334, 37473.28072467813, 35195.526205960065, 0.036000000000000004, 0.96, 0.11, 192.0, 0.0, 0.0, 0.0, 0.0, 0.0, 0.0, 0.0, 0.0, 0.0, 1.6665556911122444E9, 0.0, 2022-10-23 13:08:11.112
221.0, -72928.46714597549, -104689.78192684436, 66224.06139660614, 17483.489809452272, 77125.23068490395, 84018.77689585411, 38203.95925092212, 36094.58042318588, 0.038, 0.9540000000000001, 0.10400000000000001, 192.0, 1.0, 48.0, 29.0, 208.0, 3.0, 64.0, 0.0, 0.0, 0.0, 1.6665556911122544E9, 0.0, 2022-10-23 13:08:11.112
222.0, -72924.44383197353, -104692.57589490127, 68227.8058800466, 17582.28451994473, 77121.98968195793, 84904.4424181512, 39413.501550376604, 37266.12475706634, 0.038, 0.9540000000000001, 0.10400000000000001, 192.0, 0.0, 0.0, 0.0, 0.0, 0.0, 0.0, 0.0, 0.0, 0.0, 1.6665556911122644E9, 0.0, 2022-10-23 13:08:11.112
223.0, -72837.96493267595, -104607.86278341565, 66605.35980526923, 16929.233602194025, 76850.05835891466, 84059.7923469296, 38241.66664381822, 35852.33221677926, 0.038, 0.9540000000000001, 0.10400000000000001, 192.0, 0.0, 0.0, 0.0, 0.0, 0.0, 0.0, 0.0, 0.0, 0.0, 1.666555691112275E9, 0.0, 2022-10-23 13:08:11.112
224.0, -72858.95322071949, -104621.4973475334, 65266.40090541851, 17072.508284152544, 76968.88023243907, 83508.08423853925, 37478.42162590285, 35172.57096440446, 0.038, 0.9540000000000001, 0.10400000000000001, 192.0, 0.0, 0.0, 0.0, 0.0, 0.0, 0.0, 0.0, 0.0, 0.0, 1.6665556911122844E9, 0.0, 2022-10-23 13:08:11.112
225.0, -72909.28934923284, -104669.53124636784, 65866.85816846587, 17383.912787903882, 77086.65157397409, 83850.26709440554, 37970.003541708415, 35836.12720204916, 0.038, 0.9540000000000001, 0.10400000000000001, 192.0, 0.0, 0.0, 0.0, 0.0, 0.0, 0.0, 0.0, 0.0, 0.0, 1.666555691112294E9, 0.0, 2022-10-23 13:08:11.112
226.0, -72923.88503836216, -104687.50204890991, 68046.66734298079, 17646.791654442746, 77175.87973783967, 84847.78074595699, 39332.94586335967, 37222.7847245675, 0.038, 0.9540000000000001, 0.10400000000000001, 192.0, 0.0, 0.0, 0.0, 0.0, 0.0, 0.0, 0.0, 0.0, 0.0, 1.6665556911123047E9, 0.0, 2022-10-23 13:08:11.112
227.0, -72845.4974705574, -104611.52846950633, 67083.64243312388, 17021.65806551672, 76920.06402254869, 84318.4020302775, 38578.26156357069, 36212.10589553188, 0.038, 0.9540000000000001, 0.10400000000000001, 192.0, 0.0, 0.0, 0.0, 0.0, 0.0, 0.0, 0.0, 0.0, 0.0, 1.6665556911123145E9, 0.0, 2022-10-23 13:08:11.112
228.0, -72870.62083132516, -104625.36419932416, 65347.80595872473, 17000.982701895562, 76941.96873211488, 83554.75468096194, 37525.06971658108, 35173.1521097603, 0.038, 0.9540000000000001, 0.10400000000000001, 192.0, 0.0, 0.0, 0.0, 0.0, 0.0, 0.0, 0.0, 0.0, 0.0, 1.6665556911123245E9, 0.0, 2022-10-23 13:08:11.112
229.0, -72917.02305281437, -104676.52734238235, 65639.20565118857, 17314.555324859062, 77067.16085280906, 83766.98449456507, 37834.931949964994, 35654.36281613861, 0.038, 0.9540000000000001, 0.10400000000000001, 192.0, 0.0, 0.0, 0.0, 0.0, 0.0, 0.0, 0.0, 0.0, 0.0, 1.666555691112334E9, 0.0, 2022-10-23 13:08:11.112
230.0, -72937.5643059688, -104707.99859857543, 67761.68260117562, 17657.9675266704, 77173.82337734978, 84752.83053551085, 39193.068646558364, 37082.9522112551, 0.038, 0.9540000000000001, 0.10400000000000001, 192.0, 0.0, 0.0, 0.0, 0.0, 0.0, 0.0, 0.0, 0.0, 0.0, 1.6665556911123433E9, 0.0, 2022-10-23 13:08:11.112
231.0, -72862.26127889888, -104630.77332148235, 67524.37413029363, 17120.698645198187, 76927.9094848525, 84539.81841085177, 38884.99455273087, 36532.33933834307, 0.044, 0.9540000000000001, 0.106, 192.0, 1.0, 96.0, 29.0, 208.0, 3.0, 80.0, 0.0, 0.0, 0.0, 1.666555691112353E9, 0.0, 2022-10-23 13:08:11.112
232.0, -72850.66072352657, -104615.97646665294, 65463.878567681146, 16947.49497741401, 76898.33812693812, 83597.67003031612, 37585.15120567694, 35187.68074365625, 0.044, 0.9540000000000001, 0.106, 192.0, 0.0, 0.0, 0.0, 0.0, 0.0, 0.0, 0.0, 0.0, 0.0, 1.666555691112363E9, 0.0, 2022-10-23 13:08:11.112
233.0, -72891.54206413533, -104652.99095547092, 65411.307264722265, 17245.287268792068, 77027.75472733435, 83643.40169947168, 37673.4405962754, 35454.09118581905, 0.044, 0.9540000000000001, 0.106, 192.0, 0.0, 0.0, 0.0, 0.0, 0.0, 0.0, 0.0, 0.0, 0.0, 1.666555691112373E9, 0.0, 2022-10-23 13:08:11.112
234.0, -72936.80434665733, -104697.56033391481, 67318.04517722668, 17640.577869484172, 77171.00705754841, 84555.88931511514, 38934.39190797709, 36829.61753959865, 0.044, 0.9540000000000001, 0.106, 192.0, 0.0, 0.0, 0.0, 0.0, 0.0, 0.0, 0.0, 0.0, 0.0, 1.666555691112383E9, 0.0, 2022-10-23 13:08:11.112
235.0, -72875.15823544959, -104637.47884481894, 67881.55500668944, 17268.376620814397, 76982.93947970147, 84733.2057038791, 39152.20965769406, 36847.20836248498, 0.044, 0.9540000000000001, 0.106, 192.0, 0.0, 0.0, 0.0, 0.0, 0.0, 0.0, 0.0, 0.0, 0.0, 1.6665556911124024E9, 0.0, 2022-10-23 13:08:11.112
236.0, -72840.08834839921, -104601.58194322372, 65663.59140438931, 16906.54658157189, 76870.01846671326, 83692.26261285099, 37709.181035659436, 35287.235413460185, 0.044, 0.9540000000000001, 0.106, 192.0, 0.0, 0.0, 0.0, 0.0, 0.0, 0.0, 0.0, 0.0, 0.0, 1.666555691112412E9, 0.0, 2022-10-23 13:08:11.112
237.0, -72889.46335190098, -104654.08619094924, 65307.2151907939, 17192.604207110908, 77008.5769305917, 83607.32598392082, 37608.7769995662, 35347.294550811595, 0.044, 0.9540000000000001, 0.106, 192.0, 0.0, 0.0, 0.0, 0.0, 0.0, 0.0, 0.0, 0.0, 0.0, 1.6665556911124215E9, 0.0, 2022-10-23 13:08:11.112
238.0, -72933.78686115585, -104687.52440065437, 66876.41941027873, 17575.13196171903, 77144.54259211333, 84373.90141176003, 38676.49748045176, 36551.539486830174, 0.044, 0.9540000000000001, 0.106, 192.0, 0.0, 0.0, 0.0, 0.0, 0.0, 0.0, 0.0, 0.0, 0.0, 1.6665556911124313E9, 0.0, 2022-10-23 13:08:11.112
239.0, -72900.1027822617, -104657.37189738416, 68134.35323647896, 17373.54157847662, 77027.2853407008, 84879.98960971709, 39356.79517469349, 37086.997877001515, 0.044, 0.9540000000000001, 0.106, 192.0, 0.0, 0.0, 0.0, 0.0, 0.0, 0.0, 0.0, 0.0, 0.0, 1.6665556911124406E9, 0.0, 2022-10-23 13:08:11.112
240.0, -72848.42554908103, -104612.8919259181, 65943.3681897364, 16859.85378740475, 76832.35577730606, 83807.21763458462, 37877.44496791899, 35433.61698789799, 0.044, 0.9540000000000001, 0.106, 192.0, 0.0, 0.0, 0.0, 0.0, 0.0, 0.0, 0.0, 0.0, 0.0, 1.6665556911124575E9, 0.0, 2022-10-23 13:08:11.112
241.0, -72882.02022099736, -104644.0502576888, 65232.09097767961, 17126.86772666785, 76966.08626438216, 83553.48063152799, 37538.48076325426, 35237.72629949168, 0.04, 0.9560000000000001, 0.108, 192.0, 1.0, 64.0, 29.0, 224.0, 3.0, 96.0, 0.0, 0.0, 0.0, 1.6665556915894437E9, 0.0, 2022-10-23 13:08:11.589
242.0, -72923.92974185107, -104686.42916517606, 66436.06769276473, 17519.163193602944, 77121.02855694634, 84172.24397328425, 38399.13468350586, 36261.771471711574, 0.04, 0.9560000000000001, 0.108, 192.0, 0.0, 0.0, 0.0, 0.0, 0.0, 0.0, 0.0, 0.0, 0.0, 1.6665556915895424E9, 0.0, 2022-10-23 13:08:11.589
243.0, -72915.05609930231, -104680.0589180063, 68210.77385077166, 17510.66953070993, 77078.62729771463, 84935.08665979942, 39435.316852964985, 37223.05294550097, 0.04, 0.9560000000000001, 0.108, 192.0, 0.0, 0.0, 0.0, 0.0, 0.0, 0.0, 0.0, 0.0, 0.0, 1.6665556915895596E9, 0.0, 2022-10-23 13:08:11.589
244.0, -72854.12524391714, -104622.1455481226, 66314.07187152766, 16888.933406941105, 76828.31011155965, 83978.65551455683, 38108.60670907578, 35672.04304600276, 0.04, 0.9560000000000001, 0.108, 192.0, 0.0, 0.0, 0.0, 0.0, 0.0, 0.0, 0.0, 0.0, 0.0, 1.6665556915895748E9, 0.0, 2022-10-23 13:08:11.589
245.0, -72881.03674424133, -104646.08426643423, 65216.55651528318, 17074.966976042626, 76945.76852867228, 83544.47287851249, 37514.94437634282, 35189.26771751258, 0.04, 0.9560000000000001, 0.108, 192.0, 0.0, 0.0, 0.0, 0.0, 0.0, 0.0, 0.0, 0.0, 0.0, 1.6665556915895915E9, 0.0, 2022-10-23 13:08:11.589
246.0, -72913.82675335727, -104674.49333363693, 66053.7411038567, 17431.432596615865, 77091.7477717099, 84004.11415149143, 38163.05555856891, 36004.592300008815, 0.04, 0.9560000000000001, 0.108, 192.0, 0.0, 0.0, 0.0, 0.0, 0.0, 0.0, 0.0, 0.0, 0.0, 1.6665556915896082E9, 0.0, 2022-10-23 13:08:11.589
247.0, -72920.86755286068, -104680.43889766204, 68168.66316421785, 17605.99972081181, 77130.63980706214, 84959.18184032224, 39461.49074572215, 37284.14026309732, 0.04, 0.9560000000000001, 0.108, 192.0, 0.0, 0.0, 0.0, 0.0, 0.0, 0.0, 0.0, 0.0, 0.0, 1.6665556915896213E9, 0.0, 2022-10-23 13:08:11.589
248.0, -72853.74526426141, -104615.48472827491, 66774.09312416233, 16945.17039599066, 76846.75030073528, 84215.382840083, 38424.59332044045, 35993.88581441472, 0.04, 0.9560000000000001, 0.108, 192.0, 0.0, 0.0, 0.0, 0.0, 0.0, 0.0, 0.0, 0.0, 0.0, 1.666555691589634E9, 0.0, 2022-10-23 13:08:11.589
249.0, -72860.85311899819, -104617.58579225371, 65252.34165815612, 17029.03414118697, 76929.54116219774, 83562.4213293101, 37526.99196660423, 35155.181307218234, 0.04, 0.9560000000000001, 0.108, 192.0, 0.0, 0.0, 0.0, 0.0, 0.0, 0.0, 0.0, 0.0, 0.0, 1.6665556915896468E9, 0.0, 2022-10-23 13:08:11.589
250.0, -72905.24368348643, -104663.63038583165, 65711.02180612348, 17360.95754634828, 77073.08406508972, 83843.00277745757, 37938.353471559705, 35747.77075621733, 0.044, 0.9560000000000001, 0.10200000000000001, 192.0, 1.0, 96.0, 29.0, 224.0, 3.0, 48.0, 0.0, 0.0, 0.0, 1.6665556915896597E9, 0.0, 2022-10-23 13:08:11.589
251.0, -72951.04240787536, -104709.04913056483, 67904.91257964523, 17650.8149684447, 77157.64071436414, 84860.70005425216, 39331.09066856989, 37178.528270546, 0.044, 0.9560000000000001, 0.10200000000000001, 192.0, 0.0, 0.0, 0.0, 0.0, 0.0, 0.0, 0.0, 0.0, 0.0, 1.6665556915897312E9, 0.0, 2022-10-23 13:08:11.589
252.0, -72866.66457255658, -104631.82385347175, 67190.32730940907, 17035.694961034653, 76879.11562670657, 84415.2297872579, 38709.19808258988, 36304.910338510315, 0.044, 0.9560000000000001, 0.10200000000000001, 192.0, 0.0, 0.0, 0.0, 0.0, 0.0, 0.0, 0.0, 0.0, 0.0, 1.6665556915897443E9, 0.0, 2022-10-23 13:08:11.589
253.0, -72863.26710739936, -104628.94047843701, 65282.471809681876, 16964.88463460024, 76904.28369096323, 83550.79842219334, 37523.19217004683, 35121.31841436844, 0.044, 0.9560000000000001, 0.10200000000000001, 192.0, 0.0, 0.0, 0.0, 0.0, 0.0, 0.0, 0.0, 0.0, 0.0, 1.6665556915897572E9, 0.0, 2022-10-23 13:08:11.589
254.0, -72903.29908171881, -104664.54680735432, 65447.941773884515, 17298.484420595698, 77063.07048357374, 83711.19454040463, 37760.6123996511, 35541.084175239106, 0.044, 0.9560000000000001, 0.10200000000000001, 192.0, 0.0, 0.0, 0.0, 0.0, 0.0, 0.0, 0.0, 0.0, 0.0, 1.66655569158977E9, 0.0, 2022-10-23 13:08:11.589
255.0, -72946.19207932855, -104706.83630786376, 67529.33621756271, 17667.131741897076, 77180.23832800846, 84703.991973876, 39118.972613689024, 36985.8785850857, 0.044, 0.9560000000000001, 0.10200000000000001, 192.0, 0.0, 0.0, 0.0, 0.0, 0.0, 0.0, 0.0, 0.0, 0.0, 1.6665556915897827E9, 0.0, 2022-10-23 13:08:11.589
0.0, -72887.65286060011, -104653.1474176821, 67625.58282918726, 17176.488599358632, 76940.15824081401, 84651.84535406178, 39025.363507910195, 36664.54990679621, 0.044, 0.9560000000000001, 0.10200000000000001, 192.0, 0.0, 0.0, 0.0, 0.0, 0.0, 0.0, 0.0, 0.0, 0.0, 1.6665556915897956E9, 0.0, 2022-10-23 13:08:11.589
1.0, -72856.31571487377, -104619.17276611004, 65479.07775391076, 16920.024683478438, 76875.11466444907, 83661.21603980256, 37653.681654176915, 35218.83907542695, 0.044, 0.9560000000000001, 0.10200000000000001, 192.0, 0.0, 0.0, 0.0, 0.0, 0.0, 0.0, 0.0, 0.0, 0.0, 1.6665556915898082E9, 0.0, 2022-10-23 13:08:11.589
2.0, -72896.07946825975, -104654.42146711606, 65303.52715295877, 17220.83446035796, 77016.48944812888, 83651.96241759807, 37664.70106419338, 35404.559720106095, 0.044, 0.9560000000000001, 0.10200000000000001, 192.0, 0.0, 0.0, 0.0, 0.0, 0.0, 0.0, 0.0, 0.0, 0.0, 1.666555691589821E9, 0.0, 2022-10-23 13:08:11.589
3.0, -72944.73921593896, -104698.05207229282, 67108.45286946927, 17631.25719204631, 77174.67274363908, 84537.98556780643, 38881.30651489574, 36741.79753563375, 0.044, 0.9560000000000001, 0.10200000000000001, 192.0, 0.0, 0.0, 0.0, 0.0, 0.0, 0.0, 0.0, 0.0, 0.0, 1.6665556915898335E9, 0.0, 2022-10-23 13:08:11.589
4.0, -72892.07850600225, -104656.72369679496, 67985.33415619543, 17318.131603971913, 77010.09684921466, 84865.12569965431, 39302.63689787828, 36977.34021870377, 0.038, 0.9540000000000001, 0.10400000000000001, 192.0, 1.0, 48.0, 29.0, 208.0, 3.0, 64.0, 0.0, 0.0, 0.0, 1.6665556915898464E9, 0.0, 2022-10-23 13:08:11.589
5.0, -72847.6432380251, -104611.32730380623, 65729.90903018821, 16887.167619129137, 76866.17396666695, 83779.7249889046, 37801.58314723768, 35337.795059418095, 0.038, 0.9540000000000001, 0.10400000000000001, 192.0, 0.0, 0.0, 0.0, 0.0, 0.0, 0.0, 0.0, 0.0, 0.0, 1.6665556915898595E9, 0.0, 2022-10-23 13:08:11.589
6.0, -72890.06684900128, -104647.6488885461, 65217.71880599485, 17168.97841322165, 77003.34662238916, 83616.84782705878, 37592.72844704729, 35289.53764313908, 0.038, 0.9540000000000001, 0.10400000000000001, 192.0, 0.0, 0.0, 0.0, 0.0, 0.0, 0.0, 0.0, 0.0, 0.0, 1.666555691589878E9, 0.0, 2022-10-23 13:08:11.589
7.0, -72929.7635471539, -104683.8587145637, 66631.15371837065, 17561.9444324904, 77150.39874916062, 84318.75965818879, 38573.94767689081, 36426.01208996917, 0.038, 0.9540000000000001, 0.10400000000000001, 192.0, 0.0, 0.0, 0.0, 0.0, 0.0, 0.0, 0.0, 0.0, 0.0, 1.6665556915898907E9, 0.0, 2022-10-23 13:08:11.589
8.0, -72904.9531108085, -104662.87042652017, 68140.20939352625, 17454.3207829381, 77069.82071039925, 84956.2537617986, 39428.61132962839, 37163.01615989401, 0.038, 0.9540000000000001, 0.10400000000000001, 192.0, 0.0, 0.0, 0.0, 0.0, 0.0, 0.0, 0.0, 0.0, 0.0, 1.666555691589903E9, 0.0, 2022-10-23 13:08:11.589
9.0, -72848.96199094797, -104608.84626017169, 66047.25909796466, 16887.14526738468, 76847.86788795804, 83922.99967086312, 37995.37277166519, 35526.91316925445, 0.038, 0.9540000000000001, 0.10400000000000001, 192.0, 0.0, 0.0, 0.0, 0.0, 0.0, 0.0, 0.0, 0.0, 0.0, 1.6665556915899158E9, 0.0, 2022-10-23 13:08:11.589
10.0, -72878.68981107352, -104637.47884481894, 65168.65672691545, 17109.500421226076, 76973.79761621924, 83587.2317656555, 37542.07939411156, 35202.56700546348, 0.038, 0.9540000000000001, 0.10400000000000001, 192.0, 0.0, 0.0, 0.0, 0.0, 0.0, 0.0, 0.0, 0.0, 0.0, 1.6665556915899413E9, 0.0, 2022-10-23 13:08:11.589
11.0, -72920.39816622713, -104678.4048889166, 66186.91279732142, 17470.36933545701, 77117.16170515558, 84108.76501903117, 38285.87839435082, 36110.628975704785, 0.038, 0.9540000000000001, 0.10400000000000001, 192.0, 0.0, 0.0, 0.0, 0.0, 0.0, 0.0, 0.0, 0.0, 0.0, 1.666555691589954E9, 0.0, 2022-10-23 13:08:11.589
12.0, -72919.90642784911, -104684.21634247499, 68126.10544277495, 17554.23308065332, 77117.72049876697, 84960.053558356, 39447.45385020421, 37222.94118677869, 0.038, 0.9540000000000001, 0.10400000000000001, 192.0, 0.0, 0.0, 0.0, 0.0, 0.0, 0.0, 0.0, 0.0, 0.0, 1.6665556915899663E9, 0.0, 2022-10-23 13:08:11.589
13.0, -72849.31961885926, -104618.7480829654, 66443.68963762399, 16932.474605140043, 76875.27112666024, 84109.23440566474, 38253.781289312996, 35793.815349795266, 0.038, 0.9540000000000001, 0.10400000000000001, 192.0, 0.0, 0.0, 0.0, 0.0, 0.0, 0.0, 0.0, 0.0, 0.0, 1.6665556915899792E9, 0.0, 2022-10-23 13:08:11.589
14.0, -72872.20780518149, -104632.20383312748, 65193.2883493052, 17077.224502232613, 76974.02113366379, 83606.78954205388, 37552.160030860905, 35179.58941216343, 0.038, 0.9500000000000001, 0.10200000000000001, 192.0, 1.0, 48.0, 29.0, 176.0, 3.0, 48.0, 0.0, 0.0, 0.0, 1.6665556915899916E9, 0.0, 2022-10-23 13:08:11.589
