%OpenBCI Raw EEG Data
%Number of channels = 8
%Sample Rate = 250 Hz
%Board = OpenBCI_GUI$BoardCytonSerial
Sample Index, EXG Channel 0, EXG Channel 1, EXG Channel 2, EXG Channel 3, EXG Channel 4, EXG Channel 5, EXG Channel 6, EXG Channel 7, Accel Channel 0, Accel Channel 1, Accel Channel 2, Other, Other, Other, Other, Other, Other, Other, Analog Channel 0, Analog Channel 1, Analog Channel 2, Timestamp, Other, Timestamp (Formatted)
122.0, -45290.31160954376, -70779.704544509, 81844.68976791976, -23246.574192830827, 30660.64782865618, 9673.969110723629, -5392.313646353919, -1345.4632574872087, 0.0, 0.0, 0.0, 192.0, 0.0, 0.0, 0.0, 0.0, 0.0, 0.0, 0.0, 0.0, 0.0, 1.6665550489535866E9, 0.0, 2022-10-23 12:57:28.953
123.0, -45284.209583307456, -70758.00100064291, 84120.6561470814, -21938.68421777299, 30713.777925226444, 10704.83156500239, -4112.698628032044, 56.058175093910116, 0.0, 0.0, 0.0, 192.0, 0.0, 0.0, 0.0, 0.0, 0.0, 0.0, 0.0, 0.0, 0.0, 1.6665550489536097E9, 0.0, 2022-10-23 12:57:28.953
124.0, -45182.73266348036, -70665.55418557575, 82983.8911275734, -22714.22269513878, 30514.243902473918, 10184.438250593932, -4901.625800326562, -935.1075810322262, -0.116, 0.9520000000000001, 0.044, 192.0, 252.0, 96.0, 29.0, 192.0, 1.0, 96.0, 0.0, 0.0, 0.0, 1.6665550489536245E9, 0.0, 2022-10-23 12:57:28.953
125.0, -45197.440111331955, -70692.0857062442, 81214.05764985773, -23693.519674959145, 30573.72189446949, 9470.054146057862, -5878.553495234668, -1967.6017126562253, -0.116, 0.9520000000000001, 0.044, 192.0, 0.0, 0.0, 0.0, 0.0, 0.0, 0.0, 0.0, 0.0, 0.0, 1.6665550489536412E9, 0.0, 2022-10-23 12:57:28.953
126.0, -45253.520638170325, -70748.16623308256, 81572.53492743195, -23397.090839992863, 30661.228974012018, 9722.315933980457, -5568.490096150648, -1537.1741696803774, -0.116, 0.9520000000000001, 0.044, 192.0, 0.0, 0.0, 0.0, 0.0, 0.0, 0.0, 0.0, 0.0, 0.0, 1.6665550489536552E9, 0.0, 2022-10-23 12:57:28.953
127.0, -45301.2416125824, -70795.10489643872, 83797.98636412459, -22103.774202319884, 30719.879951462743, 10730.558422870448, -4299.223935511582, -113.59156532187049, -0.116, 0.9520000000000001, 0.044, 192.0, 0.0, 0.0, 0.0, 0.0, 0.0, 0.0, 0.0, 0.0, 0.0, 1.666555048953666E9, 0.0, 2022-10-23 12:57:28.953
128.0, -45245.92104505552, -70740.67839869004, 83451.62373204515, -22424.76760444255, 30506.398440170105, 10567.882426724724, -4632.153169173381, -611.8119492306649, -0.116, 0.9520000000000001, 0.044, 192.0, 0.0, 0.0, 0.0, 0.0, 0.0, 0.0, 0.0, 0.0, 0.0, 1.666555048953677E9, 0.0, 2022-10-23 12:57:28.953
129.0, -45222.541120355265, -70722.90876184807, 81369.93871568903, -23608.560694284522, 30521.32940546625, 9723.321762480946, -5810.023046734696, -1907.296706115807, -0.116, 0.9520000000000001, 0.044, 192.0, 0.0, 0.0, 0.0, 0.0, 0.0, 0.0, 0.0, 0.0, 0.0, 1.666555048953689E9, 0.0, 2022-10-23 12:57:28.953
130.0, -45254.638225393086, -70754.46942501896, 81372.79973897932, -23519.488992630126, 30628.97540676301, 9812.974609491182, -5709.484900174725, -1699.2913722147193, -0.116, 0.9520000000000001, 0.044, 192.0, 0.0, 0.0, 0.0, 0.0, 0.0, 0.0, 0.0, 0.0, 0.0, 1.6665550489537013E9, 0.0, 2022-10-23 12:57:28.953
131.0, -45294.401978779075, -70789.60636730271, 83387.67539115851, -22324.609437538318, 30733.335701624837, 10745.467036422138, -4529.268089445602, -349.15660013635164, -0.116, 0.9520000000000001, 0.044, 192.0, 0.0, 0.0, 0.0, 0.0, 0.0, 0.0, 0.0, 0.0, 0.0, 1.6665550489537122E9, 0.0, 2022-10-23 12:57:28.953
132.0, -45226.877358779595, -70734.82224164275, 83838.13009716631, -22179.993650912482, 30560.66847570759, 10928.952506655754, -4402.891326295296, -324.6590882133351, -0.116, 0.9520000000000001, 0.044, 192.0, 0.0, 0.0, 0.0, 0.0, 0.0, 0.0, 0.0, 0.0, 0.0, 1.6665550489537227E9, 0.0, 2022-10-23 12:57:28.953
133.0, -45185.25841060381, -70695.79609582378, 81542.87416253975, -23525.591018866424, 30512.880446062143, 9969.101544511503, -5742.587833713035, -1833.1112662686428, -0.116, 0.9520000000000001, 0.044, 192.0, 0.0, 0.0, 0.0, 0.0, 0.0, 0.0, 0.0, 0.0, 0.0, 1.6665550489537337E9, 0.0, 2022-10-23 12:57:28.953
134.0, -45227.54791111325, -70723.33344499272, 81231.96139716642, -23609.96885418521, 30629.35538641875, 9939.06079996357, -5812.727607813788, -1816.2804026937965, -0.126, 0.9560000000000001, 0.044, 192.0, 252.0, 16.0, 29.0, 224.0, 1.0, 96.0, 0.0, 0.0, 0.0, 1.6665550489537444E9, 0.0, 2022-10-23 12:57:28.953
135.0, -45278.755757660365, -70776.84352121872, 82951.65991206883, -22558.140463607368, 30738.6554168052, 10779.218170549651, -4763.179095170391, -599.7867107137097, -0.126, 0.9560000000000001, 0.044, 192.0, 0.0, 0.0, 0.0, 0.0, 0.0, 0.0, 0.0, 0.0, 0.0, 1.6665550489537563E9, 0.0, 2022-10-23 12:57:28.953
136.0, -45256.00168180486, -70768.77454147035, 84130.7591355752, -21980.861959560152, 30591.737400500468, 11281.864199860598, -4211.269821079948, -84.26607659650763, -0.126, 0.9560000000000001, 0.044, 192.0, 0.0, 0.0, 0.0, 0.0, 0.0, 0.0, 0.0, 0.0, 0.0, 1.6665550489537673E9, 0.0, 2022-10-23 12:57:28.953
137.0, -45205.86671899161, -70726.14976479409, 81844.8685818754, -23365.15019716623, 30469.205137396475, 10307.2834381203, -5589.567791172003, -1672.983368990823, -0.126, 0.9560000000000001, 0.044, 192.0, 0.0, 0.0, 0.0, 0.0, 0.0, 0.0, 0.0, 0.0, 0.0, 1.6665550489537783E9, 0.0, 2022-10-23 12:57:28.953
138.0, -45249.251454979356, -70756.70459946449, 81145.03546297974, -23679.4380759523, 30594.933699957575, 10101.848554831571, -5894.803213453676, -1920.9312702335442, -0.126, 0.9560000000000001, 0.044, 192.0, 0.0, 0.0, 0.0, 0.0, 0.0, 0.0, 0.0, 0.0, 0.0, 1.6665550489539056E9, 0.0, 2022-10-23 12:57:28.953
139.0, -45302.180385849526, -70805.94549249954, 82477.11002553822, -22836.397330331485, 30713.442649059612, 10784.627292707837, -5043.42526715103, -912.08528424326, -0.126, 0.9560000000000001, 0.044, 192.0, 0.0, 0.0, 0.0, 0.0, 0.0, 0.0, 0.0, 0.0, 0.0, 1.6665550489539173E9, 0.0, 2022-10-23 12:57:28.953
140.0, -45283.3378652737, -70790.47808533646, 84258.49935513728, -21875.160560031007, 30637.15614523365, 11578.29303482688, -4106.060159928818, 55.0523465934213, -0.126, 0.9560000000000001, 0.044, 192.0, 0.0, 0.0, 0.0, 0.0, 0.0, 0.0, 0.0, 0.0, 0.0, 1.6665550489539285E9, 0.0, 2022-10-23 12:57:28.953
141.0, -45211.924041738996, -70721.85822985867, 82243.73546168035, -23133.429662398063, 30470.725056019433, 10710.285390649486, -5356.036765102955, -1427.740028827194, -0.126, 0.9560000000000001, 0.044, 192.0, 0.0, 0.0, 0.0, 0.0, 0.0, 0.0, 0.0, 0.0, 0.0, 1.66655504895394E9, 0.0, 2022-10-23 12:57:28.953
142.0, -45234.94633852796, -70748.2556400604, 81140.0510239662, -23693.340861003504, 30580.762693972913, 10319.867470248637, -5907.610763026567, -1962.9525498095215, -0.126, 0.9560000000000001, 0.044, 192.0, 0.0, 0.0, 0.0, 0.0, 0.0, 0.0, 0.0, 0.0, 0.0, 1.666555048953951E9, 0.0, 2022-10-23 12:57:28.953
143.0, -45264.495344697876, -70776.62000377417, 82046.10133720654, -23093.978833434445, 30701.17154135365, 10801.189935349219, -5299.28568593093, -1206.6365726752965, -0.122, 0.9460000000000001, 0.046, 192.0, 252.0, 48.0, 29.0, 144.0, 1.0, 112.0, 0.0, 0.0, 0.0, 1.666555048953962E9, 0.0, 2022-10-23 12:57:28.953
144.0, -45281.50502222837, -70785.7618672564, 84190.66181071542, -21887.5657782037, 30701.439762287115, 11764.930101028694, -4118.286564145871, 65.8258874208793, -0.122, 0.9460000000000001, 0.046, 192.0, 0.0, 0.0, 0.0, 0.0, 0.0, 0.0, 0.0, 0.0, 0.0, 1.6665550489539769E9, 0.0, 2022-10-23 12:57:28.953
145.0, -45226.810303546226, -70731.02244508534, 82656.48277479205, -22898.82575259516, 30476.760027022367, 11080.497334062737, -5127.53488153635, -1169.264455946023, -0.122, 0.9460000000000001, 0.046, 192.0, 0.0, 0.0, 0.0, 0.0, 0.0, 0.0, 0.0, 0.0, 0.0, 1.666555048953988E9, 0.0, 2022-10-23 12:57:28.953
146.0, -45251.084298024696, -70756.52578550886, 81138.97814023234, -23715.31262580307, 30560.422606518583, 10505.901039350158, -5935.595147084612, -2010.7405794549682, -0.122, 0.9460000000000001, 0.046, 192.0, 0.0, 0.0, 0.0, 0.0, 0.0, 0.0, 0.0, 0.0, 0.0, 1.6665550489539993E9, 0.0, 2022-10-23 12:57:28.953
147.0, -45293.32909504522, -70795.37311737218, 81696.16242601424, -23307.259179026983, 30667.30864850386, 10853.358906907906, -5510.509671033582, -1458.4736774532412, -0.122, 0.9460000000000001, 0.046, 192.0, 0.0, 0.0, 0.0, 0.0, 0.0, 0.0, 0.0, 0.0, 0.0, 1.66655504895401E9, 0.0, 2022-10-23 12:57:28.954
148.0, -45317.87131045715, -70823.13398398567, 83986.41156988282, -21981.532511893813, 30730.251160890006, 11906.97543704217, -4206.240678577505, -18.820168831368548, -0.122, 0.9460000000000001, 0.046, 192.0, 0.0, 0.0, 0.0, 0.0, 0.0, 0.0, 0.0, 0.0, 0.0, 1.6665550489540212E9, 0.0, 2022-10-23 12:57:28.954
149.0, -45237.74030658488, -70746.10987259267, 83153.13853658897, -22595.17730416981, 30511.60639662819, 11529.700342381042, -4822.05359006567, -830.5237687258445, -0.122, 0.9460000000000001, 0.046, 192.0, 0.0, 0.0, 0.0, 0.0, 0.0, 0.0, 0.0, 0.0, 0.0, 1.6665550489540331E9, 0.0, 2022-10-23 12:57:28.954
150.0, -45241.629510120096, -70739.4937562339, 81230.44147854346, -23678.052267796073, 30562.076635608275, 10759.481580195616, -5891.808079696665, -1987.1371373101638, -0.122, 0.9460000000000001, 0.046, 192.0, 0.0, 0.0, 0.0, 0.0, 0.0, 0.0, 0.0, 0.0, 0.0, 1.6665550489540465E9, 0.0, 2022-10-23 12:57:28.954
151.0, -45290.4904234994, -70779.72689625346, 81460.23976328848, -23452.29964879747, 30665.520508947437, 10973.544236844093, -5644.553082532058, -1628.5704527581279, -0.122, 0.9460000000000001, 0.046, 192.0, 0.0, 0.0, 0.0, 0.0, 0.0, 0.0, 0.0, 0.0, 0.0, 1.6665550489540582E9, 0.0, 2022-10-23 12:57:28.954
152.0, -45314.339734833215, -70806.72780355548, 83635.42212670113, -22171.544691508378, 30752.7593675565, 11986.033557180592, -4381.1207271958265, -207.84887168990036, -0.122, 0.9460000000000001, 0.046, 192.0, 0.0, 0.0, 0.0, 0.0, 0.0, 0.0, 0.0, 0.0, 0.0, 1.6665550489540691E9, 0.0, 2022-10-23 12:57:28.954
153.0, -45226.83265529069, -70734.15168930909, 83594.92076574812, -22325.03412068297, 30553.448862248526, 11950.2707660521, -4544.981365797683, -515.7888550506658, -0.116, 0.9520000000000001, 0.052000000000000005, 192.0, 252.0, 96.0, 29.0, 192.0, 1.0, 160.0, 0.0, 0.0, 0.0, 1.666555048954115E9, 0.0, 2022-10-23 12:57:28.954
154.0, -45229.91719602552, -70741.23719230141, 81388.3565531202, -23606.34787158345, 30529.644254403625, 11044.46632200078, -5809.888936267965, -1926.4297993695498, -0.116, 0.9520000000000001, 0.052000000000000005, 192.0, 0.0, 0.0, 0.0, 0.0, 0.0, 0.0, 0.0, 0.0, 0.0, 1.6665550489541276E9, 0.0, 2022-10-23 12:57:28.954
155.0, -45259.64501615107, -70772.59668977221, 81265.89134524958, -23585.873673662387, 30645.40393893766, 11098.892819749453, -5774.260255606206, -1796.074425706199, -0.116, 0.9520000000000001, 0.052000000000000005, 192.0, 0.0, 0.0, 0.0, 0.0, 0.0, 0.0, 0.0, 0.0, 0.0, 1.6665550489541388E9, 0.0, 2022-10-23 12:57:28.954
156.0, -45313.15509237708, -70817.85897229421, 83135.70417591384, -22467.526491585555, 30754.61456234629, 11978.925702443803, -4672.788640593129, -521.846177798054, -0.116, 0.9520000000000001, 0.052000000000000005, 192.0, 0.0, 0.0, 0.0, 0.0, 0.0, 0.0, 0.0, 0.0, 0.0, 1.66655504895415E9, 0.0, 2022-10-23 12:57:28.954
157.0, -45258.683891139495, -70759.45386403249, 83923.62551970787, -22115.128888503183, 30609.507037342435, 12333.312610782697, -4344.150941866749, -264.6223026063803, -0.116, 0.9520000000000001, 0.052000000000000005, 192.0, 0.0, 0.0, 0.0, 0.0, 0.0, 0.0, 0.0, 0.0, 0.0, 1.6665550489541614E9, 0.0, 2022-10-23 12:57:28.954
158.0, -45212.393428372554, -70723.66872115956, 81611.47166627308, -23490.36466960486, 30528.437260203038, 11382.469401653934, -5706.668580373357, -1819.3425916841736, -0.116, 0.9520000000000001, 0.052000000000000005, 192.0, 0.0, 0.0, 0.0, 0.0, 0.0, 0.0, 0.0, 0.0, 0.0, 1.6665550489541724E9, 0.0, 2022-10-23 12:57:28.954
159.0, -45259.39914696207, -70762.31488732278, 81140.16278268848, -23670.139750258895, 30644.17459299262, 11296.750461667832, -5871.691509686889, -1913.644601541114, -0.116, 0.9520000000000001, 0.052000000000000005, 192.0, 0.0, 0.0, 0.0, 0.0, 0.0, 0.0, 0.0, 0.0, 0.0, 1.666555048954183E9, 0.0, 2022-10-23 12:57:28.954
160.0, -45307.07541788524, -70792.84737024872, 82716.02782202099, -22687.512360514684, 30766.796263074433, 12104.743671982727, -4884.571419307163, -764.8319917716971, -0.116, 0.9520000000000001, 0.052000000000000005, 192.0, 0.0, 0.0, 0.0, 0.0, 0.0, 0.0, 0.0, 0.0, 0.0, 1.6665550489541943E9, 0.0, 2022-10-23 12:57:28.954
161.0, -45277.30289427077, -70776.03885841834, 84186.90671764693, -21919.14879311905, 30668.314477004347, 12777.978214976576, -4139.073686489307, -28.990212558533262, -0.116, 0.9520000000000001, 0.052000000000000005, 192.0, 0.0, 0.0, 0.0, 0.0, 0.0, 0.0, 0.0, 0.0, 0.0, 1.6665550489542055E9, 0.0, 2022-10-23 12:57:28.954
162.0, -45209.91238473802, -70723.33344499272, 81989.90905164588, -23264.70145758408, 30514.959158296486, 11866.049392944502, -5472.154077548275, -1591.086577306578, -0.116, 0.9520000000000001, 0.052000000000000005, 192.0, 0.0, 0.0, 0.0, 0.0, 0.0, 0.0, 0.0, 0.0, 0.0, 1.6665550489542165E9, 0.0, 2022-10-23 12:57:28.954
163.0, -45261.47785919641, -70772.82020721676, 81108.35625032858, -23694.70431741528, 30615.787877534378, 11596.263837368946, -5892.992722152797, -1972.2955789918399, -0.126, 0.9560000000000001, 0.058, 192.0, 252.0, 16.0, 29.0, 224.0, 1.0, 208.0, 0.0, 0.0, 0.0, 1.6665550489542277E9, 0.0, 2022-10-23 12:57:28.954
164.0, -45323.280432615335, -70830.84533582274, 82251.04448211724, -22964.74104699386, 30714.51553279347, 12203.806603408648, -5157.575626084284, -1085.6689316831746, -0.126, 0.9560000000000001, 0.058, 192.0, 0.0, 0.0, 0.0, 0.0, 0.0, 0.0, 0.0, 0.0, 0.0, 1.6665550489542394E9, 0.0, 2022-10-23 12:57:28.954
165.0, -45305.331981817726, -70815.33322517076, 84201.83768294308, -21888.884531126565, 30681.636116699712, 13079.100916278472, -4116.0960931892505, 13.366343184273623, -0.126, 0.9560000000000001, 0.058, 192.0, 0.0, 0.0, 0.0, 0.0, 0.0, 0.0, 0.0, 0.0, 0.0, 1.6665550489542515E9, 0.0, 2022-10-23 12:57:28.954
166.0, -45219.09895170915, -70729.12254680664, 82391.61460299666, -23030.27636173682, 30512.388707684127, 12306.132889525044, -5253.37520281973, -1360.5953884834514, -0.126, 0.9560000000000001, 0.058, 192.0, 0.0, 0.0, 0.0, 0.0, 0.0, 0.0, 0.0, 0.0, 0.0, 1.6665550489542625E9, 0.0, 2022-10-23 12:57:28.954
167.0, -45255.93462657149, -70746.37809352615, 81110.32320384064, -23702.773297163643, 30615.139676945175, 11824.028113368526, -5916.238536386316, -2024.196329617063, -0.126, 0.9560000000000001, 0.058, 192.0, 0.0, 0.0, 0.0, 0.0, 0.0, 0.0, 0.0, 0.0, 0.0, 1.6665550489542737E9, 0.0, 2022-10-23 12:57:28.954
168.0, -45305.86842368465, -70803.55385584282, 81877.70329448025, -23181.44120948806, 30722.383346841736, 12231.634525255506, -5384.8034602169355, -1345.2173882982001, -0.126, 0.9560000000000001, 0.058, 192.0, 0.0, 0.0, 0.0, 0.0, 0.0, 0.0, 0.0, 0.0, 0.0, 1.6665550489542844E9, 0.0, 2022-10-23 12:57:28.954
169.0, -45315.90435694508, -70832.63347537917, 84122.22076919327, -21903.614330722612, 30740.08592845034, 13219.961609835818, -4138.492541133469, 18.462540920083633, -0.126, 0.9560000000000001, 0.058, 192.0, 0.0, 0.0, 0.0, 0.0, 0.0, 0.0, 0.0, 0.0, 0.0, 1.6665550489543068E9, 0.0, 2022-10-23 12:57:28.954
170.0, -45235.28161469479, -70750.71433195047, 82873.562916942, -22749.873727544993, 30531.76767012688, 12627.886250959189, -4992.597400259662, -1043.692355596108, -0.126, 0.9560000000000001, 0.058, 192.0, 0.0, 0.0, 0.0, 0.0, 0.0, 0.0, 0.0, 0.0, 0.0, 1.6665550489543176E9, 0.0, 2022-10-23 12:57:28.954
171.0, -45251.57603640271, -70754.15650059658, 81176.57377440618, -23684.35545973247, 30598.822903492797, 11918.710102881207, -5925.447455101902, -2022.6540592496467, -0.126, 0.9560000000000001, 0.058, 192.0, 0.0, 0.0, 0.0, 0.0, 0.0, 0.0, 0.0, 0.0, 0.0, 1.6665550489543288E9, 0.0, 2022-10-23 12:57:28.954
172.0, -45298.84997592568, -70799.23996916294, 81582.83908162583, -23363.16089190971, 30703.31730882136, 12152.777570817181, -5596.072148808497, -1563.21395197081, -0.11800000000000001, 0.9480000000000001, 0.05, 192.0, 252.0, 80.0, 29.0, 160.0, 1.0, 144.0, 0.0, 0.0, 0.0, 1.66655504895434E9, 0.0, 2022-10-23 12:57:28.954
173.0, -45323.79452273781, -70829.57128638879, 83859.45366137668, -22027.331236282735, 30780.14025451425, 13171.74889704572, -4292.2501912415255, -104.91908847321135, -0.11800000000000001, 0.9480000000000001, 0.05, 192.0, 0.0, 0.0, 0.0, 0.0, 0.0, 0.0, 0.0, 0.0, 0.0, 1.666555048954352E9, 0.0, 2022-10-23 12:57:28.954
174.0, -45248.91617881253, -70760.23617508843, 83372.85618458464, -22431.853107434883, 30571.307906068316, 12923.756292314089, -4707.635010198952, -693.4852234703569, -0.11800000000000001, 0.9480000000000001, 0.05, 192.0, 0.0, 0.0, 0.0, 0.0, 0.0, 0.0, 0.0, 0.0, 0.0, 1.6665550489543629E9, 0.0, 2022-10-23 12:57:28.954
175.0, -45246.457486922445, -70759.23034658794, 81319.2896627533, -23601.206970358726, 30581.165025373106, 12067.57272095355, -5870.551570719668, -1969.0545760458203, -0.11800000000000001, 0.9480000000000001, 0.05, 192.0, 0.0, 0.0, 0.0, 0.0, 0.0, 0.0, 0.0, 0.0, 0.0, 1.6665550489543738E9, 0.0, 2022-10-23 12:57:28.954
176.0, -45294.267868312345, -70802.99506223144, 81382.36628560619, -23479.144093888295, 30672.337791006303, 12174.391707705463, -5732.70836266379, -1724.7053056604036, -0.11800000000000001, 0.9480000000000001, 0.05, 192.0, 0.0, 0.0, 0.0, 0.0, 0.0, 0.0, 0.0, 0.0, 0.0, 1.6665550489543848E9, 0.0, 2022-10-23 12:57:28.954
177.0, -45322.34165934821, -70823.22339096348, 83430.72485097943, -22267.388971732733, 30788.410399962715, 13104.805422402076, -4539.728705850685, -360.9583212087538, -0.11800000000000001, 0.9480000000000001, 0.05, 192.0, 0.0, 0.0, 0.0, 0.0, 0.0, 0.0, 0.0, 0.0, 0.0, 1.666555048954396E9, 0.0, 2022-10-23 12:57:28.954
178.0, -45262.05900455225, -70769.4003903151, 83735.73675581656, -22209.475601849033, 30612.97155773301, 13208.271647485692, -4499.540269320044, -432.12627555445147, -0.11800000000000001, 0.9480000000000001, 0.05, 192.0, 0.0, 0.0, 0.0, 0.0, 0.0, 0.0, 0.0, 0.0, 0.0, 1.6665550489544072E9, 0.0, 2022-10-23 12:57:28.954
179.0, -45252.49245792538, -70757.79983494281, 81470.8344901603, -23533.682350359246, 30554.47704249347, 12257.47314184584, -5811.207689190828, -1906.2238223819522, -0.11800000000000001, 0.9480000000000001, 0.05, 192.0, 0.0, 0.0, 0.0, 0.0, 0.0, 0.0, 0.0, 0.0, 0.0, 1.666555048954418E9, 0.0, 2022-10-23 12:57:28.954
180.0, -45283.42727225152, -70779.21280613099, 81211.84482715664, -23591.28279582057, 30669.00738108246, 12231.142786877488, -5854.190093778383, -1858.100516569676, -0.11800000000000001, 0.9480000000000001, 0.05, 192.0, 0.0, 0.0, 0.0, 0.0, 0.0, 0.0, 0.0, 0.0, 0.0, 1.666555048954429E9, 0.0, 2022-10-23 12:57:28.954
181.0, -45312.77511272134, -70809.4100128901, 82981.54419440558, -22512.878181085372, 30792.791341875953, 13064.661689360344, -4780.188772700879, -615.3211731101482, -0.11800000000000001, 0.9480000000000001, 0.05, 192.0, 0.0, 0.0, 0.0, 0.0, 0.0, 0.0, 0.0, 0.0, 0.0, 1.66655504895444E9, 0.0, 2022-10-23 12:57:28.954
182.0, -45278.264019282346, -70782.47616082146, 84054.80790791607, -21993.15541901057, 30654.724616375523, 13500.073671349726, -4283.868287070785, -164.95587408016613, -0.126, 0.9540000000000001, 0.05, 192.0, 252.0, 16.0, 29.0, 208.0, 1.0, 144.0, 0.0, 0.0, 0.0, 1.6665550489544508E9, 0.0, 2022-10-23 12:57:28.954
183.0, -45244.87051306612, -70756.27991631984, 81748.44315629521, -23383.92566250869, 30527.587893913736, 12488.277255091341, -5667.105992687463, -1755.371899053085, -0.126, 0.9540000000000001, 0.05, 192.0, 0.0, 0.0, 0.0, 0.0, 0.0, 0.0, 0.0, 0.0, 0.0, 1.6665550489544628E9, 0.0, 2022-10-23 12:57:28.954
184.0, -45295.36310379066, -70800.17874243007, 81114.45827656488, -23660.01441002064, 30634.518639387923, 12275.533351365728, -5937.115065707572, -1961.6561486311136, -0.126, 0.9540000000000001, 0.05, 192.0, 0.0, 0.0, 0.0, 0.0, 0.0, 0.0, 0.0, 0.0, 0.0, 1.6665550489545028E9, 0.0, 2022-10-23 12:57:28.954
185.0, -45340.93831073503, -70833.08051026828, 82497.20424380354, -22791.827951887604, 30748.37842564326, 12930.059484250485, -5072.90721808758, -935.1075810322262, -0.126, 0.9540000000000001, 0.05, 192.0, 0.0, 0.0, 0.0, 0.0, 0.0, 0.0, 0.0, 0.0, 0.0, 1.6665550489545143E9, 0.0, 2022-10-23 12:57:28.954
186.0, -45311.903394687586, -70811.93576001356, 84187.4208077694, -21884.503589213324, 30678.663334687157, 13633.692399703552, -4202.709102953566, -40.00962257499964, -0.126, 0.9540000000000001, 0.05, 192.0, 0.0, 0.0, 0.0, 0.0, 0.0, 0.0, 0.0, 0.0, 0.0, 1.6665550489545267E9, 0.0, 2022-10-23 12:57:28.954
187.0, -45249.92200731302, -70753.1506720961, 82100.79605588867, -23179.362497253718, 30519.161286254086, 12689.174734255641, -5500.451386028693, -1561.3587571810197, -0.126, 0.9540000000000001, 0.05, 192.0, 0.0, 0.0, 0.0, 0.0, 0.0, 0.0, 0.0, 0.0, 0.0, 1.666555048954538E9, 0.0, 2022-10-23 12:57:28.954
188.0, -45279.20279254947, -70778.27403286386, 81079.61190695905, -23682.16498877585, 30640.06187201284, 12306.95990406989, -5999.431729248969, -2030.7006872535574, -0.126, 0.9540000000000001, 0.05, 192.0, 0.0, 0.0, 0.0, 0.0, 0.0, 0.0, 0.0, 0.0, 0.0, 1.6665550489545493E9, 0.0, 2022-10-23 12:57:28.954
189.0, -45324.10744716018, -70827.76079508792, 82050.30346516412, -23049.565917201748, 30732.84396324682, 12778.58171207687, -5362.339957039351, -1240.6112242473632, -0.126, 0.9540000000000001, 0.05, 192.0, 0.0, 0.0, 0.0, 0.0, 0.0, 0.0, 0.0, 0.0, 0.0, 1.6665550489545605E9, 0.0, 2022-10-23 12:57:28.954
190.0, -45325.89558671661, -70831.13590850067, 84123.13719071593, -21892.4161067505, 30726.920750966165, 13661.90030120615, -4241.131751672238, -27.582052657848916, -0.126, 0.9540000000000001, 0.05, 192.0, 0.0, 0.0, 0.0, 0.0, 0.0, 0.0, 0.0, 0.0, 0.0, 1.6665550489545715E9, 0.0, 2022-10-23 12:57:28.954
191.0, -45232.1747222155, -70731.06714857425, 82526.01564240643, -22914.606084180607, 30540.37309174217, 12947.94087981473, -5262.919397702146, -1272.909494985282, -0.126, 0.9540000000000001, 0.05, 192.0, 0.0, 0.0, 0.0, 0.0, 0.0, 0.0, 0.0, 0.0, 0.0, 1.6665550489545827E9, 0.0, 2022-10-23 12:57:28.954
192.0, -45244.982271788394, -70738.10794807768, 81076.0356278462, -23684.15429403237, 30611.71986004351, 12381.21239915042, -6027.080837140184, -2055.0417369653865, -0.11800000000000001, 0.9540000000000001, 0.05, 192.0, 252.0, 80.0, 29.0, 208.0, 1.0, 144.0, 0.0, 0.0, 0.0, 1.666555048954594E9, 0.0, 2022-10-23 12:57:28.954
193.0, -45286.2882955418, -70787.9076347241, 81686.81939683192, -23242.148547428675, 30713.375593826247, 12727.440920763127, -5573.832163075467, -1461.8934943549032, -0.11800000000000001, 0.9540000000000001, 0.05, 192.0, 0.0, 0.0, 0.0, 0.0, 0.0, 0.0, 0.0, 0.0, 0.0, 1.6665550489546053E9, 0.0, 2022-10-23 12:57:28.954
194.0, -45329.427162340544, -70838.08730102627, 83947.36307231941, -21935.554973549246, 30775.982830045563, 13738.835005621315, -4297.614609910799, -49.41970699068391, -0.11800000000000001, 0.9540000000000001, 0.05, 192.0, 0.0, 0.0, 0.0, 0.0, 0.0, 0.0, 0.0, 0.0, 0.0, 1.6665550489546163E9, 0.0, 2022-10-23 12:57:28.954
195.0, -45248.80442009025, -70763.09719837872, 82961.11469997343, -22632.728234854727, 30560.33319954076, 13270.72242149382, -5004.689694009983, -953.6148254412205, -0.11800000000000001, 0.9540000000000001, 0.05, 192.0, 0.0, 0.0, 0.0, 0.0, 0.0, 0.0, 0.0, 0.0, 0.0, 1.6665550489546273E9, 0.0, 2022-10-23 12:57:28.954
196.0, -45257.38748996109, -70770.02623915985, 81100.91311942496, -23663.925965300317, 30605.95310997404, 12520.508470595894, -6028.891328441064, -2049.230283407007, -0.11800000000000001, 0.9540000000000001, 0.05, 192.0, 0.0, 0.0, 0.0, 0.0, 0.0, 0.0, 0.0, 0.0, 0.0, 1.6665550489546385E9, 0.0, 2022-10-23 12:57:28.954
197.0, -45297.53122300282, -70809.45471637901, 81372.33035234576, -23412.02180528901, 30699.562215752867, 12733.52059525497, -5759.888083921443, -1658.2312176503203, -0.11800000000000001, 0.9540000000000001, 0.05, 192.0, 0.0, 0.0, 0.0, 0.0, 0.0, 0.0, 0.0, 0.0, 0.0, 1.6665550489546497E9, 0.0, 2022-10-23 12:57:28.954
198.0, -45315.12204588915, -70830.24183872245, 83567.83045146828, -22120.448603683544, 30777.27923122397, 13735.258726508466, -4488.632618025854, -224.94795619821028, -0.11800000000000001, 0.9540000000000001, 0.05, 192.0, 0.0, 0.0, 0.0, 0.0, 0.0, 0.0, 0.0, 0.0, 0.0, 1.666555048954661E9, 0.0, 2022-10-23 12:57:28.954
199.0, -45224.26220467832, -70743.11473883566, 83406.45085650097, -22331.4714230861, 30607.24951115245, 13642.051952129836, -4715.234603313756, -599.518489780246, -0.11800000000000001, 0.9540000000000001, 0.05, 192.0, 0.0, 0.0, 0.0, 0.0, 0.0, 0.0, 0.0, 0.0, 0.0, 1.6665550489546716E9, 0.0, 2022-10-23 12:57:28.954
200.0, -45201.306963122726, -70718.43841295701, 81245.55125779525, -23567.4111327423, 30613.7762205334, 12744.607060504803, -5945.228748944849, -1958.9739392964768, -0.11800000000000001, 0.9540000000000001, 0.05, 192.0, 0.0, 0.0, 0.0, 0.0, 0.0, 0.0, 0.0, 0.0, 0.0, 1.66655504895471E9, 0.0, 2022-10-23 12:57:28.954
201.0, -45260.53908592929, -70778.22932937495, 81160.81579456518, -23528.161469478782, 30694.51072150597, 12779.364023132805, -5894.579696009123, -1804.5010333658497, -0.11800000000000001, 0.9540000000000001, 0.05, 192.0, 0.0, 0.0, 0.0, 0.0, 0.0, 0.0, 0.0, 0.0, 0.0, 1.6665550489547212E9, 0.0, 2022-10-23 12:57:28.954
202.0, -45345.69923230401, -70863.79180714987, 83111.40782969091, -22360.66280134473, 30771.37837068777, 13672.539731566874, -4738.547472780642, -478.8414214660432, -0.13, 0.9440000000000001, 0.05, 192.0, 251.0, 240.0, 29.0, 128.0, 1.0, 144.0, 0.0, 0.0, 0.0, 1.6665550489547322E9, 0.0, 2022-10-23 12:57:28.954
203.0, -45302.98504864991, -70821.39054791816, 83763.78819510796, -22094.07354522628, 30588.027010920887, 13918.94536244218, -4494.242905884136, -318.55706197703626, -0.13, 0.9440000000000001, 0.05, 192.0, 0.0, 0.0, 0.0, 0.0, 0.0, 0.0, 0.0, 0.0, 0.0, 1.666555048954743E9, 0.0, 2022-10-23 12:57:28.954
204.0, -45260.42732720701, -70777.5587770413, 81456.19409754206, -23453.93132614271, 30536.796812629324, 12922.7504638136, -5850.367945476526, -1852.6243391781259, -0.13, 0.9440000000000001, 0.05, 192.0, 0.0, 0.0, 0.0, 0.0, 0.0, 0.0, 0.0, 0.0, 0.0, 1.6665550489547522E9, 0.0, 2022-10-23 12:57:28.954
205.0, -45285.036597852304, -70797.74240228444, 81045.23492398679, -23598.27889183508, 30655.104596031262, 12809.538878147468, -5981.773851129276, -1904.3462758477065, -0.13, 0.9440000000000001, 0.05, 192.0, 0.0, 0.0, 0.0, 0.0, 0.0, 0.0, 0.0, 0.0, 0.0, 1.6665550489547615E9, 0.0, 2022-10-23 12:57:28.954
206.0, -45319.63709826912, -70835.2709812249, 82647.98911189903, -22611.337615410997, 30778.37446670228, 13552.600270819697, -4994.60905726064, -747.7329072633871, -0.13, 0.9440000000000001, 0.05, 192.0, 0.0, 0.0, 0.0, 0.0, 0.0, 0.0, 0.0, 0.0, 0.0, 1.6665550489547713E9, 0.0, 2022-10-23 12:57:28.954
207.0, -45289.931629888015, -70814.6626728371, 84018.86630283193, -21901.557970232723, 30670.862575872252, 14121.586277673994, -4308.0975780603385, -76.97940790407752, -0.13, 0.9440000000000001, 0.05, 192.0, 0.0, 0.0, 0.0, 0.0, 0.0, 0.0, 0.0, 0.0, 0.0, 1.6665550489547803E9, 0.0, 2022-10-23 12:57:28.954
208.0, -45232.15237047105, -70754.44707327451, 81767.3974355933, -23275.966736789553, 30541.445975476025, 13113.187326572815, -5676.024338725131, -1663.7744502752364, -0.13, 0.9440000000000001, 0.05, 192.0, 0.0, 0.0, 0.0, 0.0, 0.0, 0.0, 0.0, 0.0, 0.0, 1.6665550489547908E9, 0.0, 2022-10-23 12:57:28.954
209.0, -45267.646940666076, -70786.52182656787, 80956.52085024367, -23661.82490132152, 30658.636171655202, 12811.706997359634, -6049.209064150938, -1989.484070477971, -0.13, 0.9440000000000001, 0.05, 192.0, 0.0, 0.0, 0.0, 0.0, 0.0, 0.0, 0.0, 0.0, 0.0, 1.6665550489548004E9, 0.0, 2022-10-23 12:57:28.954
210.0, -45309.62351675314, -70828.72192009949, 82164.49852758629, -22893.148409503512, 30771.110149754306, 13393.254684597814, -5271.681281528626, -1052.6777568671414, -0.13, 0.9440000000000001, 0.05, 192.0, 0.0, 0.0, 0.0, 0.0, 0.0, 0.0, 0.0, 0.0, 0.0, 1.6665550489548097E9, 0.0, 2022-10-23 12:57:28.954
211.0, -45299.20760383697, -70813.99212050345, 84064.86619292095, -21846.304457939204, 30727.948931211107, 14212.088490973532, -4254.3863361342355, 15.422703674161873, -0.12, 0.9480000000000001, 0.048, 192.0, 252.0, 64.0, 29.0, 160.0, 1.0, 128.0, 0.0, 0.0, 0.0, 1.6665550489548192E9, 0.0, 2022-10-23 12:57:28.954
212.0, -45220.68592556548, -70731.0447968298, 82165.48200434232, -23034.23262050541, 30558.05332160632, 13366.589053462632, -5444.08028651241, -1409.8139297740377, -0.12, 0.9480000000000001, 0.048, 192.0, 0.0, 0.0, 0.0, 0.0, 0.0, 0.0, 0.0, 0.0, 0.0, 1.6665550489548297E9, 0.0, 2022-10-23 12:57:28.954
213.0, -45239.41668741902, -70753.12832035165, 80942.28278902564, -23663.188357733296, 30658.97144782203, 12899.370539113348, -6071.046718483773, -2032.9135099546327, -0.12, 0.9480000000000001, 0.048, 192.0, 0.0, 0.0, 0.0, 0.0, 0.0, 0.0, 0.0, 0.0, 0.0, 1.666555048954839E9, 0.0, 2022-10-23 12:57:28.954
214.0, -45304.95200216198, -70817.59075136075, 81754.38872032032, -23116.352929634206, 30740.60001857281, 13333.575526902143, -5510.912002433777, -1332.7004114032284, -0.12, 0.9480000000000001, 0.048, 192.0, 0.0, 0.0, 0.0, 0.0, 0.0, 0.0, 0.0, 0.0, 0.0, 1.6665550489548492E9, 0.0, 2022-10-23 12:57:28.954
215.0, -45311.679877243034, -70824.87742005318, 83946.33489207446, -21869.885548339553, 30763.890536295243, 14310.16794564342, -4291.356121463314, -7.197261714608874, -0.12, 0.9480000000000001, 0.048, 192.0, 0.0, 0.0, 0.0, 0.0, 0.0, 0.0, 0.0, 0.0, 0.0, 1.666555048954888E9, 0.0, 2022-10-23 12:57:28.954
216.0, -45241.16012348654, -70758.55979425428, 82600.82693109835, -22761.295468961653, 30549.98434185795, 13711.454118663565, -5186.230562475987, -1125.7679612359955, -0.12, 0.9480000000000001, 0.048, 192.0, 0.0, 0.0, 0.0, 0.0, 0.0, 0.0, 0.0, 0.0, 0.0, 1.666555048954898E9, 0.0, 2022-10-23 12:57:28.954
217.0, -45254.05708003725, -70768.84159670373, 80974.26813534119, -23644.30113366856, 30625.332072416793, 13076.575169155023, -6064.743526547376, -2054.2817776539064, -0.12, 0.9480000000000001, 0.048, 192.0, 0.0, 0.0, 0.0, 0.0, 0.0, 0.0, 0.0, 0.0, 0.0, 1.666555048954908E9, 0.0, 2022-10-23 12:57:28.954
218.0, -45282.91318212905, -70797.96591972899, 81451.63434167318, -23275.9443850451, 30737.113146437783, 13391.645358997032, -5675.152620691374, -1543.0750302165784, -0.12, 0.9480000000000001, 0.048, 192.0, 0.0, 0.0, 0.0, 0.0, 0.0, 0.0, 0.0, 0.0, 0.0, 1.6665550489549177E9, 0.0, 2022-10-23 12:57:28.954
219.0, -45302.694475972, -70822.6198938632, 83731.60168309232, -21948.094302188674, 30803.587234447867, 14447.251194387818, -4359.014851929528, -88.24468710955229, -0.12, 0.9480000000000001, 0.048, 192.0, 0.0, 0.0, 0.0, 0.0, 0.0, 0.0, 0.0, 0.0, 0.0, 1.6665550489549272E9, 0.0, 2022-10-23 12:57:28.954
220.0, -45230.63245184809, -70753.03891337382, 83108.32328895609, -22432.05427313498, 30584.875414952687, 14172.324737587542, -4846.014660121758, -766.1060412056496, -0.12, 0.9480000000000001, 0.048, 192.0, 0.0, 0.0, 0.0, 0.0, 0.0, 0.0, 0.0, 0.0, 0.0, 1.6665550489549365E9, 0.0, 2022-10-23 12:57:28.954
221.0, -45219.23306217588, -70741.05837834578, 81125.27652088125, -23546.154623765306, 30622.292235170873, 13392.472373541877, -5947.888606535031, -1976.2071342715187, -0.138, 0.9580000000000001, 0.048, 192.0, 251.0, 176.0, 29.0, 240.0, 1.0, 128.0, 0.0, 0.0, 0.0, 1.6665550489549463E9, 0.0, 2022-10-23 12:57:28.954
222.0, -45250.503152668854, -70769.8474252042, 81249.06048167474, -23386.76433405451, 30726.384309099238, 13561.429209879543, -5763.7102322233, -1688.9425145319124, -0.138, 0.9580000000000001, 0.048, 192.0, 0.0, 0.0, 0.0, 0.0, 0.0, 0.0, 0.0, 0.0, 0.0, 1.6665550489549568E9, 0.0, 2022-10-23 12:57:28.954
223.0, -45296.81596718025, -70815.5120391264, 83329.53850383026, -22169.756551951952, 30818.09351659936, 14530.198518061463, -4548.870569332907, -315.36076251992733, -0.138, 0.9580000000000001, 0.048, 192.0, 0.0, 0.0, 0.0, 0.0, 0.0, 0.0, 0.0, 0.0, 0.0, 1.6665550489549663E9, 0.0, 2022-10-23 12:57:28.954
224.0, -45255.50994342684, -70785.13601841165, 83514.67800315357, -22192.644738274186, 30618.24656942446, 14609.122527733152, -4571.557589955043, -469.5877992615461, -0.138, 0.9580000000000001, 0.048, 192.0, 0.0, 0.0, 0.0, 0.0, 0.0, 0.0, 0.0, 0.0, 0.0, 1.6665550489549763E9, 0.0, 2022-10-23 12:57:28.954
225.0, -45248.67030962352, -70776.06121016279, 81260.12459518011, -23518.259646685085, 30566.703446710522, 13679.915807237127, -5877.234742311805, -1935.0352209848431, -0.138, 0.9580000000000001, 0.048, 192.0, 0.0, 0.0, 0.0, 0.0, 0.0, 0.0, 0.0, 0.0, 0.0, 1.6665550489549856E9, 0.0, 2022-10-23 12:57:28.954
226.0, -45273.27958026881, -70799.64230056314, 81073.4875289783, -23533.07885325895, 30702.98203265453, 13721.847679835282, -5857.431096724403, -1826.9421847989781, -0.138, 0.9580000000000001, 0.048, 192.0, 0.0, 0.0, 0.0, 0.0, 0.0, 0.0, 0.0, 0.0, 0.0, 1.6665550489549952E9, 0.0, 2022-10-23 12:57:28.954
227.0, -45325.56031054978, -70855.6781239126, 82907.17994060277, -22426.041653876502, 30817.937054388174, 14618.08557725973, -4728.355077309022, -537.9170820614198, -0.138, 0.9580000000000001, 0.048, 192.0, 0.0, 0.0, 0.0, 0.0, 0.0, 0.0, 0.0, 0.0, 0.0, 1.6665550489550045E9, 0.0, 2022-10-23 12:57:28.955
228.0, -45283.360217018155, -70816.3167019268, 83861.82294628894, -21995.45764868947, 30656.043369298386, 15017.77947160953, -4297.078168043872, -173.18131603971912, -0.138, 0.9580000000000001, 0.048, 192.0, 0.0, 0.0, 0.0, 0.0, 0.0, 0.0, 0.0, 0.0, 0.0, 1.6665550489550138E9, 0.0, 2022-10-23 12:57:28.955
229.0, -45270.12798430061, -70800.78223953035, 81516.27558663793, -23425.030520562, 30543.547039454825, 13983.899531829302, -5707.830871085032, -1789.4806610918833, -0.138, 0.9580000000000001, 0.048, 192.0, 0.0, 0.0, 0.0, 0.0, 0.0, 0.0, 0.0, 0.0, 0.0, 1.666555048955024E9, 0.0, 2022-10-23 12:57:28.955
230.0, -45312.46218829897, -70840.7695103609, 80938.81826863508, -23684.109590543463, 30650.455433184557, 13796.748375505016, -5935.975126740352, -1950.9943665259323, -0.138, 0.9580000000000001, 0.048, 192.0, 0.0, 0.0, 0.0, 0.0, 0.0, 0.0, 0.0, 0.0, 0.0, 1.666555048955034E9, 0.0, 2022-10-23 12:57:28.955
231.0, -45352.36005215169, -70875.43706601109, 82385.199652338, -22793.884312377493, 30776.51927191249, 14475.839075546155, -5018.65953429455, -865.7054144984978, -0.136, 0.9460000000000001, 0.06, 192.0, 251.0, 192.0, 29.0, 144.0, 1.0, 224.0, 0.0, 0.0, 0.0, 1.666555048955053E9, 0.0, 2022-10-23 12:57:28.955
232.0, -45299.92285965954, -70833.59460039074, 84030.62332041543, -21920.780470464288, 30720.12582065175, 15162.708182657741, -4150.58483488379, 15.780331585446786, -0.136, 0.9460000000000001, 0.06, 192.0, 0.0, 0.0, 0.0, 0.0, 0.0, 0.0, 0.0, 0.0, 0.0, 1.666555048955063E9, 0.0, 2022-10-23 12:57:28.955
233.0, -45235.5274838838, -70774.76480898439, 81900.41266684684, -23247.64707656468, 30568.111606611208, 14175.588092278016, -5465.716775145147, -1528.3228788760757, -0.136, 0.9460000000000001, 0.06, 192.0, 0.0, 0.0, 0.0, 0.0, 0.0, 0.0, 0.0, 0.0, 0.0, 1.6665550489550726E9, 0.0, 2022-10-23 12:57:28.955
234.0, -45278.0852053267, -70810.4605448795, 80887.85629127697, -23769.113274706993, 30671.153148550173, 13742.344229500799, -5969.167467256483, -1994.647323447147, -0.136, 0.9460000000000001, 0.06, 192.0, 0.0, 0.0, 0.0, 0.0, 0.0, 0.0, 0.0, 0.0, 0.0, 1.6665550489550824E9, 0.0, 2022-10-23 12:57:28.955
235.0, -45330.343583863214, -70865.87051938422, 81939.93055104381, -23091.00605142189, 30794.62418492129, 14237.368313952484, -5260.147781389687, -1126.2149961251016, -0.136, 0.9460000000000001, 0.06, 192.0, 0.0, 0.0, 0.0, 0.0, 0.0, 0.0, 0.0, 0.0, 0.0, 1.6665550489550917E9, 0.0, 2022-10-23 12:57:28.955
236.0, -45320.5982232807, -70859.03088558088, 84030.06452680404, -21928.67063625701, 30772.67477186618, 15127.727702585185, -4099.28758135886, 112.74219903256882, -0.136, 0.9460000000000001, 0.06, 192.0, 0.0, 0.0, 0.0, 0.0, 0.0, 0.0, 0.0, 0.0, 0.0, 1.6665550489551008E9, 0.0, 2022-10-23 12:57:28.955
237.0, -45246.85981832264, -70779.32456485326, 82318.99378526137, -23041.85456536467, 30574.414798547605, 14291.012500645222, -5214.527870956406, -1227.4683985076426, -0.136, 0.9460000000000001, 0.06, 192.0, 0.0, 0.0, 0.0, 0.0, 0.0, 0.0, 0.0, 0.0, 0.0, 1.6665550489551103E9, 0.0, 2022-10-23 12:57:28.955
238.0, -45285.170708319034, -70805.3643471437, 80926.81538186257, -23790.503894150723, 30666.459282214557, 13687.716566052028, -5952.984804270841, -1976.2518377604292, -0.136, 0.9460000000000001, 0.06, 192.0, 0.0, 0.0, 0.0, 0.0, 0.0, 0.0, 0.0, 0.0, 0.0, 1.6665550489551196E9, 0.0, 2022-10-23 12:57:28.955
239.0, -45332.645813542105, -70850.04548430986, 81589.52225321798, -23339.28922883144, 30761.18597521615, 14001.53505820454, -5468.756612391068, -1353.0404988575576, -0.136, 0.9460000000000001, 0.06, 192.0, 0.0, 0.0, 0.0, 0.0, 0.0, 0.0, 0.0, 0.0, 0.0, 1.6665550489551291E9, 0.0, 2022-10-23 12:57:28.955
240.0, -45346.68270906004, -70864.55176646134, 83836.56547505445, -22064.815111734286, 30799.519216957, 14951.372438832814, -4197.255277306471, 46.11164881129847, -0.1, 0.9520000000000001, 0.06, 192.0, 252.0, 224.0, 29.0, 192.0, 1.0, 224.0, 0.0, 0.0, 0.0, 1.6665550489551387E9, 0.0, 2022-10-23 12:57:28.955
241.0, -45259.309739984245, -70769.04276240383, 82760.30662778695, -22821.42166154643, 30593.972574945998, 14393.674062928447, -4959.270949276799, -920.4224849250895, -0.1, 0.9520000000000001, 0.06, 192.0, 0.0, 0.0, 0.0, 0.0, 0.0, 0.0, 0.0, 0.0, 0.0, 1.6665550489551487E9, 0.0, 2022-10-23 12:57:28.955
242.0, -45266.12702204312, -70772.1496548831, 80961.75115844622, -23822.95862709983, 30658.032674554906, 13621.913030375605, -5954.728240338354, -1979.9622273400103, -0.1, 0.9520000000000001, 0.06, 192.0, 0.0, 0.0, 0.0, 0.0, 0.0, 0.0, 0.0, 0.0, 0.0, 1.6665550489551585E9, 0.0, 2022-10-23 12:57:28.955
243.0, -45292.88206015612, -70805.67727156608, 81285.3373629257, -23553.016609313087, 30764.114053739795, 13819.949486249625, -5649.716335501234, -1550.0711262310895, -0.1, 0.9520000000000001, 0.06, 192.0, 0.0, 0.0, 0.0, 0.0, 0.0, 0.0, 0.0, 0.0, 0.0, 1.6665550489551678E9, 0.0, 2022-10-23 12:57:28.955
0.0, 0.0, 0.0, 0.0, 0.0, 0.0, 0.0, 0.0, 0.0, -0.024, 0.9520000000000001, 0.112, 192.0, 255.0, 64.0, 29.0, 192.0, 3.0, 128.0, 0.0, 0.0, 0.0, 1.6665550490531113E9, 0.0, 2022-10-23 12:57:29.053
1.0, -51771.937521927066, -78357.32589451384, 18258.894176351332, -18892.74494561493, 48606.505823910935, 24926.30778864715, -2919.383695052111, 4833.430627993421, -0.024, 0.9520000000000001, 0.112, 192.0, 0.0, 0.0, 0.0, 0.0, 0.0, 0.0, 0.0, 0.0, 0.0, 1.6665550491141984E9, 0.0, 2022-10-23 12:57:29.114
2.0, -51820.70902832854, -78402.18584563564, 18954.61457426722, -18420.58669574102, 48687.039159183405, 25320.078470716297, -2352.565807409979, 5594.105195296431, -0.024, 0.9520000000000001, 0.112, 192.0, 0.0, 0.0, 0.0, 0.0, 0.0, 0.0, 0.0, 0.0, 0.0, 1.666555049114324E9, 0.0, 2022-10-23 12:57:29.114
3.0, -51813.735284058486, -78393.8039414649, 21183.1505516947, -17166.34090737592, 48723.248985201004, 26363.614364101217, -966.4223750141115, 6979.868648036558, -0.024, 0.9520000000000001, 0.112, 192.0, 0.0, 0.0, 0.0, 0.0, 0.0, 0.0, 0.0, 0.0, 0.0, 1.6665550491143377E9, 0.0, 2022-10-23 12:57:29.114
4.0, -51759.28643456536, -78339.26568499395, 20051.705247367056, -17939.666562040635, 48536.23193934345, 25756.317467250523, -1854.9265688570224, 5809.866584523509, -0.024, 0.9520000000000001, 0.112, 192.0, 0.0, 0.0, 0.0, 0.0, 0.0, 0.0, 0.0, 0.0, 0.0, 1.6665550491143503E9, 0.0, 2022-10-23 12:57:29.114
5.0, -51771.04345214885, -78348.27343800943, 18332.81139526503, -18863.866491778674, 48602.21428897551, 24994.726478424847, -2889.8346888821948, 4822.031238321214, -0.024, 0.9520000000000001, 0.112, 192.0, 0.0, 0.0, 0.0, 0.0, 0.0, 0.0, 0.0, 0.0, 0.0, 1.6665550491143634E9, 0.0, 2022-10-23 12:57:29.114
6.0, -51804.54871708736, -78385.15381636069, 18660.93500386894, -18599.892389761495, 48677.42790906762, 25210.018481018364, -2556.748993009209, 5359.8589134048125, -0.024, 0.9520000000000001, 0.112, 192.0, 0.0, 0.0, 0.0, 0.0, 0.0, 0.0, 0.0, 0.0, 0.0, 1.666555049114382E9, 0.0, 2022-10-23 12:57:29.114
7.0, -51843.507807672955, -78424.20231392412, 20834.865669592105, -17364.44441848331, 48733.799008583905, 26225.56999034524, -1174.7406333375734, 6809.704817498305, 0.012, 0.9540000000000001, 0.138, 192.0, 0.0, 96.0, 29.0, 208.0, 4.0, 80.0, 0.0, 0.0, 0.0, 1.6665550491143947E9, 0.0, 2022-10-23 12:57:29.114
8.0, -51762.66154797811, -78345.03243506342, 20440.4244351893, -17727.570858904226, 48552.57106454028, 25945.145004408958, -1604.4752722353069, 6115.906669605573, 0.012, 0.9540000000000001, 0.138, 192.0, 0.0, 0.0, 0.0, 0.0, 0.0, 0.0, 0.0, 0.0, 0.0, 1.6665550491144085E9, 0.0, 2022-10-23 12:57:29.114
9.0, -51744.15430356912, -78320.66903360713, 18352.995020508173, -18898.93637882905, 48599.6214866187, 24974.22992875933, -2916.5450235062867, 4790.962313528337, 0.012, 0.9540000000000001, 0.138, 192.0, 0.0, 0.0, 0.0, 0.0, 0.0, 0.0, 0.0, 0.0, 0.0, 1.666555049114421E9, 0.0, 2022-10-23 12:57:29.114
10.0, -51802.42530136411, -78376.52604300095, 18359.92406128932, -18805.617845728142, 48690.056644684875, 25049.44354885144, -2771.0128153577825, 5148.25494864642, 0.012, 0.9540000000000001, 0.138, 192.0, 0.0, 0.0, 0.0, 0.0, 0.0, 0.0, 0.0, 0.0, 0.0, 1.6665550491144333E9, 0.0, 2022-10-23 12:57:29.114
11.0, -51852.381450221714, -78432.78538379495, 20354.392570780823, -17644.914107908502, 48753.06621230438, 26010.747374385282, -1457.087869297012, 6577.87252400786, 0.012, 0.9540000000000001, 0.138, 192.0, 0.0, 0.0, 0.0, 0.0, 0.0, 0.0, 0.0, 0.0, 0.0, 1.6665550491144464E9, 0.0, 2022-10-23 12:57:29.114
12.0, -51792.76934775941, -78377.73303720153, 20795.347785395123, -17514.17875458941, 48595.441710405554, 26145.528393450786, -1335.2038067822227, 6462.626929596297, 0.012, 0.9540000000000001, 0.138, 192.0, 0.0, 0.0, 0.0, 0.0, 0.0, 0.0, 0.0, 0.0, 0.0, 1.6665550491144588E9, 0.0, 2022-10-23 12:57:29.114
13.0, -51774.08328939477, -78353.10141481178, 18531.786624406173, -18818.850078445685, 48564.73041352397, 25076.757380575822, -2802.8864029510505, 4888.460622842386, 0.012, 0.9540000000000001, 0.138, 192.0, 0.0, 0.0, 0.0, 0.0, 0.0, 0.0, 0.0, 0.0, 0.0, 1.666555049161264E9, 0.0, 2022-10-23 12:57:29.161
14.0, -51803.78875777588, -78379.85645292478, 18249.841719846932, -18873.991832016927, 48674.09749914378, 25034.490231810836, -2833.1059614546257, 5051.114267243656, 0.012, 0.9540000000000001, 0.138, 192.0, 0.0, 0.0, 0.0, 0.0, 0.0, 0.0, 0.0, 0.0, 0.0, 1.6665550491613016E9, 0.0, 2022-10-23 12:57:29.161
15.0, -51846.234720496504, -78417.98852896554, 19910.241056709416, -17890.06804109431, 48752.55212218191, 25844.74096831572, -1706.3098199736858, 6327.197709941592, 0.012, 0.9540000000000001, 0.138, 192.0, 0.0, 0.0, 0.0, 0.0, 0.0, 0.0, 0.0, 0.0, 0.0, 1.6665550491613312E9, 0.0, 2022-10-23 12:57:29.161
16.0, -51797.28440013938, -78369.82051966435, 21052.571660586796, -17346.652429896883, 48650.42700176561, 26299.688374959038, -1124.3374495908558, 6733.865348561448, 0.012, 0.9540000000000001, 0.138, 192.0, 0.0, 0.0, 0.0, 0.0, 0.0, 0.0, 0.0, 0.0, 0.0, 1.6665550491613536E9, 0.0, 2022-10-23 12:57:29.161
17.0, -51760.314614810304, -78335.242370992, 18794.754897922863, -18691.333376328155, 48567.45732634751, 25199.26729193536, -2641.2162353058143, 5046.263938696854, 0.03, 0.9460000000000001, 0.148, 192.0, 0.0, 240.0, 29.0, 144.0, 4.0, 160.0, 0.0, 0.0, 0.0, 1.6665550491613774E9, 0.0, 2022-10-23 12:57:29.161
19.0, -51838.85864482626, -78409.69603177262, 19395.301567948052, -18189.715527262157, 48763.63858743174, 25609.958244557172, -2016.2614603354289, 6017.849566680142, 0.03, 0.9460000000000001, 0.148, 192.0, 0.0, 0.0, 0.0, 0.0, 0.0, 0.0, 0.0, 0.0, 0.0, 1.6665550491614718E9, 0.0, 2022-10-23 12:57:29.161
20.0, -51834.18713023509, -78408.89136897222, 21078.298518454852, -17316.254057437665, 48679.30545560187, 26327.762165994904, -1059.9867773040269, 6869.093402516056, 0.03, 0.9460000000000001, 0.148, 192.0, 0.0, 0.0, 0.0, 0.0, 0.0, 0.0, 0.0, 0.0, 0.0, 1.6665550491614945E9, 0.0, 2022-10-23 12:57:29.161
21.0, -51779.0230249194, -78357.66117068067, 19085.037003163936, -18538.179223320392, 48548.74891623842, 25332.595447611267, -2446.756058544643, 5258.650214511182, 0.03, 0.9460000000000001, 0.148, 192.0, 0.0, 0.0, 0.0, 0.0, 0.0, 0.0, 0.0, 0.0, 0.0, 1.6665550491615171E9, 0.0, 2022-10-23 12:57:29.161
22.0, -51806.58272583279, -78382.51631051497, 18007.973493096055, -19059.801883673892, 48652.10338259976, 24891.103791130045, -3017.440797977543, 4828.960279102359, 0.03, 0.9460000000000001, 0.148, 192.0, 0.0, 0.0, 0.0, 0.0, 0.0, 0.0, 0.0, 0.0, 0.0, 1.666555049161544E9, 0.0, 2022-10-23 12:57:29.161
23.0, -51859.19873228059, -78429.36556689329, 18925.043216352846, -18462.22799566126, 48736.36945919627, 25386.26198604846, -2308.510519088569, 5725.712266649279, 0.03, 0.9460000000000001, 0.148, 192.0, 0.0, 0.0, 0.0, 0.0, 0.0, 0.0, 0.0, 0.0, 0.0, 1.666555049161553E9, 0.0, 2022-10-23 12:57:29.161
24.0, -51862.08210731532, -78436.5628286079, 21053.44337862055, -17283.66521402183, 48723.383095667734, 26366.49773913595, -1008.756579012463, 6980.181572458932, 0.03, 0.9460000000000001, 0.148, 192.0, 0.0, 0.0, 0.0, 0.0, 0.0, 0.0, 0.0, 0.0, 0.0, 1.666555049177261E9, 0.0, 2022-10-23 12:57:29.177
25.0, -51767.020138146894, -78346.30648449737, 19546.466415699295, -18253.306240237504, 48568.686672292555, 25587.07005823494, -2120.889976130721, 5599.693131410258, 0.03, 0.9460000000000001, 0.148, 192.0, 0.0, 0.0, 0.0, 0.0, 0.0, 0.0, 0.0, 0.0, 0.0, 1.6665550492374709E9, 0.0, 2022-10-23 12:57:29.237
26.0, -51787.89666746815, -78365.26076379548, 18031.129900351752, -19047.508424223473, 48656.30551055736, 24920.585742066593, -3007.0919402947357, 4805.133319513002, 0.03, 0.9460000000000001, 0.148, 192.0, 0.0, 0.0, 0.0, 0.0, 0.0, 0.0, 0.0, 0.0, 0.0, 1.6665550492374969E9, 0.0, 2022-10-23 12:57:29.237
27.0, -51836.62347038072, -78409.4054590947, 18551.14323510447, -18674.144884842026, 48736.16829349617, 25227.832821349242, -2547.36126033798, 5471.170600792241, 0.042, 0.9460000000000001, 0.154, 192.0, 1.0, 80.0, 29.0, 144.0, 4.0, 208.0, 0.0, 0.0, 0.0, 1.66655504923752E9, 0.0, 2022-10-23 12:57:29.237
28.0, -51858.192903780095, -78429.29851165993, 20773.912462462482, -17414.668788274383, 48776.33437828236, 26267.188938521023, -1147.4044498687329, 6905.951429122857, 0.042, 0.9460000000000001, 0.154, 192.0, 0.0, 0.0, 0.0, 0.0, 0.0, 0.0, 0.0, 0.0, 0.0, 1.6665550492375448E9, 0.0, 2022-10-23 12:57:29.237
29.0, -51772.406908560624, -78352.85554562278, 19940.304153001805, -18016.33304552234, 48592.71479758201, 25796.371793314433, -1846.8352373642012, 5931.88475750503, 0.042, 0.9460000000000001, 0.154, 192.0, 0.0, 0.0, 0.0, 0.0, 0.0, 0.0, 0.0, 0.0, 0.0, 1.6665550492375746E9, 0.0, 2022-10-23 12:57:29.237
30.0, -51786.44380407856, -78361.81859514935, 18042.663400490692, -19057.76787492846, 48647.00718486395, 24932.007483483256, -3013.6186496756854, 4795.4103106749435, 0.042, 0.9460000000000001, 0.154, 192.0, 0.0, 0.0, 0.0, 0.0, 0.0, 0.0, 0.0, 0.0, 0.0, 1.666555049237596E9, 0.0, 2022-10-23 12:57:29.237
31.0, -51837.53989190339, -78407.3043951159, 18243.85145233291, -18854.63522131863, 48722.95841252308, 25099.690270386967, -2744.9953848118053, 5271.904798973179, 0.042, 0.9460000000000001, 0.154, 192.0, 0.0, 0.0, 0.0, 0.0, 0.0, 0.0, 0.0, 0.0, 0.0, 1.6665550492884855E9, 0.0, 2022-10-23 12:57:29.288
32.0, -51875.76137492197, -78442.53074437747, 20403.789926027053, -17600.344729464618, 48791.77943370098, 26140.49925094834, -1336.9248911052814, 6761.223883774744, 0.042, 0.9460000000000001, 0.154, 192.0, 0.0, 0.0, 0.0, 0.0, 0.0, 0.0, 0.0, 0.0, 0.0, 1.6665550492885103E9, 0.0, 2022-10-23 12:57:29.288
33.0, -51811.567164846325, -78382.42690353715, 20345.407169509792, -17768.60866172417, 48597.967457529005, 26021.118583812546, -1554.8320478000699, 6282.449517542067, 0.042, 0.9460000000000001, 0.154, 192.0, 0.0, 0.0, 0.0, 0.0, 0.0, 0.0, 0.0, 0.0, 0.0, 1.6665550492885256E9, 0.0, 2022-10-23 12:57:29.288
34.0, -51808.37086538922, -78381.64459248121, 18147.426026752713, -19018.741729109493, 48606.17054774411, 24980.37665848454, -2961.91906475056, 4824.177005788923, 0.042, 0.9460000000000001, 0.154, 192.0, 0.0, 0.0, 0.0, 0.0, 0.0, 0.0, 0.0, 0.0, 0.0, 1.6665550492886138E9, 0.0, 2022-10-23 12:57:29.288
35.0, -51841.898482072174, -78409.9642527061, 18028.62650497276, -18987.404583383155, 48710.195566439106, 24998.168647070965, -2894.5509069622644, 5093.739043919926, 0.042, 0.9460000000000001, 0.154, 192.0, 0.0, 0.0, 0.0, 0.0, 0.0, 0.0, 0.0, 0.0, 0.0, 1.6665550492886271E9, 0.0, 2022-10-23 12:57:29.288
36.0, -51870.06168008586, -78433.72415706208, 19925.32848421675, -17857.926232567577, 48815.76285550152, 25930.66107400192, -1618.467464264329, 6499.417900969733, 0.056, 0.9460000000000001, 0.16, 192.0, 1.0, 192.0, 29.0, 144.0, 5.0, 0.0, 0.0, 0.0, 0.0, 1.6665550492886405E9, 0.0, 2022-10-23 12:57:29.288
37.0, -51826.90046154267, -78394.13921763173, 20690.316938199634, -17528.32740882962, 48670.1412403752, 26223.133650199612, -1280.2185154221672, 6619.536175672552, 0.056, 0.9460000000000001, 0.16, 192.0, 0.0, 0.0, 0.0, 0.0, 0.0, 0.0, 0.0, 0.0, 0.0, 1.6665550492886548E9, 0.0, 2022-10-23 12:57:29.288
38.0, -51781.10173715374, -78346.99938857548, 18413.45648925978, -18854.590517829718, 48626.73415264299, 25137.196497582972, -2779.1488503395144, 4985.55660075624, 0.056, 0.9460000000000001, 0.16, 192.0, 0.0, 0.0, 0.0, 0.0, 0.0, 0.0, 0.0, 0.0, 0.0, 1.6665550492886682E9, 0.0, 2022-10-23 12:57:29.288
39.0, -51809.82372877881, -78378.78356919093, 17939.30893412935, -19028.129461780725, 48738.04584003042, 24979.259071261775, -2949.2679773888563, 5006.880164966603, 0.056, 0.9460000000000001, 0.16, 192.0, 0.0, 0.0, 0.0, 0.0, 0.0, 0.0, 0.0, 0.0, 0.0, 1.666555049288681E9, 0.0, 2022-10-23 12:57:29.288
40.0, -51870.26284578596, -78443.7153868336, 19454.019600632146, -18112.512601913524, 48813.505329311534, 25727.95310353674, -1899.7194647454578, 6214.902545798129, 0.056, 0.9460000000000001, 0.16, 192.0, 0.0, 0.0, 0.0, 0.0, 0.0, 0.0, 0.0, 0.0, 0.0, 1.6665550496946664E9, 0.0, 2022-10-23 12:57:29.694
41.0, -51843.6866216286, -78420.60368306682, 20872.1260275991, -17394.93219792035, 48715.22470894155, 26326.68928226105, -1125.075057157881, 6835.610489322006, 0.056, 0.9460000000000001, 0.16, 192.0, 0.0, 0.0, 0.0, 0.0, 0.0, 0.0, 0.0, 0.0, 0.0, 1.6665550496947408E9, 0.0, 2022-10-23 12:57:29.694
42.0, -51779.894742953154, -78355.62716193523, 18725.933876744974, -18676.581224987654, 48631.96446084553, 25286.662612755612, -2580.9335805098513, 5181.916675796113, 0.056, 0.9460000000000001, 0.16, 192.0, 0.0, 0.0, 0.0, 0.0, 0.0, 0.0, 0.0, 0.0, 0.0, 1.6665550496948073E9, 0.0, 2022-10-23 12:57:29.694
43.0, -51827.14633073167, -78401.02355492396, 17901.422727277604, -19047.30725852338, 48728.12166549226, 24972.777065369733, -2982.3709109271663, 4939.35554496712, 0.056, 0.9460000000000001, 0.16, 192.0, 0.0, 0.0, 0.0, 0.0, 0.0, 0.0, 0.0, 0.0, 0.0, 1.66655504969488E9, 0.0, 2022-10-23 12:57:29.694
44.0, -51868.742927163, -78443.40246241122, 19040.95936309807, -18329.257467896638, 48818.08743692487, 25562.30432537846, -2149.9695956670757, 5945.228748944849, 0.056, 0.9460000000000001, 0.16, 192.0, 0.0, 0.0, 0.0, 0.0, 0.0, 0.0, 0.0, 0.0, 0.0, 1.6665550496949468E9, 0.0, 2022-10-23 12:57:29.694
45.0, -51856.98590957951, -78430.63961632724, 20973.781761381837, -17282.167647143324, 48778.79307017244, 26430.066100366843, -1006.208480144558, 7002.376854703052, 0.056, 0.9460000000000001, 0.16, 192.0, 0.0, 0.0, 0.0, 0.0, 0.0, 0.0, 0.0, 0.0, 0.0, 1.666555049694963E9, 0.0, 2022-10-23 12:57:29.694
46.0, -51785.72854825599, -78362.22092654955, 19142.145710247245, -18428.02982664464, 48630.44454222257, 25499.115943803306, -2314.41137962477, 5442.940347545189, 0.05, 0.9540000000000001, 0.16, 192.0, 1.0, 144.0, 29.0, 208.0, 5.0, 0.0, 0.0, 0.0, 0.0, 1.6665550496949787E9, 0.0, 2022-10-23 12:57:29.694
47.0, -51830.70025810007, -78404.24220612553, 17894.53838998537, -19050.972944614048, 48725.86413930228, 24975.28046074873, -3005.057931549303, 4867.181762120934, 0.05, 0.9540000000000001, 0.16, 192.0, 0.0, 0.0, 0.0, 0.0, 0.0, 0.0, 0.0, 0.0, 0.0, 1.666555049694996E9, 0.0, 2022-10-23 12:57:29.694
48.0, -51875.13552607722, -78443.20129671112, 18640.997247814805, -18551.500863015757, 48797.076797136884, 25388.050125604885, -2406.9923051586516, 5651.459771568749, 0.05, 0.9540000000000001, 0.16, 192.0, 0.0, 0.0, 0.0, 0.0, 0.0, 0.0, 0.0, 0.0, 0.0, 1.666555049695012E9, 0.0, 2022-10-23 12:57:29.695
50.0, -51790.95885645853, -78364.23258355053, 19574.003764868234, -18158.892471658288, 48640.681641183095, 25740.112452520425, -2018.4966347809595, 5749.338060538538, 0.05, 0.9540000000000001, 0.16, 192.0, 0.0, 0.0, 0.0, 0.0, 0.0, 0.0, 0.0, 0.0, 0.0, 1.6665550496950278E9, 0.0, 2022-10-23 12:57:29.695
51.0, -51804.54871708736, -78372.502728999, 17899.992215632465, -19050.10122658029, 48722.57843286735, 24991.641937690012, -3018.6477921781293, 4816.890337096494, 0.05, 0.9540000000000001, 0.16, 192.0, 0.0, 0.0, 0.0, 0.0, 0.0, 0.0, 0.0, 0.0, 0.0, 1.66655504969513E9, 0.0, 2022-10-23 12:57:29.695
52.0, -51844.69245012909, -78412.17707540716, 18319.06507242502, -18717.03788245176, 48800.87659369429, 25267.931850902063, -2608.9626680568063, 5423.650792080259, 0.05, 0.9540000000000001, 0.16, 192.0, 0.0, 0.0, 0.0, 0.0, 0.0, 0.0, 0.0, 0.0, 0.0, 1.666555049695146E9, 0.0, 2022-10-23 12:57:29.695
53.0, -51869.36877600775, -78442.75426182202, 20533.698264801296, -17447.97288751279, 48847.88231228379, 26310.171343108577, -1201.138043539291, 6882.1468212779555, 0.05, 0.9540000000000001, 0.16, 192.0, 0.0, 0.0, 0.0, 0.0, 0.0, 0.0, 0.0, 0.0, 0.0, 1.6665550496951616E9, 0.0, 2022-10-23 12:57:29.695
54.0, -51787.226115134494, -78363.00323760549, 19995.401203084137, -17883.943663113554, 48666.74377521798, 25964.769836040716, -1725.3088027606968, 6086.089442502194, 0.05, 0.9540000000000001, 0.16, 192.0, 0.0, 0.0, 0.0, 0.0, 0.0, 0.0, 0.0, 0.0, 0.0, 1.6665550496951778E9, 0.0, 2022-10-23 12:57:29.695
55.0, -51797.865545495224, -78368.16649057466, 17975.69757410259, -18999.318063177834, 48707.71452280456, 25035.652522522512, -2984.762547583884, 4825.4063517339655, 0.05, 0.9540000000000001, 0.16, 192.0, 0.0, 0.0, 0.0, 0.0, 0.0, 0.0, 0.0, 0.0, 0.0, 1.6665550496951933E9, 0.0, 2022-10-23 12:57:29.695
56.0, -51853.856665355765, -78423.37529937927, 18038.0589411329, -18872.181340716048, 48775.4626602486, 25133.150831836563, -2805.6133157745976, 5207.59883017526, 0.046, 0.9500000000000001, 0.17, 192.0, 1.0, 112.0, 29.0, 176.0, 5.0, 80.0, 0.0, 0.0, 0.0, 1.6665550496952093E9, 0.0, 2022-10-23 12:57:29.695
57.0, -51883.67389245915, -78451.24792471503, 20071.330078998813, -17684.521399083307, 48858.00765252205, 26103.01537549679, -1472.8905526269143, 6646.291213785555, 0.046, 0.9500000000000001, 0.17, 192.0, 0.0, 0.0, 0.0, 0.0, 0.0, 0.0, 0.0, 0.0, 0.0, 1.6665550496952257E9, 0.0, 2022-10-23 12:57:29.695
58.0, -51815.85869978174, -78390.58529026333, 20373.07862914546, -17626.943305366436, 48703.26652565796, 26166.539033238776, -1444.7944098465932, 6432.876757726283, 0.046, 0.9500000000000001, 0.17, 192.0, 0.0, 0.0, 0.0, 0.0, 0.0, 0.0, 0.0, 0.0, 0.0, 1.6665550496952417E9, 0.0, 2022-10-23 12:57:29.695
59.0, -51790.936504714075, -78364.9478393731, 18120.469822939616, -18918.941190116548, 48686.03333068292, 25098.59503490866, -2903.2233838109237, 4887.7453670198165, 0.046, 0.9500000000000001, 0.17, 192.0, 0.0, 0.0, 0.0, 0.0, 0.0, 0.0, 0.0, 0.0, 0.0, 1.6665550496952567E9, 0.0, 2022-10-23 12:57:29.695
60.0, -51829.00152552146, -78402.4540665691, 17880.68030842308, -18952.401751566144, 48788.9184104107, 25067.72727581588, -2907.917250146538, 5079.500982701896, 0.046, 0.9500000000000001, 0.17, 192.0, 0.0, 0.0, 0.0, 0.0, 0.0, 0.0, 0.0, 0.0, 0.0, 1.6665550496952724E9, 0.0, 2022-10-23 12:57:29.695
61.0, -51867.20065679558, -78446.44229965715, 19634.532288853203, -17897.466468509017, 48880.538210933, 25938.84181247256, -1711.406017709496, 6415.017713906493, 0.046, 0.9500000000000001, 0.17, 192.0, 0.0, 0.0, 0.0, 0.0, 0.0, 0.0, 0.0, 0.0, 0.0, 1.6665550496952877E9, 0.0, 2022-10-23 12:57:29.695
62.0, -51822.29600218487, -78403.99633693651, 20654.04005694867, -17423.67654128987, 48745.26545348948, 26339.765052767405, -1212.135101811302, 6723.270621689632, 0.046, 0.9500000000000001, 0.17, 192.0, 0.0, 0.0, 0.0, 0.0, 0.0, 0.0, 0.0, 0.0, 0.0, 1.6665550496953032E9, 0.0, 2022-10-23 12:57:29.695
63.0, -51774.642083006154, -78351.67090316664, 18355.25254669816, -18786.23888328539, 48684.60281903778, 25219.0038822894, -2750.8291901146404, 5034.685735069005, 0.046, 0.9500000000000001, 0.17, 192.0, 0.0, 0.0, 0.0, 0.0, 0.0, 0.0, 0.0, 0.0, 0.0, 1.6665550496953187E9, 0.0, 2022-10-23 12:57:29.695
64.0, -51819.09970272776, -78392.39578156422, 17734.186975262997, -19042.322819509845, 48788.5160790105, 24996.581673214638, -3013.082207808758, 4959.6509289325395, 0.046, 0.9500000000000001, 0.17, 192.0, 0.0, 0.0, 0.0, 0.0, 0.0, 0.0, 0.0, 0.0, 0.0, 1.666555049695334E9, 0.0, 2022-10-23 12:57:29.695
65.0, -51879.78468892392, -78450.51031714802, 19105.64531155173, -18196.08577443192, 48864.66847236973, 25694.17961766477, -2036.3333268562947, 6102.003884554373, 0.046, 0.9500000000000001, 0.17, 192.0, 0.0, 0.0, 0.0, 0.0, 0.0, 0.0, 0.0, 0.0, 0.0, 1.6665550496953492E9, 0.0, 2022-10-23 12:57:29.695
66.0, -51854.013127566956, -78427.66683431469, 20757.081598887635, -17327.76520583215, 48783.19636383014, 26415.69392868208, -1096.0624928548925, 6910.399426269463, 0.052000000000000005, 0.9500000000000001, 0.17200000000000001, 192.0, 1.0, 160.0, 29.0, 176.0, 5.0, 96.0, 0.0, 0.0, 0.0, 1.6665550496953647E9, 0.0, 2022-10-23 12:57:29.695
67.0, -51775.491449295456, -78353.90607761218, 18680.112800611594, -18598.640692072, 48672.75639447646, 25377.07541907733, -2538.26410034467, 5253.509313286461, 0.052000000000000005, 0.9500000000000001, 0.17200000000000001, 192.0, 0.0, 0.0, 0.0, 0.0, 0.0, 0.0, 0.0, 0.0, 0.0, 1.6665550496954E9, 0.0, 2022-10-23 12:57:29.695
68.0, -51810.47192936802, -78381.93516515913, 17655.06179989121, -19094.000052690513, 48770.96995961308, 24952.258163959763, -3079.243371396467, 4870.53452378923, 0.052000000000000005, 0.9500000000000001, 0.17200000000000001, 192.0, 0.0, 0.0, 0.0, 0.0, 0.0, 0.0, 0.0, 0.0, 0.0, 1.6665550496954153E9, 0.0, 2022-10-23 12:57:29.695
69.0, -51856.98590957951, -78424.20231392412, 18652.03900957573, -18442.692571007323, 48864.22143748062, 25488.61062390931, -2318.4123418822696, 5819.477834639291, 0.052000000000000005, 0.9500000000000001, 0.17200000000000001, 192.0, 0.0, 0.0, 0.0, 0.0, 0.0, 0.0, 0.0, 0.0, 0.0, 1.6665550496954308E9, 0.0, 2022-10-23 12:57:29.695
70.0, -51857.432944468615, -78427.59977908133, 20718.703653657874, -17303.580618331507, 48842.09321046987, 26427.830925921313, -1067.8992948412056, 7008.635343150538, 0.052000000000000005, 0.9500000000000001, 0.17200000000000001, 192.0, 0.0, 0.0, 0.0, 0.0, 0.0, 0.0, 0.0, 0.0, 0.0, 1.666555049695446E9, 0.0, 2022-10-23 12:57:29.695
71.0, -51787.00259768994, -78358.68935092562, 19100.48205858255, -18338.935773245787, 48678.366682334745, 25591.786276315008, -2248.3843265037926, 5558.856494290411, 0.052000000000000005, 0.9500000000000001, 0.17200000000000001, 192.0, 0.0, 0.0, 0.0, 0.0, 0.0, 0.0, 0.0, 0.0, 0.0, 1.666555049695461E9, 0.0, 2022-10-23 12:57:29.695
72.0, -51827.39219992068, -78397.4025723222, 17683.984957216377, -19070.10603786779, 48757.290692006434, 24979.728457895337, -3060.4902577984644, 4844.651203709985, 0.052000000000000005, 0.9500000000000001, 0.17200000000000001, 192.0, 0.0, 0.0, 0.0, 0.0, 0.0, 0.0, 0.0, 0.0, 0.0, 1.666555049695486E9, 0.0, 2022-10-23 12:57:29.695
73.0, -51851.01799380994, -78418.77084002148, 18294.43345003527, -18635.252849489792, 48853.93963503118, 25333.400110411658, -2539.135818378427, 5564.667947848791, 0.052000000000000005, 0.9500000000000001, 0.17200000000000001, 192.0, 0.0, 0.0, 0.0, 0.0, 0.0, 0.0, 0.0, 0.0, 0.0, 1.6665550496954963E9, 0.0, 2022-10-23 12:57:29.695
74.0, -51872.14039232021, -78440.45203214312, 20542.63896258342, -17356.1966247793, 48897.30201927448, 26387.9777655575, -1127.6678595146966, 6989.971636530357, 0.052000000000000005, 0.9500000000000001, 0.17200000000000001, 192.0, 0.0, 0.0, 0.0, 0.0, 0.0, 0.0, 0.0, 0.0, 0.0, 1.6665550496955073E9, 0.0, 2022-10-23 12:57:29.695
75.0, -51798.491394339966, -78371.4969004985, 19597.8754279465, -18018.14353682322, 48708.25096467149, 25868.2550034827, -1896.6349240106256, 5938.500873863802, 0.046, 0.9380000000000001, 0.17200000000000001, 192.0, 1.0, 112.0, 29.0, 80.0, 5.0, 96.0, 0.0, 0.0, 0.0, 1.666555049695518E9, 0.0, 2022-10-23 12:57:29.695
76.0, -51812.99767649146, -78384.03622913793, 17780.14216186311, -19009.398699927176, 48758.54238969593, 25044.52616507127, -3004.6779518935623, 4860.655052739984, 0.046, 0.9380000000000001, 0.17200000000000001, 192.0, 0.0, 0.0, 0.0, 0.0, 0.0, 0.0, 0.0, 0.0, 0.0, 1.6665550496955292E9, 0.0, 2022-10-23 12:57:29.695
77.0, -51843.530159417416, -78412.91468297418, 18061.684735022158, -18755.080551514693, 48850.765687318526, 25251.928001872064, -2684.355102104557, 5377.583846757871, 0.046, 0.9380000000000001, 0.17200000000000001, 192.0, 0.0, 0.0, 0.0, 0.0, 0.0, 0.0, 0.0, 0.0, 0.0, 1.6665550496955402E9, 0.0, 2022-10-23 12:57:29.695
78.0, -51883.36096803677, -78452.18669798216, 20239.929287425195, -17493.83866713508, 48915.76456019456, 26284.19861605151, -1279.458556110687, 6846.160512704911, 0.046, 0.9380000000000001, 0.17200000000000001, 192.0, 0.0, 0.0, 0.0, 0.0, 0.0, 0.0, 0.0, 0.0, 0.0, 1.666555049695551E9, 0.0, 2022-10-23 12:57:29.695
79.0, -51814.51759511443, -78387.09841812831, 20051.615840389233, -17727.593210648683, 48728.635755614734, 26108.491552888343, -1574.9486178098462, 6275.833401183296, 0.046, 0.9380000000000001, 0.17200000000000001, 192.0, 0.0, 0.0, 0.0, 0.0, 0.0, 0.0, 0.0, 0.0, 0.0, 1.6665550496955614E9, 0.0, 2022-10-23 12:57:29.695
80.0, -51801.218307163515, -78364.992542862, 17944.94157373209, -18909.575809189773, 48746.65126164571, 25132.703796947455, -2908.4760437579207, 4898.4295008694535, 0.046, 0.9380000000000001, 0.17200000000000001, 192.0, 0.0, 0.0, 0.0, 0.0, 0.0, 0.0, 0.0, 0.0, 0.0, 1.666555049695572E9, 0.0, 2022-10-23 12:57:29.695
81.0, -51834.54475814638, -78391.16643561918, 17868.05157280583, -18864.73820981243, 48848.15053321726, 25155.971962925432, -2825.573423573187, 5185.515306653418, 0.046, 0.9380000000000001, 0.17200000000000001, 192.0, 0.0, 0.0, 0.0, 0.0, 0.0, 0.0, 0.0, 0.0, 0.0, 1.6665550496955826E9, 0.0, 2022-10-23 12:57:29.695
82.0, -51892.726348963544, -78456.27706721748, 19815.64847417456, -17715.299751198265, 48925.91225217727, 26095.281671915254, -1530.0663149435898, 6598.883163795849, 0.046, 0.9380000000000001, 0.17200000000000001, 192.0, 0.0, 0.0, 0.0, 0.0, 0.0, 0.0, 0.0, 0.0, 0.0, 1.666555049695604E9, 0.0, 2022-10-23 12:57:29.695
83.0, -51840.579729149315, -78413.02644169646, 20445.341818969468, -17463.149721997943, 48771.618160202284, 26317.100383889723, -1285.6052858358962, 6608.270896467077, 0.046, 0.9380000000000001, 0.17200000000000001, 192.0, 0.0, 0.0, 0.0, 0.0, 0.0, 0.0, 0.0, 0.0, 0.0, 1.6665550496956143E9, 0.0, 2022-10-23 12:57:29.695
84.0, -51797.82084200631, -78368.68058069714, 18195.45992558717, -18759.729714361398, 48748.26058724649, 25253.023237350375, -2757.221789028858, 5012.065769680235, 0.046, 0.9380000000000001, 0.17200000000000001, 192.0, 0.0, 0.0, 0.0, 0.0, 0.0, 0.0, 0.0, 0.0, 0.0, 1.6665550496956248E9, 0.0, 2022-10-23 12:57:29.695
85.0, -51839.93152856011, -78407.88554047175, 17811.9039907341, -18876.27170995137, 48846.69766982766, 25146.65128548757, -2865.337176959178, 5089.067529328768, 0.054, 0.9380000000000001, 0.17, 192.0, 1.0, 176.0, 29.0, 80.0, 5.0, 80.0, 0.0, 0.0, 0.0, 1.6665550496956356E9, 0.0, 2022-10-23 12:57:29.695
86.0, -51881.52812499143, -78448.49866014703, 19413.250018745664, -17904.909599412633, 48948.30870012149, 25944.429748586386, -1762.6809194899702, 6340.429942659133, 0.054, 0.9380000000000001, 0.17, 192.0, 0.0, 0.0, 0.0, 0.0, 0.0, 0.0, 0.0, 0.0, 0.0, 1.6665550496956472E9, 0.0, 2022-10-23 12:57:29.695
87.0, -51840.35621170476, -78408.01965093847, 20776.68407877494, -17204.137707249847, 48852.88910304179, 26542.9647616106, -1016.8255587608289, 6908.119548335022, 0.054, 0.9380000000000001, 0.17, 192.0, 0.0, 0.0, 0.0, 0.0, 0.0, 0.0, 0.0, 0.0, 0.0, 1.666555049695658E9, 0.0, 2022-10-23 12:57:29.695
88.0, -51786.44380407856, -78356.09654856879, 18567.39295332348, -18527.517441215212, 48745.51132267849, 25464.358981175305, -2518.5722134795446, 5208.537603442383, 0.054, 0.9380000000000001, 0.17, 192.0, 0.0, 0.0, 0.0, 0.0, 0.0, 0.0, 0.0, 0.0, 0.0, 1.6665550496956685E9, 0.0, 2022-10-23 12:57:29.695
89.0, -51833.985964535, -78401.04590666841, 17797.263598115875, -18871.823712804762, 48842.8308180369, 25171.238204388406, -2889.789985393284, 4994.452595049453, 0.054, 0.9380000000000001, 0.17, 192.0, 0.0, 0.0, 0.0, 0.0, 0.0, 0.0, 0.0, 0.0, 0.0, 1.666555049695679E9, 0.0, 2022-10-23 12:57:29.695
90.0, -51871.827467897834, -78435.44524138514, 19011.790336583894, -18113.16080250273, 48932.841292958416, 25794.941281669293, -2015.7697219574122, 6037.0050116783395, 0.054, 0.9380000000000001, 0.17, 192.0, 0.0, 0.0, 0.0, 0.0, 0.0, 0.0, 0.0, 0.0, 0.0, 1.66655504969569E9, 0.0, 2022-10-23 12:57:29.695
91.0, -51867.51358121796, -78433.97002625109, 20867.23099556339, -17112.450851494177, 48881.029949311014, 26625.152125972763, -930.0560867853269, 7013.597430419616, 0.054, 0.9380000000000001, 0.17, 192.0, 0.0, 0.0, 0.0, 0.0, 0.0, 0.0, 0.0, 0.0, 0.0, 1.6665550496957011E9, 0.0, 2022-10-23 12:57:29.695
92.0, -51798.290228639875, -78369.5522987309, 18977.770981522917, -18281.29062429555, 48735.38598244023, 25682.243786125637, -2261.4600970101474, 5429.17167296072, 0.054, 0.9380000000000001, 0.17, 192.0, 0.0, 0.0, 0.0, 0.0, 0.0, 0.0, 0.0, 0.0, 0.0, 1.6665550496957119E9, 0.0, 2022-10-23 12:57:29.695
93.0, -51838.143389003686, -78408.9584242056, 17808.28300813234, -18868.336840669734, 48827.78809401848, 25188.18082668553, -2908.274878057823, 4908.01839924078, 0.054, 0.9380000000000001, 0.17, 192.0, 0.0, 0.0, 0.0, 0.0, 0.0, 0.0, 0.0, 0.0, 0.0, 1.6665550496957223E9, 0.0, 2022-10-23 12:57:29.695
94.0, -51881.952808136084, -78447.7163490911, 18653.603631687598, -18309.677339753787, 48916.50216776159, 25652.672428211266, -2247.5573119589462, 5750.120371594474, 0.054, 0.9380000000000001, 0.17, 192.0, 0.0, 0.0, 0.0, 0.0, 0.0, 0.0, 0.0, 0.0, 0.0, 1.6665550496957343E9, 0.0, 2022-10-23 12:57:29.695
95.0, -51883.4950785035, -78452.29845670443, 20802.83561978765, -17119.91633414225, 48906.2427170566, 26631.142393486785, -939.1755985230922, 7023.007514835301, 0.05, 0.9460000000000001, 0.176, 192.0, 1.0, 144.0, 29.0, 144.0, 5.0, 128.0, 0.0, 0.0, 0.0, 1.6665550496957448E9, 0.0, 2022-10-23 12:57:29.695
96.0, -51816.171624204115, -78383.76800820447, 19422.45893746125, -18031.42047302967, 48735.81066558488, 25897.804009652617, -1984.5443349533482, 5706.422711184348, 0.05, 0.9460000000000001, 0.176, 192.0, 0.0, 0.0, 0.0, 0.0, 0.0, 0.0, 0.0, 0.0, 0.0, 1.6665550496957564E9, 0.0, 2022-10-23 12:57:29.695
97.0, -51849.1404472757, -78413.67464228567, 17840.022485258876, -18872.74013432743, 48803.312933839916, 25194.37225989965, -2922.691753231496, 4849.680346212429, 0.05, 0.9460000000000001, 0.176, 192.0, 0.0, 0.0, 0.0, 0.0, 0.0, 0.0, 0.0, 0.0, 0.0, 1.6665550496957667E9, 0.0, 2022-10-23 12:57:29.695
98.0, -51880.23172381303, -78444.87767754527, 18329.011598707628, -18505.679786882378, 48900.274801287036, 25495.114981545805, -2477.8026315930642, 5495.0422638705095, 0.05, 0.9460000000000001, 0.176, 192.0, 0.0, 0.0, 0.0, 0.0, 0.0, 0.0, 0.0, 0.0, 0.0, 1.6665550496957877E9, 0.0, 2022-10-23 12:57:29.695
99.0, -51897.1519943657, -78461.46267193112, 20557.368762179467, -17237.46415823271, 48950.14154316683, 26531.945351594135, -1075.0965565558145, 6937.892071949491, 0.05, 0.9460000000000001, 0.176, 192.0, 0.0, 0.0, 0.0, 0.0, 0.0, 0.0, 0.0, 0.0, 0.0, 1.6665550496957989E9, 0.0, 2022-10-23 12:57:29.695
100.0, -51816.10456897075, -78383.81271169338, 19898.238169936918, -17738.634972409604, 48778.971884128085, 26140.07456780369, -1668.4906683553063, 6072.924265018019, 0.05, 0.9460000000000001, 0.176, 192.0, 0.0, 0.0, 0.0, 0.0, 0.0, 0.0, 0.0, 0.0, 0.0, 1.6665550496958103E9, 0.0, 2022-10-23 12:57:29.695
101.0, -51815.612830592734, -78377.08483661232, 17968.36620192125, -18801.52747649282, 48817.30512586894, 25262.85800491071, -2862.409098435533, 4889.466451342875, 0.05, 0.9460000000000001, 0.176, 192.0, 0.0, 0.0, 0.0, 0.0, 0.0, 0.0, 0.0, 0.0, 0.0, 1.6665550496958215E9, 0.0, 2022-10-23 12:57:29.695
102.0, -51843.8877873287, -78407.61731953827, 18122.570886918413, -18623.853459817587, 48903.22523155514, 25406.177390358138, -2626.039400820661, 5325.772503110469, 0.05, 0.9460000000000001, 0.176, 192.0, 0.0, 0.0, 0.0, 0.0, 0.0, 0.0, 0.0, 0.0, 0.0, 1.666555049695832E9, 0.0, 2022-10-23 12:57:29.695
103.0, -51890.26765707346, -78457.4170061847, 20235.280124578494, -17391.937064163336, 48972.202714944215, 26416.52094322693, -1252.3458900863993, 6785.341416042021, 0.05, 0.9460000000000001, 0.176, 192.0, 0.0, 0.0, 0.0, 0.0, 0.0, 0.0, 0.0, 0.0, 0.0, 1.6665550496958427E9, 0.0, 2022-10-23 12:57:29.695
104.0, -51840.289156471394, -78406.18680789314, 20364.137931363337, -17445.0671607336, 48803.268230351, 26388.715373124527, -1346.6702516877951, 6432.9885164485595, 0.048, 0.9460000000000001, 0.17, 192.0, 1.0, 128.0, 29.0, 144.0, 5.0, 80.0, 0.0, 0.0, 0.0, 1.6665550496958535E9, 0.0, 2022-10-23 12:57:29.695
105.0, -51823.6818103411, -78386.69608672812, 18158.35602979136, -18706.197286390936, 48809.034980420474, 25350.58860189779, -2767.2353705448354, 4944.831722358671, 0.048, 0.9460000000000001, 0.17, 192.0, 0.0, 0.0, 0.0, 0.0, 0.0, 0.0, 0.0, 0.0, 0.0, 1.666555049695865E9, 0.0, 2022-10-23 12:57:29.695
106.0, -51860.428078225625, -78420.84955225582, 17974.825856068834, -18720.167126675504, 48897.592591952394, 25336.886982546686, -2750.4492104589, 5160.97309124149, 0.048, 0.9460000000000001, 0.17, 192.0, 0.0, 0.0, 0.0, 0.0, 0.0, 0.0, 0.0, 0.0, 0.0, 1.6665550496958756E9, 0.0, 2022-10-23 12:57:29.695
107.0, -51900.79532871191, -78457.77463409599, 19813.77092764031, -17620.796575641227, 48991.916953553795, 26242.356150431177, -1512.1625676348888, 6525.77060768254, 0.048, 0.9460000000000001, 0.17, 192.0, 0.0, 0.0, 0.0, 0.0, 0.0, 0.0, 0.0, 0.0, 0.0, 1.666555049695886E9, 0.0, 2022-10-23 12:57:29.695
108.0, -51846.860569341254, -78408.64549978322, 20709.025348308725, -17222.957876081215, 48854.833704809396, 26579.375753328295, -1101.2480975685237, 6724.969354268236, 0.048, 0.9460000000000001, 0.17, 192.0, 0.0, 0.0, 0.0, 0.0, 0.0, 0.0, 0.0, 0.0, 0.0, 1.6665550496958969E9, 0.0, 2022-10-23 12:57:29.695
109.0, -51812.41653113563, -78379.0517901244, 18407.175649067838, -18586.39193611049, 48790.37127380029, 25457.8099200499, -2640.545682972155, 5044.699316584983, 0.048, 0.9460000000000001, 0.17, 192.0, 0.0, 0.0, 0.0, 0.0, 0.0, 0.0, 0.0, 0.0, 0.0, 1.6665550496959076E9, 0.0, 2022-10-23 12:57:29.695
110.0, -51841.5855576498, -78408.39963059421, 17897.131192342185, -18768.871577843616, 48908.61200196887, 25298.77725825039, -2828.255632907824, 5040.966575260946, 0.048, 0.9460000000000001, 0.17, 192.0, 0.0, 0.0, 0.0, 0.0, 0.0, 0.0, 0.0, 0.0, 0.0, 1.6665550496959188E9, 0.0, 2022-10-23 12:57:29.695
111.0, -51889.95473265109, -78457.21584048461, 19367.607756567926, -17868.63271816167, 48983.71386333869, 26043.559735245675, -1800.9694577419114, 6222.792711590852, 0.048, 0.9460000000000001, 0.17, 192.0, 0.0, 0.0, 0.0, 0.0, 0.0, 0.0, 0.0, 0.0, 0.0, 1.6665550496959295E9, 0.0, 2022-10-23 12:57:29.695
112.0, -51856.5388746904, -78429.27615991548, 20906.301844871265, -17078.833827833394, 48898.084330330414, 26699.918711175767, -953.1901422965697, 6928.392580555986, 0.048, 0.9460000000000001, 0.17, 192.0, 0.0, 0.0, 0.0, 0.0, 0.0, 0.0, 0.0, 0.0, 0.0, 1.6665550496959407E9, 0.0, 2022-10-23 12:57:29.695
113.0, -51787.360225601224, -78358.6446474367, 18788.943444364482, -18365.579052636513, 48793.47816627958, 25654.013532878584, -2413.787235473065, 5260.214836623053, 0.048, 0.9460000000000001, 0.17, 192.0, 0.0, 0.0, 0.0, 0.0, 0.0, 0.0, 0.0, 0.0, 0.0, 1.666555049695968E9, 0.0, 2022-10-23 12:57:29.695
114.0, -51825.335839430794, -78388.32776407334, 17883.362517757716, -18785.68008967401, 48902.8899553883, 25302.308833874326, -2870.8804095840947, 4957.7733823982935, 0.046, 0.9440000000000001, 0.17200000000000001, 192.0, 1.0, 112.0, 29.0, 128.0, 5.0, 96.0, 0.0, 0.0, 0.0, 1.6665550496959789E9, 0.0, 2022-10-23 12:57:29.695
115.0, -51880.432889513126, -78440.07205248739, 18933.2686583124, -18119.73221537259, 48988.31832269649, 25847.11025322798, -2095.900725829688, 5916.037370686218, 0.046, 0.9440000000000001, 0.17200000000000001, 192.0, 0.0, 0.0, 0.0, 0.0, 0.0, 0.0, 0.0, 0.0, 0.0, 1.6665550496959941E9, 0.0, 2022-10-23 12:57:29.695
116.0, -51878.10830808977, -78438.10509897531, 20927.290132914797, -17032.49866157754, 48956.64590080332, 26743.236391930153, -908.956040019517, 7036.798541164225, 0.046, 0.9440000000000001, 0.17200000000000001, 192.0, 0.0, 0.0, 0.0, 0.0, 0.0, 0.0, 0.0, 0.0, 0.0, 1.666555049696005E9, 0.0, 2022-10-23 12:57:29.696
117.0, -51817.04334223788, -78376.03430462292, 19233.162013669255, -18102.029633763985, 48790.19245984465, 25889.176236292868, -2126.477912244548, 5561.561055369503, 0.046, 0.9440000000000001, 0.17200000000000001, 192.0, 0.0, 0.0, 0.0, 0.0, 0.0, 0.0, 0.0, 0.0, 0.0, 1.666555049696016E9, 0.0, 2022-10-23 12:57:29.696
118.0, -51817.40097014916, -78379.29765931341, 17931.41876833663, -18757.51689166032, 48897.592591952394, 25348.06285477434, -2854.3401186871674, 4939.5790624116735, 0.046, 0.9440000000000001, 0.17200000000000001, 192.0, 0.0, 0.0, 0.0, 0.0, 0.0, 0.0, 0.0, 0.0, 0.0, 1.6665550496960273E9, 0.0, 2022-10-23 12:57:29.696
119.0, -51858.483476458016, -78422.34711913433, 18606.709671820365, -18298.501467526134, 48980.62932260386, 25726.14261223586, -2302.654362041278, 5677.857181770466, 0.046, 0.9440000000000001, 0.17200000000000001, 192.0, 0.0, 0.0, 0.0, 0.0, 0.0, 0.0, 0.0, 0.0, 0.0, 1.6665550496960397E9, 0.0, 2022-10-23 12:57:29.696
120.0, -51888.21129658357, -78456.7688055955, 20830.954114312426, -17048.726028052097, 48984.47382265018, 26760.268421205095, -922.1659209926034, 7048.980241892367, 0.046, 0.9440000000000001, 0.17200000000000001, 192.0, 0.0, 0.0, 0.0, 0.0, 0.0, 0.0, 0.0, 0.0, 0.0, 1.6665550496960506E9, 0.0, 2022-10-23 12:57:29.696
121.0, -51816.88688002669, -78390.16060711868, 19725.503888786305, -17810.182906411042, 48790.88536392276, 26161.442835502963, -1798.3543036406404, 5884.722576704333, 0.046, 0.9440000000000001, 0.17200000000000001, 192.0, 0.0, 0.0, 0.0, 0.0, 0.0, 0.0, 0.0, 0.0, 0.0, 1.6665550496960614E9, 0.0, 2022-10-23 12:57:29.696
122.0, -51830.49909239997, -78397.71549674458, 17985.46528642956, -18758.500368416353, 48860.66751011223, 25376.158997554663, -2857.6705286110077, 4874.177858135446, 0.046, 0.9440000000000001, 0.17200000000000001, 192.0, 0.0, 0.0, 0.0, 0.0, 0.0, 0.0, 0.0, 0.0, 0.0, 1.6665550496960733E9, 0.0, 2022-10-23 12:57:29.696
123.0, -51854.415458967145, -78418.43556385465, 18317.276932868594, -18489.675937852375, 48962.43500261725, 25595.451962405677, -2518.9521931352847, 5418.800463533457, 0.046, 0.9440000000000001, 0.17200000000000001, 192.0, 0.0, 0.0, 0.0, 0.0, 0.0, 0.0, 0.0, 0.0, 0.0, 1.6665550496960843E9, 0.0, 2022-10-23 12:57:29.696
124.0, -51899.878907189246, -78465.53068942198, 20524.28818038561, -17225.30480924902, 49012.63702066386, 26636.149184244776, -1111.2840308289565, 6888.204144025343, 0.04, 0.9480000000000001, 0.166, 192.0, 1.0, 64.0, 29.0, 160.0, 5.0, 48.0, 0.0, 0.0, 0.0, 1.6665550496960948E9, 0.0, 2022-10-23 12:57:29.696
125.0, -51822.49716788497, -78397.31316534439, 20178.014955283994, -17558.926946988937, 48828.72686728559, 26383.865044577724, -1511.8049397236039, 6216.534223143366, 0.04, 0.9480000000000001, 0.166, 192.0, 0.0, 0.0, 0.0, 0.0, 0.0, 0.0, 0.0, 0.0, 0.0, 1.666555049696106E9, 0.0, 2022-10-23 12:57:29.696
126.0, -51817.579784104804, -78393.13338913124, 18131.466881211625, -18705.437327079457, 48869.00471079406, 25442.23075416455, -2797.566687770687, 4908.308971918699, 0.04, 0.9480000000000001, 0.166, 192.0, 0.0, 0.0, 0.0, 0.0, 0.0, 0.0, 0.0, 0.0, 0.0, 1.6665550496961167E9, 0.0, 2022-10-23 12:57:29.696
127.0, -51863.445563727095, -78432.33834890585, 18145.235555796095, -18612.431718400923, 48951.236778645136, 25513.599874210344, -2654.940206401373, 5249.217778351042, 0.04, 0.9480000000000001, 0.166, 192.0, 0.0, 0.0, 0.0, 0.0, 0.0, 0.0, 0.0, 0.0, 0.0, 1.6665550496961277E9, 0.0, 2022-10-23 12:57:29.696
128.0, -51916.39684634171, -78480.9757448406, 20144.375579878757, -17449.291640435655, 49017.912032355314, 26466.05240893989, -1345.5750162094853, 6666.765411706617, 0.04, 0.9480000000000001, 0.166, 192.0, 0.0, 0.0, 0.0, 0.0, 0.0, 0.0, 0.0, 0.0, 0.0, 1.666555049696139E9, 0.0, 2022-10-23 12:57:29.696
129.0, -51847.240548997, -78414.05462194141, 20610.543562238643, -17303.22299042022, 48877.476021942624, 26608.947111242665, -1211.710418666651, 6562.382765100332, 0.04, 0.9480000000000001, 0.166, 192.0, 0.0, 0.0, 0.0, 0.0, 0.0, 0.0, 0.0, 0.0, 0.0, 1.6665550496961627E9, 0.0, 2022-10-23 12:57:29.696
130.0, -51801.53123158589, -78367.87591789674, 18358.940584533284, -18609.771860810743, 48861.20395197916, 25540.66783674572, -2677.515468301233, 5001.381635830598, 0.04, 0.9480000000000001, 0.166, 192.0, 0.0, 0.0, 0.0, 0.0, 0.0, 0.0, 0.0, 0.0, 0.0, 1.666555049696174E9, 0.0, 2022-10-23 12:57:29.696
131.0, -51840.445618682585, -78402.94580494711, 18025.18433632664, -18717.507269085323, 48957.517618837075, 25444.488280354533, -2761.803896642196, 5119.4882535324405, 0.04, 0.9480000000000001, 0.166, 192.0, 0.0, 0.0, 0.0, 0.0, 0.0, 0.0, 0.0, 0.0, 0.0, 1.6665550496961849E9, 0.0, 2022-10-23 12:57:29.696
132.0, -51899.789500211424, -78463.40727369873, 19715.37854854805, -17701.888704525078, 49040.39788727735, 26284.310374773788, -1606.4422257473739, 6415.531804028965, 0.04, 0.9480000000000001, 0.166, 192.0, 0.0, 0.0, 0.0, 0.0, 0.0, 0.0, 0.0, 0.0, 0.0, 1.666555049696196E9, 0.0, 2022-10-23 12:57:29.696
133.0, -51856.941206090596, -78424.80581102442, 20866.024001362803, -17157.131988660334, 48903.135824577315, 26742.744653552134, -1025.0733524648372, 6811.671771010372, 0.04, 0.9480000000000001, 0.166, 192.0, 0.0, 0.0, 0.0, 0.0, 0.0, 0.0, 0.0, 0.0, 0.0, 1.666555049696207E9, 0.0, 2022-10-23 12:57:29.696
134.0, -51811.45540612405, -78379.9011564137, 18603.66983457444, -18514.195801519847, 48827.40811436273, 25637.048558837007, -2550.0881731615273, 5120.471730288474, 0.04, 0.9400000000000001, 0.178, 192.0, 1.0, 64.0, 29.0, 96.0, 5.0, 144.0, 0.0, 0.0, 0.0, 1.6665550496962175E9, 0.0, 2022-10-23 12:57:29.696
135.0, -51860.89746485919, -78430.7066715606, 17935.576192805314, -18798.174714824523, 48930.114380134866, 25401.26000657797, -2843.924205770994, 5002.856850964648, 0.04, 0.9400000000000001, 0.178, 192.0, 0.0, 0.0, 0.0, 0.0, 0.0, 0.0, 0.0, 0.0, 0.0, 1.6665550496962292E9, 0.0, 2022-10-23 12:57:29.696
136.0, -51893.24043908602, -78459.96510505262, 19248.13768245431, -17984.973548051545, 49036.77690467559, 26079.54604381872, -1904.8827177146338, 6110.654009658577, 0.04, 0.9400000000000001, 0.178, 192.0, 0.0, 0.0, 0.0, 0.0, 0.0, 0.0, 0.0, 0.0, 0.0, 1.6665550496962435E9, 0.0, 2022-10-23 12:57:29.696
137.0, -51879.6952819461, -78443.7153868336, 21035.9643144565, -17028.765920253507, 48980.808136559506, 26886.42166691085, -866.5100772988889, 7029.91420387199, 0.04, 0.9400000000000001, 0.178, 192.0, 0.0, 0.0, 0.0, 0.0, 0.0, 0.0, 0.0, 0.0, 0.0, 1.6665550496962543E9, 0.0, 2022-10-23 12:57:29.696
138.0, -51816.68571432659, -78381.66694422567, 19076.766857715473, -18239.69402786422, 48838.13695170128, 25916.42301278389, -2238.504855454547, 5417.235841421586, 0.04, 0.9400000000000001, 0.178, 192.0, 0.0, 0.0, 0.0, 0.0, 0.0, 0.0, 0.0, 0.0, 0.0, 1.6665550496962657E9, 0.0, 2022-10-23 12:57:29.696
139.0, -51851.50973218796, -78415.44043009763, 17968.679126343624, -18800.901627648072, 48929.04149640101, 25442.18605067564, -2850.383859918578, 4939.534358922763, 0.04, 0.9400000000000001, 0.178, 192.0, 0.0, 0.0, 0.0, 0.0, 0.0, 0.0, 0.0, 0.0, 0.0, 1.666555049696276E9, 0.0, 2022-10-23 12:57:29.696
140.0, -51889.70886346208, -78454.71244510562, 18886.3076432118, -18204.13240243583, 49035.189930819266, 25938.059501416625, -2148.248511344017, 5829.402009177448, 0.04, 0.9400000000000001, 0.178, 192.0, 0.0, 0.0, 0.0, 0.0, 0.0, 0.0, 0.0, 0.0, 0.0, 1.666555049696287E9, 0.0, 2022-10-23 12:57:29.696
141.0, -51900.81768045636, -78463.45197718764, 20994.457125002995, -17043.42866461619, 49011.02769506308, 26895.65293737089, -874.668464025076, 7058.211512352409, 0.04, 0.9400000000000001, 0.178, 192.0, 0.0, 0.0, 0.0, 0.0, 0.0, 0.0, 0.0, 0.0, 0.0, 1.6665550496962986E9, 0.0, 2022-10-23 12:57:29.696
142.0, -51831.08023775581, -78398.4531043116, 19497.896074997912, -18022.345664780816, 48839.81333253543, 26111.844314556638, -1988.5676489553034, 5675.063213713553, 0.04, 0.9400000000000001, 0.178, 192.0, 0.0, 0.0, 0.0, 0.0, 0.0, 0.0, 0.0, 0.0, 0.0, 1.6665550496963096E9, 0.0, 2022-10-23 12:57:29.696
143.0, -51843.664269884146, -78412.1100201738, 18041.61286850129, -18778.639290170588, 48940.820865728965, 25489.437638454157, -2828.546205585743, 4921.4965011473305, 0.044, 0.9420000000000001, 0.18, 192.0, 1.0, 96.0, 29.0, 112.0, 5.0, 160.0, 0.0, 0.0, 0.0, 1.6665550496963203E9, 0.0, 2022-10-23 12:57:29.696
144.0, -51878.041252856405, -78443.60362811132, 18583.240340142293, -18396.089183818007, 49017.80027363304, 25804.284310851614, -2359.338385979937, 5585.34331146995, 0.044, 0.9420000000000001, 0.18, 192.0, 0.0, 0.0, 0.0, 0.0, 0.0, 0.0, 0.0, 0.0, 0.0, 1.6665550496963446E9, 0.0, 2022-10-23 12:57:29.696
145.0, -51911.72533175055, -78477.19830002765, 20793.246721416323, -17157.73548576063, 49033.46884649621, 26819.679357967303, -982.5603345108432, 6991.5586103866835, 0.044, 0.9420000000000001, 0.18, 192.0, 0.0, 0.0, 0.0, 0.0, 0.0, 0.0, 0.0, 0.0, 0.0, 1.666555049696355E9, 0.0, 2022-10-23 12:57:29.696
146.0, -51831.54962438937, -78402.29760435791, 19963.95229863552, -17766.99933612339, 48854.677242598205, 26341.26261964591, -1687.3778924200408, 6015.994371890351, 0.044, 0.9420000000000001, 0.18, 192.0, 0.0, 0.0, 0.0, 0.0, 0.0, 0.0, 0.0, 0.0, 0.0, 1.666555049696366E9, 0.0, 2022-10-23 12:57:29.696
147.0, -51832.2872319564, -78398.0507729114, 18108.623398378302, -18782.19321753898, 48926.11341787737, 25505.32972876188, -2823.338249127656, 4907.97369575187, 0.044, 0.9420000000000001, 0.18, 192.0, 0.0, 0.0, 0.0, 0.0, 0.0, 0.0, 0.0, 0.0, 0.0, 1.6665550496963766E9, 0.0, 2022-10-23 12:57:29.696
148.0, -51880.07526160184, -78440.25086644302, 18318.215706135717, -18582.413325597445, 49001.70701762522, 25671.045562153526, -2556.950158709307, 5374.25343683403, 0.044, 0.9420000000000001, 0.18, 192.0, 0.0, 0.0, 0.0, 0.0, 0.0, 0.0, 0.0, 0.0, 0.0, 1.6665550496963873E9, 0.0, 2022-10-23 12:57:29.696
149.0, -51917.492081820026, -78480.5734134404, 20475.62843270641, -17331.09561575599, 49072.80791673755, 26703.18206586624, -1158.3568046518333, 6846.5181406161955, 0.044, 0.9420000000000001, 0.18, 192.0, 0.0, 0.0, 0.0, 0.0, 0.0, 0.0, 0.0, 0.0, 0.0, 1.6665550496963978E9, 0.0, 2022-10-23 12:57:29.696
150.0, -51850.705069387564, -78421.27423540047, 20430.679074606785, -17496.543228214174, 48881.56639117794, 26591.043363933964, -1368.5526095095408, 6372.97408258606, 0.044, 0.9420000000000001, 0.18, 192.0, 0.0, 0.0, 0.0, 0.0, 0.0, 0.0, 0.0, 0.0, 0.0, 1.6665550496964085E9, 0.0, 2022-10-23 12:57:29.696
151.0, -51836.35524944726, -78407.3043951159, 18255.98844957214, -18745.96103977693, 48878.303036487465, 25567.601688814368, -2764.776678654752, 4924.625745371073, 0.044, 0.9420000000000001, 0.18, 192.0, 0.0, 0.0, 0.0, 0.0, 0.0, 0.0, 0.0, 0.0, 0.0, 1.666555049696419E9, 0.0, 2022-10-23 12:57:29.696
152.0, -51873.7944214099, -78442.70955833311, 18134.841994624378, -18729.37604539109, 48973.096784722424, 25579.090485464396, -2708.159709949459, 5182.45311766304, 0.044, 0.9420000000000001, 0.18, 192.0, 0.0, 0.0, 0.0, 0.0, 0.0, 0.0, 0.0, 0.0, 0.0, 1.6665550496964295E9, 0.0, 2022-10-23 12:57:29.696
153.0, -51905.91387819217, -78473.86789010381, 20036.5284128819, -17599.80828759769, 49074.23842838269, 26514.9580258081, -1431.9198050403363, 6583.438108377231, 0.042, 0.9380000000000001, 0.17400000000000002, 192.0, 1.0, 80.0, 29.0, 80.0, 5.0, 112.0, 0.0, 0.0, 0.0, 1.66655504969644E9, 0.0, 2022-10-23 12:57:29.696
154.0, -51833.49422615698, -78401.3588310908, 20787.2564539023, -17285.52040881162, 48956.24356940312, 26789.482151208183, -1113.0274668964705, 6689.631246284395, 0.042, 0.9380000000000001, 0.17400000000000002, 192.0, 0.0, 0.0, 0.0, 0.0, 0.0, 0.0, 0.0, 0.0, 0.0, 1.6665550496964514E9, 0.0, 2022-10-23 12:57:29.696
155.0, -51826.72164758702, -78396.88848219973, 18528.791490649164, -18609.101308477082, 48892.921077361236, 25716.531362120077, -2599.999618530228, 5069.465049441463, 0.042, 0.9380000000000001, 0.17400000000000002, 192.0, 0.0, 0.0, 0.0, 0.0, 0.0, 0.0, 0.0, 0.0, 0.0, 1.666555049696462E9, 0.0, 2022-10-23 12:57:29.696
156.0, -51869.726403919034, -78436.60753209681, 18048.94424068263, -18802.086270104202, 48973.49911612262, 25548.356836838346, -2783.21686783038, 5071.5884651647175, 0.042, 0.9380000000000001, 0.17400000000000002, 192.0, 0.0, 0.0, 0.0, 0.0, 0.0, 0.0, 0.0, 0.0, 0.0, 1.6665550496964726E9, 0.0, 2022-10-23 12:57:29.696
157.0, -51905.98093342554, -78468.5705266679, 19582.698593461348, -17867.962165828012, 49079.088756929494, 26315.424003055574, -1716.8151398676803, 6293.938314192094, 0.042, 0.9380000000000001, 0.17400000000000002, 192.0, 0.0, 0.0, 0.0, 0.0, 0.0, 0.0, 0.0, 0.0, 0.0, 1.6665550496964831E9, 0.0, 2022-10-23 12:57:29.696
158.0, -51878.041252856405, -78445.39176766775, 21018.30643633681, -17133.774415704538, 48975.98015975716, 26928.018263342175, -929.5419966628548, 6922.4693682753295, 0.042, 0.9380000000000001, 0.17400000000000002, 192.0, 0.0, 0.0, 0.0, 0.0, 0.0, 0.0, 0.0, 0.0, 0.0, 1.666555049696497E9, 0.0, 2022-10-23 12:57:29.696
159.0, -51829.806188321854, -78400.84474096831, 18869.70029708151, -18430.779091212644, 48864.22143748062, 25878.268584998677, -2396.107005608917, 5251.8552841967685, 0.042, 0.9380000000000001, 0.17400000000000002, 192.0, 0.0, 0.0, 0.0, 0.0, 0.0, 0.0, 0.0, 0.0, 0.0, 1.6665550496965075E9, 0.0, 2022-10-23 12:57:29.696
160.0, -51861.83623812631, -78430.9078372607, 18004.866600616766, -18843.951087468995, 48964.13373519585, 25523.881676659785, -2836.637537078564, 4971.31853953821, 0.042, 0.9380000000000001, 0.17400000000000002, 192.0, 0.0, 0.0, 0.0, 0.0, 0.0, 0.0, 0.0, 0.0, 0.0, 1.6665550496965384E9, 0.0, 2022-10-23 12:57:29.696
161.0, -51911.23359337254, -78480.30519250694, 19147.97951555008, -18121.945038073663, 49064.1801433778, 26117.365195437098, -1997.5083467374263, 5990.580438444667, 0.042, 0.9380000000000001, 0.17400000000000002, 192.0, 0.0, 0.0, 0.0, 0.0, 0.0, 0.0, 0.0, 0.0, 0.0, 1.666555050168275E9, 0.0, 2022-10-23 12:57:30.168
162.0, -51897.26375308797, -78469.017561557, 21083.59588189076, -17071.14482774077, 49016.74974164364, 26986.557482070624, -850.0815451242382, 7047.482675013862, 0.042, 0.9380000000000001, 0.17400000000000002, 192.0, 0.0, 0.0, 0.0, 0.0, 0.0, 0.0, 0.0, 0.0, 0.0, 1.666555050168389E9, 0.0, 2022-10-23 12:57:30.168
163.0, -51827.05692375385, -78398.98954617853, 19263.09099949491, -18217.87872527584, 48866.47896367061, 26060.748226731805, -2152.7859154684443, 5494.639932470314, 0.048, 0.9400000000000001, 0.18, 192.0, 1.0, 128.0, 29.0, 96.0, 5.0, 160.0, 0.0, 0.0, 0.0, 1.6665550501684232E9, 0.0, 2022-10-23 12:57:30.168
164.0, -51854.348403733784, -78420.91660748918, 18018.814089156876, -18846.96857297046, 48975.197848701224, 25532.42004304171, -2849.4674383959104, 4922.949364536925, 0.048, 0.9400000000000001, 0.18, 192.0, 0.0, 0.0, 0.0, 0.0, 0.0, 0.0, 0.0, 0.0, 0.0, 1.6665550501684601E9, 0.0, 2022-10-23 12:57:30.168
165.0, -51897.30845657688, -78464.03312254348, 18792.63148219961, -18324.34008411647, 49065.118916644926, 25967.00501048625, -2227.6866111381783, 5734.809426642589, 0.048, 0.9400000000000001, 0.18, 192.0, 0.0, 0.0, 0.0, 0.0, 0.0, 0.0, 0.0, 0.0, 0.0, 1.6665550501684785E9, 0.0, 2022-10-23 12:57:30.168
166.0, -51904.99745666951, -78474.31492499291, 20974.72053464896, -17106.72880491362, 49068.06934691303, 26970.352467340526, -884.3244176297686, 7060.267872842297, 0.048, 0.9400000000000001, 0.18, 192.0, 0.0, 0.0, 0.0, 0.0, 0.0, 0.0, 0.0, 0.0, 0.0, 1.666555050168496E9, 0.0, 2022-10-23 12:57:30.168
167.0, -51835.55058664687, -78405.13627590374, 19735.42806332446, -17937.945477717578, 48892.56344944995, 26311.713613475993, -1835.8605308366457, 5828.731456843789, 0.048, 0.9400000000000001, 0.18, 192.0, 0.0, 0.0, 0.0, 0.0, 0.0, 0.0, 0.0, 0.0, 0.0, 1.666555050168514E9, 0.0, 2022-10-23 12:57:30.168
168.0, -51854.10253454477, -78422.50358134552, 18093.53597087097, -18816.078462133224, 48964.580770084955, 25585.661898334256, -2814.6210687900866, 4910.454739386409, 0.048, 0.9400000000000001, 0.18, 192.0, 0.0, 0.0, 0.0, 0.0, 0.0, 0.0, 0.0, 0.0, 0.0, 1.666555050168532E9, 0.0, 2022-10-23 12:57:30.168
169.0, -51894.71565422007, -78460.25567773053, 18476.28724292365, -18520.789566134164, 49049.53975075958, 25823.640921549908, -2445.146732943861, 5478.278455529029, 0.048, 0.9400000000000001, 0.18, 192.0, 0.0, 0.0, 0.0, 0.0, 0.0, 0.0, 0.0, 0.0, 0.0, 1.66655505016855E9, 0.0, 2022-10-23 12:57:30.168
170.0, -51925.04697144592, -78491.50341647904, 20711.081708798614, -17234.625486686884, 49105.97790550922, 26883.761809320666, -1019.0607332063596, 6951.034897689212, 0.048, 0.9400000000000001, 0.18, 192.0, 0.0, 0.0, 0.0, 0.0, 0.0, 0.0, 0.0, 0.0, 0.0, 1.666555050168568E9, 0.0, 2022-10-23 12:57:30.168
171.0, -51842.323165216825, -78416.64742429822, 20180.563054151902, -17678.21820714691, 48913.52938574903, 26538.002674341522, -1541.3986493824304, 6153.45760029049, 0.048, 0.9400000000000001, 0.18, 192.0, 0.0, 0.0, 0.0, 0.0, 0.0, 0.0, 0.0, 0.0, 0.0, 1.666555050168586E9, 0.0, 2022-10-23 12:57:30.168
172.0, -51858.10349680227, -78427.24215117004, 18150.979954121107, -18822.113433136157, 48935.36704008187, 25589.01466000255, -2820.477225837377, 4873.641416268518, 0.04, 0.9380000000000001, 0.18, 192.0, 1.0, 64.0, 29.0, 80.0, 5.0, 160.0, 0.0, 0.0, 0.0, 1.6665550501686037E9, 0.0, 2022-10-23 12:57:30.168
173.0, -51887.45133727209, -78452.47727066008, 18229.501632392603, -18686.99713790383, 49037.648622709356, 25695.788943265554, -2632.3649445015126, 5270.161362905666, 0.04, 0.9380000000000001, 0.18, 192.0, 0.0, 0.0, 0.0, 0.0, 0.0, 0.0, 0.0, 0.0, 0.0, 1.6665550501686225E9, 0.0, 2022-10-23 12:57:30.168
174.0, -51923.81762550087, -78489.08942807787, 20313.511230172066, -17459.282870207175, 49132.7999988556, 26712.078060159452, -1254.2234366206453, 6746.449380689786, 0.04, 0.9380000000000001, 0.18, 192.0, 0.0, 0.0, 0.0, 0.0, 0.0, 0.0, 0.0, 0.0, 0.0, 1.6665550501686404E9, 0.0, 2022-10-23 12:57:30.168
175.0, -51849.72159263153, -78418.34615687683, 20595.389079497945, -17425.48703259075, 48966.41361313029, 26756.692142092248, -1244.8580556938716, 6509.453834230165, 0.04, 0.9380000000000001, 0.18, 192.0, 0.0, 0.0, 0.0, 0.0, 0.0, 0.0, 0.0, 0.0, 0.0, 1.6665550501686575E9, 0.0, 2022-10-23 12:57:30.168
176.0, -51825.1793772196, -78392.12756063075, 18329.212764407726, -18739.970772262906, 48956.10945893639, 25668.184538863246, -2722.0177915117492, 4959.561521954718, 0.04, 0.9380000000000001, 0.18, 192.0, 0.0, 0.0, 0.0, 0.0, 0.0, 0.0, 0.0, 0.0, 0.0, 1.666555050168745E9, 0.0, 2022-10-23 12:57:30.168
177.0, -51888.85949717277, -78448.72217759158, 18094.13946797126, -18776.672336658517, 49046.8798931694, 25636.44506173671, -2729.5950328820986, 5152.434724859563, 0.04, 0.9380000000000001, 0.18, 192.0, 0.0, 0.0, 0.0, 0.0, 0.0, 0.0, 0.0, 0.0, 0.0, 1.6665550501687546E9, 0.0, 2022-10-23 12:57:30.168
178.0, -51924.64464004572, -78488.75415191104, 19839.855413419657, -17733.158795018055, 49125.40157144089, 26494.886159287234, -1546.8077715406146, 6473.668691357218, 0.04, 0.9380000000000001, 0.18, 192.0, 0.0, 0.0, 0.0, 0.0, 0.0, 0.0, 0.0, 0.0, 0.0, 1.6665550501687653E9, 0.0, 2022-10-23 12:57:30.168
179.0, -51889.239476828516, -78461.95441030913, 20876.70813521244, -17251.07637060599, 48995.761453600106, 26903.364289207973, -1040.0713729943482, 6791.957532400791, 0.04, 0.9380000000000001, 0.18, 192.0, 0.0, 0.0, 0.0, 0.0, 0.0, 0.0, 0.0, 0.0, 0.0, 1.6665550501687796E9, 0.0, 2022-10-23 12:57:30.168
180.0, -51846.74881061898, -78420.78249702246, 18630.044893031703, -18580.66988952993, 48931.097856890905, 25820.802250004086, -2543.3155945915696, 5127.356067580708, 0.04, 0.9380000000000001, 0.18, 192.0, 0.0, 0.0, 0.0, 0.0, 0.0, 0.0, 0.0, 0.0, 0.0, 1.6665550501687891E9, 0.0, 2022-10-23 12:57:30.168
181.0, -51879.82939241283, -78450.24209621456, 18029.162946839686, -18826.628485516132, 49043.03539312308, 25611.433459691223, -2794.1468708690254, 5053.416496922552, 0.04, 0.9380000000000001, 0.18, 192.0, 0.0, 0.0, 0.0, 0.0, 0.0, 0.0, 0.0, 0.0, 0.0, 1.6665550501687992E9, 0.0, 2022-10-23 12:57:30.168
182.0, -51939.709715808596, -78506.6802509642, 19409.249056488163, -17980.03381252692, 49119.85833881597, 26312.987662909945, -1818.0908939946764, 6193.310760654302, 0.05, 0.936, 0.17200000000000001, 192.0, 1.0, 144.0, 29.0, 64.0, 5.0, 96.0, 0.0, 0.0, 0.0, 1.6665550501688087E9, 0.0, 2022-10-23 12:57:30.168
183.0, -51913.58052654035, -78485.8260733874, 21061.82528279129, -17114.32839802842, 49039.19089307677, 27031.953875059353, -883.0503681958161, 6993.927895298946, 0.05, 0.936, 0.17200000000000001, 192.0, 0.0, 0.0, 0.0, 0.0, 0.0, 0.0, 0.0, 0.0, 0.0, 1.6665550501688194E9, 0.0, 2022-10-23 12:57:30.168
184.0, -51842.90431057267, -78417.63090105426, 19019.1887639986, -18363.947375291275, 48921.57601375294, 26017.028214577225, -2302.3861411078146, 5347.520750465483, 0.05, 0.936, 0.17200000000000001, 192.0, 0.0, 0.0, 0.0, 0.0, 0.0, 0.0, 0.0, 0.0, 0.0, 1.6665550501688292E9, 0.0, 2022-10-23 12:57:30.168
185.0, -51859.109325302765, -78427.04098546994, 18030.9063829072, -18837.469081576954, 49034.40761976333, 25617.35667197188, -2818.420865347489, 4977.867600663615, 0.05, 0.936, 0.17200000000000001, 192.0, 0.0, 0.0, 0.0, 0.0, 0.0, 0.0, 0.0, 0.0, 0.0, 1.6665550501688387E9, 0.0, 2022-10-23 12:57:30.168
186.0, -51907.92553519315, -78469.77752086849, 19007.878781304214, -18209.563876338467, 49127.48028367523, 26132.005588055326, -2081.148574489185, 5899.139451878006, 0.05, 0.936, 0.17200000000000001, 192.0, 0.0, 0.0, 0.0, 0.0, 0.0, 0.0, 0.0, 0.0, 0.0, 1.6665550501688483E9, 0.0, 2022-10-23 12:57:30.168
187.0, -51918.117930664775, -78481.66864891871, 21081.070134767313, -17065.60159511585, 49104.882670030915, 27080.21129133836, -827.9980216023948, 7091.448556357451, 0.05, 0.936, 0.17200000000000001, 192.0, 0.0, 0.0, 0.0, 0.0, 0.0, 0.0, 0.0, 0.0, 0.0, 1.666555050168858E9, 0.0, 2022-10-23 12:57:30.168
188.0, -51842.50197917247, -78409.51721781697, 19445.101254594476, -18119.911029328232, 48939.05507791699, 26226.039376978802, -2031.5277017984035, 5624.436512522282, 0.05, 0.936, 0.17200000000000001, 192.0, 0.0, 0.0, 0.0, 0.0, 0.0, 0.0, 0.0, 0.0, 0.0, 1.6665550501688678E9, 0.0, 2022-10-23 12:57:30.168
189.0, -51866.373642250735, -78430.03611922695, 18052.47581630657, -18830.83061347373, 49043.728297201196, 25634.343997757915, -2824.902871239528, 4932.046524530235, 0.05, 0.936, 0.17200000000000001, 192.0, 0.0, 0.0, 0.0, 0.0, 0.0, 0.0, 0.0, 0.0, 0.0, 1.6665550501688776E9, 0.0, 2022-10-23 12:57:30.168
190.0, -51926.075151690864, -78488.44122748867, 18675.865969165083, -18392.803477383077, 49101.66401882935, 25999.795019602185, -2297.3569986053703, 5647.369402333427, 0.05, 0.936, 0.17200000000000001, 192.0, 0.0, 0.0, 0.0, 0.0, 0.0, 0.0, 0.0, 0.0, 0.0, 1.6665550501688871E9, 0.0, 2022-10-23 12:57:30.168
191.0, -51946.16936995618, -78514.14573361227, 20920.85283051167, -17117.725863185628, 49124.23928072921, 27052.11514855804, -892.9745427339725, 7058.032698396766, 0.05, 0.936, 0.17200000000000001, 192.0, 0.0, 0.0, 0.0, 0.0, 0.0, 0.0, 0.0, 0.0, 0.0, 1.6665550501689067E9, 0.0, 2022-10-23 12:57:30.168
192.0, -51866.15012480618, -78437.94863676414, 19943.8580803702, -17811.076976189255, 48937.62456627185, 26500.58585412334, -1697.8608605695797, 5973.079022536162, 0.046, 0.934, 0.176, 192.0, 1.0, 112.0, 29.0, 48.0, 5.0, 128.0, 0.0, 0.0, 0.0, 1.666555050168917E9, 0.0, 2022-10-23 12:57:30.168
193.0, -51874.46497374356, -78442.97777926657, 18148.185986064196, -18784.115467562136, 49011.474729952184, 25695.721888032185, -2790.9729231563715, 4915.483881888853, 0.046, 0.934, 0.176, 192.0, 0.0, 0.0, 0.0, 0.0, 0.0, 0.0, 0.0, 0.0, 0.0, 1.6665550501689277E9, 0.0, 2022-10-23 12:57:30.168
194.0, -51922.923555722664, -78489.96114611163, 18389.92010234834, -18568.376430079512, 49078.30644587355, 25868.098541271513, -2513.0513325990837, 5394.302951610441, 0.046, 0.934, 0.176, 192.0, 0.0, 0.0, 0.0, 0.0, 0.0, 0.0, 0.0, 0.0, 0.0, 1.6665550501689372E9, 0.0, 2022-10-23 12:57:30.168
195.0, -51965.59303588785, -78531.15541114277, 20553.636020855432, -17317.79632780508, 49149.273234519154, 26893.19424548081, -1122.1022751453252, 6856.978757021279, 0.046, 0.934, 0.176, 192.0, 0.0, 0.0, 0.0, 0.0, 0.0, 0.0, 0.0, 0.0, 0.0, 1.666555050168947E9, 0.0, 2022-10-23 12:57:30.168
196.0, -51889.39593903971, -78457.12643350678, 20342.769663664065, -17572.248586684298, 48970.21340968769, 26699.851655942402, -1437.5524446430738, 6278.694424473575, 0.046, 0.934, 0.176, 192.0, 0.0, 0.0, 0.0, 0.0, 0.0, 0.0, 0.0, 0.0, 0.0, 1.6665550501689565E9, 0.0, 2022-10-23 12:57:30.168
197.0, -51861.65742417067, -78425.56577033589, 18216.112937463873, -18769.899758088563, 49007.45141595023, 25707.27773991558, -2786.7484434543185, 4903.033960227247, 0.046, 0.934, 0.176, 192.0, 0.0, 0.0, 0.0, 0.0, 0.0, 0.0, 0.0, 0.0, 0.0, 1.6665550501689663E9, 0.0, 2022-10-23 12:57:30.168
198.0, -51909.087825904826, -78471.67741914719, 18183.434687070214, -18682.817361690686, 49109.978867766724, 25777.216348316237, -2659.5670175036216, 5237.773685189925, 0.046, 0.934, 0.176, 192.0, 0.0, 0.0, 0.0, 0.0, 0.0, 0.0, 0.0, 0.0, 0.0, 1.6665550501689758E9, 0.0, 2022-10-23 12:57:30.168
199.0, -51957.23348346156, -78521.07477439342, 20128.438786082126, -17530.80845246416, 49176.58706624354, 26726.561990566493, -1366.4291937862868, 6648.302870786532, 0.046, 0.934, 0.176, 192.0, 0.0, 0.0, 0.0, 0.0, 0.0, 0.0, 0.0, 0.0, 0.0, 1.6665550501689854E9, 0.0, 2022-10-23 12:57:30.168
200.0, -51894.42508154215, -78460.52389866399, 20712.892200099493, -17318.04219699409, 49030.920747628305, 26914.875437602455, -1162.8271535428946, 6626.576975175974, 0.046, 0.934, 0.176, 192.0, 0.0, 0.0, 0.0, 0.0, 0.0, 0.0, 0.0, 0.0, 0.0, 1.6665550501689997E9, 0.0, 2022-10-23 12:57:30.168
201.0, -51869.05585158538, -78435.86992452979, 18454.06960893507, -18628.681436619932, 49003.249287992636, 25846.193831705314, -2640.389220760968, 5033.6128513351505, 0.046, 0.934, 0.176, 192.0, 0.0, 0.0, 0.0, 0.0, 0.0, 0.0, 0.0, 0.0, 0.0, 1.6665550501690092E9, 0.0, 2022-10-23 12:57:30.169
202.0, -51902.739930479525, -78472.99617207005, 18059.449560576628, -18760.199100994956, 49090.2869809016, 25729.115394248416, -2759.479315218844, 5104.557288236295, 0.054, 0.9460000000000001, 0.178, 192.0, 1.0, 176.0, 29.0, 144.0, 5.0, 144.0, 0.0, 0.0, 0.0, 1.6665550501690187E9, 0.0, 2022-10-23 12:57:30.169
203.0, -51950.70677408061, -78517.92317842522, 19628.653780061457, -17817.51427859238, 49179.85042093402, 26496.62959535475, -1684.561572618672, 6333.970288511549, 0.054, 0.9460000000000001, 0.178, 192.0, 0.0, 0.0, 0.0, 0.0, 0.0, 0.0, 0.0, 0.0, 0.0, 1.66655505016903E9, 0.0, 2022-10-23 12:57:30.169
204.0, -51919.88371847674, -78486.07194257641, 20936.18612720801, -17163.949270719204, 49076.56300980604, 27046.616619422035, -983.275590333413, 6868.98164379378, 0.054, 0.9460000000000001, 0.178, 192.0, 0.0, 0.0, 0.0, 0.0, 0.0, 0.0, 0.0, 0.0, 0.0, 1.6665550501690392E9, 0.0, 2022-10-23 12:57:30.169
205.0, -51867.26771202895, -78429.96906399359, 18732.23706868137, -18485.60792036151, 48982.70803483821, 25969.173129698414, -2478.160259504349, 5190.991484044967, 0.054, 0.9460000000000001, 0.178, 192.0, 0.0, 0.0, 0.0, 0.0, 0.0, 0.0, 0.0, 0.0, 0.0, 1.666555050169049E9, 0.0, 2022-10-23 12:57:30.169
206.0, -51916.93328820864, -78479.14290179526, 17950.75302729047, -18846.700352036994, 49069.20928588024, 25658.148605602815, -2860.0398135232704, 4978.314635552721, 0.054, 0.9460000000000001, 0.178, 192.0, 0.0, 0.0, 0.0, 0.0, 0.0, 0.0, 0.0, 0.0, 0.0, 1.666555050169058E9, 0.0, 2022-10-23 12:57:30.169
207.0, -51957.65816660621, -78520.87360869332, 19176.522693219507, -18075.34165088435, 49169.613321973484, 26297.63201446915, -1966.9535120670216, 6047.085648427684, 0.054, 0.9460000000000001, 0.178, 192.0, 0.0, 0.0, 0.0, 0.0, 0.0, 0.0, 0.0, 0.0, 0.0, 1.666555050169079E9, 0.0, 2022-10-23 12:57:30.169
208.0, -51936.15578844021, -78501.09231485038, 21047.363704128707, -17062.18177821419, 49127.41322844187, 27146.014827014784, -861.5256382853554, 7049.6731459704815, 0.054, 0.9460000000000001, 0.178, 192.0, 0.0, 0.0, 0.0, 0.0, 0.0, 0.0, 0.0, 0.0, 0.0, 1.6665550501690884E9, 0.0, 2022-10-23 12:57:30.169
209.0, -51860.87511311473, -78429.90200876023, 19146.34783820484, -18245.550184911513, 48994.53210765507, 26189.918957939026, -2206.8100818169214, 5461.55935067646, 0.054, 0.9460000000000001, 0.178, 192.0, 0.0, 0.0, 0.0, 0.0, 0.0, 0.0, 0.0, 0.0, 0.0, 1.6665550501690977E9, 0.0, 2022-10-23 12:57:30.169
210.0, -51892.3463693078, -78457.30524746243, 17964.164073963653, -18839.950125211493, 49090.555201835065, 25688.211701895205, -2863.414926936022, 4936.919204821492, 0.054, 0.9460000000000001, 0.178, 192.0, 0.0, 0.0, 0.0, 0.0, 0.0, 0.0, 0.0, 0.0, 0.0, 1.6665550501691072E9, 0.0, 2022-10-23 12:57:30.169
211.0, -51957.16642822819, -78519.48780053708, 18760.668487628518, -18320.29441837006, 49158.97389161276, 26111.93372153446, -2243.5787014459015, 5750.522702994669, 0.056, 0.9460000000000001, 0.178, 192.0, 1.0, 192.0, 29.0, 144.0, 5.0, 144.0, 0.0, 0.0, 0.0, 1.6665550501691165E9, 0.0, 2022-10-23 12:57:30.169
212.0, -51963.201399231126, -78522.37117557183, 20921.43397586751, -17116.1388893293, 49152.849513632005, 27107.45806782938, -915.3709906781901, 7046.789770935747, 0.056, 0.9460000000000001, 0.178, 192.0, 0.0, 0.0, 0.0, 0.0, 0.0, 0.0, 0.0, 0.0, 0.0, 1.6665550501691265E9, 0.0, 2022-10-23 12:57:30.169
213.0, -51878.22006681205, -78437.2110291971, 19555.273003014685, -18014.589609454826, 48989.63707561935, 26388.715373124527, -1945.2946716898289, 5745.2700430476725, 0.056, 0.9460000000000001, 0.178, 192.0, 0.0, 0.0, 0.0, 0.0, 0.0, 0.0, 0.0, 0.0, 0.0, 1.666555050169136E9, 0.0, 2022-10-23 12:57:30.169
214.0, -51898.71661647757, -78458.02050328499, 17985.66645212966, -18845.538061325322, 49064.828343967005, 25696.571254321487, -2872.959121818438, 4896.73076829085, 0.056, 0.9460000000000001, 0.178, 192.0, 0.0, 0.0, 0.0, 0.0, 0.0, 0.0, 0.0, 0.0, 0.0, 1.6665550501691453E9, 0.0, 2022-10-23 12:57:30.169
215.0, -51941.29668966492, -78500.84644566136, 18431.382588312936, -18516.699196898844, 49146.3004525066, 25961.975867983805, -2464.503343642157, 5506.642819242814, 0.056, 0.9460000000000001, 0.178, 192.0, 0.0, 0.0, 0.0, 0.0, 0.0, 0.0, 0.0, 0.0, 0.0, 1.6665550501691546E9, 0.0, 2022-10-23 12:57:30.169
216.0, -51968.722280111586, -78530.19428613118, 20684.05844975215, -17225.349512737932, 49194.93784844135, 27026.34358720107, -1028.7613902999628, 6976.784107301725, 0.056, 0.9460000000000001, 0.178, 192.0, 0.0, 0.0, 0.0, 0.0, 0.0, 0.0, 0.0, 0.0, 0.0, 1.666555050169164E9, 0.0, 2022-10-23 12:57:30.169
217.0, -51876.297816788894, -78445.39176766775, 20002.330243865283, -17754.884690628613, 49011.318267741, 26604.208541418142, -1646.4518483223735, 6084.994207023884, 0.056, 0.9460000000000001, 0.178, 192.0, 0.0, 0.0, 0.0, 0.0, 0.0, 0.0, 0.0, 0.0, 0.0, 1.6665550501691732E9, 0.0, 2022-10-23 12:57:30.169
218.0, -51873.77206966544, -78438.2168576976, 18061.349458855326, -18826.11439539366, 49074.193724893776, 25716.509010375623, -2847.2546156948347, 4898.92123924747, 0.056, 0.9460000000000001, 0.178, 192.0, 0.0, 0.0, 0.0, 0.0, 0.0, 0.0, 0.0, 0.0, 0.0, 1.6665550501691828E9, 0.0, 2022-10-23 12:57:30.169
219.0, -51926.81275925789, -78491.07873333439, 18179.545483534992, -18676.670631965477, 49149.60851068598, 25832.291046654114, -2638.6010812045433, 5314.3060582048965, 0.056, 0.9460000000000001, 0.178, 192.0, 0.0, 0.0, 0.0, 0.0, 0.0, 0.0, 0.0, 0.0, 0.0, 1.6665550501691923E9, 0.0, 2022-10-23 12:57:30.169
220.0, -51975.785431359465, -78541.92895197021, 20288.41022114876, -17445.469492133798, 49214.47327309529, 26848.334294359007, -1259.6102070343743, 6785.430823019841, 0.056, 0.9460000000000001, 0.178, 192.0, 0.0, 0.0, 0.0, 0.0, 0.0, 0.0, 0.0, 0.0, 0.0, 1.6665550501692016E9, 0.0, 2022-10-23 12:57:30.169
221.0, -51914.63105852975, -78479.90286110675, 20420.03964424606, -17502.04175735018, 49035.70402094174, 26819.008805633643, -1352.7946296685493, 6435.827187994384, 0.06, 0.9440000000000001, 0.178, 192.0, 1.0, 224.0, 29.0, 128.0, 5.0, 144.0, 0.0, 0.0, 0.0, 1.666555050169211E9, 0.0, 2022-10-23 12:57:30.169
222.0, -51900.57181126736, -78461.68618937567, 18190.229617384626, -18786.730621663406, 49030.74193367266, 25754.976362583206, -2797.7231499818745, 4927.419713427987, 0.06, 0.9440000000000001, 0.178, 192.0, 0.0, 0.0, 0.0, 0.0, 0.0, 0.0, 0.0, 0.0, 0.0, 1.6665550501692305E9, 0.0, 2022-10-23 12:57:30.169
223.0, -51951.19851245863, -78504.10980035184, 18019.015254856975, -18785.836551885193, 49131.168321510355, 25755.91513585033, -2761.8933036200174, 5167.008062244423, 0.06, 0.9440000000000001, 0.178, 192.0, 0.0, 0.0, 0.0, 0.0, 0.0, 0.0, 0.0, 0.0, 0.0, 1.66655505016924E9, 0.0, 2022-10-23 12:57:30.169
224.0, -51989.46469896611, -78540.16316415825, 19845.532756511304, -17694.892608510567, 49216.820206263095, 26658.724446144635, -1524.120750918478, 6532.38672404131, 0.06, 0.9440000000000001, 0.178, 192.0, 0.0, 0.0, 0.0, 0.0, 0.0, 0.0, 0.0, 0.0, 0.0, 1.6665550501692505E9, 0.0, 2022-10-23 12:57:30.169
225.0, -51925.382247612746, -78482.27214601901, 20752.11951161856, -17287.867341979425, 49089.05763495656, 27009.468020137316, -1097.2471353110236, 6751.702040636783, 0.06, 0.9440000000000001, 0.178, 192.0, 0.0, 0.0, 0.0, 0.0, 0.0, 0.0, 0.0, 0.0, 0.0, 1.6665550501692603E9, 0.0, 2022-10-23 12:57:30.169
226.0, -51878.62239821225, -78439.93794202065, 18461.69155379433, -18642.517166437767, 49034.72054418571, 25900.776791665172, -2623.0219153191942, 5084.954808348991, 0.06, 0.9440000000000001, 0.178, 192.0, 0.0, 0.0, 0.0, 0.0, 0.0, 0.0, 0.0, 0.0, 0.0, 1.6665550501692698E9, 0.0, 2022-10-23 12:57:30.169
227.0, -51923.03531444494, -78481.46748321861, 17948.495501100482, -18831.657628018576, 49147.48509496273, 25748.695522391263, -2806.3062198527123, 5088.195811295011, 0.06, 0.9440000000000001, 0.178, 192.0, 0.0, 0.0, 0.0, 0.0, 0.0, 0.0, 0.0, 0.0, 0.0, 1.6665550501692796E9, 0.0, 2022-10-23 12:57:30.169
228.0, -51972.85735283582, -78525.81334421794, 19381.108210218932, -17958.866710527745, 49224.710372055815, 26470.075722941845, -1800.2318501748862, 6251.738220660475, 0.06, 0.9440000000000001, 0.178, 192.0, 0.0, 0.0, 0.0, 0.0, 0.0, 0.0, 0.0, 0.0, 0.0, 1.6665550501692898E9, 0.0, 2022-10-23 12:57:30.169
229.0, -51947.37636415677, -78501.49464625058, 20907.46413558294, -17177.27091041457, 49141.49482744871, 27115.236474899826, -953.1007353187484, 6960.199112915888, 0.06, 0.9440000000000001, 0.178, 192.0, 0.0, 0.0, 0.0, 0.0, 0.0, 0.0, 0.0, 0.0, 0.0, 1.6665550501692996E9, 0.0, 2022-10-23 12:57:30.169
230.0, -51891.00526464049, -78449.1692124807, 18843.16877641306, -18420.45258527429, 49046.11993385791, 26114.951207035927, -2364.3898802268363, 5337.216596271586, 0.06, 0.9440000000000001, 0.178, 192.0, 0.0, 0.0, 0.0, 0.0, 0.0, 0.0, 0.0, 0.0, 0.0, 1.6665550501693096E9, 0.0, 2022-10-23 12:57:30.169
231.0, -51918.117930664775, -78478.56175643942, 17931.888154970187, -18847.12503518165, 49137.69503089131, 25759.20084228526, -2827.2051009184243, 5018.592479061184, 0.054, 0.9380000000000001, 0.184, 192.0, 1.0, 176.0, 29.0, 80.0, 5.0, 192.0, 0.0, 0.0, 0.0, 1.6665550501693192E9, 0.0, 2022-10-23 12:57:30.169
232.0, -51971.53859991296, -78531.35657684285, 18956.26860335691, -18202.83600125742, 49213.33333412807, 26287.19374980852, -2069.6821295836126, 5953.3647839265805, 0.054, 0.9380000000000001, 0.184, 192.0, 0.0, 0.0, 0.0, 0.0, 0.0, 0.0, 0.0, 0.0, 0.0, 1.6665550501693294E9, 0.0, 2022-10-23 12:57:30.169
233.0, -51961.033280018964, -78527.04269016298, 20953.352266949685, -17115.20011606218, 49183.22553434677, 27189.936004869465, -875.6072372921989, 7078.193971895454, 0.054, 0.9380000000000001, 0.184, 192.0, 0.0, 0.0, 0.0, 0.0, 0.0, 0.0, 0.0, 0.0, 0.0, 1.6665550501693392E9, 0.0, 2022-10-23 12:57:30.169
234.0, -51894.93917166462, -78467.5199946785, 19245.164900441756, -18204.75825128058, 49018.336715499965, 26317.167439123088, -2114.005638838487, 5578.3919189443495, 0.054, 0.9380000000000001, 0.184, 192.0, 0.0, 0.0, 0.0, 0.0, 0.0, 0.0, 0.0, 0.0, 0.0, 1.6665550501693485E9, 0.0, 2022-10-23 12:57:30.169
235.0, -51923.54940456741, -78485.6249076873, 17911.659826238138, -18891.001509547415, 49113.17516722383, 25745.05218804505, -2873.830839852195, 4922.54703313673, 0.054, 0.9380000000000001, 0.184, 192.0, 0.0, 0.0, 0.0, 0.0, 0.0, 0.0, 0.0, 0.0, 0.0, 1.666555050169358E9, 0.0, 2022-10-23 12:57:30.169
236.0, -51968.47641092258, -78522.37117557183, 18586.838970999597, -18430.555573768088, 49203.252697378724, 26125.680044374472, -2317.5182721040574, 5669.207056666262, 0.054, 0.9380000000000001, 0.184, 192.0, 0.0, 0.0, 0.0, 0.0, 0.0, 0.0, 0.0, 0.0, 0.0, 1.6665550501693673E9, 0.0, 2022-10-23 12:57:30.169
237.0, -51987.96713208761, -78542.06306243695, 20805.428422144465, -17186.12220121887, 49219.01067721971, 27153.256792218304, -936.9404240775615, 7050.813084937702, 0.054, 0.9380000000000001, 0.184, 192.0, 0.0, 0.0, 0.0, 0.0, 0.0, 0.0, 0.0, 0.0, 0.0, 1.6665550501693769E9, 0.0, 2022-10-23 12:57:30.169
238.0, -51906.83029971484, -78466.42475920019, 19695.105516327087, -17955.089265714796, 49035.43580000828, 26540.707235420614, -1818.1355974835872, 5895.004379153774, 0.054, 0.9380000000000001, 0.184, 192.0, 0.0, 0.0, 0.0, 0.0, 0.0, 0.0, 0.0, 0.0, 0.0, 1.6665550501693945E9, 0.0, 2022-10-23 12:57:30.169
239.0, -51916.03921843043, -78471.45390170264, 17959.380800650215, -18894.063698537793, 49115.85737655847, 25758.39617948487, -2865.4265839369996, 4901.044654970724, 0.054, 0.9380000000000001, 0.184, 192.0, 0.0, 0.0, 0.0, 0.0, 0.0, 0.0, 0.0, 0.0, 0.0, 1.6665550501694045E9, 0.0, 2022-10-23 12:57:30.169
240.0, -51963.38021318677, -78516.55972201345, 18283.369336529893, -18629.106119764583, 49194.42375831887, 25974.09051347858, -2522.9978588816953, 5446.248405724574, 0.054, 0.932, 0.178, 192.0, 1.0, 176.0, 29.0, 32.0, 5.0, 144.0, 0.0, 0.0, 0.0, 1.6665550501694143E9, 0.0, 2022-10-23 12:57:30.169
241.0, -51995.09733856885, -78547.47218459514, 20470.95691811525, -17373.385116265432, 49243.59759612055, 27003.991842745763, -1118.9059756882164, 6911.092330347577, 0.054, 0.932, 0.178, 192.0, 0.0, 0.0, 0.0, 0.0, 0.0, 0.0, 0.0, 0.0, 0.0, 1.6665550501694255E9, 0.0, 2022-10-23 12:57:30.169
242.0, -51909.154881138194, -78465.26246848852, 20135.21136465208, -17692.948006742958, 49074.21607663824, 26759.977848527178, -1505.1664716203777, 6255.113334073226, 0.054, 0.932, 0.178, 192.0, 0.0, 0.0, 0.0, 0.0, 0.0, 0.0, 0.0, 0.0, 0.0, 1.6665550501694353E9, 0.0, 2022-10-23 12:57:30.169
243.0, -51910.71950325007, -78466.4694626891, 18063.271708878485, -18857.987982986928, 49094.19853618128, 25796.930586925817, -2811.804748988718, 4924.625745371073, 0.054, 0.932, 0.178, 192.0, 0.0, 0.0, 0.0, 0.0, 0.0, 0.0, 0.0, 0.0, 0.0, 1.6665550501694455E9, 0.0, 2022-10-23 12:57:30.169
244.0, -51962.75436434202, -78516.47031503562, 18077.554473585424, -18757.785112593785, 49172.429641774856, 25877.93330883185, -2662.6962617273643, 5270.563694305861, 0.054, 0.932, 0.178, 192.0, 0.0, 0.0, 0.0, 0.0, 0.0, 0.0, 0.0, 0.0, 0.0, 1.6665550501694553E9, 0.0, 2022-10-23 12:57:30.169
245.0, -51992.48218446758, -78544.94643747169, 20077.476808724023, -17578.149447220498, 49261.16606726242, 26849.60834379296, -1336.7907806385494, 6696.649694043362, 0.054, 0.932, 0.178, 192.0, 0.0, 0.0, 0.0, 0.0, 0.0, 0.0, 0.0, 0.0, 0.0, 1.6665550501694646E9, 0.0, 2022-10-23 12:57:30.169
246.0, -51928.600898814315, -78482.65212567475, 20549.098616731004, -17430.583230326563, 49106.357885164965, 26991.608976317522, -1200.847470861372, 6591.8870677813375, 0.054, 0.932, 0.178, 192.0, 0.0, 0.0, 0.0, 0.0, 0.0, 0.0, 0.0, 0.0, 0.0, 1.666555050169474E9, 0.0, 2022-10-23 12:57:30.169
247.0, -51894.6485989867, -78449.8174130699, 18299.641406493356, -18731.81238553672, 49088.65530355636, 25926.593056511054, -2669.1335641304927, 5020.447673850975, 0.054, 0.932, 0.178, 192.0, 0.0, 0.0, 0.0, 0.0, 0.0, 0.0, 0.0, 0.0, 0.0, 1.6665550501694837E9, 0.0, 2022-10-23 12:57:30.169
248.0, -51933.18300642765, -78488.28476527748, 17973.864731057256, -18823.342779081202, 49189.908705938906, 25849.054854995593, -2741.910844076973, 5142.756419510415, 0.054, 0.932, 0.178, 192.0, 0.0, 0.0, 0.0, 0.0, 0.0, 0.0, 0.0, 0.0, 0.0, 1.6665550501694934E9, 0.0, 2022-10-23 12:57:30.169
249.0, -51970.689233623656, -78526.75211748507, 19618.997826456765, -17841.52005213738, 49277.75106164826, 26657.718617644146, -1621.663763721438, 6411.21791734909, 0.054, 0.932, 0.178, 192.0, 0.0, 0.0, 0.0, 0.0, 0.0, 0.0, 0.0, 0.0, 0.0, 1.6665550501695027E9, 0.0, 2022-10-23 12:57:30.169
250.0, -51935.64169831773, -78496.42080025922, 20811.753965825315, -17260.397048043855, 49162.72898468125, 27151.80392882871, -1001.693427764586, 6850.250881940232, 0.048, 0.936, 0.18, 192.0, 1.0, 128.0, 29.0, 64.0, 5.0, 160.0, 0.0, 0.0, 0.0, 1.6665550501695125E9, 0.0, 2022-10-23 12:57:30.169
251.0, -51889.574752995344, -78453.21487822711, 18587.196598910883, -18585.29670063218, 49075.66894002783, 26075.098046672112, -2500.7802248931202, 5176.194629215554, 0.048, 0.936, 0.18, 192.0, 0.0, 0.0, 0.0, 0.0, 0.0, 0.0, 0.0, 0.0, 0.0, 1.6665550501695225E9, 0.0, 2022-10-23 12:57:30.169
252.0, -51930.634907559746, -78491.16814031222, 17874.57828218678, -18902.60206491972, 49172.004958630205, 25799.836313705007, -2836.7492958008406, 5016.044380193279, 0.048, 0.936, 0.18, 192.0, 0.0, 0.0, 0.0, 0.0, 0.0, 0.0, 0.0, 0.0, 0.0, 1.666555050169532E9, 0.0, 2022-10-23 12:57:30.169
253.0, -51989.46469896611, -78549.66265555176, 19146.481948671575, -18115.373625203803, 49251.08543051308, 26449.17684187613, -1924.2169766684744, 6097.578239152222, 0.048, 0.936, 0.18, 192.0, 0.0, 0.0, 0.0, 0.0, 0.0, 0.0, 0.0, 0.0, 0.0, 1.6665550501695502E9, 0.0, 2022-10-23 12:57:30.169
254.0, -51948.940986268644, -78512.91638766722, 20943.67396160054, -17147.20781412218, 49207.18660440286, 27262.266249926837, -869.2369901224364, 7036.530320230761, 0.048, 0.936, 0.18, 192.0, 0.0, 0.0, 0.0, 0.0, 0.0, 0.0, 0.0, 0.0, 0.0, 1.6665550501695597E9, 0.0, 2022-10-23 12:57:30.169
255.0, -51874.8449533993, -78440.3626251653, 18966.773923250905, -18369.378849193912, 49082.26270464215, 26271.21225252298, -2255.089849840385, 5418.800463533457, 0.048, 0.936, 0.18, 192.0, 0.0, 0.0, 0.0, 0.0, 0.0, 0.0, 0.0, 0.0, 0.0, 1.6665550501695695E9, 0.0, 2022-10-23 12:57:30.169
0.0, -51917.87206147576, -78479.05349481745, 17874.39946823114, -18910.045195823335, 49176.49765926572, 25818.410613347365, -2843.0077842483265, 4963.674242934495, 0.048, 0.936, 0.18, 192.0, 0.0, 0.0, 0.0, 0.0, 0.0, 0.0, 0.0, 0.0, 0.0, 1.6665550501695793E9, 0.0, 2022-10-23 12:57:30.169
1.0, -51963.84959982033, -78523.22054186113, 18759.036810283284, -18335.49360459967, 49255.5781311486, 26292.267595799876, -2159.893770205232, 5825.892785297965, 0.048, 0.936, 0.18, 192.0, 0.0, 0.0, 0.0, 0.0, 0.0, 0.0, 0.0, 0.0, 0.0, 1.6665550501695886E9, 0.0, 2022-10-23 12:57:30.169
2.0, -51975.38309995927, -78540.8337164919, 20856.770379158304, -17181.49539011662, 49245.31868044361, 27243.82606075121, -886.1796124195591, 7058.144457119043, 0.048, 0.936, 0.18, 192.0, 0.0, 0.0, 0.0, 0.0, 0.0, 0.0, 0.0, 0.0, 0.0, 1.666555050169598E9, 0.0, 2022-10-23 12:57:30.169
3.0, -51893.016921641465, -78457.10408176233, 19393.111096991433, -18134.350256246362, 49089.52702159012, 26485.632537082736, -1974.039015059354, 5703.293466960606, 0.048, 0.936, 0.18, 192.0, 0.0, 0.0, 0.0, 0.0, 0.0, 0.0, 0.0, 0.0, 0.0, 1.6665550501696076E9, 0.0, 2022-10-23 12:57:30.169
4.0, -51909.62426777175, -78464.88248883278, 17883.9213113691, -18930.206469322024, 49180.878601178956, 25820.534029070623, -2859.3022059562454, 4909.270096930278, 0.052000000000000005, 0.9420000000000001, 0.178, 192.0, 1.0, 160.0, 29.0, 112.0, 5.0, 144.0, 0.0, 0.0, 0.0, 1.666555050169617E9, 0.0, 2022-10-23 12:57:30.169
5.0, -51959.89334105174, -78519.26428309253, 18438.557498283088, -18527.629199937488, 49264.2282562528, 26158.112425579122, -2366.8709238613756, 5597.8826401093775, 0.052000000000000005, 0.9420000000000001, 0.178, 192.0, 0.0, 0.0, 0.0, 0.0, 0.0, 0.0, 0.0, 0.0, 0.0, 1.6665550501696272E9, 0.0, 2022-10-23 12:57:30.169
6.0, -51979.45111745014, -78542.86772523735, 20699.592912148586, -17237.821786143995, 49303.27675381622, 27228.984502432886, -933.9899938094609, 7046.745067446836, 0.052000000000000005, 0.9420000000000001, 0.178, 192.0, 0.0, 0.0, 0.0, 0.0, 0.0, 0.0, 0.0, 0.0, 0.0, 1.6665550501696367E9, 0.0, 2022-10-23 12:57:30.169
7.0, -51904.125738635754, -78468.6152301568, 19875.573501059236, -17847.28680220685, 49107.16254796536, 26743.97399949718, -1642.8979209539798, 6054.998165964862, 0.052000000000000005, 0.9420000000000001, 0.178, 192.0, 0.0, 0.0, 0.0, 0.0, 0.0, 0.0, 0.0, 0.0, 0.0, 1.6665550501696463E9, 0.0, 2022-10-23 12:57:30.169
8.0, -51922.25300338901, -78481.60159368535, 17967.98622226551, -18905.93247484356, 49146.99335658472, 25857.16853823287, -2829.6190893195976, 4893.087433944635, 0.052000000000000005, 0.9420000000000001, 0.178, 192.0, 0.0, 0.0, 0.0, 0.0, 0.0, 0.0, 0.0, 0.0, 0.0, 1.6665550501696565E9, 0.0, 2022-10-23 12:57:30.169
9.0, -51948.71746882409, -78502.99221312908, 18170.20245435267, -18700.385832832555, 49253.11943925851, 26021.81148789066, -2560.258216888692, 5368.911369909211, 0.052000000000000005, 0.9420000000000001, 0.178, 192.0, 0.0, 0.0, 0.0, 0.0, 0.0, 0.0, 0.0, 0.0, 0.0, 1.6665550501696663E9, 0.0, 2022-10-23 12:57:30.169
10.0, -51971.315082468405, -78523.39935581677, 20322.4966314431, -17445.44714038934, 49342.034678701726, 27054.909116614952, -1153.7970487829505, 6859.102172744534, 0.052000000000000005, 0.9420000000000001, 0.178, 192.0, 0.0, 0.0, 0.0, 0.0, 0.0, 0.0, 0.0, 0.0, 0.0, 1.6665550501696756E9, 0.0, 2022-10-23 12:57:30.169
11.0, -51896.9508286656, -78452.16434623771, 20280.453000122667, -17608.30195049071, 49170.753260940706, 26931.482783732747, -1361.9141414063147, 6396.376359030767, 0.052000000000000005, 0.9420000000000001, 0.178, 192.0, 0.0, 0.0, 0.0, 0.0, 0.0, 0.0, 0.0, 0.0, 0.0, 1.6665550501696851E9, 0.0, 2022-10-23 12:57:30.169
12.0, -51894.492136775516, -78450.30915144792, 18100.39795641875, -18853.67409630705, 49172.139069096935, 25902.721393432785, -2759.0099285852825, 4949.324422994187, 0.052000000000000005, 0.9420000000000001, 0.178, 192.0, 0.0, 0.0, 0.0, 0.0, 0.0, 0.0, 0.0, 0.0, 0.0, 1.666555050169695E9, 0.0, 2022-10-23 12:57:30.169
13.0, -51930.50079709302, -78485.84842513186, 17964.856978041767, -18840.93360196753, 49266.239913253776, 25904.375422522477, -2707.8467855270846, 5206.816519119325, 0.052000000000000005, 0.9460000000000001, 0.182, 192.0, 1.0, 160.0, 29.0, 144.0, 5.0, 176.0, 0.0, 0.0, 0.0, 1.6665550501697133E9, 0.0, 2022-10-23 12:57:30.169
14.0, -51983.7203006411, -78538.30796936846, 19848.17026235703, -17719.79245183378, 49356.76447829777, 26830.609361005947, -1437.1501132428782, 6604.538155143042, 0.052000000000000005, 0.9460000000000001, 0.182, 192.0, 0.0, 0.0, 0.0, 0.0, 0.0, 0.0, 0.0, 0.0, 0.0, 1.666555050169723E9, 0.0, 2022-10-23 12:57:30.169
