%OpenBCI Raw EEG Data
%Number of channels = 8
%Sample Rate = 250 Hz
%Board = OpenBCI_GUI$BoardCytonSerial
Sample Index, EXG Channel 0, EXG Channel 1, EXG Channel 2, EXG Channel 3, EXG Channel 4, EXG Channel 5, EXG Channel 6, EXG Channel 7, Accel Channel 0, Accel Channel 1, Accel Channel 2, Other, Other, Other, Other, Other, Other, Other, Analog Channel 0, Analog Channel 1, Analog Channel 2, Timestamp, Other, Timestamp (Formatted)
9.0, -63923.910429943855, -93749.18416132739, 56395.14999331832, -321.01575386712005, 82857.00027430062, 62915.66794105386, 19144.64910562624, 16442.59142191308, 0.0, 0.0, 0.0, 192.0, 0.0, 0.0, 0.0, 0.0, 0.0, 0.0, 0.0, 0.0, 0.0, 1.6665553054672108E9, 0.0, 2022-10-23 13:01:45.467
10.0, -63862.91251932532, -93692.45543389981, 54285.726462093175, -1550.182884953366, 82486.45305472054, 61885.11841119748, 17695.630216077592, 14800.252294570482, 0.0, 0.0, 0.0, 192.0, 0.0, 0.0, 0.0, 0.0, 0.0, 0.0, 0.0, 0.0, 0.0, 1.6665553054672298E9, 0.0, 2022-10-23 13:01:45.467
11.0, -63898.049461609065, -93723.85963485953, 53361.83945677751, -1925.2675086578738, 82611.77928588144, 61540.90154658575, 17219.135727779358, 14447.184139154451, 0.0, 0.0, 0.0, 192.0, 0.0, 0.0, 0.0, 0.0, 0.0, 0.0, 0.0, 0.0, 0.0, 1.6665553054672425E9, 0.0, 2022-10-23 13:01:45.467
12.0, -63953.3923808804, -93777.48146980781, 54423.167338748855, -1265.2428466371116, 82836.41431765727, 62091.24619856432, 18003.793716882912, 15384.61630161003, 0.052000000000000005, 0.9460000000000001, 0.108, 192.0, 1.0, 160.0, 29.0, 144.0, 3.0, 96.0, 0.0, 0.0, 0.0, 1.6665553054672546E9, 0.0, 2022-10-23 13:01:45.467
13.0, -63954.06293321407, -93781.08010066512, 56413.09844411593, -279.5756196469807, 82873.51821345309, 62933.52698487366, 19183.295271789466, 16506.60681803308, 0.052000000000000005, 0.9460000000000001, 0.108, 192.0, 0.0, 0.0, 0.0, 0.0, 0.0, 0.0, 0.0, 0.0, 0.0, 1.6665553054672685E9, 0.0, 2022-10-23 13:01:45.467
14.0, -63872.16614152982, -93704.48067241677, 54703.16764154049, -1330.8005131245272, 82488.59882218824, 62060.691363893915, 17953.703457558568, 15046.83673940143, 0.052000000000000005, 0.9460000000000001, 0.108, 192.0, 0.0, 0.0, 0.0, 0.0, 0.0, 0.0, 0.0, 0.0, 0.0, 1.66655530546728E9, 0.0, 2022-10-23 13:01:45.467
15.0, -63896.082508096995, -93727.27945176119, 53377.9997680187, -1936.3986773966167, 82559.67736955611, 61525.61295337832, 17202.394271182333, 14377.849027854088, 0.052000000000000005, 0.9460000000000001, 0.108, 192.0, 0.0, 0.0, 0.0, 0.0, 0.0, 0.0, 0.0, 0.0, 0.0, 1.6665553054672894E9, 0.0, 2022-10-23 13:01:45.467
16.0, -63934.192232393296, -93764.22688534581, 54061.58316869535, -1468.3531485024869, 82774.23176458261, 61912.834574322056, 17758.438617997006, 15099.966835971694, 0.052000000000000005, 0.9460000000000001, 0.108, 192.0, 0.0, 0.0, 0.0, 0.0, 0.0, 0.0, 0.0, 0.0, 0.0, 1.6665553054672985E9, 0.0, 2022-10-23 13:01:45.467
17.0, -63949.48082560072, -93779.35901634206, 56286.56521875444, -310.1975095507514, 82923.16143788832, 62901.78750774712, 19136.624829366785, 16488.5913120021, 0.052000000000000005, 0.9460000000000001, 0.108, 192.0, 0.0, 0.0, 0.0, 0.0, 0.0, 0.0, 0.0, 0.0, 0.0, 1.666555305467308E9, 0.0, 2022-10-23 13:01:45.467
18.0, -63852.65306862033, -93683.24651518423, 55183.640740351766, -1067.921646585661, 82530.66480525312, 62286.3992794036, 18266.650231677322, 15372.278138670701, 0.052000000000000005, 0.9460000000000001, 0.108, 192.0, 0.0, 0.0, 0.0, 0.0, 0.0, 0.0, 0.0, 0.0, 0.0, 1.666555305467317E9, 0.0, 2022-10-23 13:01:45.467
19.0, -63861.37024895791, -93691.94134377735, 53396.194088005315, -1966.1264975221752, 82499.93115662708, 61491.52654308397, 17171.124180689356, 14319.846250992567, 0.052000000000000005, 0.9460000000000001, 0.108, 192.0, 0.0, 0.0, 0.0, 0.0, 0.0, 0.0, 0.0, 0.0, 0.0, 1.6665553054673264E9, 0.0, 2022-10-23 13:01:45.467
20.0, -63923.06106365455, -93757.34254805358, 53734.82301650322, -1666.5684183321498, 82723.18038024669, 61729.57262153299, 17521.107795370557, 14847.123902693262, 0.052000000000000005, 0.9460000000000001, 0.108, 192.0, 0.0, 0.0, 0.0, 0.0, 0.0, 0.0, 0.0, 0.0, 0.0, 1.6665553054673357E9, 0.0, 2022-10-23 13:01:45.467
21.0, -63966.31168917557, -93799.18501367391, 55956.04997349381, -461.429412535359, 82950.34115914597, 62756.18824436525, 18948.825472453293, 16336.822967150567, 0.052000000000000005, 0.9460000000000001, 0.108, 192.0, 0.0, 0.0, 0.0, 0.0, 0.0, 0.0, 0.0, 0.0, 0.0, 1.6665553054673448E9, 0.0, 2022-10-23 13:01:45.467
22.0, -63882.71616491272, -93718.2716987457, 55638.49874001727, -791.2964572067806, 82630.77826866845, 62510.43081407915, 18584.00029945377, 15733.25881162391, 0.052000000000000005, 0.9440000000000001, 0.106, 192.0, 1.0, 160.0, 29.0, 128.0, 3.0, 80.0, 0.0, 0.0, 0.0, 1.666555305467354E9, 0.0, 2022-10-23 13:01:45.467
23.0, -63864.58890015947, -93699.04919851413, 53581.31123558417, -1860.9838916044107, 82512.31402305533, 61593.11522163334, 17290.996586203168, 14408.359159035583, 0.052000000000000005, 0.9440000000000001, 0.106, 192.0, 0.0, 0.0, 0.0, 0.0, 0.0, 0.0, 0.0, 0.0, 0.0, 1.6665553054673638E9, 0.0, 2022-10-23 13:01:45.467
24.0, -63894.29436854058, -93727.30180350564, 53614.92825924495, -1715.9881253228339, 82716.51956039901, 61700.82827816347, 17451.772684070194, 14732.124177470707, 0.052000000000000005, 0.9440000000000001, 0.106, 192.0, 0.0, 0.0, 0.0, 0.0, 0.0, 0.0, 0.0, 0.0, 0.0, 1.6665553054673731E9, 0.0, 2022-10-23 13:01:45.467
25.0, -63939.0425609401, -93770.10539413756, 55598.980855820286, -620.3056121236816, 82951.63756032438, 62623.463585789636, 18752.107769502138, 16131.790415262034, 0.052000000000000005, 0.9440000000000001, 0.106, 192.0, 0.0, 0.0, 0.0, 0.0, 0.0, 0.0, 0.0, 0.0, 0.0, 1.6665553054674764E9, 0.0, 2022-10-23 13:01:45.467
26.0, -63881.464467223224, -93718.24934700124, 56049.9273002061, -540.8898640739756, 82715.37962143178, 62715.37395898986, 18870.147331970613, 16053.045219545987, 0.052000000000000005, 0.9440000000000001, 0.106, 192.0, 0.0, 0.0, 0.0, 0.0, 0.0, 0.0, 0.0, 0.0, 0.0, 1.666555305467486E9, 0.0, 2022-10-23 13:01:45.467
27.0, -63847.69098135126, -93686.33105591906, 53787.70724388448, -1770.7498992383362, 82493.13622631266, 61666.63010914685, 17395.558046765094, 14486.746726840345, 0.052000000000000005, 0.9440000000000001, 0.106, 192.0, 0.0, 0.0, 0.0, 0.0, 0.0, 0.0, 0.0, 0.0, 0.0, 1.6665553054674957E9, 0.0, 2022-10-23 13:01:45.467
28.0, -63883.78904864658, -93717.24351850075, 53477.4203273559, -1806.847966533657, 82682.25433614902, 61616.78571901152, 17334.269563468642, 14586.480210599926, 0.052000000000000005, 0.9440000000000001, 0.106, 192.0, 0.0, 0.0, 0.0, 0.0, 0.0, 0.0, 0.0, 0.0, 0.0, 1.6665553054675052E9, 0.0, 2022-10-23 13:01:45.467
29.0, -63925.7879764781, -93753.98978638528, 55140.1665973862, -853.2778445813472, 82931.63274903689, 62417.089929233785, 18464.954908484808, 15848.079722890821, 0.052000000000000005, 0.9440000000000001, 0.106, 192.0, 0.0, 0.0, 0.0, 0.0, 0.0, 0.0, 0.0, 0.0, 0.0, 1.6665553054675145E9, 0.0, 2022-10-23 13:01:45.467
30.0, -63903.79385993408, -93739.05882108913, 56331.33576289842, -344.8650652009327, 82824.41143088478, 62871.97028064374, 19087.652157265205, 16319.813289620077, 0.052000000000000005, 0.9440000000000001, 0.106, 192.0, 0.0, 0.0, 0.0, 0.0, 0.0, 0.0, 0.0, 0.0, 0.0, 1.6665553054675236E9, 0.0, 2022-10-23 13:01:45.467
31.0, -63851.4684261642, -93686.19694545234, 54099.8717069473, -1608.0068478592455, 82503.68624969557, 61813.30225626258, 17593.61685438357, 14661.492664991936, 0.04, 0.9500000000000001, 0.11, 192.0, 1.0, 64.0, 29.0, 176.0, 3.0, 112.0, 0.0, 0.0, 0.0, 1.6665553054675353E9, 0.0, 2022-10-23 13:01:45.467
32.0, -63888.97465336021, -93718.29405049015, 53395.65764613839, -1865.6330544511145, 82642.91526590768, 61567.6342329543, 17263.16866435631, 14475.52615112378, 0.04, 0.9500000000000001, 0.11, 192.0, 0.0, 0.0, 0.0, 0.0, 0.0, 0.0, 0.0, 0.0, 0.0, 1.6665553054675455E9, 0.0, 2022-10-23 13:01:45.467
33.0, -63939.82487199603, -93767.37848131401, 54661.5039898758, -1110.948754662127, 82878.23443153316, 62198.15459229405, 18161.97701239312, 15528.405073691021, 0.04, 0.9500000000000001, 0.11, 192.0, 0.0, 0.0, 0.0, 0.0, 0.0, 0.0, 0.0, 0.0, 0.0, 1.666555305467555E9, 0.0, 2022-10-23 13:01:45.467
34.0, -63922.435214809804, -93755.82262943061, 56393.6077229509, -281.3190557144947, 82875.0604838205, 62920.27240041166, 19161.681134901184, 16438.50105267776, 0.04, 0.9500000000000001, 0.11, 192.0, 0.0, 0.0, 0.0, 0.0, 0.0, 0.0, 0.0, 0.0, 0.0, 1.6665553054675643E9, 0.0, 2022-10-23 13:01:45.467
35.0, -63851.24490871965, -93689.0579687426, 54383.22477140722, -1477.0256253511461, 82493.0691710793, 61919.24952498073, 17758.975059863933, 14836.484472332535, 0.04, 0.9500000000000001, 0.11, 192.0, 0.0, 0.0, 0.0, 0.0, 0.0, 0.0, 0.0, 0.0, 0.0, 1.6665553054675736E9, 0.0, 2022-10-23 13:01:45.467
36.0, -63879.47516196671, -93710.62740214198, 53300.59567696997, -1942.6795175885582, 82602.23509099902, 61495.52750534147, 17174.54399759102, 14373.043402796198, 0.04, 0.9500000000000001, 0.11, 192.0, 0.0, 0.0, 0.0, 0.0, 0.0, 0.0, 0.0, 0.0, 0.0, 1.6665553054675827E9, 0.0, 2022-10-23 13:01:45.467
37.0, -63926.011493922655, -93751.66520496193, 54219.76646420556, -1345.5973679539404, 82847.50078290711, 61993.97140669482, 17882.043764834852, 15247.711866821273, 0.04, 0.9500000000000001, 0.11, 192.0, 0.0, 0.0, 0.0, 0.0, 0.0, 0.0, 0.0, 0.0, 0.0, 1.666555305467592E9, 0.0, 2022-10-23 13:01:45.467
38.0, -63935.108653915966, -93760.24827483276, 56352.34640268641, -250.83127627745586, 82950.89995275736, 62936.92445003086, 19184.859893901335, 16522.051873451695, 0.04, 0.9500000000000001, 0.11, 192.0, 0.0, 0.0, 0.0, 0.0, 0.0, 0.0, 0.0, 0.0, 0.0, 1.6665553054676013E9, 0.0, 2022-10-23 13:01:45.467
39.0, -63849.47912090769, -93679.60318083802, 54861.46269577297, -1194.8572033473497, 82561.21963992354, 62163.799961066245, 18089.06562197991, 15190.312587060045, 0.04, 0.9500000000000001, 0.11, 192.0, 0.0, 0.0, 0.0, 0.0, 0.0, 0.0, 0.0, 0.0, 0.0, 1.6665553054676104E9, 0.0, 2022-10-23 13:01:45.467
40.0, -63867.6734408943, -93694.869422301, 53346.46145659226, -1919.5454620773153, 82581.20209946658, 61522.818985321406, 17198.39330892483, 14372.015222551254, 0.04, 0.9500000000000001, 0.11, 192.0, 0.0, 0.0, 0.0, 0.0, 0.0, 0.0, 0.0, 0.0, 0.0, 1.6665553054676197E9, 0.0, 2022-10-23 13:01:45.467
41.0, -63915.95320891777, -93739.3270420226, 53881.5175153634, -1526.8476637420254, 82787.93338393372, 61840.549032753595, 17664.53893954026, 15011.386872695313, 0.04, 0.9480000000000001, 0.11, 192.0, 1.0, 64.0, 29.0, 160.0, 3.0, 112.0, 0.0, 0.0, 0.0, 1.6665553054676657E9, 0.0, 2022-10-23 13:01:45.467
42.0, -63950.486654101216, -93772.45232730536, 56136.361496014775, -330.0905621159747, 82969.92128728883, 62862.78371367261, 19084.902892697202, 16456.896538364475, 0.04, 0.9480000000000001, 0.11, 192.0, 0.0, 0.0, 0.0, 0.0, 0.0, 0.0, 0.0, 0.0, 0.0, 1.6665553054676757E9, 0.0, 2022-10-23 13:01:45.467
43.0, -63871.473237451704, -93697.28341070216, 55307.78232905654, -946.2834532598798, 82597.9435560636, 62371.24650135595, 18386.45558195777, 15512.803556061215, 0.04, 0.9480000000000001, 0.11, 192.0, 0.0, 0.0, 0.0, 0.0, 0.0, 0.0, 0.0, 0.0, 0.0, 1.6665553054676847E9, 0.0, 2022-10-23 13:01:45.467
44.0, -63875.63066192039, -93696.29993394614, 53453.325146833085, -1875.9819121339217, 82552.45775609705, 61568.84122715488, 17253.155082840334, 14386.588559936114, 0.04, 0.9480000000000001, 0.11, 192.0, 0.0, 0.0, 0.0, 0.0, 0.0, 0.0, 0.0, 0.0, 0.0, 1.666555305467694E9, 0.0, 2022-10-23 13:01:45.467
45.0, -63914.70151122827, -93733.8285128866, 53705.45282428895, -1614.5559089846504, 82757.1326800743, 61781.965110536235, 17556.132978932023, 14851.147216695217, 0.04, 0.9480000000000001, 0.11, 192.0, 0.0, 0.0, 0.0, 0.0, 0.0, 0.0, 0.0, 0.0, 0.0, 1.666555305467703E9, 0.0, 2022-10-23 13:01:45.467
46.0, -63954.08528495852, -93771.58060927161, 55841.29611746027, -457.07082236657413, 82964.15453721935, 62759.47395080018, 18926.630190209173, 16297.953283542787, 0.04, 0.9480000000000001, 0.11, 192.0, 0.0, 0.0, 0.0, 0.0, 0.0, 0.0, 0.0, 0.0, 0.0, 1.6665553054677124E9, 0.0, 2022-10-23 13:01:45.467
47.0, -63887.342976014974, -93712.08026553158, 55812.73058804638, -641.6068245895892, 82672.0172371885, 62631.532565538, 18734.204022193437, 15883.484886108028, 0.04, 0.9480000000000001, 0.11, 192.0, 0.0, 0.0, 0.0, 0.0, 0.0, 0.0, 0.0, 0.0, 0.0, 1.6665553054677217E9, 0.0, 2022-10-23 13:01:45.467
48.0, -63868.14282752787, -93694.57884962307, 53658.62591965508, -1784.9879604563666, 82512.4257817776, 61659.16462649878, 17360.130531803436, 14452.660316546002, 0.04, 0.9480000000000001, 0.11, 192.0, 0.0, 0.0, 0.0, 0.0, 0.0, 0.0, 0.0, 0.0, 0.0, 1.666555305467731E9, 0.0, 2022-10-23 13:01:45.467
49.0, -63903.95032214527, -93727.23474827228, 53535.69132515089, -1733.556596464705, 82699.15225495724, 61684.13152505535, 17412.59007604004, 14670.545121496336, 0.04, 0.9480000000000001, 0.11, 192.0, 0.0, 0.0, 0.0, 0.0, 0.0, 0.0, 0.0, 0.0, 0.0, 1.6665553054677405E9, 0.0, 2022-10-23 13:01:45.467
50.0, -63956.141645448406, -93777.41441457444, 55437.623612597425, -663.064499266684, 82950.98935973518, 62591.05355632944, 18684.09141112464, 16051.79352185649, 0.04, 0.9480000000000001, 0.11, 192.0, 0.0, 0.0, 0.0, 0.0, 0.0, 0.0, 0.0, 0.0, 0.0, 1.6665553054677498E9, 0.0, 2022-10-23 13:01:45.467
51.0, -63897.89299939788, -93722.78675112568, 56187.07760418387, -417.84351084751023, 82748.63901718128, 62824.20460274275, 19002.67082484613, 16185.25578799913, 0.038, 0.9440000000000001, 0.11, 192.0, 1.0, 48.0, 29.0, 128.0, 3.0, 112.0, 0.0, 0.0, 0.0, 1.666555305467759E9, 0.0, 2022-10-23 13:01:45.467
52.0, -63851.84840581995, -93677.54682034813, 53895.353245181235, -1687.6461133535045, 82488.33060125478, 61744.86121474043, 17488.340137999076, 14554.137236373095, 0.038, 0.9440000000000001, 0.11, 192.0, 0.0, 0.0, 0.0, 0.0, 0.0, 0.0, 0.0, 0.0, 0.0, 1.6665553054677699E9, 0.0, 2022-10-23 13:01:45.467
53.0, -63905.5819994905, -93730.34164075156, 53480.81779251311, -1773.5438672952496, 82680.13092042577, 61657.71176310918, 17362.142188804413, 14585.36262337716, 0.038, 0.9440000000000001, 0.11, 192.0, 0.0, 0.0, 0.0, 0.0, 0.0, 0.0, 0.0, 0.0, 0.0, 1.666555305467779E9, 0.0, 2022-10-23 13:01:45.467
54.0, -63958.71209606077, -93779.18020238641, 55012.73930224649, -887.3419031312351, 82904.29656556805, 62406.53990585088, 18414.663483460365, 15774.631890610683, 0.038, 0.9440000000000001, 0.11, 192.0, 0.0, 0.0, 0.0, 0.0, 0.0, 0.0, 0.0, 0.0, 0.0, 1.666555305467788E9, 0.0, 2022-10-23 13:01:45.467
55.0, -63923.910429943855, -93750.50291425025, 56423.469653543194, -261.6495205938245, 82826.46779137467, 62953.66590662789, 19173.92989086269, 16408.035624985176, 0.038, 0.9440000000000001, 0.11, 192.0, 0.0, 0.0, 0.0, 0.0, 0.0, 0.0, 0.0, 0.0, 0.0, 1.6665553054677973E9, 0.0, 2022-10-23 13:01:45.467
56.0, -63859.045667534556, -93687.1580704639, 54276.02580499957, -1495.7116837157828, 82500.31113628282, 61922.334065715564, 17714.003350019855, 14767.372878476726, 0.038, 0.9440000000000001, 0.11, 192.0, 0.0, 0.0, 0.0, 0.0, 0.0, 0.0, 0.0, 0.0, 0.0, 1.666555305467816E9, 0.0, 2022-10-23 13:01:45.467
57.0, -63896.55189473056, -93719.90337609094, 53456.38733582346, -1811.0947979801654, 82634.82393441486, 61630.68850406272, 17311.29197016859, 14492.848753076643, 0.038, 0.9440000000000001, 0.11, 192.0, 0.0, 0.0, 0.0, 0.0, 0.0, 0.0, 0.0, 0.0, 0.0, 1.6665553054678257E9, 0.0, 2022-10-23 13:01:45.467
58.0, -63948.54205233361, -93766.70792898035, 54574.868628367025, -1133.233443884068, 82855.97209405567, 62190.26442650133, 18117.76526186052, 15456.275994333744, 0.038, 0.9440000000000001, 0.11, 192.0, 0.0, 0.0, 0.0, 0.0, 0.0, 0.0, 0.0, 0.0, 0.0, 1.6665553054678347E9, 0.0, 2022-10-23 13:01:45.467
59.0, -63942.10474993048, -93764.00336790126, 56514.0389220761, -172.91309510625544, 82908.00695514762, 63023.09042490607, 19265.706153596184, 16537.6533910815, 0.038, 0.9440000000000001, 0.11, 192.0, 0.0, 0.0, 0.0, 0.0, 0.0, 0.0, 0.0, 0.0, 0.0, 1.666555305467844E9, 0.0, 2022-10-23 13:01:45.467
60.0, -63863.851292592444, -93689.32618967608, 54689.26485648929, -1278.8774107548488, 82521.50059002645, 62103.271437081276, 17967.718001332047, 15018.87470708784, 0.038, 0.9440000000000001, 0.11, 192.0, 0.0, 0.0, 0.0, 0.0, 0.0, 0.0, 0.0, 0.0, 0.0, 1.666555305467853E9, 0.0, 2022-10-23 13:01:45.467
61.0, -63891.20982780574, -93713.42137019889, 53435.28728905765, -1847.9975280758774, 82593.22733798354, 61590.74593672108, 17258.65361197634, 14408.94030439142, 0.032, 0.9460000000000001, 0.116, 192.0, 1.0, 0.0, 29.0, 144.0, 3.0, 160.0, 0.0, 0.0, 0.0, 1.666555305467862E9, 0.0, 2022-10-23 13:01:45.467
62.0, -63939.84722374049, -93761.25410333325, 54203.516745986555, -1337.55073995003, 82815.62719531383, 62014.04327321569, 17865.704639638025, 15180.924854388817, 0.032, 0.9460000000000001, 0.116, 192.0, 0.0, 0.0, 0.0, 0.0, 0.0, 0.0, 0.0, 0.0, 0.0, 1.6665553054678717E9, 0.0, 2022-10-23 13:01:45.467
63.0, -63957.594508838, -93778.04026341919, 56402.660179455306, -202.05976987597586, 82946.00492072165, 62984.24309304274, 19216.04057741649, 16527.5504025877, 0.032, 0.9460000000000001, 0.116, 192.0, 0.0, 0.0, 0.0, 0.0, 0.0, 0.0, 0.0, 0.0, 0.0, 1.6665553054678807E9, 0.0, 2022-10-23 13:01:45.467
64.0, -63870.44505720676, -93696.54580313514, 55155.54459757145, -1028.850797277784, 82555.2293724095, 62310.31564597078, 18260.883481607852, 15330.256859094723, 0.032, 0.9460000000000001, 0.116, 192.0, 0.0, 0.0, 0.0, 0.0, 0.0, 0.0, 0.0, 0.0, 0.0, 1.66655530546789E9, 0.0, 2022-10-23 13:01:45.467
65.0, -63881.21859803422, -93702.44666367135, 53513.987781284784, -1827.4562749214501, 82563.7900905359, 61610.1919543972, 17281.385336087387, 14399.261999042274, 0.032, 0.9460000000000001, 0.116, 192.0, 0.0, 0.0, 0.0, 0.0, 0.0, 0.0, 0.0, 0.0, 0.0, 1.666555305467899E9, 0.0, 2022-10-23 13:01:45.467
66.0, -63925.11742414444, -93741.51751297922, 53939.49794048047, -1490.995465635713, 82773.56121224895, 61881.45272510681, 17682.241521148866, 14970.505532086556, 0.032, 0.9460000000000001, 0.116, 192.0, 0.0, 0.0, 0.0, 0.0, 0.0, 0.0, 0.0, 0.0, 0.0, 1.6665553054679084E9, 0.0, 2022-10-23 13:01:45.467
67.0, -63967.78690430962, -93784.58932454459, 56187.88226698426, -293.9924948206538, 82972.40233092336, 62897.093641411506, 19104.237151651043, 16442.25614574625, 0.032, 0.9460000000000001, 0.116, 192.0, 0.0, 0.0, 0.0, 0.0, 0.0, 0.0, 0.0, 0.0, 0.0, 1.6665553054679174E9, 0.0, 2022-10-23 13:01:45.467
68.0, -63895.881342396904, -93719.7692656242, 55686.778508040734, -735.5959100241554, 82625.59266395481, 62552.58620412186, 18610.10713697757, 15706.146145599621, 0.032, 0.9460000000000001, 0.116, 192.0, 0.0, 0.0, 0.0, 0.0, 0.0, 0.0, 0.0, 0.0, 0.0, 1.6665553054679265E9, 0.0, 2022-10-23 13:01:45.467
69.0, -63893.24383655118, -93715.79065511115, 53711.62190575861, -1753.717869963392, 82527.3343953293, 61676.08489705145, 17376.693174444816, 14452.660316546002, 0.032, 0.9460000000000001, 0.116, 192.0, 0.0, 0.0, 0.0, 0.0, 0.0, 0.0, 0.0, 0.0, 0.0, 1.6665553054679356E9, 0.0, 2022-10-23 13:01:45.467
70.0, -63936.40505509437, -93756.53788525319, 53815.579869220244, -1582.8611353470249, 82718.01712727752, 61805.099166047476, 17574.014374496266, 14811.852849942787, 0.042, 0.9520000000000001, 0.112, 192.0, 1.0, 80.0, 29.0, 192.0, 3.0, 128.0, 0.0, 0.0, 0.0, 1.6665553054679449E9, 0.0, 2022-10-23 13:01:45.467
71.0, -63974.8500555575, -93793.15004267098, 55855.31066123374, -469.6101510060014, 82946.29549339956, 62741.14552034683, 18896.097707283225, 16224.907782662844, 0.042, 0.9520000000000001, 0.112, 192.0, 0.0, 0.0, 0.0, 0.0, 0.0, 0.0, 0.0, 0.0, 0.0, 1.6665553054679544E9, 0.0, 2022-10-23 13:01:45.467
72.0, -63910.8346594375, -93734.2755477757, 56141.27887979495, -477.5003167987248, 82707.91413878372, 62768.63816602685, 18916.4154429931, 16030.738178579591, 0.042, 0.9520000000000001, 0.112, 192.0, 0.0, 0.0, 0.0, 0.0, 0.0, 0.0, 0.0, 0.0, 0.0, 1.6665553054679923E9, 0.0, 2022-10-23 13:01:45.467
73.0, -63891.70156618376, -93710.33682946407, 53926.55628044085, -1671.955188745879, 82503.59684271776, 61755.187720678776, 17484.786210630682, 14515.155794043041, 0.042, 0.9520000000000001, 0.112, 192.0, 0.0, 0.0, 0.0, 0.0, 0.0, 0.0, 0.0, 0.0, 0.0, 1.6665553054680026E9, 0.0, 2022-10-23 13:01:45.468
74.0, -63929.76658699114, -93744.71381243633, 53704.89403067756, -1666.657825309971, 82689.5633565859, 61742.46957808371, 17476.627823904495, 14662.856121403709, 0.042, 0.9520000000000001, 0.112, 192.0, 0.0, 0.0, 0.0, 0.0, 0.0, 0.0, 0.0, 0.0, 0.0, 1.6665553054680119E9, 0.0, 2022-10-23 13:01:45.468
75.0, -63974.6488898574, -93787.5844583016, 55463.6410431434, -669.3676912030807, 82936.59483630596, 62584.61625392631, 18659.482140479344, 15965.269919069997, 0.042, 0.9520000000000001, 0.112, 192.0, 0.0, 0.0, 0.0, 0.0, 0.0, 0.0, 0.0, 0.0, 0.0, 1.666555305468021E9, 0.0, 2022-10-23 13:01:45.468
76.0, -63921.87642119842, -93739.61761470052, 56473.537561123085, -274.9711602891875, 82788.33571533392, 62940.54543263262, 19147.80070159444, 16294.265245707662, 0.042, 0.9520000000000001, 0.112, 192.0, 0.0, 0.0, 0.0, 0.0, 0.0, 0.0, 0.0, 0.0, 0.0, 1.66655530546803E9, 0.0, 2022-10-23 13:01:45.468
77.0, -63881.330356756494, -93703.29602996065, 54222.22515609564, -1535.9448237353354, 82495.61726994721, 61882.279739651654, 17649.295049821743, 14649.914461364087, 0.042, 0.9520000000000001, 0.112, 192.0, 0.0, 0.0, 0.0, 0.0, 0.0, 0.0, 0.0, 0.0, 0.0, 1.6665553054680393E9, 0.0, 2022-10-23 13:01:45.468
78.0, -63923.17282237683, -93741.51751297922, 53653.28385273026, -1713.015343310278, 82657.7121207371, 61717.45797603822, 17414.64643652993, 14559.568710275737, 0.042, 0.9520000000000001, 0.112, 192.0, 0.0, 0.0, 0.0, 0.0, 0.0, 0.0, 0.0, 0.0, 0.0, 1.6665553054680483E9, 0.0, 2022-10-23 13:01:45.468
79.0, -63968.591567110016, -93785.41633908944, 55054.06767774435, -887.4536618535116, 82897.2110625757, 62419.23569670149, 18396.200942540283, 15682.162723799078, 0.042, 0.9520000000000001, 0.112, 192.0, 0.0, 0.0, 0.0, 0.0, 0.0, 0.0, 0.0, 0.0, 0.0, 1.6665553054680576E9, 0.0, 2022-10-23 13:01:45.468
80.0, -63949.436122111816, -93768.71958598132, 56689.85774396155, -125.41563813872793, 82865.78450987155, 63086.5917309036, 19318.188049577242, 16496.12384988354, 0.048, 0.9520000000000001, 0.112, 192.0, 1.0, 128.0, 29.0, 192.0, 3.0, 128.0, 0.0, 0.0, 0.0, 1.6665553054680667E9, 0.0, 2022-10-23 13:01:45.468
81.0, -63878.201112532755, -93697.10459674652, 54604.0376548812, -1354.7392314361612, 82495.3714007582, 62058.43383770393, 17870.845540862745, 14851.41543762868, 0.048, 0.9520000000000001, 0.112, 192.0, 0.0, 0.0, 0.0, 0.0, 0.0, 0.0, 0.0, 0.0, 0.0, 1.6665553054680765E9, 0.0, 2022-10-23 13:01:45.468
82.0, -63909.717072214735, -93724.86546336001, 53604.42293935096, -1779.467079575906, 82616.49550396152, 61667.54653066952, 17334.47072916874, 14440.635078029047, 0.048, 0.9520000000000001, 0.112, 192.0, 0.0, 0.0, 0.0, 0.0, 0.0, 0.0, 0.0, 0.0, 0.0, 1.6665553054680855E9, 0.0, 2022-10-23 13:01:45.468
83.0, -63957.683915815825, -93772.67584474992, 54596.393358277484, -1162.0895459758694, 82840.59409387042, 62180.519065918816, 18071.34068862685, 15343.109112156524, 0.048, 0.9520000000000001, 0.112, 192.0, 0.0, 0.0, 0.0, 0.0, 0.0, 0.0, 0.0, 0.0, 0.0, 1.6665553054680948E9, 0.0, 2022-10-23 13:01:45.468
84.0, -63962.51189261817, -93783.53879255519, 56643.701391661336, -136.7256208331133, 82916.45591455173, 63061.356611413554, 19296.39509873332, 16530.098501455606, 0.048, 0.9520000000000001, 0.112, 192.0, 0.0, 0.0, 0.0, 0.0, 0.0, 0.0, 0.0, 0.0, 0.0, 1.6665553054681036E9, 0.0, 2022-10-23 13:01:45.468
85.0, -63883.49847596866, -93714.80717835513, 55025.926831475124, -1140.4530573431323, 82536.47625881151, 62235.92904042352, 18125.901296842254, 15123.480871138678, 0.048, 0.9520000000000001, 0.112, 192.0, 0.0, 0.0, 0.0, 0.0, 0.0, 0.0, 0.0, 0.0, 0.0, 1.6665553054681127E9, 0.0, 2022-10-23 13:01:45.468
86.0, -63904.39735703437, -93732.50975996372, 53647.71826836089, -1779.6905970204589, 82585.91831754665, 61675.771972629074, 17337.063531525557, 14410.326112547651, 0.048, 0.9520000000000001, 0.112, 192.0, 0.0, 0.0, 0.0, 0.0, 0.0, 0.0, 0.0, 0.0, 0.0, 1.6665553054681218E9, 0.0, 2022-10-23 13:01:45.468
87.0, -63943.40115110888, -93770.35126332656, 54284.51946789258, -1335.6508416713289, 82801.45618932917, 62042.47469216284, 17864.922328582088, 15105.063033707505, 0.048, 0.9520000000000001, 0.112, 192.0, 0.0, 0.0, 0.0, 0.0, 0.0, 0.0, 0.0, 0.0, 0.0, 1.6665553054681308E9, 0.0, 2022-10-23 13:01:45.468
88.0, -63962.42248564035, -93790.06550193614, 56486.72509035171, -195.13072909483066, 82953.13512720288, 63008.69590147685, 19222.85785947536, 16485.238550333805, 0.048, 0.9520000000000001, 0.112, 192.0, 0.0, 0.0, 0.0, 0.0, 0.0, 0.0, 0.0, 0.0, 0.0, 1.6665553054681487E9, 0.0, 2022-10-23 13:01:45.468
89.0, -63875.58595843148, -93706.04529452864, 55481.03070032963, -897.0202084803831, 82590.70159086009, 62440.3357434673, 18415.669311960854, 15441.76971218225, 0.048, 0.9520000000000001, 0.112, 192.0, 0.0, 0.0, 0.0, 0.0, 0.0, 0.0, 0.0, 0.0, 0.0, 1.6665553054681575E9, 0.0, 2022-10-23 13:01:45.468
90.0, -63888.527618471104, -93717.37762896749, 53723.35657159765, -1766.7042334919256, 82574.18365170762, 61693.69807168223, 17356.755418390683, 14406.459260756883, 0.046, 0.9520000000000001, 0.108, 192.0, 1.0, 112.0, 29.0, 192.0, 3.0, 96.0, 0.0, 0.0, 0.0, 1.6665553054681668E9, 0.0, 2022-10-23 13:01:45.468
91.0, -63940.0930929295, -93767.89257143647, 54035.20811023809, -1488.2238493232549, 82767.79446217949, 61922.35641746002, 17689.68465205248, 14900.857496363818, 0.046, 0.9520000000000001, 0.108, 192.0, 0.0, 0.0, 0.0, 0.0, 0.0, 0.0, 0.0, 0.0, 0.0, 1.6665553054681764E9, 0.0, 2022-10-23 13:01:45.468
92.0, -63973.352488679, -93797.82155726214, 56220.471110400096, -312.6562014408352, 82973.60932512395, 62920.51826960067, 19085.55109328641, 16364.896758186433, 0.046, 0.9520000000000001, 0.108, 192.0, 0.0, 0.0, 0.0, 0.0, 0.0, 0.0, 0.0, 0.0, 0.0, 1.6665553054681854E9, 0.0, 2022-10-23 13:01:45.468
93.0, -63894.964920874234, -93723.5243586927, 55958.531017128356, -635.5047983532904, 82643.87639091926, 62673.576196858434, 18732.907621015027, 15786.12068726071, 0.046, 0.9520000000000001, 0.108, 192.0, 0.0, 0.0, 0.0, 0.0, 0.0, 0.0, 0.0, 0.0, 0.0, 1.6665553054681945E9, 0.0, 2022-10-23 13:01:45.468
94.0, -63887.81236264853, -93715.43302719988, 53832.07545662826, -1755.6177682420932, 82511.24113932147, 61709.70192071223, 17383.376346036952, 14403.777051422245, 0.046, 0.9520000000000001, 0.108, 192.0, 0.0, 0.0, 0.0, 0.0, 0.0, 0.0, 0.0, 0.0, 0.0, 1.6665553054682035E9, 0.0, 2022-10-23 13:01:45.468
95.0, -63926.81615672305, -93752.2239985733, 53831.49431127242, -1626.089409123589, 82719.8723220673, 61807.066119559546, 17527.343932073585, 14715.896810996153, 0.046, 0.9520000000000001, 0.108, 192.0, 0.0, 0.0, 0.0, 0.0, 0.0, 0.0, 0.0, 0.0, 0.0, 1.6665553054682136E9, 0.0, 2022-10-23 13:01:45.468
96.0, -63965.59643335301, -93787.74092051279, 55787.450765067435, -542.9685763083191, 82957.49371737168, 62719.53138345855, 18813.060976631758, 16111.13740338533, 0.046, 0.9520000000000001, 0.108, 192.0, 0.0, 0.0, 0.0, 0.0, 0.0, 0.0, 0.0, 0.0, 0.0, 1.6665553054682229E9, 0.0, 2022-10-23 13:01:45.468
97.0, -63903.771508189624, -93730.76632389621, 56335.33672515592, -410.02040028815276, 82740.79355487747, 62855.25117579117, 18995.160638709145, 16103.47075503716, 0.046, 0.9520000000000001, 0.108, 192.0, 0.0, 0.0, 0.0, 0.0, 0.0, 0.0, 0.0, 0.0, 0.0, 1.6665553054682317E9, 0.0, 2022-10-23 13:01:45.468
98.0, -63872.21084501873, -93696.43404441286, 54061.00202333952, -1657.8065345056696, 82501.49577873896, 61796.51609617664, 17506.377995774506, 14512.227715519395, 0.046, 0.9520000000000001, 0.108, 192.0, 0.0, 0.0, 0.0, 0.0, 0.0, 0.0, 0.0, 0.0, 0.0, 1.6665553054682407E9, 0.0, 2022-10-23 13:01:45.468
99.0, -63915.46147053975, -93732.66622217491, 53698.7249492079, -1728.4827504733505, 82683.19310941614, 61715.42396729279, 17406.82332597057, 14575.684318028012, 0.042, 0.9500000000000001, 0.112, 192.0, 1.0, 80.0, 29.0, 176.0, 3.0, 128.0, 0.0, 0.0, 0.0, 1.6665553054682498E9, 0.0, 2022-10-23 13:01:45.468
100.0, -63955.51579660366, -93764.383347557, 55335.967878814685, -789.4412624169902, 82934.2255513937, 62513.984741447544, 18529.32793251609, 15833.551088994873, 0.042, 0.9500000000000001, 0.112, 192.0, 0.0, 0.0, 0.0, 0.0, 0.0, 0.0, 0.0, 0.0, 0.0, 1.6665553054682596E9, 0.0, 2022-10-23 13:01:45.468
101.0, -63897.53537148659, -93713.98016381028, 56621.55081290613, -235.8109040034895, 82832.3015966775, 63016.22843935829, 19219.683911762706, 16379.783019993667, 0.042, 0.9500000000000001, 0.112, 192.0, 0.0, 0.0, 0.0, 0.0, 0.0, 0.0, 0.0, 0.0, 0.0, 1.6665553054682765E9, 0.0, 2022-10-23 13:01:45.468
102.0, -63853.30126920954, -93686.9122012749, 54407.1411379744, -1497.0527883831012, 82507.64250846417, 61960.443790011865, 17727.928486815512, 14720.747139542955, 0.042, 0.9500000000000001, 0.112, 192.0, 0.0, 0.0, 0.0, 0.0, 0.0, 0.0, 0.0, 0.0, 0.0, 1.6665553054683173E9, 0.0, 2022-10-23 13:01:45.468
103.0, -63910.477031526214, -93746.45724850384, 53711.59955401416, -1737.3116895331968, 82673.47010057808, 61743.587165306475, 17417.283942375656, 14543.341343801183, 0.042, 0.9500000000000001, 0.112, 192.0, 0.0, 0.0, 0.0, 0.0, 0.0, 0.0, 0.0, 0.0, 0.0, 1.666555305468396E9, 0.0, 2022-10-23 13:01:45.468
104.0, -63955.40403788138, -93792.16656591494, 54944.477074679984, -1004.8450237327843, 82890.25967005012, 62358.975393649984, 18293.96406340171, 15564.972527619902, 0.042, 0.9500000000000001, 0.112, 192.0, 0.0, 0.0, 0.0, 0.0, 0.0, 0.0, 0.0, 0.0, 0.0, 1.6665553054684424E9, 0.0, 2022-10-23 13:01:45.468
105.0, -63943.66937204235, -93790.84781299208, 56739.5903753746, -145.48750465959367, 82893.50067299613, 63097.1417542865, 19326.055863625512, 16515.659274537476, 0.042, 0.9500000000000001, 0.112, 192.0, 0.0, 0.0, 0.0, 0.0, 0.0, 0.0, 0.0, 0.0, 0.0, 1.666555305468484E9, 0.0, 2022-10-23 13:01:45.468
106.0, -63877.79878113256, -93728.75466689524, 54809.67370387002, -1298.032855753047, 82517.45492428004, 62138.54248983175, 17971.89777754519, 14945.404523063246, 0.042, 0.9500000000000001, 0.112, 192.0, 0.0, 0.0, 0.0, 0.0, 0.0, 0.0, 0.0, 0.0, 0.0, 1.6665553054685252E9, 0.0, 2022-10-23 13:01:45.468
107.0, -63910.38762454839, -93762.3269870671, 53708.894992935064, -1770.9063614495233, 82624.43037324314, 61722.531822029574, 17380.895302402416, 14453.062647946197, 0.042, 0.9500000000000001, 0.112, 192.0, 0.0, 0.0, 0.0, 0.0, 0.0, 0.0, 0.0, 0.0, 0.0, 1.6665553054685476E9, 0.0, 2022-10-23 13:01:45.468
108.0, -63954.06293321407, -93809.42211263443, 54562.30694798315, -1225.4343897622098, 82838.09069849142, 62175.132295505085, 18033.968571897578, 15265.705021107797, 0.042, 0.9500000000000001, 0.112, 192.0, 0.0, 0.0, 0.0, 0.0, 0.0, 0.0, 0.0, 0.0, 0.0, 1.6665553054685574E9, 0.0, 2022-10-23 13:01:45.468
109.0, -63968.39040140992, -93825.15774073098, 56745.066552766155, -104.62851579529236, 82959.2818569281, 63142.73931297533, 19370.066448458012, 16578.199455523427, 0.038, 0.9480000000000001, 0.106, 192.0, 1.0, 48.0, 29.0, 160.0, 3.0, 80.0, 0.0, 0.0, 0.0, 1.6665553054685674E9, 0.0, 2022-10-23 13:01:45.468
110.0, -63879.63162417789, -93745.20555081434, 55313.549079126016, -1031.0412682344042, 82552.90479098615, 62379.62840552669, 18294.09817386844, 15260.318250694067, 0.038, 0.9480000000000001, 0.106, 192.0, 0.0, 0.0, 0.0, 0.0, 0.0, 0.0, 0.0, 0.0, 0.0, 1.666555305468578E9, 0.0, 2022-10-23 13:01:45.468
111.0, -63904.5314675011, -93766.50676328025, 53788.08722354022, -1756.1542101090206, 82587.5946983808, 61744.213014151224, 17397.994386910723, 14422.753682464801, 0.038, 0.9480000000000001, 0.106, 192.0, 0.0, 0.0, 0.0, 0.0, 0.0, 0.0, 0.0, 0.0, 0.0, 1.666555305468588E9, 0.0, 2022-10-23 13:01:45.468
112.0, -63944.33992437601, -93802.38131313102, 54284.00537777012, -1388.1997928857556, 82792.40373282478, 62043.838148574614, 17835.507432878905, 15027.614239169865, 0.038, 0.9480000000000001, 0.106, 192.0, 0.0, 0.0, 0.0, 0.0, 0.0, 0.0, 0.0, 0.0, 0.0, 1.666555305468598E9, 0.0, 2022-10-23 13:01:45.468
113.0, -63968.50216013219, -93827.28115645424, 56492.84946833247, -232.12286616836386, 82963.66279884134, 63020.07293940461, 19211.413766314243, 16445.720666136822, 0.038, 0.9480000000000001, 0.106, 192.0, 0.0, 0.0, 0.0, 0.0, 0.0, 0.0, 0.0, 0.0, 0.0, 1.666555305468608E9, 0.0, 2022-10-23 13:01:45.468
114.0, -63888.59467370447, -93755.21913233033, 55769.52466601428, -789.4189106725348, 82611.93574809263, 62577.15077127824, 18579.73111626281, 15574.673184713505, 0.038, 0.9480000000000001, 0.106, 192.0, 0.0, 0.0, 0.0, 0.0, 0.0, 0.0, 0.0, 0.0, 0.0, 1.6665553054686177E9, 0.0, 2022-10-23 13:01:45.468
115.0, -63887.342976014974, -93752.13459159549, 53861.40094535363, -1762.6809194899702, 82536.72212800052, 61740.68143852728, 17401.97299742377, 14398.010301352777, 0.038, 0.9480000000000001, 0.106, 192.0, 0.0, 0.0, 0.0, 0.0, 0.0, 0.0, 0.0, 0.0, 0.0, 1.6665553054686277E9, 0.0, 2022-10-23 13:01:45.468
116.0, -63919.4847845417, -93778.73316749731, 54010.285915170425, -1573.6522166314385, 82741.0841275554, 61879.23990240573, 17623.702302420414, 14795.312559045859, 0.038, 0.9480000000000001, 0.106, 192.0, 0.0, 0.0, 0.0, 0.0, 0.0, 0.0, 0.0, 0.0, 0.0, 1.666555305468639E9, 0.0, 2022-10-23 13:01:45.468
117.0, -63965.305860675086, -93822.47553139634, 56159.294385825924, -394.3071239360719, 83000.07379055904, 62883.19085636031, 19024.642589645697, 16282.061193235064, 0.038, 0.9480000000000001, 0.106, 192.0, 0.0, 0.0, 0.0, 0.0, 0.0, 0.0, 0.0, 0.0, 0.0, 1.66655530546865E9, 0.0, 2022-10-23 13:01:45.468
118.0, -63899.4799732542, -93768.94310342587, 56225.65671511373, -531.4797796582914, 82700.42630439119, 62799.081241974985, 18894.35427121571, 15929.462424452595, 0.038, 0.9480000000000001, 0.106, 192.0, 0.0, 0.0, 0.0, 0.0, 0.0, 0.0, 0.0, 0.0, 0.0, 1.6665553054686599E9, 0.0, 2022-10-23 13:01:45.468
119.0, -63866.22057750471, -93738.00828909973, 54038.00207829501, -1699.827814081647, 82522.1264388712, 61801.14290727889, 17490.1282775555, 14461.57866258367, 0.044, 0.9480000000000001, 0.106, 192.0, 1.0, 96.0, 29.0, 160.0, 3.0, 80.0, 0.0, 0.0, 0.0, 1.6665553054686804E9, 0.0, 2022-10-23 13:01:45.468
120.0, -63902.31864480003, -93772.13940288298, 53887.55248636633, -1660.086412440111, 82711.31160394092, 61813.637532429406, 17524.639370994493, 14663.459618504003, 0.044, 0.9480000000000001, 0.106, 192.0, 0.0, 0.0, 0.0, 0.0, 0.0, 0.0, 0.0, 0.0, 0.0, 1.666555305468691E9, 0.0, 2022-10-23 13:01:45.468
121.0, -63949.771398278644, -93814.58536560362, 55737.382857487544, -621.6020133020894, 82970.2342117112, 62691.45759242268, 18758.410961438534, 16018.131794706798, 0.044, 0.9480000000000001, 0.106, 192.0, 0.0, 0.0, 0.0, 0.0, 0.0, 0.0, 0.0, 0.0, 0.0, 1.6665553054687016E9, 0.0, 2022-10-23 13:01:45.468
122.0, -63906.76664194663, -93777.34735934107, 56589.0066729792, -317.21595730971785, 82799.19866313919, 62979.303357518125, 19147.30896321642, 16230.540422265582, 0.044, 0.9480000000000001, 0.106, 192.0, 0.0, 0.0, 0.0, 0.0, 0.0, 0.0, 0.0, 0.0, 0.0, 1.6665553054687114E9, 0.0, 2022-10-23 13:01:45.468
123.0, -63861.9737460582, -93732.24153903026, 54313.26381126211, -1581.6764928908938, 82513.45396202254, 61911.44876616583, 17642.187195084953, 14592.470478113948, 0.044, 0.9480000000000001, 0.106, 192.0, 0.0, 0.0, 0.0, 0.0, 0.0, 0.0, 0.0, 0.0, 0.0, 1.6665553054687212E9, 0.0, 2022-10-23 13:01:45.468
124.0, -63900.99989187717, -93766.50676328025, 53832.67895372855, -1708.8802705860462, 82687.73051354058, 61784.42380242632, 17467.485960422273, 14568.375297591127, 0.044, 0.9480000000000001, 0.106, 192.0, 0.0, 0.0, 0.0, 0.0, 0.0, 0.0, 0.0, 0.0, 0.0, 1.6665553054687312E9, 0.0, 2022-10-23 13:01:45.468
125.0, -63953.906471002876, -93814.74182781481, 55343.27689925157, -826.5898617017104, 82927.60943503493, 62530.18975617764, 18515.671016653898, 15750.849634510236, 0.044, 0.9480000000000001, 0.106, 192.0, 0.0, 0.0, 0.0, 0.0, 0.0, 0.0, 0.0, 0.0, 0.0, 1.6665553054687428E9, 0.0, 2022-10-23 13:01:45.468
126.0, -63921.42938630932, -93789.4396530914, 56841.84960625763, -148.57204539442606, 82849.04305327452, 63122.57803947664, 19338.192860864743, 16448.60404117156, 0.044, 0.9480000000000001, 0.106, 192.0, 0.0, 0.0, 0.0, 0.0, 0.0, 0.0, 0.0, 0.0, 0.0, 1.6665553054687543E9, 0.0, 2022-10-23 13:01:45.468
127.0, -63847.17689122879, -93717.2211667563, 54683.45340293091, -1402.191984914778, 82493.33739201276, 62066.703983152394, 17855.936927311057, 14779.666337927145, 0.044, 0.9480000000000001, 0.106, 192.0, 0.0, 0.0, 0.0, 0.0, 0.0, 0.0, 0.0, 0.0, 0.0, 1.666555305468765E9, 0.0, 2022-10-23 13:01:45.468
128.0, -63888.63937719338, -93753.878027663, 53791.529392186334, -1765.7431084803472, 82634.44395475912, 61730.31022910002, 17397.39088981043, 14455.498988091826, 0.044, 0.9480000000000001, 0.106, 192.0, 0.0, 0.0, 0.0, 0.0, 0.0, 0.0, 0.0, 0.0, 0.0, 1.6665553054687757E9, 0.0, 2022-10-23 13:01:45.468
129.0, -63944.22816565373, -93809.35505740107, 54900.26532414739, -1088.172327062169, 82867.03620756105, 62300.59263713272, 18207.015777470562, 15421.608438683563, 0.046, 0.9560000000000001, 0.11, 192.0, 1.0, 112.0, 29.0, 224.0, 3.0, 112.0, 0.0, 0.0, 0.0, 1.6665553054687865E9, 0.0, 2022-10-23 13:01:45.468
130.0, -63940.830700496525, -93808.28217366722, 56875.01959502931, -112.94336473266658, 82913.46078079472, 63142.58285076414, 19374.715611304717, 16528.8021002772, 0.046, 0.9560000000000001, 0.11, 192.0, 0.0, 0.0, 0.0, 0.0, 0.0, 0.0, 0.0, 0.0, 0.0, 1.666555305468798E9, 0.0, 2022-10-23 13:01:45.468
131.0, -63862.197263502756, -93731.74980065225, 55106.97425687007, -1192.040883545981, 82518.21488359153, 62249.34008709671, 18108.802212333943, 15033.760968895074, 0.046, 0.9560000000000001, 0.11, 192.0, 0.0, 0.0, 0.0, 0.0, 0.0, 0.0, 0.0, 0.0, 0.0, 1.666555305468809E9, 0.0, 2022-10-23 13:01:45.468
0.0, 0.0, 0.0, 0.0, 0.0, 0.0, 0.0, 0.0, 0.0, 0.034, 0.9580000000000001, 0.10200000000000001, 192.0, 1.0, 16.0, 29.0, 240.0, 3.0, 48.0, 0.0, 0.0, 0.0, 1.6665553060297737E9, 0.0, 2022-10-23 13:01:46.029
1.0, -64022.30280903612, -94063.33792964673, 56182.093165170336, -324.30146030205015, 83212.4377146289, 61674.58733017294, 19562.358506007018, 16603.32281629119, 0.034, 0.9580000000000001, 0.10200000000000001, 192.0, 0.0, 0.0, 0.0, 0.0, 0.0, 0.0, 0.0, 0.0, 0.0, 1.6665553060298047E9, 0.0, 2022-10-23 13:01:46.029
2.0, -63941.389494107905, -93990.9853328449, 55435.96958350773, -889.3982636211233, 82844.77387008356, 61210.319246091756, 18911.341597001745, 15713.0081311474, 0.034, 0.9580000000000001, 0.10200000000000001, 192.0, 0.0, 0.0, 0.0, 0.0, 0.0, 0.0, 0.0, 0.0, 0.0, 1.6665553060299227E9, 0.0, 2022-10-23 13:01:46.029
3.0, -63946.03865695461, -93991.00768458935, 53498.92270552191, -1861.65444393807, 82774.09765411587, 60356.88493929922, 17718.719568099925, 14520.721378412412, 0.034, 0.9580000000000001, 0.10200000000000001, 192.0, 0.0, 0.0, 0.0, 0.0, 0.0, 0.0, 0.0, 0.0, 0.0, 1.6665553060299337E9, 0.0, 2022-10-23 13:01:46.029
4.0, -63988.12699176395, -94027.12810362913, 53674.98739659636, -1646.2283308778206, 82979.4878339157, 60520.991447090084, 17961.995954751488, 14936.754397959043, 0.034, 0.9580000000000001, 0.10200000000000001, 192.0, 0.0, 0.0, 0.0, 0.0, 0.0, 0.0, 0.0, 0.0, 0.0, 1.6665553060299437E9, 0.0, 2022-10-23 13:01:46.029
5.0, -64034.88684116446, -94073.68678732954, 55794.04452968175, -497.34866587503745, 83205.77689478123, 61489.514886082994, 19322.166660090286, 16391.62944455498, 0.034, 0.9580000000000001, 0.10200000000000001, 192.0, 0.0, 0.0, 0.0, 0.0, 0.0, 0.0, 0.0, 0.0, 0.0, 1.666555306029958E9, 0.0, 2022-10-23 13:01:46.029
6.0, -63965.75289556419, -94013.27002206683, 55854.86362634464, -629.8274552616424, 82918.19935061924, 61398.029196027426, 19191.587768982383, 16045.624440386826, 0.034, 0.9580000000000001, 0.10200000000000001, 192.0, 0.0, 0.0, 0.0, 0.0, 0.0, 0.0, 0.0, 0.0, 0.0, 1.6665553060299673E9, 0.0, 2022-10-23 13:01:46.029
7.0, -63949.68199130082, -93990.20302178897, 53669.555922693726, -1777.5448295527494, 82740.36887173282, 60410.14914633622, 17801.46572607347, 14586.480210599926, 0.036000000000000004, 0.96, 0.092, 192.0, 1.0, 32.0, 30.0, 0.0, 2.0, 224.0, 0.0, 0.0, 0.0, 1.666555306029976E9, 0.0, 2022-10-23 13:01:46.029
8.0, -63990.608035398494, -94024.93763267252, 53528.5834704141, -1723.3865527375403, 82932.75033625965, 60433.30555359192, 17844.358723683206, 14798.799431180887, 0.036000000000000004, 0.96, 0.092, 192.0, 0.0, 0.0, 0.0, 0.0, 0.0, 0.0, 0.0, 0.0, 0.0, 1.666555306029986E9, 0.0, 2022-10-23 13:01:46.029
9.0, -64034.39510278644, -94069.66347332759, 55345.28855625255, -718.8768051715857, 83167.68952222938, 61271.51832241039, 19036.82429037384, 16122.961476202188, 0.036000000000000004, 0.96, 0.092, 192.0, 0.0, 0.0, 0.0, 0.0, 0.0, 0.0, 0.0, 0.0, 0.0, 1.6665553060299952E9, 0.0, 2022-10-23 13:01:46.029
10.0, -63977.97929978124, -94022.07660938223, 56181.75788900351, -420.8162928600661, 83003.20303478278, 61543.47199719811, 19414.501716435163, 16335.526565972159, 0.036000000000000004, 0.96, 0.092, 192.0, 0.0, 0.0, 0.0, 0.0, 0.0, 0.0, 0.0, 0.0, 0.0, 1.6665553060300043E9, 0.0, 2022-10-23 13:01:46.030
11.0, -63932.49349981469, -93972.679254136, 53911.31239072233, -1660.9804822183232, 82740.0782990549, 60491.04010951998, 17929.07183516882, 14716.142680185161, 0.036000000000000004, 0.96, 0.092, 192.0, 0.0, 0.0, 0.0, 0.0, 0.0, 0.0, 0.0, 0.0, 0.0, 1.6665553060300133E9, 0.0, 2022-10-23 13:01:46.030
12.0, -63972.27960494514, -94009.22435632042, 53421.4068557509, -1789.1230331805984, 82912.36554531641, 60355.29796544289, 17746.12280680213, 14687.554799026824, 0.036000000000000004, 0.96, 0.092, 192.0, 0.0, 0.0, 0.0, 0.0, 0.0, 0.0, 0.0, 0.0, 0.0, 1.6665553060300229E9, 0.0, 2022-10-23 13:01:46.030
13.0, -64028.15896608341, -94060.43220286754, 54925.41103665961, -916.1756534785812, 83153.11618484452, 61093.73254701288, 18783.646080928575, 15873.001917958489, 0.036000000000000004, 0.96, 0.092, 192.0, 0.0, 0.0, 0.0, 0.0, 0.0, 0.0, 0.0, 0.0, 0.0, 1.6665553060300317E9, 0.0, 2022-10-23 13:01:46.030
14.0, -63996.15126802341, -94033.20777812098, 56426.08480764447, -240.504770339104, 83076.33794264054, 61685.20440878921, 19605.31855885012, 16582.267473014294, 0.036000000000000004, 0.96, 0.092, 192.0, 0.0, 0.0, 0.0, 0.0, 0.0, 0.0, 0.0, 0.0, 0.0, 1.6665553060300407E9, 0.0, 2022-10-23 13:01:46.030
15.0, -63935.55568880507, -93981.75406238486, 54289.436851672755, -1458.0042908196797, 82725.66142388123, 60657.85117838993, 18156.098503601374, 14940.710656727631, 0.036000000000000004, 0.96, 0.092, 192.0, 0.0, 0.0, 0.0, 0.0, 0.0, 0.0, 0.0, 0.0, 0.0, 1.66655530603005E9, 0.0, 2022-10-23 13:01:46.030
16.0, -63970.04443049961, -94005.9386498855, 53416.400064992915, -1794.8227280167018, 82855.97209405567, 60343.004505992474, 17714.91977154252, 14625.03696978533, 0.036000000000000004, 0.96, 0.092, 192.0, 0.0, 0.0, 0.0, 0.0, 0.0, 0.0, 0.0, 0.0, 0.0, 1.6665553060300589E9, 0.0, 2022-10-23 13:01:46.030
17.0, -64020.62642820197, -94050.01628995137, 54496.302246606625, -1140.073077687392, 83084.83160553356, 60886.978910801285, 18492.000519275727, 15567.341812532166, 0.048, 0.9540000000000001, 0.088, 192.0, 1.0, 128.0, 29.0, 208.0, 2.0, 192.0, 0.0, 0.0, 0.0, 1.6665553060300677E9, 0.0, 2022-10-23 13:01:46.030
18.0, -64017.40777700041, -94052.89966498611, 56490.01079678664, -152.34949020737295, 83156.11131860153, 61743.25188913965, 19671.412667204462, 16698.384785459613, 0.048, 0.9540000000000001, 0.088, 192.0, 0.0, 0.0, 0.0, 0.0, 0.0, 0.0, 0.0, 0.0, 0.0, 1.6665553060300922E9, 0.0, 2022-10-23 13:01:46.030
19.0, -63930.95122944728, -93968.90180932306, 54751.13448514158, -1197.1147295373357, 82775.036427383, 60883.08970726606, 18441.440873317824, 15236.603049826987, 0.048, 0.9540000000000001, 0.088, 192.0, 0.0, 0.0, 0.0, 0.0, 0.0, 0.0, 0.0, 0.0, 0.0, 1.6665553060301013E9, 0.0, 2022-10-23 13:01:46.030
20.0, -63950.59841282349, -93983.58690543019, 53452.36402182151, -1783.7362627668695, 82836.32491067945, 60351.63227935223, 17703.855658037148, 14588.849495512188, 0.048, 0.9540000000000001, 0.088, 192.0, 0.0, 0.0, 0.0, 0.0, 0.0, 0.0, 0.0, 0.0, 0.0, 1.66655530603011E9, 0.0, 2022-10-23 13:01:46.030
21.0, -64000.263989003186, -94033.67716475454, 54176.00174856207, -1300.2456784541225, 83061.31757036658, 60747.70519110026, 18277.423772504782, 15335.12953938598, 0.048, 0.9540000000000001, 0.088, 192.0, 0.0, 0.0, 0.0, 0.0, 0.0, 0.0, 0.0, 0.0, 0.0, 1.6665553060301192E9, 0.0, 2022-10-23 13:01:46.030
22.0, -64023.42039625888, -94057.57117957727, 56418.97695290768, -142.6935366026803, 83204.01110696925, 61741.1731769053, 19657.286364708707, 16722.323503771247, 0.048, 0.9540000000000001, 0.088, 192.0, 0.0, 0.0, 0.0, 0.0, 0.0, 0.0, 0.0, 0.0, 0.0, 1.6665553060301285E9, 0.0, 2022-10-23 13:01:46.030
23.0, -63933.7899009931, -93975.45087044846, 55232.34519151988, -929.5867001517654, 82813.99551796861, 61093.33021561268, 18739.94842051845, 15560.79275140676, 0.048, 0.9540000000000001, 0.088, 192.0, 0.0, 0.0, 0.0, 0.0, 0.0, 0.0, 0.0, 0.0, 0.0, 1.6665553060301375E9, 0.0, 2022-10-23 13:01:46.030
24.0, -63945.301049387584, -93985.75502464236, 53581.26653209526, -1719.0279625687556, 82815.38132612483, 60407.08695734584, 17760.405571509073, 14614.933981291531, 0.048, 0.9540000000000001, 0.088, 192.0, 0.0, 0.0, 0.0, 0.0, 0.0, 0.0, 0.0, 0.0, 0.0, 1.6665553060301464E9, 0.0, 2022-10-23 13:01:46.030
25.0, -63996.1065645345, -94025.92110942854, 53962.43083029161, -1410.998572230169, 83000.9902120817, 60651.63739343136, 18118.88284908329, 15144.022124293106, 0.048, 0.9540000000000001, 0.088, 192.0, 0.0, 0.0, 0.0, 0.0, 0.0, 0.0, 0.0, 0.0, 0.0, 1.6665553060301557E9, 0.0, 2022-10-23 13:01:46.030
26.0, -64047.381466314975, -94073.44091814052, 56172.68308075465, -245.24334016362909, 83188.5884032951, 61633.5942308419, 19499.438345365328, 16586.84958062763, 0.048, 0.9540000000000001, 0.088, 192.0, 0.0, 0.0, 0.0, 0.0, 0.0, 0.0, 0.0, 0.0, 0.0, 1.6665553060301647E9, 0.0, 2022-10-23 13:01:46.030
27.0, -63954.17469193634, -93988.90662061055, 55729.47033995037, -642.1432664565166, 82872.60179193041, 61316.37827353219, 19043.86508987726, 15896.068918236366, 0.05, 0.9580000000000001, 0.092, 192.0, 1.0, 144.0, 29.0, 240.0, 2.0, 224.0, 0.0, 0.0, 0.0, 1.666555306030175E9, 0.0, 2022-10-23 13:01:46.030
28.0, -63942.574136564035, -93977.7307483829, 53738.131074682606, -1645.9377581999015, 82785.47469204363, 60450.02465844449, 17808.886505232633, 14630.982533810442, 0.05, 0.9580000000000001, 0.092, 192.0, 0.0, 0.0, 0.0, 0.0, 0.0, 0.0, 0.0, 0.0, 0.0, 1.6665553060301845E9, 0.0, 2022-10-23 13:01:46.030
29.0, -63979.72273584876, -94015.30403081227, 53801.47591846895, -1492.6271429809503, 82970.6365431114, 60556.77658996303, 17974.35646943527, 14961.140151159783, 0.05, 0.9580000000000001, 0.092, 192.0, 0.0, 0.0, 0.0, 0.0, 0.0, 0.0, 0.0, 0.0, 0.0, 1.6665553060301936E9, 0.0, 2022-10-23 13:01:46.030
30.0, -64031.087044607055, -94062.06388021278, 55853.34370772168, -369.45198410177045, 83212.88474951801, 61505.87636302428, 19304.82170639297, 16390.24363639875, 0.05, 0.9580000000000001, 0.092, 192.0, 0.0, 0.0, 0.0, 0.0, 0.0, 0.0, 0.0, 0.0, 0.0, 1.6665553060302024E9, 0.0, 2022-10-23 13:01:46.030
31.0, -63968.99389851021, -94003.47995799541, 56227.84718607035, -325.77667543610045, 82970.52478438911, 61573.60214872386, 19379.87886427389, 16254.8367684885, 0.05, 0.9580000000000001, 0.092, 192.0, 0.0, 0.0, 0.0, 0.0, 0.0, 0.0, 0.0, 0.0, 0.0, 1.6665553060302112E9, 0.0, 2022-10-23 13:01:46.030
32.0, -63937.209717894766, -93971.13698376859, 54004.340351145314, -1512.5648990350842, 82759.25609579755, 60561.51515978756, 17948.182576678108, 14721.194174432061, 0.05, 0.9580000000000001, 0.092, 192.0, 0.0, 0.0, 0.0, 0.0, 0.0, 0.0, 0.0, 0.0, 0.0, 1.6665553060302203E9, 0.0, 2022-10-23 13:01:46.030
33.0, -63977.532264892136, -94006.56449873025, 53730.017391445326, -1540.6163383264945, 82929.39757459135, 60508.854449850856, 17892.191456817563, 14824.638047771223, 0.05, 0.9580000000000001, 0.092, 192.0, 0.0, 0.0, 0.0, 0.0, 0.0, 0.0, 0.0, 0.0, 0.0, 1.666555306030229E9, 0.0, 2022-10-23 13:01:46.030
34.0, -64028.9636288838, -94055.89479874312, 55469.7430693797, -556.8490096150648, 83180.9888101803, 61336.11486388623, 19053.901023137692, 16116.85944996589, 0.05, 0.9580000000000001, 0.092, 192.0, 0.0, 0.0, 0.0, 0.0, 0.0, 0.0, 0.0, 0.0, 0.0, 1.6665553060302467E9, 0.0, 2022-10-23 13:01:46.030
35.0, -63983.81310508408, -94015.46049302346, 56594.30403641511, -90.01047492152153, 83057.76364299818, 61757.24408116867, 19621.992960213778, 16525.8516700091, 0.05, 0.9580000000000001, 0.092, 192.0, 0.0, 0.0, 0.0, 0.0, 0.0, 0.0, 0.0, 0.0, 0.0, 1.6665553060302558E9, 0.0, 2022-10-23 13:01:46.030
36.0, -63937.32147661704, -93968.96886455642, 54364.315195598036, -1328.319469489988, 82756.86445914084, 60715.31751338453, 18140.117006315828, 14881.389126943246, 0.04, 0.9540000000000001, 0.09, 192.0, 1.0, 64.0, 29.0, 208.0, 2.0, 208.0, 0.0, 0.0, 0.0, 1.6665553060302649E9, 0.0, 2022-10-23 13:01:46.030
37.0, -63991.792677854624, -94017.78507444682, 53742.24379566238, -1541.8680360159917, 82892.18192007327, 60511.60371441886, 17858.350915712228, 14736.371008917215, 0.04, 0.9540000000000001, 0.09, 192.0, 0.0, 0.0, 0.0, 0.0, 0.0, 0.0, 0.0, 0.0, 0.0, 1.6665553060302742E9, 0.0, 2022-10-23 13:01:46.030
38.0, -64041.14532961194, -94061.01334822338, 55051.98896551001, -787.0496257602723, 83103.58471913156, 61134.43507366599, 18754.18648173648, 15785.763059349425, 0.04, 0.9540000000000001, 0.09, 192.0, 0.0, 0.0, 0.0, 0.0, 0.0, 0.0, 0.0, 0.0, 0.0, 1.666555306030283E9, 0.0, 2022-10-23 13:01:46.030
39.0, -64013.92090486538, -94038.16986539005, 56746.2958987112, 9.8124158158798, 83102.17655923088, 61825.10397733498, 19709.164763589473, 16652.47430234841, 0.04, 0.9540000000000001, 0.09, 192.0, 0.0, 0.0, 0.0, 0.0, 0.0, 0.0, 0.0, 0.0, 0.0, 1.666555306030292E9, 0.0, 2022-10-23 13:01:46.030
40.0, -63944.76460752066, -93973.81919310322, 54734.03540063327, -1155.7863540394728, 82755.34454051788, 60856.40172438642, 18328.743377774164, 15061.07480061946, 0.04, 0.9540000000000001, 0.09, 192.0, 0.0, 0.0, 0.0, 0.0, 0.0, 0.0, 0.0, 0.0, 0.0, 1.6665553060303009E9, 0.0, 2022-10-23 13:01:46.030
41.0, -63982.33788995003, -94009.87255690963, 53725.547042554266, -1576.6473503884497, 82863.86225984839, 60475.34918491235, 17793.508505047383, 14636.212842012983, 0.04, 0.9540000000000001, 0.09, 192.0, 0.0, 0.0, 0.0, 0.0, 0.0, 0.0, 0.0, 0.0, 0.0, 1.6665553060303142E9, 0.0, 2022-10-23 13:01:46.030
42.0, -64023.77802417017, -94049.59160680672, 54691.38827221254, -973.7984506843628, 83085.97154450078, 60974.93302523292, 18507.669092138898, 15514.301122939722, 0.04, 0.9540000000000001, 0.09, 192.0, 0.0, 0.0, 0.0, 0.0, 0.0, 0.0, 0.0, 0.0, 0.0, 1.666555306030324E9, 0.0, 2022-10-23 13:01:46.030
43.0, -64029.58947772855, -94058.84522901122, 56760.6457186515, 58.2262943060749, 83167.28719082919, 61856.75404748369, 19735.85274646911, 16718.747224658397, 0.04, 0.9540000000000001, 0.09, 192.0, 0.0, 0.0, 0.0, 0.0, 0.0, 0.0, 0.0, 0.0, 0.0, 1.6665553060303335E9, 0.0, 2022-10-23 13:01:46.030
44.0, -63945.859842998965, -93982.22344901842, 55174.0741937249, -925.1387030051593, 82780.95963966366, 61046.302145278714, 18584.089706431594, 15336.001257419737, 0.04, 0.9540000000000001, 0.09, 192.0, 0.0, 0.0, 0.0, 0.0, 0.0, 0.0, 0.0, 0.0, 0.0, 1.6665553060303433E9, 0.0, 2022-10-23 13:01:46.030
45.0, -63970.71498283327, -94006.02805686332, 53763.3885459171, -1572.3558154530306, 82833.08390773344, 60475.19272270116, 17776.43177228353, 14597.007882238375, 0.04, 0.9540000000000001, 0.09, 192.0, 0.0, 0.0, 0.0, 0.0, 0.0, 0.0, 0.0, 0.0, 0.0, 1.6665553060303533E9, 0.0, 2022-10-23 13:01:46.030
46.0, -64022.52632648067, -94055.62657780964, 54361.364765329934, -1154.2217319276015, 83033.4449450308, 60815.72154947776, 18269.75712415661, 15256.697268092308, 0.04, 0.9580000000000001, 0.088, 192.0, 1.0, 64.0, 29.0, 240.0, 2.0, 192.0, 0.0, 0.0, 0.0, 1.6665553060303628E9, 0.0, 2022-10-23 13:01:46.030
47.0, -64043.64872499093, -94079.20766821, 56590.571295091075, -2.2798779344413203, 83196.47856908782, 61795.01852929813, 19640.88018427851, 16662.39847688657, 0.04, 0.9580000000000001, 0.088, 192.0, 0.0, 0.0, 0.0, 0.0, 0.0, 0.0, 0.0, 0.0, 0.0, 1.666555306030373E9, 0.0, 2022-10-23 13:01:46.030
48.0, -63948.162072677864, -93997.62380094813, 55646.858292443554, -673.1674877604828, 82826.26662567457, 61254.93332802455, 18875.06471575078, 15653.597194385195, 0.04, 0.9580000000000001, 0.088, 192.0, 0.0, 0.0, 0.0, 0.0, 0.0, 0.0, 0.0, 0.0, 0.0, 1.666555306030384E9, 0.0, 2022-10-23 13:01:46.030
49.0, -63961.01432573966, -93999.88132713811, 53802.951133603, -1596.3392372535752, 82777.539822762, 60447.78948399895, 17746.636896924603, 14546.045904880275, 0.04, 0.9580000000000001, 0.088, 192.0, 0.0, 0.0, 0.0, 0.0, 0.0, 0.0, 0.0, 0.0, 0.0, 1.6665553060304089E9, 0.0, 2022-10-23 13:01:46.030
50.0, -63998.498201191214, -94028.06687689625, 54077.51996249199, -1330.2193677686892, 82993.25650850017, 60657.605309200924, 18051.71585699509, 15027.21190776967, 0.04, 0.9580000000000001, 0.088, 192.0, 0.0, 0.0, 0.0, 0.0, 0.0, 0.0, 0.0, 0.0, 0.0, 1.6665553060304189E9, 0.0, 2022-10-23 13:01:46.030
51.0, -64042.262916834705, -94072.72566231796, 56260.860712630834, -156.46221118714945, 83211.94597625089, 61651.67679210625, 19442.039065604098, 16498.470783051347, 0.04, 0.9580000000000001, 0.088, 192.0, 0.0, 0.0, 0.0, 0.0, 0.0, 0.0, 0.0, 0.0, 0.0, 1.666555306030429E9, 0.0, 2022-10-23 13:01:46.030
52.0, -63968.65862234338, -94009.64903946508, 56081.64442558819, -424.3702202284599, 82898.39570503184, 61451.4051617867, 19152.606326652327, 15986.392317580263, 0.04, 0.9580000000000001, 0.088, 192.0, 0.0, 0.0, 0.0, 0.0, 0.0, 0.0, 0.0, 0.0, 0.0, 1.6665553060304387E9, 0.0, 2022-10-23 13:01:46.030
53.0, -63951.604241323985, -93990.20302178897, 53949.466818507535, -1536.6153760689947, 82758.87611614182, 60498.59499914587, 17807.56775230977, 14599.243056683907, 0.04, 0.9580000000000001, 0.088, 192.0, 0.0, 0.0, 0.0, 0.0, 0.0, 0.0, 0.0, 0.0, 0.0, 1.6665553060304484E9, 0.0, 2022-10-23 13:01:46.030
54.0, -63998.498201191214, -94028.78213271883, 53903.399873185146, -1434.4008486748755, 82958.58895284998, 60566.387840078816, 17914.25262859495, 14873.029574516962, 0.04, 0.9580000000000001, 0.088, 192.0, 0.0, 0.0, 0.0, 0.0, 0.0, 0.0, 0.0, 0.0, 0.0, 1.666555306030458E9, 0.0, 2022-10-23 13:01:46.030
55.0, -64051.47183555029, -94081.44284265552, 55858.70812639095, -352.19643738227336, 83195.62920279852, 61482.51879006848, 19197.108649862847, 16268.136056439407, 0.04, 0.9580000000000001, 0.088, 192.0, 0.0, 0.0, 0.0, 0.0, 0.0, 0.0, 0.0, 0.0, 0.0, 1.6665553060304675E9, 0.0, 2022-10-23 13:01:46.030
56.0, -63994.25136974471, -94030.57027227525, 56477.449116402764, -183.75369116707935, 82977.81145308155, 61654.13548399633, 19424.85057411797, 16309.062100537074, 0.04, 0.9500000000000001, 0.094, 192.0, 1.0, 64.0, 29.0, 176.0, 2.0, 240.0, 0.0, 0.0, 0.0, 1.6665553060304775E9, 0.0, 2022-10-23 13:01:46.030
57.0, -63958.13095070493, -93994.11457706864, 54212.949182146695, -1411.5350140970963, 82735.33972923037, 60617.416872670285, 17953.681105814114, 14722.065892465818, 0.04, 0.9500000000000001, 0.094, 192.0, 0.0, 0.0, 0.0, 0.0, 0.0, 0.0, 0.0, 0.0, 0.0, 1.6665553060304878E9, 0.0, 2022-10-23 13:01:46.030
58.0, -63999.23580875824, -94031.6431560091, 53817.74798843241, -1499.7797012066485, 82902.10609461143, 60517.77279588852, 17825.270333918375, 14754.610032392746, 0.04, 0.9500000000000001, 0.094, 192.0, 0.0, 0.0, 0.0, 0.0, 0.0, 0.0, 0.0, 0.0, 0.0, 1.6665553060305052E9, 0.0, 2022-10-23 13:01:46.030
59.0, -64058.91496645391, -94086.51668864688, 55409.102786672454, -595.294010078193, 83140.621559694, 61278.17914225807, 18899.69633814053, 15971.506055773027, 0.04, 0.9500000000000001, 0.094, 192.0, 0.0, 0.0, 0.0, 0.0, 0.0, 0.0, 0.0, 0.0, 0.0, 1.6665553060305474E9, 0.0, 2022-10-23 13:01:46.030
60.0, -64018.771233412175, -94052.87731324164, 56722.133662955006, -28.342011969329356, 83044.21848585826, 61779.34995643496, 19593.40507905544, 16534.83707128013, 0.04, 0.9500000000000001, 0.094, 192.0, 0.0, 0.0, 0.0, 0.0, 0.0, 0.0, 0.0, 0.0, 0.0, 1.6665553060305893E9, 0.0, 2022-10-23 13:01:46.030
61.0, -63947.066837199556, -93985.86678336463, 54494.87173496148, -1288.935695759737, 82715.98311853208, 60713.55172557256, 18096.374642416795, 14869.050964003918, 0.04, 0.9500000000000001, 0.094, 192.0, 0.0, 0.0, 0.0, 0.0, 0.0, 0.0, 0.0, 0.0, 0.0, 1.6665553060306308E9, 0.0, 2022-10-23 13:01:46.030
62.0, -63987.92582606385, -94021.67427798203, 53722.37309484161, -1573.9427893093575, 82865.87391684938, 60441.44158857365, 17723.569896646728, 14639.744417636923, 0.04, 0.9500000000000001, 0.094, 192.0, 0.0, 0.0, 0.0, 0.0, 0.0, 0.0, 0.0, 0.0, 0.0, 1.6665553060306714E9, 0.0, 2022-10-23 13:01:46.030
63.0, -64043.82753894658, -94072.74801406241, 54945.460551436016, -837.6316234626322, 83105.19404473234, 61059.80259892972, 18596.047889715184, 15671.81386611627, 0.04, 0.9500000000000001, 0.094, 192.0, 0.0, 0.0, 0.0, 0.0, 0.0, 0.0, 0.0, 0.0, 0.0, 1.6665553060307124E9, 0.0, 2022-10-23 13:01:46.030
64.0, -64022.682788691855, -94055.51481908737, 56779.309425271684, 46.02224183347724, 83125.19885601984, 61825.1933843128, 19657.30871645316, 16668.12052346713, 0.04, 0.9500000000000001, 0.094, 192.0, 0.0, 0.0, 0.0, 0.0, 0.0, 0.0, 0.0, 0.0, 0.0, 1.6665553060307524E9, 0.0, 2022-10-23 13:01:46.030
65.0, -63942.10474993048, -93980.30119899526, 54849.1468845781, -1093.983780620549, 82759.52431673103, 60876.13831474046, 18312.29249385506, 15113.444937878245, 0.04, 0.9500000000000001, 0.094, 192.0, 0.0, 0.0, 0.0, 0.0, 0.0, 0.0, 0.0, 0.0, 0.0, 1.6665553060308332E9, 0.0, 2022-10-23 13:01:46.030
66.0, -63978.448686414806, -94013.38178078912, 53698.38967304107, -1588.6725889054048, 82856.66499813378, 60432.925573936176, 17687.15890492903, 14596.560847349268, 0.036000000000000004, 0.9520000000000001, 0.096, 192.0, 1.0, 32.0, 29.0, 192.0, 3.0, 0.0, 0.0, 0.0, 0.0, 1.6665553060308611E9, 0.0, 2022-10-23 13:01:46.030
67.0, -64029.79064342865, -94060.14163018962, 54560.56351191563, -1026.8614920212617, 83084.58573634455, 60904.97206508781, 18354.894918786875, 15427.129319564025, 0.036000000000000004, 0.9520000000000001, 0.096, 192.0, 0.0, 0.0, 0.0, 0.0, 0.0, 0.0, 0.0, 0.0, 0.0, 1.666555306030872E9, 0.0, 2022-10-23 13:01:46.030
68.0, -64041.12297786748, -94071.42926113955, 56719.02677047572, 68.97748338907759, 83186.15206314946, 61844.97467815575, 19663.50014966728, 16719.820108392254, 0.036000000000000004, 0.9520000000000001, 0.096, 192.0, 0.0, 0.0, 0.0, 0.0, 0.0, 0.0, 0.0, 0.0, 0.0, 1.666555306030882E9, 0.0, 2022-10-23 13:01:46.030
69.0, -63950.956040734774, -93985.03976881978, 55312.61030585889, -832.6471844490987, 82790.95086943518, 61102.941465728465, 18616.92441903644, 15431.95729636637, 0.036000000000000004, 0.9520000000000001, 0.096, 192.0, 0.0, 0.0, 0.0, 0.0, 0.0, 0.0, 0.0, 0.0, 0.0, 1.666555306030893E9, 0.0, 2022-10-23 13:01:46.030
70.0, -63979.87919805994, -94011.57128948823, 53740.27684215031, -1580.8047748571366, 82808.27347138805, 60451.74574276755, 17696.21136143343, 14565.491922556392, 0.036000000000000004, 0.9520000000000001, 0.096, 192.0, 0.0, 0.0, 0.0, 0.0, 0.0, 0.0, 0.0, 0.0, 0.0, 1.6665553060309026E9, 0.0, 2022-10-23 13:01:46.030
71.0, -64028.47189050578, -94059.2028569225, 54210.31167630097, -1228.7871514305057, 83006.53344470661, 60740.373818918924, 18116.379453704292, 15157.589633177477, 0.036000000000000004, 0.9520000000000001, 0.096, 192.0, 0.0, 0.0, 0.0, 0.0, 0.0, 0.0, 0.0, 0.0, 0.0, 1.6665553060309124E9, 0.0, 2022-10-23 13:01:46.030
72.0, -64042.82171044609, -94074.49145012992, 56427.11298788941, -69.87155316728987, 83191.136502163, 61724.07409239699, 19495.795011019112, 16589.598845195633, 0.036000000000000004, 0.9520000000000001, 0.096, 192.0, 0.0, 0.0, 0.0, 0.0, 0.0, 0.0, 0.0, 0.0, 0.0, 1.6665553060309224E9, 0.0, 2022-10-23 13:01:46.030
73.0, -63968.65862234338, -94003.03292310631, 55739.05923832169, -601.7983677146874, 82858.31902722348, 61303.32485477029, 18895.628320649663, 15753.554195589328, 0.036000000000000004, 0.9520000000000001, 0.096, 192.0, 0.0, 0.0, 0.0, 0.0, 0.0, 0.0, 0.0, 0.0, 0.0, 1.6665553060309324E9, 0.0, 2022-10-23 13:01:46.030
74.0, -63968.18923570982, -94000.8871556386, 53807.66735168306, -1573.5851613980726, 82793.07428515844, 60468.59895808685, 17714.60684712015, 14569.671698769534, 0.036000000000000004, 0.9520000000000001, 0.096, 192.0, 0.0, 0.0, 0.0, 0.0, 0.0, 0.0, 0.0, 0.0, 0.0, 1.6665553060309424E9, 0.0, 2022-10-23 13:01:46.030
75.0, -64004.510820449694, -94042.12612415865, 53967.39291756069, -1371.8159642000157, 82990.97663056572, 60625.12822450736, 17946.193271421584, 14974.126514688316, 0.034, 0.9540000000000001, 0.092, 192.0, 1.0, 16.0, 29.0, 208.0, 2.0, 224.0, 0.0, 0.0, 0.0, 1.666555306030952E9, 0.0, 2022-10-23 13:01:46.030
76.0, -64044.43103604687, -94079.6547030991, 56076.41411738564, -232.48049407964876, 83213.53295010721, 61588.242541342086, 19300.016081335078, 16420.507898391235, 0.034, 0.9540000000000001, 0.092, 192.0, 0.0, 0.0, 0.0, 0.0, 0.0, 0.0, 0.0, 0.0, 0.0, 1.6665553060309627E9, 0.0, 2022-10-23 13:01:46.030
77.0, -63975.654718357895, -94011.1913098325, 56163.630624250254, -355.32568160601636, 82941.75808927514, 61506.43515663566, 19182.33414677789, 16094.865333421867, 0.034, 0.9540000000000001, 0.092, 192.0, 0.0, 0.0, 0.0, 0.0, 0.0, 0.0, 0.0, 0.0, 0.0, 1.6665553060309727E9, 0.0, 2022-10-23 13:01:46.030
78.0, -63976.5040846472, -94005.71513244095, 53980.33457760031, -1505.7252652317602, 82761.71478768764, 60528.09930182688, 17799.766993494868, 14641.689019404534, 0.034, 0.9540000000000001, 0.092, 192.0, 0.0, 0.0, 0.0, 0.0, 0.0, 0.0, 0.0, 0.0, 0.0, 1.6665553060309825E9, 0.0, 2022-10-23 13:01:46.030
79.0, -64003.66145416039, -94029.92207168604, 53802.168822547064, -1479.573724219051, 82932.66092928183, 60527.585211704405, 17813.558019823795, 14825.93444894963, 0.034, 0.9540000000000001, 0.092, 192.0, 0.0, 0.0, 0.0, 0.0, 0.0, 0.0, 0.0, 0.0, 0.0, 1.6665553060309927E9, 0.0, 2022-10-23 13:01:46.030
80.0, -64062.29007986666, -94089.35536019271, 55619.83503339709, -467.5314387716578, 83175.28911534419, 61380.48307663001, 19013.80199358487, 16158.85837779741, 0.034, 0.9540000000000001, 0.092, 192.0, 0.0, 0.0, 0.0, 0.0, 0.0, 0.0, 0.0, 0.0, 0.0, 1.6665553060310028E9, 0.0, 2022-10-23 13:01:46.031
81.0, -64005.47194546127, -94038.48278981242, 56486.79214558508, -155.94812106467737, 82998.35270623598, 61666.42894344675, 19407.684434376293, 16388.94723522034, 0.034, 0.9540000000000001, 0.092, 192.0, 0.0, 0.0, 0.0, 0.0, 0.0, 0.0, 0.0, 0.0, 0.0, 1.666555306031022E9, 0.0, 2022-10-23 13:01:46.031
82.0, -63963.00363099619, -93997.4896904814, 54205.90838264327, -1409.1433774403786, 82733.3280722294, 60607.00095975411, 17913.604428005747, 14763.036640052396, 0.034, 0.9540000000000001, 0.092, 192.0, 0.0, 0.0, 0.0, 0.0, 0.0, 0.0, 0.0, 0.0, 0.0, 1.666555306031033E9, 0.0, 2022-10-23 13:01:46.031
83.0, -64002.18623902634, -94034.95121418849, 53699.68607421948, -1547.0983442185336, 82900.29560331054, 60469.29186216496, 17724.620428636128, 14726.178613445594, 0.034, 0.9540000000000001, 0.092, 192.0, 0.0, 0.0, 0.0, 0.0, 0.0, 0.0, 0.0, 0.0, 0.0, 1.6665553060310433E9, 0.0, 2022-10-23 13:01:46.031
84.0, -64048.92373668239, -94080.30290368831, 55157.19862666114, -702.80590090822, 83134.76540264672, 61176.56811196425, 18726.716187800906, 15875.70647903758, 0.034, 0.9540000000000001, 0.092, 192.0, 0.0, 0.0, 0.0, 0.0, 0.0, 0.0, 0.0, 0.0, 0.0, 1.6665553060310533E9, 0.0, 2022-10-23 13:01:46.031
85.0, -64022.347512525026, -94056.9006272436, 56692.495249807274, 3.95625876858935, 83092.40884690391, 61794.258569986654, 19579.07761085959, 16618.209078098425, 0.036000000000000004, 0.9540000000000001, 0.09, 192.0, 1.0, 32.0, 29.0, 208.0, 2.0, 208.0, 0.0, 0.0, 0.0, 1.6665553060310633E9, 0.0, 2022-10-23 13:01:46.031
86.0, -63955.47109311475, -93993.39932124608, 54603.72473045883, -1186.296485220967, 82756.7303486741, 60808.99367439672, 18171.051820641973, 15011.476279673134, 0.036000000000000004, 0.9540000000000001, 0.09, 192.0, 0.0, 0.0, 0.0, 0.0, 0.0, 0.0, 0.0, 0.0, 0.0, 1.666555306031074E9, 0.0, 2022-10-23 13:01:46.031
87.0, -63996.01715755668, -94030.30205134179, 53713.38769357058, -1545.377259895475, 82864.08577729294, 60484.513400139025, 17718.943085544477, 14676.244816332439, 0.036000000000000004, 0.9540000000000001, 0.09, 192.0, 0.0, 0.0, 0.0, 0.0, 0.0, 0.0, 0.0, 0.0, 0.0, 1.666555306031084E9, 0.0, 2022-10-23 13:01:46.031
88.0, -64047.85085294853, -94077.41952865357, 54766.26661613782, -911.5264906318773, 83076.1591286849, 61008.147717493506, 18477.51658886869, 15596.130859390601, 0.036000000000000004, 0.9540000000000001, 0.09, 192.0, 0.0, 0.0, 0.0, 0.0, 0.0, 0.0, 0.0, 0.0, 0.0, 1.666555306031094E9, 0.0, 2022-10-23 13:01:46.031
89.0, -64042.35232381253, -94074.49145012992, 56759.41637270646, 69.42451827818374, 83145.11426032952, 61855.83762596102, 19655.006486774266, 16727.799681162796, 0.036000000000000004, 0.9540000000000001, 0.09, 192.0, 0.0, 0.0, 0.0, 0.0, 0.0, 0.0, 0.0, 0.0, 0.0, 1.666555306031104E9, 0.0, 2022-10-23 13:01:46.031
90.0, -63960.50023561719, -93996.685027681, 55006.704331243556, -996.7313404955079, 82760.46308999814, 60973.41310660996, 18410.997797369695, 15254.68561109133, 0.036000000000000004, 0.9540000000000001, 0.09, 192.0, 0.0, 0.0, 0.0, 0.0, 0.0, 0.0, 0.0, 0.0, 0.0, 1.666555306031114E9, 0.0, 2022-10-23 13:01:46.031
91.0, -63988.46226793078, -94021.87544368213, 53705.16225161103, -1579.955408567835, 82836.59313161291, 60453.10919917932, 17681.615672304117, 14609.122527733152, 0.036000000000000004, 0.9540000000000001, 0.09, 192.0, 0.0, 0.0, 0.0, 0.0, 0.0, 0.0, 0.0, 0.0, 0.0, 1.6665553060311253E9, 0.0, 2022-10-23 13:01:46.031
92.0, -64038.06078887711, -94068.34472040471, 54425.335457961024, -1093.2685247979791, 83055.08143366355, 60854.837102274556, 18254.93791758274, 15347.17712964739, 0.036000000000000004, 0.9540000000000001, 0.09, 192.0, 0.0, 0.0, 0.0, 0.0, 0.0, 0.0, 0.0, 0.0, 0.0, 1.6665553060311353E9, 0.0, 2022-10-23 13:01:46.031
93.0, -64059.38435308747, -94092.23873522744, 56638.046400314146, 42.75888714300241, 83189.25895562876, 61820.85714588847, 19603.08338440459, 16708.755994886877, 0.036000000000000004, 0.9540000000000001, 0.09, 192.0, 0.0, 0.0, 0.0, 0.0, 0.0, 0.0, 0.0, 0.0, 0.0, 1.6665553060311453E9, 0.0, 2022-10-23 13:01:46.031
94.0, -63964.70236357479, -94005.58102197421, 55462.83638034301, -747.2635206298257, 82806.46298008716, 61173.72944041842, 18689.925216427473, 15558.64698393905, 0.036000000000000004, 0.9540000000000001, 0.09, 192.0, 0.0, 0.0, 0.0, 0.0, 0.0, 0.0, 0.0, 0.0, 0.0, 1.666555306031155E9, 0.0, 2022-10-23 13:01:46.031
95.0, -63981.62263412746, -94014.1417401006, 53770.78697333181, -1564.9797397827792, 82816.96829998116, 60464.86621676281, 17685.21430316142, 14592.112850202662, 0.032, 0.9480000000000001, 0.09, 192.0, 1.0, 0.0, 29.0, 160.0, 2.0, 208.0, 0.0, 0.0, 0.0, 1.6665553060311651E9, 0.0, 2022-10-23 13:01:46.031
96.0, -64036.607925487515, -94064.38846163613, 54143.16703595722, -1257.5538465444859, 83014.53536922162, 60709.9307429708, 18045.47972029206, 15124.106719983427, 0.032, 0.9480000000000001, 0.09, 192.0, 0.0, 0.0, 0.0, 0.0, 0.0, 0.0, 0.0, 0.0, 0.0, 1.6665553060311863E9, 0.0, 2022-10-23 13:01:46.031
97.0, -64065.06169617912, -94094.67507537307, 56369.89252208383, -72.91139041321163, 83214.51642686325, 61710.81950793499, 19449.348086040984, 16594.605635953623, 0.032, 0.9480000000000001, 0.09, 192.0, 0.0, 0.0, 0.0, 0.0, 0.0, 0.0, 0.0, 0.0, 0.0, 1.666555306031209E9, 0.0, 2022-10-23 13:01:46.031
98.0, -63982.69551786131, -94017.85212968018, 55964.186008475546, -458.3448718005266, 82882.23539379066, 61407.595742654295, 19019.613447143252, 15932.278744253963, 0.032, 0.9480000000000001, 0.09, 192.0, 0.0, 0.0, 0.0, 0.0, 0.0, 0.0, 0.0, 0.0, 0.0, 1.6665553060312188E9, 0.0, 2022-10-23 13:01:46.031
99.0, -63976.32527069155, -94011.97362088843, 53916.76621636942, -1513.2578031131989, 82771.72836920361, 60498.55029565696, 17743.105321300667, 14627.518013419869, 0.032, 0.9480000000000001, 0.09, 192.0, 0.0, 0.0, 0.0, 0.0, 0.0, 0.0, 0.0, 0.0, 0.0, 1.6665553060312283E9, 0.0, 2022-10-23 13:01:46.031
100.0, -64024.47092824828, -94057.23590341043, 54003.17806043364, -1338.4671614726976, 82983.086464773, 60637.86871884689, 17939.9347829741, 14988.543389861989, 0.032, 0.9480000000000001, 0.09, 192.0, 0.0, 0.0, 0.0, 0.0, 0.0, 0.0, 0.0, 0.0, 0.0, 1.666555306031238E9, 0.0, 2022-10-23 13:01:46.031
101.0, -64062.893576966955, -94095.0550550288, 56038.41615181162, -224.45621782019353, 83198.89255748899, 61581.42525928322, 19258.106560481378, 16403.453517371836, 0.032, 0.9480000000000001, 0.09, 192.0, 0.0, 0.0, 0.0, 0.0, 0.0, 0.0, 0.0, 0.0, 0.0, 1.6665553060312476E9, 0.0, 2022-10-23 13:01:46.031
102.0, -63992.19500925482, -94030.16794087505, 56417.21116509571, -184.91598187875533, 82956.46553712673, 61641.39498965681, 19328.1122241154, 16270.818265774044, 0.032, 0.9480000000000001, 0.09, 192.0, 0.0, 0.0, 0.0, 0.0, 0.0, 0.0, 0.0, 0.0, 0.0, 1.6665553060312572E9, 0.0, 2022-10-23 13:01:46.031
103.0, -63966.66931708686, -94001.87063239464, 54141.915338267725, -1414.0384094760907, 82735.78676411949, 60595.62392182636, 17856.71923836699, 14703.335130612271, 0.032, 0.9480000000000001, 0.09, 192.0, 0.0, 0.0, 0.0, 0.0, 0.0, 0.0, 0.0, 0.0, 0.0, 1.6665553060312667E9, 0.0, 2022-10-23 13:01:46.031
104.0, -64014.88202987696, -94047.95992946147, 53854.18133189456, -1445.6661278803501, 82917.01470816311, 60550.294584070994, 17803.700900519, 14813.395120310202, 0.03, 0.9480000000000001, 0.098, 192.0, 0.0, 240.0, 29.0, 160.0, 3.0, 16.0, 0.0, 0.0, 0.0, 1.6665553060312765E9, 0.0, 2022-10-23 13:01:46.031
105.0, -64069.956728214835, -94104.21927025549, 55598.75733837573, -451.54994148611325, 83172.24927809826, 61395.16817273715, 18980.69906004656, 16117.798223233012, 0.03, 0.9480000000000001, 0.098, 192.0, 0.0, 0.0, 0.0, 0.0, 0.0, 0.0, 0.0, 0.0, 0.0, 1.6665553060312867E9, 0.0, 2022-10-23 13:01:46.031
106.0, -64019.553544468115, -94060.38749937863, 56729.30857292516, 10.72883733854739, 83032.17089559685, 61813.12344230693, 19550.959116334812, 16529.78557703323, 0.03, 0.9480000000000001, 0.098, 192.0, 0.0, 0.0, 0.0, 0.0, 0.0, 0.0, 0.0, 0.0, 0.0, 1.6665553060312963E9, 0.0, 2022-10-23 13:01:46.031
107.0, -63965.81995079756, -94004.79871091827, 54446.100228560004, -1275.032910708536, 82716.74307784357, 60728.996780991176, 18026.100757849308, 14848.465007360579, 0.03, 0.9480000000000001, 0.098, 192.0, 0.0, 0.0, 0.0, 0.0, 0.0, 0.0, 0.0, 0.0, 0.0, 1.6665553060313056E9, 0.0, 2022-10-23 13:01:46.031
108.0, -64012.356282753506, -94044.31659511526, 53803.3981684921, -1489.833174924037, 82883.17416705778, 60522.2878482685, 17740.579574177216, 14710.532392326879, 0.03, 0.9480000000000001, 0.098, 192.0, 0.0, 0.0, 0.0, 0.0, 0.0, 0.0, 0.0, 0.0, 0.0, 1.666555306031315E9, 0.0, 2022-10-23 13:01:46.031
109.0, -64057.30564085313, -94084.75090083492, 55149.37551610178, -694.2228310373821, 83123.5224751857, 61190.44854527099, 18683.89024542454, 15806.192553781577, 0.03, 0.9480000000000001, 0.098, 192.0, 0.0, 0.0, 0.0, 0.0, 0.0, 0.0, 0.0, 0.0, 0.0, 1.6665553060313249E9, 0.0, 2022-10-23 13:01:46.031
110.0, -64035.37857954247, -94068.9035140161, 56868.738754837366, 116.51964384551572, 83111.22901573527, 61895.17669620237, 19661.153216499475, 16692.796849345785, 0.03, 0.9480000000000001, 0.098, 192.0, 0.0, 0.0, 0.0, 0.0, 0.0, 0.0, 0.0, 0.0, 0.0, 1.6665553060313344E9, 0.0, 2022-10-23 13:01:46.031
111.0, -63965.26115718617, -94004.8434144072, 54834.439436726505, -1079.1198705577697, 82734.53506642999, 60901.038158063675, 18258.7600658846, 15082.465420063189, 0.03, 0.9480000000000001, 0.098, 192.0, 0.0, 0.0, 0.0, 0.0, 0.0, 0.0, 0.0, 0.0, 0.0, 1.666555306031344E9, 0.0, 2022-10-23 13:01:46.031
112.0, -63997.22415175726, -94029.07270539674, 53784.063909538265, -1523.53960556264, 82852.46287017618, 60501.299560224965, 17700.7264138134, 14640.146749037118, 0.03, 0.9480000000000001, 0.098, 192.0, 0.0, 0.0, 0.0, 0.0, 0.0, 0.0, 0.0, 0.0, 0.0, 1.666555306031365E9, 0.0, 2022-10-23 13:01:46.031
113.0, -64057.68562050887, -94086.89666830262, 54722.166624327496, -936.4933891884554, 83073.4545676058, 60992.70266207489, 18402.414727498857, 15506.768585058284, 0.03, 0.9480000000000001, 0.098, 192.0, 0.0, 0.0, 0.0, 0.0, 0.0, 0.0, 0.0, 0.0, 0.0, 1.6665553060313747E9, 0.0, 2022-10-23 13:01:46.031
114.0, -64063.809998489625, -94095.56914515128, 56792.94398938942, 95.03961742396564, 83153.8314406671, 61873.56255931409, 19634.50993710875, 16711.348797243692, 0.032, 0.9520000000000001, 0.1, 192.0, 1.0, 0.0, 29.0, 192.0, 3.0, 32.0, 0.0, 0.0, 0.0, 1.6665553060313845E9, 0.0, 2022-10-23 13:01:46.031
115.0, -63977.1522852364, -94010.69957145448, 55233.30631653146, -874.1320221581486, 82779.30561057397, 61078.17573287198, 18508.38434796147, 15347.445350580854, 0.032, 0.9520000000000001, 0.1, 192.0, 0.0, 0.0, 0.0, 0.0, 0.0, 0.0, 0.0, 0.0, 0.0, 1.6665553060313945E9, 0.0, 2022-10-23 13:01:46.031
116.0, -63999.973416325265, -94031.15141763109, 53810.17074706206, -1530.4686463437852, 82829.7534978096, 60507.9827318171, 17697.351300400653, 14601.500582873892, 0.032, 0.9520000000000001, 0.1, 192.0, 0.0, 0.0, 0.0, 0.0, 0.0, 0.0, 0.0, 0.0, 0.0, 1.666555306031407E9, 0.0, 2022-10-23 13:01:46.031
117.0, -64040.69829472283, -94070.53519136134, 54380.453155094765, -1131.042972927448, 83029.01929962865, 60833.60294504201, 18173.666974743246, 15247.44364588781, 0.032, 0.9520000000000001, 0.1, 192.0, 0.0, 0.0, 0.0, 0.0, 0.0, 0.0, 0.0, 0.0, 0.0, 1.6665553060314171E9, 0.0, 2022-10-23 13:01:46.031
118.0, -64070.53787357067, -94101.93939232104, 56619.27093497169, 32.767657371480155, 83199.63016505602, 61822.46647148925, 19558.29048851615, 16662.77845654231, 0.032, 0.9520000000000001, 0.1, 192.0, 0.0, 0.0, 0.0, 0.0, 0.0, 0.0, 0.0, 0.0, 0.0, 1.666555306031427E9, 0.0, 2022-10-23 13:01:46.031
119.0, -63982.31553820557, -94020.48963552591, 55694.601618600085, -630.3415453841145, 82819.22582617114, 61286.60574991772, 18802.86858116014, 15667.119999780656, 0.032, 0.9520000000000001, 0.1, 192.0, 0.0, 0.0, 0.0, 0.0, 0.0, 0.0, 0.0, 0.0, 0.0, 1.6665553060314364E9, 0.0, 2022-10-23 13:01:46.031
120.0, -63986.31650046307, -94023.61887974964, 53879.17058219559, -1526.3559253640087, 82786.36876182184, 60515.694083654176, 17708.59422786167, 14585.653196055078, 0.032, 0.9520000000000001, 0.1, 192.0, 0.0, 0.0, 0.0, 0.0, 0.0, 0.0, 0.0, 0.0, 0.0, 1.6665553065088148E9, 0.0, 2022-10-23 13:01:46.508
121.0, -64025.8120329156, -94058.50995284438, 54147.0785912369, -1263.9240937142486, 82988.87556658692, 60725.86753676743, 18011.907400120188, 15054.145759838315, 0.032, 0.9520000000000001, 0.1, 192.0, 0.0, 0.0, 0.0, 0.0, 0.0, 0.0, 0.0, 0.0, 0.0, 1.6665553065088835E9, 0.0, 2022-10-23 13:01:46.508
122.0, -64066.84983573554, -94096.2620492294, 56348.9489375292, -71.32441655688484, 83221.28900543321, 61743.36364786192, 19422.45893746125, 16539.21801319337, 0.032, 0.9520000000000001, 0.1, 192.0, 0.0, 0.0, 0.0, 0.0, 0.0, 0.0, 0.0, 0.0, 0.0, 1.6665553065089667E9, 0.0, 2022-10-23 13:01:46.508
123.0, -63989.73631736473, -94027.08340014023, 56215.59843010884, -313.72908517468994, 82911.24795809365, 61569.020041110525, 19165.45857971413, 16053.9392893242, 0.032, 0.9520000000000001, 0.1, 192.0, 0.0, 0.0, 0.0, 0.0, 0.0, 0.0, 0.0, 0.0, 0.0, 1.6665553065089805E9, 0.0, 2022-10-23 13:01:46.508
124.0, -63987.590549897024, -94023.37301056064, 54057.31398550439, -1449.8235523490373, 82748.37079624782, 60598.820221283466, 17800.99633943991, 14636.168138524074, 0.03, 0.9520000000000001, 0.098, 192.0, 0.0, 240.0, 29.0, 192.0, 3.0, 16.0, 0.0, 0.0, 0.0, 1.666555306508994E9, 0.0, 2022-10-23 13:01:46.508
125.0, -64040.09479762254, -94073.39621465161, 53980.11106015576, -1371.6371502443733, 82933.04090893758, 60645.66947766179, 17881.86495087921, 14883.691356622143, 0.03, 0.9520000000000001, 0.098, 192.0, 0.0, 0.0, 0.0, 0.0, 0.0, 0.0, 0.0, 0.0, 0.0, 1.6665553065090065E9, 0.0, 2022-10-23 13:01:46.509
126.0, -64076.72930678479, -94110.1648342806, 55906.987894414415, -304.81073913702244, 83176.7866822227, 61546.53418618849, 19146.41489343821, 16260.961146469253, 0.03, 0.9520000000000001, 0.098, 192.0, 0.0, 0.0, 0.0, 0.0, 0.0, 0.0, 0.0, 0.0, 0.0, 1.6665553065090172E9, 0.0, 2022-10-23 13:01:46.509
127.0, -64014.591457199036, -94049.59160680672, 56539.877538666435, -131.6741265862139, 82970.77065357813, 61714.52989751457, 19379.87886427389, 16312.817193605566, 0.03, 0.9520000000000001, 0.098, 192.0, 0.0, 0.0, 0.0, 0.0, 0.0, 0.0, 0.0, 0.0, 0.0, 1.6665553065090275E9, 0.0, 2022-10-23 13:01:46.509
128.0, -63980.66150911588, -94013.53824300031, 54247.19205465222, -1386.7916329850714, 82716.89954005474, 60648.48579746316, 17884.368346258205, 14704.787994001867, 0.03, 0.9520000000000001, 0.098, 192.0, 0.0, 0.0, 0.0, 0.0, 0.0, 0.0, 0.0, 0.0, 0.0, 1.6665553065091705E9, 0.0, 2022-10-23 13:01:46.509
129.0, -64020.58172471306, -94048.6975370285, 53827.44864552601, -1484.8040324215929, 82894.30533579653, 60537.21881356464, 17743.775873634324, 14727.273848923905, 0.03, 0.9520000000000001, 0.098, 192.0, 0.0, 0.0, 0.0, 0.0, 0.0, 0.0, 0.0, 0.0, 0.0, 1.666555306509182E9, 0.0, 2022-10-23 13:01:46.509
130.0, -64076.21521666232, -94102.27466848788, 55445.11144698995, -544.4661431868248, 83167.73422571829, 61331.28688708388, 18852.087122450725, 15975.372907563795, 0.03, 0.9520000000000001, 0.098, 192.0, 0.0, 0.0, 0.0, 0.0, 0.0, 0.0, 0.0, 0.0, 0.0, 1.6665553065091927E9, 0.0, 2022-10-23 13:01:46.509
131.0, -64039.22307958879, -94070.37872915015, 56830.38316135206, 74.18543984716415, 83082.9093555104, 61882.39149837393, 19600.758802981236, 16591.789316152255, 0.03, 0.9520000000000001, 0.098, 192.0, 0.0, 0.0, 0.0, 0.0, 0.0, 0.0, 0.0, 0.0, 0.0, 1.6665553065092027E9, 0.0, 2022-10-23 13:01:46.509
132.0, -63967.049296742596, -93998.89785038208, 54604.70820721486, -1195.7959766144725, 82732.65751989574, 60815.2074593553, 18099.235665707074, 14913.218011047604, 0.03, 0.9520000000000001, 0.098, 192.0, 0.0, 0.0, 0.0, 0.0, 0.0, 0.0, 0.0, 0.0, 0.0, 1.6665553065092137E9, 0.0, 2022-10-23 13:01:46.509
133.0, -64016.111375821994, -94045.23301663793, 53806.16978480456, -1501.0090471516905, 82876.82627163247, 60529.462758238646, 17705.777908060303, 14658.743400423933, 0.026000000000000002, 0.9540000000000001, 0.096, 192.0, 0.0, 208.0, 29.0, 208.0, 3.0, 0.0, 0.0, 0.0, 0.0, 1.6665553065092304E9, 0.0, 2022-10-23 13:01:46.509
134.0, -64077.26574865172, -94106.00740981191, 55014.21451738054, -776.9242855220182, 83101.77422783068, 61139.24069872388, 18566.565938778633, 15676.641842918616, 0.026000000000000002, 0.9540000000000001, 0.096, 192.0, 0.0, 0.0, 0.0, 0.0, 0.0, 0.0, 0.0, 0.0, 0.0, 1.666555306509241E9, 0.0, 2022-10-23 13:01:46.509
135.0, -64054.93635594087, -94088.17071773658, 56861.20621695593, 110.59643156485934, 83116.83930359356, 61897.367167158984, 19627.871469005524, 16675.5860061152, 0.026000000000000002, 0.9540000000000001, 0.096, 192.0, 0.0, 0.0, 0.0, 0.0, 0.0, 0.0, 0.0, 0.0, 0.0, 1.6665553065092516E9, 0.0, 2022-10-23 13:01:46.509
136.0, -63976.57113988056, -94017.11452211316, 54989.26997056842, -1001.7381312534966, 82754.89750562877, 60980.76683053575, 18325.971761461708, 15156.986136077183, 0.026000000000000002, 0.9540000000000001, 0.096, 192.0, 0.0, 0.0, 0.0, 0.0, 0.0, 0.0, 0.0, 0.0, 0.0, 1.6665553065092618E9, 0.0, 2022-10-23 13:01:46.509
137.0, -64013.317407765084, -94049.54690331781, 53808.673180183556, -1519.6727537718718, 82840.54939038151, 60520.49970871207, 17679.246387391853, 14609.793080066811, 0.026000000000000002, 0.9540000000000001, 0.096, 192.0, 0.0, 0.0, 0.0, 0.0, 0.0, 0.0, 0.0, 0.0, 0.0, 1.6665553065092723E9, 0.0, 2022-10-23 13:01:46.509
138.0, -64059.33964959856, -94090.20472648201, 54620.62264926704, -994.6749800056195, 83049.605256272, 60953.76592323374, 18302.033043150073, 15397.468554671832, 0.026000000000000002, 0.9540000000000001, 0.096, 192.0, 0.0, 0.0, 0.0, 0.0, 0.0, 0.0, 0.0, 0.0, 0.0, 1.6665553065092824E9, 0.0, 2022-10-23 13:01:46.509
139.0, -64066.246338635254, -94100.33006672026, 56797.41433828048, 116.92197524571124, 83178.2842491012, 61899.53528637115, 19620.69655903537, 16711.237038521416, 0.026000000000000002, 0.9540000000000001, 0.096, 192.0, 0.0, 0.0, 0.0, 0.0, 0.0, 0.0, 0.0, 0.0, 0.0, 1.666555306509293E9, 0.0, 2022-10-23 13:01:46.509
140.0, -63982.58375913904, -94018.92501341403, 55454.7897523391, -750.6609857870324, 82798.75162825009, 61195.58944649571, 18620.63480861602, 15467.697735750406, 0.026000000000000002, 0.9540000000000001, 0.096, 192.0, 0.0, 0.0, 0.0, 0.0, 0.0, 0.0, 0.0, 0.0, 0.0, 1.666555306509303E9, 0.0, 2022-10-23 13:01:46.509
141.0, -64014.70321592131, -94046.08238292723, 53885.496125876445, -1496.158718604889, 82821.30453840549, 60550.451046282185, 17706.31434992723, 14598.170172950051, 0.026000000000000002, 0.9540000000000001, 0.096, 192.0, 0.0, 0.0, 0.0, 0.0, 0.0, 0.0, 0.0, 0.0, 0.0, 1.6665553065093136E9, 0.0, 2022-10-23 13:01:46.509
142.0, -64057.015068175206, -94086.65079911362, 54362.43764906379, -1135.2898043739563, 83019.31864253506, 60846.611660315, 18132.78563413449, 15187.183342836302, 0.026000000000000002, 0.9540000000000001, 0.096, 192.0, 0.0, 0.0, 0.0, 0.0, 0.0, 0.0, 0.0, 0.0, 0.0, 1.6665553065093238E9, 0.0, 2022-10-23 13:01:46.509
143.0, -64085.55824584464, -94118.54673845133, 56603.02121675268, 44.994061588533114, 83205.50867384775, 61848.930936924335, 19531.468395169784, 16630.122557893104, 0.024, 0.96, 0.096, 192.0, 0.0, 192.0, 30.0, 0.0, 3.0, 0.0, 0.0, 0.0, 0.0, 1.6665553065093482E9, 0.0, 2022-10-23 13:01:46.509
144.0, -63994.944273822824, -94037.2981473563, 55953.81479904828, -471.33123532906, 82852.12759400936, 61440.27399304796, 18950.010114909426, 15807.623065426716, 0.024, 0.96, 0.096, 192.0, 0.0, 0.0, 0.0, 0.0, 0.0, 0.0, 0.0, 0.0, 0.0, 1.666555306509359E9, 0.0, 2022-10-23 13:01:46.509
145.0, -63987.94817780831, -94018.56738550274, 53999.95940923207, -1460.9547210877802, 82780.02086639653, 60587.95727347819, 17748.80501613677, 14596.382033393626, 0.024, 0.96, 0.096, 192.0, 0.0, 0.0, 0.0, 0.0, 0.0, 0.0, 0.0, 0.0, 0.0, 1.6665553065093694E9, 0.0, 2022-10-23 13:01:46.509
146.0, -64046.48739653676, -94070.98222625045, 54134.11457945283, -1277.133974687335, 82972.3799791789, 60729.77909204711, 17962.55474836287, 14978.976843235117, 0.024, 0.96, 0.096, 192.0, 0.0, 0.0, 0.0, 0.0, 0.0, 0.0, 0.0, 0.0, 0.0, 1.66655530650938E9, 0.0, 2022-10-23 13:01:46.509
147.0, -64093.649577337455, -94119.97725009648, 56232.58575589488, -138.44670515617196, 83198.13259817752, 61692.73694667065, 19311.21430530719, 16422.63131411449, 0.024, 0.96, 0.096, 192.0, 0.0, 0.0, 0.0, 0.0, 0.0, 0.0, 0.0, 0.0, 0.0, 1.66655530650939E9, 0.0, 2022-10-23 13:01:46.509
148.0, -64018.793585156636, -94052.56438881927, 56390.59023744944, -218.17537762825225, 82929.39757459135, 61656.86239681988, 19245.43312137522, 16143.905060756812, 0.024, 0.96, 0.096, 192.0, 0.0, 0.0, 0.0, 0.0, 0.0, 0.0, 0.0, 0.0, 0.0, 1.6665553065094047E9, 0.0, 2022-10-23 13:01:46.509
149.0, -64000.9568930813, -94030.41381006406, 54154.61112911834, -1413.8819472649036, 82726.71195587063, 60633.95716356721, 17810.607589555693, 14637.7551123804, 0.024, 0.96, 0.096, 192.0, 0.0, 0.0, 0.0, 0.0, 0.0, 0.0, 0.0, 0.0, 0.0, 1.666555306509415E9, 0.0, 2022-10-23 13:01:46.509
150.0, -64036.40675978742, -94062.71208080198, 53952.461952264544, -1403.644848304373, 82922.37912683238, 60616.54515463652, 17807.791269754325, 14806.17550685114, 0.024, 0.96, 0.096, 192.0, 0.0, 0.0, 0.0, 0.0, 0.0, 0.0, 0.0, 0.0, 0.0, 1.6665553065094252E9, 0.0, 2022-10-23 13:01:46.509
151.0, -64091.81673429212, -94117.58561343976, 55767.244788079835, -387.89217327739874, 83181.4805485583, 61471.298214351926, 19014.293731962887, 16143.614488078892, 0.024, 0.96, 0.096, 192.0, 0.0, 0.0, 0.0, 0.0, 0.0, 0.0, 0.0, 0.0, 0.0, 1.6665553065094357E9, 0.0, 2022-10-23 13:01:46.509
152.0, -64046.37563781448, -94076.19018270852, 56696.764432998236, -37.260358006996874, 83019.9444913798, 61798.08071828851, 19457.08178962252, 16420.7761193247, 0.024, 0.96, 0.096, 192.0, 0.0, 0.0, 0.0, 0.0, 0.0, 0.0, 0.0, 0.0, 0.0, 1.6665553065094457E9, 0.0, 2022-10-23 13:01:46.509
153.0, -64003.95202683831, -94033.2971850988, 54407.00702750767, -1308.0464372690246, 82727.56132215993, 60727.14158620138, 17951.445931368584, 14775.575968691823, 0.028, 0.9560000000000001, 0.09, 192.0, 0.0, 224.0, 29.0, 224.0, 2.0, 208.0, 0.0, 0.0, 0.0, 1.666555306509456E9, 0.0, 2022-10-23 13:01:46.509
154.0, -64048.52140528219, -94074.53615361884, 53890.18999221206, -1453.958625073269, 82896.92048989779, 60584.51510483207, 17756.873995885133, 14728.927878013597, 0.028, 0.9560000000000001, 0.09, 192.0, 0.0, 0.0, 0.0, 0.0, 0.0, 0.0, 0.0, 0.0, 0.0, 1.666555306509467E9, 0.0, 2022-10-23 13:01:46.509
155.0, -64090.296815669164, -94113.85287211572, 55368.199094319236, -589.5496117531791, 83144.93544637389, 61315.93123864308, 18781.34385124968, 15895.130144969244, 0.028, 0.9560000000000001, 0.09, 192.0, 0.0, 0.0, 0.0, 0.0, 0.0, 0.0, 0.0, 0.0, 0.0, 1.6665553065094783E9, 0.0, 2022-10-23 13:01:46.509
156.0, -64053.99758267374, -94081.39813916662, 56917.13028158311, 116.51964384551572, 83097.23682370625, 61929.15134777443, 19631.82772777411, 16635.330514351193, 0.028, 0.9560000000000001, 0.09, 192.0, 0.0, 0.0, 0.0, 0.0, 0.0, 0.0, 0.0, 0.0, 0.0, 1.6665553065094888E9, 0.0, 2022-10-23 13:01:46.509
157.0, -63999.682843647344, -94029.22916760793, 54790.69707282747, -1116.0896558868476, 82742.87226711182, 60900.94875108585, 18184.77579173753, 14993.10314573087, 0.028, 0.9560000000000001, 0.09, 192.0, 0.0, 0.0, 0.0, 0.0, 0.0, 0.0, 0.0, 0.0, 0.0, 1.6665553065094988E9, 0.0, 2022-10-23 13:01:46.509
158.0, -64040.385370300464, -94064.72373780295, 53901.25410571744, -1464.1957240337997, 82872.33357099695, 60591.17592467975, 17742.390065478095, 14667.661746461601, 0.028, 0.9560000000000001, 0.09, 192.0, 0.0, 0.0, 0.0, 0.0, 0.0, 0.0, 0.0, 0.0, 0.0, 1.666555306509509E9, 0.0, 2022-10-23 13:01:46.509
159.0, -64078.11511494102, -94102.63229639916, 54944.78999910236, -826.8357308907189, 83086.75385555672, 61116.55367810174, 18495.59915013303, 15583.770344706816, 0.028, 0.9560000000000001, 0.09, 192.0, 0.0, 0.0, 0.0, 0.0, 0.0, 0.0, 0.0, 0.0, 0.0, 1.666555306509529E9, 0.0, 2022-10-23 13:01:46.509
160.0, -64081.04319346466, -94110.99184882545, 56924.372246786625, 141.30772844645125, 83137.4699637258, 61943.9705543483, 19655.65468736347, 16701.469326194445, 0.028, 0.9560000000000001, 0.09, 192.0, 0.0, 0.0, 0.0, 0.0, 0.0, 0.0, 0.0, 0.0, 0.0, 1.6665553065095396E9, 0.0, 2022-10-23 13:01:46.509
161.0, -64006.38836698394, -94038.7510107459, 55216.274287256514, -900.1941561930366, 82756.14920331827, 61091.609131289624, 18444.570117541567, 15259.982974527238, 0.028, 0.9560000000000001, 0.09, 192.0, 0.0, 0.0, 0.0, 0.0, 0.0, 0.0, 0.0, 0.0, 0.0, 1.6665553065095496E9, 0.0, 2022-10-23 13:01:46.509
162.0, -64031.57878298507, -94056.67710979904, 53903.33281795178, -1495.4211110378637, 82817.54944533699, 60569.539436047016, 17707.208419705443, 14603.26637068586, 0.028, 0.9560000000000001, 0.09, 192.0, 0.0, 0.0, 0.0, 0.0, 0.0, 0.0, 0.0, 0.0, 0.0, 1.6665553065095599E9, 0.0, 2022-10-23 13:01:46.509
163.0, -64071.074315437596, -94091.59053463824, 54599.92493390143, -1022.8381780193065, 83036.10480262099, 60958.81741748064, 18266.784342144056, 15329.094568383047, 0.026000000000000002, 0.9540000000000001, 0.10200000000000001, 192.0, 0.0, 208.0, 29.0, 208.0, 3.0, 48.0, 0.0, 0.0, 0.0, 1.66655530650957E9, 0.0, 2022-10-23 13:01:46.509
164.0, -64089.33569065759, -94114.34461049373, 56818.71555074639, 118.77717003550173, 83187.62727828351, 61929.64308615245, 19622.618809058527, 16700.30703548277, 0.026000000000000002, 0.9540000000000001, 0.10200000000000001, 192.0, 0.0, 0.0, 0.0, 0.0, 0.0, 0.0, 0.0, 0.0, 0.0, 1.6665553065095809E9, 0.0, 2022-10-23 13:01:46.509
165.0, -64007.103622806506, -94039.57802529074, 55701.28479019223, -640.4221821334579, 82811.98386096762, 61317.02647412139, 18755.013496281328, 15588.978301164903, 0.026000000000000002, 0.9540000000000001, 0.10200000000000001, 192.0, 0.0, 0.0, 0.0, 0.0, 0.0, 0.0, 0.0, 0.0, 0.0, 1.6665553065095909E9, 0.0, 2022-10-23 13:01:46.509
166.0, -64022.4592712473, -94052.49733358591, 53984.84962998029, -1483.0158928651683, 82789.3415438344, 60590.52772409055, 17729.716626371937, 14591.50935310237, 0.026000000000000002, 0.9540000000000001, 0.10200000000000001, 192.0, 0.0, 0.0, 0.0, 0.0, 0.0, 0.0, 0.0, 0.0, 0.0, 1.666555306509601E9, 0.0, 2022-10-23 13:01:46.509
167.0, -64062.24537637775, -94089.02008402588, 54342.23167207619, -1182.6755026192072, 82995.78225562362, 60829.9596106958, 18080.974290487087, 15111.522687855087, 0.026000000000000002, 0.9540000000000001, 0.10200000000000001, 192.0, 0.0, 0.0, 0.0, 0.0, 0.0, 0.0, 0.0, 0.0, 0.0, 1.6665553065096114E9, 0.0, 2022-10-23 13:01:46.509
168.0, -64104.84780130957, -94129.92377637909, 56571.90758847089, 6.794930314413347, 83208.2355866713, 61837.30802980757, 19488.7989150046, 16582.938025347954, 0.026000000000000002, 0.9540000000000001, 0.10200000000000001, 192.0, 0.0, 0.0, 0.0, 0.0, 0.0, 0.0, 0.0, 0.0, 0.0, 1.6665553065096216E9, 0.0, 2022-10-23 13:01:46.509
169.0, -64037.166719098896, -94069.57406634976, 56214.659656841715, -357.8961322183767, 82878.27913502207, 61560.481674728595, 19090.40142183321, 15949.087256084355, 0.026000000000000002, 0.9540000000000001, 0.10200000000000001, 192.0, 0.0, 0.0, 0.0, 0.0, 0.0, 0.0, 0.0, 0.0, 0.0, 1.666555306509632E9, 0.0, 2022-10-23 13:01:46.509
170.0, -64017.27366653367, -94050.23980739592, 54149.44787614917, -1431.6068806179621, 82746.5826566914, 60636.68407639075, 17795.698976004, 14623.785272095833, 0.026000000000000002, 0.9540000000000001, 0.10200000000000001, 192.0, 0.0, 0.0, 0.0, 0.0, 0.0, 0.0, 0.0, 0.0, 0.0, 1.666555306509642E9, 0.0, 2022-10-23 13:01:46.509
171.0, -64056.65744026392, -94087.58957238073, 54196.96768486115, -1283.5936288349187, 82958.8795255279, 60741.82668230852, 17958.50908261646, 14956.20041563516, 0.026000000000000002, 0.9540000000000001, 0.10200000000000001, 192.0, 0.0, 0.0, 0.0, 0.0, 0.0, 0.0, 0.0, 0.0, 0.0, 1.6665553065096521E9, 0.0, 2022-10-23 13:01:46.509
172.0, -64103.55140013116, -94134.75175318144, 56250.13187529229, -154.56231290844835, 83204.12286569153, 61698.45899325121, 19295.277511510554, 16394.356357378525, 0.03, 0.9560000000000001, 0.096, 192.0, 0.0, 240.0, 29.0, 224.0, 3.0, 0.0, 0.0, 0.0, 0.0, 1.6665553065096624E9, 0.0, 2022-10-23 13:01:46.509
173.0, -64043.89459417995, -94077.73245307595, 56677.117249622024, -98.01239943652146, 82959.70654007274, 61773.53850287658, 19392.239378957674, 16290.800725317089, 0.03, 0.9560000000000001, 0.096, 192.0, 0.0, 0.0, 0.0, 0.0, 0.0, 0.0, 0.0, 0.0, 0.0, 1.666555306509673E9, 0.0, 2022-10-23 13:01:46.509
174.0, -64025.92379163788, -94054.68780454253, 54427.078894028535, -1318.775274607572, 82731.60698790634, 60740.77615031912, 17935.06210268284, 14733.39822690466, 0.03, 0.9560000000000001, 0.096, 192.0, 0.0, 0.0, 0.0, 0.0, 0.0, 0.0, 0.0, 0.0, 0.0, 1.666555306509693E9, 0.0, 2022-10-23 13:01:46.509
175.0, -64066.55926305763, -94091.09879626022, 54151.2807191945, -1343.608062697418, 82908.90102492584, 60701.54883880006, 17886.44705849255, 14840.865414245774, 0.03, 0.9560000000000001, 0.096, 192.0, 0.0, 0.0, 0.0, 0.0, 0.0, 0.0, 0.0, 0.0, 0.0, 1.6665553065097034E9, 0.0, 2022-10-23 13:01:46.509
176.0, -64108.91581880043, -94131.37663976868, 55864.43017297151, -378.1244609504296, 83154.81491742312, 61514.79470906195, 19031.996313571493, 16112.880839452844, 0.03, 0.9560000000000001, 0.096, 192.0, 0.0, 0.0, 0.0, 0.0, 0.0, 0.0, 0.0, 0.0, 0.0, 1.6665553065097148E9, 0.0, 2022-10-23 13:01:46.509
177.0, -64061.19484438835, -94092.0599212718, 57014.87446008617, 85.51777428600482, 83028.7957821841, 61928.65960939642, 19607.30786410664, 16535.88760326953, 0.03, 0.9560000000000001, 0.096, 192.0, 0.0, 0.0, 0.0, 0.0, 0.0, 0.0, 0.0, 0.0, 0.0, 1.666555306509725E9, 0.0, 2022-10-23 13:01:46.509
178.0, -64023.44274800334, -94053.10083068619, 54765.372546359606, -1181.9602467966374, 82722.26395872403, 60864.62716634598, 18108.77986058949, 14873.6107198728, 0.03, 0.9560000000000001, 0.096, 192.0, 0.0, 0.0, 0.0, 0.0, 0.0, 0.0, 0.0, 0.0, 0.0, 1.6665553065097353E9, 0.0, 2022-10-23 13:01:46.509
179.0, -64070.44846659285, -94096.9549533075, 54125.911489237726, -1397.7439877681718, 82874.47933846466, 60663.39441101485, 17827.14788045262, 14726.804462290344, 0.03, 0.9560000000000001, 0.096, 192.0, 0.0, 0.0, 0.0, 0.0, 0.0, 0.0, 0.0, 0.0, 0.0, 1.6665553065097456E9, 0.0, 2022-10-23 13:01:46.509
180.0, -64113.8332025806, -94138.216273572, 55463.752801865674, -611.5884317861119, 83110.55846340161, 61324.111977113724, 18759.10386551665, 15807.913638104636, 0.03, 0.9560000000000001, 0.096, 192.0, 0.0, 0.0, 0.0, 0.0, 0.0, 0.0, 0.0, 0.0, 0.0, 1.666555306509756E9, 0.0, 2022-10-23 13:01:46.509
181.0, -64081.64669056496, -94110.47775870297, 57207.12181414626, 209.34643856840594, 83101.57306213058, 62032.25994494677, 19743.65350528401, 16704.39740471809, 0.03, 0.9560000000000001, 0.096, 192.0, 0.0, 0.0, 0.0, 0.0, 0.0, 0.0, 0.0, 0.0, 0.0, 1.666555306509766E9, 0.0, 2022-10-23 13:01:46.509
182.0, -64009.02587282967, -94041.25440612489, 55235.02740085452, -945.0988108037485, 82749.13075555931, 61078.734526483364, 18388.31077674756, 15133.583859632476, 0.036000000000000004, 0.9580000000000001, 0.098, 192.0, 1.0, 32.0, 29.0, 240.0, 3.0, 16.0, 0.0, 0.0, 0.0, 1.6665553065097764E9, 0.0, 2022-10-23 13:01:46.509
183.0, -64038.10549236602, -94065.21547618098, 54175.35354797287, -1399.8227000025154, 82840.23646595914, 60668.55766398402, 17816.977836725455, 14664.554853982312, 0.036000000000000004, 0.9580000000000001, 0.098, 192.0, 0.0, 0.0, 0.0, 0.0, 0.0, 0.0, 0.0, 0.0, 0.0, 1.6665553065097876E9, 0.0, 2022-10-23 13:01:46.509
184.0, -64095.10244072705, -94117.47385471748, 55092.825602629855, -829.5626437142663, 83053.47210806276, 61139.24069872388, 18494.79448733264, 15506.2097914469, 0.036000000000000004, 0.9580000000000001, 0.098, 192.0, 0.0, 0.0, 0.0, 0.0, 0.0, 0.0, 0.0, 0.0, 0.0, 1.6665553065097976E9, 0.0, 2022-10-23 13:01:46.509
185.0, -64095.99651050526, -94117.58561343976, 57189.73215696003, 216.61075551638075, 83148.10939408654, 62032.41640715795, 19742.04417968323, 16734.527556243844, 0.036000000000000004, 0.9580000000000001, 0.098, 192.0, 0.0, 0.0, 0.0, 0.0, 0.0, 0.0, 0.0, 0.0, 0.0, 1.666555306509806E9, 0.0, 2022-10-23 13:01:46.509
186.0, -64019.24062004574, -94044.8530369822, 55638.76696095073, -762.3732998816133, 82758.49613648608, 61227.083054433235, 18608.45310788788, 15367.561920590631, 0.036000000000000004, 0.9580000000000001, 0.098, 192.0, 0.0, 0.0, 0.0, 0.0, 0.0, 0.0, 0.0, 0.0, 0.0, 1.6665553065098147E9, 0.0, 2022-10-23 13:01:46.509
187.0, -64036.674980720876, -94059.38167087814, 54167.39632694678, -1455.187971018311, 82800.71858176215, 60620.68022736075, 17756.0916848292, 14580.489943085902, 0.036000000000000004, 0.9580000000000001, 0.098, 192.0, 0.0, 0.0, 0.0, 0.0, 0.0, 0.0, 0.0, 0.0, 0.0, 1.666555306509823E9, 0.0, 2022-10-23 13:01:46.509
188.0, -64076.68460329588, -94098.63133414165, 54721.00433361583, -1063.4736494390547, 83005.81818888405, 60937.247984081274, 18222.147908466806, 15217.894639717895, 0.036000000000000004, 0.9580000000000001, 0.098, 192.0, 0.0, 0.0, 0.0, 0.0, 0.0, 0.0, 0.0, 0.0, 0.0, 1.6665553065098317E9, 0.0, 2022-10-23 13:01:46.509
189.0, -64106.83710656609, -94129.90142463463, 56979.6481108246, 120.36414389182853, 83193.05875218616, 61947.90446137243, 19629.257277161752, 16658.375162884615, 0.036000000000000004, 0.9580000000000001, 0.098, 192.0, 0.0, 0.0, 0.0, 0.0, 0.0, 0.0, 0.0, 0.0, 0.0, 1.66655530650984E9, 0.0, 2022-10-23 13:01:46.509
190.0, -64019.397082256924, -94050.01628995137, 56110.992266058005, -509.1950904363502, 82823.11502970637, 61448.47708326305, 18916.97423660448, 15700.848782163714, 0.036000000000000004, 0.9580000000000001, 0.098, 192.0, 0.0, 0.0, 0.0, 0.0, 0.0, 0.0, 0.0, 0.0, 0.0, 1.6665553065098567E9, 0.0, 2022-10-23 13:01:46.509
191.0, -64031.44467251834, -94058.53230458884, 54240.285365615535, -1449.8235523490373, 82761.46891849863, 60635.722951379175, 17774.241301326907, 14571.8398179817, 0.036000000000000004, 0.9580000000000001, 0.098, 192.0, 0.0, 0.0, 0.0, 0.0, 0.0, 0.0, 0.0, 0.0, 0.0, 1.6665553065098653E9, 0.0, 2022-10-23 13:01:46.509
192.0, -64077.24339690726, -94101.33589522075, 54471.78238293915, -1214.5937937013857, 82965.40623490885, 60820.61658151348, 18048.743074982533, 15018.539430921011, 0.032, 0.96, 0.1, 192.0, 1.0, 0.0, 30.0, 0.0, 3.0, 32.0, 0.0, 0.0, 0.0, 1.6665553065098736E9, 0.0, 2022-10-23 13:01:46.509
193.0, -64118.01297879374, -94145.86057017572, 56650.5186737202, -38.176779529664465, 83199.36194412255, 61820.074834832536, 19442.195527815285, 16492.189942859404, 0.032, 0.96, 0.1, 192.0, 0.0, 0.0, 0.0, 0.0, 0.0, 0.0, 0.0, 0.0, 0.0, 1.6665553065098825E9, 0.0, 2022-10-23 13:01:46.509
194.0, -64036.80909118761, -94070.24461868341, 56560.217626120764, -254.16168620129662, 82898.73098119868, 61671.74865862712, 19214.833583215903, 16041.534071151504, 0.032, 0.96, 0.1, 192.0, 0.0, 0.0, 0.0, 0.0, 0.0, 0.0, 0.0, 0.0, 0.0, 1.6665553065098908E9, 0.0, 2022-10-23 13:01:46.509
195.0, -64027.443710260835, -94054.55369407579, 54396.34524540249, -1391.3737405984093, 82745.39801423527, 60702.353501600446, 17847.555023140314, 14622.712388361979, 0.032, 0.96, 0.1, 192.0, 0.0, 0.0, 0.0, 0.0, 0.0, 0.0, 0.0, 0.0, 0.0, 1.6665553065098991E9, 0.0, 2022-10-23 13:01:46.509
196.0, -64078.2268736633, -94102.45348244351, 54324.730256167684, -1306.0794837569576, 82935.58900780548, 60760.6915546288, 17936.425559094616, 14876.829371074364, 0.032, 0.96, 0.1, 192.0, 0.0, 0.0, 0.0, 0.0, 0.0, 0.0, 0.0, 0.0, 0.0, 1.6665553065099077E9, 0.0, 2022-10-23 13:01:46.509
197.0, -64123.3326939741, -94143.6253957302, 56234.15037800674, -248.90902625429945, 83169.14238561898, 61651.54268163952, 19186.133943335288, 16243.191509627284, 0.032, 0.96, 0.1, 192.0, 0.0, 0.0, 0.0, 0.0, 0.0, 0.0, 0.0, 0.0, 0.0, 1.6665553065099175E9, 0.0, 2022-10-23 13:01:46.509
198.0, -64065.03934443466, -94092.19403173853, 56881.41219394353, -68.97748338907759, 82959.66183658384, 61823.15937556737, 19423.46476596174, 16305.463469679771, 0.032, 0.96, 0.1, 192.0, 0.0, 0.0, 0.0, 0.0, 0.0, 0.0, 0.0, 0.0, 0.0, 1.6665553065099258E9, 0.0, 2022-10-23 13:01:46.509
199.0, -64029.544774239635, -94059.13580168913, 54592.0347681087, -1319.35641996341, 82714.73142084258, 60767.62059540994, 17934.21273639354, 14700.42940383308, 0.032, 0.96, 0.1, 192.0, 0.0, 0.0, 0.0, 0.0, 0.0, 0.0, 0.0, 0.0, 0.0, 1.6665553065099344E9, 0.0, 2022-10-23 13:01:46.509
200.0, -64072.03544044917, -94095.8597178292, 54180.49444919759, -1409.031618718102, 82892.85247240693, 60674.07854486448, 17809.400595355106, 14728.279677424394, 0.032, 0.96, 0.1, 192.0, 0.0, 0.0, 0.0, 0.0, 0.0, 0.0, 0.0, 0.0, 0.0, 1.6665553065099428E9, 0.0, 2022-10-23 13:01:46.509
201.0, -64115.9342665594, -94139.75854393942, 55737.44991272091, -517.264070184716, 83125.93646358687, 61420.78327188293, 18866.906329024594, 15928.993037819033, 0.032, 0.9580000000000001, 0.096, 192.0, 1.0, 0.0, 29.0, 240.0, 3.0, 0.0, 0.0, 0.0, 0.0, 1.666555306509951E9, 0.0, 2022-10-23 13:01:46.509
202.0, -64081.490228353774, -94111.43888371455, 57116.150214213165, 94.45847206812765, 83057.02603543116, 61954.36411552002, 19606.682015261893, 16548.248117953317, 0.032, 0.9580000000000001, 0.096, 192.0, 0.0, 0.0, 0.0, 0.0, 0.0, 0.0, 0.0, 0.0, 0.0, 1.66655530650996E9, 0.0, 2022-10-23 13:01:46.509
203.0, -64028.27072480568, -94061.03569996783, 54929.948440784035, -1148.723202791596, 82722.15220000174, 60916.840841393576, 18139.088826070885, 14902.109194053317, 0.032, 0.9580000000000001, 0.096, 192.0, 0.0, 0.0, 0.0, 0.0, 0.0, 0.0, 0.0, 0.0, 0.0, 1.6665553065099683E9, 0.0, 2022-10-23 13:01:46.509
204.0, -64059.20553913183, -94089.26595321488, 54166.8375333354, -1424.2755084366213, 82869.31608549549, 60669.76465818461, 17783.673737487046, 14673.853179675722, 0.032, 0.9580000000000001, 0.096, 192.0, 0.0, 0.0, 0.0, 0.0, 0.0, 0.0, 0.0, 0.0, 0.0, 1.6665553065099769E9, 0.0, 2022-10-23 13:01:46.509
205.0, -64100.06452799613, -94130.57197696829, 55330.37994270086, -730.0079739103287, 83086.57504160107, 61248.07134247677, 18610.129488722025, 15656.81584558676, 0.032, 0.9580000000000001, 0.096, 192.0, 0.0, 0.0, 0.0, 0.0, 0.0, 0.0, 0.0, 0.0, 0.0, 1.6665553065099852E9, 0.0, 2022-10-23 13:01:46.509
206.0, -64089.96153950233, -94121.58657569726, 57190.380357549235, 164.12885953531975, 83115.3193849706, 62013.775052282224, 19682.767353387757, 16671.24976769087, 0.032, 0.9580000000000001, 0.096, 192.0, 0.0, 0.0, 0.0, 0.0, 0.0, 0.0, 0.0, 0.0, 0.0, 1.6665553065100014E9, 0.0, 2022-10-23 13:01:46.510
207.0, -64019.888820634944, -94052.16205741907, 55338.87360559388, -935.7110781325196, 82759.52431673103, 61110.13872744307, 18396.625625684934, 15166.016240837127, 0.032, 0.9580000000000001, 0.096, 192.0, 0.0, 0.0, 0.0, 0.0, 0.0, 0.0, 0.0, 0.0, 0.0, 1.66655530651001E9, 0.0, 2022-10-23 13:01:46.510
208.0, -64063.25120487824, -94091.83640382724, 54146.676259836706, -1463.8604478669702, 82836.45902114619, 60650.16217829731, 17744.51348120135, 14606.999112009897, 0.032, 0.9580000000000001, 0.096, 192.0, 0.0, 0.0, 0.0, 0.0, 0.0, 0.0, 0.0, 0.0, 0.0, 1.666555306510018E9, 0.0, 2022-10-23 13:01:46.510
209.0, -64098.119926228515, -94124.08997107625, 54938.35269669923, -954.0618603303267, 83042.8997329354, 61073.213645602904, 18353.754979819656, 15381.084725986091, 0.032, 0.9580000000000001, 0.096, 192.0, 0.0, 0.0, 0.0, 0.0, 0.0, 0.0, 0.0, 0.0, 0.0, 1.6665553065100267E9, 0.0, 2022-10-23 13:01:46.510
210.0, -64107.97704553331, -94135.51171249291, 57107.99182748698, 149.84609482837854, 83164.96260940583, 62009.237648157796, 19666.18235900192, 16690.67343362253, 0.032, 0.9580000000000001, 0.096, 192.0, 0.0, 0.0, 0.0, 0.0, 0.0, 0.0, 0.0, 0.0, 0.0, 1.666555306510035E9, 0.0, 2022-10-23 13:01:46.510
211.0, -64031.93641089636, -94064.79079303633, 55784.88031445508, -705.8457381541417, 82777.58452625091, 61311.90792464113, 18676.380059287556, 15461.126322880546, 0.03, 0.96, 0.096, 192.0, 0.0, 240.0, 30.0, 0.0, 3.0, 0.0, 0.0, 0.0, 0.0, 1.6665553065100431E9, 0.0, 2022-10-23 13:01:46.510
212.0, -64045.72743722528, -94074.49145012992, 54180.449745708676, -1474.9022096278918, 82781.71959897513, 60643.92604159428, 17730.811861850245, 14566.207178378962, 0.03, 0.96, 0.096, 192.0, 0.0, 0.0, 0.0, 0.0, 0.0, 0.0, 0.0, 0.0, 0.0, 1.666555306510052E9, 0.0, 2022-10-23 13:01:46.510
213.0, -64087.74871680126, -94116.42332272808, 54608.61976249454, -1146.9797667240819, 82984.09229327348, 60903.60860867603, 18119.64280839477, 15128.510013641122, 0.03, 0.96, 0.096, 192.0, 0.0, 0.0, 0.0, 0.0, 0.0, 0.0, 0.0, 0.0, 0.0, 1.6665553065100603E9, 0.0, 2022-10-23 13:01:46.510
214.0, -64122.371568962524, -94151.71672722301, 56838.608603311615, 26.822093346368476, 83177.4795863008, 61894.304978168606, 19510.457755381794, 16575.673708399976, 0.03, 0.96, 0.096, 192.0, 0.0, 0.0, 0.0, 0.0, 0.0, 0.0, 0.0, 0.0, 0.0, 1.666555306510069E9, 0.0, 2022-10-23 13:01:46.510
215.0, -64030.57295448458, -94067.11537445968, 56212.98327600757, -480.20487787781695, 82829.86525653188, 61492.84529600684, 18942.969315406004, 15776.665899356116, 0.03, 0.96, 0.096, 192.0, 0.0, 0.0, 0.0, 0.0, 0.0, 0.0, 0.0, 0.0, 0.0, 1.6665553065100772E9, 0.0, 2022-10-23 13:01:46.510
216.0, -64028.18131782786, -94060.34279588972, 54234.71978124616, -1487.2627243116767, 82748.68372067019, 60626.156404752306, 17725.626257136617, 14554.494864284381, 0.03, 0.96, 0.096, 192.0, 0.0, 0.0, 0.0, 0.0, 0.0, 0.0, 0.0, 0.0, 0.0, 1.6665553065100853E9, 0.0, 2022-10-23 13:01:46.510
217.0, -64077.645728307456, -94103.32520047727, 54375.26755038113, -1290.4332626382427, 82951.21287717973, 60780.875179871946, 17950.26128891245, 14950.411313821234, 0.03, 0.96, 0.096, 192.0, 0.0, 0.0, 0.0, 0.0, 0.0, 0.0, 0.0, 0.0, 0.0, 1.6665553065100951E9, 0.0, 2022-10-23 13:01:46.510
218.0, -64119.734063116804, -94144.0724306193, 56449.73295327818, -165.08998454689797, 83180.74294099129, 61725.482252297676, 19281.82176134846, 16380.162999649407, 0.03, 0.96, 0.096, 192.0, 0.0, 0.0, 0.0, 0.0, 0.0, 0.0, 0.0, 0.0, 0.0, 1.6665553065101037E9, 0.0, 2022-10-23 13:01:46.510
219.0, -64055.20457687433, -94086.53904039133, 56632.34670547804, -231.42996209024932, 82929.15170540234, 61700.090670596444, 19234.52547008103, 16123.609676791391, 0.03, 0.96, 0.096, 192.0, 0.0, 0.0, 0.0, 0.0, 0.0, 0.0, 0.0, 0.0, 0.0, 1.666555306510114E9, 0.0, 2022-10-23 13:01:46.510
220.0, -64032.696370207836, -94062.26504591288, 54407.07408274103, -1417.5923368444846, 82723.38154594679, 60694.172763129805, 17815.43556635804, 14624.768748851866, 0.03, 0.96, 0.096, 192.0, 0.0, 0.0, 0.0, 0.0, 0.0, 0.0, 0.0, 0.0, 0.0, 1.6665553065101223E9, 0.0, 2022-10-23 13:01:46.510
221.0, -64068.59327180306, -94089.7576915929, 54197.41471975025, -1403.8236622600155, 82913.03609765007, 60684.047422891555, 17814.139165179633, 14789.679919443122, 0.028, 0.9580000000000001, 0.096, 192.0, 0.0, 224.0, 29.0, 240.0, 3.0, 0.0, 0.0, 0.0, 0.0, 1.6665553065101385E9, 0.0, 2022-10-23 13:01:46.510
222.0, -64114.50375491426, -94133.23183455848, 56002.9662851055, -387.0651587325524, 83172.98688566529, 61543.18142452019, 19018.85348783177, 16124.101415169409, 0.028, 0.9580000000000001, 0.096, 192.0, 0.0, 0.0, 0.0, 0.0, 0.0, 0.0, 0.0, 0.0, 0.0, 1.666555306510147E9, 0.0, 2022-10-23 13:01:46.510
223.0, -64071.901329982444, -94101.22413649848, 56949.830883721224, -30.934814326144974, 83005.52761620613, 61873.0037657027, 19468.28001359463, 16411.902476775944, 0.028, 0.9580000000000001, 0.096, 192.0, 0.0, 0.0, 0.0, 0.0, 0.0, 0.0, 0.0, 0.0, 0.0, 1.6665553065101557E9, 0.0, 2022-10-23 13:01:46.510
224.0, -64027.309599794105, -94058.26408365538, 54660.74403056432, -1301.2962104435219, 82712.78681907497, 60802.57872373804, 17958.397323894184, 14763.774247619422, 0.028, 0.9580000000000001, 0.096, 192.0, 0.0, 0.0, 0.0, 0.0, 0.0, 0.0, 0.0, 0.0, 0.0, 1.666555306510164E9, 0.0, 2022-10-23 13:01:46.510
225.0, -64071.275481137694, -94096.99965679643, 54124.592736314866, -1457.7137181417606, 82880.80488214552, 60650.81037888651, 17746.592193435692, 14701.614046289213, 0.028, 0.9580000000000001, 0.096, 192.0, 0.0, 0.0, 0.0, 0.0, 0.0, 0.0, 0.0, 0.0, 0.0, 1.666555306510173E9, 0.0, 2022-10-23 13:01:46.510
226.0, -64113.07324326912, -94137.03163111588, 55549.337631385046, -627.7263912828436, 83117.64396639395, 61341.54633778887, 18728.146699446046, 15832.27703956092, 0.028, 0.9580000000000001, 0.096, 192.0, 0.0, 0.0, 0.0, 0.0, 0.0, 0.0, 0.0, 0.0, 0.0, 1.6665553065101814E9, 0.0, 2022-10-23 13:01:46.510
227.0, -64084.86534176652, -94115.99863958343, 57107.187164686584, 86.09891964184281, 83076.38264612945, 61959.326202789096, 19590.320538320608, 16591.23052254087, 0.028, 0.9580000000000001, 0.096, 192.0, 0.0, 0.0, 0.0, 0.0, 0.0, 0.0, 0.0, 0.0, 0.0, 1.66655530651019E9, 0.0, 2022-10-23 13:01:46.510
228.0, -64022.59338171404, -94054.93367373153, 54985.514877499925, -1141.1906649101575, 82717.16776098822, 60933.604649735054, 18147.5824889639, 14956.356877846347, 0.028, 0.9580000000000001, 0.096, 192.0, 0.0, 0.0, 0.0, 0.0, 0.0, 0.0, 0.0, 0.0, 0.0, 1.6665553065101984E9, 0.0, 2022-10-23 13:01:46.510
229.0, -64068.72738226979, -94094.74213060644, 54046.920424332675, -1521.215024139288, 82841.21994271516, 60590.080689201444, 17668.69636400895, 14600.025367739841, 0.028, 0.9580000000000001, 0.096, 192.0, 0.0, 0.0, 0.0, 0.0, 0.0, 0.0, 0.0, 0.0, 0.0, 1.6665553065102067E9, 0.0, 2022-10-23 13:01:46.510
230.0, -64109.13933624498, -94130.8178461573, 55091.775070640455, -878.0435774378274, 83069.47595709276, 61125.650838095054, 18434.198908114304, 15524.985256789358, 0.028, 0.9580000000000001, 0.096, 192.0, 0.0, 0.0, 0.0, 0.0, 0.0, 0.0, 0.0, 0.0, 0.0, 1.666555306510215E9, 0.0, 2022-10-23 13:01:46.510
231.0, -64109.27344671172, -94137.03163111588, 57120.01706600393, 131.51766437502675, 83144.55546671814, 61994.86547647304, 19639.583783100104, 16690.06993652224, 0.026000000000000002, 0.9540000000000001, 0.09, 192.0, 0.0, 208.0, 29.0, 208.0, 2.0, 208.0, 0.0, 0.0, 0.0, 1.6665553065102232E9, 0.0, 2022-10-23 13:01:46.510
232.0, -64022.63808520295, -94054.75485977589, 55430.51575786064, -898.5848305922545, 82750.71772941563, 61152.227062252416, 18438.31162909408, 15258.910090793383, 0.026000000000000002, 0.9540000000000001, 0.09, 192.0, 0.0, 0.0, 0.0, 0.0, 0.0, 0.0, 0.0, 0.0, 0.0, 1.6665553065102324E9, 0.0, 2022-10-23 13:01:46.510
233.0, -64047.225004103784, -94075.67609258606, 54047.546273177424, -1542.4715331162852, 82791.73318049112, 60579.32950011844, 17643.505948007816, 14550.426846793514, 0.026000000000000002, 0.9540000000000001, 0.09, 192.0, 0.0, 0.0, 0.0, 0.0, 0.0, 0.0, 0.0, 0.0, 0.0, 1.6665553065102403E9, 0.0, 2022-10-23 13:01:46.510
234.0, -64093.31430117063, -94118.25616577342, 54706.02866483077, -1093.179117820158, 83014.02127909915, 60944.57935626261, 18177.086791644906, 15257.25606170369, 0.026000000000000002, 0.9540000000000001, 0.09, 192.0, 0.0, 0.0, 0.0, 0.0, 0.0, 0.0, 0.0, 0.0, 0.0, 1.666555306510249E9, 0.0, 2022-10-23 13:01:46.510
235.0, -64132.720426645334, -94158.42225055961, 56899.15947904104, 28.38671545823997, 83154.61375172302, 61892.427431634365, 19512.692929827324, 16616.66680773101, 0.026000000000000002, 0.9540000000000001, 0.09, 192.0, 0.0, 0.0, 0.0, 0.0, 0.0, 0.0, 0.0, 0.0, 0.0, 1.6665553065102572E9, 0.0, 2022-10-23 13:01:46.510
236.0, -64045.66038199191, -94077.17365946456, 55825.113454474624, -692.0994153141279, 82799.42218058374, 61314.16545083111, 18682.59384424613, 15545.548861688241, 0.026000000000000002, 0.9540000000000001, 0.09, 192.0, 0.0, 0.0, 0.0, 0.0, 0.0, 0.0, 0.0, 0.0, 0.0, 1.6665553065102656E9, 0.0, 2022-10-23 13:01:46.510
237.0, -64060.3231263546, -94089.02008402588, 54086.03597712946, -1542.091553460545, 82767.30272380146, 60579.46361058517, 17643.081264863165, 14535.987619875386, 0.026000000000000002, 0.9540000000000001, 0.09, 192.0, 0.0, 0.0, 0.0, 0.0, 0.0, 0.0, 0.0, 0.0, 0.0, 1.666555306510282E9, 0.0, 2022-10-23 13:01:46.510
238.0, -64099.21516170683, -94125.78870365486, 54406.78351006312, -1259.9454832012038, 82961.13705171789, 60800.27649405915, 17969.863768799754, 15037.381951496835, 0.026000000000000002, 0.9540000000000001, 0.09, 192.0, 0.0, 0.0, 0.0, 0.0, 0.0, 0.0, 0.0, 0.0, 0.0, 1.666555306510291E9, 0.0, 2022-10-23 13:01:46.510
239.0, -64133.726255145826, -94162.46791630602, 56600.38371090695, -88.35644583182882, 83175.02089441073, 61783.66384311484, 19354.330820361476, 16496.481477794823, 0.026000000000000002, 0.9540000000000001, 0.09, 192.0, 0.0, 0.0, 0.0, 0.0, 0.0, 0.0, 0.0, 0.0, 0.0, 1.6665553065103004E9, 0.0, 2022-10-23 13:01:46.510
240.0, -64060.70310601033, -94095.39033119564, 56294.45538454717, -409.01457178766395, 82871.23833551865, 61547.38355247779, 19004.19074346909, 15912.698616111114, 0.034, 0.9560000000000001, 0.096, 192.0, 1.0, 16.0, 29.0, 224.0, 3.0, 0.0, 0.0, 0.0, 0.0, 1.666555306988348E9, 0.0, 2022-10-23 13:01:46.988
241.0, -64045.95095466983, -94075.63138909715, 54212.882126913326, -1489.2296778237437, 82733.55158967395, 60621.529593650055, 17701.7769458028, 14572.97975694892, 0.034, 0.9560000000000001, 0.096, 192.0, 0.0, 0.0, 0.0, 0.0, 0.0, 0.0, 0.0, 0.0, 0.0, 1.666555306988475E9, 0.0, 2022-10-23 13:01:46.988
242.0, -64089.06746972412, -94114.21050002701, 54217.86656592686, -1365.736289708172, 82937.2206851507, 60703.85106847895, 17834.72512182297, 14875.600025129323, 0.034, 0.9560000000000001, 0.096, 192.0, 0.0, 0.0, 0.0, 0.0, 0.0, 0.0, 0.0, 0.0, 0.0, 1.6665553069884875E9, 0.0, 2022-10-23 13:01:46.988
243.0, -64132.20633652286, -94158.66811974862, 56231.512872161016, -255.0557559795089, 83183.46985381482, 61643.540757124516, 19151.30992547392, 16299.98729228822, 0.034, 0.9560000000000001, 0.096, 192.0, 0.0, 0.0, 0.0, 0.0, 0.0, 0.0, 0.0, 0.0, 0.0, 1.666555306988499E9, 0.0, 2022-10-23 13:01:46.988
244.0, -64070.26965263721, -94099.88303183115, 56698.306703365655, -163.52536243502647, 82952.01753998012, 61753.086656699976, 19291.92474984226, 16241.291611348584, 0.034, 0.9560000000000001, 0.096, 192.0, 0.0, 0.0, 0.0, 0.0, 0.0, 0.0, 0.0, 0.0, 0.0, 1.66655530698851E9, 0.0, 2022-10-23 13:01:46.988
245.0, -64032.91988765239, -94060.14163018962, 54418.31701020205, -1395.9111447228368, 82716.96659528812, 60707.11442316943, 17821.135261194144, 14667.95231913952, 0.034, 0.9560000000000001, 0.096, 192.0, 0.0, 0.0, 0.0, 0.0, 0.0, 0.0, 0.0, 0.0, 0.0, 1.6665553069885209E9, 0.0, 2022-10-23 13:01:46.988
246.0, -64072.92951022739, -94099.68186613105, 54101.458680803626, -1433.9091102968587, 82909.48217028167, 60654.99015509965, 17759.37739126413, 14767.886968599198, 0.034, 0.9560000000000001, 0.096, 192.0, 0.0, 0.0, 0.0, 0.0, 0.0, 0.0, 0.0, 0.0, 0.0, 1.6665553069885316E9, 0.0, 2022-10-23 13:01:46.988
247.0, -64123.444452696385, -94148.60983474372, 55781.48284929787, -478.01440692119684, 83155.03843486767, 61462.71514448109, 18898.5116956844, 16035.990838526588, 0.034, 0.9560000000000001, 0.096, 192.0, 0.0, 0.0, 0.0, 0.0, 0.0, 0.0, 0.0, 0.0, 0.0, 1.6665553069885423E9, 0.0, 2022-10-23 13:01:46.988
248.0, -64086.27350166721, -94119.75373265192, 56947.394543575596, 6.39259891421782, 83040.44104104531, 61893.56737060158, 19496.599673819503, 16488.948939913385, 0.034, 0.9560000000000001, 0.096, 192.0, 0.0, 0.0, 0.0, 0.0, 0.0, 0.0, 0.0, 0.0, 0.0, 1.6665553069885528E9, 0.0, 2022-10-23 13:01:46.988
249.0, -64028.04720736113, -94066.24365642591, 54694.51751643629, -1259.9454832012038, 82716.00547027653, 60830.74192175173, 17999.010443569478, 14829.108396662283, 0.034, 0.9560000000000001, 0.096, 192.0, 0.0, 0.0, 0.0, 0.0, 0.0, 0.0, 0.0, 0.0, 0.0, 1.6665553069885635E9, 0.0, 2022-10-23 13:01:46.988
250.0, -64059.00437343173, -94089.64593287063, 53984.000263690985, -1516.5882130370394, 82873.24999251962, 60581.81054375298, 17667.556425041726, 14646.382885740148, 0.034, 0.9540000000000001, 0.098, 192.0, 1.0, 16.0, 29.0, 208.0, 3.0, 16.0, 0.0, 0.0, 0.0, 1.6665553069885745E9, 0.0, 2022-10-23 13:01:46.988
251.0, -64115.397824692474, -94142.55251199634, 55299.959218497184, -729.5385872767672, 83124.19302751936, 61242.058723218295, 18604.474497374835, 15733.571736046284, 0.034, 0.9540000000000001, 0.098, 192.0, 0.0, 0.0, 0.0, 0.0, 0.0, 0.0, 0.0, 0.0, 0.0, 1.666555306988586E9, 0.0, 2022-10-23 13:01:46.988
252.0, -64100.645673351966, -94127.08510483327, 57047.37389652418, 100.6499052822477, 83110.58081514607, 61954.699391686845, 19602.658701259938, 16648.316877879726, 0.034, 0.9540000000000001, 0.098, 192.0, 0.0, 0.0, 0.0, 0.0, 0.0, 0.0, 0.0, 0.0, 0.0, 1.666555306988652E9, 0.0, 2022-10-23 13:01:46.988
253.0, -64032.09287310754, -94058.12997318864, 55064.595349382806, -1059.271521481457, 82747.47672646961, 60990.06515622916, 18242.08566452094, 15077.615091516387, 0.034, 0.9540000000000001, 0.098, 192.0, 0.0, 0.0, 0.0, 0.0, 0.0, 0.0, 0.0, 0.0, 0.0, 1.666555306988663E9, 0.0, 2022-10-23 13:01:46.988
254.0, -64070.98490845977, -94092.14932824962, 53973.20437111907, -1528.6581550429053, 82835.43084090124, 60565.13614238932, 17657.364029570108, 14599.667739828557, 0.034, 0.9540000000000001, 0.098, 192.0, 0.0, 0.0, 0.0, 0.0, 0.0, 0.0, 0.0, 0.0, 0.0, 1.6665553069886737E9, 0.0, 2022-10-23 13:01:46.988
255.0, -64111.195696734874, -94132.9189101361, 54899.23714390244, -936.8510170997403, 83068.13485242544, 61057.27685180627, 18359.186453722294, 15463.406200814987, 0.034, 0.9540000000000001, 0.098, 192.0, 0.0, 0.0, 0.0, 0.0, 0.0, 0.0, 0.0, 0.0, 0.0, 1.6665553069886844E9, 0.0, 2022-10-23 13:01:46.988
0.0, -64109.96635078983, -94133.7682764254, 57009.21946873897, 128.94721376266645, 83165.78962395068, 61963.93066214689, 19627.49148934978, 16707.97368383094, 0.034, 0.9540000000000001, 0.098, 192.0, 0.0, 0.0, 0.0, 0.0, 0.0, 0.0, 0.0, 0.0, 0.0, 1.666555306988695E9, 0.0, 2022-10-23 13:01:46.988
1.0, -64027.644875960934, -94056.34183363222, 55485.32223526505, -825.82990239023, 82782.68072398672, 61176.81398115325, 18516.721548643298, 15364.455028111342, 0.034, 0.9540000000000001, 0.098, 192.0, 0.0, 0.0, 0.0, 0.0, 0.0, 0.0, 0.0, 0.0, 0.0, 1.6665553069887054E9, 0.0, 2022-10-23 13:01:46.988
2.0, -64052.9694024288, -94079.74411007692, 54022.62407810975, -1501.1208058739671, 82827.31715766397, 60591.064165957476, 17681.570968815206, 14593.208085680973, 0.034, 0.9540000000000001, 0.098, 192.0, 0.0, 0.0, 0.0, 0.0, 0.0, 0.0, 0.0, 0.0, 0.0, 1.666555306988716E9, 0.0, 2022-10-23 13:01:46.988
3.0, -64104.06549025363, -94126.12397982168, 54592.81707916464, -1089.7145974295852, 83026.60531122748, 60932.285896812195, 18167.92257641823, 15243.241517930213, 0.034, 0.9540000000000001, 0.098, 192.0, 0.0, 0.0, 0.0, 0.0, 0.0, 0.0, 0.0, 0.0, 0.0, 1.6665553069887266E9, 0.0, 2022-10-23 13:01:46.988
4.0, -64123.7350253743, -94144.8770934197, 56814.28990534424, 66.96582638809996, 83190.6894672739, 61908.31952194209, 19539.067988284587, 16648.16041566854, 0.036000000000000004, 0.9560000000000001, 0.108, 192.0, 1.0, 32.0, 29.0, 224.0, 3.0, 96.0, 0.0, 0.0, 0.0, 1.666555306988737E9, 0.0, 2022-10-23 13:01:46.988
5.0, -64034.10453010852, -94064.99195873643, 55954.61946184868, -556.0443468146738, 82833.91092227829, 61402.61130364076, 18827.947238438992, 15697.71953793997, 0.036000000000000004, 0.9560000000000001, 0.108, 192.0, 0.0, 0.0, 0.0, 0.0, 0.0, 0.0, 0.0, 0.0, 0.0, 1.6665553069887538E9, 0.0, 2022-10-23 13:01:46.988
6.0, -64038.0160853882, -94064.07553721375, 54108.67829426269, -1467.928465357836, 82795.6447357708, 60618.37799768186, 17715.97030353192, 14589.788268779312, 0.036000000000000004, 0.9560000000000001, 0.108, 192.0, 0.0, 0.0, 0.0, 0.0, 0.0, 0.0, 0.0, 0.0, 0.0, 1.6665553069887643E9, 0.0, 2022-10-23 13:01:46.988
7.0, -64079.813847519625, -94103.0122760549, 54309.57577342699, -1250.4683435521536, 82977.23030772571, 60782.596264195, 17966.98039376502, 15010.06811977245, 0.036000000000000004, 0.9560000000000001, 0.108, 192.0, 0.0, 0.0, 0.0, 0.0, 0.0, 0.0, 0.0, 0.0, 0.0, 1.6665553069887748E9, 0.0, 2022-10-23 13:01:46.988
8.0, -64133.703903401365, -94152.43198304558, 56483.43938391678, -70.36329154530664, 83210.76133379476, 61781.62983436941, 19363.271518143596, 16483.808038688665, 0.036000000000000004, 0.9560000000000001, 0.108, 192.0, 0.0, 0.0, 0.0, 0.0, 0.0, 0.0, 0.0, 0.0, 0.0, 1.6665553069887855E9, 0.0, 2022-10-23 13:01:46.988
9.0, -64061.06073392162, -94083.2086304675, 56410.17036559229, -280.1344132583634, 82900.9214521553, 61630.755559296085, 19144.783216092972, 16040.12591125082, 0.036000000000000004, 0.9560000000000001, 0.108, 192.0, 0.0, 0.0, 0.0, 0.0, 0.0, 0.0, 0.0, 0.0, 0.0, 1.666555306988796E9, 0.0, 2022-10-23 13:01:46.988
10.0, -64029.52242249518, -94051.17858066304, 54232.797531223005, -1424.4096189033532, 82741.79938337796, 60650.18453004176, 17764.47358899994, 14608.831955055233, 0.036000000000000004, 0.9560000000000001, 0.108, 192.0, 0.0, 0.0, 0.0, 0.0, 0.0, 0.0, 0.0, 0.0, 0.0, 1.6665553069888065E9, 0.0, 2022-10-23 13:01:46.988
11.0, -64072.326013127094, -94092.95399105002, 54125.33034388189, -1360.5059815056302, 82932.30330137054, 60684.82973394749, 17829.785386298347, 14842.31827763537, 0.036000000000000004, 0.9560000000000001, 0.108, 192.0, 0.0, 0.0, 0.0, 0.0, 0.0, 0.0, 0.0, 0.0, 0.0, 1.6665553069888172E9, 0.0, 2022-10-23 13:01:46.988
12.0, -64126.64075215349, -94146.7769916984, 56016.332628289776, -307.6494106828464, 83182.5310805477, 61568.95298587716, 19077.459761793587, 16208.009863854631, 0.036000000000000004, 0.9560000000000001, 0.108, 192.0, 0.0, 0.0, 0.0, 0.0, 0.0, 0.0, 0.0, 0.0, 0.0, 1.666555306988839E9, 0.0, 2022-10-23 13:01:46.988
13.0, -64071.834274749075, -94099.52540391988, 56749.17927374593, -67.90459965522285, 82989.25554624267, 61799.80180261157, 19389.847742300957, 16337.8064439066, 0.03, 0.9540000000000001, 0.1, 192.0, 0.0, 240.0, 29.0, 208.0, 3.0, 32.0, 0.0, 0.0, 0.0, 1.6665553069888496E9, 0.0, 2022-10-23 13:01:46.988
14.0, -64027.66722770539, -94056.61005456568, 54459.667737444375, -1320.1387310193456, 82729.39416520526, 60742.25136545317, 17898.6734627096, 14720.590677331767, 0.03, 0.9540000000000001, 0.1, 192.0, 0.0, 0.0, 0.0, 0.0, 0.0, 0.0, 0.0, 0.0, 0.0, 1.666555306988861E9, 0.0, 2022-10-23 13:01:46.988
