%OpenBCI Raw EEG Data
%Number of channels = 8
%Sample Rate = 250 Hz
%Board = OpenBCI_GUI$BoardCytonSerial
Sample Index, EXG Channel 0, EXG Channel 1, EXG Channel 2, EXG Channel 3, EXG Channel 4, EXG Channel 5, EXG Channel 6, EXG Channel 7, Accel Channel 0, Accel Channel 1, Accel Channel 2, Other, Other, Other, Other, Other, Other, Other, Analog Channel 0, Analog Channel 1, Analog Channel 2, Timestamp, Other, Timestamp (Formatted)
131.0, -74917.05714667526, -106558.11954237457, 64794.48852473361, 19845.68921872249, 76550.20970704671, 99602.63664753875, 42312.52280622993, 36349.43501346529, 0.0, 0.0, 0.0, 192.0, 0.0, 0.0, 0.0, 0.0, 0.0, 0.0, 0.0, 0.0, 0.0, 1.6665557654605548E9, 0.0, 2022-10-23 13:09:25.460
132.0, -74941.12997545362, -106577.8114292397, 64796.67899569023, 20150.83523402634, 76679.6486591874, 99697.78802368499, 42443.727546182585, 36669.10966266509, 0.0, 0.0, 0.0, 192.0, 0.0, 0.0, 0.0, 0.0, 0.0, 0.0, 0.0, 0.0, 0.0, 1.6665557654605715E9, 0.0, 2022-10-23 13:09:25.460
133.0, -74985.72170564196, -106619.40802567101, 66725.2545625275, 20537.11808170296, 76804.79607639267, 100602.72074970255, 43713.15016903284, 38041.08208907629, 0.0, 0.0, 0.0, 192.0, 0.0, 0.0, 0.0, 0.0, 0.0, 0.0, 0.0, 0.0, 0.0, 1.6665557654605803E9, 0.0, 2022-10-23 13:09:25.460
134.0, -74943.16398419905, -106584.96398746538, 67272.29115632667, 20147.951858991608, 76614.582731078, 100753.93030094271, 43914.338220875055, 38016.8751498312, 0.0, 0.0, 0.0, 192.0, 0.0, 0.0, 0.0, 0.0, 0.0, 0.0, 0.0, 0.0, 0.0, 1.6665557654605887E9, 0.0, 2022-10-23 13:09:25.460
135.0, -74910.0834024052, -106550.11761785956, 65042.659943420884, 19796.783601854277, 76514.3575089404, 99716.25056460507, 42454.16581084321, 36455.33757869453, 0.0, 0.0, 0.0, 192.0, 0.0, 0.0, 0.0, 0.0, 0.0, 0.0, 0.0, 0.0, 0.0, 1.6665557654605973E9, 0.0, 2022-10-23 13:09:25.460
136.0, -74940.12414695312, -106576.85030422811, 64671.91155814071, 20090.150247830185, 76642.5894668805, 99617.76877853498, 42328.81722793785, 36520.98465215977, 0.0, 0.0, 0.0, 192.0, 0.0, 0.0, 0.0, 0.0, 0.0, 0.0, 0.0, 0.0, 0.0, 1.6665557654606056E9, 0.0, 2022-10-23 13:09:25.460
137.0, -74992.22606327845, -106625.06301701821, 66262.77461800273, 20480.90344439786, 76779.2703842247, 100384.43361335203, 43408.83116827383, 37743.915646542984, 0.0, 0.0, 0.0, 192.0, 0.0, 0.0, 0.0, 0.0, 0.0, 0.0, 0.0, 0.0, 0.0, 1.6665557654606135E9, 0.0, 2022-10-23 13:09:25.460
138.0, -74962.65470536408, -106601.16900219549, 67509.2867027863, 20269.88062499531, 76656.78282460962, 100867.96890115368, 44076.61188562059, 38240.57140833991, 0.038, 0.9580000000000001, 0.084, 192.0, 1.0, 48.0, 29.0, 240.0, 2.0, 160.0, 0.0, 0.0, 0.0, 1.6665557654606216E9, 0.0, 2022-10-23 13:09:25.460
139.0, -74913.19029488448, -106554.72207721736, 65318.56987697719, 19776.063534744208, 76503.6063198574, 99816.83341465396, 42600.592088769925, 36601.875615343524, 0.038, 0.9580000000000001, 0.084, 192.0, 0.0, 0.0, 0.0, 0.0, 0.0, 0.0, 0.0, 0.0, 0.0, 1.6665557654606318E9, 0.0, 2022-10-23 13:09:25.460
140.0, -74941.2417341759, -106576.53737980574, 64604.54340035241, 20034.11442448073, 76626.9879492507, 99571.88064716825, 42257.693977081064, 36423.84397075701, 0.038, 0.9580000000000001, 0.084, 192.0, 0.0, 0.0, 0.0, 0.0, 0.0, 0.0, 0.0, 0.0, 0.0, 1.6665557654606402E9, 0.0, 2022-10-23 13:09:25.460
141.0, -74983.86651085217, -106617.0163890143, 65806.17318226972, 20399.833667258463, 76749.25199142123, 100170.75093635928, 43110.86006294013, 37437.69674750528, 0.038, 0.9580000000000001, 0.084, 192.0, 0.0, 0.0, 0.0, 0.0, 0.0, 0.0, 0.0, 0.0, 0.0, 1.6665557654606488E9, 0.0, 2022-10-23 13:09:25.460
142.0, -74972.48947292441, -106613.28364769026, 67574.55379659579, 20390.669452031787, 76702.49214202072, 100910.99600923015, 44142.8177526972, 38370.74796804762, 0.038, 0.9580000000000001, 0.084, 192.0, 0.0, 0.0, 0.0, 0.0, 0.0, 0.0, 0.0, 0.0, 0.0, 1.6665557654606571E9, 0.0, 2022-10-23 13:09:25.460
143.0, -74909.45755356045, -106559.41594355297, 65675.32607022834, 19797.431802443483, 76502.82400880147, 99970.50165778419, 42820.08621932104, 36829.930464021025, 0.038, 0.9580000000000001, 0.084, 192.0, 0.0, 0.0, 0.0, 0.0, 0.0, 0.0, 0.0, 0.0, 0.0, 1.6665557654606652E9, 0.0, 2022-10-23 13:09:25.460
144.0, -74936.97255098492, -106583.98051070936, 64598.08374620483, 19988.226293113985, 76615.49915260066, 99564.61633022026, 42238.180904171575, 36372.502013743164, 0.038, 0.9580000000000001, 0.084, 192.0, 0.0, 0.0, 0.0, 0.0, 0.0, 0.0, 0.0, 0.0, 0.0, 1.6665557654606736E9, 0.0, 2022-10-23 13:09:25.460
145.0, -74975.32814447024, -106618.84923205963, 65434.82129988925, 20328.844526868408, 76728.10724116651, 100013.68522807184, 42877.083167682074, 37183.49035781507, 0.038, 0.9580000000000001, 0.084, 192.0, 0.0, 0.0, 0.0, 0.0, 0.0, 0.0, 0.0, 0.0, 0.0, 1.666555765460682E9, 0.0, 2022-10-23 13:09:25.460
146.0, -74989.65561266609, -106632.66261013302, 67551.55385155127, 20490.067659624536, 76744.0663867076, 100948.39047770387, 44172.925552478504, 38439.21136131422, 0.038, 0.9580000000000001, 0.084, 192.0, 0.0, 0.0, 0.0, 0.0, 0.0, 0.0, 0.0, 0.0, 0.0, 1.66655576546069E9, 0.0, 2022-10-23 13:09:25.460
147.0, -74914.19612338497, -106563.59571976612, 66126.83130822555, 19846.136253611596, 76496.18554069824, 100187.8500208676, 43111.64237399607, 37127.00749957651, 0.038, 0.9580000000000001, 0.084, 192.0, 0.0, 0.0, 0.0, 0.0, 0.0, 0.0, 0.0, 0.0, 0.0, 1.6665557654607785E9, 0.0, 2022-10-23 13:09:25.460
148.0, -74927.74128052489, -106573.4528390709, 64620.74841508251, 19937.018446566875, 76585.57016677501, 99556.97203361655, 42220.277156862874, 36321.11535324041, 0.04, 0.9580000000000001, 0.09, 192.0, 1.0, 64.0, 29.0, 240.0, 2.0, 208.0, 0.0, 0.0, 0.0, 1.666555765460787E9, 0.0, 2022-10-23 13:09:25.460
149.0, -74963.25820246438, -106606.17579295348, 65120.53342110317, 20257.006020189052, 76703.20739784329, 99865.0684791885, 42656.247932463644, 36941.33155838628, 0.04, 0.9580000000000001, 0.09, 192.0, 0.0, 0.0, 0.0, 0.0, 0.0, 0.0, 0.0, 0.0, 0.0, 1.6665557654607964E9, 0.0, 2022-10-23 13:09:25.460
150.0, -74987.95688008748, -106628.72870310888, 67291.17838039141, 20535.978142735737, 76772.00606727673, 100830.97676408014, 44013.602318001074, 38329.01726114956, 0.04, 0.9580000000000001, 0.09, 192.0, 0.0, 0.0, 0.0, 0.0, 0.0, 0.0, 0.0, 0.0, 0.0, 1.6665557654608047E9, 0.0, 2022-10-23 13:09:25.460
151.0, -74918.95704495395, -106570.14478089153, 66541.4561678715, 19933.777443620857, 76524.92988406777, 100364.45115380897, 43366.83224044231, 37430.85711370195, 0.04, 0.9580000000000001, 0.09, 192.0, 0.0, 0.0, 0.0, 0.0, 0.0, 0.0, 0.0, 0.0, 0.0, 1.666555765460813E9, 0.0, 2022-10-23 13:09:25.460
152.0, -74926.40017585758, -106574.79394373822, 64691.446982794645, 19877.182826660017, 76562.59257347496, 99567.36559478827, 42229.91075872311, 36318.254329950134, 0.04, 0.9580000000000001, 0.09, 192.0, 0.0, 0.0, 0.0, 0.0, 0.0, 0.0, 0.0, 0.0, 0.0, 1.6665557654608212E9, 0.0, 2022-10-23 13:09:25.460
153.0, -74958.89961229559, -106601.2584091733, 64854.14533068483, 20176.271519216483, 76673.39017073992, 99719.9386024402, 42453.96464514311, 36732.09687854015, 0.04, 0.9580000000000001, 0.09, 192.0, 0.0, 0.0, 0.0, 0.0, 0.0, 0.0, 0.0, 0.0, 0.0, 1.6665557654608312E9, 0.0, 2022-10-23 13:09:25.460
154.0, -74997.52342671435, -106640.35161022564, 66934.06455922897, 20545.455282384788, 76786.71351512831, 100686.69625362114, 43803.00418174317, 38158.58520967784, 0.04, 0.9580000000000001, 0.09, 192.0, 0.0, 0.0, 0.0, 0.0, 0.0, 0.0, 0.0, 0.0, 0.0, 1.6665557654608395E9, 0.0, 2022-10-23 13:09:25.460
155.0, -74922.1309926666, -106578.01259493979, 66982.32197550798, 20062.232919005506, 76570.25922182313, 100596.68577869961, 43672.60410459091, 37791.94954537744, 0.04, 0.9580000000000001, 0.09, 192.0, 0.0, 0.0, 0.0, 0.0, 0.0, 0.0, 0.0, 0.0, 0.0, 1.6665557654608479E9, 0.0, 2022-10-23 13:09:25.460
156.0, -74885.40707652654, -106537.95826887588, 64815.38740579932, 19828.16545106953, 76534.13880278335, 99602.16726090519, 42278.19052674658, 36352.78777513358, 0.04, 0.9580000000000001, 0.09, 192.0, 0.0, 0.0, 0.0, 0.0, 0.0, 0.0, 0.0, 0.0, 0.0, 1.666555765460856E9, 0.0, 2022-10-23 13:09:25.460
157.0, -74937.8442690187, -106576.62678678356, 64692.38575606177, 20137.31242863088, 76676.07238007455, 99641.46162765761, 42332.214693095055, 36593.82898733961, 0.04, 0.9580000000000001, 0.09, 192.0, 0.0, 0.0, 0.0, 0.0, 0.0, 0.0, 0.0, 0.0, 0.0, 1.666555765460864E9, 0.0, 2022-10-23 13:09:25.460
158.0, -75003.200769806, -106633.6684386335, 66509.62728376714, 20526.545706575598, 76793.5755006761, 100511.77150151391, 43549.200123453156, 37922.684898696534, 0.038, 0.9580000000000001, 0.092, 192.0, 1.0, 48.0, 29.0, 240.0, 2.0, 224.0, 0.0, 0.0, 0.0, 1.6665557654608724E9, 0.0, 2022-10-23 13:09:25.460
159.0, -74959.16783322905, -106596.51983934878, 67324.8401075411, 20209.24034228806, 76628.06083298456, 100778.89719949928, 43922.47425585679, 38095.73210426952, 0.038, 0.9580000000000001, 0.092, 192.0, 0.0, 0.0, 0.0, 0.0, 0.0, 0.0, 0.0, 0.0, 0.0, 1.6665557654608817E9, 0.0, 2022-10-23 13:09:25.460
160.0, -74918.77823099832, -106552.7998271942, 65078.601548505016, 19806.126631036597, 76519.65487237631, 99719.44686406218, 42435.72562166758, 36485.46773022029, 0.038, 0.9580000000000001, 0.092, 192.0, 0.0, 0.0, 0.0, 0.0, 0.0, 0.0, 0.0, 0.0, 0.0, 1.66655576546089E9, 0.0, 2022-10-23 13:09:25.460
161.0, -74962.56529838625, -106587.33327237765, 64585.11973442075, 20085.568140216845, 76645.22697272623, 99575.43457453664, 42237.89033149366, 36467.228706744754, 0.038, 0.9580000000000001, 0.092, 192.0, 0.0, 0.0, 0.0, 0.0, 0.0, 0.0, 0.0, 0.0, 0.0, 1.666555765460898E9, 0.0, 2022-10-23 13:09:25.460
162.0, -75002.954900617, -106621.8667175611, 66027.0307692326, 20473.125037327416, 76773.19070973287, 100283.38137666958, 43234.84518943372, 37613.91790079092, 0.038, 0.9580000000000001, 0.092, 192.0, 0.0, 0.0, 0.0, 0.0, 0.0, 0.0, 0.0, 0.0, 0.0, 1.6665557654609356E9, 0.0, 2022-10-23 13:09:25.460
163.0, -74971.28247872382, -106590.35075787912, 67499.38487999259, 20353.230280069147, 76690.53395873714, 100875.6579012463, 44060.00453949029, 38298.171853801236, 0.038, 0.9580000000000001, 0.092, 192.0, 0.0, 0.0, 0.0, 0.0, 0.0, 0.0, 0.0, 0.0, 0.0, 1.6665557654609447E9, 0.0, 2022-10-23 13:09:25.460
164.0, -74924.72379502343, -106546.42958002444, 65401.85247681767, 19806.551314181248, 76512.32350019497, 99858.16179015182, 42630.319908895486, 36677.5586220692, 0.038, 0.9580000000000001, 0.092, 192.0, 0.0, 0.0, 0.0, 0.0, 0.0, 0.0, 0.0, 0.0, 0.0, 1.6665557654609532E9, 0.0, 2022-10-23 13:09:25.460
165.0, -74962.43118791953, -106577.02911818375, 64521.39491097867, 20028.861764533733, 76627.05500448406, 99524.36083845625, 42170.790394638825, 36375.22892656671, 0.038, 0.9580000000000001, 0.092, 192.0, 0.0, 0.0, 0.0, 0.0, 0.0, 0.0, 0.0, 0.0, 0.0, 1.666555765460961E9, 0.0, 2022-10-23 13:09:25.460
166.0, -75004.16189481759, -106610.64614184454, 65600.76065072545, 20394.581007311466, 76760.42786364887, 100086.14958359595, 42963.87499140203, 37336.24217942264, 0.038, 0.9580000000000001, 0.092, 192.0, 0.0, 0.0, 0.0, 0.0, 0.0, 0.0, 0.0, 0.0, 0.0, 1.6665557654609697E9, 0.0, 2022-10-23 13:09:25.460
167.0, -74998.46219998148, -106604.94644700843, 67522.18365933701, 20455.601269674455, 76736.17622091487, 100904.98338997166, 44107.569051691185, 38406.08607603146, 0.042, 0.964, 0.096, 192.0, 1.0, 80.0, 30.0, 32.0, 3.0, 0.0, 0.0, 0.0, 0.0, 1.6665557654609776E9, 0.0, 2022-10-23 13:09:25.460
168.0, -74936.36905388464, -106543.88148115654, 65802.26162699005, 19846.471529778424, 76525.13104976786, 100040.21674874029, 42887.364970131515, 36952.68624456957, 0.042, 0.964, 0.096, 192.0, 0.0, 0.0, 0.0, 0.0, 0.0, 0.0, 0.0, 0.0, 0.0, 1.6665557654609869E9, 0.0, 2022-10-23 13:09:25.460
169.0, -74961.15713848558, -106561.76287672078, 64561.47158878703, 19986.035822157362, 76616.9296642458, 99550.71354516907, 42188.38121752515, 36362.62254269392, 0.042, 0.964, 0.096, 192.0, 0.0, 0.0, 0.0, 0.0, 0.0, 0.0, 0.0, 0.0, 0.0, 1.666555765460995E9, 0.0, 2022-10-23 13:09:25.460
170.0, -75002.1502378166, -106597.97270273838, 65260.43298964894, 20310.650206881786, 76733.33754936905, 99942.71843942624, 42745.07376492903, 37093.4575311491, 0.042, 0.964, 0.096, 192.0, 0.0, 0.0, 0.0, 0.0, 0.0, 0.0, 0.0, 0.0, 0.0, 1.6665557654610033E9, 0.0, 2022-10-23 13:09:25.461
171.0, -75018.08703161324, -106616.2117262139, 67427.92635296898, 20525.53987807511, 76776.27525046769, 100906.99504697265, 44086.75957760329, 38422.08992506146, 0.042, 0.964, 0.096, 192.0, 0.0, 0.0, 0.0, 0.0, 0.0, 0.0, 0.0, 0.0, 0.0, 1.6665557654610112E9, 0.0, 2022-10-23 13:09:25.461
172.0, -74938.87244926362, -106546.54133874671, 66253.56569928715, 19894.818353035254, 76529.33317772546, 100253.8100187552, 43177.08828176121, 37256.35704473937, 0.042, 0.964, 0.096, 192.0, 0.0, 0.0, 0.0, 0.0, 0.0, 0.0, 0.0, 0.0, 0.0, 1.6665557654610195E9, 0.0, 2022-10-23 13:09:25.461
173.0, -74946.87437377863, -106549.6035277371, 64585.16443790966, 19931.27404824186, 76600.85875998244, 99536.81076011786, 42170.365711494174, 36310.632385090874, 0.042, 0.964, 0.096, 192.0, 0.0, 0.0, 0.0, 0.0, 0.0, 0.0, 0.0, 0.0, 0.0, 1.6665557654610276E9, 0.0, 2022-10-23 13:09:25.461
174.0, -74980.49139743941, -106579.9124932185, 64975.29178563259, 20256.11195041084, 76726.18499114335, 99809.72555991716, 42551.77587887953, 36874.67865642055, 0.042, 0.964, 0.096, 192.0, 0.0, 0.0, 0.0, 0.0, 0.0, 0.0, 0.0, 0.0, 0.0, 1.6665557654610367E9, 0.0, 2022-10-23 13:09:25.461
175.0, -75005.6594616961, -106609.08151973266, 67131.98925638071, 20572.07621003106, 76807.07595432711, 100787.99435949259, 43924.84354076905, 38293.63444967681, 0.042, 0.964, 0.096, 192.0, 0.0, 0.0, 0.0, 0.0, 0.0, 0.0, 0.0, 0.0, 0.0, 1.6665557654610448E9, 0.0, 2022-10-23 13:09:25.461
176.0, -74942.13580395411, -106554.900891173, 66711.41883270965, 20012.00854921443, 76574.46134978073, 100483.29537907784, 43497.03115189447, 37609.24638619976, 0.042, 0.964, 0.096, 192.0, 0.0, 0.0, 0.0, 0.0, 0.0, 0.0, 0.0, 0.0, 0.0, 1.6665557654610531E9, 0.0, 2022-10-23 13:09:25.461
177.0, -74930.15526892606, -106538.02532410924, 64707.04850042445, 19879.283890638817, 76578.9764021607, 99583.81647870738, 42237.57740707129, 36341.65660639484, 0.036000000000000004, 0.9520000000000001, 0.098, 192.0, 1.0, 32.0, 29.0, 192.0, 3.0, 16.0, 0.0, 0.0, 0.0, 1.6665557654610615E9, 0.0, 2022-10-23 13:09:25.461
178.0, -74973.07061828025, -106575.39744083851, 64758.2339952271, 20180.339536707346, 76697.01596462917, 99693.2282678161, 42401.32628695086, 36690.79085478674, 0.036000000000000004, 0.9520000000000001, 0.098, 192.0, 0.0, 0.0, 0.0, 0.0, 0.0, 0.0, 0.0, 0.0, 0.0, 1.666555765461079E9, 0.0, 2022-10-23 13:09:25.461
179.0, -75008.29696754181, -106610.13205172206, 66717.47615545704, 20550.193852209315, 76803.49967521426, 100602.65369446919, 43685.94809603073, 38071.74868246898, 0.036000000000000004, 0.9520000000000001, 0.098, 192.0, 0.0, 0.0, 0.0, 0.0, 0.0, 0.0, 0.0, 0.0, 0.0, 1.6665557654610872E9, 0.0, 2022-10-23 13:09:25.461
180.0, -74949.51187962436, -106558.94655691941, 67083.93300580181, 20138.407664109192, 76620.14831544737, 100661.48348587555, 43770.258876116146, 37930.999747633905, 0.036000000000000004, 0.9520000000000001, 0.098, 192.0, 0.0, 0.0, 0.0, 0.0, 0.0, 0.0, 0.0, 0.0, 0.0, 1.6665557654610956E9, 0.0, 2022-10-23 13:09:25.461
181.0, -74920.16403915454, -106532.21387055087, 64879.223987963676, 19825.0809103347, 76553.070730337, 99644.16618873671, 42341.490667044, 36421.40763061138, 0.036000000000000004, 0.9520000000000001, 0.098, 192.0, 0.0, 0.0, 0.0, 0.0, 0.0, 0.0, 0.0, 0.0, 0.0, 1.666555765461104E9, 0.0, 2022-10-23 13:09:25.461
182.0, -74953.4904901374, -106562.34402207662, 64612.16534521167, 20116.771175476453, 76685.32600227905, 99611.0632551984, 42300.51991945743, 36564.61525733653, 0.036000000000000004, 0.9520000000000001, 0.098, 192.0, 0.0, 0.0, 0.0, 0.0, 0.0, 0.0, 0.0, 0.0, 0.0, 1.6665557654611125E9, 0.0, 2022-10-23 13:09:25.461
183.0, -75001.92672037205, -106597.95035099392, 66288.38971714852, 20513.4922878137, 76815.77078292023, 100422.20806148149, 43442.6046541458, 37832.74147900838, 0.036000000000000004, 0.9520000000000001, 0.098, 192.0, 0.0, 0.0, 0.0, 0.0, 0.0, 0.0, 0.0, 0.0, 0.0, 1.6665557654611204E9, 0.0, 2022-10-23 13:09:25.461
184.0, -74965.67219086555, -106563.97569942185, 67387.02266061577, 20279.268357666537, 76678.28520277563, 100831.75907513608, 44016.06100989116, 38221.43831508617, 0.036000000000000004, 0.9520000000000001, 0.098, 192.0, 0.0, 0.0, 0.0, 0.0, 0.0, 0.0, 0.0, 0.0, 0.0, 1.6665557654611287E9, 0.0, 2022-10-23 13:09:25.461
185.0, -74916.74422225288, -106520.32274250063, 65175.54106420768, 19820.878782377098, 76541.60428543143, 99778.58957989092, 42540.532951418514, 36590.208004737855, 0.036000000000000004, 0.9520000000000001, 0.098, 192.0, 0.0, 0.0, 0.0, 0.0, 0.0, 0.0, 0.0, 0.0, 0.0, 1.6665557654611368E9, 0.0, 2022-10-23 13:09:25.461
186.0, -74951.88116453662, -106548.12831260305, 64548.06054211385, 20087.53509372891, 76667.77988288163, 99578.54146701592, 42261.91845678311, 36478.33752373904, 0.036000000000000004, 0.9520000000000001, 0.098, 192.0, 0.0, 0.0, 0.0, 0.0, 0.0, 0.0, 0.0, 0.0, 0.0, 1.6665557654611452E9, 0.0, 2022-10-23 13:09:25.461
187.0, -74996.29408076931, -106589.94842647892, 65817.70668240865, 20452.6284876619, 76783.36075346003, 100209.84413741162, 43161.35265366467, 37536.3126440421, 0.036000000000000004, 0.9540000000000001, 0.096, 192.0, 1.0, 32.0, 29.0, 208.0, 3.0, 0.0, 0.0, 0.0, 0.0, 1.6665557654611535E9, 0.0, 2022-10-23 13:09:25.461
188.0, -74980.93843232852, -106578.48198157335, 67504.12344981713, 20410.5178011081, 76731.23648539025, 100927.75981757163, 44157.45814531543, 38411.53990167855, 0.036000000000000004, 0.9540000000000001, 0.096, 192.0, 0.0, 0.0, 0.0, 0.0, 0.0, 0.0, 0.0, 0.0, 0.0, 1.6665557654611623E9, 0.0, 2022-10-23 13:09:25.461
189.0, -74918.7335275094, -106518.10991979956, 65512.44890838253, 19830.110052837143, 76528.32734922497, 99943.56780571555, 42777.684960089326, 36817.16761793705, 0.036000000000000004, 0.9540000000000001, 0.096, 192.0, 0.0, 0.0, 0.0, 0.0, 0.0, 0.0, 0.0, 0.0, 0.0, 1.6665557654611707E9, 0.0, 2022-10-23 13:09:25.461
190.0, -74943.02987373232, -106541.08751309961, 64495.422183921604, 20044.172709485618, 76645.36108319295, 99555.6979841826, 42230.558959312315, 36406.3425548485, 0.036000000000000004, 0.9540000000000001, 0.096, 192.0, 0.0, 0.0, 0.0, 0.0, 0.0, 0.0, 0.0, 0.0, 0.0, 1.666555765461179E9, 0.0, 2022-10-23 13:09:25.461
191.0, -74989.27563301034, -106586.32744387716, 65420.69499739349, 20391.854094487917, 76753.72234031229, 100048.19632151084, 42930.19091250788, 37270.48334723513, 0.036000000000000004, 0.9540000000000001, 0.096, 192.0, 0.0, 0.0, 0.0, 0.0, 0.0, 0.0, 0.0, 0.0, 0.0, 1.6665557654611871E9, 0.0, 2022-10-23 13:09:25.461
192.0, -74995.51176971338, -106595.26814165928, 67461.31985918521, 20508.172572633335, 76744.9157529969, 100933.23599496318, 44168.14227916507, 38454.09762312146, 0.036000000000000004, 0.9540000000000001, 0.096, 192.0, 0.0, 0.0, 0.0, 0.0, 0.0, 0.0, 0.0, 0.0, 0.0, 1.6665557654611955E9, 0.0, 2022-10-23 13:09:25.461
193.0, -74917.12420190862, -106523.13906230201, 65921.73170110365, 19875.573501059236, 76511.31767169449, 100126.27096489322, 43041.100268495116, 37079.95707749809, 0.036000000000000004, 0.9540000000000001, 0.096, 192.0, 0.0, 0.0, 0.0, 0.0, 0.0, 0.0, 0.0, 0.0, 0.0, 1.666555765461225E9, 0.0, 2022-10-23 13:09:25.461
194.0, -74936.8384405182, -106539.83581541013, 64501.926541558096, 19989.81326697031, 76607.67604204132, 99538.88947235221, 42215.00214517143, 36349.97145533222, 0.036000000000000004, 0.9540000000000001, 0.096, 192.0, 0.0, 0.0, 0.0, 0.0, 0.0, 0.0, 0.0, 0.0, 0.0, 1.6665557654612331E9, 0.0, 2022-10-23 13:09:25.461
195.0, -74966.7897780883, -106570.97179543636, 65065.659888465394, 20306.336320201914, 76713.44449680383, 99871.32696763599, 42694.78233990459, 37011.40427725366, 0.036000000000000004, 0.9540000000000001, 0.096, 192.0, 0.0, 0.0, 0.0, 0.0, 0.0, 0.0, 0.0, 0.0, 0.0, 1.666555765461242E9, 0.0, 2022-10-23 13:09:25.461
196.0, -74993.92479585705, -106599.62673182807, 67277.54381627367, 20576.79242811113, 76773.97302078879, 100876.30610183551, 44092.749845117316, 38416.30082324753, 0.036000000000000004, 0.9540000000000001, 0.096, 192.0, 0.0, 0.0, 0.0, 0.0, 0.0, 0.0, 0.0, 0.0, 0.0, 1.66655576546125E9, 0.0, 2022-10-23 13:09:25.461
197.0, -74925.99784445738, -106533.8455478961, 66405.8257825167, 19968.892034160144, 76518.42552643127, 100365.90401719857, 43376.667008002645, 37431.32650033552, 0.044, 0.9540000000000001, 0.1, 192.0, 1.0, 96.0, 29.0, 208.0, 3.0, 32.0, 0.0, 0.0, 0.0, 1.6665557654612577E9, 0.0, 2022-10-23 13:09:25.461
198.0, -74935.81026027325, -106539.36642877656, 64590.75237402349, 19947.724932160967, 76565.7218176987, 99570.003100634, 42255.70467182454, 36343.80237386255, 0.044, 0.9540000000000001, 0.1, 192.0, 0.0, 0.0, 0.0, 0.0, 0.0, 0.0, 0.0, 0.0, 0.0, 1.666555765461266E9, 0.0, 2022-10-23 13:09:25.461
199.0, -74976.13280727062, -106578.52668506226, 64837.292115365526, 20258.995325445572, 76685.01307785667, 99770.0959169979, 42543.52808517553, 36817.72641154843, 0.044, 0.9540000000000001, 0.1, 192.0, 0.0, 0.0, 0.0, 0.0, 0.0, 0.0, 0.0, 0.0, 0.0, 1.666555765461274E9, 0.0, 2022-10-23 13:09:25.461
200.0, -75010.06275535378, -106609.75207206632, 66959.67965837475, 20612.4658122618, 76782.8243115931, 100754.33263234289, 43920.37319187799, 38260.77738532751, 0.044, 0.9540000000000001, 0.1, 192.0, 0.0, 0.0, 0.0, 0.0, 0.0, 0.0, 0.0, 0.0, 0.0, 1.666555765461282E9, 0.0, 2022-10-23 13:09:25.461
201.0, -74946.04735923378, -106551.61518473807, 66852.77126464502, 20101.236713080016, 76558.85983215092, 100591.52252573044, 43689.94905828823, 37777.59972543713, 0.044, 0.9540000000000001, 0.1, 192.0, 0.0, 0.0, 0.0, 0.0, 0.0, 0.0, 0.0, 0.0, 0.0, 1.6665557654612896E9, 0.0, 2022-10-23 13:09:25.461
202.0, -74926.24371364639, -106531.00687635028, 64724.90754424424, 19898.104059470184, 76534.18350627227, 99616.71824654558, 42324.79391393589, 36375.96653413374, 0.044, 0.9540000000000001, 0.1, 192.0, 0.0, 0.0, 0.0, 0.0, 0.0, 0.0, 0.0, 0.0, 0.0, 1.6665557654612975E9, 0.0, 2022-10-23 13:09:25.461
203.0, -74955.30098143828, -106558.90185343049, 64636.41698794568, 20203.09361256285, 76670.03740907162, 99658.06897378791, 42392.49734789102, 36642.06405187417, 0.044, 0.9540000000000001, 0.1, 192.0, 0.0, 0.0, 0.0, 0.0, 0.0, 0.0, 0.0, 0.0, 0.0, 1.6665557654613056E9, 0.0, 2022-10-23 13:09:25.461
204.0, -74998.21633079248, -106600.43139462845, 66490.38243179112, 20590.538750951142, 76794.64838440996, 100530.99400174546, 43620.859816176875, 37991.550623363335, 0.044, 0.9540000000000001, 0.1, 192.0, 0.0, 0.0, 0.0, 0.0, 0.0, 0.0, 0.0, 0.0, 0.0, 1.6665557654613132E9, 0.0, 2022-10-23 13:09:25.461
205.0, -74955.47979539393, -106563.39455406602, 67194.3059199221, 20253.183871887195, 76626.60796959496, 100763.36273710284, 43935.102991474036, 38093.25106063498, 0.044, 0.9540000000000001, 0.1, 192.0, 0.0, 0.0, 0.0, 0.0, 0.0, 0.0, 0.0, 0.0, 0.0, 1.666555765461321E9, 0.0, 2022-10-23 13:09:25.461
206.0, -74917.28066411981, -106526.04478908119, 64959.3326400915, 19877.607509804668, 76518.13495375335, 99717.36815182783, 42466.50397378254, 36506.70188745283, 0.052000000000000005, 0.96, 0.092, 192.0, 1.0, 160.0, 30.0, 0.0, 2.0, 224.0, 0.0, 0.0, 0.0, 1.6665557654613292E9, 0.0, 2022-10-23 13:09:25.461
207.0, -74957.22323146144, -106560.39942030901, 64533.42014949562, 20157.294888173925, 76646.32220820454, 99602.81546149439, 42314.19918706408, 36530.48414355328, 0.052000000000000005, 0.96, 0.092, 192.0, 0.0, 0.0, 0.0, 0.0, 0.0, 0.0, 0.0, 0.0, 0.0, 1.6665557654613376E9, 0.0, 2022-10-23 13:09:25.461
208.0, -75005.79357216282, -106599.47026961688, 66049.49427241019, 20547.131663218937, 76782.31022147063, 100345.72039195543, 43359.947903150074, 37714.97013747336, 0.052000000000000005, 0.96, 0.092, 192.0, 0.0, 0.0, 0.0, 0.0, 0.0, 0.0, 0.0, 0.0, 0.0, 1.6665557654613452E9, 0.0, 2022-10-23 13:09:25.461
209.0, -74974.5011299254, -106576.17975189445, 67419.25387612032, 20387.94253920824, 76678.75458940919, 100893.22637238818, 44118.38729600755, 38312.499321997086, 0.052000000000000005, 0.96, 0.092, 192.0, 0.0, 0.0, 0.0, 0.0, 0.0, 0.0, 0.0, 0.0, 0.0, 1.6665557654613607E9, 0.0, 2022-10-23 13:09:25.461
210.0, -74915.78309724129, -106523.87666986903, 65288.21620800689, 19882.03315520682, 76523.20879974471, 99870.74582228015, 42676.54331642906, 36685.292325650735, 0.052000000000000005, 0.96, 0.092, 192.0, 0.0, 0.0, 0.0, 0.0, 0.0, 0.0, 0.0, 0.0, 0.0, 1.6665557654613686E9, 0.0, 2022-10-23 13:09:25.461
211.0, -74947.56727785674, -106551.99516439381, 64508.74382361696, 20130.785719249932, 76648.33386520551, 99600.58028704886, 42292.04860830887, 36452.141279237425, 0.052000000000000005, 0.96, 0.092, 192.0, 0.0, 0.0, 0.0, 0.0, 0.0, 0.0, 0.0, 0.0, 0.0, 1.6665557654613767E9, 0.0, 2022-10-23 13:09:25.461
212.0, -74987.33103124273, -106589.07670844517, 65659.21046247607, 20490.469991024733, 76772.7213230993, 100191.49335521381, 43123.645260768564, 37439.686052761805, 0.052000000000000005, 0.96, 0.092, 192.0, 0.0, 0.0, 0.0, 0.0, 0.0, 0.0, 0.0, 0.0, 0.0, 1.6665557654613843E9, 0.0, 2022-10-23 13:09:25.461
213.0, -74983.53123468533, -106591.13306893506, 67522.36247329265, 20511.97236919074, 76740.06542445009, 100983.6391787099, 44227.866140349644, 38450.05195737505, 0.052000000000000005, 0.96, 0.092, 192.0, 0.0, 0.0, 0.0, 0.0, 0.0, 0.0, 0.0, 0.0, 0.0, 1.6665557654613922E9, 0.0, 2022-10-23 13:09:25.461
214.0, -74926.80250725776, -106536.41599850846, 65705.63503570975, 19905.36837641816, 76518.1126020089, 100067.39646999794, 42944.607787681554, 36934.29075888285, 0.052000000000000005, 0.96, 0.092, 192.0, 0.0, 0.0, 0.0, 0.0, 0.0, 0.0, 0.0, 0.0, 0.0, 1.6665557654614E9, 0.0, 2022-10-23 13:09:25.461
215.0, -74943.87924002162, -106548.82121668116, 64515.04701555336, 20076.940366857096, 76620.72946080321, 99588.57740027636, 42273.496660410965, 36384.21432783775, 0.052000000000000005, 0.96, 0.092, 192.0, 0.0, 0.0, 0.0, 0.0, 0.0, 0.0, 0.0, 0.0, 0.0, 1.666555765461408E9, 0.0, 2022-10-23 13:09:25.461
216.0, -74977.58567066022, -106582.97468220886, 65255.31444016867, 20409.89195226335, 76739.30546513862, 99984.6056085355, 42848.53999001265, 37140.39619450524, 0.046, 0.9560000000000001, 0.094, 192.0, 1.0, 112.0, 29.0, 224.0, 2.0, 240.0, 0.0, 0.0, 0.0, 1.6665557654614155E9, 0.0, 2022-10-23 13:09:25.461
217.0, -74992.94131910102, -106598.59855158313, 67410.9166754385, 20607.660187203906, 76772.85543356603, 100944.41186719082, 44185.35312239565, 38454.52230626611, 0.046, 0.9560000000000001, 0.094, 192.0, 0.0, 0.0, 0.0, 0.0, 0.0, 0.0, 0.0, 0.0, 0.0, 1.6665557654614253E9, 0.0, 2022-10-23 13:09:25.461
218.0, -74920.09698392118, -106530.17986180543, 66118.18118312136, 19968.892034160144, 76518.00084328662, 100238.83434997014, 43202.435159973524, 37220.19192221069, 0.046, 0.9560000000000001, 0.094, 192.0, 0.0, 0.0, 0.0, 0.0, 0.0, 0.0, 0.0, 0.0, 0.0, 1.6665557654614332E9, 0.0, 2022-10-23 13:09:25.461
219.0, -74931.63048406011, -106536.7959781642, 64534.493033229475, 20032.147470968663, 76597.7295157587, 99569.51136225599, 42254.94471251306, 36348.675054153806, 0.046, 0.9560000000000001, 0.094, 192.0, 0.0, 0.0, 0.0, 0.0, 0.0, 0.0, 0.0, 0.0, 0.0, 1.6665557654614413E9, 0.0, 2022-10-23 13:09:25.461
220.0, -74971.52834791284, -106572.87169371506, 64974.12949492091, 20353.811425424985, 76721.37936608546, 99859.05585993003, 42665.21098199022, 36942.426793864586, 0.046, 0.9560000000000001, 0.094, 192.0, 0.0, 0.0, 0.0, 0.0, 0.0, 0.0, 0.0, 0.0, 0.0, 1.666555765461449E9, 0.0, 2022-10-23 13:09:25.461
221.0, -74997.79164764783, -106603.158307452, 67161.0465241726, 20648.51917606821, 76790.93799483037, 100854.37904052486, 44058.03758597822, 38365.74117728963, 0.046, 0.9560000000000001, 0.094, 192.0, 0.0, 0.0, 0.0, 0.0, 0.0, 0.0, 0.0, 0.0, 0.0, 1.6665557654614568E9, 0.0, 2022-10-23 13:09:25.461
222.0, -74928.34477762519, -106541.89217590001, 66579.85646484571, 20077.812084890855, 76554.47889023767, 100468.63263471516, 43521.84158823986, 37569.6167432805, 0.046, 0.9560000000000001, 0.094, 192.0, 0.0, 0.0, 0.0, 0.0, 0.0, 0.0, 0.0, 0.0, 0.0, 1.6665557654614646E9, 0.0, 2022-10-23 13:09:25.461
223.0, -74934.0891759502, -106543.16622533396, 64642.720179882075, 19973.47414177348, 76562.72668394168, 99610.10213018682, 42312.54515797438, 36363.695426427774, 0.046, 0.9560000000000001, 0.094, 192.0, 0.0, 0.0, 0.0, 0.0, 0.0, 0.0, 0.0, 0.0, 0.0, 1.6665557654614732E9, 0.0, 2022-10-23 13:09:25.461
224.0, -74961.42535941904, -106565.56267327818, 64738.65386708426, 20273.948642486175, 76680.98976385473, 99732.23206189062, 42495.74005553008, 36734.75673613033, 0.046, 0.9560000000000001, 0.094, 192.0, 0.0, 0.0, 0.0, 0.0, 0.0, 0.0, 0.0, 0.0, 0.0, 1.666555765461488E9, 0.0, 2022-10-23 13:09:25.461
225.0, -74997.41166799208, -106603.158307452, 66772.39439158373, 20653.19069065937, 76797.3305937446, 100684.25991347551, 43827.5463971551, 38148.79514560642, 0.046, 0.9560000000000001, 0.094, 192.0, 0.0, 0.0, 0.0, 0.0, 0.0, 0.0, 0.0, 0.0, 0.0, 1.666555765461496E9, 0.0, 2022-10-23 13:09:25.461
226.0, -74946.33793191171, -106560.08649588663, 66968.35213522341, 20194.309376991914, 76586.26307085312, 100650.19585492562, 43785.79333851258, 37874.60629637317, 0.044, 0.9500000000000001, 0.09, 192.0, 1.0, 96.0, 29.0, 176.0, 2.0, 208.0, 0.0, 0.0, 0.0, 1.6665557654615035E9, 0.0, 2022-10-23 13:09:25.461
227.0, -74922.39921360007, -106533.97965836283, 64771.64504190029, 19920.746376603413, 76541.49252670915, 99634.264365943, 42359.77439400845, 36389.89167092939, 0.044, 0.9500000000000001, 0.09, 192.0, 0.0, 0.0, 0.0, 0.0, 0.0, 0.0, 0.0, 0.0, 0.0, 1.666555765461512E9, 0.0, 2022-10-23 13:09:25.461
228.0, -74951.81410930326, -106564.71330698888, 64549.89338515919, 20220.28210404898, 76675.31242076308, 99614.08074069986, 42341.20009436609, 36566.82808003761, 0.044, 0.9500000000000001, 0.09, 192.0, 0.0, 0.0, 0.0, 0.0, 0.0, 0.0, 0.0, 0.0, 0.0, 1.6665557654615197E9, 0.0, 2022-10-23 13:09:25.461
229.0, -74994.952976102, -106607.38278715406, 66288.14384795951, 20616.086794863557, 76807.05360258264, 100451.37708799567, 43518.645288782755, 37869.24187770389, 0.044, 0.9500000000000001, 0.09, 192.0, 0.0, 0.0, 0.0, 0.0, 0.0, 0.0, 0.0, 0.0, 0.0, 1.6665557654615276E9, 0.0, 2022-10-23 13:09:25.461
230.0, -74951.92586802553, -106561.51700753177, 67272.91700517142, 20333.761910648576, 76653.96650480825, 100812.2012987377, 44017.62563200303, 38173.49382322953, 0.044, 0.9500000000000001, 0.09, 192.0, 0.0, 0.0, 0.0, 0.0, 0.0, 0.0, 0.0, 0.0, 0.0, 1.6665557654615352E9, 0.0, 2022-10-23 13:09:25.461
231.0, -74921.72866126642, -106523.49669021329, 65029.42771070334, 19887.084649453718, 76518.24671247562, 99738.26703289355, 42517.91298602975, 36538.195495390355, 0.044, 0.9500000000000001, 0.09, 192.0, 0.0, 0.0, 0.0, 0.0, 0.0, 0.0, 0.0, 0.0, 0.0, 1.666555765461543E9, 0.0, 2022-10-23 13:09:25.461
232.0, -74956.91030703907, -106555.66085048448, 64473.98686098896, 20173.343440692835, 76659.8003101111, 99569.93604540064, 42284.87369833871, 36485.110102309, 0.044, 0.9500000000000001, 0.09, 192.0, 0.0, 0.0, 0.0, 0.0, 0.0, 0.0, 0.0, 0.0, 0.0, 1.6665557654615517E9, 0.0, 2022-10-23 13:09:25.461
233.0, -75005.27948204035, -106603.7618045523, 65850.9437264137, 20558.978087780248, 76794.20134952085, 100258.99562346884, 43256.36991934418, 37606.92180477641, 0.044, 0.9500000000000001, 0.09, 192.0, 0.0, 0.0, 0.0, 0.0, 0.0, 0.0, 0.0, 0.0, 0.0, 1.6665557654615595E9, 0.0, 2022-10-23 13:09:25.461
234.0, -74986.57107193126, -106587.66854854448, 67432.37435011558, 20463.782008145095, 76710.02467990217, 100908.20204117324, 44163.09078491817, 38380.11334897439, 0.044, 0.9500000000000001, 0.09, 192.0, 0.0, 0.0, 0.0, 0.0, 0.0, 0.0, 0.0, 0.0, 0.0, 1.6665557654615674E9, 0.0, 2022-10-23 13:09:25.461
235.0, -74927.6295218026, -106530.6939519279, 65401.651311117574, 19910.531629387337, 76531.74716612663, 99918.7350176257, 42770.17477395234, 36786.47867279991, 0.05, 0.9480000000000001, 0.08600000000000001, 192.0, 1.0, 144.0, 29.0, 160.0, 2.0, 176.0, 0.0, 0.0, 0.0, 1.6665557654615753E9, 0.0, 2022-10-23 13:09:25.461
236.0, -74956.59738261669, -106553.60448999458, 64471.70698305452, 20127.120033159263, 76647.50685066066, 99574.8534291808, 42284.20314600506, 36445.25694194519, 0.05, 0.9480000000000001, 0.08600000000000001, 192.0, 0.0, 0.0, 0.0, 0.0, 0.0, 0.0, 0.0, 0.0, 0.0, 1.6665557654615836E9, 0.0, 2022-10-23 13:09:25.461
237.0, -74994.88592086863, -106592.38476662456, 65454.28966930982, 20483.160970587847, 76772.00606727673, 100090.99991214275, 43016.11101819408, 37345.518153371595, 0.05, 0.9480000000000001, 0.08600000000000001, 192.0, 0.0, 0.0, 0.0, 0.0, 0.0, 0.0, 0.0, 0.0, 0.0, 1.666555765461592E9, 0.0, 2022-10-23 13:09:25.461
238.0, -74994.48358946844, -106596.96687423789, 67449.38402764607, 20577.708849633796, 76758.93029677037, 100954.42544870681, 44221.20532050196, 38481.72437926822, 0.05, 0.9480000000000001, 0.08600000000000001, 192.0, 0.0, 0.0, 0.0, 0.0, 0.0, 0.0, 0.0, 0.0, 0.0, 1.6665557654616008E9, 0.0, 2022-10-23 13:09:25.461
239.0, -74928.85886774765, -106535.2984112857, 65801.74753686757, 19947.859042627697, 76525.64513989033, 100102.26519134823, 43029.656175334, 37044.417803814154, 0.05, 0.9480000000000001, 0.08600000000000001, 192.0, 0.0, 0.0, 0.0, 0.0, 0.0, 0.0, 0.0, 0.0, 0.0, 1.6665557654616086E9, 0.0, 2022-10-23 13:09:25.461
240.0, -74956.95501052798, -106558.09719063011, 64468.75655278642, 20073.945233100087, 76615.16387643384, 99564.1469435867, 42263.17015447261, 36380.4368830248, 0.05, 0.9480000000000001, 0.08600000000000001, 192.0, 0.0, 0.0, 0.0, 0.0, 0.0, 0.0, 0.0, 0.0, 0.0, 1.666555765461624E9, 0.0, 2022-10-23 13:09:25.461
241.0, -74991.86843536717, -106590.26135090129, 65089.59860677703, 20400.146591680837, 76727.8166684886, 99918.80207285906, 42773.43812864282, 37070.345827382305, 0.05, 0.9480000000000001, 0.08600000000000001, 192.0, 0.0, 0.0, 0.0, 0.0, 0.0, 0.0, 0.0, 0.0, 0.0, 1.666555765461632E9, 0.0, 2022-10-23 13:09:25.461
242.0, -75006.28531054084, -106605.90757202, 67297.45922058335, 20659.292716895667, 76802.24797752476, 100918.8191197895, 44161.41440408402, 38457.27157083411, 0.05, 0.9480000000000001, 0.08600000000000001, 192.0, 0.0, 0.0, 0.0, 0.0, 0.0, 0.0, 0.0, 0.0, 0.0, 1.66655576546164E9, 0.0, 2022-10-23 13:09:25.461
243.0, -74926.71310027994, -106534.6949141854, 66309.28859821423, 20042.33986644028, 76566.88410841038, 100370.97786318992, 43381.11500514925, 37407.656002957345, 0.05, 0.9480000000000001, 0.08600000000000001, 192.0, 0.0, 0.0, 0.0, 0.0, 0.0, 0.0, 0.0, 0.0, 0.0, 1.666555765461648E9, 0.0, 2022-10-23 13:09:25.461
244.0, -74938.06778646325, -106543.63561196752, 64578.66008027316, 20033.198002958063, 76615.65561481185, 99622.70851405962, 42326.559701747865, 36391.72451397473, 0.05, 0.9480000000000001, 0.08600000000000001, 192.0, 0.0, 0.0, 0.0, 0.0, 0.0, 0.0, 0.0, 0.0, 0.0, 1.6665557654616559E9, 0.0, 2022-10-23 13:09:25.461
245.0, -74974.9481648145, -106576.78324899475, 64867.757543058106, 20338.209907795183, 76724.6650725204, 99834.37953405138, 42633.22563567467, 36880.95949661249, 0.05, 0.9540000000000001, 0.092, 192.0, 1.0, 144.0, 29.0, 208.0, 2.0, 224.0, 0.0, 0.0, 0.0, 1.6665557654616635E9, 0.0, 2022-10-23 13:09:25.461
246.0, -75007.73817393043, -106608.8132987992, 67011.40159504433, 20677.062353737638, 76815.6813759424, 100818.23626974062, 44012.50708252276, 38312.16404583026, 0.05, 0.9540000000000001, 0.092, 192.0, 0.0, 0.0, 0.0, 0.0, 0.0, 0.0, 0.0, 0.0, 0.0, 1.6665557654616723E9, 0.0, 2022-10-23 13:09:25.461
247.0, -74949.75774881337, -106560.71234473138, 66724.42754798265, 20131.813899494875, 76574.19312884726, 100556.0279555354, 43659.97536897366, 37708.13050367004, 0.05, 0.9540000000000001, 0.092, 192.0, 0.0, 0.0, 0.0, 0.0, 0.0, 0.0, 0.0, 0.0, 0.0, 1.6665557654616802E9, 0.0, 2022-10-23 13:09:25.461
248.0, -74939.83357427521, -106548.50829225878, 64649.023371818475, 19966.343935292236, 76565.00656187613, 99612.35965637681, 42339.43430655412, 36371.00444686466, 0.05, 0.9540000000000001, 0.092, 192.0, 0.0, 0.0, 0.0, 0.0, 0.0, 0.0, 0.0, 0.0, 0.0, 1.6665557654616883E9, 0.0, 2022-10-23 13:09:25.461
249.0, -74970.32135371225, -106574.68218501595, 64631.83488033234, 20281.503532112067, 76710.56112176909, 99693.27297130502, 42458.949084156644, 36686.87929950706, 0.05, 0.9540000000000001, 0.092, 192.0, 0.0, 0.0, 0.0, 0.0, 0.0, 0.0, 0.0, 0.0, 0.0, 1.666555765461696E9, 0.0, 2022-10-23 13:09:25.461
250.0, -75006.7546971744, -106611.69667383394, 66584.12564803669, 20668.43458037789, 76831.08172787211, 100628.69347675961, 43759.95472192225, 38083.99743843048, 0.05, 0.9540000000000001, 0.092, 192.0, 0.0, 0.0, 0.0, 0.0, 0.0, 0.0, 0.0, 0.0, 0.0, 1.666555765461704E9, 0.0, 2022-10-23 13:09:25.461
251.0, -74951.90351628108, -106561.74052497633, 67107.44704096878, 20281.39177338979, 76635.81688831054, 100757.81950447793, 43943.39548866695, 38045.61949320072, 0.05, 0.9540000000000001, 0.092, 192.0, 0.0, 0.0, 0.0, 0.0, 0.0, 0.0, 0.0, 0.0, 0.0, 1.666555765461712E9, 0.0, 2022-10-23 13:09:25.461
0.0, 0.0, 0.0, 0.0, 0.0, 0.0, 0.0, 0.0, 0.0, 0.058, 0.9500000000000001, 0.1, 192.0, 1.0, 208.0, 29.0, 176.0, 3.0, 32.0, 0.0, 0.0, 0.0, 1.666555765581237E9, 0.0, 2022-10-23 13:09:25.581
1.0, -74968.6449728781, -106597.27979866027, 64747.95219277766, 20212.5707522119, 77088.43971353052, 100185.57014293315, 42620.462789590696, 36539.4248413354, 0.058, 0.9500000000000001, 0.1, 192.0, 0.0, 0.0, 0.0, 0.0, 0.0, 0.0, 0.0, 0.0, 0.0, 1.6665557660593967E9, 0.0, 2022-10-23 13:09:26.059
2.0, -75004.54187447332, -106630.00275254283, 65451.96508788647, 20547.712808574775, 77212.58130223528, 100575.42926972262, 43184.66552313155, 37285.459016020184, 0.058, 0.9500000000000001, 0.1, 192.0, 0.0, 0.0, 0.0, 0.0, 0.0, 0.0, 0.0, 0.0, 0.0, 1.6665557660594954E9, 0.0, 2022-10-23 13:09:26.059
3.0, -75042.5621917918, -106671.01820361833, 67580.52171236536, 20726.973799106338, 77224.2265610965, 101522.60679276071, 44516.248347312016, 38595.919441690385, 0.058, 0.9500000000000001, 0.1, 192.0, 0.0, 0.0, 0.0, 0.0, 0.0, 0.0, 0.0, 0.0, 0.0, 1.6665557660596933E9, 0.0, 2022-10-23 13:09:26.059
4.0, -74976.28926948181, -106612.8142610567, 66378.40019207004, 20096.40873627767, 76975.98808717587, 100853.12734283536, 43581.3866354688, 37407.41013376834, 0.058, 0.9500000000000001, 0.1, 192.0, 0.0, 0.0, 0.0, 0.0, 0.0, 0.0, 0.0, 0.0, 0.0, 1.6665557660597067E9, 0.0, 2022-10-23 13:09:26.059
5.0, -74986.7498858869, -106618.58101112617, 64778.2388065146, 20138.98880946503, 77047.04428279928, 100166.43704967941, 42609.44337957423, 36500.532805983166, 0.058, 0.9500000000000001, 0.1, 192.0, 0.0, 0.0, 0.0, 0.0, 0.0, 0.0, 0.0, 0.0, 0.0, 1.6665557660597196E9, 0.0, 2022-10-23 13:09:26.059
6.0, -75013.16964783307, -106640.3739619701, 65148.89778481696, 20453.164929528826, 77165.7096941125, 100407.72413107446, 42965.46196525836, 37044.12723113623, 0.058, 0.9500000000000001, 0.1, 192.0, 0.0, 0.0, 0.0, 0.0, 0.0, 0.0, 0.0, 0.0, 0.0, 1.666555766059732E9, 0.0, 2022-10-23 13:09:26.059
7.0, -75052.50871807442, -106682.931683413, 67311.85374401257, 20776.237043885834, 77247.60648579676, 101406.57888729322, 44364.480002460485, 38480.27151587862, 0.058, 0.9560000000000001, 0.112, 192.0, 1.0, 208.0, 29.0, 224.0, 3.0, 128.0, 0.0, 0.0, 0.0, 1.666555766059748E9, 0.0, 2022-10-23 13:09:26.059
8.0, -74987.17456903154, -106625.28653446276, 66848.16680528723, 20205.95463585313, 77010.78975329277, 101083.77499386967, 43906.716276015795, 37763.71929213039, 0.058, 0.9560000000000001, 0.112, 192.0, 0.0, 0.0, 0.0, 0.0, 0.0, 0.0, 0.0, 0.0, 0.0, 1.6665557660597615E9, 0.0, 2022-10-23 13:09:26.059
9.0, -74992.51663595637, -106628.25931647532, 64917.825450637996, 20082.41654424865, 77019.08225048569, 100226.58559400865, 42686.89217411187, 36540.028338435695, 0.058, 0.9560000000000001, 0.112, 192.0, 0.0, 0.0, 0.0, 0.0, 0.0, 0.0, 0.0, 0.0, 0.0, 1.6665557660597734E9, 0.0, 2022-10-23 13:09:26.059
10.0, -75017.17061009057, -106649.13584579657, 64985.95356773777, 20374.486789046143, 77126.61649306018, 100338.05374360726, 42851.11044062501, 36888.04499960483, 0.058, 0.9560000000000001, 0.112, 192.0, 0.0, 0.0, 0.0, 0.0, 0.0, 0.0, 0.0, 0.0, 0.0, 1.666555766059785E9, 0.0, 2022-10-23 13:09:26.059
11.0, -75037.42129056709, -106663.26214829233, 66962.98771655414, 20770.246776371812, 77261.77749178142, 101266.61226351408, 44158.531029049285, 38284.93962108369, 0.058, 0.9560000000000001, 0.112, 192.0, 0.0, 0.0, 0.0, 0.0, 0.0, 0.0, 0.0, 0.0, 0.0, 1.6665557660597973E9, 0.0, 2022-10-23 13:09:26.059
12.0, -74979.10558928318, -106611.42845290047, 67267.1726068464, 20343.59667820891, 77067.51848072035, 101295.73658653935, 44199.74764582487, 38095.4415315916, 0.058, 0.9560000000000001, 0.112, 192.0, 0.0, 0.0, 0.0, 0.0, 0.0, 0.0, 0.0, 0.0, 0.0, 1.6665557660598092E9, 0.0, 2022-10-23 13:09:26.059
13.0, -74952.97640001493, -106583.7122897759, 65103.52374357269, 20070.100733053772, 77020.19983770845, 100295.56307739772, 42782.75880608068, 36609.162284035956, 0.058, 0.9560000000000001, 0.112, 192.0, 0.0, 0.0, 0.0, 0.0, 0.0, 0.0, 0.0, 0.0, 0.0, 1.6665557660598211E9, 0.0, 2022-10-23 13:09:26.059
14.0, -74990.70614465549, -106620.32444719368, 64890.42221193579, 20364.98729765264, 77140.69809206702, 100296.34538845366, 42775.718006577255, 36778.90143142956, 0.058, 0.9560000000000001, 0.112, 192.0, 0.0, 0.0, 0.0, 0.0, 0.0, 0.0, 0.0, 0.0, 0.0, 1.6665557660598328E9, 0.0, 2022-10-23 13:09:26.059
15.0, -75031.74394747544, -106660.24466279086, 66557.63883085715, 20728.62782819603, 77241.21388688254, 101098.70595916582, 43910.292555128646, 38030.062679059825, 0.058, 0.9560000000000001, 0.112, 192.0, 0.0, 0.0, 0.0, 0.0, 0.0, 0.0, 0.0, 0.0, 0.0, 1.6665557660598445E9, 0.0, 2022-10-23 13:09:26.059
16.0, -74994.08125806824, -106626.02414202978, 67571.35749713868, 20481.886921153895, 77118.86043773418, 101462.32413796475, 44427.02018344643, 38369.69743605822, 0.058, 0.9560000000000001, 0.112, 192.0, 0.0, 0.0, 0.0, 0.0, 0.0, 0.0, 0.0, 0.0, 0.0, 1.6665557660598562E9, 0.0, 2022-10-23 13:09:26.059
17.0, -74964.0405135203, -106598.59855158313, 65373.53281659279, 20018.66936906211, 76985.666392525, 100408.48409038593, 42940.96445333534, 36746.6255124361, 0.07, 0.9480000000000001, 0.112, 192.0, 2.0, 48.0, 29.0, 160.0, 3.0, 128.0, 0.0, 0.0, 0.0, 1.6665557660598679E9, 0.0, 2022-10-23 13:09:26.059
18.0, -75005.99473786291, -106639.18931951396, 64797.03662360152, 20281.81645653444, 77108.91391145157, 100231.41357081098, 42686.579249689494, 36661.5547730392, 0.07, 0.9480000000000001, 0.112, 192.0, 0.0, 0.0, 0.0, 0.0, 0.0, 0.0, 0.0, 0.0, 0.0, 1.6665557660598805E9, 0.0, 2022-10-23 13:09:26.059
19.0, -75042.45043306952, -106672.53812224128, 66110.08985162852, 20652.43073134789, 77229.25570359894, 100889.35952059741, 43618.28936556451, 37736.450163894915, 0.07, 0.9480000000000001, 0.112, 192.0, 0.0, 0.0, 0.0, 0.0, 0.0, 0.0, 0.0, 0.0, 0.0, 1.6665557660599113E9, 0.0, 2022-10-23 13:09:26.059
20.0, -75023.18322934904, -106659.37294475711, 67720.77890882241, 20588.728259650263, 77158.57948763127, 101552.22285416399, 44551.09471691784, 38541.76116487517, 0.07, 0.9480000000000001, 0.112, 192.0, 0.0, 0.0, 0.0, 0.0, 0.0, 0.0, 0.0, 0.0, 0.0, 1.666555766059923E9, 0.0, 2022-10-23 13:09:26.059
21.0, -74957.7373215839, -106595.29049340374, 65723.82935569636, 20029.420558145113, 76977.97739243238, 100556.36323170224, 43151.74140354889, 36945.53368634387, 0.07, 0.9480000000000001, 0.112, 192.0, 0.0, 0.0, 0.0, 0.0, 0.0, 0.0, 0.0, 0.0, 0.0, 1.6665557660599349E9, 0.0, 2022-10-23 13:09:26.059
22.0, -74995.51176971338, -106626.13590075207, 64756.51291090404, 20233.11200536633, 77092.9994693994, 100187.53709644522, 42629.24702516163, 36564.078815469606, 0.07, 0.9480000000000001, 0.112, 192.0, 0.0, 0.0, 0.0, 0.0, 0.0, 0.0, 0.0, 0.0, 0.0, 1.6665557660599463E9, 0.0, 2022-10-23 13:09:26.059
23.0, -75034.33674983225, -106661.94339536947, 65703.7574891755, 20577.97707056726, 77206.85925565472, 100693.7147013801, 43347.095650088275, 37445.3857475979, 0.07, 0.9480000000000001, 0.112, 192.0, 0.0, 0.0, 0.0, 0.0, 0.0, 0.0, 0.0, 0.0, 0.0, 1.6665557660599582E9, 0.0, 2022-10-23 13:09:26.059
24.0, -75028.2570753404, -106659.10472382364, 67711.54763836238, 20703.95150231737, 77212.55895049083, 101570.81950555081, 44578.96734225361, 38620.19343616885, 0.07, 0.9480000000000001, 0.112, 192.0, 0.0, 0.0, 0.0, 0.0, 0.0, 0.0, 0.0, 0.0, 0.0, 1.66655576605997E9, 0.0, 2022-10-23 13:09:26.059
25.0, -74961.31360069675, -106597.63742657154, 66142.4104741109, 20077.365050001747, 76982.671258768, 100746.68833573918, 43426.10906673778, 37228.08208800341, 0.07, 0.9480000000000001, 0.112, 192.0, 0.0, 0.0, 0.0, 0.0, 0.0, 0.0, 0.0, 0.0, 0.0, 1.6665557660599816E9, 0.0, 2022-10-23 13:09:26.059
26.0, -74992.0025458339, -106627.96874379739, 64758.85984407185, 20172.98581278155, 77060.9917713394, 100166.74997410178, 42607.029391173055, 36509.87583516548, 0.07, 0.9480000000000001, 0.112, 192.0, 0.0, 0.0, 0.0, 0.0, 0.0, 0.0, 0.0, 0.0, 0.0, 1.6665557660599935E9, 0.0, 2022-10-23 13:09:26.059
27.0, -75014.37664203366, -106643.88318584958, 65342.84387145566, 20506.92087494384, 77183.76990363239, 100510.29628637986, 43100.041818623766, 37181.38929383628, 0.076, 0.9480000000000001, 0.12, 192.0, 2.0, 96.0, 29.0, 160.0, 3.0, 192.0, 0.0, 0.0, 0.0, 1.6665557660600052E9, 0.0, 2022-10-23 13:09:26.060
28.0, -75038.62828476766, -106670.30294779575, 67489.97479557691, 20756.031066898235, 77232.6755205006, 101472.76240262538, 44457.21739020555, 38541.2470747527, 0.076, 0.9480000000000001, 0.12, 192.0, 0.0, 0.0, 0.0, 0.0, 0.0, 0.0, 0.0, 0.0, 0.0, 1.6665557660600178E9, 0.0, 2022-10-23 13:09:26.060
29.0, -74975.08227528122, -106613.68597909046, 66556.54359537883, 20141.715722288576, 76993.46715133991, 100933.14658798535, 43699.80617759302, 37525.740268914735, 0.076, 0.9480000000000001, 0.12, 192.0, 0.0, 0.0, 0.0, 0.0, 0.0, 0.0, 0.0, 0.0, 0.0, 1.6665557660600312E9, 0.0, 2022-10-23 13:09:26.060
30.0, -74980.6478596506, -106614.4682901464, 64823.25521984759, 20123.54375404641, 77040.15994550705, 100182.41854696495, 42631.23633041815, 36501.426875761375, 0.076, 0.9480000000000001, 0.12, 192.0, 0.0, 0.0, 0.0, 0.0, 0.0, 0.0, 0.0, 0.0, 0.0, 1.6665557660600429E9, 0.0, 2022-10-23 13:09:26.060
31.0, -75017.08120311276, -106643.3690957271, 65087.07285965358, 20435.596458386954, 77156.63488586365, 100383.65130229609, 42923.574796149114, 36981.430587939096, 0.076, 0.9480000000000001, 0.12, 192.0, 0.0, 0.0, 0.0, 0.0, 0.0, 0.0, 0.0, 0.0, 0.0, 1.6665557660600543E9, 0.0, 2022-10-23 13:09:26.060
32.0, -75052.6651802856, -106681.56822700122, 67207.24757996172, 20777.01935494177, 77247.15945090765, 101371.59840722066, 44306.90190874361, 38419.65358491583, 0.076, 0.9480000000000001, 0.12, 192.0, 0.0, 0.0, 0.0, 0.0, 0.0, 0.0, 0.0, 0.0, 0.0, 1.666555766060066E9, 0.0, 2022-10-23 13:09:26.060
33.0, -74996.71876391396, -106637.20001425744, 67013.01092064512, 20237.068264134916, 77005.20181717895, 101161.64847155196, 44014.07170463463, 37875.88034580712, 0.076, 0.9480000000000001, 0.12, 192.0, 0.0, 0.0, 0.0, 0.0, 0.0, 0.0, 0.0, 0.0, 0.0, 1.6665557660600777E9, 0.0, 2022-10-23 13:09:26.060
34.0, -74962.67705710854, -106597.63742657154, 64932.44349151177, 20071.598299932277, 77012.35437540464, 100204.59147746462, 42669.949551814745, 36518.68242248087, 0.076, 0.9480000000000001, 0.12, 192.0, 0.0, 0.0, 0.0, 0.0, 0.0, 0.0, 0.0, 0.0, 0.0, 1.6665557660601003E9, 0.0, 2022-10-23 13:09:26.060
35.0, -75000.80913314929, -106629.48866242036, 64885.97421478918, 20389.12718166437, 77151.78455731685, 100270.10444046312, 42768.56544835156, 36817.502894103876, 0.076, 0.9480000000000001, 0.12, 192.0, 0.0, 0.0, 0.0, 0.0, 0.0, 0.0, 0.0, 0.0, 0.0, 1.6665557660601125E9, 0.0, 2022-10-23 13:09:26.060
36.0, -75057.3143431323, -106684.74217471387, 66783.63731904475, 20768.615099026574, 77262.24687841498, 101184.84958229656, 44046.57114107265, 38193.029247883474, 0.076, 0.9480000000000001, 0.12, 192.0, 0.0, 0.0, 0.0, 0.0, 0.0, 0.0, 0.0, 0.0, 0.0, 1.666555766060124E9, 0.0, 2022-10-23 13:09:26.060
37.0, -75006.68764194104, -106644.26316550531, 67401.48423927835, 20389.104829919914, 77083.16470183906, 101374.70529969994, 44301.47043484097, 38222.35473660883, 0.076, 0.9520000000000001, 0.114, 192.0, 2.0, 96.0, 29.0, 192.0, 3.0, 144.0, 0.0, 0.0, 0.0, 1.6665557660601356E9, 0.0, 2022-10-23 13:09:26.060
38.0, -74961.58182163023, -106600.58785683964, 65174.75875315175, 20025.06196797633, 76992.1260466726, 100318.18304278649, 42816.956975097295, 36638.241903572314, 0.076, 0.9520000000000001, 0.114, 192.0, 0.0, 0.0, 0.0, 0.0, 0.0, 0.0, 0.0, 0.0, 0.0, 1.6665557660601485E9, 0.0, 2022-10-23 13:09:26.060
39.0, -74999.3562697597, -106632.14852001054, 64787.380669996826, 20317.892172085307, 77124.76129827039, 100218.650724727, 42685.70753165574, 36692.80251178772, 0.076, 0.9520000000000001, 0.114, 192.0, 0.0, 0.0, 0.0, 0.0, 0.0, 0.0, 0.0, 0.0, 0.0, 1.6665557660601597E9, 0.0, 2022-10-23 13:09:26.060
40.0, -75041.1093284022, -106672.06873560773, 66337.04946482772, 20707.684243641408, 77252.34505562128, 100983.57212347652, 43765.67676850281, 37905.11642755466, 0.076, 0.9520000000000001, 0.114, 192.0, 0.0, 0.0, 0.0, 0.0, 0.0, 0.0, 0.0, 0.0, 0.0, 1.6665557660601716E9, 0.0, 2022-10-23 13:09:26.060
41.0, -75016.92474090157, -106654.94729935496, 67624.5099454534, 20522.47768908473, 77129.27635065035, 101495.24825754741, 44477.82569859335, 38450.52134400861, 0.076, 0.9520000000000001, 0.114, 192.0, 0.0, 0.0, 0.0, 0.0, 0.0, 0.0, 0.0, 0.0, 0.0, 1.6665557660601833E9, 0.0, 2022-10-23 13:09:26.060
42.0, -74971.86362407966, -106611.94254302295, 65488.24196913743, 20009.415746857616, 76965.52747077077, 100461.4130212561, 43014.814617015676, 36820.05099297178, 0.076, 0.9520000000000001, 0.114, 192.0, 0.0, 0.0, 0.0, 0.0, 0.0, 0.0, 0.0, 0.0, 0.0, 1.6665557660601945E9, 0.0, 2022-10-23 13:09:26.060
43.0, -74996.02585983585, -106630.24862173184, 64769.63338489931, 20263.06334293644, 77095.18994035601, 100219.47773927185, 42664.38396744537, 36628.96592962336, 0.076, 0.9520000000000001, 0.114, 192.0, 0.0, 0.0, 0.0, 0.0, 0.0, 0.0, 0.0, 0.0, 0.0, 1.666555766060206E9, 0.0, 2022-10-23 13:09:26.060
44.0, -75037.62245626719, -106671.1746658295, 65928.9066110738, 20628.782585714172, 77221.94668316207, 100811.1507667483, 43503.37904731978, 37624.55733115165, 0.076, 0.9520000000000001, 0.114, 192.0, 0.0, 0.0, 0.0, 0.0, 0.0, 0.0, 0.0, 0.0, 0.0, 1.6665557660602176E9, 0.0, 2022-10-23 13:09:26.060
45.0, -75021.61860723718, -106661.11638082462, 67728.40085368167, 20637.209193373823, 77191.14597930264, 101584.6775871131, 44580.576667854395, 38598.288726602645, 0.076, 0.9520000000000001, 0.114, 192.0, 0.0, 0.0, 0.0, 0.0, 0.0, 0.0, 0.0, 0.0, 0.0, 1.6665557660602293E9, 0.0, 2022-10-23 13:09:26.060
46.0, -74956.2397547054, -106598.46444111639, 65861.58315677443, 20032.549802368856, 76978.17855813248, 100635.33194486285, 43249.7090994965, 37052.06210041787, 0.07, 0.9480000000000001, 0.116, 192.0, 2.0, 48.0, 29.0, 160.0, 3.0, 160.0, 0.0, 0.0, 0.0, 1.6665557660602407E9, 0.0, 2022-10-23 13:09:26.060
47.0, -74986.23579576443, -106618.11162449261, 64754.14362599178, 20217.957522625627, 77086.942146652, 100197.88595412803, 42628.82234201698, 36561.486013112786, 0.07, 0.9480000000000001, 0.116, 192.0, 0.0, 0.0, 0.0, 0.0, 0.0, 0.0, 0.0, 0.0, 0.0, 1.6665557660602531E9, 0.0, 2022-10-23 13:09:26.060
48.0, -75036.59427602224, -106660.93756686898, 65544.90364133164, 20543.980067250737, 77194.05170608184, 100627.12885464774, 43243.629425004656, 37349.63087435137, 0.07, 0.9480000000000001, 0.116, 192.0, 0.0, 0.0, 0.0, 0.0, 0.0, 0.0, 0.0, 0.0, 0.0, 1.6665557660602646E9, 0.0, 2022-10-23 13:09:26.060
49.0, -75028.30177882932, -106654.25439527685, 67644.42534976309, 20741.748302191296, 77235.80476472435, 101563.15285720264, 44551.85467622932, 38625.02141297119, 0.07, 0.9480000000000001, 0.116, 192.0, 0.0, 0.0, 0.0, 0.0, 0.0, 0.0, 0.0, 0.0, 0.0, 1.666555766060276E9, 0.0, 2022-10-23 13:09:26.060
50.0, -74966.11922575465, -106599.98435973935, 66305.645263868, 20106.176448604638, 76996.61874730811, 100843.38198225285, 43538.203065181144, 37363.287790213566, 0.07, 0.9480000000000001, 0.116, 192.0, 0.0, 0.0, 0.0, 0.0, 0.0, 0.0, 0.0, 0.0, 0.0, 1.666555766060301E9, 0.0, 2022-10-23 13:09:26.060
51.0, -74988.91800509907, -106619.5197843933, 64778.05999255896, 20159.641821341735, 77063.58457369621, 100194.84611688211, 42617.42295234477, 36524.292710339156, 0.07, 0.9480000000000001, 0.116, 192.0, 0.0, 0.0, 0.0, 0.0, 0.0, 0.0, 0.0, 0.0, 0.0, 1.6665557660603096E9, 0.0, 2022-10-23 13:09:26.060
52.0, -75028.0559096403, -106657.42834298949, 65245.837300519626, 20476.522502484622, 77184.79808387734, 100495.36532108371, 43040.92145453948, 37130.404964733716, 0.07, 0.9480000000000001, 0.116, 192.0, 0.0, 0.0, 0.0, 0.0, 0.0, 0.0, 0.0, 0.0, 0.0, 1.6665557660603187E9, 0.0, 2022-10-23 13:09:26.060
53.0, -75054.85565124222, -106688.05023289326, 67417.93512319746, 20767.47516005935, 77255.76487252294, 101490.33087376725, 44434.01627946094, 38544.48807769872, 0.07, 0.9480000000000001, 0.116, 192.0, 0.0, 0.0, 0.0, 0.0, 0.0, 0.0, 0.0, 0.0, 0.0, 1.6665557660603275E9, 0.0, 2022-10-23 13:09:26.060
54.0, -74984.17943527453, -106628.25931647532, 66737.43626325563, 20166.52615863397, 77004.79948577876, 101051.29790917611, 43825.2441674762, 37680.28023007873, 0.07, 0.9480000000000001, 0.116, 192.0, 0.0, 0.0, 0.0, 0.0, 0.0, 0.0, 0.0, 0.0, 0.0, 1.666555766060336E9, 0.0, 2022-10-23 13:09:26.060
55.0, -74991.26493826688, -106627.02997053028, 64842.61183054589, 20089.859675152264, 77032.00155878086, 100202.06573034117, 42628.978804228165, 36507.88652990896, 0.07, 0.9480000000000001, 0.116, 192.0, 0.0, 0.0, 0.0, 0.0, 0.0, 0.0, 0.0, 0.0, 0.0, 1.666555766060345E9, 0.0, 2022-10-23 13:09:26.060
56.0, -75017.46118276849, -106648.30883125172, 64980.030355457115, 20402.80644927102, 77152.45510965052, 100347.66499372304, 42842.057984120605, 36915.984680173955, 0.066, 0.9460000000000001, 0.122, 192.0, 2.0, 16.0, 29.0, 144.0, 3.0, 208.0, 0.0, 0.0, 0.0, 1.666555766060354E9, 0.0, 2022-10-23 13:09:26.060
57.0, -75046.71961626048, -106682.21642759042, 67017.12364162489, 20773.957165951393, 77264.34794239378, 101308.25356343432, 44187.32007590772, 38338.20382812069, 0.066, 0.9460000000000001, 0.122, 192.0, 0.0, 0.0, 0.0, 0.0, 0.0, 0.0, 0.0, 0.0, 0.0, 1.6665557660603633E9, 0.0, 2022-10-23 13:09:26.060
58.0, -74990.48262721093, -106630.24862173184, 67140.28175357362, 20308.16916324725, 77058.77894863833, 101253.55884475219, 44110.92181335948, 38023.33480397878, 0.066, 0.9460000000000001, 0.122, 192.0, 0.0, 0.0, 0.0, 0.0, 0.0, 0.0, 0.0, 0.0, 0.0, 1.666555766060372E9, 0.0, 2022-10-23 13:09:26.060
59.0, -74974.85875783667, -106605.39348189754, 65001.46567838975, 20058.522529425925, 77019.37282316362, 100266.59521658364, 42718.944575660775, 36580.39558892198, 0.066, 0.9460000000000001, 0.122, 192.0, 0.0, 0.0, 0.0, 0.0, 0.0, 0.0, 0.0, 0.0, 0.0, 1.6665557660603805E9, 0.0, 2022-10-23 13:09:26.060
60.0, -75006.33001402975, -106631.81324384372, 64851.55252832801, 20364.69672497472, 77152.83508930625, 100293.50671690784, 42753.9921109667, 36803.55540556376, 0.066, 0.9460000000000001, 0.122, 192.0, 0.0, 0.0, 0.0, 0.0, 0.0, 0.0, 0.0, 0.0, 0.0, 1.6665557660603888E9, 0.0, 2022-10-23 13:09:26.060
61.0, -75051.68170352957, -106674.7285931979, 66634.66294225013, 20749.973744150848, 77269.75706455196, 101163.19074191937, 43969.010587812736, 38127.85156105179, 0.066, 0.9460000000000001, 0.122, 192.0, 0.0, 0.0, 0.0, 0.0, 0.0, 0.0, 0.0, 0.0, 0.0, 1.6665557660603976E9, 0.0, 2022-10-23 13:09:26.060
62.0, -75002.5525692168, -106635.3671712121, 67496.25563576884, 20442.14551951236, 77108.01984167336, 101453.2493297159, 44379.299209034354, 38338.2485316096, 0.066, 0.9460000000000001, 0.122, 192.0, 0.0, 0.0, 0.0, 0.0, 0.0, 0.0, 0.0, 0.0, 0.0, 1.6665557660604062E9, 0.0, 2022-10-23 13:09:26.060
63.0, -74964.26403096486, -106598.33033064967, 65281.57773990366, 20028.079453477796, 76997.15518917504, 100395.11774720166, 42891.38828413347, 36724.7655063588, 0.066, 0.9460000000000001, 0.122, 192.0, 0.0, 0.0, 0.0, 0.0, 0.0, 0.0, 0.0, 0.0, 0.0, 1.666555766060415E9, 0.0, 2022-10-23 13:09:26.060
64.0, -75000.2503395379, -106625.64416237404, 64786.173675796235, 20301.620102121844, 77121.96733021348, 100257.14042867905, 42695.743464916166, 36696.9152327675, 0.066, 0.9460000000000001, 0.122, 192.0, 0.0, 0.0, 0.0, 0.0, 0.0, 0.0, 0.0, 0.0, 0.0, 1.6665557660604236E9, 0.0, 2022-10-23 13:09:26.060
65.0, -75052.55342156332, -106676.44967752096, 66174.52993089319, 20670.28977516768, 77238.03993916989, 100943.96483230172, 43671.37475864586, 37813.85425494364, 0.066, 0.9460000000000001, 0.122, 192.0, 0.0, 0.0, 0.0, 0.0, 0.0, 0.0, 0.0, 0.0, 0.0, 1.6665557660604398E9, 0.0, 2022-10-23 13:09:26.060
66.0, -75016.38829903463, -106651.61688943111, 67679.51758855791, 20574.579605410054, 77165.15090050113, 101562.3705461467, 44536.588434766345, 38539.973025318744, 0.062, 0.9460000000000001, 0.126, 192.0, 1.0, 240.0, 29.0, 144.0, 3.0, 240.0, 0.0, 0.0, 0.0, 1.6665557660604486E9, 0.0, 2022-10-23 13:09:26.060
67.0, -74968.26499322236, -106606.66753133149, 65617.99384570049, 20028.861764533733, 76977.93268894347, 100545.03089726341, 43107.082618127184, 36920.477380809476, 0.062, 0.9460000000000001, 0.126, 192.0, 0.0, 0.0, 0.0, 0.0, 0.0, 0.0, 0.0, 0.0, 0.0, 1.666555766060458E9, 0.0, 2022-10-23 13:09:26.060
68.0, -74999.42332499305, -106630.98622929887, 64711.585904548876, 20245.316057838925, 77088.28325131933, 100192.02979708074, 42619.50166457912, 36585.469434913335, 0.062, 0.9460000000000001, 0.126, 192.0, 0.0, 0.0, 0.0, 0.0, 0.0, 0.0, 0.0, 0.0, 0.0, 1.6665557660604668E9, 0.0, 2022-10-23 13:09:26.060
69.0, -75036.72838648896, -106665.51967448232, 65740.92844020468, 20602.988672612748, 77220.31500581682, 100731.69031520968, 43386.01003718496, 37522.36515550198, 0.062, 0.9460000000000001, 0.126, 192.0, 0.0, 0.0, 0.0, 0.0, 0.0, 0.0, 0.0, 0.0, 0.0, 1.666555766060475E9, 0.0, 2022-10-23 13:09:26.060
70.0, -75029.73229047445, -106661.09402908017, 67704.61859758123, 20680.839798550584, 77212.17897083508, 101596.18873550759, 44585.44934814565, 38645.45090740334, 0.062, 0.9460000000000001, 0.126, 192.0, 0.0, 0.0, 0.0, 0.0, 0.0, 0.0, 0.0, 0.0, 0.0, 1.6665557660604837E9, 0.0, 2022-10-23 13:09:26.060
71.0, -74960.12895824063, -106595.62576957057, 66012.4797835922, 20064.803369617865, 76986.60516579213, 100718.25691679203, 43356.55043799287, 37182.57393629241, 0.062, 0.9460000000000001, 0.126, 192.0, 0.0, 0.0, 0.0, 0.0, 0.0, 0.0, 0.0, 0.0, 0.0, 1.6665557660604937E9, 0.0, 2022-10-23 13:09:26.060
72.0, -74995.55647320229, -106628.32637170868, 64732.61889608132, 20212.70486267863, 77086.45040827399, 100193.05797732568, 42614.45017033222, 36553.66290255343, 0.062, 0.9460000000000001, 0.126, 192.0, 0.0, 0.0, 0.0, 0.0, 0.0, 0.0, 0.0, 0.0, 0.0, 1.666555766060502E9, 0.0, 2022-10-23 13:09:26.060
73.0, -75038.98591267895, -106668.87243615062, 65413.408328701065, 20537.92274450335, 77196.39863924964, 100584.1911535491, 43169.13106073512, 37277.81471941647, 0.062, 0.9460000000000001, 0.126, 192.0, 0.0, 0.0, 0.0, 0.0, 0.0, 0.0, 0.0, 0.0, 0.0, 1.6665557660605109E9, 0.0, 2022-10-23 13:09:26.060
74.0, -75053.04515994134, -106682.7305177129, 67567.62475581464, 20754.891127931016, 77233.32372108981, 101549.25007215144, 44522.84211192634, 38611.94564246484, 0.062, 0.9460000000000001, 0.126, 192.0, 0.0, 0.0, 0.0, 0.0, 0.0, 0.0, 0.0, 0.0, 0.0, 1.6665557660605192E9, 0.0, 2022-10-23 13:09:26.060
75.0, -74986.36990623116, -106621.71025534991, 66478.91598688555, 20133.043245439916, 76994.36122111812, 100937.54988164305, 43664.42336612027, 37495.408951688885, 0.06, 0.9480000000000001, 0.128, 192.0, 1.0, 224.0, 29.0, 160.0, 4.0, 0.0, 0.0, 0.0, 0.0, 1.666555766060528E9, 0.0, 2022-10-23 13:09:26.060
76.0, -74986.99575507591, -106616.50229889182, 64818.87427793435, 20160.602946353312, 77063.36105625166, 100222.1599486065, 42646.70373758122, 36534.95449244434, 0.06, 0.9480000000000001, 0.128, 192.0, 0.0, 0.0, 0.0, 0.0, 0.0, 0.0, 0.0, 0.0, 0.0, 1.666555766060537E9, 0.0, 2022-10-23 13:09:26.060
77.0, -75012.25322631041, -106638.04938054674, 65173.32824150661, 20492.615758492444, 77200.6678224406, 100473.46061151751, 43001.403570342496, 37077.45368211909, 0.06, 0.9480000000000001, 0.128, 192.0, 0.0, 0.0, 0.0, 0.0, 0.0, 0.0, 0.0, 0.0, 0.0, 1.666555766060546E9, 0.0, 2022-10-23 13:09:26.060
78.0, -75053.33573261926, -106681.34470955667, 67321.75556680627, 20803.841448288138, 77273.2886401759, 101464.17933275455, 44391.70442720705, 38513.75442907267, 0.06, 0.9480000000000001, 0.128, 192.0, 0.0, 0.0, 0.0, 0.0, 0.0, 0.0, 0.0, 0.0, 0.0, 1.666555766060556E9, 0.0, 2022-10-23 13:09:26.060
79.0, -74981.65368815108, -106618.78217682627, 66958.74088510763, 20244.936078183186, 77030.2357709689, 101180.55804736115, 43994.3351142806, 37860.21177294395, 0.06, 0.9480000000000001, 0.128, 192.0, 0.0, 0.0, 0.0, 0.0, 0.0, 0.0, 0.0, 0.0, 0.0, 1.6665557660605657E9, 0.0, 2022-10-23 13:09:26.060
80.0, -74976.78100785983, -106608.65683658801, 64966.95458495076, 20105.03650963742, 77030.2804744578, 100281.01209175732, 42721.64913673987, 36574.74059757478, 0.06, 0.9480000000000001, 0.128, 192.0, 0.0, 0.0, 0.0, 0.0, 0.0, 0.0, 0.0, 0.0, 0.0, 1.6665557660605743E9, 0.0, 2022-10-23 13:09:26.060
81.0, -75016.96944439047, -106643.50320619384, 64993.463753874756, 20399.766612025098, 77148.63296134866, 100375.98465394792, 42863.13567914196, 36897.49978750942, 0.06, 0.9480000000000001, 0.128, 192.0, 0.0, 0.0, 0.0, 0.0, 0.0, 0.0, 0.0, 0.0, 0.0, 1.6665557660605912E9, 0.0, 2022-10-23 13:09:26.060
82.0, -75055.52620357588, -106676.8296571767, 66956.84098682893, 20775.87941597455, 77266.82898602831, 101312.50039488083, 44174.06549144572, 38295.55669969996, 0.06, 0.9480000000000001, 0.128, 192.0, 0.0, 0.0, 0.0, 0.0, 0.0, 0.0, 0.0, 0.0, 0.0, 1.6665557660606E9, 0.0, 2022-10-23 13:09:26.060
83.0, -74996.29408076931, -106626.69469436344, 67339.36874143705, 20360.405190039302, 77066.31148651976, 101363.86470363912, 44255.559951729774, 38154.36072997579, 0.06, 0.9480000000000001, 0.128, 192.0, 0.0, 0.0, 0.0, 0.0, 0.0, 0.0, 0.0, 0.0, 0.0, 1.6665557660606089E9, 0.0, 2022-10-23 13:09:26.060
84.0, -74974.9481648145, -106606.17579295348, 65145.90265105995, 20057.851977092265, 77003.95011948945, 100339.70777269696, 42809.200919771305, 36633.413926769965, 0.06, 0.9480000000000001, 0.128, 192.0, 0.0, 0.0, 0.0, 0.0, 0.0, 0.0, 0.0, 0.0, 0.0, 1.6665557660606177E9, 0.0, 2022-10-23 13:09:26.060
85.0, -75016.0083193789, -106641.40214221504, 64877.480551896166, 20344.110768331382, 77121.92262672457, 100311.14224328307, 42762.776346537634, 36771.59241099267, 0.062, 0.9500000000000001, 0.12, 192.0, 1.0, 240.0, 29.0, 176.0, 3.0, 192.0, 0.0, 0.0, 0.0, 1.6665557660606263E9, 0.0, 2022-10-23 13:09:26.060
86.0, -75057.91784023259, -106680.2271223339, 66516.73513850394, 20733.142880576, 77249.26051488645, 101111.80408141663, 43888.23138335125, 38020.138504521674, 0.062, 0.9500000000000001, 0.12, 192.0, 0.0, 0.0, 0.0, 0.0, 0.0, 0.0, 0.0, 0.0, 0.0, 1.6665557660606356E9, 0.0, 2022-10-23 13:09:26.060
87.0, -75022.11034561519, -106652.33214525368, 67632.48951822394, 20496.77318296113, 77113.09368766472, 101525.959554429, 44472.43892817962, 38425.4203349853, 0.062, 0.9500000000000001, 0.12, 192.0, 0.0, 0.0, 0.0, 0.0, 0.0, 0.0, 0.0, 0.0, 0.0, 1.666555766060644E9, 0.0, 2022-10-23 13:09:26.060
88.0, -74968.37675194464, -106603.40417664102, 65455.47431176595, 20034.33794192528, 76981.84424422315, 100478.24388483094, 42996.016799928766, 36797.989821194395, 0.062, 0.9500000000000001, 0.12, 192.0, 0.0, 0.0, 0.0, 0.0, 0.0, 0.0, 0.0, 0.0, 0.0, 1.6665557660606527E9, 0.0, 2022-10-23 13:09:26.060
89.0, -74999.1998075485, -106628.79575834224, 64834.475795564154, 20299.720203843142, 77109.6515190186, 100283.7166528364, 42713.33428780249, 36677.82684300266, 0.062, 0.9500000000000001, 0.12, 192.0, 0.0, 0.0, 0.0, 0.0, 0.0, 0.0, 0.0, 0.0, 0.0, 1.6665557660606613E9, 0.0, 2022-10-23 13:09:26.060
90.0, -75046.67491277157, -106672.44871526345, 66077.47865646823, 20658.465702350823, 77217.76690694892, 100903.28465739306, 43596.22819378712, 37711.617375805065, 0.062, 0.9500000000000001, 0.12, 192.0, 0.0, 0.0, 0.0, 0.0, 0.0, 0.0, 0.0, 0.0, 0.0, 1.66655576606067E9, 0.0, 2022-10-23 13:09:26.060
91.0, -75030.82752595276, -106663.15038957006, 67786.82831368785, 20629.631952003474, 77170.87294708169, 101629.55988997935, 44604.04599953246, 38602.200281882324, 0.062, 0.9500000000000001, 0.12, 192.0, 0.0, 0.0, 0.0, 0.0, 0.0, 0.0, 0.0, 0.0, 0.0, 1.6665557660606785E9, 0.0, 2022-10-23 13:09:26.060
92.0, -74962.3417809417, -106603.6053423411, 65859.8397207069, 20054.387456701694, 76980.81606397821, 100674.760422082, 43252.48071580895, 37038.405184555675, 0.062, 0.9500000000000001, 0.12, 192.0, 0.0, 0.0, 0.0, 0.0, 0.0, 0.0, 0.0, 0.0, 0.0, 1.6665557660606873E9, 0.0, 2022-10-23 13:09:26.060
93.0, -74992.36017374518, -106624.61598212911, 64833.17939438575, 20255.91078471074, 77092.6418414881, 100276.05000448824, 42687.2274502787, 36608.71524914685, 0.062, 0.9500000000000001, 0.12, 192.0, 0.0, 0.0, 0.0, 0.0, 0.0, 0.0, 0.0, 0.0, 0.0, 1.6665557660606968E9, 0.0, 2022-10-23 13:09:26.060
94.0, -75045.13264240416, -106676.06969786521, 65711.84882066833, 20584.526131692666, 77195.95160436054, 100743.29087058197, 43353.84587691377, 37444.782250497614, 0.062, 0.9500000000000001, 0.12, 192.0, 0.0, 0.0, 0.0, 0.0, 0.0, 0.0, 0.0, 0.0, 0.0, 1.6665557660607052E9, 0.0, 2022-10-23 13:09:26.060
95.0, -75057.38139836567, -106692.6323405066, 67768.65634544568, 20711.77461287673, 77196.465694483, 101653.20803561308, 44620.698049151666, 38652.69287260686, 0.064, 0.9520000000000001, 0.11800000000000001, 192.0, 2.0, 0.0, 29.0, 192.0, 3.0, 176.0, 0.0, 0.0, 0.0, 1.666555766060714E9, 0.0, 2022-10-23 13:09:26.060
96.0, -74985.72170564196, -106621.97847628337, 66284.07583046865, 20080.628404692223, 76967.69558998295, 100870.62875874386, 43519.271137627504, 37303.18394937324, 0.064, 0.9520000000000001, 0.11800000000000001, 192.0, 0.0, 0.0, 0.0, 0.0, 0.0, 0.0, 0.0, 0.0, 0.0, 1.666555766060732E9, 0.0, 2022-10-23 13:09:26.060
97.0, -75013.7060897, -106646.96772658441, 64848.62444980437, 20168.604870868312, 77047.89364908858, 100266.2152369279, 42662.953455800234, 36543.33639661508, 0.064, 0.9520000000000001, 0.11800000000000001, 192.0, 0.0, 0.0, 0.0, 0.0, 0.0, 0.0, 0.0, 0.0, 0.0, 1.6665557660607407E9, 0.0, 2022-10-23 13:09:26.060
98.0, -75036.08018589976, -106667.86660765012, 65405.60756988616, 20500.550627774075, 77176.19266226205, 100607.16874684916, 43142.91246448904, 37207.026744726514, 0.064, 0.9520000000000001, 0.11800000000000001, 192.0, 0.0, 0.0, 0.0, 0.0, 0.0, 0.0, 0.0, 0.0, 0.0, 1.6665557660607493E9, 0.0, 2022-10-23 13:09:26.060
99.0, -75048.64186628365, -106677.16493334353, 67587.27193919086, 20781.646166044018, 77246.57830555181, 101599.96618032052, 44529.79350445193, 38605.24011912824, 0.064, 0.9520000000000001, 0.11800000000000001, 192.0, 0.0, 0.0, 0.0, 0.0, 0.0, 0.0, 0.0, 0.0, 0.0, 1.666555766060759E9, 0.0, 2022-10-23 13:09:26.060
100.0, -74967.9967722889, -106591.91537999098, 66763.74426647952, 20183.08880127535, 77008.71104105843, 101113.72633143979, 43842.34325198451, 37655.71566292235, 0.064, 0.9520000000000001, 0.11800000000000001, 192.0, 0.0, 0.0, 0.0, 0.0, 0.0, 0.0, 0.0, 0.0, 0.0, 1.6665557660607677E9, 0.0, 2022-10-23 13:09:26.060
101.0, -74960.97832452993, -106584.20402815391, 64972.408410597855, 20146.655457813198, 77044.85381184267, 100330.40944700355, 42727.348831575975, 36573.17597546292, 0.064, 0.9520000000000001, 0.11800000000000001, 192.0, 0.0, 0.0, 0.0, 0.0, 0.0, 0.0, 0.0, 0.0, 0.0, 1.6665557660607762E9, 0.0, 2022-10-23 13:09:26.060
102.0, -75016.56711299028, -106657.27188077831, 65167.76265713724, 20429.203859472735, 77141.0110164894, 100490.17971637008, 42966.82542167013, 37002.731800405, 0.064, 0.9520000000000001, 0.11800000000000001, 192.0, 0.0, 0.0, 0.0, 0.0, 0.0, 0.0, 0.0, 0.0, 0.0, 1.6665557660607855E9, 0.0, 2022-10-23 13:09:26.060
103.0, -75065.9197647476, -106712.3912826051, 67234.13672854146, 20785.244796901323, 77246.24302938498, 101442.34167842171, 44313.07099021328, 38417.75368663713, 0.064, 0.9520000000000001, 0.11800000000000001, 192.0, 0.0, 0.0, 0.0, 0.0, 0.0, 0.0, 0.0, 0.0, 0.0, 1.6665557660607944E9, 0.0, 2022-10-23 13:09:26.060
104.0, -75008.31931928627, -106661.18343605798, 67163.28169861814, 20286.555026358965, 77030.50399190235, 101294.59664757212, 44106.40676097951, 37965.64495153963, 0.062, 0.9540000000000001, 0.12, 192.0, 1.0, 240.0, 29.0, 208.0, 3.0, 192.0, 0.0, 0.0, 0.0, 1.6665557660608027E9, 0.0, 2022-10-23 13:09:26.060
105.0, -74994.57299644625, -106643.83848236066, 65058.79790291761, 20077.655622679667, 77005.47003811241, 100328.24132779137, 42743.08445967251, 36568.66092308294, 0.062, 0.9540000000000001, 0.12, 192.0, 0.0, 0.0, 0.0, 0.0, 0.0, 0.0, 0.0, 0.0, 0.0, 1.666555766060812E9, 0.0, 2022-10-23 13:09:26.060
106.0, -75042.47278481397, -106692.8335062067, 64960.02554416961, 20368.49652153212, 77125.43185060404, 100366.57456953223, 42803.92590807985, 36818.821647026736, 0.062, 0.9540000000000001, 0.12, 192.0, 0.0, 0.0, 0.0, 0.0, 0.0, 0.0, 0.0, 0.0, 0.0, 1.6665557660608206E9, 0.0, 2022-10-23 13:09:26.060
107.0, -75083.66704984511, -106740.12979747413, 66810.72763332458, 20751.87364242955, 77248.72407301952, 101260.51023727778, 44054.014271976266, 38172.040959839935, 0.062, 0.9540000000000001, 0.12, 192.0, 0.0, 0.0, 0.0, 0.0, 0.0, 0.0, 0.0, 0.0, 0.0, 1.6665557660608292E9, 0.0, 2022-10-23 13:09:26.060
108.0, -75034.1132323877, -106698.04146266478, 67505.91158937354, 20420.061995990516, 77094.58644325573, 101477.38921372763, 44356.567484923304, 38269.159289498246, 0.062, 0.9540000000000001, 0.12, 192.0, 0.0, 0.0, 0.0, 0.0, 0.0, 0.0, 0.0, 0.0, 0.0, 1.6665557660608377E9, 0.0, 2022-10-23 13:09:26.060
109.0, -75012.76731643287, -106678.37192754411, 65276.168617745476, 20028.81706104482, 76981.71013375642, 100416.53071838984, 42868.38833908896, 36677.82684300266, 0.062, 0.9540000000000001, 0.12, 192.0, 0.0, 0.0, 0.0, 0.0, 0.0, 0.0, 0.0, 0.0, 0.0, 1.6665557660608463E9, 0.0, 2022-10-23 13:09:26.060
110.0, -75043.07628191427, -106707.09391916919, 64876.72059258469, 20311.946608060196, 77107.3492893397, 100326.52024346832, 42738.56940729254, 36723.64791913604, 0.062, 0.9540000000000001, 0.12, 192.0, 0.0, 0.0, 0.0, 0.0, 0.0, 0.0, 0.0, 0.0, 0.0, 1.666555766060855E9, 0.0, 2022-10-23 13:09:26.060
111.0, -75082.72827657798, -106744.13075973163, 66361.90460466202, 20699.548208659675, 77233.86016295674, 101051.61083359848, 43768.80601272655, 37891.16893901455, 0.062, 0.9540000000000001, 0.12, 192.0, 0.0, 0.0, 0.0, 0.0, 0.0, 0.0, 0.0, 0.0, 0.0, 1.6665557660608635E9, 0.0, 2022-10-23 13:09:26.060
112.0, -75049.87121222868, -106719.61089606416, 67730.23369672701, 20546.59522135201, 77126.951769227, 101597.79806110836, 44532.92274867568, 38495.82833001952, 0.062, 0.9540000000000001, 0.12, 192.0, 0.0, 0.0, 0.0, 0.0, 0.0, 0.0, 0.0, 0.0, 0.0, 1.6665557660608802E9, 0.0, 2022-10-23 13:09:26.060
113.0, -74993.81303713478, -106661.76458141382, 65597.5867030128, 20019.988121984974, 76955.73740669935, 100549.94828104357, 43063.89904783953, 36851.79047009831, 0.062, 0.9540000000000001, 0.12, 192.0, 0.0, 0.0, 0.0, 0.0, 0.0, 0.0, 0.0, 0.0, 0.0, 1.6665557660608892E9, 0.0, 2022-10-23 13:09:26.060
114.0, -75026.58069450625, -106691.62651200611, 64797.30484453498, 20258.95062195666, 77083.87995766163, 100254.25705364431, 42654.1692202293, 36604.60252816707, 0.068, 0.9540000000000001, 0.12, 192.0, 2.0, 32.0, 29.0, 208.0, 3.0, 192.0, 0.0, 0.0, 0.0, 1.666555766060899E9, 0.0, 2022-10-23 13:09:26.060
115.0, -75071.3735903947, -106735.03359973832, 65946.7656548936, 20629.78841421466, 77221.18672385058, 100859.58699698294, 43501.34503857435, 37612.59914786806, 0.068, 0.9540000000000001, 0.12, 192.0, 0.0, 0.0, 0.0, 0.0, 0.0, 0.0, 0.0, 0.0, 0.0, 1.6665557660609083E9, 0.0, 2022-10-23 13:09:26.060
116.0, -75059.99655246694, -106726.47288161193, 67822.16642167169, 20667.6299175775, 77190.20720603553, 101674.53159982343, 44632.656232435256, 38647.10493649304, 0.068, 0.9540000000000001, 0.12, 192.0, 0.0, 0.0, 0.0, 0.0, 0.0, 0.0, 0.0, 0.0, 0.0, 1.6665557660609171E9, 0.0, 2022-10-23 13:09:26.060
117.0, -74983.75475212988, -106653.4720842209, 66036.35144667047, 20069.765456886944, 76984.70526751343, 100772.19167616269, 43358.3832810382, 37142.9666451176, 0.068, 0.9540000000000001, 0.12, 192.0, 0.0, 0.0, 0.0, 0.0, 0.0, 0.0, 0.0, 0.0, 0.0, 1.6665557660609257E9, 0.0, 2022-10-23 13:09:26.060
118.0, -75017.17061009057, -106681.65763397905, 64862.81780753349, 20227.680531463688, 77084.43875127302, 100308.34827522616, 42694.759988160135, 36598.83577809761, 0.068, 0.9540000000000001, 0.12, 192.0, 0.0, 0.0, 0.0, 0.0, 0.0, 0.0, 0.0, 0.0, 0.0, 1.6665557660609343E9, 0.0, 2022-10-23 13:09:26.060
119.0, -75053.11221517471, -106712.05600643826, 65596.7373367235, 20546.885794029928, 77184.99924957743, 100704.8235183744, 43268.61867530569, 37348.89326678435, 0.068, 0.9540000000000001, 0.12, 192.0, 0.0, 0.0, 0.0, 0.0, 0.0, 0.0, 0.0, 0.0, 0.0, 1.6665557660609431E9, 0.0, 2022-10-23 13:09:26.060
120.0, -75072.31236366181, -106732.82077703724, 67708.79837379437, 20734.95337187688, 77216.71637495952, 101637.60651798327, 44580.53196436548, 38634.3197386646, 0.068, 0.9540000000000001, 0.12, 192.0, 0.0, 0.0, 0.0, 0.0, 0.0, 0.0, 0.0, 0.0, 0.0, 1.666555766060952E9, 0.0, 2022-10-23 13:09:26.060
121.0, -75010.7556594319, -106675.28738680929, 66478.26778629635, 20113.46311729707, 76982.55950004573, 100972.95504486025, 43640.68581350873, 37435.95331143776, 0.068, 0.9540000000000001, 0.12, 192.0, 0.0, 0.0, 0.0, 0.0, 0.0, 0.0, 0.0, 0.0, 0.0, 1.6665557665397403E9, 0.0, 2022-10-23 13:09:26.539
122.0, -75013.99666237792, -106676.94141589898, 64894.91491257131, 20157.6078125963, 77042.79745135277, 100290.44452791745, 42674.978694317186, 36541.39179484747, 0.068, 0.9540000000000001, 0.12, 192.0, 0.0, 0.0, 0.0, 0.0, 0.0, 0.0, 0.0, 0.0, 0.0, 1.6665557665397851E9, 0.0, 2022-10-23 13:09:26.539
123.0, -75046.29493311583, -106707.7868232473, 65295.949911588425, 20469.839330892486, 77162.66985686659, 100547.55664438686, 43047.06818426469, 37102.86761556478, 0.068, 0.9540000000000001, 0.12, 192.0, 0.0, 0.0, 0.0, 0.0, 0.0, 0.0, 0.0, 0.0, 0.0, 1.666555766539828E9, 0.0, 2022-10-23 13:09:26.539
124.0, -75076.33567766377, -106737.00055325039, 67480.2741384833, 20780.036840443237, 77245.19249739558, 101559.35306064524, 44456.971521016545, 38542.27525499764, 0.066, 0.9540000000000001, 0.116, 192.0, 2.0, 16.0, 29.0, 208.0, 3.0, 160.0, 0.0, 0.0, 0.0, 1.6665557665398629E9, 0.0, 2022-10-23 13:09:26.539
125.0, -75010.04040360932, -106678.70720371095, 66943.98873376712, 20198.71267064961, 77000.50795084334, 101202.52981216072, 43951.44211667086, 37771.52005094529, 0.066, 0.9540000000000001, 0.116, 192.0, 0.0, 0.0, 0.0, 0.0, 0.0, 0.0, 0.0, 0.0, 0.0, 1.6665557665398748E9, 0.0, 2022-10-23 13:09:26.539
126.0, -75003.89367388411, -106671.39818327405, 64984.165428181346, 20090.26200655246, 77007.70521255794, 100312.75156888385, 42702.873671397414, 36531.10999239802, 0.066, 0.9540000000000001, 0.116, 192.0, 0.0, 0.0, 0.0, 0.0, 0.0, 0.0, 0.0, 0.0, 0.0, 1.6665557665398855E9, 0.0, 2022-10-23 13:09:26.539
127.0, -75039.67881675706, -106704.41170983455, 65070.286699567645, 20409.400213885336, 77143.71557756848, 100433.74156162042, 42880.5700398171, 36904.54058701284, 0.066, 0.9540000000000001, 0.116, 192.0, 0.0, 0.0, 0.0, 0.0, 0.0, 0.0, 0.0, 0.0, 0.0, 1.666555766539994E9, 0.0, 2022-10-23 13:09:26.539
128.0, -75081.70009633305, -106747.50587314439, 67090.61617739394, 20782.517884077773, 77263.29741040438, 101391.42440455251, 44219.193663500984, 38325.88801692582, 0.066, 0.9540000000000001, 0.116, 192.0, 0.0, 0.0, 0.0, 0.0, 0.0, 0.0, 0.0, 0.0, 0.0, 1.6665557665400047E9, 0.0, 2022-10-23 13:09:26.540
129.0, -75020.23279908094, -106696.92387544202, 67325.51065987477, 20331.437329225224, 77059.7847771388, 101386.68583472799, 44212.979878542414, 38083.99743843048, 0.066, 0.9540000000000001, 0.116, 192.0, 0.0, 0.0, 0.0, 0.0, 0.0, 0.0, 0.0, 0.0, 0.0, 1.6665557665400157E9, 0.0, 2022-10-23 13:09:26.540
130.0, -74992.27076676735, -106671.33112804069, 65171.98713683929, 20057.7849218589, 77008.62163408061, 100394.49189835691, 42809.558547682595, 36614.884330616514, 0.066, 0.9540000000000001, 0.116, 192.0, 0.0, 0.0, 0.0, 0.0, 0.0, 0.0, 0.0, 0.0, 0.0, 1.6665557665400271E9, 0.0, 2022-10-23 13:09:26.540
131.0, -75035.27552309936, -106706.19984939098, 64951.19660510977, 20348.335248033436, 77128.62815006115, 100374.77765974733, 42788.45850091678, 36780.644867497074, 0.066, 0.9540000000000001, 0.116, 192.0, 0.0, 0.0, 0.0, 0.0, 0.0, 0.0, 0.0, 0.0, 0.0, 1.6665557665400376E9, 0.0, 2022-10-23 13:09:26.540
132.0, -75073.7205235625, -106737.15701546158, 66662.26734665243, 20732.427624753433, 77247.53943056338, 101202.01572203824, 43951.375061437495, 38063.29972306487, 0.066, 0.9540000000000001, 0.116, 192.0, 0.0, 0.0, 0.0, 0.0, 0.0, 0.0, 0.0, 0.0, 0.0, 1.666555766540048E9, 0.0, 2022-10-23 13:09:26.540
133.0, -75037.17542137807, -106703.53999180079, 67633.27182927988, 20466.263051779635, 77102.700126493, 101551.44054310805, 44439.26893940794, 38360.555572576, 0.066, 0.9540000000000001, 0.116, 192.0, 0.0, 0.0, 0.0, 0.0, 0.0, 0.0, 0.0, 0.0, 0.0, 1.666555766540073E9, 0.0, 2022-10-23 13:09:26.540
134.0, -75002.32905177225, -106669.85591290664, 65422.505488694376, 20021.15041269665, 76968.03086614977, 100491.58787627076, 42947.71468016085, 36730.420497706, 0.068, 0.9520000000000001, 0.12, 192.0, 2.0, 32.0, 29.0, 192.0, 3.0, 192.0, 0.0, 0.0, 0.0, 1.6665557665400832E9, 0.0, 2022-10-23 13:09:26.540
135.0, -75026.98302590645, -106694.19696261847, 64855.64289756333, 20285.750363558574, 77096.97807991244, 100309.80113861575, 42697.19632830576, 36653.150517124, 0.068, 0.9520000000000001, 0.12, 192.0, 0.0, 0.0, 0.0, 0.0, 0.0, 0.0, 0.0, 0.0, 0.0, 1.6665557665400999E9, 0.0, 2022-10-23 13:09:26.540
136.0, -75073.9663927515, -106738.0957887287, 66227.10123385207, 20667.786379788682, 77228.76396522093, 101005.47683304273, 43674.36989240288, 37773.4646527129, 0.068, 0.9520000000000001, 0.12, 192.0, 0.0, 0.0, 0.0, 0.0, 0.0, 0.0, 0.0, 0.0, 0.0, 1.6665557665401103E9, 0.0, 2022-10-23 13:09:26.540
137.0, -75054.36391286421, -106724.05889321076, 67809.62709303225, 20587.49891370522, 77153.12566198417, 101659.37711708274, 44589.807938314436, 38552.981740591735, 0.068, 0.9520000000000001, 0.12, 192.0, 0.0, 0.0, 0.0, 0.0, 0.0, 0.0, 0.0, 0.0, 0.0, 1.666555766540124E9, 0.0, 2022-10-23 13:09:26.540
138.0, -74992.02489757835, -106664.24562504837, 65782.99442326957, 20030.113462223228, 76977.28448835427, 100654.73325905004, 43179.74813935139, 36945.10900319922, 0.068, 0.9520000000000001, 0.12, 192.0, 0.0, 0.0, 0.0, 0.0, 0.0, 0.0, 0.0, 0.0, 0.0, 1.666555766540134E9, 0.0, 2022-10-23 13:09:26.540
139.0, -75028.2570753404, -106695.49336379688, 64860.80615053251, 20241.985647915084, 77096.06165838976, 100316.7301793969, 42693.68710442628, 36602.456760699366, 0.068, 0.9520000000000001, 0.12, 192.0, 0.0, 0.0, 0.0, 0.0, 0.0, 0.0, 0.0, 0.0, 0.0, 1.6665557665401442E9, 0.0, 2022-10-23 13:09:26.540
140.0, -75070.3677618942, -106736.08413172772, 65816.32087425243, 20573.417314698378, 77191.90593861413, 100816.26931622856, 43407.06538046186, 37482.57905037154, 0.068, 0.9520000000000001, 0.12, 192.0, 0.0, 0.0, 0.0, 0.0, 0.0, 0.0, 0.0, 0.0, 0.0, 1.6665557665401547E9, 0.0, 2022-10-23 13:09:26.540
141.0, -75053.00045645243, -106716.72752102942, 67809.38122384324, 20672.547301357663, 77183.14405478764, 101689.17199244165, 44624.319031753424, 38632.621006085996, 0.068, 0.9520000000000001, 0.12, 192.0, 0.0, 0.0, 0.0, 0.0, 0.0, 0.0, 0.0, 0.0, 0.0, 1.6665557665401647E9, 0.0, 2022-10-23 13:09:26.540
142.0, -74978.45738869398, -106649.38171498559, 66200.27914050569, 20064.06576205084, 76980.88311921158, 100854.35668878039, 43452.17120077267, 37224.79638156848, 0.068, 0.9520000000000001, 0.12, 192.0, 0.0, 0.0, 0.0, 0.0, 0.0, 0.0, 0.0, 0.0, 0.0, 1.6665557665401907E9, 0.0, 2022-10-23 13:09:26.540
143.0, -75031.07339514178, -106703.62939877862, 64879.581615874966, 20196.94688283764, 77085.53398675132, 100321.84872887716, 42687.719188656716, 36563.47531836931, 0.062, 0.9500000000000001, 0.122, 192.0, 1.0, 240.0, 29.0, 176.0, 3.0, 208.0, 0.0, 0.0, 0.0, 1.666555766540201E9, 0.0, 2022-10-23 13:09:26.540
144.0, -75070.3230584053, -106739.05691374028, 65490.11951567168, 20510.877133712427, 77189.49195021295, 100676.07917500487, 43193.717979635956, 37244.06358528895, 0.062, 0.9500000000000001, 0.122, 192.0, 0.0, 0.0, 0.0, 0.0, 0.0, 0.0, 0.0, 0.0, 0.0, 1.6665557665402257E9, 0.0, 2022-10-23 13:09:26.540
145.0, -75093.01007902743, -106759.62051863916, 67635.61876244769, 20753.125340119048, 77239.49280255947, 101633.00205862547, 44543.13749589175, 38589.415084053886, 0.062, 0.9500000000000001, 0.122, 192.0, 0.0, 0.0, 0.0, 0.0, 0.0, 0.0, 0.0, 0.0, 0.0, 1.666555766540236E9, 0.0, 2022-10-23 13:09:26.540
146.0, -75037.37658707816, -106710.62549479313, 66644.81063423284, 20145.627277568256, 77003.7266020449, 101067.86055181749, 43749.51645726162, 37541.29708305563, 0.062, 0.9500000000000001, 0.122, 192.0, 0.0, 0.0, 0.0, 0.0, 0.0, 0.0, 0.0, 0.0, 0.0, 1.6665557665402465E9, 0.0, 2022-10-23 13:09:26.540
147.0, -75053.67100878608, -106725.26588741135, 64921.021750095104, 20127.879992470742, 77033.81205008175, 100317.177214286, 42686.28867701157, 36524.18095161688, 0.062, 0.9500000000000001, 0.122, 192.0, 0.0, 0.0, 0.0, 0.0, 0.0, 0.0, 0.0, 0.0, 0.0, 1.6665557665402565E9, 0.0, 2022-10-23 13:09:26.540
148.0, -75085.07520974579, -106760.69340237301, 65189.0862213476, 20428.13097573888, 77142.41917639007, 100508.66460903462, 42971.92161940594, 37004.162312050146, 0.062, 0.9500000000000001, 0.122, 192.0, 0.0, 0.0, 0.0, 0.0, 0.0, 0.0, 0.0, 0.0, 0.0, 1.66655576654027E9, 0.0, 2022-10-23 13:09:26.540
149.0, -75120.45802121854, -106795.56212372328, 67326.60589535307, 20772.01256418378, 77244.4325380841, 101502.42316751757, 44360.81431636981, 38449.76138469713, 0.062, 0.9500000000000001, 0.122, 192.0, 0.0, 0.0, 0.0, 0.0, 0.0, 0.0, 0.0, 0.0, 0.0, 1.6665557665402803E9, 0.0, 2022-10-23 13:09:26.540
150.0, -75057.96254372151, -106739.21337595145, 67078.97091853272, 20244.53374678299, 77018.16582896303, 101273.22837987285, 44039.93267296942, 37876.59560162969, 0.062, 0.9500000000000001, 0.122, 192.0, 0.0, 0.0, 0.0, 0.0, 0.0, 0.0, 0.0, 0.0, 0.0, 1.6665557665402906E9, 0.0, 2022-10-23 13:09:26.540
151.0, -75042.7633574919, -106720.57202107574, 65041.67646666485, 20081.902454126175, 77012.62259633811, 100350.2354443354, 42736.5353985471, 36551.58419031909, 0.062, 0.9500000000000001, 0.122, 192.0, 0.0, 0.0, 0.0, 0.0, 0.0, 0.0, 0.0, 0.0, 0.0, 1.6665557665403008E9, 0.0, 2022-10-23 13:09:26.540
152.0, -75077.74383756446, -106757.20653023798, 65032.37814097144, 20378.577158281467, 77129.27635065035, 100435.84262559922, 42859.82762096258, 36859.41241495757, 0.062, 0.9500000000000001, 0.122, 192.0, 0.0, 0.0, 0.0, 0.0, 0.0, 0.0, 0.0, 0.0, 0.0, 1.666555766540311E9, 0.0, 2022-10-23 13:09:26.540
153.0, -75112.38904147017, -106789.0577660868, 66915.13263167533, 20741.256563813276, 77231.89320944468, 101319.58589787316, 44109.35719124761, 38203.936899177665, 0.064, 0.9480000000000001, 0.122, 192.0, 2.0, 0.0, 29.0, 160.0, 3.0, 208.0, 0.0, 0.0, 0.0, 1.666555766540321E9, 0.0, 2022-10-23 13:09:26.540
154.0, -75055.54855532033, -106738.16284396207, 67438.47637635189, 20367.803617454007, 77058.95776259396, 101449.40482966958, 44292.48503356994, 38171.638628439745, 0.064, 0.9480000000000001, 0.122, 192.0, 0.0, 0.0, 0.0, 0.0, 0.0, 0.0, 0.0, 0.0, 0.0, 1.666555766540332E9, 0.0, 2022-10-23 13:09:26.540
155.0, -75023.2055810935, -106706.66923602454, 65229.274657878246, 20034.49440413647, 76987.07455242569, 100415.52488988935, 42832.51378923819, 36622.52862722023, 0.064, 0.9480000000000001, 0.122, 192.0, 0.0, 0.0, 0.0, 0.0, 0.0, 0.0, 0.0, 0.0, 0.0, 1.6665557665403423E9, 0.0, 2022-10-23 13:09:26.540
156.0, -75069.7642647939, -106748.31053594477, 64905.95667433223, 20321.110823286872, 77113.04898417581, 100364.24998810887, 42751.823991754536, 36723.15618075802, 0.064, 0.9480000000000001, 0.122, 192.0, 0.0, 0.0, 0.0, 0.0, 0.0, 0.0, 0.0, 0.0, 0.0, 1.6665557665403523E9, 0.0, 2022-10-23 13:09:26.540
157.0, -75109.2821489909, -106781.12289680516, 66488.75075444588, 20705.471420940332, 77234.39660482366, 101140.66018350843, 43842.946749084804, 37945.84130595223, 0.064, 0.9480000000000001, 0.122, 192.0, 0.0, 0.0, 0.0, 0.0, 0.0, 0.0, 0.0, 0.0, 0.0, 1.6665557665403638E9, 0.0, 2022-10-23 13:09:26.540
158.0, -75070.7700932944, -106750.5457103903, 67714.6321790972, 20502.741098730698, 77118.07812667824, 101612.50550895996, 44505.74302741802, 38441.04420435956, 0.064, 0.9480000000000001, 0.122, 192.0, 0.0, 0.0, 0.0, 0.0, 0.0, 0.0, 0.0, 0.0, 0.0, 1.666555766540384E9, 0.0, 2022-10-23 13:09:26.540
159.0, -75007.8052291638, -106693.61581726263, 65531.44789116954, 20018.66936906211, 76984.10177041314, 100550.03768802139, 43015.574576327155, 36794.16767289254, 0.064, 0.9480000000000001, 0.122, 192.0, 0.0, 0.0, 0.0, 0.0, 0.0, 0.0, 0.0, 0.0, 0.0, 1.666555766540394E9, 0.0, 2022-10-23 13:09:26.540
160.0, -75057.02377045438, -106735.70415207198, 64834.87812696435, 20273.38984887479, 77111.37260334166, 100316.14903404105, 42682.08654905397, 36627.42365925595, 0.064, 0.9480000000000001, 0.122, 192.0, 0.0, 0.0, 0.0, 0.0, 0.0, 0.0, 0.0, 0.0, 0.0, 1.666555766540404E9, 0.0, 2022-10-23 13:09:26.540
161.0, -75116.0323758164, -106786.68848117454, 66032.26107743515, 20613.292826806646, 77209.45205801155, 100924.04942799204, 43543.41102163924, 37639.30948249215, 0.064, 0.9480000000000001, 0.122, 192.0, 0.0, 0.0, 0.0, 0.0, 0.0, 0.0, 0.0, 0.0, 0.0, 1.666555766540414E9, 0.0, 2022-10-23 13:09:26.540
162.0, -75085.85752080173, -106766.21428325347, 67793.82440970236, 20623.507574022722, 77168.48131042496, 101669.83773348782, 44584.77879581199, 38577.34514204802, 0.064, 0.9480000000000001, 0.122, 192.0, 0.0, 0.0, 0.0, 0.0, 0.0, 0.0, 0.0, 0.0, 0.0, 1.6665557665404243E9, 0.0, 2022-10-23 13:09:26.540
163.0, -75020.94805490352, -106706.15514590206, 65917.17194523478, 20037.087206493285, 76968.09792138315, 100731.55620474294, 43260.03560543485, 37039.20984735606, 0.068, 0.9480000000000001, 0.12, 192.0, 2.0, 32.0, 29.0, 160.0, 3.0, 192.0, 0.0, 0.0, 0.0, 1.6665557665404344E9, 0.0, 2022-10-23 13:09:26.540
164.0, -75046.22787788247, -106727.45635836797, 64819.813051201476, 20213.77774641249, 77066.71381791995, 100296.50185066485, 42644.557970113514, 36554.86989675402, 0.068, 0.9480000000000001, 0.12, 192.0, 0.0, 0.0, 0.0, 0.0, 0.0, 0.0, 0.0, 0.0, 0.0, 1.666555766540445E9, 0.0, 2022-10-23 13:09:26.540
165.0, -75089.97024178151, -106765.56608266427, 65658.56226188687, 20563.11316050448, 77198.7679241619, 100754.55614978744, 43291.59626860575, 37376.09533978645, 0.068, 0.9480000000000001, 0.12, 192.0, 0.0, 0.0, 0.0, 0.0, 0.0, 0.0, 0.0, 0.0, 0.0, 1.6665557665404553E9, 0.0, 2022-10-23 13:09:26.540
166.0, -75097.83805582978, -106772.51747518987, 67759.96151685256, 20712.221647765833, 77208.3791742777, 101690.73661455353, 44594.21123197213, 38634.78912529816, 0.068, 0.9480000000000001, 0.12, 192.0, 0.0, 0.0, 0.0, 0.0, 0.0, 0.0, 0.0, 0.0, 0.0, 1.6665557665404656E9, 0.0, 2022-10-23 13:09:26.540
167.0, -75023.31733981578, -106703.85291622317, 66350.28169754526, 20071.48654121, 76963.67227598099, 100931.04552400655, 43534.09034420137, 37328.97786247467, 0.068, 0.9480000000000001, 0.12, 192.0, 0.0, 0.0, 0.0, 0.0, 0.0, 0.0, 0.0, 0.0, 0.0, 1.6665557665404756E9, 0.0, 2022-10-23 13:09:26.540
168.0, -75034.40380506561, -106709.57496280373, 64838.72262701066, 20153.69625731662, 77048.36303572214, 100285.21421971491, 42626.251891404616, 36507.6183089755, 0.068, 0.9480000000000001, 0.12, 192.0, 0.0, 0.0, 0.0, 0.0, 0.0, 0.0, 0.0, 0.0, 0.0, 1.666555766540486E9, 0.0, 2022-10-23 13:09:26.540
169.0, -75087.42214291361, -106763.57677740774, 65328.58345849317, 20464.318450012022, 77151.53868812784, 100589.60027570729, 43060.52393442678, 37121.62072916278, 0.068, 0.9480000000000001, 0.12, 192.0, 0.0, 0.0, 0.0, 0.0, 0.0, 0.0, 0.0, 0.0, 0.0, 1.666555766540496E9, 0.0, 2022-10-23 13:09:26.540
170.0, -75099.8720645752, -106778.88772235964, 67525.55877274976, 20751.806587196184, 77225.6794244861, 101599.20622100905, 44469.53320140042, 38547.41615622237, 0.068, 0.9480000000000001, 0.12, 192.0, 0.0, 0.0, 0.0, 0.0, 0.0, 0.0, 0.0, 0.0, 0.0, 1.6665557665405061E9, 0.0, 2022-10-23 13:09:26.540
171.0, -75018.17643859106, -106705.90927671305, 66819.31070319543, 20165.430923155658, 76994.6741455405, 101160.03914595117, 43854.547304457104, 37671.563049741155, 0.068, 0.9480000000000001, 0.12, 192.0, 0.0, 0.0, 0.0, 0.0, 0.0, 0.0, 0.0, 0.0, 0.0, 1.6665557665405161E9, 0.0, 2022-10-23 13:09:26.540
172.0, -75019.96457814748, -106703.3835295896, 64931.68353220029, 20099.24740782349, 77022.30090168725, 100310.69520839397, 42663.98163604518, 36508.24415782025, 0.064, 0.9580000000000001, 0.116, 192.0, 2.0, 0.0, 29.0, 240.0, 3.0, 160.0, 0.0, 0.0, 0.0, 1.6665557665405269E9, 0.0, 2022-10-23 13:09:26.540
173.0, -75049.58063955077, -106733.02194273734, 65095.18654289086, 20410.763670297107, 77149.48232763796, 100466.8668469032, 42893.57875509009, 36929.95452045852, 0.064, 0.9580000000000001, 0.116, 192.0, 0.0, 0.0, 0.0, 0.0, 0.0, 0.0, 0.0, 0.0, 0.0, 1.6665557665405488E9, 0.0, 2022-10-23 13:09:26.540
174.0, -75086.34925917974, -106764.73906811942, 67179.17378892587, 20778.472218331364, 77256.45777660105, 101451.10356224819, 44265.52882975684, 38369.56332559149, 0.064, 0.9580000000000001, 0.116, 192.0, 0.0, 0.0, 0.0, 0.0, 0.0, 0.0, 0.0, 0.0, 0.0, 1.6665557665405593E9, 0.0, 2022-10-23 13:09:26.540
175.0, -75036.12488938867, -106722.02488446533, 67253.15806307293, 20287.78437230401, 77025.8771808001, 101374.54883748876, 44156.04998541474, 38006.21336772601, 0.064, 0.9580000000000001, 0.116, 192.0, 0.0, 0.0, 0.0, 0.0, 0.0, 0.0, 0.0, 0.0, 0.0, 1.6665557665405695E9, 0.0, 2022-10-23 13:09:26.540
176.0, -75013.84020016673, -106696.81211671974, 65118.521764102195, 20048.374837443214, 76992.05899143923, 100389.93214248803, 42771.35941640847, 36575.47820514181, 0.064, 0.9580000000000001, 0.116, 192.0, 0.0, 0.0, 0.0, 0.0, 0.0, 0.0, 0.0, 0.0, 0.0, 1.66655576654058E9, 0.0, 2022-10-23 13:09:26.540
177.0, -75042.49513655844, -106718.78388151931, 64970.173236152325, 20351.553899235, 77126.99647271591, 100405.08662522872, 42801.04253304512, 36800.47086482893, 0.064, 0.9580000000000001, 0.116, 192.0, 0.0, 0.0, 0.0, 0.0, 0.0, 0.0, 0.0, 0.0, 0.0, 1.66655576654059E9, 0.0, 2022-10-23 13:09:26.540
178.0, -75077.6767823311, -106748.51170164486, 66759.45273154411, 20736.361531777566, 77252.23329689901, 101261.56076926718, 44010.115445866046, 38124.47644763904, 0.064, 0.9580000000000001, 0.116, 192.0, 0.0, 0.0, 0.0, 0.0, 0.0, 0.0, 0.0, 0.0, 0.0, 1.6665557665406015E9, 0.0, 2022-10-23 13:09:26.540
179.0, -75028.52529627387, -106711.85484073816, 67571.91629075007, 20420.397272157345, 77091.52425426534, 101525.959554429, 44387.63640971618, 38301.21169104716, 0.064, 0.9580000000000001, 0.116, 192.0, 0.0, 0.0, 0.0, 0.0, 0.0, 0.0, 0.0, 0.0, 0.0, 1.6665557665406117E9, 0.0, 2022-10-23 13:09:26.540
180.0, -74981.43017070653, -106670.5264652403, 65348.811787225226, 20023.58675284228, 76990.56142456073, 100467.78326842586, 42903.48057788379, 36701.229119447366, 0.064, 0.9580000000000001, 0.116, 192.0, 0.0, 0.0, 0.0, 0.0, 0.0, 0.0, 0.0, 0.0, 0.0, 1.6665557665406291E9, 0.0, 2022-10-23 13:09:26.540
181.0, -75023.31733981578, -106704.74698600138, 64890.08693576896, 20297.909712542263, 77116.60291154419, 100351.66595598054, 42736.334232847, 36708.24756720633, 0.064, 0.9580000000000001, 0.116, 192.0, 0.0, 0.0, 0.0, 0.0, 0.0, 0.0, 0.0, 0.0, 0.0, 1.6665557665406392E9, 0.0, 2022-10-23 13:09:26.540
182.0, -75075.12868346319, -106752.53501564682, 66311.38966219302, 20661.527891341197, 77223.28778782938, 101048.01220274117, 43725.51068371662, 37835.33428136519, 0.062, 0.9540000000000001, 0.116, 192.0, 1.0, 240.0, 29.0, 208.0, 3.0, 160.0, 0.0, 0.0, 0.0, 1.6665557665406497E9, 0.0, 2022-10-23 13:09:26.540
183.0, -75042.98687493645, -106730.56325084726, 67767.51640647846, 20557.100541246004, 77142.5085833679, 101631.86211965825, 44548.50191456103, 38511.36279241595, 0.062, 0.9540000000000001, 0.116, 192.0, 0.0, 0.0, 0.0, 0.0, 0.0, 0.0, 0.0, 0.0, 0.0, 1.6665557665406604E9, 0.0, 2022-10-23 13:09:26.540
184.0, -74991.6002144337, -106682.1270206126, 65683.68562265464, 20020.14458419616, 76975.09401739766, 100613.69545623011, 43116.872682198606, 36893.45412176301, 0.062, 0.9540000000000001, 0.116, 192.0, 0.0, 0.0, 0.0, 0.0, 0.0, 0.0, 0.0, 0.0, 0.0, 1.6665557665406706E9, 0.0, 2022-10-23 13:09:26.540
185.0, -75026.20071485052, -106705.97633194643, 64832.64295251882, 20247.752397984554, 77093.75942871088, 100303.20737400143, 42677.92912458529, 36602.12148453254, 0.062, 0.9540000000000001, 0.116, 192.0, 0.0, 0.0, 0.0, 0.0, 0.0, 0.0, 0.0, 0.0, 0.0, 1.666555766540681E9, 0.0, 2022-10-23 13:09:26.540
186.0, -75065.69624730304, -106742.02969575283, 65902.64331133882, 20604.352129024523, 77213.52007550241, 100865.5549127525, 43468.91265736969, 37551.69064422735, 0.062, 0.9540000000000001, 0.116, 192.0, 0.0, 0.0, 0.0, 0.0, 0.0, 0.0, 0.0, 0.0, 0.0, 1.6665557665406911E9, 0.0, 2022-10-23 13:09:26.540
187.0, -75058.43193035507, -106740.53212887433, 67816.51143032449, 20658.04101920617, 77182.80877862082, 101689.82019303087, 44622.15091254126, 38622.85329375903, 0.062, 0.9540000000000001, 0.116, 192.0, 0.0, 0.0, 0.0, 0.0, 0.0, 0.0, 0.0, 0.0, 0.0, 1.666555766540701E9, 0.0, 2022-10-23 13:09:26.540
188.0, -74985.72170564196, -106666.70431693844, 66082.44074373732, 20040.48467165049, 76966.0192091488, 100797.58325786392, 43374.3871300682, 37146.81114516391, 0.062, 0.9540000000000001, 0.116, 192.0, 0.0, 0.0, 0.0, 0.0, 0.0, 0.0, 0.0, 0.0, 0.0, 1.6665557665407114E9, 0.0, 2022-10-23 13:09:26.540
189.0, -75012.92377864406, -106691.89473293957, 64818.40489130079, 20193.19178976915, 77071.4970912334, 100279.2686556898, 42646.748441070136, 36540.654187280445, 0.062, 0.9540000000000001, 0.116, 192.0, 0.0, 0.0, 0.0, 0.0, 0.0, 0.0, 0.0, 0.0, 0.0, 1.666555766540732E9, 0.0, 2022-10-23 13:09:26.540
190.0, -75047.12194766068, -106725.86938451165, 65524.34003643275, 20543.108349216982, 77204.1770463201, 100684.43872743116, 43218.97545087045, 37294.84674869141, 0.062, 0.9540000000000001, 0.116, 192.0, 0.0, 0.0, 0.0, 0.0, 0.0, 0.0, 0.0, 0.0, 0.0, 1.6665557665407422E9, 0.0, 2022-10-23 13:09:26.540
191.0, -75064.466901358, -106746.00830626588, 67701.37759463521, 20755.53932852022, 77238.15169789216, 101673.92810272315, 44592.06546450442, 38644.17685796939, 0.062, 0.9540000000000001, 0.116, 192.0, 0.0, 0.0, 0.0, 0.0, 0.0, 0.0, 0.0, 0.0, 0.0, 1.6665557665407526E9, 0.0, 2022-10-23 13:09:26.540
192.0, -74984.71587714147, -106677.20963683244, 66563.5620431378, 20130.159870405183, 76994.2271106514, 101044.61473758396, 43707.74104687465, 37496.01244878917, 0.064, 0.9480000000000001, 0.112, 192.0, 2.0, 0.0, 29.0, 160.0, 3.0, 128.0, 0.0, 0.0, 0.0, 1.666555766540763E9, 0.0, 2022-10-23 13:09:26.540
193.0, -74994.43888597953, -106679.48951476689, 64893.59615964844, 20144.08500720084, 77055.3814834811, 100315.59024042968, 42682.6229909209, 36532.89813195445, 0.064, 0.9480000000000001, 0.112, 192.0, 0.0, 0.0, 0.0, 0.0, 0.0, 0.0, 0.0, 0.0, 0.0, 1.666555766540774E9, 0.0, 2022-10-23 13:09:26.540
194.0, -75032.213334109, -106713.97825646141, 65241.90339349549, 20449.789816116074, 77173.15282501612, 100553.4351531786, 43028.94091951143, 37065.09316743531, 0.064, 0.9480000000000001, 0.112, 192.0, 0.0, 0.0, 0.0, 0.0, 0.0, 0.0, 0.0, 0.0, 0.0, 1.6665557665407848E9, 0.0, 2022-10-23 13:09:26.540
195.0, -75067.6632008151, -106745.67303009905, 67406.98276841435, 20778.494570075818, 77266.62782032821, 101555.93324374358, 44431.579939315314, 38505.014896990644, 0.064, 0.9480000000000001, 0.112, 192.0, 0.0, 0.0, 0.0, 0.0, 0.0, 0.0, 0.0, 0.0, 0.0, 1.6665557665407948E9, 0.0, 2022-10-23 13:09:26.540
196.0, -75003.44663899501, -106688.05023289326, 66996.87296114839, 20223.61251397282, 77032.1356692476, 101255.90577792, 44009.266079576744, 37823.59961552615, 0.064, 0.9480000000000001, 0.112, 192.0, 0.0, 0.0, 0.0, 0.0, 0.0, 0.0, 0.0, 0.0, 0.0, 1.666555766540805E9, 0.0, 2022-10-23 13:09:26.540
197.0, -75000.8538366382, -106687.60319800416, 64993.799030041584, 20077.767381401944, 77015.50597137284, 100346.48035126692, 42730.343965332984, 36540.09539366906, 0.064, 0.9480000000000001, 0.112, 192.0, 0.0, 0.0, 0.0, 0.0, 0.0, 0.0, 0.0, 0.0, 0.0, 1.6665557665408154E9, 0.0, 2022-10-23 13:09:26.540
198.0, -75037.39893882262, -106721.55549783177, 65038.614277674475, 20379.158303637305, 77136.38420538715, 100450.48301821745, 42883.453414851836, 36884.82634840326, 0.064, 0.9480000000000001, 0.112, 192.0, 0.0, 0.0, 0.0, 0.0, 0.0, 0.0, 0.0, 0.0, 0.0, 1.6665557665408256E9, 0.0, 2022-10-23 13:09:26.540
199.0, -75067.52909034838, -106751.41742842406, 67027.22663011869, 20770.067962416168, 77267.09720696179, 101398.66636975603, 44206.56492788374, 38297.14367355629, 0.064, 0.9480000000000001, 0.112, 192.0, 0.0, 0.0, 0.0, 0.0, 0.0, 0.0, 0.0, 0.0, 0.0, 1.6665557665408368E9, 0.0, 2022-10-23 13:09:26.540
200.0, -75014.64486296712, -106704.97050344593, 67397.68444272094, 20352.425617268756, 77072.48056798942, 101461.58653039772, 44290.96511494698, 38152.46083169709, 0.064, 0.9480000000000001, 0.112, 192.0, 0.0, 0.0, 0.0, 0.0, 0.0, 0.0, 0.0, 0.0, 0.0, 1.6665557665408473E9, 0.0, 2022-10-23 13:09:26.540
201.0, -74986.83929286472, -106676.85200892115, 65184.459410245356, 20035.991971014973, 76996.03760195227, 100422.31982020376, 42833.16198982739, 36618.97469985184, 0.064, 0.9480000000000001, 0.112, 192.0, 0.0, 0.0, 0.0, 0.0, 0.0, 0.0, 0.0, 0.0, 0.0, 1.6665557665408585E9, 0.0, 2022-10-23 13:09:26.540
202.0, -75009.8615896537, -106697.75088998687, 64892.143296258844, 20333.493689715113, 77133.0537954633, 100365.81461022075, 42766.24086692821, 36742.199867033945, 0.068, 0.9500000000000001, 0.116, 192.0, 2.0, 32.0, 29.0, 176.0, 3.0, 160.0, 0.0, 0.0, 0.0, 1.666555766540869E9, 0.0, 2022-10-23 13:09:26.540
203.0, -75073.22878518449, -106750.72452434595, 66527.57573456476, 20712.892200099493, 77249.72990152001, 101148.81857023461, 43880.497679769716, 37984.64393432665, 0.068, 0.9500000000000001, 0.116, 192.0, 0.0, 0.0, 0.0, 0.0, 0.0, 0.0, 0.0, 0.0, 0.0, 1.66655576654088E9, 0.0, 2022-10-23 13:09:26.540
204.0, -75036.75073823342, -106718.02392220782, 67616.55272442731, 20464.89959536786, 77111.46201031948, 101557.58727283326, 44452.05413723637, 38371.19500293672, 0.068, 0.9500000000000001, 0.116, 192.0, 0.0, 0.0, 0.0, 0.0, 0.0, 0.0, 0.0, 0.0, 0.0, 1.6665557665409002E9, 0.0, 2022-10-23 13:09:26.540
205.0, -74975.64106889261, -106666.05611634924, 65442.80087265979, 20022.8267935308, 76993.89183448456, 100530.79283604537, 42994.675695261445, 36769.69251271397, 0.068, 0.9500000000000001, 0.116, 192.0, 0.0, 0.0, 0.0, 0.0, 0.0, 0.0, 0.0, 0.0, 0.0, 1.6665557665409105E9, 0.0, 2022-10-23 13:09:26.540
206.0, -75009.95099663151, -106693.95109342947, 64799.808239913975, 20285.571549602933, 77113.36190859818, 100310.47169094942, 42691.74250265867, 36642.980473396834, 0.068, 0.9500000000000001, 0.116, 192.0, 0.0, 0.0, 0.0, 0.0, 0.0, 0.0, 0.0, 0.0, 0.0, 1.6665557665409207E9, 0.0, 2022-10-23 13:09:26.540
207.0, -75059.59422106674, -106732.88783227062, 66079.37855474693, 20656.208176160835, 77245.95245670706, 100950.22332074921, 43602.91136537926, 37712.332631627636, 0.068, 0.9500000000000001, 0.116, 192.0, 0.0, 0.0, 0.0, 0.0, 0.0, 0.0, 0.0, 0.0, 0.0, 1.666555766540931E9, 0.0, 2022-10-23 13:09:26.540
208.0, -75046.83137498276, -106726.00349497837, 67779.6981072066, 20603.12278307948, 77181.28885999786, 101679.06900394786, 44610.21508100213, 38594.17600562287, 0.068, 0.9500000000000001, 0.116, 192.0, 0.0, 0.0, 0.0, 0.0, 0.0, 0.0, 0.0, 0.0, 0.0, 1.6665557665409412E9, 0.0, 2022-10-23 13:09:26.540
209.0, -74973.60706014717, -106657.62950868958, 65812.16344978374, 20023.989084242476, 76979.60906977762, 100702.3201229954, 43235.158113856094, 37008.476198730015, 0.068, 0.9500000000000001, 0.116, 192.0, 0.0, 0.0, 0.0, 0.0, 0.0, 0.0, 0.0, 0.0, 0.0, 1.6665557665409515E9, 0.0, 2022-10-23 13:09:26.540
210.0, -74987.77806613184, -106669.69945069545, 64812.5487342535, 20235.928325167697, 77100.26378634736, 100321.31228701024, 42695.676409682805, 36601.69680138789, 0.068, 0.9500000000000001, 0.116, 192.0, 0.0, 0.0, 0.0, 0.0, 0.0, 0.0, 0.0, 0.0, 0.0, 1.666555766540962E9, 0.0, 2022-10-23 13:09:26.540
211.0, -75032.72742423146, -106717.0404454518, 65720.5660010059, 20574.02081179867, 77214.16827609162, 100802.50064164409, 43384.19954588408, 37451.26425638965, 0.062, 0.9480000000000001, 0.116, 192.0, 1.0, 240.0, 29.0, 160.0, 3.0, 160.0, 0.0, 0.0, 0.0, 1.6665557665409722E9, 0.0, 2022-10-23 13:09:26.540
212.0, -75055.28033438687, -106748.8916813006, 67762.06258083136, 20694.116734757037, 77217.43163078208, 101699.8561262913, 44638.13240982681, 38643.34984342454, 0.062, 0.9480000000000001, 0.116, 192.0, 0.0, 0.0, 0.0, 0.0, 0.0, 0.0, 0.0, 0.0, 0.0, 1.6665557665409834E9, 0.0, 2022-10-23 13:09:26.540
213.0, -74988.29215625432, -106690.2854073388, 66251.26346960825, 20063.529320183912, 76982.40303783453, 100911.57715458599, 43526.64721329775, 37285.92840265374, 0.062, 0.9480000000000001, 0.116, 192.0, 0.0, 0.0, 0.0, 0.0, 0.0, 0.0, 0.0, 0.0, 0.0, 1.6665557665409937E9, 0.0, 2022-10-23 13:09:26.540
214.0, -75012.43204026605, -106712.14541341609, 64816.102661621895, 20166.682620845157, 77060.36592249465, 100296.83712683167, 42668.11670876941, 36525.477352795286, 0.062, 0.9480000000000001, 0.116, 192.0, 0.0, 0.0, 0.0, 0.0, 0.0, 0.0, 0.0, 0.0, 0.0, 1.666555766541004E9, 0.0, 2022-10-23 13:09:26.541
215.0, -75062.65641005713, -106756.73714360442, 65374.89627300457, 20481.931624642806, 77173.28693548286, 100627.48648255903, 43140.856103999155, 37179.35528509084, 0.062, 0.9480000000000001, 0.116, 192.0, 0.0, 0.0, 0.0, 0.0, 0.0, 0.0, 0.0, 0.0, 0.0, 1.666555766541014E9, 0.0, 2022-10-23 13:09:26.541
216.0, -75076.4697881305, -106773.47860020144, 67557.78998825431, 20740.58601147962, 77229.94860767706, 101619.0322183409, 44524.853768927314, 38568.69501694382, 0.062, 0.9480000000000001, 0.116, 192.0, 0.0, 0.0, 0.0, 0.0, 0.0, 0.0, 0.0, 0.0, 0.0, 1.6665557665410256E9, 0.0, 2022-10-23 13:09:26.541
217.0, -74987.8004178763, -106691.15712537256, 66656.47824483851, 20141.961591477586, 76998.4739420979, 101083.48442119175, 43783.02172220012, 37571.00255143673, 0.062, 0.9480000000000001, 0.116, 192.0, 0.0, 0.0, 0.0, 0.0, 0.0, 0.0, 0.0, 0.0, 0.0, 1.666555766541036E9, 0.0, 2022-10-23 13:09:26.541
218.0, -74990.81790337777, -106693.52641028482, 64867.80224654702, 20117.464079554567, 77044.07150078673, 100295.74189135336, 42676.2750954956, 36506.90305315293, 0.062, 0.9480000000000001, 0.116, 192.0, 0.0, 0.0, 0.0, 0.0, 0.0, 0.0, 0.0, 0.0, 0.0, 1.666555766541046E9, 0.0, 2022-10-23 13:09:26.541
219.0, -75035.99077892194, -106734.13952996011, 65129.25060144074, 20437.898688065852, 77176.93026982907, 100508.86577473472, 42976.92841016393, 36997.009753824444, 0.062, 0.9480000000000001, 0.116, 192.0, 0.0, 0.0, 0.0, 0.0, 0.0, 0.0, 0.0, 0.0, 0.0, 1.6665557665410564E9, 0.0, 2022-10-23 13:09:26.541
220.0, -75069.09371246025, -106765.20845475298, 67254.29800204016, 20781.288538132732, 77272.50632911996, 101507.42995827556, 44367.22926702849, 38438.49610549166, 0.062, 0.9480000000000001, 0.116, 192.0, 0.0, 0.0, 0.0, 0.0, 0.0, 0.0, 0.0, 0.0, 0.0, 1.6665557665410817E9, 0.0, 2022-10-23 13:09:26.541
221.0, -74996.6517086806, -106702.1318319001, 67142.0475413856, 20270.461770351147, 77052.11812879064, 101346.49739819735, 44137.98977589486, 37955.00552117891, 0.058, 0.9480000000000001, 0.116, 192.0, 1.0, 208.0, 29.0, 160.0, 3.0, 160.0, 0.0, 0.0, 0.0, 1.6665557665410929E9, 0.0, 2022-10-23 13:09:26.541
222.0, -74990.63908942213, -106693.81698296273, 65059.73667618474, 20053.5827939013, 77020.9821487644, 100394.46954661245, 42796.348666709506, 36579.36740867703, 0.058, 0.9480000000000001, 0.116, 192.0, 0.0, 0.0, 0.0, 0.0, 0.0, 0.0, 0.0, 0.0, 0.0, 1.6665557665411038E9, 0.0, 2022-10-23 13:09:26.541
223.0, -75038.3600638342, -106737.67110558404, 64972.900148975874, 20343.68608518673, 77130.2598274064, 100429.31591621827, 42856.63132150547, 36828.16467620905, 0.058, 0.9480000000000001, 0.116, 192.0, 0.0, 0.0, 0.0, 0.0, 0.0, 0.0, 0.0, 0.0, 0.0, 1.666555766541114E9, 0.0, 2022-10-23 13:09:26.541
224.0, -75066.8138345258, -106764.58260590823, 66852.88302336729, 20743.849366170092, 77263.81150052685, 101333.10870326862, 44118.40964775201, 38194.05742812841, 0.058, 0.9480000000000001, 0.116, 192.0, 0.0, 0.0, 0.0, 0.0, 0.0, 0.0, 0.0, 0.0, 0.0, 1.666555766541125E9, 0.0, 2022-10-23 13:09:26.541
225.0, -75006.28531054084, -106707.183326147, 67476.40728669254, 20387.18257989676, 77091.52425426534, 101503.74192044043, 44364.278836760386, 38232.524780335996, 0.058, 0.9480000000000001, 0.116, 192.0, 0.0, 0.0, 0.0, 0.0, 0.0, 0.0, 0.0, 0.0, 0.0, 1.6665557665411353E9, 0.0, 2022-10-23 13:09:26.541
226.0, -74984.67117365256, -106687.35732881515, 65238.81885276066, 20012.455584103536, 76991.14256991656, 100441.45291345751, 42876.27850488168, 36647.4508222879, 0.058, 0.9480000000000001, 0.116, 192.0, 0.0, 0.0, 0.0, 0.0, 0.0, 0.0, 0.0, 0.0, 0.0, 1.6665557665411491E9, 0.0, 2022-10-23 13:09:26.541
227.0, -75026.13365961715, -106722.22605016542, 64842.99181020162, 20296.83682880841, 77117.18405690003, 100346.8826826671, 42744.671433528834, 36696.93758451195, 0.058, 0.9480000000000001, 0.116, 192.0, 0.0, 0.0, 0.0, 0.0, 0.0, 0.0, 0.0, 0.0, 0.0, 1.6665557665411603E9, 0.0, 2022-10-23 13:09:26.541
228.0, -75059.43775885555, -106753.58554763622, 66410.9219802525, 20701.47045868283, 77260.54814583638, 101134.73697122777, 43842.455010706784, 37924.36127953068, 0.058, 0.9480000000000001, 0.116, 192.0, 0.0, 0.0, 0.0, 0.0, 0.0, 0.0, 0.0, 0.0, 0.0, 1.6665557665411866E9, 0.0, 2022-10-23 13:09:26.541
229.0, -75028.88292418515, -106728.59629733519, 67751.64666791519, 20528.177383920836, 77146.95658051451, 101670.3518236103, 44586.097548734855, 38501.55037660008, 0.058, 0.9480000000000001, 0.116, 192.0, 0.0, 0.0, 0.0, 0.0, 0.0, 0.0, 0.0, 0.0, 0.0, 1.6665557665412307E9, 0.0, 2022-10-23 13:09:26.541
230.0, -74985.36407773067, -106688.65372999356, 65607.64498801768, 20003.04549968785, 76979.20673837743, 100624.46899705757, 43115.263356597825, 36856.17141201156, 0.058, 0.9480000000000001, 0.116, 192.0, 0.0, 0.0, 0.0, 0.0, 0.0, 0.0, 0.0, 0.0, 0.0, 1.6665557665412714E9, 0.0, 2022-10-23 13:09:26.541
231.0, -75011.94030188803, -106713.46416633895, 64846.053999192, 20252.043932919973, 77108.53393179583, 100354.50462752636, 42731.50625604466, 36629.88235114603, 0.056, 0.9520000000000001, 0.116, 192.0, 1.0, 192.0, 29.0, 192.0, 3.0, 160.0, 0.0, 0.0, 0.0, 1.6665557665413125E9, 0.0, 2022-10-23 13:09:26.541
232.0, -75055.81677625379, -106753.16086449157, 65998.73346075219, 20618.165507097903, 77230.64151175518, 100946.02119279161, 43564.86869631633, 37622.858598573046, 0.056, 0.9520000000000001, 0.116, 192.0, 0.0, 0.0, 0.0, 0.0, 0.0, 0.0, 0.0, 0.0, 0.0, 1.6665557665413558E9, 0.0, 2022-10-23 13:09:26.541
233.0, -75046.94313370505, -106747.32705918874, 67822.54640132742, 20627.664998491407, 77184.75338038843, 101720.3079724679, 44646.35785178636, 38608.88345347446, 0.056, 0.9520000000000001, 0.116, 192.0, 0.0, 0.0, 0.0, 0.0, 0.0, 0.0, 0.0, 0.0, 0.0, 1.6665557665413961E9, 0.0, 2022-10-23 13:09:26.541
234.0, -74975.5516619148, -106679.3777560446, 65992.63143451589, 20034.29323843637, 76985.420523336, 100793.80581305097, 43346.022766354414, 37088.56249911338, 0.056, 0.9520000000000001, 0.116, 192.0, 0.0, 0.0, 0.0, 0.0, 0.0, 0.0, 0.0, 0.0, 0.0, 1.6665557665414367E9, 0.0, 2022-10-23 13:09:26.541
235.0, -75006.06179309629, -106707.42919533601, 64852.78187427305, 20207.742775409555, 77093.20063509949, 100348.22378733443, 42708.57336623351, 36577.04282725368, 0.056, 0.9520000000000001, 0.116, 192.0, 0.0, 0.0, 0.0, 0.0, 0.0, 0.0, 0.0, 0.0, 0.0, 1.6665557665415337E9, 0.0, 2022-10-23 13:09:26.541
236.0, -75045.80319473782, -106742.87906204214, 65639.42916863313, 20539.710884059776, 77206.45692425453, 100786.45208912517, 43325.079181799796, 37364.248915225144, 0.056, 0.9520000000000001, 0.116, 192.0, 0.0, 0.0, 0.0, 0.0, 0.0, 0.0, 0.0, 0.0, 0.0, 1.66655576654158E9, 0.0, 2022-10-23 13:09:26.541
237.0, -75068.8701950157, -106767.93536757653, 67764.83419714382, 20711.4393367099, 77226.43938379758, 101734.32251624139, 44644.659119207754, 38649.13894523847, 0.056, 0.9520000000000001, 0.116, 192.0, 0.0, 0.0, 0.0, 0.0, 0.0, 0.0, 0.0, 0.0, 0.0, 1.6665557665416324E9, 0.0, 2022-10-23 13:09:26.541
238.0, -74981.60898466218, -106688.25139859336, 66450.90925108305, 20073.453494722067, 76982.51479655682, 101017.83734772651, 43642.317490853966, 37393.21677603922, 0.056, 0.9520000000000001, 0.116, 192.0, 0.0, 0.0, 0.0, 0.0, 0.0, 0.0, 0.0, 0.0, 0.0, 1.66655576654167E9, 0.0, 2022-10-23 13:09:26.541
239.0, -74993.03072607884, -106697.99675917588, 64870.64091809284, 20134.60786755179, 77056.74493989289, 100331.41527550403, 42680.63368566438, 36510.524035754686, 0.056, 0.9520000000000001, 0.116, 192.0, 0.0, 0.0, 0.0, 0.0, 0.0, 0.0, 0.0, 0.0, 0.0, 1.6665557665416908E9, 0.0, 2022-10-23 13:09:26.541
240.0, -75030.13462187465, -106730.29502991379, 65295.882856355056, 20453.43315046229, 77175.72327562848, 100599.07741535634, 43068.928190341976, 37089.233051447045, 0.048, 0.9500000000000001, 0.112, 192.0, 1.0, 128.0, 29.0, 176.0, 3.0, 128.0, 0.0, 0.0, 0.0, 1.666555766541712E9, 0.0, 2022-10-23 13:09:26.541
241.0, -75073.89933751815, -106772.98686182343, 67492.99228107838, 20755.136997120026, 77254.96020972254, 101614.80773863885, 44481.714902128566, 38529.490057169205, 0.048, 0.9500000000000001, 0.112, 192.0, 0.0, 0.0, 0.0, 0.0, 0.0, 0.0, 0.0, 0.0, 0.0, 1.6665557670195503E9, 0.0, 2022-10-23 13:09:27.019
242.0, -75005.74886867391, -106710.71490177095, 66888.8916836848, 20169.23071971306, 77000.59735782116, 101218.71247514636, 43927.749267548235, 37712.93612872793, 0.048, 0.9500000000000001, 0.112, 192.0, 0.0, 0.0, 0.0, 0.0, 0.0, 0.0, 0.0, 0.0, 0.0, 1.6665557670196624E9, 0.0, 2022-10-23 13:09:27.019
243.0, -75002.37375526116, -106700.32134059923, 64967.178102395315, 20080.226073292026, 77020.60216910865, 100356.27041533834, 42713.714267458236, 36513.943852656346, 0.048, 0.9500000000000001, 0.112, 192.0, 0.0, 0.0, 0.0, 0.0, 0.0, 0.0, 0.0, 0.0, 0.0, 1.6665557670196874E9, 0.0, 2022-10-23 13:09:27.019
244.0, -75036.37075857769, -106729.64682932459, 65122.858002526526, 20398.201989913225, 77156.76899633039, 100528.1776819441, 42947.9381976054, 36932.32380537079, 0.048, 0.9500000000000001, 0.112, 192.0, 0.0, 0.0, 0.0, 0.0, 0.0, 0.0, 0.0, 0.0, 0.0, 1.6665557670197103E9, 0.0, 2022-10-23 13:09:27.019
245.0, -75069.04900897134, -106759.26289072787, 67169.51783532117, 20757.126302376546, 77259.98935222499, 101495.96351336999, 44296.48599582744, 38348.642092781316, 0.048, 0.9500000000000001, 0.112, 192.0, 0.0, 0.0, 0.0, 0.0, 0.0, 0.0, 0.0, 0.0, 0.0, 1.6665557670197327E9, 0.0, 2022-10-23 13:09:27.019
246.0, -75006.79940066331, -106707.04921568028, 67317.41932838193, 20287.091468225895, 77046.10550953216, 101439.27948943133, 44225.56391067075, 38042.19967629906, 0.048, 0.9500000000000001, 0.112, 192.0, 0.0, 0.0, 0.0, 0.0, 0.0, 0.0, 0.0, 0.0, 0.0, 1.666555767019755E9, 0.0, 2022-10-23 13:09:27.019
247.0, -74991.93549060053, -106691.80532596176, 65154.105741275045, 20027.431252888593, 77005.33592764568, 100439.03892505633, 42818.633355931444, 36578.607449365554, 0.048, 0.9500000000000001, 0.112, 192.0, 0.0, 0.0, 0.0, 0.0, 0.0, 0.0, 0.0, 0.0, 0.0, 1.6665557670197768E9, 0.0, 2022-10-23 13:09:27.019
248.0, -75019.85281942521, -106716.70516928496, 64973.593053053984, 20327.63753266782, 77135.44543212002, 100446.97379433797, 42834.14546658343, 36778.72261747392, 0.048, 0.9500000000000001, 0.112, 192.0, 0.0, 0.0, 0.0, 0.0, 0.0, 0.0, 0.0, 0.0, 0.0, 1.6665557670197988E9, 0.0, 2022-10-23 13:09:27.019
249.0, -75064.8692327582, -106757.16182674907, 66714.45866995558, 20715.462650711856, 77254.35671262226, 101286.4606125904, 44012.90941392296, 38074.40854005916, 0.048, 0.9500000000000001, 0.112, 192.0, 0.0, 0.0, 0.0, 0.0, 0.0, 0.0, 0.0, 0.0, 0.0, 1.6665557670198207E9, 0.0, 2022-10-23 13:09:27.019
250.0, -75031.43102305305, -106729.75858804687, 67642.4136927621, 20434.411815930824, 77107.43869631752, 101614.07013107183, 44468.88500081122, 38335.96865367516, 0.058, 0.9560000000000001, 0.112, 192.0, 1.0, 208.0, 29.0, 224.0, 3.0, 128.0, 0.0, 0.0, 0.0, 1.666555767019919E9, 0.0, 2022-10-23 13:09:27.019
251.0, -74998.57395870375, -106698.7343667429, 65412.916590323046, 19997.189342640562, 76977.97739243238, 100544.09212399628, 42969.52998274923, 36708.33697418415, 0.058, 0.9560000000000001, 0.112, 192.0, 0.0, 0.0, 0.0, 0.0, 0.0, 0.0, 0.0, 0.0, 0.0, 1.666555767019945E9, 0.0, 2022-10-23 13:09:27.019
252.0, -75018.75758394689, -106712.45833783846, 64878.17345597428, 20275.44620936468, 77115.73119351044, 100384.03128195183, 42742.592721294495, 36657.956142181894, 0.058, 0.9560000000000001, 0.112, 192.0, 0.0, 0.0, 0.0, 0.0, 0.0, 0.0, 0.0, 0.0, 0.0, 1.6665557670199676E9, 0.0, 2022-10-23 13:09:27.019
253.0, -75058.63309605517, -106748.82462606725, 66264.07101918114, 20657.057542450137, 77249.41697709763, 101077.67296763336, 43718.55929119102, 37779.924306860485, 0.058, 0.9560000000000001, 0.112, 192.0, 0.0, 0.0, 0.0, 0.0, 0.0, 0.0, 0.0, 0.0, 0.0, 1.6665557670199895E9, 0.0, 2022-10-23 13:09:27.019
254.0, -75037.80127022282, -106736.53116661683, 67808.86713372078, 20559.983916280737, 77163.87685106718, 101711.83666131934, 44605.11888326632, 38527.880731568424, 0.058, 0.9560000000000001, 0.112, 192.0, 0.0, 0.0, 0.0, 0.0, 0.0, 0.0, 0.0, 0.0, 0.0, 1.6665557670200124E9, 0.0, 2022-10-23 13:09:27.020
255.0, -74987.53219694283, -106688.69843348247, 65734.33467559036, 19994.28361586137, 76973.66350575251, 100676.8167825719, 43160.48093563091, 36896.49395900893, 0.058, 0.9560000000000001, 0.112, 192.0, 0.0, 0.0, 0.0, 0.0, 0.0, 0.0, 0.0, 0.0, 0.0, 1.6665557670200348E9, 0.0, 2022-10-23 13:09:27.020
0.0, -75014.51075250038, -106712.3912826051, 64808.97245514065, 20212.593103956355, 77096.03930664531, 100323.65922017804, 42665.9709413017, 36559.98844623428, 0.058, 0.9560000000000001, 0.112, 192.0, 0.0, 0.0, 0.0, 0.0, 0.0, 0.0, 0.0, 0.0, 0.0, 1.6665557670200567E9, 0.0, 2022-10-23 13:09:27.020
1.0, -75056.64379079864, -106751.30566970179, 65808.54246718198, 20573.93140482085, 77223.13132561819, 100847.36059276588, 43409.993458985504, 37476.454672390784, 0.058, 0.9560000000000001, 0.112, 192.0, 0.0, 0.0, 0.0, 0.0, 0.0, 0.0, 0.0, 0.0, 0.0, 1.6665557670200791E9, 0.0, 2022-10-23 13:09:27.020
2.0, -75054.09569193074, -106753.13851274711, 67770.28802279092, 20665.461798365333, 77210.48023825648, 101697.84446929031, 44600.1791477417, 38602.64731677143, 0.058, 0.9560000000000001, 0.112, 192.0, 0.0, 0.0, 0.0, 0.0, 0.0, 0.0, 0.0, 0.0, 0.0, 1.6665557670201018E9, 0.0, 2022-10-23 13:09:27.020
3.0, -74986.59342367572, -106690.0842416387, 66130.09466291603, 20046.765511842434, 76987.81215999273, 100856.72597369266, 43413.12270320925, 37183.62446828181, 0.058, 0.9560000000000001, 0.112, 192.0, 0.0, 0.0, 0.0, 0.0, 0.0, 0.0, 0.0, 0.0, 0.0, 1.6665557670201242E9, 0.0, 2022-10-23 13:09:27.020
4.0, -75012.49909549941, -106709.59731454818, 64823.32227508096, 20178.28317621746, 77078.15791108107, 100324.5756417007, 42656.650263863834, 36536.116783156016, 0.06, 0.9540000000000001, 0.114, 192.0, 1.0, 224.0, 29.0, 208.0, 3.0, 144.0, 0.0, 0.0, 0.0, 1.6665557670201554E9, 0.0, 2022-10-23 13:09:27.020
5.0, -75056.53203207637, -106749.67399235655, 65469.332393328245, 20489.732383457707, 77179.00898206342, 100697.08981479285, 43185.85016558769, 37242.27544573253, 0.06, 0.9540000000000001, 0.114, 192.0, 0.0, 0.0, 0.0, 0.0, 0.0, 0.0, 0.0, 0.0, 0.0, 1.66655576702018E9, 0.0, 2022-10-23 13:09:27.020
6.0, -75068.89254676015, -106765.61078615318, 67633.7635676579, 20730.594781708096, 77229.70273848805, 101670.62004454376, 44546.602016282326, 38594.04189515614, 0.06, 0.9540000000000001, 0.114, 192.0, 0.0, 0.0, 0.0, 0.0, 0.0, 0.0, 0.0, 0.0, 0.0, 1.6665557670202022E9, 0.0, 2022-10-23 13:09:27.020
7.0, -75002.7537349169, -106703.22706737842, 66585.64556665964, 20117.75465223249, 76991.2766803833, 101078.03059554465, 43716.905262101325, 37504.975498315755, 0.06, 0.9540000000000001, 0.114, 192.0, 0.0, 0.0, 0.0, 0.0, 0.0, 0.0, 0.0, 0.0, 0.0, 1.666555767020228E9, 0.0, 2022-10-23 13:09:27.020
8.0, -75013.37081353317, -106707.54095405829, 64890.824543335984, 20119.542791788914, 77047.42426245502, 100346.07801986672, 42681.39364497586, 36522.32575682709, 0.06, 0.9540000000000001, 0.114, 192.0, 0.0, 0.0, 0.0, 0.0, 0.0, 0.0, 0.0, 0.0, 0.0, 1.6665557670202496E9, 0.0, 2022-10-23 13:09:27.020
9.0, -75042.20456388051, -106732.79842529279, 65198.138677852, 20431.90842055183, 77170.40356044812, 100564.61102540625, 42999.23545113033, 37031.45379203007, 0.06, 0.9540000000000001, 0.114, 192.0, 0.0, 0.0, 0.0, 0.0, 0.0, 0.0, 0.0, 0.0, 0.0, 1.6665557670202713E9, 0.0, 2022-10-23 13:09:27.020
10.0, -75084.71758183451, -106773.03156531234, 67341.87213681605, 20762.714238490375, 77260.6822563031, 101556.64849956614, 44387.30113354935, 38469.54267854008, 0.06, 0.9540000000000001, 0.114, 192.0, 0.0, 0.0, 0.0, 0.0, 0.0, 0.0, 0.0, 0.0, 0.0, 1.6665557670203176E9, 0.0, 2022-10-23 13:09:27.020
11.0, -75015.96361588998, -106714.40293960607, 67032.9710284437, 20213.643635945755, 77024.91605578853, 101297.32356039567, 44023.81706521715, 37852.20984842895, 0.06, 0.9540000000000001, 0.114, 192.0, 0.0, 0.0, 0.0, 0.0, 0.0, 0.0, 0.0, 0.0, 0.0, 1.6665557670203407E9, 0.0, 2022-10-23 13:09:27.020
12.0, -75008.67694719756, -106707.5856575472, 65004.81844005805, 20064.579852173312, 77023.9772825214, 100377.79514524879, 42724.97954666371, 36542.48703032578, 0.06, 0.9540000000000001, 0.114, 192.0, 0.0, 0.0, 0.0, 0.0, 0.0, 0.0, 0.0, 0.0, 0.0, 1.666555767020351E9, 0.0, 2022-10-23 13:09:27.020
13.0, -75050.51941281788, -106746.20947196598, 65005.98073076973, 20359.734637705642, 77133.88081000815, 100460.92128287809, 42846.8636091785, 36850.270551475354, 0.06, 0.9540000000000001, 0.114, 192.0, 0.0, 0.0, 0.0, 0.0, 0.0, 0.0, 0.0, 0.0, 0.0, 1.6665557670203607E9, 0.0, 2022-10-23 13:09:27.020
14.0, -75081.67774458858, -106775.78082988034, 66947.98969602463, 20748.185604594422, 77261.46456735904, 101384.69652947146, 44141.09666837414, 38239.789097283974, 0.058, 0.9500000000000001, 0.12, 192.0, 1.0, 208.0, 29.0, 176.0, 3.0, 192.0, 0.0, 0.0, 0.0, 1.6665557670203705E9, 0.0, 2022-10-23 13:09:27.020
15.0, -75024.03259563835, -106723.67891355502, 67417.0634051637, 20354.057294613995, 77078.29202154781, 101488.11805106618, 44289.467548068475, 38169.828137138866, 0.058, 0.9500000000000001, 0.12, 192.0, 0.0, 0.0, 0.0, 0.0, 0.0, 0.0, 0.0, 0.0, 0.0, 1.6665557670203812E9, 0.0, 2022-10-23 13:09:27.020
16.0, -74997.948109859, -106692.38647131759, 65201.98317789831, 20021.888020263676, 76997.80338976425, 100445.87855885967, 42827.19407405783, 36621.67926093093, 0.058, 0.9500000000000001, 0.12, 192.0, 0.0, 0.0, 0.0, 0.0, 0.0, 0.0, 0.0, 0.0, 0.0, 1.6665557670203912E9, 0.0, 2022-10-23 13:09:27.020
17.0, -75044.75266274842, -106735.63709683862, 64894.803153849025, 20312.43834643821, 77125.47655409295, 100396.3470931467, 42755.62378831194, 36732.81213436271, 0.058, 0.9500000000000001, 0.12, 192.0, 0.0, 0.0, 0.0, 0.0, 0.0, 0.0, 0.0, 0.0, 0.0, 1.6665557670204008E9, 0.0, 2022-10-23 13:09:27.020
18.0, -75085.41048591262, -106773.18802752353, 66503.10057438619, 20687.455914909355, 77243.22554388351, 101181.80974505065, 43859.375281259454, 37963.47683232747, 0.058, 0.9500000000000001, 0.12, 192.0, 0.0, 0.0, 0.0, 0.0, 0.0, 0.0, 0.0, 0.0, 0.0, 1.6665557670204103E9, 0.0, 2022-10-23 13:09:27.020
19.0, -75050.25119188442, -106748.69051560051, 67709.08894647229, 20477.05894435155, 77124.53778082583, 101651.77752396793, 44508.67110594167, 38435.09864033444, 0.058, 0.9500000000000001, 0.12, 192.0, 0.0, 0.0, 0.0, 0.0, 0.0, 0.0, 0.0, 0.0, 0.0, 1.66655576702042E9, 0.0, 2022-10-23 13:09:27.020
