%OpenBCI Raw EEG Data
%Number of channels = 8
%Sample Rate = 250 Hz
%Board = OpenBCI_GUI$BoardCytonSerial
Sample Index, EXG Channel 0, EXG Channel 1, EXG Channel 2, EXG Channel 3, EXG Channel 4, EXG Channel 5, EXG Channel 6, EXG Channel 7, Accel Channel 0, Accel Channel 1, Accel Channel 2, Other, Other, Other, Other, Other, Other, Other, Analog Channel 0, Analog Channel 1, Analog Channel 2, Timestamp, Other, Timestamp (Formatted)
10.0, -75350.1892507302, -107181.95673012218, 66830.28540972297, 21277.49726504055, 77144.07320547977, 103195.97014140728, 44967.35125390902, 38578.865060670985, 0.0, 0.0, 0.0, 192.0, 0.0, 0.0, 0.0, 0.0, 0.0, 0.0, 0.0, 0.0, 0.0, 1.6665557841170924E9, 0.0, 2022-10-23 13:09:44.117
11.0, -75298.13203789378, -107138.25906971206, 67255.48264449628, 20865.644021707063, 76947.1096333396, 103268.81447658713, 45078.640589552, 38467.44161456128, 0.0, 0.0, 0.0, 192.0, 0.0, 0.0, 0.0, 0.0, 0.0, 0.0, 0.0, 0.0, 0.0, 1.6665557841171136E9, 0.0, 2022-10-23 13:09:44.117
12.0, -75275.17679633819, -107114.00742697805, 65019.83881233202, 20530.949000233293, 76872.92419349244, 102230.48653966028, 43619.96574639866, 36926.93703495706, 0.038, 0.962, 0.096, 192.0, 1.0, 48.0, 30.0, 16.0, 3.0, 0.0, 0.0, 0.0, 0.0, 1.6665557841171236E9, 0.0, 2022-10-23 13:09:44.117
13.0, -75306.04455543096, -107142.79647383648, 64698.80070672044, 20825.813213087706, 77003.90541600055, 102175.7694692337, 43546.58496935189, 37041.10974563476, 0.038, 0.962, 0.096, 192.0, 0.0, 0.0, 0.0, 0.0, 0.0, 0.0, 0.0, 0.0, 0.0, 1.6665557841171355E9, 0.0, 2022-10-23 13:09:44.117
14.0, -75353.02792227601, -107187.52231449155, 66311.27790347075, 21219.986226557045, 77129.9021994951, 102953.92310070076, 44648.97300588763, 38275.97657155712, 0.038, 0.962, 0.096, 192.0, 0.0, 0.0, 0.0, 0.0, 0.0, 0.0, 0.0, 0.0, 0.0, 1.6665557841171455E9, 0.0, 2022-10-23 13:09:44.117
15.0, -75321.46725910512, -107157.70508738818, 67481.39172570607, 21001.25205531741, 77004.08422995618, 103401.00269329581, 45269.34567324468, 38720.4410100509, 0.038, 0.962, 0.096, 192.0, 0.0, 0.0, 0.0, 0.0, 0.0, 0.0, 0.0, 0.0, 0.0, 1.6665557841171553E9, 0.0, 2022-10-23 13:09:44.117
16.0, -75267.93483113465, -107106.20666816315, 65279.29786196922, 20524.131718174427, 76864.25171664378, 102354.98575627635, 43790.37544612592, 37086.43908339013, 0.038, 0.962, 0.096, 192.0, 0.0, 0.0, 0.0, 0.0, 0.0, 0.0, 0.0, 0.0, 0.0, 1.6665557841171727E9, 0.0, 2022-10-23 13:09:44.117
17.0, -75307.49741882055, -107142.99763953658, 64610.82424054435, 20785.222445156865, 76993.15422691754, 102133.9046518689, 43475.48407023955, 36941.59977931974, 0.038, 0.962, 0.096, 192.0, 0.0, 0.0, 0.0, 0.0, 0.0, 0.0, 0.0, 0.0, 0.0, 1.6665557841171825E9, 0.0, 2022-10-23 13:09:44.117
18.0, -75349.04931176297, -107181.46499174417, 65875.3518313589, 21159.077722916332, 77116.91583596657, 102769.2082845221, 44370.917304863615, 37994.03166699787, 0.038, 0.962, 0.096, 192.0, 0.0, 0.0, 0.0, 0.0, 0.0, 0.0, 0.0, 0.0, 0.0, 1.666555784117192E9, 0.0, 2022-10-23 13:09:44.117
19.0, -75336.9793697571, -107175.38531725232, 67613.28936973684, 21128.455833012562, 77057.16962303754, 103499.21625843243, 45386.334703723755, 38894.94107901348, 0.038, 0.962, 0.096, 192.0, 0.0, 0.0, 0.0, 0.0, 0.0, 0.0, 0.0, 0.0, 0.0, 1.666555784117201E9, 0.0, 2022-10-23 13:09:44.117
20.0, -75274.34978179334, -107117.44959562417, 65638.71391281056, 20529.227915910236, 76844.89510594548, 102510.82211861874, 44005.846262675084, 37301.64167900583, 0.038, 0.962, 0.096, 192.0, 0.0, 0.0, 0.0, 0.0, 0.0, 0.0, 0.0, 0.0, 0.0, 1.6665557841172106E9, 0.0, 2022-10-23 13:09:44.117
21.0, -75300.03193617248, -107135.91213654426, 64576.62607152773, 20738.172023078445, 76972.34475282965, 102100.46644216377, 43427.11489523827, 36865.022702815855, 0.038, 0.962, 0.096, 192.0, 0.0, 0.0, 0.0, 0.0, 0.0, 0.0, 0.0, 0.0, 0.0, 1.66655578411722E9, 0.0, 2022-10-23 13:09:44.117
22.0, -75340.9356285257, -107176.52525621954, 65496.936797730545, 21087.395678448163, 77089.91492866456, 102605.01236975341, 44129.362002535105, 37735.533742372245, 0.044, 0.96, 0.088, 192.0, 1.0, 96.0, 30.0, 0.0, 2.0, 192.0, 0.0, 0.0, 0.0, 1.6665557841172292E9, 0.0, 2022-10-23 13:09:44.117
23.0, -75347.52939314001, -107182.76139292258, 67551.7997207403, 21214.890028821235, 77083.76819893935, 103487.03455770429, 45370.9120000496, 38928.42399220753, 0.044, 0.96, 0.088, 192.0, 0.0, 0.0, 0.0, 0.0, 0.0, 0.0, 0.0, 0.0, 0.0, 1.6665557841172397E9, 0.0, 2022-10-23 13:09:44.117
24.0, -75278.23898532856, -107118.14249970228, 66045.24744096368, 20581.665108402387, 76847.59966702458, 102688.71965273854, 44256.72224244145, 37568.119176402, 0.044, 0.96, 0.088, 192.0, 0.0, 0.0, 0.0, 0.0, 0.0, 0.0, 0.0, 0.0, 0.0, 1.666555784117249E9, 0.0, 2022-10-23 13:09:44.117
25.0, -75298.13203789378, -107133.52049988753, 64587.06433618836, 20682.091496240082, 76935.33026401166, 102079.72402330925, 43393.229650644025, 36804.74004801989, 0.044, 0.96, 0.088, 192.0, 0.0, 0.0, 0.0, 0.0, 0.0, 0.0, 0.0, 0.0, 0.0, 1.6665557841172585E9, 0.0, 2022-10-23 13:09:44.117
26.0, -75334.09599472237, -107165.3940874808, 65110.81041226511, 20998.189866327033, 77043.62446589762, 102388.64748342604, 43836.08476353702, 37440.088384161994, 0.044, 0.96, 0.088, 192.0, 0.0, 0.0, 0.0, 0.0, 0.0, 0.0, 0.0, 0.0, 0.0, 1.6665557841173787E9, 0.0, 2022-10-23 13:09:44.117
27.0, -75364.13673927031, -107197.558247752, 67294.79936299317, 21269.20476784763, 77104.3541555827, 103362.37887887703, 45205.01735270231, 38828.846970659135, 0.044, 0.96, 0.088, 192.0, 0.0, 0.0, 0.0, 0.0, 0.0, 0.0, 0.0, 0.0, 0.0, 1.6665557841173887E9, 0.0, 2022-10-23 13:09:44.117
28.0, -75298.31085184943, -107141.79064533599, 66510.5437052898, 20670.312126912133, 76877.28278366123, 102911.1418618133, 44557.59907455434, 37918.013384105376, 0.044, 0.96, 0.088, 192.0, 0.0, 0.0, 0.0, 0.0, 0.0, 0.0, 0.0, 0.0, 0.0, 1.6665557841173985E9, 0.0, 2022-10-23 13:09:44.117
29.0, -75297.59559602685, -107137.76733133403, 64698.46543055361, 20619.975998398782, 76911.43624918893, 102132.38473324594, 43440.92827331165, 36825.99655699689, 0.044, 0.96, 0.088, 192.0, 0.0, 0.0, 0.0, 0.0, 0.0, 0.0, 0.0, 0.0, 0.0, 1.666555784117408E9, 0.0, 2022-10-23 13:09:44.117
30.0, -75330.83264003189, -107167.22693052614, 64907.34248248846, 20927.290132914797, 77029.72168084641, 102306.84009871962, 43690.552555388516, 37264.4483762322, 0.044, 0.96, 0.088, 192.0, 0.0, 0.0, 0.0, 0.0, 0.0, 0.0, 0.0, 0.0, 0.0, 1.6665557841174178E9, 0.0, 2022-10-23 13:09:44.117
31.0, -75372.83156786342, -107207.79534671252, 67026.0196359181, 21282.437000565173, 77128.89637099461, 103286.85233436256, 45060.51332479875, 38701.84435866408, 0.044, 0.96, 0.088, 192.0, 0.0, 0.0, 0.0, 0.0, 0.0, 0.0, 0.0, 0.0, 0.0, 1.666555784117427E9, 0.0, 2022-10-23 13:09:44.117
32.0, -75308.99498569906, -107151.80422685198, 66970.65436490231, 20773.01839268427, 76905.62479563056, 103145.87988208293, 44863.05801428056, 38255.301207935954, 0.046, 0.9520000000000001, 0.084, 192.0, 1.0, 112.0, 29.0, 192.0, 2.0, 160.0, 0.0, 0.0, 0.0, 1.6665557841174395E9, 0.0, 2022-10-23 13:09:44.117
33.0, -75282.73168596407, -107126.99379050659, 64845.249336391615, 20557.659334857384, 76878.22155692834, 102177.8705332125, 43497.58994550585, 36852.95276080999, 0.046, 0.9520000000000001, 0.084, 192.0, 0.0, 0.0, 0.0, 0.0, 0.0, 0.0, 0.0, 0.0, 0.0, 1.6665557841174495E9, 0.0, 2022-10-23 13:09:44.117
34.0, -75324.75296554006, -107164.47766595814, 64742.900698530764, 20869.063838608723, 77006.92290150201, 102213.61097259654, 43554.40807991124, 37099.716019596584, 0.046, 0.9520000000000001, 0.084, 192.0, 0.0, 0.0, 0.0, 0.0, 0.0, 0.0, 0.0, 0.0, 0.0, 1.6665557841174593E9, 0.0, 2022-10-23 13:09:44.117
35.0, -75367.4895009386, -107203.34734956591, 66604.93512212457, 21257.693619453148, 77126.01299595989, 103098.06950069303, 44795.265173347616, 38450.09666086396, 0.046, 0.9520000000000001, 0.084, 192.0, 0.0, 0.0, 0.0, 0.0, 0.0, 0.0, 0.0, 0.0, 0.0, 1.666555784117469E9, 0.0, 2022-10-23 13:09:44.117
36.0, -75316.95220672515, -107157.1909972657, 67300.96844446284, 20915.33194963121, 76949.65773220752, 103301.80565140315, 45084.83202276612, 38532.641653137405, 0.046, 0.9520000000000001, 0.084, 192.0, 0.0, 0.0, 0.0, 0.0, 0.0, 0.0, 0.0, 0.0, 0.0, 1.6665557841174784E9, 0.0, 2022-10-23 13:09:44.117
37.0, -75282.3740580528, -107120.19886019218, 65059.244937806725, 20541.096692216004, 76852.51705080474, 102250.17842652541, 43603.73837992411, 36940.951578730535, 0.046, 0.9520000000000001, 0.084, 192.0, 0.0, 0.0, 0.0, 0.0, 0.0, 0.0, 0.0, 0.0, 0.0, 1.6665557841174877E9, 0.0, 2022-10-23 13:09:44.117
38.0, -75318.51682883702, -107153.86058734186, 64616.278066191444, 20823.01924503079, 76977.23978486536, 102128.92021285537, 43437.21788373207, 36955.68137832658, 0.046, 0.9520000000000001, 0.084, 192.0, 0.0, 0.0, 0.0, 0.0, 0.0, 0.0, 0.0, 0.0, 0.0, 1.6665557841174972E9, 0.0, 2022-10-23 13:09:44.117
39.0, -75364.13673927031, -107197.53589600754, 66115.05193889761, 21211.53726715294, 77106.63403351713, 102856.60360534234, 44466.62747462124, 38133.70771809909, 0.046, 0.9520000000000001, 0.084, 192.0, 0.0, 0.0, 0.0, 0.0, 0.0, 0.0, 0.0, 0.0, 0.0, 1.6665557841175065E9, 0.0, 2022-10-23 13:09:44.117
40.0, -75337.71697732413, -107175.56413120797, 67503.69876667247, 21058.897204267647, 77008.15224744705, 103407.43999569894, 45235.43807690598, 38753.700405800395, 0.046, 0.9520000000000001, 0.084, 192.0, 0.0, 0.0, 0.0, 0.0, 0.0, 0.0, 0.0, 0.0, 0.0, 1.666555784117516E9, 0.0, 2022-10-23 13:09:44.117
41.0, -75275.4673690161, -107114.8791450118, 65358.534796063286, 20531.55249733359, 76834.41213779595, 102364.90993081451, 43770.50474530515, 37114.02113604798, 0.048, 0.9540000000000001, 0.1, 192.0, 1.0, 128.0, 29.0, 208.0, 3.0, 32.0, 0.0, 0.0, 0.0, 1.6665557841175663E9, 0.0, 2022-10-23 13:09:44.117
42.0, -75309.21850314361, -107141.45536916917, 64571.37341158074, 20790.206884170402, 76970.98129641787, 102088.08357573552, 43375.81764171334, 36879.81955764527, 0.048, 0.9540000000000001, 0.1, 192.0, 0.0, 0.0, 0.0, 0.0, 0.0, 0.0, 0.0, 0.0, 0.0, 1.6665557841175778E9, 0.0, 2022-10-23 13:09:44.117
43.0, -75365.47784393762, -107195.34542505091, 65737.55332679192, 21149.19825186709, 77088.10443736368, 102691.24539986199, 44218.65722163406, 37878.987238286405, 0.048, 0.9540000000000001, 0.1, 192.0, 0.0, 0.0, 0.0, 0.0, 0.0, 0.0, 0.0, 0.0, 0.0, 1.6665557841175876E9, 0.0, 2022-10-23 13:09:44.117
44.0, -75350.05514026346, -107182.73904117812, 67596.07852650626, 21163.771589251948, 77042.43982344148, 103465.59923477164, 45311.63517375412, 38879.20545091694, 0.048, 0.9540000000000001, 0.1, 192.0, 0.0, 0.0, 0.0, 0.0, 0.0, 0.0, 0.0, 0.0, 0.0, 1.6665557841175973E9, 0.0, 2022-10-23 13:09:44.117
45.0, -75273.54511899294, -107111.39227287678, 65769.73983880757, 20556.742913334718, 76836.42379479692, 102536.16899683107, 44012.52943426722, 37358.6162756224, 0.048, 0.9540000000000001, 0.1, 192.0, 0.0, 0.0, 0.0, 0.0, 0.0, 0.0, 0.0, 0.0, 0.0, 1.6665557841176069E9, 0.0, 2022-10-23 13:09:44.117
46.0, -75301.35068909534, -107136.42622666672, 64573.295661603894, 20723.397519993487, 76942.30400828172, 102058.80279049907, 43336.255054027446, 36812.63021381262, 0.048, 0.9540000000000001, 0.1, 192.0, 0.0, 0.0, 0.0, 0.0, 0.0, 0.0, 0.0, 0.0, 0.0, 1.6665557841176164E9, 0.0, 2022-10-23 13:09:44.117
47.0, -75344.60131461636, -107178.08987833142, 65357.41720884052, 21070.296593939853, 77068.56901270975, 102497.81340334576, 43955.39837543945, 37611.01217401173, 0.048, 0.9540000000000001, 0.1, 192.0, 0.0, 0.0, 0.0, 0.0, 0.0, 0.0, 0.0, 0.0, 0.0, 1.666555784117626E9, 0.0, 2022-10-23 13:09:44.117
48.0, -75352.1338524978, -107188.23757031413, 67504.0340428393, 21252.0162763615, 77086.56216699627, 103444.00744962782, 45282.64496119558, 38908.262718708844, 0.048, 0.9540000000000001, 0.1, 192.0, 0.0, 0.0, 0.0, 0.0, 0.0, 0.0, 0.0, 0.0, 0.0, 1.6665557841176355E9, 0.0, 2022-10-23 13:09:44.117
49.0, -75282.75403770852, -107123.39515964928, 66227.86119316354, 20618.009044886716, 76848.71725424734, 102756.95952856059, 44320.1117897167, 37685.82346270364, 0.048, 0.9540000000000001, 0.1, 192.0, 0.0, 0.0, 0.0, 0.0, 0.0, 0.0, 0.0, 0.0, 0.0, 1.666555784117645E9, 0.0, 2022-10-23 13:09:44.117
50.0, -75298.15438963824, -107135.84508131088, 64637.84749959082, 20665.61826057652, 76920.82398186016, 102085.22255244525, 43369.045063143385, 36801.543748562784, 0.048, 0.9540000000000001, 0.1, 192.0, 0.0, 0.0, 0.0, 0.0, 0.0, 0.0, 0.0, 0.0, 0.0, 1.6665557841176548E9, 0.0, 2022-10-23 13:09:44.117
51.0, -75338.72280582463, -107173.84304688491, 65072.2089495908, 20985.33761326523, 77039.46704142893, 102368.73207911637, 43770.32593134951, 37384.16431953482, 0.04, 0.962, 0.096, 192.0, 1.0, 64.0, 30.0, 16.0, 3.0, 0.0, 0.0, 0.0, 0.0, 1.6665557841176643E9, 0.0, 2022-10-23 13:09:44.117
52.0, -75362.63917239179, -107201.46980303166, 67258.9248131424, 21289.723669257604, 77114.65830977658, 103358.55673057518, 45159.59860796912, 38804.86354885859, 0.04, 0.962, 0.096, 192.0, 0.0, 0.0, 0.0, 0.0, 0.0, 0.0, 0.0, 0.0, 0.0, 1.6665557841176744E9, 0.0, 2022-10-23 13:09:44.117
53.0, -75290.64420350126, -107135.46510165515, 66690.22937896602, 20712.24399951029, 76880.56849009615, 102982.06394696998, 44632.87974987981, 38019.60206265475, 0.04, 0.962, 0.096, 192.0, 0.0, 0.0, 0.0, 0.0, 0.0, 0.0, 0.0, 0.0, 0.0, 1.6665557841176856E9, 0.0, 2022-10-23 13:09:44.117
54.0, -75291.87354944629, -107129.60894460785, 64761.40794293975, 20609.60478897152, 76898.4498856604, 102135.11164606949, 43427.0478400049, 36820.60978658316, 0.04, 0.962, 0.096, 192.0, 0.0, 0.0, 0.0, 0.0, 0.0, 0.0, 0.0, 0.0, 0.0, 1.6665557841176963E9, 0.0, 2022-10-23 13:09:44.117
55.0, -75320.23791316008, -107155.7381338761, 64862.68369706675, 20916.96362697645, 77027.59826512316, 102264.03650808771, 43614.914252151764, 37203.40576212475, 0.04, 0.962, 0.096, 192.0, 0.0, 0.0, 0.0, 0.0, 0.0, 0.0, 0.0, 0.0, 0.0, 1.6665557841177056E9, 0.0, 2022-10-23 13:09:44.117
56.0, -75360.42634969072, -107191.85855291589, 66900.35812859036, 21293.858741981836, 77141.6592170786, 103212.2645631152, 44947.860532743995, 38621.33337513606, 0.04, 0.962, 0.096, 192.0, 0.0, 0.0, 0.0, 0.0, 0.0, 0.0, 0.0, 0.0, 0.0, 1.6665557841177151E9, 0.0, 2022-10-23 13:09:44.117
57.0, -75297.90852044923, -107137.18618597821, 67104.02722406712, 20840.49830919484, 76930.03290057575, 103185.5542284911, 44917.596270751514, 38355.25820914009, 0.04, 0.962, 0.096, 192.0, 0.0, 0.0, 0.0, 0.0, 0.0, 0.0, 0.0, 0.0, 0.0, 1.6665557841177351E9, 0.0, 2022-10-23 13:09:44.117
58.0, -75273.94745039314, -107111.77225253252, 64911.41049997932, 20570.668050130374, 76880.52378660724, 102174.69658549984, 43497.18761410566, 36873.851641875706, 0.04, 0.962, 0.096, 192.0, 0.0, 0.0, 0.0, 0.0, 0.0, 0.0, 0.0, 0.0, 0.0, 1.6665557841177447E9, 0.0, 2022-10-23 13:09:44.117
59.0, -75313.35357586785, -107145.23281398212, 64685.68023272518, 20859.74316117086, 77005.40298287905, 102150.19907357682, 43473.02537834947, 37043.83665845831, 0.04, 0.962, 0.096, 192.0, 0.0, 0.0, 0.0, 0.0, 0.0, 0.0, 0.0, 0.0, 0.0, 1.666555784117754E9, 0.0, 2022-10-23 13:09:44.117
60.0, -75357.92295431173, -107187.3435005359, 66423.75188156986, 21245.422511747183, 77127.7564320274, 102981.46044986969, 44646.424907019726, 38340.93074094424, 0.04, 0.962, 0.096, 192.0, 0.0, 0.0, 0.0, 0.0, 0.0, 0.0, 0.0, 0.0, 0.0, 1.6665557841177633E9, 0.0, 2022-10-23 13:09:44.117
61.0, -75317.06396544742, -107154.4864361866, 67371.28703251923, 20958.87314783015, 76977.82093022119, 103313.5403172422, 45117.64438362651, 38619.58993906855, 0.038, 0.962, 0.098, 192.0, 1.0, 48.0, 30.0, 16.0, 3.0, 16.0, 0.0, 0.0, 0.0, 1.6665557841177726E9, 0.0, 2022-10-23 13:09:44.117
62.0, -75272.82986317038, -107113.49333685558, 65134.816185810116, 20528.69147404331, 76860.40721659746, 102256.74983939527, 43631.52159828205, 37001.30128875987, 0.038, 0.962, 0.098, 192.0, 0.0, 0.0, 0.0, 0.0, 0.0, 0.0, 0.0, 0.0, 0.0, 1.6665557841177828E9, 0.0, 2022-10-23 13:09:44.117
63.0, -75303.5188083075, -107140.15896799076, 64595.6474060592, 20807.93181752346, 76991.05316293874, 102103.52863115414, 43412.809778786876, 36956.955427760535, 0.038, 0.962, 0.098, 192.0, 0.0, 0.0, 0.0, 0.0, 0.0, 0.0, 0.0, 0.0, 0.0, 1.666555784117792E9, 0.0, 2022-10-23 13:09:44.117
64.0, -75342.8355268044, -107174.71476491867, 65988.00462341364, 21193.588816355328, 77119.01689994537, 102800.50072675952, 44392.5314417519, 38086.43377857611, 0.038, 0.962, 0.098, 192.0, 0.0, 0.0, 0.0, 0.0, 0.0, 0.0, 0.0, 0.0, 0.0, 1.6665557841178014E9, 0.0, 2022-10-23 13:09:44.117
65.0, -75324.46239286213, -107159.0908955444, 67558.52759582133, 21098.325681486807, 77029.76638433534, 103443.38160078308, 45292.032693866815, 38852.137488381566, 0.038, 0.962, 0.098, 192.0, 0.0, 0.0, 0.0, 0.0, 0.0, 0.0, 0.0, 0.0, 0.0, 1.6665557841178114E9, 0.0, 2022-10-23 13:09:44.117
66.0, -75267.9124793902, -107104.01619720653, 65475.255605608894, 20534.21235492377, 76845.5880100236, 102413.92730640499, 43852.178019544845, 37219.43196289921, 0.038, 0.962, 0.098, 192.0, 0.0, 0.0, 0.0, 0.0, 0.0, 0.0, 0.0, 0.0, 0.0, 1.6665557841178205E9, 0.0, 2022-10-23 13:09:44.117
67.0, -75289.88424418977, -107125.786796306, 64545.467739757034, 20771.38671533903, 76987.20866289243, 102072.21383717225, 43364.88763867469, 36884.51342398088, 0.038, 0.962, 0.098, 192.0, 0.0, 0.0, 0.0, 0.0, 0.0, 0.0, 0.0, 0.0, 0.0, 1.66655578411783E9, 0.0, 2022-10-23 13:09:44.117
68.0, -75338.76750931353, -107173.73128816263, 65558.40409498264, 21117.101146829267, 77107.39399282861, 102607.89574478814, 44122.18709256496, 37807.46165602942, 0.038, 0.962, 0.098, 192.0, 0.0, 0.0, 0.0, 0.0, 0.0, 0.0, 0.0, 0.0, 0.0, 1.6665557841178393E9, 0.0, 2022-10-23 13:09:44.117
69.0, -75339.3263029249, -107175.85470388588, 67555.8006829978, 21196.49454313452, 77087.3444780522, 103474.69639476495, 45334.16573216507, 38946.55125696078, 0.038, 0.962, 0.098, 192.0, 0.0, 0.0, 0.0, 0.0, 0.0, 0.0, 0.0, 0.0, 0.0, 1.6665557841178732E9, 0.0, 2022-10-23 13:09:44.117
70.0, -75268.18070032368, -107108.64300830878, 65902.64331133882, 20572.813817598086, 76866.95627772287, 102628.54875666485, 44146.23756959887, 37515.07848680955, 0.042, 0.9520000000000001, 0.1, 192.0, 1.0, 80.0, 29.0, 192.0, 3.0, 32.0, 0.0, 0.0, 0.0, 1.6665557841179144E9, 0.0, 2022-10-23 13:09:44.117
71.0, -75290.15246512323, -107124.84802303888, 64569.47351330204, 20701.91749357194, 76954.6645229655, 102086.92128502385, 43377.717539992045, 36847.32012120725, 0.042, 0.9520000000000001, 0.1, 192.0, 0.0, 0.0, 0.0, 0.0, 0.0, 0.0, 0.0, 0.0, 0.0, 1.666555784117958E9, 0.0, 2022-10-23 13:09:44.117
72.0, -75325.02118647352, -107162.28719500151, 65196.30583480666, 21019.602837515216, 77063.5398702073, 102441.35289685165, 43890.06422639659, 37539.017205121185, 0.042, 0.9520000000000001, 0.1, 192.0, 0.0, 0.0, 0.0, 0.0, 0.0, 0.0, 0.0, 0.0, 0.0, 1.6665557841181078E9, 0.0, 2022-10-23 13:09:44.118
73.0, -75339.75098606956, -107176.72642191964, 67371.44349473041, 21265.606136990325, 77121.87792323565, 103410.09985328911, 45252.9841963034, 38898.67382033751, 0.042, 0.9520000000000001, 0.1, 192.0, 0.0, 0.0, 0.0, 0.0, 0.0, 0.0, 0.0, 0.0, 0.0, 1.6665557841181374E9, 0.0, 2022-10-23 13:09:44.118
74.0, -75266.77254042299, -107107.63717980828, 66339.73167416235, 20650.776702258194, 76885.93290876543, 102837.40345685525, 44447.740250556504, 37829.500476062356, 0.042, 0.9520000000000001, 0.1, 192.0, 0.0, 0.0, 0.0, 0.0, 0.0, 0.0, 0.0, 0.0, 0.0, 1.6665557841181536E9, 0.0, 2022-10-23 13:09:44.118
75.0, -75275.35561029383, -107111.70519729915, 64618.58029587034, 20650.910812724927, 76939.35357801362, 102096.26431420617, 43399.35402862478, 36830.31044367677, 0.042, 0.9520000000000001, 0.1, 192.0, 0.0, 0.0, 0.0, 0.0, 0.0, 0.0, 0.0, 0.0, 0.0, 1.666555784118168E9, 0.0, 2022-10-23 13:09:44.118
76.0, -75313.80061075695, -107147.82561633893, 64881.72738334267, 20952.391141938107, 77044.25031474237, 102275.30178729318, 43676.47095638168, 37301.46286505018, 0.042, 0.9520000000000001, 0.1, 192.0, 0.0, 0.0, 0.0, 0.0, 0.0, 0.0, 0.0, 0.0, 0.0, 1.6665557841181824E9, 0.0, 2022-10-23 13:09:44.118
77.0, -75353.56436414295, -107189.66808195926, 67041.88937448137, 21295.60217804935, 77144.74375781343, 103268.00981378673, 45069.43167083641, 38749.922960987446, 0.042, 0.9520000000000001, 0.1, 192.0, 0.0, 0.0, 0.0, 0.0, 0.0, 0.0, 0.0, 0.0, 0.0, 1.6665557841181967E9, 0.0, 2022-10-23 13:09:44.118
78.0, -75292.14177037976, -107137.36499993385, 66721.58887643681, 20739.848403912594, 76903.32256595166, 102999.83358381195, 44703.51126235858, 38129.97497677505, 0.042, 0.9520000000000001, 0.1, 192.0, 0.0, 0.0, 0.0, 0.0, 0.0, 0.0, 0.0, 0.0, 0.0, 1.666555784118211E9, 0.0, 2022-10-23 13:09:44.118
79.0, -75285.525654021, -107124.64685733878, 64709.26132312552, 20591.701041662818, 76906.29534796422, 102113.51986092566, 43442.93993031263, 36847.61069388517, 0.042, 0.9520000000000001, 0.1, 192.0, 0.0, 0.0, 0.0, 0.0, 0.0, 0.0, 0.0, 0.0, 0.0, 1.6665557841182256E9, 0.0, 2022-10-23 13:09:44.118
80.0, -75319.09797419286, -107150.01608729555, 64705.72974750159, 20881.84903643716, 77012.77905854929, 102194.81315550962, 43566.880353317305, 37156.8694301688, 0.046, 0.9440000000000001, 0.094, 192.0, 1.0, 112.0, 29.0, 128.0, 2.0, 240.0, 0.0, 0.0, 0.0, 1.6665557841182396E9, 0.0, 2022-10-23 13:09:44.118
81.0, -75358.48174792311, -107190.18217208174, 66647.80576798985, 21265.87435792379, 77130.7068622955, 103107.34547464199, 44852.59739787548, 38539.61539740746, 0.046, 0.9440000000000001, 0.094, 192.0, 0.0, 0.0, 0.0, 0.0, 0.0, 0.0, 0.0, 0.0, 0.0, 1.6665557841182556E9, 0.0, 2022-10-23 13:09:44.118
82.0, -75297.26031986003, -107137.54381388948, 67115.2925032726, 20874.94234740047, 76946.95317112842, 103208.01773166869, 44998.59899265754, 38464.15590812635, 0.046, 0.9440000000000001, 0.094, 192.0, 0.0, 0.0, 0.0, 0.0, 0.0, 0.0, 0.0, 0.0, 0.0, 1.666555784118271E9, 0.0, 2022-10-23 13:09:44.118
83.0, -75269.92413639119, -107111.39227287678, 64895.92074107179, 20551.06557024307, 76887.96691751086, 102184.5760565491, 43551.301187431956, 36932.703785026526, 0.046, 0.9440000000000001, 0.094, 192.0, 0.0, 0.0, 0.0, 0.0, 0.0, 0.0, 0.0, 0.0, 0.0, 1.6665557841182852E9, 0.0, 2022-10-23 13:09:44.118
84.0, -75303.96584319662, -107145.74690410458, 64590.417097856654, 20838.486652193864, 77017.33881441818, 102142.59948046201, 43486.972866889584, 37049.8939812057, 0.046, 0.9440000000000001, 0.094, 192.0, 0.0, 0.0, 0.0, 0.0, 0.0, 0.0, 0.0, 0.0, 0.0, 1.6665557841182995E9, 0.0, 2022-10-23 13:09:44.118
85.0, -75344.1319279828, -107179.07335508744, 66208.63869293197, 21219.360377712295, 77134.707824553, 102927.23511782112, 44592.378388926794, 38280.133996025805, 0.046, 0.9440000000000001, 0.094, 192.0, 0.0, 0.0, 0.0, 0.0, 0.0, 0.0, 0.0, 0.0, 0.0, 1.6665557841183136E9, 0.0, 2022-10-23 13:09:44.118
86.0, -75312.59361655636, -107149.90432857328, 67386.28505304873, 21006.72823270896, 77006.58762533517, 103367.22920742384, 45217.154349941535, 38730.87927471152, 0.046, 0.9440000000000001, 0.094, 192.0, 0.0, 0.0, 0.0, 0.0, 0.0, 0.0, 0.0, 0.0, 0.0, 1.666555784118328E9, 0.0, 2022-10-23 13:09:44.118
87.0, -75276.33908704986, -107117.5837060909, 65189.265035303244, 20518.096747171494, 76850.32657984813, 102316.16077615749, 43738.54175073406, 37094.820987560866, 0.046, 0.9440000000000001, 0.094, 192.0, 0.0, 0.0, 0.0, 0.0, 0.0, 0.0, 0.0, 0.0, 0.0, 1.6665557841183424E9, 0.0, 2022-10-23 13:09:44.118
88.0, -75305.32929960839, -107142.68471511421, 64510.10728002874, 20773.331317106644, 76972.43415980747, 102088.66472109137, 43417.72716256704, 36939.208142663025, 0.046, 0.9440000000000001, 0.094, 192.0, 0.0, 0.0, 0.0, 0.0, 0.0, 0.0, 0.0, 0.0, 0.0, 1.6665557841183722E9, 0.0, 2022-10-23 13:09:44.118
89.0, -75340.26507619204, -107176.61466319737, 65754.0712659444, 21146.828966954825, 77101.87311194815, 102709.48442333752, 44301.87276624117, 37980.486509857954, 0.046, 0.9440000000000001, 0.094, 192.0, 0.0, 0.0, 0.0, 0.0, 0.0, 0.0, 0.0, 0.0, 0.0, 1.6665557841183867E9, 0.0, 2022-10-23 13:09:44.118
90.0, -75329.87151502032, -107168.07629681544, 67471.84753082365, 21119.649245697172, 77048.11716653313, 103412.6032486681, 45300.25813582637, 38873.08107293619, 0.048, 0.9520000000000001, 0.088, 192.0, 1.0, 128.0, 29.0, 192.0, 2.0, 192.0, 0.0, 0.0, 0.0, 1.6665557841184008E9, 0.0, 2022-10-23 13:09:44.118
91.0, -75266.68313344517, -107107.48071759711, 65518.4168241521, 20539.420311381855, 76858.28380087421, 102437.66485901653, 43935.50532287423, 37298.51243478208, 0.048, 0.9520000000000001, 0.088, 192.0, 0.0, 0.0, 0.0, 0.0, 0.0, 0.0, 0.0, 0.0, 0.0, 1.666555784118416E9, 0.0, 2022-10-23 13:09:44.118
92.0, -75298.8696454608, -107134.52632838802, 64453.982049701466, 20732.226459053334, 76973.26117435232, 102027.17507209482, 43355.477554259014, 36857.04313004531, 0.048, 0.9520000000000001, 0.088, 192.0, 0.0, 0.0, 0.0, 0.0, 0.0, 0.0, 0.0, 0.0, 0.0, 1.6665557841184301E9, 0.0, 2022-10-23 13:09:44.118
93.0, -75338.2310674466, -107167.58455843742, 65340.60869701013, 21073.157617230132, 77094.22881534444, 102506.84350810571, 44036.02111768974, 37708.57753855915, 0.048, 0.9520000000000001, 0.088, 192.0, 0.0, 0.0, 0.0, 0.0, 0.0, 0.0, 0.0, 0.0, 0.0, 1.6665557841184452E9, 0.0, 2022-10-23 13:09:44.118
94.0, -75343.21550646014, -107176.74877366409, 67424.32772211167, 21217.035796288943, 77100.64376600311, 103414.12316729107, 45309.69057198651, 38935.84477136669, 0.048, 0.9520000000000001, 0.088, 192.0, 0.0, 0.0, 0.0, 0.0, 0.0, 0.0, 0.0, 0.0, 0.0, 1.666555784118469E9, 0.0, 2022-10-23 13:09:44.118
95.0, -75271.22053756959, -107113.56039208894, 65969.18445458227, 20582.290957247133, 76861.7930247537, 102648.95589935254, 44236.42685847603, 37609.89458678896, 0.048, 0.9520000000000001, 0.088, 192.0, 0.0, 0.0, 0.0, 0.0, 0.0, 0.0, 0.0, 0.0, 0.0, 1.6665557841184783E9, 0.0, 2022-10-23 13:09:44.118
96.0, -75287.58201451087, -107124.44569163868, 64503.4241084366, 20670.46858912332, 76943.82392690468, 102038.6862204893, 43369.96148466605, 36832.05387974428, 0.048, 0.9520000000000001, 0.088, 192.0, 0.0, 0.0, 0.0, 0.0, 0.0, 0.0, 0.0, 0.0, 0.0, 1.6665557841184905E9, 0.0, 2022-10-23 13:09:44.118
97.0, -75324.28357890648, -107156.43103795423, 65027.12548102445, 20993.317186035776, 77060.88001261711, 102354.7622388318, 43823.61249013096, 37465.7928902856, 0.048, 0.9520000000000001, 0.088, 192.0, 0.0, 0.0, 0.0, 0.0, 0.0, 0.0, 0.0, 0.0, 0.0, 1.6665557841185E9, 0.0, 2022-10-23 13:09:44.118
98.0, -75346.36710242834, -107176.74877366409, 67228.4146819609, 21275.932642928678, 77130.43864136204, 103347.4926170698, 45217.66844006401, 38870.667084535016, 0.048, 0.9520000000000001, 0.088, 192.0, 0.0, 0.0, 0.0, 0.0, 0.0, 0.0, 0.0, 0.0, 0.0, 1.6665557841185095E9, 0.0, 2022-10-23 13:09:44.118
99.0, -75279.80360744044, -107121.91994451523, 66433.13961424108, 20667.272289666213, 76884.65885933148, 102871.7804398275, 44552.68169077417, 37938.68874772653, 0.048, 0.9520000000000001, 0.088, 192.0, 0.0, 0.0, 0.0, 0.0, 0.0, 0.0, 0.0, 0.0, 0.0, 1.6665557841185193E9, 0.0, 2022-10-23 13:09:44.118
100.0, -75278.35074405084, -107120.22121193663, 64595.62505431475, 20626.368597313, 76923.77441212826, 102071.9903197277, 43415.22376718805, 36827.829400042225, 0.046, 0.9580000000000001, 0.082, 192.0, 1.0, 112.0, 29.0, 240.0, 2.0, 144.0, 0.0, 0.0, 0.0, 1.6665557841185298E9, 0.0, 2022-10-23 13:09:44.118
101.0, -75319.0756224484, -107158.35328797738, 64812.01229238657, 20936.65551384157, 77044.31736997573, 102262.98597609831, 43680.40486340581, 37277.27827754954, 0.046, 0.9580000000000001, 0.082, 192.0, 0.0, 0.0, 0.0, 0.0, 0.0, 0.0, 0.0, 0.0, 0.0, 1.6665557841185403E9, 0.0, 2022-10-23 13:09:44.118
102.0, -75357.76649210053, -107196.59712274041, 66912.27160838504, 21284.113381399322, 77137.4123856321, 103234.4151418704, 45044.04008913518, 38703.297222053676, 0.046, 0.9580000000000001, 0.082, 192.0, 0.0, 0.0, 0.0, 0.0, 0.0, 0.0, 0.0, 0.0, 0.0, 1.6665557841185508E9, 0.0, 2022-10-23 13:09:44.118
103.0, -75297.08150590438, -107142.34943894738, 66877.06761086793, 20786.87647424656, 76917.62768240305, 103101.48931759469, 44861.046357279585, 38268.041702275485, 0.046, 0.9580000000000001, 0.082, 192.0, 0.0, 0.0, 0.0, 0.0, 0.0, 0.0, 0.0, 0.0, 0.0, 1.6665557841185696E9, 0.0, 2022-10-23 13:09:44.118
104.0, -75275.89205216075, -107116.46611886813, 64773.14260877879, 20577.708849633796, 76891.36438266806, 102154.64707072343, 43515.31487885891, 36873.985752342436, 0.046, 0.9580000000000001, 0.082, 192.0, 0.0, 0.0, 0.0, 0.0, 0.0, 0.0, 0.0, 0.0, 0.0, 1.6665557841185794E9, 0.0, 2022-10-23 13:09:44.118
105.0, -75309.03968918796, -107147.24447098309, 64661.78621790245, 20877.915129413024, 77014.4777911279, 102187.370024606, 43565.829821327905, 37114.736391870545, 0.046, 0.9580000000000001, 0.082, 192.0, 0.0, 0.0, 0.0, 0.0, 0.0, 0.0, 0.0, 0.0, 0.0, 1.666555784118589E9, 0.0, 2022-10-23 13:09:44.118
106.0, -75357.63238163381, -107193.26671281656, 66513.0023971799, 21260.286421809964, 77131.19860067351, 103067.80523870054, 44800.40607457234, 38455.23756208868, 0.046, 0.9580000000000001, 0.082, 192.0, 0.0, 0.0, 0.0, 0.0, 0.0, 0.0, 0.0, 0.0, 0.0, 1.6665557841185987E9, 0.0, 2022-10-23 13:09:44.118
107.0, -75310.20197989965, -107151.15602626278, 67243.50210946825, 20919.779946777817, 76963.44875853644, 103292.77554664321, 45117.86790107106, 38561.363644762474, 0.046, 0.9580000000000001, 0.082, 192.0, 0.0, 0.0, 0.0, 0.0, 0.0, 0.0, 0.0, 0.0, 0.0, 1.6665557841186082E9, 0.0, 2022-10-23 13:09:44.118
108.0, -75271.64522071424, -107112.08517695489, 64994.53663760861, 20545.567041107064, 76876.94750749439, 102235.56038565164, 43629.08525813642, 36959.10119522824, 0.046, 0.9580000000000001, 0.082, 192.0, 0.0, 0.0, 0.0, 0.0, 0.0, 0.0, 0.0, 0.0, 0.0, 1.6665557841186178E9, 0.0, 2022-10-23 13:09:44.118
109.0, -75304.16700889671, -107139.44371216818, 64550.96626889304, 20827.713111366407, 77012.77905854929, 102119.84540460652, 43465.82811663486, 36978.41310243763, 0.046, 0.9560000000000001, 0.088, 192.0, 1.0, 112.0, 29.0, 224.0, 2.0, 192.0, 0.0, 0.0, 0.0, 1.6665557841186273E9, 0.0, 2022-10-23 13:09:44.118
110.0, -75345.85301230586, -107181.06266034397, 66031.1881937013, 21209.749127596515, 77138.12764145466, 102838.11871267781, 44486.252306252994, 38146.09058452733, 0.046, 0.9560000000000001, 0.088, 192.0, 0.0, 0.0, 0.0, 0.0, 0.0, 0.0, 0.0, 0.0, 0.0, 1.6665557841186376E9, 0.0, 2022-10-23 13:09:44.118
111.0, -75312.70537527865, -107156.92277633224, 67444.19842293244, 21069.044896250358, 77038.37180595062, 103403.93077181945, 45275.51475471434, 38783.271763714765, 0.046, 0.9560000000000001, 0.088, 192.0, 0.0, 0.0, 0.0, 0.0, 0.0, 0.0, 0.0, 0.0, 0.0, 1.666555784118647E9, 0.0, 2022-10-23 13:09:44.118
112.0, -75257.87654612977, -107104.26206639553, 65306.45523148242, 20545.701151573798, 76871.87366150304, 102366.11692501509, 43814.090646993005, 37145.782964918966, 0.046, 0.9560000000000001, 0.088, 192.0, 0.0, 0.0, 0.0, 0.0, 0.0, 0.0, 0.0, 0.0, 0.0, 1.6665557841186566E9, 0.0, 2022-10-23 13:09:44.118
113.0, -75293.39346806926, -107134.21340396565, 64478.792486046856, 20769.643279271517, 76985.19700589144, 102062.53553182312, 43386.948810452086, 36882.233546046446, 0.046, 0.9560000000000001, 0.088, 192.0, 0.0, 0.0, 0.0, 0.0, 0.0, 0.0, 0.0, 0.0, 0.0, 1.6665557841186662E9, 0.0, 2022-10-23 13:09:44.118
114.0, -75334.34186391138, -107170.91496836126, 65580.62172897122, 21129.975751635524, 77106.79049572832, 102623.65372462914, 44184.950790995455, 37850.041729216784, 0.046, 0.9560000000000001, 0.088, 192.0, 0.0, 0.0, 0.0, 0.0, 0.0, 0.0, 0.0, 0.0, 0.0, 1.6665557841186757E9, 0.0, 2022-10-23 13:09:44.118
115.0, -75329.49153536458, -107166.80224738149, 67464.80673132023, 21169.09130443231, 77082.4941495054, 103427.42245524198, 45310.31642083126, 38889.55430859975, 0.046, 0.9560000000000001, 0.088, 192.0, 0.0, 0.0, 0.0, 0.0, 0.0, 0.0, 0.0, 0.0, 0.0, 1.6665557841186852E9, 0.0, 2022-10-23 13:09:44.118
116.0, -75261.16225256471, -107103.61386580633, 65655.7012385966, 20555.82649181205, 76867.78329226772, 102509.57042092925, 44023.28062335022, 37377.14587177585, 0.046, 0.9560000000000001, 0.088, 192.0, 0.0, 0.0, 0.0, 0.0, 0.0, 0.0, 0.0, 0.0, 0.0, 1.6665557841186948E9, 0.0, 2022-10-23 13:09:44.118
117.0, -75286.1738546102, -107123.79749104948, 64448.148244398624, 20724.805679894172, 76975.67516275348, 102029.05261862907, 43340.099554073764, 36820.229806927426, 0.046, 0.9560000000000001, 0.088, 192.0, 0.0, 0.0, 0.0, 0.0, 0.0, 0.0, 0.0, 0.0, 0.0, 1.6665557841187055E9, 0.0, 2022-10-23 13:09:44.118
118.0, -75329.08920396438, -107167.62926192633, 65180.726668921314, 21051.74464604195, 77084.66226871757, 102428.25477460085, 43914.181758663864, 37576.92576371739, 0.046, 0.9560000000000001, 0.088, 192.0, 0.0, 0.0, 0.0, 0.0, 0.0, 0.0, 0.0, 0.0, 0.0, 1.666555784118715E9, 0.0, 2022-10-23 13:09:44.118
119.0, -75345.07070124993, -107181.91202663328, 67315.22885742532, 21250.563412971904, 77116.69231852202, 103366.89393125701, 45234.40989666103, 38878.5796020722, 0.054, 0.9480000000000001, 0.088, 192.0, 1.0, 176.0, 29.0, 160.0, 2.0, 192.0, 0.0, 0.0, 0.0, 1.666555784118734E9, 0.0, 2022-10-23 13:09:44.118
120.0, -75280.54121500746, -107119.43890088069, 66083.91595887137, 20625.675693234887, 76875.78521678272, 102704.56703955735, 44298.899984228614, 37686.739884226314, 0.054, 0.9480000000000001, 0.088, 192.0, 0.0, 0.0, 0.0, 0.0, 0.0, 0.0, 0.0, 0.0, 0.0, 1.6665557841187444E9, 0.0, 2022-10-23 13:09:44.118
121.0, -75297.08150590438, -107134.01223826555, 64462.87804399467, 20653.905946481937, 76933.87740062206, 102007.0808538295, 43314.23858573897, 36775.52631801681, 0.054, 0.9480000000000001, 0.088, 192.0, 0.0, 0.0, 0.0, 0.0, 0.0, 0.0, 0.0, 0.0, 0.0, 1.666555784118754E9, 0.0, 2022-10-23 13:09:44.118
122.0, -75330.07268072042, -107164.36590723586, 64854.324144640465, 20969.847854357704, 77056.9908090819, 102258.26975801823, 43679.868421538886, 37337.85150502342, 0.054, 0.9480000000000001, 0.088, 192.0, 0.0, 0.0, 0.0, 0.0, 0.0, 0.0, 0.0, 0.0, 0.0, 1.666555784118764E9, 0.0, 2022-10-23 13:09:44.118
123.0, -75362.01332354706, -107198.16174485229, 67036.323790112, 21283.733401743582, 77138.01588273238, 103253.43647640187, 45076.15954591746, 38775.87333630006, 0.054, 0.9480000000000001, 0.088, 192.0, 0.0, 0.0, 0.0, 0.0, 0.0, 0.0, 0.0, 0.0, 0.0, 1.6665557841187737E9, 0.0, 2022-10-23 13:09:44.118
124.0, -75295.09220064786, -107138.46023541216, 66506.43098431003, 20718.256618768766, 76904.66367061897, 102899.02721631851, 44578.2744381755, 38018.596234154254, 0.054, 0.9480000000000001, 0.088, 192.0, 0.0, 0.0, 0.0, 0.0, 0.0, 0.0, 0.0, 0.0, 0.0, 1.6665557841187832E9, 0.0, 2022-10-23 13:09:44.118
125.0, -75284.78804645396, -107125.02683699451, 64559.99637365298, 20613.69515820684, 76919.68404289294, 102040.07202864553, 43358.3832810382, 36800.359106106655, 0.054, 0.9480000000000001, 0.088, 192.0, 0.0, 0.0, 0.0, 0.0, 0.0, 0.0, 0.0, 0.0, 0.0, 1.6665557841187928E9, 0.0, 2022-10-23 13:09:44.118
126.0, -75320.55083758246, -107157.21334901016, 64648.64339216273, 20905.027795437312, 77032.8285733257, 102160.77144870418, 43535.23028316859, 37167.665322740715, 0.054, 0.9480000000000001, 0.088, 192.0, 0.0, 0.0, 0.0, 0.0, 0.0, 0.0, 0.0, 0.0, 0.0, 1.6665557841188028E9, 0.0, 2022-10-23 13:09:44.118
127.0, -75359.93461131271, -107195.63599772884, 66666.62593682122, 21278.88307319678, 77150.46580439399, 103104.30563739606, 44861.00165379068, 38580.92142116087, 0.054, 0.9480000000000001, 0.088, 192.0, 0.0, 0.0, 0.0, 0.0, 0.0, 0.0, 0.0, 0.0, 0.0, 1.666555784118812E9, 0.0, 2022-10-23 13:09:44.118
128.0, -75301.50715130653, -107146.59627039389, 66909.85761998387, 20837.056140548724, 76952.98814213135, 103106.49610835269, 44865.96374105975, 38349.58086604844, 0.054, 0.9480000000000001, 0.088, 192.0, 0.0, 0.0, 0.0, 0.0, 0.0, 0.0, 0.0, 0.0, 0.0, 1.6665557841188219E9, 0.0, 2022-10-23 13:09:44.118
129.0, -75278.26133707301, -107123.19399394919, 64727.36623613432, 20565.59420413902, 76909.29048172123, 102107.64135213391, 43453.17702927316, 36863.59219117072, 0.05, 0.9480000000000001, 0.1, 192.0, 1.0, 144.0, 29.0, 160.0, 3.0, 32.0, 0.0, 0.0, 0.0, 1.6665557841188314E9, 0.0, 2022-10-23 13:09:44.118
130.0, -75312.34774736736, -107152.83240709692, 64503.602922392245, 20864.012344361825, 77037.09775651667, 102090.78813681462, 43435.519151153465, 37032.43726878611, 0.05, 0.9480000000000001, 0.1, 192.0, 0.0, 0.0, 0.0, 0.0, 0.0, 0.0, 0.0, 0.0, 0.0, 1.6665557841188416E9, 0.0, 2022-10-23 13:09:44.118
131.0, -75353.25143972057, -107190.87507615985, 66201.64259691746, 21246.02600884748, 77156.56783063029, 102897.06026280645, 44583.03535974448, 38306.95608937217, 0.05, 0.9480000000000001, 0.1, 192.0, 0.0, 0.0, 0.0, 0.0, 0.0, 0.0, 0.0, 0.0, 0.0, 1.6665557841188512E9, 0.0, 2022-10-23 13:09:44.118
0.0, 0.0, 0.0, 0.0, 0.0, 0.0, 0.0, 0.0, 0.0, 0.05, 0.9480000000000001, 0.1, 192.0, 0.0, 0.0, 0.0, 0.0, 0.0, 0.0, 0.0, 0.0, 0.0, 1.6665557841880882E9, 0.0, 2022-10-23 13:09:44.188
1.0, -71197.36924140087, -102079.12052620895, 57031.75002714992, 22632.99645578819, 79568.03048468, 60608.386767910335, 43920.060267455614, 38264.91245805174, 0.052000000000000005, 0.9540000000000001, 0.098, 192.0, 1.0, 160.0, 29.0, 208.0, 3.0, 16.0, 0.0, 0.0, 0.0, 1.6665557846745415E9, 0.0, 2022-10-23 13:09:44.674
2.0, -71246.54307920254, -102129.27784076666, 58900.66878803597, 22964.53988129376, 79754.77930960408, 61482.69760402413, 45186.97949492687, 39620.67986973284, 0.052000000000000005, 0.9540000000000001, 0.098, 192.0, 0.0, 0.0, 0.0, 0.0, 0.0, 0.0, 0.0, 0.0, 0.0, 1.6665557846747432E9, 0.0, 2022-10-23 13:09:44.674
3.0, -71171.84354923292, -102059.49569457718, 59452.1310272373, 22608.588350842998, 79563.49308055558, 61613.969399210146, 45410.116959824205, 39620.05402088809, 0.052000000000000005, 0.9540000000000001, 0.098, 192.0, 0.0, 0.0, 0.0, 0.0, 0.0, 0.0, 0.0, 0.0, 0.0, 1.666555784674756E9, 0.0, 2022-10-23 13:09:44.674
4.0, -71137.75713893857, -102023.97877263771, 57245.36564890929, 22321.077861914382, 79393.12808431723, 60599.28960791703, 43945.76477357921, 38067.97123765603, 0.052000000000000005, 0.9540000000000001, 0.098, 192.0, 0.0, 0.0, 0.0, 0.0, 0.0, 0.0, 0.0, 0.0, 0.0, 1.6665557846747673E9, 0.0, 2022-10-23 13:09:44.674
5.0, -71184.0028982166, -102064.97187196874, 56873.18675198397, 22585.27548137611, 79538.43677502117, 60519.046845322475, 43823.56778664205, 38132.7018895986, 0.052000000000000005, 0.9540000000000001, 0.098, 192.0, 0.0, 0.0, 0.0, 0.0, 0.0, 0.0, 0.0, 0.0, 0.0, 1.6665557846747787E9, 0.0, 2022-10-23 13:09:44.674
6.0, -71228.50522142711, -102108.46836667876, 58400.727319804115, 22928.86649714309, 79727.62194009089, 61252.675801834564, 44889.36601750446, 39329.07901156891, 0.052000000000000005, 0.9540000000000001, 0.098, 192.0, 0.0, 0.0, 0.0, 0.0, 0.0, 0.0, 0.0, 0.0, 0.0, 1.6665557846747973E9, 0.0, 2022-10-23 13:09:44.674
7.0, -71184.74050578363, -102068.5928545705, 59633.291916047565, 22733.60165758153, 79622.68049987323, 61705.142164843346, 45573.284694347945, 39844.778459641755, 0.052000000000000005, 0.9540000000000001, 0.098, 192.0, 0.0, 0.0, 0.0, 0.0, 0.0, 0.0, 0.0, 0.0, 0.0, 1.6665557846748073E9, 0.0, 2022-10-23 13:09:44.674
8.0, -71128.52586847852, -102015.1274818334, 57482.33884362446, 22292.802905178418, 79368.60822064975, 60678.861818177924, 44101.757598132805, 38221.773591253, 0.048, 0.9500000000000001, 0.092, 192.0, 1.0, 128.0, 29.0, 176.0, 2.0, 224.0, 0.0, 0.0, 0.0, 1.666555784674818E9, 0.0, 2022-10-23 13:09:44.674
9.0, -71157.38197057032, -102042.79894146907, 56752.8449598366, 22531.65364642783, 79503.54570192644, 60438.62526877228, 43737.69238444476, 38033.37073723922, 0.048, 0.9500000000000001, 0.092, 192.0, 0.0, 0.0, 0.0, 0.0, 0.0, 0.0, 0.0, 0.0, 0.0, 1.6665557846748295E9, 0.0, 2022-10-23 13:09:44.674
10.0, -71197.95038675671, -102082.40623264387, 57928.30084899675, 22865.85692952358, 79698.85524497692, 61040.7589126538, 44602.68254312069, 39053.50435417943, 0.048, 0.9500000000000001, 0.092, 192.0, 0.0, 0.0, 0.0, 0.0, 0.0, 0.0, 0.0, 0.0, 0.0, 1.6665557846748397E9, 0.0, 2022-10-23 13:09:44.674
11.0, -71189.0543924635, -102080.349872154, 59679.69413753678, 22831.502298295774, 79681.35382906841, 61758.24990966915, 45659.80829713444, 39995.78684518181, 0.048, 0.9500000000000001, 0.092, 192.0, 0.0, 0.0, 0.0, 0.0, 0.0, 0.0, 0.0, 0.0, 0.0, 1.6665557846748505E9, 0.0, 2022-10-23 13:09:44.674
12.0, -71115.02541482753, -102008.1313858189, 57809.12134756105, 22293.562864489897, 79371.35748521776, 60829.244354873226, 44336.227397468974, 38461.89838193636, 0.048, 0.9500000000000001, 0.092, 192.0, 0.0, 0.0, 0.0, 0.0, 0.0, 0.0, 0.0, 0.0, 0.0, 1.6665557846748607E9, 0.0, 2022-10-23 13:09:44.674
13.0, -71139.38881628381, -102028.96321165124, 56720.27846816522, 22492.471038397674, 79486.04428601793, 60430.64569600174, 43729.13166631838, 37991.28240242987, 0.048, 0.9500000000000001, 0.092, 192.0, 0.0, 0.0, 0.0, 0.0, 0.0, 0.0, 0.0, 0.0, 0.0, 1.6665557846748712E9, 0.0, 2022-10-23 13:09:44.674
14.0, -71188.02621221855, -102073.95727323976, 57537.74881812916, 22796.298300778664, 79662.55601198149, 60883.402631688434, 44375.9240956216, 38805.73526689235, 0.048, 0.9500000000000001, 0.092, 192.0, 0.0, 0.0, 0.0, 0.0, 0.0, 0.0, 0.0, 0.0, 0.0, 1.6665557846748817E9, 0.0, 2022-10-23 13:09:44.674
15.0, -71187.42271511826, -102074.58312208451, 59603.429985455274, 22937.270753058285, 79742.93288504278, 61773.47144764322, 45673.80048916346, 40054.34841565471, 0.048, 0.9500000000000001, 0.092, 192.0, 0.0, 0.0, 0.0, 0.0, 0.0, 0.0, 0.0, 0.0, 0.0, 1.6665557846748917E9, 0.0, 2022-10-23 13:09:44.674
16.0, -71106.79997286797, -101996.39671997985, 58240.3982568262, 22360.66280134473, 79419.63725324122, 61050.99601161433, 44655.231494335116, 38783.338818948134, 0.048, 0.9500000000000001, 0.092, 192.0, 0.0, 0.0, 0.0, 0.0, 0.0, 0.0, 0.0, 0.0, 0.0, 1.666555784674902E9, 0.0, 2022-10-23 13:09:44.674
17.0, -71124.07787133192, -102010.65713294235, 56733.17542471593, 22436.994008659603, 79456.29411414792, 60431.13743437975, 43739.972262379204, 37960.012311936895, 0.048, 0.9500000000000001, 0.09, 192.0, 1.0, 128.0, 29.0, 176.0, 2.0, 208.0, 0.0, 0.0, 0.0, 1.6665557846749125E9, 0.0, 2022-10-23 13:09:44.674
18.0, -71155.37031356935, -102043.91652869184, 57192.280255827936, 22730.941799991346, 79642.03711057152, 60725.576964089516, 44157.10051740414, 38566.906877387395, 0.048, 0.9500000000000001, 0.09, 192.0, 0.0, 0.0, 0.0, 0.0, 0.0, 0.0, 0.0, 0.0, 0.0, 1.666555784674938E9, 0.0, 2022-10-23 13:09:44.674
19.0, -71183.28764239403, -102074.98545348471, 59339.545290415925, 22984.142361181064, 79788.03870535358, 61685.696147167226, 45545.41206901218, 39968.025978568316, 0.048, 0.9500000000000001, 0.09, 192.0, 0.0, 0.0, 0.0, 0.0, 0.0, 0.0, 0.0, 0.0, 0.0, 1.6665557846749485E9, 0.0, 2022-10-23 13:09:44.674
20.0, -71106.64351065678, -102006.075025329, 58612.331284562504, 22433.373026057845, 79476.72360858007, 61229.4523393455, 44919.831445197044, 39088.32837204079, 0.048, 0.9500000000000001, 0.09, 192.0, 0.0, 0.0, 0.0, 0.0, 0.0, 0.0, 0.0, 0.0, 0.0, 1.6665557846749587E9, 0.0, 2022-10-23 13:09:44.674
21.0, -71109.41512696924, -102006.65617068484, 56764.020832064256, 22406.10389782237, 79457.0540734594, 60443.274431618986, 43759.686500988784, 37961.778099748866, 0.048, 0.9500000000000001, 0.09, 192.0, 0.0, 0.0, 0.0, 0.0, 0.0, 0.0, 0.0, 0.0, 0.0, 1.6665557846749787E9, 0.0, 2022-10-23 13:09:44.674
22.0, -71146.1390431093, -102042.17309262432, 56927.56854624374, 22685.321889558065, 79623.59692139589, 60616.72396859217, 43995.72092243683, 38382.72850307566, 0.048, 0.9500000000000001, 0.09, 192.0, 0.0, 0.0, 0.0, 0.0, 0.0, 0.0, 0.0, 0.0, 0.0, 1.6665557846749914E9, 0.0, 2022-10-23 13:09:44.674
23.0, -71183.62291856085, -102081.35570065447, 58956.59285266315, 22989.864407761623, 79786.92111813082, 61547.89764260026, 45343.86638925867, 39786.12748219103, 0.048, 0.9500000000000001, 0.09, 192.0, 0.0, 0.0, 0.0, 0.0, 0.0, 0.0, 0.0, 0.0, 0.0, 1.6665557846750016E9, 0.0, 2022-10-23 13:09:44.675
24.0, -71104.67655714472, -102001.04588282655, 59010.5276120338, 22541.711931432717, 79543.68943496817, 61450.086408863834, 45234.52165538331, 39431.51705640758, 0.048, 0.9500000000000001, 0.09, 192.0, 0.0, 0.0, 0.0, 0.0, 0.0, 0.0, 0.0, 0.0, 0.0, 1.666555784675012E9, 0.0, 2022-10-23 13:09:44.675
25.0, -71081.69896384465, -101978.0235860376, 56907.519031467324, 22359.724028077606, 79436.53517204944, 60514.59884817587, 43867.712481941286, 38024.742963879464, 0.048, 0.9500000000000001, 0.09, 192.0, 0.0, 0.0, 0.0, 0.0, 0.0, 0.0, 0.0, 0.0, 0.0, 1.666555784675022E9, 0.0, 2022-10-23 13:09:44.675
26.0, -71123.29556027599, -102021.11774934742, 56733.62245960504, 22625.128641739924, 79585.77776977752, 60523.785415147, 43873.2557145662, 38226.646271544254, 0.048, 0.9500000000000001, 0.09, 192.0, 0.0, 0.0, 0.0, 0.0, 0.0, 0.0, 0.0, 0.0, 0.0, 1.6665557846750324E9, 0.0, 2022-10-23 13:09:44.675
27.0, -71167.10497940838, -102063.65311904588, 58504.30530361001, 22969.814892985214, 79776.95224010375, 61366.66969855663, 45085.54727858869, 39545.913284529845, 0.046, 0.9520000000000001, 0.094, 192.0, 1.0, 112.0, 29.0, 192.0, 2.0, 240.0, 0.0, 0.0, 0.0, 1.6665557846750429E9, 0.0, 2022-10-23 13:09:44.675
28.0, -71105.12359203382, -102003.28105727209, 59311.94088601362, 22672.96137487428, 79624.69215687421, 61627.49220460561, 45484.54826886037, 39735.94781588886, 0.046, 0.9520000000000001, 0.094, 192.0, 0.0, 0.0, 0.0, 0.0, 0.0, 0.0, 0.0, 0.0, 0.0, 1.6665557846750555E9, 0.0, 2022-10-23 13:09:44.675
29.0, -71074.21112945213, -101975.85546682542, 57107.79066178688, 22315.914608945204, 79407.92493914663, 60606.9562562652, 44006.829739431116, 38142.71547111458, 0.046, 0.9520000000000001, 0.094, 192.0, 0.0, 0.0, 0.0, 0.0, 0.0, 0.0, 0.0, 0.0, 0.0, 1.6665557846750665E9, 0.0, 2022-10-23 13:09:44.675
30.0, -71113.30433050446, -102018.6814092018, 56613.92886804687, 22556.55348975104, 79537.43094652069, 60473.181065700184, 43798.80205378557, 38115.31223241237, 0.046, 0.9520000000000001, 0.094, 192.0, 0.0, 0.0, 0.0, 0.0, 0.0, 0.0, 0.0, 0.0, 0.0, 1.6665557846750767E9, 0.0, 2022-10-23 13:09:44.675
31.0, -71152.0399036455, -102059.31688062154, 58012.63398082662, 22897.35053746111, 79729.29832092504, 61154.35047797567, 44783.35169355294, 39238.57679826937, 0.046, 0.9520000000000001, 0.094, 192.0, 0.0, 0.0, 0.0, 0.0, 0.0, 0.0, 0.0, 0.0, 0.0, 1.6665557846750872E9, 0.0, 2022-10-23 13:09:44.675
32.0, -71117.26058927305, -102022.12357784792, 59449.359410924844, 22778.685126147884, 79672.77075919756, 61717.88265918287, 45614.30014542343, 39916.72872504339, 0.046, 0.9520000000000001, 0.094, 192.0, 0.0, 0.0, 0.0, 0.0, 0.0, 0.0, 0.0, 0.0, 0.0, 1.6665557846750977E9, 0.0, 2022-10-23 13:09:44.675
33.0, -71073.76409456303, -101969.37346093339, 57376.1904092062, 22304.55992276191, 79401.8899681437, 60719.8325657645, 44182.64856131656, 38307.40312426128, 0.046, 0.9520000000000001, 0.094, 192.0, 0.0, 0.0, 0.0, 0.0, 0.0, 0.0, 0.0, 0.0, 0.0, 1.666555784675118E9, 0.0, 2022-10-23 13:09:44.675
34.0, -71103.55896992194, -101995.7261676462, 56521.05736983506, 22521.193030022747, 79515.45918172112, 60417.94990515112, 43729.04225934056, 38012.874187573696, 0.046, 0.9520000000000001, 0.094, 192.0, 0.0, 0.0, 0.0, 0.0, 0.0, 0.0, 0.0, 0.0, 0.0, 1.6665557846751285E9, 0.0, 2022-10-23 13:09:44.675
35.0, -71139.14294709479, -102033.4335605423, 57534.39605646087, 22848.087292681612, 79699.77166649958, 60930.27423981122, 44479.43502419413, 38934.414259721554, 0.046, 0.9520000000000001, 0.094, 192.0, 0.0, 0.0, 0.0, 0.0, 0.0, 0.0, 0.0, 0.0, 0.0, 1.6665557846751387E9, 0.0, 2022-10-23 13:09:44.675
36.0, -71128.07883358942, -102025.65515347186, 59431.90269850525, 22894.780086848747, 79749.59370489046, 61733.26065936812, 45648.632424906784, 40019.3455838377, 0.046, 0.9520000000000001, 0.094, 192.0, 0.0, 0.0, 0.0, 0.0, 0.0, 0.0, 0.0, 0.0, 0.0, 1.666555784675149E9, 0.0, 2022-10-23 13:09:44.675
37.0, -71062.83409152438, -101965.77483007609, 57734.13124491349, 22330.28678062997, 79437.96568369457, 60888.454125935335, 44437.70431729607, 38576.78634843664, 0.048, 0.96, 0.098, 192.0, 1.0, 128.0, 30.0, 0.0, 3.0, 16.0, 0.0, 0.0, 0.0, 1.6665557846751592E9, 0.0, 2022-10-23 13:09:44.675
38.0, -71084.85055981285, -101983.1197837734, 56501.41018645885, 22476.534244601044, 79513.82750437588, 60414.35127429382, 43725.778904650084, 37982.05113196983, 0.048, 0.96, 0.098, 192.0, 0.0, 0.0, 0.0, 0.0, 0.0, 0.0, 0.0, 0.0, 0.0, 1.66655578467517E9, 0.0, 2022-10-23 13:09:44.675
39.0, -71114.66778691624, -102012.31116203204, 57177.7963254209, 22778.036925558677, 79685.64536400382, 60798.55540973609, 44277.75523397389, 38711.36620180204, 0.048, 0.96, 0.098, 192.0, 0.0, 0.0, 0.0, 0.0, 0.0, 0.0, 0.0, 0.0, 0.0, 1.6665557846751804E9, 0.0, 2022-10-23 13:09:44.675
40.0, -71121.90975211975, -102026.45981627224, 59269.31610933735, 22956.090921889656, 79786.42937975281, 61703.97987413167, 45601.60435457282, 40011.947156423, 0.048, 0.96, 0.098, 192.0, 0.0, 0.0, 0.0, 0.0, 0.0, 0.0, 0.0, 0.0, 0.0, 1.6665557846751907E9, 0.0, 2022-10-23 13:09:44.675
41.0, -71060.24128916756, -101958.19758870573, 58104.76787147139, 22381.22640624361, 79468.6546288317, 61069.302090323225, 44710.84263453992, 38866.50966006633, 0.048, 0.96, 0.098, 192.0, 0.0, 0.0, 0.0, 0.0, 0.0, 0.0, 0.0, 0.0, 0.0, 1.6665557846752007E9, 0.0, 2022-10-23 13:09:44.675
42.0, -71074.70286783014, -101966.84771380994, 56482.768831583126, 22429.126194611337, 79484.56907088388, 60396.24636128502, 43716.50293070113, 37942.62265475067, 0.048, 0.96, 0.098, 192.0, 0.0, 0.0, 0.0, 0.0, 0.0, 0.0, 0.0, 0.0, 0.0, 1.6665557846752112E9, 0.0, 2022-10-23 13:09:44.675
43.0, -71110.19743802518, -102000.64355142636, 56855.41711514201, 22718.335416118553, 79663.4500817597, 60660.35457376893, 44083.27270546826, 38497.10237945347, 0.048, 0.96, 0.098, 192.0, 0.0, 0.0, 0.0, 0.0, 0.0, 0.0, 0.0, 0.0, 0.0, 1.6665557846752217E9, 0.0, 2022-10-23 13:09:44.675
44.0, -71134.22556331463, -102027.86797617293, 58976.418849995, 22990.46790486192, 79811.083353887, 61609.65551253028, 45462.57650406081, 39907.49745458335, 0.048, 0.96, 0.098, 192.0, 0.0, 0.0, 0.0, 0.0, 0.0, 0.0, 0.0, 0.0, 0.0, 1.6665557846752317E9, 0.0, 2022-10-23 13:09:44.675
45.0, -71051.18883266316, -101948.51928335658, 58513.268353136584, 22474.232014922145, 79523.23758879157, 61278.98380505846, 45011.78652188618, 39206.18912055363, 0.048, 0.96, 0.098, 192.0, 0.0, 0.0, 0.0, 0.0, 0.0, 0.0, 0.0, 0.0, 0.0, 1.666555784675242E9, 0.0, 2022-10-23 13:09:44.675
46.0, -71051.41235010771, -101949.92744325727, 56562.43044882184, 22389.80947611445, 79463.759596796, 60435.38426582626, 43769.09658540447, 37974.98798072195, 0.046, 0.96, 0.1, 192.0, 1.0, 112.0, 30.0, 0.0, 3.0, 32.0, 0.0, 0.0, 0.0, 1.6665557846752522E9, 0.0, 2022-10-23 13:09:44.675
47.0, -71098.48512393059, -101999.07892931449, 56611.51487964569, 22652.509528697676, 79618.03133702652, 60548.551148003484, 43925.40233438043, 38322.57995874643, 0.046, 0.96, 0.1, 192.0, 0.0, 0.0, 0.0, 0.0, 0.0, 0.0, 0.0, 0.0, 0.0, 1.6665557846752632E9, 0.0, 2022-10-23 13:09:44.675
48.0, -71130.31400803495, -102035.06523788754, 58569.95237707524, 22992.814838029724, 79809.42932479731, 61456.99309790053, 45237.33797518468, 39710.64564116546, 0.046, 0.96, 0.1, 192.0, 0.0, 0.0, 0.0, 0.0, 0.0, 0.0, 0.0, 0.0, 0.0, 1.6665557846752732E9, 0.0, 2022-10-23 13:09:44.675
49.0, -71063.28112641348, -101973.73205110217, 58880.66397674847, 22584.113190664433, 79587.70001980067, 61478.11549641079, 45295.51956600184, 39529.17182793282, 0.046, 0.96, 0.1, 192.0, 0.0, 0.0, 0.0, 0.0, 0.0, 0.0, 0.0, 0.0, 0.0, 1.6665557846752944E9, 0.0, 2022-10-23 13:09:44.675
50.0, -71034.33561734387, -101943.64660306532, 56722.11131121055, 22337.260524900023, 79438.97151219506, 60504.54056317098, 43876.76493844568, 38042.512600721435, 0.046, 0.96, 0.1, 192.0, 0.0, 0.0, 0.0, 0.0, 0.0, 0.0, 0.0, 0.0, 0.0, 1.666555784675305E9, 0.0, 2022-10-23 13:09:44.675
51.0, -71063.28112641348, -101973.2179609797, 56460.70765980574, 22603.268635662633, 79594.56200534845, 60479.37249891431, 43827.367583199455, 38181.495747744535, 0.046, 0.96, 0.1, 192.0, 0.0, 0.0, 0.0, 0.0, 0.0, 0.0, 0.0, 0.0, 0.0, 1.666555784675315E9, 0.0, 2022-10-23 13:09:44.675
52.0, -71102.48608618809, -102011.327685276, 58100.99042665845, 22947.10552061862, 79787.97165012022, 61256.0062117584, 44954.655463058414, 39431.31589070748, 0.046, 0.96, 0.1, 192.0, 0.0, 0.0, 0.0, 0.0, 0.0, 0.0, 0.0, 0.0, 0.0, 1.6665557846753252E9, 0.0, 2022-10-23 13:09:44.675
53.0, -71054.65335305374, -101971.20630397873, 59106.79657540281, 22696.386003063442, 79653.88353513283, 61598.70315774717, 45482.603667092764, 39771.4870895728, 0.046, 0.96, 0.1, 192.0, 0.0, 0.0, 0.0, 0.0, 0.0, 0.0, 0.0, 0.0, 0.0, 1.6665557846753356E9, 0.0, 2022-10-23 13:09:44.675
54.0, -71016.74479445754, -101933.6553732938, 56925.40042703157, 22304.828143695373, 79428.95793067908, 60582.57050306446, 44011.12127436653, 38166.63183768175, 0.046, 0.96, 0.1, 192.0, 0.0, 0.0, 0.0, 0.0, 0.0, 0.0, 0.0, 0.0, 0.0, 1.6665557846753457E9, 0.0, 2022-10-23 13:09:44.675
55.0, -71057.11204494382, -101966.13245798738, 56356.660289366286, 22554.161853094323, 79578.75932201855, 60434.22197511458, 43764.22390511321, 38093.94396471309, 0.046, 0.96, 0.1, 192.0, 0.0, 0.0, 0.0, 0.0, 0.0, 0.0, 0.0, 0.0, 0.0, 1.666555784675356E9, 0.0, 2022-10-23 13:09:44.675
56.0, -71089.92440580421, -102000.59884793745, 57662.87388358997, 22881.52550238675, 79763.29532424157, 61087.80933473222, 44702.79600653601, 39171.02982652543, 0.04, 0.9560000000000001, 0.092, 192.0, 1.0, 64.0, 29.0, 224.0, 2.0, 224.0, 0.0, 0.0, 0.0, 1.6665557846753662E9, 0.0, 2022-10-23 13:09:44.675
57.0, -71061.60474557933, -101976.1236877589, 59256.88853942019, 22801.886236892493, 79719.50825685362, 61719.29081908355, 45642.910378326225, 39969.18826927999, 0.04, 0.9560000000000001, 0.092, 192.0, 0.0, 0.0, 0.0, 0.0, 0.0, 0.0, 0.0, 0.0, 0.0, 1.6665557846753771E9, 0.0, 2022-10-23 13:09:44.675
58.0, -70987.44165747662, -101905.87215493586, 57247.69023033264, 22290.075992354872, 79420.75484046398, 60729.84614728048, 44234.41520147505, 38365.919991245275, 0.04, 0.9560000000000001, 0.092, 192.0, 0.0, 0.0, 0.0, 0.0, 0.0, 0.0, 0.0, 0.0, 0.0, 1.6665557846753876E9, 0.0, 2022-10-23 13:09:44.675
59.0, -71015.33663455685, -101932.73895177114, 56266.113372577835, 22498.707175100706, 79540.6719494667, 60372.91114007368, 43695.93932580225, 37985.29213491585, 0.04, 0.9560000000000001, 0.092, 192.0, 0.0, 0.0, 0.0, 0.0, 0.0, 0.0, 0.0, 0.0, 0.0, 1.6665557846753979E9, 0.0, 2022-10-23 13:09:44.675
60.0, -71072.08771372888, -101973.3744231909, 57187.92166565915, 22817.778327200216, 79730.37120465889, 60862.07906747807, 44400.71218022254, 38862.463994319914, 0.04, 0.9560000000000001, 0.092, 192.0, 0.0, 0.0, 0.0, 0.0, 0.0, 0.0, 0.0, 0.0, 0.0, 1.666555784675408E9, 0.0, 2022-10-23 13:09:44.675
61.0, -71078.03327775399, -101978.0682895265, 59178.43391638207, 22904.883075342546, 79783.90363262936, 61710.05954862351, 45640.16111375822, 40034.34360436721, 0.04, 0.9560000000000001, 0.092, 192.0, 0.0, 0.0, 0.0, 0.0, 0.0, 0.0, 0.0, 0.0, 0.0, 1.6665557846754184E9, 0.0, 2022-10-23 13:09:44.675
62.0, -71001.74677392803, -101909.78371021555, 57616.60577256749, 22334.37714986529, 79457.65757055969, 60905.95554184384, 44500.08803607083, 38653.83281157408, 0.04, 0.9560000000000001, 0.092, 192.0, 0.0, 0.0, 0.0, 0.0, 0.0, 0.0, 0.0, 0.0, 0.0, 1.6665557846754284E9, 0.0, 2022-10-23 13:09:44.675
63.0, -71021.84099219335, -101925.49698656762, 56237.34667746386, 22458.831662992437, 79514.3192427539, 60351.36405841876, 43676.96269475969, 37939.31459657128, 0.04, 0.9560000000000001, 0.092, 192.0, 0.0, 0.0, 0.0, 0.0, 0.0, 0.0, 0.0, 0.0, 0.0, 1.666555784675439E9, 0.0, 2022-10-23 13:09:44.675
64.0, -71060.80008277895, -101963.98669051965, 56805.37155930657, 22764.871748074504, 79692.48499780714, 60690.66353925032, 44162.48728781787, 38608.36936335199, 0.04, 0.9560000000000001, 0.092, 192.0, 0.0, 0.0, 0.0, 0.0, 0.0, 0.0, 0.0, 0.0, 0.0, 1.6665557846754491E9, 0.0, 2022-10-23 13:09:44.675
65.0, -71094.01477503953, -101999.50361245914, 58983.45964949842, 22980.051991945744, 79827.78010699512, 61667.166551013775, 45567.78616521194, 40005.73337146442, 0.04, 0.9560000000000001, 0.092, 192.0, 0.0, 0.0, 0.0, 0.0, 0.0, 0.0, 0.0, 0.0, 0.0, 1.6665557846754696E9, 0.0, 2022-10-23 13:09:44.675
66.0, -70999.93628262714, -101913.27058235057, 58034.471635159454, 22400.113630308348, 79496.52725416748, 61118.20770719144, 44805.2787548636, 38978.67071374306, 0.042, 0.9540000000000001, 0.098, 192.0, 1.0, 80.0, 29.0, 208.0, 3.0, 16.0, 0.0, 0.0, 0.0, 1.6665557846754797E9, 0.0, 2022-10-23 13:09:44.675
67.0, -71005.79243967443, -101914.76814922907, 56302.613771273354, 22421.571304985442, 79502.18224551466, 60390.971349593565, 43729.60105295194, 37954.24556186743, 0.042, 0.9540000000000001, 0.098, 192.0, 0.0, 0.0, 0.0, 0.0, 0.0, 0.0, 0.0, 0.0, 0.0, 1.6665557846754909E9, 0.0, 2022-10-23 13:09:44.675
68.0, -71053.2675448975, -101949.92744325727, 56570.61118729248, 22702.06334615509, 79666.8475469169, 60606.933904520745, 44028.980318186324, 38439.390175269866, 0.042, 0.9540000000000001, 0.098, 192.0, 0.0, 0.0, 0.0, 0.0, 0.0, 0.0, 0.0, 0.0, 0.0, 1.666555784675501E9, 0.0, 2022-10-23 13:09:44.675
69.0, -71089.00798428155, -101987.34426347546, 58658.621747329445, 23000.213265444432, 79825.65669127187, 61552.50210195805, 45401.2656690199, 39851.1040033226, 0.042, 0.9540000000000001, 0.098, 192.0, 0.0, 0.0, 0.0, 0.0, 0.0, 0.0, 0.0, 0.0, 0.0, 1.6665557846755116E9, 0.0, 2022-10-23 13:09:44.675
70.0, -71023.24915209402, -101929.92263196978, 58445.78843662601, 22494.92973028776, 79544.73996695757, 61330.75044521695, 45114.78336033623, 39305.2297002351, 0.042, 0.9540000000000001, 0.098, 192.0, 0.0, 0.0, 0.0, 0.0, 0.0, 0.0, 0.0, 0.0, 0.0, 1.6665557846755247E9, 0.0, 2022-10-23 13:09:44.675
71.0, -71007.3123582974, -101909.64959974881, 56390.36672000489, 22359.344048421866, 79454.05893970239, 60420.833280185856, 43788.16262342485, 37960.88402997065, 0.042, 0.9540000000000001, 0.098, 192.0, 0.0, 0.0, 0.0, 0.0, 0.0, 0.0, 0.0, 0.0, 0.0, 1.6665557846755347E9, 0.0, 2022-10-23 13:09:44.675
72.0, -71041.42112033619, -101939.064495452, 56343.13748397082, 22640.05960703607, 79629.60954065438, 60499.01968229052, 43884.25277283821, 38250.33912066688, 0.042, 0.9540000000000001, 0.098, 192.0, 0.0, 0.0, 0.0, 0.0, 0.0, 0.0, 0.0, 0.0, 0.0, 1.6665557846755452E9, 0.0, 2022-10-23 13:09:44.675
73.0, -71087.62217612531, -101983.3209494735, 58220.05816937187, 22982.913015236023, 79831.17757215233, 61385.512219132455, 45157.43048875696, 39620.143427865914, 0.042, 0.9540000000000001, 0.098, 192.0, 0.0, 0.0, 0.0, 0.0, 0.0, 0.0, 0.0, 0.0, 0.0, 1.6665557846755552E9, 0.0, 2022-10-23 13:09:44.675
74.0, -71021.4163090487, -101924.51350981159, 58782.0257284672, 22630.96244704276, 79642.64060767181, 61525.948229545145, 45387.876974091174, 39629.1511808814, 0.042, 0.9540000000000001, 0.098, 192.0, 0.0, 0.0, 0.0, 0.0, 0.0, 0.0, 0.0, 0.0, 0.0, 1.6665557846755655E9, 0.0, 2022-10-23 13:09:44.675
75.0, -71000.13744832724, -101904.1063671239, 56572.28756812663, 22326.241114883556, 79455.08711994733, 60508.16154577274, 43916.081656942566, 38072.26277259145, 0.038, 0.9560000000000001, 0.092, 192.0, 1.0, 48.0, 29.0, 224.0, 2.0, 224.0, 0.0, 0.0, 0.0, 1.6665557846755764E9, 0.0, 2022-10-23 13:09:44.675
76.0, -71032.30160859843, -101938.39394311834, 56220.29229644446, 22597.85951350445, 79619.95358704968, 60454.942042224655, 43812.72719058123, 38158.696968400116, 0.038, 0.9560000000000001, 0.092, 192.0, 0.0, 0.0, 0.0, 0.0, 0.0, 0.0, 0.0, 0.0, 0.0, 1.6665557846755874E9, 0.0, 2022-10-23 13:09:44.675
77.0, -71063.88462351378, -101962.60088236343, 57771.45865815385, 22948.044293885745, 79817.5877115235, 61212.8002897263, 44900.36307577647, 39369.08863414391, 0.038, 0.9560000000000001, 0.092, 192.0, 0.0, 0.0, 0.0, 0.0, 0.0, 0.0, 0.0, 0.0, 0.0, 1.666555784675598E9, 0.0, 2022-10-23 13:09:44.675
78.0, -71028.88179169677, -101926.86044297939, 58991.5733327357, 22750.41016941192, 79708.08651543695, 61658.359963698385, 45575.87749670476, 39870.281800065255, 0.038, 0.9560000000000001, 0.092, 192.0, 0.0, 0.0, 0.0, 0.0, 0.0, 0.0, 0.0, 0.0, 0.0, 1.6665557846756084E9, 0.0, 2022-10-23 13:09:44.675
79.0, -70979.21621551708, -101884.77210817006, 56842.229585913374, 22317.859210712817, 79462.44084387313, 60638.62867815837, 44106.60792667961, 38248.37216715481, 0.038, 0.9560000000000001, 0.092, 192.0, 0.0, 0.0, 0.0, 0.0, 0.0, 0.0, 0.0, 0.0, 0.0, 1.6665557846756186E9, 0.0, 2022-10-23 13:09:44.675
80.0, -71015.98483514605, -101919.12673939786, 56126.68319066563, 22555.659419972828, 79598.67472632823, 60411.08791960334, 43755.23850384218, 38064.327903309815, 0.038, 0.9560000000000001, 0.092, 192.0, 0.0, 0.0, 0.0, 0.0, 0.0, 0.0, 0.0, 0.0, 0.0, 1.6665557846756382E9, 0.0, 2022-10-23 13:09:44.675
81.0, -71056.66501005471, -101958.64462359484, 57318.07587362241, 22892.343746703118, 79793.22431006722, 61025.26915374627, 44632.67858417971, 39088.95422088554, 0.038, 0.9560000000000001, 0.092, 192.0, 0.0, 0.0, 0.0, 0.0, 0.0, 0.0, 0.0, 0.0, 0.0, 1.6665557846756487E9, 0.0, 2022-10-23 13:09:44.675
82.0, -71036.68255051167, -101951.49206536914, 59041.95416473797, 22852.33412412812, 79760.32254222901, 61716.76507196011, 45663.16105880273, 40003.118217363146, 0.038, 0.9560000000000001, 0.092, 192.0, 0.0, 0.0, 0.0, 0.0, 0.0, 0.0, 0.0, 0.0, 0.0, 1.6665557846756608E9, 0.0, 2022-10-23 13:09:44.675
83.0, -70965.8498723328, -101890.62826521734, 57139.708952869056, 22317.32276884589, 79453.88012574674, 60761.853845340476, 44311.59577507923, 38446.54273349557, 0.038, 0.9560000000000001, 0.092, 192.0, 0.0, 0.0, 0.0, 0.0, 0.0, 0.0, 0.0, 0.0, 0.0, 1.6665557846756716E9, 0.0, 2022-10-23 13:09:44.675
84.0, -71001.76912567248, -101915.55046028501, 56040.4278088126, 22509.771288606084, 79567.06935966843, 60350.80526480738, 43694.59822113493, 37972.90926848761, 0.038, 0.9560000000000001, 0.092, 192.0, 0.0, 0.0, 0.0, 0.0, 0.0, 0.0, 0.0, 0.0, 0.0, 1.6665557846756816E9, 0.0, 2022-10-23 13:09:44.675
85.0, -71048.77484426199, -101952.72141131418, 56873.47732466189, 22818.068899878133, 79751.4265479358, 60814.58161051055, 44352.030080798875, 38799.72264763387, 0.046, 0.9480000000000001, 0.092, 192.0, 1.0, 112.0, 29.0, 160.0, 2.0, 224.0, 0.0, 0.0, 0.0, 1.666555784675692E9, 0.0, 2022-10-23 13:09:44.675
86.0, -71052.99932396405, -101958.35405091693, 58938.890271054544, 22946.703189218428, 79818.25826385716, 61703.82341192048, 45646.03962254997, 40045.02773821685, 0.046, 0.9480000000000001, 0.092, 192.0, 0.0, 0.0, 0.0, 0.0, 0.0, 0.0, 0.0, 0.0, 0.0, 1.6665557846757028E9, 0.0, 2022-10-23 13:09:44.675
87.0, -70981.8090178739, -101896.26090482008, 57543.73908564319, 22358.740551321574, 79477.8635475473, 60959.4879698143, 44599.799168085956, 38753.45453661138, 0.046, 0.9480000000000001, 0.092, 192.0, 0.0, 0.0, 0.0, 0.0, 0.0, 0.0, 0.0, 0.0, 0.0, 1.666555784675713E9, 0.0, 2022-10-23 13:09:44.675
88.0, -70988.89452086622, -101904.70986422419, 56055.15760840865, 22456.01534319107, 79523.84108589187, 60357.89076779971, 43704.09771252843, 37947.785907719845, 0.046, 0.9480000000000001, 0.092, 192.0, 0.0, 0.0, 0.0, 0.0, 0.0, 0.0, 0.0, 0.0, 0.0, 1.6665557846757233E9, 0.0, 2022-10-23 13:09:44.675
89.0, -71010.9109891547, -101923.26181212209, 56519.98448610121, 22761.31782070611, 79708.69001253725, 60654.610175443915, 44127.68562170096, 38560.22370579526, 0.046, 0.9480000000000001, 0.092, 192.0, 0.0, 0.0, 0.0, 0.0, 0.0, 0.0, 0.0, 0.0, 0.0, 1.6665557846757336E9, 0.0, 2022-10-23 13:09:44.675
90.0, -71050.20535590714, -101955.35891715992, 58672.85980854748, 22996.189951442477, 79848.097842705, 61615.802242255486, 45521.763923378465, 39964.67321690002, 0.046, 0.9480000000000001, 0.092, 192.0, 0.0, 0.0, 0.0, 0.0, 0.0, 0.0, 0.0, 0.0, 0.0, 1.6665557846757438E9, 0.0, 2022-10-23 13:09:44.675
91.0, -70974.254128248, -101885.37560527034, 57936.03455257828, 22431.987217901617, 79525.78568765947, 61151.42239945202, 44889.83540413802, 39072.36922649971, 0.046, 0.9480000000000001, 0.092, 192.0, 0.0, 0.0, 0.0, 0.0, 0.0, 0.0, 0.0, 0.0, 0.0, 1.666555784675754E9, 0.0, 2022-10-23 13:09:44.675
92.0, -70977.38337247174, -101890.00241637259, 56072.614320828245, 22402.304101264966, 79494.42619018868, 60350.8946717852, 43712.61372716591, 37934.24075057993, 0.046, 0.9480000000000001, 0.092, 192.0, 0.0, 0.0, 0.0, 0.0, 0.0, 0.0, 0.0, 0.0, 0.0, 1.6665557846757655E9, 0.0, 2022-10-23 13:09:44.675
93.0, -71020.7681084595, -101927.9556784577, 56246.24267175706, 22684.651337224404, 79670.06619811848, 60534.3354385299, 43955.286616717174, 38371.865555270386, 0.046, 0.9480000000000001, 0.092, 192.0, 0.0, 0.0, 0.0, 0.0, 0.0, 0.0, 0.0, 0.0, 0.0, 1.6665557846757755E9, 0.0, 2022-10-23 13:09:44.675
94.0, -71056.84382401036, -101965.90894054282, 58274.84229503183, 23001.710832322937, 79846.77908978214, 61464.2574148485, 45298.738217203405, 39781.21009841086, 0.046, 0.9480000000000001, 0.092, 192.0, 0.0, 0.0, 0.0, 0.0, 0.0, 0.0, 0.0, 0.0, 0.0, 1.6665557846757855E9, 0.0, 2022-10-23 13:09:44.675
95.0, -70994.19188430213, -101907.54853577001, 58364.40573506424, 22554.005390883136, 79608.77771482202, 61401.00197803998, 45221.33412615468, 39451.812440372996, 0.052000000000000005, 0.9520000000000001, 0.092, 192.0, 1.0, 160.0, 29.0, 192.0, 2.0, 224.0, 0.0, 0.0, 0.0, 1.666555784675796E9, 0.0, 2022-10-23 13:09:44.675
96.0, -70976.37754397125, -101889.89065765032, 56238.68778213117, 22344.122510447804, 79464.13957645174, 60442.492120563045, 43828.82044658905, 38015.13171376368, 0.052000000000000005, 0.9520000000000001, 0.092, 192.0, 0.0, 0.0, 0.0, 0.0, 0.0, 0.0, 0.0, 0.0, 0.0, 1.6665557846758165E9, 0.0, 2022-10-23 13:09:44.675
97.0, -70995.64474769172, -101906.6544659918, 56069.261559159946, 22626.2909324516, 79628.44724994269, 60453.84680674635, 43837.87290309345, 38218.197312140146, 0.052000000000000005, 0.9520000000000001, 0.092, 192.0, 0.0, 0.0, 0.0, 0.0, 0.0, 0.0, 0.0, 0.0, 0.0, 1.666555784675828E9, 0.0, 2022-10-23 13:09:44.675
98.0, -71040.4152918357, -101947.28993741155, 57806.26032427077, 22966.864462717112, 79821.47691505872, 61265.259833962904, 45016.01100158823, 39512.38566784688, 0.052000000000000005, 0.9520000000000001, 0.092, 192.0, 0.0, 0.0, 0.0, 0.0, 0.0, 0.0, 0.0, 0.0, 0.0, 1.6665557846758385E9, 0.0, 2022-10-23 13:09:44.675
99.0, -70995.42123024717, -101904.307532824, 58614.6335142414, 22671.10618008449, 79670.73675045214, 61527.423444679196, 45415.10139883774, 39708.298707997645, 0.052000000000000005, 0.9520000000000001, 0.092, 192.0, 0.0, 0.0, 0.0, 0.0, 0.0, 0.0, 0.0, 0.0, 0.0, 1.6665557846758475E9, 0.0, 2022-10-23 13:09:44.675
100.0, -70951.2988866924, -101861.1910177697, 56406.63878996835, 22325.79407999445, 79455.37769262525, 60504.719377126625, 43933.58307285107, 38118.419124891654, 0.052000000000000005, 0.9520000000000001, 0.092, 192.0, 0.0, 0.0, 0.0, 0.0, 0.0, 0.0, 0.0, 0.0, 0.0, 1.6665557846758568E9, 0.0, 2022-10-23 13:09:44.675
101.0, -70983.3065847524, -101893.86926816337, 55955.04414499333, 22590.572844812017, 79614.20918872466, 60408.96450388009, 43764.80505046905, 38137.06047976738, 0.052000000000000005, 0.9520000000000001, 0.092, 192.0, 0.0, 0.0, 0.0, 0.0, 0.0, 0.0, 0.0, 0.0, 0.0, 1.6665557846758664E9, 0.0, 2022-10-23 13:09:44.675
102.0, -71046.45026283864, -101951.78263804707, 57366.19917943468, 22915.544857447727, 79789.20099606526, 61096.70532902543, 44760.35174850842, 39268.4163771172, 0.052000000000000005, 0.9520000000000001, 0.092, 192.0, 0.0, 0.0, 0.0, 0.0, 0.0, 0.0, 0.0, 0.0, 0.0, 1.666555784675876E9, 0.0, 2022-10-23 13:09:44.675
103.0, -71023.87500093877, -101931.19668140373, 58816.626228884015, 22772.292527233665, 79715.10496319592, 61668.93233882575, 45604.42067437419, 39947.66353936953, 0.052000000000000005, 0.9520000000000001, 0.092, 192.0, 0.0, 0.0, 0.0, 0.0, 0.0, 0.0, 0.0, 0.0, 0.0, 1.666555784675885E9, 0.0, 2022-10-23 13:09:44.675
104.0, -70946.4932616345, -101853.92670082173, 56727.56513685765, 22297.452068025123, 79434.85879121529, 60657.96293711221, 44157.748717993345, 38320.00950813407, 0.052000000000000005, 0.9520000000000001, 0.092, 192.0, 0.0, 0.0, 0.0, 0.0, 0.0, 0.0, 0.0, 0.0, 0.0, 1.6665557846758945E9, 0.0, 2022-10-23 13:09:44.675
105.0, -70996.98585235904, -101902.18411710074, 55881.283388290816, 22525.104585302422, 79567.1811183907, 60367.703183615595, 43714.35716323342, 38035.583559940285, 0.048, 0.9520000000000001, 0.092, 192.0, 1.0, 128.0, 29.0, 192.0, 2.0, 224.0, 0.0, 0.0, 0.0, 1.6665557846759036E9, 0.0, 2022-10-23 13:09:44.675
106.0, -71036.12375690028, -101933.32009712698, 56958.86098848117, 22854.703409040383, 79764.16704227532, 60938.96906840433, 44524.227920082565, 39002.87765298816, 0.048, 0.9520000000000001, 0.092, 192.0, 0.0, 0.0, 0.0, 0.0, 0.0, 0.0, 0.0, 0.0, 0.0, 1.6665557846759136E9, 0.0, 2022-10-23 13:09:44.675
107.0, -71040.23647788007, -101932.31426862649, 58845.99642109829, 22877.926871529446, 79778.15923430434, 61727.717426743206, 45679.90251539976, 40060.8080698023, 0.048, 0.9520000000000001, 0.092, 192.0, 0.0, 0.0, 0.0, 0.0, 0.0, 0.0, 0.0, 0.0, 0.0, 1.6665557846759229E9, 0.0, 2022-10-23 13:09:44.675
108.0, -70972.22011950257, -101864.18615152671, 57108.84119377628, 22324.452975327134, 79462.41849212868, 60846.96928822628, 44429.769448014435, 38584.43064504035, 0.048, 0.9520000000000001, 0.092, 192.0, 0.0, 0.0, 0.0, 0.0, 0.0, 0.0, 0.0, 0.0, 0.0, 1.6665557846759324E9, 0.0, 2022-10-23 13:09:44.675
109.0, -70978.7021253946, -101883.40865175828, 55890.96169363996, 22487.039564495037, 79555.89348744077, 60383.32705298985, 43729.019907596106, 38003.68762060256, 0.048, 0.9520000000000001, 0.092, 192.0, 0.0, 0.0, 0.0, 0.0, 0.0, 0.0, 0.0, 0.0, 0.0, 1.6665557846759417E9, 0.0, 2022-10-23 13:09:44.675
110.0, -71021.43866079315, -101915.93043994076, 56573.226341393754, 22780.83089361559, 79727.08549822397, 60769.45343845528, 44281.778547975846, 38727.347699087586, 0.048, 0.9520000000000001, 0.092, 192.0, 0.0, 0.0, 0.0, 0.0, 0.0, 0.0, 0.0, 0.0, 0.0, 1.6665557846759512E9, 0.0, 2022-10-23 13:09:44.675
111.0, -71027.65244575172, -101931.06257093699, 58671.47400039125, 22956.314439334208, 79826.72957500572, 61674.92260633977, 45607.54991859793, 40028.64390953111, 0.048, 0.9520000000000001, 0.092, 192.0, 0.0, 0.0, 0.0, 0.0, 0.0, 0.0, 0.0, 0.0, 0.0, 1.666555784675969E9, 0.0, 2022-10-23 13:09:44.675
112.0, -70946.58266861233, -101856.58655841192, 57504.422367146304, 22387.641356902284, 79509.7147833961, 61033.092264305626, 44707.93690776073, 38878.46784334992, 0.048, 0.9520000000000001, 0.092, 192.0, 0.0, 0.0, 0.0, 0.0, 0.0, 0.0, 0.0, 0.0, 0.0, 1.6665557846759796E9, 0.0, 2022-10-23 13:09:44.675
113.0, -70973.51652068098, -101874.91498886526, 55897.46605127645, 22442.73840698462, 79531.95476912914, 60375.05690754139, 43724.50485521613, 37966.293152128834, 0.048, 0.9520000000000001, 0.092, 192.0, 0.0, 0.0, 0.0, 0.0, 0.0, 0.0, 0.0, 0.0, 0.0, 1.66655578467599E9, 0.0, 2022-10-23 13:09:44.675
114.0, -71005.32305304088, -101905.87215493586, 56254.04343057197, 22719.229485896765, 79693.15555014081, 60623.34008495094, 44074.82374606416, 38501.81859753354, 0.052000000000000005, 0.9540000000000001, 0.094, 192.0, 1.0, 160.0, 29.0, 208.0, 2.0, 240.0, 0.0, 0.0, 0.0, 1.6665557846759994E9, 0.0, 2022-10-23 13:09:44.675
115.0, -71027.67479749618, -101932.98482096015, 58387.07040394192, 23009.42218416002, 79860.57011611106, 61583.59337849539, 45465.2810651399, 39925.08827746967, 0.052000000000000005, 0.9540000000000001, 0.094, 192.0, 0.0, 0.0, 0.0, 0.0, 0.0, 0.0, 0.0, 0.0, 0.0, 1.6665557846760097E9, 0.0, 2022-10-23 13:09:44.676
116.0, -70967.01216304448, -101877.82071564446, 57947.433942250485, 22470.07459045346, 79555.53585952948, 61263.60580487321, 45030.31611803963, 39226.775077196966, 0.052000000000000005, 0.9540000000000001, 0.094, 192.0, 0.0, 0.0, 0.0, 0.0, 0.0, 0.0, 0.0, 0.0, 0.0, 1.6665557846760187E9, 0.0, 2022-10-23 13:09:44.676
117.0, -70958.94318329611, -101872.03161383052, 55978.80404934932, 22373.85033057336, 79473.88493703425, 60400.87317238727, 43769.0295301711, 37970.80820450881, 0.052000000000000005, 0.9540000000000001, 0.094, 192.0, 0.0, 0.0, 0.0, 0.0, 0.0, 0.0, 0.0, 0.0, 0.0, 1.666555784676028E9, 0.0, 2022-10-23 13:09:44.676
118.0, -70988.49218946602, -101889.24245706112, 56049.10028566126, 22666.926403871348, 79654.3529217664, 60534.581307718916, 43944.93775903437, 38342.80828747848, 0.052000000000000005, 0.9540000000000001, 0.094, 192.0, 0.0, 0.0, 0.0, 0.0, 0.0, 0.0, 0.0, 0.0, 0.0, 1.6665557846760375E9, 0.0, 2022-10-23 13:09:44.676
119.0, -71029.88762019726, -101932.89541398233, 57982.34736708968, 22988.97033798341, 79827.10955466147, 61418.88337360423, 45232.08531523768, 39712.634946421975, 0.052000000000000005, 0.9540000000000001, 0.094, 192.0, 0.0, 0.0, 0.0, 0.0, 0.0, 0.0, 0.0, 0.0, 0.0, 1.6665557846760468E9, 0.0, 2022-10-23 13:09:44.676
120.0, -70980.17734052865, -101876.45725923267, 58290.3097021949, 22582.548568552564, 79600.70873507365, 61431.86973713276, 45288.79169092079, 39531.74227854518, 0.052000000000000005, 0.9540000000000001, 0.094, 192.0, 0.0, 0.0, 0.0, 0.0, 0.0, 0.0, 0.0, 0.0, 0.0, 1.6665557846760564E9, 0.0, 2022-10-23 13:09:44.676
121.0, -70933.05986321687, -101840.56035763746, 56135.13215006974, 22346.13416744878, 79454.72949203604, 60460.328812638385, 43871.601685476504, 38048.63697870219, 0.052000000000000005, 0.9540000000000001, 0.094, 192.0, 0.0, 0.0, 0.0, 0.0, 0.0, 0.0, 0.0, 0.0, 0.0, 1.666555785153798E9, 0.0, 2022-10-23 13:09:45.153
122.0, -70958.80907282938, -101863.5379509375, 55895.58850474221, 22625.91095279586, 79623.03812778452, 60456.35020212534, 43842.58912117352, 38207.82610271288, 0.052000000000000005, 0.9540000000000001, 0.094, 192.0, 0.0, 0.0, 0.0, 0.0, 0.0, 0.0, 0.0, 0.0, 0.0, 1.6665557851539E9, 0.0, 2022-10-23 13:09:45.153
123.0, -71007.71468969759, -101919.99845743162, 57546.44364672228, 22963.087017904167, 79805.29425207309, 61243.46688311898, 44979.44354765935, 39460.127289310374, 0.052000000000000005, 0.9540000000000001, 0.094, 192.0, 0.0, 0.0, 0.0, 0.0, 0.0, 0.0, 0.0, 0.0, 0.0, 1.6665557851539392E9, 0.0, 2022-10-23 13:09:45.153
124.0, -70975.21525325958, -101886.38143377083, 58556.25075772414, 22711.518134059686, 79657.01277935658, 61581.00057613857, 45505.82712958183, 39797.303354418684, 0.054, 0.9540000000000001, 0.094, 192.0, 1.0, 176.0, 29.0, 208.0, 2.0, 240.0, 0.0, 0.0, 0.0, 1.6665557851539643E9, 0.0, 2022-10-23 13:09:45.153
125.0, -70933.90922950617, -101833.96659302314, 56351.58644337493, 22325.101175916338, 79423.32529107634, 60537.97877287612, 44007.50029176477, 38168.93406736065, 0.054, 0.9540000000000001, 0.094, 192.0, 0.0, 0.0, 0.0, 0.0, 0.0, 0.0, 0.0, 0.0, 0.0, 1.6665557851539836E9, 0.0, 2022-10-23 13:09:45.153
126.0, -70947.76731106846, -101865.4378492162, 55758.59466297563, 22577.407667327843, 79573.61842079382, 60369.69248887211, 43738.74291643416, 38083.17042388564, 0.054, 0.9540000000000001, 0.094, 192.0, 0.0, 0.0, 0.0, 0.0, 0.0, 0.0, 0.0, 0.0, 0.0, 1.6665557851539993E9, 0.0, 2022-10-23 13:09:45.153
127.0, -71005.39010827424, -101918.59029753093, 57038.56730920879, 22886.979328033845, 79749.86192582392, 61000.97280752335, 44654.00214839008, 39147.20286693607, 0.054, 0.9540000000000001, 0.094, 192.0, 0.0, 0.0, 0.0, 0.0, 0.0, 0.0, 0.0, 0.0, 0.0, 1.6665557851541152E9, 0.0, 2022-10-23 13:09:45.154
128.0, -70977.003392816, -101892.84108791842, 58648.049372202084, 22811.65394921946, 79720.53643709856, 61642.065541990465, 45606.8123110309, 39967.35542623466, 0.054, 0.9540000000000001, 0.094, 192.0, 0.0, 0.0, 0.0, 0.0, 0.0, 0.0, 0.0, 0.0, 0.0, 1.666555785154127E9, 0.0, 2022-10-23 13:09:45.154
129.0, -70912.27274087344, -101828.84804354288, 56682.638130502484, 22309.052623397427, 79432.17658188065, 60684.53916126957, 44235.018698575346, 38394.10554100342, 0.054, 0.9540000000000001, 0.094, 192.0, 0.0, 0.0, 0.0, 0.0, 0.0, 0.0, 0.0, 0.0, 0.0, 1.6665557851541383E9, 0.0, 2022-10-23 13:09:45.154
130.0, -70936.92671500763, -101846.37181119583, 55707.78914782872, 22511.581779906963, 79537.76622268751, 60332.387427376205, 43700.208508993215, 38008.31443170481, 0.054, 0.9540000000000001, 0.094, 192.0, 0.0, 0.0, 0.0, 0.0, 0.0, 0.0, 0.0, 0.0, 0.0, 1.6665557851541495E9, 0.0, 2022-10-23 13:09:45.154
131.0, -70969.18028225664, -101867.62832017284, 56613.61594362449, 22819.432356289908, 79711.23811140515, 60807.22788658475, 44389.20103182805, 38868.476613578394, 0.054, 0.9540000000000001, 0.094, 192.0, 0.0, 0.0, 0.0, 0.0, 0.0, 0.0, 0.0, 0.0, 0.0, 1.6665557851541612E9, 0.0, 2022-10-23 13:09:45.154
132.0, -70976.24343350453, -101888.63895996082, 58596.2827320436, 22913.57790393566, 79764.90464984234, 61643.56310886898, 45619.150473970236, 40033.047203188806, 0.054, 0.9540000000000001, 0.094, 192.0, 0.0, 0.0, 0.0, 0.0, 0.0, 0.0, 0.0, 0.0, 0.0, 1.6665557851541724E9, 0.0, 2022-10-23 13:09:45.154
133.0, -70923.35920612326, -101846.99766004058, 57052.89477740465, 22346.33533314888, 79446.54875356541, 60847.90806149341, 44491.1026347998, 38664.874573335, 0.054, 0.9540000000000001, 0.094, 192.0, 0.0, 0.0, 0.0, 0.0, 0.0, 0.0, 0.0, 0.0, 0.0, 1.6665557851541836E9, 0.0, 2022-10-23 13:09:45.154
134.0, -70949.04136050241, -101865.8401806164, 55681.391737627004, 22477.62948007935, 79507.1666845282, 60301.005578160955, 43674.14637495833, 37960.79462299283, 0.058, 0.9540000000000001, 0.09, 192.0, 1.0, 208.0, 29.0, 208.0, 2.0, 208.0, 0.0, 0.0, 0.0, 1.6665557851542008E9, 0.0, 2022-10-23 13:09:45.154
135.0, -70974.18707301463, -101889.28716055003, 56256.122142806315, 22763.88827131847, 79672.99427664212, 60645.40125672833, 44164.2754273743, 38634.74442180925, 0.058, 0.9540000000000001, 0.09, 192.0, 0.0, 0.0, 0.0, 0.0, 0.0, 0.0, 0.0, 0.0, 0.0, 1.6665557851542134E9, 0.0, 2022-10-23 13:09:45.154
136.0, -70994.43775349113, -101911.37068407187, 58371.73710724558, 22969.72548600739, 79783.07661808451, 61561.35339276236, 45512.107969773766, 39983.38162700911, 0.058, 0.9540000000000001, 0.09, 192.0, 0.0, 0.0, 0.0, 0.0, 0.0, 0.0, 0.0, 0.0, 0.0, 1.6665557851542246E9, 0.0, 2022-10-23 13:09:45.154
137.0, -70917.30188337587, -101836.7382093356, 57446.106665862404, 22410.551894968976, 79477.28240219146, 61028.28663924774, 44769.58301896847, 38981.24116435542, 0.058, 0.9540000000000001, 0.09, 192.0, 0.0, 0.0, 0.0, 0.0, 0.0, 0.0, 0.0, 0.0, 0.0, 1.6665557851542354E9, 0.0, 2022-10-23 13:09:45.154
138.0, -70919.6935200326, -101834.16775872324, 55708.01266527327, 22421.81717417445, 79477.32710568036, 60300.22326710502, 43690.68666585525, 37953.26208511139, 0.058, 0.9540000000000001, 0.09, 192.0, 0.0, 0.0, 0.0, 0.0, 0.0, 0.0, 0.0, 0.0, 0.0, 1.6665557851542463E9, 0.0, 2022-10-23 13:09:45.154
139.0, -70955.18809022762, -101870.55639869648, 55965.0577265093, 22695.514285029687, 79635.48804944611, 60510.240258007085, 43981.97459959681, 38433.95870136723, 0.058, 0.9540000000000001, 0.09, 192.0, 0.0, 0.0, 0.0, 0.0, 0.0, 0.0, 0.0, 0.0, 0.0, 1.6665557851542573E9, 0.0, 2022-10-23 13:09:45.154
140.0, -70989.11803831077, -101905.93921016922, 58044.48521667543, 22997.106372965143, 79801.89678691588, 61448.52178675197, 45348.04616547182, 39852.57921845665, 0.058, 0.9540000000000001, 0.09, 192.0, 0.0, 0.0, 0.0, 0.0, 0.0, 0.0, 0.0, 0.0, 0.0, 1.6665557851542685E9, 0.0, 2022-10-23 13:09:45.154
141.0, -70922.53219157842, -101843.4884361611, 57867.2582348893, 22506.39617519333, 79534.30170229694, 61247.154920954104, 45089.14590944599, 39336.812715150445, 0.058, 0.9540000000000001, 0.09, 192.0, 0.0, 0.0, 0.0, 0.0, 0.0, 0.0, 0.0, 0.0, 0.0, 1.6665557851542797E9, 0.0, 2022-10-23 13:09:45.154
142.0, -70914.12793566321, -101830.81499705494, 55817.80443403774, 22363.56852812392, 79431.23780861353, 60337.88595651221, 43762.74868997916, 37990.27657392938, 0.058, 0.9540000000000001, 0.09, 192.0, 0.0, 0.0, 0.0, 0.0, 0.0, 0.0, 0.0, 0.0, 0.0, 1.6665557851543047E9, 0.0, 2022-10-23 13:09:45.154
143.0, -70950.4495204031, -101862.57682592593, 55761.52274149928, 22642.808871604073, 79590.7845605355, 60407.131660834755, 43847.46180146478, 38269.1816412427, 0.06, 0.9520000000000001, 0.088, 192.0, 1.0, 224.0, 29.0, 192.0, 2.0, 192.0, 0.0, 0.0, 0.0, 1.666555785154316E9, 0.0, 2022-10-23 13:09:45.154
144.0, -70978.88093935025, -101892.3493495404, 57634.33070592055, 22994.78179154179, 79792.39729552237, 61289.17620053008, 45119.58898539412, 39633.80034372811, 0.06, 0.9520000000000001, 0.088, 192.0, 0.0, 0.0, 0.0, 0.0, 0.0, 0.0, 0.0, 0.0, 0.0, 1.6665557851543279E9, 0.0, 2022-10-23 13:09:45.154
145.0, -70924.90147649068, -101842.99669778308, 58199.94159936209, 22631.454185420775, 79595.1878541932, 61423.3984259842, 45351.7565550514, 39642.65163453241, 0.06, 0.9520000000000001, 0.088, 192.0, 0.0, 0.0, 0.0, 0.0, 0.0, 0.0, 0.0, 0.0, 0.0, 1.6665557851543393E9, 0.0, 2022-10-23 13:09:45.154
146.0, -70900.47101980103, -101813.20182242416, 56003.7709479059, 22326.889315472763, 79410.51774150346, 60414.597143482824, 43888.52195602917, 38088.803063488376, 0.06, 0.9520000000000001, 0.088, 192.0, 0.0, 0.0, 0.0, 0.0, 0.0, 0.0, 0.0, 0.0, 0.0, 1.6665557851543503E9, 0.0, 2022-10-23 13:09:45.154
147.0, -70944.5486598669, -101854.19492175519, 55645.62894649851, 22596.630167559408, 79572.72435101561, 60351.63227935223, 43777.52319306412, 38165.44719522562, 0.06, 0.9520000000000001, 0.088, 192.0, 0.0, 0.0, 0.0, 0.0, 0.0, 0.0, 0.0, 0.0, 0.0, 1.666555785154361E9, 0.0, 2022-10-23 13:09:45.154
148.0, -70982.9042533522, -101884.99562561461, 57171.53783697341, 22939.841203670647, 79763.56354517503, 61084.30011085274, 44842.06972623703, 39356.75047120458, 0.06, 0.9520000000000001, 0.088, 192.0, 0.0, 0.0, 0.0, 0.0, 0.0, 0.0, 0.0, 0.0, 0.0, 1.666555785154372E9, 0.0, 2022-10-23 13:09:45.154
149.0, -70937.08317721882, -101851.66917463174, 58422.31910494794, 22764.201195740843, 79671.87668941935, 61547.38355247779, 45542.64045269972, 39882.68701823795, 0.06, 0.9520000000000001, 0.088, 192.0, 0.0, 0.0, 0.0, 0.0, 0.0, 0.0, 0.0, 0.0, 0.0, 1.6665557851543832E9, 0.0, 2022-10-23 13:09:45.154
150.0, -70882.74608644797, -101803.9258484752, 56277.5351139945, 22316.13812638976, 79404.81804666735, 60520.231487778605, 44070.46515589538, 38246.58402759839, 0.06, 0.9520000000000001, 0.088, 192.0, 0.0, 0.0, 0.0, 0.0, 0.0, 0.0, 0.0, 0.0, 0.0, 1.666555785154394E9, 0.0, 2022-10-23 13:09:45.154
151.0, -70918.33006362082, -101828.69158133169, 55549.069410451586, 22551.524347248596, 79538.74969944355, 60281.3807465292, 43705.997610807135, 38050.93920838108, 0.06, 0.9520000000000001, 0.088, 192.0, 0.0, 0.0, 0.0, 0.0, 0.0, 0.0, 0.0, 0.0, 0.0, 1.6665557851544049E9, 0.0, 2022-10-23 13:09:45.154
152.0, -70957.28915420642, -101869.50586670708, 56714.77993902921, 22884.028897765744, 79735.89208553935, 60874.17136122839, 44560.75067052253, 39062.35564498373, 0.06, 0.9520000000000001, 0.088, 192.0, 0.0, 0.0, 0.0, 0.0, 0.0, 0.0, 0.0, 0.0, 0.0, 1.6665557851544156E9, 0.0, 2022-10-23 13:09:45.154
153.0, -70942.13467146573, -101865.41549747175, 58461.90404437829, 22865.208728934376, 79727.82310579099, 61578.78775343749, 45612.51200586701, 40006.962717409464, 0.052000000000000005, 0.962, 0.096, 192.0, 1.0, 160.0, 30.0, 16.0, 3.0, 0.0, 0.0, 0.0, 0.0, 1.6665557851544268E9, 0.0, 2022-10-23 13:09:45.154
154.0, -70884.44481902657, -101801.5789153074, 56608.07271099958, 22331.605533552833, 79423.48175328753, 60657.49355047865, 44298.02826619486, 38481.21028914575, 0.052000000000000005, 0.962, 0.096, 192.0, 0.0, 0.0, 0.0, 0.0, 0.0, 0.0, 0.0, 0.0, 0.0, 1.6665557851544385E9, 0.0, 2022-10-23 13:09:45.154
155.0, -70918.15124966517, -101827.97632550912, 55543.57088131558, 22513.191105507747, 79531.55243772894, 60280.59843547326, 43710.28914574256, 38024.541798179365, 0.052000000000000005, 0.962, 0.096, 192.0, 0.0, 0.0, 0.0, 0.0, 0.0, 0.0, 0.0, 0.0, 0.0, 1.6665557851544495E9, 0.0, 2022-10-23 13:09:45.154
156.0, -70947.744959324, -101854.21727349964, 56341.95284151469, 22814.157344598454, 79697.7600094986, 60715.96571397373, 44335.37803117967, 38819.660403688, 0.052000000000000005, 0.962, 0.096, 192.0, 0.0, 0.0, 0.0, 0.0, 0.0, 0.0, 0.0, 0.0, 0.0, 1.666555785154462E9, 0.0, 2022-10-23 13:09:45.154
157.0, -70956.52919489495, -101863.64970965979, 58412.2384681986, 22950.190061353453, 79775.61113543644, 61604.40285258328, 45634.81904683341, 40075.58257288725, 0.052000000000000005, 0.962, 0.096, 192.0, 0.0, 0.0, 0.0, 0.0, 0.0, 0.0, 0.0, 0.0, 0.0, 1.6665557851544733E9, 0.0, 2022-10-23 13:09:45.154
158.0, -70876.5770049783, -101787.58672327838, 57030.83360562725, 22368.08358050389, 79443.48656457503, 60855.887634263956, 44591.3725604263, 38787.049208527715, 0.052000000000000005, 0.962, 0.096, 192.0, 0.0, 0.0, 0.0, 0.0, 0.0, 0.0, 0.0, 0.0, 0.0, 1.6665557851544957E9, 0.0, 2022-10-23 13:09:45.154
159.0, -70895.93361567661, -101806.76452002102, 55544.48730283824, 22465.15720667329, 79496.6166611453, 60252.94932758204, 43696.274601969075, 37979.05599821282, 0.052000000000000005, 0.962, 0.096, 192.0, 0.0, 0.0, 0.0, 0.0, 0.0, 0.0, 0.0, 0.0, 0.0, 1.6665557851545076E9, 0.0, 2022-10-23 13:09:45.154
160.0, -70932.83634577232, -101839.8898053038, 56026.055637127836, 22747.236221699266, 79664.99235212713, 60562.45393305468, 44134.23468282636, 38592.92430793337, 0.052000000000000005, 0.962, 0.096, 192.0, 0.0, 0.0, 0.0, 0.0, 0.0, 0.0, 0.0, 0.0, 0.0, 1.6665557851545243E9, 0.0, 2022-10-23 13:09:45.154
161.0, -70962.65357287569, -101870.35523299639, 58166.2798722124, 22989.529131594794, 79793.58193797851, 61506.993950247044, 45516.73478087602, 39984.54391772079, 0.052000000000000005, 0.962, 0.096, 192.0, 0.0, 0.0, 0.0, 0.0, 0.0, 0.0, 0.0, 0.0, 0.0, 1.6665557851545386E9, 0.0, 2022-10-23 13:09:45.154
162.0, -70882.2319963255, -101794.4710605706, 57469.77716324058, 22438.670389493753, 79483.54089063893, 61057.701534950924, 44911.67305847086, 39115.128113642706, 0.052000000000000005, 0.962, 0.096, 192.0, 0.0, 0.0, 0.0, 0.0, 0.0, 0.0, 0.0, 0.0, 0.0, 1.6665557851545532E9, 0.0, 2022-10-23 13:09:45.154
163.0, -70872.48663574299, -101778.89189468526, 55607.76509139122, 22410.328377524424, 79465.21246018559, 60256.033868316874, 43735.81483791052, 37967.433091096056, 0.052000000000000005, 0.9540000000000001, 0.096, 192.0, 1.0, 160.0, 29.0, 208.0, 3.0, 0.0, 0.0, 0.0, 0.0, 1.6665557851545672E9, 0.0, 2022-10-23 13:09:45.154
164.0, -70912.04922342888, -101818.94622074917, 55756.85122690812, 22685.321889558065, 79635.89038084631, 60416.96642839509, 43961.94743656486, 38388.070570000484, 0.052000000000000005, 0.9540000000000001, 0.096, 192.0, 0.0, 0.0, 0.0, 0.0, 0.0, 0.0, 0.0, 0.0, 0.0, 1.6665557851545794E9, 0.0, 2022-10-23 13:09:45.154
165.0, -70947.40968315717, -101855.82659910043, 57788.311873473154, 23011.41148941654, 79820.56049353606, 61349.011820436936, 45317.80425522378, 39810.669697602956, 0.052000000000000005, 0.9540000000000001, 0.096, 192.0, 0.0, 0.0, 0.0, 0.0, 0.0, 0.0, 0.0, 0.0, 0.0, 1.6665557851545906E9, 0.0, 2022-10-23 13:09:45.154
166.0, -70881.65085096966, -101796.0803861714, 57859.2563103743, 22559.682733974783, 79563.33661834439, 61246.14909245361, 45214.76271328482, 39458.383853242856, 0.052000000000000005, 0.9540000000000001, 0.096, 192.0, 0.0, 0.0, 0.0, 0.0, 0.0, 0.0, 0.0, 0.0, 0.0, 1.6665557851546016E9, 0.0, 2022-10-23 13:09:45.154
167.0, -70863.81415889433, -101777.5731417624, 55727.682200393945, 22365.490778147076, 79438.88210521724, 60281.1795808291, 43819.29860345109, 38021.65842314463, 0.052000000000000005, 0.9540000000000001, 0.096, 192.0, 0.0, 0.0, 0.0, 0.0, 0.0, 0.0, 0.0, 0.0, 0.0, 1.6665557851546123E9, 0.0, 2022-10-23 13:09:45.154
168.0, -70906.4836390595, -101819.88499401629, 55616.14699556196, 22640.171365758346, 79610.83407531191, 60346.37961940523, 43887.8067002066, 38271.10389126586, 0.052000000000000005, 0.9540000000000001, 0.096, 192.0, 0.0, 0.0, 0.0, 0.0, 0.0, 0.0, 0.0, 0.0, 0.0, 1.6665557851546235E9, 0.0, 2022-10-23 13:09:45.154
169.0, -70951.38829367021, -101861.77216312554, 57342.30516461196, 22971.088942419166, 79775.6781906698, 61144.806283093254, 45061.36269108805, 39547.67907234181, 0.052000000000000005, 0.9540000000000001, 0.096, 192.0, 0.0, 0.0, 0.0, 0.0, 0.0, 0.0, 0.0, 0.0, 0.0, 1.6665557851546347E9, 0.0, 2022-10-23 13:09:45.154
170.0, -70899.10756338925, -101809.67024680022, 58174.639424638684, 22684.070191868566, 79626.61440689737, 61407.34987346529, 45476.70280655656, 39752.912789930444, 0.052000000000000005, 0.9540000000000001, 0.096, 192.0, 0.0, 0.0, 0.0, 0.0, 0.0, 0.0, 0.0, 0.0, 0.0, 1.6665557851546454E9, 0.0, 2022-10-23 13:09:45.154
171.0, -70860.43904548157, -101764.60912997831, 55960.83324680725, 22327.112832917315, 79415.77040145046, 60371.07829702834, 43984.2321257868, 38147.18582000564, 0.052000000000000005, 0.9540000000000001, 0.096, 192.0, 0.0, 0.0, 0.0, 0.0, 0.0, 0.0, 0.0, 0.0, 0.0, 1.6665557851546564E9, 0.0, 2022-10-23 13:09:45.154
172.0, -70898.48171454451, -101800.70719727364, 55450.341755192494, 22585.342536609478, 79562.24138286608, 60226.52956563587, 43765.006216169146, 38117.390944646715, 0.052000000000000005, 0.9540000000000001, 0.096, 192.0, 0.0, 0.0, 0.0, 0.0, 0.0, 0.0, 0.0, 0.0, 0.0, 1.6665557851546671E9, 0.0, 2022-10-23 13:09:45.154
173.0, -70942.2911336769, -101845.36598269535, 56880.2275514874, 22933.91799138999, 79763.76471087513, 60935.41514103593, 44783.57521099749, 39275.72539755409, 0.06, 0.9520000000000001, 0.094, 192.0, 1.0, 224.0, 29.0, 192.0, 2.0, 240.0, 0.0, 0.0, 0.0, 1.6665557851546977E9, 0.0, 2022-10-23 13:09:45.154
174.0, -70917.21247639805, -101822.34368590638, 58323.23382177756, 22791.962062354334, 79678.22458484466, 61484.73161276956, 45612.93668901166, 39951.41863243802, 0.06, 0.9520000000000001, 0.094, 192.0, 0.0, 0.0, 0.0, 0.0, 0.0, 0.0, 0.0, 0.0, 0.0, 1.6665557851547096E9, 0.0, 2022-10-23 13:09:45.154
175.0, -70842.98233306198, -101747.62180419228, 56258.24555852957, 22329.526821318486, 79414.31753806086, 60485.36276642833, 44184.43670087298, 38342.718880500666, 0.06, 0.9520000000000001, 0.094, 192.0, 0.0, 0.0, 0.0, 0.0, 0.0, 0.0, 0.0, 0.0, 0.0, 1.6665557851547208E9, 0.0, 2022-10-23 13:09:45.154
176.0, -70877.33696428979, -101782.19995286464, 55381.18545784777, 22544.327085533987, 79531.99947261804, 60167.610367251684, 43713.88777659986, 38035.53885645138, 0.06, 0.9520000000000001, 0.094, 192.0, 0.0, 0.0, 0.0, 0.0, 0.0, 0.0, 0.0, 0.0, 0.0, 1.6665557851547322E9, 0.0, 2022-10-23 13:09:45.154
177.0, -70922.17456366713, -101825.29411617448, 56403.50954574461, 22859.307868398177, 79712.13218118336, 60692.80930671803, 44476.41753869266, 38963.85150716919, 0.06, 0.9520000000000001, 0.094, 192.0, 0.0, 0.0, 0.0, 0.0, 0.0, 0.0, 0.0, 0.0, 0.0, 1.666555785154746E9, 0.0, 2022-10-23 13:09:45.154
178.0, -70914.86554323025, -101818.49918586007, 58291.53904813994, 22889.34861294611, 79737.9707977737, 61475.477990565065, 45633.88027356628, 40036.06468869027, 0.06, 0.9520000000000001, 0.094, 192.0, 0.0, 0.0, 0.0, 0.0, 0.0, 0.0, 0.0, 0.0, 0.0, 1.6665557851547568E9, 0.0, 2022-10-23 13:09:45.154
179.0, -70845.68689414106, -101753.74618217304, 56578.94838797431, 22329.79504225195, 79423.07942188733, 60600.69776781771, 44397.44882553206, 38572.91949664587, 0.06, 0.9520000000000001, 0.094, 192.0, 0.0, 0.0, 0.0, 0.0, 0.0, 0.0, 0.0, 0.0, 0.0, 1.6665557851547685E9, 0.0, 2022-10-23 13:09:45.154
180.0, -70870.11735083073, -101777.75195571805, 55341.46640795069, 22494.594454120932, 79513.08989680886, 60124.35974173067, 43682.0588924955, 37982.49816685893, 0.06, 0.9520000000000001, 0.094, 192.0, 0.0, 0.0, 0.0, 0.0, 0.0, 0.0, 0.0, 0.0, 0.0, 1.6665557851547797E9, 0.0, 2022-10-23 13:09:45.154
181.0, -70912.22803738451, -101811.033703212, 56032.4258842976, 22788.072858819112, 79682.62787850236, 60521.21496453464, 44249.50262898238, 38727.28064385422, 0.06, 0.9520000000000001, 0.094, 192.0, 0.0, 0.0, 0.0, 0.0, 0.0, 0.0, 0.0, 0.0, 0.0, 1.6665557851547909E9, 0.0, 2022-10-23 13:09:45.154
182.0, -70929.72945329302, -101826.25524118605, 58147.03502023638, 22963.98108768238, 79775.96876334772, 61435.624830201254, 45591.72488352357, 40046.59236032872, 0.062, 0.9500000000000001, 0.094, 192.0, 1.0, 240.0, 29.0, 176.0, 2.0, 240.0, 0.0, 0.0, 0.0, 1.666555785154802E9, 0.0, 2022-10-23 13:09:45.154
183.0, -70856.88511811318, -101761.05520260993, 56995.31668368777, 22382.52280742202, 79453.67896004664, 60791.02287185465, 44698.9515064897, 38896.03631449179, 0.062, 0.9500000000000001, 0.094, 192.0, 0.0, 0.0, 0.0, 0.0, 0.0, 0.0, 0.0, 0.0, 0.0, 1.6665557851548145E9, 0.0, 2022-10-23 13:09:45.154
184.0, -70855.85693786823, -101758.30593804193, 55387.24278059516, 22443.72188374065, 79491.18518724265, 60135.78148314732, 43718.04520106855, 37984.219251181996, 0.062, 0.9500000000000001, 0.094, 192.0, 0.0, 0.0, 0.0, 0.0, 0.0, 0.0, 0.0, 0.0, 0.0, 1.6665557851548252E9, 0.0, 2022-10-23 13:09:45.154
185.0, -70889.22809234001, -101789.03958666798, 55742.8590348791, 22720.83881149755, 79650.73193916463, 60384.71286114608, 44071.068652995666, 38519.923510542336, 0.062, 0.9500000000000001, 0.094, 192.0, 0.0, 0.0, 0.0, 0.0, 0.0, 0.0, 0.0, 0.0, 0.0, 1.6665557851548364E9, 0.0, 2022-10-23 13:09:45.154
186.0, -70923.64977880118, -101823.88595627379, 57868.42052560097, 23000.12385846661, 79800.98036539322, 61334.66200049663, 45458.217913892026, 39937.80642006474, 0.062, 0.9500000000000001, 0.094, 192.0, 0.0, 0.0, 0.0, 0.0, 0.0, 0.0, 0.0, 0.0, 0.0, 1.666555785154848E9, 0.0, 2022-10-23 13:09:45.154
187.0, -70856.08045531278, -101761.8151619214, 57452.38750605434, 22471.63921256533, 79505.31148973841, 61020.26236298828, 45039.01094663274, 39251.764327498, 0.062, 0.9500000000000001, 0.094, 192.0, 0.0, 0.0, 0.0, 0.0, 0.0, 0.0, 0.0, 0.0, 0.0, 1.666555785154859E9, 0.0, 2022-10-23 13:09:45.154
188.0, -70844.45754819603, -101745.40898149121, 55480.09192706251, 22386.791990612983, 79441.6537215297, 60153.774637433846, 43772.3822918394, 37988.98017275098, 0.062, 0.9500000000000001, 0.094, 192.0, 0.0, 0.0, 0.0, 0.0, 0.0, 0.0, 0.0, 0.0, 0.0, 1.666555785154889E9, 0.0, 2022-10-23 13:09:45.154
189.0, -70883.21547308152, -101780.94825517516, 55542.36388711499, 22680.15863658889, 79622.43463068422, 60285.31465355333, 43943.86487530052, 38353.00068295011, 0.062, 0.9500000000000001, 0.094, 192.0, 0.0, 0.0, 0.0, 0.0, 0.0, 0.0, 0.0, 0.0, 0.0, 1.6665557851549025E9, 0.0, 2022-10-23 13:09:45.154
190.0, -70921.90634273367, -101817.47100561512, 57468.816038229, 23000.30267242225, 79792.91138564484, 61164.90050135857, 45228.73255356939, 39720.48040872579, 0.062, 0.9500000000000001, 0.094, 192.0, 0.0, 0.0, 0.0, 0.0, 0.0, 0.0, 0.0, 0.0, 0.0, 1.666555785154914E9, 0.0, 2022-10-23 13:09:45.154
191.0, -70856.5274902019, -101752.04744959444, 57803.53341144722, 22607.96250199825, 79590.18106343522, 61187.96750163645, 45303.499138772386, 39565.06872952804, 0.062, 0.9500000000000001, 0.094, 192.0, 0.0, 0.0, 0.0, 0.0, 0.0, 0.0, 0.0, 0.0, 0.0, 1.6665557851549256E9, 0.0, 2022-10-23 13:09:45.154
192.0, -70831.73940560097, -101727.2593649935, 55653.51911229124, 22362.89797579026, 79445.54292506492, 60220.02520799938, 43893.75226423172, 38083.17042388564, 0.058, 0.9560000000000001, 0.096, 192.0, 1.0, 208.0, 29.0, 224.0, 3.0, 0.0, 0.0, 0.0, 0.0, 1.6665557851549373E9, 0.0, 2022-10-23 13:09:45.154
193.0, -70876.93463288959, -101774.35449056083, 55367.372079774395, 22615.696205579785, 79579.6310400523, 60175.098201644214, 43825.19946398729, 38202.79696021044, 0.058, 0.9560000000000001, 0.096, 192.0, 0.0, 0.0, 0.0, 0.0, 0.0, 0.0, 0.0, 0.0, 0.0, 1.6665557851549487E9, 0.0, 2022-10-23 13:09:45.154
194.0, -70926.75667128047, -101822.8801277733, 57038.20968129751, 22963.69051500446, 79783.38954250689, 60982.622025325545, 44988.18307974137, 39477.69576045225, 0.058, 0.9560000000000001, 0.096, 192.0, 0.0, 0.0, 0.0, 0.0, 0.0, 0.0, 0.0, 0.0, 0.0, 1.66655578515496E9, 0.0, 2022-10-23 13:09:45.154
195.0, -70879.59449047977, -101778.28839758497, 58104.41024356011, 22712.479259071264, 79650.28490427553, 61356.32084087382, 45562.04176688693, 39851.01459634479, 0.058, 0.9560000000000001, 0.096, 192.0, 0.0, 0.0, 0.0, 0.0, 0.0, 0.0, 0.0, 0.0, 0.0, 1.666555785154971E9, 0.0, 2022-10-23 13:09:45.154
196.0, -70832.85699282373, -101727.84051034934, 55922.81292948878, 22314.23822811106, 79418.31850031836, 60326.0395319509, 44080.2552199668, 38223.76289650952, 0.058, 0.9560000000000001, 0.096, 192.0, 0.0, 0.0, 0.0, 0.0, 0.0, 0.0, 0.0, 0.0, 0.0, 1.666555785154982E9, 0.0, 2022-10-23 13:09:45.154
197.0, -70864.01532459442, -101753.43325775067, 55331.206957245704, 22567.975231167704, 79569.50569981405, 60161.329527059745, 43815.74467608269, 38131.427840164644, 0.058, 0.9560000000000001, 0.096, 192.0, 0.0, 0.0, 0.0, 0.0, 0.0, 0.0, 0.0, 0.0, 0.0, 1.666555785154993E9, 0.0, 2022-10-23 13:09:45.154
198.0, -70903.80142972487, -101791.83355472489, 56610.24083021174, 22899.898636329013, 79757.41681544982, 60798.77892718065, 44735.764829607586, 39199.573004194855, 0.058, 0.9560000000000001, 0.096, 192.0, 0.0, 0.0, 0.0, 0.0, 0.0, 0.0, 0.0, 0.0, 0.0, 1.6665557851550064E9, 0.0, 2022-10-23 13:09:45.155
199.0, -70882.25434806995, -101776.05322313943, 58221.4439775281, 22819.812335945648, 79712.28864339455, 61431.6015161993, 45684.03758812399, 40019.882025704625, 0.058, 0.9560000000000001, 0.096, 192.0, 0.0, 0.0, 0.0, 0.0, 0.0, 0.0, 0.0, 0.0, 0.0, 1.6665557851550176E9, 0.0, 2022-10-23 13:09:45.155
200.0, -70817.05430949382, -101716.17289974367, 56243.605165911344, 22309.857286197817, 79416.95504390658, 60455.366725369306, 44292.57444054776, 38430.784753654574, 0.058, 0.9560000000000001, 0.096, 192.0, 0.0, 0.0, 0.0, 0.0, 0.0, 0.0, 0.0, 0.0, 0.0, 1.6665557851550288E9, 0.0, 2022-10-23 13:09:45.155
201.0, -70843.33996097326, -101738.52464419897, 55280.08851767642, 22530.08902431596, 79550.37260656031, 60118.36947421664, 43772.963437195234, 38058.11411835124, 0.058, 0.9560000000000001, 0.096, 192.0, 0.0, 0.0, 0.0, 0.0, 0.0, 0.0, 0.0, 0.0, 0.0, 1.66655578515504E9, 0.0, 2022-10-23 13:09:45.155
202.0, -70885.27183357142, -101779.60715050783, 56189.33513037385, 22833.357493085565, 79723.15159119983, 60599.91545676177, 44470.27080896745, 38920.220901992434, 0.058, 0.962, 0.094, 192.0, 1.0, 208.0, 30.0, 16.0, 2.0, 240.0, 0.0, 0.0, 0.0, 1.6665557851550508E9, 0.0, 2022-10-23 13:09:45.155
203.0, -70886.232958583, -101784.74805173256, 58184.295378243376, 22915.88013361456, 79765.9775335762, 61438.150577324704, 45706.81401572395, 40088.814805604794, 0.058, 0.962, 0.094, 192.0, 0.0, 0.0, 0.0, 0.0, 0.0, 0.0, 0.0, 0.0, 0.0, 1.666555785155063E9, 0.0, 2022-10-23 13:09:45.155
204.0, -70803.1068209537, -101706.04755950542, 56653.78202841068, 22352.549118107454, 79450.08032918934, 60640.57327992598, 44584.59998185635, 38724.821951964135, 0.058, 0.962, 0.094, 192.0, 0.0, 0.0, 0.0, 0.0, 0.0, 0.0, 0.0, 0.0, 0.0, 1.666555785155091E9, 0.0, 2022-10-23 13:09:45.155
205.0, -70817.88132403867, -101713.87067006477, 55251.21006384016, 22473.31559339948, 79503.50099843754, 60068.12275268111, 43743.01209962513, 37992.84702454174, 0.058, 0.962, 0.094, 192.0, 0.0, 0.0, 0.0, 0.0, 0.0, 0.0, 0.0, 0.0, 0.0, 1.6665557851551027E9, 0.0, 2022-10-23 13:09:45.155
206.0, -70868.08334208529, -101765.27968231199, 55804.572201320196, 22761.384875939475, 79677.08464587745, 60395.15112580671, 44215.39386694359, 38654.570419141106, 0.058, 0.962, 0.094, 192.0, 0.0, 0.0, 0.0, 0.0, 0.0, 0.0, 0.0, 0.0, 0.0, 1.6665557851551137E9, 0.0, 2022-10-23 13:09:45.155
207.0, -70895.62069125423, -101797.51089781654, 57972.1326198736, 22965.63511677207, 79792.62081296692, 61354.66681178413, 45607.28169766447, 40040.28916839232, 0.058, 0.962, 0.094, 192.0, 0.0, 0.0, 0.0, 0.0, 0.0, 0.0, 0.0, 0.0, 0.0, 1.666555785155125E9, 0.0, 2022-10-23 13:09:45.155
208.0, -70822.44107990756, -101719.9056410677, 57075.20181837104, 22402.326453009424, 79476.27657369096, 60829.08789266204, 44875.530287686626, 39044.83187733077, 0.058, 0.962, 0.094, 192.0, 0.0, 0.0, 0.0, 0.0, 0.0, 0.0, 0.0, 0.0, 0.0, 1.666555785155136E9, 0.0, 2022-10-23 13:09:45.155
209.0, -70841.30595222783, -101729.7627603725, 55329.64233513384, 22409.657825190763, 79473.88493703425, 60093.40257566006, 43784.452233845266, 37998.21144321102, 0.058, 0.962, 0.094, 192.0, 0.0, 0.0, 0.0, 0.0, 0.0, 0.0, 0.0, 0.0, 0.0, 1.6665557851551473E9, 0.0, 2022-10-23 13:09:45.155
210.0, -70874.34183053278, -101766.8219526794, 55590.66600688291, 22687.91469191488, 79637.87968610284, 60308.11343289774, 44080.34462694462, 38476.583478043496, 0.058, 0.962, 0.094, 192.0, 0.0, 0.0, 0.0, 0.0, 0.0, 0.0, 0.0, 0.0, 0.0, 1.6665557851551583E9, 0.0, 2022-10-23 13:09:45.155
211.0, -70905.67897625912, -101793.28641811448, 57674.787363384654, 22990.490256606372, 79799.59455723698, 61248.272508176866, 45450.1265823992, 39894.84636722164, 0.056, 0.96, 0.098, 192.0, 1.0, 192.0, 30.0, 0.0, 3.0, 16.0, 0.0, 0.0, 0.0, 1.6665557851551695E9, 0.0, 2022-10-23 13:09:45.155
212.0, -70831.73940560097, -101722.54314691343, 57512.670160850306, 22507.22318973818, 79531.44067900666, 61040.3565812536, 45191.494547306844, 39385.181890151725, 0.056, 0.96, 0.098, 192.0, 0.0, 0.0, 0.0, 0.0, 0.0, 0.0, 0.0, 0.0, 0.0, 1.6665557851551816E9, 0.0, 2022-10-23 13:09:45.155
213.0, -70818.0154345054, -101707.52277463947, 55471.46415370276, 22367.23421421459, 79442.99482619701, 60139.8942041271, 43872.49575525472, 38044.546609466866, 0.056, 0.96, 0.098, 192.0, 0.0, 0.0, 0.0, 0.0, 0.0, 0.0, 0.0, 0.0, 0.0, 1.6665557851551926E9, 0.0, 2022-10-23 13:09:45.155
214.0, -70859.96965884801, -101746.41480999171, 55415.808310009044, 22631.9906272877, 79596.77482804953, 60207.41882412659, 43957.79001209617, 38319.16014184477, 0.056, 0.96, 0.098, 192.0, 0.0, 0.0, 0.0, 0.0, 0.0, 0.0, 0.0, 0.0, 0.0, 1.6665557851552036E9, 0.0, 2022-10-23 13:09:45.155
215.0, -70889.3845545512, -101775.80735395043, 57276.322814979896, 22976.341602366163, 79790.02801061011, 61078.265139849806, 45218.204881930935, 39671.19481220184, 0.056, 0.96, 0.098, 192.0, 0.0, 0.0, 0.0, 0.0, 0.0, 0.0, 0.0, 0.0, 0.0, 1.666555785155215E9, 0.0, 2022-10-23 13:09:45.155
216.0, -70835.85212658074, -101732.7131906406, 57867.57115931167, 22620.613589359953, 79589.82343552393, 61217.20358338399, 45459.7825360039, 39690.90905081142, 0.056, 0.96, 0.098, 192.0, 0.0, 0.0, 0.0, 0.0, 0.0, 0.0, 0.0, 0.0, 0.0, 1.6665557851552265E9, 0.0, 2022-10-23 13:09:45.155
217.0, -70806.72780355548, -101703.8123850599, 55652.58033902411, 22305.5657512624, 79393.55276746188, 60190.02916694035, 43977.0795675611, 38113.65820332267, 0.056, 0.96, 0.098, 192.0, 0.0, 0.0, 0.0, 0.0, 0.0, 0.0, 0.0, 0.0, 0.0, 1.6665557851552377E9, 0.0, 2022-10-23 13:09:45.155
218.0, -70836.14269925865, -101728.28754523845, 55273.36064259537, 22578.592309783973, 79557.70397874164, 60117.497756182885, 43850.72515615525, 38177.98652386505, 0.056, 0.96, 0.098, 192.0, 0.0, 0.0, 0.0, 0.0, 0.0, 0.0, 0.0, 0.0, 0.0, 1.666555785155249E9, 0.0, 2022-10-23 13:09:45.155
219.0, -70882.65667947015, -101769.3700515473, 56800.43182378195, 22924.172630807476, 79750.75599560213, 60858.592195343044, 44920.59140450852, 39377.44818657019, 0.056, 0.96, 0.098, 192.0, 0.0, 0.0, 0.0, 0.0, 0.0, 0.0, 0.0, 0.0, 0.0, 1.666555785155273E9, 0.0, 2022-10-23 13:09:45.155
220.0, -70850.93955408807, -101738.68110641016, 58079.957435126, 22745.31397167611, 79653.68236943273, 61333.4773580405, 45636.74129685656, 39922.316661157216, 0.056, 0.96, 0.098, 192.0, 0.0, 0.0, 0.0, 0.0, 0.0, 0.0, 0.0, 0.0, 0.0, 1.666555785155286E9, 0.0, 2022-10-23 13:09:45.155
221.0, -70798.52471334038, -101689.44021337513, 55949.74678155742, 22300.491905271043, 79397.0396395969, 60316.9870754465, 44172.81379375623, 38296.204900289165, 0.052000000000000005, 0.9560000000000001, 0.092, 192.0, 1.0, 160.0, 29.0, 224.0, 2.0, 224.0, 0.0, 0.0, 0.0, 1.6665557851552973E9, 0.0, 2022-10-23 13:09:45.155
222.0, -70831.18061198958, -101720.01739978998, 55201.83506033839, 22539.186184309267, 79530.50190573954, 60069.240339903874, 43793.05765546056, 38085.60676403127, 0.052000000000000005, 0.9560000000000001, 0.092, 192.0, 0.0, 0.0, 0.0, 0.0, 0.0, 0.0, 0.0, 0.0, 0.0, 1.6665557851553097E9, 0.0, 2022-10-23 13:09:45.155
223.0, -70877.87340615671, -101762.73158344408, 56335.49318736711, 22864.962859745367, 79714.79203877355, 60637.064056046496, 44619.80397937346, 39072.70450266654, 0.052000000000000005, 0.9560000000000001, 0.092, 192.0, 0.0, 0.0, 0.0, 0.0, 0.0, 0.0, 0.0, 0.0, 0.0, 1.6665557851553211E9, 0.0, 2022-10-23 13:09:45.155
224.0, -70864.79763565036, -101758.06006885292, 58121.084644923765, 22850.993019460802, 79711.84160850545, 61366.222663667526, 45697.56039351945, 40041.74203178192, 0.052000000000000005, 0.9560000000000001, 0.092, 192.0, 0.0, 0.0, 0.0, 0.0, 0.0, 0.0, 0.0, 0.0, 0.0, 1.666555785155332E9, 0.0, 2022-10-23 13:09:45.155
225.0, -70785.09131492273, -101682.91350399418, 56271.164866824736, 22304.828143695373, 79394.26802328444, 60439.54169029495, 44379.232153800986, 38506.66892608034, 0.052000000000000005, 0.9560000000000001, 0.092, 192.0, 0.0, 0.0, 0.0, 0.0, 0.0, 0.0, 0.0, 0.0, 0.0, 1.6665557851553435E9, 0.0, 2022-10-23 13:09:45.155
226.0, -70814.37210015919, -101705.28760019394, 55145.68747826666, 22494.326233187465, 79507.05492580592, 60013.45038574343, 43737.58062572248, 38007.196844482045, 0.052000000000000005, 0.9560000000000001, 0.092, 192.0, 0.0, 0.0, 0.0, 0.0, 0.0, 0.0, 0.0, 0.0, 0.0, 1.6665557851553557E9, 0.0, 2022-10-23 13:09:45.155
227.0, -70865.80346415084, -101748.38176350377, 55951.3561071582, 22798.75699266875, 79694.65311701932, 60460.66408880521, 44375.2758950324, 38818.11813332059, 0.052000000000000005, 0.9560000000000001, 0.092, 192.0, 0.0, 0.0, 0.0, 0.0, 0.0, 0.0, 0.0, 0.0, 0.0, 1.666555785155367E9, 0.0, 2022-10-23 13:09:45.155
228.0, -70872.03960085388, -101757.41186826372, 58032.59408862521, 22927.927723875968, 79764.16704227532, 61354.97973620651, 45684.81989917993, 40077.37071244368, 0.052000000000000005, 0.9560000000000001, 0.092, 192.0, 0.0, 0.0, 0.0, 0.0, 0.0, 0.0, 0.0, 0.0, 0.0, 1.6665557851553788E9, 0.0, 2022-10-23 13:09:45.155
229.0, -70793.31675688228, -101680.74538478201, 56700.00543594426, 22361.154539722746, 79445.36411110927, 60642.7637508826, 44684.06524468246, 38822.05204034472, 0.052000000000000005, 0.9560000000000001, 0.092, 192.0, 0.0, 0.0, 0.0, 0.0, 0.0, 0.0, 0.0, 0.0, 0.0, 1.6665557851553893E9, 0.0, 2022-10-23 13:09:45.155
230.0, -70808.1136117117, -101696.61512334528, 55187.03820550897, 22447.43227332023, 79483.87616680577, 60022.25697305882, 43764.60388476895, 37992.06471348581, 0.052000000000000005, 0.9560000000000001, 0.092, 192.0, 0.0, 0.0, 0.0, 0.0, 0.0, 0.0, 0.0, 0.0, 0.0, 1.6665557851554005E9, 0.0, 2022-10-23 13:09:45.155
231.0, -70848.3691034757, -101735.79773137544, 55627.18875732288, 22723.69983478783, 79647.62504668535, 60301.16204037214, 44165.05773843023, 38579.84853742702, 0.05, 0.9540000000000001, 0.09, 192.0, 1.0, 144.0, 29.0, 208.0, 2.0, 208.0, 0.0, 0.0, 0.0, 1.6665557851554112E9, 0.0, 2022-10-23 13:09:45.155
232.0, -70883.66250797064, -101765.1679235897, 57776.2866349562, 22969.233747629376, 79784.19420530727, 61257.079095492256, 45558.51019126298, 39986.622629955134, 0.05, 0.9540000000000001, 0.09, 192.0, 0.0, 0.0, 0.0, 0.0, 0.0, 0.0, 0.0, 0.0, 0.0, 1.6665557851554227E9, 0.0, 2022-10-23 13:09:45.155
233.0, -70800.53637034135, -101679.78425977043, 57114.473833379016, 22431.316665567956, 79483.74205633903, 60832.32889560806, 44980.82935581558, 39147.158163447166, 0.05, 0.9540000000000001, 0.09, 192.0, 0.0, 0.0, 0.0, 0.0, 0.0, 0.0, 0.0, 0.0, 0.0, 1.6665557851554334E9, 0.0, 2022-10-23 13:09:45.155
234.0, -70803.93383549855, -101680.16423942617, 55247.56672949395, 22397.47612446262, 79453.74601528002, 60031.085912118666, 43797.371542140434, 37993.04819024184, 0.05, 0.9540000000000001, 0.09, 192.0, 0.0, 0.0, 0.0, 0.0, 0.0, 0.0, 0.0, 0.0, 0.0, 1.666555785155444E9, 0.0, 2022-10-23 13:09:45.155
235.0, -70838.13200451518, -101718.89981256722, 55380.090222369465, 22683.176122090357, 79628.98369180963, 60179.97088193547, 44003.09699810708, 38393.0103055251, 0.05, 0.9540000000000001, 0.09, 192.0, 0.0, 0.0, 0.0, 0.0, 0.0, 0.0, 0.0, 0.0, 0.0, 1.6665557851554658E9, 0.0, 2022-10-23 13:09:45.155
236.0, -70877.20285382305, -101754.34967927333, 57394.20591523718, 23000.36972765562, 79801.36034504895, 61096.571218558696, 45338.59137756722, 39794.95642125087, 0.05, 0.9540000000000001, 0.09, 192.0, 0.0, 0.0, 0.0, 0.0, 0.0, 0.0, 0.0, 0.0, 0.0, 1.6665557851554763E9, 0.0, 2022-10-23 13:09:45.155
237.0, -70809.74528905694, -101687.22739067404, 57468.30194810653, 22551.010257126127, 79548.4280047927, 60993.84260104211, 45235.03574550578, 39451.41010897281, 0.05, 0.9540000000000001, 0.09, 192.0, 0.0, 0.0, 0.0, 0.0, 0.0, 0.0, 0.0, 0.0, 0.0, 1.6665557851554868E9, 0.0, 2022-10-23 13:09:45.155
238.0, -70792.93677722654, -101677.90671323618, 55348.30604175402, 22353.443187885667, 79431.93071269164, 60044.89929019205, 43850.27812126614, 38029.59329242627, 0.05, 0.9540000000000001, 0.09, 192.0, 0.0, 0.0, 0.0, 0.0, 0.0, 0.0, 0.0, 0.0, 0.0, 1.6665557851554976E9, 0.0, 2022-10-23 13:09:45.155
239.0, -70824.43038516407, -101707.38866417273, 55207.93708657469, 22633.48819416621, 79602.36276416335, 60087.09938372367, 43887.47142403977, 38263.92898129571, 0.05, 0.9540000000000001, 0.09, 192.0, 0.0, 0.0, 0.0, 0.0, 0.0, 0.0, 0.0, 0.0, 0.0, 1.666555785155508E9, 0.0, 2022-10-23 13:09:45.155
240.0, -70875.41471426663, -101749.67816468218, 56958.48100882542, 22972.40769534203, 79785.35649601895, 60911.34231225757, 45081.747482031285, 39564.62169463893, 0.05, 0.9540000000000001, 0.09, 192.0, 0.0, 0.0, 0.0, 0.0, 0.0, 0.0, 0.0, 0.0, 0.0, 1.6665557851555223E9, 0.0, 2022-10-23 13:09:45.155
241.0, -70826.95613228752, -101703.32064668187, 57805.83564112612, 22675.57652897555, 79621.27233997254, 61177.08220208671, 45502.16144349116, 39774.77279600773, 0.044, 0.9460000000000001, 0.084, 192.0, 1.0, 96.0, 29.0, 144.0, 2.0, 160.0, 0.0, 0.0, 0.0, 1.6665557856331818E9, 0.0, 2022-10-23 13:09:45.633
242.0, -70790.47808533646, -101666.84259973081, 55627.54638523417, 22327.716330017607, 79422.0959451313, 60171.879550442645, 44040.75968751427, 38189.47532051508, 0.044, 0.9460000000000001, 0.084, 192.0, 0.0, 0.0, 0.0, 0.0, 0.0, 0.0, 0.0, 0.0, 0.0, 1.66655578563328E9, 0.0, 2022-10-23 13:09:45.633
243.0, -70822.15050722963, -101695.78810880044, 55145.24044337755, 22583.26382437513, 79565.3259236009, 60054.018801929815, 43844.15374328539, 38170.87866912826, 0.044, 0.9460000000000001, 0.084, 192.0, 0.0, 0.0, 0.0, 0.0, 0.0, 0.0, 0.0, 0.0, 0.0, 1.6665557856333013E9, 0.0, 2022-10-23 13:09:45.633
244.0, -70862.00366759344, -101733.85312960781, 56521.3926460019, 22919.612874938593, 79748.45376592324, 60720.50311809816, 44814.59943230146, 39284.84490929185, 0.044, 0.9460000000000001, 0.084, 192.0, 0.0, 0.0, 0.0, 0.0, 0.0, 0.0, 0.0, 0.0, 0.0, 1.6665557856333208E9, 0.0, 2022-10-23 13:09:45.633
245.0, -70833.59460039074, -101710.18263222965, 57962.610776735644, 22782.127294794, 79673.5083667646, 61268.99257528694, 45642.88802658177, 39962.19217326548, 0.044, 0.9460000000000001, 0.084, 192.0, 0.0, 0.0, 0.0, 0.0, 0.0, 0.0, 0.0, 0.0, 0.0, 1.66655578563334E9, 0.0, 2022-10-23 13:09:45.633
246.0, -70776.86587296319, -101657.70073624859, 55897.443699532, 22303.30822507241, 79404.1474943337, 60270.42839174609, 44209.336544196194, 38352.44188933872, 0.044, 0.9460000000000001, 0.084, 192.0, 0.0, 0.0, 0.0, 0.0, 0.0, 0.0, 0.0, 0.0, 0.0, 1.6665557856333587E9, 0.0, 2022-10-23 13:09:45.633
247.0, -70801.67630930858, -101679.42663185914, 55030.86656699974, 22533.73235866217, 79530.90423713974, 59969.082172999646, 43748.711794461226, 38058.73996719599, 0.044, 0.9460000000000001, 0.084, 192.0, 0.0, 0.0, 0.0, 0.0, 0.0, 0.0, 0.0, 0.0, 0.0, 1.6665557856333778E9, 0.0, 2022-10-23 13:09:45.633
248.0, -70853.6217634227, -101729.58394641685, 56051.44721882907, 22854.23402240682, 79711.79690501654, 60495.64456887777, 44510.101617586806, 38985.08566440173, 0.044, 0.9460000000000001, 0.084, 192.0, 0.0, 0.0, 0.0, 0.0, 0.0, 0.0, 0.0, 0.0, 0.0, 1.6665557856333961E9, 0.0, 2022-10-23 13:09:45.633
249.0, -70844.03286505138, -101722.67725738017, 57960.308547056746, 22886.129961744544, 79730.25944593662, 61292.08192730927, 45681.46713751163, 40067.96062802799, 0.044, 0.9460000000000001, 0.084, 192.0, 0.0, 0.0, 0.0, 0.0, 0.0, 0.0, 0.0, 0.0, 0.0, 1.6665557856334152E9, 0.0, 2022-10-23 13:09:45.633
250.0, -70767.81341645878, -101647.39658205469, 56266.62746270031, 22333.93011497618, 79416.91034041767, 60432.702056491624, 44457.239741950005, 38614.516093077196, 0.048, 0.9500000000000001, 0.09, 192.0, 1.0, 128.0, 29.0, 176.0, 2.0, 208.0, 0.0, 0.0, 0.0, 1.6665557856334991E9, 0.0, 2022-10-23 13:09:45.633
251.0, -70796.66951855058, -101672.65405328918, 55006.95020043257, 22490.012346507592, 79500.70703038061, 59942.55065233119, 43720.1686167918, 37999.731361833976, 0.048, 0.9500000000000001, 0.09, 192.0, 0.0, 0.0, 0.0, 0.0, 0.0, 0.0, 0.0, 0.0, 0.0, 1.6665557856335099E9, 0.0, 2022-10-23 13:09:45.633
252.0, -70842.55764991733, -101714.27300146497, 55688.11961270805, 22781.993184327268, 79670.24501207413, 60334.13086344372, 44276.592943262214, 38735.6401962805, 0.048, 0.9500000000000001, 0.09, 192.0, 0.0, 0.0, 0.0, 0.0, 0.0, 0.0, 0.0, 0.0, 0.0, 1.6665557856335187E9, 0.0, 2022-10-23 13:09:45.633
253.0, -70861.22135653751, -101734.50133019702, 57807.266152771255, 22965.366895838608, 79778.00277209315, 61253.21224370149, 45621.7656280715, 40064.8090320598, 0.048, 0.9500000000000001, 0.09, 192.0, 0.0, 0.0, 0.0, 0.0, 0.0, 0.0, 0.0, 0.0, 0.0, 1.6665557856335294E9, 0.0, 2022-10-23 13:09:45.633
254.0, -70775.32360259576, -101657.92425369314, 56686.43792705989, 22390.256511003558, 79459.64687581622, 60633.353666466915, 44754.205018783214, 38938.6387394236, 0.048, 0.9500000000000001, 0.09, 192.0, 0.0, 0.0, 0.0, 0.0, 0.0, 0.0, 0.0, 0.0, 0.0, 1.6665557856335387E9, 0.0, 2022-10-23 13:09:45.633
255.0, -70789.11462892468, -101662.3498990953, 55035.33691589081, 22426.131060854324, 79461.43501537264, 59936.31451562817, 43730.539826219065, 37983.54869884833, 0.048, 0.9500000000000001, 0.09, 192.0, 0.0, 0.0, 0.0, 0.0, 0.0, 0.0, 0.0, 0.0, 0.0, 1.6665557856335478E9, 0.0, 2022-10-23 13:09:45.633
0.0, -70825.43621366457, -101693.3517686548, 55374.05525136653, 22715.094413172534, 79639.37725298134, 60175.67934700005, 44069.81695530617, 38515.296699440085, 0.048, 0.9500000000000001, 0.09, 192.0, 0.0, 0.0, 0.0, 0.0, 0.0, 0.0, 0.0, 0.0, 0.0, 1.6665557856335568E9, 0.0, 2022-10-23 13:09:45.633
1.0, -70857.95800184703, -101724.21952774758, 57502.880096778885, 22998.246311932366, 79797.62760372492, 61132.06578875372, 45458.7320040145, 39940.53333288829, 0.048, 0.9500000000000001, 0.09, 192.0, 0.0, 0.0, 0.0, 0.0, 0.0, 0.0, 0.0, 0.0, 0.0, 1.6665557856335657E9, 0.0, 2022-10-23 13:09:45.633
2.0, -70788.19820740202, -101662.7969339844, 57093.79846975786, 22483.84326503793, 79509.4689142071, 60819.878973946456, 45042.14019085648, 39264.035435203965, 0.048, 0.9500000000000001, 0.09, 192.0, 0.0, 0.0, 0.0, 0.0, 0.0, 0.0, 0.0, 0.0, 0.0, 1.6665557856335747E9, 0.0, 2022-10-23 13:09:45.633
3.0, -70781.42562883206, -101656.33727983681, 55149.15199865723, 22391.508208693052, 79446.77227100996, 59978.40285043751, 43800.791359042094, 38022.172513267105, 0.048, 0.9500000000000001, 0.09, 192.0, 0.0, 0.0, 0.0, 0.0, 0.0, 0.0, 0.0, 0.0, 0.0, 1.6665557856335835E9, 0.0, 2022-10-23 13:09:45.633
4.0, -70810.54995185733, -101683.51700109447, 55182.165525217715, 22664.892395125913, 79607.52601713254, 60085.87003777862, 43944.06604100061, 38357.672197541266, 0.056, 0.9520000000000001, 0.092, 192.0, 1.0, 192.0, 29.0, 192.0, 2.0, 224.0, 0.0, 0.0, 0.0, 1.6665557856335928E9, 0.0, 2022-10-23 13:09:45.633
5.0, -70850.98425757697, -101722.05140853542, 57129.47185390852, 23007.008195758845, 79797.22527232472, 60991.719185318856, 45252.76067885884, 39747.794240450174, 0.056, 0.9520000000000001, 0.092, 192.0, 0.0, 0.0, 0.0, 0.0, 0.0, 0.0, 0.0, 0.0, 0.0, 1.6665557856336024E9, 0.0, 2022-10-23 13:09:45.633
6.0, -70797.92121624008, -101667.49080032001, 57466.80438122802, 22598.32890013801, 79565.50473755655, 61011.45577567289, 45323.839226226715, 39582.86071811446, 0.056, 0.9520000000000001, 0.092, 192.0, 0.0, 0.0, 0.0, 0.0, 0.0, 0.0, 0.0, 0.0, 0.0, 1.666555785633616E9, 0.0, 2022-10-23 13:09:45.633
7.0, -70773.22253861696, -101640.02050638443, 55282.79307875551, 22347.028237226994, 79416.37389855074, 60013.740958421346, 43876.34025530103, 38069.82643244582, 0.056, 0.9520000000000001, 0.092, 192.0, 0.0, 0.0, 0.0, 0.0, 0.0, 0.0, 0.0, 0.0, 0.0, 1.6665557856336253E9, 0.0, 2022-10-23 13:09:45.633
8.0, -70812.09222222475, -101674.21867540106, 55042.26595667195, 22627.877906307927, 79597.534787361, 60018.703045690425, 43852.15566780039, 38236.59279782687, 0.056, 0.9520000000000001, 0.092, 192.0, 0.0, 0.0, 0.0, 0.0, 0.0, 0.0, 0.0, 0.0, 0.0, 1.666555785633634E9, 0.0, 2022-10-23 13:09:45.633
9.0, -70857.04158032437, -101717.82692883337, 56695.26686611973, 22966.730352250383, 79788.12811233141, 60815.76625296668, 44998.33077172408, 39502.148568886354, 0.056, 0.9520000000000001, 0.092, 192.0, 0.0, 0.0, 0.0, 0.0, 0.0, 0.0, 0.0, 0.0, 0.0, 1.6665557856336432E9, 0.0, 2022-10-23 13:09:45.633
10.0, -70824.34097818626, -101690.22252443105, 57749.77746603221, 22711.71929975978, 79638.81845936996, 61171.9860043509, 45554.28571156094, 39867.44312851944, 0.056, 0.9520000000000001, 0.092, 192.0, 0.0, 0.0, 0.0, 0.0, 0.0, 0.0, 0.0, 0.0, 0.0, 1.6665557856336615E9, 0.0, 2022-10-23 13:09:45.633
11.0, -70776.28472760734, -101639.72993370652, 55575.57857937558, 22310.12550713128, 79406.9414623906, 60147.15852107508, 44072.23094370734, 38245.84642003136, 0.056, 0.9520000000000001, 0.092, 192.0, 0.0, 0.0, 0.0, 0.0, 0.0, 0.0, 0.0, 0.0, 0.0, 1.6665557856336713E9, 0.0, 2022-10-23 13:09:45.633
12.0, -70808.5606466008, -101670.44123058811, 54971.20976104853, 22561.71674272022, 79557.41340606373, 59971.98789977883, 43790.35309438147, 38141.419069936164, 0.056, 0.9520000000000001, 0.092, 192.0, 0.0, 0.0, 0.0, 0.0, 0.0, 0.0, 0.0, 0.0, 0.0, 1.66655578563368E9, 0.0, 2022-10-23 13:09:45.633
13.0, -70856.03575182387, -101721.49261492403, 56274.3835180263, 22892.544912403217, 79747.80556533404, 60633.219556000186, 44732.94850980622, 39224.83047542936, 0.056, 0.9520000000000001, 0.092, 192.0, 0.0, 0.0, 0.0, 0.0, 0.0, 0.0, 0.0, 0.0, 0.0, 1.666555785633689E9, 0.0, 2022-10-23 13:09:45.633
14.0, -70834.15339400213, -101701.06312049189, 57911.76055809982, 22811.296321308175, 79690.38393382836, 61285.84579060624, 45702.34366683289, 40053.78962204333, 0.056, 0.9540000000000001, 0.092, 192.0, 1.0, 192.0, 29.0, 208.0, 2.0, 224.0, 0.0, 0.0, 0.0, 1.666555785633698E9, 0.0, 2022-10-23 13:09:45.633
15.0, -70764.70652397949, -101627.25766030046, 55922.03061843284, 22295.12748660177, 79389.01536333744, 60295.10471762475, 44295.122539415665, 38446.11805035092, 0.056, 0.9540000000000001, 0.092, 192.0, 0.0, 0.0, 0.0, 0.0, 0.0, 0.0, 0.0, 0.0, 0.0, 1.6665557856337075E9, 0.0, 2022-10-23 13:09:45.633
16.0, -70792.57914931526, -101651.91163443467, 54924.91929828159, 22500.517666401585, 79509.64772816274, 59929.921916713945, 43742.2744920581, 38045.798307156365, 0.056, 0.9540000000000001, 0.092, 192.0, 0.0, 0.0, 0.0, 0.0, 0.0, 0.0, 0.0, 0.0, 0.0, 1.6665557856337163E9, 0.0, 2022-10-23 13:09:45.633
17.0, -70832.70053061254, -101692.59180934333, 55814.071692713704, 22813.173867842423, 79685.37714307036, 60395.598160695816, 44421.096971165774, 38898.472654637415, 0.056, 0.9540000000000001, 0.092, 192.0, 0.0, 0.0, 0.0, 0.0, 0.0, 0.0, 0.0, 0.0, 0.0, 1.6665557856337252E9, 0.0, 2022-10-23 13:09:45.633
18.0, -70834.57807714678, -101693.91056226619, 57825.43812101342, 22914.20375278041, 79749.14667000136, 61250.61944134468, 45675.65568395325, 40085.819671847785, 0.056, 0.9540000000000001, 0.092, 192.0, 0.0, 0.0, 0.0, 0.0, 0.0, 0.0, 0.0, 0.0, 0.0, 1.6665557856337337E9, 0.0, 2022-10-23 13:09:45.633
19.0, -70760.30323032179, -101625.49187248849, 56283.63714023079, 22342.334370891378, 79426.5439422779, 60441.55334729593, 44538.66714700069, 38707.36523954454, 0.056, 0.9540000000000001, 0.092, 192.0, 0.0, 0.0, 0.0, 0.0, 0.0, 0.0, 0.0, 0.0, 0.0, 1.6665557856337426E9, 0.0, 2022-10-23 13:09:45.633
20.0, -70792.53444582636, -101658.997137427, 54907.373178884176, 22460.798616504504, 79492.03455353195, 59896.796631431185, 43721.599128436945, 37997.54089087735, 0.056, 0.9540000000000001, 0.092, 192.0, 0.0, 0.0, 0.0, 0.0, 0.0, 0.0, 0.0, 0.0, 0.0, 1.6665557856337514E9, 0.0, 2022-10-23 13:09:45.633
