%OpenBCI Raw EEG Data
%Number of channels = 8
%Sample Rate = 250 Hz
%Board = OpenBCI_GUI$BoardCytonSerial
Sample Index, EXG Channel 0, EXG Channel 1, EXG Channel 2, EXG Channel 3, EXG Channel 4, EXG Channel 5, EXG Channel 6, EXG Channel 7, Accel Channel 0, Accel Channel 1, Accel Channel 2, Other, Other, Other, Other, Other, Other, Other, Analog Channel 0, Analog Channel 1, Analog Channel 2, Timestamp, Other, Timestamp (Formatted)
48.0, -63246.205538058945, -92632.53571182916, 50817.33921972981, -2997.0336552898475, 81889.90734695284, 60436.6136117713, 16077.095696579898, 13747.373372003243, 0.0, 0.0, 0.0, 192.0, 0.0, 0.0, 0.0, 0.0, 0.0, 0.0, 0.0, 0.0, 0.0, 1.6665552855294309E9, 0.0, 2022-10-23 13:01:25.529
49.0, -63288.092707168194, -92666.55506689014, 50602.94128691451, -2990.1716697420684, 82075.7173986098, 60421.950867408625, 16072.580644199927, 13913.08920539489, 0.0, 0.0, 0.0, 192.0, 0.0, 0.0, 0.0, 0.0, 0.0, 0.0, 0.0, 0.0, 0.0, 1.6665552855294528E9, 0.0, 2022-10-23 13:01:25.529
50.0, -63336.70775135848, -92715.75125643627, 52373.713537897296, -1979.939875595555, 82328.44857316597, 61270.95952879901, 17263.660402734327, 15228.10938693397, 0.0, 0.0, 0.0, 192.0, 0.0, 0.0, 0.0, 0.0, 0.0, 0.0, 0.0, 0.0, 0.0, 1.6665552855294633E9, 0.0, 2022-10-23 13:01:25.529
51.0, -63295.93816947201, -92681.5754391641, 53346.32734612553, -1589.0749203056002, 82177.55194634819, 61631.67198081875, 17743.32883874522, 15532.964829559904, 0.034, 0.9540000000000001, 0.116, 192.0, 1.0, 16.0, 29.0, 208.0, 3.0, 160.0, 0.0, 0.0, 0.0, 1.6665552855294735E9, 0.0, 2022-10-23 13:01:25.529
52.0, -63249.11126483814, -92633.9215199854, 51081.60389442491, -2866.8794473265943, 81874.79756770105, 60554.9437469177, 16234.49668103417, 13885.976539370602, 0.034, 0.9540000000000001, 0.116, 192.0, 0.0, 0.0, 0.0, 0.0, 0.0, 0.0, 0.0, 0.0, 0.0, 1.666555285529486E9, 0.0, 2022-10-23 13:01:25.529
53.0, -63287.55626530126, -92672.79120359317, 50520.686867318975, -3050.722545471495, 82031.72916552177, 60372.37469820675, 15996.987044452078, 13801.285779629443, 0.034, 0.9540000000000001, 0.116, 192.0, 0.0, 0.0, 0.0, 0.0, 0.0, 0.0, 0.0, 0.0, 0.0, 1.6665552855294964E9, 0.0, 2022-10-23 13:01:25.529
54.0, -63334.53963214632, -92717.65115471497, 51931.461922104594, -2216.354276699338, 82272.59156377215, 61070.10675312362, 16982.4084022532, 14928.014865877018, 0.034, 0.9540000000000001, 0.116, 192.0, 0.0, 0.0, 0.0, 0.0, 0.0, 0.0, 0.0, 0.0, 0.0, 1.6665552855295064E9, 0.0, 2022-10-23 13:01:25.529
55.0, -63311.60674233517, -92697.69104691637, 53536.69715365138, -1449.9800145602244, 82238.23693254434, 61741.620211794405, 17893.97959637399, 15726.106253398211, 0.034, 0.9540000000000001, 0.116, 192.0, 0.0, 0.0, 0.0, 0.0, 0.0, 0.0, 0.0, 0.0, 0.0, 1.6665552855295165E9, 0.0, 2022-10-23 13:01:25.529
56.0, -63242.07046533471, -92633.3180228851, 51451.3464512046, -2675.9731979338167, 81875.26695433461, 60720.63722856489, 16460.69633492188, 14098.45222216275, 0.034, 0.9540000000000001, 0.116, 192.0, 0.0, 0.0, 0.0, 0.0, 0.0, 0.0, 0.0, 0.0, 0.0, 1.6665552855295265E9, 0.0, 2022-10-23 13:01:25.529
57.0, -63270.2336633484, -92658.59784586405, 50507.924021235, -3072.0014061929473, 82003.09658087452, 60360.30475620089, 15969.002660394033, 13732.822386362837, 0.034, 0.9540000000000001, 0.116, 192.0, 0.0, 0.0, 0.0, 0.0, 0.0, 0.0, 0.0, 0.0, 0.0, 1.6665552855295365E9, 0.0, 2022-10-23 13:01:25.529
58.0, -63315.853573781686, -92701.64730568496, 51574.81748757571, -2398.588049243456, 82248.63049371606, 60929.87190841102, 16765.596481036722, 14681.653938490623, 0.034, 0.9540000000000001, 0.116, 192.0, 0.0, 0.0, 0.0, 0.0, 0.0, 0.0, 0.0, 0.0, 0.0, 1.6665552855295467E9, 0.0, 2022-10-23 13:01:25.529
59.0, -63320.07805348373, -92708.41988425492, 53585.93804668642, -1387.4845370631858, 82295.03271520528, 61796.96313106575, 17961.59362335129, 15819.380083010208, 0.034, 0.9540000000000001, 0.116, 192.0, 0.0, 0.0, 0.0, 0.0, 0.0, 0.0, 0.0, 0.0, 0.0, 1.6665552855295568E9, 0.0, 2022-10-23 13:01:25.529
60.0, -63240.37173275611, -92632.96039497381, 51912.28412536194, -2430.618099047911, 81904.14540817088, 60938.8349579376, 16750.5537570183, 14377.290234242706, 0.034, 0.9540000000000001, 0.116, 192.0, 0.0, 0.0, 0.0, 0.0, 0.0, 0.0, 0.0, 0.0, 0.0, 1.6665552855295668E9, 0.0, 2022-10-23 13:01:25.529
61.0, -63264.55632025675, -92655.96034001833, 50554.21448400194, -3070.168563147612, 81962.97519957724, 60374.60987265228, 15969.181474349676, 13683.000347971958, 0.03, 0.9560000000000001, 0.122, 192.0, 0.0, 240.0, 29.0, 224.0, 3.0, 208.0, 0.0, 0.0, 0.0, 1.6665552855295765E9, 0.0, 2022-10-23 13:01:25.529
62.0, -63308.72336730044, -92695.18765153739, 51220.00589609217, -2609.096778523538, 82188.79487380921, 60751.75085684668, 16512.21710589136, 14396.8480106411, 0.03, 0.9560000000000001, 0.122, 192.0, 0.0, 0.0, 0.0, 0.0, 0.0, 0.0, 0.0, 0.0, 0.0, 1.6665552855295875E9, 0.0, 2022-10-23 13:01:25.529
63.0, -63338.22766998145, -92726.34598330809, 53466.26680687271, -1423.895528780881, 82347.3805007196, 61762.92142426031, 17906.049538379855, 15803.577399680305, 0.03, 0.9560000000000001, 0.122, 192.0, 0.0, 0.0, 0.0, 0.0, 0.0, 0.0, 0.0, 0.0, 0.0, 1.6665552855295978E9, 0.0, 2022-10-23 13:01:25.529
64.0, -63260.957689399445, -92655.9156365294, 52442.847483497564, -2135.9774036380536, 81971.11123455898, 61194.53891450631, 17092.66955765123, 14741.668372353122, 0.03, 0.9560000000000001, 0.122, 192.0, 0.0, 0.0, 0.0, 0.0, 0.0, 0.0, 0.0, 0.0, 0.0, 1.666555285529718E9, 0.0, 2022-10-23 13:01:25.529
65.0, -63268.177302858516, -92660.18481972037, 50723.12661685069, -2997.7489111124173, 81943.81975457905, 60456.08198119188, 16052.933460823711, 13725.960400815058, 0.03, 0.9560000000000001, 0.122, 192.0, 0.0, 0.0, 0.0, 0.0, 0.0, 0.0, 0.0, 0.0, 0.0, 1.6665552855297291E9, 0.0, 2022-10-23 13:01:25.529
66.0, -63311.76320454636, -92699.635648684, 51037.36979214785, -2728.25392821478, 82132.17790510392, 60672.96095764172, 16373.23395886826, 14210.367406650474, 0.03, 0.9560000000000001, 0.122, 192.0, 0.0, 0.0, 0.0, 0.0, 0.0, 0.0, 0.0, 0.0, 0.0, 1.6665552855297396E9, 0.0, 2022-10-23 13:01:25.529
67.0, -63351.146978276614, -92738.32651833612, 53240.49183612965, -1532.4579516003075, 82350.5320966878, 61691.01586234759, 17780.410382796574, 15671.322127738254, 0.03, 0.9560000000000001, 0.122, 192.0, 0.0, 0.0, 0.0, 0.0, 0.0, 0.0, 0.0, 0.0, 0.0, 1.6665552855297496E9, 0.0, 2022-10-23 13:01:25.529
68.0, -63262.45525627796, -92656.63089235198, 52957.451696092096, -1851.8867316111007, 82035.97599696828, 61452.79096994293, 17428.750387281227, 15078.84443746143, 0.03, 0.9560000000000001, 0.122, 192.0, 0.0, 0.0, 0.0, 0.0, 0.0, 0.0, 0.0, 0.0, 0.0, 1.6665552855297596E9, 0.0, 2022-10-23 13:01:25.529
69.0, -63246.8760903926, -92642.28107241167, 50846.39648752171, -2977.364120169177, 81891.38256208689, 60483.619330360816, 16082.549522226993, 13703.876877293216, 0.03, 0.9560000000000001, 0.122, 192.0, 0.0, 0.0, 0.0, 0.0, 0.0, 0.0, 0.0, 0.0, 0.0, 1.6665552855297697E9, 0.0, 2022-10-23 13:01:25.529
70.0, -63287.77978274582, -92681.374273464, 50822.94950758809, -2875.5295724307985, 82097.04096282017, 60548.52879625902, 16194.39765148135, 13995.835363368436, 0.03, 0.9560000000000001, 0.122, 192.0, 0.0, 0.0, 0.0, 0.0, 0.0, 0.0, 0.0, 0.0, 0.0, 1.6665552855297825E9, 0.0, 2022-10-23 13:01:25.529
71.0, -63334.651390868596, -92728.02236414223, 52797.435557536555, -1769.5205532932941, 82344.92180882953, 61480.797705745426, 17496.118545069523, 15405.895162331482, 0.036000000000000004, 0.9500000000000001, 0.126, 192.0, 1.0, 32.0, 29.0, 176.0, 3.0, 240.0, 0.0, 0.0, 0.0, 1.6665552855297925E9, 0.0, 2022-10-23 13:01:25.529
72.0, -63275.53102678431, -92674.02054953821, 53286.6258366854, -1665.2943688981975, 82106.92043386943, 61594.09869838938, 17643.43889277445, 15358.017725708214, 0.036000000000000004, 0.9500000000000001, 0.126, 192.0, 0.0, 0.0, 0.0, 0.0, 0.0, 0.0, 0.0, 0.0, 0.0, 1.6665552855298035E9, 0.0, 2022-10-23 13:01:25.529
73.0, -63242.40574150154, -92637.49779909823, 50984.21734383313, -2942.9647854524596, 81863.17466058429, 60501.61248464734, 16130.672828039269, 13758.191616319611, 0.036000000000000004, 0.9500000000000001, 0.126, 192.0, 0.0, 0.0, 0.0, 0.0, 0.0, 0.0, 0.0, 0.0, 0.0, 1.6665552855298135E9, 0.0, 2022-10-23 13:01:25.529
74.0, -63293.81475374875, -92686.09049154408, 50671.31527320329, -2980.1580882260905, 82067.93899153937, 60456.79723701445, 16071.641870932803, 13867.916329850714, 0.036000000000000004, 0.9500000000000001, 0.126, 192.0, 0.0, 0.0, 0.0, 0.0, 0.0, 0.0, 0.0, 0.0, 0.0, 1.6665552855298235E9, 0.0, 2022-10-23 13:01:25.529
75.0, -63336.953620547494, -92727.57532925313, 52333.18982519983, -2016.5296812688925, 82307.90732001154, 61274.84873233423, 17210.016216041593, 15134.768502088607, 0.036000000000000004, 0.9500000000000001, 0.126, 192.0, 0.0, 0.0, 0.0, 0.0, 0.0, 0.0, 0.0, 0.0, 0.0, 1.6665552855298336E9, 0.0, 2022-10-23 13:01:25.529
76.0, -63293.90416072657, -92689.15268053445, 53559.13830508451, -1485.4969364997073, 82188.79487380921, 61749.21980490921, 17853.411180187606, 15631.826595285725, 0.036000000000000004, 0.9500000000000001, 0.126, 192.0, 0.0, 0.0, 0.0, 0.0, 0.0, 0.0, 0.0, 0.0, 0.0, 1.6665552855298433E9, 0.0, 2022-10-23 13:01:25.529
77.0, -63248.35130552665, -92645.81264803561, 51300.025141242164, -2791.2187923453803, 81845.20385804222, 60649.96101259721, 16321.959057087786, 13948.024981978535, 0.036000000000000004, 0.9500000000000001, 0.126, 192.0, 0.0, 0.0, 0.0, 0.0, 0.0, 0.0, 0.0, 0.0, 0.0, 1.6665552855298536E9, 0.0, 2022-10-23 13:01:25.529
78.0, -63285.8351809782, -92675.36165420552, 50576.3874145016, -3066.301711356844, 81991.89835690241, 60389.18321003714, 15974.411782552217, 13750.972002860548, 0.036000000000000004, 0.9500000000000001, 0.126, 192.0, 0.0, 0.0, 0.0, 0.0, 0.0, 0.0, 0.0, 0.0, 0.0, 1.6665552855298634E9, 0.0, 2022-10-23 13:01:25.529
79.0, -63334.42787342404, -92721.94268965039, 51848.71576413105, -2292.886649714309, 82247.35644428211, 61037.71907540788, 16885.670052250633, 14814.915038933164, 0.036000000000000004, 0.9500000000000001, 0.126, 192.0, 0.0, 0.0, 0.0, 0.0, 0.0, 0.0, 0.0, 0.0, 0.0, 1.6665552855298731E9, 0.0, 2022-10-23 13:01:25.529
80.0, -63318.647541838596, -92714.25368955777, 53640.07397175717, -1414.0384094760907, 82255.02309263029, 61797.23135199921, 17926.724902001013, 15767.233463195977, 0.036000000000000004, 0.9500000000000001, 0.126, 192.0, 0.0, 0.0, 0.0, 0.0, 0.0, 0.0, 0.0, 0.0, 0.0, 1.6665552855299237E9, 0.0, 2022-10-23 13:01:25.529
81.0, -63243.56803221322, -92641.92344450038, 51689.19136395352, -2582.1405747104377, 81878.1279776249, 60827.94795369482, 16563.760228605297, 14197.693967544314, 0.036000000000000004, 0.9520000000000001, 0.126, 192.0, 1.0, 32.0, 29.0, 192.0, 3.0, 240.0, 0.0, 0.0, 0.0, 1.666555285529934E9, 0.0, 2022-10-23 13:01:25.529
82.0, -63276.35804132916, -92669.68431111387, 50591.43013852002, -3063.395984577654, 81981.7506649197, 60397.900390374714, 15968.309756315919, 13718.025531533425, 0.036000000000000004, 0.9520000000000001, 0.126, 192.0, 0.0, 0.0, 0.0, 0.0, 0.0, 0.0, 0.0, 0.0, 0.0, 1.666555285529945E9, 0.0, 2022-10-23 13:01:25.529
83.0, -63318.289913927314, -92707.59286971008, 51470.56895143616, -2495.818137624042, 82206.29628971772, 60868.98575651476, 16640.6278777871, 14556.059486396252, 0.036000000000000004, 0.9520000000000001, 0.126, 192.0, 0.0, 0.0, 0.0, 0.0, 0.0, 0.0, 0.0, 0.0, 0.0, 1.666555285529955E9, 0.0, 2022-10-23 13:01:25.529
84.0, -63326.2471349534, -92716.77943668122, 53585.155735630484, -1407.9587349842473, 82318.12206722761, 61796.918427576835, 17927.618971779226, 15817.279019031408, 0.036000000000000004, 0.9520000000000001, 0.126, 192.0, 0.0, 0.0, 0.0, 0.0, 0.0, 0.0, 0.0, 0.0, 0.0, 1.6665552855299652E9, 0.0, 2022-10-23 13:01:25.529
85.0, -63250.45236950545, -92649.12070621499, 52128.112569822384, -2346.9331678072417, 81915.3883356319, 61030.63357241554, 16848.38734249918, 14499.643683391057, 0.036000000000000004, 0.9520000000000001, 0.126, 192.0, 0.0, 0.0, 0.0, 0.0, 0.0, 0.0, 0.0, 0.0, 0.0, 1.6665552855299747E9, 0.0, 2022-10-23 13:01:25.529
86.0, -63275.91100644005, -92673.50645941573, 50574.91219936755, -3112.592174123785, 81923.21144619126, 60354.202729964585, 15922.019293548978, 13645.762341709416, 0.036000000000000004, 0.9520000000000001, 0.126, 192.0, 0.0, 0.0, 0.0, 0.0, 0.0, 0.0, 0.0, 0.0, 0.0, 1.666555285529985E9, 0.0, 2022-10-23 13:01:25.529
87.0, -63322.760262818374, -92715.12540759152, 51082.63207466985, -2736.389963196512, 82142.72792848683, 60660.80160865803, 16370.752915233723, 14271.231206802275, 0.036000000000000004, 0.9520000000000001, 0.126, 192.0, 0.0, 0.0, 0.0, 0.0, 0.0, 0.0, 0.0, 0.0, 0.0, 1.6665552855299954E9, 0.0, 2022-10-23 13:01:25.529
88.0, -63352.53278643284, -92747.87071321854, 53317.69476147828, -1541.9797947382683, 82333.29890171277, 61678.36477498589, 17779.561016507272, 15720.317151584286, 0.036000000000000004, 0.9520000000000001, 0.126, 192.0, 0.0, 0.0, 0.0, 0.0, 0.0, 0.0, 0.0, 0.0, 0.0, 1.6665552855300055E9, 0.0, 2022-10-23 13:01:25.530
89.0, -63265.89742492407, -92669.81842158061, 52574.45455485041, -2098.8735078422437, 81982.600031209, 61242.259888918394, 17147.118407144357, 14843.927603236152, 0.036000000000000004, 0.9520000000000001, 0.126, 192.0, 0.0, 0.0, 0.0, 0.0, 0.0, 0.0, 0.0, 0.0, 0.0, 1.6665552855300157E9, 0.0, 2022-10-23 13:01:25.530
90.0, -63267.126770869116, -92663.4258226664, 50689.48724144545, -3060.6020165207406, 81915.92477749882, 60416.832317928354, 15988.001643181044, 13691.203438187056, 0.034, 0.9480000000000001, 0.122, 192.0, 1.0, 16.0, 29.0, 160.0, 3.0, 208.0, 0.0, 0.0, 0.0, 1.6665552855300255E9, 0.0, 2022-10-23 13:01:25.530
91.0, -63307.53872484431, -92699.97092485082, 50868.99410116603, -2854.6977465984523, 82103.97000360132, 60578.815409995965, 16233.915535678332, 14105.135393754888, 0.034, 0.9480000000000001, 0.122, 192.0, 0.0, 0.0, 0.0, 0.0, 0.0, 0.0, 0.0, 0.0, 0.0, 1.6665552855300376E9, 0.0, 2022-10-23 13:01:25.530
92.0, -63350.96816432097, -92740.15936138146, 52972.47206836606, -1702.0853402716327, 82331.95779704546, 61549.23874726758, 17591.38167993804, 15545.347695988143, 0.034, 0.9480000000000001, 0.122, 192.0, 0.0, 0.0, 0.0, 0.0, 0.0, 0.0, 0.0, 0.0, 0.0, 1.6665552855300477E9, 0.0, 2022-10-23 13:01:25.530
93.0, -63283.398840832575, -92677.61918039552, 53004.61387689279, -1843.2589582513522, 82055.80199430013, 61459.317679323874, 17447.011762501214, 15183.450601512266, 0.034, 0.9480000000000001, 0.122, 192.0, 0.0, 0.0, 0.0, 0.0, 0.0, 0.0, 0.0, 0.0, 0.0, 1.6665552855300577E9, 0.0, 2022-10-23 13:01:25.530
94.0, -63263.59519524517, -92656.0720987406, 50833.36542050427, -3008.343637984233, 81875.98221015719, 60465.58147258538, 16056.12976028082, 13737.695066654094, 0.034, 0.9480000000000001, 0.122, 192.0, 0.0, 0.0, 0.0, 0.0, 0.0, 0.0, 0.0, 0.0, 0.0, 1.6665552855300918E9, 0.0, 2022-10-23 13:01:25.530
95.0, -63302.53193408632, -92690.20321252385, 50693.17527928058, -2965.2271229299454, 82068.36367468402, 60481.6747285932, 16097.145211356308, 13948.069685467444, 0.034, 0.9480000000000001, 0.122, 192.0, 0.0, 0.0, 0.0, 0.0, 0.0, 0.0, 0.0, 0.0, 0.0, 1.6665552855301764E9, 0.0, 2022-10-23 13:01:25.530
96.0, -63355.84084461223, -92741.96985268233, 52573.69459553893, -1892.8351274532233, 82330.6837476115, 61392.32950119132, 17358.38709573592, 15319.908001411915, 0.034, 0.9480000000000001, 0.122, 192.0, 0.0, 0.0, 0.0, 0.0, 0.0, 0.0, 0.0, 0.0, 0.0, 1.666555285530218E9, 0.0, 2022-10-23 13:01:25.530
97.0, -63296.9887014614, -92689.39854972345, 53392.12607051445, -1594.0817110635892, 82142.01267266425, 61680.39878373132, 17729.64957113857, 15503.862858279093, 0.034, 0.9480000000000001, 0.122, 192.0, 0.0, 0.0, 0.0, 0.0, 0.0, 0.0, 0.0, 0.0, 0.0, 1.6665552855302584E9, 0.0, 2022-10-23 13:01:25.530
98.0, -63246.362000270135, -92641.18583693336, 51082.565019436486, -2893.1427470615804, 81859.59838147144, 60581.13999141932, 16196.766936393613, 13850.146693008744, 0.034, 0.9480000000000001, 0.122, 192.0, 0.0, 0.0, 0.0, 0.0, 0.0, 0.0, 0.0, 0.0, 0.0, 1.6665552855302992E9, 0.0, 2022-10-23 13:01:25.530
99.0, -63293.90416072657, -92685.79991886615, 50602.829528192226, -3027.0296963488695, 82039.75344178123, 60449.82349274439, 16021.88688777529, 13836.154500979723, 0.034, 0.9480000000000001, 0.122, 192.0, 0.0, 0.0, 0.0, 0.0, 0.0, 0.0, 0.0, 0.0, 0.0, 1.666555285530327E9, 0.0, 2022-10-23 13:01:25.530
100.0, -63347.03425729684, -92734.16909386744, 52111.28170624754, -2139.5313310064475, 82288.41659884651, 61202.31732157676, 17070.56368238493, 15023.30035248999, 0.032, 0.96, 0.128, 192.0, 1.0, 0.0, 30.0, 0.0, 4.0, 0.0, 0.0, 0.0, 0.0, 1.6665552855303385E9, 0.0, 2022-10-23 13:01:25.530
101.0, -63319.18398370552, -92712.06321860114, 53577.73495647132, -1464.5310002006293, 82225.45173471591, 61797.23135199921, 17882.177875301586, 15704.737985698937, 0.032, 0.96, 0.128, 192.0, 0.0, 0.0, 0.0, 0.0, 0.0, 0.0, 0.0, 0.0, 0.0, 1.666555285530351E9, 0.0, 2022-10-23 13:01:25.530
102.0, -63257.42611377551, -92654.03808999516, 51406.732369271806, -2733.2383672283136, 81872.40593104434, 60732.30483917056, 16398.737299291766, 14043.466930802695, 0.032, 0.96, 0.128, 192.0, 0.0, 0.0, 0.0, 0.0, 0.0, 0.0, 0.0, 0.0, 0.0, 1.6665552855303628E9, 0.0, 2022-10-23 13:01:25.530
103.0, -63288.00330019037, -92677.46271818432, 50535.41666691502, -3086.03830171088, 82005.5999762535, 60406.17053582318, 15958.050305610932, 13740.779607388928, 0.032, 0.96, 0.128, 192.0, 0.0, 0.0, 0.0, 0.0, 0.0, 0.0, 0.0, 0.0, 0.0, 1.6665552855303745E9, 0.0, 2022-10-23 13:01:25.530
104.0, -63340.038161282326, -92726.636555986, 51646.67834599953, -2401.493776022646, 82241.92497037948, 60980.43155436892, 16774.626585796665, 14712.991084216963, 0.032, 0.96, 0.128, 192.0, 0.0, 0.0, 0.0, 0.0, 0.0, 0.0, 0.0, 0.0, 0.0, 1.6665552855303864E9, 0.0, 2022-10-23 13:01:25.530
105.0, -63317.28408542682, -92701.1779190514, 53608.155680674994, -1418.3969996448757, 82288.19308140196, 61837.732712952224, 17947.22145166653, 15816.340245764286, 0.032, 0.96, 0.128, 192.0, 0.0, 0.0, 0.0, 0.0, 0.0, 0.0, 0.0, 0.0, 0.0, 1.666555285530398E9, 0.0, 2022-10-23 13:01:25.530
106.0, -63232.168642541015, -92622.43272333535, 51815.38931314818, -2521.097960602994, 81882.68773349377, 60930.944792144874, 16672.054430491262, 14313.49835556726, 0.032, 0.96, 0.128, 192.0, 0.0, 0.0, 0.0, 0.0, 0.0, 0.0, 0.0, 0.0, 0.0, 1.6665552855304098E9, 0.0, 2022-10-23 13:01:25.530
107.0, -63283.01886117684, -92683.76591012072, 50550.92877756701, -3101.1927844515785, 81969.97129559175, 60421.48148077506, 15967.125113859787, 13703.13926972619, 0.032, 0.96, 0.128, 192.0, 0.0, 0.0, 0.0, 0.0, 0.0, 0.0, 0.0, 0.0, 0.0, 1.6665552855304213E9, 0.0, 2022-10-23 13:01:25.530
108.0, -63332.907954801085, -92733.43148630041, 51307.669437845885, -2595.641028361443, 82204.19522573892, 60853.60775632951, 16582.468638714392, 14482.43284016047, 0.032, 0.96, 0.128, 192.0, 0.0, 0.0, 0.0, 0.0, 0.0, 0.0, 0.0, 0.0, 0.0, 1.6665552855304332E9, 0.0, 2022-10-23 13:01:25.530
109.0, -63337.17713799205, -92737.5442072802, 53496.48636537628, -1459.1442297869003, 82336.02581453632, 61829.79784367059, 17934.100977671264, 15830.444196515584, 0.032, 0.96, 0.128, 192.0, 0.0, 0.0, 0.0, 0.0, 0.0, 0.0, 0.0, 0.0, 0.0, 1.6665552855304468E9, 0.0, 2022-10-23 13:01:25.530
110.0, -63234.85085187565, -92642.28107241167, 52282.20549609727, -2272.92654191572, 81949.45239418178, 61170.26492002785, 17000.714480962095, 14650.607365442202, 0.026000000000000002, 0.9560000000000001, 0.132, 192.0, 0.0, 208.0, 29.0, 224.0, 4.0, 32.0, 0.0, 0.0, 0.0, 1.6665552855304587E9, 0.0, 2022-10-23 13:01:25.530
111.0, -63243.210404301935, -92652.45111613884, 50615.704132998486, -3093.7496535479613, 81952.13460351642, 60456.618423058804, 16003.089070688377, 13698.28894117939, 0.026000000000000002, 0.9560000000000001, 0.132, 192.0, 0.0, 0.0, 0.0, 0.0, 0.0, 0.0, 0.0, 0.0, 0.0, 1.666555285530504E9, 0.0, 2022-10-23 13:01:25.530
112.0, -63289.43381183551, -92701.71436091833, 51018.728437272126, -2762.9885390983272, 82159.2458676393, 60732.43894963729, 16395.5186480902, 14255.450875216828, 0.026000000000000002, 0.9560000000000001, 0.132, 192.0, 0.0, 0.0, 0.0, 0.0, 0.0, 0.0, 0.0, 0.0, 0.0, 1.666555285530518E9, 0.0, 2022-10-23 13:01:25.530
113.0, -63319.16163196107, -92735.0855153901, 53224.063303955, -1577.3179027221088, 82346.30761698575, 61745.24119439616, 17797.442412071516, 15703.910971154091, 0.026000000000000002, 0.9560000000000001, 0.132, 192.0, 0.0, 0.0, 0.0, 0.0, 0.0, 0.0, 0.0, 0.0, 0.0, 1.6665552855305295E9, 0.0, 2022-10-23 13:01:25.530
114.0, -63229.307619250736, -92651.31117717162, 52723.76420781186, -2023.9504604280546, 82001.37549655145, 61396.86690531575, 17302.03834796409, 14972.24896815407, 0.026000000000000002, 0.9560000000000001, 0.132, 192.0, 0.0, 0.0, 0.0, 0.0, 0.0, 0.0, 0.0, 0.0, 0.0, 1.6665552855305417E9, 0.0, 2022-10-23 13:01:25.530
115.0, -63220.09870053515, -92640.76115378871, 50687.162660022106, -3089.8604500127376, 81896.8810912229, 60485.2286559616, 16026.491347133084, 13679.535827581387, 0.026000000000000002, 0.9560000000000001, 0.132, 192.0, 0.0, 0.0, 0.0, 0.0, 0.0, 0.0, 0.0, 0.0, 0.0, 1.6665552855305536E9, 0.0, 2022-10-23 13:01:25.530
116.0, -63250.8770526501, -92674.51228791622, 50745.098381650256, -2937.8462359721943, 82100.23726227728, 60600.18367769524, 16201.505506218136, 14024.177375337766, 0.026000000000000002, 0.9560000000000001, 0.132, 192.0, 0.0, 0.0, 0.0, 0.0, 0.0, 0.0, 0.0, 0.0, 0.0, 1.6665552855305662E9, 0.0, 2022-10-23 13:01:25.530
117.0, -63298.28510263981, -92721.49565476128, 52807.18091811907, -1781.2775708767858, 82355.7400531459, 61590.92475067673, 17568.359383149076, 15480.818209745672, 0.026000000000000002, 0.9560000000000001, 0.132, 192.0, 0.0, 0.0, 0.0, 0.0, 0.0, 0.0, 0.0, 0.0, 0.0, 1.666555285530578E9, 0.0, 2022-10-23 13:01:25.530
118.0, -63222.35622672513, -92652.18289520538, 53127.45906441916, -1773.8344399731684, 82093.5764424296, 61632.834271530424, 17609.218372013376, 15311.749614685728, 0.026000000000000002, 0.9560000000000001, 0.132, 192.0, 0.0, 0.0, 0.0, 0.0, 0.0, 0.0, 0.0, 0.0, 0.0, 1.6665552855305934E9, 0.0, 2022-10-23 13:01:25.530
119.0, -63182.92774950597, -92609.51341504019, 50902.58877308235, -2982.4156144160766, 81899.6750592798, 60618.109776748395, 16179.310223974016, 13798.692977272627, -0.004, 0.9520000000000001, 0.136, 192.0, 255.0, 224.0, 29.0, 192.0, 4.0, 64.0, 0.0, 0.0, 0.0, 1.6665552855306027E9, 0.0, 2022-10-23 13:01:25.530
120.0, -63226.82657561619, -92650.93119751588, 50650.52815085986, -2996.3854547006435, 82078.53371841118, 60602.26238992959, 16163.641651110847, 13938.391380118297, -0.004, 0.9520000000000001, 0.136, 192.0, 0.0, 0.0, 0.0, 0.0, 0.0, 0.0, 0.0, 0.0, 0.0, 1.6665552855306132E9, 0.0, 2022-10-23 13:01:25.530
121.0, -63277.877959952115, -92701.55789870715, 52379.79321238914, -2012.2381463334737, 82312.51177936934, 61445.549004739405, 17339.164595504357, 15227.863517744961, -0.004, 0.9520000000000001, 0.136, 192.0, 0.0, 0.0, 0.0, 0.0, 0.0, 0.0, 0.0, 0.0, 0.0, 1.6665552855306225E9, 0.0, 2022-10-23 13:01:25.530
122.0, -63224.23377325938, -92648.33839515907, 53434.72849544627, -1590.3042662506423, 82167.6948270434, 61832.10007334949, 17868.029221061377, 15592.532228533297, -0.004, 0.9520000000000001, 0.136, 192.0, 0.0, 0.0, 0.0, 0.0, 0.0, 0.0, 0.0, 0.0, 0.0, 1.666555285530632E9, 0.0, 2022-10-23 13:01:25.530
123.0, -63177.25040641432, -92602.04793239212, 51161.3772703859, -2890.1029098156587, 81861.47592800569, 60740.32911543002, 16347.372990533471, 13924.108615411356, -0.004, 0.9520000000000001, 0.136, 192.0, 0.0, 0.0, 0.0, 0.0, 0.0, 0.0, 0.0, 0.0, 0.0, 1.6665552855306416E9, 0.0, 2022-10-23 13:01:25.530
124.0, -63219.49520343485, -92642.70575555632, 50521.446826630454, -3123.879805073715, 82019.59216828253, 60515.5823249319, 16063.505835951071, 13793.686186514638, -0.004, 0.9520000000000001, 0.136, 192.0, 0.0, 0.0, 0.0, 0.0, 0.0, 0.0, 0.0, 0.0, 0.0, 1.6665552855306509E9, 0.0, 2022-10-23 13:01:25.530
125.0, -63265.13746561259, -92684.95055257685, 51886.35610179378, -2312.2209086681496, 82279.47590106439, 61201.17738260954, 17037.863080246818, 14918.425967505691, -0.004, 0.9520000000000001, 0.136, 192.0, 0.0, 0.0, 0.0, 0.0, 0.0, 0.0, 0.0, 0.0, 0.0, 1.66655528553066E9, 0.0, 2022-10-23 13:01:25.530
126.0, -63244.48445373589, -92668.36555819101, 53558.42304926194, -1526.2218148972768, 82252.3632350401, 61885.74426004223, 17996.060013301376, 15776.420030167108, -0.004, 0.9520000000000001, 0.136, 192.0, 0.0, 0.0, 0.0, 0.0, 0.0, 0.0, 0.0, 0.0, 0.0, 1.66655528553068E9, 0.0, 2022-10-23 13:01:25.530
127.0, -63175.104638946614, -92600.5056620247, 51502.17431809597, -2758.5628936961766, 81881.50309103765, 60849.85266326102, 16569.4599234414, 14154.42099027884, -0.004, 0.9520000000000001, 0.136, 192.0, 0.0, 0.0, 0.0, 0.0, 0.0, 0.0, 0.0, 0.0, 0.0, 1.6665552855306897E9, 0.0, 2022-10-23 13:01:25.530
128.0, -63213.88491557657, -92636.33550838656, 50499.54211706426, -3190.9573901840918, 82003.61067099699, 60456.57371956989, 16046.294992720485, 13751.441389494108, -0.004, 0.9520000000000001, 0.136, 192.0, 0.0, 0.0, 0.0, 0.0, 0.0, 0.0, 0.0, 0.0, 0.0, 1.6665552855306993E9, 0.0, 2022-10-23 13:01:25.530
129.0, -63264.01987838982, -92683.25181999824, 51468.870218857555, -2587.549696868622, 82224.1553335375, 60957.655126768965, 16781.779144022363, 14646.651106673611, 0.016, 0.9440000000000001, 0.124, 192.0, 0.0, 128.0, 29.0, 128.0, 3.0, 224.0, 0.0, 0.0, 0.0, 1.6665552855307088E9, 0.0, 2022-10-23 13:01:25.530
130.0, -63268.937262169995, -92690.8737648575, 53551.02462184723, -1535.9671754797907, 82309.31547991223, 61862.833721975534, 18047.223156359574, 15870.006784201478, 0.016, 0.9440000000000001, 0.124, 192.0, 0.0, 0.0, 0.0, 0.0, 0.0, 0.0, 0.0, 0.0, 0.0, 1.6665552855307188E9, 0.0, 2022-10-23 13:01:25.530
131.0, -63183.50889486181, -92606.76415047218, 51958.932216040164, -2551.943367951318, 81911.3873733744, 61023.659828145486, 16886.094735395283, 14473.223921444884, 0.016, 0.9440000000000001, 0.124, 192.0, 0.0, 0.0, 0.0, 0.0, 0.0, 0.0, 0.0, 0.0, 0.0, 1.666555285530728E9, 0.0, 2022-10-23 13:01:25.530
132.0, -63206.24061897286, -92626.94777571534, 50524.30784992073, -3246.1214954997895, 81948.96065580376, 60410.81969866988, 16055.101580035876, 13719.076063522823, 0.016, 0.9440000000000001, 0.124, 192.0, 0.0, 0.0, 0.0, 0.0, 0.0, 0.0, 0.0, 0.0, 0.0, 1.6665552855307376E9, 0.0, 2022-10-23 13:01:25.530
133.0, -63252.10639859515, -92670.86895357001, 51112.58341223996, -2839.0962289686477, 82160.11758567306, 60745.000630021175, 16557.479388413358, 14391.7965163942, 0.016, 0.9440000000000001, 0.124, 192.0, 0.0, 0.0, 0.0, 0.0, 0.0, 0.0, 0.0, 0.0, 0.0, 1.6665552855307472E9, 0.0, 2022-10-23 13:01:25.530
134.0, -63282.61652977664, -92695.56763119312, 53356.43033461933, -1657.0912786830997, 82331.01902377832, 61757.8252265245, 17970.377858922227, 15821.32468477782, 0.016, 0.9440000000000001, 0.124, 192.0, 0.0, 0.0, 0.0, 0.0, 0.0, 0.0, 0.0, 0.0, 0.0, 1.666555285530758E9, 0.0, 2022-10-23 13:01:25.530
135.0, -63201.65851135952, -92616.9565459438, 52437.594823550564, -2319.6193360828565, 81966.81969962355, 61231.24047890193, 17224.768367382094, 14826.359132094281, 0.016, 0.9440000000000001, 0.124, 192.0, 0.0, 0.0, 0.0, 0.0, 0.0, 0.0, 0.0, 0.0, 0.0, 1.6665552855307674E9, 0.0, 2022-10-23 13:01:25.530
136.0, -63204.675996860984, -92618.0070779332, 50612.53018528583, -3252.424687436186, 81919.05402172256, 60422.86728893129, 16106.465888794171, 13729.044941549892, 0.016, 0.9440000000000001, 0.124, 192.0, 0.0, 0.0, 0.0, 0.0, 0.0, 0.0, 0.0, 0.0, 0.0, 1.6665552855307767E9, 0.0, 2022-10-23 13:01:25.530
137.0, -63243.85860489114, -92653.05461323913, 50861.03688013994, -3016.725542154973, 82121.31495729864, 60611.605419111904, 16392.85879050002, 14194.363557620474, 0.016, 0.9440000000000001, 0.124, 192.0, 0.0, 0.0, 0.0, 0.0, 0.0, 0.0, 0.0, 0.0, 0.0, 1.6665552855307863E9, 0.0, 2022-10-23 13:01:25.530
138.0, -63280.38135533111, -92689.7785293792, 53010.26886823999, -1855.0159758348439, 82349.19099202049, 61600.02191067004, 17774.57657749374, 15656.569976397752, 0.016, 0.9440000000000001, 0.124, 192.0, 0.0, 0.0, 0.0, 0.0, 0.0, 0.0, 0.0, 0.0, 0.0, 1.6665552855307956E9, 0.0, 2022-10-23 13:01:25.530
139.0, -63200.29505494775, -92617.11300815499, 52858.43346815508, -2102.4274352106377, 82053.54446811015, 61423.756053895486, 17512.94940864437, 15168.944319360771, 0.036000000000000004, 0.9460000000000001, 0.11800000000000001, 192.0, 1.0, 32.0, 29.0, 144.0, 3.0, 176.0, 0.0, 0.0, 0.0, 1.666555285530806E9, 0.0, 2022-10-23 13:01:25.530
140.0, -63191.73433682136, -92605.13247312696, 50752.40740208714, -3217.846538763826, 81904.6818500378, 60473.471638378105, 16179.332575718472, 13791.49571555802, 0.036000000000000004, 0.9460000000000001, 0.11800000000000001, 192.0, 0.0, 0.0, 0.0, 0.0, 0.0, 0.0, 0.0, 0.0, 0.0, 1.6665552855308163E9, 0.0, 2022-10-23 13:01:25.530
141.0, -63233.3756367416, -92642.75045904523, 50682.93818032005, -3141.694145404595, 82076.20913698783, 60523.092511068884, 16266.437323860804, 14047.73611399366, 0.036000000000000004, 0.9460000000000001, 0.11800000000000001, 192.0, 0.0, 0.0, 0.0, 0.0, 0.0, 0.0, 0.0, 0.0, 0.0, 1.6665552855308256E9, 0.0, 2022-10-23 13:01:25.530
142.0, -63290.08201242471, -92695.09824455956, 52610.03853202326, -2064.1165452142413, 82320.53605562879, 61442.911498893685, 17550.56739456265, 15437.254659802278, 0.036000000000000004, 0.9460000000000001, 0.11800000000000001, 192.0, 0.0, 0.0, 0.0, 0.0, 0.0, 0.0, 0.0, 0.0, 0.0, 1.666555285530846E9, 0.0, 2022-10-23 13:01:25.530
143.0, -63238.315372266225, -92651.31117717162, 53279.093298803964, -1853.5407607007935, 82119.4821142533, 61663.79143760103, 17828.80190954231, 15511.97654151637, 0.036000000000000004, 0.9460000000000001, 0.11800000000000001, 192.0, 0.0, 0.0, 0.0, 0.0, 0.0, 0.0, 0.0, 0.0, 0.0, 1.6665552855308554E9, 0.0, 2022-10-23 13:01:25.530
144.0, -63196.003520012324, -92609.55811852911, 51015.35332385937, -3106.110168231746, 81869.9695908987, 60607.42564289876, 16343.215566064784, 13905.914295424736, 0.036000000000000004, 0.9460000000000001, 0.11800000000000001, 192.0, 0.0, 0.0, 0.0, 0.0, 0.0, 0.0, 0.0, 0.0, 0.0, 1.6665552855308669E9, 0.0, 2022-10-23 13:01:25.530
145.0, -63233.1744710415, -92640.11295319951, 50599.85674617967, -3213.979686973058, 82043.64264531645, 60496.51628691152, 16208.769823166112, 13927.774301502026, 0.036000000000000004, 0.9460000000000001, 0.11800000000000001, 192.0, 0.0, 0.0, 0.0, 0.0, 0.0, 0.0, 0.0, 0.0, 0.0, 1.6665552855308774E9, 0.0, 2022-10-23 13:01:25.530
146.0, -63281.297776853775, -92685.35288397704, 52174.045404678036, -2307.728208032633, 82288.46130233542, 61266.667993863586, 17294.148182171368, 15145.89967082735, 0.036000000000000004, 0.9460000000000001, 0.11800000000000001, 192.0, 0.0, 0.0, 0.0, 0.0, 0.0, 0.0, 0.0, 0.0, 0.0, 1.666555285530888E9, 0.0, 2022-10-23 13:01:25.530
147.0, -63248.28425029329, -92657.72612783029, 53494.38530139748, -1728.5051022178059, 82196.77444657976, 61782.47920065871, 18004.95600759459, 15716.405596304608, 0.036000000000000004, 0.9460000000000001, 0.11800000000000001, 192.0, 0.0, 0.0, 0.0, 0.0, 0.0, 0.0, 0.0, 0.0, 0.0, 1.6665552855308983E9, 0.0, 2022-10-23 13:01:25.530
148.0, -63187.95689200841, -92596.5046997672, 51277.42752759785, -3007.02488506137, 81862.54881173954, 60700.58771378848, 16496.70499523938, 14040.15887262331, 0.036000000000000004, 0.9460000000000001, 0.11800000000000001, 192.0, 0.0, 0.0, 0.0, 0.0, 0.0, 0.0, 0.0, 0.0, 0.0, 1.6665552855309093E9, 0.0, 2022-10-23 13:01:25.530
149.0, -63217.349435967146, -92620.46576982329, 50546.86076007614, -3270.5966556783505, 82026.23063638576, 60459.18887367116, 16159.77479932008, 13841.205995226623, 0.042, 0.9480000000000001, 0.128, 192.0, 1.0, 80.0, 29.0, 160.0, 4.0, 0.0, 0.0, 0.0, 0.0, 1.66655528553092E9, 0.0, 2022-10-23 13:01:25.530
150.0, -63265.11511386814, -92670.98071229228, 51754.8160856743, -2545.818989970564, 82246.12709833708, 61074.15241887003, 17031.671647032697, 14864.491208135034, 0.042, 0.9480000000000001, 0.128, 192.0, 0.0, 0.0, 0.0, 0.0, 0.0, 0.0, 0.0, 0.0, 0.0, 1.666555285530931E9, 0.0, 2022-10-23 13:01:25.530
151.0, -63268.35611681415, -92683.78826186518, 53596.73393925833, -1651.5256943137283, 82260.65573223302, 61850.42850380284, 18109.852744323343, 15865.447028332595, 0.042, 0.9480000000000001, 0.128, 192.0, 0.0, 0.0, 0.0, 0.0, 0.0, 0.0, 0.0, 0.0, 0.0, 1.6665552855309415E9, 0.0, 2022-10-23 13:01:25.530
152.0, -63191.60022635463, -92609.58047027356, 51691.56064886578, -2805.74742624133, 81879.7820067146, 60885.011957289214, 16760.768504234376, 14304.132974640486, 0.042, 0.9480000000000001, 0.128, 192.0, 0.0, 0.0, 0.0, 0.0, 0.0, 0.0, 0.0, 0.0, 0.0, 1.6665552855309522E9, 0.0, 2022-10-23 13:01:25.530
153.0, -63221.819784858206, -92636.76019153121, 50536.824826815704, -3317.9823539236017, 81987.4503597558, 60435.719541993094, 16132.125691428864, 13783.717308487572, 0.042, 0.9480000000000001, 0.128, 192.0, 0.0, 0.0, 0.0, 0.0, 0.0, 0.0, 0.0, 0.0, 0.0, 1.6665552855309627E9, 0.0, 2022-10-23 13:01:25.530
154.0, -63261.33766905519, -92671.69596811486, 51360.53131348269, -2787.3966440435224, 82206.22923448434, 60891.873942836995, 16781.577978322268, 14598.594856094702, 0.042, 0.9480000000000001, 0.128, 192.0, 0.0, 0.0, 0.0, 0.0, 0.0, 0.0, 0.0, 0.0, 0.0, 1.666555285530974E9, 0.0, 2022-10-23 13:01:25.530
155.0, -63275.10634363966, -92688.14685203395, 53514.412464429435, -1686.2603051972753, 82322.50300914086, 61848.238032846224, 18106.67879661069, 15904.361415429285, 0.042, 0.9480000000000001, 0.128, 192.0, 0.0, 0.0, 0.0, 0.0, 0.0, 0.0, 0.0, 0.0, 0.0, 1.666555285530986E9, 0.0, 2022-10-23 13:01:25.530
156.0, -63192.114316477106, -92609.58047027356, 52149.50318926611, -2581.671188076876, 81932.19684746228, 61121.09108222617, 17078.923234811216, 14631.898955333108, 0.042, 0.9480000000000001, 0.128, 192.0, 0.0, 0.0, 0.0, 0.0, 0.0, 0.0, 0.0, 0.0, 0.0, 1.6665552855309968E9, 0.0, 2022-10-23 13:01:25.530
157.0, -63206.777060839784, -92619.39288608944, 50565.703280651964, -3352.1805229402216, 81951.46405118276, 60452.34923986784, 16143.10039795642, 13751.642555194207, 0.042, 0.9480000000000001, 0.128, 192.0, 0.0, 0.0, 0.0, 0.0, 0.0, 0.0, 0.0, 0.0, 0.0, 1.666555285531018E9, 0.0, 2022-10-23 13:01:25.531
158.0, -63249.87122414962, -92659.00017726424, 51034.8440450244, -2997.6371523901407, 82162.50922232977, 60752.53316790261, 16576.65718515601, 14354.17853047592, 0.048, 0.9560000000000001, 0.126, 192.0, 1.0, 128.0, 29.0, 224.0, 3.0, 240.0, 0.0, 0.0, 0.0, 1.6665552855310287E9, 0.0, 2022-10-23 13:01:25.531
159.0, -63291.06548918075, -92701.5802504516, 53272.946569078755, -1808.7255130679027, 82345.99469256338, 61776.913616289334, 17999.591588925316, 15813.32276026282, 0.048, 0.9560000000000001, 0.126, 192.0, 0.0, 0.0, 0.0, 0.0, 0.0, 0.0, 0.0, 0.0, 0.0, 1.66655528553104E9, 0.0, 2022-10-23 13:01:25.531
160.0, -63195.84705780114, -92613.22380461977, 52622.04141879576, -2327.8000745534987, 81999.2520808282, 61364.68039330011, 17412.29950336212, 14983.000157237073, 0.048, 0.9560000000000001, 0.126, 192.0, 0.0, 0.0, 0.0, 0.0, 0.0, 0.0, 0.0, 0.0, 0.0, 1.6665552855310504E9, 0.0, 2022-10-23 13:01:25.531
161.0, -63195.534133378766, -92606.42887430536, 50673.52809590437, -3330.029944185012, 81924.10551596947, 60497.388004945286, 16200.745546906657, 13770.283910069933, 0.048, 0.9560000000000001, 0.126, 192.0, 0.0, 0.0, 0.0, 0.0, 0.0, 0.0, 0.0, 0.0, 0.0, 1.6665552855310607E9, 0.0, 2022-10-23 13:01:25.531
162.0, -63243.500976979856, -92648.62896783698, 50782.26933267943, -3168.806811428882, 82109.3791257595, 60614.93582903574, 16398.089098702563, 14147.268432053143, 0.048, 0.9560000000000001, 0.126, 192.0, 0.0, 0.0, 0.0, 0.0, 0.0, 0.0, 0.0, 0.0, 0.0, 1.6665552855310717E9, 0.0, 2022-10-23 13:01:25.531
163.0, -63289.277349624324, -92694.65120967045, 52871.84451482827, -2022.6987627385574, 82348.74395713139, 61591.327082076925, 17766.261728556365, 15609.206629896955, 0.048, 0.9560000000000001, 0.126, 192.0, 0.0, 0.0, 0.0, 0.0, 0.0, 0.0, 0.0, 0.0, 0.0, 1.6665552855310824E9, 0.0, 2022-10-23 13:01:25.531
164.0, -63217.41649120051, -92626.50074082623, 53038.320307531394, -2096.7277403745343, 82086.35682897054, 61562.04629684047, 17711.49995464086, 15336.783568475674, 0.048, 0.9560000000000001, 0.126, 192.0, 0.0, 0.0, 0.0, 0.0, 0.0, 0.0, 0.0, 0.0, 0.0, 1.666555285531093E9, 0.0, 2022-10-23 13:01:25.531
165.0, -63193.142496722045, -92598.73987421273, 50827.375152990244, -3289.4391762541745, 81900.97146045823, 60534.9389356302, 16283.894036280399, 13841.295402204443, 0.048, 0.9560000000000001, 0.126, 192.0, 0.0, 0.0, 0.0, 0.0, 0.0, 0.0, 0.0, 0.0, 0.0, 1.6665552855311031E9, 0.0, 2022-10-23 13:01:25.531
166.0, -63240.01410484483, -92638.68244155437, 50628.914013971575, -3276.9221993592028, 82093.21881451832, 60518.82332787792, 16288.31968168255, 14020.77991018056, 0.048, 0.9560000000000001, 0.126, 192.0, 0.0, 0.0, 0.0, 0.0, 0.0, 0.0, 0.0, 0.0, 0.0, 1.6665552855311136E9, 0.0, 2022-10-23 13:01:25.531
167.0, -63291.62428279213, -92686.89515434447, 52456.30323365966, -2237.8790066097986, 82346.59818966368, 61404.39944319719, 17527.09806288458, 15382.582292864598, 0.048, 0.9560000000000001, 0.126, 192.0, 0.0, 0.0, 0.0, 0.0, 0.0, 0.0, 0.0, 0.0, 0.0, 1.666555285531124E9, 0.0, 2022-10-23 13:01:25.531
168.0, -63237.86833737711, -92637.67661305387, 53372.32242492705, -1894.0421216538098, 82173.93096374643, 61720.1178336284, 17961.61597509575, 15641.057865745768, 0.07, 0.9560000000000001, 0.12, 192.0, 2.0, 48.0, 29.0, 224.0, 3.0, 192.0, 0.0, 0.0, 0.0, 1.666555285531135E9, 0.0, 2022-10-23 13:01:25.531
169.0, -63198.238694457854, -92600.59506900252, 51069.71276637468, -3189.1916023721224, 81880.0278759036, 60607.00095975411, 16418.563296623623, 13966.442819409707, 0.07, 0.9560000000000001, 0.12, 192.0, 0.0, 0.0, 0.0, 0.0, 0.0, 0.0, 0.0, 0.0, 0.0, 1.6665552855311468E9, 0.0, 2022-10-23 13:01:25.531
170.0, -63246.13848282558, -92644.49389511274, 50518.65285857354, -3363.803430056981, 82045.83311627306, 60426.9129546777, 16191.804849124534, 13900.304007566454, 0.07, 0.9560000000000001, 0.12, 192.0, 0.0, 0.0, 0.0, 0.0, 0.0, 0.0, 0.0, 0.0, 0.0, 1.6665552855311575E9, 0.0, 2022-10-23 13:01:25.531
0.0, 0.0, 0.0, 0.0, 0.0, 0.0, 0.0, 0.0, 0.0, 0.06, 0.9500000000000001, 0.116, 192.0, 1.0, 224.0, 29.0, 176.0, 3.0, 160.0, 0.0, 0.0, 0.0, 1.666555285604777E9, 0.0, 2022-10-23 13:01:25.604
1.0, -63419.588019798764, -92824.8054176337, 53865.80423901132, -1268.7744222610502, 82392.86630068616, 61952.68773468587, 18209.8991525053, 15850.963097925556, 0.06, 0.9500000000000001, 0.116, 192.0, 0.0, 0.0, 0.0, 0.0, 0.0, 0.0, 0.0, 0.0, 0.0, 1.666555286086496E9, 0.0, 2022-10-23 13:01:26.086
2.0, -63348.44241719752, -92757.10198367859, 51918.252041131505, -2439.111761940928, 81998.29095581663, 60968.24985364078, 16832.159976024624, 14265.799732899635, 0.06, 0.9500000000000001, 0.116, 192.0, 0.0, 0.0, 0.0, 0.0, 0.0, 0.0, 0.0, 0.0, 0.0, 1.666555286086665E9, 0.0, 2022-10-23 13:01:26.086
3.0, -63373.990461109934, -92777.97851299983, 50777.77663204392, -2938.2932708613007, 82104.95348035735, 60514.66590340924, 16206.087613831474, 13752.491921483508, 0.06, 0.9500000000000001, 0.116, 192.0, 0.0, 0.0, 0.0, 0.0, 0.0, 0.0, 0.0, 0.0, 0.0, 1.666555286086681E9, 0.0, 2022-10-23 13:01:26.086
4.0, -63404.344130080244, -92802.23015573385, 51640.30809882976, -2370.268389018582, 82349.14628853159, 60988.85816202858, 16878.71865972503, 14593.275140914338, 0.06, 0.9500000000000001, 0.116, 192.0, 0.0, 0.0, 0.0, 0.0, 0.0, 0.0, 0.0, 0.0, 0.0, 1.6665552860866947E9, 0.0, 2022-10-23 13:01:26.086
5.0, -63429.33338038128, -92828.82873163566, 53806.41565399357, -1249.1719423737459, 82463.3189992093, 61957.26984229921, 18211.776699039543, 15902.90855203969, 0.06, 0.9500000000000001, 0.116, 192.0, 0.0, 0.0, 0.0, 0.0, 0.0, 0.0, 0.0, 0.0, 0.0, 1.666555286086714E9, 0.0, 2022-10-23 13:01:26.086
6.0, -63345.827263096246, -92747.20016088488, 52380.6649304229, -2169.6838342766564, 82053.09743322105, 61195.67885347353, 17140.234069852122, 14590.302358901783, 0.06, 0.9500000000000001, 0.116, 192.0, 0.0, 0.0, 0.0, 0.0, 0.0, 0.0, 0.0, 0.0, 0.0, 1.6665552860867276E9, 0.0, 2022-10-23 13:01:26.086
7.0, -63359.595937680715, -92758.06310869016, 50835.1982635496, -2910.6218112256306, 82077.79611084415, 60538.82813916542, 16224.438396029282, 13735.90692709767, 0.05, 0.9500000000000001, 0.11800000000000001, 192.0, 1.0, 144.0, 29.0, 176.0, 3.0, 176.0, 0.0, 0.0, 0.0, 1.6665552860867405E9, 0.0, 2022-10-23 13:01:26.086
8.0, -63407.18280162607, -92805.58291740215, 51332.43517070236, -2536.6324229994325, 82280.99581968735, 60843.862395747, 16668.29933742277, 14349.618774607037, 0.05, 0.9500000000000001, 0.11800000000000001, 192.0, 0.0, 0.0, 0.0, 0.0, 0.0, 0.0, 0.0, 0.0, 0.0, 1.6665552860867555E9, 0.0, 2022-10-23 13:01:26.086
9.0, -63428.90869723663, -92829.29811826923, 53557.70779343937, -1356.8626471594152, 82462.89431606464, 61849.847358447005, 18069.172569414684, 15790.523980918406, 0.05, 0.9500000000000001, 0.11800000000000001, 192.0, 0.0, 0.0, 0.0, 0.0, 0.0, 0.0, 0.0, 0.0, 0.0, 1.6665552860867703E9, 0.0, 2022-10-23 13:01:26.086
10.0, -63343.23446073943, -92749.54709405269, 52845.514159859915, -1900.0547409122876, 82121.15849508745, 61414.77065262445, 17446.229451445277, 14927.925458899195, 0.05, 0.9500000000000001, 0.11800000000000001, 192.0, 0.0, 0.0, 0.0, 0.0, 0.0, 0.0, 0.0, 0.0, 0.0, 1.6665552860867836E9, 0.0, 2022-10-23 13:01:26.086
11.0, -63347.503643930395, -92756.67730053393, 50930.282584462475, -2876.893028842572, 82047.10716570701, 60566.253729612086, 16258.837730746, 13745.67463942464, 0.05, 0.9500000000000001, 0.11800000000000001, 192.0, 0.0, 0.0, 0.0, 0.0, 0.0, 0.0, 0.0, 0.0, 0.0, 1.6665552860867968E9, 0.0, 2022-10-23 13:01:26.086
12.0, -63387.423859527575, -92795.9493155419, 51105.22968831417, -2663.746793716764, 82246.57413322618, 60733.668295582334, 16505.958617443874, 14164.94866191729, 0.05, 0.9500000000000001, 0.11800000000000001, 192.0, 0.0, 0.0, 0.0, 0.0, 0.0, 0.0, 0.0, 0.0, 0.0, 1.6665552860868108E9, 0.0, 2022-10-23 13:01:26.086
13.0, -63430.070987948304, -92832.7626386598, 53223.48215859916, -1498.05861688359, 82475.07601679278, 61722.397711562844, 17882.535503212872, 15624.04818821528, 0.05, 0.9500000000000001, 0.11800000000000001, 192.0, 0.0, 0.0, 0.0, 0.0, 0.0, 0.0, 0.0, 0.0, 0.0, 1.6665552860868254E9, 0.0, 2022-10-23 13:01:26.086
14.0, -63362.41225748209, -92770.37891988504, 53295.56653446753, -1622.9378131553906, 82188.05726624219, 61643.42899840224, 17759.42209475304, 15278.73608812524, 0.05, 0.9500000000000001, 0.11800000000000001, 192.0, 0.0, 0.0, 0.0, 0.0, 0.0, 0.0, 0.0, 0.0, 0.0, 1.6665552860868392E9, 0.0, 2022-10-23 13:01:26.086
15.0, -63346.54251891882, -92754.01744294375, 51101.47459524567, -2802.3723128285783, 82004.39298205293, 60632.169024010786, 16347.305935300104, 13805.286741886943, 0.05, 0.9500000000000001, 0.11800000000000001, 192.0, 0.0, 0.0, 0.0, 0.0, 0.0, 0.0, 0.0, 0.0, 0.0, 1.6665552860868535E9, 0.0, 2022-10-23 13:01:26.086
16.0, -63372.470542486975, -92779.56548685617, 50942.91132007973, -2763.770850154263, 82199.36724893657, 60642.69669564923, 16377.413735081404, 14007.63708444084, 0.05, 0.9500000000000001, 0.11800000000000001, 192.0, 0.0, 0.0, 0.0, 0.0, 0.0, 0.0, 0.0, 0.0, 0.0, 1.6665552860868657E9, 0.0, 2022-10-23 13:01:26.086
17.0, -63416.52583080839, -92827.33116475715, 52742.02558303185, -1753.0920211186435, 82442.24130418793, 61486.49740058153, 17572.51680761776, 15330.32391432809, 0.052000000000000005, 0.96, 0.11800000000000001, 192.0, 1.0, 160.0, 30.0, 0.0, 3.0, 176.0, 0.0, 0.0, 0.0, 1.6665552860868776E9, 0.0, 2022-10-23 13:01:26.086
18.0, -63377.32087103378, -92796.21753647538, 53586.58624727563, -1445.4426104357972, 82269.70818873742, 61769.22461619671, 17958.12910296072, 15545.258289010322, 0.052000000000000005, 0.96, 0.11800000000000001, 192.0, 0.0, 0.0, 0.0, 0.0, 0.0, 0.0, 0.0, 0.0, 0.0, 1.666555286086916E9, 0.0, 2022-10-23 13:01:26.086
19.0, -63334.42787342404, -92756.96787321185, 51315.09021700505, -2712.58535535161, 81986.42217951086, 60693.81513521852, 16455.466026719336, 13913.200964117166, 0.052000000000000005, 0.96, 0.11800000000000001, 192.0, 0.0, 0.0, 0.0, 0.0, 0.0, 0.0, 0.0, 0.0, 0.0, 1.6665552860869296E9, 0.0, 2022-10-23 13:01:26.086
20.0, -63380.69598444653, -92798.22919347635, 50815.01463830646, -2856.3517756881447, 82151.62392278004, 60549.4899212706, 16267.711373294756, 13879.36042301183, 0.052000000000000005, 0.96, 0.11800000000000001, 192.0, 0.0, 0.0, 0.0, 0.0, 0.0, 0.0, 0.0, 0.0, 0.0, 1.666555286086944E9, 0.0, 2022-10-23 13:01:26.086
21.0, -63424.907734979126, -92837.68002243996, 52322.72920879474, -1962.9525498095215, 82413.00522244039, 61309.9186193846, 17328.838089566005, 15078.755030483608, 0.052000000000000005, 0.96, 0.11800000000000001, 192.0, 0.0, 0.0, 0.0, 0.0, 0.0, 0.0, 0.0, 0.0, 0.0, 1.6665552860869565E9, 0.0, 2022-10-23 13:01:26.086
22.0, -63387.89324616114, -92802.76659760077, 53812.80825290779, -1281.8501927674047, 82350.42033796554, 61905.81612656309, 18151.583451221402, 15783.907864559635, 0.052000000000000005, 0.96, 0.11800000000000001, 192.0, 0.0, 0.0, 0.0, 0.0, 0.0, 0.0, 0.0, 0.0, 0.0, 1.66655528608697E9, 0.0, 2022-10-23 13:01:26.086
23.0, -63337.802986836796, -92753.70451852138, 51664.24681714139, -2535.9618706657734, 81997.53099650514, 60850.702029550324, 16675.809523559754, 14127.755359143659, 0.052000000000000005, 0.96, 0.11800000000000001, 192.0, 0.0, 0.0, 0.0, 0.0, 0.0, 0.0, 0.0, 0.0, 0.0, 1.666555286086984E9, 0.0, 2022-10-23 13:01:26.086
24.0, -63377.67849894506, -92794.02706551875, 50793.64637060719, -2882.8162411232283, 82135.86594293904, 60536.32474378643, 16241.246907859673, 13824.576297351874, 0.052000000000000005, 0.96, 0.11800000000000001, 192.0, 0.0, 0.0, 0.0, 0.0, 0.0, 0.0, 0.0, 0.0, 0.0, 1.6665552860869985E9, 0.0, 2022-10-23 13:01:26.086
25.0, -63421.53262156637, -92838.2611677958, 51891.85463092979, -2203.6808375931787, 82367.76529166286, 61109.46817510941, 17052.27995542049, 14794.910227645663, 0.052000000000000005, 0.96, 0.11800000000000001, 192.0, 0.0, 0.0, 0.0, 0.0, 0.0, 0.0, 0.0, 0.0, 0.0, 1.6665552860870135E9, 0.0, 2022-10-23 13:01:26.087
26.0, -63419.05157793184, -92833.58965320465, 53856.908244718106, -1225.4790932511203, 82422.81763825627, 61956.040496354166, 18220.918562521765, 15906.52953464145, 0.052000000000000005, 0.96, 0.11800000000000001, 192.0, 0.0, 0.0, 0.0, 0.0, 0.0, 0.0, 0.0, 0.0, 0.0, 1.6665552860870283E9, 0.0, 2022-10-23 13:01:26.087
27.0, -63356.98078357945, -92774.2457716758, 52102.676284632245, -2305.0012952090856, 82025.96241545229, 61061.59073848614, 16960.92837583165, 14418.819775440666, 0.048, 0.96, 0.126, 192.0, 1.0, 128.0, 30.0, 0.0, 3.0, 240.0, 0.0, 0.0, 0.0, 1.6665552860870433E9, 0.0, 2022-10-23 13:01:26.087
28.0, -63391.1118973627, -92802.47602492286, 50807.14682425819, -2901.122319832125, 82088.97198307181, 60529.61922044984, 16222.985532639686, 13775.894197928215, 0.048, 0.96, 0.126, 192.0, 0.0, 0.0, 0.0, 0.0, 0.0, 0.0, 0.0, 0.0, 0.0, 1.666555286087057E9, 0.0, 2022-10-23 13:01:26.087
29.0, -63418.38102559817, -92823.57607168867, 51514.33366707965, -2417.7211424971993, 82325.31932894222, 60927.97201013232, 16796.531295362867, 14521.906020868544, 0.048, 0.96, 0.126, 192.0, 0.0, 0.0, 0.0, 0.0, 0.0, 0.0, 0.0, 0.0, 0.0, 1.6665552860870707E9, 0.0, 2022-10-23 13:01:26.087
30.0, -63447.974735257005, -92855.44965928193, 53713.72296973741, -1270.8978379843043, 82472.93024932507, 61912.611056877504, 18161.21705308164, 15891.173886200653, 0.048, 0.96, 0.126, 192.0, 0.0, 0.0, 0.0, 0.0, 0.0, 0.0, 0.0, 0.0, 0.0, 1.666555286087084E9, 0.0, 2022-10-23 13:01:26.087
31.0, -63372.58230120925, -92786.36041717058, 52538.46824627736, -2062.864847524744, 82073.5716311421, 61265.79627582983, 17250.159949083325, 14735.96867751702, 0.048, 0.96, 0.126, 192.0, 0.0, 0.0, 0.0, 0.0, 0.0, 0.0, 0.0, 0.0, 0.0, 1.6665552860871048E9, 0.0, 2022-10-23 13:01:26.087
32.0, -63372.49289423143, -92784.86285029208, 50834.59476644931, -2905.078578600714, 82064.5191746377, 60526.534679715005, 16222.985532639686, 13755.844683151805, 0.048, 0.96, 0.126, 192.0, 0.0, 0.0, 0.0, 0.0, 0.0, 0.0, 0.0, 0.0, 0.0, 1.6665552860871263E9, 0.0, 2022-10-23 13:01:26.087
33.0, -63419.00687444292, -92830.95214735891, 51240.681259713325, -2565.332062880047, 82289.91416572501, 60812.34643606502, 16623.126461878594, 14326.9317539849, 0.048, 0.96, 0.126, 192.0, 0.0, 0.0, 0.0, 0.0, 0.0, 0.0, 0.0, 0.0, 0.0, 1.6665552860871744E9, 0.0, 2022-10-23 13:01:26.087
34.0, -63445.739560811475, -92856.65665348253, 53445.43498104036, -1382.1424701383676, 82477.80292961633, 61820.09718657699, 18024.066749103877, 15782.857332570236, 0.048, 0.96, 0.126, 192.0, 0.0, 0.0, 0.0, 0.0, 0.0, 0.0, 0.0, 0.0, 0.0, 1.6665552860871875E9, 0.0, 2022-10-23 13:01:26.087
35.0, -63375.24215879943, -92792.61890561807, 53015.745045631535, -1785.367940112107, 82146.77359423324, 61505.608142090816, 17573.299118673698, 15098.84924874893, 0.048, 0.96, 0.126, 192.0, 0.0, 0.0, 0.0, 0.0, 0.0, 0.0, 0.0, 0.0, 0.0, 1.666555286087202E9, 0.0, 2022-10-23 13:01:26.087
36.0, -63371.37530700867, -92789.8472893056, 50987.0336636345, -2841.532569114276, 82039.2169999143, 60598.06026197199, 16300.769603344155, 13804.97381746457, 0.048, 0.96, 0.126, 192.0, 0.0, 0.0, 0.0, 0.0, 0.0, 0.0, 0.0, 0.0, 0.0, 1.6665552860872157E9, 0.0, 2022-10-23 13:01:26.087
37.0, -63430.80859551533, -92843.0667928537, 51027.15504493178, -2704.3152099031463, 82216.82396135616, 60698.978388187694, 16460.003430843764, 14131.46574872324, 0.046, 0.9500000000000001, 0.122, 192.0, 1.0, 112.0, 29.0, 176.0, 3.0, 208.0, 0.0, 0.0, 0.0, 1.6665552860872302E9, 0.0, 2022-10-23 13:01:26.087
38.0, -63454.43438940459, -92859.920008173, 53038.14149357576, -1587.6220569160052, 82452.0090165149, 61644.367771669364, 17781.058583385777, 15548.476940211885, 0.046, 0.9500000000000001, 0.122, 192.0, 0.0, 0.0, 0.0, 0.0, 0.0, 0.0, 0.0, 0.0, 0.0, 1.666555286087248E9, 0.0, 2022-10-23 13:01:26.087
39.0, -63377.566740222785, -92788.77440557175, 53427.7100476873, -1536.1683411798886, 82216.3098712337, 61719.29081908355, 17868.230386761476, 15427.017560841747, 0.046, 0.9500000000000001, 0.122, 192.0, 0.0, 0.0, 0.0, 0.0, 0.0, 0.0, 0.0, 0.0, 0.0, 1.666555286087266E9, 0.0, 2022-10-23 13:01:26.087
40.0, -63352.04104805482, -92772.90466700848, 51161.71254655273, -2778.2994840502124, 81987.94209813382, 60657.15827431182, 16385.326252618583, 13858.1709692682, 0.046, 0.9500000000000001, 0.122, 192.0, 0.0, 0.0, 0.0, 0.0, 0.0, 0.0, 0.0, 0.0, 0.0, 1.6665552860872817E9, 0.0, 2022-10-23 13:01:26.087
41.0, -63407.80865047082, -92829.56633920269, 50852.0514788689, -2824.2323189058684, 82182.69284757291, 60591.399442124304, 16315.946437829309, 13962.419505407752, 0.046, 0.9500000000000001, 0.122, 192.0, 0.0, 0.0, 0.0, 0.0, 0.0, 0.0, 0.0, 0.0, 0.0, 1.6665552860872948E9, 0.0, 2022-10-23 13:01:26.087
42.0, -63456.31193593883, -92879.41072933802, 52559.031851176245, -1841.6719843950254, 82445.54936236732, 61420.82797537184, 17481.053469306644, 15259.69240184932, 0.046, 0.9500000000000001, 0.122, 192.0, 0.0, 0.0, 0.0, 0.0, 0.0, 0.0, 0.0, 0.0, 0.0, 1.666555286087309E9, 0.0, 2022-10-23 13:01:26.087
43.0, -63431.92618273809, -92860.79172620675, 53655.630785898065, -1395.8440894894707, 82298.11725594012, 61819.24782028769, 18032.560411996892, 15659.207482243477, 0.046, 0.9500000000000001, 0.122, 192.0, 0.0, 0.0, 0.0, 0.0, 0.0, 0.0, 0.0, 0.0, 0.0, 1.6665552860873227E9, 0.0, 2022-10-23 13:01:26.087
44.0, -63385.43455427105, -92816.08823729614, 51413.61670656404, -2664.126773372504, 81990.8031214241, 60746.96758353324, 16528.98091423284, 14005.111337317388, 0.046, 0.9500000000000001, 0.122, 192.0, 0.0, 0.0, 0.0, 0.0, 0.0, 0.0, 0.0, 0.0, 0.0, 1.666555286087336E9, 0.0, 2022-10-23 13:01:26.087
45.0, -63424.72892102348, -92855.09203137064, 50796.14976598618, -2867.505296171343, 82149.76872799025, 60551.635688738315, 16263.710411037257, 13884.143696325267, 0.046, 0.9500000000000001, 0.122, 192.0, 0.0, 0.0, 0.0, 0.0, 0.0, 0.0, 0.0, 0.0, 0.0, 1.666555286087351E9, 0.0, 2022-10-23 13:01:26.087
46.0, -63483.335194985295, -92907.37276165161, 52105.0008660556, -2094.246696739995, 82371.25216379788, 61199.97038840895, 17187.999747753114, 14956.088656912883, 0.05, 0.9500000000000001, 0.122, 192.0, 1.0, 144.0, 29.0, 176.0, 3.0, 208.0, 0.0, 0.0, 0.0, 1.6665552860873647E9, 0.0, 2022-10-23 13:01:26.087
47.0, -63473.16515125813, -92902.94711624946, 53799.576020190245, -1292.4449196392202, 82349.36980597614, 61898.2612369372, 18157.618422224336, 15831.450025016073, 0.05, 0.9500000000000001, 0.122, 192.0, 0.0, 0.0, 0.0, 0.0, 0.0, 0.0, 0.0, 0.0, 0.0, 1.6665552860873785E9, 0.0, 2022-10-23 13:01:26.087
48.0, -63395.179914853565, -92831.01920259229, 51785.706196511535, -2482.9211810733295, 81990.31138304608, 60899.94292258536, 16756.566376276776, 14231.892136560935, 0.05, 0.9500000000000001, 0.122, 192.0, 0.0, 0.0, 0.0, 0.0, 0.0, 0.0, 0.0, 0.0, 0.0, 1.6665552860873952E9, 0.0, 2022-10-23 13:01:26.087
49.0, -63441.336267153776, -92869.5759617777, 50754.64257653267, -2920.05424738577, 82109.46853273733, 60501.32191196942, 16206.244076042662, 13799.29647437292, 0.05, 0.9500000000000001, 0.122, 192.0, 0.0, 0.0, 0.0, 0.0, 0.0, 0.0, 0.0, 0.0, 0.0, 1.666555286087435E9, 0.0, 2022-10-23 13:01:26.087
50.0, -63488.52079969893, -92913.89947103256, 51681.50236386089, -2333.0527345004957, 82327.01806152082, 60986.89120851651, 16905.58545656031, 14663.303156292815, 0.05, 0.9500000000000001, 0.122, 192.0, 0.0, 0.0, 0.0, 0.0, 0.0, 0.0, 0.0, 0.0, 0.0, 1.6665552860874527E9, 0.0, 2022-10-23 13:01:26.087
51.0, -63483.87163685223, -92917.94513677897, 53794.39041547661, -1252.6364627643184, 82430.37252788217, 61921.864679082, 18193.247102886093, 15917.10190976881, 0.05, 0.9500000000000001, 0.122, 192.0, 0.0, 0.0, 0.0, 0.0, 0.0, 0.0, 0.0, 0.0, 0.0, 1.666555286087464E9, 0.0, 2022-10-23 13:01:26.087
52.0, -63397.37038581019, -92842.53035098677, 52237.949042075765, -2238.34839324336, 82024.46484857379, 61106.227172163395, 17045.84265301736, 14531.405512262048, 0.05, 0.9500000000000001, 0.122, 192.0, 0.0, 0.0, 0.0, 0.0, 0.0, 0.0, 0.0, 0.0, 0.0, 1.666555286087476E9, 0.0, 2022-10-23 13:01:26.087
53.0, -63416.32466510829, -92856.52254301579, 50783.94571351358, -2925.7092387329626, 82076.5220614102, 60497.20919098964, 16197.884523616378, 13759.62212796475, 0.05, 0.9500000000000001, 0.122, 192.0, 0.0, 0.0, 0.0, 0.0, 0.0, 0.0, 0.0, 0.0, 0.0, 1.66655528608749E9, 0.0, 2022-10-23 13:01:26.087
54.0, -63457.56363362833, -92891.05598819924, 51367.013319374724, -2504.2894487726035, 82298.8772152516, 60848.891538249445, 16700.17292501604, 14429.302743590206, 0.05, 0.9500000000000001, 0.122, 192.0, 0.0, 0.0, 0.0, 0.0, 0.0, 0.0, 0.0, 0.0, 0.0, 1.666555286087504E9, 0.0, 2022-10-23 13:01:26.087
55.0, -63494.44401197958, -92918.86155830164, 53609.11680568657, -1318.842329840938, 82473.42198770308, 61866.544111555115, 18110.053910023442, 15858.070952662345, 0.05, 0.9500000000000001, 0.122, 192.0, 0.0, 0.0, 0.0, 0.0, 0.0, 0.0, 0.0, 0.0, 0.0, 1.666555286087518E9, 0.0, 2022-10-23 13:01:26.087
56.0, -63416.52583080839, -92842.17272307548, 52734.49304515041, -1953.1401339936417, 82100.66194542193, 61358.57836706381, 17386.05855537159, 14882.216141488094, 0.046, 0.9560000000000001, 0.122, 192.0, 1.0, 112.0, 29.0, 224.0, 3.0, 208.0, 0.0, 0.0, 0.0, 1.6665552860875316E9, 0.0, 2022-10-23 13:01:26.087
57.0, -63425.377121612684, -92848.63237722307, 50883.388624595245, -2896.0931773296807, 82035.0595754456, 60536.97294437563, 16242.02921891561, 13754.615337206762, 0.046, 0.9560000000000001, 0.122, 192.0, 0.0, 0.0, 0.0, 0.0, 0.0, 0.0, 0.0, 0.0, 0.0, 1.666555286087546E9, 0.0, 2022-10-23 13:01:26.087
58.0, -63461.542244141376, -92883.70226427344, 51099.17236556678, -2673.3133403436354, 82224.22238877087, 60707.09207142497, 16504.170477887452, 14192.441307597317, 0.046, 0.9560000000000001, 0.122, 192.0, 0.0, 0.0, 0.0, 0.0, 0.0, 0.0, 0.0, 0.0, 0.0, 1.6665552860875592E9, 0.0, 2022-10-23 13:01:26.087
59.0, -63501.015424849444, -92924.67301186002, 53256.54038864856, -1493.2082883367884, 82462.715502109, 61710.17130734579, 17901.378023788693, 15668.215235258966, 0.046, 0.9560000000000001, 0.122, 192.0, 0.0, 0.0, 0.0, 0.0, 0.0, 0.0, 0.0, 0.0, 0.0, 1.6665552860875733E9, 0.0, 2022-10-23 13:01:26.087
60.0, -63421.64438028865, -92850.91225515751, 53140.959518070165, -1720.950212591912, 82157.9941699498, 61543.60610766484, 17656.96169816991, 15199.275636586624, 0.046, 0.9560000000000001, 0.122, 192.0, 0.0, 0.0, 0.0, 0.0, 0.0, 0.0, 0.0, 0.0, 0.0, 1.666555286087588E9, 0.0, 2022-10-23 13:01:26.087
61.0, -63419.36450235421, -92845.8160574217, 50973.644968705776, -2877.09419454267, 81992.05481911359, 60542.06914211144, 16264.872701748933, 13767.847569924304, 0.046, 0.9560000000000001, 0.122, 192.0, 0.0, 0.0, 0.0, 0.0, 0.0, 0.0, 0.0, 0.0, 0.0, 1.6665552860876024E9, 0.0, 2022-10-23 13:01:26.087
62.0, -63463.17392148661, -92883.38933985107, 50886.45081358562, -2802.5958302731315, 82186.82792029715, 60583.46457284267, 16340.734522430244, 14018.63414271285, 0.046, 0.9560000000000001, 0.122, 192.0, 0.0, 0.0, 0.0, 0.0, 0.0, 0.0, 0.0, 0.0, 0.0, 1.6665552860876167E9, 0.0, 2022-10-23 13:01:26.087
63.0, -63507.49743074149, -92924.04716301528, 52788.24899056542, -1733.4671894868839, 82435.08874596223, 61485.9162552257, 17608.10078479061, 15401.827144840616, 0.046, 0.9560000000000001, 0.122, 192.0, 0.0, 0.0, 0.0, 0.0, 0.0, 0.0, 0.0, 0.0, 0.0, 1.6665552860876307E9, 0.0, 2022-10-23 13:01:26.087
64.0, -63447.482996878985, -92873.50986880182, 53479.052004701145, -1504.026532653157, 82251.80444142871, 61708.04789162253, 17900.573360988303, 15509.853125793115, 0.046, 0.9560000000000001, 0.122, 192.0, 0.0, 0.0, 0.0, 0.0, 0.0, 0.0, 0.0, 0.0, 0.0, 1.6665552860876455E9, 0.0, 2022-10-23 13:01:26.087
65.0, -63419.588019798764, -92846.4642580109, 51215.53554720111, -2754.941911094417, 81994.24529007022, 60648.64225967434, 16412.953008765344, 13910.585810015895, 0.046, 0.9560000000000001, 0.122, 192.0, 0.0, 0.0, 0.0, 0.0, 0.0, 0.0, 0.0, 0.0, 0.0, 1.6665552860876787E9, 0.0, 2022-10-23 13:01:26.087
66.0, -63450.61224110273, -92875.2756566138, 50783.67749258012, -2868.891104327572, 82158.39650135, 60530.9379733727, 16263.486893592704, 13922.812214232948, 0.048, 0.96, 0.12, 192.0, 1.0, 128.0, 30.0, 0.0, 3.0, 192.0, 0.0, 0.0, 0.0, 1.6665552860876932E9, 0.0, 2022-10-23 13:01:26.087
67.0, -63492.633520678704, -92913.98887801038, 52302.053845173585, -1993.8650123912112, 82399.7506379784, 61261.147112983126, 17303.021824720123, 15106.98528373066, 0.048, 0.96, 0.12, 192.0, 0.0, 0.0, 0.0, 0.0, 0.0, 0.0, 0.0, 0.0, 0.0, 1.666555286087708E9, 0.0, 2022-10-23 13:01:26.087
68.0, -63470.37118320122, -92891.5253748328, 53700.53544050878, -1353.1522575798342, 82343.64775939558, 61831.51892799365, 18077.062735207408, 15748.010962964412, 0.048, 0.96, 0.12, 192.0, 0.0, 0.0, 0.0, 0.0, 0.0, 0.0, 0.0, 0.0, 0.0, 1.6665552860877223E9, 0.0, 2022-10-23 13:01:26.087
69.0, -63407.16044988161, -92832.24854853733, 51516.94882118092, -2607.0851215225603, 82000.21320583978, 60773.47675245724, 16591.38698475206, 14089.109192980433, 0.048, 0.96, 0.12, 192.0, 0.0, 0.0, 0.0, 0.0, 0.0, 0.0, 0.0, 0.0, 0.0, 1.6665552860877392E9, 0.0, 2022-10-23 13:01:26.087
70.0, -63431.50149959344, -92858.28833082775, 50735.71064897903, -2898.3730552641223, 82149.65696926796, 60499.73493811309, 16214.201297068752, 13850.392562197752, 0.048, 0.96, 0.12, 192.0, 0.0, 0.0, 0.0, 0.0, 0.0, 0.0, 0.0, 0.0, 0.0, 1.666555286087754E9, 0.0, 2022-10-23 13:01:26.087
71.0, -63491.27006426693, -92916.06759024473, 51910.339523594324, -2185.6876833066563, 82370.60396320868, 61100.12514592709, 17064.99809801556, 14853.6059085853, 0.048, 0.96, 0.12, 192.0, 0.0, 0.0, 0.0, 0.0, 0.0, 0.0, 0.0, 0.0, 0.0, 1.666555286087769E9, 0.0, 2022-10-23 13:01:26.087
72.0, -63487.827895620816, -92914.99470651087, 53794.07749105424, -1262.359471602377, 82382.00335288089, 61901.502239883215, 18169.934233419208, 15883.663700063671, 0.048, 0.96, 0.12, 192.0, 0.0, 0.0, 0.0, 0.0, 0.0, 0.0, 0.0, 0.0, 0.0, 1.6665552860877855E9, 0.0, 2022-10-23 13:01:26.087
73.0, -63406.42284231458, -92837.83648465115, 51942.74955305452, -2376.0351390880514, 82008.2598338437, 60973.99425196579, 16859.697325193563, 14355.989021776799, 0.048, 0.96, 0.12, 192.0, 0.0, 0.0, 0.0, 0.0, 0.0, 0.0, 0.0, 0.0, 0.0, 1.6665552860878012E9, 0.0, 2022-10-23 13:01:26.087
74.0, -63440.151624697646, -92866.35731057613, 50759.40349810165, -2900.1388430760912, 82100.88546286648, 60509.54735392897, 16205.975855109198, 13802.760994763494, 0.048, 0.96, 0.12, 192.0, 0.0, 0.0, 0.0, 0.0, 0.0, 0.0, 0.0, 0.0, 0.0, 1.666555286087817E9, 0.0, 2022-10-23 13:01:26.087
75.0, -63488.163171787644, -92911.75370356486, 51549.403554130025, -2379.767880412088, 82318.32323292771, 60942.567699261635, 16827.13083352218, 14586.100230944185, 0.046, 0.9500000000000001, 0.126, 192.0, 1.0, 112.0, 29.0, 176.0, 3.0, 240.0, 0.0, 0.0, 0.0, 1.6665552860878315E9, 0.0, 2022-10-23 13:01:26.087
76.0, -63484.85511360826, -92915.77701756681, 53705.07284463321, -1268.4838495831311, 82436.38514714065, 61888.359414143495, 18145.615535451834, 15895.733642069537, 0.046, 0.9500000000000001, 0.126, 192.0, 0.0, 0.0, 0.0, 0.0, 0.0, 0.0, 0.0, 0.0, 0.0, 1.6665552860878484E9, 0.0, 2022-10-23 13:01:26.087
77.0, -63400.20905735601, -92834.10374332711, 52380.4637647228, -2132.3340692918387, 82055.0196832442, 61172.92477761803, 17139.787034963018, 14654.228348043962, 0.046, 0.9500000000000001, 0.126, 192.0, 0.0, 0.0, 0.0, 0.0, 0.0, 0.0, 0.0, 0.0, 0.0, 1.6665552860878625E9, 0.0, 2022-10-23 13:01:26.087
78.0, -63419.40920584312, -92840.45163875242, 50764.56675107083, -2919.3389915632, 82067.0672735056, 60479.126629725295, 16174.594005893947, 13748.513310970464, 0.046, 0.9500000000000001, 0.126, 192.0, 0.0, 0.0, 0.0, 0.0, 0.0, 0.0, 0.0, 0.0, 0.0, 1.6665552860878773E9, 0.0, 2022-10-23 13:01:26.087
79.0, -63460.89404355217, -92885.93743871897, 51201.72216912773, -2574.8315542735522, 82283.78978774426, 60757.76347610515, 16583.675632914976, 14333.793739532679, 0.046, 0.9500000000000001, 0.126, 192.0, 0.0, 0.0, 0.0, 0.0, 0.0, 0.0, 0.0, 0.0, 0.0, 1.6665552860878932E9, 0.0, 2022-10-23 13:01:26.087
80.0, -63499.11552657074, -92931.87027357463, 53454.085106144565, -1363.456411773731, 82482.00505757393, 61794.99617755368, 18020.490469991026, 15814.440347485584, 0.046, 0.9500000000000001, 0.126, 192.0, 0.0, 0.0, 0.0, 0.0, 0.0, 0.0, 0.0, 0.0, 0.0, 1.666555286087925E9, 0.0, 2022-10-23 13:01:26.087
81.0, -63413.73186275147, -92849.57115049018, 52864.51314264693, -1844.4436007074835, 82127.72990795731, 61414.61419041326, 17473.118600025013, 15024.574401923945, 0.046, 0.9500000000000001, 0.126, 192.0, 0.0, 0.0, 0.0, 0.0, 0.0, 0.0, 0.0, 0.0, 0.0, 1.6665552860879414E9, 0.0, 2022-10-23 13:01:26.087
82.0, -63414.44711857404, -92847.93947314496, 50892.485784588556, -2859.9727582899045, 82040.08871794805, 60534.11192108535, 16240.442245059283, 13785.505448043998, 0.046, 0.9500000000000001, 0.126, 192.0, 0.0, 0.0, 0.0, 0.0, 0.0, 0.0, 0.0, 0.0, 0.0, 1.6665552860879571E9, 0.0, 2022-10-23 13:01:26.087
83.0, -63462.90570055315, -92893.93936323398, 51032.89944325679, -2662.2715785827136, 82237.65578718852, 60694.06100440753, 16467.82654140312, 14181.131324902932, 0.046, 0.9500000000000001, 0.126, 192.0, 0.0, 0.0, 0.0, 0.0, 0.0, 0.0, 0.0, 0.0, 0.0, 1.666555286087973E9, 0.0, 2022-10-23 13:01:26.087
84.0, -63502.55769521686, -92927.60109038367, 53100.30169490596, -1525.2159863967881, 82464.05660677631, 61658.89640556531, 17814.317979135274, 15618.750824779372, 0.046, 0.9500000000000001, 0.126, 192.0, 0.0, 0.0, 0.0, 0.0, 0.0, 0.0, 0.0, 0.0, 0.0, 1.6665552860879884E9, 0.0, 2022-10-23 13:01:26.087
85.0, -63435.591868828764, -92868.45837455492, 53315.817214944036, -1567.1031555060335, 82201.82594082665, 61654.76133284108, 17789.1499148786, 15376.077935228102, 0.044, 0.9460000000000001, 0.122, 192.0, 1.0, 96.0, 29.0, 144.0, 3.0, 208.0, 0.0, 0.0, 0.0, 1.666555286088004E9, 0.0, 2022-10-23 13:01:26.088
86.0, -63399.33733932226, -92831.57799620366, 51087.951789850216, -2772.2645130472797, 82004.23651984174, 60620.18848898274, 16344.646077709924, 13857.03103030098, 0.044, 0.9460000000000001, 0.122, 192.0, 0.0, 0.0, 0.0, 0.0, 0.0, 0.0, 0.0, 0.0, 0.0, 1.6665552860880213E9, 0.0, 2022-10-23 13:01:26.088
87.0, -63445.49369162246, -92874.89567695805, 50879.186496637645, -2763.390870498523, 82195.36628667907, 60608.409119654796, 16343.148510831417, 14018.544735735028, 0.044, 0.9460000000000001, 0.122, 192.0, 0.0, 0.0, 0.0, 0.0, 0.0, 0.0, 0.0, 0.0, 0.0, 1.6665552860880368E9, 0.0, 2022-10-23 13:01:26.088
88.0, -63492.007671833955, -92920.33677343569, 52662.81100068224, -1750.4098117840067, 82437.6591965746, 61464.2574148485, 17542.90074621448, 15338.012914420715, 0.044, 0.9460000000000001, 0.122, 192.0, 0.0, 0.0, 0.0, 0.0, 0.0, 0.0, 0.0, 0.0, 0.0, 1.6665552860880527E9, 0.0, 2022-10-23 13:01:26.088
89.0, -63436.59769732925, -92870.64884551155, 53628.4063611515, -1371.5253915220967, 82288.10367442414, 61809.65892191636, 18008.46523147407, 15635.805205798772, 0.044, 0.9460000000000001, 0.122, 192.0, 0.0, 0.0, 0.0, 0.0, 0.0, 0.0, 0.0, 0.0, 0.0, 1.6665552860880687E9, 0.0, 2022-10-23 13:01:26.088
90.0, -63395.1128596202, -92831.7568101593, 51346.85204587603, -2653.196770333859, 81989.46201675678, 60719.87726925341, 16482.98102414382, 13971.539017145518, 0.044, 0.9460000000000001, 0.122, 192.0, 0.0, 0.0, 0.0, 0.0, 0.0, 0.0, 0.0, 0.0, 0.0, 1.6665552860880845E9, 0.0, 2022-10-23 13:01:26.088
91.0, -63446.81244454533, -92877.30966535922, 50802.65412362268, -2816.744484513341, 82157.03304493822, 60561.761028976565, 16266.571434327536, 13906.94247566968, 0.044, 0.9460000000000001, 0.122, 192.0, 0.0, 0.0, 0.0, 0.0, 0.0, 0.0, 0.0, 0.0, 0.0, 1.6665552860881023E9, 0.0, 2022-10-23 13:01:26.088
92.0, -63481.18942751759, -92907.81979654072, 52224.78386459158, -1974.9107330931108, 82406.83614097073, 61272.74766835543, 17265.023859146102, 15055.442161016723, 0.044, 0.9460000000000001, 0.122, 192.0, 0.0, 0.0, 0.0, 0.0, 0.0, 0.0, 0.0, 0.0, 0.0, 1.666555286088118E9, 0.0, 2022-10-23 13:01:26.088
93.0, -63465.029116276404, -92895.68279930149, 53826.420465281066, -1225.8367211624052, 82365.97715210642, 61932.124129786986, 18169.710715974656, 15851.432484559118, 0.044, 0.9460000000000001, 0.122, 192.0, 0.0, 0.0, 0.0, 0.0, 0.0, 0.0, 0.0, 0.0, 0.0, 1.6665552860881343E9, 0.0, 2022-10-23 13:01:26.088
94.0, -63394.285845075356, -92826.92883335696, 51724.28360274835, -2463.6539773528552, 81993.84295867002, 60890.33167246958, 16712.086404810718, 14201.04672921261, 0.044, 0.9460000000000001, 0.122, 192.0, 0.0, 0.0, 0.0, 0.0, 0.0, 0.0, 0.0, 0.0, 0.0, 1.66655528608815E9, 0.0, 2022-10-23 13:01:26.088
95.0, -63430.18274667058, -92859.920008173, 50741.34328858177, -2884.3361597461894, 82109.55793971515, 60499.891400324275, 16184.987567065666, 13808.30422738841, 0.042, 0.9500000000000001, 0.122, 192.0, 1.0, 80.0, 29.0, 176.0, 3.0, 208.0, 0.0, 0.0, 0.0, 1.6665552860881653E9, 0.0, 2022-10-23 13:01:26.088
96.0, -63475.69089838158, -92901.49425285986, 51768.74122246996, -2242.5281694565024, 82343.22307625093, 61039.395456242026, 16953.97698330605, 14740.416674663626, 0.042, 0.9500000000000001, 0.122, 192.0, 0.0, 0.0, 0.0, 0.0, 0.0, 0.0, 0.0, 0.0, 0.0, 1.6665552860881991E9, 0.0, 2022-10-23 13:01:26.088
97.0, -63471.28760472389, -92898.14149119158, 53805.700398171, -1211.553956455464, 82431.64657731612, 61932.057074553624, 18185.22282662664, 15923.852136594312, 0.042, 0.9500000000000001, 0.122, 192.0, 0.0, 0.0, 0.0, 0.0, 0.0, 0.0, 0.0, 0.0, 0.0, 1.6665552860882149E9, 0.0, 2022-10-23 13:01:26.088
98.0, -63390.418993284584, -92818.41281871949, 52155.381698057856, -2230.0782477948965, 82051.53281110917, 61092.41379409001, 16996.758222193508, 14501.7223956254, 0.042, 0.9500000000000001, 0.122, 192.0, 0.0, 0.0, 0.0, 0.0, 0.0, 0.0, 0.0, 0.0, 0.0, 1.666555286088231E9, 0.0, 2022-10-23 13:01:26.088
99.0, -63415.36354009671, -92840.3175282857, 50780.548248356376, -2877.5635811762313, 82101.53366345569, 60515.24704876507, 16200.276160273095, 13793.127392903256, 0.042, 0.9500000000000001, 0.122, 192.0, 0.0, 0.0, 0.0, 0.0, 0.0, 0.0, 0.0, 0.0, 0.0, 1.6665552860882468E9, 0.0, 2022-10-23 13:01:26.088
100.0, -63475.5344361704, -92901.44954937095, 51423.25030842428, -2438.2847473960815, 82305.24746242136, 60878.90993105292, 16729.140785830117, 14490.7700408423, 0.042, 0.9500000000000001, 0.122, 192.0, 0.0, 0.0, 0.0, 0.0, 0.0, 0.0, 0.0, 0.0, 0.0, 1.6665552860882626E9, 0.0, 2022-10-23 13:01:26.088
101.0, -63486.59854967577, -92918.92861353501, 53645.17016949299, -1270.361396117377, 82471.83501384676, 61878.2564256497, 18115.440680437172, 15893.364357157274, 0.042, 0.9500000000000001, 0.122, 192.0, 0.0, 0.0, 0.0, 0.0, 0.0, 0.0, 0.0, 0.0, 0.0, 1.6665552860882785E9, 0.0, 2022-10-23 13:01:26.088
102.0, -63410.24499061645, -92842.2621300533, 52602.28247669727, -1989.7969949003452, 82097.39859073146, 61294.630026177176, 17288.694356524273, 14821.17352738065, 0.042, 0.9500000000000001, 0.122, 192.0, 0.0, 0.0, 0.0, 0.0, 0.0, 0.0, 0.0, 0.0, 0.0, 1.6665552860882933E9, 0.0, 2022-10-23 13:01:26.088
103.0, -63418.29161862035, -92841.52452248627, 50837.5004932285, -2872.802659607251, 82070.04005551817, 60522.22079303513, 16215.385939524884, 13778.308186329388, 0.042, 0.9500000000000001, 0.122, 192.0, 0.0, 0.0, 0.0, 0.0, 0.0, 0.0, 0.0, 0.0, 0.0, 1.666555286088308E9, 0.0, 2022-10-23 13:01:26.088
104.0, -63468.1807122446, -92889.6254765541, 51153.442401104265, -2591.1483277259267, 82280.5711365427, 60748.59926087848, 16551.42206566597, 14286.408041287428, 0.042, 0.9500000000000001, 0.122, 192.0, 0.0, 0.0, 0.0, 0.0, 0.0, 0.0, 0.0, 0.0, 0.0, 1.6665552860883224E9, 0.0, 2022-10-23 13:01:26.088
105.0, -63510.06788135385, -92932.85375033066, 53361.3477183995, -1395.0394266890796, 82482.9661825855, 61769.381078407896, 17969.103809488275, 15764.84182653926, 0.052000000000000005, 0.9500000000000001, 0.122, 192.0, 1.0, 160.0, 29.0, 176.0, 3.0, 208.0, 0.0, 0.0, 0.0, 1.6665552860883367E9, 0.0, 2022-10-23 13:01:26.088
106.0, -63418.02339768689, -92848.34180454515, 53084.07432843141, -1706.7345031183368, 82174.93679224692, 61535.31361047192, 17623.747005909325, 15183.562360234542, 0.052000000000000005, 0.9500000000000001, 0.122, 192.0, 0.0, 0.0, 0.0, 0.0, 0.0, 0.0, 0.0, 0.0, 0.0, 1.6665552860883527E9, 0.0, 2022-10-23 13:01:26.088
107.0, -63403.89709519114, -92831.39918224803, 51010.748864501584, -2794.996237158327, 82046.8165930291, 60602.865887029875, 16314.113594783974, 13836.154500979723, 0.052000000000000005, 0.9500000000000001, 0.122, 192.0, 0.0, 0.0, 0.0, 0.0, 0.0, 0.0, 0.0, 0.0, 0.0, 1.6665552860884008E9, 0.0, 2022-10-23 13:01:26.088
108.0, -63444.46551137752, -92866.2232001094, 50981.9821693876, -2699.844861012085, 82234.81711564268, 60663.841445903956, 16423.368921681515, 14119.596972417472, 0.052000000000000005, 0.9500000000000001, 0.122, 192.0, 0.0, 0.0, 0.0, 0.0, 0.0, 0.0, 0.0, 0.0, 0.0, 1.666555286088481E9, 0.0, 2022-10-23 13:01:26.088
109.0, -63502.73650917251, -92926.30468920525, 52974.41667013367, -1588.7843476276814, 82482.9661825855, 61614.1929166547, 17745.049923068276, 15545.951193088436, 0.052000000000000005, 0.9500000000000001, 0.122, 192.0, 0.0, 0.0, 0.0, 0.0, 0.0, 0.0, 0.0, 0.0, 0.0, 1.666555286088556E9, 0.0, 2022-10-23 13:01:26.088
110.0, -63449.76287481343, -92883.70226427344, 53494.34059790857, -1466.252084523688, 82245.34478728114, 61750.53855783207, 17913.962055917033, 15513.474108394876, 0.052000000000000005, 0.9500000000000001, 0.122, 192.0, 0.0, 0.0, 0.0, 0.0, 0.0, 0.0, 0.0, 0.0, 0.0, 1.6665552860886257E9, 0.0, 2022-10-23 13:01:26.088
111.0, -63409.64149351615, -92844.67611845447, 51208.7853203756, -2727.2704514587467, 81988.09856034501, 60670.50226575164, 16408.505011618738, 13908.887077437292, 0.052000000000000005, 0.9500000000000001, 0.122, 192.0, 0.0, 0.0, 0.0, 0.0, 0.0, 0.0, 0.0, 0.0, 0.0, 1.6665552860887766E9, 0.0, 2022-10-23 13:01:26.088
112.0, -63442.096226465255, -92876.54970604775, 50857.12532486026, -2792.8951731795282, 82182.58108885064, 60589.454840356695, 16312.392510460915, 13981.306729472486, 0.052000000000000005, 0.9500000000000001, 0.122, 192.0, 0.0, 0.0, 0.0, 0.0, 0.0, 0.0, 0.0, 0.0, 0.0, 1.6665552860887961E9, 0.0, 2022-10-23 13:01:26.088
113.0, -63501.50716322746, -92932.71963986394, 52510.32740000814, -1839.883844838601, 82432.11596394968, 61399.25854197247, 17443.949573510836, 15243.934422008328, 0.052000000000000005, 0.9500000000000001, 0.122, 192.0, 0.0, 0.0, 0.0, 0.0, 0.0, 0.0, 0.0, 0.0, 0.0, 1.6665552860888114E9, 0.0, 2022-10-23 13:01:26.088
114.0, -63465.029116276404, -92895.99572372386, 53743.62960381861, -1305.520690145575, 82324.69348009747, 61877.47411459376, 18094.67590983819, 15746.82632050828, 0.05, 0.9560000000000001, 0.12, 192.0, 1.0, 144.0, 29.0, 224.0, 3.0, 192.0, 0.0, 0.0, 0.0, 1.6665552860888288E9, 0.0, 2022-10-23 13:01:26.088
115.0, -63406.579304525774, -92840.5633974747, 51502.66605647398, -2586.566220112589, 81998.64858372792, 60793.63802595592, 16577.886531101052, 14073.485323606174, 0.05, 0.9560000000000001, 0.12, 192.0, 0.0, 0.0, 0.0, 0.0, 0.0, 0.0, 0.0, 0.0, 0.0, 1.6665552860888467E9, 0.0, 2022-10-23 13:01:26.088
116.0, -63433.26728740541, -92865.57499952019, 50797.312056697854, -2843.812447048718, 82158.97764670583, 60551.07689512693, 16248.846500974478, 13894.1796295857, 0.05, 0.9560000000000001, 0.12, 192.0, 0.0, 0.0, 0.0, 0.0, 0.0, 0.0, 0.0, 0.0, 0.0, 1.6665552860888643E9, 0.0, 2022-10-23 13:01:26.088
117.0, -63476.24969199297, -92904.44468312796, 52060.655005056266, -2083.115528001252, 82402.96928917996, 61192.281388316325, 17155.276793870544, 14954.948717945663, 0.05, 0.9560000000000001, 0.12, 192.0, 0.0, 0.0, 0.0, 0.0, 0.0, 0.0, 0.0, 0.0, 0.0, 1.6665552860888803E9, 0.0, 2022-10-23 13:01:26.088
118.0, -63461.877520308204, -92896.1298341906, 53851.879102215666, -1214.6608489347518, 82407.99843168241, 61948.1726823059, 18199.08090818893, 15912.698616111114, 0.05, 0.9560000000000001, 0.12, 192.0, 0.0, 0.0, 0.0, 0.0, 0.0, 0.0, 0.0, 0.0, 0.0, 1.6665552860888972E9, 0.0, 2022-10-23 13:01:26.088
119.0, -63402.48893529045, -92840.63045270806, 51874.50967723247, -2403.7513022126323, 82013.44543855732, 60950.167292376434, 16807.438946657057, 14308.893896209467, 0.05, 0.9560000000000001, 0.12, 192.0, 0.0, 0.0, 0.0, 0.0, 0.0, 0.0, 0.0, 0.0, 0.0, 1.666555286088916E9, 0.0, 2022-10-23 13:01:26.088
120.0, -63435.90479325114, -92874.2698281133, 50792.2382107065, -2868.0417380382705, 82126.67937596791, 60539.76691243255, 16231.613305999435, 13838.54613763644, 0.05, 0.9560000000000001, 0.12, 192.0, 0.0, 0.0, 0.0, 0.0, 0.0, 0.0, 0.0, 0.0, 0.0, 1.6665552860889323E9, 0.0, 2022-10-23 13:01:26.088
121.0, -63479.60245366126, -92913.87711928811, 51686.86678253017, -2290.8079374799654, 82345.681768141, 61030.49946194881, 16922.3939683907, 14684.269092591894, 0.05, 0.9560000000000001, 0.12, 192.0, 0.0, 0.0, 0.0, 0.0, 0.0, 0.0, 0.0, 0.0, 0.0, 1.6665552865659308E9, 0.0, 2022-10-23 13:01:26.565
122.0, -63492.52176195643, -92926.03646827179, 53805.231011537435, -1212.5150814670421, 82439.46968787548, 61955.41464750942, 18208.625103071347, 15944.125168815277, 0.05, 0.9560000000000001, 0.12, 192.0, 0.0, 0.0, 0.0, 0.0, 0.0, 0.0, 0.0, 0.0, 0.0, 1.6665552865660229E9, 0.0, 2022-10-23 13:01:26.566
123.0, -63405.90875219212, -92845.32431904368, 52344.343345683024, -2147.220331099073, 82044.89434300594, 61183.83242891222, 17122.464433010155, 14617.839708070722, 0.05, 0.9560000000000001, 0.12, 192.0, 0.0, 0.0, 0.0, 0.0, 0.0, 0.0, 0.0, 0.0, 0.0, 1.6665552865660412E9, 0.0, 2022-10-23 13:01:26.566
124.0, -63423.58898205626, -92860.27763608428, 50769.73000404001, -2914.153386849569, 82062.14988972544, 60503.75825211505, 16184.406421709828, 13749.988526104515, 0.054, 0.9560000000000001, 0.112, 192.0, 1.0, 176.0, 29.0, 224.0, 3.0, 128.0, 0.0, 0.0, 0.0, 1.666555286566056E9, 0.0, 2022-10-23 13:01:26.566
125.0, -63465.36439244323, -92895.5263370903, 51246.626823738436, -2552.815085985075, 82279.9676394424, 60795.87320040145, 16613.470508273902, 14359.252376467273, 0.054, 0.9560000000000001, 0.112, 192.0, 0.0, 0.0, 0.0, 0.0, 0.0, 0.0, 0.0, 0.0, 0.0, 1.666555286566092E9, 0.0, 2022-10-23 13:01:26.566
126.0, -63486.486790953495, -92918.19100596798, 53504.06360674663, -1341.1493708073344, 82481.98270582948, 61830.37898902643, 18045.747941225523, 15835.830966929314, 0.054, 0.9560000000000001, 0.112, 192.0, 0.0, 0.0, 0.0, 0.0, 0.0, 0.0, 0.0, 0.0, 0.0, 1.6665552865661135E9, 0.0, 2022-10-23 13:01:26.566
127.0, -63408.30038884883, -92843.67028995398, 52736.01296377337, -1921.2218429114632, 82108.21683504783, 61362.28875664339, 17386.080907116044, 14935.905031669741, 0.054, 0.9560000000000001, 0.112, 192.0, 0.0, 0.0, 0.0, 0.0, 0.0, 0.0, 0.0, 0.0, 0.0, 1.6665552865662565E9, 0.0, 2022-10-23 13:01:26.566
128.0, -63405.48406904747, -92837.23298755086, 50818.076827296834, -2901.055264598759, 82040.58045632606, 60507.446289950174, 16197.839820127467, 13760.091514598313, 0.054, 0.9560000000000001, 0.112, 192.0, 0.0, 0.0, 0.0, 0.0, 0.0, 0.0, 0.0, 0.0, 0.0, 1.6665552865662725E9, 0.0, 2022-10-23 13:01:26.566
129.0, -63438.13996769667, -92873.0181304238, 50988.240657835086, -2692.5581923196546, 82256.47595601987, 60669.071754106495, 16442.16673876843, 14185.288749371619, 0.054, 0.9560000000000001, 0.112, 192.0, 0.0, 0.0, 0.0, 0.0, 0.0, 0.0, 0.0, 0.0, 0.0, 1.666555286566288E9, 0.0, 2022-10-23 13:01:26.566
130.0, -63481.97173857353, -92918.74979957937, 53120.30650619346, -1520.9691549502797, 82496.98072635899, 61670.83223710445, 17832.691113077537, 15662.76140961187, 0.054, 0.9560000000000001, 0.112, 192.0, 0.0, 0.0, 0.0, 0.0, 0.0, 0.0, 0.0, 0.0, 0.0, 1.6665552865663028E9, 0.0, 2022-10-23 13:01:26.566
131.0, -63418.98452269847, -92862.53516227426, 53136.93620406821, -1679.0630434826664, 82198.60728962508, 61570.53995973348, 17675.781867001282, 15288.056765563104, 0.054, 0.9560000000000001, 0.112, 192.0, 0.0, 0.0, 0.0, 0.0, 0.0, 0.0, 0.0, 0.0, 0.0, 1.6665552865663185E9, 0.0, 2022-10-23 13:01:26.566
132.0, -63408.14392663765, -92845.97251963288, 50973.46615475013, -2832.2565951653237, 82025.26951137418, 60587.063203699974, 16293.751155585189, 13844.245832472543, 0.054, 0.9560000000000001, 0.112, 192.0, 0.0, 0.0, 0.0, 0.0, 0.0, 0.0, 0.0, 0.0, 0.0, 1.6665552865663338E9, 0.0, 2022-10-23 13:01:26.566
133.0, -63448.868805035214, -92882.51762181731, 50844.20601656509, -2778.2324288168466, 82212.3536124651, 60615.27110520257, 16347.641211466935, 14062.06358218951, 0.054, 0.9560000000000001, 0.112, 192.0, 0.0, 0.0, 0.0, 0.0, 0.0, 0.0, 0.0, 0.0, 0.0, 1.6665552865663536E9, 0.0, 2022-10-23 13:01:26.566
134.0, -63496.03098583591, -92929.76920959583, 52684.00045442587, -1743.1231430915766, 82458.08869100675, 61489.15725817171, 17575.62370009705, 15408.24209549929, 0.054, 0.9520000000000001, 0.126, 192.0, 1.0, 176.0, 29.0, 192.0, 3.0, 240.0, 0.0, 0.0, 0.0, 1.666555286566369E9, 0.0, 2022-10-23 13:01:26.566
135.0, -63444.35375265524, -92878.74017700437, 53504.64475210247, -1445.2414447356994, 82281.420502832, 61773.359688920944, 17950.797730779377, 15600.914132704036, 0.054, 0.9520000000000001, 0.126, 192.0, 0.0, 0.0, 0.0, 0.0, 0.0, 0.0, 0.0, 0.0, 0.0, 1.6665552865663853E9, 0.0, 2022-10-23 13:01:26.566
136.0, -63395.62694974268, -92828.64991768003, 51208.874727353425, -2726.6222508695428, 81997.3521825495, 60680.85112343444, 16426.185241482883, 13953.277641925531, 0.054, 0.9520000000000001, 0.126, 192.0, 0.0, 0.0, 0.0, 0.0, 0.0, 0.0, 0.0, 0.0, 0.0, 1.6665552865664003E9, 0.0, 2022-10-23 13:01:26.566
137.0, -63423.3207611228, -92859.38356630607, 50722.590174983765, -2863.4819821693877, 82181.97759175034, 60538.895194398785, 16242.632716015902, 13934.256307394066, 0.054, 0.9520000000000001, 0.126, 192.0, 0.0, 0.0, 0.0, 0.0, 0.0, 0.0, 0.0, 0.0, 0.0, 1.6665552865664155E9, 0.0, 2022-10-23 13:01:26.566
138.0, -63484.13985778569, -92920.09090424668, 52230.41650419433, -1981.839773874256, 82431.13248719365, 61286.024604561884, 17291.28715888109, 15125.336065928468, 0.054, 0.9520000000000001, 0.126, 192.0, 0.0, 0.0, 0.0, 0.0, 0.0, 0.0, 0.0, 0.0, 0.0, 1.6665552865664308E9, 0.0, 2022-10-23 13:01:26.566
139.0, -63479.04366004988, -92918.23570945689, 53696.37801604009, -1313.8355390829493, 82343.11131752864, 61875.5518645706, 18099.123906984798, 15805.41024272564, 0.054, 0.9520000000000001, 0.126, 192.0, 0.0, 0.0, 0.0, 0.0, 0.0, 0.0, 0.0, 0.0, 0.0, 1.666555286566448E9, 0.0, 2022-10-23 13:01:26.566
140.0, -63403.83003995777, -92842.99973762032, 51553.35981289862, -2553.1727138963597, 81995.09465635952, 60835.458139831804, 16636.023418429308, 14155.583280990515, 0.054, 0.9520000000000001, 0.126, 192.0, 0.0, 0.0, 0.0, 0.0, 0.0, 0.0, 0.0, 0.0, 0.0, 1.666555286566463E9, 0.0, 2022-10-23 13:01:26.566
141.0, -63437.38000838519, -92865.57499952019, 50667.850752812716, -2916.2991543172784, 82126.76878294573, 60494.54933339946, 16178.840837340456, 13837.540309135951, 0.054, 0.9520000000000001, 0.126, 192.0, 0.0, 0.0, 0.0, 0.0, 0.0, 0.0, 0.0, 0.0, 0.0, 1.666555286566478E9, 0.0, 2022-10-23 13:01:26.566
142.0, -63494.80163989087, -92919.35329667966, 51782.621655776704, -2228.893605338765, 82365.39600675058, 61071.13493336856, 16996.914684404695, 14821.419396569658, 0.054, 0.9520000000000001, 0.126, 192.0, 0.0, 0.0, 0.0, 0.0, 0.0, 0.0, 0.0, 0.0, 0.0, 1.6665552865665104E9, 0.0, 2022-10-23 13:01:26.566
143.0, -63483.87163685223, -92914.21239545493, 53752.57030160073, -1240.7676864585503, 82418.97313820996, 61928.011408807215, 18175.857445699865, 15939.72187515758, 0.056, 0.9480000000000001, 0.12, 192.0, 1.0, 192.0, 29.0, 160.0, 3.0, 192.0, 0.0, 0.0, 0.0, 1.6665552865665252E9, 0.0, 2022-10-23 13:01:26.566
144.0, -63405.50642079192, -92843.62558646507, 51983.3179692409, -2317.7194378041554, 82031.6621102884, 61038.814310886184, 16916.20253517658, 14448.592299055135, 0.056, 0.9480000000000001, 0.12, 192.0, 0.0, 0.0, 0.0, 0.0, 0.0, 0.0, 0.0, 0.0, 0.0, 1.6665552865665417E9, 0.0, 2022-10-23 13:01:26.566
145.0, -63430.09333969276, -92865.44088905345, 50716.309334791826, -2897.7472064193735, 82106.69691642487, 60525.551202958966, 16200.119698061908, 13822.095253717334, 0.056, 0.9480000000000001, 0.12, 192.0, 0.0, 0.0, 0.0, 0.0, 0.0, 0.0, 0.0, 0.0, 0.0, 1.6665552865665567E9, 0.0, 2022-10-23 13:01:26.566
146.0, -63475.62384314822, -92912.15603496505, 51450.765305848756, -2408.534575526068, 82317.38445966059, 60936.0856933696, 16787.255321413915, 14573.762068004855, 0.056, 0.9480000000000001, 0.12, 192.0, 0.0, 0.0, 0.0, 0.0, 0.0, 0.0, 0.0, 0.0, 0.0, 1.6665552865665712E9, 0.0, 2022-10-23 13:01:26.566
147.0, -63481.41294496214, -92916.06759024473, 53644.097285759126, -1266.0475094375026, 82470.80683360182, 61913.952161544825, 18143.603878450856, 15933.463386710095, 0.056, 0.9480000000000001, 0.12, 192.0, 0.0, 0.0, 0.0, 0.0, 0.0, 0.0, 0.0, 0.0, 0.0, 1.6665552865665865E9, 0.0, 2022-10-23 13:01:26.566
148.0, -63391.469525273984, -92836.94241487294, 52435.67257352741, -2071.2467516954844, 82094.55991918563, 61257.48142689245, 17212.854887587415, 14761.896701085176, 0.056, 0.9480000000000001, 0.12, 192.0, 0.0, 0.0, 0.0, 0.0, 0.0, 0.0, 0.0, 0.0, 0.0, 1.6665552865666015E9, 0.0, 2022-10-23 13:01:26.566
149.0, -63403.33830157975, -92848.34180454515, 50752.89914046516, -2902.8434041551836, 82087.00502955975, 60526.78054890401, 16197.929227105287, 13794.312035359388, 0.056, 0.9480000000000001, 0.12, 192.0, 0.0, 0.0, 0.0, 0.0, 0.0, 0.0, 0.0, 0.0, 0.0, 1.666555286566616E9, 0.0, 2022-10-23 13:01:26.566
150.0, -63451.14868296966, -92891.86065099963, 51161.332566896985, -2567.656644303399, 82303.05699146473, 60803.11516560497, 16596.12555457658, 14360.727591601324, 0.056, 0.9480000000000001, 0.12, 192.0, 0.0, 0.0, 0.0, 0.0, 0.0, 0.0, 0.0, 0.0, 0.0, 1.666555286566632E9, 0.0, 2022-10-23 13:01:26.566
151.0, -63490.44304972209, -92930.97620379642, 53403.9054398424, -1361.93649315077, 82500.60170896075, 61839.76672169766, 18030.347589295816, 15843.877594933225, 0.056, 0.9480000000000001, 0.12, 192.0, 0.0, 0.0, 0.0, 0.0, 0.0, 0.0, 0.0, 0.0, 0.0, 1.666555286566647E9, 0.0, 2022-10-23 13:01:26.566
152.0, -63409.97676968298, -92856.5672465047, 52924.92990790962, -1794.2192309164086, 82145.16426863245, 61501.67423506668, 17547.952240461378, 15117.89293502485, 0.056, 0.9480000000000001, 0.12, 192.0, 0.0, 0.0, 0.0, 0.0, 0.0, 0.0, 0.0, 0.0, 0.0, 1.6665552865666618E9, 0.0, 2022-10-23 13:01:26.566
153.0, -63406.378138825676, -92853.57211274769, 50876.54899079192, -2868.4887729273764, 82027.97407245327, 60569.047697669, 16252.042800431587, 13806.449032598619, 0.056, 0.9480000000000001, 0.124, 192.0, 1.0, 192.0, 29.0, 160.0, 3.0, 224.0, 0.0, 0.0, 0.0, 1.6665552865666769E9, 0.0, 2022-10-23 13:01:26.566
154.0, -63448.734694568484, -92888.61964805362, 50942.598395657355, -2713.278259429724, 82234.92887436497, 60685.29912058105, 16429.515651406724, 14157.013792635655, 0.056, 0.9480000000000001, 0.124, 192.0, 0.0, 0.0, 0.0, 0.0, 0.0, 0.0, 0.0, 0.0, 0.0, 1.6665552865666924E9, 0.0, 2022-10-23 13:01:26.566
155.0, -63494.57812244632, -92927.9810700394, 53004.45741468161, -1566.6114171280167, 82479.72517963948, 61660.952766055205, 17786.870036944158, 15609.22898164141, 0.056, 0.9480000000000001, 0.124, 192.0, 0.0, 0.0, 0.0, 0.0, 0.0, 0.0, 0.0, 0.0, 0.0, 1.6665552865667093E9, 0.0, 2022-10-23 13:01:26.566
156.0, -63411.183763883564, -92850.77814469078, 53366.08628822402, -1527.2276433977656, 82228.13394405055, 61722.621229007396, 17854.90874706611, 15465.820189216161, 0.056, 0.9480000000000001, 0.124, 192.0, 0.0, 0.0, 0.0, 0.0, 0.0, 0.0, 0.0, 0.0, 0.0, 1.6665552865667243E9, 0.0, 2022-10-23 13:01:26.566
157.0, -63370.704754675004, -92818.50222569732, 51137.572662540995, -2738.8486550865955, 82015.70296474731, 60684.27094033611, 16403.609979583023, 13927.863708479848, 0.056, 0.9480000000000001, 0.124, 192.0, 0.0, 0.0, 0.0, 0.0, 0.0, 0.0, 0.0, 0.0, 0.0, 1.666555286566739E9, 0.0, 2022-10-23 13:01:26.566
158.0, -63448.041790490366, -92896.33099989069, 50890.69764503213, -2750.359803481079, 82207.57033915167, 60656.73359116717, 16377.413735081404, 14060.789532755558, 0.056, 0.9480000000000001, 0.124, 192.0, 0.0, 0.0, 0.0, 0.0, 0.0, 0.0, 0.0, 0.0, 0.0, 1.6665552865667682E9, 0.0, 2022-10-23 13:01:26.566
159.0, -63506.24573305199, -92955.71958490844, 52641.12980856059, -1749.8957216615347, 82457.0158072729, 61508.044482236444, 17565.632470325527, 15366.399629878955, 0.056, 0.9480000000000001, 0.124, 192.0, 0.0, 0.0, 0.0, 0.0, 0.0, 0.0, 0.0, 0.0, 0.0, 1.666555286566784E9, 0.0, 2022-10-23 13:01:26.566
160.0, -63456.73661908348, -92915.17352046652, 53735.15829267005, -1300.5138993875862, 82310.94715725747, 61917.19316449084, 18119.24047699457, 15751.743704288448, 0.056, 0.9480000000000001, 0.124, 192.0, 0.0, 0.0, 0.0, 0.0, 0.0, 0.0, 0.0, 0.0, 0.0, 1.6665552865667987E9, 0.0, 2022-10-23 13:01:26.566
161.0, -63403.00302541292, -92860.67996748448, 51434.76145681876, -2614.572955915088, 81984.20935680978, 60796.387290523926, 16562.955565804907, 14046.082084903966, 0.056, 0.9480000000000001, 0.124, 192.0, 0.0, 0.0, 0.0, 0.0, 0.0, 0.0, 0.0, 0.0, 0.0, 1.6665552865668142E9, 0.0, 2022-10-23 13:01:26.566
162.0, -63441.64919157615, -92899.75081679235, 50808.73379811452, -2827.316859640701, 82162.62098105204, 60589.56659907897, 16287.358556670972, 13921.649923521272, 0.056, 0.9480000000000001, 0.124, 192.0, 0.0, 0.0, 0.0, 0.0, 0.0, 0.0, 0.0, 0.0, 0.0, 1.666555286566829E9, 0.0, 2022-10-23 13:01:26.566
163.0, -63494.533418957406, -92955.92075060854, 52164.814134217995, -2017.9378411695768, 82410.68064101704, 61271.071287521285, 17247.1201118374, 15032.732788650132, 0.05, 0.9520000000000001, 0.124, 192.0, 1.0, 144.0, 29.0, 192.0, 3.0, 224.0, 0.0, 0.0, 0.0, 1.6665552865668445E9, 0.0, 2022-10-23 13:01:26.566
164.0, -63491.113602055746, -92953.70792790747, 53860.17159940858, -1208.6929331651847, 82385.66903897155, 61982.9296449339, 18221.723225322155, 15903.24382820652, 0.05, 0.9520000000000001, 0.124, 192.0, 0.0, 0.0, 0.0, 0.0, 0.0, 0.0, 0.0, 0.0, 0.0, 1.6665552865668604E9, 0.0, 2022-10-23 13:01:26.566
165.0, -63423.27605763389, -92886.89856373054, 51794.55748731583, -2439.0000032186513, 81990.95958363528, 60949.9884784208, 16778.426382354068, 14256.188482783853, 0.05, 0.9520000000000001, 0.124, 192.0, 0.0, 0.0, 0.0, 0.0, 0.0, 0.0, 0.0, 0.0, 0.0, 1.6665552865668757E9, 0.0, 2022-10-23 13:01:26.566
166.0, -63459.910566796134, -92917.98984026788, 50808.510280669965, -2847.478133139388, 82122.05256486566, 60584.358642620886, 16263.531597081614, 13857.45571344563, 0.05, 0.9520000000000001, 0.124, 192.0, 0.0, 0.0, 0.0, 0.0, 0.0, 0.0, 0.0, 0.0, 0.0, 1.6665552865668907E9, 0.0, 2022-10-23 13:01:26.566
167.0, -63503.965855117545, -92959.58643669922, 51768.74122246996, -2247.4902567255804, 82336.36109070314, 61089.418660333, 16984.956501121105, 14738.025038006906, 0.05, 0.9520000000000001, 0.124, 192.0, 0.0, 0.0, 0.0, 0.0, 0.0, 0.0, 0.0, 0.0, 0.0, 1.666555286566906E9, 0.0, 2022-10-23 13:01:26.566
168.0, -63499.58491320431, -92961.93336986702, 53849.88979695914, -1193.4713951911206, 82430.08195520425, 62001.481592831806, 18242.04096103203, 15958.676154455681, 0.05, 0.9520000000000001, 0.124, 192.0, 0.0, 0.0, 0.0, 0.0, 0.0, 0.0, 0.0, 0.0, 0.0, 1.6665552865669212E9, 0.0, 2022-10-23 13:01:26.566
169.0, -63411.764909239406, -92877.35436884813, 52272.86246691495, -2184.7489100395337, 82039.61933131449, 61186.87226615814, 17089.137982027292, 14564.955480689465, 0.05, 0.9520000000000001, 0.124, 192.0, 0.0, 0.0, 0.0, 0.0, 0.0, 0.0, 0.0, 0.0, 0.0, 1.6665552865669363E9, 0.0, 2022-10-23 13:01:26.566
170.0, -63442.096226465255, -92897.06860745771, 50815.081693539825, -2888.6276946816083, 82069.92829679589, 60560.576386520435, 16230.898050176866, 13783.739660232028, 0.05, 0.9520000000000001, 0.124, 192.0, 0.0, 0.0, 0.0, 0.0, 0.0, 0.0, 0.0, 0.0, 0.0, 1.6665552865669513E9, 0.0, 2022-10-23 13:01:26.566
171.0, -63494.309901512854, -92940.92273007902, 51435.29789868568, -2448.9912329901736, 82298.25136640685, 60927.36851303202, 16755.717009987475, 14477.358994169117, 0.05, 0.9520000000000001, 0.124, 192.0, 0.0, 0.0, 0.0, 0.0, 0.0, 0.0, 0.0, 0.0, 0.0, 1.6665552865669668E9, 0.0, 2022-10-23 13:01:26.566
172.0, -63516.70634945707, -92963.63210244563, 53690.097175848154, -1254.715174998662, 82470.06922603479, 61951.637202696475, 18170.113047374853, 15907.825935819857, 0.05, 0.9540000000000001, 0.112, 192.0, 1.0, 144.0, 29.0, 208.0, 3.0, 128.0, 0.0, 0.0, 0.0, 1.666555286566982E9, 0.0, 2022-10-23 13:01:26.566
173.0, -63427.58994431376, -92885.44570034096, 52766.0537083213, -1910.358895106184, 82106.20517804685, 61423.55488819539, 17415.316988863586, 14904.165554543204, 0.05, 0.9540000000000001, 0.112, 192.0, 0.0, 0.0, 0.0, 0.0, 0.0, 0.0, 0.0, 0.0, 0.0, 1.666555286567011E9, 0.0, 2022-10-23 13:01:26.567
174.0, -63430.428615859586, -92883.36698810662, 50941.59256715686, -2834.5588248442205, 82055.60082860003, 60618.98149478215, 16292.007719517676, 13803.63271279725, 0.05, 0.9540000000000001, 0.112, 192.0, 0.0, 0.0, 0.0, 0.0, 0.0, 0.0, 0.0, 0.0, 0.0, 1.6665552865670261E9, 0.0, 2022-10-23 13:01:26.567
175.0, -63480.965910073035, -92927.39992468357, 51193.563782401536, -2590.813051559097, 82256.40890078651, 60812.56995350957, 16581.641624169544, 14268.213721300808, 0.05, 0.9540000000000001, 0.112, 192.0, 0.0, 0.0, 0.0, 0.0, 0.0, 0.0, 0.0, 0.0, 0.0, 1.6665552865670416E9, 0.0, 2022-10-23 13:01:26.567
176.0, -63512.32540754383, -92960.32404426624, 53400.08329154054, -1381.5389730380743, 82491.1692728006, 61847.321611323554, 18014.008464098988, 15764.394791650153, 0.05, 0.9540000000000001, 0.112, 192.0, 0.0, 0.0, 0.0, 0.0, 0.0, 0.0, 0.0, 0.0, 0.0, 1.6665552865670586E9, 0.0, 2022-10-23 13:01:26.567
177.0, -63431.255630404434, -92891.25715389934, 53231.50643485862, -1641.1768366309211, 82173.7968532797, 61653.37552468485, 17732.13061477311, 15248.717695321762, 0.05, 0.9540000000000001, 0.112, 192.0, 0.0, 0.0, 0.0, 0.0, 0.0, 0.0, 0.0, 0.0, 0.0, 1.666555286567074E9, 0.0, 2022-10-23 13:01:26.567
178.0, -63420.52679306589, -92875.76739499181, 51101.38518826785, -2772.197457813914, 82023.6601857734, 60682.61691124641, 16375.424429824881, 13847.330373207376, 0.05, 0.9540000000000001, 0.112, 192.0, 0.0, 0.0, 0.0, 0.0, 0.0, 0.0, 0.0, 0.0, 0.0, 1.6665552865670888E9, 0.0, 2022-10-23 13:01:26.567
179.0, -63471.28760472389, -92922.6837066035, 51028.451446110186, -2698.5261080892215, 82212.82299909866, 60726.56044084555, 16457.20946278685, 14103.548419898561, 0.05, 0.9540000000000001, 0.112, 192.0, 0.0, 0.0, 0.0, 0.0, 0.0, 0.0, 0.0, 0.0, 0.0, 1.6665552865671043E9, 0.0, 2022-10-23 13:01:26.567
180.0, -63505.0387388514, -92958.91588436555, 52979.62462659176, -1600.6084204445388, 82471.58914465776, 61661.511559666586, 17755.59994645118, 15510.50132638232, 0.05, 0.9540000000000001, 0.112, 192.0, 0.0, 0.0, 0.0, 0.0, 0.0, 0.0, 0.0, 0.0, 0.0, 1.6665552865671227E9, 0.0, 2022-10-23 13:01:26.567
181.0, -63440.24103167547, -92901.74012204888, 53621.34320990363, -1403.7789587711047, 82277.55365104123, 61859.81623647407, 18010.879219875245, 15572.281548056788, 0.05, 0.9540000000000001, 0.112, 192.0, 0.0, 0.0, 0.0, 0.0, 0.0, 0.0, 0.0, 0.0, 0.0, 1.666555286567165E9, 0.0, 2022-10-23 13:01:26.567
182.0, -63406.512249292406, -92871.63232226757, 51359.50313323774, -2649.2628633097247, 82025.04599392963, 60805.59620923951, 16528.623286321555, 13974.33298520243, 0.048, 0.9540000000000001, 0.12, 192.0, 1.0, 128.0, 29.0, 208.0, 3.0, 192.0, 0.0, 0.0, 0.0, 1.6665552865672066E9, 0.0, 2022-10-23 13:01:26.567
183.0, -63446.924203267605, -92908.66916283002, 50950.26504400552, -2751.052707559193, 82196.48387390183, 60694.57509453, 16390.44480209885, 13999.322235503465, 0.048, 0.9540000000000001, 0.12, 192.0, 0.0, 0.0, 0.0, 0.0, 0.0, 0.0, 0.0, 0.0, 0.0, 1.6665552865672507E9, 0.0, 2022-10-23 13:01:26.567
184.0, -63497.461497481054, -92956.34543375319, 52548.01244115978, -1825.9810597873998, 82439.96142625349, 61477.55670279941, 17488.720117654815, 15230.769244524152, 0.048, 0.9540000000000001, 0.12, 192.0, 0.0, 0.0, 0.0, 0.0, 0.0, 0.0, 0.0, 0.0, 0.0, 1.6665552865672925E9, 0.0, 2022-10-23 13:01:26.567
185.0, -63459.17295922911, -92928.40575318405, 53873.13561119266, -1245.0815731384246, 82333.45536392396, 61994.351386350565, 18199.326777377937, 15795.597826909761, 0.048, 0.9540000000000001, 0.12, 192.0, 0.0, 0.0, 0.0, 0.0, 0.0, 0.0, 0.0, 0.0, 0.0, 1.666555286567334E9, 0.0, 2022-10-23 13:01:26.567
186.0, -63416.726996508485, -92884.12694741809, 51647.99709892239, -2529.904547918385, 81986.77980742215, 60910.336483757084, 16684.504352152868, 14109.561039157039, 0.048, 0.9540000000000001, 0.12, 192.0, 0.0, 0.0, 0.0, 0.0, 0.0, 0.0, 0.0, 0.0, 0.0, 1.6665552865673754E9, 0.0, 2022-10-23 13:01:26.567
187.0, -63453.45091264855, -92912.17838670951, 50893.02222645548, -2812.31883911119, 82140.17982961892, 60648.016410829594, 16325.021246078164, 13888.994024872069, 0.048, 0.9540000000000001, 0.12, 192.0, 0.0, 0.0, 0.0, 0.0, 0.0, 0.0, 0.0, 0.0, 0.0, 1.6665552865673997E9, 0.0, 2022-10-23 13:01:26.567
188.0, -63488.61020667675, -92945.57189292573, 52091.43335717123, -2089.8434030822996, 82376.63893421162, 61256.944985025526, 17190.704308832206, 14908.702958667633, 0.048, 0.9540000000000001, 0.12, 192.0, 0.0, 0.0, 0.0, 0.0, 0.0, 0.0, 0.0, 0.0, 0.0, 1.6665552865674126E9, 0.0, 2022-10-23 13:01:26.567
189.0, -63481.56940717333, -92945.68365164801, 53924.634030417685, -1197.9193923377268, 82397.02372515485, 62026.11321522156, 18261.621089174878, 15905.680168352148, 0.048, 0.9540000000000001, 0.12, 192.0, 0.0, 0.0, 0.0, 0.0, 0.0, 0.0, 0.0, 0.0, 0.0, 1.6665552865674376E9, 0.0, 2022-10-23 13:01:26.567
190.0, -63412.77073773989, -92883.59050555117, 52057.68222304371, -2313.5173098465575, 82034.03139520067, 61102.04739595025, 16955.899233329204, 14380.240664510808, 0.048, 0.9540000000000001, 0.12, 192.0, 0.0, 0.0, 0.0, 0.0, 0.0, 0.0, 0.0, 0.0, 0.0, 1.6665552865674503E9, 0.0, 2022-10-23 13:01:26.567
191.0, -63439.27990666389, -92910.83728204218, 50895.816194512394, -2835.7434673003518, 82110.51906472673, 60637.35462872442, 16313.286580239128, 13836.60153586883, 0.048, 0.9540000000000001, 0.12, 192.0, 0.0, 0.0, 0.0, 0.0, 0.0, 0.0, 0.0, 0.0, 0.0, 1.6665552865674632E9, 0.0, 2022-10-23 13:01:26.567
192.0, -63476.361450715245, -92940.81097135675, 51714.65000088811, -2303.4143213527586, 82331.7342796009, 61079.583892772665, 16950.98184954904, 14639.677362403556, 0.048, 0.9540000000000001, 0.122, 192.0, 1.0, 128.0, 29.0, 208.0, 3.0, 208.0, 0.0, 0.0, 0.0, 1.666555286567476E9, 0.0, 2022-10-23 13:01:26.567
193.0, -63488.49844795447, -92953.35029999618, 53893.319236435804, -1178.13809849478, 82457.0605107618, 62046.006267786775, 18288.219665076693, 15962.319488801897, 0.048, 0.9540000000000001, 0.122, 192.0, 0.0, 0.0, 0.0, 0.0, 0.0, 0.0, 0.0, 0.0, 0.0, 1.6665552865674896E9, 0.0, 2022-10-23 13:01:26.567
194.0, -63406.73576673696, -92879.03074968228, 52507.444024973396, -2084.166059990652, 82057.05369198963, 61296.70873841152, 17239.78873965606, 14673.830827931266, 0.048, 0.9540000000000001, 0.122, 192.0, 0.0, 0.0, 0.0, 0.0, 0.0, 0.0, 0.0, 0.0, 0.0, 1.6665552865675025E9, 0.0, 2022-10-23 13:01:26.567
195.0, -63425.46652859051, -92890.43013935449, 50927.33215419438, -2854.3401186871674, 82076.5220614102, 60619.85321281591, 16300.747251599701, 13793.596779536818, 0.048, 0.9540000000000001, 0.122, 192.0, 0.0, 0.0, 0.0, 0.0, 0.0, 0.0, 0.0, 0.0, 0.0, 1.6665552865675154E9, 0.0, 2022-10-23 13:01:26.567
196.0, -63469.991203545476, -92930.4844654184, 51387.68868299588, -2506.0552365845724, 82278.78299698628, 60899.80881211863, 16718.903686869584, 14386.767373891757, 0.048, 0.9540000000000001, 0.122, 192.0, 0.0, 0.0, 0.0, 0.0, 0.0, 0.0, 0.0, 0.0, 0.0, 1.666555286567528E9, 0.0, 2022-10-23 13:01:26.567
197.0, -63493.125259056724, -92951.42804997302, 53625.6570965835, -1309.4322454252535, 82479.25579300593, 61916.477908668276, 18136.138395802784, 15849.353772324774, 0.048, 0.9540000000000001, 0.122, 192.0, 0.0, 0.0, 0.0, 0.0, 0.0, 0.0, 0.0, 0.0, 0.0, 1.6665552865675423E9, 0.0, 2022-10-23 13:01:26.567
198.0, -63408.07687140428, -92874.6721595135, 52989.30293194091, -1808.8596235346347, 82138.65991099595, 61525.61295337832, 17569.208749438378, 15037.449006730201, 0.048, 0.9540000000000001, 0.122, 192.0, 0.0, 0.0, 0.0, 0.0, 0.0, 0.0, 0.0, 0.0, 0.0, 1.6665552865675552E9, 0.0, 2022-10-23 13:01:26.567
199.0, -63405.8640487032, -92870.35827283362, 51020.18130066172, -2826.51219684031, 82040.62515981498, 60639.58980316995, 16340.04161835213, 13807.141936676733, 0.048, 0.9540000000000001, 0.122, 192.0, 0.0, 0.0, 0.0, 0.0, 0.0, 0.0, 0.0, 0.0, 0.0, 1.6665552865675676E9, 0.0, 2022-10-23 13:01:26.567
200.0, -63451.43925564757, -92912.22309019841, 51186.590038131486, -2613.2094995033144, 82258.44290953195, 60810.17831685285, 16590.448211484934, 14226.48301440275, 0.048, 0.9540000000000001, 0.122, 192.0, 0.0, 0.0, 0.0, 0.0, 0.0, 0.0, 0.0, 0.0, 0.0, 1.6665552865675802E9, 0.0, 2022-10-23 13:01:26.567
201.0, -63494.35460500176, -92953.84203837419, 53293.867801888926, -1456.1043925409786, 82477.44530170504, 61795.06323278705, 17963.493521629993, 15682.63211043264, 0.048, 0.9540000000000001, 0.122, 192.0, 0.0, 0.0, 0.0, 0.0, 0.0, 0.0, 0.0, 0.0, 0.0, 1.6665552865675929E9, 0.0, 2022-10-23 13:01:26.567
202.0, -63432.172051927104, -92897.60504932464, 53426.27953604216, -1553.7815158106705, 82200.03780127023, 61740.994362949656, 17877.260491521418, 15380.302414930156, 0.046, 0.9480000000000001, 0.12, 192.0, 1.0, 112.0, 29.0, 160.0, 3.0, 192.0, 0.0, 0.0, 0.0, 1.6665552865676055E9, 0.0, 2022-10-23 13:01:26.567
203.0, -63403.3159498353, -92862.11047912961, 51242.20117833629, -2724.0518002571825, 82024.62131078498, 60746.40878992186, 16478.30950955266, 13908.440042548185, 0.046, 0.9480000000000001, 0.12, 192.0, 0.0, 0.0, 0.0, 0.0, 0.0, 0.0, 0.0, 0.0, 0.0, 1.6665552865676188E9, 0.0, 2022-10-23 13:01:26.567
204.0, -63442.14092995417, -92894.22993591189, 51053.5524551335, -2708.4279308829227, 82210.58782465314, 60741.156129974865, 16489.6418439915, 14085.622320845405, 0.046, 0.9480000000000001, 0.12, 192.0, 0.0, 0.0, 0.0, 0.0, 0.0, 0.0, 0.0, 0.0, 0.0, 1.6665552865676508E9, 0.0, 2022-10-23 13:01:26.567
205.0, -63499.45080273758, -92951.45040171748, 52874.77259335192, -1677.6101800930717, 82462.13435675316, 61619.2444109016, 17712.997521519366, 15430.81735739915, 0.046, 0.9480000000000001, 0.12, 192.0, 0.0, 0.0, 0.0, 0.0, 0.0, 0.0, 0.0, 0.0, 0.0, 1.6665552865676615E9, 0.0, 2022-10-23 13:01:26.567
206.0, -63445.13606371118, -92906.34458140667, 53766.651900607576, -1349.352461022432, 82280.43702607598, 61921.641161637446, 18123.330846229896, 15670.159837026578, 0.046, 0.9480000000000001, 0.12, 192.0, 0.0, 0.0, 0.0, 0.0, 0.0, 0.0, 0.0, 0.0, 0.0, 1.6665552865676715E9, 0.0, 2022-10-23 13:01:26.567
207.0, -63396.386909054156, -92855.60612149313, 51490.551410979206, -2620.227947262281, 82009.22095885527, 60844.532948080654, 16616.24212458636, 14030.145291107332, 0.046, 0.9480000000000001, 0.12, 192.0, 0.0, 0.0, 0.0, 0.0, 0.0, 0.0, 0.0, 0.0, 0.0, 1.666555286567682E9, 0.0, 2022-10-23 13:01:26.567
208.0, -63448.64528759066, -92903.43885462749, 50982.40685253225, -2766.7436321668188, 82177.93192600393, 60701.43708007778, 16426.38640718298, 13989.599226665405, 0.046, 0.9480000000000001, 0.12, 192.0, 0.0, 0.0, 0.0, 0.0, 0.0, 0.0, 0.0, 0.0, 0.0, 1.6665552865676925E9, 0.0, 2022-10-23 13:01:26.567
209.0, -63489.079593310315, -92938.59814865567, 52423.87085245501, -1923.680534801547, 82414.41338234108, 61411.28378048942, 17432.080797205068, 15136.355475944934, 0.046, 0.9480000000000001, 0.12, 192.0, 0.0, 0.0, 0.0, 0.0, 0.0, 0.0, 0.0, 0.0, 0.0, 1.6665552865677025E9, 0.0, 2022-10-23 13:01:26.567
210.0, -63466.638441877185, -92921.61082286964, 53969.27046409494, -1209.0282093320143, 82368.99463760789, 62032.05877924667, 18294.969891902198, 15881.897912251701, 0.046, 0.9480000000000001, 0.12, 192.0, 0.0, 0.0, 0.0, 0.0, 0.0, 0.0, 0.0, 0.0, 0.0, 1.6665552865677128E9, 0.0, 2022-10-23 13:01:26.567
211.0, -63407.65218825963, -92863.9209704305, 51854.10253454477, -2445.884340510886, 82010.87498794496, 60995.831906298634, 16843.268793018913, 14238.463549430795, 0.048, 0.9460000000000001, 0.11800000000000001, 192.0, 1.0, 128.0, 29.0, 144.0, 3.0, 176.0, 0.0, 0.0, 0.0, 1.6665552865677233E9, 0.0, 2022-10-23 13:01:26.567
212.0, -63449.96404051352, -92898.70028480295, 50928.807369328424, -2832.8824440100725, 82130.21095159186, 60642.719047393686, 16361.85692094051, 13890.849219661859, 0.048, 0.9460000000000001, 0.11800000000000001, 192.0, 0.0, 0.0, 0.0, 0.0, 0.0, 0.0, 0.0, 0.0, 0.0, 1.666555286567734E9, 0.0, 2022-10-23 13:01:26.567
213.0, -63497.21562829204, -92945.95187258147, 51983.63089366328, -2183.2066396721175, 82355.44948046799, 61186.469934757944, 17140.167014618757, 14829.063693173373, 0.048, 0.9460000000000001, 0.11800000000000001, 192.0, 0.0, 0.0, 0.0, 0.0, 0.0, 0.0, 0.0, 0.0, 0.0, 1.6665552865677445E9, 0.0, 2022-10-23 13:01:26.567
214.0, -63490.46540146654, -92942.26383474635, 53977.987644432505, -1189.1575085112463, 82416.93912946453, 62039.97129678384, 18326.217630650717, 15962.922985902189, 0.048, 0.9460000000000001, 0.11800000000000001, 192.0, 0.0, 0.0, 0.0, 0.0, 0.0, 0.0, 0.0, 0.0, 0.0, 1.6665552865677545E9, 0.0, 2022-10-23 13:01:26.567
215.0, -63409.64149351615, -92864.47976404188, 52287.3911008109, -2224.244442492061, 82045.63195057296, 61186.15701033557, 17117.63645620781, 14522.39775924656, 0.048, 0.9460000000000001, 0.11800000000000001, 192.0, 0.0, 0.0, 0.0, 0.0, 0.0, 0.0, 0.0, 0.0, 0.0, 1.6665552865677648E9, 0.0, 2022-10-23 13:01:26.567
216.0, -63434.56368858382, -92887.65852304203, 50964.838381390386, -2840.0350022357707, 82096.99625933127, 60642.093198548944, 16363.57800526357, 13852.001887798535, 0.048, 0.9460000000000001, 0.11800000000000001, 192.0, 0.0, 0.0, 0.0, 0.0, 0.0, 0.0, 0.0, 0.0, 0.0, 1.6665552865677752E9, 0.0, 2022-10-23 13:01:26.567
217.0, -63482.39642171818, -92931.1326660076, 51628.685191713004, -2392.9107061518084, 82309.60605259014, 61007.723034348855, 16900.57866580232, 14559.568710275737, 0.048, 0.9460000000000001, 0.11800000000000001, 192.0, 0.0, 0.0, 0.0, 0.0, 0.0, 0.0, 0.0, 0.0, 0.0, 1.6665552865677855E9, 0.0, 2022-10-23 13:01:26.567
218.0, -63496.74624165848, -92947.18121852652, 53844.43597131204, -1237.258462579067, 82461.28499046386, 61993.32320610562, 18271.8134846465, 15944.527500215472, 0.048, 0.9460000000000001, 0.11800000000000001, 192.0, 0.0, 0.0, 0.0, 0.0, 0.0, 0.0, 0.0, 0.0, 0.0, 1.666555286567796E9, 0.0, 2022-10-23 13:01:26.567
219.0, -63406.73576673696, -92864.79268846425, 52749.42401044655, -1979.8951721066444, 82094.89519535247, 61392.32950119132, 17416.389872597443, 14846.609812570789, 0.048, 0.9460000000000001, 0.11800000000000001, 192.0, 0.0, 0.0, 0.0, 0.0, 0.0, 0.0, 0.0, 0.0, 0.0, 1.6665552865678077E9, 0.0, 2022-10-23 13:01:26.567
220.0, -63415.944685452545, -92869.28538909976, 51045.95286201869, -2817.8173682471956, 82088.74846562726, 60668.75882968412, 16397.284435902173, 13860.719068136104, 0.048, 0.9460000000000001, 0.11800000000000001, 192.0, 0.0, 0.0, 0.0, 0.0, 0.0, 0.0, 0.0, 0.0, 0.0, 1.6665552865678287E9, 0.0, 2022-10-23 13:01:26.567
221.0, -63460.1787877296, -92909.31736341922, 51392.42725282041, -2525.3447920495028, 82283.45451157744, 60906.983722088786, 16747.558623261288, 14378.65369065448, 0.046, 0.9500000000000001, 0.112, 192.0, 1.0, 112.0, 29.0, 176.0, 3.0, 128.0, 0.0, 0.0, 0.0, 1.666555286567839E9, 0.0, 2022-10-23 13:01:26.567
222.0, -63501.864791138745, -92948.1423435381, 53609.072102197664, -1328.0736003009797, 82493.29268852386, 61923.451652938325, 18162.06641937094, 15851.007801414467, 0.046, 0.9500000000000001, 0.112, 192.0, 0.0, 0.0, 0.0, 0.0, 0.0, 0.0, 0.0, 0.0, 0.0, 1.66655528656785E9, 0.0, 2022-10-23 13:01:26.567
223.0, -63421.040883188354, -92875.34271184716, 53272.41012721183, -1671.2175811788538, 82165.97374272034, 61664.9537283127, 17779.42690604054, 15227.215317155758, 0.046, 0.9500000000000001, 0.112, 192.0, 0.0, 0.0, 0.0, 0.0, 0.0, 0.0, 0.0, 0.0, 0.0, 1.6665552865678604E9, 0.0, 2022-10-23 13:01:26.567
224.0, -63409.44032781605, -92861.90931342953, 51215.55789894556, -2745.5541784231878, 82041.87685750448, 60742.67604859782, 16482.802210188176, 13897.822963931914, 0.046, 0.9500000000000001, 0.112, 192.0, 0.0, 0.0, 0.0, 0.0, 0.0, 0.0, 0.0, 0.0, 0.0, 1.6665552865678716E9, 0.0, 2022-10-23 13:01:26.567
225.0, -63450.43342714709, -92900.06374121473, 51218.865957124945, -2631.828502634585, 82226.52461844977, 60818.56022102359, 16610.542429750258, 14194.788240765125, 0.046, 0.9500000000000001, 0.112, 192.0, 0.0, 0.0, 0.0, 0.0, 0.0, 0.0, 0.0, 0.0, 0.0, 1.666555286567882E9, 0.0, 2022-10-23 13:01:26.567
226.0, -63505.37401501823, -92949.23757901641, 53219.92823123077, -1521.6173555394837, 82467.23055448897, 61760.23921492568, 17925.473204311515, 15610.055996186256, 0.046, 0.9500000000000001, 0.112, 192.0, 0.0, 0.0, 0.0, 0.0, 0.0, 0.0, 0.0, 0.0, 0.0, 1.6665552865678923E9, 0.0, 2022-10-23 13:01:26.567
227.0, -63437.98350548548, -92887.88204048658, 53660.10113478913, -1445.800238347082, 82230.10089756262, 61853.758913726684, 18040.94231616763, 15523.93472479996, 0.046, 0.9500000000000001, 0.112, 192.0, 0.0, 0.0, 0.0, 0.0, 0.0, 0.0, 0.0, 0.0, 0.0, 1.6665552865679045E9, 0.0, 2022-10-23 13:01:26.567
228.0, -63402.93597017956, -92855.60612149313, 51403.53606981469, -2675.034424666694, 82013.49014204624, 60808.45723252979, 16573.729106632367, 13962.598319363395, 0.046, 0.9500000000000001, 0.112, 192.0, 0.0, 0.0, 0.0, 0.0, 0.0, 0.0, 0.0, 0.0, 0.0, 1.6665552865679152E9, 0.0, 2022-10-23 13:01:26.567
229.0, -63445.56074685583, -92894.69932254545, 51129.034296159065, -2692.446433597378, 82207.57033915167, 60782.1492293059, 16535.284106169238, 14083.945940011257, 0.046, 0.9500000000000001, 0.112, 192.0, 0.0, 0.0, 0.0, 0.0, 0.0, 0.0, 0.0, 0.0, 0.0, 1.666555286567927E9, 0.0, 2022-10-23 13:01:26.567
230.0, -63491.22536077802, -92940.31923297874, 52779.934141628044, -1758.948178165934, 82429.29964414831, 61566.67310794272, 17641.36018054011, 15321.740844457252, 0.046, 0.9500000000000001, 0.112, 192.0, 0.0, 0.0, 0.0, 0.0, 0.0, 0.0, 0.0, 0.0, 0.0, 1.6665552865679383E9, 0.0, 2022-10-23 13:01:26.567
231.0, -63462.011630774934, -92920.22501471342, 53959.8380279348, -1260.4372215792205, 82315.05987823724, 62015.3396743941, 18251.071065791974, 15783.1255535037, 0.04, 0.9500000000000001, 0.106, 192.0, 1.0, 64.0, 29.0, 176.0, 3.0, 80.0, 0.0, 0.0, 0.0, 1.6665552865679493E9, 0.0, 2022-10-23 13:01:26.567
232.0, -63409.529734793876, -92865.8208687092, 51736.30884126531, -2519.9356698913184, 82000.45907502879, 60958.59390003609, 16759.583861778243, 14130.661085922848, 0.04, 0.9500000000000001, 0.106, 192.0, 0.0, 0.0, 0.0, 0.0, 0.0, 0.0, 0.0, 0.0, 0.0, 1.6665552865679617E9, 0.0, 2022-10-23 13:01:26.567
233.0, -63444.73373231098, -92894.0734737007, 51082.63207466985, -2747.767001124263, 82154.10496641457, 60747.302859700074, 16466.373678013526, 13977.663395126272, 0.04, 0.9500000000000001, 0.106, 192.0, 0.0, 0.0, 0.0, 0.0, 0.0, 0.0, 0.0, 0.0, 0.0, 1.666555286567973E9, 0.0, 2022-10-23 13:01:26.567
234.0, -63487.64908166517, -92937.25704398836, 52366.918607582884, -1986.0866053207644, 82388.17243435055, 61384.729908076515, 17373.0498400986, 15033.157471794782, 0.04, 0.9500000000000001, 0.106, 192.0, 0.0, 0.0, 0.0, 0.0, 0.0, 0.0, 0.0, 0.0, 0.0, 1.666555286567984E9, 0.0, 2022-10-23 13:01:26.567
235.0, -63470.79586634587, -92927.62344212813, 54115.94261121066, -1146.689194046163, 82393.6039082532, 62113.48618429735, 18376.665517886344, 15946.53915721645, 0.04, 0.9500000000000001, 0.106, 192.0, 0.0, 0.0, 0.0, 0.0, 0.0, 0.0, 0.0, 0.0, 0.0, 1.666555286568006E9, 0.0, 2022-10-23 13:01:26.568
236.0, -63396.096336376235, -92856.74606046034, 52137.50030249361, -2319.909908760775, 82026.70002301932, 61138.14546324557, 17001.206219340114, 14361.822827079633, 0.04, 0.9500000000000001, 0.106, 192.0, 0.0, 0.0, 0.0, 0.0, 0.0, 0.0, 0.0, 0.0, 0.0, 1.6665552865680175E9, 0.0, 2022-10-23 13:01:26.568
237.0, -63426.40530185763, -92880.1259851606, 51041.303699171985, -2808.9437256984384, 82118.16336133044, 60695.04448116356, 16398.536133591668, 13876.387640999275, 0.04, 0.9500000000000001, 0.106, 192.0, 0.0, 0.0, 0.0, 0.0, 0.0, 0.0, 0.0, 0.0, 0.0, 1.6665552865680294E9, 0.0, 2022-10-23 13:01:26.568
238.0, -63471.35465995725, -92918.97331702392, 51954.37246017128, -2227.373686715804, 82354.2424862674, 61182.290158544805, 17092.781316373508, 14739.164976974127, 0.04, 0.9500000000000001, 0.106, 192.0, 0.0, 0.0, 0.0, 0.0, 0.0, 0.0, 0.0, 0.0, 0.0, 1.6665552865680404E9, 0.0, 2022-10-23 13:01:26.568
239.0, -63482.41877346263, -92930.99855554088, 54083.77845093948, -1139.6260427982859, 82456.88169680616, 62118.87295471108, 18383.035765056105, 16004.139602677777, 0.04, 0.9500000000000001, 0.106, 192.0, 0.0, 0.0, 0.0, 0.0, 0.0, 0.0, 0.0, 0.0, 0.0, 1.6665552865680528E9, 0.0, 2022-10-23 13:01:26.568
240.0, -63403.94179868005, -92856.65665348253, 52569.13483967005, -2105.89195560121, 82051.89043902046, 61321.58622999027, 17260.620565488407, 14645.600574684213, 0.034, 0.9520000000000001, 0.112, 192.0, 1.0, 16.0, 29.0, 192.0, 3.0, 128.0, 0.0, 0.0, 0.0, 1.6665552865680652E9, 0.0, 2022-10-23 13:01:26.568
241.0, -63428.193441414056, -92877.80140373725, 51088.33176950595, -2813.279964122768, 82088.21202376032, 60702.73348125619, 16394.065784700608, 13851.107818020322, 0.034, 0.9520000000000001, 0.112, 192.0, 0.0, 0.0, 0.0, 0.0, 0.0, 0.0, 0.0, 0.0, 0.0, 1.6665552870453656E9, 0.0, 2022-10-23 13:01:27.045
242.0, -63461.76576158593, -92909.5855843527, 51642.49856978638, -2409.2945348375483, 82309.60605259014, 61037.83083413015, 16873.42129628912, 14501.811802603223, 0.034, 0.9520000000000001, 0.112, 192.0, 0.0, 0.0, 0.0, 0.0, 0.0, 0.0, 0.0, 0.0, 0.0, 1.6665552870454538E9, 0.0, 2022-10-23 13:01:27.045
243.0, -63491.42652647812, -92938.86636958914, 53873.470887359494, -1233.0116311325587, 82489.9175751111, 62039.9936485283, 18268.03603983355, 15929.373017474774, 0.034, 0.9520000000000001, 0.112, 192.0, 0.0, 0.0, 0.0, 0.0, 0.0, 0.0, 0.0, 0.0, 0.0, 1.666555287045712E9, 0.0, 2022-10-23 13:01:27.045
244.0, -63413.17306914009, -92867.43019430999, 53033.20175805113, -1852.8031531337683, 82112.3295560276, 61539.91806982971, 17562.57028133515, 14979.44622986868, 0.034, 0.9520000000000001, 0.112, 192.0, 0.0, 0.0, 0.0, 0.0, 0.0, 0.0, 0.0, 0.0, 0.0, 1.6665552870458379E9, 0.0, 2022-10-23 13:01:27.045
245.0, -63408.59096152675, -92856.88017092708, 51163.54538959806, -2797.767853470785, 82058.46185189032, 60719.87726925341, 16418.116261734518, 13848.40325694123, 0.034, 0.9520000000000001, 0.112, 192.0, 0.0, 0.0, 0.0, 0.0, 0.0, 0.0, 0.0, 0.0, 0.0, 1.666555287045854E9, 0.0, 2022-10-23 13:01:27.045
246.0, -63453.74148532647, -92897.20271792445, 51362.45356350584, -2583.4593276333007, 82253.90550540751, 60882.84383807705, 16674.043735747782, 14280.261311562219, 0.034, 0.9520000000000001, 0.112, 192.0, 0.0, 0.0, 0.0, 0.0, 0.0, 0.0, 0.0, 0.0, 0.0, 1.66655528704587E9, 0.0, 2022-10-23 13:01:27.045
247.0, -63506.558657474365, -92951.62921567312, 53515.64181037448, -1411.1326826969007, 82483.27910700788, 61878.34583262752, 18062.556453055913, 15750.134378687666, 0.034, 0.9520000000000001, 0.112, 192.0, 0.0, 0.0, 0.0, 0.0, 0.0, 0.0, 0.0, 0.0, 0.0, 1.6665552870458858E9, 0.0, 2022-10-23 13:01:27.045
248.0, -63438.43054037459, -92890.02780795429, 53473.97815870979, -1602.083635578589, 82188.28078368674, 61745.822339752005, 17864.564700670802, 15328.602830005031, 0.034, 0.9520000000000001, 0.112, 192.0, 0.0, 0.0, 0.0, 0.0, 0.0, 0.0, 0.0, 0.0, 0.0, 1.6665552870459008E9, 0.0, 2022-10-23 13:01:27.045
249.0, -63422.89607797815, -92867.05021465424, 51316.118397249986, -2751.991480826316, 82017.06642115909, 60761.45151394028, 16487.898407923985, 13898.60527498785, 0.034, 0.9520000000000001, 0.112, 192.0, 0.0, 0.0, 0.0, 0.0, 0.0, 0.0, 0.0, 0.0, 0.0, 1.6665552870459163E9, 0.0, 2022-10-23 13:01:27.045
250.0, -63462.25749996394, -92906.16576745102, 51201.76687261664, -2698.1237766890263, 82197.89203380252, 60787.60305495299, 16542.593126606123, 14127.263620765641, 0.04, 0.9460000000000001, 0.112, 192.0, 1.0, 64.0, 29.0, 144.0, 3.0, 128.0, 0.0, 0.0, 0.0, 1.6665552870459318E9, 0.0, 2022-10-23 13:01:27.045
251.0, -63516.1922593346, -92962.35805301167, 53090.913962234736, -1641.8697407090356, 82442.55422861032, 61683.97506284417, 17795.76603123737, 15498.431384376454, 0.04, 0.9460000000000001, 0.112, 192.0, 0.0, 0.0, 0.0, 0.0, 0.0, 0.0, 0.0, 0.0, 0.0, 1.6665552870460055E9, 0.0, 2022-10-23 13:01:27.046
252.0, -63460.3799534297, -92903.59531683866, 53833.37185780667, -1394.0112464441356, 82251.42446177299, 61924.34572271654, 18111.26090422403, 15629.502013862375, 0.04, 0.9460000000000001, 0.112, 192.0, 0.0, 0.0, 0.0, 0.0, 0.0, 0.0, 0.0, 0.0, 0.0, 1.6665552870460217E9, 0.0, 2022-10-23 13:01:27.046
253.0, -63411.3178743503, -92854.08620287017, 51534.360830111604, -2669.4017850639566, 81992.63596446943, 60838.52032882218, 16593.6668626865, 13996.371805235363, 0.04, 0.9460000000000001, 0.112, 192.0, 0.0, 0.0, 0.0, 0.0, 0.0, 0.0, 0.0, 0.0, 0.0, 1.6665552870460365E9, 0.0, 2022-10-23 13:01:27.046
254.0, -63442.029171231894, -92883.41169159552, 51104.425025513774, -2770.3869665130337, 82184.16806270696, 60734.33884791599, 16453.990811585285, 14017.069520600979, 0.04, 0.9460000000000001, 0.112, 192.0, 0.0, 0.0, 0.0, 0.0, 0.0, 0.0, 0.0, 0.0, 0.0, 1.666555287046052E9, 0.0, 2022-10-23 13:01:27.046
255.0, -63495.06986082433, -92933.8372270867, 52621.14734901755, -1894.6679704985584, 82425.9021789911, 61474.40510683121, 17498.107850326043, 15204.036558155603, 0.04, 0.9460000000000001, 0.112, 192.0, 0.0, 0.0, 0.0, 0.0, 0.0, 0.0, 0.0, 0.0, 0.0, 1.6665552870460668E9, 0.0, 2022-10-23 13:01:27.046
0.0, -63461.83281681929, -92905.04818022826, 54046.69690688812, -1250.6248057633409, 82348.72160538693, 62048.867291077055, 18280.687127195255, 15854.360563082762, 0.04, 0.9460000000000001, 0.112, 192.0, 0.0, 0.0, 0.0, 0.0, 0.0, 0.0, 0.0, 0.0, 0.0, 1.666555287046082E9, 0.0, 2022-10-23 13:01:27.046
1.0, -63391.04484212933, -92836.49537998384, 51837.562243647844, -2534.8889869319187, 81986.77980742215, 60965.008850694765, 16770.670327028078, 14166.222711351242, 0.04, 0.9460000000000001, 0.112, 192.0, 0.0, 0.0, 0.0, 0.0, 0.0, 0.0, 0.0, 0.0, 0.0, 1.6665552870460973E9, 0.0, 2022-10-23 13:01:27.046
2.0, -63424.907734979126, -92872.99577867935, 51025.05398095298, -2849.08745874017, 82138.77166971823, 60676.51488501011, 16374.396249579937, 13910.317589082431, 0.04, 0.9460000000000001, 0.112, 192.0, 0.0, 0.0, 0.0, 0.0, 0.0, 0.0, 0.0, 0.0, 0.0, 1.6665552870461228E9, 0.0, 2022-10-23 13:01:27.046
3.0, -63488.49844795447, -92940.25217774537, 52179.365119858405, -2147.4438485436262, 82378.98586737942, 61268.72435435347, 17215.112413777402, 14910.37933950178, 0.04, 0.9460000000000001, 0.112, 192.0, 0.0, 0.0, 0.0, 0.0, 0.0, 0.0, 0.0, 0.0, 0.0, 1.6665552870461328E9, 0.0, 2022-10-23 13:01:27.046
4.0, -63488.096116554276, -92948.29880574928, 54088.53937250846, -1208.938802354193, 82415.7544870084, 62078.81862864717, 18338.689904056777, 15969.15912260522, 0.032, 0.9480000000000001, 0.112, 192.0, 1.0, 0.0, 29.0, 160.0, 3.0, 128.0, 0.0, 0.0, 0.0, 1.666555287046143E9, 0.0, 2022-10-23 13:01:27.046
5.0, -63404.43353705807, -92867.9666361769, 52242.709963644746, -2329.7670280655657, 82022.83317122856, 61141.85585282515, 17027.022484185993, 14435.717694248879, 0.032, 0.9480000000000001, 0.112, 192.0, 0.0, 0.0, 0.0, 0.0, 0.0, 0.0, 0.0, 0.0, 0.0, 1.6665552870461583E9, 0.0, 2022-10-23 13:01:27.046
6.0, -63425.44417684605, -92883.45639508443, 51005.719721999136, -2890.5499447047646, 82108.64151819248, 60640.8638526039, 16336.241821794729, 13849.990230797557, 0.032, 0.9480000000000001, 0.112, 192.0, 0.0, 0.0, 0.0, 0.0, 0.0, 0.0, 0.0, 0.0, 0.0, 1.6665552870461683E9, 0.0, 2022-10-23 13:01:27.046
7.0, -63468.62774713371, -92921.87904380311, 51764.47203927899, -2388.1497845828276, 82335.17644824702, 61054.12525583807, 16937.123767986748, 14624.232306984939, 0.032, 0.9480000000000001, 0.112, 192.0, 0.0, 0.0, 0.0, 0.0, 0.0, 0.0, 0.0, 0.0, 0.0, 1.666555287046178E9, 0.0, 2022-10-23 13:01:27.046
8.0, -63493.0358520789, -92949.86342786116, 53966.29768208238, -1244.1875033602123, 82480.90982209562, 62036.12679673753, 18294.254636079626, 15981.407878566728, 0.032, 0.9480000000000001, 0.112, 192.0, 0.0, 0.0, 0.0, 0.0, 0.0, 0.0, 0.0, 0.0, 0.0, 1.666555287046188E9, 0.0, 2022-10-23 13:01:27.046
9.0, -63414.58122904077, -92879.41072933802, 52689.834259728705, -2090.9833420495206, 82072.5658026416, 61343.1780151341, 17319.964447017246, 14762.231977252004, 0.032, 0.9480000000000001, 0.112, 192.0, 0.0, 0.0, 0.0, 0.0, 0.0, 0.0, 0.0, 0.0, 0.0, 1.666555287046198E9, 0.0, 2022-10-23 13:01:27.046
10.0, -63420.25857213242, -92881.37768285008, 51018.169643660745, -2917.372038051133, 82062.66397984792, 60610.71134933369, 16313.443042450315, 13811.2099541676, 0.032, 0.9480000000000001, 0.112, 192.0, 0.0, 0.0, 0.0, 0.0, 0.0, 0.0, 0.0, 0.0, 0.0, 1.666555287046208E9, 0.0, 2022-10-23 13:01:27.046
11.0, -63455.75314232745, -92909.47382563041, 51437.91305278696, -2582.4087956439016, 82283.58862204416, 60880.63101537598, 16709.605361176178, 14388.197885536896, 0.032, 0.9480000000000001, 0.112, 192.0, 0.0, 0.0, 0.0, 0.0, 0.0, 0.0, 0.0, 0.0, 0.0, 1.6665552870462284E9, 0.0, 2022-10-23 13:01:27.046
12.0, -63500.389576004694, -92953.28324476282, 53691.01359737082, -1371.5924467554626, 82495.93019436959, 61918.53426915816, 18145.660238940745, 15875.505313337484, 0.032, 0.9480000000000001, 0.112, 192.0, 0.0, 0.0, 0.0, 0.0, 0.0, 0.0, 0.0, 0.0, 0.0, 1.6665552870462384E9, 0.0, 2022-10-23 13:01:27.046
13.0, -63425.31006637932, -92889.51371783183, 53141.294794236994, -1841.0237838058215, 82138.74931797378, 61547.58471817789, 17620.304837263207, 15107.320559897491, 0.032, 0.9480000000000001, 0.112, 192.0, 0.0, 0.0, 0.0, 0.0, 0.0, 0.0, 0.0, 0.0, 0.0, 1.6665552870462484E9, 0.0, 2022-10-23 13:01:27.046
