%OpenBCI Raw EEG Data
%Number of channels = 8
%Sample Rate = 250 Hz
%Board = OpenBCI_GUI$BoardCytonSerial
Sample Index, EXG Channel 0, EXG Channel 1, EXG Channel 2, EXG Channel 3, EXG Channel 4, EXG Channel 5, EXG Channel 6, EXG Channel 7, Accel Channel 0, Accel Channel 1, Accel Channel 2, Other, Other, Other, Other, Other, Other, Other, Analog Channel 0, Analog Channel 1, Analog Channel 2, Timestamp, Other, Timestamp (Formatted)
145.0, -73327.73635718065, -104980.17579080771, 65358.110112918635, 18053.705162251612, 76734.65630229191, 88072.10929061286, 38720.95510017337, 35278.18295695579, 0.0, 0.0, 0.0, 192.0, 0.0, 0.0, 0.0, 0.0, 0.0, 0.0, 0.0, 0.0, 0.0, 1.6665557082447803E9, 0.0, 2022-10-23 13:08:28.244
146.0, -73354.49139529365, -105003.46630853014, 65340.09460688766, 18363.902671802363, 76865.52576607773, 88140.1032972459, 38830.21042707091, 35565.71579762886, 0.0, 0.0, 0.0, 192.0, 0.0, 0.0, 0.0, 0.0, 0.0, 0.0, 0.0, 0.0, 0.0, 1.6665557082448027E9, 0.0, 2022-10-23 13:08:28.244
147.0, -73394.29985216855, -105046.02402997304, 67285.2328163663, 18757.00280153785, 77001.424372366, 89058.4694216811, 40094.916831841096, 36941.868000253206, 0.0, 0.0, 0.0, 192.0, 0.0, 0.0, 0.0, 0.0, 0.0, 0.0, 0.0, 0.0, 0.0, 1.6665557082448149E9, 0.0, 2022-10-23 13:08:28.244
148.0, -73337.61582822989, -104997.90072416076, 67805.67083426367, 18361.488683401192, 76809.91462587293, 89199.86655710537, 40269.59571475932, 36910.01676440439, 0.0, 0.0, 0.0, 192.0, 0.0, 0.0, 0.0, 0.0, 0.0, 0.0, 0.0, 0.0, 0.0, 1.666555708244833E9, 0.0, 2022-10-23 13:08:28.244
149.0, -73302.16596152377, -104963.25552025504, 65534.93476330457, 18007.079423317842, 76691.0033453707, 88128.18981745122, 38793.93354581995, 35328.362623257955, 0.0, 0.0, 0.0, 192.0, 0.0, 0.0, 0.0, 0.0, 0.0, 0.0, 0.0, 0.0, 0.0, 1.66655570824485E9, 0.0, 2022-10-23 13:08:28.244
150.0, -73349.79752895804, -105007.17669810972, 65193.78008768322, 18309.34206358696, 76842.74933847778, 88050.87513338032, 38701.01734411924, 35410.03589749764, 0.0, 0.0, 0.0, 192.0, 0.0, 0.0, 0.0, 0.0, 0.0, 0.0, 0.0, 0.0, 0.0, 1.666555708244867E9, 0.0, 2022-10-23 13:08:28.244
151.0, -73400.58069236048, -105053.66832657675, 66846.02103781952, 18702.106917155616, 76992.28250888379, 88869.32896010029, 39820.19154074092, 36662.94058119543, 0.0, 0.0, 0.0, 192.0, 0.0, 0.0, 0.0, 0.0, 0.0, 0.0, 0.0, 0.0, 0.0, 1.666555708244884E9, 0.0, 2022-10-23 13:08:28.244
152.0, -73352.32327608149, -105010.75297722257, 68072.19303514875, 18488.647757607432, 76862.88826023201, 89345.15289606487, 40458.356196684384, 37147.61580796431, 0.018000000000000002, 0.9560000000000001, 0.096, 192.0, 0.0, 144.0, 29.0, 224.0, 3.0, 0.0, 0.0, 0.0, 0.0, 1.666555708244901E9, 0.0, 2022-10-23 13:08:28.244
153.0, -73300.80250511199, -104959.4780754421, 65847.25568857857, 17989.868580087255, 76688.0976185915, 88263.86490629494, 38966.31019905928, 35485.69655247886, 0.018000000000000002, 0.9560000000000001, 0.096, 192.0, 0.0, 0.0, 0.0, 0.0, 0.0, 0.0, 0.0, 0.0, 0.0, 1.66655570824492E9, 0.0, 2022-10-23 13:08:28.244
154.0, -73344.92484866678, -104999.86767767284, 65131.396368908456, 18253.28388849305, 76822.81158242364, 88006.59632761436, 38626.65309031643, 35301.33936421148, 0.018000000000000002, 0.9560000000000001, 0.096, 192.0, 0.0, 0.0, 0.0, 0.0, 0.0, 0.0, 0.0, 0.0, 0.0, 1.666555708244934E9, 0.0, 2022-10-23 13:08:28.244
155.0, -73386.74496254265, -105041.35251538188, 66385.2174741289, 18638.158576268983, 76974.11054064162, 88645.63270159159, 39513.9279382143, 36352.161926288834, 0.018000000000000002, 0.9560000000000001, 0.096, 192.0, 0.0, 0.0, 0.0, 0.0, 0.0, 0.0, 0.0, 0.0, 0.0, 1.6665557082449477E9, 0.0, 2022-10-23 13:08:28.244
156.0, -73371.21050014622, -105031.22717514363, 68161.37649552543, 18613.281084690225, 76921.87451384956, 89400.4064083584, 40536.56495053351, 37290.46580677817, 0.018000000000000002, 0.9560000000000001, 0.096, 192.0, 0.0, 0.0, 0.0, 0.0, 0.0, 0.0, 0.0, 0.0, 0.0, 1.6665557082449615E9, 0.0, 2022-10-23 13:08:28.244
157.0, -73296.26510098757, -104958.13697077478, 66230.52105075373, 18003.167868038163, 76683.11317957798, 88440.66720493641, 39200.847053628815, 35735.74551770038, 0.018000000000000002, 0.9560000000000001, 0.096, 192.0, 0.0, 0.0, 0.0, 0.0, 0.0, 0.0, 0.0, 0.0, 0.0, 1.666555708244975E9, 0.0, 2022-10-23 13:08:28.244
158.0, -73330.12799383736, -104985.27198854352, 65146.640258626976, 18200.243198900604, 76805.98071884879, 88017.39222018626, 38618.38294486797, 35270.248087674154, 0.018000000000000002, 0.9560000000000001, 0.096, 192.0, 0.0, 0.0, 0.0, 0.0, 0.0, 0.0, 0.0, 0.0, 0.0, 1.666555708244989E9, 0.0, 2022-10-23 13:08:28.244
159.0, -73372.59630830244, -105023.38171283981, 66009.84227774647, 18544.05773211214, 76933.27390352177, 88476.5864582761, 39267.879935250276, 36089.50657719452, 0.018000000000000002, 0.9560000000000001, 0.096, 192.0, 0.0, 0.0, 0.0, 0.0, 0.0, 0.0, 0.0, 0.0, 0.0, 1.6665557082450027E9, 0.0, 2022-10-23 13:08:28.245
160.0, -73393.60694809043, -105046.42636137323, 68084.10651494343, 18692.406260062013, 76948.02605486228, 89373.33844582301, 40503.37261001737, 37306.42495231926, 0.018000000000000002, 0.9560000000000001, 0.096, 192.0, 0.0, 0.0, 0.0, 0.0, 0.0, 0.0, 0.0, 0.0, 0.0, 1.6665557082450163E9, 0.0, 2022-10-23 13:08:28.245
161.0, -73326.61876995787, -104984.53438097649, 66656.0312099494, 18047.46902554858, 76680.7438946657, 88624.44324784796, 39455.455774719216, 36008.81677971086, 0.018000000000000002, 0.9560000000000001, 0.096, 192.0, 0.0, 0.0, 0.0, 0.0, 0.0, 0.0, 0.0, 0.0, 0.0, 1.6665557082451615E9, 0.0, 2022-10-23 13:08:28.245
162.0, -73338.06286311899, -104992.26808455803, 65155.8268255981, 18141.21224179414, 76762.90890728342, 87992.20180418514, 38582.39663629492, 35207.886720643844, 0.024, 0.9540000000000001, 0.094, 192.0, 0.0, 192.0, 29.0, 208.0, 2.0, 240.0, 0.0, 0.0, 0.0, 1.6665557082451768E9, 0.0, 2022-10-23 13:08:28.245
163.0, -73378.29600313854, -105031.56245131046, 65664.26195672297, 18478.231844691258, 76903.30021420721, 88295.91730784385, 39019.082667718256, 35829.19816126802, 0.024, 0.9540000000000001, 0.094, 192.0, 0.0, 0.0, 0.0, 0.0, 0.0, 0.0, 0.0, 0.0, 0.0, 1.6665557082451923E9, 0.0, 2022-10-23 13:08:28.245
164.0, -73405.05104125154, -105056.5964051004, 67869.52976817248, 18769.720944132918, 76993.84713099565, 89294.57089836251, 40391.591535996384, 37241.0908032764, 0.024, 0.9540000000000001, 0.094, 192.0, 0.0, 0.0, 0.0, 0.0, 0.0, 0.0, 0.0, 0.0, 0.0, 1.666555708245206E9, 0.0, 2022-10-23 13:08:28.245
165.0, -73332.6090374719, -104988.89297114528, 67125.79782316659, 18163.675744971722, 76740.08777619454, 88858.5777710173, 39768.693121515884, 36362.600190949466, 0.024, 0.9540000000000001, 0.094, 192.0, 0.0, 0.0, 0.0, 0.0, 0.0, 0.0, 0.0, 0.0, 0.0, 1.6665557082452202E9, 0.0, 2022-10-23 13:08:28.245
166.0, -73332.13965083833, -104986.83661065539, 65269.86542580908, 18099.749755829544, 76761.05371249362, 88051.32216826943, 38641.96403526831, 35235.53582853506, 0.024, 0.9540000000000001, 0.094, 192.0, 0.0, 0.0, 0.0, 0.0, 0.0, 0.0, 0.0, 0.0, 0.0, 1.666555708245234E9, 0.0, 2022-10-23 13:08:28.245
167.0, -73368.26006987812, -105019.24664011558, 65449.57345122975, 18415.40109102739, 76894.0465920027, 88207.33734456747, 38873.997494458854, 35650.205391669915, 0.024, 0.9540000000000001, 0.094, 192.0, 0.0, 0.0, 0.0, 0.0, 0.0, 0.0, 0.0, 0.0, 0.0, 1.6665557082452507E9, 0.0, 2022-10-23 13:08:28.245
168.0, -73404.33578542898, -105049.82382653044, 67546.3905985821, 18782.886121617095, 77013.67312832751, 89180.1970219847, 40210.20712974157, 37074.63736231773, 0.024, 0.9540000000000001, 0.094, 192.0, 0.0, 0.0, 0.0, 0.0, 0.0, 0.0, 0.0, 0.0, 0.0, 1.6665557082452652E9, 0.0, 2022-10-23 13:08:28.245
169.0, -73335.31359855099, -104987.10483158885, 67552.96201145196, 18290.879522666877, 76793.44139020937, 89071.32167474291, 40046.3017876508, 36685.38173262856, 0.024, 0.9540000000000001, 0.094, 192.0, 0.0, 0.0, 0.0, 0.0, 0.0, 0.0, 0.0, 0.0, 0.0, 1.6665557082452788E9, 0.0, 2022-10-23 13:08:28.245
170.0, -73325.30001703501, -104976.57715995041, 65411.173154255535, 18059.538967554447, 76740.91479073939, 88095.91389845776, 38691.5849079591, 35267.90115450635, 0.024, 0.9540000000000001, 0.094, 192.0, 0.0, 0.0, 0.0, 0.0, 0.0, 0.0, 0.0, 0.0, 0.0, 1.6665557082452924E9, 0.0, 2022-10-23 13:08:28.245
171.0, -73360.39225582985, -105007.75784346556, 65280.996594547825, 18365.06496251404, 76871.91836499196, 88115.58343357843, 38735.930768958424, 35489.138721124975, 0.022, 0.9520000000000001, 0.098, 192.0, 0.0, 176.0, 29.0, 192.0, 3.0, 16.0, 0.0, 0.0, 0.0, 1.6665557082453065E9, 0.0, 2022-10-23 13:08:28.245
172.0, -73398.83725629297, -105043.61004157187, 67108.18464853581, 18768.178673765502, 77018.36699466313, 88986.16152836819, 39939.28163519879, 36818.62048132664, 0.022, 0.9520000000000001, 0.098, 192.0, 0.0, 0.0, 0.0, 0.0, 0.0, 0.0, 0.0, 0.0, 0.0, 1.6665557082453215E9, 0.0, 2022-10-23 13:08:28.245
173.0, -73364.59438378745, -105019.31369534894, 67913.33918730488, 18433.617762758466, 76839.10600413156, 89266.63121779337, 40301.9610407306, 36995.959221835044, 0.022, 0.9520000000000001, 0.098, 192.0, 0.0, 0.0, 0.0, 0.0, 0.0, 0.0, 0.0, 0.0, 0.0, 1.666555708245335E9, 0.0, 2022-10-23 13:08:28.245
174.0, -73329.90447639281, -104983.7297181761, 65665.82657883485, 18019.61875195727, 76697.97708964076, 88211.45006554724, 38832.04327011624, 35389.181719920845, 0.022, 0.9520000000000001, 0.098, 192.0, 0.0, 0.0, 0.0, 0.0, 0.0, 0.0, 0.0, 0.0, 0.0, 1.6665557082453487E9, 0.0, 2022-10-23 13:08:28.245
175.0, -73362.5156715531, -105010.39534931128, 65199.479782519316, 18310.571409532, 76839.53068727622, 88080.46884303914, 38658.50432616524, 35378.07290292656, 0.022, 0.9520000000000001, 0.098, 192.0, 0.0, 0.0, 0.0, 0.0, 0.0, 0.0, 0.0, 0.0, 0.0, 1.6665557082453628E9, 0.0, 2022-10-23 13:08:28.245
176.0, -73404.06756449552, -105048.75094279659, 66676.12542821473, 18702.732766000365, 76981.79954073424, 88805.7605988694, 39666.433890632856, 36533.434573821374, 0.022, 0.9520000000000001, 0.098, 192.0, 0.0, 0.0, 0.0, 0.0, 0.0, 0.0, 0.0, 0.0, 0.0, 1.6665557082454224E9, 0.0, 2022-10-23 13:08:28.245
177.0, -73366.67309602178, -105018.77725348203, 68089.42623012379, 18561.067409642626, 76887.16225471048, 89363.36956779595, 40429.343632381395, 37174.50495654404, 0.022, 0.9520000000000001, 0.098, 192.0, 0.0, 0.0, 0.0, 0.0, 0.0, 0.0, 0.0, 0.0, 0.0, 1.6665557082454364E9, 0.0, 2022-10-23 13:08:28.245
178.0, -73313.6547581738, -104967.278834257, 65954.7675794086, 18020.155193824197, 76697.61946172947, 88331.5459885056, 38994.51810056187, 35550.13663174351, 0.022, 0.9520000000000001, 0.098, 192.0, 0.0, 0.0, 0.0, 0.0, 0.0, 0.0, 0.0, 0.0, 0.0, 1.66655570824545E9, 0.0, 2022-10-23 13:08:28.245
179.0, -73348.97051441319, -104994.39150028129, 65107.01061570772, 18257.933051339754, 76822.29749230116, 88019.04624927595, 38570.28199080015, 35269.68929406277, 0.022, 0.9520000000000001, 0.098, 192.0, 0.0, 0.0, 0.0, 0.0, 0.0, 0.0, 0.0, 0.0, 0.0, 1.6665557082454636E9, 0.0, 2022-10-23 13:08:28.245
180.0, -73395.01510799112, -105039.11734093635, 66199.34036723858, 18624.278142962237, 76960.54303175725, 88578.39865427001, 39355.632883981816, 36228.10974456188, 0.022, 0.9520000000000001, 0.098, 192.0, 0.0, 0.0, 0.0, 0.0, 0.0, 0.0, 0.0, 0.0, 0.0, 1.6665557082454772E9, 0.0, 2022-10-23 13:08:28.245
181.0, -73401.54181737207, -105050.91906200875, 68134.7332161347, 18675.08365810915, 76937.87836287956, 89419.78537080114, 40497.29293552553, 37307.274318608564, 0.022, 0.9460000000000001, 0.096, 192.0, 0.0, 176.0, 29.0, 144.0, 3.0, 0.0, 0.0, 0.0, 0.0, 1.6665557082454906E9, 0.0, 2022-10-23 13:08:28.245
182.0, -73327.73635718065, -104981.65100594176, 66367.7160582204, 18038.818900444378, 76683.67197318935, 88527.36962167855, 39251.160830397705, 35822.20206525351, 0.022, 0.9460000000000001, 0.096, 192.0, 0.0, 0.0, 0.0, 0.0, 0.0, 0.0, 0.0, 0.0, 0.0, 1.6665557082455049E9, 0.0, 2022-10-23 13:08:28.245
183.0, -73351.94329642574, -105004.06980563042, 65138.168947478414, 18204.26651290256, 76796.70474489985, 88035.16185702823, 38567.91270588788, 35236.22873261318, 0.022, 0.9460000000000001, 0.096, 192.0, 0.0, 0.0, 0.0, 0.0, 0.0, 0.0, 0.0, 0.0, 0.0, 1.6665557082455187E9, 0.0, 2022-10-23 13:08:28.245
184.0, -73386.74496254265, -105033.90938447826, 65856.37520031634, 18542.738979189275, 76924.84729586211, 88427.03264081868, 39127.37686960422, 35974.68566592761, 0.022, 0.9460000000000001, 0.096, 192.0, 0.0, 0.0, 0.0, 0.0, 0.0, 0.0, 0.0, 0.0, 0.0, 1.6665557082455323E9, 0.0, 2022-10-23 13:08:28.245
185.0, -73401.72063132771, -105049.33208815243, 68041.72760745617, 18759.059162027737, 76979.38555233307, 89408.11776019547, 40464.56998164296, 37312.19170238873, 0.022, 0.9460000000000001, 0.096, 192.0, 0.0, 0.0, 0.0, 0.0, 0.0, 0.0, 0.0, 0.0, 0.0, 1.6665557082455459E9, 0.0, 2022-10-23 13:08:28.245
186.0, -73317.56631345348, -104973.35850874883, 66835.78393885898, 18111.48442166858, 76705.95666241129, 88750.06005168677, 39543.20872345075, 36134.92532192771, 0.022, 0.9460000000000001, 0.096, 192.0, 0.0, 0.0, 0.0, 0.0, 0.0, 0.0, 0.0, 0.0, 0.0, 1.6665557082455857E9, 0.0, 2022-10-23 13:08:28.245
187.0, -73337.88404916335, -104990.99403512408, 65206.94526516739, 18150.667029698736, 76770.21792772031, 88057.96063637265, 38578.68624671534, 35212.06649685699, 0.022, 0.9460000000000001, 0.096, 192.0, 0.0, 0.0, 0.0, 0.0, 0.0, 0.0, 0.0, 0.0, 0.0, 1.6665557082455995E9, 0.0, 2022-10-23 13:08:28.245
188.0, -73386.47674160919, -105034.31171587846, 65593.00459539946, 18457.60118455901, 76895.41004841447, 88312.85993014097, 38946.81947789425, 35759.8406982232, 0.022, 0.9460000000000001, 0.096, 192.0, 0.0, 0.0, 0.0, 0.0, 0.0, 0.0, 0.0, 0.0, 0.0, 1.6665557082456155E9, 0.0, 2022-10-23 13:08:28.245
189.0, -73417.18803849079, -105060.28444293553, 67776.65826996068, 18767.28460398729, 76993.69066878446, 89320.20834925275, 40332.76174459002, 37204.63510806979, 0.022, 0.9460000000000001, 0.096, 192.0, 0.0, 0.0, 0.0, 0.0, 0.0, 0.0, 0.0, 0.0, 0.0, 1.6665557082456293E9, 0.0, 2022-10-23 13:08:28.245
190.0, -73344.03077888855, -104994.279741559, 67277.49911278476, 18191.011928440563, 76729.02366268917, 88977.75727245299, 39853.853267890605, 36479.38805572844, 0.022, 0.9460000000000001, 0.096, 192.0, 0.0, 0.0, 0.0, 0.0, 0.0, 0.0, 0.0, 0.0, 0.0, 1.6665557082456431E9, 0.0, 2022-10-23 13:08:28.245
191.0, -73344.12018586638, -104988.84826765637, 65283.32117597118, 18082.24833992104, 76725.9167702099, 88085.56504077495, 38620.6181193135, 35220.22488358318, 0.02, 0.9500000000000001, 0.094, 192.0, 0.0, 160.0, 29.0, 176.0, 2.0, 240.0, 0.0, 0.0, 0.0, 1.6665557082456567E9, 0.0, 2022-10-23 13:08:28.245
192.0, -73385.4709131087, -105027.04739893049, 65386.966215010434, 18402.012396098664, 76863.58116431012, 88227.83389423299, 38822.47672348937, 35594.214271809375, 0.02, 0.9500000000000001, 0.094, 192.0, 0.0, 0.0, 0.0, 0.0, 0.0, 0.0, 0.0, 0.0, 0.0, 1.666555708245716E9, 0.0, 2022-10-23 13:08:28.245
193.0, -73418.75266060265, -105060.17268421325, 67398.42205028798, 18786.06006932975, 76989.48854082686, 89167.05419624498, 40120.71074494252, 36992.29353574438, 0.02, 0.9500000000000001, 0.094, 192.0, 0.0, 0.0, 0.0, 0.0, 0.0, 0.0, 0.0, 0.0, 0.0, 1.6665557082457304E9, 0.0, 2022-10-23 13:08:28.245
194.0, -73360.92869769677, -105009.36716906633, 67717.06851924284, 18347.40708439435, 76784.90302382744, 89208.22610953166, 40162.5308588184, 36814.50776034686, 0.02, 0.9500000000000001, 0.094, 192.0, 0.0, 0.0, 0.0, 0.0, 0.0, 0.0, 0.0, 0.0, 0.0, 1.6665557082457447E9, 0.0, 2022-10-23 13:08:28.245
195.0, -73332.85490666091, -104979.12525881831, 65525.99406552244, 18050.86649070579, 76709.64470024643, 88201.50353926462, 38757.99194073581, 35314.70570739576, 0.02, 0.9500000000000001, 0.094, 192.0, 0.0, 0.0, 0.0, 0.0, 0.0, 0.0, 0.0, 0.0, 0.0, 1.6665557082457583E9, 0.0, 2022-10-23 13:08:28.245
196.0, -73369.84704373444, -105013.23402085711, 65271.36299268759, 18347.608250094443, 76845.7891757237, 88160.7563091226, 38716.48475128231, 35447.22920027128, 0.02, 0.9500000000000001, 0.094, 192.0, 0.0, 0.0, 0.0, 0.0, 0.0, 0.0, 0.0, 0.0, 0.0, 1.6665557082457724E9, 0.0, 2022-10-23 13:08:28.245
197.0, -73413.075317511, -105052.93071900973, 66999.82339141649, 18754.745275347865, 77004.44185786747, 89000.26547911948, 39875.42270128998, 36737.41659372051, 0.02, 0.9500000000000001, 0.094, 192.0, 0.0, 0.0, 0.0, 0.0, 0.0, 0.0, 0.0, 0.0, 0.0, 1.666555708245786E9, 0.0, 2022-10-23 13:08:28.245
198.0, -73374.38444785887, -105019.5372127935, 68061.93358444376, 18492.492257653746, 76856.83093748461, 89399.17706241335, 40406.3883908258, 37097.86082480679, 0.02, 0.9500000000000001, 0.094, 192.0, 0.0, 0.0, 0.0, 0.0, 0.0, 0.0, 0.0, 0.0, 0.0, 1.6665557082458003E9, 0.0, 2022-10-23 13:08:28.245
199.0, -73327.28932229153, -104976.17482855021, 65827.92142962474, 18026.436034016137, 76693.17146458286, 88331.9483199058, 38924.9371200725, 35452.77243289619, 0.02, 0.9500000000000001, 0.094, 192.0, 0.0, 0.0, 0.0, 0.0, 0.0, 0.0, 0.0, 0.0, 0.0, 1.6665557082458136E9, 0.0, 2022-10-23 13:08:28.245
200.0, -73362.35920934191, -105003.8909916748, 65183.408878255956, 18294.925188413286, 76821.04579461168, 88089.47659605464, 38619.1652559239, 35312.761105628146, 0.016, 0.9580000000000001, 0.09, 192.0, 0.0, 128.0, 29.0, 240.0, 2.0, 208.0, 0.0, 0.0, 0.0, 1.6665557082458277E9, 0.0, 2022-10-23 13:08:28.245
201.0, -73411.75656458814, -105045.82286427294, 66562.26564195938, 18693.74736472933, 76992.99776470635, 88789.9579155395, 39584.09006405951, 36438.39495639741, 0.016, 0.9580000000000001, 0.09, 192.0, 0.0, 0.0, 0.0, 0.0, 0.0, 0.0, 0.0, 0.0, 0.0, 1.6665557082458427E9, 0.0, 2022-10-23 13:08:28.245
202.0, -73391.21531143371, -105030.53427106551, 68242.91565929838, 18617.72908183683, 76923.88617085054, 89502.9785636638, 40541.415279080305, 37286.35308579839, 0.016, 0.9580000000000001, 0.09, 192.0, 0.0, 0.0, 0.0, 0.0, 0.0, 0.0, 0.0, 0.0, 0.0, 1.6665557082458568E9, 0.0, 2022-10-23 13:08:28.245
203.0, -73337.10173810742, -104984.28851178748, 66217.95937036983, 18025.18433632664, 76698.29001406312, 88499.74286553179, 39146.6887768136, 35677.54157513876, 0.016, 0.9580000000000001, 0.09, 192.0, 0.0, 0.0, 0.0, 0.0, 0.0, 0.0, 0.0, 0.0, 0.0, 1.6665557082458704E9, 0.0, 2022-10-23 13:08:28.245
204.0, -73370.31643036801, -105015.33508483591, 65240.91991673946, 18244.074969777463, 76826.4325650254, 88126.58049185044, 38631.771639796694, 35288.10713149395, 0.016, 0.9580000000000001, 0.09, 192.0, 0.0, 0.0, 0.0, 0.0, 0.0, 0.0, 0.0, 0.0, 0.0, 1.6665557082458844E9, 0.0, 2022-10-23 13:08:28.245
205.0, -73407.95676803074, -105052.61779458735, 66216.57356221361, 18600.719404306343, 76961.32534281319, 88640.4247451335, 39348.212104822655, 36171.470424112136, 0.016, 0.9580000000000001, 0.09, 192.0, 0.0, 0.0, 0.0, 0.0, 0.0, 0.0, 0.0, 0.0, 0.0, 1.666555708245898E9, 0.0, 2022-10-23 13:08:28.245
206.0, -73403.48641913968, -105050.91906200875, 68239.45113890781, 18709.75121375933, 76957.97258114489, 89509.4829213003, 40543.225770381185, 37330.63189156436, 0.016, 0.9580000000000001, 0.09, 192.0, 0.0, 0.0, 0.0, 0.0, 0.0, 0.0, 0.0, 0.0, 0.0, 1.6665557082459116E9, 0.0, 2022-10-23 13:08:28.245
207.0, -73336.90057240732, -104991.37401477981, 66629.6785032366, 18062.10941816681, 76688.18702556932, 88664.58698088968, 39372.28493360102, 35917.331089655294, 0.016, 0.9580000000000001, 0.09, 192.0, 0.0, 0.0, 0.0, 0.0, 0.0, 0.0, 0.0, 0.0, 0.0, 1.6665557082459393E9, 0.0, 2022-10-23 13:08:28.245
208.0, -73359.90051745182, -105008.85307894387, 65237.90243123799, 18184.619329526347, 76787.9205093289, 88087.8449187094, 38571.89131640093, 35201.22590079616, 0.016, 0.9580000000000001, 0.09, 192.0, 0.0, 0.0, 0.0, 0.0, 0.0, 0.0, 0.0, 0.0, 0.0, 1.666555708245953E9, 0.0, 2022-10-23 13:08:28.245
209.0, -73397.45144813675, -105039.92200373675, 65852.55305201448, 18522.868278368507, 76930.63639767605, 88449.63025446299, 39079.7229504255, 35893.30296436584, 0.016, 0.9580000000000001, 0.09, 192.0, 0.0, 0.0, 0.0, 0.0, 0.0, 0.0, 0.0, 0.0, 0.0, 1.6665557082459686E9, 0.0, 2022-10-23 13:08:28.245
210.0, -73420.16082050334, -105059.72564932414, 68044.43216853526, 18775.979432580403, 76991.23197689439, 89428.12257148298, 40428.22604515863, 37271.556230968985, 0.016, 0.96, 0.09, 192.0, 0.0, 128.0, 30.0, 0.0, 2.0, 208.0, 0.0, 0.0, 0.0, 1.6665557082459824E9, 0.0, 2022-10-23 13:08:28.245
211.0, -73348.72464522418, -104995.95612239315, 67105.01070082316, 18148.789483164488, 76725.13445915395, 88892.99945747847, 39673.58644885856, 36260.92210542227, 0.016, 0.96, 0.09, 192.0, 0.0, 0.0, 0.0, 0.0, 0.0, 0.0, 0.0, 0.0, 0.0, 1.6665557082459974E9, 0.0, 2022-10-23 13:08:28.245
212.0, -73345.88597367835, -104993.27391305851, 65323.777833435284, 18134.529070202003, 76766.70870384082, 88114.95758473368, 38594.377171322965, 35203.148150819325, 0.016, 0.96, 0.09, 192.0, 0.0, 0.0, 0.0, 0.0, 0.0, 0.0, 0.0, 0.0, 0.0, 1.6665557082460113E9, 0.0, 2022-10-23 13:08:28.246
213.0, -73383.21338691871, -105027.11445416385, 65586.18731334059, 18453.577870557056, 76901.3556124396, 88308.36722950546, 38880.52420383981, 35674.52408963729, 0.016, 0.96, 0.09, 192.0, 0.0, 0.0, 0.0, 0.0, 0.0, 0.0, 0.0, 0.0, 0.0, 1.6665557082460248E9, 0.0, 2022-10-23 13:08:28.246
214.0, -73431.60491366446, -105072.01910877456, 67737.98975205299, 18806.288398061803, 77015.48361962839, 89304.8303490675, 40248.80859241588, 37121.665432651695, 0.016, 0.96, 0.09, 192.0, 0.0, 0.0, 0.0, 0.0, 0.0, 0.0, 0.0, 0.0, 0.0, 1.666555708246039E9, 0.0, 2022-10-23 13:08:28.246
215.0, -73364.28145936507, -105011.42352955622, 67543.68603750301, 18260.61526067439, 76756.35984615801, 89101.65299196876, 39952.3797574496, 36587.59285063659, 0.016, 0.96, 0.09, 192.0, 0.0, 0.0, 0.0, 0.0, 0.0, 0.0, 0.0, 0.0, 0.0, 1.6665557082460501E9, 0.0, 2022-10-23 13:08:28.246
216.0, -73350.02104640259, -104995.57614273741, 65447.651201206594, 18071.58655781586, 76726.18499114335, 88148.82047758347, 38627.994194983745, 35220.29193881654, 0.016, 0.96, 0.09, 192.0, 0.0, 0.0, 0.0, 0.0, 0.0, 0.0, 0.0, 0.0, 0.0, 1.6665557082460604E9, 0.0, 2022-10-23 13:08:28.246
217.0, -73385.11328519741, -105029.2378698871, 65393.470572646926, 18379.817113854544, 76863.35764686557, 88196.65321071784, 38707.72286745583, 35486.59062225707, 0.016, 0.96, 0.09, 192.0, 0.0, 0.0, 0.0, 0.0, 0.0, 0.0, 0.0, 0.0, 0.0, 1.6665557082460709E9, 0.0, 2022-10-23 13:08:28.246
218.0, -73424.80998335005, -105068.26401570607, 67312.41253762395, 18778.952214592962, 77008.04048872477, 89102.8823379138, 39957.00656855185, 36860.3511882247, 0.016, 0.96, 0.09, 192.0, 0.0, 0.0, 0.0, 0.0, 0.0, 0.0, 0.0, 0.0, 0.0, 1.666555708246081E9, 0.0, 2022-10-23 13:08:28.246
219.0, -73368.6176977894, -105021.37005583884, 67915.5296582615, 18399.665462930854, 76817.15659107645, 89277.40475862083, 40183.13916720619, 36894.61641247469, 0.016, 0.96, 0.09, 192.0, 0.0, 0.0, 0.0, 0.0, 0.0, 0.0, 0.0, 0.0, 0.0, 1.6665557082460916E9, 0.0, 2022-10-23 13:08:28.246
220.0, -73338.53224975256, -104992.75982293604, 65662.92085205566, 18034.23679283104, 76701.66512747588, 88217.50738829463, 38717.87055943854, 35315.82329461852, 0.02, 0.9560000000000001, 0.08, 192.0, 0.0, 160.0, 29.0, 224.0, 2.0, 128.0, 0.0, 0.0, 0.0, 1.666555708246102E9, 0.0, 2022-10-23 13:08:28.246
221.0, -73380.48647409517, -105028.9920006981, 65279.36491720258, 18321.546116059555, 76830.27706507171, 88117.86331151288, 38594.35481957851, 35369.042798166614, 0.02, 0.9560000000000001, 0.08, 192.0, 0.0, 0.0, 0.0, 0.0, 0.0, 0.0, 0.0, 0.0, 0.0, 1.6665557082461128E9, 0.0, 2022-10-23 13:08:28.246
222.0, -73427.84982059596, -105070.92387329625, 66871.41261952074, 18724.257495910824, 76977.19508137644, 88900.42023663763, 39673.631152347465, 36597.137045519004, 0.02, 0.9560000000000001, 0.08, 192.0, 0.0, 0.0, 0.0, 0.0, 0.0, 0.0, 0.0, 0.0, 0.0, 1.6665557082461233E9, 0.0, 2022-10-23 13:08:28.246
223.0, -73392.2211399342, -105038.4467886027, 68160.99651586969, 18527.38333074848, 76852.51705080474, 89409.79414102962, 40359.516782703016, 37140.53030497197, 0.02, 0.9560000000000001, 0.08, 192.0, 0.0, 0.0, 0.0, 0.0, 0.0, 0.0, 0.0, 0.0, 0.0, 1.666555708246144E9, 0.0, 2022-10-23 13:08:28.246
224.0, -73340.11922360888, -104987.64127345578, 65955.37107650889, 18009.33694950783, 76666.86346135897, 88340.86666594347, 38878.44549160546, 35483.483729777785, 0.02, 0.9560000000000001, 0.08, 192.0, 0.0, 0.0, 0.0, 0.0, 0.0, 0.0, 0.0, 0.0, 0.0, 1.6665557082461543E9, 0.0, 2022-10-23 13:08:28.246
225.0, -73373.19980540274, -105014.91040169126, 65203.79366919919, 18266.069086321484, 76804.46080022583, 88070.81288943446, 38515.81078956256, 35274.04788423156, 0.02, 0.9560000000000001, 0.08, 192.0, 0.0, 0.0, 0.0, 0.0, 0.0, 0.0, 0.0, 0.0, 0.0, 1.666555708246166E9, 0.0, 2022-10-23 13:08:28.246
226.0, -73416.85276232395, -105054.0930097214, 66403.59060807117, 18648.88741360753, 76951.1105955971, 88683.36244623215, 39371.189698122704, 36296.12610293938, 0.02, 0.9560000000000001, 0.08, 192.0, 0.0, 0.0, 0.0, 0.0, 0.0, 0.0, 0.0, 0.0, 0.0, 1.6665557082461765E9, 0.0, 2022-10-23 13:08:28.246
227.0, -73410.88484655439, -105053.22129168765, 68231.56097311509, 18655.905861366497, 76908.30700496519, 89465.00294983423, 40435.780934784525, 37283.53676599703, 0.02, 0.9560000000000001, 0.08, 192.0, 0.0, 0.0, 0.0, 0.0, 0.0, 0.0, 0.0, 0.0, 0.0, 1.6665557082461865E9, 0.0, 2022-10-23 13:08:28.246
228.0, -73345.14836611133, -104992.73747119159, 66331.05919731369, 18038.0589411329, 76663.82362411304, 88509.6446883255, 39110.568357773824, 35732.12453509862, 0.02, 0.9560000000000001, 0.08, 192.0, 0.0, 0.0, 0.0, 0.0, 0.0, 0.0, 0.0, 0.0, 0.0, 1.666555708246197E9, 0.0, 2022-10-23 13:08:28.246
229.0, -73370.80816874602, -105016.11739589184, 65198.652767974476, 18227.579382369448, 76779.42684643589, 88063.81679341994, 38496.32006839753, 35229.83613369896, 0.02, 0.9560000000000001, 0.08, 192.0, 0.0, 0.0, 0.0, 0.0, 0.0, 0.0, 0.0, 0.0, 0.0, 1.6665557082462072E9, 0.0, 2022-10-23 13:08:28.246
230.0, -73407.42032616382, -105051.67902132023, 66007.65180678986, 18569.069334157626, 76908.50817066529, 88497.10535968607, 39111.88711069669, 36025.11120141878, 0.026000000000000002, 0.9540000000000001, 0.084, 192.0, 0.0, 208.0, 29.0, 208.0, 2.0, 160.0, 0.0, 0.0, 0.0, 1.6665557082462175E9, 0.0, 2022-10-23 13:08:28.246
231.0, -73421.45722168175, -105065.91708253826, 68124.29495147408, 18738.51790887331, 76944.74034842734, 89429.7542488282, 40392.26208833004, 37296.47842603665, 0.026000000000000002, 0.9540000000000001, 0.084, 192.0, 0.0, 0.0, 0.0, 0.0, 0.0, 0.0, 0.0, 0.0, 0.0, 1.6665557082462296E9, 0.0, 2022-10-23 13:08:28.246
232.0, -73353.2620493486, -105002.72870096311, 66746.13109184874, 18087.21042719012, 76678.6428306869, 88695.20887079345, 39370.429738811225, 36025.11120141878, 0.026000000000000002, 0.9540000000000001, 0.084, 192.0, 0.0, 0.0, 0.0, 0.0, 0.0, 0.0, 0.0, 0.0, 0.0, 1.66655570824624E9, 0.0, 2022-10-23 13:08:28.246
233.0, -73368.6176977894, -105009.85890744436, 65224.26786712025, 18163.608689738357, 76755.24225893525, 88059.36879627334, 38484.272478136125, 35202.29878453002, 0.026000000000000002, 0.9540000000000001, 0.084, 192.0, 0.0, 0.0, 0.0, 0.0, 0.0, 0.0, 0.0, 0.0, 0.0, 1.6665557082462502E9, 0.0, 2022-10-23 13:08:28.246
234.0, -73407.59914011946, -105042.53715783801, 65704.83037290936, 18494.213341976803, 76893.71131583587, 88359.32920686355, 38912.9342333, 35813.440181427024, 0.026000000000000002, 0.9540000000000001, 0.084, 192.0, 0.0, 0.0, 0.0, 0.0, 0.0, 0.0, 0.0, 0.0, 0.0, 1.6665557082462604E9, 0.0, 2022-10-23 13:08:28.246
235.0, -73427.87217234042, -105064.91125403777, 67936.89792596077, 18795.447802000977, 76988.92974721549, 89390.23636463123, 40320.870616539796, 37259.62039942985, 0.026000000000000002, 0.9540000000000001, 0.084, 192.0, 0.0, 0.0, 0.0, 0.0, 0.0, 0.0, 0.0, 0.0, 0.0, 1.666555708246271E9, 0.0, 2022-10-23 13:08:28.246
236.0, -73347.45059579023, -104989.94350313468, 67221.17271675738, 18185.6922132602, 76713.26568284818, 88938.55231267838, 39694.64179213546, 36377.888784156894, 0.026000000000000002, 0.9540000000000001, 0.084, 192.0, 0.0, 0.0, 0.0, 0.0, 0.0, 0.0, 0.0, 0.0, 0.0, 1.6665557082462811E9, 0.0, 2022-10-23 13:08:28.246
237.0, -73353.79849121554, -104993.65389271425, 65318.033435110265, 18113.831354836388, 76735.61742730348, 88097.7467415031, 38525.8914263119, 35207.462037499194, 0.026000000000000002, 0.9540000000000001, 0.084, 192.0, 0.0, 0.0, 0.0, 0.0, 0.0, 0.0, 0.0, 0.0, 0.0, 1.6665557082462924E9, 0.0, 2022-10-23 13:08:28.246
238.0, -73389.6283375774, -105028.3885035978, 65451.09336985271, 18418.418576528857, 76860.6977892754, 88227.20804538824, 38727.88414095451, 35596.56120497718, 0.026000000000000002, 0.9540000000000001, 0.084, 192.0, 0.0, 0.0, 0.0, 0.0, 0.0, 0.0, 0.0, 0.0, 0.0, 1.666555708246312E9, 0.0, 2022-10-23 13:08:28.246
239.0, -73427.3804339624, -105065.91708253826, 67538.72395023394, 18804.276741060825, 77001.71494504392, 89205.40978973029, 40076.588401387744, 37044.39545206969, 0.02, 0.9580000000000001, 0.08600000000000001, 192.0, 0.0, 160.0, 29.0, 240.0, 2.0, 176.0, 0.0, 0.0, 0.0, 1.6665557082463224E9, 0.0, 2022-10-23 13:08:28.246
240.0, -73362.53802329756, -105011.17766036722, 67669.72752448649, 18327.178755662295, 76779.7174191138, 89169.57994336843, 40004.12404586364, 36743.60802693463, 0.02, 0.9580000000000001, 0.08600000000000001, 192.0, 0.0, 0.0, 0.0, 0.0, 0.0, 0.0, 0.0, 0.0, 0.0, 1.6665557082463331E9, 0.0, 2022-10-23 13:08:28.246
241.0, -73344.74603471113, -104993.34096829189, 65488.35372785971, 18066.713877524602, 76702.64860423192, 88157.89528583233, 38607.89997671843, 35272.19268944176, 0.02, 0.9580000000000001, 0.08600000000000001, 192.0, 0.0, 0.0, 0.0, 0.0, 0.0, 0.0, 0.0, 0.0, 0.0, 1.6665557082463434E9, 0.0, 2022-10-23 13:08:28.246
242.0, -73380.12884618388, -105023.44876807318, 65320.20155432243, 18378.118381275937, 76850.19246938139, 88160.57749516696, 38627.65891881692, 35472.26315406122, 0.02, 0.9580000000000001, 0.08600000000000001, 192.0, 0.0, 0.0, 0.0, 0.0, 0.0, 0.0, 0.0, 0.0, 0.0, 1.6665557082463536E9, 0.0, 2022-10-23 13:08:28.246
243.0, -73429.01211130765, -105070.99092852962, 67128.12240458994, 18775.1300662911, 76997.5798723197, 89032.16141845721, 39833.244959502816, 36805.388248609095, 0.02, 0.9580000000000001, 0.08600000000000001, 192.0, 0.0, 0.0, 0.0, 0.0, 0.0, 0.0, 0.0, 0.0, 0.0, 1.6665557082463636E9, 0.0, 2022-10-23 13:08:28.246
244.0, -73388.04136372106, -105036.9939252131, 67989.75980159758, 18453.913146723884, 76823.01274812374, 89329.14904703487, 40231.75421139648, 37023.04953611488, 0.02, 0.9580000000000001, 0.08600000000000001, 192.0, 0.0, 0.0, 0.0, 0.0, 0.0, 0.0, 0.0, 0.0, 0.0, 1.666555708246374E9, 0.0, 2022-10-23 13:08:28.246
245.0, -73344.8577934334, -104994.01152062554, 65744.66118152872, 18035.689656220635, 76688.11997033596, 88270.30220869806, 38757.2990366577, 35403.12920846095, 0.02, 0.9580000000000001, 0.08600000000000001, 192.0, 0.0, 0.0, 0.0, 0.0, 0.0, 0.0, 0.0, 0.0, 0.0, 1.666555708246384E9, 0.0, 2022-10-23 13:08:28.246
246.0, -73382.09579969595, -105025.05809367396, 65260.47769313785, 18327.894011484863, 76830.52293426072, 88137.42108791127, 38576.741644947724, 35384.66666754087, 0.02, 0.9580000000000001, 0.08600000000000001, 192.0, 0.0, 0.0, 0.0, 0.0, 0.0, 0.0, 0.0, 0.0, 0.0, 1.6665557082463942E9, 0.0, 2022-10-23 13:08:28.246
247.0, -73423.06654728253, -105064.17364647075, 66705.22739949553, 18712.3663678606, 76975.07166565319, 88855.18030586008, 39574.12118603244, 36531.221751120305, 0.02, 0.9580000000000001, 0.08600000000000001, 192.0, 0.0, 0.0, 0.0, 0.0, 0.0, 0.0, 0.0, 0.0, 0.0, 1.6665557082464044E9, 0.0, 2022-10-23 13:08:28.246
248.0, -73395.08216322448, -105042.33599213792, 68198.1004116655, 18591.242264657292, 76880.65789707398, 89454.7658508737, 40396.59832675437, 37235.39110844029, 0.02, 0.9580000000000001, 0.08600000000000001, 192.0, 0.0, 0.0, 0.0, 0.0, 0.0, 0.0, 0.0, 0.0, 0.0, 1.6665557082464147E9, 0.0, 2022-10-23 13:08:28.246
249.0, -73340.25333407562, -104989.85409615685, 66080.16086580287, 18029.60998172879, 76674.95479285179, 88411.90050982243, 38954.21790530896, 35594.43778925393, 0.02, 0.9580000000000001, 0.088, 192.0, 0.0, 160.0, 29.0, 240.0, 2.0, 192.0, 0.0, 0.0, 0.0, 1.666555708246425E9, 0.0, 2022-10-23 13:08:28.246
250.0, -73376.30669788203, -105024.8345762294, 65221.920933952446, 18271.344098012938, 76817.7824399212, 88104.92165147325, 38529.46770542475, 35305.87676833591, 0.02, 0.9580000000000001, 0.088, 192.0, 0.0, 0.0, 0.0, 0.0, 0.0, 0.0, 0.0, 0.0, 0.0, 1.6665557082464359E9, 0.0, 2022-10-23 13:08:28.246
251.0, -73409.78961107608, -105055.67998357773, 66269.4354378504, 18628.904954064485, 76950.79767117473, 88642.5258091123, 39290.65636285023, 36233.183590553235, 0.02, 0.9580000000000001, 0.088, 192.0, 0.0, 0.0, 0.0, 0.0, 0.0, 0.0, 0.0, 0.0, 0.0, 1.666555708246446E9, 0.0, 2022-10-23 13:08:28.246
252.0, -73406.03451800758, -105056.1940737002, 68205.92352222485, 18697.815382220197, 76936.3584442566, 89468.35571150252, 40431.869379504846, 37322.89818798282, 0.02, 0.9580000000000001, 0.088, 192.0, 0.0, 0.0, 0.0, 0.0, 0.0, 0.0, 0.0, 0.0, 0.0, 1.6665557082464578E9, 0.0, 2022-10-23 13:08:28.246
253.0, -73335.82768867347, -104989.25059905656, 66478.24543455189, 18061.28240362196, 76677.86051963098, 88584.59008748413, 39204.46803623057, 35853.13687957965, 0.02, 0.9580000000000001, 0.088, 192.0, 0.0, 0.0, 0.0, 0.0, 0.0, 0.0, 0.0, 0.0, 0.0, 1.6665557082464683E9, 0.0, 2022-10-23 13:08:28.246
254.0, -73363.61090703141, -105006.93082892071, 65202.38550929851, 18211.687292061724, 76778.30925921313, 88062.81096491945, 38485.81474850354, 35226.97511040868, 0.02, 0.9580000000000001, 0.088, 192.0, 0.0, 0.0, 0.0, 0.0, 0.0, 0.0, 0.0, 0.0, 0.0, 1.6665557082464883E9, 0.0, 2022-10-23 13:08:28.246
255.0, -73412.2259512217, -105052.77425679854, 65894.57433159045, 18552.417284538424, 76916.30892948019, 88449.51849574072, 39039.22158947249, 35960.42525296513, 0.02, 0.9580000000000001, 0.088, 192.0, 0.0, 0.0, 0.0, 0.0, 0.0, 0.0, 0.0, 0.0, 0.0, 1.666555708246499E9, 0.0, 2022-10-23 13:08:28.246
0.0, -73433.84008810998, -105077.6517483773, 68075.90342472833, 18772.581967423197, 76971.94242142946, 89426.02150750418, 40382.315562047435, 37316.32677511296, 0.02, 0.9580000000000001, 0.088, 192.0, 0.0, 0.0, 0.0, 0.0, 0.0, 0.0, 0.0, 0.0, 0.0, 1.6665557082465093E9, 0.0, 2022-10-23 13:08:28.246
1.0, -73357.19595637274, -105007.42256729872, 66945.17337622326, 18130.036369566486, 76693.93142389435, 88803.79364535733, 39513.95028995875, 36187.116645230846, 0.02, 0.9580000000000001, 0.088, 192.0, 0.0, 0.0, 0.0, 0.0, 0.0, 0.0, 0.0, 0.0, 0.0, 1.6665557082465196E9, 0.0, 2022-10-23 13:08:28.246
2.0, -73364.23675587616, -105010.90943943376, 65276.99563229032, 18162.133474604307, 76757.43272989187, 88089.25307861008, 38522.11398149896, 35231.512514533104, 0.02, 0.9580000000000001, 0.088, 192.0, 0.0, 0.0, 0.0, 0.0, 0.0, 0.0, 0.0, 0.0, 0.0, 1.66655570824653E9, 0.0, 2022-10-23 13:08:28.246
3.0, -73401.02772724959, -105046.04638171749, 65627.6945027941, 18473.00153648872, 76884.16712095345, 88323.85698841298, 38866.57671529969, 35756.08560515471, 0.028, 0.9540000000000001, 0.08600000000000001, 192.0, 0.0, 224.0, 29.0, 208.0, 2.0, 176.0, 0.0, 0.0, 0.0, 1.6665557082465408E9, 0.0, 2022-10-23 13:08:28.246
4.0, -73433.52716368761, -105077.98702454413, 67779.98867988453, 18802.510953248853, 76989.77911350479, 89298.50480538665, 40224.82517061534, 37183.110378159334, 0.028, 0.9540000000000001, 0.08600000000000001, 192.0, 0.0, 0.0, 0.0, 0.0, 0.0, 0.0, 0.0, 0.0, 0.0, 1.666555708246552E9, 0.0, 2022-10-23 13:08:28.246
5.0, -73362.13569189736, -105015.24567785808, 67403.83117244615, 18245.997219800618, 76743.73111054077, 89031.04383123443, 39834.36254672558, 36543.06817568161, 0.028, 0.9540000000000001, 0.08600000000000001, 192.0, 0.0, 0.0, 0.0, 0.0, 0.0, 0.0, 0.0, 0.0, 0.0, 1.666555708246566E9, 0.0, 2022-10-23 13:08:28.246
6.0, -73349.9092876803, -104999.42064278372, 65363.11690367662, 18097.268712195008, 76715.67967124935, 88100.294840371, 38553.49583071421, 35235.17820062378, 0.028, 0.9540000000000001, 0.08600000000000001, 192.0, 0.0, 0.0, 0.0, 0.0, 0.0, 0.0, 0.0, 0.0, 0.0, 1.6665557082465763E9, 0.0, 2022-10-23 13:08:28.246
7.0, -73393.53989285706, -105040.10081769238, 65378.450200372965, 18410.64016945841, 76853.27701011623, 88174.81555638499, 38685.2817160227, 35554.31640795665, 0.028, 0.9540000000000001, 0.08600000000000001, 192.0, 0.0, 0.0, 0.0, 0.0, 0.0, 0.0, 0.0, 0.0, 0.0, 1.6665557082465868E9, 0.0, 2022-10-23 13:08:28.246
8.0, -73429.66031189685, -105073.18139948625, 67383.84871290311, 18804.232037571914, 76991.03081119429, 89128.5421405485, 40001.75476095137, 36976.87083207021, 0.028, 0.9540000000000001, 0.08600000000000001, 192.0, 0.0, 0.0, 0.0, 0.0, 0.0, 0.0, 0.0, 0.0, 0.0, 1.6665557082465966E9, 0.0, 2022-10-23 13:08:28.246
9.0, -73369.46706407871, -105019.47015756014, 67774.93718563762, 18384.332166234515, 76790.08862854107, 89206.77324614207, 40098.1131312982, 36859.59122891322, 0.028, 0.9540000000000001, 0.08600000000000001, 192.0, 0.0, 0.0, 0.0, 0.0, 0.0, 0.0, 0.0, 0.0, 0.0, 1.6665557082466068E9, 0.0, 2022-10-23 13:08:28.246
10.0, -73343.04730213253, -104991.1281455908, 65591.6858424766, 18079.789648030957, 76707.96831941228, 88209.77368471309, 38701.196158074876, 35359.319789328554, 0.028, 0.9540000000000001, 0.08600000000000001, 192.0, 0.0, 0.0, 0.0, 0.0, 0.0, 0.0, 0.0, 0.0, 0.0, 1.6665557082466178E9, 0.0, 2022-10-23 13:08:28.246
0.0, 0.0, 0.0, 0.0, 0.0, 0.0, 0.0, 0.0, 0.0, 0.042, 0.9560000000000001, 0.1, 192.0, 1.0, 80.0, 29.0, 224.0, 3.0, 32.0, 0.0, 0.0, 0.0, 1.6665557083269165E9, 0.0, 2022-10-23 13:08:28.326
1.0, -73649.19914593687, -105289.27806488014, 66525.2064496525, 18882.485494909943, 76905.8036095862, 89105.69865771517, 39804.27709868873, 36494.788407658154, 0.042, 0.9560000000000001, 0.1, 192.0, 0.0, 0.0, 0.0, 0.0, 0.0, 0.0, 0.0, 0.0, 0.0, 1.6665557088086004E9, 0.0, 2022-10-23 13:08:28.808
2.0, -73612.89991294144, -105251.83889291751, 68101.51852387411, 18807.00365388437, 76845.65506525697, 89771.6912355055, 40707.734609572246, 37272.62911470284, 0.042, 0.9560000000000001, 0.1, 192.0, 0.0, 0.0, 0.0, 0.0, 0.0, 0.0, 0.0, 0.0, 0.0, 1.6665557088086343E9, 0.0, 2022-10-23 13:08:28.808
3.0, -73554.606563402, -105190.88568578789, 66048.08611250951, 18238.129405752352, 76633.33584467601, 88764.16400243808, 39304.06740952342, 35657.08972896215, 0.042, 0.9560000000000001, 0.1, 192.0, 0.0, 0.0, 0.0, 0.0, 0.0, 0.0, 0.0, 0.0, 0.0, 1.6665557088088343E9, 0.0, 2022-10-23 13:08:28.808
4.0, -73581.7639329152, -105211.3375319645, 65137.811319567125, 18461.5574433276, 76754.2140786903, 88419.67891689288, 38831.842104416144, 35309.90008233787, 0.042, 0.9560000000000001, 0.1, 192.0, 0.0, 0.0, 0.0, 0.0, 0.0, 0.0, 0.0, 0.0, 0.0, 1.6665557088088562E9, 0.0, 2022-10-23 13:08:28.808
5.0, -73622.53351480169, -105249.53666323861, 66175.4240006714, 18831.92584895204, 76898.09225774911, 88964.72620543554, 39596.42822699883, 36233.4518114867, 0.042, 0.9560000000000001, 0.1, 192.0, 0.0, 0.0, 0.0, 0.0, 0.0, 0.0, 0.0, 0.0, 0.0, 1.6665557088088765E9, 0.0, 2022-10-23 13:08:28.808
6.0, -73604.38389830398, -105234.60569794246, 68161.51060599215, 18918.941190116548, 76888.3021936777, 89830.52102691187, 40785.898659932456, 37367.69108387126, 0.042, 0.9560000000000001, 0.1, 192.0, 0.0, 0.0, 0.0, 0.0, 0.0, 0.0, 0.0, 0.0, 0.0, 1.6665557088089037E9, 0.0, 2022-10-23 13:08:28.808
7.0, -73537.7086445938, -105172.49020010117, 66495.29981557128, 18276.440295748747, 76630.83244929701, 88963.42980425713, 39584.11241580396, 35927.83640954929, 0.05, 0.9480000000000001, 0.096, 192.0, 1.0, 144.0, 29.0, 160.0, 3.0, 0.0, 0.0, 0.0, 0.0, 1.6665557088089232E9, 0.0, 2022-10-23 13:08:28.808
8.0, -73551.29850522263, -105181.52030486111, 65200.64207323099, 18416.40691952788, 76736.77971801517, 88438.16380955742, 38850.43875580296, 35281.870994790916, 0.05, 0.9480000000000001, 0.096, 192.0, 0.0, 0.0, 0.0, 0.0, 0.0, 0.0, 0.0, 0.0, 0.0, 1.6665557088089447E9, 0.0, 2022-10-23 13:08:28.808
9.0, -73588.04477310715, -105215.53965992208, 65894.66373856828, 18761.316688217725, 76879.11562670657, 88847.84893367875, 39419.06713474597, 36016.99751818151, 0.05, 0.9480000000000001, 0.096, 192.0, 0.0, 0.0, 0.0, 0.0, 0.0, 0.0, 0.0, 0.0, 0.0, 1.6665557088089647E9, 0.0, 2022-10-23 13:08:28.808
10.0, -73595.59966273305, -105228.57072693954, 68094.03068948159, 18991.964339252037, 76927.21658077439, 89848.26831200937, 40785.09399713206, 37382.86791835641, 0.05, 0.9480000000000001, 0.096, 192.0, 0.0, 0.0, 0.0, 0.0, 0.0, 0.0, 0.0, 0.0, 0.0, 1.6665557088089843E9, 0.0, 2022-10-23 13:08:28.808
11.0, -73518.03910947313, -105153.04418242504, 67030.31117085351, 18349.26227918414, 76649.00441753918, 89241.01611864759, 39942.58969337818, 36278.5129283086, 0.05, 0.9480000000000001, 0.096, 192.0, 0.0, 0.0, 0.0, 0.0, 0.0, 0.0, 0.0, 0.0, 0.0, 1.666555708809004E9, 0.0, 2022-10-23 13:08:28.809
12.0, -73533.68533059185, -105158.98974645017, 65308.28807452775, 18365.467293914237, 76702.35803155399, 88479.3357228441, 38895.477520880406, 35261.866183503415, 0.05, 0.9480000000000001, 0.096, 192.0, 0.0, 0.0, 0.0, 0.0, 0.0, 0.0, 0.0, 0.0, 0.0, 1.6665557088090236E9, 0.0, 2022-10-23 13:08:28.809
13.0, -73582.25567129323, -105196.96536027973, 65626.80043301587, 18684.51609426929, 76835.88735293, 88699.94744061798, 39219.98014688255, 35764.17693664753, 0.05, 0.9480000000000001, 0.096, 192.0, 0.0, 0.0, 0.0, 0.0, 0.0, 0.0, 0.0, 0.0, 0.0, 1.6665557088090436E9, 0.0, 2022-10-23 13:08:28.809
14.0, -73622.7793839907, -105238.96428811125, 67788.7058602221, 19024.19555475659, 76947.44490950643, 89703.98780155036, 40605.56478566704, 37212.614680840335, 0.05, 0.9480000000000001, 0.096, 192.0, 0.0, 0.0, 0.0, 0.0, 0.0, 0.0, 0.0, 0.0, 0.0, 1.6665557088090632E9, 0.0, 2022-10-23 13:08:28.809
15.0, -73555.32181922458, -105179.41924088231, 67520.90960990306, 18468.978222486763, 76699.96639489727, 89493.54612750365, 40284.414921333184, 36633.68214770343, 0.05, 0.9480000000000001, 0.096, 192.0, 0.0, 0.0, 0.0, 0.0, 0.0, 0.0, 0.0, 0.0, 0.0, 1.6665557088090825E9, 0.0, 2022-10-23 13:08:28.809
16.0, -73539.31797019458, -105156.93338596028, 65496.84739075272, 18310.906685698832, 76680.58743245453, 88578.9127443925, 39010.34313563623, 35316.06916380754, 0.05, 0.9480000000000001, 0.096, 192.0, 0.0, 0.0, 0.0, 0.0, 0.0, 0.0, 0.0, 0.0, 0.0, 1.666555708809102E9, 0.0, 2022-10-23 13:08:28.809
17.0, -73570.29748800963, -105179.53099960458, 65496.936797730545, 18616.164459724958, 76811.56865496263, 88653.85814355113, 39132.383660362204, 35612.76621970728, 0.06, 0.9580000000000001, 0.096, 192.0, 1.0, 224.0, 29.0, 240.0, 3.0, 0.0, 0.0, 0.0, 0.0, 1.6665557088091216E9, 0.0, 2022-10-23 13:08:28.809
18.0, -73610.86590419602, -105216.61254365594, 67425.37825410107, 19013.444365673586, 76950.14947058553, 89560.35549168057, 40395.50309127606, 36982.50347167295, 0.06, 0.9580000000000001, 0.096, 192.0, 0.0, 0.0, 0.0, 0.0, 0.0, 0.0, 0.0, 0.0, 0.0, 1.666555708809173E9, 0.0, 2022-10-23 13:08:28.809
19.0, -73555.6570953914, -105169.51741808861, 67918.14481236278, 18615.896238791494, 76754.79522404615, 89688.36393217611, 40555.76509902062, 36932.569674559796, 0.06, 0.9580000000000001, 0.096, 192.0, 0.0, 0.0, 0.0, 0.0, 0.0, 0.0, 0.0, 0.0, 0.0, 1.666555708809193E9, 0.0, 2022-10-23 13:08:28.809
20.0, -73517.88264726194, -105132.2123565927, 65722.5106027735, 18280.62007196189, 76656.849879843, 88667.80563209124, 39130.282596383404, 35399.19530143682, 0.06, 0.9580000000000001, 0.096, 192.0, 0.0, 0.0, 0.0, 0.0, 0.0, 0.0, 0.0, 0.0, 0.0, 1.6665557088092124E9, 0.0, 2022-10-23 13:08:28.809
21.0, -73540.70377835081, -105155.25700512613, 65413.31892172324, 18581.54160756369, 76801.66683216892, 88605.28780284975, 39054.48783093546, 35499.06289566313, 0.06, 0.9580000000000001, 0.096, 192.0, 0.0, 0.0, 0.0, 0.0, 0.0, 0.0, 0.0, 0.0, 0.0, 1.6665557088092325E9, 0.0, 2022-10-23 13:08:28.809
22.0, -73585.9213573839, -105202.79916558256, 67015.20139160173, 18966.550405806353, 76938.25834253531, 89368.80104169859, 40126.47749501199, 36715.22131147639, 0.06, 0.9580000000000001, 0.096, 192.0, 0.0, 0.0, 0.0, 0.0, 0.0, 0.0, 0.0, 0.0, 0.0, 1.6665557088092525E9, 0.0, 2022-10-23 13:08:28.809
23.0, -73567.92820309737, -105192.58441836649, 68203.73305126822, 18732.974676248396, 76796.7270966443, 89827.61530013267, 40745.50905770172, 37176.78483447848, 0.06, 0.9580000000000001, 0.096, 192.0, 0.0, 0.0, 0.0, 0.0, 0.0, 0.0, 0.0, 0.0, 0.0, 1.6665557088092718E9, 0.0, 2022-10-23 13:08:28.809
24.0, -73507.53378957913, -105128.18904259075, 66025.332036654, 18248.053580290507, 76623.47872537121, 88781.44190090202, 39283.749673813545, 35539.18427696041, 0.06, 0.9580000000000001, 0.096, 192.0, 0.0, 0.0, 0.0, 0.0, 0.0, 0.0, 0.0, 0.0, 0.0, 1.6665557088092911E9, 0.0, 2022-10-23 13:08:28.809
25.0, -73545.5094034087, -105159.39207785035, 65365.150912422054, 18519.42610972239, 76761.7689683162, 88556.18102028144, 38976.94962942, 35383.437321595826, 0.06, 0.9580000000000001, 0.096, 192.0, 0.0, 0.0, 0.0, 0.0, 0.0, 0.0, 0.0, 0.0, 0.0, 1.666555708809311E9, 0.0, 2022-10-23 13:08:28.809
26.0, -73583.48501723827, -105190.9750927657, 66629.83496544778, 18905.84306786574, 76909.75986835478, 89198.27958324905, 39870.12533785407, 36438.01497674167, 0.06, 0.9580000000000001, 0.096, 192.0, 0.0, 0.0, 0.0, 0.0, 0.0, 0.0, 0.0, 0.0, 0.0, 1.6665557088093305E9, 0.0, 2022-10-23 13:08:28.809
27.0, -73565.55891818511, -105176.75938329213, 68376.60144288557, 18879.423305919565, 76861.77067300925, 89944.40316491165, 40882.03351283473, 37357.85631631092, 0.068, 0.96, 0.10200000000000001, 192.0, 2.0, 32.0, 30.0, 0.0, 3.0, 48.0, 0.0, 0.0, 0.0, 1.6665557088093495E9, 0.0, 2022-10-23 13:08:28.809
28.0, -73517.48031586174, -105134.84986243844, 66410.0726139632, 18251.629859403358, 76606.55845481854, 88949.01292908346, 39501.38860957487, 35753.42574756453, 0.068, 0.96, 0.10200000000000001, 192.0, 0.0, 0.0, 0.0, 0.0, 0.0, 0.0, 0.0, 0.0, 0.0, 1.6665557088093736E9, 0.0, 2022-10-23 13:08:28.809
29.0, -73532.38892941343, -105146.33865908846, 65353.773874494305, 18460.79748401612, 76740.84773550603, 88533.27048221475, 38927.70873638496, 35298.59009964349, 0.068, 0.96, 0.10200000000000001, 192.0, 0.0, 0.0, 0.0, 0.0, 0.0, 0.0, 0.0, 0.0, 0.0, 1.6665557088093827E9, 0.0, 2022-10-23 13:08:28.809
30.0, -73559.07691229307, -105171.81964776751, 66244.22267010482, 18826.516726793852, 76890.98440301233, 89012.84951124783, 39602.50790149068, 36145.452993566156, 0.068, 0.96, 0.10200000000000001, 192.0, 0.0, 0.0, 0.0, 0.0, 0.0, 0.0, 0.0, 0.0, 0.0, 1.6665557088093915E9, 0.0, 2022-10-23 13:08:28.809
31.0, -73554.53950816864, -105169.60682506644, 68344.61609657003, 18993.41720264163, 76923.81911561718, 89951.62277837071, 40880.80416688969, 37396.21190979623, 0.068, 0.96, 0.10200000000000001, 192.0, 0.0, 0.0, 0.0, 0.0, 0.0, 0.0, 0.0, 0.0, 0.0, 1.6665557088094003E9, 0.0, 2022-10-23 13:08:28.809
32.0, -73497.9001877189, -105113.90627788381, 66885.76243946105, 18339.069883712516, 76652.6924553743, 89181.6498853743, 39799.91850851995, 36063.98088502656, 0.068, 0.96, 0.10200000000000001, 192.0, 0.0, 0.0, 0.0, 0.0, 0.0, 0.0, 0.0, 0.0, 0.0, 1.6665557088094091E9, 0.0, 2022-10-23 13:08:28.809
33.0, -73515.8486385165, -105122.64580996583, 65401.49484890638, 18417.88213466193, 76719.70298525131, 88546.9497498214, 38919.259776980856, 35253.350168865945, 0.068, 0.96, 0.10200000000000001, 192.0, 0.0, 0.0, 0.0, 0.0, 0.0, 0.0, 0.0, 0.0, 0.0, 1.6665557088094182E9, 0.0, 2022-10-23 13:08:28.809
34.0, -73561.55795592761, -105166.67874654279, 65926.26910522809, 18751.5266241463, 76860.3401613641, 88864.41157632013, 39368.485137043615, 35886.39627532915, 0.068, 0.96, 0.10200000000000001, 192.0, 0.0, 0.0, 0.0, 0.0, 0.0, 0.0, 0.0, 0.0, 0.0, 1.6665557088094394E9, 0.0, 2022-10-23 13:08:28.809
35.0, -73568.50934845321, -105178.078136215, 68156.45911174525, 19037.830118874328, 76947.98135137337, 89900.57139403479, 40776.801499939145, 37323.635795549846, 0.068, 0.96, 0.10200000000000001, 192.0, 0.0, 0.0, 0.0, 0.0, 0.0, 0.0, 0.0, 0.0, 0.0, 1.6665557088094485E9, 0.0, 2022-10-23 13:08:28.809
36.0, -73490.21118762626, -105114.30860928401, 67334.47370940134, 18415.378739282936, 76668.20456602628, 89402.3063066371, 40082.466910179486, 36368.590458463485, 0.07, 0.9540000000000001, 0.094, 192.0, 2.0, 48.0, 29.0, 208.0, 2.0, 240.0, 0.0, 0.0, 0.0, 1.6665557088094573E9, 0.0, 2022-10-23 13:08:28.809
37.0, -73480.0411438991, -105100.4058242328, 65498.56847507579, 18377.246663242182, 76705.88960717793, 88593.24021258834, 38952.76504191936, 35245.97409319569, 0.07, 0.9540000000000001, 0.094, 192.0, 0.0, 0.0, 0.0, 0.0, 0.0, 0.0, 0.0, 0.0, 0.0, 1.6665557088094664E9, 0.0, 2022-10-23 13:08:28.809
38.0, -73526.64453108842, -105143.29882184253, 65707.98196887756, 18687.868855937584, 76836.42379479692, 88771.98711299743, 39208.93838512163, 35683.77771184179, 0.07, 0.9540000000000001, 0.094, 192.0, 0.0, 0.0, 0.0, 0.0, 0.0, 0.0, 0.0, 0.0, 0.0, 1.6665557088094757E9, 0.0, 2022-10-23 13:08:28.809
39.0, -73561.87088034999, -105179.3298339045, 67794.76318296947, 19044.647400933194, 76954.08337760966, 89748.22190382742, 40549.663072784315, 37113.66350813669, 0.07, 0.9540000000000001, 0.094, 192.0, 0.0, 0.0, 0.0, 0.0, 0.0, 0.0, 0.0, 0.0, 0.0, 1.6665557088094845E9, 0.0, 2022-10-23 13:08:28.809
40.0, -73509.85837100248, -105126.28914431205, 67765.03536284392, 18538.6262582095, 76720.21707537379, 89628.32714656915, 40363.13776530478, 36698.05517173471, 0.07, 0.9540000000000001, 0.094, 192.0, 0.0, 0.0, 0.0, 0.0, 0.0, 0.0, 0.0, 0.0, 0.0, 1.6665557088094933E9, 0.0, 2022-10-23 13:08:28.809
41.0, -73494.68153651732, -105103.02097833407, 65624.16292717015, 18312.24779036615, 76662.61662991246, 88638.50249511034, 38989.62306852616, 35265.59892482745, 0.07, 0.9540000000000001, 0.094, 192.0, 0.0, 0.0, 0.0, 0.0, 0.0, 0.0, 0.0, 0.0, 0.0, 1.666555708809502E9, 0.0, 2022-10-23 13:08:28.809
42.0, -73531.98659801325, -105138.2696793401, 65486.43147783655, 18624.814584829164, 76802.56090194713, 88643.28576842377, 39018.54622585133, 35481.47207277681, 0.07, 0.9540000000000001, 0.094, 192.0, 0.0, 0.0, 0.0, 0.0, 0.0, 0.0, 0.0, 0.0, 0.0, 1.666555708809511E9, 0.0, 2022-10-23 13:08:28.809
43.0, -73568.2187757753, -105177.54169434807, 67321.15206970598, 19023.167374511646, 76952.78697643125, 89522.64809878447, 40238.68325217763, 36829.99751925439, 0.07, 0.9540000000000001, 0.094, 192.0, 0.0, 0.0, 0.0, 0.0, 0.0, 0.0, 0.0, 0.0, 0.0, 1.6665557088095198E9, 0.0, 2022-10-23 13:08:28.809
44.0, -73513.92638849335, -105134.38047580486, 68088.95684349023, 18686.99713790383, 76787.96521281781, 89793.64064856061, 40587.906907547345, 36988.24786999796, 0.07, 0.9540000000000001, 0.094, 192.0, 0.0, 0.0, 0.0, 0.0, 0.0, 0.0, 0.0, 0.0, 0.0, 1.6665557088095288E9, 0.0, 2022-10-23 13:08:28.809
45.0, -73477.9400799203, -105096.6507311643, 65830.31306628145, 18286.47622900918, 76651.53016466262, 88717.91824316005, 39093.75984594344, 35365.48887079822, 0.07, 0.9540000000000001, 0.094, 192.0, 0.0, 0.0, 0.0, 0.0, 0.0, 0.0, 0.0, 0.0, 0.0, 1.6665557088095376E9, 0.0, 2022-10-23 13:08:28.809
46.0, -73519.31315890708, -105135.43100779426, 65383.79226729778, 18574.992546438283, 76790.89329134146, 88593.55313701072, 38928.535750929805, 35371.81441447907, 0.054, 0.962, 0.096, 192.0, 1.0, 176.0, 30.0, 16.0, 3.0, 0.0, 0.0, 0.0, 0.0, 1.666555708809547E9, 0.0, 2022-10-23 13:08:28.809
47.0, -73554.24893549073, -105170.56795007801, 66876.28529981199, 18958.928460947092, 76935.35261575611, 89336.99450933868, 39959.75583311985, 36552.34414963057, 0.054, 0.962, 0.096, 192.0, 0.0, 0.0, 0.0, 0.0, 0.0, 0.0, 0.0, 0.0, 0.0, 1.6665557088095632E9, 0.0, 2022-10-23 13:08:28.809
48.0, -73532.0089497577, -105153.51356905862, 68285.60749120802, 18808.88120041862, 76832.15461160596, 89915.34589711975, 40739.83171461007, 37198.1307504333, 0.054, 0.962, 0.096, 192.0, 0.0, 0.0, 0.0, 0.0, 0.0, 0.0, 0.0, 0.0, 0.0, 1.6665557088095722E9, 0.0, 2022-10-23 13:08:28.809
49.0, -73478.70003923179, -105103.02097833407, 66155.82152078408, 18267.03021133306, 76625.75860330566, 88880.05779743884, 39294.0761797519, 35556.66334112446, 0.054, 0.962, 0.096, 192.0, 0.0, 0.0, 0.0, 0.0, 0.0, 0.0, 0.0, 0.0, 0.0, 1.666555708809592E9, 0.0, 2022-10-23 13:08:28.809
50.0, -73498.83896098602, -105123.00343787712, 65329.81280443822, 18518.777909133187, 76766.619296863, 88574.17417456796, 38878.758416027835, 35284.28498319209, 0.054, 0.962, 0.096, 192.0, 0.0, 0.0, 0.0, 0.0, 0.0, 0.0, 0.0, 0.0, 0.0, 1.6665557088096013E9, 0.0, 2022-10-23 13:08:28.809
51.0, -73537.55218238261, -105158.02862143859, 66444.40489344655, 18904.010224820402, 76926.83660111864, 89156.5935798399, 39692.25015547874, 36265.839489202444, 0.054, 0.962, 0.096, 192.0, 0.0, 0.0, 0.0, 0.0, 0.0, 0.0, 0.0, 0.0, 0.0, 1.6665557088096104E9, 0.0, 2022-10-23 13:08:28.809
52.0, -73545.44234817533, -105164.71179303073, 68336.2788958882, 18939.75066420444, 76896.88526354852, 89983.22814503052, 40816.67701204742, 37320.01481294809, 0.054, 0.962, 0.096, 192.0, 0.0, 0.0, 0.0, 0.0, 0.0, 0.0, 0.0, 0.0, 0.0, 1.6665557088096192E9, 0.0, 2022-10-23 13:08:28.809
53.0, -73469.78169319412, -105093.2085625182, 66558.21997621297, 18320.33912185897, 76655.4417199423, 89085.71619817213, 39559.59255213649, 35826.78417286684, 0.054, 0.962, 0.096, 192.0, 0.0, 0.0, 0.0, 0.0, 0.0, 0.0, 0.0, 0.0, 0.0, 1.6665557088096282E9, 0.0, 2022-10-23 13:08:28.809
54.0, -73493.51924580566, -105109.4582807372, 65341.10043538814, 18480.489370881245, 76763.84768055055, 88587.00407588531, 38873.237535147375, 35244.02949142808, 0.054, 0.962, 0.096, 192.0, 0.0, 0.0, 0.0, 0.0, 0.0, 0.0, 0.0, 0.0, 0.0, 1.666555708809637E9, 0.0, 2022-10-23 13:08:28.809
55.0, -73529.08087123405, -105144.25994685412, 66040.33005718351, 18800.81222067025, 76887.45282738839, 88960.0993943333, 39418.106009734394, 35970.79646239239, 0.054, 0.962, 0.096, 192.0, 0.0, 0.0, 0.0, 0.0, 0.0, 0.0, 0.0, 0.0, 0.0, 1.666555708809646E9, 0.0, 2022-10-23 13:08:28.809
56.0, -73535.69698759282, -105154.07236266999, 68165.64567871639, 19013.15379299567, 76943.04161584874, 89908.03687668288, 40725.05721152511, 37286.97893464314, 0.046, 0.9560000000000001, 0.10200000000000001, 192.0, 1.0, 112.0, 29.0, 224.0, 3.0, 48.0, 0.0, 0.0, 0.0, 1.6665557088096547E9, 0.0, 2022-10-23 13:08:28.809
57.0, -73464.90901290286, -105086.14541127032, 66926.3979108808, 18372.93277656231, 76673.39017073992, 89234.064726122, 39785.63574381301, 36099.34134475486, 0.046, 0.9560000000000001, 0.10200000000000001, 192.0, 0.0, 0.0, 0.0, 0.0, 0.0, 0.0, 0.0, 0.0, 0.0, 1.6665557088096645E9, 0.0, 2022-10-23 13:08:28.809
58.0, -73482.36572532245, -105099.44469922122, 65322.61554272361, 18419.714977707266, 76741.20536341732, 88546.48036318785, 38833.049098616735, 35196.286165271544, 0.046, 0.9560000000000001, 0.10200000000000001, 192.0, 0.0, 0.0, 0.0, 0.0, 0.0, 0.0, 0.0, 0.0, 0.0, 1.6665557088096738E9, 0.0, 2022-10-23 13:08:28.809
59.0, -73520.20722868529, -105136.7721124616, 65743.07420767238, 18737.51208037282, 76869.61613531306, 88826.68183167957, 39229.45728653161, 35770.56953556175, 0.046, 0.9560000000000001, 0.10200000000000001, 192.0, 0.0, 0.0, 0.0, 0.0, 0.0, 0.0, 0.0, 0.0, 0.0, 1.6665557088096828E9, 0.0, 2022-10-23 13:08:28.809
60.0, -73548.23631623224, -105168.33277563249, 67920.00000715256, 19051.48703473652, 76965.12513937059, 89832.3538699572, 40613.142027037386, 37205.909157503746, 0.046, 0.9560000000000001, 0.10200000000000001, 192.0, 0.0, 0.0, 0.0, 0.0, 0.0, 0.0, 0.0, 0.0, 0.0, 1.6665557088096917E9, 0.0, 2022-10-23 13:08:28.809
61.0, -73475.43668454132, -105106.306684769, 67404.94875966893, 18474.02971673366, 76716.64079626094, 89494.99899089325, 40126.432791523075, 36464.83707008804, 0.046, 0.9560000000000001, 0.10200000000000001, 192.0, 0.0, 0.0, 0.0, 0.0, 0.0, 0.0, 0.0, 0.0, 0.0, 1.6665557088097005E9, 0.0, 2022-10-23 13:08:28.809
62.0, -73469.42406528283, -105097.79067013154, 65442.845576148706, 18361.131055489906, 76717.1548863834, 88616.64248903305, 38905.200529718466, 35221.92361616178, 0.046, 0.9560000000000001, 0.10200000000000001, 192.0, 0.0, 0.0, 0.0, 0.0, 0.0, 0.0, 0.0, 0.0, 0.0, 1.6665557088097093E9, 0.0, 2022-10-23 13:08:28.809
63.0, -73499.33069936403, -105123.94221114424, 65532.029036525375, 18679.621062233575, 76854.14872814999, 88741.87931321614, 39090.518842997415, 35582.881937370534, 0.046, 0.9560000000000001, 0.10200000000000001, 192.0, 0.0, 0.0, 0.0, 0.0, 0.0, 0.0, 0.0, 0.0, 0.0, 1.6665557088097184E9, 0.0, 2022-10-23 13:08:28.809
64.0, -73532.2548189467, -105154.5193975591, 67545.1389008926, 19050.995296358502, 76982.2689273678, 89695.76235959082, 40406.94718443718, 36991.980611322004, 0.046, 0.9560000000000001, 0.10200000000000001, 192.0, 0.0, 0.0, 0.0, 0.0, 0.0, 0.0, 0.0, 0.0, 0.0, 1.6665557088097272E9, 0.0, 2022-10-23 13:08:28.809
65.0, -73471.21220483926, -105099.06471956549, 67786.42598228765, 18589.811753012153, 76762.01483750521, 89696.54467064675, 40398.90055643327, 36763.12109984411, 0.046, 0.9560000000000001, 0.10200000000000001, 192.0, 0.0, 0.0, 0.0, 0.0, 0.0, 0.0, 0.0, 0.0, 0.0, 1.6665557088097465E9, 0.0, 2022-10-23 13:08:28.809
66.0, -73455.87890814291, -105078.09878326641, 65586.41083078514, 18315.309979356527, 76691.15980758189, 88673.70649262745, 38979.14010037662, 35261.62031431441, 0.036000000000000004, 0.9500000000000001, 0.10200000000000001, 192.0, 1.0, 32.0, 29.0, 176.0, 3.0, 48.0, 0.0, 0.0, 0.0, 1.6665557088097556E9, 0.0, 2022-10-23 13:08:28.809
67.0, -73499.46480983077, -105117.03552210754, 65330.617467238604, 18612.074090489637, 76825.62790222501, 88627.88541649407, 38936.98471033391, 35404.403257894905, 0.036000000000000004, 0.9500000000000001, 0.10200000000000001, 192.0, 0.0, 0.0, 0.0, 0.0, 0.0, 0.0, 0.0, 0.0, 0.0, 1.6665557088097656E9, 0.0, 2022-10-23 13:08:28.809
68.0, -73533.41710965837, -105146.47276955518, 67049.95835422973, 19017.557086653364, 76981.44191282296, 89467.72986265777, 40101.51059645541, 36708.89576779554, 0.036000000000000004, 0.9500000000000001, 0.10200000000000001, 192.0, 0.0, 0.0, 0.0, 0.0, 0.0, 0.0, 0.0, 0.0, 0.0, 1.666555708809775E9, 0.0, 2022-10-23 13:08:28.809
69.0, -73495.21797838426, -105111.69345518273, 68065.15223564532, 18743.47999614239, 76823.86211441304, 89852.09046031123, 40615.51131194965, 37052.889114962716, 0.036000000000000004, 0.9500000000000001, 0.10200000000000001, 192.0, 0.0, 0.0, 0.0, 0.0, 0.0, 0.0, 0.0, 0.0, 0.0, 1.6665557088097847E9, 0.0, 2022-10-23 13:08:28.809
70.0, -73456.59416396549, -105075.64009137632, 65833.26349654955, 18285.13512434186, 76662.41546421236, 88780.77134856836, 39128.69562252708, 35413.18749346584, 0.036000000000000004, 0.9500000000000001, 0.10200000000000001, 192.0, 0.0, 0.0, 0.0, 0.0, 0.0, 0.0, 0.0, 0.0, 0.0, 1.6665557088097956E9, 0.0, 2022-10-23 13:08:28.809
71.0, -73495.91088246237, -105110.77703366007, 65260.365934415575, 18557.446427040868, 76803.36556474752, 88598.1128928796, 38885.195718430965, 35330.26252153665, 0.036000000000000004, 0.9500000000000001, 0.10200000000000001, 192.0, 0.0, 0.0, 0.0, 0.0, 0.0, 0.0, 0.0, 0.0, 0.0, 1.6665557088098052E9, 0.0, 2022-10-23 13:08:28.809
72.0, -73531.87483929096, -105142.24828985313, 66592.79812488535, 18939.661257226617, 76949.8141944187, 89259.92569445679, 39816.79407558371, 36423.463991101264, 0.036000000000000004, 0.9500000000000001, 0.10200000000000001, 192.0, 0.0, 0.0, 0.0, 0.0, 0.0, 0.0, 0.0, 0.0, 0.0, 1.6665557088098145E9, 0.0, 2022-10-23 13:08:28.809
73.0, -73504.13632442192, -105120.4106355203, 68199.28505412162, 18873.276576194356, 76885.48587387633, 89936.22242644102, 40737.64124365345, 37236.732213107614, 0.036000000000000004, 0.9500000000000001, 0.10200000000000001, 192.0, 0.0, 0.0, 0.0, 0.0, 0.0, 0.0, 0.0, 0.0, 0.0, 1.666555708809824E9, 0.0, 2022-10-23 13:08:28.809
74.0, -73439.09274805698, -105063.90542553729, 66172.13829423646, 18296.467458780702, 76666.23761251422, 88936.87593184423, 39346.669834455235, 35633.88861821754, 0.036000000000000004, 0.9500000000000001, 0.10200000000000001, 192.0, 0.0, 0.0, 0.0, 0.0, 0.0, 0.0, 0.0, 0.0, 0.0, 1.6665557088098338E9, 0.0, 2022-10-23 13:08:28.809
75.0, -73463.3890942799, -105084.64784439182, 65219.685759506916, 18521.28130451218, 76797.5317594447, 88572.09546233361, 38849.187058113464, 35263.58726782647, 0.032, 0.9520000000000001, 0.10400000000000001, 192.0, 1.0, 0.0, 29.0, 192.0, 3.0, 64.0, 0.0, 0.0, 0.0, 1.6665557088098428E9, 0.0, 2022-10-23 13:08:28.809
76.0, -73514.90986524938, -105126.49031001214, 66181.68248911887, 18869.096799981213, 76923.21561851689, 89074.4732707111, 39562.09594751548, 36148.42577557871, 0.032, 0.9520000000000001, 0.10400000000000001, 192.0, 0.0, 0.0, 0.0, 0.0, 0.0, 0.0, 0.0, 0.0, 0.0, 1.666555708809852E9, 0.0, 2022-10-23 13:08:28.809
77.0, -73525.14696420991, -105137.64383049535, 68175.01105964316, 18969.94787096356, 76917.82884810315, 89944.44786840056, 40761.132927075974, 37310.627080276856, 0.032, 0.9520000000000001, 0.10400000000000001, 192.0, 0.0, 0.0, 0.0, 0.0, 0.0, 0.0, 0.0, 0.0, 0.0, 1.666555708809861E9, 0.0, 2022-10-23 13:08:28.809
78.0, -73461.42214076784, -105077.91996931077, 66572.99447929794, 18337.572316834012, 76665.20943226927, 89119.44498055518, 39610.62158472795, 35914.02303147591, 0.032, 0.9520000000000001, 0.10400000000000001, 192.0, 0.0, 0.0, 0.0, 0.0, 0.0, 0.0, 0.0, 0.0, 0.0, 1.6665557088098695E9, 0.0, 2022-10-23 13:08:28.809
79.0, -73485.38321082393, -105096.82954511995, 65198.31749180764, 18458.517606081678, 76754.68346532386, 88540.37833695154, 38815.61473794159, 35205.98682236514, 0.032, 0.9520000000000001, 0.10400000000000001, 192.0, 0.0, 0.0, 0.0, 0.0, 0.0, 0.0, 0.0, 0.0, 0.0, 1.6665557088098786E9, 0.0, 2022-10-23 13:08:28.809
80.0, -73512.49587684822, -105124.43394952225, 65827.89907788028, 18794.151400822568, 76895.61121411457, 88913.25013795498, 39340.724270430124, 35909.88795875168, 0.032, 0.9520000000000001, 0.10400000000000001, 192.0, 0.0, 0.0, 0.0, 0.0, 0.0, 0.0, 0.0, 0.0, 0.0, 1.6665557088098972E9, 0.0, 2022-10-23 13:08:28.809
81.0, -73515.96039723878, -105133.17348160429, 68023.08625258044, 19047.66488643466, 76975.36223833112, 89915.59176630876, 40714.864816053494, 37301.57462377246, 0.032, 0.9520000000000001, 0.10400000000000001, 192.0, 0.0, 0.0, 0.0, 0.0, 0.0, 0.0, 0.0, 0.0, 0.0, 1.6665557088099077E9, 0.0, 2022-10-23 13:08:28.809
82.0, -73443.00430333667, -105070.11921049586, 67027.4724993077, 18414.708186949276, 76705.57668275556, 89350.62907345642, 39922.718992557406, 36253.389567540835, 0.032, 0.9520000000000001, 0.10400000000000001, 192.0, 0.0, 0.0, 0.0, 0.0, 0.0, 0.0, 0.0, 0.0, 0.0, 1.6665557088099167E9, 0.0, 2022-10-23 13:08:28.809
83.0, -73458.337600033, -105081.74211761262, 65267.78671357474, 18401.051271087083, 76738.16552617139, 88576.47640424686, 38851.422232558994, 35209.384287522356, 0.032, 0.9520000000000001, 0.10400000000000001, 192.0, 0.0, 0.0, 0.0, 0.0, 0.0, 0.0, 0.0, 0.0, 0.0, 1.6665557088099258E9, 0.0, 2022-10-23 13:08:28.809
84.0, -73491.55229229359, -105113.61570520588, 65537.61697263921, 18709.75121375933, 76859.91547821945, 88774.71402582098, 39146.35350064677, 35687.599860143644, 0.032, 0.9520000000000001, 0.10400000000000001, 192.0, 0.0, 0.0, 0.0, 0.0, 0.0, 0.0, 0.0, 0.0, 0.0, 1.6665557088099349E9, 0.0, 2022-10-23 13:08:28.809
85.0, -73530.91371427938, -105148.77499923408, 67640.46909099449, 19053.498691737495, 76963.7169794699, 89738.65535720055, 40489.84980462192, 37108.96964180108, 0.032, 0.9540000000000001, 0.10200000000000001, 192.0, 1.0, 0.0, 29.0, 208.0, 3.0, 48.0, 0.0, 0.0, 0.0, 1.666555708809944E9, 0.0, 2022-10-23 13:08:28.809
86.0, -73462.04798961258, -105085.43015544774, 67394.55519849721, 18526.66807492591, 76730.96826445678, 89515.92022370342, 40171.76212927844, 36556.43451886589, 0.032, 0.9540000000000001, 0.10200000000000001, 192.0, 0.0, 0.0, 0.0, 0.0, 0.0, 0.0, 0.0, 0.0, 0.0, 1.666555708809954E9, 0.0, 2022-10-23 13:08:28.809
87.0, -73460.57277447854, -105079.37283270036, 65347.38127558008, 18345.48483437119, 76704.68261297734, 88592.59201199914, 38882.75937828534, 35227.22097959769, 0.032, 0.9540000000000001, 0.10200000000000001, 192.0, 0.0, 0.0, 0.0, 0.0, 0.0, 0.0, 0.0, 0.0, 0.0, 1.666555708809963E9, 0.0, 2022-10-23 13:08:28.809
88.0, -73499.95654820878, -105112.47576623867, 65332.31619981721, 18652.798968887208, 76839.66479774294, 88670.1749170035, 39002.56472856578, 35526.71200355435, 0.032, 0.9540000000000001, 0.10200000000000001, 192.0, 0.0, 0.0, 0.0, 0.0, 0.0, 0.0, 0.0, 0.0, 0.0, 1.666555708809972E9, 0.0, 2022-10-23 13:08:28.809
89.0, -73540.74848183972, -105148.43972306726, 67277.72263022931, 19048.894232379705, 76975.56340403121, 89611.02689636075, 40293.40032260422, 36925.10419191172, 0.032, 0.9540000000000001, 0.10200000000000001, 192.0, 0.0, 0.0, 0.0, 0.0, 0.0, 0.0, 0.0, 0.0, 0.0, 1.666555708809981E9, 0.0, 2022-10-23 13:08:28.809
90.0, -73501.45411508728, -105117.95194363022, 67805.44731681912, 18636.39278845701, 76757.87976478097, 89750.65824397306, 40471.990760802124, 36894.97404038597, 0.032, 0.9540000000000001, 0.10200000000000001, 192.0, 0.0, 0.0, 0.0, 0.0, 0.0, 0.0, 0.0, 0.0, 0.0, 1.66655570880999E9, 0.0, 2022-10-23 13:08:28.809
91.0, -73468.93232690482, -105085.2513414921, 65571.47986548899, 18283.436391763258, 76652.55834490756, 88697.7346179169, 39012.354792637205, 35320.092477809485, 0.032, 0.9540000000000001, 0.10200000000000001, 192.0, 0.0, 0.0, 0.0, 0.0, 0.0, 0.0, 0.0, 0.0, 0.0, 1.6665557088099988E9, 0.0, 2022-10-23 13:08:28.809
92.0, -73490.12178064845, -105104.65265567931, 65217.76350948376, 18601.30054966218, 76814.25086429725, 88613.42383783149, 38911.86134956615, 35394.344972890016, 0.032, 0.9540000000000001, 0.10200000000000001, 192.0, 0.0, 0.0, 0.0, 0.0, 0.0, 0.0, 0.0, 0.0, 0.0, 1.6665557088100092E9, 0.0, 2022-10-23 13:08:28.810
93.0, -73541.15081323992, -105157.62629003839, 66808.02307224549, 18987.89632176117, 76957.57024974469, 89393.20914664379, 39996.81502542675, 36622.12629582004, 0.032, 0.9540000000000001, 0.10200000000000001, 192.0, 0.0, 0.0, 0.0, 0.0, 0.0, 0.0, 0.0, 0.0, 0.0, 1.6665557088100185E9, 0.0, 2022-10-23 13:08:28.810
94.0, -73510.57362682506, -105134.35812406041, 68041.95112490072, 18779.48865645989, 76828.9359604044, 89877.05735886781, 40651.13999261141, 37128.19214203264, 0.032, 0.9540000000000001, 0.10200000000000001, 192.0, 0.0, 0.0, 0.0, 0.0, 0.0, 0.0, 0.0, 0.0, 0.0, 1.666555708810028E9, 0.0, 2022-10-23 13:08:28.810
95.0, -73467.30064955958, -105085.98894905913, 65866.20996787667, 18272.79696140253, 76648.53503090561, 88827.93352936907, 39186.76545462197, 35488.46816879132, 0.038, 0.9580000000000001, 0.1, 192.0, 1.0, 48.0, 29.0, 240.0, 3.0, 32.0, 0.0, 0.0, 0.0, 1.666555708810037E9, 0.0, 2022-10-23 13:08:28.810
96.0, -73490.7923329821, -105098.03653932054, 65156.0279912982, 18536.212269808326, 76791.0274018082, 88578.64452345902, 38851.33282558117, 35306.90494858086, 0.038, 0.9580000000000001, 0.1, 192.0, 0.0, 0.0, 0.0, 0.0, 0.0, 0.0, 0.0, 0.0, 0.0, 1.6665557088100574E9, 0.0, 2022-10-23 13:08:28.810
97.0, -73527.1586212109, -105133.93344091576, 66360.18352033896, 18912.950922602526, 76938.57126695768, 89187.7966150995, 39712.81376037762, 36334.839324335975, 0.038, 0.9580000000000001, 0.1, 192.0, 0.0, 0.0, 0.0, 0.0, 0.0, 0.0, 0.0, 0.0, 0.0, 1.6665557088100665E9, 0.0, 2022-10-23 13:08:28.810
98.0, -73522.44240313083, -105136.7721124616, 68151.92170762083, 18903.98787307595, 76898.58399612713, 89960.09408951928, 40765.893848644955, 37303.51922554007, 0.038, 0.9580000000000001, 0.1, 192.0, 0.0, 0.0, 0.0, 0.0, 0.0, 0.0, 0.0, 0.0, 0.0, 1.6665557088100762E9, 0.0, 2022-10-23 13:08:28.810
99.0, -73460.0363326116, -105078.59052164442, 66238.29945782416, 18288.107906354417, 76644.37760643693, 88994.99046742803, 39424.18568422624, 35736.125497356115, 0.038, 0.9580000000000001, 0.1, 192.0, 0.0, 0.0, 0.0, 0.0, 0.0, 0.0, 0.0, 0.0, 0.0, 1.666555708810085E9, 0.0, 2022-10-23 13:08:28.810
100.0, -73490.7923329821, -105106.23962953564, 65136.69373234436, 18482.299862182124, 76761.120767727, 88559.01969182727, 38822.834351400656, 35247.941046707754, 0.038, 0.9580000000000001, 0.1, 192.0, 0.0, 0.0, 0.0, 0.0, 0.0, 0.0, 0.0, 0.0, 0.0, 1.6665557088100936E9, 0.0, 2022-10-23 13:08:28.810
101.0, -73517.14503969492, -105131.05006588103, 65981.83554194398, 18840.464215333966, 76901.53442639523, 89016.44814210513, 39471.459623749215, 36072.00516128602, 0.038, 0.9580000000000001, 0.1, 192.0, 0.0, 0.0, 0.0, 0.0, 0.0, 0.0, 0.0, 0.0, 0.0, 1.6665557088101025E9, 0.0, 2022-10-23 13:08:28.810
102.0, -73534.40058641441, -105153.58062429198, 68078.56328231852, 18996.34528116528, 76924.154391784, 89948.51588589144, 40751.81224963811, 37331.30244389802, 0.038, 0.9580000000000001, 0.1, 192.0, 0.0, 0.0, 0.0, 0.0, 0.0, 0.0, 0.0, 0.0, 0.0, 1.6665557088101113E9, 0.0, 2022-10-23 13:08:28.810
103.0, -73470.27343157213, -105092.2027340177, 66678.18178870462, 18349.68696232879, 76650.88196407341, 89204.40396122981, 39711.09267605456, 36034.431878856645, 0.038, 0.9580000000000001, 0.1, 192.0, 0.0, 0.0, 0.0, 0.0, 0.0, 0.0, 0.0, 0.0, 0.0, 1.66655570881012E9, 0.0, 2022-10-23 13:08:28.810
104.0, -73485.6961352463, -105097.0530625645, 65162.621755912514, 18432.544879024612, 76723.54748529762, 88548.29085448872, 38810.54089195024, 35200.264775784584, 0.042, 0.9520000000000001, 0.098, 192.0, 1.0, 80.0, 29.0, 192.0, 3.0, 16.0, 0.0, 0.0, 0.0, 1.6665557088101287E9, 0.0, 2022-10-23 13:08:28.810
105.0, -73522.93414150884, -105129.12781585788, 65664.01608753396, 18758.433313182988, 76862.10594917607, 88856.09672738276, 39250.84790597533, 35821.44210594203, 0.042, 0.9520000000000001, 0.098, 192.0, 0.0, 0.0, 0.0, 0.0, 0.0, 0.0, 0.0, 0.0, 0.0, 1.666555708810138E9, 0.0, 2022-10-23 13:08:28.810
106.0, -73552.8631273345, -105163.41539185231, 67875.60944266432, 19046.48024397853, 76950.7082641969, 89876.38680653415, 40649.776536199635, 37257.25111451759, 0.042, 0.9520000000000001, 0.098, 192.0, 0.0, 0.0, 0.0, 0.0, 0.0, 0.0, 0.0, 0.0, 0.0, 1.6665557088101468E9, 0.0, 2022-10-23 13:08:28.810
107.0, -73463.61261172446, -105083.19498100222, 67147.18844261032, 18443.385475085437, 76684.11900807846, 89429.62013836148, 40019.85967396017, 36375.96653413374, 0.042, 0.9520000000000001, 0.098, 192.0, 0.0, 0.0, 0.0, 0.0, 0.0, 0.0, 0.0, 0.0, 0.0, 1.6665557088101556E9, 0.0, 2022-10-23 13:08:28.810
108.0, -73476.4425130418, -105090.41459446128, 65259.8518442931, 18379.191265009795, 76703.85559843249, 88580.83499441565, 38848.65061624654, 35213.96639513569, 0.042, 0.9520000000000001, 0.098, 192.0, 0.0, 0.0, 0.0, 0.0, 0.0, 0.0, 0.0, 0.0, 0.0, 1.6665557088101645E9, 0.0, 2022-10-23 13:08:28.810
109.0, -73512.29471114812, -105131.89943217034, 65420.180907271024, 18684.806666947206, 76827.2819313147, 88726.32249907524, 39072.50333696644, 35621.975138422866, 0.042, 0.9520000000000001, 0.098, 192.0, 0.0, 0.0, 0.0, 0.0, 0.0, 0.0, 0.0, 0.0, 0.0, 1.666555708810173E9, 0.0, 2022-10-23 13:08:28.810
110.0, -73546.44817667583, -105166.61169130942, 67500.36835674863, 19059.57836622934, 76953.68104620946, 89704.83716783968, 40423.30866137846, 37061.62864704474, 0.042, 0.9520000000000001, 0.098, 192.0, 0.0, 0.0, 0.0, 0.0, 0.0, 0.0, 0.0, 0.0, 0.0, 1.6665557088101816E9, 0.0, 2022-10-23 13:08:28.810
111.0, -73493.92157720585, -105112.05108309402, 67544.42364507004, 18565.87303470052, 76723.0557469196, 89614.58082372915, 40287.94649695713, 36698.50220662382, 0.042, 0.9520000000000001, 0.098, 192.0, 0.0, 0.0, 0.0, 0.0, 0.0, 0.0, 0.0, 0.0, 0.0, 1.6665557088101993E9, 0.0, 2022-10-23 13:08:28.810
112.0, -73472.15097810638, -105087.71003338219, 65412.38014845612, 18331.96202897573, 76671.69143816132, 88634.18860843047, 38923.46190493845, 35269.93516325178, 0.042, 0.9520000000000001, 0.098, 192.0, 0.0, 0.0, 0.0, 0.0, 0.0, 0.0, 0.0, 0.0, 0.0, 1.6665557088102093E9, 0.0, 2022-10-23 13:08:28.810
113.0, -73507.66790004587, -105120.07535935348, 65299.97322559038, 18639.07499779165, 76813.73677417479, 88676.433405451, 38986.15854813559, 35507.84713123407, 0.042, 0.9520000000000001, 0.098, 192.0, 0.0, 0.0, 0.0, 0.0, 0.0, 0.0, 0.0, 0.0, 0.0, 1.6665557088102193E9, 0.0, 2022-10-23 13:08:28.810
114.0, -73541.30727545111, -105154.98878419267, 67087.33047095902, 19025.871935590738, 76944.47212749388, 89527.09609593108, 40172.924419990115, 36817.92757724853, 0.036000000000000004, 0.9520000000000001, 0.10200000000000001, 192.0, 1.0, 32.0, 29.0, 192.0, 3.0, 48.0, 0.0, 0.0, 0.0, 1.6665557088102283E9, 0.0, 2022-10-23 13:08:28.810
115.0, -73503.57753081054, -105121.97525763218, 67891.43447773869, 18707.247818380336, 76774.73298010028, 89799.56386084127, 40539.940063946255, 36997.81441662484, 0.036000000000000004, 0.9520000000000001, 0.10200000000000001, 192.0, 0.0, 0.0, 0.0, 0.0, 0.0, 0.0, 0.0, 0.0, 0.0, 1.666555708810238E9, 0.0, 2022-10-23 13:08:28.810
116.0, -73461.4444925123, -105080.51277166758, 65678.67883189664, 18301.295435583048, 76645.38343493741, 88758.71017679098, 39086.13790108418, 35405.67730732886, 0.036000000000000004, 0.9520000000000001, 0.10200000000000001, 192.0, 0.0, 0.0, 0.0, 0.0, 0.0, 0.0, 0.0, 0.0, 0.0, 1.6665557088102467E9, 0.0, 2022-10-23 13:08:28.810
117.0, -73483.97505092324, -105098.75179514311, 65207.95109366788, 18594.840895514597, 76787.16055001743, 88625.53848332627, 38910.632003621104, 35394.36732463448, 0.036000000000000004, 0.9520000000000001, 0.10200000000000001, 192.0, 0.0, 0.0, 0.0, 0.0, 0.0, 0.0, 0.0, 0.0, 0.0, 1.6665557088102553E9, 0.0, 2022-10-23 13:08:28.810
118.0, -73540.90494405091, -105144.57287127648, 66661.79796001887, 18978.84386525677, 76932.98333084385, 89347.54453272159, 39919.23212042238, 36550.33249262959, 0.036000000000000004, 0.9520000000000001, 0.10200000000000001, 192.0, 0.0, 0.0, 0.0, 0.0, 0.0, 0.0, 0.0, 0.0, 0.0, 1.6665557088102643E9, 0.0, 2022-10-23 13:08:28.810
119.0, -73528.94676076731, -105134.29106882705, 68135.35906497945, 18839.3466281112, 76836.40144305247, 89960.54112440838, 40746.9172176024, 37242.543666665995, 0.036000000000000004, 0.9520000000000001, 0.10200000000000001, 192.0, 0.0, 0.0, 0.0, 0.0, 0.0, 0.0, 0.0, 0.0, 0.0, 1.6665557088102732E9, 0.0, 2022-10-23 13:08:28.810
120.0, -73483.6397747564, -105093.27561775155, 66027.835432033, 18286.297415053537, 76631.32418767503, 88927.42114393963, 39305.408514190734, 35601.81386492418, 0.036000000000000004, 0.9520000000000001, 0.10200000000000001, 192.0, 0.0, 0.0, 0.0, 0.0, 0.0, 0.0, 0.0, 0.0, 0.0, 1.666555708810282E9, 0.0, 2022-10-23 13:08:28.810
121.0, -73513.18878092633, -105117.16963257428, 65200.95499765337, 18532.658342439932, 76768.38508467497, 88629.62885256158, 38891.0295237338, 35324.11579181144, 0.036000000000000004, 0.9520000000000001, 0.10200000000000001, 192.0, 0.0, 0.0, 0.0, 0.0, 0.0, 0.0, 0.0, 0.0, 0.0, 1.6665557092879148E9, 0.0, 2022-10-23 13:08:29.287
122.0, -73546.00114178672, -105147.32213584449, 66275.35865013106, 18895.248340993923, 76903.00964152928, 89184.93559180923, 39672.42415814688, 36269.192250870736, 0.036000000000000004, 0.9520000000000001, 0.10200000000000001, 192.0, 0.0, 0.0, 0.0, 0.0, 0.0, 0.0, 0.0, 0.0, 0.0, 1.6665557092880316E9, 0.0, 2022-10-23 13:08:29.288
123.0, -73534.1547172254, -105142.98589742016, 68166.7856176836, 18943.28223982838, 76876.05343771618, 89991.43123524562, 40789.00555241174, 37323.144057171834, 0.036000000000000004, 0.9520000000000001, 0.10200000000000001, 192.0, 0.0, 0.0, 0.0, 0.0, 0.0, 0.0, 0.0, 0.0, 0.0, 1.6665557092880528E9, 0.0, 2022-10-23 13:08:29.288
124.0, -73461.55625123456, -105077.16000999928, 66406.76455578383, 18325.21180215023, 76637.62737961143, 89085.24681153856, 39534.49154311318, 35835.121373548674, 0.038, 0.9540000000000001, 0.10200000000000001, 192.0, 1.0, 48.0, 29.0, 208.0, 3.0, 48.0, 0.0, 0.0, 0.0, 1.6665557092880795E9, 0.0, 2022-10-23 13:08:29.288
125.0, -73487.90895794738, -105095.19786777471, 65183.07360208913, 18494.839190821553, 76752.73886355625, 88595.90007017853, 38851.64575000355, 35253.5736863105, 0.038, 0.9540000000000001, 0.10200000000000001, 192.0, 0.0, 0.0, 0.0, 0.0, 0.0, 0.0, 0.0, 0.0, 0.0, 1.666555709288096E9, 0.0, 2022-10-23 13:08:29.288
126.0, -73528.34326366702, -105135.38630430536, 65915.38380567834, 18834.228078630935, 76886.0446674877, 89014.39178161524, 39437.10499252141, 36011.25311985649, 0.038, 0.9540000000000001, 0.10200000000000001, 192.0, 0.0, 0.0, 0.0, 0.0, 0.0, 0.0, 0.0, 0.0, 0.0, 1.6665557092881105E9, 0.0, 2022-10-23 13:08:29.288
127.0, -73555.2100605023, -105163.66126104133, 68066.068657168, 19034.47735720603, 76921.98627257184, 89981.17178454064, 40765.35740677803, 37336.555103845014, 0.038, 0.9540000000000001, 0.10200000000000001, 192.0, 0.0, 0.0, 0.0, 0.0, 0.0, 0.0, 0.0, 0.0, 0.0, 1.6665557092883904E9, 0.0, 2022-10-23 13:08:29.288
128.0, -73478.16359736487, -105094.34850148541, 66890.7915819635, 18392.87053261644, 76656.58165890952, 89339.29673901758, 39863.285704050744, 36176.834842781405, 0.038, 0.9540000000000001, 0.10200000000000001, 192.0, 0.0, 0.0, 0.0, 0.0, 0.0, 0.0, 0.0, 0.0, 0.0, 1.666555709288403E9, 0.0, 2022-10-23 13:08:29.288
129.0, -73487.66308875836, -105102.57394344496, 65291.07723129717, 18435.830585459542, 76725.40268008741, 88665.74927160135, 38915.10235251216, 35266.53769809457, 0.038, 0.9540000000000001, 0.10200000000000001, 192.0, 0.0, 0.0, 0.0, 0.0, 0.0, 0.0, 0.0, 0.0, 0.0, 1.6665557092884152E9, 0.0, 2022-10-23 13:08:29.288
130.0, -73513.47935360424, -105123.85280416642, 65668.5534916584, 18753.58298463619, 76852.49469906029, 88915.61942286724, 39276.77592954349, 35803.49365514441, 0.038, 0.9540000000000001, 0.10200000000000001, 192.0, 0.0, 0.0, 0.0, 0.0, 0.0, 0.0, 0.0, 0.0, 0.0, 1.6665557092884264E9, 0.0, 2022-10-23 13:08:29.288
131.0, -73547.07402552057, -105152.57479579149, 67816.53378206895, 19073.81642744737, 76946.34967402813, 89895.81047246582, 40636.03021335962, 37222.069468744936, 0.038, 0.9540000000000001, 0.10200000000000001, 192.0, 0.0, 0.0, 0.0, 0.0, 0.0, 0.0, 0.0, 0.0, 0.0, 1.6665557092884376E9, 0.0, 2022-10-23 13:08:29.288
132.0, -73475.54844326359, -105089.29700723852, 67335.92657279094, 18506.10447002703, 76689.01404011417, 89553.47115438833, 40156.87586747121, 36500.04106760515, 0.038, 0.9540000000000001, 0.10200000000000001, 192.0, 0.0, 0.0, 0.0, 0.0, 0.0, 0.0, 0.0, 0.0, 0.0, 1.666555709288449E9, 0.0, 2022-10-23 13:08:29.288
133.0, -73478.70003923179, -105096.2036962752, 65372.37052588112, 18390.233026770715, 76697.21713032927, 88677.46158569594, 38932.22378876493, 35255.38417761138, 0.038, 0.9540000000000001, 0.10200000000000001, 192.0, 0.0, 0.0, 0.0, 0.0, 0.0, 0.0, 0.0, 0.0, 0.0, 1.6665557092884605E9, 0.0, 2022-10-23 13:08:29.288
134.0, -73518.37438563995, -105135.9674496612, 65453.77557918735, 18684.98548090285, 76827.17017259242, 88803.57012791278, 39112.84823570827, 35613.12384761856, 0.04, 0.9540000000000001, 0.10400000000000001, 192.0, 1.0, 64.0, 29.0, 208.0, 3.0, 64.0, 0.0, 0.0, 0.0, 1.666555709288478E9, 0.0, 2022-10-23 13:08:29.288
135.0, -73553.82425234608, -105169.00332796614, 67453.0720654812, 19069.033154133936, 76954.95509564343, 89751.59701724017, 40418.99477469859, 37017.26043430095, 0.04, 0.9540000000000001, 0.10400000000000001, 192.0, 0.0, 0.0, 0.0, 0.0, 0.0, 0.0, 0.0, 0.0, 0.0, 1.6665557092884912E9, 0.0, 2022-10-23 13:08:29.288
136.0, -73506.39385061192, -105123.04814136603, 67766.80115065588, 18631.296590721202, 76731.99644470173, 89785.01287520086, 40453.03648150402, 36835.96543502396, 0.04, 0.9540000000000001, 0.10400000000000001, 192.0, 0.0, 0.0, 0.0, 0.0, 0.0, 0.0, 0.0, 0.0, 0.0, 1.6665557092885027E9, 0.0, 2022-10-23 13:08:29.288
137.0, -73476.75543746418, -105089.6546351498, 65566.80835089783, 18338.041703467574, 76652.9383245633, 88761.21357216997, 39028.023365500376, 35320.9865475877, 0.04, 0.9540000000000001, 0.10400000000000001, 192.0, 0.0, 0.0, 0.0, 0.0, 0.0, 0.0, 0.0, 0.0, 0.0, 1.666555709288514E9, 0.0, 2022-10-23 13:08:29.288
138.0, -73525.7504613102, -105133.4193507933, 65309.718586172894, 18626.245096474304, 76786.73586687278, 88722.00861239537, 38987.253783613894, 35456.415767242404, 0.04, 0.9540000000000001, 0.10400000000000001, 192.0, 0.0, 0.0, 0.0, 0.0, 0.0, 0.0, 0.0, 0.0, 0.0, 1.6665557092885256E9, 0.0, 2022-10-23 13:08:29.288
139.0, -73554.22658374628, -105163.86242674143, 66992.17909481276, 19019.635798887706, 76929.69762440892, 89535.85797975755, 40120.37546877569, 36722.73149761337, 0.04, 0.9540000000000001, 0.10400000000000001, 192.0, 0.0, 0.0, 0.0, 0.0, 0.0, 0.0, 0.0, 0.0, 0.0, 1.6665557092885373E9, 0.0, 2022-10-23 13:08:29.288
140.0, -73509.25487390219, -105125.7079989562, 68045.99679064713, 18773.408981968045, 76801.01863157972, 89932.69085081707, 40656.772632214146, 37095.446836405616, 0.04, 0.9540000000000001, 0.10400000000000001, 192.0, 0.0, 0.0, 0.0, 0.0, 0.0, 0.0, 0.0, 0.0, 0.0, 1.6665557092885485E9, 0.0, 2022-10-23 13:08:29.288
141.0, -73472.59801299548, -105083.73142286914, 65829.62016220334, 18309.38676707587, 76643.12590874743, 88869.26190486693, 39177.37772195074, 35457.68981667636, 0.04, 0.9540000000000001, 0.10400000000000001, 192.0, 0.0, 0.0, 0.0, 0.0, 0.0, 0.0, 0.0, 0.0, 0.0, 1.6665557092885616E9, 0.0, 2022-10-23 13:08:29.288
142.0, -73509.90307449139, -105117.43785350774, 65217.67410250594, 18570.6339562695, 76767.35690443002, 88662.62002737762, 38902.49596863937, 35340.589027475005, 0.04, 0.9540000000000001, 0.10400000000000001, 192.0, 0.0, 0.0, 0.0, 0.0, 0.0, 0.0, 0.0, 0.0, 0.0, 1.6665557092885888E9, 0.0, 2022-10-23 13:08:29.288
143.0, -73537.3063131936, -105145.0199061656, 66517.58450479324, 18961.52126330391, 76916.17481901345, 89307.26668921312, 39813.88834880452, 36414.63505204142, 0.04, 0.9500000000000001, 0.10400000000000001, 192.0, 1.0, 64.0, 29.0, 176.0, 3.0, 64.0, 0.0, 0.0, 0.0, 1.6665557092886004E9, 0.0, 2022-10-23 13:08:29.288
144.0, -73523.31412116459, -105141.60008926393, 68141.66225691585, 18901.55153293032, 76855.22161188384, 89979.56245893985, 40739.42938320987, 37243.01305329955, 0.04, 0.9500000000000001, 0.10400000000000001, 192.0, 0.0, 0.0, 0.0, 0.0, 0.0, 0.0, 0.0, 0.0, 0.0, 1.666555709288613E9, 0.0, 2022-10-23 13:08:29.288
145.0, -73467.12183560393, -105088.64880664932, 66144.19861366732, 18322.48488932668, 76641.89656280239, 88994.05169416091, 39363.523049774536, 35659.72723480788, 0.04, 0.9500000000000001, 0.10400000000000001, 192.0, 0.0, 0.0, 0.0, 0.0, 0.0, 0.0, 0.0, 0.0, 0.0, 1.6665557092886243E9, 0.0, 2022-10-23 13:08:29.288
146.0, -73501.0517836871, -105118.48838549714, 65188.505075991765, 18536.681656441888, 76766.35107592953, 88640.8270765337, 38870.75649151284, 35290.4317129173, 0.04, 0.9500000000000001, 0.10400000000000001, 192.0, 0.0, 0.0, 0.0, 0.0, 0.0, 0.0, 0.0, 0.0, 0.0, 1.6665557092886355E9, 0.0, 2022-10-23 13:08:29.288
147.0, -73539.34032193903, -105152.03835392457, 66118.78468022164, 18882.619605376676, 76887.07284773265, 89126.84340796989, 39564.46523242775, 36155.645389037774, 0.04, 0.9500000000000001, 0.10400000000000001, 192.0, 0.0, 0.0, 0.0, 0.0, 0.0, 0.0, 0.0, 0.0, 0.0, 1.6665557092886467E9, 0.0, 2022-10-23 13:08:29.288
148.0, -73540.05557776161, -105152.84301672495, 68139.82941387051, 19004.883647547205, 76893.5995571136, 90014.58764250131, 40785.09399713206, 37339.32672015747, 0.04, 0.9500000000000001, 0.10400000000000001, 192.0, 0.0, 0.0, 0.0, 0.0, 0.0, 0.0, 0.0, 0.0, 0.0, 1.666555709288658E9, 0.0, 2022-10-23 13:08:29.288
149.0, -73469.44641702728, -105082.99381530212, 66558.82347331327, 18374.989137052195, 76640.53310639062, 89189.07066453346, 39636.102573407006, 35948.33295921481, 0.04, 0.9500000000000001, 0.10400000000000001, 192.0, 0.0, 0.0, 0.0, 0.0, 0.0, 0.0, 0.0, 0.0, 0.0, 1.6665557092886693E9, 0.0, 2022-10-23 13:08:29.288
150.0, -73493.2957283611, -105103.13273705635, 65197.155201095964, 18486.859618051007, 76737.36086337101, 88635.35089914214, 38859.13358439608, 35252.79137525456, 0.04, 0.9500000000000001, 0.10400000000000001, 192.0, 0.0, 0.0, 0.0, 0.0, 0.0, 0.0, 0.0, 0.0, 0.0, 1.6665557092886806E9, 0.0, 2022-10-23 13:08:29.288
151.0, -73529.99729275671, -105138.5155485291, 65789.34231869488, 18803.270912560336, 76864.98932421081, 88983.16639461118, 39355.49877351508, 35926.38354615969, 0.04, 0.9500000000000001, 0.10400000000000001, 192.0, 0.0, 0.0, 0.0, 0.0, 0.0, 0.0, 0.0, 0.0, 0.0, 1.666555709288692E9, 0.0, 2022-10-23 13:08:29.288
152.0, -73563.30139199512, -105170.14326693336, 67986.0941155069, 19051.308220780877, 76935.2632087783, 89985.8880026207, 40731.33805171705, 37320.059516436995, 0.04, 0.9500000000000001, 0.10400000000000001, 192.0, 0.0, 0.0, 0.0, 0.0, 0.0, 0.0, 0.0, 0.0, 0.0, 1.6665557092887032E9, 0.0, 2022-10-23 13:08:29.288
153.0, -73488.40069632539, -105098.93060909875, 67075.4840463977, 18430.26500109017, 76665.65646715838, 89471.30614177062, 39997.08324636021, 36321.94236778526, 0.042, 0.9480000000000001, 0.106, 192.0, 1.0, 80.0, 29.0, 160.0, 3.0, 80.0, 0.0, 0.0, 0.0, 1.6665557092887146E9, 0.0, 2022-10-23 13:08:29.288
154.0, -73486.92548119134, -105094.34850148541, 65303.72831865887, 18423.961809153774, 76711.29872933612, 88693.51013821484, 38913.783599589304, 35260.50272709164, 0.042, 0.9480000000000001, 0.106, 192.0, 0.0, 0.0, 0.0, 0.0, 0.0, 0.0, 0.0, 0.0, 0.0, 1.6665557092887268E9, 0.0, 2022-10-23 13:08:29.288
155.0, -73516.00510072769, -105123.24930706613, 65550.98331582348, 18733.60052509314, 76835.37326280752, 88882.89646898466, 39191.34756223531, 35719.04876459226, 0.042, 0.9480000000000001, 0.106, 192.0, 0.0, 0.0, 0.0, 0.0, 0.0, 0.0, 0.0, 0.0, 0.0, 1.666555709288738E9, 0.0, 2022-10-23 13:08:29.288
156.0, -73557.35582797001, -105158.47565632769, 67674.8237222223, 19089.283834610444, 76954.97744738788, 89877.07971061226, 40559.944875233756, 37159.84221218136, 0.042, 0.9480000000000001, 0.106, 192.0, 0.0, 0.0, 0.0, 0.0, 0.0, 0.0, 0.0, 0.0, 0.0, 1.666555709288751E9, 0.0, 2022-10-23 13:08:29.288
157.0, -73478.58828050952, -105091.12985028385, 67504.9281126175, 18574.813732482642, 76727.90607546641, 89697.97518229189, 40294.003819704514, 36651.56354326767, 0.042, 0.9480000000000001, 0.106, 192.0, 0.0, 0.0, 0.0, 0.0, 0.0, 0.0, 0.0, 0.0, 0.0, 1.666555709288762E9, 0.0, 2022-10-23 13:08:29.288
158.0, -73479.839978199, -105090.83927760593, 65419.488003192906, 18371.725782361722, 76677.45818823078, 88739.8453044707, 38967.38308279313, 35277.668866833315, 0.042, 0.9480000000000001, 0.106, 192.0, 0.0, 0.0, 0.0, 0.0, 0.0, 0.0, 0.0, 0.0, 0.0, 1.6665557092887845E9, 0.0, 2022-10-23 13:08:29.288
159.0, -73528.9020572784, -105133.39699904884, 65349.88467095908, 18662.94666086992, 76796.4812274553, 88776.63627584414, 39042.30613020732, 35534.110430969056, 0.042, 0.9480000000000001, 0.106, 192.0, 0.0, 0.0, 0.0, 0.0, 0.0, 0.0, 0.0, 0.0, 0.0, 1.6665557092887962E9, 0.0, 2022-10-23 13:08:29.288
160.0, -73570.61041243201, -105172.91488324582, 67244.30677226862, 19059.265441806965, 76935.10674656711, 89681.23372569487, 40296.08253193886, 36903.624165490175, 0.042, 0.9480000000000001, 0.106, 192.0, 0.0, 0.0, 0.0, 0.0, 0.0, 0.0, 0.0, 0.0, 0.0, 1.6665557092888076E9, 0.0, 2022-10-23 13:08:29.288
161.0, -73506.77383026766, -105114.82269940648, 67838.84082303534, 18697.256588608812, 76758.63972409246, 89856.22553303547, 40525.23261609467, 36935.274235638884, 0.042, 0.9480000000000001, 0.106, 192.0, 0.0, 0.0, 0.0, 0.0, 0.0, 0.0, 0.0, 0.0, 0.0, 1.6665557092888203E9, 0.0, 2022-10-23 13:08:29.288
162.0, -73482.87981544493, -105086.34657697042, 65634.62354357523, 18339.40515987935, 76661.27552524513, 88830.32516602578, 39090.83176741979, 35383.12439717345, 0.042, 0.9480000000000001, 0.106, 192.0, 0.0, 0.0, 0.0, 0.0, 0.0, 0.0, 0.0, 0.0, 0.0, 1.6665557092888317E9, 0.0, 2022-10-23 13:08:29.288
163.0, -73518.03910947313, -105116.43202500726, 65251.29112616672, 18619.53957313771, 76790.60271866355, 88728.98235666542, 38968.14304210461, 35428.945473306834, 0.04, 0.9480000000000001, 0.11, 192.0, 1.0, 64.0, 29.0, 160.0, 3.0, 112.0, 0.0, 0.0, 0.0, 1.6665557092888434E9, 0.0, 2022-10-23 13:08:29.288
164.0, -73559.68040939336, -105160.1743889063, 66823.35636894184, 19019.747557609982, 76945.16503157199, 89505.90664218744, 40047.10645045119, 36651.72000547886, 0.04, 0.9480000000000001, 0.11, 192.0, 0.0, 0.0, 0.0, 0.0, 0.0, 0.0, 0.0, 0.0, 0.0, 1.666555709288856E9, 0.0, 2022-10-23 13:08:29.288
165.0, -73530.86901079047, -105142.00242066412, 68112.80615482404, 18821.62169475814, 76819.99526262228, 90017.94040416961, 40743.36329023401, 37198.93541323369, 0.04, 0.9480000000000001, 0.11, 192.0, 0.0, 0.0, 0.0, 0.0, 0.0, 0.0, 0.0, 0.0, 0.0, 1.6665557092888684E9, 0.0, 2022-10-23 13:08:29.288
166.0, -73475.92842291933, -105088.24647524912, 65937.17675652227, 18314.28179911158, 76636.86742029994, 88960.00998735547, 39274.58545858687, 35549.28726545421, 0.04, 0.9480000000000001, 0.11, 192.0, 0.0, 0.0, 0.0, 0.0, 0.0, 0.0, 0.0, 0.0, 0.0, 1.6665557092888799E9, 0.0, 2022-10-23 13:08:29.288
167.0, -73506.23738840072, -105111.84991739392, 65200.68677671991, 18579.641709284988, 76776.69993361234, 88698.82985339522, 38922.23255899341, 35348.23332407872, 0.04, 0.9480000000000001, 0.11, 192.0, 0.0, 0.0, 0.0, 0.0, 0.0, 0.0, 0.0, 0.0, 0.0, 1.6665557092888913E9, 0.0, 2022-10-23 13:08:29.288
168.0, -73546.24701097573, -105148.46207481172, 66384.23399737287, 18952.89348994416, 76918.11942078108, 89301.4328839103, 39769.29661861618, 36364.544792717075, 0.04, 0.9480000000000001, 0.11, 192.0, 0.0, 0.0, 0.0, 0.0, 0.0, 0.0, 0.0, 0.0, 0.0, 1.6665557092889028E9, 0.0, 2022-10-23 13:08:29.288
169.0, -73543.56480164109, -105151.90424345783, 68202.5037053232, 18954.972202178502, 76881.75313255229, 90087.6107916368, 40838.22409370233, 37352.29073194155, 0.04, 0.9480000000000001, 0.11, 192.0, 0.0, 0.0, 0.0, 0.0, 0.0, 0.0, 0.0, 0.0, 0.0, 1.6665557092889142E9, 0.0, 2022-10-23 13:08:29.288
170.0, -73476.80014095308, -105089.9005043388, 66347.84535739962, 18341.975610491707, 76642.41065292485, 89163.3438066654, 39540.21358969374, 35819.92218731906, 0.04, 0.9480000000000001, 0.11, 192.0, 0.0, 0.0, 0.0, 0.0, 0.0, 0.0, 0.0, 0.0, 0.0, 1.6665557092889256E9, 0.0, 2022-10-23 13:08:29.288
171.0, -73506.41620235637, -105115.94028662924, 65224.06670142015, 18523.024740579694, 76745.51925009719, 88712.71028670196, 38921.047916537274, 35303.529835168105, 0.04, 0.9480000000000001, 0.11, 192.0, 0.0, 0.0, 0.0, 0.0, 0.0, 0.0, 0.0, 0.0, 0.0, 1.666555709288937E9, 0.0, 2022-10-23 13:08:29.288
172.0, -73537.48512714925, -105143.92467068728, 66041.96173452876, 18872.896596538616, 76883.31775466415, 89154.87249551684, 39551.81414506604, 36106.20333030264, 0.032, 0.9420000000000001, 0.11, 192.0, 1.0, 0.0, 29.0, 112.0, 3.0, 112.0, 0.0, 0.0, 0.0, 1.6665557092889488E9, 0.0, 2022-10-23 13:08:29.288
173.0, -73542.73778709624, -105148.84205446746, 68175.03341138762, 19058.550185984397, 76930.63639767605, 90114.3658297498, 40863.347454470095, 37400.97283136521, 0.032, 0.9420000000000001, 0.11, 192.0, 0.0, 0.0, 0.0, 0.0, 0.0, 0.0, 0.0, 0.0, 0.0, 1.6665557092889712E9, 0.0, 2022-10-23 13:08:29.288
174.0, -73472.50860601767, -105084.91606532528, 66825.39037768726, 18417.07747186154, 76657.9004118324, 89397.27716413465, 39854.277951035256, 36133.76303121603, 0.032, 0.9420000000000001, 0.11, 192.0, 0.0, 0.0, 0.0, 0.0, 0.0, 0.0, 0.0, 0.0, 0.0, 1.6665557092889829E9, 0.0, 2022-10-23 13:08:29.288
175.0, -73496.4473243293, -105107.78189990306, 65268.144341486026, 18467.681821308353, 76706.35899381149, 88715.14662684759, 38920.69028862599, 35256.54646832305, 0.032, 0.9420000000000001, 0.11, 192.0, 0.0, 0.0, 0.0, 0.0, 0.0, 0.0, 0.0, 0.0, 0.0, 1.666555709288994E9, 0.0, 2022-10-23 13:08:29.288
176.0, -73536.38989167093, -105145.33283058797, 65735.67578025768, 18791.178618810012, 76844.64923675648, 89000.57840354186, 39339.09259308488, 35849.47119348898, 0.032, 0.9420000000000001, 0.11, 192.0, 0.0, 0.0, 0.0, 0.0, 0.0, 0.0, 0.0, 0.0, 0.0, 1.6665557092890055E9, 0.0, 2022-10-23 13:08:29.289
177.0, -73561.02151406069, -105170.99263322266, 67946.62093479883, 19094.96117770209, 76941.74521467033, 90023.1483606277, 40741.35163323303, 37289.25881257759, 0.032, 0.9420000000000001, 0.11, 192.0, 0.0, 0.0, 0.0, 0.0, 0.0, 0.0, 0.0, 0.0, 0.0, 1.666555709289018E9, 0.0, 2022-10-23 13:08:29.289
178.0, -73474.78848395211, -105099.08707130994, 67272.13469411549, 18490.94998728633, 76672.40669398388, 89606.55654746969, 40149.94682669006, 36442.19475295481, 0.032, 0.9420000000000001, 0.11, 192.0, 0.0, 0.0, 0.0, 0.0, 0.0, 0.0, 0.0, 0.0, 0.0, 1.6665557092890296E9, 0.0, 2022-10-23 13:08:29.289
179.0, -73474.25204208518, -105102.61864693387, 65383.2334736864, 18416.093995105504, 76689.97516512575, 88763.78402278233, 38980.414149810575, 35271.164509196824, 0.032, 0.9420000000000001, 0.11, 192.0, 0.0, 0.0, 0.0, 0.0, 0.0, 0.0, 0.0, 0.0, 0.0, 1.6665557092890408E9, 0.0, 2022-10-23 13:08:29.289
180.0, -73516.92152225036, -105135.69922872774, 65567.45655148703, 18727.09616745665, 76823.90681790195, 88939.80401036788, 39229.72550746507, 35697.54638642626, 0.032, 0.9420000000000001, 0.11, 192.0, 0.0, 0.0, 0.0, 0.0, 0.0, 0.0, 0.0, 0.0, 0.0, 1.666555709289052E9, 0.0, 2022-10-23 13:08:29.289
181.0, -73566.83296761906, -105173.4289733683, 67603.61106438769, 19084.791133974926, 76932.20101978791, 89879.5607542468, 40540.87883721338, 37100.6547928637, 0.032, 0.9420000000000001, 0.11, 192.0, 0.0, 0.0, 0.0, 0.0, 0.0, 0.0, 0.0, 0.0, 0.0, 1.6665557092890632E9, 0.0, 2022-10-23 13:08:29.289
182.0, -73517.18974318383, -105129.32898155798, 67692.77217301991, 18605.569732853142, 76712.48337179224, 89805.7999975443, 40433.1434289388, 36767.09971035716, 0.03, 0.9520000000000001, 0.108, 192.0, 0.0, 240.0, 29.0, 192.0, 3.0, 96.0, 0.0, 0.0, 0.0, 1.666555709289075E9, 0.0, 2022-10-23 13:08:29.289
183.0, -73481.85163519999, -105094.9072950968, 65566.4283712421, 18371.994003295185, 76672.36199049497, 88835.13079108368, 39078.80652890284, 35337.95152162928, 0.03, 0.9520000000000001, 0.108, 192.0, 0.0, 0.0, 0.0, 0.0, 0.0, 0.0, 0.0, 0.0, 0.0, 1.6665557092890868E9, 0.0, 2022-10-23 13:08:29.289
184.0, -73505.58918781152, -105113.57100171698, 65408.89327632109, 18675.910672653994, 76811.85922764054, 88842.30570105383, 39104.913366426634, 35539.899532782976, 0.03, 0.9520000000000001, 0.108, 192.0, 0.0, 0.0, 0.0, 0.0, 0.0, 0.0, 0.0, 0.0, 0.0, 1.6665557092890983E9, 0.0, 2022-10-23 13:08:29.289
185.0, -73542.69308360733, -105154.89937721484, 67199.1562484689, 19074.68814548113, 76949.65773220752, 89700.81385383772, 40300.21760466309, 36857.1995922565, 0.03, 0.9520000000000001, 0.108, 192.0, 0.0, 0.0, 0.0, 0.0, 0.0, 0.0, 0.0, 0.0, 0.0, 1.6665557092891097E9, 0.0, 2022-10-23 13:08:29.289
186.0, -73504.69511803331, -105127.45143502373, 68053.30581108402, 18762.747199862864, 76775.24707022274, 89995.52160448093, 40696.759903044695, 37066.72484478055, 0.03, 0.9520000000000001, 0.108, 192.0, 0.0, 0.0, 0.0, 0.0, 0.0, 0.0, 0.0, 0.0, 0.0, 1.666555709289121E9, 0.0, 2022-10-23 13:08:29.289
187.0, -73473.82735894053, -105093.76735612958, 65842.87474666533, 18344.143729703872, 76638.96848427874, 88956.76898440946, 39242.9130366937, 35462.562496967614, 0.03, 0.9520000000000001, 0.108, 192.0, 0.0, 0.0, 0.0, 0.0, 0.0, 0.0, 0.0, 0.0, 0.0, 1.666555709289132E9, 0.0, 2022-10-23 13:08:29.289
188.0, -73516.58624608353, -105132.90526067081, 65374.113961948635, 18622.490003405812, 76776.00702953423, 88835.13079108368, 39072.749206155444, 35447.02803457118, 0.03, 0.9520000000000001, 0.108, 192.0, 0.0, 0.0, 0.0, 0.0, 0.0, 0.0, 0.0, 0.0, 0.0, 1.666555709289144E9, 0.0, 2022-10-23 13:08:29.289
189.0, -73550.29267672214, -105164.95766221973, 66811.88992403627, 19007.878781304214, 76916.73361262484, 89552.73354682131, 40069.257029206405, 36586.81053958065, 0.03, 0.9520000000000001, 0.108, 192.0, 0.0, 0.0, 0.0, 0.0, 0.0, 0.0, 0.0, 0.0, 0.0, 1.6665557092891665E9, 0.0, 2022-10-23 13:08:29.289
190.0, -73522.64356883091, -105147.54565328904, 68304.7182327173, 18888.989852546438, 76830.72409996082, 90164.45608907416, 40901.43482702194, 37293.796216702016, 0.03, 0.9520000000000001, 0.108, 192.0, 0.0, 0.0, 0.0, 0.0, 0.0, 0.0, 0.0, 0.0, 0.0, 1.666555709289178E9, 0.0, 2022-10-23 13:08:29.289
191.0, -73462.56207973506, -105089.81109736099, 66213.75724241225, 18334.308962143536, 76626.25034168367, 89140.99206221009, 39473.87361215039, 35664.51050812132, 0.03, 0.9520000000000001, 0.108, 192.0, 0.0, 0.0, 0.0, 0.0, 0.0, 0.0, 0.0, 0.0, 0.0, 1.6665557092891893E9, 0.0, 2022-10-23 13:08:29.289
192.0, -73499.73303076423, -105119.71773144219, 65330.1704323495, 18561.76031372074, 76745.07221520809, 88805.1123982802, 39018.18859794004, 35343.114774598456, 0.026000000000000002, 0.9560000000000001, 0.096, 192.0, 0.0, 208.0, 29.0, 224.0, 3.0, 0.0, 0.0, 0.0, 0.0, 1.6665557092892008E9, 0.0, 2022-10-23 13:08:29.289
193.0, -73542.73778709624, -105163.21422615221, 66365.57029075269, 18917.913009871605, 76876.88045226103, 89335.20636978226, 39771.26357212825, 36263.403149056816, 0.026000000000000002, 0.9560000000000001, 0.096, 192.0, 0.0, 0.0, 0.0, 0.0, 0.0, 0.0, 0.0, 0.0, 0.0, 1.6665557092892127E9, 0.0, 2022-10-23 13:08:29.289
194.0, -73543.16247024089, -105166.00819420913, 68310.82025895361, 18995.250045686967, 76873.05830395917, 90184.37149338383, 40930.40268783602, 37368.16047050482, 0.026000000000000002, 0.9560000000000001, 0.096, 192.0, 0.0, 0.0, 0.0, 0.0, 0.0, 0.0, 0.0, 0.0, 0.0, 1.666555709289224E9, 0.0, 2022-10-23 13:08:29.289
195.0, -73481.60576601098, -105107.26780978058, 66608.6678634486, 18363.25447121316, 76617.77903053511, 89324.0304975546, 39720.413353492426, 35915.74411579897, 0.026000000000000002, 0.9560000000000001, 0.096, 192.0, 0.0, 0.0, 0.0, 0.0, 0.0, 0.0, 0.0, 0.0, 0.0, 1.6665557092892354E9, 0.0, 2022-10-23 13:08:29.289
196.0, -73509.94777798031, -105130.67008622529, 65321.1179758451, 18503.6681298814, 76711.0081566582, 88788.30388644981, 38982.42580681155, 35272.639724330875, 0.026000000000000002, 0.9560000000000001, 0.096, 192.0, 0.0, 0.0, 0.0, 0.0, 0.0, 0.0, 0.0, 0.0, 0.0, 1.6665557092892473E9, 0.0, 2022-10-23 13:08:29.289
197.0, -73544.50357490822, -105164.71179303073, 66033.75864431365, 18857.742113797918, 76861.5918590536, 89197.49727219311, 39555.16690673434, 36021.66903277267, 0.026000000000000002, 0.9560000000000001, 0.096, 192.0, 0.0, 0.0, 0.0, 0.0, 0.0, 0.0, 0.0, 0.0, 0.0, 1.666555709289261E9, 0.0, 2022-10-23 13:08:29.289
198.0, -73560.8650518495, -105182.61554033942, 68216.07121420756, 19078.018555404968, 76909.15637125449, 90184.97499048413, 40905.793417190725, 37372.563764162514, 0.026000000000000002, 0.9560000000000001, 0.096, 192.0, 0.0, 0.0, 0.0, 0.0, 0.0, 0.0, 0.0, 0.0, 0.0, 1.6665557092892735E9, 0.0, 2022-10-23 13:08:29.289
199.0, -73488.40069632539, -105114.33096102846, 67063.23529043619, 18430.64498074591, 76632.24060919769, 89545.49158161778, 40012.617708756654, 36217.313851989966, 0.026000000000000002, 0.9560000000000001, 0.096, 192.0, 0.0, 0.0, 0.0, 0.0, 0.0, 0.0, 0.0, 0.0, 0.0, 1.666555709289285E9, 0.0, 2022-10-23 13:08:29.289
200.0, -73508.89724599091, -105130.066589125, 65400.77959308381, 18457.467074092277, 76688.32113603606, 88828.13469506917, 39013.1594554376, 35255.071253189, 0.026000000000000002, 0.9560000000000001, 0.096, 192.0, 0.0, 0.0, 0.0, 0.0, 0.0, 0.0, 0.0, 0.0, 0.0, 1.6665557092892962E9, 0.0, 2022-10-23 13:08:29.289
201.0, -73552.97488605678, -105170.63500531137, 65748.90801297523, 18777.342888992178, 76816.68720444289, 89063.23034325008, 39351.900142657774, 35776.828024009235, 0.028, 0.9540000000000001, 0.094, 192.0, 0.0, 224.0, 29.0, 208.0, 2.0, 240.0, 0.0, 0.0, 0.0, 1.6665557092893078E9, 0.0, 2022-10-23 13:08:29.289
202.0, -73576.82419739058, -105199.46875565873, 67917.34014956238, 19116.061224467903, 76931.75398489881, 90066.33193091536, 40732.276824984176, 37220.8848262888, 0.028, 0.9540000000000001, 0.094, 192.0, 0.0, 0.0, 0.0, 0.0, 0.0, 0.0, 0.0, 0.0, 0.0, 1.6665557092893205E9, 0.0, 2022-10-23 13:08:29.289
203.0, -73507.37732736794, -105143.567042776, 67522.96597039295, 18550.740903704274, 76677.39113299742, 89782.50947982186, 40318.83660779436, 36558.15560318895, 0.028, 0.9540000000000001, 0.094, 192.0, 0.0, 0.0, 0.0, 0.0, 0.0, 0.0, 0.0, 0.0, 0.0, 1.6665557092893317E9, 0.0, 2022-10-23 13:08:29.289
204.0, -73505.85740874498, -105130.17834784728, 65516.226353195474, 18399.799573397588, 76656.11227227596, 88875.96742820353, 39058.13116528167, 35271.231564430185, 0.028, 0.9540000000000001, 0.094, 192.0, 0.0, 0.0, 0.0, 0.0, 0.0, 0.0, 0.0, 0.0, 0.0, 1.666555709289355E9, 0.0, 2022-10-23 13:08:29.289
205.0, -73552.14787151193, -105164.10829593043, 65523.55772537681, 18701.592827033142, 76784.41128544943, 88940.31810049035, 39175.522527160945, 35576.13171054503, 0.028, 0.9540000000000001, 0.094, 192.0, 0.0, 0.0, 0.0, 0.0, 0.0, 0.0, 0.0, 0.0, 0.0, 1.6665557092893665E9, 0.0, 2022-10-23 13:08:29.289
206.0, -73597.74543020075, -105200.6310463704, 67506.09040332919, 19096.369337602777, 76926.43426971845, 89880.03014088036, 40474.91883932577, 36982.056436783845, 0.028, 0.9540000000000001, 0.094, 192.0, 0.0, 0.0, 0.0, 0.0, 0.0, 0.0, 0.0, 0.0, 0.0, 1.6665557092893777E9, 0.0, 2022-10-23 13:08:29.289
207.0, -73530.5113828792, -105143.34352533145, 67898.81055340893, 18674.301347053213, 76722.78752598615, 89967.80544135637, 40574.18293645179, 36862.80988011478, 0.028, 0.9540000000000001, 0.094, 192.0, 0.0, 0.0, 0.0, 0.0, 0.0, 0.0, 0.0, 0.0, 0.0, 1.666555709289389E9, 0.0, 2022-10-23 13:08:29.289
208.0, -73509.21017041328, -105125.30566755602, 65686.14431454473, 18356.01250600964, 76632.08414698651, 88936.00421381048, 39140.54204708839, 35332.49769598219, 0.028, 0.9540000000000001, 0.094, 192.0, 0.0, 0.0, 0.0, 0.0, 0.0, 0.0, 0.0, 0.0, 0.0, 1.6665557092894E9, 0.0, 2022-10-23 13:08:29.289
209.0, -73549.82329008858, -105164.44357209725, 65428.83103237522, 18655.25766077729, 76775.60469813403, 88907.75160881897, 39104.086351881786, 35468.88804064847, 0.028, 0.9540000000000001, 0.094, 192.0, 0.0, 0.0, 0.0, 0.0, 0.0, 0.0, 0.0, 0.0, 0.0, 1.6665557092894113E9, 0.0, 2022-10-23 13:08:29.289
210.0, -73585.29550853914, -105202.15096499336, 67126.17780282233, 19058.52783423994, 76931.39635698752, 89745.3385287927, 40255.17883958564, 36752.481669483386, 0.028, 0.9540000000000001, 0.094, 192.0, 0.0, 0.0, 0.0, 0.0, 0.0, 0.0, 0.0, 0.0, 0.0, 1.6665557092894225E9, 0.0, 2022-10-23 13:08:29.289
211.0, -73534.60175211451, -105157.58158654948, 68224.18489744484, 18813.977398154428, 76788.74752387375, 90163.1820396402, 40815.69353529138, 37149.135726587265, 0.03, 0.9540000000000001, 0.098, 192.0, 0.0, 240.0, 29.0, 208.0, 3.0, 16.0, 0.0, 0.0, 0.0, 1.6665557092894337E9, 0.0, 2022-10-23 13:08:29.289
212.0, -73493.2957283611, -105118.75660643062, 66015.94430398277, 18344.92604075981, 76627.54674286208, 89105.40808503724, 39341.908912886254, 35511.15518941345, 0.03, 0.9540000000000001, 0.098, 192.0, 0.0, 0.0, 0.0, 0.0, 0.0, 0.0, 0.0, 0.0, 0.0, 1.6665557092894452E9, 0.0, 2022-10-23 13:08:29.289
213.0, -73531.74072882422, -105152.35127834693, 65389.67077608953, 18605.68149157542, 76751.62127633349, 88893.35708538975, 39058.846421104245, 35380.777464005645, 0.03, 0.9540000000000001, 0.098, 192.0, 0.0, 0.0, 0.0, 0.0, 0.0, 0.0, 0.0, 0.0, 0.0, 1.6665557092894547E9, 0.0, 2022-10-23 13:08:29.289
214.0, -73574.74548515624, -105191.64564509937, 66683.81442830735, 18981.883702502695, 76892.16904546846, 89542.04941297167, 39966.72957738991, 36445.92749427885, 0.03, 0.9540000000000001, 0.098, 192.0, 0.0, 0.0, 0.0, 0.0, 0.0, 0.0, 0.0, 0.0, 0.0, 1.6665557092894645E9, 0.0, 2022-10-23 13:08:29.289
215.0, -73556.9087930809, -105179.5757030935, 68362.89982353448, 18928.64184721015, 76835.84264944108, 90253.28192153954, 40930.82737098067, 37311.76701924408, 0.03, 0.9540000000000001, 0.098, 192.0, 0.0, 0.0, 0.0, 0.0, 0.0, 0.0, 0.0, 0.0, 0.0, 1.666555709289474E9, 0.0, 2022-10-23 13:08:29.289
216.0, -73495.1956266398, -105116.81200466299, 66356.87546215957, 18337.05822671154, 76606.53610307409, 89252.10258389743, 39539.36422340444, 35707.24704351986, 0.03, 0.9540000000000001, 0.098, 192.0, 0.0, 0.0, 0.0, 0.0, 0.0, 0.0, 0.0, 0.0, 0.0, 1.666555709289484E9, 0.0, 2022-10-23 13:08:29.289
217.0, -73536.21107771528, -105152.59714753594, 65338.15000512004, 18549.399799036957, 76731.03531969016, 88849.48061102399, 38989.8018824818, 35284.329686681, 0.03, 0.9540000000000001, 0.098, 192.0, 0.0, 0.0, 0.0, 0.0, 0.0, 0.0, 0.0, 0.0, 0.0, 1.6665557092894936E9, 0.0, 2022-10-23 13:08:29.289
218.0, -73567.48116820827, -105183.42020313982, 66276.23036816482, 18906.580675432764, 76878.78035053973, 89355.21118106975, 39694.686495624366, 36161.00980770705, 0.03, 0.9540000000000001, 0.098, 192.0, 0.0, 0.0, 0.0, 0.0, 0.0, 0.0, 0.0, 0.0, 0.0, 1.6665557092895033E9, 0.0, 2022-10-23 13:08:29.289
219.0, -73570.45395022082, -105191.62329335492, 68313.7259857328, 19025.603714657274, 76885.9999639988, 90245.97290110265, 40918.26569059678, 37352.715415086204, 0.03, 0.9540000000000001, 0.098, 192.0, 0.0, 0.0, 0.0, 0.0, 0.0, 0.0, 0.0, 0.0, 0.0, 1.666555709289513E9, 0.0, 2022-10-23 13:08:29.289
220.0, -73510.68538554733, -105134.20166184923, 66766.22531011407, 18376.196131252782, 76616.0802979565, 89433.19641747432, 39787.222717669334, 35973.21045079356, 0.03, 0.9540000000000001, 0.098, 192.0, 0.0, 0.0, 0.0, 0.0, 0.0, 0.0, 0.0, 0.0, 0.0, 1.6665557092895339E9, 0.0, 2022-10-23 13:08:29.289
221.0, -73532.70185383581, -105149.06557191201, 65343.60383076714, 18488.737164585255, 76708.16948511238, 88832.40387826013, 38958.397681522096, 35226.55042726403, 0.032, 0.9560000000000001, 0.1, 192.0, 1.0, 0.0, 29.0, 224.0, 3.0, 32.0, 0.0, 0.0, 0.0, 1.6665557092895436E9, 0.0, 2022-10-23 13:08:29.289
222.0, -73566.07300830758, -105180.00038623816, 65930.24771574113, 18827.321389594246, 76846.92911469092, 89183.88505981983, 39451.36540548389, 35903.8753394932, 0.032, 0.9560000000000001, 0.1, 192.0, 0.0, 0.0, 0.0, 0.0, 0.0, 0.0, 0.0, 0.0, 0.0, 1.666555709289554E9, 0.0, 2022-10-23 13:08:29.289
223.0, -73587.0165928622, -105201.86039231544, 68142.71278890524, 19100.92909347166, 76925.49549645132, 90199.30245867997, 40837.978224513325, 37319.67953678126, 0.032, 0.9560000000000001, 0.1, 192.0, 0.0, 0.0, 0.0, 0.0, 0.0, 0.0, 0.0, 0.0, 0.0, 1.6665557092895648E9, 0.0, 2022-10-23 13:08:29.289
224.0, -73517.36855713947, -105137.33090607297, 67250.56526071612, 18475.37082140098, 76650.03259778411, 89682.66423734001, 40108.394933747644, 36333.90055106885, 0.032, 0.9560000000000001, 0.1, 192.0, 0.0, 0.0, 0.0, 0.0, 0.0, 0.0, 0.0, 0.0, 0.0, 1.6665557092895749E9, 0.0, 2022-10-23 13:08:29.289
225.0, -73522.04007173063, -105137.10738862841, 65434.48602372242, 18445.978277442253, 76679.02281034265, 88870.84887872325, 38988.70664700349, 35239.08975590346, 0.032, 0.9560000000000001, 0.1, 192.0, 0.0, 0.0, 0.0, 0.0, 0.0, 0.0, 0.0, 0.0, 0.0, 1.6665557092895849E9, 0.0, 2022-10-23 13:08:29.289
226.0, -73562.54143268365, -105174.8818367579, 65682.61273892078, 18761.13787426208, 76817.31305328764, 89062.96212231662, 39267.90228699473, 35706.53178769729, 0.032, 0.9560000000000001, 0.1, 192.0, 0.0, 0.0, 0.0, 0.0, 0.0, 0.0, 0.0, 0.0, 0.0, 1.666555709289599E9, 0.0, 2022-10-23 13:08:29.289
227.0, -73601.14289535796, -105215.9866948112, 67813.35983435629, 19110.093308698335, 76931.91044711, 90056.74303254402, 40633.99620461419, 37152.577895233386, 0.032, 0.9560000000000001, 0.1, 192.0, 0.0, 0.0, 0.0, 0.0, 0.0, 0.0, 0.0, 0.0, 0.0, 1.6665557092896087E9, 0.0, 2022-10-23 13:08:29.289
228.0, -73535.74169108173, -105156.35224060444, 67699.50004810096, 18588.761221022753, 76695.0043076282, 89903.38771383617, 40400.42047505623, 36676.73160752435, 0.032, 0.9560000000000001, 0.1, 192.0, 0.0, 0.0, 0.0, 0.0, 0.0, 0.0, 0.0, 0.0, 0.0, 1.6665557092896185E9, 0.0, 2022-10-23 13:08:29.289
229.0, -73518.7543652957, -105137.35325781742, 65619.31259862335, 18395.4409832288, 76656.2463827427, 88959.58530421082, 39081.33227602628, 35301.920509567324, 0.032, 0.9560000000000001, 0.1, 192.0, 0.0, 0.0, 0.0, 0.0, 0.0, 0.0, 0.0, 0.0, 0.0, 1.666555709289628E9, 0.0, 2022-10-23 13:08:29.289
230.0, -73551.52202266718, -105165.56115932003, 65553.44200771356, 18697.144829886536, 76787.04879129515, 89009.8096740019, 39162.78203282142, 35560.440785937404, 0.032, 0.9560000000000001, 0.1, 192.0, 0.0, 0.0, 0.0, 0.0, 0.0, 0.0, 0.0, 0.0, 0.0, 1.6665557092896376E9, 0.0, 2022-10-23 13:08:29.289
231.0, -73594.3256132991, -105211.35988370895, 67402.8029922012, 19081.952462429104, 76921.18160977145, 89879.47134726899, 40376.437053255686, 36895.3093165528, 0.03, 0.96, 0.098, 192.0, 0.0, 240.0, 30.0, 0.0, 3.0, 16.0, 0.0, 0.0, 0.0, 1.666555709289647E9, 0.0, 2022-10-23 13:08:29.289
232.0, -73561.02151406069, -105180.49212461617, 68074.58467180547, 18726.55972558972, 76745.362787886, 90104.37459997828, 40660.259504349175, 36978.99424779347, 0.03, 0.96, 0.098, 192.0, 0.0, 0.0, 0.0, 0.0, 0.0, 0.0, 0.0, 0.0, 0.0, 1.6665557092896576E9, 0.0, 2022-10-23 13:08:29.289
233.0, -73521.01189148569, -105139.49902528514, 65823.3840255003, 18345.864814026932, 76607.56428331904, 89039.26927319399, 39180.350503963295, 35377.0000191927, 0.03, 0.96, 0.098, 192.0, 0.0, 0.0, 0.0, 0.0, 0.0, 0.0, 0.0, 0.0, 0.0, 1.6665557092896671E9, 0.0, 2022-10-23 13:08:29.289
234.0, -73549.89034532194, -105164.77884826409, 65395.45987790345, 18644.21589901637, 76754.05761647911, 88907.66220184114, 39019.82027528528, 35396.580147335546, 0.03, 0.96, 0.098, 192.0, 0.0, 0.0, 0.0, 0.0, 0.0, 0.0, 0.0, 0.0, 0.0, 1.666555709289677E9, 0.0, 2022-10-23 13:08:29.289
235.0, -73593.5656539876, -105200.74280509268, 66922.039320712, 19041.361694498264, 76913.82788584565, 89651.19298114693, 40061.61273260268, 36594.477187928824, 0.03, 0.96, 0.098, 192.0, 0.0, 0.0, 0.0, 0.0, 0.0, 0.0, 0.0, 0.0, 0.0, 1.6665557092896972E9, 0.0, 2022-10-23 13:08:29.289
236.0, -73571.92916535487, -105181.20738043873, 68248.4588919233, 18860.200805688, 76804.12552405901, 90182.15867068275, 40779.9754476518, 37178.30475310144, 0.03, 0.96, 0.098, 192.0, 0.0, 0.0, 0.0, 0.0, 0.0, 0.0, 0.0, 0.0, 0.0, 1.6665557092897072E9, 0.0, 2022-10-23 13:08:29.289
237.0, -73529.6620165899, -105143.14235963135, 66074.61763317796, 18332.25260165365, 76609.88886474239, 89121.8366172119, 39308.33659271438, 35528.3883843885, 0.03, 0.96, 0.098, 192.0, 0.0, 0.0, 0.0, 0.0, 0.0, 0.0, 0.0, 0.0, 0.0, 1.6665557092897167E9, 0.0, 2022-10-23 13:08:29.289
238.0, -73563.54726118414, -105177.80991528153, 65345.83900521267, 18591.10815419056, 76751.55422110013, 88879.45430033855, 38967.02545488184, 35334.55405647207, 0.03, 0.96, 0.098, 192.0, 0.0, 0.0, 0.0, 0.0, 0.0, 0.0, 0.0, 0.0, 0.0, 1.6665557092897263E9, 0.0, 2022-10-23 13:08:29.289
239.0, -73598.63949997896, -105217.23839250069, 66533.72246428997, 18960.80600748134, 76886.96108901038, 89498.9776014063, 39824.013689042775, 36347.66922565332, 0.03, 0.96, 0.098, 192.0, 0.0, 0.0, 0.0, 0.0, 0.0, 0.0, 0.0, 0.0, 0.0, 1.6665557092897356E9, 0.0, 2022-10-23 13:08:29.289
240.0, -73600.44999127985, -105221.32876173602, 68358.29536417668, 18961.74478074846, 76837.96606516434, 90279.67933174127, 40888.78373966023, 37329.9613392307, 0.034, 0.9560000000000001, 0.092, 192.0, 1.0, 16.0, 29.0, 224.0, 2.0, 224.0, 0.0, 0.0, 0.0, 1.6665557092897463E9, 0.0, 2022-10-23 13:08:29.289
241.0, -73520.0060629852, -105156.4192958378, 66516.08693791473, 18346.62477333841, 76596.65663202484, 89357.58046598203, 39595.958840365274, 35798.352753919695, 0.034, 0.9560000000000001, 0.092, 192.0, 0.0, 0.0, 0.0, 0.0, 0.0, 0.0, 0.0, 0.0, 0.0, 1.6665557097666988E9, 0.0, 2022-10-23 13:08:29.766
242.0, -73529.61731310097, -105164.89060698636, 65355.56201405073, 18537.933354131386, 76719.23359861775, 88888.2832393984, 38949.94872211799, 35258.96045672422, 0.034, 0.9560000000000001, 0.092, 192.0, 0.0, 0.0, 0.0, 0.0, 0.0, 0.0, 0.0, 0.0, 0.0, 1.6665557097668216E9, 0.0, 2022-10-23 13:08:29.766
243.0, -73592.15749408693, -105206.26368597314, 66145.09268344555, 18879.02097451937, 76852.82997522713, 89316.69912537327, 39558.54202014709, 36047.865277274286, 0.034, 0.9560000000000001, 0.092, 192.0, 0.0, 0.0, 0.0, 0.0, 0.0, 0.0, 0.0, 0.0, 0.0, 1.6665557097668345E9, 0.0, 2022-10-23 13:08:29.766
244.0, -73603.24395933676, -105205.99546503967, 68287.17211331989, 19057.477302250543, 76885.03883898722, 90278.82996545197, 40873.986884830825, 37351.68723484126, 0.034, 0.9560000000000001, 0.092, 192.0, 0.0, 0.0, 0.0, 0.0, 0.0, 0.0, 0.0, 0.0, 0.0, 1.666555709766846E9, 0.0, 2022-10-23 13:08:29.766
245.0, -73513.14407743742, -105122.15407158782, 66959.27732697455, 18406.125117078438, 76609.68769904229, 89569.43029992942, 39877.59082050214, 36100.81655988891, 0.034, 0.9560000000000001, 0.092, 192.0, 0.0, 0.0, 0.0, 0.0, 0.0, 0.0, 0.0, 0.0, 0.0, 1.666555709766858E9, 0.0, 2022-10-23 13:08:29.766
246.0, -73528.14209796692, -105142.58356601997, 65375.96915673842, 18464.440818362335, 76672.94313585082, 88877.48734682649, 38929.161599774554, 35215.62042422538, 0.034, 0.9560000000000001, 0.092, 192.0, 0.0, 0.0, 0.0, 0.0, 0.0, 0.0, 0.0, 0.0, 0.0, 1.66655570976687E9, 0.0, 2022-10-23 13:08:29.766
247.0, -73595.15262784394, -105217.01487505613, 65817.4831649641, 18795.648967701076, 76815.79313466468, 89151.3409198929, 39327.55909294595, 35802.5995853662, 0.034, 0.9560000000000001, 0.092, 192.0, 0.0, 0.0, 0.0, 0.0, 0.0, 0.0, 0.0, 0.0, 0.0, 1.6665557097668817E9, 0.0, 2022-10-23 13:08:29.766
248.0, -73630.08840442759, -105250.05075336108, 68027.26602879359, 19104.170096417678, 76912.37502245606, 90173.84382174538, 40727.85117958202, 37248.265713246554, 0.034, 0.9560000000000001, 0.092, 192.0, 0.0, 0.0, 0.0, 0.0, 0.0, 0.0, 0.0, 0.0, 0.0, 1.6665557097668936E9, 0.0, 2022-10-23 13:08:29.766
249.0, -73554.606563402, -105181.36384264992, 67386.86619840458, 18500.85181008003, 76642.81298432505, 89766.05859590275, 40152.33846334678, 36418.7477730212, 0.034, 0.9560000000000001, 0.092, 192.0, 0.0, 0.0, 0.0, 0.0, 0.0, 0.0, 0.0, 0.0, 0.0, 1.6665557097669053E9, 0.0, 2022-10-23 13:08:29.766
250.0, -73572.26444152171, -105199.66992135881, 65479.86006496669, 18409.522582235644, 76649.7420251062, 88915.32885018931, 38969.21592583846, 35228.69619473174, 0.03, 0.96, 0.098, 192.0, 0.0, 240.0, 30.0, 0.0, 3.0, 16.0, 0.0, 0.0, 0.0, 1.6665557097669168E9, 0.0, 2022-10-23 13:08:29.766
251.0, -73624.2769508692, -105252.30827955107, 65609.81310722984, 18713.483955083368, 76772.7213230993, 89049.3722616878, 39173.24264922651, 35613.637937741034, 0.03, 0.96, 0.098, 192.0, 0.0, 0.0, 0.0, 0.0, 0.0, 0.0, 0.0, 0.0, 0.0, 1.6665557097669885E9, 0.0, 2022-10-23 13:08:29.766
252.0, -73658.00573325226, -105291.71440502578, 67637.45160549303, 19083.87471245226, 76894.87360654755, 89988.65961893316, 40482.205508018196, 37022.736611692504, 0.03, 0.96, 0.098, 192.0, 0.0, 0.0, 0.0, 0.0, 0.0, 0.0, 0.0, 0.0, 0.0, 1.6665557097670002E9, 0.0, 2022-10-23 13:08:29.767
253.0, -73610.84355245157, -105257.18095984233, 67763.62720294323, 18605.323863664136, 76667.82458637054, 89932.24381592797, 40396.95595466566, 36721.3680412016, 0.03, 0.96, 0.098, 192.0, 0.0, 0.0, 0.0, 0.0, 0.0, 0.0, 0.0, 0.0, 0.0, 1.6665557097670116E9, 0.0, 2022-10-23 13:08:29.767
254.0, -73600.53939825766, -105242.85349164647, 65625.1911074151, 18360.035820011595, 76614.3815653779, 88959.58530421082, 39036.06999350429, 35283.86030004743, 0.03, 0.96, 0.098, 192.0, 0.0, 0.0, 0.0, 0.0, 0.0, 0.0, 0.0, 0.0, 0.0, 1.6665557097670233E9, 0.0, 2022-10-23 13:08:29.767
255.0, -73637.46448009783, -105270.07791639304, 65452.59093673122, 18661.44909399141, 76749.65432282143, 88963.98859786852, 39054.219610001994, 35480.55565125414, 0.03, 0.96, 0.098, 192.0, 0.0, 0.0, 0.0, 0.0, 0.0, 0.0, 0.0, 0.0, 0.0, 1.6665557097670348E9, 0.0, 2022-10-23 13:08:29.767
0.0, -73688.38175396703, -105319.11764372798, 67207.5158008952, 19058.19255807311, 76890.6491268455, 89804.68241032153, 40224.48989444851, 36780.644867497074, 0.03, 0.96, 0.098, 192.0, 0.0, 0.0, 0.0, 0.0, 0.0, 0.0, 0.0, 0.0, 0.0, 1.666555709767046E9, 0.0, 2022-10-23 13:08:29.767
1.0, -73656.30700067365, -105292.60847480399, 68091.14731444685, 18753.270060213814, 76719.50181955121, 90109.49314945855, 40638.0418703606, 37012.94654762108, 0.03, 0.96, 0.098, 192.0, 0.0, 0.0, 0.0, 0.0, 0.0, 0.0, 0.0, 0.0, 0.0, 1.6665557097670577E9, 0.0, 2022-10-23 13:08:29.767
2.0, -73612.43052630789, -105239.29956427809, 65859.70561024018, 18332.319656887015, 76582.61973650691, 89047.53941864245, 39161.37387292074, 35392.22155716676, 0.03, 0.96, 0.098, 192.0, 0.0, 0.0, 0.0, 0.0, 0.0, 0.0, 0.0, 0.0, 0.0, 1.666555709767069E9, 0.0, 2022-10-23 13:08:29.767
3.0, -73642.29245690018, -105263.86413143446, 65339.46875804291, 18615.426852157932, 76726.05088067662, 88886.24923065296, 38948.674672684036, 35344.791155432606, 0.03, 0.96, 0.098, 192.0, 0.0, 0.0, 0.0, 0.0, 0.0, 0.0, 0.0, 0.0, 0.0, 1.6665557097670803E9, 0.0, 2022-10-23 13:08:29.767
4.0, -73677.65291662847, -105298.12935568445, 66742.04072261343, 19004.458964402555, 76876.99221098331, 89579.22036400085, 39919.65680356703, 36474.716541137284, 0.028, 0.9540000000000001, 0.106, 192.0, 0.0, 224.0, 29.0, 208.0, 3.0, 80.0, 0.0, 0.0, 0.0, 1.666555709767092E9, 0.0, 2022-10-23 13:08:29.767
5.0, -73650.51789885973, -105273.96711992826, 68262.4063804634, 18899.65163465162, 76790.51331168572, 90204.91274653826, 40772.73348244828, 37217.35325066486, 0.028, 0.9540000000000001, 0.106, 192.0, 0.0, 0.0, 0.0, 0.0, 0.0, 0.0, 0.0, 0.0, 0.0, 1.6665557097671056E9, 0.0, 2022-10-23 13:08:29.767
6.0, -73598.84066567906, -105224.99444782668, 66201.26261726173, 18338.712255801234, 76578.05998063803, 89198.0560658045, 39367.300494587485, 35610.441638283926, 0.028, 0.9540000000000001, 0.106, 192.0, 0.0, 0.0, 0.0, 0.0, 0.0, 0.0, 0.0, 0.0, 0.0, 1.6665557097671227E9, 0.0, 2022-10-23 13:08:29.767
7.0, -73634.91638122992, -105255.95161389728, 65324.69425495795, 18562.81084571014, 76699.31819430807, 88874.00047469145, 38919.08096302521, 35295.147930997366, 0.028, 0.9540000000000001, 0.106, 192.0, 0.0, 0.0, 0.0, 0.0, 0.0, 0.0, 0.0, 0.0, 0.0, 1.6665557097671342E9, 0.0, 2022-10-23 13:08:29.767
8.0, -73672.57907063712, -105283.6007217885, 66346.8618806436, 18926.674893698084, 76840.62592275452, 89400.62992580295, 39665.33865515455, 36212.01648855406, 0.028, 0.9540000000000001, 0.106, 192.0, 0.0, 0.0, 0.0, 0.0, 0.0, 0.0, 0.0, 0.0, 0.0, 1.6665557097671456E9, 0.0, 2022-10-23 13:08:29.767
9.0, -73672.57907063712, -105289.94861721381, 68318.53161079068, 19009.62221737173, 76842.79404196668, 90267.56468624648, 40847.03068101772, 37340.757231802614, 0.028, 0.9540000000000001, 0.106, 192.0, 0.0, 0.0, 0.0, 0.0, 0.0, 0.0, 0.0, 0.0, 0.0, 1.666555709767157E9, 0.0, 2022-10-23 13:08:29.767
10.0, -73597.99129938976, -105225.57559318253, 66622.481241522, 18365.087314258493, 76575.91421317033, 89395.1984519003, 39631.8557419605, 35880.67422874859, 0.028, 0.9540000000000001, 0.106, 192.0, 0.0, 0.0, 0.0, 0.0, 0.0, 0.0, 0.0, 0.0, 0.0, 1.6665557097671802E9, 0.0, 2022-10-23 13:08:29.767
11.0, -73613.61516876402, -105236.86322413245, 65299.70500465691, 18507.75849911672, 76674.41835098485, 88835.73428818397, 38866.800232744245, 35214.59224398044, 0.028, 0.9540000000000001, 0.106, 192.0, 0.0, 0.0, 0.0, 0.0, 0.0, 0.0, 0.0, 0.0, 0.0, 1.6665557097671921E9, 0.0, 2022-10-23 13:08:29.767
12.0, -73667.01348626775, -105285.09828866701, 65961.316640534, 18836.306790865277, 76801.42096297992, 89208.02494383157, 39401.63277407084, 35932.75379332945, 0.028, 0.9540000000000001, 0.106, 192.0, 0.0, 0.0, 0.0, 0.0, 0.0, 0.0, 0.0, 0.0, 0.0, 1.666555709767204E9, 0.0, 2022-10-23 13:08:29.767
13.0, -73670.9920967808, -105288.27223637966, 68146.66904767383, 19068.20613958909, 76858.73083576332, 90199.5930313579, 40761.15527882043, 37304.122722640364, 0.034, 0.9540000000000001, 0.106, 192.0, 1.0, 16.0, 29.0, 208.0, 3.0, 80.0, 0.0, 0.0, 0.0, 1.6665557097672155E9, 0.0, 2022-10-23 13:08:29.767
14.0, -73596.33727030006, -105223.89921234838, 67064.08465672549, 18440.613858772977, 76591.29221335557, 89600.38746600003, 39916.88518725457, 36200.7959128375, 0.034, 0.9540000000000001, 0.106, 192.0, 0.0, 0.0, 0.0, 0.0, 0.0, 0.0, 0.0, 0.0, 0.0, 1.6665557097672284E9, 0.0, 2022-10-23 13:08:29.767
15.0, -73605.7250029713, -105236.12561656543, 65380.23833992939, 18450.6050885445, 76638.63320811192, 88868.32313159981, 38898.91968952653, 35219.2637585716, 0.034, 0.9540000000000001, 0.106, 192.0, 0.0, 0.0, 0.0, 0.0, 0.0, 0.0, 0.0, 0.0, 0.0, 1.6665557097672398E9, 0.0, 2022-10-23 13:08:29.767
