%OpenBCI Raw EEG Data
%Number of channels = 8
%Sample Rate = 250 Hz
%Board = OpenBCI_GUI$BoardCytonSerial
Sample Index, EXG Channel 0, EXG Channel 1, EXG Channel 2, EXG Channel 3, EXG Channel 4, EXG Channel 5, EXG Channel 6, EXG Channel 7, Accel Channel 0, Accel Channel 1, Accel Channel 2, Other, Other, Other, Other, Other, Other, Other, Analog Channel 0, Analog Channel 1, Analog Channel 2, Timestamp, Other, Timestamp (Formatted)
9.0, -65854.58706075992, -96240.28608087136, 53969.873961195226, 493.4371105953587, 83750.44420366814, 63133.239821581825, 19839.363675041637, 15649.1939007275, 0.0, 0.0, 0.0, 192.0, 0.0, 0.0, 0.0, 0.0, 0.0, 0.0, 0.0, 0.0, 0.0, 1.6665553441045215E9, 0.0, 2022-10-23 13:02:24.104
10.0, -65898.91057001479, -96283.22378197001, 55333.598593902425, 1299.5304226315527, 83984.98105823768, 63811.52585882257, 20799.035823230246, 16742.21655633647, 0.0, 0.0, 0.0, 192.0, 0.0, 0.0, 0.0, 0.0, 0.0, 0.0, 0.0, 0.0, 0.0, 1.6665553441045408E9, 0.0, 2022-10-23 13:02:24.104
11.0, -65880.53743607253, -96276.71942433351, 57010.49351817292, 2068.2069144495626, 83950.24644735413, 64475.149151700636, 21741.720645632824, 17583.916197289967, 0.0, 0.0, 0.0, 192.0, 0.0, 0.0, 0.0, 0.0, 0.0, 0.0, 0.0, 0.0, 0.0, 1.6665553441045513E9, 0.0, 2022-10-23 13:02:24.104
12.0, -65813.14692653978, -96206.3561327882, 54939.00089728843, 842.3925450316126, 83568.43394856858, 63451.327496925296, 20296.5909596194, 15950.338953773851, 0.034, 0.9460000000000001, 0.108, 192.0, 1.0, 16.0, 29.0, 144.0, 3.0, 96.0, 0.0, 0.0, 0.0, 1.6665553441045616E9, 0.0, 2022-10-23 13:02:24.104
13.0, -65848.70855196817, -96230.00427842193, 53915.358056468736, 424.2584615061834, 83701.5609385444, 63072.80070457467, 19755.455226356415, 15531.757835359316, 0.034, 0.9460000000000001, 0.108, 192.0, 0.0, 0.0, 0.0, 0.0, 0.0, 0.0, 0.0, 0.0, 0.0, 1.6665553441045732E9, 0.0, 2022-10-23 13:02:24.104
14.0, -65891.17686643325, -96269.09747947425, 54885.78139374035, 1042.5077131399767, 83932.6109209789, 63584.789763067936, 20487.51956075663, 16417.624523356502, 0.034, 0.9460000000000001, 0.108, 192.0, 0.0, 0.0, 0.0, 0.0, 0.0, 0.0, 0.0, 0.0, 0.0, 1.6665553441045835E9, 0.0, 2022-10-23 13:02:24.104
15.0, -65896.8989130138, -96276.80883131133, 56960.98440420442, 2076.1194319867413, 84022.80020985607, 64465.24732890694, 21733.741072862278, 17625.803366399214, 0.034, 0.9460000000000001, 0.108, 192.0, 0.0, 0.0, 0.0, 0.0, 0.0, 0.0, 0.0, 0.0, 0.0, 1.6665553441045933E9, 0.0, 2022-10-23 13:02:24.104
16.0, -65830.3354180259, -96214.17924334756, 55412.36614136292, 1104.8914319147386, 83635.51153367896, 63680.65639503675, 20608.59896047103, 16270.035954718109, 0.034, 0.9460000000000001, 0.108, 192.0, 0.0, 0.0, 0.0, 0.0, 0.0, 0.0, 0.0, 0.0, 0.0, 1.6665553441046033E9, 0.0, 2022-10-23 13:02:24.104
17.0, -65852.28483108102, -96228.17143537659, 53961.425001791125, 425.75602838468893, 83660.07610083534, 63084.42361169143, 19762.451322370925, 15498.63255007655, 0.034, 0.9460000000000001, 0.108, 192.0, 0.0, 0.0, 0.0, 0.0, 0.0, 0.0, 0.0, 0.0, 0.0, 1.6665553441046128E9, 0.0, 2022-10-23 13:02:24.104
18.0, -65894.44022112373, -96266.41527013961, 54537.56356687112, 837.5869199737216, 83871.47889989364, 63415.72116800799, 20248.62411601831, 16150.834101537956, 0.034, 0.9460000000000001, 0.108, 192.0, 0.0, 0.0, 0.0, 0.0, 0.0, 0.0, 0.0, 0.0, 0.0, 1.6665553441046226E9, 0.0, 2022-10-23 13:02:24.104
19.0, -65916.32257894547, -96289.57167739532, 56781.67871018395, 2009.0865503652753, 84054.69614919378, 64406.97633111195, 21650.883156166456, 17572.114476217565, 0.034, 0.9460000000000001, 0.108, 192.0, 0.0, 0.0, 0.0, 0.0, 0.0, 0.0, 0.0, 0.0, 0.0, 1.6665553441046321E9, 0.0, 2022-10-23 13:02:24.104
20.0, -65828.74844416959, -96212.90519391361, 55858.08227754621, 1342.1775510522784, 83686.60762150379, 63875.16127528683, 20896.265911610833, 16582.98272883686, 0.034, 0.9460000000000001, 0.108, 192.0, 0.0, 0.0, 0.0, 0.0, 0.0, 0.0, 0.0, 0.0, 0.0, 1.6665553441046417E9, 0.0, 2022-10-23 13:02:24.104
21.0, -65833.17408957172, -96218.24726083843, 54044.059401042396, 448.7336216847446, 83647.80499312938, 63105.61306543506, 19791.32977620718, 15503.326416412167, 0.034, 0.9460000000000001, 0.108, 192.0, 0.0, 0.0, 0.0, 0.0, 0.0, 0.0, 0.0, 0.0, 0.0, 1.6665553441046515E9, 0.0, 2022-10-23 13:02:24.104
22.0, -65876.33530811493, -96257.38516537967, 54289.10157550593, 696.4580054829128, 83833.97267269764, 63294.50765782686, 20073.16292204415, 15951.523596229983, 0.032, 0.9460000000000001, 0.114, 192.0, 1.0, 0.0, 29.0, 144.0, 3.0, 144.0, 0.0, 0.0, 0.0, 1.6665553441046612E9, 0.0, 2022-10-23 13:02:24.104
23.0, -65904.27498868406, -96284.49783140396, 56431.33746759147, 1843.1471995290758, 84055.14318408289, 64251.07291353618, 21439.212136174698, 17388.606654239495, 0.032, 0.9460000000000001, 0.114, 192.0, 0.0, 0.0, 0.0, 0.0, 0.0, 0.0, 0.0, 0.0, 0.0, 1.6665553441046712E9, 0.0, 2022-10-23 13:02:24.104
24.0, -65833.01762736055, -96217.80022594932, 56288.50982052205, 1589.566658683617, 83763.1176427743, 64070.13554217047, 21180.915377249166, 16911.419261863146, 0.032, 0.9460000000000001, 0.114, 192.0, 0.0, 0.0, 0.0, 0.0, 0.0, 0.0, 0.0, 0.0, 0.0, 1.666555344104681E9, 0.0, 2022-10-23 13:02:24.104
25.0, -65820.2324295321, -96202.24341180842, 54164.848228078874, 485.4798895692694, 83621.74285909449, 63130.512908758275, 19837.97786688541, 15533.121291771091, 0.032, 0.9460000000000001, 0.114, 192.0, 0.0, 0.0, 0.0, 0.0, 0.0, 0.0, 0.0, 0.0, 0.0, 1.6665553441047957E9, 0.0, 2022-10-23 13:02:24.104
26.0, -65869.67448826725, -96251.88663624367, 54118.55776531193, 593.8634984330533, 83818.6840794902, 63203.64781661604, 19944.506280959402, 15804.158545036144, 0.032, 0.9460000000000001, 0.114, 192.0, 0.0, 0.0, 0.0, 0.0, 0.0, 0.0, 0.0, 0.0, 0.0, 1.6665553441048057E9, 0.0, 2022-10-23 13:02:24.104
27.0, -65908.09713698592, -96291.47157567402, 56053.458875830045, 1666.7025287988818, 84057.84774516198, 64103.14906873096, 21221.372034713273, 17184.937558762736, 0.032, 0.9460000000000001, 0.114, 192.0, 0.0, 0.0, 0.0, 0.0, 0.0, 0.0, 0.0, 0.0, 0.0, 1.6665553441048148E9, 0.0, 2022-10-23 13:02:24.104
28.0, -65854.31883982645, -96242.05186868332, 56703.31349412364, 1847.8634176091455, 83858.91721950975, 64284.779344174785, 21475.62312789239, 17250.85285316144, 0.032, 0.9460000000000001, 0.114, 192.0, 0.0, 0.0, 0.0, 0.0, 0.0, 0.0, 0.0, 0.0, 0.0, 1.666555344104824E9, 0.0, 2022-10-23 13:02:24.104
29.0, -65819.15954579825, -96206.40083627711, 54423.01087653767, 604.5476322826901, 83606.72248682052, 63237.175433299, 19979.531464520867, 15653.016049029357, 0.032, 0.9460000000000001, 0.114, 192.0, 0.0, 0.0, 0.0, 0.0, 0.0, 0.0, 0.0, 0.0, 0.0, 1.6665553441048331E9, 0.0, 2022-10-23 13:02:24.104
30.0, -65861.80667421898, -96243.05769718382, 54035.18575849364, 536.3524599495482, 83787.9280791197, 63158.00555443831, 19864.867015465145, 15695.976101872457, 0.032, 0.9460000000000001, 0.114, 192.0, 0.0, 0.0, 0.0, 0.0, 0.0, 0.0, 0.0, 0.0, 0.0, 1.6665553441048422E9, 0.0, 2022-10-23 13:02:24.104
31.0, -65904.76672706207, -96285.86128781573, 55639.728085962306, 1461.9381978438137, 84034.49017220619, 63934.72867426022, 20965.44456070001, 16924.137404458215, 0.032, 0.9460000000000001, 0.114, 192.0, 0.0, 0.0, 0.0, 0.0, 0.0, 0.0, 0.0, 0.0, 0.0, 1.6665553441048534E9, 0.0, 2022-10-23 13:02:24.104
32.0, -65870.56855804546, -96259.6203398252, 56972.65201481009, 2028.6666785081243, 83931.71685120069, 64435.161880870095, 21675.850054723032, 17493.101059568056, 0.034, 0.9560000000000001, 0.112, 192.0, 1.0, 16.0, 29.0, 224.0, 3.0, 128.0, 0.0, 0.0, 0.0, 1.6665553441048625E9, 0.0, 2022-10-23 13:02:24.104
33.0, -65822.55701095545, -96217.08497012676, 54762.93620621398, 765.7260615499093, 83587.63409705569, 63381.54535073583, 20178.17141749518, 15827.694931947583, 0.034, 0.9560000000000001, 0.112, 192.0, 0.0, 0.0, 0.0, 0.0, 0.0, 0.0, 0.0, 0.0, 0.0, 1.6665553441048725E9, 0.0, 2022-10-23 13:02:24.104
34.0, -65855.1905578602, -96245.87401698518, 53987.353025359276, 482.2835901121605, 83724.33736614435, 63111.62568469354, 19800.561046667226, 15583.278606328799, 0.034, 0.9560000000000001, 0.112, 192.0, 0.0, 0.0, 0.0, 0.0, 0.0, 0.0, 0.0, 0.0, 0.0, 1.6665553441048813E9, 0.0, 2022-10-23 13:02:24.104
35.0, -65892.54032284503, -96276.94294177806, 55190.30156019945, 1211.6433634332852, 83970.45242434174, 63713.37934891932, 20665.171225687413, 16596.170258065493, 0.034, 0.9560000000000001, 0.112, 192.0, 0.0, 0.0, 0.0, 0.0, 0.0, 0.0, 0.0, 0.0, 0.0, 1.66655534410489E9, 0.0, 2022-10-23 13:02:24.104
36.0, -65887.17590417575, -96274.26073244342, 57073.03369915888, 2120.8229208973553, 84008.45038991576, 64500.33956770177, 21770.17441632443, 17621.936514608446, 0.034, 0.9560000000000001, 0.112, 192.0, 0.0, 0.0, 0.0, 0.0, 0.0, 0.0, 0.0, 0.0, 0.0, 1.6665553441048987E9, 0.0, 2022-10-23 13:02:24.104
37.0, -65808.8330398599, -96200.81290016329, 55203.24322023907, 1004.3309336103123, 83632.0917167773, 63585.79559156843, 20462.06092382204, 16099.872124179856, 0.034, 0.9560000000000001, 0.112, 192.0, 0.0, 0.0, 0.0, 0.0, 0.0, 0.0, 0.0, 0.0, 0.0, 1.6665553441049075E9, 0.0, 2022-10-23 13:02:24.104
38.0, -65842.27124956503, -96229.87016795519, 54031.76594159198, 494.91232572940896, 83715.62018580678, 63131.563440747675, 19815.223791029908, 15553.550786203241, 0.034, 0.9560000000000001, 0.112, 192.0, 0.0, 0.0, 0.0, 0.0, 0.0, 0.0, 0.0, 0.0, 0.0, 1.6665553441049163E9, 0.0, 2022-10-23 13:02:24.104
39.0, -65891.13216294434, -96277.9264185341, 54871.40922205558, 1038.0820677378258, 83933.50499075711, 63586.13086773526, 20467.291232024578, 16360.493464528736, 0.034, 0.9560000000000001, 0.112, 192.0, 0.0, 0.0, 0.0, 0.0, 0.0, 0.0, 0.0, 0.0, 0.0, 1.6665553441049252E9, 0.0, 2022-10-23 13:02:24.104
40.0, -65896.6530438248, -96285.59306688227, 57041.562442965806, 2125.8744151442547, 84052.39391951489, 64524.434748224594, 21794.493114291803, 17668.182273886476, 0.034, 0.9560000000000001, 0.112, 192.0, 0.0, 0.0, 0.0, 0.0, 0.0, 0.0, 0.0, 0.0, 0.0, 1.6665553441049342E9, 0.0, 2022-10-23 13:02:24.104
41.0, -65815.73972889659, -96210.98294389046, 55665.25377813027, 1224.6744304507292, 83661.77483341395, 63792.77274522457, 20757.036895398724, 16396.747994035246, 0.036000000000000004, 0.96, 0.122, 192.0, 1.0, 32.0, 30.0, 0.0, 3.0, 208.0, 0.0, 0.0, 0.0, 1.6665553441049707E9, 0.0, 2022-10-23 13:02:24.104
42.0, -65832.36942677134, -96225.01983940839, 54080.671558460184, 471.2418283512388, 83684.12657786925, 63136.369065805564, 19818.01775908682, 15515.798689818228, 0.036000000000000004, 0.96, 0.122, 192.0, 0.0, 0.0, 0.0, 0.0, 0.0, 0.0, 0.0, 0.0, 0.0, 1.6665553441049805E9, 0.0, 2022-10-23 13:02:24.104
43.0, -65877.11761917087, -96268.35987190723, 54538.94937502735, 826.478102979434, 83884.35350469989, 63417.26343837541, 20231.368569298815, 16093.99361538811, 0.036000000000000004, 0.96, 0.122, 192.0, 0.0, 0.0, 0.0, 0.0, 0.0, 0.0, 0.0, 0.0, 0.0, 1.6665553441049895E9, 0.0, 2022-10-23 13:02:24.104
44.0, -65913.26038995509, -96310.87288986122, 56770.726355400846, 2003.2974485513507, 84073.15869011387, 64404.964674110975, 21635.505155981202, 17536.865775211547, 0.036000000000000004, 0.96, 0.122, 192.0, 0.0, 0.0, 0.0, 0.0, 0.0, 0.0, 0.0, 0.0, 0.0, 1.6665553441049988E9, 0.0, 2022-10-23 13:02:24.104
45.0, -65836.14687158428, -96236.12865640267, 56134.483949480535, 1493.3647505479755, 83716.24603465153, 64007.37184373997, 21065.13334097068, 16724.379864261136, 0.036000000000000004, 0.96, 0.122, 192.0, 0.0, 0.0, 0.0, 0.0, 0.0, 0.0, 0.0, 0.0, 0.0, 1.6665553441050076E9, 0.0, 2022-10-23 13:02:24.105
46.0, -65832.50353723807, -96227.29971734283, 54186.14944054478, 508.5692415916016, 83629.9906527985, 63160.73246726185, 19852.46179729245, 15507.103861225112, 0.036000000000000004, 0.96, 0.122, 192.0, 0.0, 0.0, 0.0, 0.0, 0.0, 0.0, 0.0, 0.0, 0.0, 1.6665553441050167E9, 0.0, 2022-10-23 13:02:24.105
47.0, -65867.03698242152, -96259.48622935847, 54351.84292219197, 726.0517151417394, 83841.32639662342, 63328.95169603249, 20092.340718786803, 15910.731662599048, 0.036000000000000004, 0.96, 0.122, 192.0, 0.0, 0.0, 0.0, 0.0, 0.0, 0.0, 0.0, 0.0, 0.0, 1.6665553441050258E9, 0.0, 2022-10-23 13:02:24.105
48.0, -65906.04077649603, -96296.63482864319, 56435.53959554906, 1853.6972229119806, 84065.15676559888, 64270.89891086804, 21433.28892389404, 17334.71659835775, 0.036000000000000004, 0.96, 0.122, 192.0, 0.0, 0.0, 0.0, 0.0, 0.0, 0.0, 0.0, 0.0, 0.0, 1.6665553441050344E9, 0.0, 2022-10-23 13:02:24.105
49.0, -65844.97581064413, -96240.91192971611, 56555.63551850743, 1739.4798087453614, 83793.4266082557, 64199.61919780007, 21334.293047701485, 17024.049702173437, 0.036000000000000004, 0.96, 0.122, 192.0, 0.0, 0.0, 0.0, 0.0, 0.0, 0.0, 0.0, 0.0, 0.0, 1.6665553441050432E9, 0.0, 2022-10-23 13:02:24.105
50.0, -65826.17799355721, -96222.78466496285, 54367.62325377742, 589.1696320974389, 83616.71371659204, 63223.18324126998, 19934.09036804323, 15561.820931651704, 0.036000000000000004, 0.96, 0.122, 192.0, 0.0, 0.0, 0.0, 0.0, 0.0, 0.0, 0.0, 0.0, 0.0, 1.6665553441050525E9, 0.0, 2022-10-23 13:02:24.105
51.0, -65865.94174694321, -96260.76027879243, 54227.92485093175, 658.9294265424522, 83816.76182946704, 63263.95282315646, 19986.281691346372, 15772.97786152099, 0.038, 0.9500000000000001, 0.124, 192.0, 1.0, 48.0, 29.0, 176.0, 3.0, 224.0, 0.0, 0.0, 0.0, 1.6665553441050613E9, 0.0, 2022-10-23 13:02:24.105
52.0, -65914.89206730033, -96308.52595669341, 56066.08761144729, 1691.4906133998172, 84059.23355331822, 64134.329752246114, 21214.085366020845, 17109.56747645944, 0.038, 0.9500000000000001, 0.124, 192.0, 0.0, 0.0, 0.0, 0.0, 0.0, 0.0, 0.0, 0.0, 0.0, 1.6665553441050723E9, 0.0, 2022-10-23 13:02:24.105
53.0, -65872.35669760188, -96273.5231248764, 56960.537369315316, 2001.8222334173006, 83869.71311208166, 64420.76735744088, 21619.300141251104, 17340.215127493757, 0.038, 0.9500000000000001, 0.124, 192.0, 0.0, 0.0, 0.0, 0.0, 0.0, 0.0, 0.0, 0.0, 0.0, 1.6665553441050808E9, 0.0, 2022-10-23 13:02:24.105
54.0, -65821.50647896605, -96222.09176088474, 54661.61574859807, 725.8952529305521, 83578.08990217328, 63338.562946148275, 20085.568140216845, 15682.38624124363, 0.038, 0.9500000000000001, 0.124, 192.0, 0.0, 0.0, 0.0, 0.0, 0.0, 0.0, 0.0, 0.0, 0.0, 1.6665553441050897E9, 0.0, 2022-10-23 13:02:24.105
55.0, -65857.82806370594, -96250.29966238733, 54155.23697796309, 600.7478357252879, 83768.25854399902, 63206.441784672956, 19893.857228023677, 15641.862528546159, 0.038, 0.9500000000000001, 0.124, 192.0, 0.0, 0.0, 0.0, 0.0, 0.0, 0.0, 0.0, 0.0, 0.0, 1.6665553441050985E9, 0.0, 2022-10-23 13:02:24.105
56.0, -65905.32552067346, -96293.61734314173, 55610.67081817041, 1455.3444332294982, 84014.61947138542, 63912.89101992739, 20904.200780892468, 16791.65861507161, 0.038, 0.9500000000000001, 0.124, 192.0, 0.0, 0.0, 0.0, 0.0, 0.0, 0.0, 0.0, 0.0, 0.0, 1.6665553441051073E9, 0.0, 2022-10-23 13:02:24.105
57.0, -65894.93195950174, -96285.92834304909, 57181.12673534474, 2171.5390290664473, 83966.13853766186, 64538.94103037608, 21785.261843831762, 17548.958068961867, 0.038, 0.9500000000000001, 0.124, 192.0, 0.0, 0.0, 0.0, 0.0, 0.0, 0.0, 0.0, 0.0, 0.0, 1.6665553441051257E9, 0.0, 2022-10-23 13:02:24.105
58.0, -65826.71443542415, -96220.28126958387, 55076.17355301065, 954.2853777748797, 83600.15107395066, 63529.75976821897, 20342.12146307486, 15916.878392324257, 0.038, 0.9500000000000001, 0.124, 192.0, 0.0, 0.0, 0.0, 0.0, 0.0, 0.0, 0.0, 0.0, 0.0, 1.6665553441051347E9, 0.0, 2022-10-23 13:02:24.105
59.0, -65848.14975835678, -96237.40270583662, 54153.448838406664, 586.1297948515171, 83721.27517715398, 63189.96854900939, 19862.07304740823, 15562.133856074079, 0.038, 0.9500000000000001, 0.124, 192.0, 0.0, 0.0, 0.0, 0.0, 0.0, 0.0, 0.0, 0.0, 0.0, 1.6665553441051433E9, 0.0, 2022-10-23 13:02:24.105
60.0, -65905.72785207366, -96292.45505243004, 55222.95745884866, 1248.4790382956312, 83957.17548813528, 63739.03915155401, 20647.4239405899, 16495.945035927896, 0.038, 0.9500000000000001, 0.124, 192.0, 0.0, 0.0, 0.0, 0.0, 0.0, 0.0, 0.0, 0.0, 0.0, 1.6665553441051521E9, 0.0, 2022-10-23 13:02:24.105
61.0, -65904.72202357317, -96293.99732279747, 57234.23448017055, 2238.124875798807, 84018.5310266651, 64587.95840596657, 21842.862289293087, 17632.44183450244, 0.032, 0.9500000000000001, 0.124, 192.0, 1.0, 0.0, 29.0, 176.0, 3.0, 224.0, 0.0, 0.0, 0.0, 1.666555344105161E9, 0.0, 2022-10-23 13:02:24.105
62.0, -65817.25964751955, -96207.04903686632, 55530.13748289794, 1195.6618661477407, 83641.81472561536, 63736.08872128591, 20620.73595771026, 16188.094459544953, 0.032, 0.9500000000000001, 0.124, 192.0, 0.0, 0.0, 0.0, 0.0, 0.0, 0.0, 0.0, 0.0, 0.0, 1.6665553441051705E9, 0.0, 2022-10-23 13:02:24.105
63.0, -65849.35675255737, -96229.7584092329, 54207.76357743306, 599.7643589692544, 83702.32089785587, 63208.65460737403, 19865.492864309894, 15520.134928242556, 0.032, 0.9500000000000001, 0.124, 192.0, 0.0, 0.0, 0.0, 0.0, 0.0, 0.0, 0.0, 0.0, 0.0, 1.6665553441051795E9, 0.0, 2022-10-23 13:02:24.105
64.0, -65891.82506702245, -96269.3209969188, 54903.7074927935, 1075.6777019116523, 83917.47878998266, 63594.15514399471, 20424.37588267039, 16238.07296014702, 0.032, 0.9500000000000001, 0.124, 192.0, 0.0, 0.0, 0.0, 0.0, 0.0, 0.0, 0.0, 0.0, 0.0, 1.6665553441051881E9, 0.0, 2022-10-23 13:02:24.105
65.0, -65911.40519516531, -96295.91957282063, 57109.35528389875, 2203.211450959617, 84061.75930044167, 64548.50757700296, 21778.73513445081, 17596.611988140583, 0.032, 0.9500000000000001, 0.124, 192.0, 0.0, 0.0, 0.0, 0.0, 0.0, 0.0, 0.0, 0.0, 0.0, 1.6665553441051972E9, 0.0, 2022-10-23 13:02:24.105
66.0, -65823.67459817823, -96215.74386545943, 55988.214133765, 1440.4358196778082, 83687.255822093, 63933.56638354855, 20900.870370968627, 16482.042250876697, 0.032, 0.9500000000000001, 0.124, 192.0, 0.0, 0.0, 0.0, 0.0, 0.0, 0.0, 0.0, 0.0, 0.0, 1.666555344105206E9, 0.0, 2022-10-23 13:02:24.105
67.0, -65828.5919819584, -96213.39693229162, 54275.087031732444, 616.4834638218241, 83680.28207782294, 63217.26002898932, 19870.387896345605, 15488.551913327208, 0.032, 0.9500000000000001, 0.124, 192.0, 0.0, 0.0, 0.0, 0.0, 0.0, 0.0, 0.0, 0.0, 0.0, 1.6665553441052396E9, 0.0, 2022-10-23 13:02:24.105
68.0, -65875.19536914771, -96252.73600253297, 54632.98316395083, 930.9725083079944, 83888.3991704463, 63464.827950576306, 20228.976932642097, 16013.750852793557, 0.032, 0.9500000000000001, 0.124, 192.0, 0.0, 0.0, 0.0, 0.0, 0.0, 0.0, 0.0, 0.0, 0.0, 1.6665553441052802E9, 0.0, 2022-10-23 13:02:24.105
69.0, -65922.71517785969, -96299.27233448891, 56846.655231315526, 2101.801586365889, 84086.61444027597, 64456.30663112481, 21632.890001879932, 17473.40917270293, 0.032, 0.9500000000000001, 0.124, 192.0, 0.0, 0.0, 0.0, 0.0, 0.0, 0.0, 0.0, 0.0, 0.0, 1.6665553441053212E9, 0.0, 2022-10-23 13:02:24.105
70.0, -65834.22462156112, -96218.22490909397, 56465.490933119174, 1715.496386944817, 83760.21191599511, 64162.67176421545, 21212.878371820258, 16826.482632932977, 0.024, 0.9540000000000001, 0.11800000000000001, 192.0, 0.0, 192.0, 29.0, 208.0, 3.0, 176.0, 0.0, 0.0, 0.0, 1.666555344105362E9, 0.0, 2022-10-23 13:02:24.105
71.0, -65832.61529596035, -96212.39110379113, 54382.66597779584, 635.7730192867541, 83631.6446818882, 63234.046189075256, 19895.086573968718, 15489.445983105421, 0.024, 0.9540000000000001, 0.11800000000000001, 192.0, 0.0, 0.0, 0.0, 0.0, 0.0, 0.0, 0.0, 0.0, 0.0, 1.666555344105405E9, 0.0, 2022-10-23 13:02:24.105
72.0, -65883.75608727409, -96261.81081078183, 54436.734847633226, 796.8843933206074, 83835.20201864267, 63355.79614112332, 20068.603166175268, 15827.806690669859, 0.024, 0.9540000000000001, 0.11800000000000001, 192.0, 0.0, 0.0, 0.0, 0.0, 0.0, 0.0, 0.0, 0.0, 0.0, 1.6665553441055276E9, 0.0, 2022-10-23 13:02:24.105
73.0, -65921.28466621455, -96294.75728210894, 56473.06817448953, 1915.9691829644662, 84080.17713787284, 64304.60534150665, 21408.702004993203, 17260.26293757712, 0.024, 0.9540000000000001, 0.11800000000000001, 192.0, 0.0, 0.0, 0.0, 0.0, 0.0, 0.0, 0.0, 0.0, 0.0, 1.6665553441055405E9, 0.0, 2022-10-23 13:02:24.105
74.0, -65859.50444454009, -96239.68258377106, 56926.74153169889, 1987.2488960324404, 83847.67429204873, 64405.0540810888, 21539.392654823383, 17185.49635237412, 0.024, 0.9540000000000001, 0.11800000000000001, 192.0, 0.0, 0.0, 0.0, 0.0, 0.0, 0.0, 0.0, 0.0, 0.0, 1.6665553441055555E9, 0.0, 2022-10-23 13:02:24.105
75.0, -65826.91560112424, -96209.41832177858, 54659.35822240809, 755.9807009673955, 83614.27737644642, 63366.54733020632, 20059.997744559972, 15616.783871267304, 0.024, 0.9540000000000001, 0.11800000000000001, 192.0, 0.0, 0.0, 0.0, 0.0, 0.0, 0.0, 0.0, 0.0, 0.0, 1.6665553441055667E9, 0.0, 2022-10-23 13:02:24.105
76.0, -65860.8902526963, -96237.49211281445, 54349.764209957626, 717.2004243374378, 83801.2273670706, 63308.76807078935, 19986.549912279836, 15708.694244467528, 0.024, 0.9540000000000001, 0.11800000000000001, 192.0, 0.0, 0.0, 0.0, 0.0, 0.0, 0.0, 0.0, 0.0, 0.0, 1.666555344105578E9, 0.0, 2022-10-23 13:02:24.105
77.0, -65911.27108469857, -96284.00609302594, 56020.98179113648, 1656.890112983002, 84044.3919949999, 64089.98389124679, 21108.540428702883, 16962.381239221246, 0.024, 0.9540000000000001, 0.11800000000000001, 192.0, 0.0, 0.0, 0.0, 0.0, 0.0, 0.0, 0.0, 0.0, 0.0, 1.666555344105589E9, 0.0, 2022-10-23 13:02:24.105
78.0, -65879.28573838303, -96261.16261019262, 57174.28710154141, 2118.1407115627185, 83916.36120275989, 64505.972207304505, 21700.05699396813, 17405.281055603155, 0.024, 0.9540000000000001, 0.11800000000000001, 192.0, 0.0, 0.0, 0.0, 0.0, 0.0, 0.0, 0.0, 0.0, 0.0, 1.6665553441056E9, 0.0, 2022-10-23 13:02:24.105
79.0, -65823.16050805575, -96208.211327578, 54916.29152492184, 847.1981700895036, 83598.49704486097, 63440.8221770313, 20185.99452805454, 15746.312230385809, 0.024, 0.9540000000000001, 0.11800000000000001, 192.0, 0.0, 0.0, 0.0, 0.0, 0.0, 0.0, 0.0, 0.0, 0.0, 1.6665553441056108E9, 0.0, 2022-10-23 13:02:24.105
80.0, -65866.9475754437, -96244.73407801797, 54274.483534632156, 641.2939001672149, 83761.59772415135, 63245.62439270311, 19905.971873518454, 15608.17844965201, 0.032, 0.9520000000000001, 0.11800000000000001, 192.0, 1.0, 0.0, 29.0, 192.0, 3.0, 176.0, 0.0, 0.0, 0.0, 1.666555344105622E9, 0.0, 2022-10-23 13:02:24.105
81.0, -65915.27204695607, -96286.59889538276, 55569.543608372645, 1400.4038453583535, 83985.69631406026, 63874.35661248644, 20815.59846587163, 16667.11469496664, 0.032, 0.9520000000000001, 0.11800000000000001, 192.0, 0.0, 0.0, 0.0, 0.0, 0.0, 0.0, 0.0, 0.0, 0.0, 1.6665553441056335E9, 0.0, 2022-10-23 13:02:24.105
82.0, -65901.63748283834, -96275.35596792174, 57306.18474557218, 2211.2357272190725, 83987.01506698312, 64577.22956862803, 21812.64273078951, 17576.070734986155, 0.032, 0.9520000000000001, 0.11800000000000001, 192.0, 0.0, 0.0, 0.0, 0.0, 0.0, 0.0, 0.0, 0.0, 0.0, 1.6665553441056447E9, 0.0, 2022-10-23 13:02:24.105
83.0, -65824.30044702298, -96203.18218507555, 55292.4490323602, 1022.3464396412897, 83610.85755954476, 63590.57886488186, 20413.848211031942, 15982.436058811672, 0.032, 0.9520000000000001, 0.11800000000000001, 192.0, 0.0, 0.0, 0.0, 0.0, 0.0, 0.0, 0.0, 0.0, 0.0, 1.6665553441056557E9, 0.0, 2022-10-23 13:02:24.105
84.0, -65862.32076434145, -96236.12865640267, 54239.92773770425, 583.9616756393523, 83722.48217135455, 63195.75765082332, 19852.730018225913, 15539.111559285113, 0.032, 0.9520000000000001, 0.11800000000000001, 192.0, 0.0, 0.0, 0.0, 0.0, 0.0, 0.0, 0.0, 0.0, 0.0, 1.6665553441056669E9, 0.0, 2022-10-23 13:02:24.105
85.0, -65909.19237246423, -96284.11785174822, 55182.05376649544, 1178.6968921061627, 83947.18425836376, 63693.44159286519, 20568.432875684844, 16410.561372108623, 0.032, 0.9520000000000001, 0.11800000000000001, 192.0, 0.0, 0.0, 0.0, 0.0, 0.0, 0.0, 0.0, 0.0, 0.0, 1.6665553441056776E9, 0.0, 2022-10-23 13:02:24.105
86.0, -65915.56261963399, -96294.80198559785, 57282.178972027184, 2218.4329889336814, 84034.9819105842, 64582.325766363836, 21834.10040546661, 17644.10944510811, 0.032, 0.9520000000000001, 0.11800000000000001, 192.0, 0.0, 0.0, 0.0, 0.0, 0.0, 0.0, 0.0, 0.0, 0.0, 1.6665553441056886E9, 0.0, 2022-10-23 13:02:24.105
87.0, -65834.20226981667, -96213.62044973618, 55725.11174978158, 1230.6423462202963, 83634.1927807561, 63770.19748332471, 20687.90294979846, 16273.321661153039, 0.032, 0.9520000000000001, 0.11800000000000001, 192.0, 0.0, 0.0, 0.0, 0.0, 0.0, 0.0, 0.0, 0.0, 0.0, 1.6665553441056995E9, 0.0, 2022-10-23 13:02:24.105
88.0, -65853.0894938814, -96229.49018829945, 54250.433057598246, 546.008413554241, 83681.35496155679, 63168.17559816547, 19829.528907481304, 15496.486782608841, 0.032, 0.9520000000000001, 0.11800000000000001, 192.0, 0.0, 0.0, 0.0, 0.0, 0.0, 0.0, 0.0, 0.0, 0.0, 1.6665553441057227E9, 0.0, 2022-10-23 13:02:24.105
89.0, -65890.93099724424, -96266.7728980509, 54826.258698255864, 959.4933342329663, 83899.08330429594, 63507.542134230396, 20322.362520976367, 16159.171302219786, 0.032, 0.9520000000000001, 0.11800000000000001, 192.0, 0.0, 0.0, 0.0, 0.0, 0.0, 0.0, 0.0, 0.0, 0.0, 1.666555344105734E9, 0.0, 2022-10-23 13:02:24.105
90.0, -65921.57523889247, -96297.9312298216, 57064.85296068823, 2118.319525518361, 84072.15286161339, 64490.393041419156, 21720.374729678006, 17583.402107167498, 0.04, 0.9500000000000001, 0.11, 192.0, 1.0, 64.0, 29.0, 176.0, 3.0, 112.0, 0.0, 0.0, 0.0, 1.6665553441057448E9, 0.0, 2022-10-23 13:02:24.105
91.0, -65843.36648504336, -96223.52227252988, 56206.210697437615, 1490.6601894688833, 83711.64157529373, 63994.36312846698, 21012.830258945258, 16638.795034741765, 0.04, 0.9500000000000001, 0.11, 192.0, 0.0, 0.0, 0.0, 0.0, 0.0, 0.0, 0.0, 0.0, 0.0, 1.6665553441057565E9, 0.0, 2022-10-23 13:02:24.105
92.0, -65839.47728150812, -96216.32501081527, 54352.51347452563, 571.2658847887379, 83658.17620255664, 63201.07736600368, 19878.769800516344, 15522.571268388185, 0.04, 0.9500000000000001, 0.11, 192.0, 0.0, 0.0, 0.0, 0.0, 0.0, 0.0, 0.0, 0.0, 0.0, 1.6665553441057675E9, 0.0, 2022-10-23 13:02:24.105
93.0, -65883.42081110727, -96258.8156770248, 54556.048459535654, 792.2799339628142, 83850.04357696099, 63365.87677787266, 20131.7021407726, 15949.266070039997, 0.04, 0.9500000000000001, 0.11, 192.0, 0.0, 0.0, 0.0, 0.0, 0.0, 0.0, 0.0, 0.0, 0.0, 1.6665553441057837E9, 0.0, 2022-10-23 13:02:24.105
94.0, -65929.13012851836, -96302.71450313504, 56714.26584890674, 1950.2120554699966, 84072.46578603575, 64344.03381872581, 21520.39367203637, 17413.417090584888, 0.04, 0.9500000000000001, 0.11, 192.0, 0.0, 0.0, 0.0, 0.0, 0.0, 0.0, 0.0, 0.0, 0.0, 1.6665553441057944E9, 0.0, 2022-10-23 13:02:24.105
95.0, -65864.37712483134, -96248.62328155318, 56614.82293782508, 1713.7753026217583, 83763.4752706856, 64178.80972371218, 21284.471009310604, 16955.49690192901, 0.04, 0.9500000000000001, 0.11, 192.0, 0.0, 0.0, 0.0, 0.0, 0.0, 0.0, 0.0, 0.0, 0.0, 1.6665553441058064E9, 0.0, 2022-10-23 13:02:24.105
96.0, -65837.6444384628, -96220.54949051733, 54462.193484567826, 591.583620498612, 83612.75745782345, 63224.01025581483, 19918.242981224415, 15548.298126256244, 0.04, 0.9500000000000001, 0.11, 192.0, 0.0, 0.0, 0.0, 0.0, 0.0, 0.0, 0.0, 0.0, 0.0, 1.6665553441058173E9, 0.0, 2022-10-23 13:02:24.105
97.0, -65877.74346801561, -96255.64172931216, 54369.79137298958, 672.8098598491979, 83809.89984391927, 63272.290023838286, 19995.04357517285, 15794.03320479789, 0.04, 0.9500000000000001, 0.11, 192.0, 0.0, 0.0, 0.0, 0.0, 0.0, 0.0, 0.0, 0.0, 0.0, 1.6665553441058276E9, 0.0, 2022-10-23 13:02:24.105
98.0, -65935.83565185496, -96309.24121251598, 56304.58072478542, 1747.526436749272, 84066.52022201064, 64187.16927613846, 21284.895692455255, 17188.1562099643, 0.04, 0.9500000000000001, 0.11, 192.0, 0.0, 0.0, 0.0, 0.0, 0.0, 0.0, 0.0, 0.0, 0.0, 1.6665553441058383E9, 0.0, 2022-10-23 13:02:24.105
99.0, -65869.8980057118, -96249.15972342012, 56998.17770697805, 1948.2674537023847, 83862.67231257824, 64391.93360709353, 21569.299288904585, 17285.878036722905, 0.042, 0.96, 0.1, 192.0, 1.0, 80.0, 30.0, 0.0, 3.0, 32.0, 0.0, 0.0, 0.0, 1.6665553441058493E9, 0.0, 2022-10-23 13:02:24.105
100.0, -65825.06040633445, -96202.69044669754, 54685.84503958763, 682.1752407759716, 83599.97225999502, 63321.508565128875, 20047.123139753716, 15659.453351432485, 0.042, 0.96, 0.1, 192.0, 0.0, 0.0, 0.0, 0.0, 0.0, 0.0, 0.0, 0.0, 0.0, 1.6665553441058605E9, 0.0, 2022-10-23 13:02:24.105
101.0, -65872.8484359799, -96248.75739201992, 54250.008374453595, 584.8557454175645, 83776.99807608106, 63213.907267321025, 19901.479172882937, 15674.29490975081, 0.042, 0.96, 0.1, 192.0, 0.0, 0.0, 0.0, 0.0, 0.0, 0.0, 0.0, 0.0, 0.0, 1.666555344105872E9, 0.0, 2022-10-23 13:02:24.105
102.0, -65923.47513717118, -96297.10421527675, 55802.29232338576, 1477.2044393067886, 84025.77299186862, 63959.56146235007, 20969.15495027959, 16877.176389357614, 0.042, 0.96, 0.1, 192.0, 0.0, 0.0, 0.0, 0.0, 0.0, 0.0, 0.0, 0.0, 0.0, 1.6665553441058826E9, 0.0, 2022-10-23 13:02:24.105
103.0, -65882.63850005133, -96258.83802876927, 57146.50388318347, 2047.7327165285012, 83930.59926397793, 64458.63121254816, 21685.68482228337, 17468.2235679893, 0.042, 0.96, 0.1, 192.0, 0.0, 0.0, 0.0, 0.0, 0.0, 0.0, 0.0, 0.0, 0.0, 1.6665553441058931E9, 0.0, 2022-10-23 13:02:24.105
104.0, -65836.07981635092, -96217.86728118268, 54934.977583286476, 786.6472943600768, 83594.5854895813, 63403.62887425767, 20188.632033900267, 15808.405376482651, 0.042, 0.96, 0.1, 192.0, 0.0, 0.0, 0.0, 0.0, 0.0, 0.0, 0.0, 0.0, 0.0, 1.666555344105914E9, 0.0, 2022-10-23 13:02:24.105
105.0, -65871.61909003486, -96249.22677865348, 54141.31184116744, 500.76848277669944, 83740.07299424088, 63139.14068211803, 19806.864238603623, 15565.55367297574, 0.042, 0.96, 0.1, 192.0, 0.0, 0.0, 0.0, 0.0, 0.0, 0.0, 0.0, 0.0, 0.0, 1.6665553441059248E9, 0.0, 2022-10-23 13:02:24.105
106.0, -65914.08740449994, -96288.476441917, 55320.321657695975, 1220.2711367930337, 83983.10351170343, 63739.30737248748, 20661.125559941003, 16574.98080432186, 0.042, 0.96, 0.1, 192.0, 0.0, 0.0, 0.0, 0.0, 0.0, 0.0, 0.0, 0.0, 0.0, 1.666555344105935E9, 0.0, 2022-10-23 13:02:24.105
107.0, -65903.13504971685, -96281.68151160258, 57228.221860912075, 2142.437057785637, 84023.11313427844, 64539.455120498555, 21787.60877699957, 17628.507927478306, 0.042, 0.96, 0.1, 192.0, 0.0, 0.0, 0.0, 0.0, 0.0, 0.0, 0.0, 0.0, 0.0, 1.666555344105946E9, 0.0, 2022-10-23 13:02:24.105
108.0, -65825.41803424574, -96207.98781013345, 55362.94643437224, 1021.3629628852563, 83632.8963795777, 63616.77510938348, 20477.573034474022, 16103.068423636965, 0.042, 0.96, 0.1, 192.0, 0.0, 0.0, 0.0, 0.0, 0.0, 0.0, 0.0, 0.0, 0.0, 1.6665553441059568E9, 0.0, 2022-10-23 13:02:24.105
109.0, -65852.6424589923, -96230.83129296676, 54147.95030927066, 491.47015708329167, 83715.41902010668, 63144.99683916532, 19804.696119391458, 15534.2165272494, 0.04, 0.96, 0.094, 192.0, 1.0, 64.0, 30.0, 0.0, 2.0, 240.0, 0.0, 0.0, 0.0, 1.6665553441059675E9, 0.0, 2022-10-23 13:02:24.105
110.0, -65900.54224736002, -96275.84770629976, 54935.24580421994, 1007.9742679565273, 83925.57012147548, 63572.07162047287, 20421.581914613478, 16311.230219749239, 0.04, 0.96, 0.094, 192.0, 0.0, 0.0, 0.0, 0.0, 0.0, 0.0, 0.0, 0.0, 0.0, 1.6665553441059792E9, 0.0, 2022-10-23 13:02:24.105
111.0, -65916.25552371211, -96291.8292035853, 57110.18229844359, 2105.51197594547, 84055.27729454963, 64509.48143118399, 21751.667171915433, 17630.944267623934, 0.04, 0.96, 0.094, 192.0, 0.0, 0.0, 0.0, 0.0, 0.0, 0.0, 0.0, 0.0, 0.0, 1.6665553441059897E9, 0.0, 2022-10-23 13:02:24.105
112.0, -65829.17312731424, -96211.4076270351, 55798.224305894895, 1247.9202446842487, 83673.21892657506, 63817.04673970303, 20764.032991413234, 16408.393252896458, 0.04, 0.96, 0.094, 192.0, 0.0, 0.0, 0.0, 0.0, 0.0, 0.0, 0.0, 0.0, 0.0, 1.6665553441060004E9, 0.0, 2022-10-23 13:02:24.106
113.0, -65853.73769447062, -96231.2112726225, 54160.1320099988, 460.0212526346747, 83669.57559222885, 63127.562478490174, 19783.931348792477, 15488.171933671467, 0.04, 0.96, 0.094, 192.0, 0.0, 0.0, 0.0, 0.0, 0.0, 0.0, 0.0, 0.0, 0.0, 1.6665553441060112E9, 0.0, 2022-10-23 13:02:24.106
114.0, -65897.9494450032, -96274.1266219767, 54583.71991917133, 794.6268671306213, 83875.72573134015, 63393.14590610813, 20176.450333172124, 16051.480597434116, 0.04, 0.96, 0.094, 192.0, 0.0, 0.0, 0.0, 0.0, 0.0, 0.0, 0.0, 0.0, 0.0, 1.6665553441060216E9, 0.0, 2022-10-23 13:02:24.106
115.0, -65926.04558778353, -96308.57066018232, 56807.852602941115, 1962.4384596870495, 84079.7971582171, 64383.350537222694, 21582.062134988562, 17504.299283540164, 0.04, 0.96, 0.094, 192.0, 0.0, 0.0, 0.0, 0.0, 0.0, 0.0, 0.0, 0.0, 0.0, 1.6665553441060324E9, 0.0, 2022-10-23 13:02:24.106
116.0, -65847.83683393442, -96234.5640342908, 56201.00274097952, 1463.8380961225148, 83739.89418028525, 63995.48071568975, 21031.002227187422, 16723.55284971629, 0.04, 0.96, 0.094, 192.0, 0.0, 0.0, 0.0, 0.0, 0.0, 0.0, 0.0, 0.0, 0.0, 1.6665553441060448E9, 0.0, 2022-10-23 13:02:24.106
117.0, -65850.25082233558, -96231.0101069224, 54231.79170272252, 471.46534579579185, 83648.20732452958, 63146.82968221065, 19816.96722709742, 15504.645169335028, 0.04, 0.96, 0.094, 192.0, 0.0, 0.0, 0.0, 0.0, 0.0, 0.0, 0.0, 0.0, 0.0, 1.6665553441060555E9, 0.0, 2022-10-23 13:02:24.106
118.0, -65889.299319899, -96268.78455505188, 54349.51834076862, 660.0693655096728, 83840.74525126758, 63290.327881613724, 20028.97352325601, 15886.43531637613, 0.04, 0.96, 0.094, 192.0, 0.0, 0.0, 0.0, 0.0, 0.0, 0.0, 0.0, 0.0, 0.0, 1.666555344106066E9, 0.0, 2022-10-23 13:02:24.106
119.0, -65927.27493372858, -96309.19650902707, 56437.90888046133, 1794.465100105417, 84073.27044883615, 64248.86009083511, 21386.66318496027, 17332.079092512024, 0.04, 0.9540000000000001, 0.1, 192.0, 1.0, 64.0, 29.0, 208.0, 3.0, 32.0, 0.0, 0.0, 0.0, 1.6665553441060882E9, 0.0, 2022-10-23 13:02:24.106
120.0, -65854.87763343783, -96245.02465069588, 56605.815184809595, 1703.0688170276662, 83809.47516077461, 64200.535619322734, 21321.485498128593, 17062.226481703103, 0.04, 0.9540000000000001, 0.1, 192.0, 0.0, 0.0, 0.0, 0.0, 0.0, 0.0, 0.0, 0.0, 0.0, 1.6665553441060996E9, 0.0, 2022-10-23 13:02:24.106
121.0, -65829.4413482477, -96221.73413297345, 54361.18595137429, 509.75388404773287, 83610.34346942228, 63184.26885417329, 19877.987489460407, 15555.115408315112, 0.04, 0.9540000000000001, 0.1, 192.0, 0.0, 0.0, 0.0, 0.0, 0.0, 0.0, 0.0, 0.0, 0.0, 1.6665553441061103E9, 0.0, 2022-10-23 13:02:24.106
122.0, -65877.27408138206, -96267.8234300403, 54154.67818435171, 536.2854047161824, 83799.95331763665, 63183.4641913729, 19887.039945964807, 15728.609648777207, 0.04, 0.9540000000000001, 0.1, 192.0, 0.0, 0.0, 0.0, 0.0, 0.0, 0.0, 0.0, 0.0, 0.0, 1.6665553441061208E9, 0.0, 2022-10-23 13:02:24.106
123.0, -65928.32546571798, -96315.14207305218, 55956.22878744946, 1547.567730852095, 84043.7437944107, 64037.54669875464, 21100.404393721154, 17057.867891534315, 0.04, 0.9540000000000001, 0.1, 192.0, 0.0, 0.0, 0.0, 0.0, 0.0, 0.0, 0.0, 0.0, 0.0, 1.6665553441061313E9, 0.0, 2022-10-23 13:02:24.106
124.0, -65869.67448826725, -96257.13929619067, 56891.26931324832, 1882.5309732593266, 83882.05127502099, 64344.99494373739, 21542.767768236135, 17336.258868725166, 0.04, 0.9540000000000001, 0.1, 192.0, 0.0, 0.0, 0.0, 0.0, 0.0, 0.0, 0.0, 0.0, 0.0, 1.666555344106142E9, 0.0, 2022-10-23 13:02:24.106
125.0, -65818.42193823123, -96204.29977229831, 54602.22716358032, 623.5242633252458, 83610.58933861129, 63287.109230412156, 20030.91812502362, 15700.804078674804, 0.04, 0.9540000000000001, 0.1, 192.0, 0.0, 0.0, 0.0, 0.0, 0.0, 0.0, 0.0, 0.0, 0.0, 1.6665553441061523E9, 0.0, 2022-10-23 13:02:24.106
126.0, -65869.8533022229, -96257.13929619067, 54059.16918029418, 474.99692141973037, 83771.5218986895, 63140.52649027426, 19818.889477120578, 15642.890708791103, 0.04, 0.9540000000000001, 0.1, 192.0, 0.0, 0.0, 0.0, 0.0, 0.0, 0.0, 0.0, 0.0, 0.0, 1.6665553441061628E9, 0.0, 2022-10-23 13:02:24.106
127.0, -65916.38963417883, -96304.59204966929, 55472.849961858985, 1295.9317917742483, 83997.83331129949, 63824.53457409556, 20800.73455580885, 16768.61396653819, 0.04, 0.9540000000000001, 0.1, 192.0, 0.0, 0.0, 0.0, 0.0, 0.0, 0.0, 0.0, 0.0, 0.0, 1.6665553441061733E9, 0.0, 2022-10-23 13:02:24.106
128.0, -65887.31001464248, -96284.52018314842, 57058.37095479619, 2017.4237510471048, 83966.58557255096, 64456.127817169174, 21692.546807831146, 17552.243775396797, 0.04, 0.9540000000000001, 0.1, 192.0, 0.0, 0.0, 0.0, 0.0, 0.0, 0.0, 0.0, 0.0, 0.0, 1.6665553441061835E9, 0.0, 2022-10-23 13:02:24.106
129.0, -65819.36071149835, -96221.60002250673, 54937.10099900973, 789.5977246281773, 83613.00332701247, 63435.61422057322, 20238.074092635405, 15913.480927167051, 0.04, 0.9560000000000001, 0.116, 192.0, 1.0, 64.0, 29.0, 224.0, 3.0, 160.0, 0.0, 0.0, 0.0, 1.6665553441061945E9, 0.0, 2022-10-23 13:02:24.106
130.0, -65866.79111323251, -96265.29768291685, 53982.659159023664, 408.32166770954944, 83729.88059876926, 63087.61991114854, 19744.838147740145, 15544.520681443297, 0.04, 0.9560000000000001, 0.116, 192.0, 0.0, 0.0, 0.0, 0.0, 0.0, 0.0, 0.0, 0.0, 0.0, 1.6665553441062057E9, 0.0, 2022-10-23 13:02:24.106
131.0, -65917.57427663497, -96313.42098872912, 55030.79951176638, 1063.6301116502418, 83958.3154271025, 63634.65650494773, 20525.092843186005, 16478.510675252757, 0.04, 0.9560000000000001, 0.116, 192.0, 0.0, 0.0, 0.0, 0.0, 0.0, 0.0, 0.0, 0.0, 0.0, 1.666555344106217E9, 0.0, 2022-10-23 13:02:24.106
132.0, -65923.4080819378, -96316.8855091197, 57071.51378053591, 2071.358510417761, 84025.41536395733, 64503.24529448096, 21750.571936437125, 17647.439855031953, 0.04, 0.9560000000000001, 0.116, 192.0, 0.0, 0.0, 0.0, 0.0, 0.0, 0.0, 0.0, 0.0, 0.0, 1.6665553441062272E9, 0.0, 2022-10-23 13:02:24.106
0.0, 0.0, 0.0, 0.0, 0.0, 0.0, 0.0, 0.0, 0.0, 0.04, 0.9560000000000001, 0.116, 192.0, 0.0, 0.0, 0.0, 0.0, 0.0, 0.0, 0.0, 0.0, 0.0, 1.6665553441722376E9, 0.0, 2022-10-23 13:02:24.172
1.0, -65915.94259928973, -96338.00790762996, 54139.59075684437, 594.3552368110701, 83697.89525245372, 63364.53567320534, 20145.381408379246, 15614.772214266326, 0.04, 0.9520000000000001, 0.10400000000000001, 192.0, 1.0, 64.0, 29.0, 192.0, 3.0, 64.0, 0.0, 0.0, 0.0, 1.666555344188277E9, 0.0, 2022-10-23 13:02:24.188
2.0, -65956.35455326493, -96374.3965476032, 54054.65412791421, 677.32491222917, 83885.4487401782, 63415.65411277463, 20228.060511119427, 15861.513121308462, 0.04, 0.9520000000000001, 0.10400000000000001, 192.0, 0.0, 0.0, 0.0, 0.0, 0.0, 0.0, 0.0, 0.0, 0.0, 1.6665553446686015E9, 0.0, 2022-10-23 13:02:24.668
3.0, -66005.8860189779, -96419.92705105866, 55938.19092967403, 1705.5722124066608, 84124.38888840543, 64275.99510860385, 21466.30245045453, 17216.27470448908, 0.04, 0.9520000000000001, 0.10400000000000001, 192.0, 0.0, 0.0, 0.0, 0.0, 0.0, 0.0, 0.0, 0.0, 0.0, 1.6665553446686654E9, 0.0, 2022-10-23 13:02:24.668
4.0, -65943.50230020312, -96363.60065503129, 56618.22040298229, 1900.9264589460445, 83932.76738319009, 64472.71281155501, 21744.604020667557, 17315.404691148364, 0.04, 0.9520000000000001, 0.10400000000000001, 192.0, 0.0, 0.0, 0.0, 0.0, 0.0, 0.0, 0.0, 0.0, 0.0, 1.6665553446686952E9, 0.0, 2022-10-23 13:02:24.668
5.0, -65908.05243349701, -96328.39665751418, 54327.92655562479, 659.6893858539327, 83675.00706613148, 63421.84554598875, 20249.92051719672, 15709.521259012374, 0.04, 0.9520000000000001, 0.10400000000000001, 192.0, 0.0, 0.0, 0.0, 0.0, 0.0, 0.0, 0.0, 0.0, 0.0, 1.6665553446687093E9, 0.0, 2022-10-23 13:02:24.668
6.0, -65947.01152408261, -96364.0923934093, 53916.542698924866, 577.7925941696876, 83856.05619621948, 63329.398730921595, 20121.062710411872, 15734.041122679846, 0.04, 0.9520000000000001, 0.10400000000000001, 192.0, 0.0, 0.0, 0.0, 0.0, 0.0, 0.0, 0.0, 0.0, 0.0, 1.66655534466872E9, 0.0, 2022-10-23 13:02:24.668
7.0, -66004.34374861047, -96418.45183592461, 55489.79258415611, 1478.2326195517326, 84113.16831268887, 64086.34055690057, 21198.19327571312, 16948.67961987014, 0.04, 0.9520000000000001, 0.10400000000000001, 192.0, 0.0, 0.0, 0.0, 0.0, 0.0, 0.0, 0.0, 0.0, 0.0, 1.6665553446687307E9, 0.0, 2022-10-23 13:02:24.668
8.0, -65976.35936455242, -96394.28960016843, 56881.814525343725, 2078.0640337543527, 84033.9313785948, 64626.4034064297, 21958.64432557158, 17577.881226287034, 0.05, 0.9480000000000001, 0.1, 192.0, 1.0, 144.0, 29.0, 160.0, 3.0, 32.0, 0.0, 0.0, 0.0, 1.666555344668742E9, 0.0, 2022-10-23 13:02:24.668
9.0, -65918.46834641318, -96337.27030006294, 54694.51751643629, 836.5140362398669, 83686.47351103705, 63595.3621381953, 20489.128886357415, 15931.33997098684, 0.05, 0.9480000000000001, 0.1, 192.0, 0.0, 0.0, 0.0, 0.0, 0.0, 0.0, 0.0, 0.0, 0.0, 1.6665553446687543E9, 0.0, 2022-10-23 13:02:24.668
10.0, -65949.69373341724, -96364.71824225405, 53892.0228352574, 538.1405995059729, 83812.85027418737, 63316.47942262643, 20096.006404877473, 15668.282290492332, 0.05, 0.9480000000000001, 0.1, 192.0, 0.0, 0.0, 0.0, 0.0, 0.0, 0.0, 0.0, 0.0, 0.0, 1.666555344668765E9, 0.0, 2022-10-23 13:02:24.668
11.0, -65980.31562332102, -96395.00485599099, 55074.56422740987, 1252.7705732310503, 84070.63294299041, 63912.82396469402, 20950.2453744704, 16679.944596283985, 0.05, 0.9480000000000001, 0.1, 192.0, 0.0, 0.0, 0.0, 0.0, 0.0, 0.0, 0.0, 0.0, 0.0, 1.6665553446687756E9, 0.0, 2022-10-23 13:02:24.668
12.0, -65970.61496622741, -96390.04276872192, 56965.36534611766, 2152.3612323237935, 84105.72518178525, 64694.95620667413, 22056.790835474832, 17720.30654195625, 0.05, 0.9480000000000001, 0.1, 192.0, 0.0, 0.0, 0.0, 0.0, 0.0, 0.0, 0.0, 0.0, 0.0, 1.6665553446687863E9, 0.0, 2022-10-23 13:02:24.668
13.0, -65907.82891605246, -96327.8378639028, 55075.16772451017, 1019.1948436730914, 83708.57938630336, 63757.0993610739, 20727.95727586237, 16176.493904172648, 0.05, 0.9480000000000001, 0.1, 192.0, 0.0, 0.0, 0.0, 0.0, 0.0, 0.0, 0.0, 0.0, 0.0, 1.6665553446687965E9, 0.0, 2022-10-23 13:02:24.668
14.0, -65946.43037872677, -96362.46071606407, 53869.89460824664, 496.1640234189062, 83791.0796750879, 63291.445468836486, 20063.12698878372, 15610.614789797639, 0.05, 0.9480000000000001, 0.1, 192.0, 0.0, 0.0, 0.0, 0.0, 0.0, 0.0, 0.0, 0.0, 0.0, 1.666555344668807E9, 0.0, 2022-10-23 13:02:24.668
15.0, -65991.73736473768, -96404.52669912895, 54687.74493786633, 1031.3765444012338, 84016.58642489748, 63734.725264874134, 20701.358699960554, 16409.935523263877, 0.05, 0.9480000000000001, 0.1, 192.0, 0.0, 0.0, 0.0, 0.0, 0.0, 0.0, 0.0, 0.0, 0.0, 1.6665553446688175E9, 0.0, 2022-10-23 13:02:24.668
16.0, -66000.76746949762, -96417.58011789086, 56855.19359769745, 2115.056170827886, 84128.63571985194, 64655.95241259962, 22016.758861155377, 17714.852716309157, 0.05, 0.9480000000000001, 0.1, 192.0, 0.0, 0.0, 0.0, 0.0, 0.0, 0.0, 0.0, 0.0, 0.0, 1.666555344668828E9, 0.0, 2022-10-23 13:02:24.668
17.0, -65924.48096567165, -96348.64733799068, 55495.55933422558, 1228.161302585757, 83733.63569183776, 63930.79476723609, 20996.28996804833, 16455.577785441612, 0.054, 0.9540000000000001, 0.094, 192.0, 1.0, 176.0, 29.0, 208.0, 2.0, 240.0, 0.0, 0.0, 0.0, 1.6665553446688385E9, 0.0, 2022-10-23 13:02:24.668
18.0, -65939.59074492345, -96361.67840500813, 53897.85664056023, 476.69565399833374, 83754.80279383693, 63278.928491941515, 20059.77422711542, 15569.264062555321, 0.054, 0.9540000000000001, 0.094, 192.0, 0.0, 0.0, 0.0, 0.0, 0.0, 0.0, 0.0, 0.0, 0.0, 1.6665553446690056E9, 0.0, 2022-10-23 13:02:24.669
19.0, -65982.93077742228, -96401.82213804986, 54369.50080031167, 846.4158590335678, 83977.31440988951, 63581.86168454429, 20494.5380085156, 16170.77185759209, 0.054, 0.9540000000000001, 0.094, 192.0, 0.0, 0.0, 0.0, 0.0, 0.0, 0.0, 0.0, 0.0, 0.0, 1.6665553446690166E9, 0.0, 2022-10-23 13:02:24.669
20.0, -66008.70233877926, -96429.38183896325, 56620.34381870554, 2024.9115854396327, 84173.78624365166, 64583.82333324234, 21912.487973271367, 17631.748930424324, 0.054, 0.9540000000000001, 0.094, 192.0, 0.0, 0.0, 0.0, 0.0, 0.0, 0.0, 0.0, 0.0, 0.0, 1.6665553446690276E9, 0.0, 2022-10-23 13:02:24.669
21.0, -65934.82982335446, -96361.9913294305, 55974.75838360291, 1498.1480238614113, 83808.22346308512, 64165.91276716146, 21327.58752436489, 16807.90833329062, 0.054, 0.9540000000000001, 0.094, 192.0, 0.0, 0.0, 0.0, 0.0, 0.0, 0.0, 0.0, 0.0, 0.0, 1.6665553446690383E9, 0.0, 2022-10-23 13:02:24.669
22.0, -65942.69763740273, -96365.0982219098, 53974.076089152826, 485.27872386917164, 83706.45597058011, 63290.953730458474, 20086.797486161886, 15561.530358973785, 0.054, 0.9540000000000001, 0.094, 192.0, 0.0, 0.0, 0.0, 0.0, 0.0, 0.0, 0.0, 0.0, 0.0, 1.6665553446690493E9, 0.0, 2022-10-23 13:02:24.669
23.0, -65989.27867284759, -96409.26526895349, 54113.126291409295, 687.5620111897006, 83917.97052836067, 63447.01361024543, 20314.651169139288, 15956.597442221338, 0.054, 0.9540000000000001, 0.094, 192.0, 0.0, 0.0, 0.0, 0.0, 0.0, 0.0, 0.0, 0.0, 0.0, 1.6665553446690595E9, 0.0, 2022-10-23 13:02:24.669
24.0, -66044.15220548537, -96462.23890331257, 56210.01049399501, 1815.2298707043972, 84143.74549910374, 64401.27663627585, 21670.329173842572, 17400.520134034174, 0.054, 0.9540000000000001, 0.094, 192.0, 0.0, 0.0, 0.0, 0.0, 0.0, 0.0, 0.0, 0.0, 0.0, 1.6665553446690705E9, 0.0, 2022-10-23 13:02:24.669
25.0, -65949.42551248378, -96374.53065806994, 56393.74183341764, 1745.5147797482944, 83893.31655422648, 64373.09108651771, 21623.926952353355, 17146.00081992159, 0.054, 0.9540000000000001, 0.094, 192.0, 0.0, 0.0, 0.0, 0.0, 0.0, 0.0, 0.0, 0.0, 0.0, 1.6665553446690824E9, 0.0, 2022-10-23 13:02:24.669
26.0, -65937.28851524455, -96360.33730034082, 54166.122277512826, 571.8917336334865, 83697.82819722035, 63370.61534769718, 20197.505676449022, 15649.57388038324, 0.054, 0.9540000000000001, 0.094, 192.0, 0.0, 0.0, 0.0, 0.0, 0.0, 0.0, 0.0, 0.0, 0.0, 1.6665553446690953E9, 0.0, 2022-10-23 13:02:24.669
27.0, -65990.79859147055, -96412.95330678861, 54001.43462436612, 622.518434824757, 83886.40986518978, 63400.07494688928, 20237.560002512935, 15847.006839156968, 0.048, 0.9520000000000001, 0.088, 192.0, 1.0, 128.0, 29.0, 192.0, 2.0, 192.0, 0.0, 0.0, 0.0, 1.6665553446691062E9, 0.0, 2022-10-23 13:02:24.669
28.0, -66039.30187693857, -96458.08147884387, 55815.546907847754, 1631.6996969818708, 84130.69208034183, 64254.04569554874, 21450.812691547002, 17176.39919238081, 0.048, 0.9520000000000001, 0.088, 192.0, 0.0, 0.0, 0.0, 0.0, 0.0, 0.0, 0.0, 0.0, 0.0, 1.6665553446691177E9, 0.0, 2022-10-23 13:02:24.669
29.0, -65990.15039088135, -96413.7132661001, 56744.66422136596, 1959.7786020968679, 83962.29403761555, 64559.97402190853, 21886.224673536384, 17442.317896165598, 0.048, 0.9520000000000001, 0.088, 192.0, 0.0, 0.0, 0.0, 0.0, 0.0, 0.0, 0.0, 0.0, 0.0, 1.6665553446691284E9, 0.0, 2022-10-23 13:02:24.669
30.0, -65949.09023631696, -96377.45873659357, 54458.59485371052, 707.6338777105663, 83677.93514465513, 63502.289474283396, 20378.398344325822, 15793.586169908784, 0.048, 0.9520000000000001, 0.088, 192.0, 0.0, 0.0, 0.0, 0.0, 0.0, 0.0, 0.0, 0.0, 0.0, 1.666555344669139E9, 0.0, 2022-10-23 13:02:24.669
31.0, -65985.90355943484, -96411.36633293227, 53913.033475045384, 554.971463080819, 83841.97459721263, 63350.0517427983, 20160.290021930938, 15723.804023719315, 0.048, 0.9520000000000001, 0.088, 192.0, 0.0, 0.0, 0.0, 0.0, 0.0, 0.0, 0.0, 0.0, 0.0, 1.6665553446691496E9, 0.0, 2022-10-23 13:02:24.669
32.0, -66042.7887490736, -96461.1660195787, 55313.884355292845, 1360.3942227833538, 84079.03719890561, 64024.73914918175, 21130.355731291264, 16841.659467418132, 0.048, 0.9520000000000001, 0.088, 192.0, 0.0, 0.0, 0.0, 0.0, 0.0, 0.0, 0.0, 0.0, 0.0, 1.66655534466916E9, 0.0, 2022-10-23 13:02:24.669
33.0, -66025.19792618728, -96445.25157752652, 56841.84960625763, 2037.9426524570767, 84029.03634655909, 64618.69205459262, 21979.40909617056, 17582.75390657829, 0.048, 0.9520000000000001, 0.088, 192.0, 0.0, 0.0, 0.0, 0.0, 0.0, 0.0, 0.0, 0.0, 0.0, 1.6665553446691897E9, 0.0, 2022-10-23 13:02:24.669
34.0, -65950.81132064002, -96372.87662898024, 54703.61467642959, 812.5082626948671, 83674.26945856446, 63589.93066429266, 20521.717729773252, 15946.472101983083, 0.048, 0.9520000000000001, 0.088, 192.0, 0.0, 0.0, 0.0, 0.0, 0.0, 0.0, 0.0, 0.0, 0.0, 1.6665553446692002E9, 0.0, 2022-10-23 13:02:24.669
35.0, -65985.7247454792, -96404.28082993995, 53807.10855807168, 479.9813604332639, 83819.57814926842, 63279.688451252994, 20075.77807614542, 15632.675961575027, 0.048, 0.9520000000000001, 0.088, 192.0, 0.0, 0.0, 0.0, 0.0, 0.0, 0.0, 0.0, 0.0, 0.0, 1.666555344669211E9, 0.0, 2022-10-23 13:02:24.669
36.0, -66036.53026062611, -96453.00763285252, 54875.18666686853, 1139.1343044202692, 84049.06350959105, 63828.02144623059, 20863.587661217174, 16578.020641567786, 0.048, 0.9520000000000001, 0.088, 192.0, 0.0, 0.0, 0.0, 0.0, 0.0, 0.0, 0.0, 0.0, 0.0, 1.6665553446692214E9, 0.0, 2022-10-23 13:02:24.669
37.0, -66025.60025758747, -96451.71123167411, 56849.717420305904, 2089.2399059820063, 84097.67855378134, 64641.08850253684, 22026.973608371452, 17696.0772509667, 0.046, 0.9540000000000001, 0.08, 192.0, 1.0, 112.0, 29.0, 208.0, 2.0, 128.0, 0.0, 0.0, 0.0, 1.666555344669232E9, 0.0, 2022-10-23 13:02:24.669
38.0, -65946.7656548936, -96377.77166101596, 55105.76726266948, 1027.017954232449, 83711.10513342681, 63760.608584953385, 20782.182607910945, 16230.40631179885, 0.046, 0.9540000000000001, 0.08, 192.0, 0.0, 0.0, 0.0, 0.0, 0.0, 0.0, 0.0, 0.0, 0.0, 1.666555344669243E9, 0.0, 2022-10-23 13:02:24.669
39.0, -65995.09012640598, -96415.16612948968, 53726.57522279921, 404.3877606854154, 83759.67547412819, 63200.83149681467, 19994.395374583648, 15534.574155160684, 0.046, 0.9540000000000001, 0.08, 192.0, 0.0, 0.0, 0.0, 0.0, 0.0, 0.0, 0.0, 0.0, 0.0, 1.6665553446692538E9, 0.0, 2022-10-23 13:02:24.669
40.0, -66046.76735958665, -96461.43424051217, 54409.97980952023, 875.9425134590285, 83976.8226715115, 63584.63330085675, 20553.16663422187, 16267.912538994855, 0.046, 0.9540000000000001, 0.08, 192.0, 0.0, 0.0, 0.0, 0.0, 0.0, 0.0, 0.0, 0.0, 0.0, 1.6665553446692643E9, 0.0, 2022-10-23 13:02:24.669
41.0, -66066.5933569185, -96482.55663902243, 56669.629415229494, 2039.9096059691437, 84148.81934509508, 64583.91274022016, 21960.96890699493, 17686.466000850916, 0.046, 0.9540000000000001, 0.08, 192.0, 0.0, 0.0, 0.0, 0.0, 0.0, 0.0, 0.0, 0.0, 0.0, 1.6665553446692748E9, 0.0, 2022-10-23 13:02:24.669
42.0, -65972.8724924174, -96395.83187053584, 55571.2646926957, 1293.4954516286198, 83761.12833751779, 63987.00940454119, 21109.412146736642, 16585.128496304573, 0.046, 0.9540000000000001, 0.08, 192.0, 0.0, 0.0, 0.0, 0.0, 0.0, 0.0, 0.0, 0.0, 0.0, 1.6665553446692855E9, 0.0, 2022-10-23 13:02:24.669
43.0, -65977.9239866643, -96397.01651299198, 53786.38849096162, 425.7113248957783, 83729.09828771334, 63225.306656993234, 20032.505098879945, 15541.100864541635, 0.046, 0.9540000000000001, 0.08, 192.0, 0.0, 0.0, 0.0, 0.0, 0.0, 0.0, 0.0, 0.0, 0.0, 1.666555344669296E9, 0.0, 2022-10-23 13:02:24.669
44.0, -66021.30872265204, -96441.34002224685, 54101.861012203815, 708.9079271445188, 83929.88400815535, 63443.19146194357, 20360.628707483855, 16044.953888053167, 0.046, 0.9540000000000001, 0.08, 192.0, 0.0, 0.0, 0.0, 0.0, 0.0, 0.0, 0.0, 0.0, 0.0, 1.6665553446693065E9, 0.0, 2022-10-23 13:02:24.669
45.0, -66061.85478709398, -96482.1766593667, 56323.177376172236, 1886.777804705835, 84151.65801664091, 64443.63319201866, 21778.17634083943, 17530.227307108322, 0.046, 0.9540000000000001, 0.08, 192.0, 0.0, 0.0, 0.0, 0.0, 0.0, 0.0, 0.0, 0.0, 0.0, 1.6665553446693168E9, 0.0, 2022-10-23 13:02:24.669
46.0, -65994.28546360559, -96425.09030402784, 55980.256912738914, 1529.8204457545812, 83827.66948076124, 64173.53471202072, 21394.553350752994, 16917.521288099444, 0.046, 0.96, 0.078, 192.0, 1.0, 112.0, 30.0, 0.0, 2.0, 112.0, 0.0, 0.0, 0.0, 1.6665553446693275E9, 0.0, 2022-10-23 13:02:24.669
47.0, -65980.76265821012, -96415.63551612325, 53929.260841519936, 496.2087269078168, 83709.38404910376, 63291.33371011421, 20120.906248200685, 15608.08904267419, 0.046, 0.96, 0.078, 192.0, 0.0, 0.0, 0.0, 0.0, 0.0, 0.0, 0.0, 0.0, 0.0, 1.66655534466934E9, 0.0, 2022-10-23 13:02:24.669
48.0, -65998.91227470784, -96427.63840289574, 53965.06833613734, 652.9615107728853, 83920.4068685063, 63404.835868458256, 20282.956395501664, 15937.218479778587, 0.046, 0.96, 0.078, 192.0, 0.0, 0.0, 0.0, 0.0, 0.0, 0.0, 0.0, 0.0, 0.0, 1.6665553446693504E9, 0.0, 2022-10-23 13:02:24.669
49.0, -66049.65073462138, -96477.61690349781, 55973.41727893559, 1742.4749425023726, 84159.52583068918, 64324.92307721652, 21592.098068248997, 17352.128607288436, 0.046, 0.96, 0.078, 192.0, 0.0, 0.0, 0.0, 0.0, 0.0, 0.0, 0.0, 0.0, 0.0, 1.666555344669371E9, 0.0, 2022-10-23 13:02:24.669
50.0, -65989.30102459204, -96430.03003955247, 56426.73300823367, 1804.3222194102073, 83910.9073771128, 64409.993816613416, 21713.333930174584, 17272.958728427737, 0.046, 0.96, 0.078, 192.0, 0.0, 0.0, 0.0, 0.0, 0.0, 0.0, 0.0, 0.0, 0.0, 1.666555344669382E9, 0.0, 2022-10-23 13:02:24.669
51.0, -65971.55373949454, -96402.53739387244, 54125.55386132644, 567.3766812535144, 83661.48426073602, 63354.2538707559, 20215.275313290993, 15677.871188863659, 0.046, 0.96, 0.078, 192.0, 0.0, 0.0, 0.0, 0.0, 0.0, 0.0, 0.0, 0.0, 0.0, 1.6665553446693933E9, 0.0, 2022-10-23 13:02:24.669
52.0, -66028.84126053349, -96448.24671128354, 53823.827662924254, 551.3057769901487, 83862.22527768914, 63320.83801279522, 20162.79341730993, 15784.377251193197, 0.046, 0.96, 0.078, 192.0, 0.0, 0.0, 0.0, 0.0, 0.0, 0.0, 0.0, 0.0, 0.0, 1.6665553446694033E9, 0.0, 2022-10-23 13:02:24.669
53.0, -66076.18225528982, -96501.64502878727, 55514.6030205015, 1508.1392536329333, 84106.3063271411, 64127.46776669834, 21306.867457254823, 17055.655068833243, 0.046, 0.96, 0.078, 192.0, 0.0, 0.0, 0.0, 0.0, 0.0, 0.0, 0.0, 0.0, 0.0, 1.666555344669412E9, 0.0, 2022-10-23 13:02:24.669
54.0, -66010.95986496925, -96455.08634508686, 56721.79838678818, 2007.1419485976637, 83998.63797409988, 64581.36464135226, 21937.6783892725, 17533.66947575444, 0.046, 0.96, 0.078, 192.0, 0.0, 0.0, 0.0, 0.0, 0.0, 0.0, 0.0, 0.0, 0.0, 1.6665553446694207E9, 0.0, 2022-10-23 13:02:24.669
55.0, -65966.27872780309, -96402.8503182948, 54480.857191188006, 759.5346283357893, 83670.49201375151, 63539.281611356935, 20444.447749191255, 15877.76283952747, 0.046, 0.96, 0.078, 192.0, 0.0, 0.0, 0.0, 0.0, 0.0, 0.0, 0.0, 0.0, 0.0, 1.6665553446694293E9, 0.0, 2022-10-23 13:02:24.669
56.0, -66019.65469356236, -96448.96196710611, 53822.97829663495, 548.9364920778861, 83823.02031791453, 63342.63096363914, 20154.076236972363, 15727.179137132067, 0.044, 0.9520000000000001, 0.084, 192.0, 1.0, 96.0, 29.0, 192.0, 2.0, 160.0, 0.0, 0.0, 0.0, 1.6665553446694596E9, 0.0, 2022-10-23 13:02:24.669
57.0, -66061.63126964943, -96485.52942103498, 55118.82068143138, 1309.7004663587174, 84063.07805336453, 63981.600282383006, 21063.613422347717, 16785.958920235506, 0.044, 0.9520000000000001, 0.084, 192.0, 0.0, 0.0, 0.0, 0.0, 0.0, 0.0, 0.0, 0.0, 0.0, 1.6665553446695087E9, 0.0, 2022-10-23 13:02:24.669
58.0, -66046.02975201962, -96464.04939461344, 56885.03317654529, 2133.4516565146037, 84081.80881521807, 64697.63841600876, 22075.879225239663, 17711.8799342966, 0.044, 0.9520000000000001, 0.084, 192.0, 0.0, 0.0, 0.0, 0.0, 0.0, 0.0, 0.0, 0.0, 0.0, 1.666555344669551E9, 0.0, 2022-10-23 13:02:24.669
59.0, -65982.88607393338, -96400.41397814918, 54873.107954634186, 950.2173602840138, 83685.04299939192, 63708.41726165024, 20675.90006302596, 16101.369691058362, 0.044, 0.9520000000000001, 0.084, 192.0, 0.0, 0.0, 0.0, 0.0, 0.0, 0.0, 0.0, 0.0, 0.0, 1.666555344669592E9, 0.0, 2022-10-23 13:02:24.669
60.0, -66019.833507518, -96433.1592837762, 53769.2894064533, 483.6023430350236, 83780.88727961628, 63277.02859366281, 20070.838340620798, 15612.693502031983, 0.044, 0.9520000000000001, 0.084, 192.0, 0.0, 0.0, 0.0, 0.0, 0.0, 0.0, 0.0, 0.0, 0.0, 1.666555344669633E9, 0.0, 2022-10-23 13:02:24.669
61.0, -66071.30957499857, -96487.96576118062, 54682.24640873032, 1060.4785156820435, 84009.8809015609, 63749.61152668137, 20756.34399132061, 16465.323146024126, 0.044, 0.9520000000000001, 0.084, 192.0, 0.0, 0.0, 0.0, 0.0, 0.0, 0.0, 0.0, 0.0, 0.0, 1.6665553446696732E9, 0.0, 2022-10-23 13:02:24.669
62.0, -66069.5437871866, -96497.59936304085, 56824.14702464903, 2124.510958732481, 84118.3539174025, 64666.54713947143, 22048.87831793765, 17733.494071184883, 0.044, 0.9520000000000001, 0.084, 192.0, 0.0, 0.0, 0.0, 0.0, 0.0, 0.0, 0.0, 0.0, 0.0, 1.6665553446697152E9, 0.0, 2022-10-23 13:02:24.669
63.0, -65977.56635875301, -96407.36537067479, 55326.557794399, 1187.0564445324476, 83731.35581390331, 63900.9328366438, 20955.453330928485, 16402.62650282699, 0.044, 0.9520000000000001, 0.084, 192.0, 0.0, 0.0, 0.0, 0.0, 0.0, 0.0, 0.0, 0.0, 0.0, 1.666555344669736E9, 0.0, 2022-10-23 13:02:24.669
64.0, -66008.97055971272, -96427.59369940683, 53868.41939311259, 524.3495731770483, 83773.80177662395, 63321.016826750856, 20117.88876269922, 15626.931563250015, 0.044, 0.9520000000000001, 0.084, 192.0, 0.0, 0.0, 0.0, 0.0, 0.0, 0.0, 0.0, 0.0, 0.0, 1.6665553446697454E9, 0.0, 2022-10-23 13:02:24.669
65.0, -66039.03365600511, -96461.76951667899, 54472.49763876172, 956.3864417536786, 83987.19388093876, 63682.9809764601, 20630.950704926337, 16296.858048064478, 0.044, 0.9520000000000001, 0.084, 192.0, 0.0, 0.0, 0.0, 0.0, 0.0, 0.0, 0.0, 0.0, 0.0, 1.666555344669764E9, 0.0, 2022-10-23 13:02:24.669
66.0, -66063.50881618368, -96490.11152864833, 56706.91212498095, 2093.486737428515, 84150.94276081833, 64649.023371818475, 22009.561599440767, 17706.582570860694, 0.04, 0.9560000000000001, 0.08, 192.0, 1.0, 64.0, 29.0, 224.0, 2.0, 128.0, 0.0, 0.0, 0.0, 1.666555344669784E9, 0.0, 2022-10-23 13:02:24.669
67.0, -65994.1290013944, -96426.67727788417, 55867.7382311509, 1470.4542124812858, 83786.69873317465, 64155.34039203411, 21307.560361332937, 16761.64022226813, 0.04, 0.9560000000000001, 0.08, 192.0, 0.0, 0.0, 0.0, 0.0, 0.0, 0.0, 0.0, 0.0, 0.0, 1.6665553446697943E9, 0.0, 2022-10-23 13:02:24.669
68.0, -66001.61683578692, -96428.93480407415, 54019.60659260829, 564.3815474965033, 83725.58906383385, 63373.92340587657, 20183.58053965337, 15636.542813365795, 0.04, 0.9560000000000001, 0.08, 192.0, 0.0, 0.0, 0.0, 0.0, 0.0, 0.0, 0.0, 0.0, 0.0, 1.6665553446698055E9, 0.0, 2022-10-23 13:02:24.669
69.0, -66045.5380136416, -96470.77726969449, 54247.81790349697, 803.6346201461101, 83923.51376098559, 63558.414704610674, 20453.14257778437, 16068.445571475695, 0.04, 0.9560000000000001, 0.08, 192.0, 0.0, 0.0, 0.0, 0.0, 0.0, 0.0, 0.0, 0.0, 0.0, 1.6665553446698153E9, 0.0, 2022-10-23 13:02:24.669
70.0, -66082.28428152612, -96499.49926131955, 56413.634885982865, 1953.877741560667, 84156.57540042108, 64531.96728610603, 21835.03917873373, 17528.595629763084, 0.04, 0.9560000000000001, 0.08, 192.0, 0.0, 0.0, 0.0, 0.0, 0.0, 0.0, 0.0, 0.0, 0.0, 1.6665553446698248E9, 0.0, 2022-10-23 13:02:24.669
71.0, -66021.64399881888, -96449.02902233947, 56348.05486775099, 1731.9025673750125, 83849.97652172763, 64372.48758941741, 21616.886152849933, 17084.779391858505, 0.04, 0.9560000000000001, 0.08, 192.0, 0.0, 0.0, 0.0, 0.0, 0.0, 0.0, 0.0, 0.0, 0.0, 1.6665553446698341E9, 0.0, 2022-10-23 13:02:24.669
72.0, -65989.3233763365, -96418.18361499115, 54168.89389382528, 599.6078967580672, 83683.38897030223, 63401.03607190086, 20234.944848411662, 15644.410627414063, 0.04, 0.9560000000000001, 0.08, 192.0, 0.0, 0.0, 0.0, 0.0, 0.0, 0.0, 0.0, 0.0, 0.0, 1.666555344669844E9, 0.0, 2022-10-23 13:02:24.669
73.0, -66033.57983035801, -96461.1660195787, 54045.33345047635, 657.0295282637511, 83869.33313242592, 63423.723092522996, 20283.850465279873, 15860.596699785794, 0.04, 0.9560000000000001, 0.08, 192.0, 0.0, 0.0, 0.0, 0.0, 0.0, 0.0, 0.0, 0.0, 0.0, 1.6665553446698532E9, 0.0, 2022-10-23 13:02:24.669
74.0, -66077.14338030141, -96503.12024392131, 55954.93238627105, 1711.0930932871215, 84135.0059670217, 64315.15536488955, 21547.863965971945, 17243.83440540247, 0.04, 0.9560000000000001, 0.08, 192.0, 0.0, 0.0, 0.0, 0.0, 0.0, 0.0, 0.0, 0.0, 0.0, 1.6665553446698627E9, 0.0, 2022-10-23 13:02:24.669
75.0, -66022.20279243027, -96451.95710086312, 56712.70122679487, 1953.4083549271054, 83956.4155288238, 64554.22962358352, 21878.133342043562, 17390.618311240472, 0.04, 0.962, 0.08600000000000001, 192.0, 1.0, 64.0, 30.0, 16.0, 2.0, 176.0, 0.0, 0.0, 0.0, 1.6665553446698723E9, 0.0, 2022-10-23 13:02:24.669
76.0, -65986.61881525742, -96411.81336782139, 54407.58817286351, 700.7048369294212, 83679.63387723373, 63488.76666888794, 20367.669506987277, 15758.292765413853, 0.04, 0.962, 0.08600000000000001, 192.0, 0.0, 0.0, 0.0, 0.0, 0.0, 0.0, 0.0, 0.0, 0.0, 1.6665553446698825E9, 0.0, 2022-10-23 13:02:24.669
77.0, -66024.46031862024, -96448.60433919482, 53960.26271107945, 598.0432746461958, 83847.65194030428, 63374.48219948795, 20211.7213859226, 15757.823378780293, 0.04, 0.962, 0.08600000000000001, 192.0, 0.0, 0.0, 0.0, 0.0, 0.0, 0.0, 0.0, 0.0, 0.0, 1.6665553446698923E9, 0.0, 2022-10-23 13:02:24.669
78.0, -66081.68078442583, -96501.6226770428, 55511.96551465578, 1479.4172620078639, 84094.23638513523, 64116.11308051504, 21269.182416103176, 16956.435675196135, 0.04, 0.962, 0.08600000000000001, 192.0, 0.0, 0.0, 0.0, 0.0, 0.0, 0.0, 0.0, 0.0, 0.0, 1.6665553446699016E9, 0.0, 2022-10-23 13:02:24.669
79.0, -66052.80233058958, -96476.09698487485, 56919.36545602864, 2079.248676210484, 84010.03736377208, 64648.08459855135, 22025.721910681954, 17586.598406624606, 0.04, 0.962, 0.08600000000000001, 192.0, 0.0, 0.0, 0.0, 0.0, 0.0, 0.0, 0.0, 0.0, 0.0, 1.6665553446699111E9, 0.0, 2022-10-23 13:02:24.669
80.0, -65965.42936151379, -96406.3595421743, 54748.45227580694, 853.8813416816404, 83669.97792362905, 63624.30764726492, 20566.68943961733, 15945.578032204872, 0.04, 0.962, 0.08600000000000001, 192.0, 0.0, 0.0, 0.0, 0.0, 0.0, 0.0, 0.0, 0.0, 0.0, 1.66655534466993E9, 0.0, 2022-10-23 13:02:24.669
81.0, -65995.11247815043, -96439.97656583507, 53916.743864624965, 539.9957942957633, 83791.59376521037, 63329.53284138833, 20155.082065472852, 15660.43682818852, 0.04, 0.962, 0.08600000000000001, 192.0, 0.0, 0.0, 0.0, 0.0, 0.0, 0.0, 0.0, 0.0, 0.0, 1.6665553446699395E9, 0.0, 2022-10-23 13:02:24.669
82.0, -66022.13573719689, -96453.90170263073, 55084.71191939258, 1249.261349351567, 84046.82833514552, 63918.255438596665, 20999.97800588346, 16662.756104797852, 0.04, 0.962, 0.08600000000000001, 192.0, 0.0, 0.0, 0.0, 0.0, 0.0, 0.0, 0.0, 0.0, 0.0, 1.6665553446699493E9, 0.0, 2022-10-23 13:02:24.669
83.0, -66006.31070212254, -96446.79384789395, 57012.61693389618, 2176.948151224631, 84108.8991294979, 64722.47120409861, 22133.94905733455, 17737.11505378664, 0.04, 0.962, 0.08600000000000001, 192.0, 0.0, 0.0, 0.0, 0.0, 0.0, 0.0, 0.0, 0.0, 0.0, 1.6665553446699586E9, 0.0, 2022-10-23 13:02:24.669
84.0, -65964.78116092458, -96388.34403614332, 55153.68940278166, 1063.339538972323, 83716.24603465153, 63802.45105057372, 20828.182497999966, 16209.976817366698, 0.04, 0.962, 0.08600000000000001, 192.0, 0.0, 0.0, 0.0, 0.0, 0.0, 0.0, 0.0, 0.0, 0.0, 1.666555344669968E9, 0.0, 2022-10-23 13:02:24.669
85.0, -66008.99291145717, -96416.9095655572, 53904.8750883192, 514.7383230612663, 83786.43051224119, 63304.49888759838, 20127.768233748466, 15605.384481595098, 0.042, 0.96, 0.08, 192.0, 1.0, 80.0, 30.0, 0.0, 2.0, 128.0, 0.0, 0.0, 0.0, 1.6665553446699777E9, 0.0, 2022-10-23 13:02:24.669
86.0, -66049.87425206593, -96452.87352238578, 54693.42228095797, 1035.690431081108, 84014.97709929671, 63732.490090428604, 20743.67055221445, 16386.935578219363, 0.042, 0.96, 0.08, 192.0, 0.0, 0.0, 0.0, 0.0, 0.0, 0.0, 0.0, 0.0, 0.0, 1.6665553446699877E9, 0.0, 2022-10-23 13:02:24.669
87.0, -66067.71094414126, -96467.33510104837, 56911.8329181472, 2157.412726570693, 84155.01077830921, 64698.934817187175, 22102.388394163656, 17738.880841598613, 0.042, 0.96, 0.08, 192.0, 0.0, 0.0, 0.0, 0.0, 0.0, 0.0, 0.0, 0.0, 0.0, 1.6665553446699991E9, 0.0, 2022-10-23 13:02:24.669
88.0, -65970.30204180504, -96378.66573079416, 55613.53184146069, 1309.5887076364409, 83760.72600611759, 64011.97630309776, 21123.918428888133, 16517.380358860537, 0.042, 0.96, 0.08, 192.0, 0.0, 0.0, 0.0, 0.0, 0.0, 0.0, 0.0, 0.0, 0.0, 1.6665553446700096E9, 0.0, 2022-10-23 13:02:24.670
89.0, -65987.31171933553, -96392.43440537863, 53973.651406008175, 537.715916361322, 83764.23522999707, 63337.06537926977, 20154.456216628103, 15596.913170446536, 0.042, 0.96, 0.08, 192.0, 0.0, 0.0, 0.0, 0.0, 0.0, 0.0, 0.0, 0.0, 0.0, 1.66655534467002E9, 0.0, 2022-10-23 13:02:24.670
90.0, -66045.7391793417, -96446.3691647493, 54416.57357413454, 887.118385686682, 83973.84988949895, 63620.95488559662, 20562.442608170822, 16176.292738472552, 0.042, 0.96, 0.08, 192.0, 0.0, 0.0, 0.0, 0.0, 0.0, 0.0, 0.0, 0.0, 0.0, 1.6665553446700327E9, 0.0, 2022-10-23 13:02:24.670
91.0, -66070.16963603135, -96472.69951971764, 56657.961804623825, 2050.0349462073978, 84163.79501388014, 64611.69595857811, 21965.483959374902, 17630.273715290274, 0.042, 0.96, 0.08, 192.0, 0.0, 0.0, 0.0, 0.0, 0.0, 0.0, 0.0, 0.0, 0.0, 1.666555344670043E9, 0.0, 2022-10-23 13:02:24.670
92.0, -65980.29327157656, -96391.98737048953, 56083.63373084471, 1569.9865305407682, 83821.34393708038, 64237.19248022944, 21430.249086648117, 16860.85961590524, 0.042, 0.96, 0.08, 192.0, 0.0, 0.0, 0.0, 0.0, 0.0, 0.0, 0.0, 0.0, 0.0, 1.6665553446700535E9, 0.0, 2022-10-23 13:02:24.670
93.0, -65968.58095748199, -96378.37515811625, 54089.58990449786, 573.5681144676346, 83729.29945341343, 63374.97393786597, 20198.645615416244, 15614.481641588407, 0.042, 0.96, 0.08, 192.0, 0.0, 0.0, 0.0, 0.0, 0.0, 0.0, 0.0, 0.0, 0.0, 1.666555344670064E9, 0.0, 2022-10-23 13:02:24.670
94.0, -66029.5341646116, -96436.9143768447, 54216.547813004, 771.8057360417529, 83931.64979596733, 63528.10573912928, 20415.926923266285, 15995.869457229312, 0.042, 0.96, 0.08, 192.0, 0.0, 0.0, 0.0, 0.0, 0.0, 0.0, 0.0, 0.0, 0.0, 1.6665553446700745E9, 0.0, 2022-10-23 13:02:24.670
95.0, -66073.83532212202, -96481.88608668877, 56301.89851545078, 1892.3433890752065, 84157.98356032177, 64474.85857902272, 21761.345477264582, 17432.840756516547, 0.04, 0.9580000000000001, 0.082, 192.0, 1.0, 64.0, 29.0, 240.0, 2.0, 144.0, 0.0, 0.0, 0.0, 1.6665553446700847E9, 0.0, 2022-10-23 13:02:24.670
96.0, -66002.24268463167, -96415.74727484552, 56528.88048039442, 1837.3133942262405, 83902.39136247532, 64459.59233755974, 21740.647761898967, 17203.042471771536, 0.04, 0.9580000000000001, 0.082, 192.0, 0.0, 0.0, 0.0, 0.0, 0.0, 0.0, 0.0, 0.0, 0.0, 1.666555344670108E9, 0.0, 2022-10-23 13:02:24.670
97.0, -65971.55373949454, -96383.2031349186, 54280.78672656855, 651.2180747053712, 83695.19069137464, 63447.57240385681, 20301.888323055307, 15686.141334312122, 0.04, 0.9580000000000001, 0.082, 192.0, 0.0, 0.0, 0.0, 0.0, 0.0, 0.0, 0.0, 0.0, 0.0, 1.6665553446701188E9, 0.0, 2022-10-23 13:02:24.670
98.0, -66005.41663234432, -96415.52375740097, 54028.457883412586, 645.5407316137233, 83874.31757143946, 63409.239162115955, 20266.416104604734, 15821.168222566632, 0.04, 0.9580000000000001, 0.082, 192.0, 0.0, 0.0, 0.0, 0.0, 0.0, 0.0, 0.0, 0.0, 0.0, 1.66655534467013E9, 0.0, 2022-10-23 13:02:24.670
99.0, -66054.81398759056, -96466.44103127015, 55809.534288589275, 1640.1933598748876, 84133.15077223192, 64241.81929133169, 21453.226679948173, 17142.2457268531, 0.04, 0.9580000000000001, 0.082, 192.0, 0.0, 0.0, 0.0, 0.0, 0.0, 0.0, 0.0, 0.0, 0.0, 1.6665553446701405E9, 0.0, 2022-10-23 13:02:24.670
100.0, -66012.50213533666, -96428.62187965178, 56783.444497995915, 2000.0117421164207, 83981.33772389147, 64569.07118190184, 21921.942761175964, 17454.566652127105, 0.04, 0.9580000000000001, 0.082, 192.0, 0.0, 0.0, 0.0, 0.0, 0.0, 0.0, 0.0, 0.0, 0.0, 1.6665553446701512E9, 0.0, 2022-10-23 13:02:24.670
101.0, -65968.24568131515, -96382.3537686293, 54480.65602548791, 736.1547036355381, 83680.59500224532, 63498.579084703815, 20404.102850449428, 15796.626007154706, 0.04, 0.9580000000000001, 0.082, 192.0, 0.0, 0.0, 0.0, 0.0, 0.0, 0.0, 0.0, 0.0, 0.0, 1.666555344670162E9, 0.0, 2022-10-23 13:02:24.670
102.0, -66021.7334057967, -96429.22537675207, 53917.83910010327, 578.3066842921596, 83855.22918167463, 63338.6523531261, 20177.903196561718, 15721.747663229426, 0.04, 0.9580000000000001, 0.082, 192.0, 0.0, 0.0, 0.0, 0.0, 0.0, 0.0, 0.0, 0.0, 0.0, 1.666555344670173E9, 0.0, 2022-10-23 13:02:24.670
103.0, -66078.9985750912, -96487.42931931368, 55348.4625039652, 1411.4679588637305, 84099.35493461549, 64037.97138189929, 21174.835702757326, 16863.96650838453, 0.04, 0.9580000000000001, 0.082, 192.0, 0.0, 0.0, 0.0, 0.0, 0.0, 0.0, 0.0, 0.0, 0.0, 1.6665553446701834E9, 0.0, 2022-10-23 13:02:24.670
104.0, -66055.95392655778, -96466.55278999243, 56967.868741496655, 2144.985156653542, 84059.85940216297, 64681.5675117454, 22083.36705963219, 17665.298898851743, 0.04, 0.9580000000000001, 0.082, 192.0, 0.0, 0.0, 0.0, 0.0, 0.0, 0.0, 0.0, 0.0, 0.0, 1.666555344670194E9, 0.0, 2022-10-23 13:02:24.670
105.0, -66006.24364688917, -96415.97079229007, 54874.67257674606, 942.438953213567, 83695.9506506861, 63679.583511302895, 20655.64938254945, 16038.069550760933, 0.042, 0.962, 0.076, 192.0, 1.0, 80.0, 30.0, 16.0, 2.0, 96.0, 0.0, 0.0, 0.0, 1.6665553446702049E9, 0.0, 2022-10-23 13:02:24.670
106.0, -66056.78094110262, -96466.0163481255, 53908.13844300967, 555.9772915813079, 83801.96497463762, 63323.07318724075, 20151.014047981986, 15652.680772862528, 0.042, 0.962, 0.076, 192.0, 0.0, 0.0, 0.0, 0.0, 0.0, 0.0, 0.0, 0.0, 0.0, 1.6665553446702168E9, 0.0, 2022-10-23 13:02:24.670
107.0, -66108.99461615022, -96512.95501148165, 54926.930955282565, 1182.720206108118, 84028.79047737009, 63837.319771924, 20896.265911610833, 16560.42981868146, 0.042, 0.962, 0.076, 192.0, 0.0, 0.0, 0.0, 0.0, 0.0, 0.0, 0.0, 0.0, 0.0, 1.6665553446702282E9, 0.0, 2022-10-23 13:02:24.670
108.0, -66121.19866862282, -96530.12115122333, 56961.05145943779, 2175.1376599237515, 84109.5026265982, 64688.67536648219, 22103.438926153056, 17727.637914137595, 0.042, 0.962, 0.076, 192.0, 0.0, 0.0, 0.0, 0.0, 0.0, 0.0, 0.0, 0.0, 0.0, 1.6665553446702387E9, 0.0, 2022-10-23 13:02:24.670
109.0, -66048.55549914307, -96460.33900503386, 55266.16338088076, 1139.3801736092776, 83718.10122944132, 63833.92230676679, 20887.772248717814, 16287.291501437605, 0.042, 0.962, 0.076, 192.0, 0.0, 0.0, 0.0, 0.0, 0.0, 0.0, 0.0, 0.0, 0.0, 1.66655534467025E9, 0.0, 2022-10-23 13:02:24.670
110.0, -66093.37074677595, -96495.94533395117, 53879.50585836242, 515.9676690063083, 83769.2196690106, 63276.80507621826, 20094.50883799897, 15580.976376649902, 0.042, 0.962, 0.076, 192.0, 0.0, 0.0, 0.0, 0.0, 0.0, 0.0, 0.0, 0.0, 0.0, 1.666555344670261E9, 0.0, 2022-10-23 13:02:24.670
111.0, -66152.20053818233, -96555.11040152436, 54532.422665646394, 967.9646453815277, 83984.04228497056, 63642.07728410689, 20629.22962060328, 16285.168085714351, 0.042, 0.962, 0.076, 192.0, 0.0, 0.0, 0.0, 0.0, 0.0, 0.0, 0.0, 0.0, 0.0, 1.6665553446702726E9, 0.0, 2022-10-23 13:02:24.670
112.0, -66192.94776832435, -96603.12194861435, 56785.411451507985, 2123.259261042984, 84155.05548179812, 64630.82905183185, 22024.58197171473, 17700.681710324494, 0.042, 0.962, 0.076, 192.0, 0.0, 0.0, 0.0, 0.0, 0.0, 0.0, 0.0, 0.0, 0.0, 1.666555344670293E9, 0.0, 2022-10-23 13:02:24.670
113.0, -66143.48335784476, -96558.6419771483, 55723.413017202976, 1390.5914295424736, 83762.84942184085, 64040.49712902274, 21187.084458718833, 16621.159508366527, 0.042, 0.962, 0.076, 192.0, 0.0, 0.0, 0.0, 0.0, 0.0, 0.0, 0.0, 0.0, 0.0, 1.6665553446703038E9, 0.0, 2022-10-23 13:02:24.670
114.0, -66167.39972441194, -96581.46310823716, 53943.029516104405, 527.232948211783, 83727.57836909036, 63287.75743100136, 20113.306655085882, 15577.020117881313, 0.036000000000000004, 0.962, 0.082, 192.0, 1.0, 32.0, 30.0, 16.0, 2.0, 144.0, 0.0, 0.0, 0.0, 1.6665553446703146E9, 0.0, 2022-10-23 13:02:24.670
115.0, -66228.95642864185, -96639.66705079879, 54247.81790349697, 805.735684124909, 83932.43210702325, 63502.66945393914, 20433.04835951905, 16072.558292455471, 0.036000000000000004, 0.962, 0.082, 192.0, 0.0, 0.0, 0.0, 0.0, 0.0, 0.0, 0.0, 0.0, 0.0, 1.6665553446703258E9, 0.0, 2022-10-23 13:02:24.670
116.0, -66280.65601356697, -96696.64164741537, 56420.98860990866, 1950.323814192273, 84148.03703403915, 64461.447532349535, 21807.010091186774, 17525.0864058836, 0.036000000000000004, 0.962, 0.082, 192.0, 0.0, 0.0, 0.0, 0.0, 0.0, 0.0, 0.0, 0.0, 0.0, 1.6665553446703365E9, 0.0, 2022-10-23 13:02:24.670
117.0, -66228.64350421948, -96654.95564400622, 56113.45095794809, 1617.439284019385, 83839.42649834472, 64206.88351474804, 21447.549336856526, 16943.091683756316, 0.036000000000000004, 0.962, 0.082, 192.0, 0.0, 0.0, 0.0, 0.0, 0.0, 0.0, 0.0, 0.0, 0.0, 1.666555344670347E9, 0.0, 2022-10-23 13:02:24.670
118.0, -66239.0370653912, -96665.12568773338, 54014.08571172783, 548.48945718878, 83699.68339201015, 63286.75160250087, 20135.546640818913, 15599.349510592165, 0.036000000000000004, 0.962, 0.082, 192.0, 0.0, 0.0, 0.0, 0.0, 0.0, 0.0, 0.0, 0.0, 0.0, 1.6665553446703577E9, 0.0, 2022-10-23 13:02:24.670
119.0, -66302.4489644109, -96734.41609554483, 54005.59204883481, 673.2121912493934, 83884.28644946653, 63371.17414130857, 20265.09735168187, 15898.661720593182, 0.036000000000000004, 0.962, 0.082, 192.0, 0.0, 0.0, 0.0, 0.0, 0.0, 0.0, 0.0, 0.0, 0.0, 1.666555344670368E9, 0.0, 2022-10-23 13:02:24.670
120.0, -66359.44591277193, -96795.01167476317, 55974.71368011399, 1744.0842681031547, 84118.46567612478, 64270.63068993458, 21552.51312881865, 17292.740022270682, 0.036000000000000004, 0.962, 0.082, 192.0, 0.0, 0.0, 0.0, 0.0, 0.0, 0.0, 0.0, 0.0, 0.0, 1.6665553446703787E9, 0.0, 2022-10-23 13:02:24.670
121.0, -66330.83567986914, -96774.85040126448, 56469.335433165485, 1841.1802460170086, 83900.8490921079, 64383.350537222694, 21711.679901084888, 17253.71387645172, 0.036000000000000004, 0.962, 0.082, 192.0, 0.0, 0.0, 0.0, 0.0, 0.0, 0.0, 0.0, 0.0, 0.0, 1.6665553446703954E9, 0.0, 2022-10-23 13:02:24.670
122.0, -66300.3479004321, -96746.26252010615, 54191.267990025044, 628.0393157052179, 83663.02653110345, 63353.73978063343, 20237.67176123521, 15679.52521795335, 0.036000000000000004, 0.962, 0.082, 192.0, 0.0, 0.0, 0.0, 0.0, 0.0, 0.0, 0.0, 0.0, 0.0, 1.6665553449154823E9, 0.0, 2022-10-23 13:02:24.915
123.0, -66319.4586419414, -96778.40432863288, 53854.114276661196, 595.3834170560142, 83860.41478638825, 63299.15682067357, 20159.798283552922, 15764.975937005991, 0.036000000000000004, 0.962, 0.082, 192.0, 0.0, 0.0, 0.0, 0.0, 0.0, 0.0, 0.0, 0.0, 0.0, 1.6665553449155397E9, 0.0, 2022-10-23 13:02:24.915
124.0, -66398.2708928908, -96847.78414342215, 55512.41254954488, 1536.2353964132544, 84106.21692016326, 64088.911007512936, 21284.247491866052, 17020.60753352732, 0.044, 0.9560000000000001, 0.082, 192.0, 1.0, 96.0, 29.0, 224.0, 2.0, 144.0, 0.0, 0.0, 0.0, 1.6665553449155607E9, 0.0, 2022-10-23 13:02:24.915
125.0, -66387.29618636325, -96831.86970136997, 56704.6322470465, 2016.9767161579987, 83977.09089244496, 64516.72339638751, 21896.461772496914, 17488.340137999076, 0.044, 0.9560000000000001, 0.082, 192.0, 0.0, 0.0, 0.0, 0.0, 0.0, 0.0, 0.0, 0.0, 0.0, 1.6665553449155917E9, 0.0, 2022-10-23 13:02:24.915
126.0, -66345.54312772074, -96790.2954566831, 54454.21391179728, 764.027328971306, 83662.08775783631, 63461.49754065246, 20393.23990264415, 15829.840699415292, 0.044, 0.9560000000000001, 0.082, 192.0, 0.0, 0.0, 0.0, 0.0, 0.0, 0.0, 0.0, 0.0, 0.0, 1.666555344915609E9, 0.0, 2022-10-23 13:02:24.915
127.0, -66380.79182872675, -96838.06113458409, 53749.64222307709, 530.5857098800791, 83817.32062307843, 63233.04036057477, 20070.05602956486, 15652.680772862528, 0.044, 0.9560000000000001, 0.082, 192.0, 0.0, 0.0, 0.0, 0.0, 0.0, 0.0, 0.0, 0.0, 0.0, 1.6665553449157062E9, 0.0, 2022-10-23 13:02:24.915
128.0, -66445.20955624695, -96902.79178652666, 55005.3855783207, 1273.6023990633964, 84048.2364950462, 63843.868833049404, 20953.66519137206, 16695.21083774696, 0.044, 0.9560000000000001, 0.082, 192.0, 0.0, 0.0, 0.0, 0.0, 0.0, 0.0, 0.0, 0.0, 0.0, 1.6665553449157314E9, 0.0, 2022-10-23 13:02:24.915
129.0, -66446.30479172526, -96901.6741993039, 56781.16462006148, 2104.7520166339896, 84051.36573926995, 64564.17614986613, 21973.64234610109, 17634.431139758963, 0.044, 0.9560000000000001, 0.082, 192.0, 0.0, 0.0, 0.0, 0.0, 0.0, 0.0, 0.0, 0.0, 0.0, 1.6665553449157517E9, 0.0, 2022-10-23 13:02:24.915
130.0, -66385.95508169592, -96839.40223925142, 54810.45601492596, 955.5147237199217, 83683.47837728004, 63612.26005700351, 20613.18106808437, 16068.400867986784, 0.044, 0.9560000000000001, 0.082, 192.0, 0.0, 0.0, 0.0, 0.0, 0.0, 0.0, 0.0, 0.0, 0.0, 1.666555344915768E9, 0.0, 2022-10-23 13:02:24.915
131.0, -66433.45253866346, -96871.43228905587, 53709.20791735744, 501.2825728991715, 83775.99224758057, 63200.429165414476, 20023.944380753564, 15585.223208096411, 0.044, 0.9560000000000001, 0.082, 192.0, 0.0, 0.0, 0.0, 0.0, 0.0, 0.0, 0.0, 0.0, 0.0, 1.6665553449157836E9, 0.0, 2022-10-23 13:02:24.915
132.0, -66494.8974841711, -96931.93846129638, 54592.2359338088, 1065.68647214013, 83992.51359611913, 63664.183159373184, 20693.401478934466, 16419.300904190648, 0.044, 0.9560000000000001, 0.082, 192.0, 0.0, 0.0, 0.0, 0.0, 0.0, 0.0, 0.0, 0.0, 0.0, 1.666555344915804E9, 0.0, 2022-10-23 13:02:24.915
133.0, -66515.28227511434, -96960.45928722135, 56713.103558195064, 2116.5090342174813, 84094.1469781574, 64564.24320509949, 21968.233223942905, 17675.960680956923, 0.044, 0.9560000000000001, 0.082, 192.0, 0.0, 0.0, 0.0, 0.0, 0.0, 0.0, 0.0, 0.0, 0.0, 1.66655534491582E9, 0.0, 2022-10-23 13:02:24.915
134.0, -66452.60798366166, -96908.98321974078, 55204.964304562134, 1160.2790546749895, 83681.15379585669, 63779.49580901812, 20855.51868146881, 16330.720940914267, 0.042, 0.9460000000000001, 0.088, 192.0, 1.0, 80.0, 29.0, 144.0, 2.0, 192.0, 0.0, 0.0, 0.0, 1.666555344915836E9, 0.0, 2022-10-23 13:02:24.915
135.0, -66458.77706513132, -96916.69457157786, 53679.81537339871, 460.6918049683339, 83721.4539911096, 63153.60226078061, 19965.628679469668, 15512.35652117211, 0.042, 0.9460000000000001, 0.088, 192.0, 0.0, 0.0, 0.0, 0.0, 0.0, 0.0, 0.0, 0.0, 0.0, 1.6665553449158533E9, 0.0, 2022-10-23 13:02:24.915
136.0, -66516.69043501501, -96973.11037458306, 54242.54289180552, 880.8822489836514, 83946.24548509663, 63496.52272421393, 20455.95889758574, 16169.497808158138, 0.042, 0.9460000000000001, 0.088, 192.0, 0.0, 0.0, 0.0, 0.0, 0.0, 0.0, 0.0, 0.0, 0.0, 1.6665553449158688E9, 0.0, 2022-10-23 13:02:24.915
137.0, -66549.23457494195, -97007.84498546661, 56490.21196248674, 2043.2400158929845, 84116.38696389043, 64484.98391926097, 21854.395789432027, 17600.43413644244, 0.042, 0.9460000000000001, 0.088, 192.0, 0.0, 0.0, 0.0, 0.0, 0.0, 0.0, 0.0, 0.0, 0.0, 1.6665553449158845E9, 0.0, 2022-10-23 13:02:24.915
138.0, -66471.69637342649, -96939.09101952208, 55656.89422570399, 1423.7837700586047, 83744.47628789858, 63988.305805719596, 21148.95238267808, 16659.224529173916, 0.042, 0.9460000000000001, 0.088, 192.0, 0.0, 0.0, 0.0, 0.0, 0.0, 0.0, 0.0, 0.0, 0.0, 1.6665553449159005E9, 0.0, 2022-10-23 13:02:24.915
139.0, -66479.81005666376, -96941.43795268988, 53766.718955840945, 492.94537221734197, 83688.64163024923, 63181.02785122727, 19992.473124560493, 15515.64222760704, 0.042, 0.9460000000000001, 0.088, 192.0, 0.0, 0.0, 0.0, 0.0, 0.0, 0.0, 0.0, 0.0, 0.0, 1.666555344915916E9, 0.0, 2022-10-23 13:02:24.915
140.0, -66526.65931304208, -96983.92861889943, 53943.789475415884, 704.0352468532618, 83882.07362676546, 63335.52310890235, 20229.066339619916, 15929.507127941506, 0.042, 0.9460000000000001, 0.088, 192.0, 0.0, 0.0, 0.0, 0.0, 0.0, 0.0, 0.0, 0.0, 0.0, 1.666555344915932E9, 0.0, 2022-10-23 13:02:24.915
141.0, -66579.47648518998, -97041.35025040511, 56078.67164357563, 1847.4387344644947, 84117.72806855776, 64298.45861178144, 21598.244797974206, 17383.935139648336, 0.042, 0.9460000000000001, 0.088, 192.0, 0.0, 0.0, 0.0, 0.0, 0.0, 0.0, 0.0, 0.0, 0.0, 1.6665553449159477E9, 0.0, 2022-10-23 13:02:24.915
142.0, -66512.22008612395, -96977.49131649629, 56069.50742834895, 1680.6500173389934, 83851.40703337277, 64188.62213952806, 21434.831194261456, 17003.284931574457, 0.042, 0.9460000000000001, 0.088, 192.0, 0.0, 0.0, 0.0, 0.0, 0.0, 0.0, 0.0, 0.0, 0.0, 1.6665553449159634E9, 0.0, 2022-10-23 13:02:24.915
143.0, -66512.1530308906, -96976.21726706234, 53895.912038792616, 554.5244281917129, 83669.3967782732, 63226.17837502699, 20059.103674781763, 15571.365126534121, 0.042, 0.9520000000000001, 0.096, 192.0, 1.0, 80.0, 29.0, 192.0, 3.0, 0.0, 0.0, 0.0, 0.0, 1.6665553449159956E9, 0.0, 2022-10-23 13:02:24.915
144.0, -66557.72823783496, -97016.2939448707, 53778.341862957706, 627.5922808161117, 83858.6937020652, 63262.432904533496, 20117.642893510212, 15797.944760077567, 0.042, 0.9520000000000001, 0.096, 192.0, 0.0, 0.0, 0.0, 0.0, 0.0, 0.0, 0.0, 0.0, 0.0, 1.6665553449160123E9, 0.0, 2022-10-23 13:02:24.916
145.0, -66605.9185988806, -97062.5620558932, 55659.4870280608, 1668.2000956773873, 84110.70962079879, 64133.994476079286, 21362.456245715173, 17160.462398584175, 0.042, 0.9520000000000001, 0.096, 192.0, 0.0, 0.0, 0.0, 0.0, 0.0, 0.0, 0.0, 0.0, 0.0, 1.666555344916028E9, 0.0, 2022-10-23 13:02:24.916
146.0, -66573.03918278684, -97037.17047419197, 56419.08871162996, 1910.8059299952902, 83926.57594997597, 64366.05028701429, 21691.496275841746, 17307.872153266926, 0.042, 0.9520000000000001, 0.096, 192.0, 0.0, 0.0, 0.0, 0.0, 0.0, 0.0, 0.0, 0.0, 0.0, 1.666555344916044E9, 0.0, 2022-10-23 13:02:24.916
147.0, -66524.31237987427, -96994.0986626266, 54126.894965993764, 668.7641941027873, 83653.57174319885, 63314.11013771417, 20192.3647752243, 15685.403726745097, 0.042, 0.9520000000000001, 0.096, 192.0, 0.0, 0.0, 0.0, 0.0, 0.0, 0.0, 0.0, 0.0, 0.0, 1.66655534491606E9, 0.0, 2022-10-23 13:02:24.916
148.0, -66568.12179900668, -97031.8507590116, 53661.95632957892, 557.9665968378303, 83824.22731211512, 63192.29313043274, 20025.844279032266, 15674.987813828924, 0.042, 0.9520000000000001, 0.096, 192.0, 0.0, 0.0, 0.0, 0.0, 0.0, 0.0, 0.0, 0.0, 0.0, 1.666555344916076E9, 0.0, 2022-10-23 13:02:24.916
149.0, -66626.2810380794, -97084.44441371494, 55190.61448462182, 1436.8371888205038, 84073.98570465871, 63925.07272065553, 21076.085695753776, 16866.514607252433, 0.042, 0.9520000000000001, 0.096, 192.0, 0.0, 0.0, 0.0, 0.0, 0.0, 0.0, 0.0, 0.0, 0.0, 1.6665553449160917E9, 0.0, 2022-10-23 13:02:24.916
150.0, -66600.26360753342, -97064.55136114972, 56649.222272541796, 2083.808432079367, 84013.6806981183, 64499.57960839029, 21881.441400222946, 17547.66166778346, 0.042, 0.9520000000000001, 0.096, 192.0, 0.0, 0.0, 0.0, 0.0, 0.0, 0.0, 0.0, 0.0, 0.0, 1.6665553449161072E9, 0.0, 2022-10-23 13:02:24.916
151.0, -66538.84101377023, -97005.58745927662, 54472.519990506175, 848.1145916121712, 83656.56687695585, 63469.432409934096, 20410.69661506374, 15894.772517057958, 0.042, 0.9520000000000001, 0.096, 192.0, 0.0, 0.0, 0.0, 0.0, 0.0, 0.0, 0.0, 0.0, 0.0, 1.666555344916123E9, 0.0, 2022-10-23 13:02:24.916
152.0, -66574.49204617644, -97034.30945090168, 53626.417055894985, 532.3067942031377, 83789.60445995384, 63173.02592671227, 19988.740383236454, 15606.144440906579, 0.042, 0.9520000000000001, 0.096, 192.0, 0.0, 0.0, 0.0, 0.0, 0.0, 0.0, 0.0, 0.0, 0.0, 1.6665553449161384E9, 0.0, 2022-10-23 13:02:24.916
153.0, -66626.83983169077, -97083.99737882584, 54759.918720712514, 1220.4723024931316, 84028.11992503643, 63740.894346343805, 20807.529486123265, 16584.636757926557, 0.036000000000000004, 0.9580000000000001, 0.092, 192.0, 1.0, 32.0, 29.0, 240.0, 2.0, 224.0, 0.0, 0.0, 0.0, 1.6665553449161541E9, 0.0, 2022-10-23 13:02:24.916
154.0, -66642.37429408722, -97103.64456220205, 56688.06960440512, 2145.8792264317544, 84068.35306505598, 64541.57853622181, 21940.807633496242, 17656.78288421427, 0.036000000000000004, 0.9580000000000001, 0.092, 192.0, 0.0, 0.0, 0.0, 0.0, 0.0, 0.0, 0.0, 0.0, 0.0, 1.6665553449161727E9, 0.0, 2022-10-23 13:02:24.916
155.0, -66585.53380793736, -97046.13352371854, 54872.37034706716, 1061.2831784824346, 83673.28598180843, 63649.56511849942, 20664.880653009495, 16158.187825463752, 0.036000000000000004, 0.9580000000000001, 0.092, 192.0, 0.0, 0.0, 0.0, 0.0, 0.0, 0.0, 0.0, 0.0, 0.0, 1.6665553449161885E9, 0.0, 2022-10-23 13:02:24.916
156.0, -66616.80389843034, -97072.32976822017, 53625.8582622836, 521.6673638424115, 83740.60943610781, 63162.07357192917, 19969.249662071426, 15554.243690281355, 0.036000000000000004, 0.9580000000000001, 0.092, 192.0, 0.0, 0.0, 0.0, 0.0, 0.0, 0.0, 0.0, 0.0, 0.0, 1.6665553449162045E9, 0.0, 2022-10-23 13:02:24.916
157.0, -66646.5764220448, -97098.86128888861, 54386.19755341978, 1031.465951379055, 83967.9713807072, 63574.977347252054, 20567.605861139997, 16317.51105994118, 0.036000000000000004, 0.9580000000000001, 0.092, 192.0, 0.0, 0.0, 0.0, 0.0, 0.0, 0.0, 0.0, 0.0, 0.0, 1.6665553449162197E9, 0.0, 2022-10-23 13:02:24.916
158.0, -66656.94763147207, -97110.81947217221, 56594.125222459465, 2155.110496891796, 84120.81260929258, 64534.76125416294, 21921.831002453688, 17666.729410496882, 0.036000000000000004, 0.9580000000000001, 0.092, 192.0, 0.0, 0.0, 0.0, 0.0, 0.0, 0.0, 0.0, 0.0, 0.0, 1.666555344916236E9, 0.0, 2022-10-23 13:02:24.916
159.0, -66603.41520350162, -97059.70103260291, 55323.316791452984, 1320.8316350974603, 83730.34998540282, 63858.10689426743, 20958.47081642995, 16462.752695411767, 0.036000000000000004, 0.9580000000000001, 0.092, 192.0, 0.0, 0.0, 0.0, 0.0, 0.0, 0.0, 0.0, 0.0, 0.0, 1.666555344916266E9, 0.0, 2022-10-23 13:02:24.916
160.0, -66624.55995375632, -97072.93326532046, 53695.50629800634, 556.424326470414, 83737.48019188407, 63193.61188335561, 19999.983310697477, 15550.198024534944, 0.036000000000000004, 0.9580000000000001, 0.092, 192.0, 0.0, 0.0, 0.0, 0.0, 0.0, 0.0, 0.0, 0.0, 0.0, 1.6665553449162815E9, 0.0, 2022-10-23 13:02:24.916
161.0, -66664.18959667558, -97108.42783551548, 54129.59952707285, 902.2281649384696, 83936.5671797475, 63473.72394486952, 20405.578065583475, 16117.373540088362, 0.036000000000000004, 0.9580000000000001, 0.092, 192.0, 0.0, 0.0, 0.0, 0.0, 0.0, 0.0, 0.0, 0.0, 0.0, 1.6665553449162967E9, 0.0, 2022-10-23 13:02:24.916
162.0, -66703.84159133931, -97137.30628935175, 56343.83038804894, 2055.5558270878587, 84126.13232447294, 64449.623459532675, 21795.096611392095, 17557.384676621517, 0.036000000000000004, 0.9580000000000001, 0.092, 192.0, 0.0, 0.0, 0.0, 0.0, 0.0, 0.0, 0.0, 0.0, 0.0, 1.6665553449163125E9, 0.0, 2022-10-23 13:02:24.916
163.0, -66638.57449752981, -97081.67279740248, 55789.93180870197, 1579.7765946121926, 83784.01652384002, 64076.88576899598, 21269.65180273674, 16798.85587678622, 0.042, 0.96, 0.096, 192.0, 1.0, 80.0, 30.0, 0.0, 3.0, 0.0, 0.0, 0.0, 0.0, 1.6665553449163291E9, 0.0, 2022-10-23 13:02:24.916
164.0, -66637.45691030704, -97079.48232644587, 53781.71697637045, 568.4272132429139, 83687.61345000428, 63203.58076138268, 20022.491517363967, 15542.30785874222, 0.042, 0.96, 0.096, 192.0, 0.0, 0.0, 0.0, 0.0, 0.0, 0.0, 0.0, 0.0, 0.0, 1.6665553449163456E9, 0.0, 2022-10-23 13:02:24.916
165.0, -66686.83191380881, -97124.29757407875, 53892.04518700185, 758.3723376241134, 83893.13774027083, 63348.82239685326, 20231.68149372119, 15916.990151046533, 0.042, 0.96, 0.096, 192.0, 0.0, 0.0, 0.0, 0.0, 0.0, 0.0, 0.0, 0.0, 0.0, 1.666555344916361E9, 0.0, 2022-10-23 13:02:24.916
166.0, -66725.76865264996, -97164.0389757203, 55959.715659584486, 1878.6864732130139, 84133.17312397638, 64295.3740710466, 21575.200149440785, 17351.3462962325, 0.042, 0.96, 0.096, 192.0, 0.0, 0.0, 0.0, 0.0, 0.0, 0.0, 0.0, 0.0, 0.0, 1.6665553449163764E9, 0.0, 2022-10-23 13:02:24.916
167.0, -66656.2323756495, -97103.13047207957, 56224.382665679776, 1848.1092867981538, 83881.91716455427, 64302.124297872106, 21580.31869892105, 17147.274869355544, 0.042, 0.96, 0.096, 192.0, 0.0, 0.0, 0.0, 0.0, 0.0, 0.0, 0.0, 0.0, 0.0, 1.666555344916392E9, 0.0, 2022-10-23 13:02:24.916
168.0, -66635.15468062814, -97081.89631484704, 53970.499810039975, 651.0839642386394, 83659.18203105713, 63278.77202973033, 20127.991751193018, 15616.739167778394, 0.042, 0.96, 0.096, 192.0, 0.0, 0.0, 0.0, 0.0, 0.0, 0.0, 0.0, 0.0, 0.0, 1.6665553449164078E9, 0.0, 2022-10-23 13:02:24.916
169.0, -66668.74935254447, -97107.06437910371, 53739.53923458329, 666.3725574460694, 83859.36425439885, 63266.90325342456, 20117.464079554567, 15771.50264638694, 0.042, 0.96, 0.096, 192.0, 0.0, 0.0, 0.0, 0.0, 0.0, 0.0, 0.0, 0.0, 0.0, 1.666555344916423E9, 0.0, 2022-10-23 13:02:24.916
170.0, -66723.35466424879, -97154.45007734896, 55512.32314256706, 1661.919255485446, 84116.23050167925, 64104.557228631646, 21308.163858433232, 17087.103973281857, 0.042, 0.96, 0.096, 192.0, 0.0, 0.0, 0.0, 0.0, 0.0, 0.0, 0.0, 0.0, 0.0, 1.6665553449164383E9, 0.0, 2022-10-23 13:02:24.916
171.0, -66684.21675970755, -97116.87679491959, 56514.19538428729, 2033.4723035660154, 83953.68861600026, 64442.13562514015, 21792.74967822429, 17411.673654517374, 0.042, 0.96, 0.096, 192.0, 0.0, 0.0, 0.0, 0.0, 0.0, 0.0, 0.0, 0.0, 0.0, 1.6665553449164543E9, 0.0, 2022-10-23 13:02:24.916
172.0, -66626.39279680167, -97057.17528547946, 54236.26205161358, 775.672587832521, 83657.46094673406, 63381.32183329128, 20282.39760189028, 15765.512378872918, 0.042, 0.96, 0.096, 192.0, 0.0, 0.0, 0.0, 0.0, 0.0, 0.0, 0.0, 0.0, 0.0, 1.66655534491647E9, 0.0, 2022-10-23 13:02:24.916
173.0, -66667.96704148853, -97093.921553364, 53665.24203601385, 615.7458562547989, 83834.55381805346, 63221.12688078009, 20050.945288055576, 15684.464953477975, 0.044, 0.9560000000000001, 0.09, 192.0, 1.0, 96.0, 29.0, 224.0, 2.0, 208.0, 0.0, 0.0, 0.0, 1.6665553449164855E9, 0.0, 2022-10-23 13:02:24.916
174.0, -66731.37894050825, -97155.29944363827, 55050.06671548686, 1420.6545258348615, 84073.2928005806, 63888.90759812685, 21014.01490140139, 16793.446754628036, 0.044, 0.9560000000000001, 0.09, 192.0, 0.0, 0.0, 0.0, 0.0, 0.0, 0.0, 0.0, 0.0, 0.0, 1.6665553449165175E9, 0.0, 2022-10-23 13:02:24.916
175.0, -66711.28472224293, -97141.15078939806, 56692.294084107176, 2170.354386610316, 84040.70395716476, 64547.21117582455, 21941.94757246346, 17615.834488372147, 0.044, 0.9560000000000001, 0.09, 192.0, 0.0, 0.0, 0.0, 0.0, 0.0, 0.0, 0.0, 0.0, 0.0, 1.6665553449165351E9, 0.0, 2022-10-23 13:02:24.916
176.0, -66642.03901792038, -97069.89342807453, 54592.057119853154, 955.2912062753685, 83668.92739163965, 63528.776291462935, 20495.923816671828, 15982.726631489591, 0.044, 0.9560000000000001, 0.09, 192.0, 0.0, 0.0, 0.0, 0.0, 0.0, 0.0, 0.0, 0.0, 0.0, 1.6665553449165509E9, 0.0, 2022-10-23 13:02:24.916
177.0, -66662.11088444125, -97084.93615209295, 53644.00787878131, 593.6846844774109, 83813.29730907647, 63201.055014259226, 20015.38366262718, 15625.85867951616, 0.044, 0.9560000000000001, 0.09, 192.0, 0.0, 0.0, 0.0, 0.0, 0.0, 0.0, 0.0, 0.0, 0.0, 1.6665553449165664E9, 0.0, 2022-10-23 13:02:24.916
178.0, -66717.63261766823, -97137.39569632956, 54663.04626024321, 1224.9650031286483, 84028.32109073653, 63726.1421950033, 20771.073790916656, 16535.12764395805, 0.044, 0.9560000000000001, 0.09, 192.0, 0.0, 0.0, 0.0, 0.0, 0.0, 0.0, 0.0, 0.0, 0.0, 1.6665553449165816E9, 0.0, 2022-10-23 13:02:24.916
179.0, -66738.75501617849, -97155.14298142708, 56728.8391862916, 2237.0743438094073, 84099.3996381044, 64600.18481018363, 22006.633520917123, 17721.401777434563, 0.044, 0.9560000000000001, 0.09, 192.0, 0.0, 0.0, 0.0, 0.0, 0.0, 0.0, 0.0, 0.0, 0.0, 1.6665553449165971E9, 0.0, 2022-10-23 13:02:24.916
180.0, -66637.52396554041, -97065.1101547611, 55083.97431182556, 1223.8250641614277, 83706.43361883565, 63767.76114317908, 20820.56055314071, 16303.451812678793, 0.044, 0.9560000000000001, 0.09, 192.0, 0.0, 0.0, 0.0, 0.0, 0.0, 0.0, 0.0, 0.0, 0.0, 1.6665553449166126E9, 0.0, 2022-10-23 13:02:24.916
181.0, -66658.9369367286, -97080.30934099072, 53708.760882468334, 611.1190451525504, 83768.61617191031, 63223.004427314336, 20036.34959892626, 15598.366033836131, 0.044, 0.9560000000000001, 0.09, 192.0, 0.0, 0.0, 0.0, 0.0, 0.0, 0.0, 0.0, 0.0, 0.0, 1.6665553449166293E9, 0.0, 2022-10-23 13:02:24.916
182.0, -66707.37316696324, -97115.62509723009, 54359.37546007341, 1061.8419720938173, 83976.19682266675, 63594.17749573917, 20569.68457337434, 16293.70645209628, 0.044, 0.9520000000000001, 0.094, 192.0, 1.0, 96.0, 29.0, 192.0, 2.0, 240.0, 0.0, 0.0, 0.0, 1.6665553449315348E9, 0.0, 2022-10-23 13:02:24.931
183.0, -66740.90078364621, -97150.89614998057, 56595.08634747104, 2200.7751108139887, 84136.99527227823, 64566.523083033935, 21950.597697567668, 17684.78962001677, 0.044, 0.9520000000000001, 0.094, 192.0, 0.0, 0.0, 0.0, 0.0, 0.0, 0.0, 0.0, 0.0, 0.0, 1.66655534538824E9, 0.0, 2022-10-23 13:02:25.388
184.0, -66650.39857034666, -97065.0654512722, 55579.870114310994, 1491.7107214582827, 83760.34602646185, 64002.0074250707, 21142.98446690851, 16629.85433695964, 0.044, 0.9520000000000001, 0.094, 192.0, 0.0, 0.0, 0.0, 0.0, 0.0, 0.0, 0.0, 0.0, 0.0, 1.6665553453883076E9, 0.0, 2022-10-23 13:02:25.388
185.0, -66641.65903826464, -97044.52419811777, 53805.9015638711, 631.7720570292541, 83732.9651395041, 63259.482474265395, 20072.335907499302, 15583.882103429092, 0.044, 0.9520000000000001, 0.094, 192.0, 0.0, 0.0, 0.0, 0.0, 0.0, 0.0, 0.0, 0.0, 0.0, 1.6665553453883579E9, 0.0, 2022-10-23 13:02:25.388
186.0, -66682.04864049538, -97085.74081489335, 54110.33232335238, 913.9404790330505, 83947.45247929722, 63481.14472402868, 20395.31861487849, 16075.665184934758, 0.044, 0.9520000000000001, 0.094, 192.0, 0.0, 0.0, 0.0, 0.0, 0.0, 0.0, 0.0, 0.0, 0.0, 1.666555345388374E9, 0.0, 2022-10-23 13:02:25.388
187.0, -66722.84057412631, -97127.85150144715, 56305.02775967452, 2077.616998865247, 84170.25466802773, 64467.035468463364, 21793.59904451359, 17539.726798501826, 0.044, 0.9520000000000001, 0.094, 192.0, 0.0, 0.0, 0.0, 0.0, 0.0, 0.0, 0.0, 0.0, 0.0, 1.666555345388389E9, 0.0, 2022-10-23 13:02:25.388
188.0, -66650.9797157025, -97061.69033785944, 56034.70576223204, 1753.3378903076518, 83846.8919809928, 64222.32857016666, 21449.1139589684, 16966.15868403419, 0.044, 0.9520000000000001, 0.094, 192.0, 0.0, 0.0, 0.0, 0.0, 0.0, 0.0, 0.0, 0.0, 0.0, 1.666555345388404E9, 0.0, 2022-10-23 13:02:25.388
189.0, -66654.26542213744, -97063.72434660487, 53916.22977450249, 657.9459497864187, 83686.78643545943, 63279.30847159726, 20109.238637595015, 15591.861676199636, 0.044, 0.9520000000000001, 0.094, 192.0, 0.0, 0.0, 0.0, 0.0, 0.0, 0.0, 0.0, 0.0, 0.0, 1.6665553453884196E9, 0.0, 2022-10-23 13:02:25.388
190.0, -66684.6414428522, -97092.04400682975, 53902.841079573765, 779.3829774121019, 83879.7490453421, 63362.36755399318, 20232.150880354748, 15884.848342519803, 0.044, 0.9520000000000001, 0.094, 192.0, 0.0, 0.0, 0.0, 0.0, 0.0, 0.0, 0.0, 0.0, 0.0, 1.6665553453884923E9, 0.0, 2022-10-23 13:02:25.388
191.0, -66725.92511486115, -97127.40446655804, 55894.80619368627, 1870.3045690422737, 84137.28584495615, 64285.15932383053, 21538.856212956456, 17298.88675199589, 0.044, 0.9520000000000001, 0.094, 192.0, 0.0, 0.0, 0.0, 0.0, 0.0, 0.0, 0.0, 0.0, 0.0, 1.6665553453885105E9, 0.0, 2022-10-23 13:02:25.388
192.0, -66669.95634674506, -97072.70974787591, 56457.84663651546, 2003.2974485513507, 83925.95010113122, 64434.5583837698, 21738.658456642446, 17302.99947297567, 0.044, 0.9560000000000001, 0.094, 192.0, 1.0, 96.0, 29.0, 224.0, 2.0, 240.0, 0.0, 0.0, 0.0, 1.6665553453885255E9, 0.0, 2022-10-23 13:02:25.388
193.0, -66636.83106146229, -97037.32693640316, 54157.29333845298, 762.5297620928004, 83672.14604284121, 63376.85148440021, 20234.497813522557, 15702.033424619845, 0.044, 0.9560000000000001, 0.094, 192.0, 0.0, 0.0, 0.0, 0.0, 0.0, 0.0, 0.0, 0.0, 0.0, 1.666555345388543E9, 0.0, 2022-10-23 13:02:25.388
194.0, -66676.48305612602, -97070.02753854127, 53833.818892695774, 737.2275873693928, 83868.93080102574, 63334.38316993513, 20167.599042367823, 15793.764983864427, 0.044, 0.9560000000000001, 0.094, 192.0, 0.0, 0.0, 0.0, 0.0, 0.0, 0.0, 0.0, 0.0, 0.0, 1.666555345388558E9, 0.0, 2022-10-23 13:02:25.388
195.0, -66719.1972397801, -97109.56777448271, 55458.7907145966, 1650.8104384911585, 84097.76796075917, 64099.9304175294, 21262.722761955592, 17022.060396916913, 0.044, 0.9560000000000001, 0.094, 192.0, 0.0, 0.0, 0.0, 0.0, 0.0, 0.0, 0.0, 0.0, 0.0, 1.666555345388573E9, 0.0, 2022-10-23 13:02:25.388
196.0, -66679.6346520942, -97076.95657932242, 56735.23178520582, 2189.018093230497, 84014.12773300741, 64588.98658621152, 21943.44513934197, 17556.311792887664, 0.044, 0.9560000000000001, 0.094, 192.0, 0.0, 0.0, 0.0, 0.0, 0.0, 0.0, 0.0, 0.0, 0.0, 1.6665553453885958E9, 0.0, 2022-10-23 13:02:25.388
197.0, -66617.49680250845, -97018.7973402497, 54514.3177526376, 945.0764590592933, 83679.52211851146, 63546.99296319401, 20453.835481862483, 15897.834706048336, 0.044, 0.9560000000000001, 0.094, 192.0, 0.0, 0.0, 0.0, 0.0, 0.0, 0.0, 0.0, 0.0, 0.0, 1.6665553453886108E9, 0.0, 2022-10-23 13:02:25.388
198.0, -66665.77657053192, -97055.11892498958, 53790.903543341585, 694.3569415041139, 83821.85802720285, 63306.823469021736, 20111.764384718466, 15694.411479760585, 0.044, 0.9560000000000001, 0.094, 192.0, 0.0, 0.0, 0.0, 0.0, 0.0, 0.0, 0.0, 0.0, 0.0, 1.666555345388626E9, 0.0, 2022-10-23 13:02:25.388
199.0, -66711.50823968748, -97093.87684987509, 55068.95393955159, 1454.9868053182133, 84066.7884429441, 63948.54205233361, 21022.30739859431, 16750.218480851472, 0.044, 0.9560000000000001, 0.094, 192.0, 0.0, 0.0, 0.0, 0.0, 0.0, 0.0, 0.0, 0.0, 0.0, 1.6665553453886409E9, 0.0, 2022-10-23 13:02:25.388
200.0, -66693.35862318976, -97084.33265499267, 56856.89233027605, 2284.5494490324795, 84070.1412046124, 64668.871720894786, 22046.17375685856, 17691.49514335336, 0.044, 0.9560000000000001, 0.094, 192.0, 0.0, 0.0, 0.0, 0.0, 0.0, 0.0, 0.0, 0.0, 0.0, 1.6665553453886557E9, 0.0, 2022-10-23 13:02:25.388
201.0, -66621.20719208804, -97021.904232729, 54895.34794036722, 1126.5055688030207, 83688.70868548259, 63707.90317152777, 20678.246996193768, 16113.66315050878, 0.044, 0.9560000000000001, 0.094, 192.0, 0.0, 0.0, 0.0, 0.0, 0.0, 0.0, 0.0, 0.0, 0.0, 1.6665553453886707E9, 0.0, 2022-10-23 13:02:25.388
202.0, -66649.81742499083, -97038.51157885928, 53786.65671189508, 666.5960748906225, 83796.91348039074, 63295.2899688828, 20080.60605294777, 15625.612810327151, 0.042, 0.9500000000000001, 0.092, 192.0, 1.0, 80.0, 29.0, 176.0, 2.0, 224.0, 0.0, 0.0, 0.0, 1.666555345388686E9, 0.0, 2022-10-23 13:02:25.388
203.0, -66705.24975123999, -97089.65237017303, 54654.44083862792, 1217.7900931584948, 84009.18799748278, 63750.3491342484, 20737.747339933794, 16446.391218470482, 0.042, 0.9500000000000001, 0.092, 192.0, 0.0, 0.0, 0.0, 0.0, 0.0, 0.0, 0.0, 0.0, 0.0, 1.666555345388702E9, 0.0, 2022-10-23 13:02:25.388
204.0, -66724.22638228255, -97113.09935010664, 56779.309425271684, 2270.669015725734, 84113.28007141115, 64649.38099972976, 22016.60239894419, 17706.582570860694, 0.042, 0.9500000000000001, 0.092, 192.0, 0.0, 0.0, 0.0, 0.0, 0.0, 0.0, 0.0, 0.0, 0.0, 1.6665553453887172E9, 0.0, 2022-10-23 13:02:25.388
205.0, -66633.90298293866, -97028.49799734331, 55342.829864362466, 1366.7868216975717, 83741.1682297192, 63911.8851914269, 20961.845929842704, 16416.998674511753, 0.042, 0.9500000000000001, 0.092, 192.0, 0.0, 0.0, 0.0, 0.0, 0.0, 0.0, 0.0, 0.0, 0.0, 1.666555345388732E9, 0.0, 2022-10-23 13:02:25.388
206.0, -66665.12836994271, -97053.53195113325, 53816.36218027618, 658.4153364199801, 83759.1166805168, 63289.5902740467, 20069.407828975658, 15587.950120919959, 0.042, 0.9500000000000001, 0.092, 192.0, 0.0, 0.0, 0.0, 0.0, 0.0, 0.0, 0.0, 0.0, 0.0, 1.6665553453887627E9, 0.0, 2022-10-23 13:02:25.388
207.0, -66712.67053039915, -97101.20822205642, 54300.63507564487, 1018.5019395949769, 83952.10164214393, 63572.831579784346, 20491.140543358393, 16182.752392620134, 0.042, 0.9500000000000001, 0.092, 192.0, 0.0, 0.0, 0.0, 0.0, 0.0, 0.0, 0.0, 0.0, 0.0, 1.6665553453887775E9, 0.0, 2022-10-23 13:02:25.388
208.0, -66740.65491445719, -97128.00796365834, 56555.412001062876, 2195.343636911349, 84157.60358066602, 64573.11684764825, 21907.458830768923, 17636.085168848655, 0.042, 0.9500000000000001, 0.092, 192.0, 0.0, 0.0, 0.0, 0.0, 0.0, 0.0, 0.0, 0.0, 0.0, 1.6665553453887925E9, 0.0, 2022-10-23 13:02:25.388
209.0, -66664.21194842005, -97059.03048026926, 55798.4701750839, 1620.0097346317452, 83794.52184373401, 64119.510545672245, 21260.934622399167, 16745.144634860117, 0.042, 0.9500000000000001, 0.092, 192.0, 0.0, 0.0, 0.0, 0.0, 0.0, 0.0, 0.0, 0.0, 0.0, 1.6665553453888068E9, 0.0, 2022-10-23 13:02:25.388
210.0, -66658.69106753959, -97049.46393364239, 53857.601148796224, 646.7030223253993, 83708.28881362543, 63269.40664880355, 20057.91903232563, 15551.717943157906, 0.042, 0.9500000000000001, 0.092, 192.0, 0.0, 0.0, 0.0, 0.0, 0.0, 0.0, 0.0, 0.0, 0.0, 1.6665553453888218E9, 0.0, 2022-10-23 13:02:25.388
211.0, -66705.56267566237, -97096.2684865318, 54030.491892158025, 859.2681120953694, 83913.12019981387, 63426.874688491196, 20296.926235786228, 15967.169817348698, 0.04, 0.9520000000000001, 0.092, 192.0, 1.0, 64.0, 29.0, 192.0, 2.0, 224.0, 0.0, 0.0, 0.0, 1.6665553453888369E9, 0.0, 2022-10-23 13:02:25.388
212.0, -66756.12232162026, -97148.68332727949, 56212.759758563014, 2039.2390536354847, 84162.31979874609, 64435.07247389227, 21715.792622064666, 17463.30618420913, 0.04, 0.9520000000000001, 0.092, 192.0, 0.0, 0.0, 0.0, 0.0, 0.0, 0.0, 0.0, 0.0, 0.0, 1.6665553453888528E9, 0.0, 2022-10-23 13:02:25.388
213.0, -66683.72502132953, -97083.90797184802, 56246.46618920162, 1876.9430371455, 83858.35842589838, 64335.36134187715, 21569.723972049236, 17091.730784384108, 0.04, 0.9520000000000001, 0.092, 192.0, 0.0, 0.0, 0.0, 0.0, 0.0, 0.0, 0.0, 0.0, 0.0, 1.6665553453888676E9, 0.0, 2022-10-23 13:02:25.388
214.0, -66655.80769250485, -97048.18988420843, 54021.66295309817, 701.3753892630804, 83662.6465514477, 63327.69999834299, 20141.89453624422, 15609.988940952891, 0.04, 0.9520000000000001, 0.092, 192.0, 0.0, 0.0, 0.0, 0.0, 0.0, 0.0, 0.0, 0.0, 0.0, 1.6665553453888824E9, 0.0, 2022-10-23 13:02:25.388
215.0, -66683.2332829515, -97081.40457646902, 53889.966474767505, 763.5579423377445, 83871.88123129382, 63360.44530397002, 20193.594121169346, 15832.03117037191, 0.04, 0.9520000000000001, 0.092, 192.0, 0.0, 0.0, 0.0, 0.0, 0.0, 0.0, 0.0, 0.0, 0.0, 1.666555345388901E9, 0.0, 2022-10-23 13:02:25.388
216.0, -66728.4061584957, -97120.76599845482, 55764.7637444453, 1802.8917077650676, 84133.41899316538, 64238.24301221884, 21438.8098047745, 17196.60516936841, 0.04, 0.9520000000000001, 0.092, 192.0, 0.0, 0.0, 0.0, 0.0, 0.0, 0.0, 0.0, 0.0, 0.0, 1.6665553453889103E9, 0.0, 2022-10-23 13:02:25.388
217.0, -66696.80079183588, -97086.165498038, 56592.515896858684, 2085.4624611690597, 83966.54086906205, 64510.75548061794, 21815.50375407979, 17393.85931418649, 0.04, 0.9520000000000001, 0.092, 192.0, 0.0, 0.0, 0.0, 0.0, 0.0, 0.0, 0.0, 0.0, 0.0, 1.6665553453889196E9, 0.0, 2022-10-23 13:02:25.388
218.0, -66662.62497456372, -97060.68450935895, 54319.43289273178, 843.2195595764589, 83673.86712716427, 63468.806561089346, 20320.619084908856, 15768.239291696465, 0.04, 0.9520000000000001, 0.092, 192.0, 0.0, 0.0, 0.0, 0.0, 0.0, 0.0, 0.0, 0.0, 0.0, 1.66655534538893E9, 0.0, 2022-10-23 13:02:25.388
219.0, -66664.88250075371, -97070.74279436383, 53833.908299673596, 718.8097499382199, 83837.75011751057, 63338.451187426, 20136.396007108215, 15737.505643070417, 0.04, 0.9520000000000001, 0.092, 192.0, 0.0, 0.0, 0.0, 0.0, 0.0, 0.0, 0.0, 0.0, 0.0, 1.6665553453889396E9, 0.0, 2022-10-23 13:02:25.388
220.0, -66710.27889374243, -97109.50071924934, 55302.57437259846, 1555.5249518781843, 84073.02457964714, 64031.019989373686, 21140.14579536269, 16884.82068596133, 0.04, 0.9520000000000001, 0.092, 192.0, 0.0, 0.0, 0.0, 0.0, 0.0, 0.0, 0.0, 0.0, 0.0, 1.666555345388949E9, 0.0, 2022-10-23 13:02:25.388
221.0, -66679.56759686084, -97086.76899513829, 56768.960567588874, 2200.4845381360697, 84023.51546567863, 64599.02251947195, 21945.590906809677, 17569.99106049431, 0.038, 0.9520000000000001, 0.098, 192.0, 1.0, 48.0, 29.0, 192.0, 3.0, 16.0, 0.0, 0.0, 0.0, 1.6665553453889675E9, 0.0, 2022-10-23 13:02:25.388
222.0, -66612.8252879173, -97026.62045080906, 54629.07160867115, 985.533116523399, 83681.42201679017, 63588.34369043633, 20499.47774404022, 15938.023142578977, 0.038, 0.9520000000000001, 0.098, 192.0, 0.0, 0.0, 0.0, 0.0, 0.0, 0.0, 0.0, 0.0, 0.0, 1.666555345388978E9, 0.0, 2022-10-23 13:02:25.388
223.0, -66620.08960486526, -97034.77883753525, 53757.37592665863, 649.0052520042959, 83795.3265065344, 63275.016936661836, 20056.823796847322, 15622.930600992513, 0.038, 0.9520000000000001, 0.098, 192.0, 0.0, 0.0, 0.0, 0.0, 0.0, 0.0, 0.0, 0.0, 0.0, 1.6665553453889875E9, 0.0, 2022-10-23 13:02:25.388
224.0, -66643.71539875453, -97065.80305883921, 54882.94272219452, 1335.1143998044015, 84043.31911126604, 63845.00877201662, 20875.2776235673, 16600.819420912198, 0.038, 0.9520000000000001, 0.098, 192.0, 0.0, 0.0, 0.0, 0.0, 0.0, 0.0, 0.0, 0.0, 0.0, 1.666555345388998E9, 0.0, 2022-10-23 13:02:25.388
225.0, -66634.14885212766, -97056.3035674457, 56845.76116153731, 2285.018835666041, 84101.32188812755, 64667.50826448301, 22035.109643353182, 17700.525248113307, 0.038, 0.9520000000000001, 0.098, 192.0, 0.0, 0.0, 0.0, 0.0, 0.0, 0.0, 0.0, 0.0, 0.0, 1.6665553453890076E9, 0.0, 2022-10-23 13:02:25.389
226.0, -66548.31815341928, -96953.23967376229, 55050.737267820514, 1206.1895377861904, 83713.20619740561, 63779.09347761792, 20763.854177457593, 16205.30530277554, 0.038, 0.9520000000000001, 0.098, 192.0, 0.0, 0.0, 0.0, 0.0, 0.0, 0.0, 0.0, 0.0, 0.0, 1.666555345389017E9, 0.0, 2022-10-23 13:02:25.389
227.0, -66553.88373778865, -96952.01032781725, 53791.73055788643, 660.5611038876896, 83795.66178270124, 63292.04896593678, 20062.12116028323, 15597.85194371366, 0.038, 0.9520000000000001, 0.098, 192.0, 0.0, 0.0, 0.0, 0.0, 0.0, 0.0, 0.0, 0.0, 0.0, 1.6665553453890269E9, 0.0, 2022-10-23 13:02:25.389
228.0, -66580.34820322374, -96980.28528455322, 54550.46052342183, 1167.0516332449477, 84012.89838706236, 63713.334645430405, 20664.210100675835, 16360.828740695566, 0.038, 0.9520000000000001, 0.098, 192.0, 0.0, 0.0, 0.0, 0.0, 0.0, 0.0, 0.0, 0.0, 0.0, 1.666555345389036E9, 0.0, 2022-10-23 13:02:25.389
229.0, -66579.90116833463, -96982.49810725429, 56741.60203237558, 2268.8808761693094, 84137.9563972898, 64652.06320906439, 21999.324500480237, 17692.098640453656, 0.038, 0.9520000000000001, 0.098, 192.0, 0.0, 0.0, 0.0, 0.0, 0.0, 0.0, 0.0, 0.0, 0.0, 1.6665553453890457E9, 0.0, 2022-10-23 13:02:25.389
230.0, -66483.5427979878, -96897.65088530195, 55493.10064233549, 1438.021831276635, 83747.13614548877, 63971.96668052277, 21037.64069529065, 16492.771088215242, 0.038, 0.9520000000000001, 0.098, 192.0, 0.0, 0.0, 0.0, 0.0, 0.0, 0.0, 0.0, 0.0, 0.0, 1.666555345389055E9, 0.0, 2022-10-23 13:02:25.389
231.0, -66464.74498090088, -96878.42838507038, 53828.6556397266, 648.289996181726, 83744.72215708758, 63281.789515231794, 20046.810215331345, 15547.202890777933, 0.032, 0.9540000000000001, 0.098, 192.0, 1.0, 0.0, 29.0, 208.0, 3.0, 16.0, 0.0, 0.0, 0.0, 1.6665553453890643E9, 0.0, 2022-10-23 13:02:25.389
232.0, -66474.35623101667, -96894.00755095572, 54210.714007701165, 964.0083866129384, 83947.65364499732, 63528.53042227393, 20413.80350754303, 16085.27643505054, 0.032, 0.9540000000000001, 0.098, 192.0, 0.0, 0.0, 0.0, 0.0, 0.0, 0.0, 0.0, 0.0, 0.0, 1.6665553453890743E9, 0.0, 2022-10-23 13:02:25.389
233.0, -66487.63316722312, -96914.63821108798, 56445.55317706504, 2139.799551939911, 84169.20413603833, 64526.49110871448, 21827.84191701912, 17554.94833647589, 0.032, 0.9540000000000001, 0.098, 192.0, 0.0, 0.0, 0.0, 0.0, 0.0, 0.0, 0.0, 0.0, 0.0, 1.6665553453890836E9, 0.0, 2022-10-23 13:02:25.389
234.0, -66394.64991028904, -96821.58789892054, 55939.37557213016, 1692.697607600404, 83833.01154768605, 64179.41322081247, 21334.829489568412, 16831.04238880186, 0.032, 0.9540000000000001, 0.098, 192.0, 0.0, 0.0, 0.0, 0.0, 0.0, 0.0, 0.0, 0.0, 0.0, 1.6665553453890927E9, 0.0, 2022-10-23 13:02:25.389
235.0, -66367.9619274094, -96794.18466021832, 53928.12090255271, 684.097490799128, 83742.68814834216, 63313.28312316932, 20090.39611701919, 15571.901568401048, 0.032, 0.9540000000000001, 0.098, 192.0, 0.0, 0.0, 0.0, 0.0, 0.0, 0.0, 0.0, 0.0, 0.0, 1.6665553453891025E9, 0.0, 2022-10-23 13:02:25.389
236.0, -66390.58189279817, -96812.69190462733, 53985.743699758495, 835.8658356506629, 83933.39323203484, 63420.3703308547, 20255.28493586599, 15909.301150953908, 0.032, 0.9540000000000001, 0.098, 192.0, 0.0, 0.0, 0.0, 0.0, 0.0, 0.0, 0.0, 0.0, 0.0, 1.6665553453891115E9, 0.0, 2022-10-23 13:02:25.389
237.0, -66423.81893680322, -96847.06888759958, 56053.43652408559, 1961.7902590978456, 84178.21188905381, 64376.287385974814, 21609.487725435225, 17357.11304630197, 0.032, 0.9540000000000001, 0.098, 192.0, 0.0, 0.0, 0.0, 0.0, 0.0, 0.0, 0.0, 0.0, 0.0, 1.6665553453891296E9, 0.0, 2022-10-23 13:02:25.389
238.0, -66339.35169450661, -96771.92232274084, 56366.76327786008, 1960.1362300081528, 83935.3601855469, 64407.333959023235, 21652.17955734486, 17189.072631486968, 0.032, 0.9540000000000001, 0.098, 192.0, 0.0, 0.0, 0.0, 0.0, 0.0, 0.0, 0.0, 0.0, 0.0, 1.6665553453891392E9, 0.0, 2022-10-23 13:02:25.389
239.0, -66277.92910074344, -96708.44336848777, 54130.35948638433, 777.4160239000349, 83725.90198825621, 63401.483106789965, 20213.218952801104, 15668.550511425796, 0.032, 0.9540000000000001, 0.098, 192.0, 0.0, 0.0, 0.0, 0.0, 0.0, 0.0, 0.0, 0.0, 0.0, 1.6665553453891497E9, 0.0, 2022-10-23 13:02:25.389
240.0, -66293.44121139542, -96723.21787157272, 53864.50783783291, 766.5307243503004, 83903.03956306454, 63363.75336214941, 20169.8118650689, 15790.12164951821, 0.034, 0.9560000000000001, 0.094, 192.0, 1.0, 16.0, 29.0, 224.0, 2.0, 240.0, 0.0, 0.0, 0.0, 1.6665553453891587E9, 0.0, 2022-10-23 13:02:25.389
241.0, -66343.53147071975, -96771.45293610728, 55618.04689384066, 1751.5050472623168, 84158.27413299968, 64192.779563996744, 21348.195832752685, 17090.2332175056, 0.034, 0.9560000000000001, 0.094, 192.0, 0.0, 0.0, 0.0, 0.0, 0.0, 0.0, 0.0, 0.0, 0.0, 1.6665553453891685E9, 0.0, 2022-10-23 13:02:25.389
242.0, -66275.13513268651, -96712.26551678963, 56705.59337205808, 2180.569133826391, 84027.13644828039, 64595.71446129256, 21904.508400500825, 17476.583120415584, 0.034, 0.9560000000000001, 0.094, 192.0, 0.0, 0.0, 0.0, 0.0, 0.0, 0.0, 0.0, 0.0, 0.0, 1.6665553453891778E9, 0.0, 2022-10-23 13:02:25.389
243.0, -66201.59789342855, -96640.98580372165, 54446.68137391584, 929.4749414294889, 83714.10026718382, 63551.10568417379, 20408.550847596034, 15827.963152881046, 0.034, 0.9560000000000001, 0.094, 192.0, 0.0, 0.0, 0.0, 0.0, 0.0, 0.0, 0.0, 0.0, 0.0, 1.666555345389187E9, 0.0, 2022-10-23 13:02:25.389
244.0, -66216.7300244248, -96654.0168707391, 53808.36025576118, 715.7252092033874, 83857.33024565343, 63338.272373470354, 20118.514611543967, 15686.208389545489, 0.034, 0.9560000000000001, 0.094, 192.0, 0.0, 0.0, 0.0, 0.0, 0.0, 0.0, 0.0, 0.0, 0.0, 1.6665553453891964E9, 0.0, 2022-10-23 13:02:25.389
245.0, -66242.90391718196, -96676.9721122947, 55181.07028973941, 1520.8573962280032, 84115.93992900132, 64010.67990191936, 21082.65710862364, 16797.961807008007, 0.034, 0.9560000000000001, 0.094, 192.0, 0.0, 0.0, 0.0, 0.0, 0.0, 0.0, 0.0, 0.0, 0.0, 1.6665553453892057E9, 0.0, 2022-10-23 13:02:25.389
246.0, -66195.89819859245, -96631.26279488359, 56854.52304536379, 2293.0431119254963, 84102.81945500606, 64686.820171692394, 22035.243753819916, 17652.089017878654, 0.034, 0.9560000000000001, 0.094, 192.0, 0.0, 0.0, 0.0, 0.0, 0.0, 0.0, 0.0, 0.0, 0.0, 1.6665553453892148E9, 0.0, 2022-10-23 13:02:25.389
247.0, -66107.09471787151, -96547.8907880653, 54775.05085170876, 1085.4901177275322, 83732.04871798142, 63677.30363336845, 20602.40752725691, 16025.26200118804, 0.034, 0.9560000000000001, 0.094, 192.0, 0.0, 0.0, 0.0, 0.0, 0.0, 0.0, 0.0, 0.0, 0.0, 1.6665553453892243E9, 0.0, 2022-10-23 13:02:25.389
248.0, -66143.32689563357, -96582.71480592666, 53772.08337451022, 677.0566912957063, 83842.71220477966, 63307.874001011136, 20075.06282032285, 15619.644894557583, 0.034, 0.9560000000000001, 0.094, 192.0, 0.0, 0.0, 0.0, 0.0, 0.0, 0.0, 0.0, 0.0, 0.0, 1.6665553453892336E9, 0.0, 2022-10-23 13:02:25.389
249.0, -66174.55228263764, -96612.28616384104, 54768.233569649885, 1296.1106057298907, 84070.1412046124, 63826.21095492971, 20817.565419383696, 16520.26373389527, 0.034, 0.9560000000000001, 0.094, 192.0, 0.0, 0.0, 0.0, 0.0, 0.0, 0.0, 0.0, 0.0, 0.0, 1.666555345389243E9, 0.0, 2022-10-23 13:02:25.389
250.0, -66162.59409935404, -96605.06655038198, 56826.225736883374, 2304.867184742354, 84147.70175787232, 64692.45281129513, 22048.051303392807, 17708.79539356177, 0.036000000000000004, 0.9540000000000001, 0.096, 192.0, 1.0, 32.0, 29.0, 208.0, 3.0, 0.0, 0.0, 0.0, 0.0, 1.666555345389252E9, 0.0, 2022-10-23 13:02:25.389
251.0, -66088.22984555124, -96534.81501755894, 55195.934199802185, 1293.2719341840666, 83748.29843620044, 63862.39842920285, 20868.505044997342, 16296.790992831111, 0.036000000000000004, 0.9540000000000001, 0.096, 192.0, 0.0, 0.0, 0.0, 0.0, 0.0, 0.0, 0.0, 0.0, 0.0, 1.6665553453892617E9, 0.0, 2022-10-23 13:02:25.389
252.0, -66084.11712457146, -96527.66245933324, 53786.7461188729, 657.163638730483, 83808.22346308512, 63298.32980612872, 20059.416599204138, 15570.314594544721, 0.036000000000000004, 0.9540000000000001, 0.096, 192.0, 0.0, 0.0, 0.0, 0.0, 0.0, 0.0, 0.0, 0.0, 0.0, 1.66655534538928E9, 0.0, 2022-10-23 13:02:25.389
253.0, -66131.81574723909, -96574.93639885621, 54397.038149480606, 1084.372530504767, 84020.07329703252, 63643.68660970767, 20566.108294261492, 16247.8853759629, 0.036000000000000004, 0.9540000000000001, 0.096, 192.0, 0.0, 0.0, 0.0, 0.0, 0.0, 0.0, 0.0, 0.0, 0.0, 1.6665553453892891E9, 0.0, 2022-10-23 13:02:25.389
254.0, -66156.11209346201, -96599.18804159023, 56635.364190979504, 2230.7935036174663, 84178.88244138747, 64621.48602264954, 21954.509252847347, 17656.35820106962, 0.036000000000000004, 0.9540000000000001, 0.096, 192.0, 0.0, 0.0, 0.0, 0.0, 0.0, 0.0, 0.0, 0.0, 0.0, 1.6665553453892996E9, 0.0, 2022-10-23 13:02:25.389
255.0, -66059.39609520389, -96512.01623821452, 55635.57066149362, 1528.6134515539948, 83801.40618102625, 64054.31050709612, 21151.94751643509, 16617.940857164962, 0.036000000000000004, 0.9540000000000001, 0.096, 192.0, 0.0, 0.0, 0.0, 0.0, 0.0, 0.0, 0.0, 0.0, 0.0, 1.6665553453893092E9, 0.0, 2022-10-23 13:02:25.389
0.0, -66064.0899615395, -96513.02206671501, 53842.73723873344, 657.3424526861254, 83766.69392188716, 63297.659253795064, 20067.105599296763, 15561.485655484876, 0.036000000000000004, 0.9540000000000001, 0.096, 192.0, 0.0, 0.0, 0.0, 0.0, 0.0, 0.0, 0.0, 0.0, 0.0, 1.6665553453893185E9, 0.0, 2022-10-23 13:02:25.389
1.0, -66100.67976721285, -96544.7391920971, 54154.20879771814, 951.75963065143, 83987.37269489441, 63534.69950374359, 20405.063975461006, 16064.8916441073, 0.036000000000000004, 0.9540000000000001, 0.096, 192.0, 0.0, 0.0, 0.0, 0.0, 0.0, 0.0, 0.0, 0.0, 0.0, 1.6665553453893275E9, 0.0, 2022-10-23 13:02:25.389
2.0, -66135.63789554095, -96584.1453175718, 56371.27833024006, 2136.178569338151, 84213.01355517072, 64545.28892580139, 21829.808870531186, 17546.924060216435, 0.036000000000000004, 0.9540000000000001, 0.096, 192.0, 0.0, 0.0, 0.0, 0.0, 0.0, 0.0, 0.0, 0.0, 0.0, 1.6665553453893368E9, 0.0, 2022-10-23 13:02:25.389
3.0, -66057.49619692519, -96513.84908125986, 56150.77837118845, 1834.519426169327, 83883.52649015504, 64324.140766160584, 21515.25277081165, 16997.451126271622, 0.036000000000000004, 0.9540000000000001, 0.096, 192.0, 0.0, 0.0, 0.0, 0.0, 0.0, 0.0, 0.0, 0.0, 0.0, 1.666555345389346E9, 0.0, 2022-10-23 13:02:25.389
4.0, -66044.97922003022, -96494.98420893958, 53999.75824353198, 718.0274388822841, 83719.04000270844, 63356.958431834995, 20143.7050275451, 15588.687728486984, 0.038, 0.9520000000000001, 0.094, 192.0, 1.0, 48.0, 29.0, 192.0, 2.0, 240.0, 0.0, 0.0, 0.0, 1.6665553453893569E9, 0.0, 2022-10-23 13:02:25.389
5.0, -66081.05493558108, -96526.83544478839, 53974.836048464305, 841.4314200200344, 83926.0618598535, 63440.50925260893, 20264.002116203563, 15876.913473238168, 0.038, 0.9520000000000001, 0.094, 192.0, 0.0, 0.0, 0.0, 0.0, 0.0, 0.0, 0.0, 0.0, 0.0, 1.6665553453893664E9, 0.0, 2022-10-23 13:02:25.389
6.0, -66122.36095933449, -96565.81688711845, 55951.13258971365, 1930.2072441824967, 84177.09430183105, 64361.42347591204, 21567.93583249281, 17280.08893490898, 0.038, 0.9520000000000001, 0.094, 192.0, 0.0, 0.0, 0.0, 0.0, 0.0, 0.0, 0.0, 0.0, 0.0, 1.6665553453893757E9, 0.0, 2022-10-23 13:02:25.389
7.0, -66051.17065324433, -96504.19312765518, 56504.74059638269, 2046.4363153500935, 83949.6653019983, 64486.92852102859, 21751.89068935999, 17272.511693538632, 0.038, 0.9520000000000001, 0.094, 192.0, 0.0, 0.0, 0.0, 0.0, 0.0, 0.0, 0.0, 0.0, 0.0, 1.6665553453893847E9, 0.0, 2022-10-23 13:02:25.389
8.0, -66025.44379537628, -96479.2262290986, 54192.1397080588, 788.5248408943226, 83684.39479880272, 63415.78822324136, 20234.989551900573, 15656.547624653296, 0.038, 0.9520000000000001, 0.094, 192.0, 0.0, 0.0, 0.0, 0.0, 0.0, 0.0, 0.0, 0.0, 0.0, 1.666555345389394E9, 0.0, 2022-10-23 13:02:25.389
9.0, -66071.86836860995, -96522.34274415288, 53825.74991294741, 729.2927180877589, 83866.0921294799, 63342.4521496835, 20133.713797773577, 15715.019788148378, 0.038, 0.9520000000000001, 0.094, 192.0, 0.0, 0.0, 0.0, 0.0, 0.0, 0.0, 0.0, 0.0, 0.0, 1.666555345389403E9, 0.0, 2022-10-23 13:02:25.389
10.0, -66098.93633114533, -96549.41070668826, 55457.22609248473, 1661.1816479184208, 84132.6590338539, 64126.305475986665, 21246.92007862569, 16965.823407867363, 0.038, 0.9520000000000001, 0.094, 192.0, 0.0, 0.0, 0.0, 0.0, 0.0, 0.0, 0.0, 0.0, 0.0, 1.6665553453894122E9, 0.0, 2022-10-23 13:02:25.389
11.0, -66057.69736262529, -96515.59251732737, 56733.80127356068, 2188.5487065969355, 84023.06843078953, 64594.26159790297, 21914.544333761256, 17498.75605091525, 0.038, 0.9520000000000001, 0.094, 192.0, 0.0, 0.0, 0.0, 0.0, 0.0, 0.0, 0.0, 0.0, 0.0, 1.6665553453894217E9, 0.0, 2022-10-23 13:02:25.389
12.0, -65998.93462645229, -96456.36039452082, 54506.69580777834, 938.8626741007179, 83694.9001186967, 63543.126111403246, 20416.128088966383, 15842.737655966004, 0.038, 0.9520000000000001, 0.094, 192.0, 0.0, 0.0, 0.0, 0.0, 0.0, 0.0, 0.0, 0.0, 0.0, 1.6665553453894396E9, 0.0, 2022-10-23 13:02:25.389
13.0, -66048.8907753099, -96505.71304627814, 53782.78986010431, 692.479394969868, 83837.75011751057, 63311.360873146165, 20080.31548026985, 15646.534043137319, 0.038, 0.9520000000000001, 0.094, 192.0, 0.0, 0.0, 0.0, 0.0, 0.0, 0.0, 0.0, 0.0, 0.0, 1.666555345389449E9, 0.0, 2022-10-23 13:02:25.389
14.0, -66080.96552860326, -96536.40199141527, 55033.973459479035, 1441.1957789892888, 84072.13050986893, 63936.785034750115, 20973.938223593024, 16690.516971411344, 0.04, 0.9480000000000001, 0.108, 192.0, 1.0, 64.0, 29.0, 160.0, 3.0, 96.0, 0.0, 0.0, 0.0, 1.6665553453894584E9, 0.0, 2022-10-23 13:02:25.389
15.0, -66061.72067662724, -96514.81020627145, 56851.036173228764, 2297.6252195388342, 84092.4482455788, 64676.627776220776, 22025.185468815027, 17665.433009318473, 0.04, 0.9480000000000001, 0.108, 192.0, 0.0, 0.0, 0.0, 0.0, 0.0, 0.0, 0.0, 0.0, 0.0, 1.666555345389469E9, 0.0, 2022-10-23 13:02:25.389
16.0, -65994.41957407231, -96452.82881889687, 54906.99319922843, 1144.2081504116238, 83705.33838335733, 63719.637837366805, 20666.847606521562, 16094.910036910778, 0.04, 0.9480000000000001, 0.108, 192.0, 0.0, 0.0, 0.0, 0.0, 0.0, 0.0, 0.0, 0.0, 0.0, 1.6665553453894784E9, 0.0, 2022-10-23 13:02:25.389
17.0, -66030.02590298963, -96487.92105769171, 53759.789915059795, 652.8497520506087, 83791.81728265493, 63275.24045410639, 20035.232011703494, 15569.778152677794, 0.04, 0.9480000000000001, 0.108, 192.0, 0.0, 0.0, 0.0, 0.0, 0.0, 0.0, 0.0, 0.0, 0.0, 1.6665553453894875E9, 0.0, 2022-10-23 13:02:25.389
18.0, -66070.77313313165, -96528.57888085592, 54601.80248043567, 1192.4208632017212, 84011.51257890613, 63717.06738675445, 20676.727077570806, 16378.061935670608, 0.04, 0.9480000000000001, 0.108, 192.0, 0.0, 0.0, 0.0, 0.0, 0.0, 0.0, 0.0, 0.0, 0.0, 1.6665553453894982E9, 0.0, 2022-10-23 13:02:25.389
