%OpenBCI Raw EEG Data
%Number of channels = 8
%Sample Rate = 250 Hz
%Board = OpenBCI_GUI$BoardCytonSerial
Sample Index, EXG Channel 0, EXG Channel 1, EXG Channel 2, EXG Channel 3, EXG Channel 4, EXG Channel 5, EXG Channel 6, EXG Channel 7, Accel Channel 0, Accel Channel 1, Accel Channel 2, Other, Other, Other, Other, Other, Other, Other, Analog Channel 0, Analog Channel 1, Analog Channel 2, Timestamp, Other, Timestamp (Formatted)
129.0, -65079.69678398333, -95109.84660504421, 57038.053219086316, 947.8704271162067, 83502.47395068097, 63118.3982632635, 20526.657465297874, 16792.597388338734, 0.036000000000000004, 0.9560000000000001, 0.11, 192.0, 1.0, 32.0, 29.0, 224.0, 3.0, 112.0, 0.0, 0.0, 0.0, 1.6665553255594485E9, 0.0, 2022-10-23 13:02:05.559
130.0, -64992.50262886318, -95026.31813601473, 55751.17388381647, 110.19410016466382, 83130.67503341139, 62445.677810392124, 19561.464436228805, 15589.402984309554, 0.036000000000000004, 0.9560000000000001, 0.11, 192.0, 0.0, 0.0, 0.0, 0.0, 0.0, 0.0, 0.0, 0.0, 0.0, 1.6665553255594792E9, 0.0, 2022-10-23 13:02:05.559
131.0, -65008.282960448625, -95038.49983674286, 54130.69476255117, -670.3511679591142, 83134.43012647989, 61765.044839983566, 18597.947787993882, 14677.764734955399, 0.036000000000000004, 0.9560000000000001, 0.11, 192.0, 0.0, 0.0, 0.0, 0.0, 0.0, 0.0, 0.0, 0.0, 0.0, 1.6665553255594947E9, 0.0, 2022-10-23 13:02:05.559
132.0, -65052.76293191468, -95080.83404074122, 54572.81226787714, -321.35103003394966, 83339.68619581297, 62043.905203807975, 19001.955569023557, 15247.667163332364, 0.036000000000000004, 0.9560000000000001, 0.11, 192.0, 0.0, 0.0, 0.0, 0.0, 0.0, 0.0, 0.0, 0.0, 0.0, 1.666555325559511E9, 0.0, 2022-10-23 13:02:05.559
133.0, -65091.118525399994, -95122.85532031719, 56825.48812931635, 878.0435774378274, 83543.22118082299, 63057.19918694487, 20423.884144292373, 16713.047529822295, 0.036000000000000004, 0.9560000000000001, 0.11, 192.0, 0.0, 0.0, 0.0, 0.0, 0.0, 0.0, 0.0, 0.0, 0.0, 1.6665553255595262E9, 0.0, 2022-10-23 13:02:05.559
134.0, -65001.01864350065, -95039.79623792127, 56245.99680256806, 397.68223734882326, 83197.79732201068, 62687.635444120824, 19891.01855647785, 15940.884165869256, 0.036000000000000004, 0.9560000000000001, 0.11, 192.0, 0.0, 0.0, 0.0, 0.0, 0.0, 0.0, 0.0, 0.0, 0.0, 1.6665553255595412E9, 0.0, 2022-10-23 13:02:05.559
135.0, -64986.22178867123, -95019.54555744477, 54248.98019420865, -623.1219319250503, 83106.04341102164, 61807.04376781509, 18646.361666484077, 14693.656825263122, 0.036000000000000004, 0.9560000000000001, 0.11, 192.0, 0.0, 0.0, 0.0, 0.0, 0.0, 0.0, 0.0, 0.0, 0.0, 1.6665553255595567E9, 0.0, 2022-10-23 13:02:05.559
136.0, -65033.227507260744, -95063.42203181054, 54363.24231186418, -436.3954587454151, 83317.8708932246, 61940.8189583801, 18851.1483491836, 15069.233187345648, 0.036000000000000004, 0.9560000000000001, 0.11, 192.0, 0.0, 0.0, 0.0, 0.0, 0.0, 0.0, 0.0, 0.0, 0.0, 1.6665553255595713E9, 0.0, 2022-10-23 13:02:05.559
137.0, -65083.51893228519, -95108.952535266, 56459.29949990506, 712.7747789352869, 83551.33486406028, 62907.286036883124, 20214.13537432377, 16515.61457104857, 0.036000000000000004, 0.9560000000000001, 0.11, 192.0, 0.0, 0.0, 0.0, 0.0, 0.0, 0.0, 0.0, 0.0, 0.0, 1.6665553255595868E9, 0.0, 2022-10-23 13:02:05.559
138.0, -65013.71443435126, -95048.82634268122, 56628.05517054262, 627.4581703493799, 83275.87196539307, 62856.36876301393, 20147.817748524874, 16240.084617147997, 0.032, 0.9580000000000001, 0.116, 192.0, 1.0, 0.0, 29.0, 240.0, 3.0, 160.0, 0.0, 0.0, 0.0, 1.666555325559602E9, 0.0, 2022-10-23 13:02:05.559
139.0, -65002.78443131262, -95038.25396755386, 54410.89623104289, -553.8315241135984, 83083.98223924426, 61858.944518440316, 18728.057292468227, 14751.324325957816, 0.032, 0.9580000000000001, 0.116, 192.0, 0.0, 0.0, 0.0, 0.0, 0.0, 0.0, 0.0, 0.0, 0.0, 1.6665553255596175E9, 0.0, 2022-10-23 13:02:05.559
140.0, -65042.59288818752, -95074.53084880482, 54193.3914057483, -544.9355298203861, 83250.3462732251, 61844.01355314417, 18716.389681862554, 14903.003263831528, 0.032, 0.9580000000000001, 0.116, 192.0, 0.0, 0.0, 0.0, 0.0, 0.0, 0.0, 0.0, 0.0, 0.0, 1.6665553255596323E9, 0.0, 2022-10-23 13:02:05.559
141.0, -65085.84351370854, -95116.44036965852, 55972.634967879654, 462.52464801366904, 83503.77035185938, 62682.0922114959, 19905.971873518454, 16217.062320359031, 0.032, 0.9580000000000001, 0.116, 192.0, 0.0, 0.0, 0.0, 0.0, 0.0, 0.0, 0.0, 0.0, 0.0, 1.666555325559647E9, 0.0, 2022-10-23 13:02:05.559
142.0, -65033.8980595944, -95069.70287200247, 56963.040764694306, 852.8084579477857, 83362.46262341292, 63043.65402980495, 20396.83853350145, 16541.497891127812, 0.032, 0.9580000000000001, 0.116, 192.0, 0.0, 0.0, 0.0, 0.0, 0.0, 0.0, 0.0, 0.0, 0.0, 1.666555325559662E9, 0.0, 2022-10-23 13:02:05.559
143.0, -64985.841809015496, -95021.75838014584, 54678.53601915074, -419.56459517056885, 83065.854974491, 61977.431115797895, 18884.184227488546, 14893.771993371487, 0.032, 0.9580000000000001, 0.116, 192.0, 0.0, 0.0, 0.0, 0.0, 0.0, 0.0, 0.0, 0.0, 0.0, 1.666555325559677E9, 0.0, 2022-10-23 13:02:05.559
144.0, -65019.592943143005, -95050.41331653754, 54094.8202127004, -605.6652195054555, 83224.48530489032, 61790.078793773515, 18633.531765166732, 14796.83247766882, 0.032, 0.9580000000000001, 0.116, 192.0, 0.0, 0.0, 0.0, 0.0, 0.0, 0.0, 0.0, 0.0, 0.0, 1.666555325559692E9, 0.0, 2022-10-23 13:02:05.559
145.0, -65081.73079272876, -95109.71249457747, 55513.485433278736, 228.1219039108639, 83474.66838057857, 62484.771011444456, 19619.377806112505, 15930.892936097734, 0.032, 0.9580000000000001, 0.116, 192.0, 0.0, 0.0, 0.0, 0.0, 0.0, 0.0, 0.0, 0.0, 0.0, 1.6665553255598412E9, 0.0, 2022-10-23 13:02:05.559
146.0, -65059.44610350682, -95092.3898926246, 57132.645801621176, 983.7673287114297, 83435.17284812604, 63150.67418225696, 20539.10738695948, 16736.427454522545, 0.032, 0.9580000000000001, 0.116, 192.0, 0.0, 0.0, 0.0, 0.0, 0.0, 0.0, 0.0, 0.0, 0.0, 1.666555325559857E9, 0.0, 2022-10-23 13:02:05.559
147.0, -64982.2878816471, -95015.72340914291, 55017.27670637092, -248.19377043172963, 83064.02213144567, 62126.405492592516, 19086.57927353135, 15097.865771992896, 0.032, 0.9580000000000001, 0.116, 192.0, 0.0, 0.0, 0.0, 0.0, 0.0, 0.0, 0.0, 0.0, 0.0, 1.6665553255598717E9, 0.0, 2022-10-23 13:02:05.559
148.0, -65011.74748083919, -95041.20439782196, 54039.54434866242, -648.7817345597427, 83194.17633940892, 61752.237290410674, 18567.90704344595, 14714.019264461907, 0.032, 0.9480000000000001, 0.114, 192.0, 1.0, 0.0, 29.0, 160.0, 3.0, 144.0, 0.0, 0.0, 0.0, 1.6665553255598865E9, 0.0, 2022-10-23 13:02:05.559
149.0, -65073.72886821376, -95103.14108170761, 55088.01997757197, 5.431473902639616, 83427.48384803341, 62301.12907899965, 19347.11120690241, 15651.317316450753, 0.032, 0.9480000000000001, 0.114, 192.0, 0.0, 0.0, 0.0, 0.0, 0.0, 0.0, 0.0, 0.0, 0.0, 1.666555325559902E9, 0.0, 2022-10-23 13:02:05.559
150.0, -65071.82896993506, -95101.17412819555, 57109.087062965285, 1006.8343289893066, 83486.04541850631, 63160.5089498173, 20551.4008464099, 16807.48365014597, 0.032, 0.9480000000000001, 0.114, 192.0, 0.0, 0.0, 0.0, 0.0, 0.0, 0.0, 0.0, 0.0, 0.0, 1.6665553255599174E9, 0.0, 2022-10-23 13:02:05.559
151.0, -64990.62508232893, -95022.40658073504, 55418.44581585477, -35.449866706117, 83103.7635330872, 62308.14752675862, 19340.092759143445, 15371.652289825952, 0.032, 0.9480000000000001, 0.114, 192.0, 0.0, 0.0, 0.0, 0.0, 0.0, 0.0, 0.0, 0.0, 0.0, 1.6665553255599437E9, 0.0, 2022-10-23 13:02:05.559
152.0, -65021.53754491062, -95049.31808105923, 54044.23821499803, -671.0440720372286, 83150.97041737681, 61744.905918229335, 18549.891537414973, 14666.27593830537, 0.032, 0.9480000000000001, 0.114, 192.0, 0.0, 0.0, 0.0, 0.0, 0.0, 0.0, 0.0, 0.0, 0.0, 1.6665553255599585E9, 0.0, 2022-10-23 13:02:05.559
153.0, -65063.223548319766, -95088.16541292256, 54699.792528127735, -216.67781074974667, 83358.84164081117, 62110.468698795885, 19084.50056129701, 15367.785438035184, 0.032, 0.9480000000000001, 0.114, 192.0, 0.0, 0.0, 0.0, 0.0, 0.0, 0.0, 0.0, 0.0, 0.0, 1.6665553255599732E9, 0.0, 2022-10-23 13:02:05.559
154.0, -65084.07772589657, -95113.33347717923, 56905.39561574407, 924.1999297380364, 83507.97247981698, 63070.3867161735, 20445.76650211412, 16746.41868429407, 0.032, 0.9480000000000001, 0.114, 192.0, 0.0, 0.0, 0.0, 0.0, 0.0, 0.0, 0.0, 0.0, 0.0, 1.6665553255599875E9, 0.0, 2022-10-23 13:02:05.559
155.0, -65010.60754187198, -95039.75153443236, 55841.67609711601, 195.9800953841323, 83143.39317600646, 62490.358947558285, 19614.59453279907, 15681.045136576313, 0.032, 0.9480000000000001, 0.114, 192.0, 0.0, 0.0, 0.0, 0.0, 0.0, 0.0, 0.0, 0.0, 0.0, 1.6665553255600023E9, 0.0, 2022-10-23 13:02:05.560
156.0, -65024.555030412084, -95048.13343860311, 54108.499480307044, -649.9663770158741, 83126.49525719826, 61767.43647664029, 18576.37835459451, 14676.445982032536, 0.032, 0.9480000000000001, 0.114, 192.0, 0.0, 0.0, 0.0, 0.0, 0.0, 0.0, 0.0, 0.0, 0.0, 1.666555325560017E9, 0.0, 2022-10-23 13:02:05.560
157.0, -65061.43540876334, -95080.3423023632, 54438.36652497847, -355.7056612617566, 83333.02537596528, 62003.96263646634, 18919.499983727932, 15186.177514335814, 0.032, 0.9480000000000001, 0.114, 192.0, 0.0, 0.0, 0.0, 0.0, 0.0, 0.0, 0.0, 0.0, 0.0, 1.666555325560032E9, 0.0, 2022-10-23 13:02:05.560
158.0, -65102.093231927545, -95118.42967491504, 56638.2699177587, 821.4713122214451, 83542.68473895607, 62995.84364841505, 20321.669616898253, 16648.428636602002, 0.036000000000000004, 0.9480000000000001, 0.116, 192.0, 1.0, 32.0, 29.0, 160.0, 3.0, 160.0, 0.0, 0.0, 0.0, 1.666555325560047E9, 0.0, 2022-10-23 13:02:05.560
159.0, -65020.28584722112, -95049.04986012577, 56325.81488201796, 482.88708721245376, 83223.52417987873, 62741.257279069105, 19957.537347976846, 16050.407713700262, 0.036000000000000004, 0.9480000000000001, 0.116, 192.0, 0.0, 0.0, 0.0, 0.0, 0.0, 0.0, 0.0, 0.0, 0.0, 1.666555325560063E9, 0.0, 2022-10-23 13:02:05.560
160.0, -64999.16344871086, -95030.31909827223, 54226.49433928661, -608.8391672181091, 83091.98416375926, 61805.54620093659, 18634.73875936732, 14701.43523233357, 0.036000000000000004, 0.9480000000000001, 0.116, 192.0, 0.0, 0.0, 0.0, 0.0, 0.0, 0.0, 0.0, 0.0, 0.0, 1.6665553255600777E9, 0.0, 2022-10-23 13:02:05.560
161.0, -65049.99131560222, -95075.33551160521, 54253.89757798881, -463.75399395871096, 83296.14499761403, 61916.96964704629, 18795.403098512066, 15028.821233370452, 0.036000000000000004, 0.9480000000000001, 0.116, 192.0, 0.0, 0.0, 0.0, 0.0, 0.0, 0.0, 0.0, 0.0, 0.0, 1.6665553255601368E9, 0.0, 2022-10-23 13:02:05.560
162.0, -65100.81918249359, -95125.29166046283, 56261.3300992644, 641.6515280784998, 83521.29411951234, 62853.30657402356, 20113.977207419543, 16441.40677945695, 0.036000000000000004, 0.9480000000000001, 0.116, 192.0, 0.0, 0.0, 0.0, 0.0, 0.0, 0.0, 0.0, 0.0, 0.0, 1.6665553255601516E9, 0.0, 2022-10-23 13:02:05.560
163.0, -65030.32178048156, -95063.57849402171, 56724.61470658955, 717.0886656151612, 83281.57166022916, 62947.921508302876, 20239.23638334708, 16370.395287322437, 0.036000000000000004, 0.9480000000000001, 0.116, 192.0, 0.0, 0.0, 0.0, 0.0, 0.0, 0.0, 0.0, 0.0, 0.0, 1.6665553255601664E9, 0.0, 2022-10-23 13:02:05.560
164.0, -64996.79416379859, -95030.49791222786, 54431.99627780871, -531.0550965136405, 83056.64605577542, 61888.20295193231, 18744.016438009316, 14788.316463031348, 0.036000000000000004, 0.9480000000000001, 0.116, 192.0, 0.0, 0.0, 0.0, 0.0, 0.0, 0.0, 0.0, 0.0, 0.0, 1.6665553255601814E9, 0.0, 2022-10-23 13:02:05.560
165.0, -65041.38589398693, -95070.6863487585, 54125.39739911526, -558.2795212602045, 83256.22478201686, 61846.18167235633, 18690.439306549946, 14893.101441037828, 0.036000000000000004, 0.9480000000000001, 0.116, 192.0, 0.0, 0.0, 0.0, 0.0, 0.0, 0.0, 0.0, 0.0, 0.0, 1.6665553255601964E9, 0.0, 2022-10-23 13:02:05.560
166.0, -65089.442144565845, -95117.37914292564, 55792.88223897007, 392.18370821281775, 83494.67319186607, 62644.45187383317, 19823.762157411835, 16152.510482372105, 0.036000000000000004, 0.9480000000000001, 0.116, 192.0, 0.0, 0.0, 0.0, 0.0, 0.0, 0.0, 0.0, 0.0, 0.0, 1.6665553255602107E9, 0.0, 2022-10-23 13:02:05.560
167.0, -65054.5063679822, -95088.32187513374, 56984.297273671305, 887.2971996423245, 83374.53256541879, 63084.66948088044, 20441.56437415652, 16622.634723500578, 0.036000000000000004, 0.9480000000000001, 0.116, 192.0, 0.0, 0.0, 0.0, 0.0, 0.0, 0.0, 0.0, 0.0, 0.0, 1.666555325560223E9, 0.0, 2022-10-23 13:02:05.560
168.0, -64995.81068704256, -95032.48721748439, 54740.74092396986, -378.5714958395357, 83059.14945115442, 62027.901354777976, 18940.823547938293, 14965.699907028666, 0.036000000000000004, 0.9520000000000001, 0.10400000000000001, 192.0, 1.0, 32.0, 29.0, 192.0, 3.0, 64.0, 0.0, 0.0, 0.0, 1.6665553255602322E9, 0.0, 2022-10-23 13:02:05.560
169.0, -65027.25959149118, -95057.27530208533, 54033.755246848494, -632.0179262182625, 83210.0907814611, 61787.50834316115, 18609.01190149926, 14782.348547261781, 0.036000000000000004, 0.9520000000000001, 0.10400000000000001, 192.0, 0.0, 0.0, 0.0, 0.0, 0.0, 0.0, 0.0, 0.0, 0.0, 1.6665553255602412E9, 0.0, 2022-10-23 13:02:05.560
170.0, -65088.324557343076, -95114.6522301021, 55315.38192217135, 128.2543096845519, 83444.67233951954, 62424.153080481665, 19517.72207232977, 15843.318801321842, 0.036000000000000004, 0.9520000000000001, 0.10400000000000001, 192.0, 0.0, 0.0, 0.0, 0.0, 0.0, 0.0, 0.0, 0.0, 0.0, 1.6665553255602498E9, 0.0, 2022-10-23 13:02:05.560
171.0, -65070.48786526774, -95102.62699158514, 57075.91707419361, 958.3980987546562, 83432.82591495823, 63144.840376954126, 20530.591372322007, 16767.384620593148, 0.036000000000000004, 0.9520000000000001, 0.10400000000000001, 192.0, 0.0, 0.0, 0.0, 0.0, 0.0, 0.0, 0.0, 0.0, 0.0, 1.6665553255602584E9, 0.0, 2022-10-23 13:02:05.560
172.0, -64982.91373049185, -95017.75741788834, 55066.80817208388, -232.36873535737223, 83065.96673321328, 62154.90396677303, 19132.15448047572, 15173.302909529557, 0.036000000000000004, 0.9520000000000001, 0.10400000000000001, 192.0, 0.0, 0.0, 0.0, 0.0, 0.0, 0.0, 0.0, 0.0, 0.0, 1.6665553255602684E9, 0.0, 2022-10-23 13:02:05.560
173.0, -65026.61139090198, -95058.0352613968, 53965.24715009298, -702.8282526526752, 83175.15500487745, 61731.74074074516, 18538.00040936475, 14697.501325309435, 0.036000000000000004, 0.9520000000000001, 0.10400000000000001, 192.0, 0.0, 0.0, 0.0, 0.0, 0.0, 0.0, 0.0, 0.0, 0.0, 1.6665553255602767E9, 0.0, 2022-10-23 13:02:05.560
174.0, -65074.84645543653, -95102.87286077415, 54867.587073753726, -124.3651061493285, 83393.0398098278, 62210.64921744457, 19228.289333377998, 15548.521643700797, 0.036000000000000004, 0.9520000000000001, 0.10400000000000001, 192.0, 0.0, 0.0, 0.0, 0.0, 0.0, 0.0, 0.0, 0.0, 0.0, 1.666555325560286E9, 0.0, 2022-10-23 13:02:05.560
175.0, -65081.90960668441, -95110.18188121103, 56980.586884091725, 941.8354561132737, 83491.83452032025, 63119.113519086066, 20506.45148831028, 16802.789783810353, 0.036000000000000004, 0.9520000000000001, 0.10400000000000001, 192.0, 0.0, 0.0, 0.0, 0.0, 0.0, 0.0, 0.0, 0.0, 0.0, 1.6665553255602944E9, 0.0, 2022-10-23 13:02:05.560
176.0, -65009.69112034931, -95040.64560421057, 55495.20170631429, 1.721084323058644, 83104.88112030998, 62357.50017851594, 19419.039120559588, 15481.06407893468, 0.036000000000000004, 0.9520000000000001, 0.10400000000000001, 192.0, 0.0, 0.0, 0.0, 0.0, 0.0, 0.0, 0.0, 0.0, 0.0, 1.6665553255603116E9, 0.0, 2022-10-23 13:02:05.560
177.0, -65031.30525723759, -95058.66111024155, 53991.51044982797, -708.5502992332339, 83124.75182113073, 61737.574546047996, 18541.62139196651, 14668.913444151098, 0.036000000000000004, 0.9520000000000001, 0.106, 192.0, 1.0, 32.0, 29.0, 192.0, 3.0, 80.0, 0.0, 0.0, 0.0, 1.6665553255603204E9, 0.0, 2022-10-23 13:02:05.560
178.0, -65073.68416472485, -95100.50357586189, 54556.38373570249, -290.2597534966175, 83345.58705634918, 62082.350204271104, 19035.77375838444, 15324.691274725352, 0.036000000000000004, 0.9520000000000001, 0.106, 192.0, 0.0, 0.0, 0.0, 0.0, 0.0, 0.0, 0.0, 0.0, 0.0, 1.6665553255603297E9, 0.0, 2022-10-23 13:02:05.560
179.0, -65093.64427252344, -95125.76104709638, 56810.28894308674, 897.5119468583998, 83527.64201493765, 63091.79968736169, 20453.299039995556, 16769.709202016496, 0.036000000000000004, 0.9520000000000001, 0.106, 192.0, 0.0, 0.0, 0.0, 0.0, 0.0, 0.0, 0.0, 0.0, 0.0, 1.6665553255603385E9, 0.0, 2022-10-23 13:02:05.560
180.0, -65011.211038972266, -95050.79329619328, 55980.748651116926, 282.1907737482517, 83169.79058620818, 62599.7260331781, 19757.109255446107, 15838.51317626395, 0.036000000000000004, 0.9520000000000001, 0.106, 192.0, 0.0, 0.0, 0.0, 0.0, 0.0, 0.0, 0.0, 0.0, 0.0, 1.6665553255603478E9, 0.0, 2022-10-23 13:02:05.560
181.0, -65024.33151296753, -95059.35401431967, 54105.3702360833, -658.5717986311673, 83114.15709425892, 61791.263436229645, 18609.86126778856, 14703.826868990287, 0.036000000000000004, 0.9520000000000001, 0.106, 192.0, 0.0, 0.0, 0.0, 0.0, 0.0, 0.0, 0.0, 0.0, 0.0, 1.6665553255603564E9, 0.0, 2022-10-23 13:02:05.560
182.0, -65069.41498153389, -95097.93312524953, 54305.26188674711, -440.1282000694514, 83301.39765756103, 61958.49918824425, 18865.96755575747, 15126.341894428957, 0.036000000000000004, 0.9520000000000001, 0.106, 192.0, 0.0, 0.0, 0.0, 0.0, 0.0, 0.0, 0.0, 0.0, 0.0, 1.6665553255603647E9, 0.0, 2022-10-23 13:02:05.560
183.0, -65104.99895870674, -95133.11477102218, 56448.48125558868, 714.7417324473539, 83523.90927361361, 62935.22571745226, 20246.970086928617, 16585.307310260214, 0.036000000000000004, 0.9520000000000001, 0.106, 192.0, 0.0, 0.0, 0.0, 0.0, 0.0, 0.0, 0.0, 0.0, 0.0, 1.6665553255603733E9, 0.0, 2022-10-23 13:02:05.560
184.0, -65028.17601301384, -95067.60180802367, 56404.604781222915, 514.4477503833474, 83231.39199392701, 62799.79649779755, 20050.140625255182, 16169.050773269031, 0.036000000000000004, 0.9520000000000001, 0.106, 192.0, 0.0, 0.0, 0.0, 0.0, 0.0, 0.0, 0.0, 0.0, 0.0, 1.666555325560382E9, 0.0, 2022-10-23 13:02:05.560
185.0, -65012.261570961666, -95043.79720017877, 54217.084254870926, -641.1821414449385, 83063.01630294518, 61812.922276606834, 18653.335410754135, 14723.384645388682, 0.036000000000000004, 0.9520000000000001, 0.106, 192.0, 0.0, 0.0, 0.0, 0.0, 0.0, 0.0, 0.0, 0.0, 0.0, 1.6665553255603914E9, 0.0, 2022-10-23 13:02:05.560
186.0, -65058.08264709505, -95084.43267159852, 54111.76283499752, -566.035576586196, 83261.72331115286, 61854.78709397162, 18723.072853454694, 14961.900110471262, 0.036000000000000004, 0.9520000000000001, 0.106, 192.0, 0.0, 0.0, 0.0, 0.0, 0.0, 0.0, 0.0, 0.0, 0.0, 1.6665553255604E9, 0.0, 2022-10-23 13:02:05.560
187.0, -65111.61507506551, -95132.958308811, 56020.870032414205, 503.0036572222301, 83510.11824728468, 62761.664421756795, 19997.636377529667, 16344.601374221013, 0.038, 0.9540000000000001, 0.112, 192.0, 1.0, 48.0, 29.0, 208.0, 3.0, 128.0, 0.0, 0.0, 0.0, 1.6665553255604086E9, 0.0, 2022-10-23 13:02:05.560
188.0, -65049.14194931292, -95079.22471514043, 56757.82939885013, 731.8855204445745, 83309.3101750982, 62986.299453532636, 20308.34797720289, 16472.20748331636, 0.038, 0.9540000000000001, 0.112, 192.0, 0.0, 0.0, 0.0, 0.0, 0.0, 0.0, 0.0, 0.0, 0.0, 1.666555325560418E9, 0.0, 2022-10-23 13:02:05.560
189.0, -65008.14884998189, -95041.9867088779, 54443.70859190328, -547.1483525214616, 83041.15629686789, 61904.519725384685, 18783.1319908061, 14836.037437443429, 0.038, 0.9540000000000001, 0.112, 192.0, 0.0, 0.0, 0.0, 0.0, 0.0, 0.0, 0.0, 0.0, 0.0, 1.6665553255604265E9, 0.0, 2022-10-23 13:02:05.560
190.0, -65044.068103321566, -95072.2956743593, 54006.26260116847, -642.5232461122569, 83229.31328169267, 61800.070023545035, 18640.68432339243, 14850.119036450273, 0.038, 0.9540000000000001, 0.112, 192.0, 0.0, 0.0, 0.0, 0.0, 0.0, 0.0, 0.0, 0.0, 0.0, 1.6665553255604348E9, 0.0, 2022-10-23 13:02:05.560
191.0, -65098.13697315896, -95124.50934940689, 55541.93920397034, 248.4172878762827, 83476.16594745708, 62546.75239881902, 19701.006376863286, 16049.468940433138, 0.038, 0.9540000000000001, 0.112, 192.0, 0.0, 0.0, 0.0, 0.0, 0.0, 0.0, 0.0, 0.0, 0.0, 1.6665553255604436E9, 0.0, 2022-10-23 13:02:05.560
192.0, -65068.54326350013, -95099.20717468348, 56952.758962244865, 872.5897517907324, 83398.02424884132, 63095.17480077444, 20469.213482047737, 16692.796849345785, 0.038, 0.9540000000000001, 0.112, 192.0, 0.0, 0.0, 0.0, 0.0, 0.0, 0.0, 0.0, 0.0, 0.0, 1.66655532556047E9, 0.0, 2022-10-23 13:02:05.560
193.0, -65007.858277303974, -95041.83024666671, 54769.84289525067, -378.593847583991, 83054.63439877443, 62052.42121844545, 18989.37153689522, 15039.058332330982, 0.038, 0.9540000000000001, 0.112, 192.0, 0.0, 0.0, 0.0, 0.0, 0.0, 0.0, 0.0, 0.0, 0.0, 1.66655532556048E9, 0.0, 2022-10-23 13:02:05.560
194.0, -65039.84362361952, -95072.76506099285, 53925.77396938491, -705.577517220678, 83183.3357433481, 61748.348086875456, 18565.940089933883, 14754.475921926014, 0.038, 0.9540000000000001, 0.112, 192.0, 0.0, 0.0, 0.0, 0.0, 0.0, 0.0, 0.0, 0.0, 0.0, 1.6665553255604887E9, 0.0, 2022-10-23 13:02:05.560
195.0, -65088.74924048773, -95116.48507314743, 55065.10943950528, -10.259450704985941, 83420.0854206187, 62326.85593686771, 19392.284082446586, 15739.673762282582, 0.038, 0.9540000000000001, 0.112, 192.0, 0.0, 0.0, 0.0, 0.0, 0.0, 0.0, 0.0, 0.0, 0.0, 1.6665553255604973E9, 0.0, 2022-10-23 13:02:05.560
196.0, -65085.41883056389, -95117.33443943673, 56984.632549838134, 926.2339384834694, 83459.2009734155, 63136.92785941695, 20526.25513389768, 16810.14350773615, 0.038, 0.9540000000000001, 0.112, 192.0, 0.0, 0.0, 0.0, 0.0, 0.0, 0.0, 0.0, 0.0, 0.0, 1.6665553255605059E9, 0.0, 2022-10-23 13:02:05.560
197.0, -65005.28782669161, -95042.41139202255, 55140.90420495322, -186.9946941130989, 83071.06293094909, 62221.42275827203, 19226.32237986593, 15295.07521332207, 0.04, 0.9580000000000001, 0.108, 192.0, 1.0, 64.0, 29.0, 240.0, 3.0, 96.0, 0.0, 0.0, 0.0, 1.6665553255605145E9, 0.0, 2022-10-23 13:02:05.560
198.0, -65036.73673114023, -95067.6912150015, 53910.798300599854, -726.3869913085689, 83158.81587968062, 61747.05168569704, 18547.678714713897, 14716.589715074268, 0.04, 0.9580000000000001, 0.108, 192.0, 0.0, 0.0, 0.0, 0.0, 0.0, 0.0, 0.0, 0.0, 0.0, 1.6665553255605235E9, 0.0, 2022-10-23 13:02:05.560
199.0, -65077.752182215714, -95104.90686951959, 54659.604091597095, -227.33959285492813, 83368.60935313813, 62160.96128952042, 19142.570393391896, 15474.91734920947, 0.04, 0.9580000000000001, 0.108, 192.0, 0.0, 0.0, 0.0, 0.0, 0.0, 0.0, 0.0, 0.0, 0.0, 1.666555325560532E9, 0.0, 2022-10-23 13:02:05.560
200.0, -65092.95136844533, -95122.56474763928, 56824.57170779368, 883.9891414629391, 83498.04830527882, 63111.558629460174, 20472.81211290504, 16800.621664598188, 0.04, 0.9580000000000001, 0.108, 192.0, 0.0, 0.0, 0.0, 0.0, 0.0, 0.0, 0.0, 0.0, 0.0, 1.666555325560541E9, 0.0, 2022-10-23 13:02:05.560
201.0, -65007.45594590378, -95044.40069727907, 55539.56991905808, 41.26132026449684, 83112.88304482496, 62426.14238573818, 19498.924255242855, 15595.683824501495, 0.04, 0.9580000000000001, 0.108, 192.0, 0.0, 0.0, 0.0, 0.0, 0.0, 0.0, 0.0, 0.0, 0.0, 1.6665553255605493E9, 0.0, 2022-10-23 13:02:05.560
202.0, -65023.5492019116, -95056.09065962919, 53934.26763227792, -716.4628167704126, 83136.2182660363, 61772.06328774253, 18555.971211906817, 14703.782165501378, 0.04, 0.9580000000000001, 0.108, 192.0, 0.0, 0.0, 0.0, 0.0, 0.0, 0.0, 0.0, 0.0, 0.0, 1.6665553255605583E9, 0.0, 2022-10-23 13:02:05.560
203.0, -65067.85035942202, -95099.52009910585, 54356.3803263164, -374.50347834866983, 83327.83977125166, 62048.50966316577, 18954.346353333756, 15263.760419340184, 0.04, 0.9580000000000001, 0.108, 192.0, 0.0, 0.0, 0.0, 0.0, 0.0, 0.0, 0.0, 0.0, 0.0, 1.666555325560567E9, 0.0, 2022-10-23 13:02:05.560
204.0, -65113.425566366386, -95145.6093961727, 56544.48199802423, 781.5510966242667, 83515.8626456097, 63017.122509136505, 20330.006817580084, 16690.136991755604, 0.04, 0.9580000000000001, 0.108, 192.0, 0.0, 0.0, 0.0, 0.0, 0.0, 0.0, 0.0, 0.0, 0.0, 1.6665553255605752E9, 0.0, 2022-10-23 13:02:05.560
205.0, -65036.937896840325, -95077.190706395, 55994.383215234666, 316.7018671872458, 83176.04907465566, 62658.60052807338, 19814.508535207337, 15939.833633879858, 0.04, 0.9580000000000001, 0.108, 192.0, 0.0, 0.0, 0.0, 0.0, 0.0, 0.0, 0.0, 0.0, 0.0, 1.6665553255605838E9, 0.0, 2022-10-23 13:02:05.560
206.0, -65029.248896747704, -95063.22086611044, 53980.423984578134, -715.5687469922003, 83074.41569261739, 61767.86115978494, 18558.273441585712, 14674.791952942844, 0.048, 0.9560000000000001, 0.106, 192.0, 1.0, 128.0, 29.0, 224.0, 3.0, 80.0, 0.0, 0.0, 0.0, 1.6665553255605924E9, 0.0, 2022-10-23 13:02:05.560
207.0, -65067.04569662162, -95096.63672407111, 54051.4578284571, -561.0511375726626, 83268.78646240073, 61875.86478899298, 18731.588868092163, 15019.947590821695, 0.048, 0.9560000000000001, 0.106, 192.0, 0.0, 0.0, 0.0, 0.0, 0.0, 0.0, 0.0, 0.0, 0.0, 1.6665553255606017E9, 0.0, 2022-10-23 13:02:05.560
208.0, -65108.597589564044, -95138.12156178016, 56118.23423126152, 573.3893005119921, 83518.25428226641, 62830.01605630113, 20080.78486690341, 16466.6866024359, 0.048, 0.9560000000000001, 0.106, 192.0, 0.0, 0.0, 0.0, 0.0, 0.0, 0.0, 0.0, 0.0, 0.0, 1.6665553255606189E9, 0.0, 2022-10-23 13:02:05.560
209.0, -65039.731864897236, -95076.36369185016, 56370.94305407323, 543.6391286419783, 83268.54059321173, 62836.69922789327, 20081.187198303604, 16260.759980769157, 0.048, 0.9560000000000001, 0.106, 192.0, 0.0, 0.0, 0.0, 0.0, 0.0, 0.0, 0.0, 0.0, 0.0, 1.6665553255606277E9, 0.0, 2022-10-23 13:02:05.560
210.0, -65018.117728008954, -95055.95654916247, 54140.99891674506, -644.1549234574942, 83067.3525413695, 61827.2944482916, 18647.792178129217, 14750.989049790986, 0.048, 0.9560000000000001, 0.106, 192.0, 0.0, 0.0, 0.0, 0.0, 0.0, 0.0, 0.0, 0.0, 0.0, 1.666555325560636E9, 0.0, 2022-10-23 13:02:05.560
211.0, -65052.941745870325, -95088.61244781167, 53900.09181500576, -640.9809757448406, 83249.36279646907, 61801.52288693463, 18626.803890085685, 14895.224856761082, 0.048, 0.9560000000000001, 0.106, 192.0, 0.0, 0.0, 0.0, 0.0, 0.0, 0.0, 0.0, 0.0, 0.0, 1.6665553255606444E9, 0.0, 2022-10-23 13:02:05.560
212.0, -65112.017406465704, -95147.97868108496, 55672.24987414478, 362.0759084315191, 83501.37871520266, 62645.01066744455, 19821.862259133133, 16214.178945324296, 0.048, 0.9560000000000001, 0.106, 192.0, 0.0, 0.0, 0.0, 0.0, 0.0, 0.0, 0.0, 0.0, 0.0, 1.6665553255606532E9, 0.0, 2022-10-23 13:02:05.560
213.0, -65070.46551352329, -95111.63474460063, 56678.50305777825, 750.5939305536665, 83339.97676849089, 63002.772689196194, 20318.048634296494, 16546.012943507783, 0.048, 0.9560000000000001, 0.106, 192.0, 0.0, 0.0, 0.0, 0.0, 0.0, 0.0, 0.0, 0.0, 0.0, 1.6665553255606616E9, 0.0, 2022-10-23 13:02:05.560
214.0, -65016.21782973026, -95057.90115093008, 54383.448288851774, -531.9715180363081, 83039.45756428929, 61922.80345234912, 18790.75393566536, 14880.360946698303, 0.048, 0.9560000000000001, 0.106, 192.0, 0.0, 0.0, 0.0, 0.0, 0.0, 0.0, 0.0, 0.0, 0.0, 1.6665553255606704E9, 0.0, 2022-10-23 13:02:05.560
215.0, -65051.71239992529, -95088.45598560048, 53791.462336952965, -715.9710783923958, 83206.31333664815, 61735.607592535926, 18538.916830887418, 14781.40977399466, 0.048, 0.9560000000000001, 0.106, 192.0, 0.0, 0.0, 0.0, 0.0, 0.0, 0.0, 0.0, 0.0, 0.0, 1.66655532556068E9, 0.0, 2022-10-23 13:02:05.560
216.0, -65108.06114769711, -95138.32272748026, 55193.274342212004, 112.22810891009676, 83452.98718845691, 62428.064635761344, 19526.77452883417, 15912.273932966464, 0.042, 0.9560000000000001, 0.106, 192.0, 1.0, 80.0, 29.0, 224.0, 3.0, 80.0, 0.0, 0.0, 0.0, 1.6665553255606885E9, 0.0, 2022-10-23 13:02:05.560
217.0, -65083.273063096174, -95118.65319235959, 56847.05756271572, 885.9337432305507, 83428.37791781162, 63110.68691142642, 20472.14156057138, 16750.821977951764, 0.042, 0.9560000000000001, 0.106, 192.0, 0.0, 0.0, 0.0, 0.0, 0.0, 0.0, 0.0, 0.0, 0.0, 1.6665553255606976E9, 0.0, 2022-10-23 13:02:05.560
218.0, -65010.47343140524, -95050.39096479309, 54757.951767200444, -335.65614648534614, 83056.86957321997, 62095.73889919984, 19033.069197305347, 15119.681074581275, 0.042, 0.9560000000000001, 0.106, 192.0, 0.0, 0.0, 0.0, 0.0, 0.0, 0.0, 0.0, 0.0, 0.0, 1.666555325560706E9, 0.0, 2022-10-23 13:02:05.560
219.0, -65042.48112946524, -95078.21888663995, 53781.627569392636, -730.1197326326052, 83188.52134806172, 61731.24900236714, 18522.063615568117, 14732.995895504464, 0.042, 0.9560000000000001, 0.106, 192.0, 0.0, 0.0, 0.0, 0.0, 0.0, 0.0, 0.0, 0.0, 0.0, 1.6665553255607147E9, 0.0, 2022-10-23 13:02:05.560
220.0, -65090.15740038841, -95129.02440178685, 54808.22084048043, -81.29329458395179, 83426.16509511055, 62271.37890712964, 19288.236712007132, 15657.508749664874, 0.042, 0.9560000000000001, 0.106, 192.0, 0.0, 0.0, 0.0, 0.0, 0.0, 0.0, 0.0, 0.0, 0.0, 1.6665553255607233E9, 0.0, 2022-10-23 13:02:05.560
221.0, -65093.37605158998, -95134.12059952266, 56863.44139140146, 944.6741276590977, 83496.55073840031, 63154.6080892811, 20523.885848985417, 16845.347505253256, 0.042, 0.9560000000000001, 0.106, 192.0, 0.0, 0.0, 0.0, 0.0, 0.0, 0.0, 0.0, 0.0, 0.0, 1.6665553255607328E9, 0.0, 2022-10-23 13:02:05.560
222.0, -65013.11093725097, -95052.26851132733, 55193.63197012329, -94.19025113466397, 83097.43798940635, 62296.41286091958, 19315.282322798055, 15407.48213618781, 0.042, 0.9560000000000001, 0.106, 192.0, 0.0, 0.0, 0.0, 0.0, 0.0, 0.0, 0.0, 0.0, 0.0, 1.6665553255607414E9, 0.0, 2022-10-23 13:02:05.560
223.0, -65041.92233585386, -95076.92248546153, 53807.22031679396, -727.6386889980661, 83160.60401923706, 61733.01479017911, 18519.4708132113, 14697.121345653695, 0.042, 0.9560000000000001, 0.106, 192.0, 0.0, 0.0, 0.0, 0.0, 0.0, 0.0, 0.0, 0.0, 0.0, 1.6665553255607584E9, 0.0, 2022-10-23 13:02:05.560
224.0, -65090.492676555245, -95121.11188424968, 54460.45004850031, -268.60091311942494, 83374.28669622978, 62109.060538895195, 19059.712476696073, 15402.788269852195, 0.042, 0.9560000000000001, 0.106, 192.0, 0.0, 0.0, 0.0, 0.0, 0.0, 0.0, 0.0, 0.0, 0.0, 1.6665553255607667E9, 0.0, 2022-10-23 13:02:05.560
225.0, -65112.35268263253, -95143.53068393836, 56694.372796341515, 890.8958304996289, 83528.49138122695, 63093.07373679564, 20445.542984669566, 16798.43119364157, 0.042, 0.9560000000000001, 0.106, 192.0, 0.0, 0.0, 0.0, 0.0, 0.0, 0.0, 0.0, 0.0, 0.0, 1.6665553255607755E9, 0.0, 2022-10-23 13:02:05.560
226.0, -65021.984579799726, -95059.3316625752, 55657.564778037646, 168.0627665594538, 83151.46215575482, 62508.62032277827, 19619.891896234978, 15731.247154622932, 0.048, 0.9500000000000001, 0.108, 192.0, 1.0, 128.0, 29.0, 176.0, 3.0, 96.0, 0.0, 0.0, 0.0, 1.666555325560784E9, 0.0, 2022-10-23 13:02:05.560
227.0, -65027.572515913555, -95062.59501726569, 53887.35132066624, -705.0187236092954, 83125.44472520886, 61751.58908982147, 18545.398836779455, 14688.80649671632, 0.048, 0.9500000000000001, 0.108, 192.0, 0.0, 0.0, 0.0, 0.0, 0.0, 0.0, 0.0, 0.0, 0.0, 1.666555325560793E9, 0.0, 2022-10-23 13:02:05.560
228.0, -65074.04179263613, -95109.13134922163, 54198.33114127292, -427.52181619665816, 83321.38011710407, 61968.28925231568, 18865.83344529074, 15181.10366834446, 0.048, 0.9500000000000001, 0.108, 192.0, 0.0, 0.0, 0.0, 0.0, 0.0, 0.0, 0.0, 0.0, 0.0, 1.6665553255608015E9, 0.0, 2022-10-23 13:02:05.560
229.0, -65122.098043215046, -95158.2604835344, 56415.713598217204, 761.5015818478563, 83544.0705471123, 62973.38014523747, 20283.91752051324, 16658.710439051443, 0.048, 0.9500000000000001, 0.108, 192.0, 0.0, 0.0, 0.0, 0.0, 0.0, 0.0, 0.0, 0.0, 0.0, 1.66655532556081E9, 0.0, 2022-10-23 13:02:05.560
230.0, -65043.03992307663, -95086.93606697752, 56195.95124673263, 475.26514235319405, 83231.19082822691, 62770.04632592754, 19981.185493610563, 16115.317179598473, 0.048, 0.9500000000000001, 0.108, 192.0, 0.0, 0.0, 0.0, 0.0, 0.0, 0.0, 0.0, 0.0, 0.0, 1.6665553255608184E9, 0.0, 2022-10-23 13:02:05.560
231.0, -65031.08173979304, -95070.06049991376, 54084.85133467333, -632.8672925075641, 83075.28741065114, 61820.052483088075, 18640.25964024778, 14738.315610684826, 0.048, 0.9500000000000001, 0.108, 192.0, 0.0, 0.0, 0.0, 0.0, 0.0, 0.0, 0.0, 0.0, 0.0, 1.6665553255608268E9, 0.0, 2022-10-23 13:02:05.560
232.0, -65077.752182215714, -95109.84660504421, 54055.74936339252, -531.2786139581935, 83266.17130829947, 61885.29722515312, 18750.587850879176, 15015.857221586373, 0.048, 0.9500000000000001, 0.108, 192.0, 0.0, 0.0, 0.0, 0.0, 0.0, 0.0, 0.0, 0.0, 0.0, 1.6665553255608356E9, 0.0, 2022-10-23 13:02:05.560
233.0, -65128.64710434045, -95160.89798938013, 56039.64549775666, 567.9801783538078, 83520.60121543423, 62813.02873051509, 20062.098808538773, 16426.274648460705, 0.048, 0.9500000000000001, 0.108, 192.0, 0.0, 0.0, 0.0, 0.0, 0.0, 0.0, 0.0, 0.0, 0.0, 1.666555325560844E9, 0.0, 2022-10-23 13:02:05.560
234.0, -65063.33530704204, -95103.02932298534, 56569.11362041398, 685.1256710440721, 83296.86025343661, 62941.21598496628, 20238.945810669164, 16404.235828427773, 0.048, 0.9500000000000001, 0.108, 192.0, 0.0, 0.0, 0.0, 0.0, 0.0, 0.0, 0.0, 0.0, 0.0, 1.6665553255608523E9, 0.0, 2022-10-23 13:02:05.560
235.0, -65032.44519620481, -95070.8428109697, 54310.44749146074, -541.2251402408052, 83061.22816338876, 61910.15236498742, 18771.173807522515, 14835.165719409672, 0.042, 0.9500000000000001, 0.11, 192.0, 1.0, 80.0, 29.0, 176.0, 3.0, 112.0, 0.0, 0.0, 0.0, 1.6665553255608609E9, 0.0, 2022-10-23 13:02:05.560
236.0, -65069.59379548953, -95103.76693055236, 53977.87588571023, -588.1638035969501, 83238.92453180844, 61855.45764630529, 18693.4120885625, 14910.267580779504, 0.042, 0.9500000000000001, 0.11, 192.0, 0.0, 0.0, 0.0, 0.0, 0.0, 0.0, 0.0, 0.0, 0.0, 1.6665553255608723E9, 0.0, 2022-10-23 13:02:05.560
237.0, -65115.75014778974, -95150.23620727494, 55611.989571093276, 342.5181320331254, 83475.8530230347, 62636.472301062626, 19803.01973855731, 16147.213118936197, 0.042, 0.9500000000000001, 0.11, 192.0, 0.0, 0.0, 0.0, 0.0, 0.0, 0.0, 0.0, 0.0, 0.0, 1.6665553255608807E9, 0.0, 2022-10-23 13:02:05.560
238.0, -65075.91933917038, -95118.83200631524, 56860.51331287782, 870.2428186229251, 83364.34016994717, 63107.55766720267, 20457.612926675432, 16659.403343129557, 0.042, 0.9500000000000001, 0.11, 192.0, 0.0, 0.0, 0.0, 0.0, 0.0, 0.0, 0.0, 0.0, 0.0, 1.666555325560889E9, 0.0, 2022-10-23 13:02:05.560
239.0, -65019.57059139855, -95063.22086611044, 54603.21064033636, -414.915432323865, 83034.74134620922, 62027.74489256679, 18930.541745488852, 14975.378212377813, 0.042, 0.9500000000000001, 0.11, 192.0, 0.0, 0.0, 0.0, 0.0, 0.0, 0.0, 0.0, 0.0, 0.0, 1.6665553255609066E9, 0.0, 2022-10-23 13:02:05.560
240.0, -65064.92228089837, -95104.57159335275, 53873.58264608177, -679.8506593526196, 83185.4368073269, 61777.40535466735, 18584.648500042975, 14770.30095700037, 0.042, 0.9500000000000001, 0.11, 192.0, 0.0, 0.0, 0.0, 0.0, 0.0, 0.0, 0.0, 0.0, 0.0, 1.666555325560915E9, 0.0, 2022-10-23 13:02:05.560
241.0, -65111.59272332105, -95149.94563459702, 55133.10344613832, 75.99593114804401, 83425.40513579907, 62406.338740150786, 19483.546255057605, 15817.189612053588, 0.042, 0.9500000000000001, 0.11, 192.0, 0.0, 0.0, 0.0, 0.0, 0.0, 0.0, 0.0, 0.0, 0.0, 1.6665553255609233E9, 0.0, 2022-10-23 13:02:05.560
242.0, -65086.60347302002, -95131.66190763259, 56948.95916568747, 950.6420434286647, 83454.52945882434, 63166.70038303142, 20542.3483899055, 16793.960844750505, 0.042, 0.9500000000000001, 0.11, 192.0, 0.0, 0.0, 0.0, 0.0, 0.0, 0.0, 0.0, 0.0, 0.0, 1.666555325560932E9, 0.0, 2022-10-23 13:02:05.560
243.0, -65010.42872791633, -95059.37636606413, 55007.12901438821, -199.08698786342, 83086.59739334552, 62222.16036583905, 19191.386603282288, 15237.430064371832, 0.042, 0.9500000000000001, 0.11, 192.0, 0.0, 0.0, 0.0, 0.0, 0.0, 0.0, 0.0, 0.0, 0.0, 1.6665553255609405E9, 0.0, 2022-10-23 13:02:05.560
244.0, -65048.82902489055, -95091.0934914462, 53889.65355034513, -679.448327952424, 83179.1336153905, 61795.42086069833, 18586.01195645475, 14740.573136874813, 0.042, 0.9500000000000001, 0.11, 192.0, 0.0, 0.0, 0.0, 0.0, 0.0, 0.0, 0.0, 0.0, 0.0, 1.666555325560949E9, 0.0, 2022-10-23 13:02:05.560
245.0, -65087.65400500942, -95125.71634360748, 54772.63686330758, -115.46911185611629, 83402.53930122129, 62269.724878039946, 19268.991860031114, 15582.161019106034, 0.04, 0.9500000000000001, 0.11, 192.0, 1.0, 64.0, 29.0, 176.0, 3.0, 112.0, 0.0, 0.0, 0.0, 1.6665553255609577E9, 0.0, 2022-10-23 13:02:05.560
246.0, -65098.13697315896, -95139.32855598076, 56891.64929290406, 942.3271944912905, 83497.42245643407, 63175.01523196879, 20548.942154519817, 16841.99474358496, 0.04, 0.9500000000000001, 0.11, 192.0, 0.0, 0.0, 0.0, 0.0, 0.0, 0.0, 0.0, 0.0, 0.0, 1.6665553255609667E9, 0.0, 2022-10-23 13:02:05.560
247.0, -65026.56668741306, -95072.63095052612, 55417.328228632, -3.643334346215051, 83096.76743707269, 62396.325158634805, 19450.398618030384, 15514.658750851006, 0.04, 0.9500000000000001, 0.11, 192.0, 0.0, 0.0, 0.0, 0.0, 0.0, 0.0, 0.0, 0.0, 0.0, 1.6665553255609753E9, 0.0, 2022-10-23 13:02:05.560
248.0, -65041.72117015376, -95084.07504368723, 53890.48056488998, -721.7378284618651, 83130.69738515584, 61767.12355221791, 18556.44059854038, 14686.14663912614, 0.04, 0.9500000000000001, 0.11, 192.0, 0.0, 0.0, 0.0, 0.0, 0.0, 0.0, 0.0, 0.0, 0.0, 1.666555325560984E9, 0.0, 2022-10-23 13:02:05.560
249.0, -65078.86976943848, -95123.01178252838, 54415.45598691177, -327.74362894816744, 83347.3751959056, 62089.547465985714, 19020.082833776814, 15317.404606032922, 0.04, 0.9500000000000001, 0.11, 192.0, 0.0, 0.0, 0.0, 0.0, 0.0, 0.0, 0.0, 0.0, 0.0, 1.6665553255609927E9, 0.0, 2022-10-23 13:02:05.560
250.0, -65114.36433963351, -95157.72404166748, 56659.74994418025, 852.8531614366963, 83531.68768068406, 63094.079565296124, 20431.70725485173, 16762.5566437908, 0.04, 0.9500000000000001, 0.11, 192.0, 0.0, 0.0, 0.0, 0.0, 0.0, 0.0, 0.0, 0.0, 0.0, 1.666555325561001E9, 0.0, 2022-10-23 13:02:05.561
251.0, -65032.71341713827, -95080.76698550786, 55880.81400165725, 265.27050319558424, 83166.95191466235, 62626.77164396902, 19766.407581139516, 15858.56269104036, 0.04, 0.9500000000000001, 0.11, 192.0, 0.0, 0.0, 0.0, 0.0, 0.0, 0.0, 0.0, 0.0, 0.0, 1.6665553255610096E9, 0.0, 2022-10-23 13:02:05.561
0.0, 0.0, 0.0, 0.0, 0.0, 0.0, 0.0, 0.0, 0.0, 0.046, 0.9560000000000001, 0.116, 192.0, 1.0, 112.0, 29.0, 224.0, 3.0, 160.0, 0.0, 0.0, 0.0, 1.6665553256687727E9, 0.0, 2022-10-23 13:02:05.668
1.0, -65258.756608814794, -95348.07149744887, 54632.15614940598, -308.8340531389777, 83177.74780723426, 62520.31028512839, 19163.78219887998, 15011.096300017394, 0.046, 0.9560000000000001, 0.116, 192.0, 0.0, 0.0, 0.0, 0.0, 0.0, 0.0, 0.0, 0.0, 0.0, 1.6665553261501112E9, 0.0, 2022-10-23 13:02:06.150
2.0, -65295.50287669932, -95377.75461408551, 54277.03163350006, -373.4082428703598, 83352.31493143021, 62443.2861737354, 19062.394686030708, 15067.713268722686, 0.046, 0.9560000000000001, 0.116, 192.0, 0.0, 0.0, 0.0, 0.0, 0.0, 0.0, 0.0, 0.0, 0.0, 1.6665553261501744E9, 0.0, 2022-10-23 13:02:06.150
3.0, -65345.81665346822, -95427.91192864323, 55917.35910384168, 567.8013643981653, 83600.01696348393, 63241.69048567898, 20191.314243234905, 16325.580039689547, 0.046, 0.9560000000000001, 0.116, 192.0, 0.0, 0.0, 0.0, 0.0, 0.0, 0.0, 0.0, 0.0, 0.0, 1.666555326150381E9, 0.0, 2022-10-23 13:02:06.150
4.0, -65308.64570243904, -95398.47468119558, 57143.21817674854, 1075.3200740003674, 83474.51191836738, 63693.88862775429, 20829.97063755639, 16824.76154860992, 0.046, 0.9560000000000001, 0.116, 192.0, 0.0, 0.0, 0.0, 0.0, 0.0, 0.0, 0.0, 0.0, 0.0, 1.666555326150428E9, 0.0, 2022-10-23 13:02:06.150
5.0, -65251.2017191889, -95341.72360202356, 54887.34601585222, -211.58161301393665, 83153.94319938937, 62602.09531809036, 19290.24836900811, 15139.194147490758, 0.046, 0.9560000000000001, 0.116, 192.0, 0.0, 0.0, 0.0, 0.0, 0.0, 0.0, 0.0, 0.0, 0.0, 1.6665553261504488E9, 0.0, 2022-10-23 13:02:06.150
6.0, -65292.82066736468, -95376.07823325136, 54170.592626403886, -463.26225558069416, 83312.4617710664, 62361.232919839975, 18952.021771910404, 14953.071171411417, 0.046, 0.9560000000000001, 0.116, 192.0, 0.0, 0.0, 0.0, 0.0, 0.0, 0.0, 0.0, 0.0, 0.0, 1.66655532615046E9, 0.0, 2022-10-23 13:02:06.150
7.0, -65342.77681622229, -95419.48532098357, 55412.656714040844, 285.4541284387265, 83554.91114317311, 62985.248921543236, 19846.73975071189, 16004.8772102448, 0.052000000000000005, 0.9540000000000001, 0.11800000000000001, 192.0, 1.0, 160.0, 29.0, 208.0, 3.0, 176.0, 0.0, 0.0, 0.0, 1.6665553261504712E9, 0.0, 2022-10-23 13:02:06.150
8.0, -65333.54554576225, -95413.04801858045, 57243.53280586396, 1171.2090577136348, 83578.08990217328, 63757.30052677399, 20927.84892652618, 16999.775707694975, 0.052000000000000005, 0.9540000000000001, 0.11800000000000001, 192.0, 0.0, 0.0, 0.0, 0.0, 0.0, 0.0, 0.0, 0.0, 0.0, 1.6665553261504831E9, 0.0, 2022-10-23 13:02:06.150
9.0, -65254.48742562383, -95338.9519857111, 55313.7055413372, 19.80364558740206, 83191.91881321893, 62798.3212826635, 19566.471226986796, 15430.370322510043, 0.052000000000000005, 0.9540000000000001, 0.11800000000000001, 192.0, 0.0, 0.0, 0.0, 0.0, 0.0, 0.0, 0.0, 0.0, 0.0, 1.6665553261504943E9, 0.0, 2022-10-23 13:02:06.150
10.0, -65285.891626583536, -95370.46794539309, 54211.71983620165, -451.54994148611325, 83295.13916911354, 62375.80625722483, 18963.868196471714, 14933.647505479754, 0.052000000000000005, 0.9540000000000001, 0.11800000000000001, 192.0, 0.0, 0.0, 0.0, 0.0, 0.0, 0.0, 0.0, 0.0, 0.0, 1.6665553261505055E9, 0.0, 2022-10-23 13:02:06.150
11.0, -65336.987714408366, -95422.5251582295, 55079.70512863459, 103.53328031698231, 83507.43603795004, 62840.11904479493, 19631.85007951857, 15760.170311948099, 0.052000000000000005, 0.9540000000000001, 0.11800000000000001, 192.0, 0.0, 0.0, 0.0, 0.0, 0.0, 0.0, 0.0, 0.0, 0.0, 1.6665553261505165E9, 0.0, 2022-10-23 13:02:06.150
12.0, -65338.93231617598, -95427.10726584283, 57220.9575439641, 1189.2916189779783, 83619.79825732688, 63768.163474579276, 20941.885822044114, 17050.067132719414, 0.052000000000000005, 0.9540000000000001, 0.11800000000000001, 192.0, 0.0, 0.0, 0.0, 0.0, 0.0, 0.0, 0.0, 0.0, 0.0, 1.6665553261505277E9, 0.0, 2022-10-23 13:02:06.150
13.0, -65249.14535869901, -95341.72360202356, 55780.29820684173, 265.181096217763, 83228.59802587009, 63006.348968309045, 19861.134274141106, 15738.39971284863, 0.052000000000000005, 0.9540000000000001, 0.11800000000000001, 192.0, 0.0, 0.0, 0.0, 0.0, 0.0, 0.0, 0.0, 0.0, 0.0, 1.6665553261505387E9, 0.0, 2022-10-23 13:02:06.150
14.0, -65281.1083532701, -95373.8654105503, 54234.339801590424, -476.71800574278905, 83240.13152600903, 62349.63236446767, 18935.41442578011, 14878.751621097521, 0.052000000000000005, 0.9540000000000001, 0.11800000000000001, 192.0, 0.0, 0.0, 0.0, 0.0, 0.0, 0.0, 0.0, 0.0, 0.0, 1.6665553261505492E9, 0.0, 2022-10-23 13:02:06.150
15.0, -65331.332723061176, -95421.25110879555, 54733.34249655515, -105.65669604023648, 83440.62667377313, 62646.664696534244, 19376.54845435005, 15489.244817405322, 0.052000000000000005, 0.9540000000000001, 0.11800000000000001, 192.0, 0.0, 0.0, 0.0, 0.0, 0.0, 0.0, 0.0, 0.0, 0.0, 1.6665553261505604E9, 0.0, 2022-10-23 13:02:06.150
16.0, -65360.41234259753, -95441.8817689278, 56977.882323012636, 1077.7117106570854, 83633.87985633372, 63653.923708668204, 20800.39927964202, 16948.366695447767, 0.052000000000000005, 0.9540000000000001, 0.11800000000000001, 192.0, 0.0, 0.0, 0.0, 0.0, 0.0, 0.0, 0.0, 0.0, 0.0, 1.666555326150571E9, 0.0, 2022-10-23 13:02:06.150
17.0, -65287.25508299531, -95369.28330293695, 56244.83451185638, 516.8393870400652, 83285.9078986535, 63213.50493592083, 20166.23558595605, 16070.971318599144, 0.05, 0.9560000000000001, 0.116, 192.0, 1.0, 144.0, 29.0, 224.0, 3.0, 160.0, 0.0, 0.0, 0.0, 1.6665553261505823E9, 0.0, 2022-10-23 13:02:06.150
18.0, -65271.87708281006, -95352.58654982883, 54365.05280316506, -426.2924702516163, 83231.68256660493, 62400.68374880359, 19001.597941112275, 14910.178173801682, 0.05, 0.9560000000000001, 0.116, 192.0, 0.0, 0.0, 0.0, 0.0, 0.0, 0.0, 0.0, 0.0, 0.0, 1.6665553261506927E9, 0.0, 2022-10-23 13:02:06.150
19.0, -65312.22198155189, -95396.08304453887, 54528.48875862226, -227.89838646631082, 83417.58202523971, 62548.026448252975, 19230.010417701058, 15308.910943139905, 0.05, 0.9560000000000001, 0.116, 192.0, 0.0, 0.0, 0.0, 0.0, 0.0, 0.0, 0.0, 0.0, 0.0, 1.666555326150704E9, 0.0, 2022-10-23 13:02:06.150
20.0, -65352.67863901599, -95441.1218096163, 56658.18532206838, 925.8539588277291, 83642.66409190466, 63529.51389902996, 20616.869105919493, 16774.090143929738, 0.05, 0.9560000000000001, 0.116, 192.0, 0.0, 0.0, 0.0, 0.0, 0.0, 0.0, 0.0, 0.0, 0.0, 1.666555326150715E9, 0.0, 2022-10-23 13:02:06.150
21.0, -65292.798315620224, -95387.09764326783, 56674.2785780762, 750.5045235758453, 83341.02730048029, 63407.94276093755, 20448.113435281924, 16390.690671287855, 0.05, 0.9560000000000001, 0.116, 192.0, 0.0, 0.0, 0.0, 0.0, 0.0, 0.0, 0.0, 0.0, 0.0, 1.666555326150726E9, 0.0, 2022-10-23 13:02:06.150
22.0, -65277.59912939062, -95364.63414009025, 54500.482022819764, -399.58213562752434, 83178.12778689, 62423.527231636916, 19047.463720734566, 14933.468691524113, 0.05, 0.9560000000000001, 0.116, 192.0, 0.0, 0.0, 0.0, 0.0, 0.0, 0.0, 0.0, 0.0, 0.0, 1.666555326150737E9, 0.0, 2022-10-23 13:02:06.150
23.0, -65309.33860651715, -95393.15496601522, 54362.549407786064, -348.3295855915053, 83365.65892287003, 62446.169548770136, 19091.764878244983, 15142.368095203412, 0.05, 0.9560000000000001, 0.116, 192.0, 0.0, 0.0, 0.0, 0.0, 0.0, 0.0, 0.0, 0.0, 0.0, 1.666555326150748E9, 0.0, 2022-10-23 13:02:06.150
24.0, -65359.04888618576, -95440.71947821611, 56233.83745358437, 706.6056974656221, 83629.11893476475, 63340.88752757163, 20353.11852134687, 16519.101443183594, 0.05, 0.9560000000000001, 0.116, 192.0, 0.0, 0.0, 0.0, 0.0, 0.0, 0.0, 0.0, 0.0, 0.0, 1.6665553261507587E9, 0.0, 2022-10-23 13:02:06.150
25.0, -65311.28320828477, -95400.39693121874, 57041.74125692144, 978.3582065532454, 83435.01638591486, 63599.72072836408, 20713.76391813325, 16700.083518038216, 0.05, 0.9560000000000001, 0.116, 192.0, 0.0, 0.0, 0.0, 0.0, 0.0, 0.0, 0.0, 0.0, 0.0, 1.6665553261507697E9, 0.0, 2022-10-23 13:02:06.150
26.0, -65261.52822512725, -95356.02871847496, 54734.5718425002, -306.3306577599833, 83151.23863831027, 62506.496907055014, 19169.906576860736, 15039.393608497812, 0.05, 0.9560000000000001, 0.116, 192.0, 0.0, 0.0, 0.0, 0.0, 0.0, 0.0, 0.0, 0.0, 0.0, 1.6665553261507804E9, 0.0, 2022-10-23 13:02:06.150
27.0, -65299.81676337919, -95396.68654163917, 54248.08612443044, -436.90954886788717, 83328.89030324106, 62368.20666411003, 18983.694193803574, 15012.236238984615, 0.058, 0.9560000000000001, 0.126, 192.0, 1.0, 208.0, 29.0, 224.0, 3.0, 240.0, 0.0, 0.0, 0.0, 1.6665553261507936E9, 0.0, 2022-10-23 13:02:06.150
28.0, -65377.64553757257, -95463.38414709379, 55760.7627821878, 443.7938861601217, 83573.93247770458, 63114.82198415065, 20042.49632865147, 16202.578389951992, 0.058, 0.9560000000000001, 0.126, 192.0, 0.0, 0.0, 0.0, 0.0, 0.0, 0.0, 0.0, 0.0, 0.0, 1.6665553261508052E9, 0.0, 2022-10-23 13:02:06.150
29.0, -65329.34341780465, -95414.81380639241, 57247.60082335482, 1115.8437866978393, 83516.17557003208, 63710.831250051415, 20874.718829955917, 16909.497011839987, 0.058, 0.9560000000000001, 0.126, 192.0, 0.0, 0.0, 0.0, 0.0, 0.0, 0.0, 0.0, 0.0, 0.0, 1.666555326150816E9, 0.0, 2022-10-23 13:02:06.150
30.0, -65261.46116989388, -95349.79258177192, 55091.59625668482, -131.6964783306692, 83165.36494080603, 62664.09905720939, 19392.731117335694, 15245.946079009305, 0.058, 0.9560000000000001, 0.126, 192.0, 0.0, 0.0, 0.0, 0.0, 0.0, 0.0, 0.0, 0.0, 0.0, 1.666555326150827E9, 0.0, 2022-10-23 13:02:06.150
31.0, -65296.19578077743, -95382.69434961014, 54225.98024916414, -471.7335667292556, 83296.77084645878, 62346.86074815521, 18951.08299864328, 14937.424950292701, 0.058, 0.9560000000000001, 0.126, 192.0, 0.0, 0.0, 0.0, 0.0, 0.0, 0.0, 0.0, 0.0, 0.0, 1.666555326150838E9, 0.0, 2022-10-23 13:02:06.150
32.0, -65345.68254300148, -95435.04213512447, 55369.808419920024, 236.7273255261571, 83537.47678249798, 62944.59109837903, 19797.856485588134, 15934.53627044395, 0.058, 0.9560000000000001, 0.126, 192.0, 0.0, 0.0, 0.0, 0.0, 0.0, 0.0, 0.0, 0.0, 0.0, 1.6665553261508489E9, 0.0, 2022-10-23 13:02:06.150
33.0, -65348.4765110584, -95440.16068460474, 57330.279926095005, 1197.9193923377268, 83578.11225391773, 63778.713497962184, 20966.450389200498, 17037.46074884662, 0.058, 0.9560000000000001, 0.126, 192.0, 0.0, 0.0, 0.0, 0.0, 0.0, 0.0, 0.0, 0.0, 0.0, 1.6665553261508596E9, 0.0, 2022-10-23 13:02:06.150
34.0, -65261.7517425718, -95358.17448594267, 55539.52521556917, 102.43804483867227, 83185.54856604917, 62872.462019021754, 19676.978251573833, 15528.874460324581, 0.058, 0.9560000000000001, 0.126, 192.0, 0.0, 0.0, 0.0, 0.0, 0.0, 0.0, 0.0, 0.0, 0.0, 1.6665553261508849E9, 0.0, 2022-10-23 13:02:06.150
35.0, -65291.2113417639, -95383.3201984549, 54251.23772039863, -481.83655522305435, 83256.6494651615, 62347.8665766557, 18937.0684548698, 14887.737022368554, 0.058, 0.9560000000000001, 0.126, 192.0, 0.0, 0.0, 0.0, 0.0, 0.0, 0.0, 0.0, 0.0, 0.0, 1.6665553261508963E9, 0.0, 2022-10-23 13:02:06.150
36.0, -65342.41918831101, -95427.80016992094, 54975.85892389523, 4.492700635516719, 83481.39625565962, 62746.26406982709, 19519.219639208277, 15634.732322064916, 0.058, 0.9560000000000001, 0.126, 192.0, 0.0, 0.0, 0.0, 0.0, 0.0, 0.0, 0.0, 0.0, 0.0, 1.6665553261509063E9, 0.0, 2022-10-23 13:02:06.150
37.0, -65361.1275984201, -95443.04405963946, 57183.540723745915, 1144.3869643672663, 83645.63687391722, 63725.18106999172, 20896.489429055386, 17010.146917122238, 0.064, 0.9520000000000001, 0.126, 192.0, 2.0, 0.0, 29.0, 192.0, 3.0, 240.0, 0.0, 0.0, 0.0, 1.6665553261509168E9, 0.0, 2022-10-23 13:02:06.150
38.0, -65281.53303641475, -95367.31634942489, 55993.44444196754, 347.32375709101643, 83261.43273847493, 63084.42361169143, 19977.475104030982, 15848.862033946758, 0.064, 0.9520000000000001, 0.126, 192.0, 0.0, 0.0, 0.0, 0.0, 0.0, 0.0, 0.0, 0.0, 0.0, 1.6665553261509275E9, 0.0, 2022-10-23 13:02:06.150
39.0, -65283.56704516018, -95370.93733202665, 54305.91008733631, -478.6179040214901, 83242.23258998783, 62358.975393649984, 18948.64665849765, 14868.358059925802, 0.064, 0.9520000000000001, 0.126, 192.0, 0.0, 0.0, 0.0, 0.0, 0.0, 0.0, 0.0, 0.0, 0.0, 1.6665553261509376E9, 0.0, 2022-10-23 13:02:06.150
40.0, -65331.10920561662, -95421.29581228446, 54692.77408036877, -159.45734494416058, 83446.7957552428, 62615.126385107804, 19323.328950801962, 15413.897086846482, 0.064, 0.9520000000000001, 0.126, 192.0, 0.0, 0.0, 0.0, 0.0, 0.0, 0.0, 0.0, 0.0, 0.0, 1.6665553261509476E9, 0.0, 2022-10-23 13:02:06.150
41.0, -65357.99835419636, -95444.92160617371, 56923.52288049732, 1030.9965647454935, 83654.08583332133, 63628.6662374337, 20754.041761641714, 16896.644758778188, 0.064, 0.9520000000000001, 0.126, 192.0, 0.0, 0.0, 0.0, 0.0, 0.0, 0.0, 0.0, 0.0, 0.0, 1.666555326150958E9, 0.0, 2022-10-23 13:02:06.150
42.0, -65285.39988820552, -95374.7594803285, 56418.50756627412, 574.842163901587, 83300.34712557163, 63266.076238879716, 20247.774749729007, 16163.529892388571, 0.064, 0.9520000000000001, 0.126, 192.0, 0.0, 0.0, 0.0, 0.0, 0.0, 0.0, 0.0, 0.0, 0.0, 1.666555326150968E9, 0.0, 2022-10-23 13:02:06.150
43.0, -65261.550576871705, -95349.14438118272, 54409.55512637558, -452.64517696442334, 83217.95859550936, 62381.55065554985, 18987.583397338796, 14893.347310226836, 0.064, 0.9520000000000001, 0.126, 192.0, 0.0, 0.0, 0.0, 0.0, 0.0, 0.0, 0.0, 0.0, 0.0, 1.666555326150978E9, 0.0, 2022-10-23 13:02:06.150
44.0, -65309.27155128379, -95397.267686995, 54490.87077270398, -282.8836778263662, 83422.56646425325, 62509.51439255648, 19178.1767223092, 15252.383381412434, 0.064, 0.9520000000000001, 0.126, 192.0, 0.0, 0.0, 0.0, 0.0, 0.0, 0.0, 0.0, 0.0, 0.0, 1.666555326150988E9, 0.0, 2022-10-23 13:02:06.150
45.0, -65371.252938658356, -95460.07608891441, 56548.30414632609, 845.9464724000064, 83649.1908012856, 63470.14766575667, 20534.68174155733, 16695.16613425805, 0.064, 0.9520000000000001, 0.126, 192.0, 0.0, 0.0, 0.0, 0.0, 0.0, 0.0, 0.0, 0.0, 0.0, 1.6665553261509984E9, 0.0, 2022-10-23 13:02:06.150
46.0, -65303.840077381145, -95392.41735844819, 56884.16145851153, 857.7481934724085, 83398.11365581914, 63514.582933733815, 20588.102410805514, 16538.480405626346, 0.064, 0.9460000000000001, 0.122, 192.0, 2.0, 0.0, 29.0, 144.0, 3.0, 208.0, 0.0, 0.0, 0.0, 1.6665553261510088E9, 0.0, 2022-10-23 13:02:06.151
47.0, -65298.02862382277, -95383.09668101033, 54636.02300119674, -361.22654214221745, 83175.71379848884, 62477.81961891885, 19118.922247758182, 14984.497724115578, 0.064, 0.9460000000000001, 0.122, 192.0, 0.0, 0.0, 0.0, 0.0, 0.0, 0.0, 0.0, 0.0, 0.0, 1.6665553261510196E9, 0.0, 2022-10-23 13:02:06.151
48.0, -65319.32983628868, -95402.29682949744, 54378.44149809379, -368.49085909019226, 83365.0777775142, 62450.23756626101, 19087.652157265205, 15114.450766378734, 0.064, 0.9460000000000001, 0.122, 192.0, 0.0, 0.0, 0.0, 0.0, 0.0, 0.0, 0.0, 0.0, 0.0, 1.666555326151031E9, 0.0, 2022-10-23 13:02:06.151
49.0, -65367.09551418967, -95445.99448990756, 56105.739606111005, 613.488330064813, 83619.35122243778, 63276.961538429445, 20263.264508636537, 16414.808203555134, 0.064, 0.9460000000000001, 0.122, 192.0, 0.0, 0.0, 0.0, 0.0, 0.0, 0.0, 0.0, 0.0, 0.0, 1.666555326151041E9, 0.0, 2022-10-23 13:02:06.151
50.0, -65326.862374170116, -95407.46008246661, 57171.582540462325, 1035.399858403189, 83476.34476141272, 63657.54469126996, 20799.30404416371, 16795.860743029207, 0.064, 0.9460000000000001, 0.122, 192.0, 0.0, 0.0, 0.0, 0.0, 0.0, 0.0, 0.0, 0.0, 0.0, 1.6665553261510615E9, 0.0, 2022-10-23 13:02:06.151
51.0, -65259.605975104096, -95340.49425607851, 54923.33232442526, -221.32697359645053, 83186.7332085053, 62599.34605352236, 19290.091906796923, 15147.28547898358, 0.064, 0.9460000000000001, 0.122, 192.0, 0.0, 0.0, 0.0, 0.0, 0.0, 0.0, 0.0, 0.0, 0.0, 1.666555326151072E9, 0.0, 2022-10-23 13:02:06.151
52.0, -65306.14230706004, -95387.72349211258, 54297.72934886567, -431.8133511320771, 83331.50545734233, 62392.77123126641, 19007.498801648475, 15013.242067485104, 0.064, 0.9460000000000001, 0.122, 192.0, 0.0, 0.0, 0.0, 0.0, 0.0, 0.0, 0.0, 0.0, 0.0, 1.6665553261510823E9, 0.0, 2022-10-23 13:02:06.151
53.0, -65350.823444226204, -95435.26565256903, 55665.656109530464, 381.6113330854575, 83580.10155917425, 63076.332280198614, 19978.883263931664, 16128.102377426909, 0.064, 0.9460000000000001, 0.122, 192.0, 0.0, 0.0, 0.0, 0.0, 0.0, 0.0, 0.0, 0.0, 0.0, 1.6665553261510923E9, 0.0, 2022-10-23 13:02:06.151
54.0, -65333.38908355106, -95419.99941110605, 57338.05833316545, 1163.5871128543752, 83553.90531467264, 63758.48516923013, 20938.28719118681, 16983.101306331315, 0.064, 0.9460000000000001, 0.122, 192.0, 0.0, 0.0, 0.0, 0.0, 0.0, 0.0, 0.0, 0.0, 0.0, 1.6665553261511023E9, 0.0, 2022-10-23 13:02:06.151
55.0, -65273.19583573292, -95360.94610225513, 55282.278988633036, -50.000852346521896, 83171.15404261995, 62744.76650294859, 19500.511229099182, 15346.797149991651, 0.064, 0.9460000000000001, 0.122, 192.0, 0.0, 0.0, 0.0, 0.0, 0.0, 0.0, 0.0, 0.0, 0.0, 1.6665553261511126E9, 0.0, 2022-10-23 13:02:06.151
56.0, -65305.315292515195, -95392.30559972592, 54290.24151447314, -455.34973804351546, 83299.81068370471, 62377.48263805898, 18976.049897199857, 14942.00705790604, 0.05, 0.9500000000000001, 0.12, 192.0, 1.0, 144.0, 29.0, 176.0, 3.0, 192.0, 0.0, 0.0, 0.0, 1.6665553261511228E9, 0.0, 2022-10-23 13:02:06.151
57.0, -65353.617412283114, -95450.30837658745, 55272.82420072844, 161.29018798949576, 83529.43015449407, 62897.18304838933, 19720.362987561584, 15839.407246042163, 0.05, 0.9500000000000001, 0.12, 192.0, 0.0, 0.0, 0.0, 0.0, 0.0, 0.0, 0.0, 0.0, 0.0, 1.6665553261511335E9, 0.0, 2022-10-23 13:02:06.151
58.0, -65342.35213307764, -95444.98866140709, 57343.914490212745, 1194.007837058048, 83611.05872524485, 63791.34223357943, 20976.86630211667, 17049.97772574159, 0.05, 0.9500000000000001, 0.12, 192.0, 0.0, 0.0, 0.0, 0.0, 0.0, 0.0, 0.0, 0.0, 0.0, 1.6665553261511447E9, 0.0, 2022-10-23 13:02:06.151
59.0, -65246.08316970863, -95347.37859337075, 55731.727866140354, 183.01608360005423, 83229.87207530404, 62955.878729328964, 19793.743764608356, 15640.208499456467, 0.05, 0.9500000000000001, 0.12, 192.0, 0.0, 0.0, 0.0, 0.0, 0.0, 0.0, 0.0, 0.0, 0.0, 1.6665553261511548E9, 0.0, 2022-10-23 13:02:06.151
60.0, -65284.72933587186, -95378.73809084155, 54320.48342472118, -471.10771788450694, 83281.88458465155, 62376.052126413844, 18972.85359774275, 14897.169458528693, 0.05, 0.9500000000000001, 0.12, 192.0, 0.0, 0.0, 0.0, 0.0, 0.0, 0.0, 0.0, 0.0, 0.0, 1.6665553261511652E9, 0.0, 2022-10-23 13:02:06.151
61.0, -65337.188880108464, -95438.75252470405, 54936.3186879538, -37.126247540265034, 83480.2563166924, 62731.93660163124, 19491.682290039338, 15576.483676014386, 0.05, 0.9500000000000001, 0.12, 192.0, 0.0, 0.0, 0.0, 0.0, 0.0, 0.0, 0.0, 0.0, 0.0, 1.6665553261511753E9, 0.0, 2022-10-23 13:02:06.151
62.0, -65348.36475233612, -95453.14704813327, 57173.12481082974, 1125.4103333247106, 83642.28411224892, 63722.789433335005, 20892.533170286795, 16994.008957625505, 0.05, 0.9500000000000001, 0.12, 192.0, 0.0, 0.0, 0.0, 0.0, 0.0, 0.0, 0.0, 0.0, 0.0, 1.6665553261511855E9, 0.0, 2022-10-23 13:02:06.151
63.0, -65259.2036437039, -95361.0578609774, 56215.866651042306, 442.31867102607146, 83271.401616502, 63169.69551678843, 20107.6963672276, 15972.891863929257, 0.05, 0.9500000000000001, 0.12, 192.0, 0.0, 0.0, 0.0, 0.0, 0.0, 0.0, 0.0, 0.0, 0.0, 1.6665553261511955E9, 0.0, 2022-10-23 13:02:06.151
64.0, -65265.66329785148, -95356.81102953089, 54415.07600725604, -451.6840519528451, 83234.40947942848, 62389.55258006485, 19000.882685289704, 14890.37452821428, 0.05, 0.9500000000000001, 0.12, 192.0, 0.0, 0.0, 0.0, 0.0, 0.0, 0.0, 0.0, 0.0, 0.0, 1.666555326151206E9, 0.0, 2022-10-23 13:02:06.151
65.0, -65305.53880995975, -95398.22881200658, 54686.67205413247, -192.20265057118544, 83436.33513883772, 62589.555989450935, 19303.413546492284, 15363.046868210658, 0.05, 0.9500000000000001, 0.12, 192.0, 0.0, 0.0, 0.0, 0.0, 0.0, 0.0, 0.0, 0.0, 0.0, 1.6665553261512256E9, 0.0, 2022-10-23 13:02:06.151
66.0, -65344.74376973436, -95440.56301600493, 56899.561810441235, 1006.6778667781194, 83674.15769984218, 63615.83633611636, 20743.759959192274, 16868.079229364306, 0.048, 0.9560000000000001, 0.116, 192.0, 1.0, 128.0, 29.0, 224.0, 3.0, 160.0, 0.0, 0.0, 0.0, 1.666555326151236E9, 0.0, 2022-10-23 13:02:06.151
67.0, -65273.7546293443, -95371.18320121565, 56733.84597704959, 744.6930700174654, 83367.04473102627, 63432.14970018264, 20471.51571172663, 16365.8131797091, 0.048, 0.9560000000000001, 0.116, 192.0, 0.0, 0.0, 0.0, 0.0, 0.0, 0.0, 0.0, 0.0, 0.0, 1.6665553261512468E9, 0.0, 2022-10-23 13:02:06.151
68.0, -65267.02675426326, -95363.89653252323, 54614.18534686391, -375.3975481268821, 83201.10538019007, 62472.36579327176, 19112.730814544062, 14962.883587227296, 0.048, 0.9560000000000001, 0.116, 192.0, 0.0, 0.0, 0.0, 0.0, 0.0, 0.0, 0.0, 0.0, 0.0, 1.666555326151257E9, 0.0, 2022-10-23 13:02:06.151
69.0, -65295.30171099922, -95397.75942537302, 54587.54206747319, -263.3259014279725, 83402.47224598793, 62549.47931164257, 19232.625571802328, 15243.845015030505, 0.048, 0.9560000000000001, 0.116, 192.0, 0.0, 0.0, 0.0, 0.0, 0.0, 0.0, 0.0, 0.0, 0.0, 1.6665553261512685E9, 0.0, 2022-10-23 13:02:06.151
70.0, -65335.0207608963, -95430.63884146677, 56538.60348923248, 817.4927017084005, 83640.25010350348, 63463.26332846443, 20529.987875221716, 16640.024380686806, 0.048, 0.9560000000000001, 0.116, 192.0, 0.0, 0.0, 0.0, 0.0, 0.0, 0.0, 0.0, 0.0, 0.0, 1.6665553261512785E9, 0.0, 2022-10-23 13:02:06.151
71.0, -65296.19578077743, -95385.93535255616, 57128.533080641406, 957.9734156100054, 83414.72100194944, 63608.68377789066, 20740.049569612693, 16658.26340416234, 0.048, 0.9560000000000001, 0.116, 192.0, 0.0, 0.0, 0.0, 0.0, 0.0, 0.0, 0.0, 0.0, 0.0, 1.6665553261512887E9, 0.0, 2022-10-23 13:02:06.151
72.0, -65253.48159712334, -95341.34362236781, 54872.03507090033, -273.16066898830763, 83176.6302200115, 62563.337393204856, 19254.99966800209, 15067.31093732249, 0.048, 0.9560000000000001, 0.116, 192.0, 0.0, 0.0, 0.0, 0.0, 0.0, 0.0, 0.0, 0.0, 0.0, 1.6665553261512988E9, 0.0, 2022-10-23 13:02:06.151
73.0, -65282.65062363751, -95368.50099188102, 54487.58506626905, -353.02345192711977, 83359.04280651126, 62469.54947347039, 19135.663704355207, 15110.226286676681, 0.048, 0.9560000000000001, 0.116, 192.0, 0.0, 0.0, 0.0, 0.0, 0.0, 0.0, 0.0, 0.0, 0.0, 1.6665553261513093E9, 0.0, 2022-10-23 13:02:06.151
74.0, -65336.20540335243, -95425.05090535294, 56086.651216346174, 559.3971084829699, 83606.76719030943, 63237.175433299, 20235.5259937675, 16346.14364458843, 0.048, 0.9560000000000001, 0.116, 192.0, 0.0, 0.0, 0.0, 0.0, 0.0, 0.0, 0.0, 0.0, 0.0, 1.6665553261513193E9, 0.0, 2022-10-23 13:02:06.151
75.0, -65292.21717026439, -95390.96449505861, 57412.84727011291, 1133.524016561987, 83522.63522417966, 63750.95263134869, 20958.62727864114, 16927.82544229334, 0.054, 0.9460000000000001, 0.12, 192.0, 1.0, 176.0, 29.0, 144.0, 3.0, 192.0, 0.0, 0.0, 0.0, 1.6665553261513295E9, 0.0, 2022-10-23 13:02:06.151
76.0, -65224.089053164615, -95319.1483401237, 55239.16247357875, -99.39820759275051, 83209.82256052764, 62720.760729403584, 19490.60940630548, 15287.83324811855, 0.054, 0.9460000000000001, 0.12, 192.0, 0.0, 0.0, 0.0, 0.0, 0.0, 0.0, 0.0, 0.0, 0.0, 1.6665553261513412E9, 0.0, 2022-10-23 13:02:06.151
77.0, -65269.48544615334, -95359.56029409889, 54482.22064759978, -386.1710889543401, 83332.98067247638, 62449.96934532754, 19119.324579158376, 15046.009724856583, 0.054, 0.9460000000000001, 0.12, 192.0, 0.0, 0.0, 0.0, 0.0, 0.0, 0.0, 0.0, 0.0, 0.0, 1.6665553261513517E9, 0.0, 2022-10-23 13:02:06.151
78.0, -65317.85462115463, -95401.44746320814, 55679.46948760385, 324.3908672798714, 83555.58169550679, 63038.87075649152, 19976.782199952868, 16049.759513111057, 0.054, 0.9460000000000001, 0.12, 192.0, 0.0, 0.0, 0.0, 0.0, 0.0, 0.0, 0.0, 0.0, 0.0, 1.6665553261513617E9, 0.0, 2022-10-23 13:02:06.151
79.0, -65311.79729840724, -95398.60879166232, 57550.086981068496, 1229.0330206195142, 83587.0305999554, 63829.742530553645, 21083.08179176829, 17072.396525430268, 0.054, 0.9460000000000001, 0.12, 192.0, 0.0, 0.0, 0.0, 0.0, 0.0, 0.0, 0.0, 0.0, 0.0, 1.666555326151372E9, 0.0, 2022-10-23 13:02:06.151
80.0, -65236.67308529295, -95332.0005931855, 55645.71835347633, 80.93566667266687, 83200.30071738968, 62875.9935946457, 19732.209412122895, 15509.003759503814, 0.054, 0.9460000000000001, 0.12, 192.0, 0.0, 0.0, 0.0, 0.0, 0.0, 0.0, 0.0, 0.0, 0.0, 1.666555326151382E9, 0.0, 2022-10-23 13:02:06.151
81.0, -65270.96066128739, -95359.64970107672, 54506.7628630117, -415.6753916353454, 83299.11777962658, 62428.51167065045, 19099.87856148226, 14978.976843235117, 0.054, 0.9460000000000001, 0.12, 192.0, 0.0, 0.0, 0.0, 0.0, 0.0, 0.0, 0.0, 0.0, 0.0, 1.6665553261514027E9, 0.0, 2022-10-23 13:02:06.151
82.0, -65305.181182048465, -95384.90717231121, 55338.985364316155, 122.17463519270841, 83523.70810791351, 62867.47758000822, 19743.586450050647, 15782.432649425586, 0.054, 0.9460000000000001, 0.12, 192.0, 0.0, 0.0, 0.0, 0.0, 0.0, 0.0, 0.0, 0.0, 0.0, 1.6665553261514127E9, 0.0, 2022-10-23 13:02:06.151
83.0, -65323.10728110162, -95406.83423362186, 57505.69641658026, 1223.6015467168745, 83650.26368501947, 63813.62692280137, 21078.79025683287, 17097.318720497933, 0.054, 0.9460000000000001, 0.12, 192.0, 0.0, 0.0, 0.0, 0.0, 0.0, 0.0, 0.0, 0.0, 0.0, 1.666555326151426E9, 0.0, 2022-10-23 13:02:06.151
84.0, -65243.71388479637, -95340.49425607851, 56107.93007706763, 309.99634385065366, 83239.68449111993, 63064.731724826306, 20020.233991173984, 15798.794126366869, 0.054, 0.9460000000000001, 0.12, 192.0, 0.0, 0.0, 0.0, 0.0, 0.0, 0.0, 0.0, 0.0, 0.0, 1.6665553261514401E9, 0.0, 2022-10-23 13:02:06.151
85.0, -65250.97820174434, -95348.6079393158, 54559.22240724831, -428.57234818605764, 83259.71165415188, 62417.02287400042, 19096.503448069507, 14932.887546168275, 0.056, 0.9420000000000001, 0.122, 192.0, 1.0, 192.0, 29.0, 112.0, 3.0, 208.0, 0.0, 0.0, 0.0, 1.6665553261514697E9, 0.0, 2022-10-23 13:02:06.151
86.0, -65282.3600509596, -95373.26191345, 55076.106497777284, -36.858026606801346, 83478.75874981389, 62741.70431395821, 19560.145683305942, 15560.3233647732, 0.056, 0.9420000000000001, 0.122, 192.0, 0.0, 0.0, 0.0, 0.0, 0.0, 0.0, 0.0, 0.0, 0.0, 1.6665553261514845E9, 0.0, 2022-10-23 13:02:06.151
87.0, -65317.07231009869, -95405.09079755435, 57319.238164334085, 1141.9282724771824, 83660.9478188691, 63748.6951051587, 20981.157837052087, 17015.533687535964, 0.056, 0.9420000000000001, 0.122, 192.0, 0.0, 0.0, 0.0, 0.0, 0.0, 0.0, 0.0, 0.0, 0.0, 1.6665553261514945E9, 0.0, 2022-10-23 13:02:06.151
88.0, -65232.605067802084, -95324.04337215942, 56615.49349015874, 579.5360302372015, 83299.07307613768, 63301.45905035247, 20351.330381790445, 16147.168415447286, 0.056, 0.9420000000000001, 0.122, 192.0, 0.0, 0.0, 0.0, 0.0, 0.0, 0.0, 0.0, 0.0, 0.0, 1.6665553261515048E9, 0.0, 2022-10-23 13:02:06.151
89.0, -65227.35240785508, -95312.8004446984, 54704.64285667454, -390.35086516748254, 83223.7924008122, 62469.84004614831, 19161.36821047881, 14953.272337111513, 0.056, 0.9420000000000001, 0.122, 192.0, 0.0, 0.0, 0.0, 0.0, 0.0, 0.0, 0.0, 0.0, 0.0, 1.666555326151515E9, 0.0, 2022-10-23 13:02:06.151
90.0, -65260.991783260324, -95361.46019237759, 54851.449114257, -200.9198309087552, 83403.88040588862, 62611.28188506149, 19379.923567762802, 15334.280173096678, 0.056, 0.9420000000000001, 0.122, 192.0, 0.0, 0.0, 0.0, 0.0, 0.0, 0.0, 0.0, 0.0, 0.0, 1.6665553261515253E9, 0.0, 2022-10-23 13:02:06.151
91.0, -65329.432824782474, -95434.52804500199, 56947.6404127646, 933.6100141537207, 83634.1927807561, 63568.852969271305, 20741.278915557734, 16776.884111986652, 0.056, 0.9420000000000001, 0.122, 192.0, 0.0, 0.0, 0.0, 0.0, 0.0, 0.0, 0.0, 0.0, 0.0, 1.6665553261515365E9, 0.0, 2022-10-23 13:02:06.151
92.0, -65277.12974275705, -95373.3066169389, 57057.94627165154, 822.6336029331211, 83379.67346664351, 63506.960988874554, 20647.66980977891, 16464.920814623933, 0.056, 0.9420000000000001, 0.122, 192.0, 0.0, 0.0, 0.0, 0.0, 0.0, 0.0, 0.0, 0.0, 0.0, 1.6665553261515467E9, 0.0, 2022-10-23 13:02:06.151
93.0, -65266.71382984088, -95354.62055857427, 54876.304254091294, -335.36557380742715, 83201.30654589017, 62519.773843261464, 19241.365103884353, 14993.39371840879, 0.056, 0.9420000000000001, 0.122, 192.0, 0.0, 0.0, 0.0, 0.0, 0.0, 0.0, 0.0, 0.0, 0.0, 1.6665553261515567E9, 0.0, 2022-10-23 13:02:06.151
94.0, -65313.45132749693, -95402.43093996418, 54713.15887131201, -299.3569134899275, 83378.06414104273, 62530.27916315546, 19266.37670592984, 15182.064793356038, 0.056, 0.9420000000000001, 0.122, 192.0, 0.0, 0.0, 0.0, 0.0, 0.0, 0.0, 0.0, 0.0, 0.0, 1.666555326151567E9, 0.0, 2022-10-23 13:02:06.151
95.0, -65355.47260707291, -95449.70487948715, 56539.92224215535, 722.1401598620606, 83618.72537359303, 63393.92821716407, 20491.207598591758, 16520.26373389527, 0.054, 0.9440000000000001, 0.12, 192.0, 1.0, 176.0, 29.0, 128.0, 3.0, 192.0, 0.0, 0.0, 0.0, 1.6665553261515772E9, 0.0, 2022-10-23 13:02:06.151
96.0, -65283.12001027108, -95390.60686714732, 57411.19324102322, 1033.3211461688454, 83458.08338619272, 63687.87600849581, 20897.42820232251, 16753.03480065284, 0.054, 0.9440000000000001, 0.12, 192.0, 0.0, 0.0, 0.0, 0.0, 0.0, 0.0, 0.0, 0.0, 0.0, 1.666555326151588E9, 0.0, 2022-10-23 13:02:06.151
97.0, -65242.97627722935, -95356.11812545278, 55123.380437300264, -235.05094469200907, 83183.0898741591, 62614.14290835177, 19373.12863744839, 15103.319597639991, 0.054, 0.9440000000000001, 0.12, 192.0, 0.0, 0.0, 0.0, 0.0, 0.0, 0.0, 0.0, 0.0, 0.0, 1.6665553261516101E9, 0.0, 2022-10-23 13:02:06.151
98.0, -65284.52817017176, -95396.06069279442, 54623.036637668214, -372.29065564759446, 83359.95922803393, 62477.17141832965, 19183.071754344914, 15066.59568149992, 0.054, 0.9440000000000001, 0.12, 192.0, 0.0, 0.0, 0.0, 0.0, 0.0, 0.0, 0.0, 0.0, 0.0, 1.6665553261516204E9, 0.0, 2022-10-23 13:02:06.151
99.0, -65344.22967961189, -95452.99058592207, 56088.59581811378, 473.365244074493, 83591.34448663527, 63190.39323215404, 20204.14414455225, 16229.802814698556, 0.054, 0.9440000000000001, 0.12, 192.0, 0.0, 0.0, 0.0, 0.0, 0.0, 0.0, 0.0, 0.0, 0.0, 1.6665553261516304E9, 0.0, 2022-10-23 13:02:06.151
100.0, -65310.769118162294, -95422.9721931186, 57602.702987516284, 1153.3053104049338, 83528.60313994922, 63790.26934984558, 21049.48711985196, 16957.285041485437, 0.054, 0.9440000000000001, 0.12, 192.0, 0.0, 0.0, 0.0, 0.0, 0.0, 0.0, 0.0, 0.0, 0.0, 1.666555326151641E9, 0.0, 2022-10-23 13:02:06.151
101.0, -65244.94323074142, -95364.47767787907, 55465.36212746646, -84.22137310759702, 83179.31242934614, 62754.668325742285, 19578.742334692757, 15303.993559359737, 0.054, 0.9440000000000001, 0.12, 192.0, 0.0, 0.0, 0.0, 0.0, 0.0, 0.0, 0.0, 0.0, 0.0, 1.666555326151651E9, 0.0, 2022-10-23 13:02:06.151
102.0, -65279.76724860278, -95402.07331205289, 54582.40116624846, -431.56748194306874, 83305.42097156298, 62436.78181609891, 19127.237096695557, 14980.5861688359, 0.054, 0.9440000000000001, 0.12, 192.0, 0.0, 0.0, 0.0, 0.0, 0.0, 0.0, 0.0, 0.0, 0.0, 1.6665553261516612E9, 0.0, 2022-10-23 13:02:06.151
103.0, -65325.58832473616, -95438.19373109267, 55677.72605153633, 243.47755235165982, 83536.82858190878, 63005.83487818657, 19935.364417477183, 15942.180567047664, 0.054, 0.9440000000000001, 0.12, 192.0, 0.0, 0.0, 0.0, 0.0, 0.0, 0.0, 0.0, 0.0, 0.0, 1.6665553261516712E9, 0.0, 2022-10-23 13:02:06.151
104.0, -65332.62912423958, -95441.25592008304, 57662.29273823414, 1218.035962347503, 83591.478597102, 63847.17689122879, 21119.47043174153, 17065.691002093674, 0.048, 0.9500000000000001, 0.11800000000000001, 192.0, 1.0, 128.0, 29.0, 176.0, 3.0, 176.0, 0.0, 0.0, 0.0, 1.6665553261516817E9, 0.0, 2022-10-23 13:02:06.151
105.0, -65248.117178454064, -95358.55446559841, 55913.80517647329, 146.4709814156272, 83200.43482785641, 62961.24314799823, 19859.144968884586, 15581.199894094456, 0.048, 0.9500000000000001, 0.11800000000000001, 192.0, 0.0, 0.0, 0.0, 0.0, 0.0, 0.0, 0.0, 0.0, 0.0, 1.6665553261516924E9, 0.0, 2022-10-23 13:02:06.151
106.0, -65269.26192870879, -95366.44463139113, 54620.37678007803, -432.528606954647, 83285.23734631985, 62448.85175810478, 19126.11950947279, 14940.084807882884, 0.048, 0.9500000000000001, 0.11800000000000001, 192.0, 0.0, 0.0, 0.0, 0.0, 0.0, 0.0, 0.0, 0.0, 0.0, 1.6665553261517026E9, 0.0, 2022-10-23 13:02:06.151
107.0, -65313.16075481901, -95409.02470457849, 55336.95135557072, 52.25837853650791, 83499.61292739068, 62852.05487633406, 19705.40967052098, 15683.235607532932, 0.048, 0.9500000000000001, 0.11800000000000001, 192.0, 0.0, 0.0, 0.0, 0.0, 0.0, 0.0, 0.0, 0.0, 0.0, 1.666555326151713E9, 0.0, 2022-10-23 13:02:06.151
108.0, -65321.27443805629, -95421.76519891802, 57514.1230242399, 1163.7882785544728, 83631.01883304345, 63797.19839062672, 21046.894317495146, 17030.688170276662, 0.048, 0.9500000000000001, 0.11800000000000001, 192.0, 0.0, 0.0, 0.0, 0.0, 0.0, 0.0, 0.0, 0.0, 0.0, 1.6665553261517231E9, 0.0, 2022-10-23 13:02:06.151
109.0, -65229.34171311161, -95337.61088104379, 56340.41057114727, 371.48599284720336, 83257.16355528397, 63151.79176947973, 20131.433919839135, 15883.775458785947, 0.048, 0.9500000000000001, 0.11800000000000001, 192.0, 0.0, 0.0, 0.0, 0.0, 0.0, 0.0, 0.0, 0.0, 0.0, 1.6665553261517332E9, 0.0, 2022-10-23 13:02:06.151
110.0, -65250.77703604425, -95359.78381154344, 54631.82087323915, -466.95029341581983, 83229.80502007068, 62421.40381591366, 19093.821238734872, 14891.112135781304, 0.048, 0.9500000000000001, 0.11800000000000001, 192.0, 0.0, 0.0, 0.0, 0.0, 0.0, 0.0, 0.0, 0.0, 0.0, 1.6665553261517432E9, 0.0, 2022-10-23 13:02:06.151
111.0, -65308.2657227833, -95409.76231214551, 55003.26216259744, -153.1765047522193, 83434.18937137001, 62674.20204570318, 19461.46273153576, 15429.163328309456, 0.048, 0.9500000000000001, 0.11800000000000001, 192.0, 0.0, 0.0, 0.0, 0.0, 0.0, 0.0, 0.0, 0.0, 0.0, 1.6665553261517532E9, 0.0, 2022-10-23 13:02:06.151
112.0, -65347.51538604682, -95440.54066426048, 57239.397733139725, 1045.4134399191666, 83656.47746997804, 63699.32010165693, 20899.126934901113, 16919.756462544974, 0.048, 0.9500000000000001, 0.11800000000000001, 192.0, 0.0, 0.0, 0.0, 0.0, 0.0, 0.0, 0.0, 0.0, 0.0, 1.666555326151776E9, 0.0, 2022-10-23 13:02:06.151
113.0, -65253.21337618988, -95352.38538412875, 56811.67475124297, 635.3930396310138, 83319.48021882537, 63384.83105717076, 20448.694580637763, 16238.274125847118, 0.048, 0.9500000000000001, 0.11800000000000001, 192.0, 0.0, 0.0, 0.0, 0.0, 0.0, 0.0, 0.0, 0.0, 0.0, 1.666555326151786E9, 0.0, 2022-10-23 13:02:06.151
114.0, -65246.887832509026, -95336.247424632, 54746.418267061505, -435.12140931146257, 83206.96153723735, 62464.49797922349, 19141.564564891407, 14921.532859984978, 0.05, 0.9540000000000001, 0.11800000000000001, 192.0, 1.0, 144.0, 29.0, 208.0, 3.0, 176.0, 0.0, 0.0, 0.0, 1.666555326151796E9, 0.0, 2022-10-23 13:02:06.151
115.0, -65301.67195816898, -95382.78375658796, 54804.89043055659, -275.79817483403383, 83411.10001934768, 62587.589035938865, 19319.149174588823, 15270.220073487768, 0.05, 0.9540000000000001, 0.11800000000000001, 192.0, 0.0, 0.0, 0.0, 0.0, 0.0, 0.0, 0.0, 0.0, 0.0, 1.6665553261518068E9, 0.0, 2022-10-23 13:02:06.151
116.0, -65335.15487136303, -95426.83904490937, 56816.72624548987, 825.2040535454814, 83635.66799589015, 63517.309846557364, 20640.293734108654, 16690.628730133623, 0.05, 0.9540000000000001, 0.11800000000000001, 192.0, 0.0, 0.0, 0.0, 0.0, 0.0, 0.0, 0.0, 0.0, 0.0, 1.666555326151817E9, 0.0, 2022-10-23 13:02:06.151
117.0, -65273.06172526619, -95382.42612867667, 57188.905142415184, 852.9872719034281, 83389.39647548157, 63567.62362332626, 20712.154592532468, 16560.94390880393, 0.05, 0.9540000000000001, 0.11800000000000001, 192.0, 0.0, 0.0, 0.0, 0.0, 0.0, 0.0, 0.0, 0.0, 0.0, 1.666555326151827E9, 0.0, 2022-10-23 13:02:06.151
118.0, -65240.07055045016, -95347.87033174877, 54952.05431605033, -347.2567018576505, 83175.28911534419, 62548.741704075546, 19255.71492382466, 15016.840698342408, 0.05, 0.9540000000000001, 0.11800000000000001, 192.0, 0.0, 0.0, 0.0, 0.0, 0.0, 0.0, 0.0, 0.0, 0.0, 1.666555326151837E9, 0.0, 2022-10-23 13:02:06.151
119.0, -65279.25315848031, -95373.79835531693, 54659.648795086, -375.88928650489885, 83351.39850990755, 62499.858438951786, 19196.9298359072, 15121.402158904333, 0.05, 0.9540000000000001, 0.11800000000000001, 192.0, 0.0, 0.0, 0.0, 0.0, 0.0, 0.0, 0.0, 0.0, 0.0, 1.6665553261518474E9, 0.0, 2022-10-23 13:02:06.151
120.0, -65345.1237493901, -95439.53483575999, 56358.537835900526, 583.1793645834166, 83584.68366678759, 63306.30937889926, 20348.201137566703, 16397.731470791277, 0.05, 0.9540000000000001, 0.11800000000000001, 192.0, 0.0, 0.0, 0.0, 0.0, 0.0, 0.0, 0.0, 0.0, 0.0, 1.6665553261518576E9, 0.0, 2022-10-23 13:02:06.151
121.0, -65303.147173303034, -95404.2637830095, 57468.25724461761, 1027.9120240106613, 83449.5003163219, 63706.96439826064, 20912.694443785484, 16808.936513535562, 0.05, 0.9540000000000001, 0.11800000000000001, 192.0, 0.0, 0.0, 0.0, 0.0, 0.0, 0.0, 0.0, 0.0, 0.0, 1.6665553266300583E9, 0.0, 2022-10-23 13:02:06.630
122.0, -65235.17551841444, -95333.2969943639, 55224.70089491617, -225.88672946533316, 83155.82074592361, 62652.45379834817, 19408.444393687772, 15156.673211654808, 0.05, 0.9540000000000001, 0.11800000000000001, 192.0, 0.0, 0.0, 0.0, 0.0, 0.0, 0.0, 0.0, 0.0, 0.0, 1.6665553266301625E9, 0.0, 2022-10-23 13:02:06.630
123.0, -65267.60789961909, -95362.73424181154, 54572.6781574104, -445.8949501389206, 83312.08179141066, 62440.17928125612, 19114.384843633754, 15010.045768027994, 0.05, 0.9540000000000001, 0.11800000000000001, 192.0, 0.0, 0.0, 0.0, 0.0, 0.0, 0.0, 0.0, 0.0, 0.0, 1.6665553266301916E9, 0.0, 2022-10-23 13:02:06.630
124.0, -65323.151984590535, -95418.68065818318, 55905.26681009136, 345.2897483455835, 83553.79355595035, 63107.021225335746, 20062.344677727782, 16106.577647516448, 0.046, 0.9460000000000001, 0.116, 192.0, 1.0, 112.0, 29.0, 144.0, 3.0, 160.0, 0.0, 0.0, 0.0, 1.6665553266302207E9, 0.0, 2022-10-23 13:02:06.630
125.0, -65298.09567905613, -95391.92562007018, 57630.86618552997, 1161.1954761976572, 83549.27850357039, 63824.9145537513, 21062.942870014056, 17008.64935024373, 0.046, 0.9460000000000001, 0.116, 192.0, 0.0, 0.0, 0.0, 0.0, 0.0, 0.0, 0.0, 0.0, 0.0, 1.666555326630252E9, 0.0, 2022-10-23 13:02:06.630
126.0, -65211.706186736374, -95316.62259300025, 55607.921553602406, -28.54317766942712, 83183.02281892572, 62833.257059247146, 19654.000658273777, 15399.48021167281, 0.046, 0.9460000000000001, 0.116, 192.0, 0.0, 0.0, 0.0, 0.0, 0.0, 0.0, 0.0, 0.0, 0.0, 1.66655532663028E9, 0.0, 2022-10-23 13:02:06.630
127.0, -65251.693457566915, -95355.17935218566, 54564.2291980063, -468.9619504167975, 83291.78640744525, 62432.02089452993, 19089.01561367698, 14955.351049345858, 0.046, 0.9460000000000001, 0.116, 192.0, 0.0, 0.0, 0.0, 0.0, 0.0, 0.0, 0.0, 0.0, 0.0, 1.666555326630308E9, 0.0, 2022-10-23 13:02:06.630
128.0, -65315.77590892028, -95414.05384708094, 55511.876107677956, 128.27666142900722, 83508.24070075044, 62931.135348216936, 19804.897285091556, 15827.113786591744, 0.046, 0.9460000000000001, 0.116, 192.0, 0.0, 0.0, 0.0, 0.0, 0.0, 0.0, 0.0, 0.0, 0.0, 1.6665553266304705E9, 0.0, 2022-10-23 13:02:06.630
129.0, -65321.65441771203, -95423.66509719672, 57589.291940843104, 1163.497705876554, 83590.07043720131, 63821.070053704985, 21061.199433946542, 17046.13322569528, 0.046, 0.9460000000000001, 0.116, 192.0, 0.0, 0.0, 0.0, 0.0, 0.0, 0.0, 0.0, 0.0, 0.0, 1.6665553266304965E9, 0.0, 2022-10-23 13:02:06.630
130.0, -65244.11621619657, -95348.98791897153, 56010.40941600912, 167.90630434826664, 83194.93629872041, 62999.24111357226, 19899.13223971513, 15654.67007811905, 0.046, 0.9460000000000001, 0.116, 192.0, 0.0, 0.0, 0.0, 0.0, 0.0, 0.0, 0.0, 0.0, 0.0, 1.6665553266305063E9, 0.0, 2022-10-23 13:02:06.630
131.0, -65261.7517425718, -95358.19683768712, 54586.73740467279, -484.0717296685851, 83257.23061051735, 62427.77406308342, 19076.20806410409, 14907.630074933777, 0.046, 0.9460000000000001, 0.116, 192.0, 0.0, 0.0, 0.0, 0.0, 0.0, 0.0, 0.0, 0.0, 0.0, 1.666555326630516E9, 0.0, 2022-10-23 13:02:06.630
132.0, -65292.28422549775, -95389.71279736911, 55169.15680994473, -65.44590776513908, 83465.92884849655, 62769.12990440487, 19572.8191224121, 15572.236844567877, 0.046, 0.9460000000000001, 0.116, 192.0, 0.0, 0.0, 0.0, 0.0, 0.0, 0.0, 0.0, 0.0, 0.0, 1.6665553266305254E9, 0.0, 2022-10-23 13:02:06.630
133.0, -65318.77104267729, -95417.13838781576, 57400.35264496239, 1099.9963998790265, 83637.41143195766, 63761.39089600932, 20974.988755582424, 16999.2616175725, 0.046, 0.9460000000000001, 0.116, 192.0, 0.0, 0.0, 0.0, 0.0, 0.0, 0.0, 0.0, 0.0, 0.0, 1.6665553266305401E9, 0.0, 2022-10-23 13:02:06.630
134.0, -65242.596297573604, -95339.98016595605, 56483.17116298332, 440.61993844746814, 83269.30055252321, 63230.4252064735, 20221.064415104916, 16009.034634713487, 0.054, 0.9520000000000001, 0.116, 192.0, 1.0, 176.0, 29.0, 192.0, 3.0, 160.0, 0.0, 0.0, 0.0, 1.66655532663055E9, 0.0, 2022-10-23 13:02:06.630
135.0, -65250.26294592178, -95339.89075897823, 54618.074550399135, -497.5274798306799, 83205.6874878034, 62410.00442624145, 19067.24501457751, 14883.736060111054, 0.054, 0.9520000000000001, 0.116, 192.0, 0.0, 0.0, 0.0, 0.0, 0.0, 0.0, 0.0, 0.0, 0.0, 1.66655532663056E9, 0.0, 2022-10-23 13:02:06.630
136.0, -65288.327966729164, -95376.25704720701, 54846.06234384327, -259.03436649255354, 83409.87067340263, 62590.897094118256, 19344.227831867676, 15340.762178988718, 0.054, 0.9520000000000001, 0.116, 192.0, 0.0, 0.0, 0.0, 0.0, 0.0, 0.0, 0.0, 0.0, 0.0, 1.6665553266305695E9, 0.0, 2022-10-23 13:02:06.630
137.0, -65326.46004276992, -95417.13838781576, 57023.81515786829, 921.7412378479527, 83647.6932344071, 63595.138620750746, 20759.62969775554, 16829.120138778704, 0.054, 0.9520000000000001, 0.116, 192.0, 0.0, 0.0, 0.0, 0.0, 0.0, 0.0, 0.0, 0.0, 0.0, 1.6665553266305788E9, 0.0, 2022-10-23 13:02:06.630
138.0, -65253.503948867794, -95351.33485213935, 56883.66972013351, 672.5863424046448, 83337.5180766008, 63412.74838599544, 20498.20369460627, 16342.545013731125, 0.054, 0.9520000000000001, 0.116, 192.0, 0.0, 0.0, 0.0, 0.0, 0.0, 0.0, 0.0, 0.0, 0.0, 1.666555326630588E9, 0.0, 2022-10-23 13:02:06.630
139.0, -65241.59046907312, -95341.36597411228, 54749.21223511842, -439.3905925024262, 83192.25408938577, 62459.13356055422, 19137.98828577856, 14938.542537515466, 0.054, 0.9520000000000001, 0.116, 192.0, 0.0, 0.0, 0.0, 0.0, 0.0, 0.0, 0.0, 0.0, 0.0, 1.666555326630597E9, 0.0, 2022-10-23 13:02:06.630
140.0, -65294.29588249873, -95388.0140647905, 54653.90439676099, -367.7532515231671, 83370.66571362803, 62494.2481510935, 19204.194152855176, 15175.113400830436, 0.054, 0.9520000000000001, 0.116, 192.0, 0.0, 0.0, 0.0, 0.0, 0.0, 0.0, 0.0, 0.0, 0.0, 1.6665553266306067E9, 0.0, 2022-10-23 13:02:06.630
141.0, -65350.95755469293, -95434.23747232408, 56562.96689068877, 692.2111740364044, 83617.67484160363, 63386.64154847164, 20473.683830938797, 16558.596975636123, 0.054, 0.9520000000000001, 0.116, 192.0, 0.0, 0.0, 0.0, 0.0, 0.0, 0.0, 0.0, 0.0, 0.0, 1.666555326630616E9, 0.0, 2022-10-23 13:02:06.630
142.0, -65299.07915581217, -95388.10347176832, 57238.92834650617, 899.7918247928411, 83426.96975791095, 63595.54095215094, 20757.05924714318, 16656.072933205716, 0.054, 0.9520000000000001, 0.116, 192.0, 0.0, 0.0, 0.0, 0.0, 0.0, 0.0, 0.0, 0.0, 0.0, 1.6665553266306255E9, 0.0, 2022-10-23 13:02:06.630
143.0, -65260.03065824875, -95352.51949459547, 54971.36622325972, -337.44428604177074, 83163.21917333832, 62547.66882034169, 19267.226072219142, 15055.196291827715, 0.048, 0.9520000000000001, 0.12, 192.0, 1.0, 128.0, 29.0, 192.0, 3.0, 192.0, 0.0, 0.0, 0.0, 1.6665553266306348E9, 0.0, 2022-10-23 13:02:06.630
144.0, -65299.50383895682, -95398.09470153984, 54550.974613544306, -433.9367668553313, 83325.35872761712, 62437.988810299496, 19123.526707115976, 15071.758934469097, 0.048, 0.9520000000000001, 0.12, 192.0, 0.0, 0.0, 0.0, 0.0, 0.0, 0.0, 0.0, 0.0, 0.0, 1.666555326630656E9, 0.0, 2022-10-23 13:02:06.630
145.0, -65340.94397317696, -95444.4298677957, 56123.91157435317, 473.92403768587565, 83589.06460870084, 63200.40681367002, 20208.05569983193, 16296.098088752997, 0.048, 0.9520000000000001, 0.12, 192.0, 0.0, 0.0, 0.0, 0.0, 0.0, 0.0, 0.0, 0.0, 0.0, 1.6665553266306653E9, 0.0, 2022-10-23 13:02:06.630
146.0, -65322.660246212516, -95424.64857395276, 57498.94618975475, 1083.7019781711076, 83519.17070378909, 63748.82921562543, 20966.62920315614, 16918.88474451122, 0.048, 0.9520000000000001, 0.12, 192.0, 0.0, 0.0, 0.0, 0.0, 0.0, 0.0, 0.0, 0.0, 0.0, 1.6665553266306748E9, 0.0, 2022-10-23 13:02:06.630
147.0, -65245.79259703072, -95345.09871543631, 55317.52768963906, -153.42237394122768, 83187.20259513886, 62717.22915377965, 19489.692984782814, 15267.649622875408, 0.048, 0.9520000000000001, 0.12, 192.0, 0.0, 0.0, 0.0, 0.0, 0.0, 0.0, 0.0, 0.0, 0.0, 1.6665553266306844E9, 0.0, 2022-10-23 13:02:06.630
148.0, -65283.231768993355, -95371.11614598229, 54496.078729162065, -475.73452898675555, 83305.44332330744, 62409.959722752545, 19072.274157079955, 14990.35388116287, 0.048, 0.9520000000000001, 0.12, 192.0, 0.0, 0.0, 0.0, 0.0, 0.0, 0.0, 0.0, 0.0, 0.0, 1.6665553266306937E9, 0.0, 2022-10-23 13:02:06.630
149.0, -65342.77681622229, -95424.82738790839, 55658.21297862685, 224.59032828692537, 83541.20952382202, 62987.08176458857, 19912.565638132768, 15991.779087993991, 0.048, 0.9520000000000001, 0.12, 192.0, 0.0, 0.0, 0.0, 0.0, 0.0, 0.0, 0.0, 0.0, 0.0, 1.6665553266307032E9, 0.0, 2022-10-23 13:02:06.630
150.0, -65326.437691025465, -95415.8196348929, 57545.01313507714, 1146.6668423017077, 83588.03642845589, 63789.57644576746, 21036.076073178778, 17041.95344948214, 0.048, 0.9520000000000001, 0.12, 192.0, 0.0, 0.0, 0.0, 0.0, 0.0, 0.0, 0.0, 0.0, 0.0, 1.6665553266307125E9, 0.0, 2022-10-23 13:02:06.630
151.0, -65238.282410893735, -95328.82664547284, 55674.619159057045, 29.66076489219247, 83204.54754883618, 62867.924614897325, 19720.966484661876, 15509.294332181733, 0.048, 0.9520000000000001, 0.12, 192.0, 0.0, 0.0, 0.0, 0.0, 0.0, 0.0, 0.0, 0.0, 0.0, 1.666555326630722E9, 0.0, 2022-10-23 13:02:06.630
152.0, -65269.41839091998, -95353.79354402942, 54481.460688288294, -493.23594489526096, 83292.2110905899, 62399.45440285855, 19057.901985395194, 14950.612479521333, 0.048, 0.9520000000000001, 0.12, 192.0, 0.0, 0.0, 0.0, 0.0, 0.0, 0.0, 0.0, 0.0, 0.0, 1.6665553266307316E9, 0.0, 2022-10-23 13:02:06.630
153.0, -65334.50667077383, -95416.2219662931, 55306.888259278334, 48.05625057891019, 83518.25428226641, 62853.50773972365, 19708.181286833442, 15761.31025091532, 0.056, 0.9560000000000001, 0.112, 192.0, 1.0, 192.0, 29.0, 224.0, 3.0, 128.0, 0.0, 0.0, 0.0, 1.666555326630741E9, 0.0, 2022-10-23 13:02:06.630
154.0, -65362.40164785405, -95444.98866140709, 57459.20478811322, 1131.0206211829927, 83626.16850449664, 63785.419021298774, 21025.235477117956, 17064.886339293284, 0.056, 0.9560000000000001, 0.112, 192.0, 0.0, 0.0, 0.0, 0.0, 0.0, 0.0, 0.0, 0.0, 0.0, 1.666555326630751E9, 0.0, 2022-10-23 13:02:06.630
155.0, -65265.01509726228, -95371.13849772674, 56130.214766289566, 269.40557591981604, 83245.85357258959, 63090.81621060565, 20026.648941832656, 15825.70562669106, 0.056, 0.9560000000000001, 0.112, 192.0, 0.0, 0.0, 0.0, 0.0, 0.0, 0.0, 0.0, 0.0, 0.0, 1.6665553266307614E9, 0.0, 2022-10-23 13:02:06.630
156.0, -65263.98691701733, -95366.53403836895, 54544.69377335236, -486.66453202540066, 83247.73111912384, 62429.942182295585, 19084.567616530374, 14933.222822335103, 0.056, 0.9560000000000001, 0.112, 192.0, 0.0, 0.0, 0.0, 0.0, 0.0, 0.0, 0.0, 0.0, 0.0, 1.6665553266307707E9, 0.0, 2022-10-23 13:02:06.630
157.0, -65295.27935925477, -95378.78279433046, 55000.17762186261, -133.5963766093703, 83460.698540294, 62713.83168862244, 19502.34407214452, 15519.956114286913, 0.056, 0.9560000000000001, 0.112, 192.0, 0.0, 0.0, 0.0, 0.0, 0.0, 0.0, 0.0, 0.0, 0.0, 1.6665553266307805E9, 0.0, 2022-10-23 13:02:06.630
158.0, -65336.09364463016, -95416.8254633934, 57227.573660322865, 1037.8138468043621, 83651.15775479768, 63707.254970938564, 20913.65556879706, 16976.373431250267, 0.056, 0.9560000000000001, 0.112, 192.0, 0.0, 0.0, 0.0, 0.0, 0.0, 0.0, 0.0, 0.0, 0.0, 1.6665553266307895E9, 0.0, 2022-10-23 13:02:06.630
159.0, -65248.407751131985, -95338.32613686635, 56566.63257677944, 507.7869305356659, 83301.12943662757, 63283.35413734367, 20318.249799996593, 16148.66598232579, 0.056, 0.9560000000000001, 0.112, 192.0, 0.0, 0.0, 0.0, 0.0, 0.0, 0.0, 0.0, 0.0, 0.0, 1.6665553266308079E9, 0.0, 2022-10-23 13:02:06.630
160.0, -65257.25904193629, -95348.94321548262, 54601.914239157944, -489.5479070601353, 83219.47851413232, 62417.089929233785, 19093.038927678936, 14926.494947254056, 0.056, 0.9560000000000001, 0.112, 192.0, 0.0, 0.0, 0.0, 0.0, 0.0, 0.0, 0.0, 0.0, 0.0, 1.6665553266308172E9, 0.0, 2022-10-23 13:02:06.630
161.0, -65302.40956573601, -95393.62435264878, 54741.679697236985, -292.6737418977907, 83415.12333334963, 62570.51230317501, 19321.026721123068, 15324.98184740327, 0.056, 0.9560000000000001, 0.112, 192.0, 0.0, 0.0, 0.0, 0.0, 0.0, 0.0, 0.0, 0.0, 0.0, 1.6665553266308265E9, 0.0, 2022-10-23 13:02:06.630
162.0, -65336.09364463016, -95426.68258269818, 56842.386048124565, 847.7793154453416, 83646.28507450642, 63546.72474226055, 20697.737717358796, 16789.110516203706, 0.056, 0.9560000000000001, 0.112, 192.0, 0.0, 0.0, 0.0, 0.0, 0.0, 0.0, 0.0, 0.0, 0.0, 1.6665553266308355E9, 0.0, 2022-10-23 13:02:06.630
163.0, -65246.5525563422, -95338.504950822, 56986.51009637238, 750.0351369422838, 83376.96890556443, 63497.66266318115, 20624.871030434493, 16504.997492432296, 0.056, 0.9460000000000001, 0.11, 192.0, 1.0, 192.0, 29.0, 144.0, 3.0, 112.0, 0.0, 0.0, 0.0, 1.6665553266308448E9, 0.0, 2022-10-23 13:02:06.630
164.0, -65220.602181029586, -95309.22416558555, 54741.72440072589, -449.0241943626636, 83185.45915907135, 62466.6437466912, 19171.18062629469, 14990.711509074154, 0.056, 0.9460000000000001, 0.11, 192.0, 0.0, 0.0, 0.0, 0.0, 0.0, 0.0, 0.0, 0.0, 0.0, 1.6665553266308548E9, 0.0, 2022-10-23 13:02:06.630
165.0, -65278.157923002, -95361.57195109988, 54555.69083162437, -412.76966485615554, 83393.39743773907, 62474.89154039521, 19191.61012072684, 15180.81309566654, 0.056, 0.9460000000000001, 0.11, 192.0, 0.0, 0.0, 0.0, 0.0, 0.0, 0.0, 0.0, 0.0, 0.0, 1.6665553266308641E9, 0.0, 2022-10-23 13:02:06.630
166.0, -65340.273420843296, -95423.12865532978, 56375.189885519736, 611.5660800416565, 83634.77392611193, 63345.04495204031, 20424.4205861593, 16530.590239833622, 0.056, 0.9460000000000001, 0.11, 192.0, 0.0, 0.0, 0.0, 0.0, 0.0, 0.0, 0.0, 0.0, 0.0, 1.6665553266308737E9, 0.0, 2022-10-23 13:02:06.630
167.0, -65283.54469341573, -95374.02187276148, 57265.683384619166, 930.2572524854246, 83458.44101410401, 63639.88681315027, 20841.526489439784, 16778.71695503199, 0.056, 0.9460000000000001, 0.11, 192.0, 0.0, 0.0, 0.0, 0.0, 0.0, 0.0, 0.0, 0.0, 0.0, 1.6665553266308837E9, 0.0, 2022-10-23 13:02:06.630
168.0, -65235.555498070185, -95327.28437510543, 54989.94052290208, -324.79319868006695, 83185.6826765159, 62578.98361432357, 19328.91688691579, 15137.674228867798, 0.056, 0.9460000000000001, 0.11, 192.0, 0.0, 0.0, 0.0, 0.0, 0.0, 0.0, 0.0, 0.0, 0.0, 1.6665553266308928E9, 0.0, 2022-10-23 13:02:06.630
169.0, -65261.88585303853, -95352.29597715092, 54452.82810364105, -476.71800574278905, 83355.60063786515, 62424.89068804869, 19115.010692478503, 15081.526646796066, 0.056, 0.9460000000000001, 0.11, 192.0, 0.0, 0.0, 0.0, 0.0, 0.0, 0.0, 0.0, 0.0, 0.0, 1.666555326630902E9, 0.0, 2022-10-23 13:02:06.630
170.0, -65321.90028690104, -95406.05192256594, 55888.68181570552, 361.22654214221745, 83594.54078609239, 63128.68006571294, 20120.369806333758, 16235.189585112284, 0.056, 0.9460000000000001, 0.11, 192.0, 0.0, 0.0, 0.0, 0.0, 0.0, 0.0, 0.0, 0.0, 0.0, 1.6665553266309114E9, 0.0, 2022-10-23 13:02:06.630
171.0, -65299.32502500118, -95388.28228572397, 57446.531349007055, 1073.978969333049, 83550.10551811523, 63753.85835812788, 20998.033404115846, 16999.2616175725, 0.056, 0.9460000000000001, 0.11, 192.0, 0.0, 0.0, 0.0, 0.0, 0.0, 0.0, 0.0, 0.0, 0.0, 1.6665553266309211E9, 0.0, 2022-10-23 13:02:06.630
172.0, -65239.176480671944, -95333.9004914642, 55312.61030585889, -164.59824616888122, 83176.96549617834, 62709.22722926465, 19519.309046186096, 15336.001257419737, 0.052000000000000005, 0.9480000000000001, 0.11, 192.0, 1.0, 160.0, 29.0, 160.0, 3.0, 112.0, 0.0, 0.0, 0.0, 1.6665553266309304E9, 0.0, 2022-10-23 13:02:06.630
173.0, -65282.047126537225, -95367.89749478073, 54353.27343383711, -558.9277218494084, 83289.662991722, 62338.34473351774, 19008.05759525986, 14960.938985459685, 0.052000000000000005, 0.9480000000000001, 0.11, 192.0, 0.0, 0.0, 0.0, 0.0, 0.0, 0.0, 0.0, 0.0, 0.0, 1.6665553266309407E9, 0.0, 2022-10-23 13:02:06.630
174.0, -65330.70687421643, -95411.88572786876, 55434.02498174012, 118.62070782431458, 83541.81302092232, 62909.34239737301, 19818.196573042464, 15931.652895409215, 0.052000000000000005, 0.9480000000000001, 0.11, 192.0, 0.0, 0.0, 0.0, 0.0, 0.0, 0.0, 0.0, 0.0, 0.0, 1.66655532663095E9, 0.0, 2022-10-23 13:02:06.630
175.0, -65314.54656297524, -95401.29100099695, 57454.443866544236, 1124.8068362244173, 83615.43966715809, 63783.96615790918, 21039.294724380343, 17101.230275777612, 0.052000000000000005, 0.9480000000000001, 0.11, 192.0, 0.0, 0.0, 0.0, 0.0, 0.0, 0.0, 0.0, 0.0, 0.0, 1.6665553266309693E9, 0.0, 2022-10-23 13:02:06.630
176.0, -65239.467053349865, -95335.26394787598, 55741.517930211776, 79.28163758297416, 83230.81084857117, 62920.585324834035, 19807.713604892924, 15643.985944269412, 0.052000000000000005, 0.9480000000000001, 0.11, 192.0, 0.0, 0.0, 0.0, 0.0, 0.0, 0.0, 0.0, 0.0, 0.0, 1.6665553266309795E9, 0.0, 2022-10-23 13:02:06.630
177.0, -65261.63998384953, -95357.68274756466, 54405.86708854045, -524.1260557324953, 83294.3121545687, 62383.875236973196, 19042.076950320836, 14968.829151252408, 0.052000000000000005, 0.9480000000000001, 0.11, 192.0, 0.0, 0.0, 0.0, 0.0, 0.0, 0.0, 0.0, 0.0, 0.0, 1.6665553266309893E9, 0.0, 2022-10-23 13:02:06.630
178.0, -65319.48629849986, -95414.83615813687, 55097.34065500983, -50.045555835432516, 83506.34080247174, 62776.59538705294, 19606.950236195356, 15697.138392584133, 0.052000000000000005, 0.9480000000000001, 0.11, 192.0, 0.0, 0.0, 0.0, 0.0, 0.0, 0.0, 0.0, 0.0, 0.0, 1.6665553266309984E9, 0.0, 2022-10-23 13:02:06.630
179.0, -65345.1237493901, -95444.31810907341, 57327.84358594938, 1102.142167346736, 83640.98771107051, 63764.18486406623, 20996.62524421516, 17090.970825072625, 0.052000000000000005, 0.9480000000000001, 0.11, 192.0, 0.0, 0.0, 0.0, 0.0, 0.0, 0.0, 0.0, 0.0, 0.0, 1.6665553266310077E9, 0.0, 2022-10-23 13:02:06.631
180.0, -65254.33096341264, -95357.81685803138, 56163.764734716984, 307.0906170714637, 83242.0984795211, 63105.769527646255, 20073.36408774425, 15934.469215210584, 0.052000000000000005, 0.9480000000000001, 0.11, 192.0, 0.0, 0.0, 0.0, 0.0, 0.0, 0.0, 0.0, 0.0, 0.0, 1.666555326631017E9, 0.0, 2022-10-23 13:02:06.631
181.0, -65273.62051887757, -95369.9538552706, 54427.25770798418, -538.8335035840873, 83233.15778173898, 62362.23874834046, 19016.57360989733, 14923.052778607938, 0.052000000000000005, 0.9480000000000001, 0.11, 192.0, 0.0, 0.0, 0.0, 0.0, 0.0, 0.0, 0.0, 0.0, 0.0, 1.6665553266310265E9, 0.0, 2022-10-23 13:02:06.631
182.0, -65316.35705427612, -95414.21030929212, 54804.42104392303, -211.9839444141322, 83444.11354590817, 62630.57144052642, 19395.70389934825, 15468.792971228717, 0.048, 0.9520000000000001, 0.114, 192.0, 1.0, 128.0, 29.0, 192.0, 3.0, 144.0, 0.0, 0.0, 0.0, 1.666555326631036E9, 0.0, 2022-10-23 13:02:06.631
183.0, -65334.90900217403, -95432.62814672329, 57019.27775374386, 976.7265292080081, 83666.33458928282, 63639.30566779443, 20817.967750783893, 16949.3501722038, 0.048, 0.9520000000000001, 0.114, 192.0, 0.0, 0.0, 0.0, 0.0, 0.0, 0.0, 0.0, 0.0, 0.0, 1.666555326631046E9, 0.0, 2022-10-23 13:02:06.631
184.0, -65268.63607986404, -95374.17833497266, 56661.091048847564, 611.6107835305671, 83337.27220741179, 63361.697001659515, 20418.02798724508, 16313.174821516852, 0.048, 0.9520000000000001, 0.114, 192.0, 0.0, 0.0, 0.0, 0.0, 0.0, 0.0, 0.0, 0.0, 0.0, 1.6665553266310568E9, 0.0, 2022-10-23 13:02:06.631
185.0, -65257.90724252549, -95363.20362844512, 54578.579017946606, -472.5382295296466, 83194.35515336457, 62427.90817355015, 19093.955349201602, 14959.48612207009, 0.048, 0.9520000000000001, 0.114, 192.0, 0.0, 0.0, 0.0, 0.0, 0.0, 0.0, 0.0, 0.0, 0.0, 1.6665553266310666E9, 0.0, 2022-10-23 13:02:06.631
186.0, -65296.10637379961, -95400.30752424092, 54589.53137272971, -342.1605041218405, 83394.42561798402, 62517.09163392683, 19232.737330524604, 15267.73902985323, 0.048, 0.9520000000000001, 0.114, 192.0, 0.0, 0.0, 0.0, 0.0, 0.0, 0.0, 0.0, 0.0, 0.0, 1.666555326631076E9, 0.0, 2022-10-23 13:02:06.631
187.0, -65348.9235459475, -95455.29281560097, 56602.2612574412, 773.3927098980797, 83650.62131293074, 63463.95623254255, 20567.650564628908, 16697.960102314963, 0.048, 0.9520000000000001, 0.114, 192.0, 0.0, 0.0, 0.0, 0.0, 0.0, 0.0, 0.0, 0.0, 0.0, 1.6665553266310856E9, 0.0, 2022-10-23 13:02:06.631
188.0, -65286.98686206184, -95398.85466085133, 57009.44298618352, 820.1525592985821, 83395.92318486252, 63532.79960546489, 20660.79028377417, 16586.42489748298, 0.048, 0.9520000000000001, 0.114, 192.0, 0.0, 0.0, 0.0, 0.0, 0.0, 0.0, 0.0, 0.0, 0.0, 1.666555326631095E9, 0.0, 2022-10-23 13:02:06.631
189.0, -65267.29497519672, -95377.8663728078, 54720.713760937906, -412.2555747336835, 83172.76336822074, 62474.8468369063, 19162.016411068013, 15004.68134935872, 0.048, 0.9520000000000001, 0.114, 192.0, 0.0, 0.0, 0.0, 0.0, 0.0, 0.0, 0.0, 0.0, 0.0, 1.6665553266311045E9, 0.0, 2022-10-23 13:02:06.631
190.0, -65316.24529555385, -95417.2724982825, 54458.21487405478, -403.5383943961137, 83380.12050153263, 62467.26959553595, 19143.620925381296, 15146.95020281675, 0.048, 0.9520000000000001, 0.114, 192.0, 0.0, 0.0, 0.0, 0.0, 0.0, 0.0, 0.0, 0.0, 0.0, 1.666555326631114E9, 0.0, 2022-10-23 13:02:06.631
191.0, -65347.0236476688, -95442.30645207244, 56154.3546503013, 564.2697887742268, 83626.88376031921, 63287.64567227908, 20303.743517845098, 16432.756654352743, 0.048, 0.9520000000000001, 0.114, 192.0, 0.0, 0.0, 0.0, 0.0, 0.0, 0.0, 0.0, 0.0, 0.0, 1.6665553266311328E9, 0.0, 2022-10-23 13:02:06.631
192.0, -65304.421222736986, -95406.34249524385, 57269.885512576766, 998.2959626073794, 83474.15429045609, 63672.60976703284, 20860.011382104323, 16846.10746456474, 0.048, 0.9500000000000001, 0.11800000000000001, 192.0, 1.0, 128.0, 29.0, 176.0, 3.0, 176.0, 0.0, 0.0, 0.0, 1.6665553266311424E9, 0.0, 2022-10-23 13:02:06.631
193.0, -65265.126855984556, -95371.38436691575, 55006.39140682118, -276.73694810115677, 83161.58749599308, 62587.83490512788, 19329.430977038264, 15172.05121184006, 0.048, 0.9500000000000001, 0.11800000000000001, 192.0, 0.0, 0.0, 0.0, 0.0, 0.0, 0.0, 0.0, 0.0, 0.0, 1.6665553266311524E9, 0.0, 2022-10-23 13:02:06.631
194.0, -65311.14909781803, -95416.28902152646, 54341.13643659788, -497.01338970820785, 83321.2683583818, 62370.84416995575, 19029.939953081604, 15017.645361142799, 0.048, 0.9500000000000001, 0.11800000000000001, 192.0, 0.0, 0.0, 0.0, 0.0, 0.0, 0.0, 0.0, 0.0, 0.0, 1.666555326631162E9, 0.0, 2022-10-23 13:02:06.631
195.0, -65357.819540240715, -95462.37831859331, 55666.438420586404, 291.37734071938286, 83564.85766945573, 63036.546175068164, 19978.05624938682, 16110.779775474046, 0.048, 0.9500000000000001, 0.11800000000000001, 192.0, 0.0, 0.0, 0.0, 0.0, 0.0, 0.0, 0.0, 0.0, 0.0, 1.6665553266311712E9, 0.0, 2022-10-23 13:02:06.631
196.0, -65331.176260849985, -95440.4289055382, 57429.14169182083, 1127.2208246255905, 83559.31443683081, 63773.50554150409, 21004.850686174716, 17041.148786681748, 0.048, 0.9500000000000001, 0.11800000000000001, 192.0, 0.0, 0.0, 0.0, 0.0, 0.0, 0.0, 0.0, 0.0, 0.0, 1.6665553266311812E9, 0.0, 2022-10-23 13:02:06.631
197.0, -65277.12974275705, -95388.99754154653, 55438.16005446435, -46.40222148921746, 83188.34253410608, 62799.17064895281, 19616.248561888762, 15446.642392473506, 0.048, 0.9500000000000001, 0.11800000000000001, 192.0, 0.0, 0.0, 0.0, 0.0, 0.0, 0.0, 0.0, 0.0, 0.0, 1.6665553266311922E9, 0.0, 2022-10-23 13:02:06.631
198.0, -65318.77104267729, -95426.81669316492, 54396.21113493576, -480.47309881128064, 83283.5609654857, 62413.71481582103, 19062.886424408727, 14993.863105042352, 0.048, 0.9500000000000001, 0.11800000000000001, 192.0, 0.0, 0.0, 0.0, 0.0, 0.0, 0.0, 0.0, 0.0, 0.0, 1.6665553266312015E9, 0.0, 2022-10-23 13:02:06.631
199.0, -65337.03241789728, -95439.95951890464, 55308.89991627931, 97.1183296583092, 83509.49239843994, 62893.942045443306, 19756.841034512643, 15845.218699600542, 0.048, 0.9500000000000001, 0.11800000000000001, 192.0, 0.0, 0.0, 0.0, 0.0, 0.0, 0.0, 0.0, 0.0, 0.0, 1.6665553266312108E9, 0.0, 2022-10-23 13:02:06.631
200.0, -65351.91867970451, -95455.784553979, 57385.712252344165, 1131.0653246719032, 83609.62821359972, 63778.221759584165, 21012.517334522883, 17074.922272553715, 0.048, 0.9500000000000001, 0.11800000000000001, 192.0, 0.0, 0.0, 0.0, 0.0, 0.0, 0.0, 0.0, 0.0, 0.0, 1.6665553266312203E9, 0.0, 2022-10-23 13:02:06.631
201.0, -65284.39405970503, -95394.16079451572, 55863.9831380824, 171.79550788349007, 83221.98190951132, 62994.43548851437, 19893.968986745953, 15724.92161094208, 0.048, 0.9500000000000001, 0.11800000000000001, 192.0, 0.0, 0.0, 0.0, 0.0, 0.0, 0.0, 0.0, 0.0, 0.0, 1.6665553266312296E9, 0.0, 2022-10-23 13:02:06.631
202.0, -65305.739975659846, -95412.28805926896, 54387.1363266869, -516.6605730844227, 83257.0517965617, 62387.093888174764, 19029.00117981448, 14933.558098501933, 0.06, 0.964, 0.126, 192.0, 1.0, 224.0, 30.0, 32.0, 3.0, 240.0, 0.0, 0.0, 0.0, 1.6665553266312392E9, 0.0, 2022-10-23 13:02:06.631
203.0, -65339.04407489826, -95443.75931546204, 54952.389592217165, -103.39916985025047, 83475.29422942332, 62723.48764222713, 19515.86687753998, 15590.028833154302, 0.06, 0.964, 0.126, 192.0, 0.0, 0.0, 0.0, 0.0, 0.0, 0.0, 0.0, 0.0, 0.0, 1.6665553266312492E9, 0.0, 2022-10-23 13:02:06.631
204.0, -65378.36079339514, -95482.31607464745, 57203.72434898905, 1076.6611786676858, 83657.72916766754, 63730.56784040545, 20931.805185294772, 17036.03023720148, 0.06, 0.964, 0.126, 192.0, 0.0, 0.0, 0.0, 0.0, 0.0, 0.0, 0.0, 0.0, 0.0, 1.6665553266312585E9, 0.0, 2022-10-23 13:02:06.631
205.0, -65299.30267325672, -95409.33762900086, 56351.36292593038, 450.90174089690936, 83279.91763113948, 63231.319276251714, 20217.86811564781, 16079.286167536518, 0.06, 0.964, 0.126, 192.0, 0.0, 0.0, 0.0, 0.0, 0.0, 0.0, 0.0, 0.0, 0.0, 1.6665553266312675E9, 0.0, 2022-10-23 13:02:06.631
206.0, -65295.4134697215, -95408.018876078, 54489.082633147555, -476.44978480932537, 83230.60968287107, 62423.14725198117, 19068.63082273374, 14947.304421341947, 0.06, 0.964, 0.126, 192.0, 0.0, 0.0, 0.0, 0.0, 0.0, 0.0, 0.0, 0.0, 0.0, 1.6665553266312895E9, 0.0, 2022-10-23 13:02:06.631
207.0, -65346.53190929078, -95456.81273422393, 54703.90524910751, -247.5455698425257, 83421.62769098612, 62597.513210477024, 19330.950895661223, 15380.2800631857, 0.06, 0.964, 0.126, 192.0, 0.0, 0.0, 0.0, 0.0, 0.0, 0.0, 0.0, 0.0, 0.0, 1.666555326631299E9, 0.0, 2022-10-23 13:02:06.631
208.0, -65373.59987182616, -95479.25388565706, 56867.39765017005, 922.3000314593353, 83656.9468566116, 63592.56817013839, 20732.449976497886, 16856.38926701418, 0.06, 0.964, 0.126, 192.0, 0.0, 0.0, 0.0, 0.0, 0.0, 0.0, 0.0, 0.0, 0.0, 1.6665553266313083E9, 0.0, 2022-10-23 13:02:06.631
209.0, -65314.278342041776, -95427.55430073194, 56779.55529446069, 697.4414822389463, 83350.41503315151, 63435.21188917302, 20504.77510747613, 16402.604151082534, 0.06, 0.964, 0.126, 192.0, 0.0, 0.0, 0.0, 0.0, 0.0, 0.0, 0.0, 0.0, 0.0, 1.6665553266313176E9, 0.0, 2022-10-23 13:02:06.631
210.0, -65294.07236505418, -95407.8177103779, 54606.608105493564, -442.7657059151776, 83186.7332085053, 62457.1889587866, 19115.234209923055, 14962.503607571556, 0.06, 0.964, 0.126, 192.0, 0.0, 0.0, 0.0, 0.0, 0.0, 0.0, 0.0, 0.0, 0.0, 1.666555326631327E9, 0.0, 2022-10-23 13:02:06.631
211.0, -65320.425071766986, -95437.43377178119, 54540.29047969467, -334.65031798485734, 83404.05921984426, 62537.36466614779, 19220.846202474382, 15234.926668992839, 0.048, 0.9520000000000001, 0.116, 192.0, 1.0, 128.0, 29.0, 192.0, 3.0, 160.0, 0.0, 0.0, 0.0, 1.6665553266313367E9, 0.0, 2022-10-23 13:02:06.631
212.0, -65371.69997354746, -95478.62803681231, 56426.33067683347, 711.8583574126193, 83642.64174016021, 63425.84650824625, 20477.30481354056, 16604.127479091585, 0.048, 0.9520000000000001, 0.116, 192.0, 0.0, 0.0, 0.0, 0.0, 0.0, 0.0, 0.0, 0.0, 0.0, 1.6665553266313467E9, 0.0, 2022-10-23 13:02:06.631
213.0, -65330.12572886059, -95441.9264724167, 57098.20176341555, 900.2612114264026, 83432.87061844715, 63611.008359314015, 20744.05053187019, 16690.87459932263, 0.048, 0.9520000000000001, 0.116, 192.0, 0.0, 0.0, 0.0, 0.0, 0.0, 0.0, 0.0, 0.0, 0.0, 1.666555326631356E9, 0.0, 2022-10-23 13:02:06.631
214.0, -65290.65254815252, -95411.03636157946, 54796.88850604159, -363.3723096099269, 83168.00244665175, 62535.12949170226, 19222.679045519715, 15059.778399441053, 0.048, 0.9520000000000001, 0.116, 192.0, 0.0, 0.0, 0.0, 0.0, 0.0, 0.0, 0.0, 0.0, 0.0, 1.6665553266313653E9, 0.0, 2022-10-23 13:02:06.631
215.0, -65326.21417358091, -95441.99352765006, 54365.343375842975, -457.45080202231435, 83352.60550410814, 62430.12099625123, 19079.873750194758, 15079.671452006276, 0.048, 0.9520000000000001, 0.116, 192.0, 0.0, 0.0, 0.0, 0.0, 0.0, 0.0, 0.0, 0.0, 0.0, 1.6665553266313744E9, 0.0, 2022-10-23 13:02:06.631
216.0, -65380.99829924087, -95491.65910382976, 55938.74972328541, 457.0037671332082, 83596.8877192602, 63201.99378752635, 20171.644708114232, 16308.011568547676, 0.048, 0.9520000000000001, 0.116, 192.0, 0.0, 0.0, 0.0, 0.0, 0.0, 0.0, 0.0, 0.0, 0.0, 1.6665553266313837E9, 0.0, 2022-10-23 13:02:06.631
217.0, -65341.21219411042, -95454.84578071187, 57331.889251695786, 1073.30841699939, 83518.05311656633, 63744.64943941229, 20932.878069028626, 16941.92939304464, 0.048, 0.9520000000000001, 0.116, 192.0, 0.0, 0.0, 0.0, 0.0, 0.0, 0.0, 0.0, 0.0, 0.0, 1.666555326631394E9, 0.0, 2022-10-23 13:02:06.631
218.0, -65286.785696361745, -95402.43093996418, 55131.494120537536, -184.5136504785598, 83184.65449627096, 62680.281720195024, 19430.37145499843, 15271.985861299738, 0.048, 0.9520000000000001, 0.116, 192.0, 0.0, 0.0, 0.0, 0.0, 0.0, 0.0, 0.0, 0.0, 0.0, 1.6665553266314032E9, 0.0, 2022-10-23 13:02:06.631
219.0, -65321.050920611735, -95437.45612352564, 54331.34637252645, -482.55181104562416, 83330.34316663066, 62403.030681971395, 19040.802900886883, 15016.326608219935, 0.048, 0.9520000000000001, 0.116, 192.0, 0.0, 0.0, 0.0, 0.0, 0.0, 0.0, 0.0, 0.0, 0.0, 1.6665553266314137E9, 0.0, 2022-10-23 13:02:06.631
220.0, -65367.609604312136, -95482.89722000327, 55482.572970697045, 213.77208397055674, 83555.64875074015, 62983.05845058661, 19875.618204548147, 16008.520544591016, 0.048, 0.9520000000000001, 0.116, 192.0, 0.0, 0.0, 0.0, 0.0, 0.0, 0.0, 0.0, 0.0, 0.0, 1.6665553266314228E9, 0.0, 2022-10-23 13:02:06.631
221.0, -65361.9769647094, -95476.66108330025, 57381.39836566429, 1138.3519933643333, 83598.31823090532, 63784.59200675393, 21001.229703572953, 17065.556891626944, 0.054, 0.9540000000000001, 0.122, 192.0, 1.0, 176.0, 29.0, 208.0, 3.0, 208.0, 0.0, 0.0, 0.0, 1.666555326631432E9, 0.0, 2022-10-23 13:02:06.631
222.0, -65300.10733605711, -95423.97802161908, 55516.52527052466, 14.908613551689811, 83201.95474647937, 62850.95964085575, 19678.364059730062, 15521.3642741876, 0.054, 0.9540000000000001, 0.122, 192.0, 0.0, 0.0, 0.0, 0.0, 0.0, 0.0, 0.0, 0.0, 0.0, 1.6665553266314511E9, 0.0, 2022-10-23 13:02:06.631
223.0, -65338.038246397766, -95448.56494051992, 54286.419366171285, -530.6974686023556, 83278.82239566116, 62363.401039052136, 18987.71750780553, 14930.875889167297, 0.054, 0.9540000000000001, 0.122, 192.0, 0.0, 0.0, 0.0, 0.0, 0.0, 0.0, 0.0, 0.0, 0.0, 1.6665553266314616E9, 0.0, 2022-10-23 13:02:06.631
224.0, -65369.37539212411, -95485.91470550475, 55078.56518966737, -1.050531989399432, 83510.09589554023, 62803.79746005505, 19615.913285721934, 15725.860384209203, 0.054, 0.9540000000000001, 0.122, 192.0, 0.0, 0.0, 0.0, 0.0, 0.0, 0.0, 0.0, 0.0, 0.0, 1.6665553266314704E9, 0.0, 2022-10-23 13:02:06.631
225.0, -65386.139200465586, -95508.35585693788, 57272.90299807823, 1124.918594946694, 83640.33951048131, 63774.42196302676, 20972.552415436796, 17074.00585103105, 0.054, 0.9540000000000001, 0.122, 192.0, 0.0, 0.0, 0.0, 0.0, 0.0, 0.0, 0.0, 0.0, 0.0, 1.6665553266314807E9, 0.0, 2022-10-23 13:02:06.631
226.0, -65318.59222872165, -95444.4298677957, 55948.49508386792, 255.65925307980217, 83230.78849682672, 63062.65301259197, 19961.80653116781, 15824.498632490473, 0.054, 0.9540000000000001, 0.122, 192.0, 0.0, 0.0, 0.0, 0.0, 0.0, 0.0, 0.0, 0.0, 0.0, 1.6665553266314895E9, 0.0, 2022-10-23 13:02:06.631
227.0, -65327.93525790397, -95455.29281560097, 54315.83426187447, -525.2883464441712, 83240.31033996468, 62374.643966513155, 18982.46484785853, 14900.075185307884, 0.054, 0.9540000000000001, 0.122, 192.0, 0.0, 0.0, 0.0, 0.0, 0.0, 0.0, 0.0, 0.0, 0.0, 1.666555326631498E9, 0.0, 2022-10-23 13:02:06.631
228.0, -65371.78938052528, -95491.99437999658, 54747.11117113962, -180.24446728759617, 83452.96483671246, 62653.25846114856, 19386.8749602884, 15475.163218398478, 0.054, 0.9540000000000001, 0.122, 192.0, 0.0, 0.0, 0.0, 0.0, 0.0, 0.0, 0.0, 0.0, 0.0, 1.666555326631507E9, 0.0, 2022-10-23 13:02:06.631
229.0, -65408.04391003179, -95507.08180750393, 56996.590733121724, 1017.0043727164714, 83664.5464497264, 63677.43774383519, 20823.77920434227, 16958.06735254137, 0.054, 0.9540000000000001, 0.122, 192.0, 0.0, 0.0, 0.0, 0.0, 0.0, 0.0, 0.0, 0.0, 0.0, 1.666555326631516E9, 0.0, 2022-10-23 13:02:06.631
230.0, -65321.944990389944, -95429.9235856442, 56385.98577809165, 513.3748666494926, 83310.87479721008, 63274.167570372534, 20257.117778911328, 16157.316107429995, 0.054, 0.9540000000000001, 0.122, 192.0, 0.0, 0.0, 0.0, 0.0, 0.0, 0.0, 0.0, 0.0, 0.0, 1.6665553266315248E9, 0.0, 2022-10-23 13:02:06.631
231.0, -65323.82253692419, -95447.5814637639, 54419.881632313925, -483.8929157129426, 83219.52321762124, 62417.91694377863, 19034.81263337286, 14925.109139097827, 0.044, 0.9520000000000001, 0.122, 192.0, 1.0, 96.0, 29.0, 192.0, 3.0, 208.0, 0.0, 0.0, 0.0, 1.6665553266315336E9, 0.0, 2022-10-23 13:02:06.631
232.0, -65339.37935106509, -95454.06346965593, 54549.61115713253, -283.9565615602209, 83428.13204862262, 62575.11676253281, 19261.414618660765, 15319.617428733996, 0.044, 0.9520000000000001, 0.122, 192.0, 0.0, 0.0, 0.0, 0.0, 0.0, 0.0, 0.0, 0.0, 0.0, 1.6665553266315427E9, 0.0, 2022-10-23 13:02:06.631
233.0, -65374.94097649348, -95491.70380731867, 56611.738397090245, 839.4644665079674, 83668.03332186143, 63523.970666405046, 20609.537733738154, 16758.913309444586, 0.044, 0.9520000000000001, 0.122, 192.0, 0.0, 0.0, 0.0, 0.0, 0.0, 0.0, 0.0, 0.0, 0.0, 1.6665553266315517E9, 0.0, 2022-10-23 13:02:06.631
234.0, -65319.59805722214, -95440.8312369384, 56783.779774162744, 752.4044218545464, 83397.44310348548, 63476.94259607108, 20548.4504161418, 16493.531047526725, 0.044, 0.9520000000000001, 0.122, 192.0, 0.0, 0.0, 0.0, 0.0, 0.0, 0.0, 0.0, 0.0, 0.0, 1.6665553266315603E9, 0.0, 2022-10-23 13:02:06.631
235.0, -65312.82547865218, -95426.79434142046, 54549.298232710156, -440.30701402509385, 83201.77593252373, 62459.4911884655, 19107.344044130332, 14983.380136892813, 0.044, 0.9520000000000001, 0.122, 192.0, 0.0, 0.0, 0.0, 0.0, 0.0, 0.0, 0.0, 0.0, 0.0, 1.6665553266315691E9, 0.0, 2022-10-23 13:02:06.631
236.0, -65367.542549078775, -95476.86224900035, 54352.60288150345, -411.29444972210524, 83389.3294202482, 62468.49894148099, 19125.180736205668, 15164.04928732506, 0.044, 0.9520000000000001, 0.122, 192.0, 0.0, 0.0, 0.0, 0.0, 0.0, 0.0, 0.0, 0.0, 0.0, 1.666555326631578E9, 0.0, 2022-10-23 13:02:06.631
237.0, -65412.11192752265, -95536.295537507, 56132.047609334906, 588.2979140636819, 83627.86723707525, 63317.90993427157, 20329.045692568507, 16487.294910823693, 0.044, 0.9520000000000001, 0.122, 192.0, 0.0, 0.0, 0.0, 0.0, 0.0, 0.0, 0.0, 0.0, 0.0, 1.666555326631595E9, 0.0, 2022-10-23 13:02:06.631
238.0, -65362.781627509794, -95494.74364456459, 57088.29994062185, 940.181427023581, 83458.23984840391, 63646.1229498533, 20791.10095394861, 16780.594501566233, 0.044, 0.9520000000000001, 0.122, 192.0, 0.0, 0.0, 0.0, 0.0, 0.0, 0.0, 0.0, 0.0, 0.0, 1.6665553266316037E9, 0.0, 2022-10-23 13:02:06.631
239.0, -65318.43576651046, -95438.30548981494, 54816.89331732909, -321.8204166675111, 83175.66909499993, 62580.41412596872, 19279.34071771392, 15134.165004988314, 0.044, 0.9520000000000001, 0.122, 192.0, 0.0, 0.0, 0.0, 0.0, 0.0, 0.0, 0.0, 0.0, 0.0, 1.6665553266316123E9, 0.0, 2022-10-23 13:02:06.631
240.0, -65362.6251652986, -95467.22864714012, 54233.06575215647, -509.105683458529, 83329.00206196333, 62392.01127195493, 19028.554144925376, 15036.577288696444, 0.056, 0.9500000000000001, 0.114, 192.0, 1.0, 192.0, 29.0, 176.0, 3.0, 144.0, 0.0, 0.0, 0.0, 1.6665553266316233E9, 0.0, 2022-10-23 13:02:06.631
241.0, -65409.273255976834, -95511.21688022815, 55665.56670255264, 336.48316103019255, 83588.10348368925, 63105.411899734965, 20040.216450717027, 16196.498715460148, 0.056, 0.9500000000000001, 0.114, 192.0, 0.0, 0.0, 0.0, 0.0, 0.0, 0.0, 0.0, 0.0, 0.0, 1.666555327108992E9, 0.0, 2022-10-23 13:02:07.108
242.0, -65364.83798799968, -95482.60664732536, 57290.82909713138, 1095.436644010144, 83552.34069256076, 63776.92535840576, 20971.85951135868, 17014.729024735574, 0.056, 0.9500000000000001, 0.114, 192.0, 0.0, 0.0, 0.0, 0.0, 0.0, 0.0, 0.0, 0.0, 0.0, 1.6665553271091118E9, 0.0, 2022-10-23 13:02:07.109
243.0, -65319.84392641115, -95444.36281256234, 55161.28899589646, -147.186237238197, 83176.40670256695, 62727.57801146246, 19492.643415050916, 15350.75340876024, 0.056, 0.9500000000000001, 0.114, 192.0, 0.0, 0.0, 0.0, 0.0, 0.0, 0.0, 0.0, 0.0, 0.0, 1.6665553271091244E9, 0.0, 2022-10-23 13:02:07.109
244.0, -65366.67083104502, -95494.18485095321, 54191.82678363643, -541.8509890855538, 83301.9117476835, 62357.9695651495, 18978.195664667568, 14970.05849719745, 0.056, 0.9500000000000001, 0.114, 192.0, 0.0, 0.0, 0.0, 0.0, 0.0, 0.0, 0.0, 0.0, 0.0, 1.6665553271091363E9, 0.0, 2022-10-23 13:02:07.109
245.0, -65412.51425892285, -95535.75909564008, 55221.72811290361, 100.53814655997117, 83537.99087262046, 62890.790449475106, 19747.229784396863, 15898.86288629328, 0.056, 0.9500000000000001, 0.114, 192.0, 0.0, 0.0, 0.0, 0.0, 0.0, 0.0, 0.0, 0.0, 0.0, 1.666555327109148E9, 0.0, 2022-10-23 13:02:07.109
246.0, -65402.23245647341, -95530.57349092644, 57234.48034935956, 1090.78748116344, 83590.24925115696, 63742.97305857814, 20952.368790193654, 17054.47042637711, 0.056, 0.9500000000000001, 0.114, 192.0, 0.0, 0.0, 0.0, 0.0, 0.0, 0.0, 0.0, 0.0, 0.0, 1.6665553271091597E9, 0.0, 2022-10-23 13:02:07.109
247.0, -65314.92654263098, -95454.48815280058, 55547.70595403981, 53.71124192610287, 83207.36386863755, 62887.1918186178, 19735.495118557825, 15615.509821833351, 0.056, 0.9500000000000001, 0.114, 192.0, 0.0, 0.0, 0.0, 0.0, 0.0, 0.0, 0.0, 0.0, 0.0, 1.666555327109171E9, 0.0, 2022-10-23 13:02:07.109
248.0, -65349.16941513651, -95483.65717931476, 54200.90159188528, -555.1502770364615, 83271.66983743547, 62351.26404181291, 18968.98674595198, 14933.692208968665, 0.056, 0.9500000000000001, 0.114, 192.0, 0.0, 0.0, 0.0, 0.0, 0.0, 0.0, 0.0, 0.0, 0.0, 1.6665553271091826E9, 0.0, 2022-10-23 13:02:07.109
249.0, -65398.87969480512, -95528.13715078082, 54826.57162267824, -129.7518765630575, 83458.26220014837, 62700.10771752688, 19486.72020277026, 15619.0861009462, 0.056, 0.9500000000000001, 0.114, 192.0, 0.0, 0.0, 0.0, 0.0, 0.0, 0.0, 0.0, 0.0, 0.0, 1.666555327109194E9, 0.0, 2022-10-23 13:02:07.109
250.0, -65411.35196821117, -95540.92234860925, 57074.57596952629, 1042.373602673245, 83639.40073721418, 63710.18304946221, 20904.491353570385, 17047.116702451312, 0.058, 0.9460000000000001, 0.116, 192.0, 1.0, 208.0, 29.0, 144.0, 3.0, 160.0, 0.0, 0.0, 0.0, 1.6665553271092055E9, 0.0, 2022-10-23 13:02:07.109
251.0, -65322.63789446806, -95458.19854238017, 56021.40647428113, 317.81945441001113, 83273.905011881, 63129.77530119125, 20074.705192411566, 15975.864645941812, 0.058, 0.9460000000000001, 0.116, 192.0, 0.0, 0.0, 0.0, 0.0, 0.0, 0.0, 0.0, 0.0, 0.0, 1.666555327109218E9, 0.0, 2022-10-23 13:02:07.109
252.0, -65336.18305160798, -95463.71942326063, 54272.29306367553, -537.8053233391432, 83240.26563647576, 62387.026832941396, 19012.840868573294, 14942.141168372771, 0.058, 0.9460000000000001, 0.116, 192.0, 0.0, 0.0, 0.0, 0.0, 0.0, 0.0, 0.0, 0.0, 0.0, 1.6665553271092296E9, 0.0, 2022-10-23 13:02:07.109
253.0, -65383.00995624185, -95507.10415924838, 54595.61104722155, -245.22098841917378, 83454.50710707989, 62620.379045054804, 19352.386218593863, 15451.67153497595, 0.058, 0.9460000000000001, 0.116, 192.0, 0.0, 0.0, 0.0, 0.0, 0.0, 0.0, 0.0, 0.0, 0.0, 1.6665553271092951E9, 0.0, 2022-10-23 13:02:07.109
254.0, -65433.27902952183, -95569.1078983674, 56837.11103643311, 961.437936000578, 83673.88947890872, 63655.86831043581, 20800.39927964202, 16957.620317652265, 0.058, 0.9460000000000001, 0.116, 192.0, 0.0, 0.0, 0.0, 0.0, 0.0, 0.0, 0.0, 0.0, 0.0, 1.6665553271093063E9, 0.0, 2022-10-23 13:02:07.109
255.0, -65338.70879873143, -95472.39190010929, 56516.341151755, 605.3746468275365, 83323.9729194609, 63384.04874611482, 20414.98814999916, 16336.442987494826, 0.058, 0.9460000000000001, 0.116, 192.0, 0.0, 0.0, 0.0, 0.0, 0.0, 0.0, 0.0, 0.0, 0.0, 1.6665553271093175E9, 0.0, 2022-10-23 13:02:07.109
0.0, -65336.18305160798, -95472.99539720958, 54403.76602456165, -498.4886048422581, 83189.50482481776, 62428.35520843926, 19068.027325633448, 14961.944813960174, 0.058, 0.9460000000000001, 0.116, 192.0, 0.0, 0.0, 0.0, 0.0, 0.0, 0.0, 0.0, 0.0, 0.0, 1.6665553271093287E9, 0.0, 2022-10-23 13:02:07.109
1.0, -65371.61056656964, -95500.6892085897, 54425.62603063894, -354.8786467169102, 83402.04756284328, 62537.09644521433, 19223.99779844258, 15281.150076526414, 0.058, 0.9460000000000001, 0.116, 192.0, 0.0, 0.0, 0.0, 0.0, 0.0, 0.0, 0.0, 0.0, 0.0, 1.66655532710934E9, 0.0, 2022-10-23 13:02:07.109
2.0, -65415.911724080055, -95539.71535440868, 56424.65429599933, 750.772744509309, 83649.81665013035, 63476.070878037324, 20547.913974274874, 16704.375052973635, 0.058, 0.9460000000000001, 0.116, 192.0, 0.0, 0.0, 0.0, 0.0, 0.0, 0.0, 0.0, 0.0, 0.0, 1.6665553271093512E9, 0.0, 2022-10-23 13:02:07.109
3.0, -65352.20925238243, -95485.28885666, 56870.86217056062, 812.7317801394202, 83405.33326927821, 63548.289364372424, 20658.689219795375, 16626.926258435997, 0.058, 0.9460000000000001, 0.116, 192.0, 0.0, 0.0, 0.0, 0.0, 0.0, 0.0, 0.0, 0.0, 0.0, 1.6665553271093628E9, 0.0, 2022-10-23 13:02:07.109
4.0, -65324.470737513395, -95458.53381854699, 54570.688852153886, -436.84249363452125, 83174.14917637696, 62480.0994968533, 19150.88524232927, 15032.621029927854, 0.056, 0.9520000000000001, 0.122, 192.0, 1.0, 192.0, 29.0, 192.0, 3.0, 208.0, 0.0, 0.0, 0.0, 1.6665553271093743E9, 0.0, 2022-10-23 13:02:07.109
5.0, -65369.75537177985, -95502.43264465722, 54239.59246153742, -478.4837935547583, 83358.17108847751, 62423.70604559255, 19078.622052505263, 15122.229173449181, 0.056, 0.9520000000000001, 0.122, 192.0, 0.0, 0.0, 0.0, 0.0, 0.0, 0.0, 0.0, 0.0, 0.0, 1.6665553271093924E9, 0.0, 2022-10-23 13:02:07.109
6.0, -65421.007921815864, -95552.52290398156, 55897.86838267665, 470.0571858951075, 83602.47565537402, 63221.93154358048, 20215.56588596891, 16387.315557875107, 0.056, 0.9520000000000001, 0.122, 192.0, 0.0, 0.0, 0.0, 0.0, 0.0, 0.0, 0.0, 0.0, 0.0, 1.666555327109404E9, 0.0, 2022-10-23 13:02:07.109
7.0, -65370.068296202226, -95503.4384731577, 57115.45731013505, 983.2308868445024, 83496.52838665586, 63681.2822438815, 20861.12896932709, 16884.306595838858, 0.056, 0.9520000000000001, 0.122, 192.0, 0.0, 0.0, 0.0, 0.0, 0.0, 0.0, 0.0, 0.0, 0.0, 1.6665553271094167E9, 0.0, 2022-10-23 13:02:07.109
8.0, -65316.580571720675, -95453.23645511108, 54873.82321045676, -280.02265453608686, 83176.6302200115, 62617.652132231255, 19351.31333486001, 15218.744006007197, 0.056, 0.9520000000000001, 0.122, 192.0, 0.0, 0.0, 0.0, 0.0, 0.0, 0.0, 0.0, 0.0, 0.0, 1.6665553271094291E9, 0.0, 2022-10-23 13:02:07.109
9.0, -65356.25491812884, -95483.21014442566, 54159.10382975386, -532.1726837364058, 83328.44326835196, 62372.29703334535, 19010.806859827862, 15028.731826392632, 0.056, 0.9520000000000001, 0.122, 192.0, 0.0, 0.0, 0.0, 0.0, 0.0, 0.0, 0.0, 0.0, 0.0, 1.6665553271094408E9, 0.0, 2022-10-23 13:02:07.109
10.0, -65407.239247231395, -95533.90390085029, 55443.45741790026, 235.94501447022137, 83571.98787593697, 63016.25079110275, 19930.357626719193, 16100.47562128015, 0.056, 0.9520000000000001, 0.122, 192.0, 0.0, 0.0, 0.0, 0.0, 0.0, 0.0, 0.0, 0.0, 0.0, 1.6665553271094518E9, 0.0, 2022-10-23 13:02:07.109
11.0, -65393.202351713466, -95528.98651707012, 57222.209241653596, 1081.0421205809262, 83572.16668989262, 63752.11492206036, 20964.729304877437, 17046.535557095474, 0.056, 0.9520000000000001, 0.122, 192.0, 0.0, 0.0, 0.0, 0.0, 0.0, 0.0, 0.0, 0.0, 0.0, 1.6665553271094632E9, 0.0, 2022-10-23 13:02:07.109
12.0, -65316.53586823176, -95456.90214120176, 55245.97975563762, -87.46237605361654, 83186.21911838283, 62777.84708474244, 19580.64223297146, 15457.035953645225, 0.056, 0.9520000000000001, 0.122, 192.0, 0.0, 0.0, 0.0, 0.0, 0.0, 0.0, 0.0, 0.0, 0.0, 1.666555327109475E9, 0.0, 2022-10-23 13:02:07.109
