%OpenBCI Raw EEG Data
%Number of channels = 8
%Sample Rate = 250 Hz
%Board = OpenBCI_GUI$BoardCytonSerial
Sample Index, EXG Channel 0, EXG Channel 1, EXG Channel 2, EXG Channel 3, EXG Channel 4, EXG Channel 5, EXG Channel 6, EXG Channel 7, Accel Channel 0, Accel Channel 1, Accel Channel 2, Other, Other, Other, Other, Other, Other, Other, Analog Channel 0, Analog Channel 1, Analog Channel 2, Timestamp, Other, Timestamp (Formatted)
148.0, -68290.92720638838, -99744.70433529667, 55717.69097062242, 7634.685353599233, 85149.41753738136, 67175.82102725757, 25496.09845830184, 17518.380882547008, 0.0, 0.0, 0.0, 192.0, 0.0, 0.0, 0.0, 0.0, 0.0, 0.0, 0.0, 0.0, 0.0, 1.6665554170417895E9, 0.0, 2022-10-23 13:03:37.041
149.0, -68317.68224450138, -99760.70818432668, 54393.461870367755, 7068.381556079574, 85199.9101281059, 66668.54818684437, 24752.925306907335, 16864.726467696008, 0.0, 0.0, 0.0, 192.0, 0.0, 0.0, 0.0, 0.0, 0.0, 0.0, 0.0, 0.0, 0.0, 1.6665554170418108E9, 0.0, 2022-10-23 13:03:37.041
150.0, -68366.02906775821, -99802.19302203573, 55117.010190130495, 7567.205437088662, 85438.49264842184, 67072.5336161296, 25330.092052232274, 17602.62460739906, 0.0, 0.0, 0.0, 192.0, 0.0, 0.0, 0.0, 0.0, 0.0, 0.0, 0.0, 0.0, 0.0, 1.6665554170418224E9, 0.0, 2022-10-23 13:03:37.041
151.0, -68375.640317874, -99803.06474006949, 57352.519911828036, 8683.272741231054, 85610.71283944999, 68024.53911597004, 26695.42601054025, 18970.730182019495, 0.014, 0.962, 0.084, 192.0, 0.0, 112.0, 30.0, 16.0, 2.0, 160.0, 0.0, 0.0, 0.0, 1.6665554170418332E9, 0.0, 2022-10-23 13:03:37.041
152.0, -68294.8164099236, -99728.20874788867, 56185.20005764962, 7889.919923534385, 85206.95092760932, 67394.39873628602, 25800.797438716585, 17842.0117905154, 0.014, 0.962, 0.084, 192.0, 0.0, 0.0, 0.0, 0.0, 0.0, 0.0, 0.0, 0.0, 0.0, 1.6665554170418468E9, 0.0, 2022-10-23 13:03:37.041
153.0, -68307.60160775205, -99734.33312586941, 54489.55201978112, 7104.859603030634, 85174.36208419349, 66717.40910022368, 24801.54035109763, 16879.4339155476, 0.014, 0.962, 0.084, 192.0, 0.0, 0.0, 0.0, 0.0, 0.0, 0.0, 0.0, 0.0, 0.0, 1.6665554170418582E9, 0.0, 2022-10-23 13:03:37.041
154.0, -68348.885279761, -99765.87143729585, 54849.7950851673, 7418.745150416512, 85381.4509965719, 66959.7020101192, 25151.009875656353, 17392.607616496996, 0.014, 0.962, 0.084, 192.0, 0.0, 0.0, 0.0, 0.0, 0.0, 0.0, 0.0, 0.0, 0.0, 1.6665554170418692E9, 0.0, 2022-10-23 13:03:37.041
155.0, -68378.07665801962, -99793.6546556538, 57068.2727775899, 8570.351728242842, 85617.15014185311, 67925.029149655, 26539.142613308744, 18837.357322854677, 0.014, 0.962, 0.084, 192.0, 0.0, 0.0, 0.0, 0.0, 0.0, 0.0, 0.0, 0.0, 0.0, 1.6665554170418804E9, 0.0, 2022-10-23 13:03:37.041
156.0, -68285.07104934109, -99714.61888725983, 56668.55653149564, 8169.920226326017, 85288.71360882683, 67632.44481473503, 26126.417651941498, 18196.13047792083, 0.014, 0.962, 0.084, 192.0, 0.0, 0.0, 0.0, 0.0, 0.0, 0.0, 0.0, 0.0, 0.0, 1.666555417041891E9, 0.0, 2022-10-23 13:03:37.041
157.0, -68262.1605112744, -99696.69278820668, 54593.398224520475, 7127.188995741487, 85132.16199066186, 66742.48775750253, 24842.958133573313, 16890.43097381961, 0.014, 0.962, 0.084, 192.0, 0.0, 0.0, 0.0, 0.0, 0.0, 0.0, 0.0, 0.0, 0.0, 1.6665554170419023E9, 0.0, 2022-10-23 13:03:37.041
158.0, -68287.32857553108, -99704.69471272168, 54584.591637205085, 7253.230482724963, 85325.99631857828, 66807.10665072282, 24956.95203029538, 17179.282567415543, 0.014, 0.962, 0.084, 192.0, 0.0, 0.0, 0.0, 0.0, 0.0, 0.0, 0.0, 0.0, 0.0, 1.6665554170419135E9, 0.0, 2022-10-23 13:03:37.041
159.0, -68348.0359134717, -99746.82775101993, 56618.15334774892, 8354.389173315665, 85621.79930469982, 67724.19872572407, 26275.235566524934, 18603.267503174247, 0.014, 0.962, 0.084, 192.0, 0.0, 0.0, 0.0, 0.0, 0.0, 0.0, 0.0, 0.0, 0.0, 1.6665554170419245E9, 0.0, 2022-10-23 13:03:37.041
160.0, -68298.75031694774, -99695.61990447283, 57049.1173325917, 8400.053787237857, 85395.86787174558, 67811.97402620007, 26399.958300585546, 18527.159813303926, 0.014, 0.962, 0.084, 192.0, 0.0, 0.0, 0.0, 0.0, 0.0, 0.0, 0.0, 0.0, 0.0, 1.6665554170419352E9, 0.0, 2022-10-23 13:03:37.041
161.0, -68250.17997624636, -99646.11079050432, 54797.26848569733, 7218.540575330327, 85139.38160412094, 66822.39524393025, 24967.211481000362, 17001.832068184864, 0.008, 0.9580000000000001, 0.082, 192.0, 0.0, 64.0, 29.0, 240.0, 2.0, 144.0, 0.0, 0.0, 0.0, 1.666555417041946E9, 0.0, 2022-10-23 13:03:37.041
162.0, -68279.37135450498, -99670.4294884717, 54516.55292708313, 7215.634848551136, 85323.49292319929, 66795.79666802844, 24925.70429154686, 17115.62479920683, 0.008, 0.9580000000000001, 0.082, 192.0, 0.0, 0.0, 0.0, 0.0, 0.0, 0.0, 0.0, 0.0, 0.0, 1.666555417041958E9, 0.0, 2022-10-23 13:03:37.041
163.0, -68323.33723584858, -99712.83074770341, 56217.23010745408, 8153.5587493847315, 85587.13174904964, 67577.28070941934, 26056.121415629557, 18373.44686668478, 0.008, 0.9580000000000001, 0.082, 192.0, 0.0, 0.0, 0.0, 0.0, 0.0, 0.0, 0.0, 0.0, 0.0, 1.6665554170419693E9, 0.0, 2022-10-23 13:03:37.041
164.0, -68274.43161898036, -99670.60830242734, 57333.409170318744, 8565.546103184952, 85456.6199131751, 67955.7404465366, 26613.50686711155, 18778.393420981578, 0.008, 0.9580000000000001, 0.082, 192.0, 0.0, 0.0, 0.0, 0.0, 0.0, 0.0, 0.0, 0.0, 0.0, 1.666555417042088E9, 0.0, 2022-10-23 13:03:37.042
165.0, -68215.04303396262, -99618.32757214637, 55054.67117484465, 7312.082625875786, 85122.81896147954, 66910.52817231753, 25112.631930426593, 17133.930877915725, 0.008, 0.9580000000000001, 0.082, 192.0, 0.0, 0.0, 0.0, 0.0, 0.0, 0.0, 0.0, 0.0, 0.0, 1.6665554170420997E9, 0.0, 2022-10-23 13:03:37.042
166.0, -68240.68048485286, -99638.6676596007, 54433.15856852038, 7142.857568604657, 85292.15577747296, 66743.33712379183, 24854.87161336799, 17020.384016082768, 0.008, 0.9580000000000001, 0.082, 192.0, 0.0, 0.0, 0.0, 0.0, 0.0, 0.0, 0.0, 0.0, 0.0, 1.6665554170421107E9, 0.0, 2022-10-23 13:03:37.042
167.0, -68279.8183893941, -99673.98341584009, 55784.83561096616, 7935.137502567471, 85552.82182131075, 67401.23837008934, 25798.763429971154, 18106.96936928861, 0.008, 0.9580000000000001, 0.082, 192.0, 0.0, 0.0, 0.0, 0.0, 0.0, 0.0, 0.0, 0.0, 0.0, 1.6665554170421195E9, 0.0, 2022-10-23 13:03:37.042
168.0, -68254.5609181596, -99657.51018017653, 57518.45926266423, 8715.34749452442, 85562.5448301488, 68087.95101498974, 26783.335421482974, 18993.931292764104, 0.008, 0.9580000000000001, 0.082, 192.0, 0.0, 0.0, 0.0, 0.0, 0.0, 0.0, 0.0, 0.0, 0.0, 1.6665554170421288E9, 0.0, 2022-10-23 13:03:37.042
169.0, -68172.46296077526, -99579.34612981632, 55498.62152321596, 7547.804122901455, 85169.8023283246, 67134.26913431515, 25406.914997925163, 17419.11678542099, 0.008, 0.9580000000000001, 0.082, 192.0, 0.0, 0.0, 0.0, 0.0, 0.0, 0.0, 0.0, 0.0, 0.0, 1.6665554170421376E9, 0.0, 2022-10-23 13:03:37.042
170.0, -68203.5989408015, -99607.79990050792, 54456.98552810973, 7140.532987181305, 85261.86916373602, 66761.77731296746, 24855.944497101846, 16984.665928443184, 0.008, 0.9580000000000001, 0.082, 192.0, 0.0, 0.0, 0.0, 0.0, 0.0, 0.0, 0.0, 0.0, 0.0, 1.6665554170421495E9, 0.0, 2022-10-23 13:03:37.042
171.0, -68242.356865687, -99650.49173241756, 55426.358333391945, 7749.1262852104055, 85501.681029997, 67263.59632773355, 25574.486026106602, 17856.227499988974, 0.018000000000000002, 0.964, 0.08, 192.0, 0.0, 144.0, 30.0, 32.0, 2.0, 128.0, 0.0, 0.0, 0.0, 1.6665554170421584E9, 0.0, 2022-10-23 13:03:37.042
172.0, -68234.3102376831, -99643.89796780325, 57552.41156249185, 8782.134506956876, 85623.29687157832, 68152.68166693232, 26843.238096623194, 19088.501523554507, 0.018000000000000002, 0.964, 0.08, 192.0, 0.0, 0.0, 0.0, 0.0, 0.0, 0.0, 0.0, 0.0, 0.0, 1.6665554170421681E9, 0.0, 2022-10-23 13:03:37.042
173.0, -68153.0839983325, -99570.49483901201, 55967.605825377206, 7789.471183952235, 85194.70217164782, 67351.19281425391, 25699.655795056322, 17711.83523080769, 0.018000000000000002, 0.964, 0.08, 192.0, 0.0, 0.0, 0.0, 0.0, 0.0, 0.0, 0.0, 0.0, 0.0, 1.6665554170421772E9, 0.0, 2022-10-23 13:03:37.042
174.0, -68171.63594623041, -99587.88449619824, 54494.24588611673, 7132.17343475502, 85214.88579689096, 66765.75592348051, 24849.283677254163, 16933.43573015162, 0.018000000000000002, 0.964, 0.08, 192.0, 0.0, 0.0, 0.0, 0.0, 0.0, 0.0, 0.0, 0.0, 0.0, 1.6665554170421865E9, 0.0, 2022-10-23 13:03:37.042
175.0, -68217.14409794142, -99633.50440663153, 55082.94613158061, 7557.907111395253, 85444.03588104676, 67104.20603802276, 25338.228087214004, 17584.67615660145, 0.018000000000000002, 0.964, 0.08, 192.0, 0.0, 0.0, 0.0, 0.0, 0.0, 0.0, 0.0, 0.0, 0.0, 1.666555417042195E9, 0.0, 2022-10-23 13:03:37.042
176.0, -68243.89913605442, -99661.91347383423, 57364.43339162271, 8714.743997424126, 85644.2628078774, 68092.71193655873, 26749.316066421994, 19009.197534227078, 0.018000000000000002, 0.964, 0.08, 192.0, 0.0, 0.0, 0.0, 0.0, 0.0, 0.0, 0.0, 0.0, 0.0, 1.666555417042204E9, 0.0, 2022-10-23 13:03:37.042
177.0, -68156.8837948899, -99580.86604843927, 56449.53178757808, 8047.857349855584, 85251.05091941965, 67573.03387797283, 26009.96506332935, 18028.67120846167, 0.018000000000000002, 0.964, 0.08, 192.0, 0.0, 0.0, 0.0, 0.0, 0.0, 0.0, 0.0, 0.0, 0.0, 1.6665554170422132E9, 0.0, 2022-10-23 13:03:37.042
178.0, -68153.77690241062, -99575.07694662536, 54619.30389634418, 7175.826391676234, 85190.12006403448, 66819.73538634008, 24910.326291361605, 16943.426959923145, 0.018000000000000002, 0.964, 0.08, 192.0, 0.0, 0.0, 0.0, 0.0, 0.0, 0.0, 0.0, 0.0, 0.0, 1.666555417042222E9, 0.0, 2022-10-23 13:03:37.042
179.0, -68198.1004116655, -99616.94176399014, 54895.37029211167, 7453.166836877685, 85404.58505208314, 67033.30630461054, 25214.8017543318, 17406.62216027047, 0.018000000000000002, 0.964, 0.08, 192.0, 0.0, 0.0, 0.0, 0.0, 0.0, 0.0, 0.0, 0.0, 0.0, 1.666555417042231E9, 0.0, 2022-10-23 13:03:37.042
180.0, -68228.96817075828, -99647.45189517163, 57105.086100707784, 8611.925972929714, 85655.1704591716, 68014.36907224287, 26615.160896201243, 18870.616718604175, 0.018000000000000002, 0.964, 0.08, 192.0, 0.0, 0.0, 0.0, 0.0, 0.0, 0.0, 0.0, 0.0, 0.0, 1.666555417042267E9, 0.0, 2022-10-23 13:03:37.042
181.0, -68142.46691971623, -99575.47927802555, 56971.780296776335, 8343.146245854647, 85340.7931734077, 67832.04589272093, 26361.0215617444, 18389.026032570127, 0.024, 0.96, 0.074, 192.0, 0.0, 192.0, 30.0, 0.0, 2.0, 80.0, 0.0, 0.0, 0.0, 1.6665554170422764E9, 0.0, 2022-10-23 13:03:37.042
182.0, -68122.95384680675, -99553.68632718163, 54789.065395482234, 7220.820453264768, 85142.75671753367, 66869.04333460848, 24979.884920106524, 16968.125637546258, 0.024, 0.96, 0.074, 192.0, 0.0, 0.0, 0.0, 0.0, 0.0, 0.0, 0.0, 0.0, 0.0, 1.666555417042286E9, 0.0, 2022-10-23 13:03:37.042
183.0, -68160.54948098058, -99586.31987408637, 54714.03058934577, 7319.302239334851, 85349.82327816765, 66917.90424798778, 25055.255002409816, 17212.698425376228, 0.024, 0.96, 0.074, 192.0, 0.0, 0.0, 0.0, 0.0, 0.0, 0.0, 0.0, 0.0, 0.0, 1.6665554170422947E9, 0.0, 2022-10-23 13:03:37.042
184.0, -68212.4502316058, -99636.9689270221, 56660.42049651391, 8372.27056887991, 85623.85566518971, 67797.26657834847, 26320.58725602475, 18588.001261711273, 0.024, 0.96, 0.074, 192.0, 0.0, 0.0, 0.0, 0.0, 0.0, 0.0, 0.0, 0.0, 0.0, 1.6665554170423038E9, 0.0, 2022-10-23 13:03:37.042
185.0, -68158.15784432385, -99590.36553983278, 57302.027321103495, 8515.947582238625, 85414.9115580215, 67954.86872850284, 26562.16491009771, 18645.624058917056, 0.024, 0.96, 0.074, 192.0, 0.0, 0.0, 0.0, 0.0, 0.0, 0.0, 0.0, 0.0, 0.0, 1.6665554170423129E9, 0.0, 2022-10-23 13:03:37.042
186.0, -68116.38243393689, -99550.95941435808, 55002.34574107477, 7286.959265108021, 85132.27374938414, 66920.51940208905, 25073.561081118714, 17049.083655963383, 0.024, 0.96, 0.074, 192.0, 0.0, 0.0, 0.0, 0.0, 0.0, 0.0, 0.0, 0.0, 0.0, 1.6665554170423217E9, 0.0, 2022-10-23 13:03:37.042
187.0, -68144.79150113958, -99577.87091468227, 54594.38170127651, 7222.42977886555, 85306.86322532455, 66831.11242426782, 24943.205707455363, 17072.128304496804, 0.024, 0.96, 0.074, 192.0, 0.0, 0.0, 0.0, 0.0, 0.0, 0.0, 0.0, 0.0, 0.0, 1.6665554170423305E9, 0.0, 2022-10-23 13:03:37.042
188.0, -68204.0459756906, -99631.67156358619, 56188.95515071812, 8122.802749014229, 85580.18035652404, 67576.56545359678, 26018.883409367016, 18280.62007196189, 0.024, 0.96, 0.074, 192.0, 0.0, 0.0, 0.0, 0.0, 0.0, 0.0, 0.0, 0.0, 0.0, 1.6665554170423396E9, 0.0, 2022-10-23 13:03:37.042
189.0, -68170.85363517447, -99600.53558355995, 57571.16467608985, 8697.53315419354, 85507.91716670003, 68095.95293950474, 26762.704761350724, 18886.374698445165, 0.024, 0.96, 0.074, 192.0, 0.0, 0.0, 0.0, 0.0, 0.0, 0.0, 0.0, 0.0, 0.0, 1.6665554170423486E9, 0.0, 2022-10-23 13:03:37.042
190.0, -68094.34361390395, -99524.18202450062, 55370.38956527586, 7470.534142319459, 85145.48363035722, 67082.81541857903, 25299.559569306322, 17253.17743458479, 0.028, 0.9540000000000001, 0.07200000000000001, 192.0, 0.0, 224.0, 29.0, 208.0, 2.0, 64.0, 0.0, 0.0, 0.0, 1.6665554170423577E9, 0.0, 2022-10-23 13:03:37.042
191.0, -68125.81487009703, -99555.4968184825, 54570.01829982022, 7190.846763950201, 85269.71462603983, 66809.34182516836, 24901.251483112752, 16993.763088436495, 0.028, 0.9540000000000001, 0.07200000000000001, 192.0, 0.0, 0.0, 0.0, 0.0, 0.0, 0.0, 0.0, 0.0, 0.0, 1.6665554170423684E9, 0.0, 2022-10-23 13:03:37.042
192.0, -68179.14613236739, -99607.0622929409, 55791.58583779167, 7923.268726261703, 85533.55461759027, 67409.12853588206, 25762.86652837593, 18008.64404542971, 0.028, 0.9540000000000001, 0.07200000000000001, 192.0, 0.0, 0.0, 0.0, 0.0, 0.0, 0.0, 0.0, 0.0, 0.0, 1.666555417042377E9, 0.0, 2022-10-23 13:03:37.042
193.0, -68167.05383861707, -99600.80380449341, 57681.47053497679, 8796.93136178629, 85576.17939426654, 68167.74674269519, 26851.26237288265, 19022.67563613363, 0.028, 0.9540000000000001, 0.07200000000000001, 192.0, 0.0, 0.0, 0.0, 0.0, 0.0, 0.0, 0.0, 0.0, 0.0, 1.6665554170423872E9, 0.0, 2022-10-23 13:03:37.042
194.0, -68086.3193376445, -99524.65141113418, 55780.00763416382, 7672.549208706523, 85165.95782827829, 67249.26885953771, 25530.788365696477, 17489.770649644215, 0.028, 0.9540000000000001, 0.07200000000000001, 192.0, 0.0, 0.0, 0.0, 0.0, 0.0, 0.0, 0.0, 0.0, 0.0, 1.6665554170423963E9, 0.0, 2022-10-23 13:03:37.042
195.0, -68116.15891649234, -99550.78060040243, 54597.734462944805, 7188.164554615564, 85238.33277682458, 66810.1688397132, 24884.286509071175, 16940.54358488841, 0.028, 0.9540000000000001, 0.07200000000000001, 192.0, 0.0, 0.0, 0.0, 0.0, 0.0, 0.0, 0.0, 0.0, 0.0, 1.6665554170424144E9, 0.0, 2022-10-23 13:03:37.042
196.0, -68154.58156521102, -99585.15758337469, 55436.32721141902, 7736.609308315434, 85476.04357910676, 67253.31452528412, 25523.658159215232, 17736.869184597635, 0.028, 0.9540000000000001, 0.07200000000000001, 192.0, 0.0, 0.0, 0.0, 0.0, 0.0, 0.0, 0.0, 0.0, 0.0, 1.6665554170424232E9, 0.0, 2022-10-23 13:03:37.042
197.0, -68171.47948401922, -99601.4073015937, 57624.674752315856, 8810.118891014921, 85614.87026391868, 68167.36676303945, 26837.963084931744, 19034.700874650585, 0.028, 0.9540000000000001, 0.07200000000000001, 192.0, 0.0, 0.0, 0.0, 0.0, 0.0, 0.0, 0.0, 0.0, 0.0, 1.6665554170424323E9, 0.0, 2022-10-23 13:03:37.042
198.0, -68095.26003542663, -99527.244213491, 56271.70130869166, 7935.293964778658, 85205.65452643091, 67473.05452502424, 25838.415424634866, 17791.94388293551, 0.028, 0.9540000000000001, 0.07200000000000001, 192.0, 0.0, 0.0, 0.0, 0.0, 0.0, 0.0, 0.0, 0.0, 0.0, 1.666555417042441E9, 0.0, 2022-10-23 13:03:37.042
199.0, -68108.04523325506, -99537.48131245152, 54670.53409463574, 7199.027502420843, 85190.79061636813, 66825.14450849826, 24896.848189455057, 16901.740956513997, 0.028, 0.9540000000000001, 0.07200000000000001, 192.0, 0.0, 0.0, 0.0, 0.0, 0.0, 0.0, 0.0, 0.0, 0.0, 1.6665554170424497E9, 0.0, 2022-10-23 13:03:37.042
200.0, -68150.71471342024, -99579.86021993878, 55155.119914426796, 7575.363823814849, 85413.48104637636, 67122.73563417622, 25323.38652889568, 17491.379975244996, 0.02, 0.964, 0.07, 192.0, 0.0, 160.0, 30.0, 32.0, 2.0, 48.0, 0.0, 0.0, 0.0, 1.6665554170424585E9, 0.0, 2022-10-23 13:03:37.042
201.0, -68170.96539389675, -99603.82128999487, 57396.798717594, 8713.91698287928, 85620.83817968825, 68083.95005273224, 26705.1043158894, 18914.582599947764, 0.02, 0.964, 0.07, 192.0, 0.0, 0.0, 0.0, 0.0, 0.0, 0.0, 0.0, 0.0, 0.0, 1.666555417042468E9, 0.0, 2022-10-23 13:03:37.042
202.0, -68094.79064879306, -99532.36276297126, 56701.0336161892, 8151.2118162169245, 85254.06840492111, 67643.50892824041, 26088.151465434014, 18070.9160054822, 0.02, 0.964, 0.07, 192.0, 0.0, 0.0, 0.0, 0.0, 0.0, 0.0, 0.0, 0.0, 0.0, 1.666555417042477E9, 0.0, 2022-10-23 13:03:37.042
203.0, -68091.25907316913, -99528.04887629139, 54737.20934834592, 7190.287970338818, 85152.05504322708, 66815.80147931594, 24886.097000372054, 16871.499046265966, 0.02, 0.964, 0.07, 192.0, 0.0, 0.0, 0.0, 0.0, 0.0, 0.0, 0.0, 0.0, 0.0, 1.6665554170424857E9, 0.0, 2022-10-23 13:03:37.042
204.0, -68136.07432080201, -99572.59590299081, 54872.77267846736, 7390.693711125102, 85347.07401359965, 66959.76906535258, 25096.471619185402, 17250.60698397243, 0.02, 0.964, 0.07, 192.0, 0.0, 0.0, 0.0, 0.0, 0.0, 0.0, 0.0, 0.0, 0.0, 1.6665554170424945E9, 0.0, 2022-10-23 13:03:37.042
205.0, -68180.10725737897, -99612.27024939898, 56990.98044526344, 8515.835823516349, 85614.17735984056, 67902.18566682168, 26448.081606397824, 18692.585074017654, 0.02, 0.964, 0.07, 192.0, 0.0, 0.0, 0.0, 0.0, 0.0, 0.0, 0.0, 0.0, 0.0, 1.6665554170425034E9, 0.0, 2022-10-23 13:03:37.042
206.0, -68108.78284082208, -99546.71258291157, 57144.045191293386, 8409.419168164632, 85353.71248170287, 67856.29753545494, 26384.870873078213, 18418.865611417965, 0.02, 0.964, 0.07, 192.0, 0.0, 0.0, 0.0, 0.0, 0.0, 0.0, 0.0, 0.0, 0.0, 1.666555417042512E9, 0.0, 2022-10-23 13:03:37.042
207.0, -68092.48841911416, -99523.06443727785, 54898.74540552442, 7242.725162830969, 85123.46716206874, 66861.30963102695, 24956.147367494985, 16929.367712660758, 0.02, 0.964, 0.07, 192.0, 0.0, 0.0, 0.0, 0.0, 0.0, 0.0, 0.0, 0.0, 0.0, 1.6665554170425208E9, 0.0, 2022-10-23 13:03:37.042
208.0, -68144.34446625048, -99567.92438839965, 54760.410459090526, 7327.170053383119, 85340.61435945205, 66910.52817231753, 25009.836257676634, 17146.805482721982, 0.02, 0.964, 0.07, 192.0, 0.0, 0.0, 0.0, 0.0, 0.0, 0.0, 0.0, 0.0, 0.0, 1.6665554170425296E9, 0.0, 2022-10-23 13:03:37.042
209.0, -68187.77390572714, -99611.44323485413, 56608.09506274403, 8335.993687628948, 85599.49226373342, 67758.73217090752, 26222.86542926615, 18475.348469656525, 0.02, 0.964, 0.07, 192.0, 0.0, 0.0, 0.0, 0.0, 0.0, 0.0, 0.0, 0.0, 0.0, 1.6665554170425384E9, 0.0, 2022-10-23 13:03:37.042
210.0, -68140.16469003733, -99573.46762102457, 57496.06281472002, 8611.791862462982, 85429.66370936201, 68030.88701139535, 26622.60402710486, 18708.94655095894, 0.02, 0.96, 0.066, 192.0, 0.0, 160.0, 30.0, 0.0, 2.0, 16.0, 0.0, 0.0, 0.0, 1.6665554170425715E9, 0.0, 2022-10-23 13:03:37.042
211.0, -68087.59338707845, -99527.11010302426, 55203.422034194715, 7372.544094627392, 85122.70720275727, 66996.80590591501, 25128.076985845208, 17085.069964536426, 0.02, 0.96, 0.066, 192.0, 0.0, 0.0, 0.0, 0.0, 0.0, 0.0, 0.0, 0.0, 0.0, 1.666555417042759E9, 0.0, 2022-10-23 13:03:37.042
212.0, -68120.31634096103, -99552.97107135905, 54682.82755408616, 7254.728049603468, 85299.64361186548, 66862.27075603852, 24925.860753758046, 17032.163385410713, 0.02, 0.96, 0.066, 192.0, 0.0, 0.0, 0.0, 0.0, 0.0, 0.0, 0.0, 0.0, 0.0, 1.6665554170428069E9, 0.0, 2022-10-23 13:03:37.042
213.0, -68171.52418750813, -99594.79118523494, 56150.39839153271, 8096.718263234886, 85568.55744940728, 67556.8959184761, 25926.995387911247, 18173.845788698887, 0.02, 0.96, 0.066, 192.0, 0.0, 0.0, 0.0, 0.0, 0.0, 0.0, 0.0, 0.0, 0.0, 1.6665554170428483E9, 0.0, 2022-10-23 13:03:37.042
214.0, -68146.80315814057, -99574.8534291808, 57704.358721299024, 8762.174399158288, 85530.62653906662, 68147.54076570758, 26781.502578437638, 18915.476669725977, 0.02, 0.96, 0.066, 192.0, 0.0, 0.0, 0.0, 0.0, 0.0, 0.0, 0.0, 0.0, 0.0, 1.6665554170428739E9, 0.0, 2022-10-23 13:03:37.042
215.0, -68085.42526786629, -99516.47067266353, 55546.49895983922, 7531.219128515617, 85133.90542672938, 67126.71424468925, 25321.419575383614, 17276.914987196327, 0.02, 0.96, 0.066, 192.0, 0.0, 0.0, 0.0, 0.0, 0.0, 0.0, 0.0, 0.0, 0.0, 1.6665554170428834E9, 0.0, 2022-10-23 13:03:37.042
216.0, -68128.1841550093, -99557.82139990585, 54650.77515253725, 7207.230592635941, 85253.30844560963, 66824.63041837579, 24871.993049620756, 16953.97698330605, 0.02, 0.96, 0.066, 192.0, 0.0, 0.0, 0.0, 0.0, 0.0, 0.0, 0.0, 0.0, 0.0, 1.6665554170428932E9, 0.0, 2022-10-23 13:03:37.042
217.0, -68170.9877456412, -99593.87476371227, 55728.93389808344, 7858.135742918938, 85481.00566637584, 67356.71369513437, 25643.68702694023, 17880.143866556155, 0.02, 0.96, 0.066, 192.0, 0.0, 0.0, 0.0, 0.0, 0.0, 0.0, 0.0, 0.0, 0.0, 1.6665554170429027E9, 0.0, 2022-10-23 13:03:37.042
218.0, -68168.10437060647, -99588.86797295428, 57733.9747827023, 8802.184021733286, 85571.03849304182, 68169.60193748497, 26815.343119542973, 19004.99540626948, 0.02, 0.96, 0.066, 192.0, 0.0, 0.0, 0.0, 0.0, 0.0, 0.0, 0.0, 0.0, 0.0, 1.6665554170429127E9, 0.0, 2022-10-23 13:03:37.042
219.0, -68098.67985232829, -99525.56783265684, 55980.63689239465, 7742.040782218073, 85169.93643879134, 67308.5903893221, 25578.196415686183, 17552.064961441156, 0.022, 0.96, 0.062, 192.0, 0.0, 176.0, 30.0, 0.0, 1.0, 240.0, 0.0, 0.0, 0.0, 1.6665554170429225E9, 0.0, 2022-10-23 13:03:37.042
220.0, -68120.31634096103, -99546.57847244483, 54665.683766088936, 7186.130545870131, 85235.5164570232, 66810.45941239112, 24845.953267330322, 16909.497011839987, 0.022, 0.96, 0.062, 192.0, 0.0, 0.0, 0.0, 0.0, 0.0, 0.0, 0.0, 0.0, 0.0, 1.6665554170429327E9, 0.0, 2022-10-23 13:03:37.042
221.0, -68163.85753915996, -99591.63958926674, 55375.619873478405, 7668.637653426845, 85457.91631435351, 67199.46917289129, 25407.6973089811, 17634.274677547775, 0.022, 0.96, 0.062, 192.0, 0.0, 0.0, 0.0, 0.0, 0.0, 0.0, 0.0, 0.0, 0.0, 1.6665554170429425E9, 0.0, 2022-10-23 13:03:37.042
222.0, -68193.2947866076, -99616.1147494453, 57594.477545556736, 8764.25311139263, 85620.39114479914, 68129.86053584344, 26748.019665243588, 18989.036260728393, 0.022, 0.96, 0.062, 192.0, 0.0, 0.0, 0.0, 0.0, 0.0, 0.0, 0.0, 0.0, 0.0, 1.6665554170429523E9, 0.0, 2022-10-23 13:03:37.042
223.0, -68115.5777711365, -99537.9506990851, 56431.73979899166, 7975.862380965041, 85223.17829408387, 67500.25659802635, 25855.4027504209, 17863.29065123685, 0.022, 0.96, 0.062, 192.0, 0.0, 0.0, 0.0, 0.0, 0.0, 0.0, 0.0, 0.0, 0.0, 1.666555417042962E9, 0.0, 2022-10-23 13:03:37.042
224.0, -68132.74391087817, -99548.23250153453, 54681.1064697631, 7147.484379706905, 85173.91504930437, 66771.74619099453, 24804.8037057881, 16857.886833892684, 0.022, 0.96, 0.062, 192.0, 0.0, 0.0, 0.0, 0.0, 0.0, 0.0, 0.0, 0.0, 0.0, 1.6665554170429714E9, 0.0, 2022-10-23 13:03:37.042
225.0, -68178.5426352671, -99590.03026366595, 55072.03848028642, 7487.588523338858, 85412.87754927606, 67040.66002853632, 25182.5928905717, 17407.538581793142, 0.022, 0.96, 0.062, 192.0, 0.0, 0.0, 0.0, 0.0, 0.0, 0.0, 0.0, 0.0, 0.0, 1.6665554170429811E9, 0.0, 2022-10-23 13:03:37.042
226.0, -68212.91961823936, -99626.24008968355, 57312.68910320868, 8646.057086712968, 85643.12286891018, 68018.66060717829, 26585.969517942613, 18871.421381404565, 0.022, 0.96, 0.062, 192.0, 0.0, 0.0, 0.0, 0.0, 0.0, 0.0, 0.0, 0.0, 0.0, 1.6665554170429907E9, 0.0, 2022-10-23 13:03:37.042
227.0, -68127.35714046445, -99551.29469052491, 56883.80383060025, 8220.234003094913, 85296.62612636402, 67695.45438235455, 26139.426367214488, 18198.45505934418, 0.022, 0.96, 0.062, 192.0, 0.0, 0.0, 0.0, 0.0, 0.0, 0.0, 0.0, 0.0, 0.0, 1.6665554170430105E9, 0.0, 2022-10-23 13:03:37.043
228.0, -68109.27457920011, -99535.51435893946, 54818.70380862997, 7197.172307631053, 85162.26979044317, 66815.44385140465, 24859.900755870432, 16900.735128013508, 0.022, 0.96, 0.062, 192.0, 0.0, 0.0, 0.0, 0.0, 0.0, 0.0, 0.0, 0.0, 0.0, 1.6665554170430202E9, 0.0, 2022-10-23 13:03:37.043
229.0, -68156.14618732288, -99578.78733620493, 54888.15067865261, 7382.691786610101, 85380.71338900487, 66947.9002890468, 25039.675836524468, 17250.78579792807, 0.024, 0.96, 0.058, 192.0, 0.0, 192.0, 30.0, 0.0, 1.0, 208.0, 0.0, 0.0, 0.0, 1.6665554170430298E9, 0.0, 2022-10-23 13:03:37.043
230.0, -68198.88272272144, -99611.19736566512, 56916.12445308262, 8462.549264734896, 85634.87507520618, 67850.12845398528, 26338.692169033548, 18655.145902055014, 0.024, 0.96, 0.058, 192.0, 0.0, 0.0, 0.0, 0.0, 0.0, 0.0, 0.0, 0.0, 0.0, 1.66655541704304E9, 0.0, 2022-10-23 13:03:37.043
231.0, -68140.87994585991, -99558.33549002833, 57299.99331235806, 8473.166343351168, 85397.09721769062, 67893.7814109065, 26411.447097235574, 18534.91586862992, 0.024, 0.96, 0.058, 192.0, 0.0, 0.0, 0.0, 0.0, 0.0, 0.0, 0.0, 0.0, 0.0, 1.6665554170430496E9, 0.0, 2022-10-23 13:03:37.043
232.0, -68102.88198028589, -99522.10331226628, 55003.418624808626, 7268.049689298831, 85135.13477267441, 66871.68084045421, 24934.801451540166, 16975.769934149976, 0.024, 0.96, 0.058, 192.0, 0.0, 0.0, 0.0, 0.0, 0.0, 0.0, 0.0, 0.0, 0.0, 1.666555417043059E9, 0.0, 2022-10-23 13:03:37.043
233.0, -68136.34254173547, -99550.33356551333, 54693.66815014698, 7253.7669245918905, 85332.52302795924, 66823.95986604213, 24863.477034983283, 17074.944624298172, 0.024, 0.96, 0.058, 192.0, 0.0, 0.0, 0.0, 0.0, 0.0, 0.0, 0.0, 0.0, 0.0, 1.666555417043069E9, 0.0, 2022-10-23 13:03:37.043
234.0, -68192.82539997404, -99604.89417372874, 56419.51339477461, 8217.19416584899, 85614.93731915204, 67627.05804432131, 26013.697804653384, 18357.465369399237, 0.024, 0.96, 0.058, 192.0, 0.0, 0.0, 0.0, 0.0, 0.0, 0.0, 0.0, 0.0, 0.0, 1.6665554170430796E9, 0.0, 2022-10-23 13:03:37.043
235.0, -68159.87892864693, -99576.44040303712, 57571.119972600936, 8653.254348427576, 85496.36131481663, 68035.49147075313, 26597.50301808155, 18793.033813599803, 0.024, 0.96, 0.058, 192.0, 0.0, 0.0, 0.0, 0.0, 0.0, 0.0, 0.0, 0.0, 0.0, 1.6665554170430892E9, 0.0, 2022-10-23 13:03:37.043
236.0, -68098.18811395027, -99518.57173664233, 55310.308076179994, 7419.952144617098, 85158.46999388577, 67008.38410954287, 25111.67080541501, 17157.467264827166, 0.024, 0.96, 0.058, 192.0, 0.0, 0.0, 0.0, 0.0, 0.0, 0.0, 0.0, 0.0, 0.0, 1.6665554170430987E9, 0.0, 2022-10-23 13:03:37.043
237.0, -68125.45724218574, -99549.28303352393, 54653.12208570506, 7225.603726578203, 85304.15866424545, 66810.54881936894, 24818.281807694653, 17006.436527542653, 0.024, 0.96, 0.058, 192.0, 0.0, 0.0, 0.0, 0.0, 0.0, 0.0, 0.0, 0.0, 0.0, 1.6665554170431085E9, 0.0, 2022-10-23 13:03:37.043
238.0, -68168.26083281766, -99587.45981305359, 55996.70779665802, 8011.848689538085, 85569.47387092994, 67460.40343766253, 25752.361208481936, 18089.8702847803, 0.024, 0.96, 0.058, 192.0, 0.0, 0.0, 0.0, 0.0, 0.0, 0.0, 0.0, 0.0, 0.0, 1.6665554170431192E9, 0.0, 2022-10-23 13:03:37.043
239.0, -68161.22003331424, -99580.97780716156, 57723.871794208506, 8778.535876099573, 85565.33879820572, 68137.2813150026, 26725.24323764363, 18974.46292334353, 0.022, 0.9580000000000001, 0.058, 192.0, 0.0, 176.0, 29.0, 240.0, 1.0, 208.0, 0.0, 0.0, 0.0, 1.6665554170431285E9, 0.0, 2022-10-23 13:03:37.043
240.0, -68099.3727564064, -99517.25298371947, 55676.5414090802, 7591.747652500589, 85154.73725256172, 67158.99016368273, 25322.000720739452, 17373.29570928761, 0.022, 0.9580000000000001, 0.058, 192.0, 0.0, 0.0, 0.0, 0.0, 0.0, 0.0, 0.0, 0.0, 0.0, 1.6665554170431397E9, 0.0, 2022-10-23 13:03:37.043
241.0, -68119.53402990509, -99536.05080080639, 54610.586716006605, 7173.591217230704, 85252.70494850933, 66766.64999325872, 24749.103158605478, 16921.231677679025, 0.022, 0.9580000000000001, 0.058, 192.0, 0.0, 0.0, 0.0, 0.0, 0.0, 0.0, 0.0, 0.0, 0.0, 1.6665554170431492E9, 0.0, 2022-10-23 13:03:37.043
242.0, -68170.31719330755, -99586.27517059747, 55568.80600080562, 7778.608236146955, 85506.68782075499, 67257.76252243073, 25458.212251450095, 17795.0507754148, 0.022, 0.9580000000000001, 0.058, 192.0, 0.0, 0.0, 0.0, 0.0, 0.0, 0.0, 0.0, 0.0, 0.0, 1.666555417043168E9, 0.0, 2022-10-23 13:03:37.043
243.0, -68185.98576617072, -99602.256667883, 57664.9078923354, 8777.194771432254, 85606.64482195913, 68113.94609379127, 26697.974109408155, 19009.085775504802, 0.022, 0.9580000000000001, 0.058, 192.0, 0.0, 0.0, 0.0, 0.0, 0.0, 0.0, 0.0, 0.0, 0.0, 1.6665554170431776E9, 0.0, 2022-10-23 13:03:37.043
244.0, -68106.57001812101, -99528.3394489693, 56076.928207508114, 7787.615989162445, 85187.88488958894, 67309.08212770011, 25550.681418261698, 17637.761549682804, 0.022, 0.9580000000000001, 0.058, 192.0, 0.0, 0.0, 0.0, 0.0, 0.0, 0.0, 0.0, 0.0, 0.0, 1.666555417043187E9, 0.0, 2022-10-23 13:03:37.043
245.0, -68122.79738459556, -99542.06342006486, 54608.351541561075, 7140.980022070411, 85218.05974460361, 66735.4022545102, 24707.350099962965, 16874.740049211985, 0.022, 0.9580000000000001, 0.058, 192.0, 0.0, 0.0, 0.0, 0.0, 0.0, 0.0, 0.0, 0.0, 0.0, 1.6665554170431964E9, 0.0, 2022-10-23 13:03:37.043
246.0, -68163.05287635956, -99579.21201934958, 55180.153868216745, 7552.87796889281, 85437.665633877, 67060.75424680165, 25181.11767543765, 17524.0358738942, 0.022, 0.9580000000000001, 0.058, 192.0, 0.0, 0.0, 0.0, 0.0, 0.0, 0.0, 0.0, 0.0, 0.0, 1.666555417043206E9, 0.0, 2022-10-23 13:03:37.043
247.0, -68185.40462081488, -99602.97192370557, 57418.52461320456, 8676.410755683275, 85630.13650538166, 68007.59649367291, 26553.20186057113, 18932.106367600725, 0.022, 0.9580000000000001, 0.058, 192.0, 0.0, 0.0, 0.0, 0.0, 0.0, 0.0, 0.0, 0.0, 0.0, 1.6665554170432153E9, 0.0, 2022-10-23 13:03:37.043
248.0, -68111.39799492336, -99536.47548395104, 56512.11667205294, 8026.332619945124, 85259.38812010147, 67494.80277237926, 25825.004377961683, 17971.31663218935, 0.022, 0.9580000000000001, 0.058, 192.0, 0.0, 0.0, 0.0, 0.0, 0.0, 0.0, 0.0, 0.0, 0.0, 1.6665554170432243E9, 0.0, 2022-10-23 13:03:37.043
249.0, -68123.91497181833, -99545.7961613889, 54678.71483310638, 7154.32401351023, 85186.47672968826, 66740.45374875709, 24721.74462339218, 16888.15109588517, 0.03, 0.9560000000000001, 0.056, 192.0, 0.0, 240.0, 29.0, 224.0, 1.0, 192.0, 0.0, 0.0, 0.0, 1.6665554170432336E9, 0.0, 2022-10-23 13:03:37.043
250.0, -68162.89641414839, -99584.48703104103, 54927.556804127315, 7411.056150323886, 85387.7541885083, 66933.61752433986, 25003.66717620697, 17339.164595504357, 0.03, 0.9560000000000001, 0.056, 192.0, 0.0, 0.0, 0.0, 0.0, 0.0, 0.0, 0.0, 0.0, 0.0, 1.666555417043244E9, 0.0, 2022-10-23 13:03:37.043
251.0, -68190.05378366158, -99614.79599652243, 57106.8295367753, 8548.715239610105, 85642.67583402108, 67890.24983528255, 26381.11578000972, 18797.638272957596, 0.03, 0.9560000000000001, 0.056, 192.0, 0.0, 0.0, 0.0, 0.0, 0.0, 0.0, 0.0, 0.0, 0.0, 1.6665554170432532E9, 0.0, 2022-10-23 13:03:37.043
252.0, -68111.93443679028, -99539.56002468587, 56952.37898258913, 8270.994814752914, 85336.97102510584, 67693.17450442011, 26111.285520945254, 18312.8736392109, 0.03, 0.9560000000000001, 0.056, 192.0, 0.0, 0.0, 0.0, 0.0, 0.0, 0.0, 0.0, 0.0, 0.0, 1.6665554170432625E9, 0.0, 2022-10-23 13:03:37.043
253.0, -68102.21142795222, -99527.31126872436, 54799.280142698306, 7184.8564964361785, 85158.53704911913, 66761.66555424519, 24762.29068783411, 16919.53294510042, 0.03, 0.9560000000000001, 0.056, 192.0, 0.0, 0.0, 0.0, 0.0, 0.0, 0.0, 0.0, 0.0, 0.0, 1.666555417043272E9, 0.0, 2022-10-23 13:03:37.043
254.0, -68139.44943421477, -99562.6493767082, 54722.32308653869, 7286.780451152379, 85358.71927246086, 66815.51090663802, 24842.220526006287, 17169.313689388477, 0.03, 0.9560000000000001, 0.056, 192.0, 0.0, 0.0, 0.0, 0.0, 0.0, 0.0, 0.0, 0.0, 0.0, 1.6665554170432813E9, 0.0, 2022-10-23 13:03:37.043
255.0, -68181.22484460173, -99607.88930748575, 56657.805342412634, 8334.227899816979, 85635.05388916182, 67693.68859454257, 26102.724802818873, 18547.61165948053, 0.03, 0.9560000000000001, 0.056, 192.0, 0.0, 0.0, 0.0, 0.0, 0.0, 0.0, 0.0, 0.0, 0.0, 1.6665554170432918E9, 0.0, 2022-10-23 13:03:37.043
0.0, -68127.84887884246, -99566.0021383765, 57319.39462654527, 8499.11671866378, 85438.3138344662, 67874.55891067492, 26364.97782051299, 18628.21204998637, 0.03, 0.9560000000000001, 0.056, 192.0, 0.0, 0.0, 0.0, 0.0, 0.0, 0.0, 0.0, 0.0, 0.0, 1.6665554170433013E9, 0.0, 2022-10-23 13:03:37.043
1.0, -68101.31735817401, -99527.78065535793, 55022.0376279399, 7282.15364005013, 85145.21540942376, 66849.82083437692, 24882.990107892765, 17033.459786589123, 0.03, 0.9560000000000001, 0.056, 192.0, 0.0, 0.0, 0.0, 0.0, 0.0, 0.0, 0.0, 0.0, 0.0, 1.6665554170433109E9, 0.0, 2022-10-23 13:03:37.043
2.0, -68146.04319882908, -99559.9001121402, 54606.71986421584, 7214.8525374952005, 85317.74852487427, 66757.3069640764, 24749.058455116567, 17056.526786866998, 0.03, 0.9580000000000001, 0.054, 192.0, 0.0, 240.0, 29.0, 240.0, 1.0, 176.0, 0.0, 0.0, 0.0, 1.6665554170433316E9, 0.0, 2022-10-23 13:03:37.043
3.0, -68191.17137088435, -99601.31789461589, 56185.33416811636, 8100.048673158726, 85582.3037722473, 67491.87469385561, 25811.861552221962, 18258.961231584697, 0.03, 0.9580000000000001, 0.054, 192.0, 0.0, 0.0, 0.0, 0.0, 0.0, 0.0, 0.0, 0.0, 0.0, 1.666555417043342E9, 0.0, 2022-10-23 13:03:37.043
4.0, -68153.24046054369, -99573.84760068031, 57514.03361726208, 8632.668391784238, 85510.84524522368, 67968.27977517602, 26509.63831062774, 18833.445767574998, 0.03, 0.9580000000000001, 0.054, 192.0, 0.0, 0.0, 0.0, 0.0, 0.0, 0.0, 0.0, 0.0, 0.0, 1.6665554170433512E9, 0.0, 2022-10-23 13:03:37.043
5.0, -68096.73525056067, -99519.13053025372, 55307.49175637862, 7414.163042803174, 85164.32615093305, 66953.71174260518, 25043.47563308187, 17201.29903570402, 0.03, 0.9580000000000001, 0.054, 192.0, 0.0, 0.0, 0.0, 0.0, 0.0, 0.0, 0.0, 0.0, 0.0, 1.6665554170433607E9, 0.0, 2022-10-23 13:03:37.043
6.0, -68131.67102714432, -99547.13726605622, 54500.43731933086, 7136.464969690439, 85283.41624539092, 66675.16430320314, 24642.708854998215, 16939.40364592119, 0.03, 0.9580000000000001, 0.054, 192.0, 0.0, 0.0, 0.0, 0.0, 0.0, 0.0, 0.0, 0.0, 0.0, 1.6665554170433702E9, 0.0, 2022-10-23 13:03:37.043
7.0, -68180.10725737897, -99594.94764744613, 55726.11757828207, 7871.36797563648, 85557.22511496845, 67284.24933961027, 25514.71746143311, 17965.952213520075, 0.03, 0.9580000000000001, 0.054, 192.0, 0.0, 0.0, 0.0, 0.0, 0.0, 0.0, 0.0, 0.0, 0.0, 1.6665554170433805E9, 0.0, 2022-10-23 13:03:37.043
8.0, -68163.90224264887, -99585.53756303043, 57618.25980165718, 8741.767256470592, 85600.67690618956, 68048.90251742632, 26610.73525079909, 18991.00321424046, 0.03, 0.9580000000000001, 0.054, 192.0, 0.0, 0.0, 0.0, 0.0, 0.0, 0.0, 0.0, 0.0, 0.0, 1.666555417043391E9, 0.0, 2022-10-23 13:03:37.043
9.0, -68083.92770098778, -99507.95465802606, 55672.026356700226, 7590.004216433074, 85169.33294169104, 67092.9854623062, 25250.65395243811, 17424.101224434522, 0.03, 0.9580000000000001, 0.054, 192.0, 0.0, 0.0, 0.0, 0.0, 0.0, 0.0, 0.0, 0.0, 0.0, 1.6665554170434003E9, 0.0, 2022-10-23 13:03:37.043
10.0, -68109.63220711138, -99524.76316985645, 54469.59191198253, 7100.88099251759, 85253.44255607636, 66639.78149173039, 24591.612767173385, 16873.309537566845, 0.03, 0.9580000000000001, 0.054, 192.0, 0.0, 0.0, 0.0, 0.0, 0.0, 0.0, 0.0, 0.0, 0.0, 1.6665554170434098E9, 0.0, 2022-10-23 13:03:37.043
11.0, -68156.19089081179, -99570.27132156746, 55311.26920119157, 7657.461781199191, 85508.25244286685, 67096.29352048559, 25242.450862223013, 17690.131686941586, 0.03, 0.9580000000000001, 0.054, 192.0, 0.0, 0.0, 0.0, 0.0, 0.0, 0.0, 0.0, 0.0, 0.0, 1.6665554170434191E9, 0.0, 2022-10-23 13:03:37.043
12.0, -68164.93042289381, -99582.09539438432, 57494.43113737478, 8726.411608029795, 85652.19767715904, 68013.58676118693, 26563.01427638701, 19005.777717325418, 0.03, 0.96, 0.056, 192.0, 0.0, 240.0, 30.0, 0.0, 1.0, 192.0, 0.0, 0.0, 0.0, 1.6665554170434287E9, 0.0, 2022-10-23 13:03:37.043
13.0, -68089.3144714015, -99513.29672495088, 56153.63939447873, 7872.194990181326, 85247.9216751959, 67334.71957859035, 25581.482122121113, 17780.14216186311, 0.03, 0.96, 0.056, 192.0, 0.0, 0.0, 0.0, 0.0, 0.0, 0.0, 0.0, 0.0, 0.0, 1.666555417043439E9, 0.0, 2022-10-23 13:03:37.043
14.0, -68108.40286116635, -99528.47355943604, 54573.43811672189, 7154.435772232506, 85228.94504415334, 66706.27793148493, 24658.980924961677, 16906.05484319387, 0.03, 0.96, 0.056, 192.0, 0.0, 0.0, 0.0, 0.0, 0.0, 0.0, 0.0, 0.0, 0.0, 1.666555417043448E9, 0.0, 2022-10-23 13:03:37.043
0.0, 0.0, 0.0, 0.0, 0.0, 0.0, 0.0, 0.0, 0.0, 0.036000000000000004, 0.9500000000000001, 0.066, 192.0, 1.0, 32.0, 29.0, 176.0, 2.0, 16.0, 0.0, 0.0, 0.0, 1.6665554171246047E9, 0.0, 2022-10-23 13:03:37.124
1.0, -68212.42787986135, -99728.36521009984, 55497.7498051822, 7862.919016232374, 85604.56610972478, 67488.61133916513, 25828.69241579681, 18032.068673618876, 0.036000000000000004, 0.9500000000000001, 0.066, 192.0, 0.0, 0.0, 0.0, 0.0, 0.0, 0.0, 0.0, 0.0, 0.0, 1.6665554176088572E9, 0.0, 2022-10-23 13:03:37.608
2.0, -68215.08773745153, -99731.31564036795, 57441.569261737975, 8771.048041707045, 85672.02367449089, 68285.74160167476, 26971.782978985666, 19106.897009241227, 0.036000000000000004, 0.9500000000000001, 0.066, 192.0, 0.0, 0.0, 0.0, 0.0, 0.0, 0.0, 0.0, 0.0, 0.0, 1.6665554176089096E9, 0.0, 2022-10-23 13:03:37.608
3.0, -68127.31243697554, -99647.16132249372, 55599.36083547602, 7678.986511109652, 85251.87793396448, 67385.54744548172, 25676.879367456364, 17593.974482294856, 0.036000000000000004, 0.9500000000000001, 0.066, 192.0, 0.0, 0.0, 0.0, 0.0, 0.0, 0.0, 0.0, 0.0, 0.0, 1.666555417609024E9, 0.0, 2022-10-23 13:03:37.609
4.0, -68155.36387626694, -99667.9260930927, 54353.94398617077, 7161.409516502562, 85313.54639691667, 66907.95772170517, 24980.823693373644, 16995.864152415295, 0.036000000000000004, 0.9500000000000001, 0.066, 192.0, 0.0, 0.0, 0.0, 0.0, 0.0, 0.0, 0.0, 0.0, 0.0, 1.6665554176090343E9, 0.0, 2022-10-23 13:03:37.609
5.0, -68214.84186826252, -99718.30692509496, 55140.14424564174, 7686.273179802082, 85556.12987949012, 67334.00432276778, 25594.200264716183, 17770.910891403066, 0.036000000000000004, 0.9500000000000001, 0.066, 192.0, 0.0, 0.0, 0.0, 0.0, 0.0, 0.0, 0.0, 0.0, 0.0, 1.6665554176090486E9, 0.0, 2022-10-23 13:03:37.609
6.0, -68228.38702540244, -99733.79668400249, 57332.06806565143, 8763.761373014615, 85719.65524192515, 68261.82523510758, 26929.784051154144, 19102.940750472637, 0.036000000000000004, 0.9500000000000001, 0.066, 192.0, 0.0, 0.0, 0.0, 0.0, 0.0, 0.0, 0.0, 0.0, 0.0, 1.6665554176090581E9, 0.0, 2022-10-23 13:03:37.609
7.0, -68140.67878015981, -99657.35371796534, 56046.596890282264, 7924.1627960399155, 85313.34523121659, 67582.1980931995, 25960.970039483316, 17896.125363841697, 0.034, 0.96, 0.062, 192.0, 1.0, 16.0, 30.0, 0.0, 1.0, 240.0, 0.0, 0.0, 0.0, 1.6665554176090677E9, 0.0, 2022-10-23 13:03:37.609
8.0, -68160.66123970285, -99679.97368335411, 54409.2422019532, 7171.758374185369, 85275.3249138981, 66910.55052406198, 24983.103571308086, 16966.940995090128, 0.034, 0.96, 0.062, 192.0, 0.0, 0.0, 0.0, 0.0, 0.0, 0.0, 0.0, 0.0, 0.0, 1.666555417609078E9, 0.0, 2022-10-23 13:03:37.609
9.0, -68201.16260065587, -99718.79866347298, 54814.00994229435, 7501.670122345701, 85476.73648318488, 67158.07374216005, 25350.879174575708, 17504.120469584523, 0.034, 0.96, 0.062, 192.0, 0.0, 0.0, 0.0, 0.0, 0.0, 0.0, 0.0, 0.0, 0.0, 1.6665554176090875E9, 0.0, 2022-10-23 13:03:37.609
10.0, -68249.06238902359, -99757.57894010293, 57057.409829784614, 8653.924900761236, 85717.21890177953, 68136.5884109245, 26759.0167235156, 18965.119894161213, 0.034, 0.96, 0.062, 192.0, 0.0, 0.0, 0.0, 0.0, 0.0, 0.0, 0.0, 0.0, 0.0, 1.6665554176090972E9, 0.0, 2022-10-23 13:03:37.609
11.0, -68164.52809149362, -99673.53638095099, 56506.86401210595, 8181.3866712315885, 85372.89027844553, 67773.93135713713, 26247.0947202557, 18219.264533432073, 0.034, 0.96, 0.062, 192.0, 0.0, 0.0, 0.0, 0.0, 0.0, 0.0, 0.0, 0.0, 0.0, 1.6665554176091063E9, 0.0, 2022-10-23 13:03:37.609
12.0, -68163.81283567105, -99665.4226977137, 54533.204976702335, 7220.082845697742, 85252.16850664241, 66942.58057386643, 25031.38333933155, 16990.276216301467, 0.034, 0.96, 0.062, 192.0, 0.0, 0.0, 0.0, 0.0, 0.0, 0.0, 0.0, 0.0, 0.0, 1.666555417609116E9, 0.0, 2022-10-23 13:03:37.609
13.0, -68199.57562679955, -99699.03972137449, 54650.305765903686, 7420.443882995115, 85458.7209771539, 67087.48693317019, 25235.43241446405, 17362.343354504508, 0.034, 0.96, 0.062, 192.0, 0.0, 0.0, 0.0, 0.0, 0.0, 0.0, 0.0, 0.0, 0.0, 1.6665554176091256E9, 0.0, 2022-10-23 13:03:37.609
14.0, -68241.57455463106, -99741.68684979521, 56723.00538098877, 8515.075864204868, 85716.90597735715, 68014.65964492079, 26569.58568925687, 18785.14364780708, 0.034, 0.96, 0.062, 192.0, 0.0, 0.0, 0.0, 0.0, 0.0, 0.0, 0.0, 0.0, 0.0, 1.666555417609135E9, 0.0, 2022-10-23 13:03:37.609
15.0, -68190.05378366158, -99699.21853533013, 56953.22834887843, 8437.470607456042, 85451.18843927246, 67994.27485397755, 26548.709159935614, 18553.75838920574, 0.034, 0.96, 0.062, 192.0, 0.0, 0.0, 0.0, 0.0, 0.0, 0.0, 0.0, 0.0, 0.0, 1.6665554176091444E9, 0.0, 2022-10-23 13:03:37.609
16.0, -68163.52226299314, -99672.44114547267, 54716.6680951915, 7276.386889980661, 85210.90718637791, 67004.58431298546, 25115.180029294497, 17042.98162972708, 0.034, 0.96, 0.062, 192.0, 0.0, 0.0, 0.0, 0.0, 0.0, 0.0, 0.0, 0.0, 0.0, 1.6665554176091537E9, 0.0, 2022-10-23 13:03:37.609
17.0, -68186.76807722665, -99695.61990447283, 54498.3139036076, 7310.518003763915, 85413.48104637636, 67004.80783043001, 25109.145058291564, 17199.756765336606, 0.032, 0.9560000000000001, 0.066, 192.0, 1.0, 0.0, 29.0, 224.0, 2.0, 16.0, 0.0, 0.0, 0.0, 1.6665554176091633E9, 0.0, 2022-10-23 13:03:37.609
18.0, -68226.24125793473, -99734.44488459169, 56280.35143379586, 8291.446660929521, 85693.36959044571, 67834.68339856666, 26297.900235402612, 18511.893571840952, 0.032, 0.9560000000000001, 0.066, 192.0, 0.0, 0.0, 0.0, 0.0, 0.0, 0.0, 0.0, 0.0, 0.0, 1.6665554176092043E9, 0.0, 2022-10-23 13:03:37.609
19.0, -68177.38034455542, -99692.28949454898, 57251.355916423316, 8620.307877100453, 85549.4914113869, 68148.36778025243, 26762.838871817457, 18818.447747045488, 0.032, 0.9560000000000001, 0.066, 192.0, 0.0, 0.0, 0.0, 0.0, 0.0, 0.0, 0.0, 0.0, 0.0, 1.6665554176092143E9, 0.0, 2022-10-23 13:03:37.609
20.0, -68145.79732964007, -99658.09132553237, 54970.4721534815, 7384.010539532965, 85219.55731148212, 67105.05540431206, 25258.342952530737, 17179.48373311564, 0.032, 0.9560000000000001, 0.066, 192.0, 0.0, 0.0, 0.0, 0.0, 0.0, 0.0, 0.0, 0.0, 0.0, 1.6665554176092236E9, 0.0, 2022-10-23 13:03:37.609
21.0, -68189.07030690555, -99694.01057887204, 54390.802012777574, 7227.682438812547, 85375.68424650244, 66936.59030635242, 25011.780859444247, 17085.33818546989, 0.032, 0.9560000000000001, 0.066, 192.0, 0.0, 0.0, 0.0, 0.0, 0.0, 0.0, 0.0, 0.0, 0.0, 1.6665554176092331E9, 0.0, 2022-10-23 13:03:37.609
22.0, -68249.17414774587, -99754.15912320127, 55800.83945999616, 8037.374381706046, 85632.75165948292, 67614.54106742634, 25988.216815974334, 18204.11005069137, 0.032, 0.9560000000000001, 0.066, 192.0, 0.0, 0.0, 0.0, 0.0, 0.0, 0.0, 0.0, 0.0, 0.0, 1.6665554176092427E9, 0.0, 2022-10-23 13:03:37.609
23.0, -68242.87095580947, -99751.78983828901, 57396.08346177143, 8721.62833471636, 85593.85962413068, 68220.18393518734, 26874.03880048261, 18981.302557146857, 0.032, 0.9560000000000001, 0.066, 192.0, 0.0, 0.0, 0.0, 0.0, 0.0, 0.0, 0.0, 0.0, 0.0, 1.6665554176092527E9, 0.0, 2022-10-23 13:03:37.609
24.0, -68174.87694917643, -99685.49456423457, 55321.32748619646, 7543.11025656584, 85207.77794215416, 67242.60803969002, 25464.314277686393, 17377.900168645403, 0.032, 0.9560000000000001, 0.066, 192.0, 0.0, 0.0, 0.0, 0.0, 0.0, 0.0, 0.0, 0.0, 0.0, 1.6665554176092627E9, 0.0, 2022-10-23 13:03:37.609
25.0, -68181.67187949084, -99685.91924737922, 54396.27819016912, 7215.992476462421, 85347.45399325539, 66936.56795460796, 25001.09672559461, 17038.600687813843, 0.032, 0.9560000000000001, 0.066, 192.0, 0.0, 0.0, 0.0, 0.0, 0.0, 0.0, 0.0, 0.0, 0.0, 1.666555417609272E9, 0.0, 2022-10-23 13:03:37.609
26.0, -68218.77577528665, -99717.70342799467, 55440.30582193206, 7861.823780754064, 85609.41643827158, 67471.33344070119, 25770.28730753509, 17964.27583268593, 0.032, 0.9560000000000001, 0.066, 192.0, 0.0, 0.0, 0.0, 0.0, 0.0, 0.0, 0.0, 0.0, 0.0, 1.6665554176092813E9, 0.0, 2022-10-23 13:03:37.609
27.0, -68233.63968534944, -99735.04838169199, 57469.03955567355, 8816.17621376231, 85697.12468351421, 68300.873732671, 26969.927784195876, 19118.54226810244, 0.03, 0.9520000000000001, 0.074, 192.0, 0.0, 240.0, 29.0, 192.0, 2.0, 80.0, 0.0, 0.0, 0.0, 1.666555417609292E9, 0.0, 2022-10-23 13:03:37.609
28.0, -68167.70203920627, -99676.19623854116, 55747.88817738154, 7750.556796855545, 85242.44549780435, 67419.92442845397, 25726.209667469226, 17653.69834347944, 0.03, 0.9520000000000001, 0.074, 192.0, 0.0, 0.0, 0.0, 0.0, 0.0, 0.0, 0.0, 0.0, 0.0, 1.6665554176093023E9, 0.0, 2022-10-23 13:03:37.609
29.0, -68178.49793177818, -99681.53830546598, 54375.75928875915, 7161.029536846821, 85292.82632980662, 66883.52726501552, 24944.323294678128, 16959.92254733116, 0.03, 0.9520000000000001, 0.074, 192.0, 0.0, 0.0, 0.0, 0.0, 0.0, 0.0, 0.0, 0.0, 0.0, 1.6665554176093118E9, 0.0, 2022-10-23 13:03:37.609
30.0, -68220.63097007644, -99719.02218091753, 55037.1921106806, 7620.626106336846, 85528.59253032118, 67254.67798169589, 25480.563995905402, 17663.935442439968, 0.03, 0.9520000000000001, 0.074, 192.0, 0.0, 0.0, 0.0, 0.0, 0.0, 0.0, 0.0, 0.0, 0.0, 1.666555417609321E9, 0.0, 2022-10-23 13:03:37.609
31.0, -68238.28884819614, -99735.71893402564, 57255.0663060029, 8722.522404494573, 85712.50268369945, 68194.30061510809, 26842.835765223, 19046.502595722985, 0.03, 0.9520000000000001, 0.074, 192.0, 0.0, 0.0, 0.0, 0.0, 0.0, 0.0, 0.0, 0.0, 0.0, 1.6665554176093307E9, 0.0, 2022-10-23 13:03:37.609
32.0, -68167.45617001726, -99673.2234565286, 56200.98038923507, 7993.609666062554, 85321.34715573158, 67612.03767204734, 26017.3411389996, 17984.23594048452, 0.03, 0.9520000000000001, 0.074, 192.0, 0.0, 0.0, 0.0, 0.0, 0.0, 0.0, 0.0, 0.0, 0.0, 1.66655541760934E9, 0.0, 2022-10-23 13:03:37.609
33.0, -68170.2948415631, -99676.75503215255, 54444.78147563714, 7169.903179395578, 85266.98771321628, 66885.42716329423, 24959.16485299645, 16955.4521984401, 0.03, 0.9520000000000001, 0.074, 192.0, 0.0, 0.0, 0.0, 0.0, 0.0, 0.0, 0.0, 0.0, 0.0, 1.6665554176093493E9, 0.0, 2022-10-23 13:03:37.609
34.0, -68224.9001532674, -99726.19709088768, 54788.77482280431, 7477.798459267433, 85490.03577113578, 67131.1398900914, 25308.232046154983, 17467.240091233267, 0.03, 0.9520000000000001, 0.074, 192.0, 0.0, 0.0, 0.0, 0.0, 0.0, 0.0, 0.0, 0.0, 0.0, 1.6665554176093817E9, 0.0, 2022-10-23 13:03:37.609
35.0, -68259.4559501953, -99755.50022786859, 57019.90360258861, 8636.915223230746, 85736.70962294456, 68124.33965496298, 26730.09356619043, 18948.691361986563, 0.03, 0.9520000000000001, 0.074, 192.0, 0.0, 0.0, 0.0, 0.0, 0.0, 0.0, 0.0, 0.0, 0.0, 1.6665554176093955E9, 0.0, 2022-10-23 13:03:37.609
36.0, -68192.87010346295, -99695.88812540629, 56731.54374737069, 8289.055024272802, 85401.61227007059, 67874.11187578582, 26379.50645440894, 18365.981384036706, 0.036000000000000004, 0.9560000000000001, 0.08, 192.0, 1.0, 32.0, 29.0, 224.0, 2.0, 128.0, 0.0, 0.0, 0.0, 1.666555417609405E9, 0.0, 2022-10-23 13:03:37.609
37.0, -68180.57664401253, -99682.76765141102, 54630.032733682725, 7228.911784757589, 85219.98199462677, 66960.48432117514, 25059.323019900683, 17007.88939093225, 0.036000000000000004, 0.9560000000000001, 0.08, 192.0, 0.0, 0.0, 0.0, 0.0, 0.0, 0.0, 0.0, 0.0, 0.0, 1.6665554176094155E9, 0.0, 2022-10-23 13:03:37.609
38.0, -68215.71358629628, -99714.19420411518, 54641.2980128882, 7377.260312707462, 85427.7638110833, 67060.575432846, 25199.69197508001, 17305.10053695447, 0.036000000000000004, 0.9560000000000001, 0.08, 192.0, 0.0, 0.0, 0.0, 0.0, 0.0, 0.0, 0.0, 0.0, 0.0, 1.6665554176094253E9, 0.0, 2022-10-23 13:03:37.609
39.0, -68251.43167393586, -99747.23008242012, 56638.78400788117, 8450.546377962397, 85709.01581156443, 67967.83274028692, 26503.44687741362, 18707.203114891425, 0.036000000000000004, 0.9560000000000001, 0.08, 192.0, 0.0, 0.0, 0.0, 0.0, 0.0, 0.0, 0.0, 0.0, 0.0, 1.6665554176094348E9, 0.0, 2022-10-23 13:03:37.609
40.0, -68192.60188252949, -99693.09415734938, 57124.15213872816, 8510.873736247271, 85483.3749512881, 68055.809206463, 26646.09571052739, 18658.252794534303, 0.036000000000000004, 0.9560000000000001, 0.08, 192.0, 0.0, 0.0, 0.0, 0.0, 0.0, 0.0, 0.0, 0.0, 0.0, 1.6665554176094441E9, 0.0, 2022-10-23 13:03:37.609
41.0, -68162.89641414839, -99665.28858724698, 54867.40825979808, 7328.198233628063, 85225.48052376277, 67052.52880484209, 25189.007841230374, 17103.398394989777, 0.036000000000000004, 0.9560000000000001, 0.08, 192.0, 0.0, 0.0, 0.0, 0.0, 0.0, 0.0, 0.0, 0.0, 0.0, 1.6665554176094537E9, 0.0, 2022-10-23 13:03:37.609
42.0, -68224.72133931177, -99726.57707054343, 54526.03006673218, 7282.6453784281475, 85375.1031011466, 66983.12663830837, 25092.76122960582, 17159.21070089468, 0.036000000000000004, 0.9560000000000001, 0.08, 192.0, 0.0, 0.0, 0.0, 0.0, 0.0, 0.0, 0.0, 0.0, 0.0, 1.6665554176094627E9, 0.0, 2022-10-23 13:03:37.609
43.0, -68257.9583833168, -99759.12121047034, 56203.617895080795, 8221.955087417971, 85664.71465405401, 67773.5960809703, 26229.302731669275, 18423.22420158675, 0.036000000000000004, 0.9560000000000001, 0.08, 192.0, 0.0, 0.0, 0.0, 0.0, 0.0, 0.0, 0.0, 0.0, 0.0, 1.6665554176094725E9, 0.0, 2022-10-23 13:03:37.609
44.0, -68212.78550777263, -99719.06688440643, 57461.909349192305, 8721.471872505173, 85580.4485774575, 68241.93218254235, 26902.291405474116, 18941.784672949874, 0.036000000000000004, 0.9560000000000001, 0.08, 192.0, 0.0, 0.0, 0.0, 0.0, 0.0, 0.0, 0.0, 0.0, 0.0, 1.6665554176094816E9, 0.0, 2022-10-23 13:03:37.609
45.0, -68145.93144010681, -99653.48686617457, 55194.280170712496, 7457.5701305353805, 85193.51752919168, 67179.5090650927, 25380.718753423545, 17257.200748586743, 0.036000000000000004, 0.9560000000000001, 0.08, 192.0, 0.0, 0.0, 0.0, 0.0, 0.0, 0.0, 0.0, 0.0, 0.0, 1.6665554176094913E9, 0.0, 2022-10-23 13:03:37.609
46.0, -68171.83711193051, -99670.0271570715, 54508.12631942348, 7252.939910047044, 85353.62307472505, 66973.00129807011, 25068.39782814954, 17084.734688369597, 0.034, 0.9560000000000001, 0.078, 192.0, 1.0, 16.0, 29.0, 224.0, 2.0, 112.0, 0.0, 0.0, 0.0, 1.666555417609501E9, 0.0, 2022-10-23 13:03:37.609
47.0, -68233.21500220479, -99725.6382972763, 55815.30103865875, 8024.58918387761, 85633.28810134986, 67622.74415764143, 25993.581234643607, 18157.43960826869, 0.034, 0.9560000000000001, 0.078, 192.0, 0.0, 0.0, 0.0, 0.0, 0.0, 0.0, 0.0, 0.0, 0.0, 1.6665554176095104E9, 0.0, 2022-10-23 13:03:37.609
48.0, -68225.9506852568, -99721.83850071889, 57611.84485099851, 8835.55517620506, 85665.9216482546, 68343.72202679182, 27027.707043612845, 19105.44414585163, 0.034, 0.9560000000000001, 0.078, 192.0, 0.0, 0.0, 0.0, 0.0, 0.0, 0.0, 0.0, 0.0, 0.0, 1.6665554176095212E9, 0.0, 2022-10-23 13:03:37.609
49.0, -68158.20254781278, -99656.86197958732, 55646.925347676915, 7689.111851347906, 85251.87793396448, 67398.9584921549, 25666.374047562367, 17530.786100719703, 0.034, 0.9560000000000001, 0.078, 192.0, 0.0, 0.0, 0.0, 0.0, 0.0, 0.0, 0.0, 0.0, 0.0, 1.6665554176095307E9, 0.0, 2022-10-23 13:03:37.609
50.0, -68176.06159163256, -99668.14961053725, 54553.70152636785, 7250.928253046067, 85337.1945425504, 66993.07316459098, 25072.644659596048, 17041.104083192837, 0.034, 0.9560000000000001, 0.078, 192.0, 0.0, 0.0, 0.0, 0.0, 0.0, 0.0, 0.0, 0.0, 0.0, 1.6665554176095629E9, 0.0, 2022-10-23 13:03:37.609
51.0, -68236.2101359618, -99722.28553560801, 55452.800447082576, 7813.767530175153, 85574.16773726557, 67455.8213300492, 25747.42147295731, 17870.06322980681, 0.034, 0.9560000000000001, 0.078, 192.0, 0.0, 0.0, 0.0, 0.0, 0.0, 0.0, 0.0, 0.0, 0.0, 1.6665554176095724E9, 0.0, 2022-10-23 13:03:37.609
52.0, -68249.24120297923, -99737.14944567079, 57572.41637377934, 8827.106216800954, 85686.55230838685, 68332.0320644417, 27014.83243880659, 19110.96502673209, 0.034, 0.9560000000000001, 0.078, 192.0, 0.0, 0.0, 0.0, 0.0, 0.0, 0.0, 0.0, 0.0, 0.0, 1.6665554176095817E9, 0.0, 2022-10-23 13:03:37.609
53.0, -68161.95764088126, -99657.95721506563, 56082.9855302555, 7884.667263587387, 85271.03337896269, 67570.84340701622, 25923.84379194305, 17786.75827822188, 0.034, 0.9560000000000001, 0.078, 192.0, 0.0, 0.0, 0.0, 0.0, 0.0, 0.0, 0.0, 0.0, 0.0, 1.6665554176095912E9, 0.0, 2022-10-23 13:03:37.609
54.0, -68181.98480391322, -99669.98245358259, 54586.64799769497, 7214.8525374952005, 85282.99156224627, 66975.86232136039, 25050.695246540934, 16977.178094050658, 0.034, 0.9560000000000001, 0.078, 192.0, 0.0, 0.0, 0.0, 0.0, 0.0, 0.0, 0.0, 0.0, 0.0, 1.6665554176096003E9, 0.0, 2022-10-23 13:03:37.609
55.0, -68232.29858068211, -99714.61888725983, 55137.32792584037, 7618.949725502697, 85515.7849807483, 67298.50975257275, 25518.226685312595, 17605.99972081181, 0.034, 0.9560000000000001, 0.078, 192.0, 0.0, 0.0, 0.0, 0.0, 0.0, 0.0, 0.0, 0.0, 0.0, 1.6665554176096098E9, 0.0, 2022-10-23 13:03:37.609
56.0, -68266.5638049321, -99747.99004173161, 57394.16121174827, 8754.418343832296, 85724.8855501277, 68273.76106664671, 26923.14558305092, 19039.126520052734, 0.036000000000000004, 0.9540000000000001, 0.076, 192.0, 1.0, 32.0, 29.0, 208.0, 2.0, 96.0, 0.0, 0.0, 0.0, 1.6665554176096191E9, 0.0, 2022-10-23 13:03:37.609
57.0, -68163.1422833374, -99653.55392140793, 56584.8045450216, 8142.539339368265, 85348.1468973335, 67799.92643593866, 26245.999484777392, 18125.364854975327, 0.036000000000000004, 0.9540000000000001, 0.076, 192.0, 0.0, 0.0, 0.0, 0.0, 0.0, 0.0, 0.0, 0.0, 0.0, 1.6665554176096292E9, 0.0, 2022-10-23 13:03:37.609
58.0, -68174.40756254287, -99656.21377899812, 54692.12587977957, 7228.129473701653, 85258.11407066752, 67001.6115309729, 25086.68155511398, 16978.65330918471, 0.036000000000000004, 0.9540000000000001, 0.076, 192.0, 0.0, 0.0, 0.0, 0.0, 0.0, 0.0, 0.0, 0.0, 0.0, 1.666555417609642E9, 0.0, 2022-10-23 13:03:37.609
59.0, -68212.47258335026, -99687.64033170228, 54899.48301309145, 7463.225121882573, 85465.02416909029, 67174.5022743347, 25344.15129949466, 17403.515267791186, 0.036000000000000004, 0.9540000000000001, 0.076, 192.0, 0.0, 0.0, 0.0, 0.0, 0.0, 0.0, 0.0, 0.0, 0.0, 1.666555417609651E9, 0.0, 2022-10-23 13:03:37.609
60.0, -68254.42680769287, -99726.26414612104, 57074.50891429293, 8609.109653128346, 85747.01377713845, 68151.89935587638, 26743.77283379708, 18878.015146018883, 0.036000000000000004, 0.9540000000000001, 0.076, 192.0, 0.0, 0.0, 0.0, 0.0, 0.0, 0.0, 0.0, 0.0, 0.0, 1.6665554176096606E9, 0.0, 2022-10-23 13:03:37.609
61.0, -68185.78460047062, -99662.00288081204, 57030.43127422706, 8386.396871375666, 85439.05144203323, 68004.802525616, 26545.35639826732, 18458.22703340376, 0.036000000000000004, 0.9540000000000001, 0.076, 192.0, 0.0, 0.0, 0.0, 0.0, 0.0, 0.0, 0.0, 0.0, 0.0, 1.66655541760967E9, 0.0, 2022-10-23 13:03:37.609
62.0, -68164.46103626025, -99644.5685201369, 54856.59001548171, 7276.789221380856, 85236.72345122379, 67054.76397928763, 25164.957364196463, 17026.441338830155, 0.036000000000000004, 0.9540000000000001, 0.076, 192.0, 0.0, 0.0, 0.0, 0.0, 0.0, 0.0, 0.0, 0.0, 0.0, 1.6665554176096795E9, 0.0, 2022-10-23 13:03:37.609
63.0, -68197.18399014283, -99681.67241593271, 54762.1762469025, 7372.253521949473, 85443.25356999083, 67110.4421747258, 25238.002865076407, 17263.682754478785, 0.036000000000000004, 0.9540000000000001, 0.076, 192.0, 0.0, 0.0, 0.0, 0.0, 0.0, 0.0, 0.0, 0.0, 0.0, 1.6665554176096885E9, 0.0, 2022-10-23 13:03:37.609
64.0, -68242.26745870918, -99719.02218091753, 56640.147464292946, 8383.714662041028, 85707.11591328573, 67961.37308613934, 26468.801673507893, 18608.341349165603, 0.036000000000000004, 0.9540000000000001, 0.076, 192.0, 0.0, 0.0, 0.0, 0.0, 0.0, 0.0, 0.0, 0.0, 0.0, 1.666555417609698E9, 0.0, 2022-10-23 13:03:37.609
65.0, -68201.34141461151, -99682.49943047756, 57378.11265922936, 8583.025167349002, 85528.86075125466, 68169.9372136518, 26781.010840059622, 18745.245783954357, 0.036000000000000004, 0.9540000000000001, 0.076, 192.0, 0.0, 0.0, 0.0, 0.0, 0.0, 0.0, 0.0, 0.0, 0.0, 1.6665554176097903E9, 0.0, 2022-10-23 13:03:37.609
66.0, -68159.96833562474, -99646.24490097105, 55113.97035288458, 7379.8531150642775, 85237.46105879081, 67155.79386422562, 25307.695604288056, 17149.331229845433, 0.032, 0.9520000000000001, 0.08, 192.0, 1.0, 0.0, 29.0, 192.0, 2.0, 128.0, 0.0, 0.0, 0.0, 1.6665554176098E9, 0.0, 2022-10-23 13:03:37.609
67.0, -68193.13832439641, -99674.34104375137, 54675.07149876017, 7298.291599546862, 85403.48981660484, 67057.46854036672, 25155.68139024751, 17148.101883900392, 0.032, 0.9520000000000001, 0.08, 192.0, 0.0, 0.0, 0.0, 0.0, 0.0, 0.0, 0.0, 0.0, 0.0, 1.66655541760981E9, 0.0, 2022-10-23 13:03:37.609
68.0, -68246.49193841123, -99723.40312283077, 56207.238877682554, 8159.034926776282, 85666.50279361043, 67783.36379329728, 26200.938367955492, 18331.6267528089, 0.032, 0.9520000000000001, 0.08, 192.0, 0.0, 0.0, 0.0, 0.0, 0.0, 0.0, 0.0, 0.0, 0.0, 1.6665554176098197E9, 0.0, 2022-10-23 13:03:37.609
69.0, -68217.16644968587, -99700.3808260418, 57639.24808970071, 8753.144294398344, 85611.09281910573, 68325.01361668273, 26984.05408669163, 18988.119839205723, 0.032, 0.9520000000000001, 0.08, 192.0, 0.0, 0.0, 0.0, 0.0, 0.0, 0.0, 0.0, 0.0, 0.0, 1.6665554176098304E9, 0.0, 2022-10-23 13:03:37.609
70.0, -68155.81091115605, -99643.60739512532, 55441.71398183274, 7516.511680664025, 85222.37363128348, 67288.20559837886, 25496.85841761332, 17326.133528486913, 0.032, 0.9520000000000001, 0.08, 192.0, 0.0, 0.0, 0.0, 0.0, 0.0, 0.0, 0.0, 0.0, 0.0, 1.66655541760984E9, 0.0, 2022-10-23 13:03:37.609
71.0, -68197.96630119876, -99679.14666880926, 54631.93263196143, 7242.009907008399, 85362.60847599608, 67022.44335680525, 25101.478409943393, 17057.934946767684, 0.032, 0.9520000000000001, 0.08, 192.0, 0.0, 0.0, 0.0, 0.0, 0.0, 0.0, 0.0, 0.0, 0.0, 1.6665554176098492E9, 0.0, 2022-10-23 13:03:37.609
72.0, -68237.17126097337, -99716.22821286062, 55795.74326226035, 7940.747790425753, 85617.82069418678, 67601.37588994217, 25936.159603137923, 18041.47875803456, 0.032, 0.9520000000000001, 0.08, 192.0, 0.0, 0.0, 0.0, 0.0, 0.0, 0.0, 0.0, 0.0, 0.0, 1.6665554176098611E9, 0.0, 2022-10-23 13:03:37.609
73.0, -68234.3102376831, -99718.99982917307, 57699.888372407964, 8816.17621376231, 85670.97314250149, 68361.06698048914, 27041.11809028603, 19086.691032253628, 0.032, 0.9520000000000001, 0.08, 192.0, 0.0, 0.0, 0.0, 0.0, 0.0, 0.0, 0.0, 0.0, 0.0, 1.6665554176098704E9, 0.0, 2022-10-23 13:03:37.609
74.0, -68169.2890130626, -99658.33719472137, 55849.65566988655, 7713.05056965954, 85249.53100079668, 67449.42873113498, 25738.57018215301, 17568.962880249368, 0.032, 0.9520000000000001, 0.08, 192.0, 0.0, 0.0, 0.0, 0.0, 0.0, 0.0, 0.0, 0.0, 0.0, 1.6665554176098797E9, 0.0, 2022-10-23 13:03:37.609
75.0, -68175.92748116583, -99663.47809594609, 54630.25625112728, 7213.66789503907, 85324.23053076632, 66992.00028085713, 25065.49210137035, 16988.063393600394, 0.036000000000000004, 0.9540000000000001, 0.076, 192.0, 1.0, 32.0, 29.0, 208.0, 2.0, 96.0, 0.0, 0.0, 0.0, 1.6665554176098893E9, 0.0, 2022-10-23 13:03:37.609
76.0, -68223.89432476692, -99711.91432618075, 55396.518754544115, 7714.726950493688, 85548.79850730879, 67395.11399210859, 25661.836643437942, 17746.256917268864, 0.036000000000000004, 0.9540000000000001, 0.076, 192.0, 0.0, 0.0, 0.0, 0.0, 0.0, 0.0, 0.0, 0.0, 0.0, 1.6665554176098993E9, 0.0, 2022-10-23 13:03:37.609
77.0, -68240.30050519711, -99733.57316655794, 57594.79046997911, 8792.706882084238, 85706.33360222979, 68323.15842189293, 27001.890778766967, 19083.62884326325, 0.036000000000000004, 0.9540000000000001, 0.076, 192.0, 0.0, 0.0, 0.0, 0.0, 0.0, 0.0, 0.0, 0.0, 0.0, 1.6665554176099083E9, 0.0, 2022-10-23 13:03:37.609
78.0, -68147.13843430739, -99641.99806952455, 56319.57874531493, 7959.523255768211, 85310.2830422262, 67657.70228596953, 26044.386749790523, 17889.844523649757, 0.036000000000000004, 0.9540000000000001, 0.076, 192.0, 0.0, 0.0, 0.0, 0.0, 0.0, 0.0, 0.0, 0.0, 0.0, 1.666555417609918E9, 0.0, 2022-10-23 13:03:37.609
79.0, -68161.66706820334, -99648.07774401638, 54674.065670259675, 7199.563944287771, 85284.93616401388, 66988.60281569992, 25067.816682793702, 16962.805922365897, 0.036000000000000004, 0.9540000000000001, 0.076, 192.0, 0.0, 0.0, 0.0, 0.0, 0.0, 0.0, 0.0, 0.0, 0.0, 1.6665554176099272E9, 0.0, 2022-10-23 13:03:37.609
80.0, -68208.62808330395, -99692.75888118254, 55099.687588177636, 7541.389172242782, 85501.83749220819, 67259.84123466507, 25460.827405551365, 17522.76182446025, 0.036000000000000004, 0.9540000000000001, 0.076, 192.0, 0.0, 0.0, 0.0, 0.0, 0.0, 0.0, 0.0, 0.0, 0.0, 1.6665554176099367E9, 0.0, 2022-10-23 13:03:37.609
81.0, -68241.03811276414, -99727.87347172183, 57314.94662939866, 8664.85490379988, 85717.732991902, 68216.74176654122, 26845.786195491102, 18955.396885323153, 0.036000000000000004, 0.9540000000000001, 0.076, 192.0, 0.0, 0.0, 0.0, 0.0, 0.0, 0.0, 0.0, 0.0, 0.0, 1.6665554176099565E9, 0.0, 2022-10-23 13:03:37.609
82.0, -68163.1869868263, -99661.89112208977, 56755.549520915694, 8182.548961943265, 85368.1964121099, 67853.05653250891, 26328.767994495392, 18203.283036146528, 0.036000000000000004, 0.9540000000000001, 0.076, 192.0, 0.0, 0.0, 0.0, 0.0, 0.0, 0.0, 0.0, 0.0, 0.0, 1.666555417609966E9, 0.0, 2022-10-23 13:03:37.609
83.0, -68140.16469003733, -99631.7162670751, 54771.74279352937, 7214.606668306193, 85252.14615489796, 67013.41325204531, 25104.49589544486, 16968.79618987992, 0.036000000000000004, 0.9540000000000001, 0.076, 192.0, 0.0, 0.0, 0.0, 0.0, 0.0, 0.0, 0.0, 0.0, 0.0, 1.6665554176099756E9, 0.0, 2022-10-23 13:03:37.609
84.0, -68190.16554238385, -99672.01646232801, 54855.31596604776, 7386.916266312154, 85449.48970669386, 67125.26138129967, 25278.168949862596, 17315.024711492624, 0.036000000000000004, 0.9540000000000001, 0.076, 192.0, 0.0, 0.0, 0.0, 0.0, 0.0, 0.0, 0.0, 0.0, 0.0, 1.6665554176099849E9, 0.0, 2022-10-23 13:03:37.609
85.0, -68246.89426981143, -99727.35938159937, 56929.31198231125, 8484.073994645358, 85716.34718374578, 68052.97053491719, 26615.339710156884, 18750.833720068185, 0.034, 0.9520000000000001, 0.078, 192.0, 1.0, 16.0, 29.0, 192.0, 2.0, 112.0, 0.0, 0.0, 0.0, 1.6665554176099942E9, 0.0, 2022-10-23 13:03:37.609
86.0, -68163.16463508185, -99658.58306391038, 57179.964444633064, 8429.155758518667, 85470.83562264868, 68053.43992155074, 26615.49617236807, 18546.896403657964, 0.034, 0.9520000000000001, 0.078, 192.0, 0.0, 0.0, 0.0, 0.0, 0.0, 0.0, 0.0, 0.0, 0.0, 1.666555417610004E9, 0.0, 2022-10-23 13:03:37.610
87.0, -68147.49606221868, -99638.8241218119, 54945.393496202654, 7272.7882591233565, 85230.39790754294, 67066.18572070429, 25183.576367327736, 17041.729932037586, 0.034, 0.9520000000000001, 0.078, 192.0, 0.0, 0.0, 0.0, 0.0, 0.0, 0.0, 0.0, 0.0, 0.0, 1.6665554176100135E9, 0.0, 2022-10-23 13:03:37.610
88.0, -68193.9429871968, -99675.70450016315, 54747.625261262096, 7317.759968967434, 85425.48393314886, 67078.45682841026, 25190.773629042345, 17208.92098056328, 0.034, 0.9520000000000001, 0.078, 192.0, 0.0, 0.0, 0.0, 0.0, 0.0, 0.0, 0.0, 0.0, 0.0, 1.6665554176100228E9, 0.0, 2022-10-23 13:03:37.610
89.0, -68229.86224053649, -99711.60140175837, 56538.42467527684, 8302.376663968165, 85705.66304989613, 67906.47720175711, 26380.802855587346, 18521.28130451218, 0.034, 0.9520000000000001, 0.078, 192.0, 0.0, 0.0, 0.0, 0.0, 0.0, 0.0, 0.0, 0.0, 0.0, 1.666555417610032E9, 0.0, 2022-10-23 13:03:37.610
90.0, -68183.77294346964, -99674.60926468484, 57492.687701307266, 8617.670371254728, 85550.83251605422, 68205.78941175812, 26830.609361005947, 18811.16107835306, 0.034, 0.9520000000000001, 0.078, 192.0, 0.0, 0.0, 0.0, 0.0, 0.0, 0.0, 0.0, 0.0, 0.0, 1.6665554176100414E9, 0.0, 2022-10-23 13:03:37.610
91.0, -68146.37847499592, -99636.61129911081, 55202.90794407224, 7376.500353395982, 85221.59132022756, 67156.71028574828, 25318.715014304522, 17163.099904429902, 0.034, 0.9520000000000001, 0.078, 192.0, 0.0, 0.0, 0.0, 0.0, 0.0, 0.0, 0.0, 0.0, 0.0, 1.666555417610052E9, 0.0, 2022-10-23 13:03:37.610
92.0, -68178.45322828928, -99661.89112208977, 54659.76055380828, 7250.995308279433, 85398.7065432914, 67017.90595268083, 25105.68053790099, 17097.162258286746, 0.034, 0.9520000000000001, 0.078, 192.0, 0.0, 0.0, 0.0, 0.0, 0.0, 0.0, 0.0, 0.0, 0.0, 1.6665554176100612E9, 0.0, 2022-10-23 13:03:37.610
93.0, -68235.8525080505, -99716.49643379408, 56087.32176867983, 8071.840771656129, 85655.72925278297, 67702.76340279143, 26096.421610882477, 18224.293675934518, 0.034, 0.9520000000000001, 0.078, 192.0, 0.0, 0.0, 0.0, 0.0, 0.0, 0.0, 0.0, 0.0, 0.0, 1.6665554176100705E9, 0.0, 2022-10-23 13:03:37.610
94.0, -68216.87587700796, -99704.89587842178, 57686.92436062388, 8758.620471789895, 85615.69727846353, 68316.58700902307, 26988.569139071602, 19006.537676636897, 0.034, 0.9520000000000001, 0.078, 192.0, 0.0, 0.0, 0.0, 0.0, 0.0, 0.0, 0.0, 0.0, 0.0, 1.6665554176100798E9, 0.0, 2022-10-23 13:03:37.610
95.0, -68144.81385288404, -99637.95240377814, 55608.03331232468, 7575.4979342815805, 85227.98391914177, 67341.96154379386, 25576.520034852034, 17401.145982878923, 0.034, 0.9520000000000001, 0.078, 192.0, 1.0, 16.0, 29.0, 192.0, 2.0, 112.0, 0.0, 0.0, 0.0, 1.6665554176100893E9, 0.0, 2022-10-23 13:03:37.610
96.0, -68183.25885334717, -99673.64813967326, 54674.04331851522, 7230.208185935997, 85332.61243493705, 67019.55998177052, 25097.946834319453, 17035.89612673475, 0.034, 0.9520000000000001, 0.078, 192.0, 0.0, 0.0, 0.0, 0.0, 0.0, 0.0, 0.0, 0.0, 0.0, 1.6665554176101112E9, 0.0, 2022-10-23 13:03:37.610
97.0, -68215.15479268489, -99703.04068363199, 55718.07095027816, 7870.004519224706, 85579.17452802355, 67547.70935150496, 25862.823529580062, 17950.75302729047, 0.034, 0.9520000000000001, 0.078, 192.0, 0.0, 0.0, 0.0, 0.0, 0.0, 0.0, 0.0, 0.0, 0.0, 1.6665554176101215E9, 0.0, 2022-10-23 13:03:37.610
98.0, -68212.47258335026, -99706.86283193385, 57748.65987880944, 8826.279202256108, 85681.59022111777, 68376.91436730795, 27064.632125453012, 19108.12635518627, 0.034, 0.9520000000000001, 0.078, 192.0, 0.0, 0.0, 0.0, 0.0, 0.0, 0.0, 0.0, 0.0, 0.0, 1.6665554176101313E9, 0.0, 2022-10-23 13:03:37.610
99.0, -68128.36296896494, -99626.17303445018, 56062.556035823356, 7794.366215987947, 85264.66313179293, 67532.28664783081, 25855.425102165354, 17676.0724396792, 0.034, 0.9520000000000001, 0.078, 192.0, 0.0, 0.0, 0.0, 0.0, 0.0, 0.0, 0.0, 0.0, 0.0, 1.6665554176101406E9, 0.0, 2022-10-23 13:03:37.610
100.0, -68155.94502162279, -99649.73177310608, 54698.317312993684, 7199.452185565494, 85300.9847165328, 66995.0624698475, 25071.14709271754, 16979.07799232936, 0.034, 0.9520000000000001, 0.078, 192.0, 0.0, 0.0, 0.0, 0.0, 0.0, 0.0, 0.0, 0.0, 0.0, 1.66655541761015E9, 0.0, 2022-10-23 13:03:37.610
101.0, -68200.08971692201, -99693.78706142749, 55366.321547784995, 7656.902987587809, 85536.41564088054, 67363.17334928195, 25606.426668933236, 17681.92859672649, 0.034, 0.9520000000000001, 0.078, 192.0, 0.0, 0.0, 0.0, 0.0, 0.0, 0.0, 0.0, 0.0, 0.0, 1.6665554176101596E9, 0.0, 2022-10-23 13:03:37.610
102.0, -68230.1528132144, -99723.33606759741, 57605.31814161756, 8767.44941084974, 85721.4880849705, 68317.72694799029, 26980.85778723452, 19069.01080238948, 0.034, 0.9520000000000001, 0.078, 192.0, 0.0, 0.0, 0.0, 0.0, 0.0, 0.0, 0.0, 0.0, 0.0, 1.6665554176101687E9, 0.0, 2022-10-23 13:03:37.610
103.0, -68154.26864078864, -99651.18463649567, 56539.385800288415, 8028.031352523727, 85320.74365863128, 67731.44069092759, 26144.70137890594, 17993.6460249002, 0.034, 0.9520000000000001, 0.078, 192.0, 0.0, 0.0, 0.0, 0.0, 0.0, 0.0, 0.0, 0.0, 0.0, 1.6665554176101785E9, 0.0, 2022-10-23 13:03:37.610
104.0, -68165.01982987164, -99659.65594764423, 54795.05566299626, 7208.079958925243, 85267.61356206103, 67016.02840614658, 25095.19756975145, 16974.6076434383, 0.038, 0.9540000000000001, 0.076, 192.0, 1.0, 48.0, 29.0, 208.0, 2.0, 96.0, 0.0, 0.0, 0.0, 1.6665554176101878E9, 0.0, 2022-10-23 13:03:37.610
105.0, -68207.3987373589, -99697.36334054034, 55137.640850262746, 7511.683703861679, 85485.65482922255, 67255.75086542974, 25438.69917854061, 17482.171056529412, 0.038, 0.9540000000000001, 0.076, 192.0, 0.0, 0.0, 0.0, 0.0, 0.0, 0.0, 0.0, 0.0, 0.0, 1.6665554176101978E9, 0.0, 2022-10-23 13:03:37.610
106.0, -68233.12559522696, -99722.28553560801, 57330.414036561735, 8637.541072075495, 85722.5386169599, 68210.103298438, 26818.718232955725, 18928.619495465697, 0.038, 0.9540000000000001, 0.076, 192.0, 0.0, 0.0, 0.0, 0.0, 0.0, 0.0, 0.0, 0.0, 0.0, 1.666555417610207E9, 0.0, 2022-10-23 13:03:37.610
107.0, -68155.81091115605, -99653.71038361912, 57013.39924495212, 8277.320358433766, 85398.39361886903, 67945.30218187597, 26446.89696394169, 18335.314790644024, 0.038, 0.9540000000000001, 0.076, 192.0, 0.0, 0.0, 0.0, 0.0, 0.0, 0.0, 0.0, 0.0, 0.0, 1.6665554176102169E9, 0.0, 2022-10-23 13:03:37.610
108.0, -68149.12773956392, -99643.09330500285, 54950.0203073049, 7253.029317024865, 85245.10535539452, 67067.90680502735, 25162.20809962846, 17018.12648989278, 0.038, 0.9540000000000001, 0.076, 192.0, 0.0, 0.0, 0.0, 0.0, 0.0, 0.0, 0.0, 0.0, 0.0, 1.6665554176102262E9, 0.0, 2022-10-23 13:03:37.610
109.0, -68189.27147260564, -99682.54413396647, 54967.16409530212, 7398.896801340199, 85441.35367171213, 67170.88129173295, 25305.616892053713, 17318.265714438643, 0.038, 0.9540000000000001, 0.076, 192.0, 0.0, 0.0, 0.0, 0.0, 0.0, 0.0, 0.0, 0.0, 0.0, 1.6665554176102357E9, 0.0, 2022-10-23 13:03:37.610
110.0, -68238.60177261851, -99730.44392233419, 56926.22744157642, 8433.112017287256, 85691.69320961156, 68039.62654347737, 26572.424360802695, 18686.41599254799, 0.038, 0.9540000000000001, 0.076, 192.0, 0.0, 0.0, 0.0, 0.0, 0.0, 0.0, 0.0, 0.0, 0.0, 1.6665554176102452E9, 0.0, 2022-10-23 13:03:37.610
111.0, -68188.42210631634, -99686.14276482377, 57396.1505170048, 8487.694977247116, 85472.8696313941, 68126.39601545286, 26706.847751956913, 18633.06237853317, 0.038, 0.9540000000000001, 0.076, 192.0, 0.0, 0.0, 0.0, 0.0, 0.0, 0.0, 0.0, 0.0, 0.0, 1.6665554176102557E9, 0.0, 2022-10-23 13:03:37.610
112.0, -68153.15105356587, -99652.32457546289, 55098.23472478804, 7277.571532436792, 85198.54667169413, 67092.06904078354, 25214.75705084289, 17052.3246589094, 0.038, 0.9540000000000001, 0.076, 192.0, 0.0, 0.0, 0.0, 0.0, 0.0, 0.0, 0.0, 0.0, 0.0, 1.6665554176102748E9, 0.0, 2022-10-23 13:03:37.610
113.0, -68187.63979526042, -99682.16415431073, 54772.21218016293, 7260.6959653730355, 85400.24881365882, 67045.57741231649, 25140.661017973547, 17141.86574719736, 0.038, 0.9540000000000001, 0.076, 192.0, 0.0, 0.0, 0.0, 0.0, 0.0, 0.0, 0.0, 0.0, 0.0, 1.6665554176102843E9, 0.0, 2022-10-23 13:03:37.610
114.0, -68233.9526097718, -99728.49932056658, 56432.87973795888, 8188.4274707350105, 85676.8740030377, 67824.53570658395, 26264.1491012751, 18399.039614086105, 0.044, 0.96, 0.076, 192.0, 1.0, 96.0, 30.0, 0.0, 2.0, 96.0, 0.0, 0.0, 0.0, 1.6665554176102936E9, 0.0, 2022-10-23 13:03:37.610
115.0, -68184.59995801449, -99688.84732590287, 57637.68346758884, 8660.47396188664, 85589.21046128399, 68261.19938626283, 26897.374021693948, 18893.996643304425, 0.044, 0.96, 0.076, 192.0, 0.0, 0.0, 0.0, 0.0, 0.0, 0.0, 0.0, 0.0, 0.0, 1.6665554176103036E9, 0.0, 2022-10-23 13:03:37.610
116.0, -68137.86246035845, -99642.17688348019, 55378.95028340224, 7415.6606096816795, 85226.50870400772, 67216.50120216623, 25392.095791351294, 17237.93354486627, 0.044, 0.96, 0.076, 192.0, 0.0, 0.0, 0.0, 0.0, 0.0, 0.0, 0.0, 0.0, 0.0, 1.666555417610313E9, 0.0, 2022-10-23 13:03:37.610
117.0, -68181.00132715718, -99683.14763106676, 54669.23769345733, 7187.6728162375475, 85355.34415904811, 66984.02070808658, 25056.707865799413, 17044.166272183214, 0.044, 0.96, 0.076, 192.0, 0.0, 0.0, 0.0, 0.0, 0.0, 0.0, 0.0, 0.0, 0.0, 1.6665554176103225E9, 0.0, 2022-10-23 13:03:37.610
118.0, -68224.60958058949, -99723.62664027532, 55938.19092967403, 7932.5223484662, 85609.72936269395, 67593.59748287172, 25946.888440476472, 18090.652595836236, 0.044, 0.96, 0.076, 192.0, 0.0, 0.0, 0.0, 0.0, 0.0, 0.0, 0.0, 0.0, 0.0, 1.6665554176103318E9, 0.0, 2022-10-23 13:03:37.610
119.0, -68208.62808330395, -99710.8861459358, 57712.114776625014, 8738.280384335565, 85647.2132381455, 68307.73571821877, 26974.509891809215, 19037.517194451953, 0.044, 0.96, 0.076, 192.0, 0.0, 0.0, 0.0, 0.0, 0.0, 0.0, 0.0, 0.0, 0.0, 1.6665554176103413E9, 0.0, 2022-10-23 13:03:37.610
120.0, -68135.7390446352, -99641.26046195751, 55730.63263066205, 7593.155812401273, 85242.15492512644, 67365.22970977184, 25614.07096553695, 17472.4256959469, 0.044, 0.96, 0.076, 192.0, 0.0, 0.0, 0.0, 0.0, 0.0, 0.0, 0.0, 0.0, 0.0, 1.6665554176103504E9, 0.0, 2022-10-23 13:03:37.610
121.0, -68166.0927136055, -99668.90956984874, 54619.30389634418, 7147.84200761819, 85316.16155101795, 66946.44742565721, 25009.09865010961, 16978.966233607083, 0.044, 0.96, 0.076, 192.0, 0.0, 0.0, 0.0, 0.0, 0.0, 0.0, 0.0, 0.0, 0.0, 1.6665554180884244E9, 0.0, 2022-10-23 13:03:38.088
122.0, -68213.56781882857, -99713.23307910361, 55530.405703831406, 7731.334296623982, 85565.24939122789, 67422.60663778862, 25698.493504344646, 17830.567697354283, 0.044, 0.96, 0.076, 192.0, 0.0, 0.0, 0.0, 0.0, 0.0, 0.0, 0.0, 0.0, 0.0, 1.666555418088571E9, 0.0, 2022-10-23 13:03:38.088
123.0, -68223.24612417772, -99727.76171299955, 57635.135368720934, 8743.533044282562, 85686.08292175329, 68296.76101169123, 26960.987086413752, 19074.375221058755, 0.044, 0.96, 0.076, 192.0, 0.0, 0.0, 0.0, 0.0, 0.0, 0.0, 0.0, 0.0, 0.0, 1.6665554180885992E9, 0.0, 2022-10-23 13:03:38.088
124.0, -68142.28810576058, -99651.60931964032, 56116.91547833866, 7794.2097537767595, 85272.44153886336, 67523.61417098215, 25853.458148653288, 17743.485300956407, 0.044, 0.962, 0.078, 192.0, 1.0, 96.0, 30.0, 16.0, 2.0, 112.0, 0.0, 0.0, 0.0, 1.666555418088626E9, 0.0, 2022-10-23 13:03:38.088
125.0, -68158.3366582795, -99661.39938371175, 54626.05412316968, 7142.164664526542, 85292.22283270632, 66938.95959126468, 24992.558359212682, 16950.4007041932, 0.044, 0.962, 0.078, 192.0, 0.0, 0.0, 0.0, 0.0, 0.0, 0.0, 0.0, 0.0, 0.0, 1.6665554180886557E9, 0.0, 2022-10-23 13:03:38.088
126.0, -68211.24323740522, -99711.66845699173, 55167.145152943755, 7545.054858333452, 85505.86080621014, 67257.74017068627, 25455.37357990427, 17575.95897626388, 0.044, 0.962, 0.078, 192.0, 0.0, 0.0, 0.0, 0.0, 0.0, 0.0, 0.0, 0.0, 0.0, 1.666555418088682E9, 0.0, 2022-10-23 13:03:38.088
127.0, -68238.89234529642, -99742.6479748068, 57404.532421175536, 8673.549732392996, 85712.14505578818, 68222.88849626643, 26847.484928069705, 18997.99931025497, 0.044, 0.962, 0.078, 192.0, 0.0, 0.0, 0.0, 0.0, 0.0, 0.0, 0.0, 0.0, 0.0, 1.666555418088708E9, 0.0, 2022-10-23 13:03:38.088
128.0, -68153.21810879924, -99659.23126449958, 56566.81139073508, 8054.026431325249, 85340.9943391078, 67737.47566193053, 26156.41369300052, 18072.972365972088, 0.044, 0.962, 0.078, 192.0, 0.0, 0.0, 0.0, 0.0, 0.0, 0.0, 0.0, 0.0, 0.0, 1.6665554180888257E9, 0.0, 2022-10-23 13:03:38.088
129.0, -68162.2929170481, -99661.10881103383, 54678.826591828656, 7148.490208207394, 85253.44255607636, 66941.39593141031, 25002.348423284107, 16937.459044153577, 0.044, 0.962, 0.078, 192.0, 0.0, 0.0, 0.0, 0.0, 0.0, 0.0, 0.0, 0.0, 0.0, 1.6665554180888524E9, 0.0, 2022-10-23 13:03:38.088
130.0, -68199.08388842153, -99695.61990447283, 54904.5121555939, 7404.596496176303, 85474.16603257252, 67132.30218080309, 25278.034839395863, 17382.59403498102, 0.044, 0.962, 0.078, 192.0, 0.0, 0.0, 0.0, 0.0, 0.0, 0.0, 0.0, 0.0, 0.0, 1.666555418088879E9, 0.0, 2022-10-23 13:03:38.088
131.0, -68246.49193841123, -99743.96672772965, 57046.502178490424, 8523.860099775804, 85726.15959956165, 68082.02780270908, 26649.38141696232, 18833.2446018749, 0.044, 0.962, 0.078, 192.0, 0.0, 0.0, 0.0, 0.0, 0.0, 0.0, 0.0, 0.0, 0.0, 1.6665554180889056E9, 0.0, 2022-10-23 13:03:38.088
132.0, -68191.23842611772, -99691.64129395978, 57011.87932632915, 8319.341638009744, 85437.82209608819, 67956.52275759254, 26470.031019452934, 18432.343713324513, 0.044, 0.962, 0.078, 192.0, 0.0, 0.0, 0.0, 0.0, 0.0, 0.0, 0.0, 0.0, 0.0, 1.6665554180889316E9, 0.0, 2022-10-23 13:03:38.088
133.0, -68160.12479783593, -99659.43243019968, 54828.225651767934, 7208.079958925243, 85228.38625054197, 66997.69997569323, 25085.34045044666, 16997.629940227263, 0.044, 0.962, 0.078, 192.0, 0.0, 0.0, 0.0, 0.0, 0.0, 0.0, 0.0, 0.0, 0.0, 1.6665554180889647E9, 0.0, 2022-10-23 13:03:38.088
134.0, -68199.352109355, -99698.63738997429, 54735.64472623405, 7307.679332218091, 85432.90471230802, 67055.99332523267, 25164.30916360726, 17243.58853621346, 0.042, 0.9580000000000001, 0.07200000000000001, 192.0, 1.0, 80.0, 29.0, 240.0, 2.0, 64.0, 0.0, 0.0, 0.0, 1.66655541808899E9, 0.0, 2022-10-23 13:03:38.088
135.0, -68233.37146441596, -99737.75294277108, 56631.743208377746, 8337.60301322973, 85703.15965451713, 67923.06219614294, 26414.933969370602, 18608.02842474323, 0.042, 0.9580000000000001, 0.07200000000000001, 192.0, 0.0, 0.0, 0.0, 0.0, 0.0, 0.0, 0.0, 0.0, 0.0, 1.666555418089019E9, 0.0, 2022-10-23 13:03:38.089
136.0, -68189.36087958347, -99699.9337911527, 57345.8367402359, 8525.73764631005, 85514.44387608099, 68121.59039039498, 26712.65920551529, 18728.124347701592, 0.042, 0.9580000000000001, 0.07200000000000001, 192.0, 0.0, 0.0, 0.0, 0.0, 0.0, 0.0, 0.0, 0.0, 0.0, 1.6665554180890443E9, 0.0, 2022-10-23 13:03:38.089
137.0, -68153.19575705478, -99659.65594764423, 55054.157084722174, 7307.9252014071, 85215.55634922461, 67091.19732274978, 25220.948484057008, 17120.028092864526, 0.042, 0.9580000000000001, 0.07200000000000001, 192.0, 0.0, 0.0, 0.0, 0.0, 0.0, 0.0, 0.0, 0.0, 0.0, 1.6665554180890703E9, 0.0, 2022-10-23 13:03:38.089
138.0, -68194.25591161918, -99690.76957592602, 54615.66056199796, 7235.460845882994, 85394.81733975618, 66993.85547564691, 25073.315211929705, 17128.320590057443, 0.042, 0.9580000000000001, 0.07200000000000001, 192.0, 0.0, 0.0, 0.0, 0.0, 0.0, 0.0, 0.0, 0.0, 0.0, 1.666555418089096E9, 0.0, 2022-10-23 13:03:38.089
139.0, -68253.97977280377, -99746.26895740855, 56164.748211473016, 8109.682275018964, 85662.16655518611, 67725.45042341357, 26130.64213164355, 18321.85904048193, 0.042, 0.9580000000000001, 0.07200000000000001, 192.0, 0.0, 0.0, 0.0, 0.0, 0.0, 0.0, 0.0, 0.0, 0.0, 1.6665554180891213E9, 0.0, 2022-10-23 13:03:38.089
140.0, -68213.59017057302, -99712.1378436253, 57564.548559731076, 8687.206648255187, 85600.60985095619, 68244.77085408817, 26887.8968820449, 18955.75451323444, 0.042, 0.9580000000000001, 0.07200000000000001, 192.0, 0.0, 0.0, 0.0, 0.0, 0.0, 0.0, 0.0, 0.0, 0.0, 1.666555418089146E9, 0.0, 2022-10-23 13:03:38.089
141.0, -68154.42510299983, -99656.05731678693, 55383.35357705994, 7472.590502809347, 85232.29780582164, 67230.78396687318, 25422.94119869962, 17319.271542939132, 0.042, 0.9580000000000001, 0.07200000000000001, 192.0, 0.0, 0.0, 0.0, 0.0, 0.0, 0.0, 0.0, 0.0, 0.0, 1.6665554180891714E9, 0.0, 2022-10-23 13:03:38.089
142.0, -68187.77390572714, -99688.28853229148, 54547.62185187601, 7176.273426565341, 85346.91755138845, 66939.98777150962, 25002.638995962025, 17035.292629634456, 0.042, 0.9580000000000001, 0.07200000000000001, 192.0, 0.0, 0.0, 0.0, 0.0, 0.0, 0.0, 0.0, 0.0, 0.0, 1.6665554180891967E9, 0.0, 2022-10-23 13:03:38.089
143.0, -68237.55124062911, -99733.90844272476, 55723.14479626952, 7883.594379853533, 85611.204577828, 67528.95623790697, 25848.317247428567, 18036.76253995449, 0.044, 0.9540000000000001, 0.076, 192.0, 1.0, 96.0, 29.0, 208.0, 2.0, 96.0, 0.0, 0.0, 0.0, 1.666555418089249E9, 0.0, 2022-10-23 13:03:38.089
144.0, -68216.76411828568, -99720.49739605158, 57626.73111280574, 8763.359041614418, 85674.92940127008, 68297.5209710027, 26960.80827245811, 19088.21095087659, 0.044, 0.9540000000000001, 0.076, 192.0, 0.0, 0.0, 0.0, 0.0, 0.0, 0.0, 0.0, 0.0, 0.0, 1.6665554180892768E9, 0.0, 2022-10-23 13:03:38.089
145.0, -68141.41638772683, -99651.94459580716, 55797.799622750244, 7684.216819312194, 85273.71558829733, 67417.17516388597, 25686.758838505608, 17594.823848584158, 0.044, 0.9540000000000001, 0.076, 192.0, 0.0, 0.0, 0.0, 0.0, 0.0, 0.0, 0.0, 0.0, 0.0, 1.6665554180893023E9, 0.0, 2022-10-23 13:03:38.089
146.0, -68187.14805688239, -99686.18746831268, 54583.36229126004, 7182.37545280164, 85325.8398563671, 66965.08878053294, 25016.430022290948, 17010.258675844514, 0.044, 0.9540000000000001, 0.076, 192.0, 0.0, 0.0, 0.0, 0.0, 0.0, 0.0, 0.0, 0.0, 0.0, 1.6665554180893219E9, 0.0, 2022-10-23 13:03:38.089
147.0, -68233.17029871586, -99724.25248912007, 55359.325451770485, 7693.04575837204, 85553.51472538886, 67380.67476519046, 25620.798840617997, 17767.8934059016, 0.044, 0.9540000000000001, 0.076, 192.0, 0.0, 0.0, 0.0, 0.0, 0.0, 0.0, 0.0, 0.0, 0.0, 1.6665554180893302E9, 0.0, 2022-10-23 13:03:38.089
148.0, -68234.109071983, -99724.96774494264, 57535.670105894824, 8753.457218820718, 85699.6280788932, 68295.6657762129, 26943.53037399416, 19081.080744395345, 0.044, 0.9540000000000001, 0.076, 192.0, 0.0, 0.0, 0.0, 0.0, 0.0, 0.0, 0.0, 0.0, 0.0, 1.6665554180893388E9, 0.0, 2022-10-23 13:03:38.089
149.0, -68133.6379806564, -99642.60156662484, 56215.82194755339, 7891.082214246061, 85283.10332096856, 67599.02895677436, 25952.00698995674, 17852.114779009196, 0.044, 0.9540000000000001, 0.076, 192.0, 0.0, 0.0, 0.0, 0.0, 0.0, 0.0, 0.0, 0.0, 0.0, 1.666555418089347E9, 0.0, 2022-10-23 13:03:38.089
150.0, -68165.31040254956, -99687.30505553544, 54587.00562560626, 7150.904196608567, 85280.86814652302, 66940.77008256556, 24992.13367606803, 16944.633954123732, 0.044, 0.9540000000000001, 0.076, 192.0, 0.0, 0.0, 0.0, 0.0, 0.0, 0.0, 0.0, 0.0, 0.0, 1.6665554180893552E9, 0.0, 2022-10-23 13:03:38.089
151.0, -68236.18778421734, -99751.52161735555, 55022.23879364, 7500.440776400659, 85500.80931196324, 67213.72958585377, 25392.229901818027, 17513.79877493367, 0.044, 0.9540000000000001, 0.076, 192.0, 0.0, 0.0, 0.0, 0.0, 0.0, 0.0, 0.0, 0.0, 0.0, 1.6665554180893636E9, 0.0, 2022-10-23 13:03:38.089
152.0, -68283.21585455131, -99791.97827481966, 57240.38120989576, 8627.572194048429, 85717.732991902, 68171.90416716387, 26779.021534803098, 18949.563080020318, 0.044, 0.9540000000000001, 0.076, 192.0, 0.0, 0.0, 0.0, 0.0, 0.0, 0.0, 0.0, 0.0, 0.0, 1.666555418089372E9, 0.0, 2022-10-23 13:03:38.089
153.0, -68212.02554846116, -99733.1931869022, 56656.285423789675, 8137.018458487804, 85366.74354872032, 67795.18786611412, 26245.48539465492, 18181.020698669043, 0.044, 0.96, 0.074, 192.0, 1.0, 96.0, 30.0, 0.0, 2.0, 80.0, 0.0, 0.0, 0.0, 1.6665554180893805E9, 0.0, 2022-10-23 13:03:38.089
154.0, -68215.82534501856, -99747.38654463131, 54668.09775449011, 7165.052850848777, 85237.43870704636, 66948.90611754729, 25015.401842046005, 16942.532890144932, 0.044, 0.96, 0.074, 192.0, 0.0, 0.0, 0.0, 0.0, 0.0, 0.0, 0.0, 0.0, 0.0, 1.6665554180893908E9, 0.0, 2022-10-23 13:03:38.089
155.0, -68262.09345604104, -99791.75475737509, 54773.1286016856, 7356.942576997588, 85433.57526464168, 67082.59190113448, 25210.040832762817, 17303.446507864774, 0.044, 0.96, 0.074, 192.0, 0.0, 0.0, 0.0, 0.0, 0.0, 0.0, 0.0, 0.0, 0.0, 1.6665554180894008E9, 0.0, 2022-10-23 13:03:38.089
156.0, -68312.31782583211, -99836.27943233008, 56858.09932447664, 8468.472477015554, 85718.1353233022, 68025.61199970389, 26563.05897987592, 18749.447911911957, 0.044, 0.96, 0.074, 192.0, 0.0, 0.0, 0.0, 0.0, 0.0, 0.0, 0.0, 0.0, 0.0, 1.666555418089409E9, 0.0, 2022-10-23 13:03:38.089
157.0, -68260.77470311818, -99792.51471668658, 57064.62944324368, 8387.559162087342, 85466.67819817999, 68003.86375234887, 26536.30394176292, 18517.95089458834, 0.044, 0.96, 0.074, 192.0, 0.0, 0.0, 0.0, 0.0, 0.0, 0.0, 0.0, 0.0, 0.0, 1.6665554180894177E9, 0.0, 2022-10-23 13:03:38.089
158.0, -68243.27328720967, -99778.81309733547, 54826.79514012279, 7234.410313893594, 85227.96156739732, 67018.75531897013, 25108.474505957904, 17018.059434659415, 0.044, 0.96, 0.074, 192.0, 0.0, 0.0, 0.0, 0.0, 0.0, 0.0, 0.0, 0.0, 0.0, 1.666555418089426E9, 0.0, 2022-10-23 13:03:38.089
159.0, -68290.32370928809, -99829.52920550457, 54615.43704455341, 7269.211980010507, 85408.54131085174, 67017.03423464707, 25107.893360602066, 17177.02504122556, 0.044, 0.96, 0.074, 192.0, 0.0, 0.0, 0.0, 0.0, 0.0, 0.0, 0.0, 0.0, 0.0, 1.6665554180894427E9, 0.0, 2022-10-23 13:03:38.089
160.0, -68354.02618098572, -99891.82351730151, 56420.74274071965, 8259.64012856962, 85683.26660195191, 67856.7669220885, 26317.167439123088, 18499.28718796816, 0.044, 0.96, 0.074, 192.0, 0.0, 0.0, 0.0, 0.0, 0.0, 0.0, 0.0, 0.0, 0.0, 1.6665554180894513E9, 0.0, 2022-10-23 13:03:38.089
161.0, -68299.04088962566, -99834.60305149593, 57390.62963612434, 8594.223391321111, 85538.9860914929, 68181.64952774638, 26789.39274423036, 18805.32727305022, 0.044, 0.96, 0.074, 192.0, 0.0, 0.0, 0.0, 0.0, 0.0, 0.0, 0.0, 0.0, 0.0, 1.66655541808946E9, 0.0, 2022-10-23 13:03:38.089
162.0, -68244.77085408817, -99780.04244328052, 55134.064571149895, 7382.825897076834, 85220.65254696042, 67167.5061783202, 25313.082374701786, 17188.603244853406, 0.044, 0.96, 0.074, 192.0, 0.0, 0.0, 0.0, 0.0, 0.0, 0.0, 0.0, 0.0, 0.0, 1.6665554180894685E9, 0.0, 2022-10-23 13:03:38.089
163.0, -68271.54824394564, -99809.92672561726, 54562.150485771956, 7229.045895224321, 85369.55986852168, 67001.54447573955, 25069.895395028045, 17093.295406495978, 0.042, 0.962, 0.078, 192.0, 1.0, 80.0, 30.0, 16.0, 2.0, 112.0, 0.0, 0.0, 0.0, 1.6665554180894768E9, 0.0, 2022-10-23 13:03:38.089
164.0, -68308.11569787451, -99851.3668598374, 55952.76426705888, 8019.448282652889, 85621.9110634221, 67655.06478012381, 26023.644330935997, 18191.704832518677, 0.042, 0.962, 0.078, 192.0, 0.0, 0.0, 0.0, 0.0, 0.0, 0.0, 0.0, 0.0, 0.0, 1.6665554180894861E9, 0.0, 2022-10-23 13:03:38.089
165.0, -68292.2683110557, -99840.28039458756, 57545.41546647734, 8709.223116543664, 85609.25997606039, 68271.4141334789, 26918.496420204214, 18981.95075773606, 0.042, 0.962, 0.078, 192.0, 0.0, 0.0, 0.0, 0.0, 0.0, 0.0, 0.0, 0.0, 0.0, 1.6665554180894947E9, 0.0, 2022-10-23 13:03:38.089
166.0, -68225.03426373414, -99761.17757096024, 55431.4321793833, 7509.739102094067, 85219.78082892667, 67278.16966511842, 25486.487208186056, 17359.616441680962, 0.042, 0.962, 0.078, 192.0, 0.0, 0.0, 0.0, 0.0, 0.0, 0.0, 0.0, 0.0, 0.0, 1.6665554180895033E9, 0.0, 2022-10-23 13:03:38.089
167.0, -68263.56867117509, -99787.26205673958, 54473.63757772894, 7157.095629822687, 85338.9379786179, 66946.89446054632, 24999.532103482736, 16991.259693057502, 0.042, 0.962, 0.078, 192.0, 0.0, 0.0, 0.0, 0.0, 0.0, 0.0, 0.0, 0.0, 0.0, 1.6665554180895116E9, 0.0, 2022-10-23 13:03:38.089
168.0, -68308.04864264115, -99831.65262122783, 55513.03839838963, 7800.088262568505, 85590.5515659513, 67474.172112247, 25767.515691222634, 17914.610256506236, 0.042, 0.962, 0.078, 192.0, 0.0, 0.0, 0.0, 0.0, 0.0, 0.0, 0.0, 0.0, 0.0, 1.6665554180895202E9, 0.0, 2022-10-23 13:03:38.089
169.0, -68303.44418328335, -99831.25028982763, 57520.82854757649, 8745.812922217003, 85679.06447399432, 68292.80475292263, 26958.28252533466, 19062.327630797343, 0.042, 0.962, 0.078, 192.0, 0.0, 0.0, 0.0, 0.0, 0.0, 0.0, 0.0, 0.0, 0.0, 1.6665554180895283E9, 0.0, 2022-10-23 13:03:38.089
170.0, -68215.22184791826, -99751.40985863327, 55818.765559049316, 7715.777482483088, 85265.31133238213, 67448.71347531241, 25751.511842192635, 17633.425311258474, 0.042, 0.962, 0.078, 192.0, 0.0, 0.0, 0.0, 0.0, 0.0, 0.0, 0.0, 0.0, 0.0, 1.666555418089537E9, 0.0, 2022-10-23 13:03:38.089
171.0, -68234.44434814982, -99774.72272810015, 54419.68046661383, 7102.222097184908, 85290.14412047197, 66891.61859650834, 24948.8383470581, 16918.951799744584, 0.042, 0.962, 0.078, 192.0, 0.0, 0.0, 0.0, 0.0, 0.0, 0.0, 0.0, 0.0, 0.0, 1.6665554180895452E9, 0.0, 2022-10-23 13:03:38.089
172.0, -68287.73090693128, -99823.80715892401, 55081.69443389111, 7564.92555915422, 85531.31944314473, 67266.63616497949, 25493.907987345217, 17629.044369345233, 0.044, 0.9560000000000001, 0.082, 192.0, 1.0, 96.0, 29.0, 224.0, 2.0, 144.0, 0.0, 0.0, 0.0, 1.6665554180895536E9, 0.0, 2022-10-23 13:03:38.089
173.0, -68305.67935772889, -99838.22403409769, 57317.271210822015, 8683.608017397883, 85719.25291052496, 68229.63872309194, 26880.051419741085, 19028.57649666983, 0.044, 0.9560000000000001, 0.082, 192.0, 0.0, 0.0, 0.0, 0.0, 0.0, 0.0, 0.0, 0.0, 0.0, 1.6665554180895627E9, 0.0, 2022-10-23 13:03:38.089
174.0, -68214.64070256242, -99753.22034993416, 56218.97354352159, 7933.081142077583, 85321.41421096495, 67629.60614318922, 26028.494659482796, 17945.902698743666, 0.044, 0.9560000000000001, 0.082, 192.0, 0.0, 0.0, 0.0, 0.0, 0.0, 0.0, 0.0, 0.0, 0.0, 1.6665554180895708E9, 0.0, 2022-10-23 13:03:38.089
175.0, -68215.33360664053, -99753.46621912316, 54439.39470522341, 7097.505879104839, 85264.50666958174, 66888.77992496251, 24957.93550705141, 16914.213229920057, 0.044, 0.9560000000000001, 0.082, 192.0, 0.0, 0.0, 0.0, 0.0, 0.0, 0.0, 0.0, 0.0, 0.0, 1.6665554180895872E9, 0.0, 2022-10-23 13:03:38.089
176.0, -68260.93116532936, -99796.42627196625, 54789.154802460056, 7421.695580684613, 85501.4798642969, 67142.47222453025, 25321.263113172427, 17444.798939800137, 0.044, 0.9560000000000001, 0.082, 192.0, 0.0, 0.0, 0.0, 0.0, 0.0, 0.0, 0.0, 0.0, 0.0, 1.666555418089597E9, 0.0, 2022-10-23 13:03:38.089
177.0, -68297.81154368061, -99834.33483056245, 57017.288448487336, 8579.560646958429, 85738.43070726762, 68134.86732660142, 26744.15281345282, 18924.395015763643, 0.044, 0.9560000000000001, 0.082, 192.0, 0.0, 0.0, 0.0, 0.0, 0.0, 0.0, 0.0, 0.0, 0.0, 1.6665554180896056E9, 0.0, 2022-10-23 13:03:38.089
178.0, -68216.02651071866, -99759.09885872589, 56664.22029307131, 8197.14465107258, 85393.34212462213, 67848.5638318734, 26350.9185732506, 18303.91058968432, 0.044, 0.9560000000000001, 0.082, 192.0, 0.0, 0.0, 0.0, 0.0, 0.0, 0.0, 0.0, 0.0, 0.0, 1.666555418089614E9, 0.0, 2022-10-23 13:03:38.089
179.0, -68201.7437460117, -99737.93175672671, 54584.70339592736, 7171.13252534062, 85248.83809671857, 66962.89830957631, 25061.066455968197, 16984.196541809626, 0.044, 0.9560000000000001, 0.082, 192.0, 0.0, 0.0, 0.0, 0.0, 0.0, 0.0, 0.0, 0.0, 0.0, 1.6665554180896225E9, 0.0, 2022-10-23 13:03:38.089
180.0, -68254.53856641514, -99784.24457123812, 54597.37683503352, 7322.722056236513, 85447.54510492625, 67063.25764218064, 25207.291568194818, 17290.370737358422, 0.044, 0.9560000000000001, 0.082, 192.0, 0.0, 0.0, 0.0, 0.0, 0.0, 0.0, 0.0, 0.0, 0.0, 1.6665554180896308E9, 0.0, 2022-10-23 13:03:38.089
181.0, -68303.73475596127, -99832.97137415069, 56606.709254587804, 8401.529002371908, 85705.21601500703, 67979.20977821467, 26524.926903835167, 18699.3129490987, 0.044, 0.9560000000000001, 0.082, 192.0, 0.0, 0.0, 0.0, 0.0, 0.0, 0.0, 0.0, 0.0, 0.0, 1.6665554180896392E9, 0.0, 2022-10-23 13:03:38.089
182.0, -68225.5036503677, -99767.97250127465, 57073.368975325706, 8459.62118621125, 85475.44008200648, 68067.47681706867, 26661.585469434915, 18640.371398970055, 0.042, 0.9560000000000001, 0.074, 192.0, 1.0, 80.0, 29.0, 224.0, 2.0, 80.0, 0.0, 0.0, 0.0, 1.6665554180896475E9, 0.0, 2022-10-23 13:03:38.089
183.0, -68184.08586789202, -99726.37590484333, 54811.35008470417, 7279.784355137868, 85214.10348583502, 67061.60361309095, 25203.290605937316, 17084.846447091873, 0.042, 0.9560000000000001, 0.074, 192.0, 0.0, 0.0, 0.0, 0.0, 0.0, 0.0, 0.0, 0.0, 0.0, 1.6665554180896566E9, 0.0, 2022-10-23 13:03:38.089
184.0, -68236.09837723951, -99772.554608888, 54481.66185398839, 7253.454000169516, 85392.02337169927, 67006.57361824198, 25120.74561366387, 17158.78601775003, 0.042, 0.9560000000000001, 0.074, 192.0, 0.0, 0.0, 0.0, 0.0, 0.0, 0.0, 0.0, 0.0, 0.0, 1.6665554180896647E9, 0.0, 2022-10-23 13:03:38.089
185.0, -68294.07880235658, -99821.95196413422, 56138.12728382675, 8168.3779559586, 85651.1694969141, 67771.58442396933, 26230.800298547783, 18399.486648975213, 0.042, 0.9560000000000001, 0.074, 192.0, 0.0, 0.0, 0.0, 0.0, 0.0, 0.0, 0.0, 0.0, 0.0, 1.6665554180896733E9, 0.0, 2022-10-23 13:03:38.089
186.0, -68261.42290370738, -99786.25622823909, 57337.99127793209, 8635.797636007981, 85565.29409471681, 68203.88951347941, 26858.258468897162, 18882.731364098952, 0.042, 0.9560000000000001, 0.074, 192.0, 0.0, 0.0, 0.0, 0.0, 0.0, 0.0, 0.0, 0.0, 0.0, 1.6665554180896816E9, 0.0, 2022-10-23 13:03:38.089
187.0, -68202.61546404546, -99729.37103860034, 55104.6049719578, 7413.671304425157, 85215.19872131333, 67180.96192848228, 25377.745971410986, 17243.27561179109, 0.042, 0.9560000000000001, 0.074, 192.0, 0.0, 0.0, 0.0, 0.0, 0.0, 0.0, 0.0, 0.0, 0.0, 1.66655541808969E9, 0.0, 2022-10-23 13:03:38.089
188.0, -68228.63289459144, -99753.8461987789, 54395.60763783546, 7187.829278448735, 85353.01957762476, 66945.48630064563, 25042.112176670096, 17047.4743303626, 0.042, 0.9560000000000001, 0.074, 192.0, 0.0, 0.0, 0.0, 0.0, 0.0, 0.0, 0.0, 0.0, 0.0, 1.6665554180896983E9, 0.0, 2022-10-23 13:03:38.089
189.0, -68279.08078182707, -99806.23868778214, 55696.92620002344, 7955.768162699719, 85624.68267973456, 67582.08633447724, 25960.634763316484, 18107.617569877813, 0.042, 0.9560000000000001, 0.074, 192.0, 0.0, 0.0, 0.0, 0.0, 0.0, 0.0, 0.0, 0.0, 0.0, 1.666555418089707E9, 0.0, 2022-10-23 13:03:38.089
190.0, -68267.23435726576, -99802.43889122474, 57481.60123605743, 8765.370698615396, 85650.70011028054, 68300.09142161506, 26993.263005407218, 19045.608525944775, 0.042, 0.9560000000000001, 0.074, 192.0, 0.0, 0.0, 0.0, 0.0, 0.0, 0.0, 0.0, 0.0, 0.0, 1.6665554180897229E9, 0.0, 2022-10-23 13:03:38.089
191.0, -68193.2947866076, -99729.41574208924, 55501.437843017324, 7617.988600491119, 85233.0130616442, 67353.15976776597, 25628.97957908864, 17472.4256959469, 0.042, 0.9560000000000001, 0.074, 192.0, 0.0, 0.0, 0.0, 0.0, 0.0, 0.0, 0.0, 0.0, 0.0, 1.6665554180897317E9, 0.0, 2022-10-23 13:03:38.089
192.0, -68221.61444683248, -99747.2971376535, 54400.77089080464, 7179.939112656011, 85315.51335042875, 66941.08300698793, 25029.461089308392, 16985.537646476943, 0.044, 0.9540000000000001, 0.076, 192.0, 1.0, 96.0, 29.0, 208.0, 2.0, 96.0, 0.0, 0.0, 0.0, 1.66655541808974E9, 0.0, 2022-10-23 13:03:38.089
193.0, -68273.60460443552, -99796.6050859219, 55285.87761949034, 7738.196282171761, 85551.63717885461, 67387.00030887131, 25689.642213540345, 17809.445298844017, 0.044, 0.9540000000000001, 0.076, 192.0, 0.0, 0.0, 0.0, 0.0, 0.0, 0.0, 0.0, 0.0, 0.0, 1.666555418089749E9, 0.0, 2022-10-23 13:03:38.089
194.0, -68294.10115410104, -99823.94126939074, 57412.46729045717, 8766.756506771626, 85687.06639850931, 68274.1633980469, 26970.307763851615, 19065.255709320987, 0.044, 0.9540000000000001, 0.076, 192.0, 0.0, 0.0, 0.0, 0.0, 0.0, 0.0, 0.0, 0.0, 0.0, 1.6665554180897577E9, 0.0, 2022-10-23 13:03:38.089
195.0, -68202.81662974556, -99741.1951114172, 55917.98495268643, 7832.0065536506845, 85271.36865512951, 67516.55101973427, 25882.470712956278, 17746.011048079854, 0.044, 0.9540000000000001, 0.076, 192.0, 0.0, 0.0, 0.0, 0.0, 0.0, 0.0, 0.0, 0.0, 0.0, 1.6665554180897677E9, 0.0, 2022-10-23 13:03:38.089
196.0, -68221.92737125485, -99750.40403013278, 54408.14696647489, 7160.113115324154, 85280.80109128966, 66910.63993103981, 25000.962615127875, 16934.620372607755, 0.044, 0.9540000000000001, 0.076, 192.0, 0.0, 0.0, 0.0, 0.0, 0.0, 0.0, 0.0, 0.0, 0.0, 1.6665554180897763E9, 0.0, 2022-10-23 13:03:38.089
197.0, -68281.47241848378, -99808.33975176094, 54973.69080468307, 7580.392966317292, 85516.3884778486, 67248.06186533712, 25486.978946564075, 17582.37392692255, 0.044, 0.9540000000000001, 0.076, 192.0, 0.0, 0.0, 0.0, 0.0, 0.0, 0.0, 0.0, 0.0, 0.0, 1.6665554180897856E9, 0.0, 2022-10-23 13:03:38.089
198.0, -68304.7182327173, -99833.39605729534, 57267.69504162014, 8746.371715828385, 85736.10612584426, 68253.82331059258, 26925.738385407734, 19042.993371843502, 0.044, 0.9540000000000001, 0.076, 192.0, 0.0, 0.0, 0.0, 0.0, 0.0, 0.0, 0.0, 0.0, 0.0, 1.666555418089794E9, 0.0, 2022-10-23 13:03:38.089
199.0, -68212.07025195006, -99747.58771033141, 56428.856423956924, 8116.2313361443685, 85343.85536239808, 67765.1471215662, 26230.28620842531, 18105.225933221096, 0.044, 0.9540000000000001, 0.076, 192.0, 0.0, 0.0, 0.0, 0.0, 0.0, 0.0, 0.0, 0.0, 0.0, 1.6665554180898025E9, 0.0, 2022-10-23 13:03:38.089
200.0, -68213.81368801757, -99745.35253588588, 54535.19428195886, 7201.396787333106, 85252.90611420943, 66964.7088008772, 25067.973145004886, 16957.799131607906, 0.044, 0.9540000000000001, 0.076, 192.0, 0.0, 0.0, 0.0, 0.0, 0.0, 0.0, 0.0, 0.0, 0.0, 1.666555418089811E9, 0.0, 2022-10-23 13:03:38.089
201.0, -68245.95549654431, -99773.96276878867, 54759.09170616767, 7455.469066556581, 85475.08245409519, 67151.81525371257, 25337.803404069353, 17395.803915954104, 0.044, 0.9540000000000001, 0.076, 192.0, 0.0, 0.0, 0.0, 0.0, 0.0, 0.0, 0.0, 0.0, 0.0, 1.6665554180898194E9, 0.0, 2022-10-23 13:03:38.089
202.0, -68289.36258427652, -99816.87811814286, 56927.70265671047, 8595.720958199616, 85740.08473635731, 68118.30468396004, 26726.85256324441, 18858.34561089821, 0.036000000000000004, 0.962, 0.068, 192.0, 1.0, 32.0, 30.0, 16.0, 2.0, 32.0, 0.0, 0.0, 0.0, 1.6665554180898278E9, 0.0, 2022-10-23 13:03:38.089
203.0, -68231.49391788173, -99766.98902451863, 56874.99724328485, 8370.460077579031, 85431.49655240733, 67974.40415315678, 26528.05614805891, 18435.472957548256, 0.036000000000000004, 0.962, 0.068, 192.0, 0.0, 0.0, 0.0, 0.0, 0.0, 0.0, 0.0, 0.0, 0.0, 1.6665554180898368E9, 0.0, 2022-10-23 13:03:38.089
204.0, -68210.52798158265, -99745.88897775281, 54708.10737706511, 7266.775639864879, 85221.54661673863, 67026.19844987374, 25154.809672213756, 17008.13526012126, 0.036000000000000004, 0.962, 0.068, 192.0, 0.0, 0.0, 0.0, 0.0, 0.0, 0.0, 0.0, 0.0, 0.0, 1.666555418089845E9, 0.0, 2022-10-23 13:03:38.089
205.0, -68244.77085408817, -99779.12602175785, 54597.55564898916, 7348.895948993677, 85415.26918593279, 67063.4811596252, 25210.93490254103, 17229.08225406197, 0.036000000000000004, 0.962, 0.068, 192.0, 0.0, 0.0, 0.0, 0.0, 0.0, 0.0, 0.0, 0.0, 0.0, 1.6665554180898533E9, 0.0, 2022-10-23 13:03:38.089
206.0, -68287.35092727553, -99818.21922281018, 56503.64536090438, 8383.759365529939, 85699.53867191538, 67938.01551318353, 26468.779321763435, 18594.997357725784, 0.036000000000000004, 0.962, 0.068, 192.0, 0.0, 0.0, 0.0, 0.0, 0.0, 0.0, 0.0, 0.0, 0.0, 1.6665554180898695E9, 0.0, 2022-10-23 13:03:38.089
207.0, -68232.61150510449, -99766.6984518407, 57234.52505284847, 8586.22146680611, 85527.92197798753, 68150.42414074233, 26779.043886547555, 18727.94553374595, 0.036000000000000004, 0.962, 0.068, 192.0, 0.0, 0.0, 0.0, 0.0, 0.0, 0.0, 0.0, 0.0, 0.0, 1.666555418089878E9, 0.0, 2022-10-23 13:03:38.089
208.0, -68205.43178384683, -99743.40793411827, 54946.80165610334, 7363.759859056457, 85219.31144229311, 67118.95818936327, 25287.154351133628, 17118.53052598602, 0.036000000000000004, 0.962, 0.068, 192.0, 0.0, 0.0, 0.0, 0.0, 0.0, 0.0, 0.0, 0.0, 0.0, 1.6665554180898864E9, 0.0, 2022-10-23 13:03:38.089
209.0, -68242.64743836492, -99772.24168446561, 54488.255618602714, 7264.786334608357, 85380.06518841567, 67000.44924026122, 25117.68342467349, 17101.543200199987, 0.036000000000000004, 0.962, 0.068, 192.0, 0.0, 0.0, 0.0, 0.0, 0.0, 0.0, 0.0, 0.0, 0.0, 1.6665554180898948E9, 0.0, 2022-10-23 13:03:38.089
210.0, -68300.42669778189, -99819.51562398858, 56005.96141886251, 8114.309086121212, 85640.03832817535, 67707.32315866032, 26145.21546902841, 18269.734772412154, 0.036000000000000004, 0.962, 0.068, 192.0, 0.0, 0.0, 0.0, 0.0, 0.0, 0.0, 0.0, 0.0, 0.0, 1.666555418089903E9, 0.0, 2022-10-23 13:03:38.089
211.0, -68276.2197585368, -99800.02490282356, 57435.57899422396, 8713.827575901458, 85599.04522884432, 68255.857319338, 26930.81223139909, 18931.70403620053, 0.034, 0.962, 0.068, 192.0, 1.0, 16.0, 30.0, 16.0, 2.0, 32.0, 0.0, 0.0, 0.0, 1.6665554180899117E9, 0.0, 2022-10-23 13:03:38.089
212.0, -68208.38221411493, -99735.67423053674, 55245.242148070596, 7488.0355582279635, 85218.50677949272, 67233.80145237464, 25456.98290550505, 17286.526237312108, 0.034, 0.962, 0.068, 192.0, 0.0, 0.0, 0.0, 0.0, 0.0, 0.0, 0.0, 0.0, 0.0, 1.6665554180899203E9, 0.0, 2022-10-23 13:03:38.089
213.0, -68233.48322313825, -99759.07650698144, 54392.478393611724, 7185.303531325285, 85339.96615886285, 66934.3998353958, 25023.806097961202, 16993.87484715877, 0.034, 0.962, 0.068, 192.0, 0.0, 0.0, 0.0, 0.0, 0.0, 0.0, 0.0, 0.0, 0.0, 1.6665554180899289E9, 0.0, 2022-10-23 13:03:38.089
214.0, -68280.4665899833, -99809.6138011949, 55561.31816641309, 7891.708063090809, 85609.21527257148, 67520.30611280276, 25868.88085232745, 17995.478867945538, 0.034, 0.962, 0.068, 192.0, 0.0, 0.0, 0.0, 0.0, 0.0, 0.0, 0.0, 0.0, 0.0, 1.6665554180899372E9, 0.0, 2022-10-23 13:03:38.089
215.0, -68281.24890103923, -99812.0054378516, 57488.64203556086, 8787.431870392784, 85674.59412510325, 68310.10500313104, 27007.29990092515, 19067.49088376652, 0.034, 0.962, 0.068, 192.0, 0.0, 0.0, 0.0, 0.0, 0.0, 0.0, 0.0, 0.0, 0.0, 1.6665554180899456E9, 0.0, 2022-10-23 13:03:38.089
216.0, -68199.01683318816, -99735.20484390318, 55632.664934714434, 7684.708557690211, 85248.5251722962, 67405.55225676921, 25709.557617850023, 17553.00373470828, 0.034, 0.962, 0.068, 192.0, 0.0, 0.0, 0.0, 0.0, 0.0, 0.0, 0.0, 0.0, 0.0, 1.666555418089954E9, 0.0, 2022-10-23 13:03:38.089
217.0, -68222.01677823268, -99750.62754757733, 54383.7835650186, 7161.342461269196, 85304.80686483465, 66923.13455619033, 25010.976196643853, 16953.485244928033, 0.034, 0.962, 0.068, 192.0, 0.0, 0.0, 0.0, 0.0, 0.0, 0.0, 0.0, 0.0, 0.0, 1.6665554180899625E9, 0.0, 2022-10-23 13:03:38.089
218.0, -68276.95736610382, -99795.82277486597, 55174.81180129192, 7686.586104224456, 85551.81599281025, 67348.91293631947, 25629.784241889032, 17732.868222340134, 0.034, 0.962, 0.068, 192.0, 0.0, 0.0, 0.0, 0.0, 0.0, 0.0, 0.0, 0.0, 0.0, 1.6665554180899706E9, 0.0, 2022-10-23 13:03:38.089
219.0, -68295.59872097954, -99817.39220826533, 57364.9921852341, 8760.296852624042, 85707.07120979682, 68274.364563747, 26963.691647492844, 19061.165340085667, 0.034, 0.962, 0.068, 192.0, 0.0, 0.0, 0.0, 0.0, 0.0, 0.0, 0.0, 0.0, 0.0, 1.66655541808998E9, 0.0, 2022-10-23 13:03:38.089
220.0, -68210.01389146017, -99742.2903468955, 56072.56961733933, 7918.820729115097, 85304.11396075654, 67601.39824168662, 25997.67160387893, 17860.697848880034, 0.034, 0.962, 0.068, 192.0, 0.0, 0.0, 0.0, 0.0, 0.0, 0.0, 0.0, 0.0, 0.0, 1.6665554180899885E9, 0.0, 2022-10-23 13:03:38.089
221.0, -68223.0002549887, -99748.548835343, 54447.86601637197, 7178.799173688791, 85281.15871920095, 66948.19086172472, 25040.90518246951, 16955.385143206735, 0.038, 0.9560000000000001, 0.068, 192.0, 1.0, 48.0, 29.0, 224.0, 2.0, 32.0, 0.0, 0.0, 0.0, 1.6665554180900047E9, 0.0, 2022-10-23 13:03:38.090
222.0, -68269.80480787811, -99788.87138234037, 54870.023413899355, 7519.238593487572, 85491.93566941448, 67210.57798988557, 25427.433899335134, 17513.0835191111, 0.038, 0.9560000000000001, 0.068, 192.0, 0.0, 0.0, 0.0, 0.0, 0.0, 0.0, 0.0, 0.0, 0.0, 1.6665554180900137E9, 0.0, 2022-10-23 13:03:38.090
223.0, -68314.95533167783, -99835.31830731849, 57123.839214305786, 8672.901531803791, 85721.9351198596, 68197.76513549866, 26845.808547235556, 18975.915786733127, 0.038, 0.9560000000000001, 0.068, 192.0, 0.0, 0.0, 0.0, 0.0, 0.0, 0.0, 0.0, 0.0, 0.0, 1.6665554180900223E9, 0.0, 2022-10-23 13:03:38.090
224.0, -68234.93608652784, -99766.0949547404, 56539.51991075515, 8171.507200182343, 85350.71734794586, 67815.72911926855, 26307.802058196314, 18197.53863782151, 0.038, 0.9560000000000001, 0.068, 192.0, 0.0, 0.0, 0.0, 0.0, 0.0, 0.0, 0.0, 0.0, 0.0, 1.666555418090031E9, 0.0, 2022-10-23 13:03:38.090
225.0, -68217.94876074181, -99747.05126846448, 54528.667572577906, 7182.017824890355, 85229.97322439829, 66951.92360304875, 25059.30066815623, 16944.142215745713, 0.038, 0.9560000000000001, 0.068, 192.0, 0.0, 0.0, 0.0, 0.0, 0.0, 0.0, 0.0, 0.0, 0.0, 1.66655541809004E9, 0.0, 2022-10-23 13:03:38.090
226.0, -68270.87769161197, -99793.25232425361, 54656.2513299288, 7388.100908768286, 85450.29436949425, 67104.31779674505, 25275.263223083406, 17326.826432565027, 0.038, 0.9560000000000001, 0.068, 192.0, 0.0, 0.0, 0.0, 0.0, 0.0, 0.0, 0.0, 0.0, 0.0, 1.6665554180900483E9, 0.0, 2022-10-23 13:03:38.090
227.0, -68314.12831713299, -99839.49808353164, 56768.491180955316, 8511.790157769938, 85719.47642796951, 68065.15223564532, 26647.593277405893, 18784.227226284413, 0.038, 0.9560000000000001, 0.068, 192.0, 0.0, 0.0, 0.0, 0.0, 0.0, 0.0, 0.0, 0.0, 0.0, 1.666555418090057E9, 0.0, 2022-10-23 13:03:38.090
228.0, -68235.2043074613, -99768.1513152303, 56979.42459338005, 8427.837005595804, 85451.94839858395, 68034.7091596972, 26614.915027012234, 18544.549470490154, 0.038, 0.9560000000000001, 0.068, 192.0, 0.0, 0.0, 0.0, 0.0, 0.0, 0.0, 0.0, 0.0, 0.0, 1.6665554180900652E9, 0.0, 2022-10-23 13:03:38.090
229.0, -68210.90796123838, -99739.60813756086, 54728.78274068627, 7261.187703751052, 85216.49512249173, 67035.09444416696, 25171.059390432765, 17028.296533619945, 0.038, 0.9560000000000001, 0.068, 192.0, 0.0, 0.0, 0.0, 0.0, 0.0, 0.0, 0.0, 0.0, 0.0, 1.6665554180900736E9, 0.0, 2022-10-23 13:03:38.090
230.0, -68251.96811580278, -99776.04148102301, 54518.16225268391, 7299.833869914279, 85416.43147664446, 67040.05653143603, 25172.802826500276, 17191.084288487946, 0.038, 0.9560000000000001, 0.068, 192.0, 0.0, 0.0, 0.0, 0.0, 0.0, 0.0, 0.0, 0.0, 0.0, 1.666555418090082E9, 0.0, 2022-10-23 13:03:38.090
231.0, -68303.89121817246, -99824.61182172441, 56317.231812147125, 8290.59729464022, 85692.29670671186, 67875.67649789769, 26375.080809006788, 18512.407661963425, 0.04, 0.9580000000000001, 0.062, 192.0, 1.0, 64.0, 29.0, 240.0, 1.0, 240.0, 0.0, 0.0, 0.0, 1.6665554180900905E9, 0.0, 2022-10-23 13:03:38.090
232.0, -68257.3101827276, -99785.13864101632, 57270.936044566166, 8608.84143219488, 85533.12993444562, 68178.47558003373, 26828.441241793782, 18802.53330499331, 0.04, 0.9580000000000001, 0.062, 192.0, 0.0, 0.0, 0.0, 0.0, 0.0, 0.0, 0.0, 0.0, 0.0, 1.6665554180900993E9, 0.0, 2022-10-23 13:03:38.090
233.0, -68206.39290885841, -99737.21650090415, 54964.9736243455, 7356.584949086303, 85203.35229675201, 67118.01941609614, 25306.600368809744, 17148.88419495633, 0.04, 0.9580000000000001, 0.062, 192.0, 0.0, 0.0, 0.0, 0.0, 0.0, 0.0, 0.0, 0.0, 0.0, 1.6665554180901077E9, 0.0, 2022-10-23 13:03:38.090
234.0, -68242.82625232056, -99770.92293154275, 54401.30733267157, 7219.121720686165, 85376.46655755836, 66965.20053925521, 25077.897319543044, 17076.129266754302, 0.04, 0.9580000000000001, 0.062, 192.0, 0.0, 0.0, 0.0, 0.0, 0.0, 0.0, 0.0, 0.0, 0.0, 1.666555418090116E9, 0.0, 2022-10-23 13:03:38.090
235.0, -68300.6725669709, -99826.39996128083, 55835.23879471288, 8047.611480666576, 85647.1685346566, 67659.4680737815, 26076.77442750626, 18217.31993166446, 0.04, 0.9580000000000001, 0.062, 192.0, 0.0, 0.0, 0.0, 0.0, 0.0, 0.0, 0.0, 0.0, 0.0, 1.6665554180901244E9, 0.0, 2022-10-23 13:03:38.090
236.0, -68281.49477022824, -99810.86549888439, 57438.68588670324, 8742.571919270984, 85616.32312730826, 68279.617223694, 26974.934574953866, 19007.834077815303, 0.04, 0.9580000000000001, 0.062, 192.0, 0.0, 0.0, 0.0, 0.0, 0.0, 0.0, 0.0, 0.0, 0.0, 1.6665554180901327E9, 0.0, 2022-10-23 13:03:38.090
237.0, -68215.66888280737, -99740.25633815007, 55318.019428017076, 7531.956736082642, 85211.17540731137, 67268.35724930254, 25525.736871449575, 17371.775790664648, 0.04, 0.9580000000000001, 0.062, 192.0, 0.0, 0.0, 0.0, 0.0, 0.0, 0.0, 0.0, 0.0, 0.0, 1.6665554180901487E9, 0.0, 2022-10-23 13:03:38.090
238.0, -68262.04875255213, -99781.89763807031, 54358.503742039655, 7175.155839342576, 85326.13042904502, 66929.16952719325, 25028.924647441465, 16996.445297771133, 0.04, 0.9580000000000001, 0.062, 192.0, 0.0, 0.0, 0.0, 0.0, 0.0, 0.0, 0.0, 0.0, 0.0, 1.6665554180901575E9, 0.0, 2022-10-23 13:03:38.090
239.0, -68313.21189561032, -99832.8149119395, 55386.41576605031, 7806.816137649553, 85568.42333894054, 67448.93699275696, 25781.239662318192, 17907.010663391433, 0.04, 0.9580000000000001, 0.062, 192.0, 0.0, 0.0, 0.0, 0.0, 0.0, 0.0, 0.0, 0.0, 0.0, 1.666555418090167E9, 0.0, 2022-10-23 13:03:38.090
240.0, -68303.2206658388, -99826.10938860291, 57392.73070010313, 8753.010183931612, 85664.15586044262, 68266.67556365438, 26968.67608650638, 19057.231433061534, 0.042, 0.96, 0.07, 192.0, 1.0, 80.0, 30.0, 0.0, 2.0, 48.0, 0.0, 0.0, 0.0, 1.6665554180901763E9, 0.0, 2022-10-23 13:03:38.090
241.0, -68222.82144103307, -99751.76748654456, 55705.88924955002, 7729.210880900727, 85258.18112590088, 67432.84373674914, 25769.393237756878, 17640.644924717537, 0.042, 0.96, 0.07, 192.0, 0.0, 0.0, 0.0, 0.0, 0.0, 0.0, 0.0, 0.0, 0.0, 1.6665554185678964E9, 0.0, 2022-10-23 13:03:38.567
242.0, -68244.32381919907, -99768.26307395258, 54371.579512546006, 7168.874999150634, 85313.25582423876, 66931.02472198305, 25022.777917716256, 16976.775762650464, 0.042, 0.96, 0.07, 192.0, 0.0, 0.0, 0.0, 0.0, 0.0, 0.0, 0.0, 0.0, 0.0, 1.6665554185679464E9, 0.0, 2022-10-23 13:03:38.567
243.0, -68294.3693750345, -99816.14051057585, 55045.10462821778, 7633.388952420825, 85528.92780648802, 67310.87026725654, 25568.898089992774, 17683.537922327272, 0.042, 0.96, 0.07, 192.0, 0.0, 0.0, 0.0, 0.0, 0.0, 0.0, 0.0, 0.0, 0.0, 1.6665554185679812E9, 0.0, 2022-10-23 13:03:38.567
244.0, -68320.27504685821, -99840.57096726549, 57267.225654986585, 8734.122959866878, 85701.79619810537, 68255.54439491563, 26932.37685351096, 19061.545319741406, 0.042, 0.96, 0.07, 192.0, 0.0, 0.0, 0.0, 0.0, 0.0, 0.0, 0.0, 0.0, 0.0, 1.6665554185680692E9, 0.0, 2022-10-23 13:03:38.568
245.0, -68232.92442952686, -99762.11634422737, 56172.63837726574, 7976.398822831968, 85300.5823851326, 67647.17461433109, 26074.29338387172, 17965.28166118642, 0.042, 0.96, 0.07, 192.0, 0.0, 0.0, 0.0, 0.0, 0.0, 0.0, 0.0, 0.0, 0.0, 1.6665554185680883E9, 0.0, 2022-10-23 13:03:38.568
246.0, -68233.41616790488, -99764.15035297279, 54424.06140852707, 7166.058679349266, 85267.81472776113, 66935.74094006311, 25029.9081241975, 16952.188843749624, 0.042, 0.96, 0.07, 192.0, 0.0, 0.0, 0.0, 0.0, 0.0, 0.0, 0.0, 0.0, 0.0, 1.6665554185681064E9, 0.0, 2022-10-23 13:03:38.568
247.0, -68275.34804050303, -99806.99864709361, 54752.83321772018, 7471.785840008955, 85487.1747478455, 67171.7083062778, 25368.090017806295, 17459.03700101817, 0.042, 0.96, 0.07, 192.0, 0.0, 0.0, 0.0, 0.0, 0.0, 0.0, 0.0, 0.0, 0.0, 1.6665554185681248E9, 0.0, 2022-10-23 13:03:38.568
248.0, -68323.38193933749, -99854.16082789432, 56973.389622377115, 8626.164034147743, 85733.44626825408, 68155.34152452249, 26780.49674993715, 18931.525222244887, 0.042, 0.96, 0.07, 192.0, 0.0, 0.0, 0.0, 0.0, 0.0, 0.0, 0.0, 0.0, 0.0, 1.6665554185681436E9, 0.0, 2022-10-23 13:03:38.568
249.0, -68258.00308680572, -99790.54776317452, 56686.21440961533, 8287.78097483885, 85409.39067714104, 67918.21186759614, 26439.006798148966, 18353.59851760847, 0.042, 0.96, 0.07, 192.0, 0.0, 0.0, 0.0, 0.0, 0.0, 0.0, 0.0, 0.0, 0.0, 1.6665554185681615E9, 0.0, 2022-10-23 13:03:38.568
250.0, -68240.92635404186, -99772.30873969899, 54590.738366930294, 7233.471540626471, 85225.65933771842, 67011.31218806651, 25121.438517741983, 17002.592027496343, 0.04, 0.96, 0.08, 192.0, 1.0, 64.0, 30.0, 0.0, 2.0, 128.0, 0.0, 0.0, 0.0, 1.66655541856818E9, 0.0, 2022-10-23 13:03:38.568
251.0, -68275.88448236996, -99803.42236798078, 54552.74040135627, 7342.615108801736, 85415.24683418832, 67068.35383991645, 25215.964045043474, 17266.163798113324, 0.04, 0.96, 0.08, 192.0, 0.0, 0.0, 0.0, 0.0, 0.0, 0.0, 0.0, 0.0, 0.0, 1.6665554185682E9, 0.0, 2022-10-23 13:03:38.568
252.0, -68329.7298347628, -99851.41156332631, 56534.73663744172, 8405.909944285148, 85694.44247417957, 67963.56355709596, 26509.124220505266, 18665.338297526636, 0.04, 0.96, 0.08, 192.0, 0.0, 0.0, 0.0, 0.0, 0.0, 0.0, 0.0, 0.0, 0.0, 1.6665554185682187E9, 0.0, 2022-10-23 13:03:38.568
253.0, -68273.02345907969, -99800.89662085733, 57025.58094568026, 8477.368471308764, 85475.8200616622, 68068.34853510244, 26665.005286336578, 18628.63673313102, 0.04, 0.96, 0.08, 192.0, 0.0, 0.0, 0.0, 0.0, 0.0, 0.0, 0.0, 0.0, 0.0, 1.6665554185683107E9, 0.0, 2022-10-23 13:03:38.568
254.0, -68224.74369105622, -99755.85785577988, 54752.229720619885, 7286.10989881872, 85208.82847414356, 67055.34512464347, 25197.70266982349, 17069.311984695432, 0.04, 0.96, 0.08, 192.0, 0.0, 0.0, 0.0, 0.0, 0.0, 0.0, 0.0, 0.0, 0.0, 1.666555418568329E9, 0.0, 2022-10-23 13:03:38.568
255.0, -68266.78732237665, -99796.98506557764, 54417.40058867939, 7257.969052549488, 85386.97187745236, 66997.43175475976, 25112.92250310451, 17147.029000166538, 0.04, 0.96, 0.08, 192.0, 0.0, 0.0, 0.0, 0.0, 0.0, 0.0, 0.0, 0.0, 0.0, 1.6665554185683472E9, 0.0, 2022-10-23 13:03:38.568
0.0, -68318.88923870197, -99845.35424057892, 56091.412137915155, 8192.33902601469, 85663.6194185757, 67782.46972351905, 26241.95381903098, 18409.5449339801, 0.04, 0.96, 0.08, 192.0, 0.0, 0.0, 0.0, 0.0, 0.0, 0.0, 0.0, 0.0, 0.0, 1.666555418568365E9, 0.0, 2022-10-23 13:03:38.568
1.0, -68277.87378762648, -99808.67502792776, 57308.91165839573, 8666.53128463403, 85572.13372852013, 68222.37440614395, 26879.64908834089, 18903.74200388694, 0.04, 0.96, 0.08, 192.0, 0.0, 0.0, 0.0, 0.0, 0.0, 0.0, 0.0, 0.0, 0.0, 1.6665554185683851E9, 0.0, 2022-10-23 13:03:38.568
2.0, -68206.43761234732, -99739.5410823275, 55064.55064589389, 7434.257261068495, 85221.25604406072, 67186.08047796256, 25386.016116859453, 17258.206577087232, 0.04, 0.96, 0.08, 192.0, 0.0, 0.0, 0.0, 0.0, 0.0, 0.0, 0.0, 0.0, 0.0, 1.666555418568404E9, 0.0, 2022-10-23 13:03:38.568
3.0, -68252.34809545852, -99779.3495392024, 54375.08873642549, 7227.52597660136, 85369.02342665475, 66972.1072282919, 25070.9682787619, 17085.248778492067, 0.04, 0.96, 0.08, 192.0, 0.0, 0.0, 0.0, 0.0, 0.0, 0.0, 0.0, 0.0, 0.0, 1.6665554185684223E9, 0.0, 2022-10-23 13:03:38.568
4.0, -68313.43541305487, -99840.92859517678, 55678.664824803454, 7992.983817217806, 85624.32505182327, 67611.88120983615, 25991.01078403125, 18148.92359363122, 0.034, 0.9520000000000001, 0.078, 192.0, 1.0, 16.0, 29.0, 192.0, 2.0, 112.0, 0.0, 0.0, 0.0, 1.6665554185684404E9, 0.0, 2022-10-23 13:03:38.568
5.0, -68297.43156402488, -99824.20949032421, 57472.548779553035, 8805.112100256933, 85643.07816542128, 68334.15548016495, 27027.036491279185, 19089.552055543907, 0.034, 0.9520000000000001, 0.078, 192.0, 0.0, 0.0, 0.0, 0.0, 0.0, 0.0, 0.0, 0.0, 0.0, 1.666555418568468E9, 0.0, 2022-10-23 13:03:38.568
6.0, -68211.64556880541, -99745.71016379716, 55470.7936013691, 7636.8981763003085, 85223.29005280616, 67365.83320687214, 25641.876535639352, 17500.27596953821, 0.034, 0.9520000000000001, 0.078, 192.0, 0.0, 0.0, 0.0, 0.0, 0.0, 0.0, 0.0, 0.0, 0.0, 1.666555418568488E9, 0.0, 2022-10-23 13:03:38.568
7.0, -68246.04490352212, -99772.46520191016, 54384.297655141076, 7206.492985068916, 85316.67564114042, 66969.64853640182, 25059.568889089693, 17026.396635341243, 0.034, 0.9520000000000001, 0.078, 192.0, 0.0, 0.0, 0.0, 0.0, 0.0, 0.0, 0.0, 0.0, 0.0, 1.6665554185685065E9, 0.0, 2022-10-23 13:03:38.568
8.0, -68295.50931400173, -99811.87132738487, 55266.61041576987, 7759.855122548953, 85551.70423408797, 67419.41033833151, 25718.05128074304, 17847.376209184673, 0.034, 0.9520000000000001, 0.078, 192.0, 0.0, 0.0, 0.0, 0.0, 0.0, 0.0, 0.0, 0.0, 0.0, 1.6665554185685244E9, 0.0, 2022-10-23 13:03:38.568
9.0, -68310.23911359777, -99829.57390899348, 57404.55477291999, 8794.539725129573, 85697.95169805906, 68317.39167182347, 27009.95975851533, 19115.010692478503, 0.034, 0.9520000000000001, 0.078, 192.0, 0.0, 0.0, 0.0, 0.0, 0.0, 0.0, 0.0, 0.0, 0.0, 1.6665554185685425E9, 0.0, 2022-10-23 13:03:38.568
10.0, -68227.35884515749, -99752.46039062267, 55909.62540026014, 7856.0793824290495, 85280.15289070045, 67557.18649115402, 25920.379271552476, 17791.60860676868, 0.034, 0.9520000000000001, 0.078, 192.0, 0.0, 0.0, 0.0, 0.0, 0.0, 0.0, 0.0, 0.0, 0.0, 1.6665554185685601E9, 0.0, 2022-10-23 13:03:38.568
11.0, -68234.84667955001, -99753.42151563425, 54397.999274492184, 7182.42015629055, 85288.40068440446, 66951.18599548173, 25038.826470235166, 16978.11686731778, 0.034, 0.9520000000000001, 0.078, 192.0, 0.0, 0.0, 0.0, 0.0, 0.0, 0.0, 0.0, 0.0, 0.0, 1.6665554185685787E9, 0.0, 2022-10-23 13:03:38.568
12.0, -68292.96121513382, -99810.53022271756, 54956.81523761931, 7596.285056625016, 85527.67610879852, 67284.36109833253, 25518.986644624074, 17622.092976819633, 0.034, 0.9520000000000001, 0.078, 192.0, 0.0, 0.0, 0.0, 0.0, 0.0, 0.0, 0.0, 0.0, 0.0, 1.6665554185686152E9, 0.0, 2022-10-23 13:03:38.568
13.0, -68331.16034640794, -99846.49417954615, 57215.36960785027, 8734.458236033706, 85724.59497744977, 68261.80288336313, 26926.744213908223, 19054.839796404816, 0.036000000000000004, 0.9520000000000001, 0.078, 192.0, 1.0, 32.0, 29.0, 192.0, 2.0, 112.0, 0.0, 0.0, 0.0, 1.6665554185686336E9, 0.0, 2022-10-23 13:03:38.568
14.0, -68244.05559826561, -99768.33012918594, 56362.22587373565, 8094.147812622526, 85332.67949017043, 67751.66901965965, 26213.321234383733, 18107.416404177715, 0.036000000000000004, 0.9520000000000001, 0.078, 192.0, 0.0, 0.0, 0.0, 0.0, 0.0, 0.0, 0.0, 0.0, 0.0, 1.666555418568653E9, 0.0, 2022-10-23 13:03:38.568
15.0, -68253.37627570347, -99781.18238224775, 54469.83778117154, 7185.012958647366, 85250.96151244182, 66954.56110889449, 25057.937211744455, 16964.728172389052, 0.036000000000000004, 0.9520000000000001, 0.078, 192.0, 0.0, 0.0, 0.0, 0.0, 0.0, 0.0, 0.0, 0.0, 0.0, 1.6665554185686715E9, 0.0, 2022-10-23 13:03:38.568
16.0, -68292.96121513382, -99816.65460069831, 54700.37367348358, 7441.745095461023, 85466.38762550207, 67150.87648044544, 25339.569191881325, 17407.87385795997, 0.036000000000000004, 0.9520000000000001, 0.078, 192.0, 0.0, 0.0, 0.0, 0.0, 0.0, 0.0, 0.0, 0.0, 0.0, 1.6665554185686896E9, 0.0, 2022-10-23 13:03:38.568
17.0, -68331.40621559694, -99855.01019418362, 56835.30054513223, 8550.972765800092, 85712.61444242173, 68089.64974756834, 26700.85748444289, 18849.471968349455, 0.036000000000000004, 0.9520000000000001, 0.078, 192.0, 0.0, 0.0, 0.0, 0.0, 0.0, 0.0, 0.0, 0.0, 0.0, 1.6665554185687077E9, 0.0, 2022-10-23 13:03:38.568
18.0, -68259.27713623967, -99795.04046381003, 56807.11499537409, 8344.666164477607, 85430.73659309586, 67963.36239139586, 26524.166944523688, 18454.114312423982, 0.036000000000000004, 0.9520000000000001, 0.078, 192.0, 0.0, 0.0, 0.0, 0.0, 0.0, 0.0, 0.0, 0.0, 0.0, 1.6665554185687258E9, 0.0, 2022-10-23 13:03:38.568
19.0, -68243.8097290766, -99777.49434441261, 54632.826701739636, 7234.879700527156, 85215.13166607996, 67012.63094098937, 25146.338361065194, 17023.446205073145, 0.036000000000000004, 0.9520000000000001, 0.078, 192.0, 0.0, 0.0, 0.0, 0.0, 0.0, 0.0, 0.0, 0.0, 0.0, 1.666555418568744E9, 0.0, 2022-10-23 13:03:38.568
20.0, -68283.55113071813, -99811.17842330676, 54536.84831104855, 7333.808521486345, 85418.82311330117, 67069.11379922794, 25219.763841600878, 17260.307641066032, 0.036000000000000004, 0.9520000000000001, 0.078, 192.0, 0.0, 0.0, 0.0, 0.0, 0.0, 0.0, 0.0, 0.0, 0.0, 1.666555418568762E9, 0.0, 2022-10-23 13:03:38.568
21.0, -68329.1263376625, -99850.4727900592, 56444.9720317092, 8375.489220081476, 85701.93030857209, 67947.87263248833, 26479.418752124162, 18629.68726512042, 0.036000000000000004, 0.9520000000000001, 0.078, 192.0, 0.0, 0.0, 0.0, 0.0, 0.0, 0.0, 0.0, 0.0, 0.0, 1.66655541856878E9, 0.0, 2022-10-23 13:03:38.568
22.0, -68278.90196787142, -99809.16676630579, 57189.03925288192, 8581.996987104058, 85515.82968423721, 68163.16463508185, 26797.886407123377, 18762.747199862864, 0.036000000000000004, 0.9520000000000001, 0.078, 192.0, 0.0, 0.0, 0.0, 0.0, 0.0, 0.0, 0.0, 0.0, 0.0, 1.666555418568798E9, 0.0, 2022-10-23 13:03:38.568
23.0, -68235.49488013922, -99765.31264368448, 54897.784280512846, 7358.998937487476, 85212.09182883405, 67128.23416331223, 25301.68298502958, 17146.470206555154, 0.034, 0.962, 0.078, 192.0, 1.0, 16.0, 30.0, 16.0, 2.0, 112.0, 0.0, 0.0, 0.0, 1.6665554185688162E9, 0.0, 2022-10-23 13:03:38.568
