%OpenBCI Raw EEG Data
%Number of channels = 8
%Sample Rate = 250 Hz
%Board = OpenBCI_GUI$BoardCytonSerial
Sample Index, EXG Channel 0, EXG Channel 1, EXG Channel 2, EXG Channel 3, EXG Channel 4, EXG Channel 5, EXG Channel 6, EXG Channel 7, Accel Channel 0, Accel Channel 1, Accel Channel 2, Other, Other, Other, Other, Other, Other, Other, Analog Channel 0, Analog Channel 1, Analog Channel 2, Timestamp, Other, Timestamp (Formatted)
132.0, -74487.21074905524, -105978.13647724826, 65670.11811377027, 19895.98064374693, 76699.54171175262, 97417.35129563228, 41546.97555863566, 36166.217764165136, 0.0, 0.0, 0.0, 192.0, 0.0, 0.0, 0.0, 0.0, 0.0, 0.0, 0.0, 0.0, 0.0, 1.6665557465046046E9, 0.0, 2022-10-23 13:09:06.504
133.0, -74514.47987729072, -106002.79045138246, 64914.42798548079, 20150.343495648325, 76835.75324246327, 97155.925292483, 41182.01627516941, 35953.74208137299, 0.0, 0.0, 0.0, 192.0, 0.0, 0.0, 0.0, 0.0, 0.0, 0.0, 0.0, 0.0, 0.0, 1.666555746504625E9, 0.0, 2022-10-23 13:09:06.504
134.0, -74550.57794458604, -106036.58628899888, 66072.15894128787, 20517.78382274912, 76965.6168777486, 97740.04343033355, 42008.22615721538, 36939.58812231876, 0.0, 0.0, 0.0, 192.0, 0.0, 0.0, 0.0, 0.0, 0.0, 0.0, 0.0, 0.0, 0.0, 1.6665557465046356E9, 0.0, 2022-10-23 13:09:06.504
135.0, -74546.28640965062, -106038.19561459967, 67909.15941109174, 20528.982046721227, 76923.9532260839, 98512.72088440906, 43080.70755966992, 37919.68976493952, 0.0, 0.0, 0.0, 192.0, 0.0, 0.0, 0.0, 0.0, 0.0, 0.0, 0.0, 0.0, 0.0, 1.6665557465046449E9, 0.0, 2022-10-23 13:09:06.504
136.0, -74482.04749608606, -105977.44357317014, 66048.06376076506, 19911.448050910003, 76694.53492099463, 97576.60747487635, 41776.505622447214, 36378.15700509036, 0.0, 0.0, 0.0, 192.0, 0.0, 0.0, 0.0, 0.0, 0.0, 0.0, 0.0, 0.0, 0.0, 1.6665557465046544E9, 0.0, 2022-10-23 13:09:06.504
137.0, -74505.82975218652, -105994.14032627826, 64897.15008701684, 20091.111372841762, 76810.56282646213, 97128.09737063615, 41143.50421947292, 35864.849193674236, 0.0, 0.0, 0.0, 192.0, 0.0, 0.0, 0.0, 0.0, 0.0, 0.0, 0.0, 0.0, 0.0, 1.666555746504664E9, 0.0, 2022-10-23 13:09:06.504
138.0, -74545.1464706834, -106030.2830970625, 65686.65840466719, 20433.2718769636, 76935.84435413413, 97559.06135547893, 41755.98672103724, 36657.7996799707, 0.0, 0.0, 0.0, 192.0, 0.0, 0.0, 0.0, 0.0, 0.0, 0.0, 0.0, 0.0, 0.0, 1.6665557465046732E9, 0.0, 2022-10-23 13:09:06.504
139.0, -74559.6974563238, -106043.94001292468, 67801.89338945072, 20606.386137769954, 76956.63147647756, 98484.20005848409, 43044.83300981915, 37925.83649466473, 0.022, 0.9500000000000001, 0.07200000000000001, 192.0, 0.0, 176.0, 29.0, 176.0, 2.0, 64.0, 0.0, 0.0, 0.0, 1.6665557465046823E9, 0.0, 2022-10-23 13:09:06.504
140.0, -74480.03583908509, -105972.66029985671, 66451.17747201651, 19972.24479582844, 76709.86821769098, 97755.98022413018, 42035.20471277293, 36661.01833117227, 0.022, 0.9500000000000001, 0.07200000000000001, 192.0, 0.0, 0.0, 0.0, 0.0, 0.0, 0.0, 0.0, 0.0, 0.0, 1.6665557465046945E9, 0.0, 2022-10-23 13:09:06.504
141.0, -74495.54794973707, -105986.92071281919, 64908.54947668904, 20048.799520587865, 76792.63672740897, 97114.44045477397, 41131.99307107843, 35825.957158321995, 0.022, 0.9500000000000001, 0.07200000000000001, 192.0, 0.0, 0.0, 0.0, 0.0, 0.0, 0.0, 0.0, 0.0, 0.0, 1.6665557465047045E9, 0.0, 2022-10-23 13:09:06.504
142.0, -74531.93658971031, -106021.02947485799, 65381.71355506344, 20369.50235003261, 76915.54897016872, 97415.87608049823, 41557.95026516322, 36433.186999939324, 0.022, 0.9500000000000001, 0.07200000000000001, 192.0, 0.0, 0.0, 0.0, 0.0, 0.0, 0.0, 0.0, 0.0, 0.0, 1.6665557465047143E9, 0.0, 2022-10-23 13:09:06.504
143.0, -74556.9481917558, -106047.47158854862, 67594.1562764831, 20663.71836229782, 76998.56334907572, 98424.4314938106, 42954.77783140872, 37861.44111888899, 0.022, 0.9500000000000001, 0.07200000000000001, 192.0, 0.0, 0.0, 0.0, 0.0, 0.0, 0.0, 0.0, 0.0, 0.0, 1.6665557465047238E9, 0.0, 2022-10-23 13:09:06.504
144.0, -74486.20492055475, -105982.87504707278, 66941.70885583268, 20066.703267896566, 76739.55133432763, 98000.59771544907, 42371.88903950322, 37017.573358723326, 0.022, 0.9500000000000001, 0.07200000000000001, 192.0, 0.0, 0.0, 0.0, 0.0, 0.0, 0.0, 0.0, 0.0, 0.0, 1.6665557465047336E9, 0.0, 2022-10-23 13:09:06.504
145.0, -74485.82494089901, -105978.58351213737, 65004.1925912133, 19984.828827956775, 76756.0692734801, 97141.55312079826, 41172.494432031446, 35828.30409148981, 0.022, 0.9500000000000001, 0.07200000000000001, 192.0, 0.0, 0.0, 0.0, 0.0, 0.0, 0.0, 0.0, 0.0, 0.0, 1.666555746504743E9, 0.0, 2022-10-23 13:09:06.504
146.0, -74522.32533959454, -106012.42405324269, 65125.74137756126, 20287.96318625965, 76882.31192616367, 97275.68593927455, 41374.040111784954, 36224.868741615865, 0.022, 0.9500000000000001, 0.07200000000000001, 192.0, 0.0, 0.0, 0.0, 0.0, 0.0, 0.0, 0.0, 0.0, 0.0, 1.6665557465047529E9, 0.0, 2022-10-23 13:09:06.504
147.0, -74564.61484010397, -106053.19363512918, 67172.46826558927, 20652.922469725905, 76998.31747988671, 98225.38920943609, 42699.49855798466, 37640.807049370655, 0.022, 0.9500000000000001, 0.07200000000000001, 192.0, 0.0, 0.0, 0.0, 0.0, 0.0, 0.0, 0.0, 0.0, 0.0, 1.6665557465047624E9, 0.0, 2022-10-23 13:09:06.504
148.0, -74509.584845255, -106004.80210838343, 67340.28516295971, 20186.888597832753, 76782.44433193735, 98199.19296493447, 42655.53267664107, 37355.33056918747, 0.022, 0.9520000000000001, 0.07200000000000001, 192.0, 0.0, 176.0, 29.0, 192.0, 2.0, 64.0, 0.0, 0.0, 0.0, 1.6665557465048656E9, 0.0, 2022-10-23 13:09:06.504
149.0, -74485.62377519891, -105979.3658231933, 65154.64218314197, 19921.41692893707, 76720.44059281834, 97199.28767672631, 41258.45924120656, 35888.810263730324, 0.022, 0.9520000000000001, 0.07200000000000001, 192.0, 0.0, 0.0, 0.0, 0.0, 0.0, 0.0, 0.0, 0.0, 0.0, 1.6665557465048764E9, 0.0, 2022-10-23 13:09:06.504
150.0, -74522.28063610561, -106009.27245727449, 64980.49974209067, 20226.227668074094, 76858.30615261866, 97212.20698502148, 41281.749758928985, 36097.30733600943, 0.022, 0.9520000000000001, 0.07200000000000001, 192.0, 0.0, 0.0, 0.0, 0.0, 0.0, 0.0, 0.0, 0.0, 0.0, 1.6665557465048864E9, 0.0, 2022-10-23 13:09:06.504
151.0, -74562.69259008081, -106043.91766118022, 66741.48192900204, 20616.667940219395, 76984.50410181333, 98048.76572475025, 42455.193991088156, 37396.25661328514, 0.022, 0.9520000000000001, 0.07200000000000001, 192.0, 0.0, 0.0, 0.0, 0.0, 0.0, 0.0, 0.0, 0.0, 0.0, 1.666555746504896E9, 0.0, 2022-10-23 13:09:06.504
152.0, -74524.44875531779, -106011.1723555532, 67657.94815515855, 20327.682236156732, 76831.21583833885, 98373.29070249686, 42899.658429581934, 37650.91003786445, 0.022, 0.9520000000000001, 0.07200000000000001, 192.0, 0.0, 0.0, 0.0, 0.0, 0.0, 0.0, 0.0, 0.0, 0.0, 1.666555746504906E9, 0.0, 2022-10-23 13:09:06.504
153.0, -74480.1252460629, -105969.75457307752, 65415.19646825749, 19901.412117649572, 76701.21809258677, 97319.96474504052, 41426.49965602156, 36035.39300386822, 0.022, 0.9520000000000001, 0.07200000000000001, 192.0, 0.0, 0.0, 0.0, 0.0, 0.0, 0.0, 0.0, 0.0, 0.0, 1.666555746504916E9, 0.0, 2022-10-23 13:09:06.504
154.0, -74517.11738313644, -106004.53388744997, 64881.57092113149, 20175.846836071833, 76837.36256806405, 97167.48114436641, 41218.069638975816, 36000.92661391814, 0.022, 0.9520000000000001, 0.07200000000000001, 192.0, 0.0, 0.0, 0.0, 0.0, 0.0, 0.0, 0.0, 0.0, 0.0, 1.666555746504928E9, 0.0, 2022-10-23 13:09:06.504
155.0, -74561.91027902487, -106045.54933852547, 66284.88049326903, 20548.428064397343, 76970.73542722886, 97867.80600164009, 42200.33940080874, 37133.57891244637, 0.022, 0.9520000000000001, 0.07200000000000001, 192.0, 0.0, 0.0, 0.0, 0.0, 0.0, 0.0, 0.0, 0.0, 0.0, 1.6665557465049376E9, 0.0, 2022-10-23 13:09:06.504
156.0, -74533.21063914426, -106022.61644871431, 67817.76312801399, 20440.75971135613, 76884.3459349091, 98484.33416895082, 43058.914608825995, 37856.613142086644, 0.022, 0.9520000000000001, 0.07200000000000001, 192.0, 0.0, 0.0, 0.0, 0.0, 0.0, 0.0, 0.0, 0.0, 0.0, 1.6665557465049472E9, 0.0, 2022-10-23 13:09:06.504
157.0, -74474.6267169269, -105965.57479686437, 65722.53295451796, 19885.765896530855, 76687.71763893576, 97452.17531349366, 41628.00063228615, 36224.1981892822, 0.022, 0.9520000000000001, 0.07200000000000001, 192.0, 0.0, 0.0, 0.0, 0.0, 0.0, 0.0, 0.0, 0.0, 0.0, 1.666555746504957E9, 0.0, 2022-10-23 13:09:06.504
158.0, -74511.84237144499, -105994.87793384529, 64813.576914498444, 20110.110355628774, 76813.11092533004, 97115.93802165247, 41159.57512373628, 35900.58963305827, 0.026000000000000002, 0.9540000000000001, 0.074, 192.0, 0.0, 208.0, 29.0, 208.0, 2.0, 80.0, 0.0, 0.0, 0.0, 1.6665557465049667E9, 0.0, 2022-10-23 13:09:06.504
159.0, -74554.86947952145, -106035.04401863147, 65842.96415364316, 20471.806284404553, 76944.5615344717, 97648.02129841105, 41912.04660082419, 36824.94602500749, 0.026000000000000002, 0.9540000000000001, 0.074, 192.0, 0.0, 0.0, 0.0, 0.0, 0.0, 0.0, 0.0, 0.0, 0.0, 1.6665557465049772E9, 0.0, 2022-10-23 13:09:06.504
160.0, -74554.847127777, -106039.15673961125, 67809.8059069879, 20554.507738889188, 76934.48089772236, 98488.15631725268, 43079.09823406914, 37933.95017790201, 0.026000000000000002, 0.9540000000000001, 0.074, 192.0, 0.0, 0.0, 0.0, 0.0, 0.0, 0.0, 0.0, 0.0, 0.0, 1.6665557465049868E9, 0.0, 2022-10-23 13:09:06.504
161.0, -74486.3837345104, -105976.90713130322, 66138.2083461533, 19934.8056238658, 76706.58251125604, 97642.18749310821, 41890.09718776908, 36498.78936991565, 0.026000000000000002, 0.9540000000000001, 0.074, 192.0, 0.0, 0.0, 0.0, 0.0, 0.0, 0.0, 0.0, 0.0, 0.0, 1.6665557465049963E9, 0.0, 2022-10-23 13:09:06.504
162.0, -74505.91915916433, -105991.79339311045, 64837.11330140988, 20072.447666221582, 76805.24311128177, 97119.0225623873, 41153.18252482206, 35859.88710640516, 0.026000000000000002, 0.9540000000000001, 0.074, 192.0, 0.0, 0.0, 0.0, 0.0, 0.0, 0.0, 0.0, 0.0, 0.0, 1.666555746505006E9, 0.0, 2022-10-23 13:09:06.505
163.0, -74544.90060149439, -106026.88563190529, 65507.12919320216, 20399.78896376955, 76926.38956622954, 97500.92446815068, 41692.887746439905, 36579.85914705505, 0.026000000000000002, 0.9540000000000001, 0.074, 192.0, 0.0, 0.0, 0.0, 0.0, 0.0, 0.0, 0.0, 0.0, 0.0, 1.6665557465050466E9, 0.0, 2022-10-23 13:09:06.505
164.0, -74560.16684295736, -106042.1295216238, 67680.7245827585, 20629.60960025902, 76972.18829061846, 98464.30700591886, 43032.8077713022, 37919.48859923943, 0.026000000000000002, 0.9540000000000001, 0.074, 192.0, 0.0, 0.0, 0.0, 0.0, 0.0, 0.0, 0.0, 0.0, 0.0, 1.6665557465050569E9, 0.0, 2022-10-23 13:09:06.505
165.0, -74492.66457470234, -105979.47758191558, 66597.4696394765, 20009.080470690784, 76720.48529630725, 97861.36869923696, 42191.24224081543, 36814.17248418003, 0.026000000000000002, 0.9540000000000001, 0.074, 192.0, 0.0, 0.0, 0.0, 0.0, 0.0, 0.0, 0.0, 0.0, 0.0, 1.6665557465050664E9, 0.0, 2022-10-23 13:09:06.505
166.0, -74498.85600791646, -105981.39983193873, 64899.429964951276, 20014.735462037977, 76770.06146550912, 97134.3782108281, 41169.342836063246, 35836.797754382824, 0.026000000000000002, 0.9540000000000001, 0.074, 192.0, 0.0, 0.0, 0.0, 0.0, 0.0, 0.0, 0.0, 0.0, 0.0, 1.6665557465050764E9, 0.0, 2022-10-23 13:09:06.505
167.0, -74527.42153733035, -106003.21513452711, 65222.122099652544, 20334.521869960055, 76904.48485666333, 97357.24745479197, 41491.699694597686, 36353.994769334175, 0.026000000000000002, 0.9540000000000001, 0.074, 192.0, 0.0, 0.0, 0.0, 0.0, 0.0, 0.0, 0.0, 0.0, 0.0, 1.666555746505086E9, 0.0, 2022-10-23 13:09:06.505
168.0, -74561.66440983587, -106039.51436752253, 67385.41333501498, 20670.178016445403, 77008.82279978071, 98345.10515273872, 42866.64490302145, 37791.5695657217, 0.028, 0.9540000000000001, 0.076, 192.0, 0.0, 224.0, 29.0, 208.0, 2.0, 96.0, 0.0, 0.0, 0.0, 1.666555746505096E9, 0.0, 2022-10-23 13:09:06.505
169.0, -74493.24572005817, -105980.25989297152, 67058.31790665603, 20123.521402301958, 76774.04007602217, 98085.98137926834, 42499.13752068729, 37167.64297099626, 0.028, 0.9540000000000001, 0.076, 192.0, 0.0, 0.0, 0.0, 0.0, 0.0, 0.0, 0.0, 0.0, 0.0, 1.6665557465051067E9, 0.0, 2022-10-23 13:09:06.505
170.0, -74484.59559495396, -105970.15690447771, 65013.53562039562, 19962.85706315721, 76757.85741303652, 97162.36259488614, 41210.224176672, 35858.85892616021, 0.028, 0.9540000000000001, 0.076, 192.0, 0.0, 0.0, 0.0, 0.0, 0.0, 0.0, 0.0, 0.0, 0.0, 1.6665557465051165E9, 0.0, 2022-10-23 13:09:06.505
171.0, -74519.50901979316, -106003.1704310382, 65011.32279769454, 20265.365572615334, 76886.26818493225, 97235.36339227717, 41327.88375948474, 36172.45390086817, 0.028, 0.9540000000000001, 0.076, 192.0, 0.0, 0.0, 0.0, 0.0, 0.0, 0.0, 0.0, 0.0, 0.0, 1.666555746505126E9, 0.0, 2022-10-23 13:09:06.505
172.0, -74561.32913366905, -106043.40357105776, 66970.47555094666, 20648.742693512762, 77010.4768288704, 98155.09297312415, 42610.024524930064, 37561.79363272114, 0.028, 0.9540000000000001, 0.076, 192.0, 0.0, 0.0, 0.0, 0.0, 0.0, 0.0, 0.0, 0.0, 0.0, 1.6665557465051367E9, 0.0, 2022-10-23 13:09:06.505
173.0, -74511.79766795608, -105999.70591064762, 67406.91571318099, 20238.565831013424, 76807.27712002721, 98243.02473581133, 42731.01451766664, 37460.719044294245, 0.028, 0.9540000000000001, 0.076, 192.0, 0.0, 0.0, 0.0, 0.0, 0.0, 0.0, 0.0, 0.0, 0.0, 1.6665557465051453E9, 0.0, 2022-10-23 13:09:06.505
174.0, -74487.2778042886, -105975.99070978054, 65175.51871246323, 19915.22549572295, 76719.8594474625, 97207.71428438596, 41284.633133963725, 35918.873360022706, 0.028, 0.9540000000000001, 0.076, 192.0, 0.0, 0.0, 0.0, 0.0, 0.0, 0.0, 0.0, 0.0, 0.0, 1.6665557465051544E9, 0.0, 2022-10-23 13:09:06.505
175.0, -74519.86664770445, -106004.60094268333, 64857.43103711976, 20207.18398179817, 76850.57244903714, 97142.62600453211, 41203.16102542413, 36025.17825665215, 0.028, 0.9540000000000001, 0.076, 192.0, 0.0, 0.0, 0.0, 0.0, 0.0, 0.0, 0.0, 0.0, 0.0, 1.6665557465051637E9, 0.0, 2022-10-23 13:09:06.505
176.0, -74564.43602614832, -106043.91766118022, 66491.96940564745, 20597.780716154663, 76986.60516579213, 97930.23442390376, 42306.219614293535, 37269.723387923645, 0.028, 0.9540000000000001, 0.076, 192.0, 0.0, 0.0, 0.0, 0.0, 0.0, 0.0, 0.0, 0.0, 0.0, 1.666555746505172E9, 0.0, 2022-10-23 13:09:06.505
177.0, -74531.0425199321, -106017.38614051178, 67656.13766385766, 20371.335193077946, 76855.55688805066, 98366.56282741581, 42908.73323783079, 37703.660154778976, 0.034, 0.9520000000000001, 0.078, 192.0, 1.0, 16.0, 29.0, 192.0, 2.0, 112.0, 0.0, 0.0, 0.0, 1.6665557465051801E9, 0.0, 2022-10-23 13:09:06.505
178.0, -74486.20492055475, -105971.58741612286, 65444.99134361641, 19890.772687288845, 76702.87212167647, 97305.92784952257, 41428.31014732244, 36058.974094268575, 0.034, 0.9520000000000001, 0.078, 192.0, 0.0, 0.0, 0.0, 0.0, 0.0, 0.0, 0.0, 0.0, 0.0, 1.6665557465051892E9, 0.0, 2022-10-23 13:09:06.505
179.0, -74519.4419645598, -105998.5212681915, 64787.96181535266, 20156.669039329176, 76836.66966398593, 97089.5182597063, 41128.32738498776, 35926.24943569296, 0.034, 0.9520000000000001, 0.078, 192.0, 0.0, 0.0, 0.0, 0.0, 0.0, 0.0, 0.0, 0.0, 0.0, 1.6665557465052218E9, 0.0, 2022-10-23 13:09:06.505
180.0, -74554.86947952145, -106032.80884418594, 66042.25230720667, 20528.043273454103, 76964.70045622594, 97713.17663349827, 42010.46133166091, 36972.3781314347, 0.034, 0.9520000000000001, 0.078, 192.0, 0.0, 0.0, 0.0, 0.0, 0.0, 0.0, 0.0, 0.0, 0.0, 1.6665557465052307E9, 0.0, 2022-10-23 13:09:06.505
181.0, -74538.843278747, -106021.02947485799, 67769.72922917953, 20498.58367426201, 76913.24674048982, 98432.6345840257, 43010.43367510244, 37866.202040457974, 0.034, 0.9520000000000001, 0.078, 192.0, 0.0, 0.0, 0.0, 0.0, 0.0, 0.0, 0.0, 0.0, 0.0, 1.6665557465052388E9, 0.0, 2022-10-23 13:09:06.505
182.0, -74482.31571701953, -105971.67682310067, 65854.3411915709, 19919.56173414728, 76710.605825258, 97501.84088967335, 41696.2405081082, 36323.86461780842, 0.034, 0.9520000000000001, 0.078, 192.0, 0.0, 0.0, 0.0, 0.0, 0.0, 0.0, 0.0, 0.0, 0.0, 1.666555746505247E9, 0.0, 2022-10-23 13:09:06.505
183.0, -74509.89776967738, -105995.74965187904, 64804.837382416415, 20106.489373027012, 76806.00307059326, 97097.38607375456, 41127.388611720635, 35881.00950491542, 0.034, 0.9520000000000001, 0.078, 192.0, 0.0, 0.0, 0.0, 0.0, 0.0, 0.0, 0.0, 0.0, 0.0, 1.6665557465052552E9, 0.0, 2022-10-23 13:09:06.505
184.0, -74550.57794458604, -106028.78553018399, 65680.8022476199, 20452.67319115081, 76929.67527266446, 97560.00012874606, 41781.22184052728, 36711.53327364127, 0.034, 0.9520000000000001, 0.078, 192.0, 0.0, 0.0, 0.0, 0.0, 0.0, 0.0, 0.0, 0.0, 0.0, 1.6665557465052679E9, 0.0, 2022-10-23 13:09:06.505
185.0, -74554.66831382136, -106032.85354767485, 67746.48341494601, 20594.383250997456, 76945.63441820556, 98454.20401742507, 43024.29175666473, 37919.35448877269, 0.034, 0.9520000000000001, 0.078, 192.0, 0.0, 0.0, 0.0, 0.0, 0.0, 0.0, 0.0, 0.0, 0.0, 1.666555746505312E9, 0.0, 2022-10-23 13:09:06.505
186.0, -74486.89782463286, -105971.22978821157, 66263.31105986967, 19958.386714266147, 76707.14130486743, 97676.78799352504, 41937.95227264789, 36581.35671393356, 0.034, 0.9520000000000001, 0.078, 192.0, 0.0, 0.0, 0.0, 0.0, 0.0, 0.0, 0.0, 0.0, 0.0, 1.6665557465053532E9, 0.0, 2022-10-23 13:09:06.505
187.0, -74502.32052830703, -105979.58934063785, 64803.04924285999, 20050.386494444192, 76791.29562274166, 97065.15485825001, 41082.39455013211, 35809.79684708081, 0.036000000000000004, 0.9500000000000001, 0.08, 192.0, 1.0, 32.0, 29.0, 176.0, 2.0, 128.0, 0.0, 0.0, 0.0, 1.6665557465053945E9, 0.0, 2022-10-23 13:09:06.505
188.0, -74538.70916828027, -106015.28507653298, 65347.202461624445, 20375.380858824356, 76919.63933940404, 97389.56807727434, 41546.640282468834, 36459.67381711886, 0.036000000000000004, 0.9500000000000001, 0.08, 192.0, 0.0, 0.0, 0.0, 0.0, 0.0, 0.0, 0.0, 0.0, 0.0, 1.6665557465054395E9, 0.0, 2022-10-23 13:09:06.505
189.0, -74565.57596511555, -106043.51532978003, 67538.5898397672, 20645.36758010001, 76976.54688078724, 98368.2168565055, 42910.16374947593, 37846.77837452631, 0.036000000000000004, 0.9500000000000001, 0.08, 192.0, 0.0, 0.0, 0.0, 0.0, 0.0, 0.0, 0.0, 0.0, 0.0, 1.6665557465054808E9, 0.0, 2022-10-23 13:09:06.505
190.0, -74499.05717361656, -105982.45036392813, 66710.97179782054, 20039.92587803911, 76719.03243291765, 97869.92941736334, 42216.25384286092, 36890.28017405036, 0.036000000000000004, 0.9500000000000001, 0.08, 192.0, 0.0, 0.0, 0.0, 0.0, 0.0, 0.0, 0.0, 0.0, 0.0, 1.6665557465055165E9, 0.0, 2022-10-23 13:09:06.505
191.0, -74497.38079278241, -105980.43870692715, 64881.257996709115, 19994.931816450575, 76754.8622792795, 97071.03336704176, 41096.23027994994, 35791.33430616073, 0.036000000000000004, 0.9500000000000001, 0.08, 192.0, 0.0, 0.0, 0.0, 0.0, 0.0, 0.0, 0.0, 0.0, 0.0, 1.6665557465055256E9, 0.0, 2022-10-23 13:09:06.505
192.0, -74536.16106941237, -106016.91675387822, 65101.86971448299, 20306.135154501815, 76885.53057736524, 97257.1563431211, 41363.557143635415, 36249.187439583235, 0.036000000000000004, 0.9500000000000001, 0.08, 192.0, 0.0, 0.0, 0.0, 0.0, 0.0, 0.0, 0.0, 0.0, 0.0, 1.666555746505535E9, 0.0, 2022-10-23 13:09:06.505
193.0, -74574.74018034223, -106056.79226598649, 67184.49350410623, 20653.056580192635, 76984.68291576898, 98208.15601446106, 42696.659886438836, 37664.656360704466, 0.036000000000000004, 0.9500000000000001, 0.08, 192.0, 0.0, 0.0, 0.0, 0.0, 0.0, 0.0, 0.0, 0.0, 0.0, 1.6665557465055437E9, 0.0, 2022-10-23 13:09:06.505
194.0, -74518.88317094841, -106009.49597471906, 67144.43917804232, 20157.071370729373, 76769.43561666437, 98082.20393445539, 42514.56022436145, 37241.001396298576, 0.036000000000000004, 0.9500000000000001, 0.08, 192.0, 0.0, 0.0, 0.0, 0.0, 0.0, 0.0, 0.0, 0.0, 0.0, 1.6665557465055616E9, 0.0, 2022-10-23 13:09:06.505
195.0, -74503.97455739672, -105992.30748323291, 65014.87672506294, 19939.007751823396, 76729.42599408937, 97114.8204344297, 41162.704367960025, 35843.07859457476, 0.036000000000000004, 0.9500000000000001, 0.08, 192.0, 0.0, 0.0, 0.0, 0.0, 0.0, 0.0, 0.0, 0.0, 0.0, 1.6665557465055707E9, 0.0, 2022-10-23 13:09:06.505
196.0, -74541.21256365927, -106026.88563190529, 64921.64759893985, 20239.90693568074, 76855.57923979512, 97160.61915881863, 41233.246473460975, 36104.50459772404, 0.036000000000000004, 0.9500000000000001, 0.08, 192.0, 0.0, 0.0, 0.0, 0.0, 0.0, 0.0, 0.0, 0.0, 0.0, 1.6665557465055816E9, 0.0, 2022-10-23 13:09:06.505
197.0, -74579.72461935575, -106062.5366643115, 66762.1125891343, 20626.435652546366, 76983.58768029067, 98031.73369547531, 42452.40002303124, 37441.161267895855, 0.036000000000000004, 0.9500000000000001, 0.082, 192.0, 1.0, 32.0, 29.0, 176.0, 2.0, 144.0, 0.0, 0.0, 0.0, 1.666555746505591E9, 0.0, 2022-10-23 13:09:06.505
198.0, -74523.82290647304, -106013.45223348764, 67496.63561542459, 20292.67940433972, 76824.19739057987, 98270.42797451353, 42779.09311999001, 37564.677007755876, 0.036000000000000004, 0.9500000000000001, 0.082, 192.0, 0.0, 0.0, 0.0, 0.0, 0.0, 0.0, 0.0, 0.0, 0.0, 1.6665557465056005E9, 0.0, 2022-10-23 13:09:06.505
199.0, -74488.79772291156, -105981.75745985002, 65258.689553581426, 19903.334367672727, 76712.32690958105, 97225.5509764613, 41317.333736101835, 35978.6419246962, 0.036000000000000004, 0.9500000000000001, 0.082, 192.0, 0.0, 0.0, 0.0, 0.0, 0.0, 0.0, 0.0, 0.0, 0.0, 1.6665557465056093E9, 0.0, 2022-10-23 13:09:06.505
200.0, -74530.70724376527, -106018.01198935653, 64828.73139723914, 20181.65828963021, 76845.27508560123, 97117.54734725325, 41170.48277503047, 36006.71571573207, 0.036000000000000004, 0.9500000000000001, 0.082, 192.0, 0.0, 0.0, 0.0, 0.0, 0.0, 0.0, 0.0, 0.0, 0.0, 1.666555746505618E9, 0.0, 2022-10-23 13:09:06.505
201.0, -74574.18138673084, -106057.39576308678, 66330.6568659135, 20562.17438723736, 76976.81510172071, 97855.93722533432, 42205.6591159891, 37184.45148282665, 0.036000000000000004, 0.9500000000000001, 0.082, 192.0, 0.0, 0.0, 0.0, 0.0, 0.0, 0.0, 0.0, 0.0, 0.0, 1.6665557465056272E9, 0.0, 2022-10-23 13:09:06.505
202.0, -74545.90642999488, -106033.74761745306, 67712.01702499593, 20405.71217605021, 76871.98542022532, 98398.7716911759, 42960.343415778094, 37794.475292500894, 0.036000000000000004, 0.9500000000000001, 0.082, 192.0, 0.0, 0.0, 0.0, 0.0, 0.0, 0.0, 0.0, 0.0, 0.0, 1.6665557465056362E9, 0.0, 2022-10-23 13:09:06.505
203.0, -74489.3341647785, -105978.58351213737, 65556.99593508196, 19883.955405229975, 76694.78079018365, 97353.53706521238, 41501.73562785812, 36153.52197331452, 0.036000000000000004, 0.9500000000000001, 0.082, 192.0, 0.0, 0.0, 0.0, 0.0, 0.0, 0.0, 0.0, 0.0, 0.0, 1.6665557465056453E9, 0.0, 2022-10-23 13:09:06.505
204.0, -74523.6440925174, -106006.63495142877, 64748.3321724334, 20130.31633261637, 76824.30914930215, 97065.4677826724, 41100.25359395189, 35910.31264189633, 0.036000000000000004, 0.9500000000000001, 0.082, 192.0, 0.0, 0.0, 0.0, 0.0, 0.0, 0.0, 0.0, 0.0, 0.0, 1.666555746505654E9, 0.0, 2022-10-23 13:09:06.505
205.0, -74562.98316275873, -106043.78355071349, 65880.33627037243, 20502.78580221961, 76958.57607824518, 97650.23412111212, 41923.021307351744, 36899.131464854654, 0.036000000000000004, 0.9500000000000001, 0.082, 192.0, 0.0, 0.0, 0.0, 0.0, 0.0, 0.0, 0.0, 0.0, 0.0, 1.666555746505663E9, 0.0, 2022-10-23 13:09:06.505
206.0, -74560.79269180211, -106045.75050422557, 67767.31524077836, 20539.867346270963, 76929.22823777536, 98457.9367587491, 43042.66489060699, 37930.97739588945, 0.036000000000000004, 0.9500000000000001, 0.082, 192.0, 0.0, 0.0, 0.0, 0.0, 0.0, 0.0, 0.0, 0.0, 0.0, 1.6665557465056717E9, 0.0, 2022-10-23 13:09:06.505
207.0, -74499.28069106111, -105985.0655180294, 65966.01050686961, 19921.70750161499, 76700.77105769767, 97557.27321592251, 41779.791328882144, 36429.52131384866, 0.048, 0.962, 0.098, 192.0, 1.0, 128.0, 30.0, 16.0, 3.0, 16.0, 0.0, 0.0, 0.0, 1.6665557465056808E9, 0.0, 2022-10-23 13:09:06.505
208.0, -74520.76071748266, -106003.08102406038, 64759.50804466105, 20080.78486690341, 76797.3305937446, 97075.77193686628, 41105.70741959899, 35867.79962394233, 0.048, 0.962, 0.098, 192.0, 0.0, 0.0, 0.0, 0.0, 0.0, 0.0, 0.0, 0.0, 0.0, 1.6665557465056903E9, 0.0, 2022-10-23 13:09:06.505
209.0, -74559.18336620132, -106038.5308907665, 65489.13603891564, 20414.116431965405, 76918.11942078108, 97471.5542759364, 41675.74395844268, 36619.68995567441, 0.048, 0.962, 0.098, 192.0, 0.0, 0.0, 0.0, 0.0, 0.0, 0.0, 0.0, 0.0, 0.0, 1.6665557465056994E9, 0.0, 2022-10-23 13:09:06.505
210.0, -74577.82472107705, -106060.97204219962, 67635.55170721433, 20609.314216293602, 76953.32341829818, 98422.91157518764, 42997.8496429741, 37924.18246557504, 0.048, 0.962, 0.098, 192.0, 0.0, 0.0, 0.0, 0.0, 0.0, 0.0, 0.0, 0.0, 0.0, 1.6665557465057168E9, 0.0, 2022-10-23 13:09:06.505
211.0, -74501.42645852882, -105994.14032627826, 66368.8112936987, 19966.05336261432, 76693.39498202741, 97734.50019770864, 42040.23385527538, 36708.82871256217, 0.048, 0.962, 0.098, 192.0, 0.0, 0.0, 0.0, 0.0, 0.0, 0.0, 0.0, 0.0, 0.0, 1.6665557465057259E9, 0.0, 2022-10-23 13:09:06.505
212.0, -74511.37298481143, -106000.51057344802, 64780.853960615874, 20020.5245638519, 76769.70383759783, 97069.13346876306, 41101.862919552674, 35832.66268165859, 0.048, 0.962, 0.098, 192.0, 0.0, 0.0, 0.0, 0.0, 0.0, 0.0, 0.0, 0.0, 0.0, 1.6665557465057347E9, 0.0, 2022-10-23 13:09:06.505
213.0, -74551.60612483099, -106035.93808840968, 65206.20765760037, 20342.41203575278, 76897.93579553792, 97351.81598088933, 41500.998020291096, 36411.50580781768, 0.048, 0.962, 0.098, 192.0, 0.0, 0.0, 0.0, 0.0, 0.0, 0.0, 0.0, 0.0, 0.0, 1.6665557465057435E9, 0.0, 2022-10-23 13:09:06.505
214.0, -74575.16486348688, -106058.66981252073, 67369.9459278519, 20644.451158577343, 76974.55757553072, 98326.5532048408, 42866.600199532535, 37816.80468521174, 0.048, 0.962, 0.098, 192.0, 0.0, 0.0, 0.0, 0.0, 0.0, 0.0, 0.0, 0.0, 0.0, 1.6665557465057523E9, 0.0, 2022-10-23 13:09:06.505
215.0, -74513.49640053468, -106001.0246635705, 66830.24070623406, 20076.739201157, 76735.70683428131, 97969.17116274491, 42365.80936501138, 37055.81719348636, 0.048, 0.962, 0.098, 192.0, 0.0, 0.0, 0.0, 0.0, 0.0, 0.0, 0.0, 0.0, 0.0, 1.6665557465057614E9, 0.0, 2022-10-23 13:09:06.505
216.0, -74504.10866786346, -105989.53586692046, 64867.53402561355, 19968.15442659312, 76741.92061923989, 97101.20822205642, 41147.952216619524, 35835.23313227095, 0.048, 0.9460000000000001, 0.098, 192.0, 1.0, 128.0, 29.0, 144.0, 3.0, 16.0, 0.0, 0.0, 0.0, 1.6665557465057702E9, 0.0, 2022-10-23 13:09:06.505
217.0, -74539.08914793601, -106025.09749234885, 64928.59899146545, 20272.54048258549, 76862.28476313171, 97198.12538601464, 41305.30849758488, 36190.22353771014, 0.048, 0.9460000000000001, 0.098, 192.0, 0.0, 0.0, 0.0, 0.0, 0.0, 0.0, 0.0, 0.0, 0.0, 1.6665557465057807E9, 0.0, 2022-10-23 13:09:06.505
218.0, -74579.2999362111, -106065.86707423534, 66964.21706249917, 20655.157644171435, 76981.15134014504, 98157.88694118106, 42639.6629380778, 37613.35910717954, 0.048, 0.9460000000000001, 0.098, 192.0, 0.0, 0.0, 0.0, 0.0, 0.0, 0.0, 0.0, 0.0, 0.0, 1.66655574650579E9, 0.0, 2022-10-23 13:09:06.505
219.0, -74520.336034338, -106014.70393117714, 67219.71985336779, 20211.85549638933, 76775.58234638958, 98173.60021753314, 42653.1186882399, 37386.913584102826, 0.048, 0.9460000000000001, 0.098, 192.0, 0.0, 0.0, 0.0, 0.0, 0.0, 0.0, 0.0, 0.0, 0.0, 1.6665557465057983E9, 0.0, 2022-10-23 13:09:06.505
220.0, -74505.09214461948, -105995.45907920111, 65044.068103321566, 19923.875620827155, 76714.78560147114, 97181.76390907334, 41259.97915982952, 35911.49728435246, 0.048, 0.9460000000000001, 0.098, 192.0, 0.0, 0.0, 0.0, 0.0, 0.0, 0.0, 0.0, 0.0, 0.0, 1.6665557465058067E9, 0.0, 2022-10-23 13:09:06.505
221.0, -74532.16010715486, -106015.86622188882, 64807.854867917886, 20216.974045869596, 76842.39171056649, 97152.4831238369, 41233.648804861165, 36070.4628909186, 0.048, 0.9460000000000001, 0.098, 192.0, 0.0, 0.0, 0.0, 0.0, 0.0, 0.0, 0.0, 0.0, 0.0, 1.6665557465058153E9, 0.0, 2022-10-23 13:09:06.505
222.0, -74569.04048550612, -106052.6795450067, 66523.21714439597, 20616.667940219395, 76982.96183144592, 97971.58515114608, 42386.395321654716, 37353.52007788659, 0.048, 0.9460000000000001, 0.098, 192.0, 0.0, 0.0, 0.0, 0.0, 0.0, 0.0, 0.0, 0.0, 0.0, 1.6665557465058234E9, 0.0, 2022-10-23 13:09:06.505
223.0, -74528.24855187518, -106023.19759407015, 67527.70454021747, 20347.575288721953, 76839.19541110938, 98341.50652188141, 42895.188080690874, 37673.01591313075, 0.048, 0.9460000000000001, 0.098, 192.0, 0.0, 0.0, 0.0, 0.0, 0.0, 0.0, 0.0, 0.0, 0.0, 1.666555746505832E9, 0.0, 2022-10-23 13:09:06.505
224.0, -74484.46148448724, -105981.9139220612, 65280.370745703076, 19901.210951949473, 76696.83715067353, 97269.94154094954, 41405.69018193366, 36033.15782942269, 0.048, 0.9460000000000001, 0.098, 192.0, 0.0, 0.0, 0.0, 0.0, 0.0, 0.0, 0.0, 0.0, 0.0, 1.666555746505841E9, 0.0, 2022-10-23 13:09:06.505
225.0, -74527.846220475, -106012.35699800933, 64728.61793382382, 20178.61845238429, 76835.77559420772, 97112.31703905071, 41182.15038563614, 35977.50198572898, 0.048, 0.9460000000000001, 0.098, 192.0, 0.0, 0.0, 0.0, 0.0, 0.0, 0.0, 0.0, 0.0, 0.0, 1.666555746505857E9, 0.0, 2022-10-23 13:09:06.505
226.0, -74566.17946221585, -106041.2801553345, 66046.94617354228, 20542.661314327874, 76950.52945024127, 97748.96177637122, 42090.6370390221, 37047.770565482446, 0.044, 0.9440000000000001, 0.094, 192.0, 1.0, 96.0, 29.0, 128.0, 2.0, 240.0, 0.0, 0.0, 0.0, 1.6665557465058656E9, 0.0, 2022-10-23 13:09:06.505
227.0, -74556.16588069986, -106037.34624831036, 67652.00259113344, 20472.365078015933, 76884.32358316465, 98410.57341224831, 43005.67275353346, 37844.00675821385, 0.044, 0.9440000000000001, 0.094, 192.0, 0.0, 0.0, 0.0, 0.0, 0.0, 0.0, 0.0, 0.0, 0.0, 1.6665557465058744E9, 0.0, 2022-10-23 13:09:06.505
228.0, -74493.9386241363, -105980.37165169379, 65620.56429631285, 19902.641463594613, 76681.68266793284, 97419.83233926682, 41619.46226590422, 36246.16995408177, 0.044, 0.9440000000000001, 0.094, 192.0, 0.0, 0.0, 0.0, 0.0, 0.0, 0.0, 0.0, 0.0, 0.0, 1.6665557465058827E9, 0.0, 2022-10-23 13:09:06.505
229.0, -74520.35838608246, -106001.89638160425, 64663.32848826987, 20118.55931503288, 76796.6823931554, 97058.58344538015, 41118.09028602723, 35886.798606729346, 0.044, 0.9440000000000001, 0.094, 192.0, 0.0, 0.0, 0.0, 0.0, 0.0, 0.0, 0.0, 0.0, 0.0, 1.666555746505891E9, 0.0, 2022-10-23 13:09:06.505
230.0, -74563.29608718111, -106042.10716987934, 65641.41847388964, 20472.34272627148, 76927.17187728547, 97572.20418121865, 41845.48310583629, 36787.75272223386, 0.044, 0.9440000000000001, 0.094, 192.0, 0.0, 0.0, 0.0, 0.0, 0.0, 0.0, 0.0, 0.0, 0.0, 1.6665557465058997E9, 0.0, 2022-10-23 13:09:06.505
231.0, -74571.43212216283, -106050.01968741653, 67650.214451577, 20566.622384383965, 76919.66169114849, 98441.77644750792, 43054.55601865721, 37936.47592502546, 0.044, 0.9440000000000001, 0.094, 192.0, 0.0, 0.0, 0.0, 0.0, 0.0, 0.0, 0.0, 0.0, 0.0, 1.666555746505908E9, 0.0, 2022-10-23 13:09:06.505
232.0, -74500.86766491743, -105987.6136168973, 66037.80431006006, 19938.873641356666, 76681.5485574661, 97617.75703641857, 41902.45770245286, 36528.85246620804, 0.044, 0.9440000000000001, 0.094, 192.0, 0.0, 0.0, 0.0, 0.0, 0.0, 0.0, 0.0, 0.0, 0.0, 1.666555746505916E9, 0.0, 2022-10-23 13:09:06.505
233.0, -74518.41378431485, -106002.61163742682, 64669.98930811755, 20060.981221316008, 76769.50267189773, 97056.84000931264, 41115.83275983724, 35834.94255959303, 0.044, 0.9440000000000001, 0.094, 192.0, 0.0, 0.0, 0.0, 0.0, 0.0, 0.0, 0.0, 0.0, 0.0, 1.6665557465059245E9, 0.0, 2022-10-23 13:09:06.505
234.0, -74566.2018139603, -106044.61056525834, 65297.24631276683, 20392.4128880993, 76903.72489735186, 97422.60395557928, 41633.99089980017, 36535.2227133778, 0.044, 0.9440000000000001, 0.094, 192.0, 0.0, 0.0, 0.0, 0.0, 0.0, 0.0, 0.0, 0.0, 0.0, 1.6665557465059328E9, 0.0, 2022-10-23 13:09:06.505
235.0, -74586.854825837, -106061.9331672112, 67508.50439173036, 20638.79616723015, 76958.0172846338, 98421.59282226478, 43014.881672249045, 37918.482770738934, 0.044, 0.9440000000000001, 0.094, 192.0, 0.0, 0.0, 0.0, 0.0, 0.0, 0.0, 0.0, 0.0, 0.0, 1.6665557465059412E9, 0.0, 2022-10-23 13:09:06.505
236.0, -74514.16695286834, -105994.18502976716, 66510.96838843446, 20018.95994174003, 76703.22974958774, 97858.3512137355, 42225.70863076552, 36861.178202769544, 0.05, 0.9460000000000001, 0.09, 192.0, 1.0, 144.0, 29.0, 144.0, 2.0, 208.0, 0.0, 0.0, 0.0, 1.6665557465059495E9, 0.0, 2022-10-23 13:09:06.505
237.0, -74514.94926392428, -105990.45228844314, 64780.094001304395, 20012.321473636803, 76753.87880252348, 97117.5696989977, 41180.40694956863, 35850.4099667561, 0.05, 0.9460000000000001, 0.09, 192.0, 0.0, 0.0, 0.0, 0.0, 0.0, 0.0, 0.0, 0.0, 0.0, 1.6665557465059583E9, 0.0, 2022-10-23 13:09:06.505
238.0, -74543.22422066024, -106020.2248120576, 65058.887309895435, 20322.02724480954, 76877.34983889459, 97318.06484676182, 41476.47815662363, 36336.4262981923, 0.05, 0.9460000000000001, 0.09, 192.0, 0.0, 0.0, 0.0, 0.0, 0.0, 0.0, 0.0, 0.0, 0.0, 1.666555746505967E9, 0.0, 2022-10-23 13:09:06.505
239.0, -74583.79263684663, -106063.02840268951, 67206.35351018352, 20655.828196505096, 76971.00364816232, 98302.68154176255, 42847.40005104543, 37769.32957998867, 0.05, 0.9460000000000001, 0.09, 192.0, 0.0, 0.0, 0.0, 0.0, 0.0, 0.0, 0.0, 0.0, 0.0, 1.666555746505976E9, 0.0, 2022-10-23 13:09:06.505
240.0, -74518.01145291465, -106003.84098337186, 66961.49014967564, 20113.41841380816, 76732.35407261302, 98078.51589662027, 42530.25114896907, 37197.46019809964, 0.05, 0.9460000000000001, 0.09, 192.0, 0.0, 0.0, 0.0, 0.0, 0.0, 0.0, 0.0, 0.0, 0.0, 1.6665557465059843E9, 0.0, 2022-10-23 13:09:06.505
241.0, -74506.94733940928, -105987.3677477083, 64884.00726127712, 19940.773539635367, 76714.89736019343, 97140.92727195351, 41217.48849361998, 35854.14270808014, 0.05, 0.9460000000000001, 0.09, 192.0, 0.0, 0.0, 0.0, 0.0, 0.0, 0.0, 0.0, 0.0, 0.0, 1.6665557465060008E9, 0.0, 2022-10-23 13:09:06.506
242.0, -74545.77231952814, -106019.48720449058, 64847.775083515065, 20243.662028749233, 76844.71629198984, 97204.85326109568, 41319.010116935984, 36148.15755464525, 0.05, 0.9460000000000001, 0.09, 192.0, 0.0, 0.0, 0.0, 0.0, 0.0, 0.0, 0.0, 0.0, 0.0, 1.666555746506009E9, 0.0, 2022-10-23 13:09:06.506
243.0, -74587.9053578264, -106060.39089684379, 66805.96671175561, 20629.78841421466, 76973.23882260786, 98143.69358345194, 42615.52305406607, 37547.421461036385, 0.05, 0.9460000000000001, 0.09, 192.0, 0.0, 0.0, 0.0, 0.0, 0.0, 0.0, 0.0, 0.0, 0.0, 1.666555746506018E9, 0.0, 2022-10-23 13:09:06.506
244.0, -74532.83065948852, -106011.28411427548, 67361.40756146998, 20248.400598573757, 76785.5735761611, 98300.49107080592, 42820.37679199896, 37531.48466723975, 0.05, 0.9460000000000001, 0.09, 192.0, 0.0, 0.0, 0.0, 0.0, 0.0, 0.0, 0.0, 0.0, 0.0, 1.6665557465060265E9, 0.0, 2022-10-23 13:09:06.506
245.0, -74497.67136546032, -105976.05776501392, 65115.90661000093, 19898.394632148105, 76693.32792679405, 97256.32932857625, 41356.628102854265, 35964.02388382243, 0.042, 0.9520000000000001, 0.076, 192.0, 1.0, 80.0, 29.0, 192.0, 2.0, 96.0, 0.0, 0.0, 0.0, 1.6665557465060349E9, 0.0, 2022-10-23 13:09:06.506
246.0, -74523.8899617064, -105998.9235995917, 64750.455588156656, 20191.94009207965, 76829.49475401577, 97170.54333335678, 41243.796496843876, 36038.835172514344, 0.042, 0.9520000000000001, 0.076, 192.0, 0.0, 0.0, 0.0, 0.0, 0.0, 0.0, 0.0, 0.0, 0.0, 1.666555746506044E9, 0.0, 2022-10-23 13:09:06.506
247.0, -74565.12893022645, -106035.7816261985, 66340.22341254038, 20583.520303192177, 76964.9686771594, 97942.19260718735, 42324.12336160224, 37265.47655647714, 0.042, 0.9520000000000001, 0.076, 192.0, 0.0, 0.0, 0.0, 0.0, 0.0, 0.0, 0.0, 0.0, 0.0, 1.6665557465060525E9, 0.0, 2022-10-23 13:09:06.506
248.0, -74542.08428169302, -106018.25785854553, 67582.01927924386, 20376.18552162475, 76835.39561455198, 98419.73762747498, 42982.426939299934, 37764.14397527504, 0.042, 0.9520000000000001, 0.076, 192.0, 0.0, 0.0, 0.0, 0.0, 0.0, 0.0, 0.0, 0.0, 0.0, 1.6665557465060608E9, 0.0, 2022-10-23 13:09:06.506
249.0, -74488.26128104464, -105965.61950035328, 65404.42292743003, 19891.443239622502, 76683.87313888945, 97383.89073418269, 41525.58493919193, 36131.192580603674, 0.042, 0.9520000000000001, 0.076, 192.0, 0.0, 0.0, 0.0, 0.0, 0.0, 0.0, 0.0, 0.0, 0.0, 1.6665557465060692E9, 0.0, 2022-10-23 13:09:06.506
250.0, -74519.95605468226, -105994.74382337855, 64710.177744648194, 20150.8575857708, 76814.56378871964, 97158.13811518409, 41204.41272311362, 35969.343599002794, 0.042, 0.9520000000000001, 0.076, 192.0, 0.0, 0.0, 0.0, 0.0, 0.0, 0.0, 0.0, 0.0, 0.0, 1.6665557465060773E9, 0.0, 2022-10-23 13:09:06.506
251.0, -74566.91706978287, -106040.98958265658, 65927.23023023966, 20511.950017446285, 76935.79965064522, 97771.13470687089, 42068.35234980015, 36994.23813751199, 0.042, 0.9520000000000001, 0.076, 192.0, 0.0, 0.0, 0.0, 0.0, 0.0, 0.0, 0.0, 0.0, 0.0, 1.666555746506086E9, 0.0, 2022-10-23 13:09:06.506
252.0, -74549.41565387436, -106030.55131799595, 67706.60790283774, 20498.38250856191, 76891.900824535, 98516.07364607736, 43101.38292329108, 37928.2504830659, 0.042, 0.9520000000000001, 0.076, 192.0, 0.0, 0.0, 0.0, 0.0, 0.0, 0.0, 0.0, 0.0, 0.0, 1.6665557465060942E9, 0.0, 2022-10-23 13:09:06.506
253.0, -74481.1310745634, -105968.36876492128, 65784.55904538144, 19896.584140847226, 76677.07820857504, 97552.66875656472, 41759.33948270553, 36362.1308043159, 0.042, 0.9520000000000001, 0.076, 192.0, 0.0, 0.0, 0.0, 0.0, 0.0, 0.0, 0.0, 0.0, 0.0, 1.6665557465061026E9, 0.0, 2022-10-23 13:09:06.506
0.0, 0.0, 0.0, 0.0, 0.0, 0.0, 0.0, 0.0, 0.0, 0.048, 0.9560000000000001, 0.082, 192.0, 1.0, 128.0, 29.0, 224.0, 2.0, 144.0, 0.0, 0.0, 0.0, 1.666555746569896E9, 0.0, 2022-10-23 13:09:06.569
1.0, -74553.9977614877, -106044.07412339142, 65558.64996417165, 19884.02246046334, 76644.55642039258, 97879.47361224575, 41826.39471607145, 36193.755113334075, 0.048, 0.9560000000000001, 0.082, 192.0, 0.0, 0.0, 0.0, 0.0, 0.0, 0.0, 0.0, 0.0, 0.0, 1.666555747053778E9, 0.0, 2022-10-23 13:09:07.053
2.0, -74588.79942760461, -106072.19261791618, 64831.39125482932, 20135.859565241288, 76772.85543356603, 97611.16327180425, 41466.64338906329, 36001.41835229616, 0.048, 0.9560000000000001, 0.082, 192.0, 0.0, 0.0, 0.0, 0.0, 0.0, 0.0, 0.0, 0.0, 0.0, 1.666555747053956E9, 0.0, 2022-10-23 13:09:07.053
3.0, -74631.64772172543, -106114.48211842563, 66054.76928410164, 20513.15701164687, 76909.24577823232, 98233.65935488456, 42343.70348974508, 37038.18166711112, 0.048, 0.9560000000000001, 0.082, 192.0, 0.0, 0.0, 0.0, 0.0, 0.0, 0.0, 0.0, 0.0, 0.0, 1.666555747053975E9, 0.0, 2022-10-23 13:09:07.053
4.0, -74616.89557038494, -106107.62013287786, 67826.39090137374, 20500.841200451996, 76859.26727763025, 98983.53802961565, 43382.67962726112, 37978.38544587916, 0.048, 0.9560000000000001, 0.082, 192.0, 0.0, 0.0, 0.0, 0.0, 0.0, 0.0, 0.0, 0.0, 0.0, 1.666555747053991E9, 0.0, 2022-10-23 13:09:07.053
5.0, -74553.3495608985, -106047.67275424872, 65940.28364900156, 19912.85621081069, 76658.30274323258, 98042.6413467695, 42061.35625378564, 36437.54559010811, 0.048, 0.9560000000000001, 0.082, 192.0, 0.0, 0.0, 0.0, 0.0, 0.0, 0.0, 0.0, 0.0, 0.0, 1.666555747054006E9, 0.0, 2022-10-23 13:09:07.054
6.0, -74578.2494042217, -106067.9904899586, 64881.72738334267, 20101.97432064704, 76773.41422717742, 97641.85221694139, 41485.910592783766, 35986.6438492112, 0.048, 0.9560000000000001, 0.082, 192.0, 0.0, 0.0, 0.0, 0.0, 0.0, 0.0, 0.0, 0.0, 0.0, 1.6665557470540287E9, 0.0, 2022-10-23 13:09:07.054
7.0, -74623.4669832548, -106103.9991502761, 65722.24238184004, 20436.736397354176, 76889.66565008946, 98090.87641130405, 42123.91878651605, 36798.749780505874, 0.05, 0.9560000000000001, 0.088, 192.0, 1.0, 144.0, 29.0, 224.0, 2.0, 192.0, 0.0, 0.0, 0.0, 1.6665557470540442E9, 0.0, 2022-10-23 13:09:07.054
8.0, -74646.28811434367, -106126.66381915378, 67834.37047414428, 20592.17042829638, 76902.406144429, 99021.24542251175, 43413.92736600964, 38050.201600814056, 0.05, 0.9560000000000001, 0.088, 192.0, 0.0, 0.0, 0.0, 0.0, 0.0, 0.0, 0.0, 0.0, 0.0, 1.6665557470540617E9, 0.0, 2022-10-23 13:09:07.054
9.0, -74570.22512796226, -106058.44629507618, 66443.37671320161, 19955.6598014426, 76660.40380721138, 98279.03339612883, 42372.44783311461, 36751.83346889418, 0.05, 0.9560000000000001, 0.088, 192.0, 0.0, 0.0, 0.0, 0.0, 0.0, 0.0, 0.0, 0.0, 0.0, 1.6665557470540764E9, 0.0, 2022-10-23 13:09:07.054
10.0, -74580.28341296714, -106067.5881585584, 64953.252965599655, 20035.835508803786, 76746.18980243085, 97651.06113565697, 41487.65402885128, 35945.11430801324, 0.05, 0.9560000000000001, 0.088, 192.0, 0.0, 0.0, 0.0, 0.0, 0.0, 0.0, 0.0, 0.0, 0.0, 1.6665557470540915E9, 0.0, 2022-10-23 13:09:07.054
11.0, -74611.93348311585, -106097.31597868395, 65444.43255000503, 20356.6053934819, 76871.53838533621, 97950.14982821344, 41917.56748170465, 36561.061329968135, 0.05, 0.9560000000000001, 0.088, 192.0, 0.0, 0.0, 0.0, 0.0, 0.0, 0.0, 0.0, 0.0, 0.0, 1.6665557470541065E9, 0.0, 2022-10-23 13:09:07.054
12.0, -74634.97813164927, -106120.22651675064, 67647.48753875346, 20652.631897047984, 76952.71992119789, 98956.60417754701, 43315.04324853936, 37985.80622503832, 0.05, 0.9560000000000001, 0.088, 192.0, 0.0, 0.0, 0.0, 0.0, 0.0, 0.0, 0.0, 0.0, 0.0, 1.6665557470541213E9, 0.0, 2022-10-23 13:09:07.054
13.0, -74580.26106122269, -106073.77959177252, 66907.13070716032, 20034.561459369834, 76682.75555166669, 98494.43715744463, 42675.09045303946, 37080.11353970928, 0.05, 0.9560000000000001, 0.088, 192.0, 0.0, 0.0, 0.0, 0.0, 0.0, 0.0, 0.0, 0.0, 0.0, 1.666555747054136E9, 0.0, 2022-10-23 13:09:07.054
14.0, -74571.29801169611, -106061.82140848892, 65044.17986204384, 19979.509112776414, 76720.59705502952, 97676.29625514701, 41522.455694968194, 35942.67796786761, 0.05, 0.9560000000000001, 0.088, 192.0, 0.0, 0.0, 0.0, 0.0, 0.0, 0.0, 0.0, 0.0, 0.0, 1.666555747054151E9, 0.0, 2022-10-23 13:09:07.054
15.0, -74604.42329697887, -106092.59976060389, 65214.74602398229, 20285.996232747584, 76846.39267282399, 97837.29587045859, 41757.17136349337, 36367.62933345191, 0.05, 0.9560000000000001, 0.088, 192.0, 0.0, 0.0, 0.0, 0.0, 0.0, 0.0, 0.0, 0.0, 0.0, 1.666555747054166E9, 0.0, 2022-10-23 13:09:07.054
16.0, -74640.94604741884, -106134.84455762441, 67282.50590354275, 20646.552222556144, 76956.47501426638, 98798.13030935888, 43101.11470235762, 37790.60844071012, 0.05, 0.9560000000000001, 0.088, 192.0, 0.0, 0.0, 0.0, 0.0, 0.0, 0.0, 0.0, 0.0, 0.0, 1.6665557470541809E9, 0.0, 2022-10-23 13:09:07.054
17.0, -74569.55457562859, -106081.7368127986, 67324.54953486318, 20156.84785328482, 76730.09654642302, 98700.36377911137, 42964.83611641361, 37415.12148560542, 0.052000000000000005, 0.9540000000000001, 0.084, 192.0, 1.0, 160.0, 29.0, 208.0, 2.0, 160.0, 0.0, 0.0, 0.0, 1.666555747054196E9, 0.0, 2022-10-23 13:09:07.054
18.0, -74547.67221780684, -106055.27234736353, 65171.89772986147, 19934.13507153214, 76702.04510713162, 97709.82387182998, 41578.53622180656, 35983.73812243201, 0.052000000000000005, 0.9540000000000001, 0.084, 192.0, 0.0, 0.0, 0.0, 0.0, 0.0, 0.0, 0.0, 0.0, 0.0, 1.6665557470542305E9, 0.0, 2022-10-23 13:09:07.054
19.0, -74606.56906444658, -106099.75231882959, 65058.261461050686, 20226.786461685475, 76828.131297604, 97755.91316889682, 41638.75182136915, 36229.763773651575, 0.052000000000000005, 0.9540000000000001, 0.084, 192.0, 0.0, 0.0, 0.0, 0.0, 0.0, 0.0, 0.0, 0.0, 0.0, 1.6665557470542457E9, 0.0, 2022-10-23 13:09:07.054
20.0, -74645.37169282099, -106136.29742101401, 66843.87527035181, 20599.099469077526, 76941.99108385934, 98600.80910930743, 42827.19407405783, 37535.440926008334, 0.052000000000000005, 0.9540000000000001, 0.084, 192.0, 0.0, 0.0, 0.0, 0.0, 0.0, 0.0, 0.0, 0.0, 0.0, 1.6665557470542605E9, 0.0, 2022-10-23 13:09:07.054
21.0, -74602.18812253333, -106099.95348452967, 67676.41069607863, 20293.34995667338, 76793.1731692759, 98889.839516859, 43219.780113670844, 37726.48128586785, 0.052000000000000005, 0.9540000000000001, 0.084, 192.0, 0.0, 0.0, 0.0, 0.0, 0.0, 0.0, 0.0, 0.0, 0.0, 1.6665557470542755E9, 0.0, 2022-10-23 13:09:07.054
22.0, -74569.21929946177, -106067.23053064711, 65441.95150637049, 19885.475323852937, 76667.95869683728, 97830.43388491082, 41733.97025274876, 36112.28300479448, 0.052000000000000005, 0.9540000000000001, 0.084, 192.0, 0.0, 0.0, 0.0, 0.0, 0.0, 0.0, 0.0, 0.0, 0.0, 1.6665557470542903E9, 0.0, 2022-10-23 13:09:07.054
23.0, -74604.40094523442, -106092.82327804844, 64974.084791432004, 20167.822559812375, 76794.69308789886, 97704.48180490515, 41556.363291306894, 36107.209158803125, 0.052000000000000005, 0.9540000000000001, 0.084, 192.0, 0.0, 0.0, 0.0, 0.0, 0.0, 0.0, 0.0, 0.0, 0.0, 1.6665557470543053E9, 0.0, 2022-10-23 13:09:07.054
24.0, -74639.33672181806, -106131.98353433414, 66413.8277070317, 20553.412503410877, 76924.42261271746, 98416.38486580669, 42558.07907081593, 37254.85947786087, 0.052000000000000005, 0.9540000000000001, 0.084, 192.0, 0.0, 0.0, 0.0, 0.0, 0.0, 0.0, 0.0, 0.0, 0.0, 1.66655574705432E9, 0.0, 2022-10-23 13:09:07.054
25.0, -74618.75076517473, -106121.20999350668, 67887.43351548119, 20424.71115883722, 76825.76201269175, 99018.13853003246, 43389.385150597715, 37940.02985239385, 0.052000000000000005, 0.9540000000000001, 0.084, 192.0, 0.0, 0.0, 0.0, 0.0, 0.0, 0.0, 0.0, 0.0, 0.0, 1.6665557470543346E9, 0.0, 2022-10-23 13:09:07.054
26.0, -74558.02107548965, -106056.70285900866, 65793.32092920791, 19885.989413975407, 76644.82464132603, 97998.87663112601, 41956.83949671263, 36309.38068740138, 0.052000000000000005, 0.9540000000000001, 0.084, 192.0, 0.0, 0.0, 0.0, 0.0, 0.0, 0.0, 0.0, 0.0, 0.0, 1.6665557470543492E9, 0.0, 2022-10-23 13:09:07.054
27.0, -74585.29020372513, -106080.19454243119, 64937.71850320322, 20124.50487905799, 76776.76698884572, 97684.74521455112, 41514.96786057566, 36019.210340882586, 0.046, 0.9540000000000001, 0.09, 192.0, 1.0, 112.0, 29.0, 208.0, 2.0, 208.0, 0.0, 0.0, 0.0, 1.666555747054364E9, 0.0, 2022-10-23 13:09:07.054
28.0, -74628.65258796842, -106121.0982347844, 65982.26022508863, 20471.51571172663, 76895.16417922547, 98215.15211047557, 42274.189564489076, 36952.328616658284, 0.046, 0.9540000000000001, 0.09, 192.0, 0.0, 0.0, 0.0, 0.0, 0.0, 0.0, 0.0, 0.0, 0.0, 1.6665557470543818E9, 0.0, 2022-10-23 13:09:07.054
29.0, -74626.99855887874, -106125.16625227526, 67917.65307398475, 20544.67297132885, 76885.7987982987, 99058.66224272994, 43441.196494245116, 38046.781783912396, 0.046, 0.9540000000000001, 0.09, 192.0, 0.0, 0.0, 0.0, 0.0, 0.0, 0.0, 0.0, 0.0, 0.0, 1.6665557470543969E9, 0.0, 2022-10-23 13:09:07.054
30.0, -74565.24068894872, -106067.65521379176, 66196.00995731473, 19919.8523068252, 76646.76924309364, 98186.83245025069, 42214.420999815586, 36576.70755108685, 0.046, 0.9540000000000001, 0.09, 192.0, 0.0, 0.0, 0.0, 0.0, 0.0, 0.0, 0.0, 0.0, 0.0, 1.6665557470544112E9, 0.0, 2022-10-23 13:09:07.054
31.0, -74595.59435791902, -106092.2421326926, 64944.62519223991, 20057.673163136624, 76740.33364538357, 97676.13979293584, 41499.455749923676, 35970.72940715902, 0.046, 0.9540000000000001, 0.09, 192.0, 0.0, 0.0, 0.0, 0.0, 0.0, 0.0, 0.0, 0.0, 0.0, 1.666555747054426E9, 0.0, 2022-10-23 13:09:07.054
32.0, -74630.48543101376, -106122.52874642954, 65659.59044213181, 20389.618920042387, 76863.2905916322, 98079.02998674274, 42069.067605622724, 36717.41178243301, 0.046, 0.9540000000000001, 0.09, 192.0, 0.0, 0.0, 0.0, 0.0, 0.0, 0.0, 0.0, 0.0, 0.0, 1.6665557470544405E9, 0.0, 2022-10-23 13:09:07.054
33.0, -74652.74776849124, -106145.48398798514, 67808.37539534277, 20596.059631831602, 76905.15540899699, 99035.34937326306, 43398.77288326894, 38036.12000180721, 0.046, 0.9540000000000001, 0.09, 192.0, 0.0, 0.0, 0.0, 0.0, 0.0, 0.0, 0.0, 0.0, 0.0, 1.6665557470544553E9, 0.0, 2022-10-23 13:09:07.054
34.0, -74576.81889257657, -106076.66296680726, 66651.7843785029, 19970.56841499429, 76664.49417644671, 98401.61036272174, 42508.14527370278, 36879.417226245074, 0.046, 0.9540000000000001, 0.09, 192.0, 0.0, 0.0, 0.0, 0.0, 0.0, 0.0, 0.0, 0.0, 0.0, 1.6665557470544848E9, 0.0, 2022-10-23 13:09:07.054
35.0, -74580.26106122269, -106075.70184179567, 64992.055593974066, 20003.00079619894, 76727.68255802186, 97678.66554005929, 41496.95235454469, 35928.372851416214, 0.046, 0.9540000000000001, 0.09, 192.0, 0.0, 0.0, 0.0, 0.0, 0.0, 0.0, 0.0, 0.0, 0.0, 1.6665557470544999E9, 0.0, 2022-10-23 13:09:07.054
36.0, -74625.23277106676, -106121.65702839578, 65351.47164481541, 20316.796936606996, 76844.80569896767, 97917.98566794225, 41843.203227901846, 36470.22384050177, 0.048, 0.96, 0.092, 192.0, 1.0, 128.0, 30.0, 0.0, 2.0, 224.0, 0.0, 0.0, 0.0, 1.666555747054515E9, 0.0, 2022-10-23 13:09:07.054
37.0, -74654.0665214141, -106152.16715957728, 67523.07772911522, 20643.199460887845, 76935.37496750057, 98917.10864509447, 43234.12993361115, 37909.83264563473, 0.048, 0.96, 0.092, 192.0, 0.0, 0.0, 0.0, 0.0, 0.0, 0.0, 0.0, 0.0, 0.0, 1.666555747054531E9, 0.0, 2022-10-23 13:09:07.054
38.0, -74591.03460205015, -106090.5881036029, 67117.99706435169, 20093.07832635383, 76705.95666241129, 98628.70408638765, 42821.4049722439, 37237.24630323009, 0.048, 0.96, 0.092, 192.0, 0.0, 0.0, 0.0, 0.0, 0.0, 0.0, 0.0, 0.0, 0.0, 1.6665557470545464E9, 0.0, 2022-10-23 13:09:07.054
39.0, -74580.43987517833, -106070.56094057095, 65114.85607801153, 19958.699638688522, 76697.08301986253, 97721.37972371337, 41554.21752383918, 35960.49230819849, 0.048, 0.96, 0.092, 192.0, 0.0, 0.0, 0.0, 0.0, 0.0, 0.0, 0.0, 0.0, 0.0, 1.6665557470545611E9, 0.0, 2022-10-23 13:09:07.054
40.0, -74639.09085262906, -106120.51708942857, 65166.130979792004, 20255.888432966287, 76823.90681790195, 97829.69627734378, 41712.959612960774, 36311.23588219117, 0.048, 0.96, 0.092, 192.0, 0.0, 0.0, 0.0, 0.0, 0.0, 0.0, 0.0, 0.0, 0.0, 1.6665557470545783E9, 0.0, 2022-10-23 13:09:07.054
41.0, -74683.30260316165, -106163.83477018295, 67139.45473902879, 20620.73595771026, 76926.52367669626, 98754.85733209341, 43005.24807038881, 37698.02751517624, 0.048, 0.96, 0.092, 192.0, 0.0, 0.0, 0.0, 0.0, 0.0, 0.0, 0.0, 0.0, 0.0, 1.666555747054593E9, 0.0, 2022-10-23 13:09:07.054
42.0, -74621.90236114291, -106110.68232186823, 67475.46851342541, 20201.461935217612, 76731.862334235, 98794.57638199048, 43060.56863791569, 37528.22131254927, 0.048, 0.96, 0.092, 192.0, 0.0, 0.0, 0.0, 0.0, 0.0, 0.0, 0.0, 0.0, 0.0, 1.6665557470546107E9, 0.0, 2022-10-23 13:09:07.054
43.0, -74586.78777060364, -106078.40640287477, 65283.432934693454, 19901.92620777204, 76670.99853408319, 97783.47286981021, 41636.91897832382, 36023.27835837345, 0.048, 0.96, 0.092, 192.0, 0.0, 0.0, 0.0, 0.0, 0.0, 0.0, 0.0, 0.0, 0.0, 1.6665557470546205E9, 0.0, 2022-10-23 13:09:07.054
44.0, -74629.92663740237, -106120.31592372847, 65026.186707757326, 20196.18692352616, 76805.13135255949, 97754.63911946287, 41598.11634994941, 36171.22455492312, 0.048, 0.96, 0.092, 192.0, 0.0, 0.0, 0.0, 0.0, 0.0, 0.0, 0.0, 0.0, 0.0, 1.66655574705463E9, 0.0, 2022-10-23 13:09:07.054
45.0, -74673.73605653478, -106159.76675269208, 66706.12146927374, 20578.111181033993, 76923.43913596144, 98568.44378333614, 42736.714212502746, 37437.54028529409, 0.048, 0.96, 0.092, 192.0, 0.0, 0.0, 0.0, 0.0, 0.0, 0.0, 0.0, 0.0, 0.0, 1.666555747054639E9, 0.0, 2022-10-23 13:09:07.054
46.0, -74625.12101234449, -106120.8970690843, 67766.37646751123, 20333.18076529274, 76781.48320692578, 98950.88213096645, 43272.41847186309, 37796.86692915761, 0.052000000000000005, 0.9520000000000001, 0.1, 192.0, 1.0, 160.0, 29.0, 192.0, 3.0, 32.0, 0.0, 0.0, 0.0, 1.6665557470546486E9, 0.0, 2022-10-23 13:09:07.054
47.0, -74569.17459597286, -106069.01867020353, 65568.57413870981, 19901.32271067175, 76664.36006597997, 97906.49687129223, 41803.93121289387, 36177.50539511507, 0.052000000000000005, 0.9520000000000001, 0.1, 192.0, 0.0, 0.0, 0.0, 0.0, 0.0, 0.0, 0.0, 0.0, 0.0, 1.6665557470546584E9, 0.0, 2022-10-23 13:09:07.054
48.0, -74619.73424193075, -106117.544307416, 64979.113933934445, 20154.210347439093, 76782.64549763745, 97729.47105520619, 41549.68011971475, 36086.95847832662, 0.052000000000000005, 0.9520000000000001, 0.1, 192.0, 0.0, 0.0, 0.0, 0.0, 0.0, 0.0, 0.0, 0.0, 0.0, 1.666555747054668E9, 0.0, 2022-10-23 13:09:07.054
49.0, -74656.92754470439, -106153.15063633332, 66264.60746104807, 20512.911142457862, 76893.82307455815, 98365.48994368195, 42450.67893870818, 37145.67120619669, 0.052000000000000005, 0.9520000000000001, 0.1, 192.0, 0.0, 0.0, 0.0, 0.0, 0.0, 0.0, 0.0, 0.0, 0.0, 1.6665557470546873E9, 0.0, 2022-10-23 13:09:07.054
50.0, -74630.79835543613, -106132.07294131196, 67925.36442582184, 20468.967612858727, 76840.91649543244, 99058.0363938852, 43410.97693574154, 37992.69056233056, 0.052000000000000005, 0.9520000000000001, 0.1, 192.0, 0.0, 0.0, 0.0, 0.0, 0.0, 0.0, 0.0, 0.0, 0.0, 1.6665557470546966E9, 0.0, 2022-10-23 13:09:07.054
51.0, -74574.27079370867, -106078.71932729713, 65952.08537007397, 19894.37131814615, 76644.8916965594, 98088.23890545833, 42046.2241227894, 36411.99754619569, 0.052000000000000005, 0.9520000000000001, 0.1, 192.0, 0.0, 0.0, 0.0, 0.0, 0.0, 0.0, 0.0, 0.0, 0.0, 1.666555747054706E9, 0.0, 2022-10-23 13:09:07.054
52.0, -74605.40677373491, -106103.66387410926, 64956.22574761221, 20098.30863455637, 76762.01483750521, 97710.71794160819, 41512.799741363495, 36016.326965847846, 0.052000000000000005, 0.9520000000000001, 0.1, 192.0, 0.0, 0.0, 0.0, 0.0, 0.0, 0.0, 0.0, 0.0, 0.0, 1.6665557470547152E9, 0.0, 2022-10-23 13:09:07.054
53.0, -74641.63895149696, -106140.14192106032, 65897.18948569174, 20438.323371210503, 76879.98734474032, 98216.67202909852, 42222.244110374944, 36893.11884559618, 0.052000000000000005, 0.9520000000000001, 0.1, 192.0, 0.0, 0.0, 0.0, 0.0, 0.0, 0.0, 0.0, 0.0, 0.0, 1.6665557470547245E9, 0.0, 2022-10-23 13:09:07.054
54.0, -74631.49125951425, -106135.17983379125, 67908.04182386897, 20550.43972139832, 76874.71233304887, 99079.06938541764, 43432.14403774071, 38053.263789804434, 0.052000000000000005, 0.9520000000000001, 0.1, 192.0, 0.0, 0.0, 0.0, 0.0, 0.0, 0.0, 0.0, 0.0, 0.0, 1.6665557470547338E9, 0.0, 2022-10-23 13:09:07.054
55.0, -74560.77034005766, -106073.13139118331, 66377.50612229182, 19933.688036643034, 76650.88196407341, 98282.83319268623, 42313.260413796954, 36686.38756112904, 0.052000000000000005, 0.9520000000000001, 0.1, 192.0, 0.0, 0.0, 0.0, 0.0, 0.0, 0.0, 0.0, 0.0, 0.0, 1.6665557470547433E9, 0.0, 2022-10-23 13:09:07.054
56.0, -74584.7537618582, -106088.39763264629, 64990.736841051206, 20049.023038032417, 76741.42888086187, 97718.16107251181, 41508.15057851679, 35972.51754671545, 0.05, 0.9480000000000001, 0.098, 192.0, 1.0, 144.0, 29.0, 160.0, 3.0, 16.0, 0.0, 0.0, 0.0, 1.6665557470547523E9, 0.0, 2022-10-23 13:09:07.054
57.0, -74634.10641361552, -106127.04379880951, 65561.51098746192, 20364.02617264106, 76848.51608854724, 98056.16415216496, 41988.400159883524, 36632.25163605829, 0.05, 0.9480000000000001, 0.098, 192.0, 0.0, 0.0, 0.0, 0.0, 0.0, 0.0, 0.0, 0.0, 0.0, 1.6665557470547624E9, 0.0, 2022-10-23 13:09:07.054
58.0, -74654.20063188084, -106145.68515368523, 67726.90328680316, 20620.065405376605, 76903.47902816285, 99025.84988186955, 43342.29002503038, 37998.45731240002, 0.05, 0.9480000000000001, 0.098, 192.0, 0.0, 0.0, 0.0, 0.0, 0.0, 0.0, 0.0, 0.0, 0.0, 1.6665557470547717E9, 0.0, 2022-10-23 13:09:07.054
59.0, -74583.72558161325, -106082.16149594325, 66817.81313631692, 20008.34286312376, 76658.77212986615, 98493.47603243304, 42601.575565525956, 36996.316849746334, 0.05, 0.9480000000000001, 0.098, 192.0, 0.0, 0.0, 0.0, 0.0, 0.0, 0.0, 0.0, 0.0, 0.0, 1.6665557470547807E9, 0.0, 2022-10-23 13:09:07.054
60.0, -74586.92188107036, -106078.67462380823, 65014.38498668492, 19988.203941369527, 76708.52711302365, 97697.88804029084, 41492.37024693135, 35923.410764147135, 0.05, 0.9480000000000001, 0.098, 192.0, 0.0, 0.0, 0.0, 0.0, 0.0, 0.0, 0.0, 0.0, 0.0, 1.6665557470547903E9, 0.0, 2022-10-23 13:09:07.054
61.0, -74629.43489902436, -106118.3936737053, 65282.71767887088, 20302.15654398877, 76835.50737327426, 97915.52697605216, 41797.113930835, 36414.70210727479, 0.05, 0.9480000000000001, 0.098, 192.0, 0.0, 0.0, 0.0, 0.0, 0.0, 0.0, 0.0, 0.0, 0.0, 1.6665557470547993E9, 0.0, 2022-10-23 13:09:07.054
62.0, -74668.14812042096, -106156.32458404596, 67418.24804761983, 20639.08673990807, 76924.26615050629, 98915.07463634905, 43181.78214809682, 37859.85414503267, 0.05, 0.9480000000000001, 0.098, 192.0, 0.0, 0.0, 0.0, 0.0, 0.0, 0.0, 0.0, 0.0, 0.0, 1.6665557470548089E9, 0.0, 2022-10-23 13:09:07.054
63.0, -74603.99861383422, -106101.2498857081, 67283.69054599888, 20115.87710569824, 76690.17633082585, 98742.4521139207, 42933.566025920634, 37360.315008201, 0.05, 0.9480000000000001, 0.098, 192.0, 0.0, 0.0, 0.0, 0.0, 0.0, 0.0, 0.0, 0.0, 0.0, 1.666555747054818E9, 0.0, 2022-10-23 13:09:07.054
64.0, -74584.23967173573, -106076.0371179625, 65180.79372415468, 19913.21383872197, 76659.6438478999, 97780.075404653, 41586.24757364364, 35974.88683162771, 0.05, 0.9480000000000001, 0.098, 192.0, 0.0, 0.0, 0.0, 0.0, 0.0, 0.0, 0.0, 0.0, 0.0, 1.6665557470548277E9, 0.0, 2022-10-23 13:09:07.054
65.0, -74610.10064007052, -106098.50062114009, 65097.756993503215, 20222.24905756105, 76792.90494834245, 97817.35811440446, 41656.34264425548, 36238.59271271142, 0.05, 0.9480000000000001, 0.098, 192.0, 0.0, 0.0, 0.0, 0.0, 0.0, 0.0, 0.0, 0.0, 0.0, 1.6665557470548453E9, 0.0, 2022-10-23 13:09:07.054
66.0, -74649.66322775642, -106136.63269718084, 66969.46972244617, 20616.444422774843, 76926.23310401835, 98705.77290126955, 42901.64773483846, 37601.91501401842, 0.052000000000000005, 0.9480000000000001, 0.096, 192.0, 1.0, 160.0, 29.0, 160.0, 3.0, 0.0, 0.0, 0.0, 0.0, 1.666555747054855E9, 0.0, 2022-10-23 13:09:07.054
67.0, -74602.16577078888, -106097.56184787296, 67616.4633174495, 20251.127511397306, 76745.87687800848, 98901.12714780893, 43167.96877002344, 37660.320122280136, 0.052000000000000005, 0.9480000000000001, 0.096, 192.0, 0.0, 0.0, 0.0, 0.0, 0.0, 0.0, 0.0, 0.0, 0.0, 1.6665557470548651E9, 0.0, 2022-10-23 13:09:07.054
68.0, -74577.57885188804, -106070.58329231541, 65407.99920654288, 19884.961233730464, 76652.82656584104, 97874.75739416569, 41721.60973806497, 36100.39187674426, 0.052000000000000005, 0.9480000000000001, 0.096, 192.0, 0.0, 0.0, 0.0, 0.0, 0.0, 0.0, 0.0, 0.0, 0.0, 1.6665557470548747E9, 0.0, 2022-10-23 13:09:07.054
69.0, -74608.37955574747, -106100.78049907452, 65014.04971051809, 20165.386219666747, 76781.19263424785, 97781.1259366424, 41590.963791723705, 36146.34706334437, 0.052000000000000005, 0.9480000000000001, 0.096, 192.0, 0.0, 0.0, 0.0, 0.0, 0.0, 0.0, 0.0, 0.0, 0.0, 1.666555747054884E9, 0.0, 2022-10-23 13:09:07.054
70.0, -74649.43971031185, -106137.39265649232, 66533.34248463422, 20547.332828919036, 76912.53148466724, 98520.74516066852, 42630.40931587331, 37327.614406062894, 0.052000000000000005, 0.9480000000000001, 0.096, 192.0, 0.0, 0.0, 0.0, 0.0, 0.0, 0.0, 0.0, 0.0, 0.0, 1.6665557470548947E9, 0.0, 2022-10-23 13:09:07.054
71.0, -74624.24929431074, -106114.28095272553, 67833.11877645478, 20372.36337332289, 76801.55507344665, 99025.78282663618, 43333.23756852598, 37875.74623534039, 0.052000000000000005, 0.9480000000000001, 0.096, 192.0, 0.0, 0.0, 0.0, 0.0, 0.0, 0.0, 0.0, 0.0, 0.0, 1.666555747054904E9, 0.0, 2022-10-23 13:09:07.054
72.0, -74582.6526978794, -106072.46083884966, 65678.99175631902, 19863.280041608818, 76634.83341155451, 97983.65509315195, 41874.585077117095, 36240.06792784547, 0.052000000000000005, 0.9480000000000001, 0.096, 192.0, 0.0, 0.0, 0.0, 0.0, 0.0, 0.0, 0.0, 0.0, 0.0, 1.6665557470549133E9, 0.0, 2022-10-23 13:09:07.054
73.0, -74602.99278533373, -106089.02348149104, 64926.36381701992, 20123.968437191063, 76768.69800909734, 97723.59254641445, 41509.55873841748, 36035.23654165704, 0.052000000000000005, 0.9480000000000001, 0.096, 192.0, 0.0, 0.0, 0.0, 0.0, 0.0, 0.0, 0.0, 0.0, 0.0, 1.6665557470549226E9, 0.0, 2022-10-23 13:09:07.054
74.0, -74648.32212308909, -106133.5034529571, 66093.97424387625, 20492.705165470263, 76903.18845548492, 98323.49101585044, 42354.61114103927, 37044.66367300316, 0.052000000000000005, 0.9480000000000001, 0.096, 192.0, 0.0, 0.0, 0.0, 0.0, 0.0, 0.0, 0.0, 0.0, 0.0, 1.666555747054932E9, 0.0, 2022-10-23 13:09:07.054
75.0, -74640.67782648538, -106131.31298200047, 67937.30025736097, 20495.96852016074, 76855.98157119531, 99110.49593812179, 43445.46567743608, 38042.89258037717, 0.052000000000000005, 0.9500000000000001, 0.092, 192.0, 1.0, 160.0, 29.0, 176.0, 2.0, 224.0, 0.0, 0.0, 0.0, 1.6665557470549412E9, 0.0, 2022-10-23 13:09:07.054
76.0, -74566.04535174911, -106063.11780966734, 66103.4513835253, 19897.85819028118, 76642.74592909169, 98190.83341250819, 42152.39490895211, 36518.8165329476, 0.052000000000000005, 0.9500000000000001, 0.092, 192.0, 0.0, 0.0, 0.0, 0.0, 0.0, 0.0, 0.0, 0.0, 0.0, 1.6665557470549517E9, 0.0, 2022-10-23 13:09:07.054
77.0, -74604.51270395669, -106093.15855421526, 64952.358895821446, 20065.40686671816, 76746.05569196412, 97734.74606689764, 41508.485854683626, 35993.5952417368, 0.052000000000000005, 0.9500000000000001, 0.092, 192.0, 0.0, 0.0, 0.0, 0.0, 0.0, 0.0, 0.0, 0.0, 0.0, 1.6665557470549607E9, 0.0, 2022-10-23 13:09:07.054
78.0, -74647.94214343335, -106129.18956627721, 65737.73214074757, 20397.218513157193, 76859.46844333035, 98166.82763896318, 42121.32598415923, 36777.850899440156, 0.052000000000000005, 0.9500000000000001, 0.092, 192.0, 0.0, 0.0, 0.0, 0.0, 0.0, 0.0, 0.0, 0.0, 0.0, 1.6665557470549705E9, 0.0, 2022-10-23 13:09:07.054
79.0, -74656.41345458191, -106142.39944725031, 67830.34716014232, 20572.478541431254, 76885.70939132088, 99084.1879348979, 43406.528938594936, 38038.7798593974, 0.052000000000000005, 0.9500000000000001, 0.092, 192.0, 0.0, 0.0, 0.0, 0.0, 0.0, 0.0, 0.0, 0.0, 0.0, 1.6665557470549812E9, 0.0, 2022-10-23 13:09:07.054
80.0, -74579.07641876655, -106074.09251619488, 66509.8955047006, 19945.489757715437, 76649.5408594061, 98382.03023457888, 42419.34179298184, 36797.74395200538, 0.052000000000000005, 0.9500000000000001, 0.092, 192.0, 0.0, 0.0, 0.0, 0.0, 0.0, 0.0, 0.0, 0.0, 0.0, 1.6665557470549994E9, 0.0, 2022-10-23 13:09:07.054
81.0, -74600.39998297692, -106088.46468787965, 64938.031427625596, 20001.458525831524, 76714.45032530431, 97711.45554917521, 41478.22159269114, 35934.4301741636, 0.052000000000000005, 0.9500000000000001, 0.092, 192.0, 0.0, 0.0, 0.0, 0.0, 0.0, 0.0, 0.0, 0.0, 0.0, 1.6665557470550098E9, 0.0, 2022-10-23 13:09:07.055
82.0, -74641.8177654526, -106127.75905463209, 65378.025517228314, 20318.339206974415, 76831.05937612765, 97991.2323345223, 41876.9320102849, 36527.98074817428, 0.052000000000000005, 0.9500000000000001, 0.092, 192.0, 0.0, 0.0, 0.0, 0.0, 0.0, 0.0, 0.0, 0.0, 0.0, 1.6665557470550191E9, 0.0, 2022-10-23 13:09:07.055
83.0, -74664.34832386355, -106151.58601422144, 67582.04163098831, 20621.853544933027, 76913.35849921209, 99008.68374212788, 43280.77802428938, 37968.483623085456, 0.052000000000000005, 0.9500000000000001, 0.092, 192.0, 0.0, 0.0, 0.0, 0.0, 0.0, 0.0, 0.0, 0.0, 0.0, 1.6665557470550284E9, 0.0, 2022-10-23 13:09:07.055
84.0, -74585.96075605879, -106084.0390424775, 66952.70591410469, 20040.9317065396, 76667.55636543708, 98601.90434478574, 42712.75314244666, 37141.13380207227, 0.052000000000000005, 0.9500000000000001, 0.092, 192.0, 0.0, 0.0, 0.0, 0.0, 0.0, 0.0, 0.0, 0.0, 0.0, 1.6665557470550375E9, 0.0, 2022-10-23 13:09:07.055
85.0, -74580.70809611179, -106074.38308887281, 65025.69496937931, 19955.883318887154, 76689.79635117011, 97742.30095652354, 41508.888186083816, 35945.31547371334, 0.05, 0.9480000000000001, 0.092, 192.0, 1.0, 144.0, 29.0, 160.0, 2.0, 224.0, 0.0, 0.0, 0.0, 1.6665557470550468E9, 0.0, 2022-10-23 13:09:07.055
86.0, -74617.99080586324, -106109.36356894537, 65141.94639229136, 20257.54246205598, 76805.80190489316, 97873.7515656652, 41705.471778568244, 36336.18042900329, 0.05, 0.9480000000000001, 0.092, 192.0, 0.0, 0.0, 0.0, 0.0, 0.0, 0.0, 0.0, 0.0, 0.0, 1.6665557470550568E9, 0.0, 2022-10-23 13:09:07.055
87.0, -74655.76525399271, -106151.56366247698, 67188.18154194136, 20625.966265912804, 76917.71708938088, 98831.59087080848, 43043.335442940646, 37763.13814677455, 0.05, 0.9480000000000001, 0.092, 192.0, 0.0, 0.0, 0.0, 0.0, 0.0, 0.0, 0.0, 0.0, 0.0, 1.666555747055066E9, 0.0, 2022-10-23 13:09:07.055
88.0, -74601.11523879948, -106105.72023459915, 67377.23259654435, 20165.497978389023, 76711.0081566582, 98818.91743170231, 43014.43463735994, 37492.324410954054, 0.05, 0.9480000000000001, 0.092, 192.0, 0.0, 0.0, 0.0, 0.0, 0.0, 0.0, 0.0, 0.0, 0.0, 1.6665557470550756E9, 0.0, 2022-10-23 13:09:07.055
89.0, -74580.21635773378, -106079.90396975327, 65228.67116077795, 19895.73477455792, 76653.76533910815, 97837.65349836988, 41630.97341429871, 36036.93527423564, 0.05, 0.9480000000000001, 0.092, 192.0, 0.0, 0.0, 0.0, 0.0, 0.0, 0.0, 0.0, 0.0, 0.0, 1.6665557470550847E9, 0.0, 2022-10-23 13:09:07.055
90.0, -74610.88295112645, -106107.88835381132, 65056.04863834962, 20193.974100825086, 76783.85249183804, 97851.3998212099, 41650.50883895264, 36235.575227209956, 0.05, 0.9480000000000001, 0.092, 192.0, 0.0, 0.0, 0.0, 0.0, 0.0, 0.0, 0.0, 0.0, 0.0, 1.6665557470550945E9, 0.0, 2022-10-23 13:09:07.055
91.0, -74647.49510854424, -106143.09235132842, 66802.12221170928, 20583.4085444699, 76915.14663876852, 98686.32688359343, 42822.92489086687, 37525.98613810374, 0.05, 0.9480000000000001, 0.092, 192.0, 0.0, 0.0, 0.0, 0.0, 0.0, 0.0, 0.0, 0.0, 0.0, 1.6665557470551035E9, 0.0, 2022-10-23 13:09:07.055
92.0, -74607.44078248033, -106112.02342653554, 67696.37080387722, 20295.451020652177, 76757.47743338079, 98987.29312268415, 43248.6585675071, 37758.556039161216, 0.05, 0.9480000000000001, 0.092, 192.0, 0.0, 0.0, 0.0, 0.0, 0.0, 0.0, 0.0, 0.0, 0.0, 1.666555747055114E9, 0.0, 2022-10-23 13:09:07.055
93.0, -74564.7042470818, -106065.33063236841, 65457.95535540049, 19882.726059284934, 76639.14729823438, 97921.83016798856, 41759.33948270553, 36132.22076084861, 0.05, 0.9480000000000001, 0.092, 192.0, 0.0, 0.0, 0.0, 0.0, 0.0, 0.0, 0.0, 0.0, 0.0, 1.6665557470551236E9, 0.0, 2022-10-23 13:09:07.055
94.0, -74598.09775329802, -106091.70569082568, 64918.63011343838, 20153.383332894246, 76773.83891032207, 97756.0249276191, 41532.84925613991, 36085.46091144811, 0.05, 0.9480000000000001, 0.092, 192.0, 0.0, 0.0, 0.0, 0.0, 0.0, 0.0, 0.0, 0.0, 0.0, 1.6665557470551329E9, 0.0, 2022-10-23 13:09:07.055
95.0, -74642.39891080844, -106133.41404597927, 66324.82306061067, 20526.25513389768, 76904.44015317442, 98459.00964248295, 42518.89646278578, 37226.71863159163, 0.056, 0.9480000000000001, 0.09, 192.0, 1.0, 192.0, 29.0, 160.0, 2.0, 208.0, 0.0, 0.0, 0.0, 1.666555747055142E9, 0.0, 2022-10-23 13:09:07.055
96.0, -74623.77990767716, -106117.76782486057, 67854.2188232206, 20417.89387677835, 76808.03707933868, 99079.02468192873, 43382.34435109429, 37960.10171891472, 0.056, 0.9480000000000001, 0.09, 192.0, 0.0, 0.0, 0.0, 0.0, 0.0, 0.0, 0.0, 0.0, 0.0, 1.6665557470551605E9, 0.0, 2022-10-23 13:09:07.055
97.0, -74556.7023225668, -106058.20042588716, 65806.41905145872, 19881.31789938425, 76632.03944349759, 98081.15340246599, 41978.78890976774, 36356.498164713164, 0.056, 0.9480000000000001, 0.09, 192.0, 0.0, 0.0, 0.0, 0.0, 0.0, 0.0, 0.0, 0.0, 0.0, 1.66655574705517E9, 0.0, 2022-10-23 13:09:07.055
98.0, -74595.77317187467, -106097.65125485079, 64902.000415563634, 20100.5438090019, 76749.22963967678, 97744.78200015808, 41506.67536338275, 36028.754535765, 0.056, 0.9480000000000001, 0.09, 192.0, 0.0, 0.0, 0.0, 0.0, 0.0, 0.0, 0.0, 0.0, 0.0, 1.66655574705518E9, 0.0, 2022-10-23 13:09:07.055
99.0, -74652.30073360214, -106146.78038916354, 65923.89982031583, 20443.3748654574, 76865.61517305556, 98280.15098335159, 42261.471421894006, 36950.96516024652, 0.056, 0.9480000000000001, 0.09, 192.0, 0.0, 0.0, 0.0, 0.0, 0.0, 0.0, 0.0, 0.0, 0.0, 1.6665557470551891E9, 0.0, 2022-10-23 13:09:07.055
100.0, -74649.05973065612, -106140.85717688288, 67908.5782657359, 20531.91012524487, 76860.00488519727, 99145.40936296099, 43460.03901482094, 38080.264697106446, 0.056, 0.9480000000000001, 0.09, 192.0, 0.0, 0.0, 0.0, 0.0, 0.0, 0.0, 0.0, 0.0, 0.0, 1.6665557470551984E9, 0.0, 2022-10-23 13:09:07.055
101.0, -74579.45639842229, -106079.07695520842, 66247.62013526203, 19906.821239807756, 76621.02003348112, 98294.45609980299, 42266.38880567418, 36636.498467504796, 0.056, 0.9480000000000001, 0.09, 192.0, 0.0, 0.0, 0.0, 0.0, 0.0, 0.0, 0.0, 0.0, 0.0, 1.666555747055208E9, 0.0, 2022-10-23 13:09:07.055
102.0, -74593.33683172904, -106093.65029259329, 64941.11596836043, 20046.00555253095, 76721.7593457412, 97758.327157298, 41512.97855531914, 35983.71577068756, 0.056, 0.9480000000000001, 0.09, 192.0, 0.0, 0.0, 0.0, 0.0, 0.0, 0.0, 0.0, 0.0, 0.0, 1.6665557470552173E9, 0.0, 2022-10-23 13:09:07.055
103.0, -74637.63798923946, -106127.08850229843, 65594.39040355568, 20379.158303637305, 76849.387806581, 98129.07554257817, 42042.021994831804, 36692.556642598705, 0.056, 0.9480000000000001, 0.09, 192.0, 0.0, 0.0, 0.0, 0.0, 0.0, 0.0, 0.0, 0.0, 0.0, 1.6665557470552266E9, 0.0, 2022-10-23 13:09:07.055
104.0, -74659.20742263884, -106144.50051122911, 67786.6494997322, 20616.667940219395, 76901.75794383978, 99117.38027541403, 43413.48033112053, 38055.40955727215, 0.05, 0.9480000000000001, 0.09, 192.0, 1.0, 144.0, 29.0, 160.0, 2.0, 208.0, 0.0, 0.0, 0.0, 1.666555747055236E9, 0.0, 2022-10-23 13:09:07.055
105.0, -74590.0511252941, -106081.51329535405, 66721.20889678109, 19986.684022746565, 76642.6341703694, 98517.75002691151, 42574.12762333484, 36949.64640732365, 0.05, 0.9480000000000001, 0.09, 192.0, 0.0, 0.0, 0.0, 0.0, 0.0, 0.0, 0.0, 0.0, 0.0, 1.666555747055246E9, 0.0, 2022-10-23 13:09:07.055
106.0, -74598.12010504247, -106089.58227510242, 65056.62978370545, 19994.037746672362, 76696.34541229552, 97811.47960561271, 41570.333131591455, 35986.66620095565, 0.05, 0.9480000000000001, 0.09, 192.0, 0.0, 0.0, 0.0, 0.0, 0.0, 0.0, 0.0, 0.0, 0.0, 1.6665557470552552E9, 0.0, 2022-10-23 13:09:07.055
107.0, -74619.3095587861, -106110.68232186823, 65375.47741836041, 20302.760041089063, 76814.65319569745, 98026.45868378386, 41888.57726914612, 36493.15673031291, 0.05, 0.9480000000000001, 0.09, 192.0, 0.0, 0.0, 0.0, 0.0, 0.0, 0.0, 0.0, 0.0, 0.0, 1.6665557470552647E9, 0.0, 2022-10-23 13:09:07.055
108.0, -74661.59905929555, -106148.56852871997, 67540.22151711244, 20638.952629441337, 76913.82788584565, 99023.03356206817, 43276.195916676035, 37934.3525093022, 0.05, 0.9480000000000001, 0.09, 192.0, 0.0, 0.0, 0.0, 0.0, 0.0, 0.0, 0.0, 0.0, 0.0, 1.6665557470552738E9, 0.0, 2022-10-23 13:09:07.055
109.0, -74602.0093085777, -106094.36554841585, 67230.09106279505, 20082.26008203746, 76671.02088582765, 98776.24795153714, 42918.746819346765, 37312.728144255656, 0.05, 0.9480000000000001, 0.09, 192.0, 0.0, 0.0, 0.0, 0.0, 0.0, 0.0, 0.0, 0.0, 0.0, 1.666555747055283E9, 0.0, 2022-10-23 13:09:07.055
110.0, -74589.98407006075, -106080.2392459201, 65209.2921983352, 19930.75995811939, 76662.7954438681, 97869.08005107404, 41638.90828358034, 36005.24050059802, 0.05, 0.9480000000000001, 0.09, 192.0, 0.0, 0.0, 0.0, 0.0, 0.0, 0.0, 0.0, 0.0, 0.0, 1.6665557470552924E9, 0.0, 2022-10-23 13:09:07.055
111.0, -74624.115183844, -106114.41506319227, 65220.11044265157, 20232.10617686584, 76791.51914018621, 97957.54825562815, 41768.70486363231, 36321.09300149596, 0.05, 0.9480000000000001, 0.09, 192.0, 0.0, 0.0, 0.0, 0.0, 0.0, 0.0, 0.0, 0.0, 0.0, 1.66655574705531E9, 0.0, 2022-10-23 13:09:07.055
112.0, -74651.33960859056, -106141.59478444992, 67174.36816386797, 20623.708739722817, 76926.92600809646, 98881.34585396599, 43056.8135448472, 37705.895329224506, 0.05, 0.9480000000000001, 0.09, 192.0, 0.0, 0.0, 0.0, 0.0, 0.0, 0.0, 0.0, 0.0, 0.0, 1.6665557470553195E9, 0.0, 2022-10-23 13:09:07.055
113.0, -74591.61574740599, -106092.97974025963, 67627.72859665497, 20234.922496667208, 76739.43957560534, 98978.9112185134, 43192.533337179826, 37615.10254324705, 0.05, 0.9480000000000001, 0.09, 192.0, 0.0, 0.0, 0.0, 0.0, 0.0, 0.0, 0.0, 0.0, 0.0, 1.666555747055331E9, 0.0, 2022-10-23 13:09:07.055
114.0, -74561.37383715795, -106063.47543757861, 65380.953595751955, 19895.265387924363, 76644.55642039258, 97916.93513595285, 41716.02180195115, 36050.34632090882, 0.046, 0.9500000000000001, 0.094, 192.0, 1.0, 112.0, 29.0, 176.0, 2.0, 240.0, 0.0, 0.0, 0.0, 1.6665557470553403E9, 0.0, 2022-10-23 13:09:07.055
115.0, -74600.46703821028, -106097.02540600604, 65055.19927206031, 20184.94399606514, 76784.5677476606, 97846.05775428508, 41626.99480378566, 36157.50058382757, 0.046, 0.9500000000000001, 0.094, 192.0, 0.0, 0.0, 0.0, 0.0, 0.0, 0.0, 0.0, 0.0, 0.0, 1.6665557470553503E9, 0.0, 2022-10-23 13:09:07.055
116.0, -74645.59521026554, -106138.64435418182, 66693.2468644675, 20572.746762364717, 76917.13594402504, 98645.37848775131, 42746.03488994061, 37413.3780495379, 0.046, 0.9500000000000001, 0.094, 192.0, 0.0, 0.0, 0.0, 0.0, 0.0, 0.0, 0.0, 0.0, 0.0, 1.66655574705536E9, 0.0, 2022-10-23 13:09:07.055
117.0, -74613.85573313902, -106110.74937710159, 67852.65420110873, 20354.16905333627, 76783.15958775993, 99082.84683023058, 43354.784650180896, 37851.69575830648, 0.046, 0.9500000000000001, 0.094, 192.0, 0.0, 0.0, 0.0, 0.0, 0.0, 0.0, 0.0, 0.0, 0.0, 1.6665557470553696E9, 0.0, 2022-10-23 13:09:07.055
118.0, -74572.86263380798, -106067.61051030285, 65671.36981145976, 19883.553073829782, 76637.11328948895, 98044.89887295949, 41893.09232152609, 36228.914407362274, 0.046, 0.9500000000000001, 0.094, 192.0, 0.0, 0.0, 0.0, 0.0, 0.0, 0.0, 0.0, 0.0, 0.0, 1.666555747055379E9, 0.0, 2022-10-23 13:09:07.055
119.0, -74609.43008773687, -106097.51714438405, 65006.27130344765, 20129.779890749443, 76755.97986650227, 97825.40474240837, 41585.19704165424, 36086.869071348796, 0.046, 0.9500000000000001, 0.094, 192.0, 0.0, 0.0, 0.0, 0.0, 0.0, 0.0, 0.0, 0.0, 0.0, 1.6665557470553885E9, 0.0, 2022-10-23 13:09:07.055
120.0, -74649.6185242675, -106134.48692971312, 66237.65125723496, 20485.2843863111, 76876.88045226103, 98437.14963640567, 42456.17746784419, 37117.619766905285, 0.046, 0.9500000000000001, 0.094, 192.0, 0.0, 0.0, 0.0, 0.0, 0.0, 0.0, 0.0, 0.0, 0.0, 1.6665557470553975E9, 0.0, 2022-10-23 13:09:07.055
121.0, -74617.32025352959, -106107.37426368883, 67966.4469321307, 20457.14354004187, 76822.61041672355, 99160.58619744614, 43461.60363693281, 38016.69633587555, 0.046, 0.9500000000000001, 0.094, 192.0, 0.0, 0.0, 0.0, 0.0, 0.0, 0.0, 0.0, 0.0, 0.0, 1.666555747533692E9, 0.0, 2022-10-23 13:09:07.533
122.0, -74552.32138065355, -106049.9302804387, 66050.34363869949, 19875.327631870226, 76613.68866129979, 98218.05783725475, 42127.606824351176, 36465.32880846606, 0.046, 0.9500000000000001, 0.094, 192.0, 0.0, 0.0, 0.0, 0.0, 0.0, 0.0, 0.0, 0.0, 0.0, 1.6665557475338109E9, 0.0, 2022-10-23 13:09:07.533
123.0, -74604.19977953432, -106108.60360963388, 64985.059497959555, 20070.771285387433, 76733.91869472488, 97802.24833515268, 41543.622796967364, 36015.477599558544, 0.046, 0.9500000000000001, 0.094, 192.0, 0.0, 0.0, 0.0, 0.0, 0.0, 0.0, 0.0, 0.0, 0.0, 1.666555747533834E9, 0.0, 2022-10-23 13:09:07.533
124.0, -74654.51355630321, -106159.92321490326, 65857.00104916109, 20420.486679135167, 76864.87756548852, 98267.23167505642, 42208.20721485701, 36856.082005033735, 0.048, 0.9540000000000001, 0.094, 192.0, 1.0, 128.0, 29.0, 208.0, 2.0, 240.0, 0.0, 0.0, 0.0, 1.6665557475338523E9, 0.0, 2022-10-23 13:09:07.533
125.0, -74666.4717395868, -106172.88722668735, 67942.77643475252, 20568.701096618308, 76881.12728370754, 99189.53170651576, 43488.00104713453, 38090.72531351153, 0.048, 0.9540000000000001, 0.094, 192.0, 0.0, 0.0, 0.0, 0.0, 0.0, 0.0, 0.0, 0.0, 0.0, 1.66655574753387E9, 0.0, 2022-10-23 13:09:07.533
126.0, -74608.17839004737, -106118.52778417204, 66454.01614356234, 19928.27891448485, 76625.9374172613, 98398.74933943145, 42386.35061816581, 36738.13184954308, 0.048, 0.9540000000000001, 0.094, 192.0, 0.0, 0.0, 0.0, 0.0, 0.0, 0.0, 0.0, 0.0, 0.0, 1.6665557475338852E9, 0.0, 2022-10-23 13:09:07.533
127.0, -74633.86054442651, -106145.70750542969, 64986.64647181588, 20020.323398151802, 76707.56598801208, 97780.52243954211, 41519.01352632207, 35958.05596805286, 0.048, 0.9540000000000001, 0.094, 192.0, 0.0, 0.0, 0.0, 0.0, 0.0, 0.0, 0.0, 0.0, 0.0, 1.6665557475340786E9, 0.0, 2022-10-23 13:09:07.534
128.0, -74676.55237633614, -106191.6179885409, 65527.60339112323, 20339.014570595573, 76828.37716679301, 98108.91426907948, 41983.371017381076, 36607.754124135274, 0.048, 0.9540000000000001, 0.094, 192.0, 0.0, 0.0, 0.0, 0.0, 0.0, 0.0, 0.0, 0.0, 0.0, 1.6665557475340953E9, 0.0, 2022-10-23 13:09:07.534
129.0, -74704.71557434983, -106222.12811972239, 67748.49507194699, 20623.999312400738, 76906.87649332006, 99126.81271157417, 43388.73695000851, 38033.14721979466, 0.048, 0.9540000000000001, 0.094, 192.0, 0.0, 0.0, 0.0, 0.0, 0.0, 0.0, 0.0, 0.0, 0.0, 1.6665557475341108E9, 0.0, 2022-10-23 13:09:07.534
130.0, -74624.98690187775, -106149.44024675373, 66949.08493150293, 20021.083357463285, 76657.40867345437, 98649.15593256426, 42716.284718070594, 37094.41865616068, 0.048, 0.9540000000000001, 0.094, 192.0, 0.0, 0.0, 0.0, 0.0, 0.0, 0.0, 0.0, 0.0, 0.0, 1.6665557475341263E9, 0.0, 2022-10-23 13:09:07.534
131.0, -74640.27549508518, -106163.16421784929, 65095.96885394679, 19956.956202621008, 76670.48444396073, 97825.7400185752, 41564.99106466664, 35966.37081699024, 0.048, 0.9540000000000001, 0.094, 192.0, 0.0, 0.0, 0.0, 0.0, 0.0, 0.0, 0.0, 0.0, 0.0, 1.6665557475341418E9, 0.0, 2022-10-23 13:09:07.534
132.0, -74689.1811119534, -106208.42650037128, 65290.8090103637, 20252.40156083126, 76781.46085518133, 97992.19345953387, 41809.98853564126, 36400.39699082339, 0.048, 0.9540000000000001, 0.094, 192.0, 0.0, 0.0, 0.0, 0.0, 0.0, 0.0, 0.0, 0.0, 0.0, 1.6665557475341573E9, 0.0, 2022-10-23 13:09:07.534
133.0, -74717.67958613392, -106237.17084374081, 67387.22382631587, 20611.12470759448, 76896.37117342606, 98967.40007011892, 43169.309874690756, 37835.66955753202, 0.046, 0.9540000000000001, 0.08600000000000001, 192.0, 1.0, 112.0, 29.0, 208.0, 2.0, 176.0, 0.0, 0.0, 0.0, 1.666555747534172E9, 0.0, 2022-10-23 13:09:07.534
134.0, -74658.872146472, -106180.75504073562, 67380.8535791461, 20114.379538819736, 76676.0500283301, 98862.07865024552, 43009.58430881314, 37426.07384038852, 0.046, 0.9540000000000001, 0.08600000000000001, 192.0, 0.0, 0.0, 0.0, 0.0, 0.0, 0.0, 0.0, 0.0, 0.0, 1.666555747534196E9, 0.0, 2022-10-23 13:09:07.534
135.0, -74640.09668112954, -106153.08358109994, 65269.01605951978, 19893.857228023677, 76637.87324880043, 97904.86519394699, 41658.17548730082, 36021.75843975049, 0.046, 0.9540000000000001, 0.08600000000000001, 192.0, 0.0, 0.0, 0.0, 0.0, 0.0, 0.0, 0.0, 0.0, 0.0, 1.6665557475342112E9, 0.0, 2022-10-23 13:09:07.534
136.0, -74671.74675127826, -106185.29244486004, 65142.013447524725, 20197.125696793282, 76770.06146550912, 97925.89818547943, 41697.46985405324, 36253.098994862914, 0.046, 0.9540000000000001, 0.08600000000000001, 192.0, 0.0, 0.0, 0.0, 0.0, 0.0, 0.0, 0.0, 0.0, 0.0, 1.6665557475342264E9, 0.0, 2022-10-23 13:09:07.534
137.0, -74715.26559773274, -106229.39243667036, 66988.98279535565, 20587.320099749577, 76901.57912988415, 98812.86010895492, 42930.05680204115, 37600.79742679565, 0.046, 0.9540000000000001, 0.08600000000000001, 192.0, 0.0, 0.0, 0.0, 0.0, 0.0, 0.0, 0.0, 0.0, 0.0, 1.666555747534242E9, 0.0, 2022-10-23 13:09:07.534
138.0, -74666.06940818661, -106185.9629971937, 67732.58062989482, 20250.859290463843, 76725.82736323206, 99057.76817295172, 43259.4097565901, 37721.27332940976, 0.046, 0.9540000000000001, 0.08600000000000001, 192.0, 0.0, 0.0, 0.0, 0.0, 0.0, 0.0, 0.0, 0.0, 0.0, 1.666555747534257E9, 0.0, 2022-10-23 13:09:07.534
139.0, -74630.2172100803, -106147.49564498612, 65482.13994290113, 19866.878672466122, 76616.86260901245, 97992.37227348951, 41771.16355552239, 36110.53956872697, 0.046, 0.9540000000000001, 0.08600000000000001, 192.0, 0.0, 0.0, 0.0, 0.0, 0.0, 0.0, 0.0, 0.0, 0.0, 1.666555747534272E9, 0.0, 2022-10-23 13:09:07.534
140.0, -74662.76135000722, -106175.50238078862, 65049.56663245757, 20154.098588716817, 76753.45411937883, 97881.88760064694, 41617.56236762552, 36135.90879868374, 0.046, 0.9540000000000001, 0.08600000000000001, 192.0, 0.0, 0.0, 0.0, 0.0, 0.0, 0.0, 0.0, 0.0, 0.0, 1.6665557475342891E9, 0.0, 2022-10-23 13:09:07.534
141.0, -74700.11111499205, -106213.72386380719, 66543.82545278376, 20534.458224112775, 76882.93777500842, 98615.60596413685, 42647.30723468152, 37313.219882633675, 0.046, 0.9540000000000001, 0.08600000000000001, 192.0, 0.0, 0.0, 0.0, 0.0, 0.0, 0.0, 0.0, 0.0, 0.0, 1.6665557475343056E9, 0.0, 2022-10-23 13:09:07.534
142.0, -74667.7234372763, -106188.04170942804, 67931.35469333586, 20385.215626384692, 76779.60566039153, 99158.909816612, 43406.26071766147, 37929.77040168887, 0.046, 0.9540000000000001, 0.08600000000000001, 192.0, 0.0, 0.0, 0.0, 0.0, 0.0, 0.0, 0.0, 0.0, 0.0, 1.666555747534346E9, 0.0, 2022-10-23 13:09:07.534
143.0, -74614.41452675039, -106137.99615359261, 65809.81651661593, 19861.335439841205, 76609.330071131, 98127.19799604392, 41961.53336304824, 36301.825797775484, 0.048, 0.9540000000000001, 0.08600000000000001, 192.0, 1.0, 128.0, 29.0, 208.0, 2.0, 176.0, 0.0, 0.0, 0.0, 1.666555747534361E9, 0.0, 2022-10-23 13:09:07.534
144.0, -74647.45040505534, -106164.21474983869, 65019.90586756538, 20102.421355536146, 76736.42209010388, 97854.01497531116, 41572.724768248176, 36064.83025131586, 0.048, 0.9540000000000001, 0.08600000000000001, 192.0, 0.0, 0.0, 0.0, 0.0, 0.0, 0.0, 0.0, 0.0, 0.0, 1.666555747534374E9, 0.0, 2022-10-23 13:09:07.534
145.0, -74688.01882124173, -106200.6704450453, 66151.10530270402, 20465.681906423797, 76861.63656254251, 98445.12920917622, 42397.794711326926, 37050.13985039471, 0.048, 0.9540000000000001, 0.08600000000000001, 192.0, 0.0, 0.0, 0.0, 0.0, 0.0, 0.0, 0.0, 0.0, 0.0, 1.6665557475343845E9, 0.0, 2022-10-23 13:09:07.534
146.0, -74692.82444629961, -106204.20202066923, 68022.9074386248, 20496.728479472218, 76821.5822364786, 99237.90088151704, 43503.22258510859, 38069.9381911681, 0.048, 0.9540000000000001, 0.08600000000000001, 192.0, 0.0, 0.0, 0.0, 0.0, 0.0, 0.0, 0.0, 0.0, 0.0, 1.6665557475343952E9, 0.0, 2022-10-23 13:09:07.534
147.0, -74629.8148786801, -106142.1535780613, 66210.06920457711, 19881.60847206217, 76595.91902445782, 98307.93420170953, 42209.816540457796, 36545.79508850516, 0.048, 0.9540000000000001, 0.08600000000000001, 192.0, 0.0, 0.0, 0.0, 0.0, 0.0, 0.0, 0.0, 0.0, 0.0, 1.6665557475344057E9, 0.0, 2022-10-23 13:09:07.534
148.0, -74651.58547777958, -106160.72787770366, 65014.80966982957, 20065.004535317963, 76721.7593457412, 97838.1899402368, 41539.9571108767, 35996.27745107144, 0.048, 0.9540000000000001, 0.08600000000000001, 192.0, 0.0, 0.0, 0.0, 0.0, 0.0, 0.0, 0.0, 0.0, 0.0, 1.6665557475344164E9, 0.0, 2022-10-23 13:09:07.534
149.0, -74695.55135912316, -106206.23602941466, 65739.34146634836, 20382.242844372136, 76832.44518428388, 98233.10056127317, 42107.06557119675, 36743.719785656904, 0.048, 0.9540000000000001, 0.08600000000000001, 192.0, 0.0, 0.0, 0.0, 0.0, 0.0, 0.0, 0.0, 0.0, 0.0, 1.666555747534427E9, 0.0, 2022-10-23 13:09:07.534
150.0, -74714.30447272117, -106226.44200640226, 67899.77167842051, 20572.970279809273, 76865.03402769972, 99199.14295663155, 43445.89036058073, 38064.037330631894, 0.048, 0.9540000000000001, 0.08600000000000001, 192.0, 0.0, 0.0, 0.0, 0.0, 0.0, 0.0, 0.0, 0.0, 0.0, 1.6665557475344372E9, 0.0, 2022-10-23 13:09:07.534
151.0, -74636.07336712758, -106153.17298807777, 66664.70368679806, 19938.51601344538, 76614.15804793335, 98525.01434385948, 42502.91496550023, 36860.284132991335, 0.048, 0.9540000000000001, 0.08600000000000001, 192.0, 0.0, 0.0, 0.0, 0.0, 0.0, 0.0, 0.0, 0.0, 0.0, 1.666555747534448E9, 0.0, 2022-10-23 13:09:07.534
152.0, -74650.0655591566, -106166.18170335075, 65070.26434782319, 19980.85021744373, 76681.03446734363, 97850.3492892205, 41550.060099370494, 35964.56032568936, 0.048, 0.9540000000000001, 0.08600000000000001, 192.0, 0.0, 0.0, 0.0, 0.0, 0.0, 0.0, 0.0, 0.0, 0.0, 1.6665557475344586E9, 0.0, 2022-10-23 13:09:07.534
153.0, -74678.72049554832, -106194.85899148691, 65452.00979137538, 20294.691061340698, 76797.5317594447, 98093.84919331661, 41908.04563856669, 36509.69702120984, 0.04, 0.966, 0.08600000000000001, 192.0, 1.0, 64.0, 30.0, 48.0, 2.0, 176.0, 0.0, 0.0, 0.0, 1.6665557475344691E9, 0.0, 2022-10-23 13:09:07.534
154.0, -74710.01293778574, -106227.15726222483, 67630.07552982277, 20614.142193095948, 76896.7511530818, 99090.78169951221, 43296.58070761928, 37945.37191931867, 0.04, 0.966, 0.08600000000000001, 192.0, 0.0, 0.0, 0.0, 0.0, 0.0, 0.0, 0.0, 0.0, 0.0, 1.6665557475344808E9, 0.0, 2022-10-23 13:09:07.534
155.0, -74647.27159109969, -106169.7132789747, 67139.00770413967, 20046.899622309164, 76659.28621998861, 98766.30142525453, 42832.87141714948, 37215.140427963786, 0.04, 0.966, 0.08600000000000001, 192.0, 0.0, 0.0, 0.0, 0.0, 0.0, 0.0, 0.0, 0.0, 0.0, 1.6665557475344915E9, 0.0, 2022-10-23 13:09:07.534
156.0, -74638.84498344004, -106156.7045637017, 65174.28936651819, 19929.955295318996, 76657.05104554309, 97885.97796988225, 41602.09496046245, 35978.21724155155, 0.04, 0.966, 0.08600000000000001, 192.0, 0.0, 0.0, 0.0, 0.0, 0.0, 0.0, 0.0, 0.0, 0.0, 1.6665557475345037E9, 0.0, 2022-10-23 13:09:07.534
157.0, -74679.03341997068, -106194.4119565978, 65262.3552396721, 20237.33648506838, 76785.86414883901, 98009.56076497564, 41785.669837673886, 36354.128879800905, 0.04, 0.966, 0.08600000000000001, 192.0, 0.0, 0.0, 0.0, 0.0, 0.0, 0.0, 0.0, 0.0, 0.0, 1.6665557475345144E9, 0.0, 2022-10-23 13:09:07.534
158.0, -74723.35692922556, -106239.4283699308, 67287.33388034509, 20597.22192254328, 76892.21374895737, 98960.53808457113, 43109.69777222846, 37766.69207414294, 0.04, 0.966, 0.08600000000000001, 192.0, 0.0, 0.0, 0.0, 0.0, 0.0, 0.0, 0.0, 0.0, 0.0, 1.666555747534536E9, 0.0, 2022-10-23 13:09:07.534
159.0, -74664.9741727083, -106196.15539266531, 67544.37894158113, 20159.217138197084, 76690.1539790814, 98962.75090727222, 43113.25169959685, 37537.49728649823, 0.04, 0.966, 0.08600000000000001, 192.0, 0.0, 0.0, 0.0, 0.0, 0.0, 0.0, 0.0, 0.0, 0.0, 1.6665557475345469E9, 0.0, 2022-10-23 13:09:07.534
160.0, -74644.92465793189, -106174.89888368832, 65365.46383684443, 19887.151704687083, 76636.17451622183, 97960.96807252981, 41705.4941303127, 36052.84971628782, 0.04, 0.966, 0.08600000000000001, 192.0, 0.0, 0.0, 0.0, 0.0, 0.0, 0.0, 0.0, 0.0, 0.0, 1.666555747534557E9, 0.0, 2022-10-23 13:09:07.534
161.0, -74681.6262223275, -106199.77637526709, 65136.53727013317, 20182.395897197235, 76763.93708752836, 97939.42099087489, 41682.78475794611, 36211.1447705203, 0.04, 0.966, 0.08600000000000001, 192.0, 0.0, 0.0, 0.0, 0.0, 0.0, 0.0, 0.0, 0.0, 0.0, 1.6665557475345676E9, 0.0, 2022-10-23 13:09:07.534
162.0, -74727.4920019498, -106241.7305996097, 66833.41465394672, 20566.197701239314, 76889.1962634559, 98748.17416050126, 42820.734419910244, 37478.756902069676, 0.04, 0.966, 0.08600000000000001, 192.0, 0.0, 0.0, 0.0, 0.0, 0.0, 0.0, 0.0, 0.0, 0.0, 1.6665557475345955E9, 0.0, 2022-10-23 13:09:07.534
163.0, -74692.5338736217, -106224.34094242347, 67841.18775620314, 20302.11184049986, 76748.82730827658, 99117.22381320284, 43329.10249580175, 37801.02435362629, 0.048, 0.9580000000000001, 0.092, 192.0, 1.0, 128.0, 29.0, 240.0, 2.0, 224.0, 0.0, 0.0, 0.0, 1.6665557475346076E9, 0.0, 2022-10-23 13:09:07.534
164.0, -74645.30463758763, -106171.8143429535, 65630.60022957328, 19859.077913651217, 76619.34365264699, 98069.73166104933, 41857.888324008985, 36180.94756376118, 0.048, 0.9580000000000001, 0.092, 192.0, 0.0, 0.0, 0.0, 0.0, 0.0, 0.0, 0.0, 0.0, 0.0, 1.6665557475346193E9, 0.0, 2022-10-23 13:09:07.534
165.0, -74686.09657121856, -106205.40901486982, 65076.05344963711, 20137.200669908605, 76761.120767727, 97909.04497016013, 41629.65466137584, 36123.45887702214, 0.048, 0.9580000000000001, 0.092, 192.0, 0.0, 0.0, 0.0, 0.0, 0.0, 0.0, 0.0, 0.0, 0.0, 1.66655574753463E9, 0.0, 2022-10-23 13:09:07.534
166.0, -74739.45018523338, -106250.06780029152, 66434.65953286404, 20508.463145311256, 76878.13214995053, 98589.61088533532, 42584.789405440024, 37226.539817635996, 0.048, 0.9580000000000001, 0.092, 192.0, 0.0, 0.0, 0.0, 0.0, 0.0, 0.0, 0.0, 0.0, 0.0, 1.666555747534641E9, 0.0, 2022-10-23 13:09:07.534
167.0, -74711.19758024187, -106233.9745442837, 68022.52745896905, 20439.28449622208, 76805.35487000404, 99232.96114599242, 43488.515137256996, 38002.3688676797, 0.048, 0.9580000000000001, 0.092, 192.0, 0.0, 0.0, 0.0, 0.0, 0.0, 0.0, 0.0, 0.0, 0.0, 1.6665557475346515E9, 0.0, 2022-10-23 13:09:07.534
168.0, -74659.00625693874, -106185.38185183787, 65968.31273654851, 19866.16341664355, 76606.67021354083, 98207.50781387184, 42067.01124513284, 36378.08994985699, 0.048, 0.9580000000000001, 0.092, 192.0, 0.0, 0.0, 0.0, 0.0, 0.0, 0.0, 0.0, 0.0, 0.0, 1.6665557475346625E9, 0.0, 2022-10-23 13:09:07.534
169.0, -74712.06929827563, -106235.15918673984, 64987.24996891618, 20079.376707002724, 76723.39102308644, 97824.77889356362, 41540.337090532434, 36003.20649185259, 0.048, 0.9580000000000001, 0.092, 192.0, 0.0, 0.0, 0.0, 0.0, 0.0, 0.0, 0.0, 0.0, 0.0, 1.6665557475346732E9, 0.0, 2022-10-23 13:09:07.534
170.0, -74771.99432516031, -106289.04924262158, 65977.49930351965, 20429.18150772828, 76846.75030073528, 98354.85051332123, 42284.15844251614, 36918.75629648642, 0.048, 0.9580000000000001, 0.092, 192.0, 0.0, 0.0, 0.0, 0.0, 0.0, 0.0, 0.0, 0.0, 0.0, 1.6665557475346835E9, 0.0, 2022-10-23 13:09:07.534
171.0, -74785.22655787785, -106304.31548408455, 67986.38468818483, 20516.688587270808, 76828.26540807074, 99221.78527376476, 43494.4159977932, 38068.55238301187, 0.048, 0.9580000000000001, 0.092, 192.0, 0.0, 0.0, 0.0, 0.0, 0.0, 0.0, 0.0, 0.0, 0.0, 1.666555747534694E9, 0.0, 2022-10-23 13:09:07.534
172.0, -74724.45216470386, -106250.26896599162, 66366.37495355308, 19884.64830930809, 76586.64305050886, 98375.19060077556, 42317.93192838811, 36641.035871629225, 0.048, 0.962, 0.094, 192.0, 1.0, 128.0, 30.0, 16.0, 2.0, 240.0, 0.0, 0.0, 0.0, 1.6665557475347047E9, 0.0, 2022-10-23 13:09:07.534
173.0, -74756.3928075305, -106286.81406817604, 65008.282960448625, 20015.45071786055, 76685.57187146806, 97819.92856501682, 41536.96197711968, 35958.234782008505, 0.048, 0.962, 0.094, 192.0, 0.0, 0.0, 0.0, 0.0, 0.0, 0.0, 0.0, 0.0, 0.0, 1.6665557475347283E9, 0.0, 2022-10-23 13:09:07.534
174.0, -74812.09335471313, -106339.58653683502, 65611.31067410835, 20343.551974719998, 76809.84757063957, 98167.74406048586, 42037.73045989638, 36645.662682731476, 0.048, 0.962, 0.094, 192.0, 0.0, 0.0, 0.0, 0.0, 0.0, 0.0, 0.0, 0.0, 0.0, 1.6665557475347395E9, 0.0, 2022-10-23 13:09:07.534
175.0, -74854.9192970895, -106382.65834840041, 67781.73211595204, 20585.710774148796, 76864.92226897745, 99136.31220296767, 43393.363761110755, 38009.07439101629, 0.048, 0.962, 0.094, 192.0, 0.0, 0.0, 0.0, 0.0, 0.0, 0.0, 0.0, 0.0, 0.0, 1.6665557475347505E9, 0.0, 2022-10-23 13:09:07.534
176.0, -74790.3004038692, -106330.98111521974, 66796.62368257329, 19966.813321925798, 76613.75571653315, 98570.70130952614, 42606.872928961864, 36957.447166138554, 0.048, 0.962, 0.094, 192.0, 0.0, 0.0, 0.0, 0.0, 0.0, 0.0, 0.0, 0.0, 0.0, 1.6665557475347612E9, 0.0, 2022-10-23 13:09:07.534
177.0, -74810.59578783462, -106350.40478115139, 65053.47818773725, 19955.23511829795, 76664.76239738017, 97814.45238762526, 41546.305006302005, 35935.32424394182, 0.048, 0.962, 0.094, 192.0, 0.0, 0.0, 0.0, 0.0, 0.0, 0.0, 0.0, 0.0, 0.0, 1.666555747534773E9, 0.0, 2022-10-23 13:09:07.534
178.0, -74866.56455595071, -106400.3162265201, 65303.03541458076, 20250.680476508198, 76772.36369518802, 97991.12057580001, 41822.147884624945, 36401.62633676843, 0.048, 0.962, 0.094, 192.0, 0.0, 0.0, 0.0, 0.0, 0.0, 0.0, 0.0, 0.0, 0.0, 1.666555747534784E9, 0.0, 2022-10-23 13:09:07.534
179.0, -74908.45172505996, -106446.65139277595, 67450.59102184666, 20614.142193095948, 76889.62094660055, 98987.33782617305, 43212.381686256136, 37855.94258975299, 0.048, 0.962, 0.094, 192.0, 0.0, 0.0, 0.0, 0.0, 0.0, 0.0, 0.0, 0.0, 0.0, 1.6665557475347948E9, 0.0, 2022-10-23 13:09:07.534
180.0, -74864.30702976073, -106410.91095339191, 67233.44382446335, 20079.086134324807, 76651.597219896, 98777.09731782644, 42916.48929315678, 37303.60863251789, 0.048, 0.962, 0.094, 192.0, 0.0, 0.0, 0.0, 0.0, 0.0, 0.0, 0.0, 0.0, 0.0, 1.6665557475348058E9, 0.0, 2022-10-23 13:09:07.534
181.0, -74861.40130298154, -106406.73117717876, 65171.51775020573, 19902.306187427785, 76634.98987376569, 97845.67777462934, 41611.61680360041, 35966.86255536825, 0.048, 0.962, 0.094, 192.0, 0.0, 0.0, 0.0, 0.0, 0.0, 0.0, 0.0, 0.0, 0.0, 1.6665557475348165E9, 0.0, 2022-10-23 13:09:07.534
182.0, -74905.14366688057, -106452.37343935651, 65135.55379337714, 20197.215103771105, 76752.78356704516, 97908.53088003765, 41715.08302868403, 36258.93280016575, 0.044, 0.9520000000000001, 0.084, 192.0, 1.0, 96.0, 29.0, 192.0, 2.0, 160.0, 0.0, 0.0, 0.0, 1.6665557475348275E9, 0.0, 2022-10-23 13:09:07.534
183.0, -74958.40787391757, -106509.68331213991, 67054.11577869843, 20576.59126241103, 76869.7949492687, 98815.63172526739, 42985.66794224596, 37630.50289517676, 0.044, 0.9520000000000001, 0.084, 192.0, 0.0, 0.0, 0.0, 0.0, 0.0, 0.0, 0.0, 0.0, 0.0, 1.666555747534839E9, 0.0, 2022-10-23 13:09:07.534
184.0, -74911.55861753925, -106474.72518381181, 67597.75490734041, 20190.196656012136, 76675.37947599644, 98950.4574478218, 43179.05523527327, 37601.311516918126, 0.044, 0.9520000000000001, 0.084, 192.0, 0.0, 0.0, 0.0, 0.0, 0.0, 0.0, 0.0, 0.0, 0.0, 1.66655574753485E9, 0.0, 2022-10-23 13:09:07.534
185.0, -74884.51300674833, -106448.93127071038, 65359.428865841495, 19838.916640152533, 76585.1231318859, 97897.91380142138, 41710.724438515244, 36029.76036426549, 0.044, 0.9520000000000001, 0.084, 192.0, 0.0, 0.0, 0.0, 0.0, 0.0, 0.0, 0.0, 0.0, 0.0, 1.6665557475348608E9, 0.0, 2022-10-23 13:09:07.534
186.0, -74921.46044033294, -106479.66491933644, 65021.47048967725, 20126.471832570056, 76722.0052149302, 97836.67002161384, 41624.91609155132, 36123.5259322555, 0.044, 0.9520000000000001, 0.084, 192.0, 0.0, 0.0, 0.0, 0.0, 0.0, 0.0, 0.0, 0.0, 0.0, 1.666555747534871E9, 0.0, 2022-10-23 13:09:07.534
187.0, -74975.9986968039, -106536.21483280836, 66607.01383435892, 20511.257113368167, 76853.09819616059, 98612.49907165756, 42711.70261045726, 37347.127478972376, 0.044, 0.9520000000000001, 0.084, 192.0, 0.0, 0.0, 0.0, 0.0, 0.0, 0.0, 0.0, 0.0, 0.0, 1.666555747534882E9, 0.0, 2022-10-23 13:09:07.534
188.0, -74949.84715579118, -106519.33926574461, 67855.67168661019, 20310.471392926145, 76728.75544175571, 99090.62523730102, 43380.779728982416, 37850.91344725054, 0.044, 0.9520000000000001, 0.084, 192.0, 0.0, 0.0, 0.0, 0.0, 0.0, 0.0, 0.0, 0.0, 0.0, 1.6665557475348926E9, 0.0, 2022-10-23 13:09:07.534
189.0, -74897.81229469924, -106466.85736976354, 65662.0491340219, 19807.937122337476, 76564.09014035347, 98024.6928959719, 41896.64624889449, 36196.86200581336, 0.044, 0.9520000000000001, 0.084, 192.0, 0.0, 0.0, 0.0, 0.0, 0.0, 0.0, 0.0, 0.0, 0.0, 1.6665557475349145E9, 0.0, 2022-10-23 13:09:07.534
190.0, -74928.05420494726, -106497.99334978979, 64956.896299945874, 20071.039506320896, 76706.6048630005, 97787.96557044573, 41565.61691351139, 36028.910997976185, 0.044, 0.9520000000000001, 0.084, 192.0, 0.0, 0.0, 0.0, 0.0, 0.0, 0.0, 0.0, 0.0, 0.0, 1.6665557475349252E9, 0.0, 2022-10-23 13:09:07.534
191.0, -74962.85587106418, -106530.2916205277, 66182.91183506392, 20439.351551455446, 76839.93301867641, 98415.71431347303, 42446.00742411702, 37066.14369942471, 0.044, 0.9520000000000001, 0.084, 192.0, 0.0, 0.0, 0.0, 0.0, 0.0, 0.0, 0.0, 0.0, 0.0, 1.6665557475349357E9, 0.0, 2022-10-23 13:09:07.534
192.0, -74944.21451618845, -106519.18280353342, 67972.10192347788, 20435.32823745349, 76790.20038726335, 99171.91853188498, 43497.70170422813, 38011.555434650836, 0.04, 0.9520000000000001, 0.08, 192.0, 1.0, 64.0, 29.0, 192.0, 2.0, 128.0, 0.0, 0.0, 0.0, 1.666555747534946E9, 0.0, 2022-10-23 13:09:07.534
193.0, -74874.90175663255, -106459.32483188211, 66079.73618265822, 19837.150852340565, 76573.0755416245, 98224.29397395779, 42172.69029291753, 36459.338540952034, 0.04, 0.9520000000000001, 0.08, 192.0, 0.0, 0.0, 0.0, 0.0, 0.0, 0.0, 0.0, 0.0, 0.0, 1.6665557475349572E9, 0.0, 2022-10-23 13:09:07.534
194.0, -74901.14270462307, -106480.11195422555, 64962.126608148414, 20021.686854563577, 76686.82356915755, 97783.00348317665, 41554.485744772646, 35972.40578799317, 0.04, 0.9520000000000001, 0.08, 192.0, 0.0, 0.0, 0.0, 0.0, 0.0, 0.0, 0.0, 0.0, 0.0, 1.666555747534968E9, 0.0, 2022-10-23 13:09:07.534
195.0, -74935.81026027325, -106516.05355930967, 65812.25285676157, 20361.232204584147, 76812.35096601855, 98247.45038121348, 42209.12363637968, 36800.09088517319, 0.04, 0.9520000000000001, 0.08, 192.0, 0.0, 0.0, 0.0, 0.0, 0.0, 0.0, 0.0, 0.0, 0.0, 1.6665557475349789E9, 0.0, 2022-10-23 13:09:07.534
196.0, -74943.25339117687, -106533.17499556244, 67932.96401893665, 20523.97525596324, 76833.49571627328, 99191.09632862764, 43513.07970441338, 38062.45035677557, 0.04, 0.9520000000000001, 0.08, 192.0, 0.0, 0.0, 0.0, 0.0, 0.0, 0.0, 0.0, 0.0, 0.0, 1.666555747534989E9, 0.0, 2022-10-23 13:09:07.534
197.0, -74858.13794829106, -106450.4288375889, 66534.86240325718, 19890.348004144194, 76584.18435861879, 98445.93387197661, 42471.91309594073, 36758.85191665315, 0.04, 0.9520000000000001, 0.08, 192.0, 0.0, 0.0, 0.0, 0.0, 0.0, 0.0, 0.0, 0.0, 0.0, 1.6665557475349996E9, 0.0, 2022-10-23 13:09:07.534
198.0, -74855.92512558999, -106441.95752644034, 65014.54144889611, 19976.022240641385, 76670.23857477172, 97800.03551245159, 41567.71797749019, 35930.98800551749, 0.04, 0.9520000000000001, 0.08, 192.0, 0.0, 0.0, 0.0, 0.0, 0.0, 0.0, 0.0, 0.0, 0.0, 1.6665557475350115E9, 0.0, 2022-10-23 13:09:07.535
199.0, -74887.82106492772, -106470.2771866652, 65493.74049827344, 20295.227503207625, 76797.01766932222, 98093.84919331661, 41990.09889246213, 36538.79899249065, 0.04, 0.9520000000000001, 0.08, 192.0, 0.0, 0.0, 0.0, 0.0, 0.0, 0.0, 0.0, 0.0, 0.0, 1.6665557475350223E9, 0.0, 2022-10-23 13:09:07.535
200.0, -74903.66845174652, -106489.47733515232, 67694.80618176535, 20582.69328864733, 76877.17102493894, 99094.51444083625, 43379.50567954846, 37959.6099805367, 0.04, 0.9520000000000001, 0.08, 192.0, 0.0, 0.0, 0.0, 0.0, 0.0, 0.0, 0.0, 0.0, 0.0, 1.6665557475350325E9, 0.0, 2022-10-23 13:09:07.535
201.0, -74821.72695657337, -106416.18596508336, 66981.31614700748, 19985.924063435086, 76620.52829510311, 98648.79830465297, 42758.663625557856, 37080.851147276306, 0.036000000000000004, 0.9540000000000001, 0.076, 192.0, 1.0, 32.0, 29.0, 208.0, 2.0, 96.0, 0.0, 0.0, 0.0, 1.6665557475350432E9, 0.0, 2022-10-23 13:09:07.535
202.0, -74809.74642154532, -106402.70786317681, 65118.3205984021, 19921.394577192616, 76649.07147277254, 97834.50190240168, 41607.124102964895, 35945.650749880166, 0.036000000000000004, 0.9540000000000001, 0.076, 192.0, 0.0, 0.0, 0.0, 0.0, 0.0, 0.0, 0.0, 0.0, 0.0, 1.6665557475350547E9, 0.0, 2022-10-23 13:09:07.535
203.0, -74835.58503813566, -106427.11596812202, 65301.5154959578, 20233.559040255434, 76783.6736778824, 98007.72792193032, 41851.18280067239, 36380.10160685797, 0.036000000000000004, 0.9540000000000001, 0.076, 192.0, 0.0, 0.0, 0.0, 0.0, 0.0, 0.0, 0.0, 0.0, 0.0, 1.6665557475350652E9, 0.0, 2022-10-23 13:09:07.535
204.0, -74860.6189919256, -106457.8272650036, 67392.67765196296, 20592.461000974297, 76889.30802217819, 98986.93549477286, 43211.040581588815, 37814.323641577204, 0.036000000000000004, 0.9540000000000001, 0.076, 192.0, 0.0, 0.0, 0.0, 0.0, 0.0, 0.0, 0.0, 0.0, 0.0, 1.6665557475350883E9, 0.0, 2022-10-23 13:09:07.535
205.0, -74786.79117998973, -106385.25115075722, 67462.23628070788, 20109.37274806175, 76669.00922882668, 98904.5916681995, 43093.40335052054, 37450.75016626718, 0.036000000000000004, 0.9540000000000001, 0.076, 192.0, 0.0, 0.0, 0.0, 0.0, 0.0, 0.0, 0.0, 0.0, 0.0, 1.6665557475350995E9, 0.0, 2022-10-23 13:09:07.535
206.0, -74762.96422040036, -106356.79738006562, 65299.30267325672, 19874.858245236665, 76629.75956556316, 97904.19464161333, 41698.833310465016, 35999.6972679731, 0.036000000000000004, 0.9540000000000001, 0.076, 192.0, 0.0, 0.0, 0.0, 0.0, 0.0, 0.0, 0.0, 0.0, 0.0, 1.6665557475351107E9, 0.0, 2022-10-23 13:09:07.535
207.0, -74801.72214528586, -106387.84395311403, 65153.32343021911, 20181.881807074762, 76767.44631140785, 97921.91957496639, 41730.21515968027, 36223.88526485983, 0.036000000000000004, 0.9540000000000001, 0.076, 192.0, 0.0, 0.0, 0.0, 0.0, 0.0, 0.0, 0.0, 0.0, 0.0, 1.6665557475351217E9, 0.0, 2022-10-23 13:09:07.535
208.0, -74844.05634928422, -106427.63005824448, 66952.39298968232, 20558.754570335695, 76885.48587387633, 98781.3217975285, 42930.74970611927, 37545.99094939124, 0.036000000000000004, 0.9540000000000001, 0.076, 192.0, 0.0, 0.0, 0.0, 0.0, 0.0, 0.0, 0.0, 0.0, 0.0, 1.6665557475351324E9, 0.0, 2022-10-23 13:09:07.535
209.0, -74785.74064800033, -106377.45039194232, 67775.54068273792, 20242.72325548211, 76722.8098777306, 99053.52134150521, 43308.94122230306, 37725.94484400092, 0.036000000000000004, 0.9540000000000001, 0.076, 192.0, 0.0, 0.0, 0.0, 0.0, 0.0, 0.0, 0.0, 0.0, 0.0, 1.6665557475351431E9, 0.0, 2022-10-23 13:09:07.535
210.0, -74733.21404853035, -106323.00154244919, 65560.0804758168, 19852.0371141478, 76619.50011485817, 98015.70749470085, 41850.75811752774, 36136.82522020641, 0.036000000000000004, 0.9540000000000001, 0.076, 192.0, 0.0, 0.0, 0.0, 0.0, 0.0, 0.0, 0.0, 0.0, 0.0, 1.666555747535154E9, 0.0, 2022-10-23 13:09:07.535
211.0, -74754.02352261824, -106340.16768219086, 65107.971740719295, 20141.447501355113, 76760.69608458235, 97907.77092072618, 41693.804167962575, 36149.72217675712, 0.042, 0.9580000000000001, 0.076, 192.0, 1.0, 80.0, 29.0, 240.0, 2.0, 96.0, 0.0, 0.0, 0.0, 1.6665557475351653E9, 0.0, 2022-10-23 13:09:07.535
212.0, -74791.57445330315, -106373.94116806284, 66565.12666524967, 20514.900447714383, 76877.08161796113, 98631.31924048893, 42704.482996998195, 37299.76413247158, 0.042, 0.9580000000000001, 0.076, 192.0, 0.0, 0.0, 0.0, 0.0, 0.0, 0.0, 0.0, 0.0, 0.0, 1.6665557475351768E9, 0.0, 2022-10-23 13:09:07.535
213.0, -74776.88935719602, -106368.12971450445, 68039.02304637707, 20379.85120771542, 76768.83211956407, 99221.69586678695, 43522.780361506986, 37968.93065797456, 0.042, 0.9580000000000001, 0.076, 192.0, 0.0, 0.0, 0.0, 0.0, 0.0, 0.0, 0.0, 0.0, 0.0, 1.6665557475351877E9, 0.0, 2022-10-23 13:09:07.535
214.0, -74703.66504236043, -106296.00063514718, 65965.4740650027, 19852.662962992545, 76602.42338209432, 98218.39311342158, 42107.870233997135, 36353.011292578136, 0.042, 0.9580000000000001, 0.076, 192.0, 0.0, 0.0, 0.0, 0.0, 0.0, 0.0, 0.0, 0.0, 0.0, 1.6665557475351992E9, 0.0, 2022-10-23 13:09:07.535
215.0, -74721.81465885814, -106302.6391032504, 65088.99510967673, 20074.459323222556, 76724.4639068203, 97884.68156870385, 41646.86550460643, 36044.37840513926, 0.042, 0.9580000000000001, 0.076, 192.0, 0.0, 0.0, 0.0, 0.0, 0.0, 0.0, 0.0, 0.0, 0.0, 1.6665557475352104E9, 0.0, 2022-10-23 13:09:07.535
216.0, -74755.83401391913, -106328.52242332965, 66149.27245965868, 20439.016275288617, 76863.15648116547, 98429.6841537576, 42417.68776389215, 36986.97382056401, 0.042, 0.9580000000000001, 0.076, 192.0, 0.0, 0.0, 0.0, 0.0, 0.0, 0.0, 0.0, 0.0, 0.0, 1.666555747535224E9, 0.0, 2022-10-23 13:09:07.535
217.0, -74750.80487141668, -106325.68375178383, 68096.24351218266, 20504.95392143177, 76845.47625130133, 99268.6345301431, 43579.35262672337, 38076.73312148251, 0.042, 0.9580000000000001, 0.076, 192.0, 0.0, 0.0, 0.0, 0.0, 0.0, 0.0, 0.0, 0.0, 0.0, 1.666555747535235E9, 0.0, 2022-10-23 13:09:07.535
218.0, -74678.60873682603, -106263.97058534273, 66373.77338096779, 19881.541416828804, 76611.83346651, 98388.71340617102, 42347.70445200258, 36606.88240610152, 0.042, 0.9580000000000001, 0.076, 192.0, 0.0, 0.0, 0.0, 0.0, 0.0, 0.0, 0.0, 0.0, 0.0, 1.666555747535246E9, 0.0, 2022-10-23 13:09:07.535
219.0, -74697.3842021685, -106275.92876862631, 65104.97660696228, 20026.29131392137, 76710.89639793593, 97870.26469353017, 41620.93748103827, 35989.9966108795, 0.042, 0.9580000000000001, 0.076, 192.0, 0.0, 0.0, 0.0, 0.0, 0.0, 0.0, 0.0, 0.0, 0.0, 1.666555747535257E9, 0.0, 2022-10-23 13:09:07.535
220.0, -74737.95261835487, -106311.78096673262, 65796.65133913176, 20363.80265519651, 76833.04868138417, 98254.66999467254, 42169.58340043824, 36723.379698202574, 0.042, 0.9580000000000001, 0.076, 192.0, 0.0, 0.0, 0.0, 0.0, 0.0, 0.0, 0.0, 0.0, 0.0, 1.6665557475352848E9, 0.0, 2022-10-23 13:09:07.535
221.0, -74751.96716212835, -106329.61765880795, 67971.85605428887, 20589.376460239466, 76885.66468783196, 99228.75901803482, 43518.55588180493, 38064.64082773219, 0.046, 0.9580000000000001, 0.082, 192.0, 1.0, 112.0, 29.0, 240.0, 2.0, 144.0, 0.0, 0.0, 0.0, 1.666555747535296E9, 0.0, 2022-10-23 13:09:07.535
222.0, -74687.95176600835, -106271.12314356842, 66849.39615123227, 19958.319659032783, 76635.66042609936, 98619.78574034998, 42653.9680545292, 36931.429735592574, 0.046, 0.9580000000000001, 0.082, 192.0, 0.0, 0.0, 0.0, 0.0, 0.0, 0.0, 0.0, 0.0, 0.0, 1.666555747535308E9, 0.0, 2022-10-23 13:09:07.535
223.0, -74697.16068472395, -106271.70428892426, 65186.64988120197, 19972.04363012834, 76676.51941496365, 97901.22185960077, 41644.451516205256, 35971.377607748225, 0.046, 0.9580000000000001, 0.082, 192.0, 0.0, 0.0, 0.0, 0.0, 0.0, 0.0, 0.0, 0.0, 0.0, 1.6665557475353184E9, 0.0, 2022-10-23 13:09:07.535
224.0, -74735.38216774251, -106304.44959455129, 65543.36137096422, 20287.11381997035, 76799.34225074557, 98141.10078109513, 41987.95312499441, 36503.79616067364, 0.046, 0.9580000000000001, 0.082, 192.0, 0.0, 0.0, 0.0, 0.0, 0.0, 0.0, 0.0, 0.0, 0.0, 1.6665557475353296E9, 0.0, 2022-10-23 13:09:07.535
225.0, -74757.35393254209, -106322.55450756008, 67730.01017928246, 20615.2150768298, 76895.00771701429, 99148.06922055117, 43383.68545576161, 37946.98124491945, 0.046, 0.9580000000000001, 0.082, 192.0, 0.0, 0.0, 0.0, 0.0, 0.0, 0.0, 0.0, 0.0, 0.0, 1.66655574753534E9, 0.0, 2022-10-23 13:09:07.535
226.0, -74683.34730665055, -106257.93561433979, 67307.22693291031, 20054.655677635157, 76653.89944957489, 98837.64819355585, 42947.424107482926, 37250.81381211446, 0.046, 0.9580000000000001, 0.082, 192.0, 0.0, 0.0, 0.0, 0.0, 0.0, 0.0, 0.0, 0.0, 0.0, 1.666555747535352E9, 0.0, 2022-10-23 13:09:07.535
227.0, -74674.51836759072, -106251.94534682577, 65299.19091453445, 19916.588952134724, 76648.22210648324, 97933.69894429433, 41680.504880011664, 35970.036503080904, 0.046, 0.9580000000000001, 0.082, 192.0, 0.0, 0.0, 0.0, 0.0, 0.0, 0.0, 0.0, 0.0, 0.0, 1.6665557475353627E9, 0.0, 2022-10-23 13:09:07.535
228.0, -74716.71846112233, -106289.5856844885, 65331.98092365038, 20209.48621147707, 76761.03136074917, 98023.10592211556, 41819.97976541278, 36301.15524544183, 0.046, 0.9580000000000001, 0.082, 192.0, 0.0, 0.0, 0.0, 0.0, 0.0, 0.0, 0.0, 0.0, 0.0, 1.6665557475353737E9, 0.0, 2022-10-23 13:09:07.535
229.0, -74751.43072026143, -106319.00058019169, 67316.7934795372, 20598.78654465515, 76895.56651062566, 98955.37483160196, 43121.6783072565, 37705.336535613125, 0.046, 0.9580000000000001, 0.082, 192.0, 0.0, 0.0, 0.0, 0.0, 0.0, 0.0, 0.0, 0.0, 0.0, 1.6665557475353844E9, 0.0, 2022-10-23 13:09:07.535
230.0, -74697.56301612414, -106272.08426858, 67713.6263505967, 20182.865283830797, 76707.36482231198, 99042.3231175331, 43227.6032242302, 37577.70807477332, 0.046, 0.9580000000000001, 0.082, 192.0, 0.0, 0.0, 0.0, 0.0, 0.0, 0.0, 0.0, 0.0, 0.0, 1.666555747535395E9, 0.0, 2022-10-23 13:09:07.535
231.0, -74667.09758843156, -106242.26704147662, 65518.17095496309, 19865.828140476722, 76625.44567888328, 98027.79978845117, 41801.20430007033, 36057.297713434426, 0.042, 0.9580000000000001, 0.084, 192.0, 1.0, 80.0, 29.0, 240.0, 2.0, 160.0, 0.0, 0.0, 0.0, 1.6665557475354059E9, 0.0, 2022-10-23 13:09:07.535
232.0, -74692.82444629961, -106265.87048362143, 65201.290273820196, 20143.03447521144, 76744.87104950799, 97944.5171886107, 41707.215214635755, 36153.67843552571, 0.042, 0.9580000000000001, 0.084, 192.0, 0.0, 0.0, 0.0, 0.0, 0.0, 0.0, 0.0, 0.0, 0.0, 1.6665557475354176E9, 0.0, 2022-10-23 13:09:07.535
233.0, -74741.61830444555, -106311.73626324371, 66857.82275889191, 20541.34256140501, 76882.08840871912, 98738.31704119648, 42823.23781528924, 37410.517026247624, 0.042, 0.9580000000000001, 0.084, 192.0, 0.0, 0.0, 0.0, 0.0, 0.0, 0.0, 0.0, 0.0, 0.0, 1.6665557475354283E9, 0.0, 2022-10-23 13:09:07.535
234.0, -74704.87203656102, -106279.28153029461, 67970.20202519918, 20301.508343399568, 76746.2121541753, 99161.7037846689, 43404.204357171584, 37812.69196423197, 0.042, 0.9580000000000001, 0.084, 192.0, 0.0, 0.0, 0.0, 0.0, 0.0, 0.0, 0.0, 0.0, 0.0, 1.6665557475354393E9, 0.0, 2022-10-23 13:09:07.535
235.0, -74645.59521026554, -106226.44200640226, 65768.53284460698, 19840.950648897964, 76607.94426297478, 98112.73641738134, 41933.05724061218, 36189.46357839866, 0.042, 0.9580000000000001, 0.084, 192.0, 0.0, 0.0, 0.0, 0.0, 0.0, 0.0, 0.0, 0.0, 0.0, 1.66655574753547E9, 0.0, 2022-10-23 13:09:07.535
236.0, -74681.89444326097, -106254.71696313823, 65133.09510148706, 20105.528248015435, 76738.05376744912, 97900.59601075602, 41640.38349871439, 36073.48037642007, 0.042, 0.9580000000000001, 0.084, 192.0, 0.0, 0.0, 0.0, 0.0, 0.0, 0.0, 0.0, 0.0, 0.0, 1.6665557475354812E9, 0.0, 2022-10-23 13:09:07.535
237.0, -74727.91668509445, -106291.2844170671, 66462.57686168872, 20487.072525867527, 76875.00290572678, 98582.21245792061, 42584.27531531755, 37172.80622396544, 0.042, 0.9580000000000001, 0.084, 192.0, 0.0, 0.0, 0.0, 0.0, 0.0, 0.0, 0.0, 0.0, 0.0, 1.6665557475354924E9, 0.0, 2022-10-23 13:09:07.535
238.0, -74703.84385631607, -106267.92684411131, 68129.99464631017, 20426.164022226814, 76803.23145428079, 99270.73559412188, 43541.46641987162, 38014.751734107944, 0.042, 0.9580000000000001, 0.084, 192.0, 0.0, 0.0, 0.0, 0.0, 0.0, 0.0, 0.0, 0.0, 0.0, 1.666555747535503E9, 0.0, 2022-10-23 13:09:07.535
239.0, -74641.28132358567, -106212.24864867314, 66138.58832580905, 19855.144006627084, 76605.08323968449, 98281.82736418574, 42160.62035091166, 36421.83231375603, 0.042, 0.9580000000000001, 0.084, 192.0, 0.0, 0.0, 0.0, 0.0, 0.0, 0.0, 0.0, 0.0, 0.0, 1.666555747535514E9, 0.0, 2022-10-23 13:09:07.535
240.0, -74671.79145476717, -106244.4798641777, 65138.90655504544, 20057.024962547417, 76718.25012186171, 97906.78744397014, 41628.06768751951, 36021.154942650195, 0.042, 0.96, 0.088, 192.0, 1.0, 80.0, 30.0, 0.0, 2.0, 192.0, 0.0, 0.0, 0.0, 1.6665557475355256E9, 0.0, 2022-10-23 13:09:07.535
241.0, -74697.96534752432, -106265.02111733213, 66042.16290022885, 20403.298187649034, 76842.36935882203, 98378.94569384406, 42302.084541569304, 36871.616467430176, 0.042, 0.96, 0.088, 192.0, 0.0, 0.0, 0.0, 0.0, 0.0, 0.0, 0.0, 0.0, 0.0, 1.6665557480126703E9, 0.0, 2022-10-23 13:09:08.012
242.0, -74703.95561503836, -106270.60905344595, 68098.25516918364, 20530.5466688331, 76852.3382368491, 99282.7831843833, 43553.111678732836, 38071.27929583541, 0.042, 0.96, 0.088, 192.0, 0.0, 0.0, 0.0, 0.0, 0.0, 0.0, 0.0, 0.0, 0.0, 1.6665557480127573E9, 0.0, 2022-10-23 13:09:08.012
243.0, -74637.77209970618, -106207.08539570397, 66552.98966801044, 19887.531684342826, 76599.18237914829, 98472.51009613396, 42422.180464527664, 36689.11447395259, 0.042, 0.96, 0.088, 192.0, 0.0, 0.0, 0.0, 0.0, 0.0, 0.0, 0.0, 0.0, 0.0, 1.6665557480127842E9, 0.0, 2022-10-23 13:09:08.012
244.0, -74647.87508819999, -106220.76466331062, 65135.79966256615, 20003.313720621314, 76691.02569711515, 97881.35115878, 41591.67904754628, 35956.96073257455, 0.042, 0.96, 0.088, 192.0, 0.0, 0.0, 0.0, 0.0, 0.0, 0.0, 0.0, 0.0, 0.0, 1.6665557480128198E9, 0.0, 2022-10-23 13:09:08.012
245.0, -74682.63205082799, -106252.01240205913, 65690.77112564696, 20325.044730311005, 76807.36652700503, 98206.77020630482, 42058.83050666219, 36614.83962712761, 0.042, 0.96, 0.088, 192.0, 0.0, 0.0, 0.0, 0.0, 0.0, 0.0, 0.0, 0.0, 0.0, 1.6665557480128853E9, 0.0, 2022-10-23 13:09:08.012
246.0, -74707.24132147328, -106273.9841668587, 67882.53848344547, 20585.017870070682, 76870.30903939117, 99196.32663683017, 43435.56385464238, 38006.28042295938, 0.042, 0.96, 0.088, 192.0, 0.0, 0.0, 0.0, 0.0, 0.0, 0.0, 0.0, 0.0, 0.0, 1.6665557480128956E9, 0.0, 2022-10-23 13:09:08.012
247.0, -74639.64964624043, -106214.39441614086, 66984.13246680885, 19956.28565028735, 76601.93164371629, 98668.66900547374, 42698.42567425081, 37002.77650389392, 0.042, 0.96, 0.088, 192.0, 0.0, 0.0, 0.0, 0.0, 0.0, 0.0, 0.0, 0.0, 0.0, 1.6665557480129056E9, 0.0, 2022-10-23 13:09:08.012
248.0, -74632.63119848147, -106203.4197096133, 65170.824846127616, 19931.072882541765, 76650.72550186224, 97870.77878365264, 41580.43612008526, 35923.96955775852, 0.042, 0.96, 0.088, 192.0, 0.0, 0.0, 0.0, 0.0, 0.0, 0.0, 0.0, 0.0, 0.0, 1.6665557480129156E9, 0.0, 2022-10-23 13:09:08.012
249.0, -74669.26570764372, -106238.86957631941, 65425.72413989594, 20244.176118871703, 76784.79126510516, 98080.21462919888, 41873.37808291651, 36406.16374089286, 0.042, 0.96, 0.088, 192.0, 0.0, 0.0, 0.0, 0.0, 0.0, 0.0, 0.0, 0.0, 0.0, 1.6665557480129256E9, 0.0, 2022-10-23 13:09:08.012
250.0, -74700.49109464778, -106275.19116105928, 67519.92613314702, 20588.21416952779, 76881.70842906338, 99042.54663497767, 43219.93657588203, 37822.83965621467, 0.046, 0.9560000000000001, 0.09, 192.0, 1.0, 112.0, 29.0, 224.0, 2.0, 208.0, 0.0, 0.0, 0.0, 1.6665557480129356E9, 0.0, 2022-10-23 13:09:08.012
251.0, -74634.39698629343, -106210.818137028, 67390.97891938436, 20080.874273881233, 76660.20264151128, 98867.19719972578, 42974.73793920731, 37333.068231709985, 0.046, 0.9560000000000001, 0.09, 192.0, 0.0, 0.0, 0.0, 0.0, 0.0, 0.0, 0.0, 0.0, 0.0, 1.666555748012999E9, 0.0, 2022-10-23 13:09:08.012
252.0, -74630.08309961356, -106194.1660874088, 65297.06749881119, 19885.31886164175, 76639.16964997884, 97916.13047315246, 41639.93646382528, 35962.59337217729, 0.046, 0.9560000000000001, 0.09, 192.0, 0.0, 0.0, 0.0, 0.0, 0.0, 0.0, 0.0, 0.0, 0.0, 1.666555748013009E9, 0.0, 2022-10-23 13:09:08.013
253.0, -74675.30067864666, -106234.13100649489, 65242.86451850707, 20185.726307121076, 76766.79811081864, 97981.1740495174, 41733.63497658193, 36248.47218376067, 0.046, 0.9560000000000001, 0.09, 192.0, 0.0, 0.0, 0.0, 0.0, 0.0, 0.0, 0.0, 0.0, 0.0, 1.6665557480130188E9, 0.0, 2022-10-23 13:09:08.013
254.0, -74705.94492029487, -106271.19019880179, 67125.59665746649, 20568.142303006924, 76889.57624311165, 98878.61894114244, 42983.99156141181, 37612.82266531261, 0.046, 0.9560000000000001, 0.09, 192.0, 0.0, 0.0, 0.0, 0.0, 0.0, 0.0, 0.0, 0.0, 0.0, 1.6665557480130286E9, 0.0, 2022-10-23 13:09:08.013
255.0, -74648.54564053364, -106224.18448021228, 67804.32972959634, 20216.549362724945, 76717.1101828945, 99095.47556584782, 43272.75374802992, 37687.790416215714, 0.046, 0.9560000000000001, 0.09, 192.0, 0.0, 0.0, 0.0, 0.0, 0.0, 0.0, 0.0, 0.0, 0.0, 1.6665557480130384E9, 0.0, 2022-10-23 13:09:08.013
0.0, -74624.13753558845, -106194.85899148691, 65570.76460966642, 19844.526928010815, 76610.67117579833, 98049.23511138382, 41804.71352394981, 36102.15766455623, 0.046, 0.9560000000000001, 0.09, 192.0, 0.0, 0.0, 0.0, 0.0, 0.0, 0.0, 0.0, 0.0, 0.0, 1.666555748013048E9, 0.0, 2022-10-23 13:09:08.013
1.0, -74657.53104180469, -106226.46435814672, 65154.08338953059, 20129.578725049345, 76732.77875575767, 97937.38698212946, 41657.21436228924, 36135.595874261366, 0.046, 0.9560000000000001, 0.09, 192.0, 0.0, 0.0, 0.0, 0.0, 0.0, 0.0, 0.0, 0.0, 0.0, 1.6665557480130577E9, 0.0, 2022-10-23 13:09:08.013
2.0, -74685.31426016263, -106254.44874220477, 66673.2867566689, 20523.10353792948, 76875.98638248282, 98675.70980497716, 42698.38097076189, 37321.110048426395, 0.046, 0.9560000000000001, 0.09, 192.0, 0.0, 0.0, 0.0, 0.0, 0.0, 0.0, 0.0, 0.0, 0.0, 1.666555748013067E9, 0.0, 2022-10-23 13:09:08.013
3.0, -74661.19672789535, -106226.3749511689, 67967.56451935346, 20352.55972773549, 76765.41230266241, 99161.77083990227, 43391.620325043245, 37865.26326719085, 0.046, 0.9560000000000001, 0.09, 192.0, 0.0, 0.0, 0.0, 0.0, 0.0, 0.0, 0.0, 0.0, 0.0, 1.6665557480130847E9, 0.0, 2022-10-23 13:09:08.013
4.0, -74627.53500074566, -106191.95326470773, 65795.71256586464, 19835.29565755077, 76592.99094593417, 98102.2087457429, 41916.807522393174, 36217.738535134624, 0.05, 0.9520000000000001, 0.09, 192.0, 1.0, 144.0, 29.0, 192.0, 2.0, 208.0, 0.0, 0.0, 0.0, 1.6665557480130928E9, 0.0, 2022-10-23 13:09:08.013
5.0, -74658.82744298309, -106219.82589004349, 65039.933030597334, 20089.83732340781, 76730.09654642302, 97844.9401670623, 41552.250570327116, 36014.31530884687, 0.05, 0.9520000000000001, 0.09, 192.0, 0.0, 0.0, 0.0, 0.0, 0.0, 0.0, 0.0, 0.0, 0.0, 1.6665557480131018E9, 0.0, 2022-10-23 13:09:08.013
6.0, -74692.75739106625, -106252.57119567052, 66177.3238989501, 20449.029856804595, 76854.93103920591, 98420.56464201983, 42371.53141159194, 37005.14578880618, 0.05, 0.9520000000000001, 0.09, 192.0, 0.0, 0.0, 0.0, 0.0, 0.0, 0.0, 0.0, 0.0, 0.0, 1.66655574801311E9, 0.0, 2022-10-23 13:09:08.013
7.0, -74697.60771961305, -106258.56146318454, 68011.17277278577, 20469.794627403575, 76820.71051844484, 99199.23236360936, 43456.26157000799, 38006.97332703749, 0.05, 0.9520000000000001, 0.09, 192.0, 0.0, 0.0, 0.0, 0.0, 0.0, 0.0, 0.0, 0.0, 0.0, 1.6665557480131185E9, 0.0, 2022-10-23 13:09:08.013
8.0, -74640.56606776311, -106200.22341015619, 66209.08572782109, 19868.778570744824, 76608.30189088605, 98308.44829183201, 42195.198499584025, 36514.83792243456, 0.05, 0.9520000000000001, 0.09, 192.0, 0.0, 0.0, 0.0, 0.0, 0.0, 0.0, 0.0, 0.0, 0.0, 1.6665557480131264E9, 0.0, 2022-10-23 13:09:08.013
9.0, -74663.18603315187, -106213.76856729611, 65046.05740857809, 20034.96379077003, 76709.64470024643, 97845.61071939596, 41543.37692777836, 35985.97329687754, 0.05, 0.9520000000000001, 0.09, 192.0, 0.0, 0.0, 0.0, 0.0, 0.0, 0.0, 0.0, 0.0, 0.0, 1.6665557480131347E9, 0.0, 2022-10-23 13:09:08.013
10.0, -74699.0829347471, -106248.14555026837, 65831.07302559294, 20381.572292038476, 76839.57539076512, 98279.23456182893, 42154.58537990873, 36774.52048951632, 0.05, 0.9520000000000001, 0.09, 192.0, 0.0, 0.0, 0.0, 0.0, 0.0, 0.0, 0.0, 0.0, 0.0, 1.6665557480131516E9, 0.0, 2022-10-23 13:09:08.013
11.0, -74709.27533021872, -106260.7295823967, 67952.09711219039, 20558.50870114669, 76859.4460915859, 99212.79987249374, 43454.31696824038, 38051.40859501465, 0.05, 0.9520000000000001, 0.09, 192.0, 0.0, 0.0, 0.0, 0.0, 0.0, 0.0, 0.0, 0.0, 0.0, 1.66655574801316E9, 0.0, 2022-10-23 13:09:08.013
12.0, -74639.31437007361, -106198.30116013304, 66624.80582294535, 19918.37709169115, 76601.39520184937, 98487.95515155258, 42450.18720033016, 36794.0335624258, 0.05, 0.9520000000000001, 0.09, 192.0, 0.0, 0.0, 0.0, 0.0, 0.0, 0.0, 0.0, 0.0, 0.0, 1.6665557480131683E9, 0.0, 2022-10-23 13:09:08.013
13.0, -74655.89936445944, -106212.13688995087, 65074.1088478695, 19975.888130174655, 76670.95383059428, 97837.72055360324, 41531.53050321704, 35945.60604639126, 0.042, 0.9580000000000001, 0.092, 192.0, 1.0, 80.0, 29.0, 240.0, 2.0, 224.0, 0.0, 0.0, 0.0, 1.6665557480131764E9, 0.0, 2022-10-23 13:09:08.013
14.0, -74684.15196945095, -106240.9259368093, 65520.16026021961, 20294.91457878525, 76794.4248669654, 98122.97351634188, 41936.27589181375, 36538.486068068276, 0.042, 0.9580000000000001, 0.092, 192.0, 0.0, 0.0, 0.0, 0.0, 0.0, 0.0, 0.0, 0.0, 0.0, 1.6665557480131853E9, 0.0, 2022-10-23 13:09:08.013
15.0, -74713.74567910978, -106266.87631212191, 67715.79446980888, 20604.195666813335, 76883.27305117525, 99130.59015638712, 43333.48343771499, 37970.785852764355, 0.042, 0.9580000000000001, 0.092, 192.0, 0.0, 0.0, 0.0, 0.0, 0.0, 0.0, 0.0, 0.0, 0.0, 1.6665557480131934E9, 0.0, 2022-10-23 13:09:08.013
16.0, -74642.35420731953, -106200.75985202311, 67121.6403986979, 20027.006569743942, 76639.19200172329, 98749.33645121295, 42794.62758238645, 37166.88301168478, 0.042, 0.9580000000000001, 0.092, 192.0, 0.0, 0.0, 0.0, 0.0, 0.0, 0.0, 0.0, 0.0, 0.0, 1.6665557480132017E9, 0.0, 2022-10-23 13:09:08.013
