%OpenBCI Raw EEG Data
%Number of channels = 8
%Sample Rate = 250 Hz
%Board = OpenBCI_GUI$BoardCytonSerial
Sample Index, EXG Channel 0, EXG Channel 1, EXG Channel 2, EXG Channel 3, EXG Channel 4, EXG Channel 5, EXG Channel 6, EXG Channel 7, Accel Channel 0, Accel Channel 1, Accel Channel 2, Other, Other, Other, Other, Other, Other, Other, Analog Channel 0, Analog Channel 1, Analog Channel 2, Timestamp, Other, Timestamp (Formatted)
131.0, -61371.78824803689, -89820.86507330717, 40778.70139821785, -7640.362696690881, 78302.13943745369, 53435.77902743567, 10931.768826457122, 13131.26988783716, 0.0, 0.0, 0.0, 192.0, 0.0, 0.0, 0.0, 0.0, 0.0, 0.0, 0.0, 0.0, 0.0, 1.6665552237621458E9, 0.0, 2022-10-23 13:00:23.762
132.0, -61402.38778619621, -89847.66481490909, 42733.94259619029, -6523.267212303545, 78476.39363722726, 54363.77875373111, 12225.934830419403, 14525.415244748026, 0.0, 0.0, 0.0, 192.0, 0.0, 0.0, 0.0, 0.0, 0.0, 0.0, 0.0, 0.0, 0.0, 1.666555223762174E9, 0.0, 2022-10-23 13:00:23.762
133.0, -61339.46762555452, -89788.76796826936, 43293.116187228705, -6354.198617243603, 78271.94223069456, 54526.05241847663, 12425.401797938563, 14511.311293996729, 0.0, 0.0, 0.0, 192.0, 0.0, 0.0, 0.0, 0.0, 0.0, 0.0, 0.0, 0.0, 0.0, 1.6665552237621906E9, 0.0, 2022-10-23 13:00:23.762
134.0, -61308.13047982818, -89759.04014814379, 40990.21595599842, -7654.1537230198055, 78114.60830147367, 53435.60021348002, 10912.479270992193, 12907.864202006365, 0.0, 0.0, 0.0, 192.0, 0.0, 0.0, 0.0, 0.0, 0.0, 0.0, 0.0, 0.0, 0.0, 1.6665552237622063E9, 0.0, 2022-10-23 13:00:23.762
135.0, -61344.675582012605, -89793.41713111606, 40593.852471572456, -7762.447924905769, 78276.74785575246, 53327.79774997208, 10791.154002088786, 12968.973871347174, 0.0, 0.0, 0.0, 192.0, 0.0, 0.0, 0.0, 0.0, 0.0, 0.0, 0.0, 0.0, 0.0, 1.6665552237622216E9, 0.0, 2022-10-23 13:00:23.762
136.0, -61394.27410295893, -89836.46659093698, 42235.521046581394, -6793.522154512662, 78458.4675381741, 54139.121370210814, 11923.78394887256, 14234.842566829035, 0.0, 0.0, 0.0, 192.0, 0.0, 0.0, 0.0, 0.0, 0.0, 0.0, 0.0, 0.0, 0.0, 1.6665552237622368E9, 0.0, 2022-10-23 13:00:23.762
137.0, -61345.34613434627, -89790.26553514786, 43522.84741674035, -6199.010455490406, 78334.72828086952, 54655.469018872864, 12615.056349641842, 14758.052201038863, 0.0, 0.0, 0.0, 192.0, 0.0, 0.0, 0.0, 0.0, 0.0, 0.0, 0.0, 0.0, 0.0, 1.666555223762252E9, 0.0, 2022-10-23 13:00:23.762
138.0, -61282.64949114913, -89730.27345302982, 41300.346410315804, -7495.7245583205895, 78106.15934206956, 53582.38411931803, 11113.264991434216, 13092.64607341839, 0.0, 0.0, 0.0, 192.0, 0.0, 0.0, 0.0, 0.0, 0.0, 0.0, 0.0, 0.0, 0.0, 1.666555223762267E9, 0.0, 2022-10-23 13:00:23.762
139.0, -61306.40939550512, -89754.56979925273, 40566.851564270444, -7786.677215895322, 78258.39707355465, 53324.534395281604, 10771.484466968115, 12908.490050851113, 0.026000000000000002, 0.9520000000000001, 0.14, 192.0, 0.0, 208.0, 29.0, 192.0, 4.0, 96.0, 0.0, 0.0, 0.0, 1.6665552237622821E9, 0.0, 2022-10-23 13:00:23.762
140.0, -61361.9311287321, -89812.41611390306, 41799.907898891914, -7034.898642885523, 78423.93409299065, 53955.45708602155, 11661.665041645176, 13949.321383156943, 0.026000000000000002, 0.9520000000000001, 0.14, 192.0, 0.0, 0.0, 0.0, 0.0, 0.0, 0.0, 0.0, 0.0, 0.0, 1.6665552237623007E9, 0.0, 2022-10-23 13:00:23.762
141.0, -61356.74552401847, -89810.0468289908, 43606.68881019221, -6126.59080345521, 78378.2024238351, 54726.65932496302, 12712.286438022427, 14894.487249194057, 0.026000000000000002, 0.9520000000000001, 0.14, 192.0, 0.0, 0.0, 0.0, 0.0, 0.0, 0.0, 0.0, 0.0, 0.0, 1.6665552237623172E9, 0.0, 2022-10-23 13:00:23.762
142.0, -61277.79916260233, -89733.53680772029, 41665.126879826414, -7307.411111284628, 78099.3867634996, 53753.017336489844, 11345.097284924661, 13318.242230205802, 0.026000000000000002, 0.9520000000000001, 0.14, 192.0, 0.0, 0.0, 0.0, 0.0, 0.0, 0.0, 0.0, 0.0, 0.0, 1.666555223762333E9, 0.0, 2022-10-23 13:00:23.762
143.0, -61313.40549151963, -89767.10912789215, 40491.68264766725, -7862.024946454161, 78201.04249728234, 53263.73765036317, 10688.134811894275, 12793.423270395193, 0.026000000000000002, 0.9520000000000001, 0.14, 192.0, 0.0, 0.0, 0.0, 0.0, 0.0, 0.0, 0.0, 0.0, 0.0, 1.6665552237623484E9, 0.0, 2022-10-23 13:00:23.762
144.0, -61359.919471731126, -89811.65615459159, 41346.011024237996, -7300.012683869921, 78376.3025255564, 53726.68698152149, 11352.6298228061, 13633.334771792266, 0.026000000000000002, 0.9520000000000001, 0.14, 192.0, 0.0, 0.0, 0.0, 0.0, 0.0, 0.0, 0.0, 0.0, 0.0, 1.6665552237623644E9, 0.0, 2022-10-23 13:00:23.762
145.0, -61357.885462985694, -89809.35392491269, 43524.99318420806, -6135.218576814959, 78437.47925013056, 54713.65060969003, 12697.444879704104, 14937.357895059336, 0.026000000000000002, 0.9520000000000001, 0.14, 192.0, 0.0, 0.0, 0.0, 0.0, 0.0, 0.0, 0.0, 0.0, 0.0, 1.66655522376238E9, 0.0, 2022-10-23 13:00:23.762
146.0, -61267.718525852986, -89725.84780762767, 42118.86729226915, -7048.041468625244, 78125.56065625676, 53973.83021996382, 11646.555262393387, 13639.615611984207, 0.026000000000000002, 0.9520000000000001, 0.14, 192.0, 0.0, 0.0, 0.0, 0.0, 0.0, 0.0, 0.0, 0.0, 0.0, 1.666555223762396E9, 0.0, 2022-10-23 13:00:23.762
147.0, -61285.37640397268, -89738.00715661135, 40545.326834359985, -7842.26600435567, 78185.91036628609, 53288.7269006642, 10709.704245293648, 12786.717747058601, 0.026000000000000002, 0.9520000000000001, 0.14, 192.0, 0.0, 0.0, 0.0, 0.0, 0.0, 0.0, 0.0, 0.0, 0.0, 1.6665552237625546E9, 0.0, 2022-10-23 13:00:23.762
148.0, -61331.1751283616, -89777.92737220852, 41062.7920702448, -7451.982194421554, 78354.08489156782, 53610.07793069815, 11175.961634631352, 13428.682199559475, 0.026000000000000002, 0.9520000000000001, 0.14, 192.0, 0.0, 208.0, 29.0, 192.0, 4.0, 96.0, 0.0, 0.0, 0.0, 1.6665552237625716E9, 0.0, 2022-10-23 13:00:23.762
149.0, -61363.02636421042, -89811.07500923575, 43310.885824070676, -6222.412731935112, 78458.06520677391, 54639.50987333177, 12596.9737883775, 14864.267690690482, 0.026000000000000002, 0.9520000000000001, 0.14, 192.0, 0.0, 0.0, 0.0, 0.0, 0.0, 0.0, 0.0, 0.0, 0.0, 1.6665552237625885E9, 0.0, 2022-10-23 13:00:23.762
150.0, -61276.212188746, -89732.93331061999, 42610.67272551927, -6761.67091866385, 78163.8491945087, 54213.91030715827, 11979.37273733291, 13989.822744109959, 0.026000000000000002, 0.9520000000000001, 0.14, 192.0, 0.0, 0.0, 0.0, 0.0, 0.0, 0.0, 0.0, 0.0, 0.0, 1.666555223762604E9, 0.0, 2022-10-23 13:00:23.762
151.0, -61270.087810765246, -89723.50087445986, 40696.826958278056, -7768.996986031174, 78161.3010956408, 53360.43129687683, 10792.673920711746, 12821.430006197692, 0.026000000000000002, 0.9520000000000001, 0.14, 192.0, 0.0, 0.0, 0.0, 0.0, 0.0, 0.0, 0.0, 0.0, 0.0, 1.6665552237626204E9, 0.0, 2022-10-23 13:00:23.762
152.0, -61299.81563089081, -89754.36863355263, 40821.616747572036, -7603.527021828535, 78319.23852196199, 53479.29787389015, 10993.951379531787, 13212.026740554184, 0.026000000000000002, 0.9520000000000001, 0.14, 192.0, 0.0, 0.0, 0.0, 0.0, 0.0, 0.0, 0.0, 0.0, 0.0, 1.666555223762636E9, 0.0, 2022-10-23 13:00:23.762
153.0, -61341.05459941085, -89793.93122123853, 42951.78269765171, -6401.517260255488, 78497.94071888218, 54486.713348235295, 12383.134649173577, 14674.456676776013, 0.026000000000000002, 0.9520000000000001, 0.14, 192.0, 0.0, 0.0, 0.0, 0.0, 0.0, 0.0, 0.0, 0.0, 0.0, 1.6665552237626555E9, 0.0, 2022-10-23 13:00:23.762
154.0, -61280.25785449241, -89735.50376123235, 43028.18096019995, -6515.2205842996345, 78233.1619540646, 54412.30439094358, 12256.71318253436, 14313.230134633797, 0.026000000000000002, 0.9520000000000001, 0.14, 192.0, 0.0, 0.0, 0.0, 0.0, 0.0, 0.0, 0.0, 0.0, 0.0, 1.6665552237626708E9, 0.0, 2022-10-23 13:00:23.762
155.0, -61264.499874651425, -89719.54461569127, 40820.67797430491, -7734.195319914261, 78130.65685399256, 53382.8500965655, 10829.978982207655, 12837.612669183334, 0.026000000000000002, 0.9520000000000001, 0.14, 192.0, 0.0, 0.0, 0.0, 0.0, 0.0, 0.0, 0.0, 0.0, 0.0, 1.6665552237626865E9, 0.0, 2022-10-23 13:00:23.762
156.0, -61302.14021231416, -89758.36959581013, 40652.794021701106, -7716.269220861104, 78290.38241987019, 53376.971587773754, 10852.62129934088, 13045.707410062243, 0.026000000000000002, 0.9520000000000001, 0.14, 192.0, 0.0, 0.0, 0.0, 0.0, 0.0, 0.0, 0.0, 0.0, 0.0, 1.666555223762702E9, 0.0, 2022-10-23 13:00:23.762
157.0, -61343.04390466737, -89799.63091607463, 42491.87320373931, -6652.303833044033, 78465.97772431109, 54260.73721179214, 12087.555180496596, 14396.624493196547, 0.026000000000000002, 0.9520000000000001, 0.14, 192.0, 0.0, 0.0, 0.0, 0.0, 0.0, 0.0, 0.0, 0.0, 0.0, 1.6665552237627275E9, 0.0, 2022-10-23 13:00:23.762
158.0, -61282.49302893794, -89745.80791542625, 43376.21997311353, -6290.429090312611, 78299.54663509686, 54585.73157617231, 12506.918609967068, 14619.18081273804, 0.028, 0.9480000000000001, 0.138, 192.0, 0.0, 224.0, 29.0, 160.0, 4.0, 80.0, 0.0, 0.0, 0.0, 1.6665552237627687E9, 0.0, 2022-10-23 13:00:23.762
159.0, -61233.453301602996, -89697.25992646933, 41109.66367836758, -7579.83417270591, 78119.0339468758, 53512.73608359529, 11002.422690680349, 12992.487906514158, 0.028, 0.9480000000000001, 0.138, 192.0, 0.0, 0.0, 0.0, 0.0, 0.0, 0.0, 0.0, 0.0, 0.0, 1.666555223762812E9, 0.0, 2022-10-23 13:00:23.762
160.0, -61271.54067415484, -89731.54750246377, 40596.93701230729, -7754.960090513241, 78269.26002135992, 53346.014421703156, 10796.250199824597, 12959.720249142678, 0.028, 0.9480000000000001, 0.138, 192.0, 0.0, 0.0, 0.0, 0.0, 0.0, 0.0, 0.0, 0.0, 0.0, 1.6665552237628539E9, 0.0, 2022-10-23 13:00:23.762
161.0, -61322.882631168686, -89783.06827343325, 42059.81398341823, -6890.439318470874, 78442.50839263301, 54061.58316869535, 11811.511136473553, 14117.942943327778, 0.028, 0.9480000000000001, 0.138, 192.0, 0.0, 0.0, 0.0, 0.0, 0.0, 0.0, 0.0, 0.0, 0.0, 1.6665552237628944E9, 0.0, 2022-10-23 13:00:23.762
162.0, -61294.78648838836, -89763.26462784584, 43613.01435387306, -6132.692829691509, 78363.9420108726, 54713.89647887903, 12685.419641187149, 14850.096684705817, 0.028, 0.9480000000000001, 0.138, 192.0, 0.0, 0.0, 0.0, 0.0, 0.0, 0.0, 0.0, 0.0, 0.0, 1.6665552237629352E9, 0.0, 2022-10-23 13:00:23.762
163.0, -61231.50869983539, -89698.93630730348, 41496.81824407796, -7389.285551224417, 78105.35467926916, 53673.19925703994, 11224.353161377092, 13203.376615449979, 0.028, 0.9480000000000001, 0.138, 192.0, 0.0, 0.0, 0.0, 0.0, 0.0, 0.0, 0.0, 0.0, 0.0, 1.6665552237631056E9, 0.0, 2022-10-23 13:00:23.763
164.0, -61273.865255578196, -89739.9294066345, 40608.47051244623, -7775.344881456481, 78234.59246570975, 53330.50231105117, 10765.158923287265, 12885.825381973433, 0.028, 0.9480000000000001, 0.138, 192.0, 0.0, 0.0, 0.0, 0.0, 0.0, 0.0, 0.0, 0.0, 0.0, 1.666555223763148E9, 0.0, 2022-10-23 13:00:23.763
165.0, -61322.21207883502, -89783.2470873889, 41699.257993609666, -7095.963608737423, 78394.42979030964, 53893.676864347086, 11564.457305009044, 13838.412027169708, 0.028, 0.9480000000000001, 0.138, 192.0, 0.0, 0.0, 0.0, 0.0, 0.0, 0.0, 0.0, 0.0, 0.0, 1.66655522376319E9, 0.0, 2022-10-23 13:00:23.763
166.0, -61308.532811228375, -89770.41718607154, 43697.99568629214, -6060.854323012152, 78405.47155207056, 54772.03336620729, 12757.056982166408, 14943.929307929197, 0.028, 0.9480000000000001, 0.138, 192.0, 0.0, 0.0, 0.0, 0.0, 0.0, 0.0, 0.0, 0.0, 0.0, 1.6665552237632072E9, 0.0, 2022-10-23 13:00:23.763
167.0, -61223.953810209496, -89689.43681590997, 41948.971682664356, -7151.194769286486, 78111.81433341674, 53876.73424204996, 11495.591580342243, 13450.341039936668, 0.028, 0.9480000000000001, 0.138, 192.0, 0.0, 0.0, 0.0, 0.0, 0.0, 0.0, 0.0, 0.0, 0.0, 1.6665552237632172E9, 0.0, 2022-10-23 13:00:23.763
168.0, -61250.306516922305, -89712.50381618785, 40668.19437363081, -7761.352689427458, 78218.74507889093, 53353.01051771767, 10769.919844856244, 12830.750683635555, 0.026000000000000002, 0.9480000000000001, 0.14200000000000002, 192.0, 0.0, 208.0, 29.0, 160.0, 4.0, 112.0, 0.0, 0.0, 0.0, 1.6665552237632272E9, 0.0, 2022-10-23 13:00:23.763
169.0, -61295.23352327747, -89751.8875899181, 41393.95551609463, -7268.362613721206, 78379.07414186886, 53765.91429304055, 11356.161398430038, 13583.69154735703, 0.026000000000000002, 0.9480000000000001, 0.14200000000000002, 192.0, 0.0, 0.0, 0.0, 0.0, 0.0, 0.0, 0.0, 0.0, 0.0, 1.6665552237632377E9, 0.0, 2022-10-23 13:00:23.763
170.0, -61303.503668725934, -89758.43665104349, 43577.72094937813, -6108.977628824428, 78443.55892462241, 54735.68942972296, 12696.37199597025, 14908.211220289615, 0.026000000000000002, 0.9480000000000001, 0.14200000000000002, 192.0, 0.0, 0.0, 0.0, 0.0, 0.0, 0.0, 0.0, 0.0, 0.0, 1.6665552237632475E9, 0.0, 2022-10-23 13:00:23.763
171.0, -61211.079205403235, -89665.90042899853, 42426.58375818536, -6889.433489970385, 78148.65000827909, 54104.319704093905, 11797.161316533246, 13757.856340152783, 0.026000000000000002, 0.9480000000000001, 0.14200000000000002, 192.0, 0.0, 0.0, 0.0, 0.0, 0.0, 0.0, 0.0, 0.0, 0.0, 1.6665552237632573E9, 0.0, 2022-10-23 13:00:23.763
172.0, -61241.23170867345, -89693.95186828994, 40721.32447020108, -7764.124305739917, 78175.18152894753, 53357.27970090863, 10762.454362208171, 12781.15216268923, 0.026000000000000002, 0.9480000000000001, 0.14200000000000002, 192.0, 0.0, 0.0, 0.0, 0.0, 0.0, 0.0, 0.0, 0.0, 0.0, 1.6665552237632673E9, 0.0, 2022-10-23 13:00:23.763
173.0, -61300.37442450219, -89759.62129349963, 41084.49561411091, -7462.040479426441, 78342.48433619551, 53600.46668058237, 11124.329104939594, 13325.260677964769, 0.026000000000000002, 0.9480000000000001, 0.14200000000000002, 192.0, 0.0, 0.0, 0.0, 0.0, 0.0, 0.0, 0.0, 0.0, 0.0, 1.666555223763277E9, 0.0, 2022-10-23 13:00:23.763
174.0, -61327.5764975043, -89790.89138399261, 43303.33093444478, -6235.063819296815, 78480.5734134404, 54628.53516680422, 12543.776636573868, 14788.092945586795, 0.026000000000000002, 0.9480000000000001, 0.14200000000000002, 192.0, 0.0, 0.0, 0.0, 0.0, 0.0, 0.0, 0.0, 0.0, 0.0, 1.6665552237632883E9, 0.0, 2022-10-23 13:00:23.763
175.0, -61243.71275230798, -89714.00138306635, 42898.764359803725, -6614.439977936742, 78194.58284313475, 54335.9731836287, 12113.371445342476, 14104.867172821425, 0.026000000000000002, 0.9480000000000001, 0.14200000000000002, 192.0, 0.0, 0.0, 0.0, 0.0, 0.0, 0.0, 0.0, 0.0, 0.0, 1.666555223763298E9, 0.0, 2022-10-23 13:00:23.763
176.0, -61234.45913010349, -89698.8692520701, 40851.679843864425, -7717.364456339415, 78142.70444425398, 53403.816032864575, 10818.065502412976, 12801.983988521575, 0.026000000000000002, 0.9480000000000001, 0.14200000000000002, 192.0, 0.0, 0.0, 0.0, 0.0, 0.0, 0.0, 0.0, 0.0, 0.0, 1.666555223763308E9, 0.0, 2022-10-23 13:00:23.763
177.0, -61258.755476326405, -89719.05287731325, 40873.27162900825, -7601.068329938452, 78300.01602173044, 53485.01992047071, 10961.183722160307, 13133.639172749421, 0.022, 0.9560000000000001, 0.14200000000000002, 192.0, 0.0, 176.0, 29.0, 224.0, 4.0, 112.0, 0.0, 0.0, 0.0, 1.6665552237633178E9, 0.0, 2022-10-23 13:00:23.763
178.0, -61307.348168772245, -89768.69610174849, 42888.21433642082, -6460.235292939579, 78471.3197912359, 54440.69110640182, 12288.609121872083, 14552.237338094395, 0.022, 0.9560000000000001, 0.14200000000000002, 192.0, 0.0, 0.0, 0.0, 0.0, 0.0, 0.0, 0.0, 0.0, 0.0, 1.6665552237633388E9, 0.0, 2022-10-23 13:00:23.763
179.0, -61235.42025511507, -89703.96544980591, 43287.863527281705, -6387.860344393295, 78256.7653962094, 54527.21470918831, 12379.245445638353, 14422.463109786882, 0.022, 0.9560000000000001, 0.14200000000000002, 192.0, 0.0, 0.0, 0.0, 0.0, 0.0, 0.0, 0.0, 0.0, 0.0, 1.6665552237633488E9, 0.0, 2022-10-23 13:00:23.763
180.0, -61202.11615587666, -89668.9626179889, 41031.633738474105, -7645.436542682236, 78140.91630469756, 53472.86057148702, 10908.791233157068, 12879.477486548125, 0.022, 0.9560000000000001, 0.14200000000000002, 192.0, 0.0, 0.0, 0.0, 0.0, 0.0, 0.0, 0.0, 0.0, 0.0, 1.6665552237633586E9, 0.0, 2022-10-23 13:00:23.763
181.0, -61253.14518846812, -89715.32013598921, 40730.4663336833, -7699.259543330615, 78292.0811524488, 53410.454500967804, 10846.09458995993, 12996.891200171853, 0.022, 0.9560000000000001, 0.14200000000000002, 192.0, 0.0, 0.0, 0.0, 0.0, 0.0, 0.0, 0.0, 0.0, 0.0, 1.6665552237633684E9, 0.0, 2022-10-23 13:00:23.763
182.0, -61299.39094774616, -89758.83898244369, 42426.71786865209, -6710.127795949912, 78469.33048597939, 54236.574976035954, 12002.23857191069, 14278.227302816786, 0.022, 0.9560000000000001, 0.14200000000000002, 192.0, 0.0, 0.0, 0.0, 0.0, 0.0, 0.0, 0.0, 0.0, 0.0, 1.6665552237633781E9, 0.0, 2022-10-23 13:00:23.763
183.0, -61252.56404311229, -89718.94111859097, 43548.79779205296, -6222.032752279371, 78318.47856265052, 54662.10748697609, 12573.370346232694, 14676.915368666097, 0.022, 0.9560000000000001, 0.14200000000000002, 192.0, 0.0, 0.0, 0.0, 0.0, 0.0, 0.0, 0.0, 0.0, 0.0, 1.6665552237633882E9, 0.0, 2022-10-23 13:00:23.763
184.0, -61210.56511528076, -89678.68562682696, 41269.12102331174, -7547.82647464591, 78107.23222580341, 53553.23744454831, 11032.955173606299, 12996.6676827273, 0.022, 0.9560000000000001, 0.14200000000000002, 192.0, 0.0, 0.0, 0.0, 0.0, 0.0, 0.0, 0.0, 0.0, 0.0, 1.666555223763398E9, 0.0, 2022-10-23 13:00:23.763
185.0, -61251.26764193388, -89717.46590345692, 40602.70376237676, -7806.816137649553, 78257.99474215445, 53316.7336364667, 10729.865518792334, 12864.010079385052, 0.022, 0.9560000000000001, 0.14200000000000002, 192.0, 0.0, 0.0, 0.0, 0.0, 0.0, 0.0, 0.0, 0.0, 0.0, 1.666555223763408E9, 0.0, 2022-10-23 13:00:23.763
186.0, -61298.27336052339, -89761.78941271179, 41913.23124328032, -7015.474976953862, 78435.02055824049, 53974.88075195322, 11663.900216090706, 13954.037601237012, 0.022, 0.9560000000000001, 0.14200000000000002, 192.0, 0.0, 0.0, 0.0, 0.0, 0.0, 0.0, 0.0, 0.0, 0.0, 1.6665552237634175E9, 0.0, 2022-10-23 13:00:23.763
187.0, -61277.55329341332, -89745.5843979817, 43652.19696190321, -6144.002812385895, 78394.6980112431, 54722.166624327496, 12675.093135248797, 14849.917870750174, 0.022, 0.9580000000000001, 0.146, 192.0, 0.0, 176.0, 29.0, 240.0, 4.0, 144.0, 0.0, 0.0, 0.0, 1.6665552237634275E9, 0.0, 2022-10-23 13:00:23.763
188.0, -61208.553458279785, -89679.0656064827, 41646.77609762861, -7354.416829874138, 78115.68118520752, 53729.21272864494, 11279.651377159522, 13248.795360183163, 0.022, 0.9580000000000001, 0.146, 192.0, 0.0, 0.0, 0.0, 0.0, 0.0, 0.0, 0.0, 0.0, 0.0, 1.666555223763438E9, 0.0, 2022-10-23 13:00:23.763
189.0, -61242.43870287403, -89711.98972606537, 40579.592058609975, -7845.484655557234, 78233.54193372035, 53299.74631068067, 10702.26111439003, 12805.716729845612, 0.022, 0.9580000000000001, 0.146, 192.0, 0.0, 0.0, 0.0, 0.0, 0.0, 0.0, 0.0, 0.0, 0.0, 1.666555223763448E9, 0.0, 2022-10-23 13:00:23.763
190.0, -61282.42597370458, -89751.21703758443, 41491.31971494195, -7260.137171761653, 78404.77864799245, 53780.711147869966, 11399.680244884521, 13672.785600755884, 0.022, 0.9580000000000001, 0.146, 192.0, 0.0, 0.0, 0.0, 0.0, 0.0, 0.0, 0.0, 0.0, 0.0, 1.6665552237634578E9, 0.0, 2022-10-23 13:00:23.763
191.0, -61278.02268004688, -89748.64658697207, 43604.5430427245, -6139.711277450476, 78457.48406141807, 54726.27934530727, 12695.388519214215, 14917.844822149853, 0.022, 0.9580000000000001, 0.146, 192.0, 0.0, 0.0, 0.0, 0.0, 0.0, 0.0, 0.0, 0.0, 0.0, 1.6665552237634676E9, 0.0, 2022-10-23 13:00:23.763
192.0, -61196.10353661818, -89671.2201441789, 42088.3348093432, -7103.652608830048, 78160.2505636514, 53940.99550735897, 11586.093793641781, 13565.854855281694, 0.022, 0.9580000000000001, 0.146, 192.0, 0.0, 0.0, 0.0, 0.0, 0.0, 0.0, 0.0, 0.0, 0.0, 1.6665552237634776E9, 0.0, 2022-10-23 13:00:23.763
193.0, -61227.3512753667, -89697.59520263615, 40610.61627991394, -7841.662507255377, 78214.36413697769, 53303.45670026025, 10717.303838408452, 12784.080241212874, 0.022, 0.9580000000000001, 0.146, 192.0, 0.0, 0.0, 0.0, 0.0, 0.0, 0.0, 0.0, 0.0, 0.0, 1.6665552237634883E9, 0.0, 2022-10-23 13:00:23.763
194.0, -61275.116953267694, -89741.56108397974, 41166.95119940653, -7445.299022829417, 78368.32295278585, 53628.07108498467, 11200.146222131994, 13442.652039844043, 0.022, 0.9580000000000001, 0.146, 192.0, 0.0, 0.0, 0.0, 0.0, 0.0, 0.0, 0.0, 0.0, 0.0, 1.6665552237635252E9, 0.0, 2022-10-23 13:00:23.763
195.0, -61298.5192297124, -89761.85646794517, 43386.05474067387, -6243.8033513788405, 78469.6210586573, 54630.88209997203, 12593.375157520195, 14845.156949181193, 0.022, 0.9580000000000001, 0.146, 192.0, 0.0, 0.0, 0.0, 0.0, 0.0, 0.0, 0.0, 0.0, 0.0, 1.666555223763536E9, 0.0, 2022-10-23 13:00:23.763
196.0, -61215.773071738855, -89686.2181647084, 42520.75165757557, -6872.5802746510835, 78166.3525898877, 54126.71615203812, 11874.230131415145, 13868.45277171764, 0.022, 0.9580000000000001, 0.146, 192.0, 0.0, 0.0, 0.0, 0.0, 0.0, 0.0, 0.0, 0.0, 0.0, 1.666555223763546E9, 0.0, 2022-10-23 13:00:23.763
197.0, -61223.57383055375, -89692.76722583381, 40658.784289215124, -7847.630423024943, 78174.01923823587, 53293.219601299716, 10725.998667001566, 12754.799455976423, 0.026000000000000002, 0.9500000000000001, 0.148, 192.0, 0.0, 208.0, 29.0, 176.0, 4.0, 160.0, 0.0, 0.0, 0.0, 1.6665552237635562E9, 0.0, 2022-10-23 13:00:23.763
198.0, -61276.45805793501, -89742.6786712025, 40894.19286181842, -7613.875879511343, 78323.70887085305, 53479.610798312526, 11012.123347773952, 13223.604944182032, 0.026000000000000002, 0.9500000000000001, 0.148, 192.0, 0.0, 0.0, 0.0, 0.0, 0.0, 0.0, 0.0, 0.0, 0.0, 1.6665552237635665E9, 0.0, 2022-10-23 13:00:23.763
199.0, -61308.71162518402, -89769.25489535987, 43054.89129482404, -6405.674684724175, 78476.05836106042, 54492.05541516011, 12416.751672834358, 14686.079583892773, 0.026000000000000002, 0.9500000000000001, 0.148, 192.0, 0.0, 0.0, 0.0, 0.0, 0.0, 0.0, 0.0, 0.0, 0.0, 1.6665552237635765E9, 0.0, 2022-10-23 13:00:23.763
200.0, -61220.75751075239, -89684.22885945188, 42995.25684061728, -6581.15823044279, 78236.93939887756, 54371.5348090571, 12217.016484381735, 14242.822139599579, 0.026000000000000002, 0.9500000000000001, 0.148, 192.0, 0.0, 0.0, 0.0, 0.0, 0.0, 0.0, 0.0, 0.0, 0.0, 1.6665552237635863E9, 0.0, 2022-10-23 13:00:23.763
201.0, -61214.14139439361, -89672.80711803521, 40847.9918060293, -7752.188474200782, 78157.9930374614, 53384.258256466186, 10843.635898069848, 12832.672933658712, 0.026000000000000002, 0.9500000000000001, 0.148, 192.0, 0.0, 0.0, 0.0, 0.0, 0.0, 0.0, 0.0, 0.0, 0.0, 1.6665552237635963E9, 0.0, 2022-10-23 13:00:23.763
202.0, -61259.78365657135, -89716.57183367871, 40756.036729340165, -7693.515145005602, 78308.57673985681, 53420.42337899487, 10922.001114130153, 13089.11449779445, 0.026000000000000002, 0.9500000000000001, 0.148, 192.0, 0.0, 0.0, 0.0, 0.0, 0.0, 0.0, 0.0, 0.0, 0.0, 1.666555223763606E9, 0.0, 2022-10-23 13:00:23.763
203.0, -61302.49784022544, -89757.14024986509, 42636.53369385406, -6621.793701862539, 78473.64437265926, 54311.67683740579, 12173.251768738242, 14443.585508297147, 0.026000000000000002, 0.9500000000000001, 0.148, 192.0, 0.0, 0.0, 0.0, 0.0, 0.0, 0.0, 0.0, 0.0, 0.0, 1.666555223763616E9, 0.0, 2022-10-23 13:00:23.763
204.0, -61254.21807220198, -89715.56600517822, 43375.92940043562, -6346.487265406521, 78293.44460886058, 54569.95124458686, 12497.486173806927, 14558.831102708711, 0.026000000000000002, 0.9500000000000001, 0.148, 192.0, 0.0, 0.0, 0.0, 0.0, 0.0, 0.0, 0.0, 0.0, 0.0, 1.666555223763626E9, 0.0, 2022-10-23 13:00:23.763
205.0, -61210.63217051413, -89669.85668776711, 41115.60924239269, -7622.481301126636, 78131.48386853741, 53506.29878119216, 11006.580115149036, 12956.434542707748, 0.026000000000000002, 0.9500000000000001, 0.148, 192.0, 0.0, 0.0, 0.0, 0.0, 0.0, 0.0, 0.0, 0.0, 0.0, 1.6665552237636359E9, 0.0, 2022-10-23 13:00:23.763
206.0, -61249.16657795508, -89702.11025501613, 40658.35960607047, -7769.041689520084, 78280.74881800996, 53359.51487535416, 10836.170415421775, 12960.614318920889, 0.026000000000000002, 0.9500000000000001, 0.148, 192.0, 0.0, 0.0, 0.0, 0.0, 0.0, 0.0, 0.0, 0.0, 0.0, 1.666555223763646E9, 0.0, 2022-10-23 13:00:23.763
207.0, -61306.297636782845, -89755.82149694223, 42189.8564326592, -6867.461725170819, 78454.91361080571, 54105.10201514984, 11896.738338081639, 14157.147903102388, 0.026000000000000002, 0.9500000000000001, 0.146, 192.0, 0.0, 208.0, 29.0, 176.0, 4.0, 144.0, 0.0, 0.0, 0.0, 1.666555223763656E9, 0.0, 2022-10-23 13:00:23.763
208.0, -61275.31811896779, -89731.03341234129, 43586.21461227115, -6209.627534106677, 78354.55427820138, 54670.48939114683, 12662.822027542834, 14768.423410466125, 0.026000000000000002, 0.9500000000000001, 0.146, 192.0, 0.0, 0.0, 0.0, 0.0, 0.0, 0.0, 0.0, 0.0, 0.0, 1.6665552237636664E9, 0.0, 2022-10-23 13:00:23.763
209.0, -61221.80804274179, -89679.19971694944, 41398.42586498569, -7496.171593209696, 78119.190409087, 53603.819442250664, 11170.820733406632, 13108.828736404032, 0.026000000000000002, 0.9500000000000001, 0.146, 192.0, 0.0, 0.0, 0.0, 0.0, 0.0, 0.0, 0.0, 0.0, 0.0, 1.6665552237637024E9, 0.0, 2022-10-23 13:00:23.763
210.0, -61263.583453128755, -89714.06843829971, 40594.634782628396, -7828.698495471299, 78258.6652944881, 53309.514023007636, 10778.637025193813, 12869.508608521059, 0.026000000000000002, 0.9500000000000001, 0.146, 192.0, 0.0, 0.0, 0.0, 0.0, 0.0, 0.0, 0.0, 0.0, 0.0, 1.6665552237637124E9, 0.0, 2022-10-23 13:00:23.763
211.0, -61304.86712513771, -89751.01587188433, 41771.25296250021, -7096.589457582171, 78435.44524138514, 53918.26378324792, 11640.676753601641, 13881.997928857558, 0.026000000000000002, 0.9500000000000001, 0.146, 192.0, 0.0, 0.0, 0.0, 0.0, 0.0, 0.0, 0.0, 0.0, 0.0, 1.666555223763723E9, 0.0, 2022-10-23 13:00:23.763
212.0, -61294.80884013282, -89742.4328020135, 43683.22118320718, -6118.030085328828, 78416.87094174277, 54750.17336013, 12773.843142252344, 14919.521202984, 0.026000000000000002, 0.9500000000000001, 0.146, 192.0, 0.0, 0.0, 0.0, 0.0, 0.0, 0.0, 0.0, 0.0, 0.0, 1.666555223763733E9, 0.0, 2022-10-23 13:00:23.763
213.0, -61229.00530445639, -89680.7196355724, 41849.1264401825, -7243.865101798189, 78124.10779286716, 53829.88498567164, 11472.345766108725, 13392.964111919895, 0.026000000000000002, 0.9500000000000001, 0.146, 192.0, 0.0, 0.0, 0.0, 0.0, 0.0, 0.0, 0.0, 0.0, 0.0, 1.6665552237637427E9, 0.0, 2022-10-23 13:00:23.763
214.0, -61254.955679769, -89701.9761445494, 40613.94668983778, -7833.325306573547, 78223.9083318601, 53313.33617130949, 10772.333833257419, 12807.326055446394, 0.026000000000000002, 0.9500000000000001, 0.146, 192.0, 0.0, 0.0, 0.0, 0.0, 0.0, 0.0, 0.0, 0.0, 0.0, 1.6665552237637527E9, 0.0, 2022-10-23 13:00:23.763
215.0, -61299.12272681269, -89741.89636014657, 41393.03909457196, -7312.73082646499, 78398.16253163369, 53742.601423573666, 11391.588913391699, 13597.080242285758, 0.026000000000000002, 0.9500000000000001, 0.146, 192.0, 0.0, 0.0, 0.0, 0.0, 0.0, 0.0, 0.0, 0.0, 0.0, 1.6665552237637627E9, 0.0, 2022-10-23 13:00:23.763
216.0, -61319.26164856692, -89765.36569182464, 43605.97355436964, -6124.288573776314, 78469.1740237682, 54750.5756915302, 12766.131790415264, 14938.676647982198, 0.024, 0.9420000000000001, 0.14, 192.0, 0.0, 192.0, 29.0, 112.0, 4.0, 96.0, 0.0, 0.0, 0.0, 1.6665552237637727E9, 0.0, 2022-10-23 13:00:23.763
217.0, -61231.911031235584, -89681.45724313942, 42319.47419875553, -6981.634435848527, 78146.90657221158, 54059.21388378309, 11779.838714580383, 13700.412356902643, 0.024, 0.9420000000000001, 0.14, 192.0, 0.0, 0.0, 0.0, 0.0, 0.0, 0.0, 0.0, 0.0, 0.0, 1.6665552237637844E9, 0.0, 2022-10-23 13:00:23.763
218.0, -61244.02567673036, -89689.61562986561, 40687.01454246218, -7809.744216173198, 78200.75192460441, 53349.94832872729, 10799.647664981803, 12790.986930249564, 0.024, 0.9420000000000001, 0.14, 192.0, 0.0, 0.0, 0.0, 0.0, 0.0, 0.0, 0.0, 0.0, 0.0, 1.6665552237637944E9, 0.0, 2022-10-23 13:00:23.763
219.0, -61288.751517385426, -89731.81572339723, 41088.116596712665, -7497.7809188104775, 78352.98965608951, 53596.04103518022, 11178.26386431025, 13353.803855634196, 0.024, 0.9420000000000001, 0.14, 192.0, 0.0, 0.0, 0.0, 0.0, 0.0, 0.0, 0.0, 0.0, 0.0, 1.6665552237638047E9, 0.0, 2022-10-23 13:00:23.763
220.0, -61325.52013701441, -89768.91961919304, 43311.86930082671, -6277.420375039623, 78484.66378267572, 54618.767454477245, 12596.34793953275, 14805.192030095104, 0.024, 0.9420000000000001, 0.14, 192.0, 0.0, 0.0, 0.0, 0.0, 0.0, 0.0, 0.0, 0.0, 0.0, 1.6665552237638144E9, 0.0, 2022-10-23 13:00:23.763
221.0, -61245.94792675351, -89693.77305433429, 42769.97360825224, -6724.321153679032, 78206.65278514061, 54272.33776716444, 12086.527000251652, 14036.515538277095, 0.024, 0.9420000000000001, 0.14, 192.0, 0.0, 0.0, 0.0, 0.0, 0.0, 0.0, 0.0, 0.0, 0.0, 1.6665552237638245E9, 0.0, 2022-10-23 13:00:23.763
222.0, -61242.37164764067, -89686.95577227543, 40766.20677306733, -7798.702454412277, 78168.99009573342, 53359.55957884307, 10825.307467616496, 12780.883941755765, 0.024, 0.9420000000000001, 0.14, 192.0, 0.0, 0.0, 0.0, 0.0, 0.0, 0.0, 0.0, 0.0, 0.0, 1.6665552237638342E9, 0.0, 2022-10-23 13:00:23.763
223.0, -61274.491104422945, -89712.61557491012, 40860.57583815764, -7642.776685092054, 78335.22001924754, 53476.30274013314, 11018.56065017708, 13162.115295185482, 0.024, 0.9420000000000001, 0.14, 192.0, 0.0, 0.0, 0.0, 0.0, 0.0, 0.0, 0.0, 0.0, 0.0, 1.6665552237638452E9, 0.0, 2022-10-23 13:00:23.763
224.0, -61318.99342763346, -89752.06640387373, 42939.444534712384, -6466.13615347578, 78505.8308846749, 54462.461705501286, 12387.202666664441, 14611.849440556698, 0.024, 0.9420000000000001, 0.14, 192.0, 0.0, 0.0, 0.0, 0.0, 0.0, 0.0, 0.0, 0.0, 0.0, 1.6665552237638552E9, 0.0, 2022-10-23 13:00:23.763
225.0, -61257.16850247008, -89697.79636833625, 43190.3428662232, -6476.619121625319, 78263.13564337918, 54484.23230460076, 12384.252236396342, 14378.854856354577, 0.024, 0.9420000000000001, 0.14, 192.0, 0.0, 0.0, 0.0, 0.0, 0.0, 0.0, 0.0, 0.0, 0.0, 1.6665552237638905E9, 0.0, 2022-10-23 13:00:23.763
226.0, -61228.44651084501, -89669.99079823385, 40975.419101169005, -7702.388787554359, 78156.696636283, 53459.67304225839, 10948.420876076327, 12881.332681337915, 0.026000000000000002, 0.9440000000000001, 0.14200000000000002, 192.0, 0.0, 208.0, 29.0, 128.0, 4.0, 112.0, 0.0, 0.0, 0.0, 1.6665552237639005E9, 0.0, 2022-10-23 13:00:23.763
227.0, -61266.77975258586, -89705.1724440065, 40738.93764483186, -7727.154520410839, 78311.66128059165, 53422.88207088495, 10924.884489164888, 13041.549985593556, 0.026000000000000002, 0.9440000000000001, 0.14200000000000002, 192.0, 0.0, 0.0, 0.0, 0.0, 0.0, 0.0, 0.0, 0.0, 0.0, 1.6665552237639108E9, 0.0, 2022-10-23 13:00:23.763
228.0, -61319.88749741167, -89755.97795915342, 42518.9858697636, -6693.676912030806, 78492.08456183488, 54290.4650319177, 12133.510367096707, 14367.500170171283, 0.026000000000000002, 0.9440000000000001, 0.14200000000000002, 192.0, 0.0, 0.0, 0.0, 0.0, 0.0, 0.0, 0.0, 0.0, 0.0, 1.6665552237639208E9, 0.0, 2022-10-23 13:00:23.763
229.0, -61275.72045036798, -89718.76230463533, 43524.50144583004, -6272.145363348171, 78319.10441149527, 54664.52147537726, 12629.048541670865, 14670.545121496336, 0.026000000000000002, 0.9440000000000001, 0.14200000000000002, 192.0, 0.0, 0.0, 0.0, 0.0, 0.0, 0.0, 0.0, 0.0, 0.0, 1.6665552237639308E9, 0.0, 2022-10-23 13:00:23.763
230.0, -61229.340580623226, -89671.73423430136, 41246.47870617852, -7583.432803563214, 78125.00186264538, 53568.32487205564, 11100.569200583603, 13007.173002621294, 0.026000000000000002, 0.9440000000000001, 0.14200000000000002, 192.0, 0.0, 0.0, 0.0, 0.0, 0.0, 0.0, 0.0, 0.0, 0.0, 1.6665552237639408E9, 0.0, 2022-10-23 13:00:23.763
231.0, -61269.97605204297, -89709.01694405281, 40671.725949254746, -7786.319587984037, 78282.78282675539, 53383.92298029936, 10862.366659923395, 12936.921469798264, 0.026000000000000002, 0.9440000000000001, 0.14200000000000002, 192.0, 0.0, 0.0, 0.0, 0.0, 0.0, 0.0, 0.0, 0.0, 0.0, 1.6665552237639503E9, 0.0, 2022-10-23 13:00:23.763
232.0, -61321.876802668194, -89760.09068013319, 42082.94803892947, -6937.914423693946, 78461.50737542003, 54096.29542783445, 11859.165055652269, 14077.374527141397, 0.026000000000000002, 0.9440000000000001, 0.14200000000000002, 192.0, 0.0, 0.0, 0.0, 0.0, 0.0, 0.0, 0.0, 0.0, 0.0, 1.6665552237639604E9, 0.0, 2022-10-23 13:00:23.763
233.0, -61299.90503786863, -89742.20928456895, 43718.313422002015, -6135.486797748423, 78390.42882805214, 54786.94197975898, 12789.914046515709, 14871.375545427269, 0.026000000000000002, 0.9440000000000001, 0.14200000000000002, 192.0, 0.0, 0.0, 0.0, 0.0, 0.0, 0.0, 0.0, 0.0, 0.0, 1.6665552237639701E9, 0.0, 2022-10-23 13:00:23.763
234.0, -61219.08112991824, -89660.91598998499, 41624.111428750926, -7389.956103558076, 78133.5402290273, 53747.183531187, 11331.976810929396, 13222.979095337283, 0.026000000000000002, 0.9440000000000001, 0.14200000000000002, 192.0, 0.0, 0.0, 0.0, 0.0, 0.0, 0.0, 0.0, 0.0, 0.0, 1.66655522376398E9, 0.0, 2022-10-23 13:00:23.763
235.0, -61254.86627279119, -89694.44360666795, 40639.56178898356, -7833.325306573547, 78269.84116671576, 53356.05035496359, 10807.291961585517, 12848.855596644355, 0.026000000000000002, 0.9440000000000001, 0.14200000000000002, 192.0, 0.0, 0.0, 0.0, 0.0, 0.0, 0.0, 0.0, 0.0, 0.0, 1.66655522376399E9, 0.0, 2022-10-23 13:00:23.763
236.0, -61312.35495953023, -89749.11597360563, 41627.33007995249, -7216.975953218455, 78421.96713947858, 53866.45243960052, 11545.48067396649, 13754.458874995575, 0.03, 0.9480000000000001, 0.134, 192.0, 0.0, 240.0, 29.0, 160.0, 4.0, 48.0, 0.0, 0.0, 0.0, 1.6665552237639997E9, 0.0, 2022-10-23 13:00:23.763
237.0, -61311.818517663305, -89750.07709861721, 43659.28246489554, -6163.448830062012, 78439.9602937651, 54755.13544739908, 12770.937415473154, 14916.727234927088, 0.03, 0.9480000000000001, 0.134, 192.0, 0.0, 0.0, 0.0, 0.0, 0.0, 0.0, 0.0, 0.0, 0.0, 1.6665552237640104E9, 0.0, 2022-10-23 13:00:23.764
238.0, -61230.07818819025, -89673.94705700244, 42010.08135200517, -7207.007075191388, 78142.95031344298, 53906.1714894976, 11575.09673536977, 13491.244732289879, 0.03, 0.9480000000000001, 0.134, 192.0, 0.0, 0.0, 0.0, 0.0, 0.0, 0.0, 0.0, 0.0, 0.0, 1.6665552237640216E9, 0.0, 2022-10-23 13:00:23.764
239.0, -61258.330793181754, -89698.75749334783, 40613.47730320422, -7897.139536993449, 78225.3164917608, 53310.564554997036, 10765.963586087655, 12790.986930249564, 0.03, 0.9480000000000001, 0.134, 192.0, 0.0, 0.0, 0.0, 0.0, 0.0, 0.0, 0.0, 0.0, 0.0, 1.6665552237640316E9, 0.0, 2022-10-23 13:00:23.764
240.0, -61299.726223912985, -89736.62134845513, 41252.35721497026, -7450.037592653942, 78392.66400249768, 53679.59185595415, 11301.578438470178, 13505.952180141472, 0.03, 0.9480000000000001, 0.134, 192.0, 0.0, 0.0, 0.0, 0.0, 0.0, 0.0, 0.0, 0.0, 0.0, 1.6665552237640738E9, 0.0, 2022-10-23 13:00:23.764
241.0, -61318.05465436634, -89755.35211030867, 43469.784375403455, -6257.728488174497, 78490.92227112321, 54681.15117325201, 12687.833629588322, 14893.347310226836, 0.03, 0.9480000000000001, 0.134, 192.0, 0.0, 0.0, 0.0, 0.0, 0.0, 0.0, 0.0, 0.0, 0.0, 1.666555223764084E9, 0.0, 2022-10-23 13:00:23.764
242.0, -61239.44356911702, -89682.30660942872, 42459.06084287892, -6960.802610016181, 78180.50124412791, 54112.47809082009, 11876.845285516416, 13826.252678186022, 0.03, 0.9480000000000001, 0.134, 192.0, 0.0, 0.0, 0.0, 0.0, 0.0, 0.0, 0.0, 0.0, 0.0, 1.666555223764094E9, 0.0, 2022-10-23 13:00:23.764
243.0, -61246.55142385381, -89684.85470829663, 40664.28281835113, -7890.478717145767, 78201.02014553787, 53315.83956668849, 10775.50778097007, 12774.983081219565, 0.03, 0.9480000000000001, 0.134, 192.0, 0.0, 0.0, 0.0, 0.0, 0.0, 0.0, 0.0, 0.0, 0.0, 1.666555223764104E9, 0.0, 2022-10-23 13:00:23.764
244.0, -61284.88466559466, -89714.47076969991, 40958.18590619396, -7625.632897094834, 78357.34824625829, 53527.488234935794, 11096.7694040262, 13283.328805366613, 0.03, 0.9480000000000001, 0.134, 192.0, 0.0, 0.0, 0.0, 0.0, 0.0, 0.0, 0.0, 0.0, 0.0, 1.666555223764114E9, 0.0, 2022-10-23 13:00:23.764
245.0, -61313.53960198636, -89733.96149086494, 43147.718089546936, -6410.9720481600825, 78496.10787583684, 54546.3254506976, 12512.931229225545, 14750.765532346431, 0.026000000000000002, 0.9460000000000001, 0.124, 192.0, 0.0, 208.0, 29.0, 144.0, 3.0, 224.0, 0.0, 0.0, 0.0, 1.6665552237641237E9, 0.0, 2022-10-23 13:00:23.764
246.0, -61237.02958071585, -89669.87903951158, 42925.89937757247, -6684.758565993138, 78229.60802669621, 54346.120875611414, 12205.058301098145, 14189.133249417931, 0.026000000000000002, 0.9460000000000001, 0.124, 192.0, 0.0, 0.0, 0.0, 0.0, 0.0, 0.0, 0.0, 0.0, 0.0, 1.6665552237641344E9, 0.0, 2022-10-23 13:00:23.764
247.0, -61248.18310119905, -89685.92759203048, 40828.389326141994, -7818.55080348859, 78173.97453474696, 53390.38263444694, 10873.408421684317, 12833.29878250346, 0.026000000000000002, 0.9460000000000001, 0.124, 192.0, 0.0, 0.0, 0.0, 0.0, 0.0, 0.0, 0.0, 0.0, 0.0, 1.6665552237641442E9, 0.0, 2022-10-23 13:00:23.764
248.0, -61290.33849124175, -89724.01496458233, 40781.74123546377, -7740.453808361746, 78336.6952343816, 53439.80234143762, 10975.131210700418, 13122.396245288402, 0.026000000000000002, 0.9460000000000001, 0.124, 192.0, 0.0, 0.0, 0.0, 0.0, 0.0, 0.0, 0.0, 0.0, 0.0, 1.6665552237641542E9, 0.0, 2022-10-23 13:00:23.764
249.0, -61330.214003350025, -89765.65626450257, 42762.26225641516, -6608.78498658955, 78510.74826845506, 54393.37246338993, 12299.852049333102, 14539.988582132886, 0.026000000000000002, 0.9460000000000001, 0.124, 192.0, 0.0, 0.0, 0.0, 0.0, 0.0, 0.0, 0.0, 0.0, 0.0, 1.666555223764164E9, 0.0, 2022-10-23 13:00:23.764
250.0, -61271.69713636603, -89715.52130168931, 43324.58744342178, -6442.644470053252, 78300.61951883072, 54557.90365432545, 12501.688301764525, 14519.559087700736, 0.026000000000000002, 0.9460000000000001, 0.124, 192.0, 0.0, 0.0, 0.0, 0.0, 0.0, 0.0, 0.0, 0.0, 0.0, 1.666555223764174E9, 0.0, 2022-10-23 13:00:23.764
251.0, -61238.46009236099, -89686.4193304085, 41056.19830563048, -7716.828014472487, 78153.00859844788, 53489.28910366167, 11007.697702371801, 12928.964248772176, 0.026000000000000002, 0.9460000000000001, 0.124, 192.0, 0.0, 0.0, 0.0, 0.0, 0.0, 0.0, 0.0, 0.0, 0.0, 1.666555223764184E9, 0.0, 2022-10-23 13:00:23.764
252.0, -61279.90022658113, -89731.74866816387, 40672.86588822197, -7820.562460489567, 78304.21814968802, 53381.06195700908, 10885.523067179092, 12986.542342489045, 0.026000000000000002, 0.9460000000000001, 0.124, 192.0, 0.0, 0.0, 0.0, 0.0, 0.0, 0.0, 0.0, 0.0, 0.0, 1.6665552237641935E9, 0.0, 2022-10-23 13:00:23.764
253.0, -61327.66590448212, -89779.42493908704, 42301.79396889138, -6862.879617557481, 78492.17396881271, 54187.24467602309, 12009.815813281039, 14240.475206431773, 0.026000000000000002, 0.9460000000000001, 0.124, 192.0, 0.0, 0.0, 0.0, 0.0, 0.0, 0.0, 0.0, 0.0, 0.0, 1.6665552237642045E9, 0.0, 2022-10-23 13:00:23.764
0.0, 0.0, 0.0, 0.0, 0.0, 0.0, 0.0, 0.0, 0.0, 0.026000000000000002, 0.9460000000000001, 0.124, 192.0, 0.0, 0.0, 0.0, 0.0, 0.0, 0.0, 0.0, 0.0, 0.0, 1.6665552238754203E9, 0.0, 2022-10-23 13:00:23.875
1.0, -61388.932036034115, -89845.94373058602, 43882.21876409278, -5859.643919425478, 78703.26384344863, 55138.11023689631, 13006.547153776546, 14841.401856112703, 0.032, 0.9520000000000001, 0.126, 192.0, 1.0, 0.0, 29.0, 192.0, 3.0, 240.0, 0.0, 0.0, 0.0, 1.6665552243562095E9, 0.0, 2022-10-23 13:00:24.356
2.0, -61312.89140139716, -89776.76508149685, 42432.194046043645, -6790.43761377783, 78378.001258135, 54375.91575097034, 11921.034684304559, 13502.554714984264, 0.032, 0.9520000000000001, 0.126, 192.0, 0.0, 0.0, 0.0, 0.0, 0.0, 0.0, 0.0, 0.0, 0.0, 1.666555224356393E9, 0.0, 2022-10-23 13:00:24.356
3.0, -61325.251916080946, -89785.86224149016, 40887.66615243747, -7568.993576645086, 78433.03125298396, 53692.891143905064, 10991.068004497052, 12661.391515897694, 0.032, 0.9520000000000001, 0.126, 192.0, 0.0, 0.0, 0.0, 0.0, 0.0, 0.0, 0.0, 0.0, 0.0, 1.6665552243564074E9, 0.0, 2022-10-23 13:00:24.356
4.0, -61374.35869864926, -89826.38595418763, 41431.88642643529, -7168.22679856143, 78612.82868538245, 54034.179929993144, 11480.884132490652, 13333.150843757492, 0.032, 0.9520000000000001, 0.126, 192.0, 0.0, 0.0, 0.0, 0.0, 0.0, 0.0, 0.0, 0.0, 0.0, 1.66655522435642E9, 0.0, 2022-10-23 13:00:24.356
5.0, -61402.857172829776, -89855.59968419072, 43688.675008854276, -5940.356068653592, 78727.67194839382, 55083.63903565872, 12926.080873737441, 14793.971454378541, 0.032, 0.9520000000000001, 0.126, 192.0, 0.0, 0.0, 0.0, 0.0, 0.0, 0.0, 0.0, 0.0, 0.0, 1.666555224356438E9, 0.0, 2022-10-23 13:00:24.356
6.0, -61311.21502056301, -89771.17714538303, 42932.76136312025, -6503.485918460598, 78428.00211048152, 54637.72173377535, 12272.71703156436, 13877.996966600058, 0.032, 0.9520000000000001, 0.126, 192.0, 0.0, 0.0, 0.0, 0.0, 0.0, 0.0, 0.0, 0.0, 0.0, 1.6665552243564477E9, 0.0, 2022-10-23 13:00:24.356
7.0, -61313.56195373082, -89769.8360407157, 41006.91270910653, -7523.731294123089, 78414.8592847418, 53753.710240567954, 11056.133932606452, 12689.510010422471, 0.042, 0.9440000000000001, 0.14, 192.0, 1.0, 80.0, 29.0, 128.0, 4.0, 96.0, 0.0, 0.0, 0.0, 1.6665552243564575E9, 0.0, 2022-10-23 13:00:24.356
8.0, -61363.49575084398, -89818.83106456175, 41176.45069080004, -7333.517948808426, 78568.8404522944, 53898.504841149435, 11293.978845355374, 13119.892849909407, 0.042, 0.9440000000000001, 0.14, 192.0, 0.0, 0.0, 0.0, 0.0, 0.0, 0.0, 0.0, 0.0, 0.0, 1.6665552243564682E9, 0.0, 2022-10-23 13:00:24.356
9.0, -61398.96796929455, -89853.36450974518, 43308.628297880685, -6142.237024573926, 78735.94209384228, 54907.082606206255, 12696.550809925891, 14596.672606071545, 0.042, 0.9440000000000001, 0.14, 192.0, 0.0, 0.0, 0.0, 0.0, 0.0, 0.0, 0.0, 0.0, 0.0, 1.666555224356478E9, 0.0, 2022-10-23 13:00:24.356
10.0, -61323.642590480165, -89787.0468839463, 43303.532100144876, -6298.140442149693, 78480.17108204021, 54797.044968252776, 12522.631886319148, 14182.42772608134, 0.042, 0.9440000000000001, 0.14, 192.0, 0.0, 0.0, 0.0, 0.0, 0.0, 0.0, 0.0, 0.0, 0.0, 1.6665552243564897E9, 0.0, 2022-10-23 13:00:24.356
11.0, -61320.93802940107, -89786.10811067917, 41111.83179757975, -7500.15020372274, 78381.01874363646, 53771.03284252082, 11095.897685992442, 12714.052225834397, 0.042, 0.9440000000000001, 0.14, 192.0, 0.0, 0.0, 0.0, 0.0, 0.0, 0.0, 0.0, 0.0, 0.0, 1.6665552243564994E9, 0.0, 2022-10-23 13:00:24.356
12.0, -61361.886425243196, -89823.41317217507, 40993.948697322456, -7450.5293310319585, 78542.66655953725, 53800.67125566855, 11157.901425111464, 12962.313051499494, 0.042, 0.9440000000000001, 0.14, 192.0, 0.0, 0.0, 0.0, 0.0, 0.0, 0.0, 0.0, 0.0, 0.0, 1.6665552243565092E9, 0.0, 2022-10-23 13:00:24.356
13.0, -61395.5928558818, -89853.58802718975, 42857.99477791724, -6381.8030216459065, 78723.08984078048, 54704.50874620781, 12421.892574059078, 14338.353495401561, 0.042, 0.9440000000000001, 0.14, 192.0, 0.0, 0.0, 0.0, 0.0, 0.0, 0.0, 0.0, 0.0, 0.0, 1.6665552243565187E9, 0.0, 2022-10-23 13:00:24.356
14.0, -61346.62018378022, -89809.57744235724, 43647.16781940077, -6083.697805845476, 78542.37598685932, 54979.90458964164, 12780.302796399928, 14494.25691297733, 0.042, 0.9440000000000001, 0.14, 192.0, 0.0, 0.0, 0.0, 0.0, 0.0, 0.0, 0.0, 0.0, 0.0, 1.6665552243565283E9, 0.0, 2022-10-23 13:00:24.356
15.0, -61312.600828719245, -89778.46381407545, 41389.8204433704, -7354.97562348552, 78377.08483661232, 53913.43580644558, 11275.695118390933, 12872.794314955989, 0.042, 0.9440000000000001, 0.14, 192.0, 0.0, 0.0, 0.0, 0.0, 0.0, 0.0, 0.0, 0.0, 0.0, 1.666555224356538E9, 0.0, 2022-10-23 13:00:24.356
16.0, -61353.32570711681, -89816.37237267166, 40903.960574145385, -7513.9188783072095, 78516.64912899127, 53760.50517088237, 11087.582837055068, 12857.282204304005, 0.042, 0.9440000000000001, 0.14, 192.0, 0.0, 0.0, 0.0, 0.0, 0.0, 0.0, 0.0, 0.0, 0.0, 1.6665552243565476E9, 0.0, 2022-10-23 13:00:24.356
17.0, -61410.613228155766, -89869.34600703073, 42343.56937927835, -6681.070528158013, 78669.62446804339, 54446.033173326636, 12082.570741483063, 13998.271703514065, 0.048, 0.9420000000000001, 0.14400000000000002, 192.0, 1.0, 128.0, 29.0, 112.0, 4.0, 128.0, 0.0, 0.0, 0.0, 1.6665552243565571E9, 0.0, 2022-10-23 13:00:24.356
18.0, -61395.52580064843, -89857.90191386962, 43800.880766019916, -5987.965284343396, 78582.4526646677, 55048.70325907508, 12899.147021668796, 14674.054345375818, 0.048, 0.9420000000000001, 0.14400000000000002, 192.0, 0.0, 0.0, 0.0, 0.0, 0.0, 0.0, 0.0, 0.0, 0.0, 1.666555224356582E9, 0.0, 2022-10-23 13:00:24.356
19.0, -61322.726168957495, -89786.53279382382, 41672.92763864132, -7224.5978980777145, 78362.8914788832, 54019.248964697006, 11439.93573664853, 13035.112683190428, 0.048, 0.9420000000000001, 0.14400000000000002, 192.0, 0.0, 0.0, 0.0, 0.0, 0.0, 0.0, 0.0, 0.0, 0.0, 1.6665552243565917E9, 0.0, 2022-10-23 13:00:24.356
20.0, -61362.5346258324, -89822.63086111913, 40837.26296869075, -7566.825457432921, 78501.80757067294, 53714.505280793346, 11024.685028157834, 12769.90923522821, 0.048, 0.9420000000000001, 0.14400000000000002, 192.0, 0.0, 0.0, 0.0, 0.0, 0.0, 0.0, 0.0, 0.0, 0.0, 1.6665552243566012E9, 0.0, 2022-10-23 13:00:24.356
21.0, -61393.02240526944, -89854.2585795234, 41942.48967677232, -6882.16917302241, 78672.91017447833, 54285.525296393076, 11844.144683378301, 13750.77083716045, 0.048, 0.9420000000000001, 0.14400000000000002, 192.0, 0.0, 0.0, 0.0, 0.0, 0.0, 0.0, 0.0, 0.0, 0.0, 1.6665552243566117E9, 0.0, 2022-10-23 13:00:24.356
22.0, -61386.965082522045, -89852.06810856677, 43896.68034275536, -5881.414518524947, 78674.18422391228, 55146.045106177946, 13023.199203395749, 14844.17347242516, 0.048, 0.9420000000000001, 0.14400000000000002, 192.0, 0.0, 0.0, 0.0, 0.0, 0.0, 0.0, 0.0, 0.0, 0.0, 1.6665552243566215E9, 0.0, 2022-10-23 13:00:24.356
23.0, -61312.04203510786, -89785.90694497907, 42090.86055646665, -6997.571229645161, 78368.47941499704, 54217.06190312647, 11716.717388238596, 13309.368587657045, 0.048, 0.9420000000000001, 0.14400000000000002, 192.0, 0.0, 0.0, 0.0, 0.0, 0.0, 0.0, 0.0, 0.0, 0.0, 1.666555224356631E9, 0.0, 2022-10-23 13:00:24.356
24.0, -61350.75525650445, -89822.29558495231, 40816.3864393695, -7604.488146840114, 78467.43058770068, 53679.07776583169, 10984.004853249175, 12695.142650025207, 0.048, 0.9420000000000001, 0.14400000000000002, 192.0, 0.0, 0.0, 0.0, 0.0, 0.0, 0.0, 0.0, 0.0, 0.0, 1.6665552243566408E9, 0.0, 2022-10-23 13:00:24.356
25.0, -61401.449012929086, -89868.4072337636, 41555.715090717684, -7110.089911233176, 78628.69842394572, 54094.4178813002, 11585.602055263766, 13473.72096463692, 0.048, 0.9420000000000001, 0.14400000000000002, 192.0, 0.0, 0.0, 0.0, 0.0, 0.0, 0.0, 0.0, 0.0, 0.0, 1.6665552243566504E9, 0.0, 2022-10-23 13:00:24.356
26.0, -61417.34110323681, -89886.4227397946, 43751.84103868497, -5940.22195818686, 78701.65451784784, 55090.67983516215, 12957.954461330708, 14826.113262905272, 0.048, 0.9420000000000001, 0.14400000000000002, 192.0, 0.0, 0.0, 0.0, 0.0, 0.0, 0.0, 0.0, 0.0, 0.0, 1.66655522435666E9, 0.0, 2022-10-23 13:00:24.356
27.0, -61313.20432581953, -89788.49974733588, 42549.071317800444, -6736.480502662719, 78416.78153476496, 54439.64057441242, 12023.584487865506, 13637.112216605214, 0.048, 0.9440000000000001, 0.146, 192.0, 1.0, 128.0, 29.0, 128.0, 4.0, 144.0, 0.0, 0.0, 0.0, 1.6665552243566706E9, 0.0, 2022-10-23 13:00:24.356
28.0, -61318.99342763346, -89792.90304099358, 40901.07719911065, -7560.991652130086, 78484.86494837582, 53726.39640884357, 11028.909507859888, 12709.738339154523, 0.048, 0.9440000000000001, 0.146, 192.0, 0.0, 0.0, 0.0, 0.0, 0.0, 0.0, 0.0, 0.0, 0.0, 1.6665552243566809E9, 0.0, 2022-10-23 13:00:24.356
29.0, -61374.35869864926, -89843.82031486277, 41279.671046694646, -7254.81745658129, 78620.27181628607, 53982.54740030139, 11406.341064732202, 13267.05673540315, 0.048, 0.9440000000000001, 0.146, 192.0, 0.0, 0.0, 0.0, 0.0, 0.0, 0.0, 0.0, 0.0, 0.0, 1.6665552243566904E9, 0.0, 2022-10-23 13:00:24.356
30.0, -61410.56852466685, -89877.63850422365, 43468.95736085861, -6056.182808420994, 78735.29389325308, 55001.96576141904, 12819.597163152357, 14714.466299351014, 0.048, 0.9440000000000001, 0.146, 192.0, 0.0, 0.0, 0.0, 0.0, 0.0, 0.0, 0.0, 0.0, 0.0, 1.6665552243567E9, 0.0, 2022-10-23 13:00:24.356
31.0, -61329.6775614831, -89800.83791027522, 43001.112997664575, -6465.845580797861, 78443.69303508915, 54681.03941452973, 12349.20470109042, 13984.927712074246, 0.048, 0.9440000000000001, 0.146, 192.0, 0.0, 0.0, 0.0, 0.0, 0.0, 0.0, 0.0, 0.0, 0.0, 1.6665552243567097E9, 0.0, 2022-10-23 13:00:24.356
32.0, -61332.53858477338, -89801.1955381865, 40991.78057811029, -7536.9858785850865, 78401.78351423545, 53763.12032498364, 11072.406002569915, 12701.222324517052, 0.048, 0.9440000000000001, 0.146, 192.0, 0.0, 0.0, 0.0, 0.0, 0.0, 0.0, 0.0, 0.0, 0.0, 1.6665552243567195E9, 0.0, 2022-10-23 13:00:24.356
33.0, -61375.11865796074, -89844.26734975188, 41059.12638415413, -7390.961932058565, 78563.38662664732, 53873.962625737506, 11249.94590877842, 13063.521750393124, 0.048, 0.9440000000000001, 0.146, 192.0, 0.0, 0.0, 0.0, 0.0, 0.0, 0.0, 0.0, 0.0, 0.0, 1.6665552243567379E9, 0.0, 2022-10-23 13:00:24.356
34.0, -61402.857172829776, -89870.79887042033, 43078.628847435575, -6255.649775940154, 78731.85172460697, 54832.494834958896, 12589.083622584776, 14489.607750130624, 0.048, 0.9440000000000001, 0.146, 192.0, 0.0, 0.0, 0.0, 0.0, 0.0, 0.0, 0.0, 0.0, 0.0, 1.6665552243567476E9, 0.0, 2022-10-23 13:00:24.356
35.0, -61329.632857994184, -89797.66396256257, 43391.95560121007, -6225.6090313922205, 78517.72201272512, 54881.355748338196, 12632.915393461633, 14304.848230463056, 0.048, 0.9440000000000001, 0.146, 192.0, 0.0, 0.0, 0.0, 0.0, 0.0, 0.0, 0.0, 0.0, 0.0, 1.6665552243567572E9, 0.0, 2022-10-23 13:00:24.356
36.0, -61317.697026455055, -89788.90207873608, 41135.70346065801, -7475.250360399528, 78388.86420594028, 53818.865575655174, 11154.034573320696, 12755.827636221366, 0.048, 0.9440000000000001, 0.146, 192.0, 0.0, 0.0, 0.0, 0.0, 0.0, 0.0, 0.0, 0.0, 0.0, 1.6665552243567667E9, 0.0, 2022-10-23 13:00:24.356
37.0, -61364.121599688726, -89833.24793973542, 40885.09570182511, -7497.356235665827, 78541.97365545914, 53786.96963631745, 11129.693523608867, 12916.335513154927, 0.044, 0.9440000000000001, 0.138, 192.0, 1.0, 96.0, 29.0, 128.0, 4.0, 80.0, 0.0, 0.0, 0.0, 1.6665552243567765E9, 0.0, 2022-10-23 13:00:24.356
38.0, -61416.402329969686, -89880.38776879165, 42616.461827333194, -6497.361540479844, 78714.35030869846, 54631.5973557946, 12314.20186927341, 14224.381950423951, 0.044, 0.9440000000000001, 0.138, 192.0, 0.0, 0.0, 0.0, 0.0, 0.0, 0.0, 0.0, 0.0, 0.0, 1.6665552243567867E9, 0.0, 2022-10-23 13:00:24.356
39.0, -61367.92139624613, -89840.51225668339, 43738.027660611595, -5996.011912347307, 78582.34090594541, 55086.83533511584, 12907.797146772999, 14624.65699012959, 0.044, 0.9440000000000001, 0.138, 192.0, 0.0, 0.0, 0.0, 0.0, 0.0, 0.0, 0.0, 0.0, 0.0, 1.6665552243567965E9, 0.0, 2022-10-23 13:00:24.356
40.0, -61313.919581642105, -89788.79032001381, 41492.951392287185, -7282.3548057502285, 78368.56882197486, 54009.5483076034, 11391.141878502594, 12953.171188017272, 0.044, 0.9440000000000001, 0.138, 192.0, 0.0, 0.0, 0.0, 0.0, 0.0, 0.0, 0.0, 0.0, 0.0, 1.6665552243568063E9, 0.0, 2022-10-23 13:00:24.356
41.0, -61344.80969247934, -89819.16634072857, 40859.637064890514, -7522.278430733494, 78520.40422205976, 53784.53329617182, 11103.430223873882, 12830.25894525754, 0.044, 0.9440000000000001, 0.138, 192.0, 0.0, 0.0, 0.0, 0.0, 0.0, 0.0, 0.0, 0.0, 0.0, 1.6665552243568158E9, 0.0, 2022-10-23 13:00:24.356
42.0, -61394.85524831477, -89867.28964654084, 42211.1129416362, -6714.955772752259, 78687.7740845411, 54462.5064089902, 12067.595072698006, 13942.302935397976, 0.044, 0.9440000000000001, 0.138, 192.0, 0.0, 0.0, 0.0, 0.0, 0.0, 0.0, 0.0, 0.0, 0.0, 1.666555224356825E9, 0.0, 2022-10-23 13:00:24.356
43.0, -61383.902893531675, -89859.01950109238, 43895.674514254875, -5885.638998227, 78630.15128733532, 55178.321025171404, 13041.013543726629, 14790.059899098862, 0.044, 0.9440000000000001, 0.138, 192.0, 0.0, 0.0, 0.0, 0.0, 0.0, 0.0, 0.0, 0.0, 0.0, 1.666555224356835E9, 0.0, 2022-10-23 13:00:24.356
44.0, -61322.99438989096, -89798.62508757414, 41844.16435291342, -7113.129748479098, 78355.29188576841, 54151.12425698331, 11599.124860659225, 13142.69162925382, 0.044, 0.9440000000000001, 0.138, 192.0, 0.0, 0.0, 0.0, 0.0, 0.0, 0.0, 0.0, 0.0, 0.0, 1.6665552243568444E9, 0.0, 2022-10-23 13:00:24.356
45.0, -61352.94572746107, -89823.61433787517, 40820.81208477165, -7573.419222047237, 78482.8756431193, 53741.99792647338, 11047.32734529106, 12730.27959230895, 0.044, 0.9440000000000001, 0.138, 192.0, 0.0, 0.0, 0.0, 0.0, 0.0, 0.0, 0.0, 0.0, 0.0, 1.666555224356854E9, 0.0, 2022-10-23 13:00:24.356
46.0, -61380.93011151912, -89847.44129746454, 41809.94383215235, -6941.915385951446, 78665.15411915233, 54276.96457826669, 11807.040787582493, 13656.535882536875, 0.042, 0.9520000000000001, 0.14200000000000002, 192.0, 1.0, 80.0, 29.0, 192.0, 4.0, 112.0, 0.0, 0.0, 0.0, 1.6665552243568645E9, 0.0, 2022-10-23 13:00:24.356
47.0, -61391.07780350182, -89858.95244585902, 43883.716330971285, -5864.382489250003, 78690.03161073108, 55197.767042847525, 13073.289462720093, 14863.217158701082, 0.042, 0.9520000000000001, 0.14200000000000002, 192.0, 0.0, 0.0, 0.0, 0.0, 0.0, 0.0, 0.0, 0.0, 0.0, 1.6665552243568747E9, 0.0, 2022-10-23 13:00:24.356
48.0, -61316.69119795456, -89792.59011657121, 42316.72493418753, -6852.0390214966565, 78381.73399945903, 54388.90211449887, 11917.391349958343, 13462.18746449798, 0.042, 0.9520000000000001, 0.14200000000000002, 192.0, 0.0, 0.0, 0.0, 0.0, 0.0, 0.0, 0.0, 0.0, 0.0, 1.6665552243568852E9, 0.0, 2022-10-23 13:00:24.356
49.0, -61332.20330860655, -89805.17414869955, 40885.721550669856, -7554.755515427055, 78462.55790740943, 53775.72670885643, 11071.109601391507, 12712.42054848916, 0.042, 0.9520000000000001, 0.14200000000000002, 192.0, 0.0, 0.0, 0.0, 0.0, 0.0, 0.0, 0.0, 0.0, 0.0, 1.6665552243569036E9, 0.0, 2022-10-23 13:00:24.356
50.0, -61370.22362592502, -89838.34413747123, 41488.07871199593, -7134.095684778176, 78630.17363907977, 54125.44210260417, 11585.222075608024, 13406.218696381891, 0.042, 0.9520000000000001, 0.14200000000000002, 192.0, 0.0, 0.0, 0.0, 0.0, 0.0, 0.0, 0.0, 0.0, 0.0, 1.6665552243569133E9, 0.0, 2022-10-23 13:00:24.356
51.0, -61399.25854197247, -89864.07099533928, 43707.38341896336, -5950.459057147391, 78718.57478840051, 55127.80608270241, 12983.99424362114, 14808.50008827449, 0.042, 0.9520000000000001, 0.14200000000000002, 192.0, 0.0, 0.0, 0.0, 0.0, 0.0, 0.0, 0.0, 0.0, 0.0, 1.6665552243569229E9, 0.0, 2022-10-23 13:00:24.356
52.0, -61319.90984915613, -89789.77379676983, 42783.474061903245, -6607.980323789159, 78415.46278184208, 54595.87926815501, 12224.973705407823, 13786.690090500128, 0.042, 0.9520000000000001, 0.14200000000000002, 192.0, 0.0, 0.0, 0.0, 0.0, 0.0, 0.0, 0.0, 0.0, 0.0, 1.6665552243569324E9, 0.0, 2022-10-23 13:00:24.356
53.0, -61339.13234938769, -89811.4996923804, 40997.726142135405, -7524.088922034374, 78435.86992452979, 53810.058988339784, 11127.257183463238, 12722.724702683057, 0.042, 0.9520000000000001, 0.14200000000000002, 192.0, 0.0, 0.0, 0.0, 0.0, 0.0, 0.0, 0.0, 0.0, 0.0, 1.666555224356942E9, 0.0, 2022-10-23 13:00:24.356
54.0, -61382.45003014208, -89857.18665804705, 41284.25315430798, -7266.842695098245, 78582.94440304571, 54025.239232211025, 11444.98723089543, 13220.118072047004, 0.042, 0.9520000000000001, 0.14200000000000002, 192.0, 0.0, 0.0, 0.0, 0.0, 0.0, 0.0, 0.0, 0.0, 0.0, 1.6665552243569517E9, 0.0, 2022-10-23 13:00:24.356
55.0, -61415.284742746924, -89885.55102176082, 43484.670637210686, -6054.528779331301, 78731.65055890687, 55052.7936283104, 12871.341451566394, 14705.592656802257, 0.042, 0.9520000000000001, 0.14200000000000002, 192.0, 0.0, 0.0, 0.0, 0.0, 0.0, 0.0, 0.0, 0.0, 0.0, 1.6665552243569613E9, 0.0, 2022-10-23 13:00:24.356
56.0, -61334.61729700772, -89808.5492621123, 43340.70305117405, -6293.8712589587285, 78466.38005571128, 54873.733803478935, 12598.337244789273, 14178.85144696849, 0.048, 0.9500000000000001, 0.136, 192.0, 1.0, 128.0, 29.0, 176.0, 4.0, 64.0, 0.0, 0.0, 0.0, 1.6665552243569708E9, 0.0, 2022-10-23 13:00:24.356
57.0, -61314.25485780893, -89789.30441013628, 41236.75569734046, -7430.077484855353, 78417.6085493098, 53908.18314649858, 11245.162635464983, 12789.310549415417, 0.048, 0.9500000000000001, 0.136, 192.0, 0.0, 0.0, 0.0, 0.0, 0.0, 0.0, 0.0, 0.0, 0.0, 1.6665552243569813E9, 0.0, 2022-10-23 13:00:24.356
58.0, -61363.71926828853, -89838.12062002668, 41206.51378709242, -7335.082570920297, 78581.31272570047, 53980.93807470061, 11363.313956655737, 13083.615968658445, 0.048, 0.9500000000000001, 0.136, 192.0, 0.0, 0.0, 0.0, 0.0, 0.0, 0.0, 0.0, 0.0, 0.0, 1.6665552243569906E9, 0.0, 2022-10-23 13:00:24.356
59.0, -61413.67541714614, -89885.03693163836, 43149.57328433672, -6237.410752464623, 78739.20544853275, 54913.519908609385, 12664.185483954607, 14475.794372057246, 0.048, 0.9500000000000001, 0.136, 192.0, 0.0, 0.0, 0.0, 0.0, 0.0, 0.0, 0.0, 0.0, 0.0, 1.666555224357E9, 0.0, 2022-10-23 13:00:24.357
60.0, -61352.923375716615, -89827.14591349912, 43776.13738490789, -6045.252805382348, 78528.85318146387, 55097.36300675428, 12900.309312380472, 14492.15584899853, 0.048, 0.9500000000000001, 0.136, 192.0, 0.0, 0.0, 0.0, 0.0, 0.0, 0.0, 0.0, 0.0, 0.0, 1.66655522435701E9, 0.0, 2022-10-23 13:00:24.357
61.0, -61328.00118064895, -89801.86609052015, 41498.38286618982, -7322.92322193661, 78381.44342678112, 54016.67851408464, 11386.336253444702, 12872.839018444898, 0.048, 0.9500000000000001, 0.136, 192.0, 0.0, 0.0, 0.0, 0.0, 0.0, 0.0, 0.0, 0.0, 0.0, 1.6665552243570192E9, 0.0, 2022-10-23 13:00:24.357
62.0, -61373.50933235995, -89847.08366955325, 41133.982376334956, -7402.897763597699, 78531.28952160949, 53941.420190503624, 11288.793240641742, 12939.469568666169, 0.048, 0.9500000000000001, 0.136, 192.0, 0.0, 0.0, 0.0, 0.0, 0.0, 0.0, 0.0, 0.0, 0.0, 1.6665552243570287E9, 0.0, 2022-10-23 13:00:24.357
63.0, -61402.3430827073, -89875.06805361129, 42725.314822830536, -6473.556932634942, 78708.8741313069, 54728.76038894182, 12389.951931232445, 14170.916577686856, 0.048, 0.9500000000000001, 0.136, 192.0, 0.0, 0.0, 0.0, 0.0, 0.0, 0.0, 0.0, 0.0, 0.0, 1.6665552243570383E9, 0.0, 2022-10-23 13:00:24.357
64.0, -61362.62403281022, -89838.5005996824, 44062.19501044691, -5862.393183993481, 78596.82483635245, 55267.05745065898, 13112.650884705889, 14729.86665128072, 0.048, 0.9500000000000001, 0.136, 192.0, 0.0, 0.0, 0.0, 0.0, 0.0, 0.0, 0.0, 0.0, 0.0, 1.6665552243570564E9, 0.0, 2022-10-23 13:00:24.357
65.0, -61298.5192297124, -89776.63097103011, 41849.774640771706, -7156.246263533386, 78370.15579583119, 54180.516800942045, 11589.759479732453, 13037.638430313878, 0.048, 0.9500000000000001, 0.136, 192.0, 0.0, 0.0, 0.0, 0.0, 0.0, 0.0, 0.0, 0.0, 0.0, 1.666555224357066E9, 0.0, 2022-10-23 13:00:24.357
66.0, -61344.89909945716, -89818.78636107282, 41096.18557646103, -7457.681889257657, 78517.76671621403, 53911.04416978886, 11226.78950152272, 12827.39792196726, 0.05, 0.9500000000000001, 0.132, 192.0, 1.0, 144.0, 29.0, 176.0, 4.0, 32.0, 0.0, 0.0, 0.0, 1.6665552243570757E9, 0.0, 2022-10-23 13:00:24.357
67.0, -61388.57440812283, -89858.97479760347, 42273.31784645532, -6748.148113268389, 78685.0248199731, 54504.17006065489, 12078.256854803189, 13838.054399258424, 0.05, 0.9500000000000001, 0.132, 192.0, 0.0, 0.0, 0.0, 0.0, 0.0, 0.0, 0.0, 0.0, 0.0, 1.666555224357086E9, 0.0, 2022-10-23 13:00:24.357
68.0, -61398.655044872175, -89871.7599954319, 44151.55728477923, -5799.696540796344, 78660.6167150279, 55323.76382634209, 13194.122993245483, 14852.823597529365, 0.05, 0.9500000000000001, 0.132, 192.0, 0.0, 0.0, 0.0, 0.0, 0.0, 0.0, 0.0, 0.0, 0.0, 1.6665552243570955E9, 0.0, 2022-10-23 13:00:24.357
69.0, -61306.47645073849, -89782.6435902886, 42275.55302090085, -6940.596633028583, 78367.54064172991, 54377.927407971314, 11854.717058505663, 13285.496924578778, 0.05, 0.9500000000000001, 0.132, 192.0, 0.0, 0.0, 0.0, 0.0, 0.0, 0.0, 0.0, 0.0, 0.0, 1.666555224357106E9, 0.0, 2022-10-23 13:00:24.357
70.0, -61329.0740643828, -89803.40836088758, 41085.166166444564, -7499.636113600268, 78484.44026523117, 53882.59039909726, 11180.901370155976, 12737.834481934844, 0.05, 0.9500000000000001, 0.132, 192.0, 0.0, 0.0, 0.0, 0.0, 0.0, 0.0, 0.0, 0.0, 0.0, 1.6665552243571165E9, 0.0, 2022-10-23 13:00:24.357
71.0, -61381.98064350851, -89856.94078885803, 41914.03590608072, -6957.718069281348, 78655.9675521812, 54339.79533193056, 11835.114578618357, 13567.933567516038, 0.05, 0.9500000000000001, 0.132, 192.0, 0.0, 0.0, 0.0, 0.0, 0.0, 0.0, 0.0, 0.0, 0.0, 1.666555224357126E9, 0.0, 2022-10-23 13:00:24.357
72.0, -61391.502486646474, -89869.74833843093, 44095.186185262944, -5807.4972996112465, 78715.62435813241, 55324.724951353666, 13188.378594920468, 14886.6641386347, 0.05, 0.9500000000000001, 0.132, 192.0, 0.0, 0.0, 0.0, 0.0, 0.0, 0.0, 0.0, 0.0, 0.0, 1.6665552243571353E9, 0.0, 2022-10-23 13:00:24.357
73.0, -61299.234485534966, -89784.90111647858, 42755.4896778452, -6684.0433101705685, 78408.64549978322, 54609.78205320622, 12168.803771591636, 13607.518506946386, 0.05, 0.9500000000000001, 0.132, 192.0, 0.0, 0.0, 0.0, 0.0, 0.0, 0.0, 0.0, 0.0, 0.0, 1.666555224357145E9, 0.0, 2022-10-23 13:00:24.357
74.0, -61316.780604932384, -89800.12265445264, 41162.68201621557, -7485.755680293522, 78472.19150926966, 53918.01791405892, 11209.891582714508, 12720.735397426533, 0.05, 0.9500000000000001, 0.132, 192.0, 0.0, 0.0, 0.0, 0.0, 0.0, 0.0, 0.0, 0.0, 0.0, 1.6665552243571548E9, 0.0, 2022-10-23 13:00:24.357
75.0, -61368.659003813154, -89846.72604164196, 41615.32719317999, -7146.545606439782, 78628.07257510097, 54198.46525173965, 11625.298753416391, 13320.052721506683, 0.052000000000000005, 0.9460000000000001, 0.128, 192.0, 1.0, 160.0, 29.0, 144.0, 4.0, 0.0, 0.0, 0.0, 0.0, 1.6665552243571644E9, 0.0, 2022-10-23 13:00:24.357
76.0, -61386.67450984413, -89865.8591348957, 43853.31795851207, -5929.962507481874, 78752.10240508347, 55227.56191820645, 13053.038782243584, 14777.609977437256, 0.052000000000000005, 0.9460000000000001, 0.128, 192.0, 0.0, 0.0, 0.0, 0.0, 0.0, 0.0, 0.0, 0.0, 0.0, 1.6665552243571744E9, 0.0, 2022-10-23 13:00:24.357
77.0, -61301.13438381367, -89787.94095372451, 43195.46141570347, -6448.142999189258, 78463.80960509893, 54807.77380559133, 12454.32495526373, 13926.209679390155, 0.052000000000000005, 0.9460000000000001, 0.128, 192.0, 0.0, 0.0, 0.0, 0.0, 0.0, 0.0, 0.0, 0.0, 0.0, 1.666555224357184E9, 0.0, 2022-10-23 13:00:24.357
78.0, -61312.48906999697, -89796.90400325108, 41253.63126440421, -7469.125982418774, 78450.82324157038, 53935.34051601178, 11238.904147017498, 12722.858813149789, 0.052000000000000005, 0.9460000000000001, 0.128, 192.0, 0.0, 0.0, 0.0, 0.0, 0.0, 0.0, 0.0, 0.0, 0.0, 1.6665552243571937E9, 0.0, 2022-10-23 13:00:24.357
79.0, -61370.536550347395, -89849.69882365451, 41391.87680386029, -7290.960227365521, 78595.79665610752, 54075.731822935566, 11459.69467874702, 13127.671256979855, 0.052000000000000005, 0.9460000000000001, 0.128, 192.0, 0.0, 0.0, 0.0, 0.0, 0.0, 0.0, 0.0, 0.0, 0.0, 1.666555224357203E9, 0.0, 2022-10-23 13:00:24.357
80.0, -61407.08165253182, -89884.00875139341, 43486.347018044835, -6122.567489453255, 78746.55917245855, 55065.89175056121, 12834.975163337609, 14579.46176284096, 0.052000000000000005, 0.9460000000000001, 0.128, 192.0, 0.0, 0.0, 0.0, 0.0, 0.0, 0.0, 0.0, 0.0, 0.0, 1.6665552243572211E9, 0.0, 2022-10-23 13:00:24.357
81.0, -61319.596924733756, -89803.22954693194, 43636.863665206874, -6195.590638588744, 78515.66565223523, 55027.670267542635, 12759.023935678475, 14269.532474223672, 0.052000000000000005, 0.9460000000000001, 0.128, 192.0, 0.0, 0.0, 0.0, 0.0, 0.0, 0.0, 0.0, 0.0, 0.0, 1.666555224357231E9, 0.0, 2022-10-23 13:00:24.357
82.0, -61300.910866369115, -89778.82144198674, 41438.43548756069, -7399.455594951582, 78428.13622094825, 54007.20137443559, 11330.993334173363, 12783.186171434661, 0.052000000000000005, 0.9460000000000001, 0.128, 192.0, 0.0, 0.0, 0.0, 0.0, 0.0, 0.0, 0.0, 0.0, 0.0, 1.6665552243572404E9, 0.0, 2022-10-23 13:00:24.357
83.0, -61349.81648323733, -89826.31889895427, 41236.71099385154, -7403.009522319976, 78571.90264128479, 53986.14603115869, 11329.585174272677, 12966.314013756994, 0.052000000000000005, 0.9460000000000001, 0.128, 192.0, 0.0, 0.0, 0.0, 0.0, 0.0, 0.0, 0.0, 0.0, 0.0, 1.66655522435725E9, 0.0, 2022-10-23 13:00:24.357
84.0, -61395.34698669279, -89869.48011749747, 43046.37528018657, -6362.938149325628, 78744.50281196866, 54862.91555916257, 12556.383020446661, 14308.938599698378, 0.052000000000000005, 0.9460000000000001, 0.128, 192.0, 0.0, 0.0, 0.0, 0.0, 0.0, 0.0, 0.0, 0.0, 0.0, 1.6665552243572595E9, 0.0, 2022-10-23 13:00:24.357
85.0, -61355.53852981789, -89834.4996374249, 43996.79380617068, -5972.520228924779, 78573.66842909675, 55217.39187447928, 13018.86296497142, 14573.337384860204, 0.046, 0.9480000000000001, 0.132, 192.0, 1.0, 112.0, 29.0, 160.0, 4.0, 32.0, 0.0, 0.0, 0.0, 1.666555224357293E9, 0.0, 2022-10-23 13:00:24.357
86.0, -61296.015834333404, -89778.82144198674, 41725.65540381139, -7266.038032297854, 78387.00901115048, 54129.48776835058, 11490.160106439604, 12912.89334450881, 0.046, 0.9480000000000001, 0.132, 192.0, 0.0, 0.0, 0.0, 0.0, 0.0, 0.0, 0.0, 0.0, 0.0, 1.6665552243573372E9, 0.0, 2022-10-23 13:00:24.357
87.0, -61335.62312550821, -89819.00987851738, 41183.37973158118, -7453.502113044515, 78545.37112061634, 53955.4347342771, 11264.429839185457, 12860.25498631656, 0.046, 0.9480000000000001, 0.132, 192.0, 0.0, 0.0, 0.0, 0.0, 0.0, 0.0, 0.0, 0.0, 0.0, 1.666555224357378E9, 0.0, 2022-10-23 13:00:24.357
88.0, -61388.440297656096, -89869.8600971532, 42603.8554434604, -6615.669323881784, 78722.57575065801, 54659.96171950838, 12261.451752358886, 14007.614732696384, 0.046, 0.9480000000000001, 0.132, 192.0, 0.0, 0.0, 0.0, 0.0, 0.0, 0.0, 0.0, 0.0, 0.0, 1.6665552243574195E9, 0.0, 2022-10-23 13:00:24.357
89.0, -61358.57836706381, -89843.9097218406, 44195.724331822916, -5844.422381451414, 78654.58174402497, 55333.28566948005, 13169.401963877914, 14781.007442594462, 0.046, 0.9480000000000001, 0.132, 192.0, 0.0, 0.0, 0.0, 0.0, 0.0, 0.0, 0.0, 0.0, 0.0, 1.6665552243574612E9, 0.0, 2022-10-23 13:00:24.357
90.0, -61300.12855531318, -89783.4929565779, 42097.23080363641, -7087.380538866585, 78388.88655768473, 54298.55636341052, 11709.274257334979, 13124.944344156307, 0.046, 0.9480000000000001, 0.132, 192.0, 0.0, 0.0, 0.0, 0.0, 0.0, 0.0, 0.0, 0.0, 0.0, 1.6665552243574812E9, 0.0, 2022-10-23 13:00:24.357
91.0, -61333.94674467406, -89812.70668658099, 41140.46438222699, -7512.086035261874, 78514.01162314555, 53915.983905313486, 11197.016977908252, 12759.605081034313, 0.046, 0.9480000000000001, 0.132, 192.0, 0.0, 0.0, 0.0, 0.0, 0.0, 0.0, 0.0, 0.0, 0.0, 1.6665552243574908E9, 0.0, 2022-10-23 13:00:24.357
92.0, -61380.17015220763, -89862.39461450513, 42178.94878136501, -6866.0088617812235, 78684.80130252855, 54455.37620250895, 11970.543798273064, 13702.312255181343, 0.046, 0.9480000000000001, 0.132, 192.0, 0.0, 0.0, 0.0, 0.0, 0.0, 0.0, 0.0, 0.0, 0.0, 1.6665552243574986E9, 0.0, 2022-10-23 13:00:24.357
93.0, -61383.612320853754, -89869.14484133064, 44197.42306440152, -5826.6303928649895, 78699.06171549103, 55344.774466130075, 13188.400946664924, 14852.60008008481, 0.046, 0.9480000000000001, 0.132, 192.0, 0.0, 0.0, 0.0, 0.0, 0.0, 0.0, 0.0, 0.0, 0.0, 1.6665552243575065E9, 0.0, 2022-10-23 13:00:24.357
94.0, -61306.56585771631, -89795.80876777277, 42532.8886548148, -6856.732887832271, 78411.08183992885, 54503.141880409945, 11982.859609467938, 13408.498574316332, 0.046, 0.9480000000000001, 0.132, 192.0, 0.0, 0.0, 0.0, 0.0, 0.0, 0.0, 0.0, 0.0, 0.0, 1.6665552243575141E9, 0.0, 2022-10-23 13:00:24.357
95.0, -61321.63093347919, -89806.55995685578, 41205.37384812521, -7494.226991442084, 78499.39358227178, 53951.992565630986, 11217.290010129216, 12744.227080849061, 0.034, 0.9460000000000001, 0.128, 192.0, 1.0, 16.0, 29.0, 144.0, 4.0, 0.0, 0.0, 0.0, 0.0, 1.666555224357522E9, 0.0, 2022-10-23 13:00:24.357
96.0, -61364.70274504456, -89844.71438464099, 41867.61133284704, -7050.120180859588, 78657.8674504599, 54322.71859916671, 11761.554987615942, 13466.43429594449, 0.034, 0.9460000000000001, 0.128, 192.0, 0.0, 0.0, 0.0, 0.0, 0.0, 0.0, 0.0, 0.0, 0.0, 1.6665552243575373E9, 0.0, 2022-10-23 13:00:24.357
97.0, -61400.040853028404, -89881.48300426996, 44071.985074518336, -5885.482536015813, 78725.39207045938, 55312.18562271424, 13134.019152405162, 14831.343571107815, 0.034, 0.9460000000000001, 0.128, 192.0, 0.0, 0.0, 0.0, 0.0, 0.0, 0.0, 0.0, 0.0, 0.0, 1.666555224357546E9, 0.0, 2022-10-23 13:00:24.357
98.0, -61300.06150007981, -89785.7951862568, 43011.93124198094, -6606.393349932832, 78442.39663391074, 54730.10149360913, 12294.62174113056, 13731.57068867334, 0.034, 0.9460000000000001, 0.128, 192.0, 0.0, 0.0, 0.0, 0.0, 0.0, 0.0, 0.0, 0.0, 0.0, 1.6665552243575537E9, 0.0, 2022-10-23 13:00:24.357
99.0, -61313.293732797356, -89799.02741897434, 41283.850822907785, -7490.829526284877, 78471.58801216936, 53970.94684492909, 11237.339524905627, 12721.473004993559, 0.034, 0.9460000000000001, 0.128, 192.0, 0.0, 0.0, 0.0, 0.0, 0.0, 0.0, 0.0, 0.0, 0.0, 1.6665552243575618E9, 0.0, 2022-10-23 13:00:24.357
100.0, -61355.11384667324, -89838.41119270459, 41613.65081234584, -7212.483252582938, 78624.29513028802, 54199.314618028955, 11576.549598759366, 13245.867281659519, 0.034, 0.9460000000000001, 0.128, 192.0, 0.0, 0.0, 0.0, 0.0, 0.0, 0.0, 0.0, 0.0, 0.0, 1.6665552243575697E9, 0.0, 2022-10-23 13:00:24.357
101.0, -61397.13512624921, -89872.69876869903, 43809.55324286858, -6008.640647964555, 78757.84680340848, 55218.55416519096, 12989.805697179521, 14709.392453359658, 0.034, 0.9460000000000001, 0.128, 192.0, 0.0, 0.0, 0.0, 0.0, 0.0, 0.0, 0.0, 0.0, 0.0, 1.6665552243575773E9, 0.0, 2022-10-23 13:00:24.357
102.0, -61307.39287226115, -89788.70091303598, 43502.95436417513, -6329.477587876033, 78480.55106169595, 54977.93763612958, 12622.007742167443, 14085.130582467387, 0.034, 0.9460000000000001, 0.128, 192.0, 0.0, 0.0, 0.0, 0.0, 0.0, 0.0, 0.0, 0.0, 0.0, 1.6665552243575852E9, 0.0, 2022-10-23 13:00:24.357
103.0, -61303.66013093712, -89795.04880846129, 41427.460781033136, -7445.433133296148, 78414.27813938596, 54028.7037526016, 11296.99633085684, 12738.9073656687, 0.034, 0.9460000000000001, 0.128, 192.0, 0.0, 0.0, 0.0, 0.0, 0.0, 0.0, 0.0, 0.0, 0.0, 1.666555224357593E9, 0.0, 2022-10-23 13:00:24.357
104.0, -61359.04775369737, -89853.208047534, 41428.39955430026, -7340.35758261175, 78580.88804255582, 54105.48199480558, 11428.73751267642, 13060.638375358389, 0.034, 0.9460000000000001, 0.128, 192.0, 0.0, 0.0, 0.0, 0.0, 0.0, 0.0, 0.0, 0.0, 0.0, 1.6665552243576007E9, 0.0, 2022-10-23 13:00:24.357
105.0, -61409.98737931102, -89901.80073997984, 43443.18579950164, -6202.720845069986, 78762.04893136608, 55073.93837856512, 12771.518560828992, 14499.934256068977, 0.038, 0.9460000000000001, 0.132, 192.0, 1.0, 48.0, 29.0, 144.0, 4.0, 32.0, 0.0, 0.0, 0.0, 1.6665552243576086E9, 0.0, 2022-10-23 13:00:24.357
106.0, -61336.785416219886, -89834.27611998035, 43898.35672358951, -6108.888221846607, 78537.21273389015, 55172.57662684639, 12891.770945998544, 14399.239647297818, 0.038, 0.9460000000000001, 0.132, 192.0, 0.0, 0.0, 0.0, 0.0, 0.0, 0.0, 0.0, 0.0, 0.0, 1.666555224357617E9, 0.0, 2022-10-23 13:00:24.357
107.0, -61310.924447885096, -89809.01864874586, 41652.31933025352, -7353.545111840381, 78416.62507255377, 54121.508195580034, 11415.773500892343, 12833.20937552564, 0.038, 0.9460000000000001, 0.132, 192.0, 0.0, 0.0, 0.0, 0.0, 0.0, 0.0, 0.0, 0.0, 0.0, 1.6665552243576248E9, 0.0, 2022-10-23 13:00:24.357
108.0, -61360.18769266459, -89857.23136153596, 41319.41244833618, -7428.602269721302, 78571.00857150658, 54043.72412487557, 11329.898098695052, 12924.471548136658, 0.038, 0.9460000000000001, 0.132, 192.0, 0.0, 0.0, 0.0, 0.0, 0.0, 0.0, 0.0, 0.0, 0.0, 1.6665552243576329E9, 0.0, 2022-10-23 13:00:24.357
109.0, -61406.545210664895, -89902.56069929132, 42952.36384300755, -6492.108880532847, 78742.5805619455, 54831.86898611415, 12443.886690603102, 14174.872836455446, 0.038, 0.9460000000000001, 0.132, 192.0, 0.0, 0.0, 0.0, 0.0, 0.0, 0.0, 0.0, 0.0, 0.0, 1.6665552243576407E9, 0.0, 2022-10-23 13:00:24.357
110.0, -61377.84557078428, -89880.92421065859, 44183.11794795012, -5939.350240153103, 78617.58960695143, 55328.23417523315, 13100.513887466657, 14657.804627156811, 0.038, 0.9460000000000001, 0.132, 192.0, 0.0, 0.0, 0.0, 0.0, 0.0, 0.0, 0.0, 0.0, 0.0, 1.6665552243576484E9, 0.0, 2022-10-23 13:00:24.357
111.0, -61320.31218055632, -89827.97292804396, 41954.17963912245, -7229.850558024712, 78385.98083090554, 54250.4554093427, 11584.842095952285, 12977.691051684744, 0.038, 0.9460000000000001, 0.132, 192.0, 0.0, 0.0, 0.0, 0.0, 0.0, 0.0, 0.0, 0.0, 0.0, 1.6665552243576632E9, 0.0, 2022-10-23 13:00:24.357
112.0, -61356.767875762926, -89856.22553303547, 41239.50496190846, -7519.328000465393, 78531.26716986504, 53986.12367941424, 11241.340487163126, 12799.033558253475, 0.038, 0.9460000000000001, 0.132, 192.0, 0.0, 0.0, 0.0, 0.0, 0.0, 0.0, 0.0, 0.0, 0.0, 1.6665552243576717E9, 0.0, 2022-10-23 13:00:24.357
113.0, -61397.55980939387, -89890.42370205208, 42496.09768344137, -6771.013947846169, 78703.80028531555, 54614.27475384173, 12140.417056133398, 13859.31090823542, 0.038, 0.9460000000000001, 0.132, 192.0, 0.0, 0.0, 0.0, 0.0, 0.0, 0.0, 0.0, 0.0, 0.0, 1.6665552243576796E9, 0.0, 2022-10-23 13:00:24.357
114.0, -61376.59387309479, -89873.88341115516, 44275.47535603945, -5887.650655227978, 78678.56516582551, 55377.072736867995, 13183.70708032931, 14797.994768380497, 0.036000000000000004, 0.9500000000000001, 0.14, 192.0, 1.0, 32.0, 29.0, 176.0, 4.0, 96.0, 0.0, 0.0, 0.0, 1.6665552243576872E9, 0.0, 2022-10-23 13:00:24.357
115.0, -61314.63483746468, -89819.88159655113, 42309.59472770628, -7071.8013729812355, 78394.11686588728, 54393.730091301215, 11798.502421200565, 13198.906266558919, 0.036000000000000004, 0.9500000000000001, 0.14, 192.0, 0.0, 0.0, 0.0, 0.0, 0.0, 0.0, 0.0, 0.0, 0.0, 1.6665552243576956E9, 0.0, 2022-10-23 13:00:24.357
116.0, -61348.18480589209, -89850.9058178551, 41217.220272686514, -7570.111163867851, 78512.40229754476, 53955.09945811027, 11200.325036087637, 12733.47589176606, 0.036000000000000004, 0.9500000000000001, 0.14, 192.0, 0.0, 0.0, 0.0, 0.0, 0.0, 0.0, 0.0, 0.0, 0.0, 1.6665552243577032E9, 0.0, 2022-10-23 13:00:24.357
117.0, -61400.21966698405, -89896.88335619967, 42130.26668194136, -6987.557648129184, 78673.69248553425, 54451.03996408462, 11906.21547773069, 13608.412576724599, 0.036000000000000004, 0.9500000000000001, 0.14, 192.0, 0.0, 0.0, 0.0, 0.0, 0.0, 0.0, 0.0, 0.0, 0.0, 1.666555224357711E9, 0.0, 2022-10-23 13:00:24.357
118.0, -61411.663760145166, -89909.15446390564, 44255.358786029676, -5886.287198816204, 78711.51163715264, 55393.56832427601, 13206.595266651544, 14862.166626711683, 0.036000000000000004, 0.9500000000000001, 0.14, 192.0, 0.0, 0.0, 0.0, 0.0, 0.0, 0.0, 0.0, 0.0, 0.0, 1.6665552243577187E9, 0.0, 2022-10-23 13:00:24.357
119.0, -61327.75531145994, -89827.32472745476, 42762.150497692885, -6852.26253894121, 78400.9564996906, 54595.72280594383, 12084.850619417504, 13493.122278824125, 0.036000000000000004, 0.9500000000000001, 0.14, 192.0, 0.0, 0.0, 0.0, 0.0, 0.0, 0.0, 0.0, 0.0, 0.0, 1.6665552243577263E9, 0.0, 2022-10-23 13:00:24.357
120.0, -61349.771779748415, -89845.69786139701, 41262.12492729723, -7595.659207780267, 78484.30615476443, 53951.81375167534, 11195.921742429942, 12691.968702312553, 0.036000000000000004, 0.9500000000000001, 0.14, 192.0, 0.0, 0.0, 0.0, 0.0, 0.0, 0.0, 0.0, 0.0, 0.0, 1.666555224357734E9, 0.0, 2022-10-23 13:00:24.357
121.0, -61388.037966255906, -89882.42177753709, 41774.829241613064, -7229.358819646695, 78636.27566531608, 54251.327127376455, 11648.186939738625, 13329.105178011081, 0.036000000000000004, 0.9500000000000001, 0.14, 192.0, 0.0, 0.0, 0.0, 0.0, 0.0, 0.0, 0.0, 0.0, 0.0, 1.66655522483557E9, 0.0, 2022-10-23 13:00:24.835
122.0, -61416.31292299187, -89915.9270424756, 43999.49836724978, -6033.272270354303, 78751.43185274981, 55264.33053783543, 13058.358497423947, 14764.623613908723, 0.036000000000000004, 0.9500000000000001, 0.14, 192.0, 0.0, 0.0, 0.0, 0.0, 0.0, 0.0, 0.0, 0.0, 0.0, 1.6665552248356829E9, 0.0, 2022-10-23 13:00:24.835
123.0, -61336.80776796434, -89840.73577412794, 43250.02202391887, -6586.343835156422, 78465.39657895525, 54831.71252390296, 12419.389178680085, 13863.781257126482, 0.036000000000000004, 0.9500000000000001, 0.14, 192.0, 0.0, 0.0, 0.0, 0.0, 0.0, 0.0, 0.0, 0.0, 0.0, 1.6665552248357208E9, 0.0, 2022-10-23 13:00:24.835
124.0, -61337.45596855354, -89836.5559979148, 41382.15379502223, -7561.461038763648, 78455.67357011719, 54000.51820284346, 11256.003231525807, 12720.89185963772, 0.052000000000000005, 0.9520000000000001, 0.126, 192.0, 1.0, 160.0, 29.0, 192.0, 3.0, 240.0, 0.0, 0.0, 0.0, 1.6665552248357365E9, 0.0, 2022-10-23 13:00:24.835
125.0, -61375.31982366084, -89870.01655936439, 41583.78888175355, -7354.305071151862, 78610.77232489256, 54168.96094905865, 11515.685798607565, 13164.953966731307, 0.052000000000000005, 0.9520000000000001, 0.126, 192.0, 0.0, 0.0, 0.0, 0.0, 0.0, 0.0, 0.0, 0.0, 0.0, 1.6665552248357534E9, 0.0, 2022-10-23 13:00:24.835
126.0, -61420.51505094946, -89910.6743825286, 43699.9626398042, -6191.544972842333, 78751.83418415001, 55149.800199246434, 12889.893399464298, 14610.351873678193, 0.052000000000000005, 0.9520000000000001, 0.126, 192.0, 0.0, 0.0, 0.0, 0.0, 0.0, 0.0, 0.0, 0.0, 0.0, 1.666555224835768E9, 0.0, 2022-10-23 13:00:24.835
127.0, -61336.986581919984, -89834.79021010283, 43689.74789258813, -6353.662175376675, 78511.37411729981, 55033.41466586765, 12708.732510654034, 14190.13907791842, 0.052000000000000005, 0.9520000000000001, 0.126, 192.0, 0.0, 0.0, 0.0, 0.0, 0.0, 0.0, 0.0, 0.0, 0.0, 1.6665552248358512E9, 0.0, 2022-10-23 13:00:24.835
128.0, -61324.223735836, -89824.64251812012, 41504.127264514835, -7546.306556022949, 78425.18579068015, 54014.823319294854, 11292.458926732414, 12731.732455698546, 0.052000000000000005, 0.9520000000000001, 0.126, 192.0, 0.0, 0.0, 0.0, 0.0, 0.0, 0.0, 0.0, 0.0, 0.0, 1.6665552248358655E9, 0.0, 2022-10-23 13:00:24.835
129.0, -61370.111867202744, -89866.2614662959, 41362.19368722364, -7517.517509164514, 78577.91526054326, 54023.004057765495, 11332.96028768543, 12963.073010810973, 0.052000000000000005, 0.9520000000000001, 0.126, 192.0, 0.0, 0.0, 0.0, 0.0, 0.0, 0.0, 0.0, 0.0, 0.0, 1.6665552248358805E9, 0.0, 2022-10-23 13:00:24.835
130.0, -61408.95919906607, -89903.58887953627, 43229.301956808806, -6449.931138745683, 78754.11406208445, 54924.36050467021, 12593.15164007564, 14340.812187291645, 0.052000000000000005, 0.9520000000000001, 0.126, 192.0, 0.0, 0.0, 0.0, 0.0, 0.0, 0.0, 0.0, 0.0, 0.0, 1.6665552248358943E9, 0.0, 2022-10-23 13:00:24.835
131.0, -61355.85145424026, -89855.62203593517, 43989.30597177815, -6176.8822284796515, 78565.37593190384, 55169.55914134492, 12920.18001320124, 14472.173389455485, 0.052000000000000005, 0.9520000000000001, 0.126, 192.0, 0.0, 0.0, 0.0, 0.0, 0.0, 0.0, 0.0, 0.0, 0.0, 1.666555224835909E9, 0.0, 2022-10-23 13:00:24.835
132.0, -61310.25389555143, -89807.00699174489, 41695.9946389192, -7469.908293474709, 78399.72715374555, 54071.90967463371, 11385.933922044507, 12828.135529534286, 0.052000000000000005, 0.9520000000000001, 0.126, 192.0, 0.0, 0.0, 0.0, 0.0, 0.0, 0.0, 0.0, 0.0, 0.0, 1.6665552248359232E9, 0.0, 2022-10-23 13:00:24.835
133.0, -61356.67846878511, -89848.04479456482, 41250.47966843601, -7590.361844344359, 78567.32053367145, 53952.618414475735, 11233.740894048322, 12857.192797326185, 0.052000000000000005, 0.9520000000000001, 0.126, 192.0, 0.0, 0.0, 0.0, 0.0, 0.0, 0.0, 0.0, 0.0, 0.0, 1.6665552248359463E9, 0.0, 2022-10-23 13:00:24.835
134.0, -61406.25463798698, -89895.00580966542, 42773.66164608737, -6693.028711441602, 78732.52227694062, 54711.77306315578, 12300.455546433395, 14065.103419435432, 0.054, 0.9420000000000001, 0.126, 192.0, 1.0, 176.0, 29.0, 112.0, 3.0, 240.0, 0.0, 0.0, 0.0, 1.6665552248359604E9, 0.0, 2022-10-23 13:00:24.835
135.0, -61373.10700095976, -89870.7094634425, 44213.94100355399, -6019.19067134746, 78629.34662453493, 55295.89120100632, 13096.579980442522, 14714.421595862103, 0.054, 0.9420000000000001, 0.126, 192.0, 0.0, 0.0, 0.0, 0.0, 0.0, 0.0, 0.0, 0.0, 0.0, 1.666555224835976E9, 0.0, 2022-10-23 13:00:24.835
136.0, -61310.36565427371, -89810.62797434664, 42066.005416632346, -7270.173105022086, 78396.66496475518, 54249.226063397655, 11621.029570225426, 13054.446942144268, 0.054, 0.9420000000000001, 0.126, 192.0, 0.0, 0.0, 0.0, 0.0, 0.0, 0.0, 0.0, 0.0, 0.0, 1.6665552248359907E9, 0.0, 2022-10-23 13:00:24.835
137.0, -61341.322820344314, -89836.48894268143, 41221.04242098837, -7622.324838915449, 78535.71516701164, 53933.48532122199, 11192.948960417385, 12780.079278955374, 0.054, 0.9420000000000001, 0.126, 192.0, 0.0, 0.0, 0.0, 0.0, 0.0, 0.0, 0.0, 0.0, 0.0, 1.6665552248360047E9, 0.0, 2022-10-23 13:00:24.836
138.0, -61393.17886748062, -89887.80854795082, 42330.89594017219, -6940.529577795217, 78702.50388413714, 54501.9125344649, 12011.000455737169, 13763.891311155714, 0.054, 0.9420000000000001, 0.126, 192.0, 0.0, 0.0, 0.0, 0.0, 0.0, 0.0, 0.0, 0.0, 0.0, 1.6665552248360188E9, 0.0, 2022-10-23 13:00:24.836
139.0, -61387.54622787789, -89883.20408859302, 44277.12938512914, -5950.392001914025, 78696.78183755658, 55351.10000981093, 13175.99572849223, 14846.542757337424, 0.054, 0.9420000000000001, 0.126, 192.0, 0.0, 0.0, 0.0, 0.0, 0.0, 0.0, 0.0, 0.0, 0.0, 1.6665552248360333E9, 0.0, 2022-10-23 13:00:24.836
140.0, -61309.873915895696, -89807.3422679117, 42473.52242154151, -7056.624538496082, 78405.31508985939, 54428.77762660714, 11874.319538392967, 13319.53863138421, 0.054, 0.9420000000000001, 0.126, 192.0, 0.0, 0.0, 0.0, 0.0, 0.0, 0.0, 0.0, 0.0, 0.0, 1.6665552248360476E9, 0.0, 2022-10-23 13:00:24.836
141.0, -61336.09251214177, -89830.43161993404, 41226.4291914021, -7637.389914678325, 78515.9338731687, 53917.70498963654, 11168.250282794272, 12730.726627198057, 0.054, 0.9420000000000001, 0.126, 192.0, 0.0, 0.0, 0.0, 0.0, 0.0, 0.0, 0.0, 0.0, 0.0, 1.6665552248360617E9, 0.0, 2022-10-23 13:00:24.836
142.0, -61377.756163806465, -89871.33531228725, 41977.984246967346, -7138.3648679691405, 78676.53115708008, 54335.36968652841, 11770.160409231235, 13508.075595864726, 0.054, 0.9420000000000001, 0.126, 192.0, 0.0, 0.0, 0.0, 0.0, 0.0, 0.0, 0.0, 0.0, 0.0, 1.6665552248360903E9, 0.0, 2022-10-23 13:00:24.836
143.0, -61401.71723386255, -89900.54904229034, 44173.350235623155, -5980.119822039584, 78740.4794979667, 55320.031085018054, 13131.672219237355, 14852.197748684615, 0.052000000000000005, 0.9480000000000001, 0.128, 192.0, 1.0, 160.0, 29.0, 160.0, 4.0, 0.0, 0.0, 0.0, 0.0, 1.666555224836105E9, 0.0, 2022-10-23 13:00:24.836
144.0, -61320.982732889985, -89826.02832627634, 42984.10332013408, -6764.420183231853, 78443.0671862444, 54682.44757443042, 12211.115623845533, 13669.388135598676, 0.052000000000000005, 0.9480000000000001, 0.128, 192.0, 0.0, 0.0, 0.0, 0.0, 0.0, 0.0, 0.0, 0.0, 0.0, 1.6665552248361204E9, 0.0, 2022-10-23 13:00:24.836
145.0, -61348.318916358825, -89851.62107367767, 41317.93723320213, -7607.997370719597, 78471.63271565828, 53949.109190596246, 11195.519411029747, 12706.765557141967, 0.052000000000000005, 0.9480000000000001, 0.128, 192.0, 0.0, 0.0, 0.0, 0.0, 0.0, 0.0, 0.0, 0.0, 0.0, 1.666555224836135E9, 0.0, 2022-10-23 13:00:24.836
146.0, -61377.55499810637, -89881.43830078105, 41695.23467960771, -7305.488861261471, 78634.35341529292, 54190.798603391486, 11561.842150907774, 13256.037325386684, 0.052000000000000005, 0.9480000000000001, 0.128, 192.0, 0.0, 0.0, 0.0, 0.0, 0.0, 0.0, 0.0, 0.0, 0.0, 1.6665552248361492E9, 0.0, 2022-10-23 13:00:24.836
147.0, -61412.91545783466, -89915.16708316411, 43933.761886806715, -6081.306169188759, 78771.21314659275, 55234.200386309676, 13005.273104342594, 14738.606183362745, 0.052000000000000005, 0.9480000000000001, 0.128, 192.0, 0.0, 0.0, 0.0, 0.0, 0.0, 0.0, 0.0, 0.0, 0.0, 1.6665552248361638E9, 0.0, 2022-10-23 13:00:24.836
148.0, -61319.90984915613, -89822.49675065241, 43474.50059348352, -6482.654092628252, 78492.91157637973, 54923.466434892, 12541.34029642824, 14013.716758932682, 0.052000000000000005, 0.9480000000000001, 0.128, 192.0, 0.0, 0.0, 0.0, 0.0, 0.0, 0.0, 0.0, 0.0, 0.0, 1.666555224836178E9, 0.0, 2022-10-23 13:00:24.836
149.0, -61321.42976777909, -89821.91560529657, 41435.842685203876, -7567.7865824445, 78454.42187242769, 53988.91764747115, 11243.46390288638, 12712.577010700346, 0.052000000000000005, 0.9480000000000001, 0.128, 192.0, 0.0, 0.0, 0.0, 0.0, 0.0, 0.0, 0.0, 0.0, 0.0, 1.666555224836192E9, 0.0, 2022-10-23 13:00:24.836
150.0, -61375.029250982916, -89874.59866697773, 41494.38190393233, -7432.871452912266, 78605.60907192339, 54089.67931147567, 11411.996056079395, 13066.62864287241, 0.052000000000000005, 0.9480000000000001, 0.128, 192.0, 0.0, 0.0, 0.0, 0.0, 0.0, 0.0, 0.0, 0.0, 0.0, 1.6665552248362062E9, 0.0, 2022-10-23 13:00:24.836
151.0, -61417.810489870375, -89913.93773721906, 43505.41305606521, -6313.876070246229, 78763.77001568914, 55027.58086056481, 12733.632353977246, 14482.991633771853, 0.052000000000000005, 0.9480000000000001, 0.128, 192.0, 0.0, 0.0, 0.0, 0.0, 0.0, 0.0, 0.0, 0.0, 0.0, 1.6665552248362205E9, 0.0, 2022-10-23 13:00:24.836
152.0, -61349.66002102614, -89849.72117539897, 43851.261598022174, -6259.136648075181, 78556.34582714389, 55097.921800365664, 12798.340654175361, 14320.06976843712, 0.052000000000000005, 0.9480000000000001, 0.128, 192.0, 0.0, 0.0, 0.0, 0.0, 0.0, 0.0, 0.0, 0.0, 0.0, 1.6665552248362348E9, 0.0, 2022-10-23 13:00:24.836
153.0, -61316.445328765556, -89813.37723891465, 41642.95394932675, -7462.554569548914, 78446.4199479127, 54077.676424703175, 11359.782381031799, 12802.431023410682, 0.058, 0.962, 0.132, 192.0, 1.0, 208.0, 30.0, 16.0, 4.0, 32.0, 0.0, 0.0, 0.0, 1.6665552248362489E9, 0.0, 2022-10-23 13:00:24.836
154.0, -61366.17796017861, -89862.37226276068, 41360.249085456024, -7513.181270740184, 78589.02407753756, 54014.55509836139, 11301.779604170277, 12929.277173194549, 0.058, 0.962, 0.132, 192.0, 0.0, 0.0, 0.0, 0.0, 0.0, 0.0, 0.0, 0.0, 0.0, 1.6665552248362644E9, 0.0, 2022-10-23 13:00:24.836
155.0, -61410.70263513359, -89910.4732168285, 43092.71044644242, -6515.913488377749, 78763.50179475568, 54861.66386147307, 12482.421098044051, 14237.122444763476, 0.058, 0.962, 0.132, 192.0, 0.0, 0.0, 0.0, 0.0, 0.0, 0.0, 0.0, 0.0, 0.0, 1.6665552248362803E9, 0.0, 2022-10-23 13:00:24.836
156.0, -61356.00791645145, -89860.29355052633, 44149.34446207815, -6067.559846348745, 78618.88600812985, 55256.68624123171, 13009.430528811281, 14588.089536200707, 0.058, 0.962, 0.132, 192.0, 0.0, 0.0, 0.0, 0.0, 0.0, 0.0, 0.0, 0.0, 0.0, 1.6665552248362944E9, 0.0, 2022-10-23 13:00:24.836
157.0, -61300.19561054654, -89804.1459684546, 41897.517966928244, -7345.364373369739, 78430.08082271586, 54177.54401892949, 11488.886057005651, 12927.220812704662, 0.058, 0.962, 0.132, 192.0, 0.0, 0.0, 0.0, 0.0, 0.0, 0.0, 0.0, 0.0, 0.0, 1.6665552248363087E9, 0.0, 2022-10-23 13:00:24.836
158.0, -61337.18774762008, -89838.0535647933, 41274.01605534745, -7574.581512758913, 78571.25444069559, 53963.6378244922, 11210.472728070346, 12817.116119517817, 0.058, 0.962, 0.132, 192.0, 0.0, 0.0, 0.0, 0.0, 0.0, 0.0, 0.0, 0.0, 0.0, 1.6665552248363416E9, 0.0, 2022-10-23 13:00:24.836
159.0, -61388.507352889465, -89889.44022529606, 42596.412312556786, -6793.075119623557, 78726.44260244878, 54616.956963176366, 12148.508387626218, 13906.853068691858, 0.058, 0.962, 0.132, 192.0, 0.0, 0.0, 0.0, 0.0, 0.0, 0.0, 0.0, 0.0, 0.0, 1.66655522483635E9, 0.0, 2022-10-23 13:00:24.836
160.0, -61365.90973924515, -89867.40140526312, 44257.21398081946, -5983.159659285505, 78673.96070646771, 55312.833823303445, 13104.02311134614, 14745.244651465971, 0.058, 0.962, 0.132, 192.0, 0.0, 0.0, 0.0, 0.0, 0.0, 0.0, 0.0, 0.0, 0.0, 1.6665552248363583E9, 0.0, 2022-10-23 13:00:24.836
161.0, -61297.31223551181, -89802.8495672762, 42227.65323253313, -7183.873019680145, 78417.8097150099, 54311.47567170569, 11691.54932398192, 13127.69360872431, 0.058, 0.962, 0.132, 192.0, 0.0, 0.0, 0.0, 0.0, 0.0, 0.0, 0.0, 0.0, 0.0, 1.666555224836367E9, 0.0, 2022-10-23 13:00:24.836
162.0, -61331.264535339425, -89836.04190779233, 41217.53319710889, -7630.527929130546, 78541.01253044755, 53914.70985587953, 11153.274614009217, 12727.351513785305, 0.058, 0.962, 0.132, 192.0, 0.0, 0.0, 0.0, 0.0, 0.0, 0.0, 0.0, 0.0, 0.0, 1.6665552248363752E9, 0.0, 2022-10-23 13:00:24.836
163.0, -61382.31591967535, -89879.9183821581, 42180.513403476885, -7024.169805546976, 78694.85958753343, 54424.86607132746, 11885.361300153889, 13626.405731011122, 0.05, 0.9480000000000001, 0.134, 192.0, 1.0, 144.0, 29.0, 160.0, 4.0, 48.0, 0.0, 0.0, 0.0, 1.6665552248363836E9, 0.0, 2022-10-23 13:00:24.836
164.0, -61382.00299525297, -89876.27504781188, 44262.80191693329, -5938.970260497363, 78730.80119261757, 55354.788047646056, 13161.355335874003, 14842.98882996903, 0.05, 0.9480000000000001, 0.134, 192.0, 0.0, 0.0, 0.0, 0.0, 0.0, 0.0, 0.0, 0.0, 0.0, 1.6665552248363926E9, 0.0, 2022-10-23 13:00:24.836
165.0, -61293.19951453203, -89795.71936079494, 42686.087511311474, -6925.933888665902, 78425.47636335807, 54540.35753492803, 12004.361987633943, 13434.359542651122, 0.05, 0.9480000000000001, 0.134, 192.0, 0.0, 0.0, 0.0, 0.0, 0.0, 0.0, 0.0, 0.0, 0.0, 1.666555224836401E9, 0.0, 2022-10-23 13:00:24.836
166.0, -61321.42976777909, -89822.09441925221, 41264.5389156984, -7615.619315578857, 78508.69190796517, 53938.33564976879, 11173.569997974635, 12694.8967808362, 0.05, 0.9480000000000001, 0.134, 192.0, 0.0, 0.0, 0.0, 0.0, 0.0, 0.0, 0.0, 0.0, 0.0, 1.6665552248364096E9, 0.0, 2022-10-23 13:00:24.836
167.0, -61365.61916656723, -89862.99811160543, 41854.28969315168, -7203.430796078539, 78665.57880229698, 54279.33386317896, 11673.824390628863, 13377.787277434742, 0.05, 0.9480000000000001, 0.134, 192.0, 0.0, 0.0, 0.0, 0.0, 0.0, 0.0, 0.0, 0.0, 0.0, 1.666555224836418E9, 0.0, 2022-10-23 13:00:24.836
168.0, -61387.14389647769, -89880.43247228056, 44083.29505721272, -6012.686313710966, 78761.57954473252, 55290.14680268131, 13078.45271568927, 14791.557465977368, 0.05, 0.9480000000000001, 0.134, 192.0, 0.0, 0.0, 0.0, 0.0, 0.0, 0.0, 0.0, 0.0, 0.0, 1.6665552248364265E9, 0.0, 2022-10-23 13:00:24.836
169.0, -61307.057596094324, -89804.1906719435, 43172.08149100322, -6654.0472691115465, 78468.90580283474, 54772.97213947441, 12329.781035158758, 13779.425773552153, 0.05, 0.9480000000000001, 0.134, 192.0, 0.0, 0.0, 0.0, 0.0, 0.0, 0.0, 0.0, 0.0, 0.0, 1.6665552248364348E9, 0.0, 2022-10-23 13:00:24.836
170.0, -61314.50072699794, -89810.53856736881, 41384.746597379046, -7565.082021365407, 78485.02141058701, 53992.181002161626, 11233.517376603768, 12708.956028098588, 0.05, 0.9480000000000001, 0.134, 192.0, 0.0, 0.0, 0.0, 0.0, 0.0, 0.0, 0.0, 0.0, 0.0, 1.666555224836443E9, 0.0, 2022-10-23 13:00:24.836
171.0, -61351.55991930484, -89848.17890503156, 41597.825777271486, -7362.374050900227, 78619.64596744132, 54143.256442935046, 11488.304911649813, 13152.07936192505, 0.05, 0.9480000000000001, 0.134, 192.0, 0.0, 0.0, 0.0, 0.0, 0.0, 0.0, 0.0, 0.0, 0.0, 1.6665552248364513E9, 0.0, 2022-10-23 13:00:24.836
172.0, -61385.2887016879, -89880.58893449175, 43746.92365490481, -6183.028958204861, 78774.32003907204, 55135.67389675068, 12882.874951705331, 14615.537478391825, 0.05, 0.9480000000000001, 0.134, 192.0, 0.0, 0.0, 0.0, 0.0, 0.0, 0.0, 0.0, 0.0, 0.0, 1.6665552248364596E9, 0.0, 2022-10-23 13:00:24.836
173.0, -61309.20336356203, -89809.8456632907, 43603.76073166856, -6406.546402757932, 78524.42753606172, 54970.53920871487, 12627.17099513662, 14111.282123480098, 0.048, 0.9440000000000001, 0.126, 192.0, 1.0, 128.0, 29.0, 128.0, 3.0, 240.0, 0.0, 0.0, 0.0, 1.6665552248364756E9, 0.0, 2022-10-23 13:00:24.836
174.0, -61293.93712209906, -89794.91469799457, 41505.200148248696, -7525.921765079709, 78467.34118072285, 54018.64546759671, 11289.732013908866, 12734.816996433377, 0.048, 0.9440000000000001, 0.126, 192.0, 0.0, 0.0, 0.0, 0.0, 0.0, 0.0, 0.0, 0.0, 0.0, 1.666555224836485E9, 0.0, 2022-10-23 13:00:24.836
175.0, -61335.176090619105, -89829.71636411147, 41487.564621873455, -7414.7218364145565, 78627.80435416751, 54107.20307912864, 11425.205937052482, 13045.506244362146, 0.048, 0.9440000000000001, 0.126, 192.0, 0.0, 0.0, 0.0, 0.0, 0.0, 0.0, 0.0, 0.0, 0.0, 1.6665552248364933E9, 0.0, 2022-10-23 13:00:24.836
176.0, -61380.66189058565, -89866.93201862957, 43434.06628776387, -6311.8867649897065, 78787.1946438783, 55042.914157261155, 12728.022066118965, 14445.217185642385, 0.048, 0.9440000000000001, 0.126, 192.0, 0.0, 0.0, 0.0, 0.0, 0.0, 0.0, 0.0, 0.0, 0.0, 1.6665552248365026E9, 0.0, 2022-10-23 13:00:24.836
177.0, -61326.70477947054, -89818.33932618372, 44049.320405640654, -6129.5188819788555, 78578.51875764356, 55213.92735408871, 12952.522987428069, 14453.688496790946, 0.048, 0.9440000000000001, 0.126, 192.0, 0.0, 0.0, 0.0, 0.0, 0.0, 0.0, 0.0, 0.0, 0.0, 1.666555224836513E9, 0.0, 2022-10-23 13:00:24.836
178.0, -61283.74472662744, -89773.41231982855, 41763.854535085506, -7406.295228754906, 78430.79607853843, 54126.6267450603, 11434.817187168264, 12831.331828991393, 0.048, 0.9440000000000001, 0.126, 192.0, 0.0, 0.0, 0.0, 0.0, 0.0, 0.0, 0.0, 0.0, 0.0, 1.6665552248365214E9, 0.0, 2022-10-23 13:00:24.836
179.0, -61322.167375346115, -89812.01378250287, 41351.48720162955, -7520.065608032419, 78592.44389443922, 54007.760168046974, 11297.28690353476, 12878.158733625261, 0.048, 0.9440000000000001, 0.126, 192.0, 0.0, 0.0, 0.0, 0.0, 0.0, 0.0, 0.0, 0.0, 0.0, 1.6665552248365297E9, 0.0, 2022-10-23 13:00:24.836
180.0, -61377.24207368399, -89872.65406521012, 42913.851787311054, -6615.445806437231, 78753.42115800634, 54765.707822526434, 12378.150210160044, 14098.563980885028, 0.048, 0.9440000000000001, 0.126, 192.0, 0.0, 0.0, 0.0, 0.0, 0.0, 0.0, 0.0, 0.0, 0.0, 1.6665552248365383E9, 0.0, 2022-10-23 13:00:24.836
181.0, -61343.53564304539, -89836.77951535935, 44240.383117244615, -6008.484185753368, 78648.8149939555, 55289.11862243636, 13096.64703567589, 14662.09616209223, 0.048, 0.9440000000000001, 0.126, 192.0, 0.0, 0.0, 0.0, 0.0, 0.0, 0.0, 0.0, 0.0, 0.0, 1.666555224836547E9, 0.0, 2022-10-23 13:00:24.836
182.0, -61286.18106677307, -89776.5415640523, 42059.165782829026, -7264.831038097267, 78432.94184600614, 54230.94233643322, 11609.63018055322, 13003.90964793082, 0.054, 0.9440000000000001, 0.126, 192.0, 1.0, 176.0, 29.0, 128.0, 3.0, 240.0, 0.0, 0.0, 0.0, 1.6665552248365552E9, 0.0, 2022-10-23 13:00:24.836
183.0, -61332.27036383991, -89823.65904136408, 41294.132625357226, -7571.340509812893, 78566.06883598195, 53949.39976327417, 11237.853615028098, 12788.572941848392, 0.054, 0.9440000000000001, 0.126, 192.0, 0.0, 0.0, 0.0, 0.0, 0.0, 0.0, 0.0, 0.0, 0.0, 1.6665552248365643E9, 0.0, 2022-10-23 13:00:24.836
184.0, -61370.08951545829, -89858.03602433635, 42479.445633822164, -6851.726097074283, 78725.99556755967, 54549.81232283263, 12101.256799847699, 13809.77944252246, 0.054, 0.9440000000000001, 0.126, 192.0, 0.0, 0.0, 0.0, 0.0, 0.0, 0.0, 0.0, 0.0, 0.0, 1.666555224836573E9, 0.0, 2022-10-23 13:00:24.836
185.0, -61360.478265342506, -89847.66481490909, 44343.0670312723, -5914.338638107614, 78706.19192197228, 55353.022259834084, 13204.985941050762, 14820.525326791445, 0.054, 0.9440000000000001, 0.126, 192.0, 0.0, 0.0, 0.0, 0.0, 0.0, 0.0, 0.0, 0.0, 0.0, 1.6665552248365812E9, 0.0, 2022-10-23 13:00:24.836
186.0, -61289.95851158602, -89782.2412588884, 42464.58172375938, -7048.712020958904, 78419.10611618831, 54407.5434693746, 11867.904587734294, 13257.28902307618, 0.054, 0.9440000000000001, 0.126, 192.0, 0.0, 0.0, 0.0, 0.0, 0.0, 0.0, 0.0, 0.0, 0.0, 1.6665552248365896E9, 0.0, 2022-10-23 13:00:24.836
187.0, -61322.07796836829, -89812.68433483652, 41272.00439834647, -7605.404568362781, 78521.34299532688, 53910.597134899755, 11192.948960417385, 12705.647969919202, 0.054, 0.9440000000000001, 0.126, 192.0, 0.0, 0.0, 0.0, 0.0, 0.0, 0.0, 0.0, 0.0, 0.0, 1.666555224836598E9, 0.0, 2022-10-23 13:00:24.836
188.0, -61365.306242144856, -89853.43156497856, 42085.60789651965, -7072.963663692912, 78691.5738810985, 54354.4804280377, 11834.19815709569, 13525.554660028776, 0.054, 0.9440000000000001, 0.126, 192.0, 0.0, 0.0, 0.0, 0.0, 0.0, 0.0, 0.0, 0.0, 0.0, 1.6665552248366065E9, 0.0, 2022-10-23 13:00:24.836
189.0, -61387.83680055581, -89871.42471926508, 44280.951533431, -5912.438739828914, 78752.90706788386, 55352.64228017835, 13201.320254960092, 14859.37265865477, 0.054, 0.9440000000000001, 0.126, 192.0, 0.0, 0.0, 0.0, 0.0, 0.0, 0.0, 0.0, 0.0, 0.0, 1.6665552248366227E9, 0.0, 2022-10-23 13:00:24.836
190.0, -61281.84482834874, -89763.55520052377, 42963.24914255728, -6766.029508832635, 78443.89420078925, 54656.29603341771, 12202.21962955232, 13595.090937029236, 0.054, 0.9440000000000001, 0.126, 192.0, 0.0, 0.0, 0.0, 0.0, 0.0, 0.0, 0.0, 0.0, 0.0, 1.6665552248366313E9, 0.0, 2022-10-23 13:00:24.836
191.0, -61292.260741264916, -89779.22377338694, 41365.367634936294, -7564.746745198578, 78506.21086433064, 53957.69226046709, 11237.965373750374, 12700.551772183391, 0.054, 0.9440000000000001, 0.126, 192.0, 0.0, 0.0, 0.0, 0.0, 0.0, 0.0, 0.0, 0.0, 0.0, 1.6665552248366396E9, 0.0, 2022-10-23 13:00:24.836
192.0, -61356.343192618275, -89845.54139918584, 41802.25483205973, -7234.678534827058, 78656.88397370387, 54222.15810086228, 11637.726323333542, 13285.407517600957, 0.058, 0.9500000000000001, 0.128, 192.0, 1.0, 208.0, 29.0, 176.0, 4.0, 0.0, 0.0, 0.0, 0.0, 1.666555224836648E9, 0.0, 2022-10-23 13:00:24.836
193.0, -61406.00876879797, -89898.58208877828, 44033.51772231075, -6024.711552227921, 78777.8963181849, 55247.70083996068, 13060.280747447105, 14737.332133928792, 0.058, 0.9500000000000001, 0.128, 192.0, 0.0, 0.0, 0.0, 0.0, 0.0, 0.0, 0.0, 0.0, 0.0, 1.6665552248366568E9, 0.0, 2022-10-23 13:00:24.836
194.0, -61317.764081688416, -89821.08859075172, 43396.15772916767, -6523.602488470375, 78490.02820134499, 54846.01764035436, 12478.37543229764, 13893.799649929959, 0.058, 0.9500000000000001, 0.128, 192.0, 0.0, 0.0, 0.0, 0.0, 0.0, 0.0, 0.0, 0.0, 0.0, 1.6665552248366652E9, 0.0, 2022-10-23 13:00:24.836
195.0, -61312.33260778578, -89810.35975341318, 41436.96027242664, -7545.747762411566, 78487.16717805472, 53962.3861268027, 11249.118894233572, 12676.836571316311, 0.058, 0.9500000000000001, 0.128, 192.0, 0.0, 0.0, 0.0, 0.0, 0.0, 0.0, 0.0, 0.0, 0.0, 1.6665552248366735E9, 0.0, 2022-10-23 13:00:24.836
196.0, -61360.94765197607, -89860.07003308178, 41566.93566643425, -7369.3477951702835, 78633.12406934788, 54099.625837758285, 11465.170856138571, 13082.073698291028, 0.058, 0.9500000000000001, 0.128, 192.0, 0.0, 0.0, 0.0, 0.0, 0.0, 0.0, 0.0, 0.0, 0.0, 1.6665552248366818E9, 0.0, 2022-10-23 13:00:24.836
197.0, -61412.20020201209, -89912.1719494071, 43655.92970322725, -6206.8782695386735, 78784.73595198822, 55087.12590779375, 12837.769131394522, 14533.372465774115, 0.058, 0.9500000000000001, 0.128, 192.0, 0.0, 0.0, 0.0, 0.0, 0.0, 0.0, 0.0, 0.0, 0.0, 1.666555224836691E9, 0.0, 2022-10-23 13:00:24.836
198.0, -61336.83011970879, -89841.33927122824, 43821.37731568543, -6263.159962077137, 78544.76762351605, 55062.02489877044, 12775.832447508867, 14230.707494104803, 0.058, 0.9500000000000001, 0.128, 192.0, 0.0, 0.0, 0.0, 0.0, 0.0, 0.0, 0.0, 0.0, 0.0, 1.6665552248366992E9, 0.0, 2022-10-23 13:00:24.836
199.0, -61312.734939185975, -89818.98752677292, 41606.78882679807, -7469.260092885505, 78442.39663391074, 54032.235328225535, 11336.24599412036, 12725.026932361954, 0.058, 0.9500000000000001, 0.128, 192.0, 0.0, 0.0, 0.0, 0.0, 0.0, 0.0, 0.0, 0.0, 0.0, 1.6665552248367078E9, 0.0, 2022-10-23 13:00:24.836
200.0, -61345.52494830191, -89845.78726837484, 41391.60858292682, -7477.127906933774, 78599.73056313164, 54005.25677266798, 11326.321819582203, 12904.153812426784, 0.058, 0.9500000000000001, 0.128, 192.0, 0.0, 0.0, 0.0, 0.0, 0.0, 0.0, 0.0, 0.0, 0.0, 1.6665552248367162E9, 0.0, 2022-10-23 13:00:24.836
201.0, -61389.490829645496, -89885.55102176082, 43151.11555470414, -6475.322720446911, 78771.70488497078, 54843.20132055299, 12512.23832514743, 14221.029188755654, 0.058, 0.9500000000000001, 0.128, 192.0, 0.0, 0.0, 0.0, 0.0, 0.0, 0.0, 0.0, 0.0, 0.0, 1.6665552248367243E9, 0.0, 2022-10-23 13:00:24.836
202.0, -61337.120692386714, -89838.27708223785, 44112.173511048975, -6068.386860893591, 78622.39523200932, 55209.859336597845, 12992.264389069604, 14512.585343430681, 0.06, 0.9560000000000001, 0.13, 192.0, 1.0, 224.0, 29.0, 224.0, 4.0, 16.0, 0.0, 0.0, 0.0, 1.6665552248367329E9, 0.0, 2022-10-23 13:00:24.836
203.0, -61296.39581398915, -89801.03907597532, 41864.95147525686, -7329.338172595284, 78434.99820649603, 54145.1786929582, 11490.204809928515, 12876.303538835471, 0.06, 0.9560000000000001, 0.13, 192.0, 0.0, 0.0, 0.0, 0.0, 0.0, 0.0, 0.0, 0.0, 0.0, 1.6665552248367417E9, 0.0, 2022-10-23 13:00:24.836
204.0, -61341.97102093352, -89843.64150090714, 41323.74868676051, -7507.615686370813, 78573.71313258566, 53973.45024030808, 11267.782600853754, 12824.603953910346, 0.06, 0.9560000000000001, 0.13, 192.0, 0.0, 0.0, 0.0, 0.0, 0.0, 0.0, 0.0, 0.0, 0.0, 1.6665552248367603E9, 0.0, 2022-10-23 13:00:24.836
205.0, -61387.47917264452, -89884.29932407133, 42714.608337236445, -6690.346502106965, 78732.11994554043, 54653.300899660695, 12240.485816059807, 13947.957926745168, 0.06, 0.9560000000000001, 0.13, 192.0, 0.0, 0.0, 0.0, 0.0, 0.0, 0.0, 0.0, 0.0, 0.0, 1.6665552248367689E9, 0.0, 2022-10-23 13:00:24.836
206.0, -61363.11577118823, -89865.4121000066, 44291.03217018034, -5928.733161536832, 78668.59628779844, 55311.13509072484, 13136.813120462075, 14713.572229572801, 0.06, 0.9560000000000001, 0.13, 192.0, 0.0, 0.0, 0.0, 0.0, 0.0, 0.0, 0.0, 0.0, 0.0, 1.6665552248367772E9, 0.0, 2022-10-23 13:00:24.836
207.0, -61294.85354362173, -89797.21692767345, 42196.76312169589, -7155.553359455271, 78417.42973535416, 54281.658444602304, 11682.228646544057, 13065.734573094198, 0.06, 0.9560000000000001, 0.13, 192.0, 0.0, 0.0, 0.0, 0.0, 0.0, 0.0, 0.0, 0.0, 0.0, 1.6665552248367856E9, 0.0, 2022-10-23 13:00:24.836
208.0, -61338.41709356512, -89832.37622170165, 41234.565226383835, -7577.755460471566, 78546.91339098375, 53895.01796901441, 11167.06564033814, 12703.546905940404, 0.06, 0.9560000000000001, 0.13, 192.0, 0.0, 0.0, 0.0, 0.0, 0.0, 0.0, 0.0, 0.0, 0.0, 1.666555224836794E9, 0.0, 2022-10-23 13:00:24.836
209.0, -61381.10892547476, -89873.39167277714, 42275.06128252283, -6924.279859576209, 78721.18994250178, 54442.948632591804, 11946.962707872714, 13655.887681947672, 0.06, 0.9560000000000001, 0.13, 192.0, 0.0, 0.0, 0.0, 0.0, 0.0, 0.0, 0.0, 0.0, 0.0, 1.6665552248368025E9, 0.0, 2022-10-23 13:00:24.836
210.0, -61377.91262601765, -89877.68320771256, 44284.19253637702, -5893.059777386163, 78737.10438455395, 55323.94264029773, 13157.60024280551, 14806.533134762423, 0.06, 0.9560000000000001, 0.13, 192.0, 0.0, 0.0, 0.0, 0.0, 0.0, 0.0, 0.0, 0.0, 0.0, 1.6665552248368108E9, 0.0, 2022-10-23 13:00:24.836
211.0, -61297.2675320229, -89803.40836088758, 42630.00698447311, -6908.276010546209, 78441.50256413252, 54490.93782793735, 11961.536045257575, 13366.857274396096, 0.058, 0.9520000000000001, 0.136, 192.0, 1.0, 208.0, 29.0, 192.0, 4.0, 64.0, 0.0, 0.0, 0.0, 1.6665552248368204E9, 0.0, 2022-10-23 13:00:24.836
212.0, -61323.68729396907, -89826.81063733228, 41267.06466282185, -7564.92555915422, 78519.39839355927, 53910.9771145555, 11167.512675227246, 12674.422582915138, 0.058, 0.9520000000000001, 0.136, 192.0, 0.0, 0.0, 0.0, 0.0, 0.0, 0.0, 0.0, 0.0, 0.0, 1.6665552248368292E9, 0.0, 2022-10-23 13:00:24.836
213.0, -61370.44714336958, -89868.5636959748, 41948.39053730852, -7093.750786036348, 78686.45533161823, 54304.99366581365, 11734.4199698472, 13416.209926153413, 0.058, 0.9520000000000001, 0.136, 192.0, 0.0, 0.0, 0.0, 0.0, 0.0, 0.0, 0.0, 0.0, 0.0, 1.6665552248368375E9, 0.0, 2022-10-23 13:00:24.836
214.0, -61386.3392336773, -89889.73079797397, 44148.182171366476, -5925.022771957251, 78776.91284142886, 55294.70655855019, 13108.046425348095, 14790.909265388163, 0.058, 0.9520000000000001, 0.136, 192.0, 0.0, 0.0, 0.0, 0.0, 0.0, 0.0, 0.0, 0.0, 0.0, 1.666555224836846E9, 0.0, 2022-10-23 13:00:24.836
215.0, -61308.51045948392, -89816.5064831384, 43080.595800947645, -6654.583710978474, 78469.15167202374, 54699.50195544982, 12256.087333689611, 13678.731164780995, 0.058, 0.9520000000000001, 0.136, 192.0, 0.0, 0.0, 0.0, 0.0, 0.0, 0.0, 0.0, 0.0, 0.0, 1.6665552248368545E9, 0.0, 2022-10-23 13:00:24.836
216.0, -61309.20336356203, -89808.43750339001, 41306.850767952295, -7564.053841120463, 78486.07194257641, 53903.19870748505, 11161.25418677976, 12635.284678373895, 0.058, 0.9520000000000001, 0.136, 192.0, 0.0, 0.0, 0.0, 0.0, 0.0, 0.0, 0.0, 0.0, 0.0, 1.6665552248368628E9, 0.0, 2022-10-23 13:00:24.836
217.0, -61354.599756550764, -89848.3577189872, 41610.23099544418, -7298.135137335675, 78649.0608631445, 54112.29927686445, 11484.482763347956, 13153.867501481474, 0.058, 0.9520000000000001, 0.136, 192.0, 0.0, 0.0, 0.0, 0.0, 0.0, 0.0, 0.0, 0.0, 0.0, 1.6665552248368711E9, 0.0, 2022-10-23 13:00:24.836
218.0, -61403.885353074715, -89895.63165851017, 43801.506614864666, -6096.907686818563, 78781.80787346457, 55128.76720771399, 12899.057614690973, 14626.08750177473, 0.058, 0.9520000000000001, 0.136, 192.0, 0.0, 0.0, 0.0, 0.0, 0.0, 0.0, 0.0, 0.0, 0.0, 1.6665552248368795E9, 0.0, 2022-10-23 13:00:24.836
219.0, -61325.49778526995, -89824.75427684239, 43480.960247631105, -6423.757245988518, 78500.01943111653, 54870.738669721926, 12519.994380473421, 13995.72360464616, 0.058, 0.9520000000000001, 0.136, 192.0, 0.0, 0.0, 0.0, 0.0, 0.0, 0.0, 0.0, 0.0, 0.0, 1.6665552248369036E9, 0.0, 2022-10-23 13:00:24.836
220.0, -61317.24999156594, -89814.11484648167, 41414.89910064925, -7516.891660319765, 78454.22070672759, 53932.32303051031, 11205.622399523545, 12665.593643855293, 0.058, 0.9520000000000001, 0.136, 192.0, 0.0, 0.0, 0.0, 0.0, 0.0, 0.0, 0.0, 0.0, 0.0, 1.6665552248369203E9, 0.0, 2022-10-23 13:00:24.836
221.0, -61369.486018358, -89861.70171042702, 41432.15464736875, -7391.31955996985, 78612.1581330488, 54029.284897957434, 11356.004936218851, 13003.216743852705, 0.056, 0.9440000000000001, 0.128, 192.0, 1.0, 192.0, 29.0, 128.0, 4.0, 0.0, 0.0, 0.0, 0.0, 1.6665552248369286E9, 0.0, 2022-10-23 13:00:24.836
222.0, -61414.70359739108, -89906.472254571, 43394.25783088897, -6295.234715370502, 78763.14416684439, 54954.691821896056, 12653.367239638239, 14401.027786854243, 0.056, 0.9440000000000001, 0.128, 192.0, 0.0, 0.0, 0.0, 0.0, 0.0, 0.0, 0.0, 0.0, 0.0, 1.6665552248369377E9, 0.0, 2022-10-23 13:00:24.836
223.0, -61339.713494743526, -89839.46172469399, 43890.1089298855, -6164.521713795867, 78567.0970162269, 55085.04719555941, 12812.422253182203, 14342.17564370342, 0.056, 0.9440000000000001, 0.128, 192.0, 0.0, 0.0, 0.0, 0.0, 0.0, 0.0, 0.0, 0.0, 0.0, 1.666555224836946E9, 0.0, 2022-10-23 13:00:24.836
224.0, -61301.64847393614, -89798.2451079184, 41658.75663265665, -7388.994978546498, 78442.12841297727, 54049.64733715622, 11351.24401464987, 12786.918912758698, 0.056, 0.9440000000000001, 0.128, 192.0, 0.0, 0.0, 0.0, 0.0, 0.0, 0.0, 0.0, 0.0, 0.0, 1.6665552248369544E9, 0.0, 2022-10-23 13:00:24.836
225.0, -61345.592003535276, -89838.41119270459, 41300.145244615705, -7479.38543312376, 78586.02894378053, 53950.47264700802, 11244.22386219786, 12859.942061894186, 0.056, 0.9440000000000001, 0.128, 192.0, 0.0, 0.0, 0.0, 0.0, 0.0, 0.0, 0.0, 0.0, 0.0, 1.666555224836964E9, 0.0, 2022-10-23 13:00:24.836
226.0, -61399.3926524392, -89891.42953055257, 42934.281281743206, -6534.845415931394, 78756.99743711918, 54744.69718273845, 12365.29795709824, 14115.551306671061, 0.056, 0.9440000000000001, 0.128, 192.0, 0.0, 0.0, 0.0, 0.0, 0.0, 0.0, 0.0, 0.0, 0.0, 1.6665552248369722E9, 0.0, 2022-10-23 13:00:24.836
227.0, -61363.71926828853, -89858.08072782526, 44149.00918591132, -5986.221848275883, 78634.33106354845, 55225.77377865002, 13011.084557900973, 14591.241132168905, 0.056, 0.9440000000000001, 0.128, 192.0, 0.0, 0.0, 0.0, 0.0, 0.0, 0.0, 0.0, 0.0, 0.0, 1.6665552248369808E9, 0.0, 2022-10-23 13:00:24.836
228.0, -61315.64066596516, -89808.7951313013, 41925.479999241834, -7257.097334515731, 78417.42973535416, 54155.03581226299, 11501.693606578543, 12923.89040278082, 0.056, 0.9440000000000001, 0.128, 192.0, 0.0, 0.0, 0.0, 0.0, 0.0, 0.0, 0.0, 0.0, 0.0, 1.6665552248369892E9, 0.0, 2022-10-23 13:00:24.836
229.0, -61358.26544264144, -89843.7085561405, 41230.027822259406, -7519.81973884341, 78560.65971382377, 53912.25116398945, 11177.34744278758, 12765.662403781702, 0.056, 0.9440000000000001, 0.128, 192.0, 0.0, 0.0, 0.0, 0.0, 0.0, 0.0, 0.0, 0.0, 0.0, 1.6665552248369975E9, 0.0, 2022-10-23 13:00:24.836
230.0, -61418.48104220403, -89899.18558587857, 42497.0811601974, -6756.015927316657, 78723.82744834751, 54559.84825609306, 12090.840886931526, 13834.12049223429, 0.056, 0.9440000000000001, 0.128, 192.0, 0.0, 0.0, 0.0, 0.0, 0.0, 0.0, 0.0, 0.0, 0.0, 1.666555224837006E9, 0.0, 2022-10-23 13:00:24.837
231.0, -61386.85332379977, -89884.70165547152, 44262.15371634409, -5885.236666826805, 78682.29790714955, 55309.74928256861, 13120.116367353961, 14757.694573127577, 0.052000000000000005, 0.9480000000000001, 0.128, 192.0, 1.0, 160.0, 29.0, 160.0, 4.0, 0.0, 0.0, 0.0, 0.0, 1.6665552248370144E9, 0.0, 2022-10-23 13:00:24.837
232.0, -61317.4735090105, -89818.78636107282, 42279.978666303, -7075.377652094085, 78407.21498813809, 54308.435834459764, 11716.717388238596, 13144.859748465986, 0.052000000000000005, 0.9480000000000001, 0.128, 192.0, 0.0, 0.0, 0.0, 0.0, 0.0, 0.0, 0.0, 0.0, 0.0, 1.6665552248370233E9, 0.0, 2022-10-23 13:00:24.837
233.0, -61348.251861125456, -89841.78630611734, 41182.59742052525, -7566.2219603326275, 78537.97269320163, 53869.22405591298, 11118.29413393666, 12681.619844629748, 0.052000000000000005, 0.9480000000000001, 0.128, 192.0, 0.0, 0.0, 0.0, 0.0, 0.0, 0.0, 0.0, 0.0, 0.0, 1.6665552248370316E9, 0.0, 2022-10-23 13:00:24.837
234.0, -61392.8882948027, -89879.98543739146, 42084.26679185234, -6981.7014910818925, 78701.43100040329, 54361.14124788538, 11820.787110422507, 13553.382581875632, 0.052000000000000005, 0.9480000000000001, 0.128, 192.0, 0.0, 0.0, 0.0, 0.0, 0.0, 0.0, 0.0, 0.0, 0.0, 1.6665552248370402E9, 0.0, 2022-10-23 13:00:24.837
235.0, -61396.28575995991, -89888.1214723732, 44203.94977378247, -5877.8158876676425, 78738.89252411039, 55301.99322724262, 13120.339884798514, 14810.511745275468, 0.052000000000000005, 0.9480000000000001, 0.128, 192.0, 0.0, 0.0, 0.0, 0.0, 0.0, 0.0, 0.0, 0.0, 0.0, 1.6665552248370562E9, 0.0, 2022-10-23 13:00:24.837
236.0, -61320.200421834044, -89818.83106456175, 42721.604433250955, -6825.127521172467, 78424.69405230213, 54513.17781367038, 12008.340598146988, 13450.408095170033, 0.052000000000000005, 0.9480000000000001, 0.128, 192.0, 0.0, 0.0, 0.0, 0.0, 0.0, 0.0, 0.0, 0.0, 0.0, 1.6665552248370647E9, 0.0, 2022-10-23 13:00:24.837
237.0, -61348.52008205892, -89842.88154159565, 41208.972478982505, -7562.712736453144, 78496.89018689278, 53866.98888146745, 11112.974418756297, 12639.419751098127, 0.052000000000000005, 0.9480000000000001, 0.128, 192.0, 0.0, 0.0, 0.0, 0.0, 0.0, 0.0, 0.0, 0.0, 0.0, 1.666555224837073E9, 0.0, 2022-10-23 13:00:24.837
238.0, -61380.326614418824, -89871.42471926508, 41759.83122108355, -7155.575711199726, 78667.12107266439, 54207.27183905504, 11601.024758937927, 13309.212125445858, 0.052000000000000005, 0.9480000000000001, 0.128, 192.0, 0.0, 0.0, 0.0, 0.0, 0.0, 0.0, 0.0, 0.0, 0.0, 1.6665552248370812E9, 0.0, 2022-10-23 13:00:24.837
239.0, -61407.528687420934, -89899.47615855648, 44000.05716086116, -5950.168484469472, 78774.61061174997, 55233.37337176483, 13022.752168506644, 14751.883119569198, 0.052000000000000005, 0.9480000000000001, 0.128, 192.0, 0.0, 0.0, 0.0, 0.0, 0.0, 0.0, 0.0, 0.0, 0.0, 1.6665552248370895E9, 0.0, 2022-10-23 13:00:24.837
240.0, -61322.9720381465, -89821.58032912973, 43213.81219790127, -6533.325497308433, 78473.35379998134, 54760.611624790625, 12344.10850335461, 13812.461651857097, 0.05, 0.9580000000000001, 0.128, 192.0, 1.0, 144.0, 29.0, 240.0, 4.0, 0.0, 0.0, 0.0, 0.0, 1.666555224837098E9, 0.0, 2022-10-23 13:00:24.837
241.0, -61330.03518939438, -89828.24114897742, 41293.95381140159, -7535.868291362321, 78469.59870691285, 53888.468907889, 11140.690581880877, 12634.435312084594, 0.05, 0.9580000000000001, 0.128, 192.0, 0.0, 0.0, 0.0, 0.0, 0.0, 0.0, 0.0, 0.0, 0.0, 1.6665552253157573E9, 0.0, 2022-10-23 13:00:25.315
242.0, -61380.237207441, -89877.16911759009, 41495.611249877365, -7313.7590067099345, 78638.86846767289, 54067.50638097601, 11409.82793686723, 13091.774355384632, 0.05, 0.9580000000000001, 0.128, 192.0, 0.0, 0.0, 0.0, 0.0, 0.0, 0.0, 0.0, 0.0, 0.0, 1.6665552253158891E9, 0.0, 2022-10-23 13:00:25.315
243.0, -61420.87267886075, -89914.0271441969, 43645.71495601117, -6116.3090010057695, 78789.07219041255, 55086.96944558257, 12819.39599745226, 14570.386954592104, 0.05, 0.9580000000000001, 0.128, 192.0, 0.0, 0.0, 0.0, 0.0, 0.0, 0.0, 0.0, 0.0, 0.0, 1.666555225315931E9, 0.0, 2022-10-23 13:00:25.315
244.0, -61353.52687281691, -89851.1069835552, 43627.52063602456, -6289.57972402331, 78515.71035572415, 54957.84341786426, 12624.958172435543, 14135.042027836089, 0.05, 0.9580000000000001, 0.128, 192.0, 0.0, 0.0, 0.0, 0.0, 0.0, 0.0, 0.0, 0.0, 0.0, 1.6665552253159492E9, 0.0, 2022-10-23 13:00:25.315
245.0, -61326.90594517064, -89823.21200647498, 41469.16913618674, -7449.367040320282, 78455.24888697253, 53968.86813269474, 11236.959545249885, 12699.121260538252, 0.05, 0.9580000000000001, 0.128, 192.0, 0.0, 0.0, 0.0, 0.0, 0.0, 0.0, 0.0, 0.0, 0.0, 1.666555225315966E9, 0.0, 2022-10-23 13:00:25.315
246.0, -61366.64734681218, -89862.08169008276, 41332.935253731644, -7414.23009803654, 78608.53715044704, 53982.793269490394, 11280.903074849019, 12931.311181939982, 0.05, 0.9580000000000001, 0.128, 192.0, 0.0, 0.0, 0.0, 0.0, 0.0, 0.0, 0.0, 0.0, 0.0, 1.6665552253159826E9, 0.0, 2022-10-23 13:00:25.315
247.0, -61421.073844560844, -89916.5752430648, 43183.21265974196, -6362.826390603351, 78777.38222806243, 54871.81155345578, 12526.275220665362, 14292.666529734914, 0.05, 0.9580000000000001, 0.128, 192.0, 0.0, 0.0, 0.0, 0.0, 0.0, 0.0, 0.0, 0.0, 0.0, 1.6665552253159995E9, 0.0, 2022-10-23 13:00:25.315
248.0, -61365.46270435605, -89869.79304191984, 43998.04550386018, -6048.180883905993, 78600.8034468655, 55162.56304533041, 12900.488126336113, 14462.808008528711, 0.05, 0.9580000000000001, 0.128, 192.0, 0.0, 0.0, 0.0, 0.0, 0.0, 0.0, 0.0, 0.0, 0.0, 1.6665552253160167E9, 0.0, 2022-10-23 13:00:25.316
249.0, -61322.77087244641, -89827.41413443258, 41700.4426360658, -7345.45378034756, 78414.68047078616, 54058.47627621607, 11360.654099065554, 12807.191944979662, 0.05, 0.9580000000000001, 0.128, 192.0, 0.0, 0.0, 0.0, 0.0, 0.0, 0.0, 0.0, 0.0, 0.0, 1.6665552253160331E9, 0.0, 2022-10-23 13:00:25.316
250.0, -61369.709535802554, -89868.04960585233, 41213.68869706258, -7497.915029277209, 78573.37785641884, 53906.886745320175, 11174.017032863741, 12799.905276287232, 0.048, 0.9580000000000001, 0.13, 192.0, 1.0, 128.0, 29.0, 240.0, 4.0, 16.0, 0.0, 0.0, 0.0, 1.66655522531605E9, 0.0, 2022-10-23 13:00:25.316
251.0, -61419.062187559866, -89913.11072267422, 42703.79009292008, -6621.950164073725, 78751.92359112782, 54643.868463500556, 12216.27887681471, 13985.888837085824, 0.048, 0.9580000000000001, 0.13, 192.0, 0.0, 0.0, 0.0, 0.0, 0.0, 0.0, 0.0, 0.0, 0.0, 1.6665552253161335E9, 0.0, 2022-10-23 13:00:25.316
252.0, -61390.38489942371, -89889.06024564031, 44168.96929370991, -5925.559213824179, 78662.5166133066, 55248.75137195008, 13037.459616358236, 14658.363420768193, 0.048, 0.9580000000000001, 0.13, 192.0, 0.0, 0.0, 0.0, 0.0, 0.0, 0.0, 0.0, 0.0, 0.0, 1.666555225316151E9, 0.0, 2022-10-23 13:00:25.316
253.0, -61321.049788123346, -89819.97100352896, 42006.16979672549, -7186.890505181612, 78414.63576729725, 54183.2884172545, 11545.368915244213, 12981.356737775415, 0.048, 0.9580000000000001, 0.13, 192.0, 0.0, 0.0, 0.0, 0.0, 0.0, 0.0, 0.0, 0.0, 0.0, 1.6665552253161676E9, 0.0, 2022-10-23 13:00:25.316
254.0, -61350.77760824891, -89846.97191083097, 41157.98814987995, -7536.248271018061, 78567.96873426065, 53865.75953552241, 11118.96468627032, 12712.398196744705, 0.048, 0.9580000000000001, 0.13, 192.0, 0.0, 0.0, 0.0, 0.0, 0.0, 0.0, 0.0, 0.0, 0.0, 1.666555225316184E9, 0.0, 2022-10-23 13:00:25.316
255.0, -61399.124431505734, -89894.2682020984, 42280.40334944765, -6840.438466124352, 78736.05385256457, 54451.73286816274, 11951.589518974963, 13710.80591807436, 0.048, 0.9580000000000001, 0.13, 192.0, 0.0, 0.0, 0.0, 0.0, 0.0, 0.0, 0.0, 0.0, 0.0, 1.6665552253162017E9, 0.0, 2022-10-23 13:00:25.316
0.0, -61398.69974836108, -89898.78325447837, 44204.77678832731, -5869.881018386009, 78715.19967498776, 55282.03311944403, 13098.92691361033, 14778.59345419329, 0.048, 0.9580000000000001, 0.13, 192.0, 0.0, 0.0, 0.0, 0.0, 0.0, 0.0, 0.0, 0.0, 0.0, 1.666555225316218E9, 0.0, 2022-10-23 13:00:25.316
1.0, -61322.25678232394, -89824.77662858686, 42431.8140663879, -6948.665612776949, 78434.79704079594, 54384.94585573028, 11826.95619189217, 13277.517351808234, 0.048, 0.9580000000000001, 0.13, 192.0, 0.0, 0.0, 0.0, 0.0, 0.0, 0.0, 0.0, 0.0, 0.0, 1.666555225316234E9, 0.0, 2022-10-23 13:00:25.316
2.0, -61356.72317227402, -89856.87373362467, 41195.404970098134, -7517.8527853313435, 78537.8385827349, 53884.13266946467, 11132.286325965682, 12691.23109474553, 0.048, 0.9580000000000001, 0.13, 192.0, 0.0, 0.0, 0.0, 0.0, 0.0, 0.0, 0.0, 0.0, 0.0, 1.6665552253162506E9, 0.0, 2022-10-23 13:00:25.316
3.0, -61398.856210572274, -89896.90570794413, 41931.91730164496, -7026.650849181516, 78684.71189555072, 54293.54957265253, 11727.043894176948, 13453.157359738036, 0.048, 0.9580000000000001, 0.13, 192.0, 0.0, 0.0, 0.0, 0.0, 0.0, 0.0, 0.0, 0.0, 0.0, 1.6665552253162668E9, 0.0, 2022-10-23 13:00:25.316
4.0, -61410.456765944575, -89905.84640572625, 44107.904327858014, -5879.894599901986, 78758.67381795333, 55263.10119189038, 13076.441058688291, 14785.768364163443, 0.054, 0.9540000000000001, 0.13, 192.0, 1.0, 176.0, 29.0, 208.0, 4.0, 16.0, 0.0, 0.0, 0.0, 1.6665552253162832E9, 0.0, 2022-10-23 13:00:25.316
5.0, -61326.05657888134, -89830.02928853384, 42907.7274093303, -6673.426231554298, 78461.97676205359, 54606.250477582274, 12143.367486401497, 13597.370814963677, 0.054, 0.9540000000000001, 0.13, 192.0, 0.0, 0.0, 0.0, 0.0, 0.0, 0.0, 0.0, 0.0, 0.0, 1.666555225316301E9, 0.0, 2022-10-23 13:00:25.316
6.0, -61355.918509473624, -89860.04768133732, 41255.93349408311, -7499.43494790017, 78501.8299224174, 53888.40185265563, 11145.317392983126, 12654.59658558328, 0.054, 0.9540000000000001, 0.13, 192.0, 0.0, 0.0, 0.0, 0.0, 0.0, 0.0, 0.0, 0.0, 0.0, 1.6665552253163173E9, 0.0, 2022-10-23 13:00:25.316
7.0, -61398.72210010554, -89897.68801900007, 41654.7333186547, -7180.98964464541, 78649.2620288446, 54151.32542268341, 11531.309667981825, 13220.47569995829, 0.054, 0.9540000000000001, 0.13, 192.0, 0.0, 0.0, 0.0, 0.0, 0.0, 0.0, 0.0, 0.0, 0.0, 1.6665552253163335E9, 0.0, 2022-10-23 13:00:25.316
8.0, -61428.82989988684, -89927.72876354799, 43855.08374632404, -5987.115918054094, 78788.0440101676, 55163.859446508824, 12940.587155888934, 14676.066002376796, 0.054, 0.9540000000000001, 0.13, 192.0, 0.0, 0.0, 0.0, 0.0, 0.0, 0.0, 0.0, 0.0, 0.0, 1.6665552253163505E9, 0.0, 2022-10-23 13:00:25.316
9.0, -61351.3811053492, -89857.6113411917, 43400.58337456982, -6386.519239725976, 78507.46256202014, 54852.76786717986, 12479.783592198324, 13957.323307671943, 0.054, 0.9540000000000001, 0.13, 192.0, 0.0, 0.0, 0.0, 0.0, 0.0, 0.0, 0.0, 0.0, 0.0, 1.6665552253163667E9, 0.0, 2022-10-23 13:00:25.316
