%OpenBCI Raw EEG Data
%Number of channels = 8
%Sample Rate = 250 Hz
%Board = OpenBCI_GUI$BoardCytonSerial
Sample Index, EXG Channel 0, EXG Channel 1, EXG Channel 2, EXG Channel 3, EXG Channel 4, EXG Channel 5, EXG Channel 6, EXG Channel 7, Accel Channel 0, Accel Channel 1, Accel Channel 2, Other, Other, Other, Other, Other, Other, Other, Analog Channel 0, Analog Channel 1, Analog Channel 2, Timestamp, Other, Timestamp (Formatted)
218.0, -67134.17972733734, -98214.23568895289, 56286.78873619899, 4103.445005827547, 84546.14395453263, 66051.79650208908, 24168.963631267983, 17277.831408718994, 0.0, 0.0, 0.0, 192.0, 0.0, 0.0, 0.0, 0.0, 0.0, 0.0, 0.0, 0.0, 0.0, 1.6665553803349533E9, 0.0, 2022-10-23 13:03:00.334
219.0, -67087.21871223673, -98166.671176752, 53983.508525312966, 2855.792982076762, 84278.03477979121, 64995.81068704256, 22657.11398805547, 15668.10347653669, 0.034, 0.9580000000000001, 0.112, 192.0, 1.0, 16.0, 29.0, 240.0, 3.0, 128.0, 0.0, 0.0, 0.0, 1.6665553803349729E9, 0.0, 2022-10-23 13:03:00.334
220.0, -67133.75504419269, -98210.50294762886, 53560.74763068529, 2781.987521885338, 84457.49693602287, 64908.594180177955, 22526.37863473638, 15689.136468069133, 0.034, 0.9580000000000001, 0.112, 192.0, 0.0, 0.0, 0.0, 0.0, 0.0, 0.0, 0.0, 0.0, 0.0, 1.666555380334986E9, 0.0, 2022-10-23 13:03:00.334
221.0, -67174.0552394456, -98248.5903201807, 55119.93826865414, 3681.4217187668946, 84711.97154664654, 65656.90823279718, 23600.6705284918, 16890.09569765278, 0.034, 0.9580000000000001, 0.112, 192.0, 0.0, 0.0, 0.0, 0.0, 0.0, 0.0, 0.0, 0.0, 0.0, 1.6665553803349962E9, 0.0, 2022-10-23 13:03:00.334
222.0, -67123.96498012125, -98205.16088070403, 56508.58509642901, 4279.822621324375, 84646.65974934814, 66187.56099791062, 24359.02051437146, 17518.537344758195, 0.034, 0.9580000000000001, 0.112, 192.0, 0.0, 0.0, 0.0, 0.0, 0.0, 0.0, 0.0, 0.0, 0.0, 1.6665553803350065E9, 0.0, 2022-10-23 13:03:00.335
223.0, -67064.48698812569, -98148.7674294433, 54291.89554356284, 3018.3572195002102, 84288.02600956273, 65132.022217753205, 22855.530423585227, 15855.835778216813, 0.034, 0.9580000000000001, 0.112, 192.0, 0.0, 0.0, 0.0, 0.0, 0.0, 0.0, 0.0, 0.0, 0.0, 1.6665553803350165E9, 0.0, 2022-10-23 13:03:00.335
224.0, -67109.57045669205, -98188.35236887365, 53505.98585676979, 2749.286919747224, 84438.16267706903, 64879.000470519124, 22483.038602237535, 15614.325179377222, 0.034, 0.9580000000000001, 0.112, 192.0, 0.0, 0.0, 0.0, 0.0, 0.0, 0.0, 0.0, 0.0, 0.0, 1.6665553803350265E9, 0.0, 2022-10-23 13:03:00.335
225.0, -67148.57425076656, -98224.89747105808, 54663.13566722103, 3446.1696083747875, 84659.2884849654, 65451.02631461935, 23314.56819946387, 16591.454039985423, 0.034, 0.9580000000000001, 0.112, 192.0, 0.0, 0.0, 0.0, 0.0, 0.0, 0.0, 0.0, 0.0, 0.0, 1.666555380335036E9, 0.0, 2022-10-23 13:03:00.335
226.0, -67136.3478465495, -98219.84597681118, 56535.071913608546, 4332.080999860883, 84701.8909098972, 66213.84664939006, 24409.98249172956, 17620.304837263207, 0.034, 0.9580000000000001, 0.112, 192.0, 0.0, 0.0, 0.0, 0.0, 0.0, 0.0, 0.0, 0.0, 0.0, 1.666555380335046E9, 0.0, 2022-10-23 13:03:00.335
227.0, -67066.31983117101, -98152.99190914535, 54681.7099668634, 3224.3508964003204, 84320.88307391205, 65309.00333035032, 23112.799002265812, 16114.66897900927, 0.034, 0.9580000000000001, 0.112, 192.0, 0.0, 0.0, 0.0, 0.0, 0.0, 0.0, 0.0, 0.0, 0.0, 1.6665553803350556E9, 0.0, 2022-10-23 13:03:00.335
228.0, -67092.9854623062, -98175.09778441166, 53499.9285340224, 2730.3773439380343, 84406.64671738705, 64872.89844428283, 22472.712096299183, 15565.531321231285, 0.034, 0.9580000000000001, 0.112, 192.0, 0.0, 0.0, 0.0, 0.0, 0.0, 0.0, 0.0, 0.0, 0.0, 1.6665553803350656E9, 0.0, 2022-10-23 13:03:00.335
229.0, -67131.87749765844, -98211.95581101844, 54295.62828488687, 3255.9562630601245, 84624.73268803749, 65302.76719364729, 23097.599816036203, 16342.254441053206, 0.036000000000000004, 0.9580000000000001, 0.108, 192.0, 1.0, 32.0, 29.0, 240.0, 3.0, 96.0, 0.0, 0.0, 0.0, 1.6665553803350756E9, 0.0, 2022-10-23 13:03:00.335
230.0, -67154.78803572513, -98233.45818918446, 56481.22656121571, 4352.018755915017, 84759.11137570279, 66241.24988809226, 24438.346855443342, 17663.30959359522, 0.036000000000000004, 0.9580000000000001, 0.108, 192.0, 0.0, 0.0, 0.0, 0.0, 0.0, 0.0, 0.0, 0.0, 0.0, 1.666555380335086E9, 0.0, 2022-10-23 13:03:00.335
231.0, -67059.94958400125, -98144.09591485214, 55147.855597478825, 3475.7633180336143, 84357.00349295182, 65532.92310630359, 23432.138375298786, 16427.77221533921, 0.036000000000000004, 0.9580000000000001, 0.108, 192.0, 0.0, 0.0, 0.0, 0.0, 0.0, 0.0, 0.0, 0.0, 0.0, 1.666555380335096E9, 0.0, 2022-10-23 13:03:00.335
232.0, -67067.25860443815, -98147.38162128707, 53518.54753715367, 2710.841919284096, 84361.54089707624, 64858.72743829816, 22463.614936305876, 15518.279733452766, 0.036000000000000004, 0.9580000000000001, 0.108, 192.0, 0.0, 0.0, 0.0, 0.0, 0.0, 0.0, 0.0, 0.0, 0.0, 1.6665553803351054E9, 0.0, 2022-10-23 13:03:00.335
233.0, -67112.90086661588, -98189.53701132978, 53984.96138870256, 3087.1558889336457, 84587.1147021192, 65160.118360533525, 22895.987081049334, 16113.082005152943, 0.036000000000000004, 0.9580000000000001, 0.108, 192.0, 0.0, 0.0, 0.0, 0.0, 0.0, 0.0, 0.0, 0.0, 0.0, 1.6665553803351147E9, 0.0, 2022-10-23 13:03:00.335
234.0, -67138.98535239522, -98217.8790232991, 56216.40309290923, 4252.665251811177, 84782.20072772513, 66142.43282585536, 24303.185856722102, 17561.117417945556, 0.036000000000000004, 0.9580000000000001, 0.108, 192.0, 0.0, 0.0, 0.0, 0.0, 0.0, 0.0, 0.0, 0.0, 0.0, 1.666555380335226E9, 0.0, 2022-10-23 13:03:00.335
235.0, -67052.08176995299, -98140.60904271711, 55604.85936461203, 3743.6713270749246, 84425.24336877387, 65745.68936177366, 23744.83928022853, 16771.631452039655, 0.036000000000000004, 0.9580000000000001, 0.108, 192.0, 0.0, 0.0, 0.0, 0.0, 0.0, 0.0, 0.0, 0.0, 0.0, 1.666555380335236E9, 0.0, 2022-10-23 13:03:00.335
236.0, -67047.76788327312, -98133.23296704686, 53617.36459939058, 2747.454076701889, 84326.71687921487, 64885.169551988794, 22512.319387473988, 15538.239841251356, 0.036000000000000004, 0.9580000000000001, 0.108, 192.0, 0.0, 0.0, 0.0, 0.0, 0.0, 0.0, 0.0, 0.0, 0.0, 1.6665553803352456E9, 0.0, 2022-10-23 13:03:00.335
237.0, -67086.41404943634, -98167.90052269705, 53754.98429000191, 2958.722765293451, 84542.38886146413, 65041.765873642675, 22741.089491974057, 15932.68107565416, 0.036000000000000004, 0.9580000000000001, 0.108, 192.0, 0.0, 0.0, 0.0, 0.0, 0.0, 0.0, 0.0, 0.0, 0.0, 1.6665553803352554E9, 0.0, 2022-10-23 13:03:00.335
238.0, -67130.22346856874, -98209.20654645044, 55851.30969897625, 4092.1126713887065, 84791.29788771844, 65995.53716129508, 24107.094002615693, 17377.4531337563, 0.036000000000000004, 0.9580000000000001, 0.108, 192.0, 0.0, 0.0, 0.0, 0.0, 0.0, 0.0, 0.0, 0.0, 0.0, 1.6665553803352652E9, 0.0, 2022-10-23 13:03:00.335
239.0, -67063.43645613629, -98147.20280733143, 56052.74362000747, 4017.5919553747126, 84525.33448044473, 65974.41476278481, 24076.650926667564, 17134.53437501602, 0.04, 0.9520000000000001, 0.11, 192.0, 1.0, 64.0, 29.0, 192.0, 3.0, 112.0, 0.0, 0.0, 0.0, 1.666555380335275E9, 0.0, 2022-10-23 13:03:00.335
240.0, -67035.54147905606, -98116.11153079409, 53813.478805241444, 2832.4577608654217, 84305.70623942689, 64967.24515762868, 22633.756415099673, 15630.217269684945, 0.04, 0.9520000000000001, 0.11, 192.0, 0.0, 0.0, 0.0, 0.0, 0.0, 0.0, 0.0, 0.0, 0.0, 1.6665553803352969E9, 0.0, 2022-10-23 13:03:00.335
241.0, -67069.87375853941, -98146.93458639797, 53607.7533492748, 2862.1632292465247, 84497.12657894213, 64965.25585237216, 22633.823470333038, 15798.0788705443, 0.04, 0.9520000000000001, 0.11, 192.0, 0.0, 0.0, 0.0, 0.0, 0.0, 0.0, 0.0, 0.0, 0.0, 1.6665553803353393E9, 0.0, 2022-10-23 13:03:00.335
242.0, -67126.4460237558, -98201.36108414663, 55422.62559206791, 3877.9159042734987, 84757.34558789081, 65817.93019985322, 23853.982848403793, 17128.633514479818, 0.04, 0.9520000000000001, 0.11, 192.0, 0.0, 0.0, 0.0, 0.0, 0.0, 0.0, 0.0, 0.0, 0.0, 1.6665553803353813E9, 0.0, 2022-10-23 13:03:00.335
243.0, -67062.58708984699, -98147.78395268727, 56373.915836085784, 4218.26591709446, 84599.38580982517, 66136.44255834134, 24313.13238300471, 17417.9097912204, 0.04, 0.9520000000000001, 0.11, 192.0, 0.0, 0.0, 0.0, 0.0, 0.0, 0.0, 0.0, 0.0, 0.0, 1.6665553803354225E9, 0.0, 2022-10-23 13:03:00.335
244.0, -67009.18877234326, -98097.87250731856, 54075.75417468002, 2949.7150122779626, 84297.07846606713, 65065.34696404302, 22787.84934137456, 15768.55221611884, 0.04, 0.9520000000000001, 0.11, 192.0, 0.0, 0.0, 0.0, 0.0, 0.0, 0.0, 0.0, 0.0, 0.0, 1.66655538033547E9, 0.0, 2022-10-23 13:03:00.335
245.0, -67062.45297938025, -98144.43119101897, 53529.70105763687, 2804.093397151637, 84461.49789828037, 64911.67872091279, 22567.483492789688, 15696.266674550376, 0.04, 0.9520000000000001, 0.11, 192.0, 0.0, 0.0, 0.0, 0.0, 0.0, 0.0, 0.0, 0.0, 0.0, 1.6665553803355117E9, 0.0, 2022-10-23 13:03:00.335
246.0, -67104.60836942296, -98182.98795020438, 54970.896836626154, 3649.145799773431, 84712.91031991367, 65612.42826133112, 23570.875653132876, 16835.736255137475, 0.04, 0.9520000000000001, 0.11, 192.0, 0.0, 0.0, 0.0, 0.0, 0.0, 0.0, 0.0, 0.0, 0.0, 1.6665553803355534E9, 0.0, 2022-10-23 13:03:00.335
247.0, -67082.81541857903, -98166.2688453518, 56554.38382081793, 4354.544503038466, 84672.58777291629, 66229.8281466756, 24456.250602752043, 17608.659578401992, 0.04, 0.9520000000000001, 0.11, 192.0, 0.0, 0.0, 0.0, 0.0, 0.0, 0.0, 0.0, 0.0, 0.0, 1.666555380335594E9, 0.0, 2022-10-23 13:03:00.335
248.0, -67024.54442078405, -98109.56246966869, 54462.104077590004, 3146.008032084469, 84304.36513475957, 65228.38058810003, 23019.726338353914, 15989.119230403809, 0.04, 0.9520000000000001, 0.11, 192.0, 0.0, 0.0, 0.0, 0.0, 0.0, 0.0, 0.0, 0.0, 0.0, 1.666555380335626E9, 0.0, 2022-10-23 13:03:00.335
249.0, -67055.70275255475, -98137.99388861583, 53544.45320897737, 2797.3655220705896, 84423.81285712872, 64903.38622371987, 22545.444672756752, 15634.195880197989, 0.038, 0.9540000000000001, 0.114, 192.0, 1.0, 48.0, 29.0, 208.0, 3.0, 144.0, 0.0, 0.0, 0.0, 1.6665553803356376E9, 0.0, 2022-10-23 13:03:00.335
250.0, -67100.92033158784, -98181.84801123715, 54628.28929761521, 3469.057794697022, 84662.77535710041, 65461.33046881324, 23342.262010843995, 16576.634833411557, 0.038, 0.9540000000000001, 0.114, 192.0, 0.0, 0.0, 0.0, 0.0, 0.0, 0.0, 0.0, 0.0, 0.0, 1.6665553803357065E9, 0.0, 2022-10-23 13:03:00.335
251.0, -67098.39458446439, -98180.14927865854, 56637.35349623603, 4433.423809221245, 84722.20864560708, 66289.48495262682, 24530.547801321485, 17707.387233661084, 0.038, 0.9540000000000001, 0.114, 192.0, 0.0, 0.0, 0.0, 0.0, 0.0, 0.0, 0.0, 0.0, 0.0, 1.6665553803357184E9, 0.0, 2022-10-23 13:03:00.335
252.0, -67025.14791788434, -98105.22623124436, 54952.41194396162, 3398.381578729341, 84329.13086761604, 65447.87471865115, 23323.03951061243, 16275.892111765399, 0.038, 0.9540000000000001, 0.114, 192.0, 0.0, 0.0, 0.0, 0.0, 0.0, 0.0, 0.0, 0.0, 0.0, 1.6665553803357303E9, 0.0, 2022-10-23 13:03:00.335
253.0, -67049.06428445152, -98123.35349599761, 53614.74944528931, 2807.7143797533968, 84388.3182869337, 64921.84876463995, 22560.88972817537, 15597.002577424359, 0.038, 0.9540000000000001, 0.114, 192.0, 0.0, 0.0, 0.0, 0.0, 0.0, 0.0, 0.0, 0.0, 0.0, 1.666555380335742E9, 0.0, 2022-10-23 13:03:00.335
254.0, -67095.66767164084, -98170.31451109822, 54298.51165992161, 3277.4809929705852, 84602.64916451563, 65301.80606863571, 23113.55896157729, 16305.374062701949, 0.038, 0.9540000000000001, 0.114, 192.0, 0.0, 0.0, 0.0, 0.0, 0.0, 0.0, 0.0, 0.0, 0.0, 1.666555380335754E9, 0.0, 2022-10-23 13:03:00.335
255.0, -67108.40816598036, -98186.11719442812, 56507.95924758426, 4395.828175047419, 84760.13955594774, 66250.03412366321, 24473.88612912728, 17666.550596541238, 0.038, 0.9540000000000001, 0.114, 192.0, 0.0, 0.0, 0.0, 0.0, 0.0, 0.0, 0.0, 0.0, 0.0, 1.6665553803357658E9, 0.0, 2022-10-23 13:03:00.335
0.0, -67021.86221144942, -98104.13099576606, 55410.73446401769, 3638.394610690428, 84381.43394964146, 65644.95004951359, 23611.734641997176, 16568.163522262996, 0.038, 0.9540000000000001, 0.114, 192.0, 0.0, 0.0, 0.0, 0.0, 0.0, 0.0, 0.0, 0.0, 0.0, 1.6665553803357775E9, 0.0, 2022-10-23 13:03:00.335
1.0, -67030.6240952759, -98107.17083301197, 53665.15262903603, 2806.2391646193464, 84362.83729825466, 64917.08784307097, 22559.973306652704, 15552.343792002654, 0.038, 0.9540000000000001, 0.114, 192.0, 0.0, 0.0, 0.0, 0.0, 0.0, 0.0, 0.0, 0.0, 0.0, 1.6665553803357892E9, 0.0, 2022-10-23 13:03:00.335
2.0, -67071.46073239575, -98147.24751082034, 54036.37040094977, 3140.040116314902, 84591.60740275471, 65186.02403235722, 22937.606029225117, 16087.466906007161, 0.03, 0.9540000000000001, 0.112, 192.0, 0.0, 240.0, 29.0, 208.0, 3.0, 128.0, 0.0, 0.0, 0.0, 1.666555380335801E9, 0.0, 2022-10-23 13:03:00.335
3.0, -67105.01070082316, -98187.05596769524, 56253.66345091623, 4312.389112995757, 84810.85566411683, 66177.88269256147, 24348.71636017756, 17548.37692360603, 0.03, 0.9540000000000001, 0.112, 192.0, 0.0, 0.0, 0.0, 0.0, 0.0, 0.0, 0.0, 0.0, 0.0, 1.6665553803358133E9, 0.0, 2022-10-23 13:03:00.335
4.0, -67032.74751099915, -98118.83844361764, 55892.459260518466, 3922.909965862032, 84467.68933149449, 65887.06414545348, 23938.718311633864, 16911.4416136076, 0.03, 0.9540000000000001, 0.112, 192.0, 0.0, 0.0, 0.0, 0.0, 0.0, 0.0, 0.0, 0.0, 0.0, 1.6665553803358252E9, 0.0, 2022-10-23 13:03:00.335
5.0, -67029.30534235304, -98109.78598711324, 53783.862743838166, 2839.5209121132984, 84325.26401582528, 64953.34237257748, 22605.347347896975, 15557.618803694108, 0.03, 0.9540000000000001, 0.112, 192.0, 0.0, 0.0, 0.0, 0.0, 0.0, 0.0, 0.0, 0.0, 0.0, 1.6665553803358388E9, 0.0, 2022-10-23 13:03:00.335
6.0, -67073.74061033018, -98147.20280733143, 53802.07941556924, 2987.40005342961, 84529.71542235797, 65053.724056926265, 22753.31589619111, 15873.516008080962, 0.03, 0.9540000000000001, 0.112, 192.0, 0.0, 0.0, 0.0, 0.0, 0.0, 0.0, 0.0, 0.0, 0.0, 1.6665553803358505E9, 0.0, 2022-10-23 13:03:00.335
7.0, -67116.23127653972, -98186.65363629504, 55796.70438727193, 4075.348863047226, 84771.60600085331, 65966.50224524764, 24060.15533925955, 17277.026745918603, 0.03, 0.9540000000000001, 0.112, 192.0, 0.0, 0.0, 0.0, 0.0, 0.0, 0.0, 0.0, 0.0, 0.0, 1.6665553803358629E9, 0.0, 2022-10-23 13:03:00.335
8.0, -67059.61430783443, -98138.39622001603, 56249.41661946972, 4137.173788210605, 84545.4510504545, 66052.62351663393, 24185.660384376097, 17209.83740208595, 0.03, 0.9540000000000001, 0.112, 192.0, 0.0, 0.0, 0.0, 0.0, 0.0, 0.0, 0.0, 0.0, 0.0, 1.666555380335874E9, 0.0, 2022-10-23 13:03:00.335
9.0, -67027.8748307079, -98104.26510623278, 53995.6455225522, 2934.694640003996, 84305.84034989362, 65037.94372534082, 22724.772718521683, 15659.676868877039, 0.03, 0.9540000000000001, 0.112, 192.0, 0.0, 0.0, 0.0, 0.0, 0.0, 0.0, 0.0, 0.0, 0.0, 1.666555380335898E9, 0.0, 2022-10-23 13:03:00.335
10.0, -67069.44907539476, -98143.11243809611, 53693.673454961, 2917.416741540044, 84493.86322425166, 65001.66684408985, 22668.602784705494, 15761.176140448588, 0.03, 0.9540000000000001, 0.112, 192.0, 0.0, 0.0, 0.0, 0.0, 0.0, 0.0, 0.0, 0.0, 0.0, 1.6665553803359096E9, 0.0, 2022-10-23 13:03:00.335
11.0, -67117.57238120704, -98189.08997644068, 55388.51683002911, 3876.2842269282614, 84745.54386681842, 65809.07890904891, 23819.784679387176, 17031.917516221703, 0.03, 0.9540000000000001, 0.112, 192.0, 0.0, 0.0, 0.0, 0.0, 0.0, 0.0, 0.0, 0.0, 0.0, 1.6665553803359213E9, 0.0, 2022-10-23 13:03:00.335
12.0, -67064.91167127034, -98140.83256016167, 56530.646268206394, 4315.071322330395, 84615.07673443279, 66200.74852713925, 24394.649195033217, 17463.261480720223, 0.028, 0.9580000000000001, 0.11, 192.0, 0.0, 224.0, 29.0, 240.0, 3.0, 112.0, 0.0, 0.0, 0.0, 1.666555380335933E9, 0.0, 2022-10-23 13:03:00.335
13.0, -67013.79323170104, -98093.67037936096, 54288.90040980583, 3066.949911946048, 84309.86366389558, 65156.72089537632, 22897.48464792784, 15820.296504532875, 0.028, 0.9580000000000001, 0.11, 192.0, 0.0, 0.0, 0.0, 0.0, 0.0, 0.0, 0.0, 0.0, 0.0, 1.6665553803359451E9, 0.0, 2022-10-23 13:03:00.335
14.0, -67051.12064494142, -98125.25339427631, 53617.0069714793, 2850.696784340952, 84458.8380406902, 64945.921593418316, 22595.020841958623, 15657.486397920418, 0.028, 0.9580000000000001, 0.11, 192.0, 0.0, 0.0, 0.0, 0.0, 0.0, 0.0, 0.0, 0.0, 0.0, 1.6665553803359568E9, 0.0, 2022-10-23 13:03:00.335
15.0, -67105.52479094562, -98177.10944141263, 54912.15645219761, 3614.545299356616, 84699.05223835137, 65579.50414174845, 23511.107088459386, 16721.83176539323, 0.028, 0.9580000000000001, 0.11, 192.0, 0.0, 0.0, 0.0, 0.0, 0.0, 0.0, 0.0, 0.0, 0.0, 1.6665553803359687E9, 0.0, 2022-10-23 13:03:00.335
16.0, -67098.86397109795, -98179.16580190252, 56698.61962778803, 4441.850416880896, 84705.73540994352, 66316.12823201755, 24555.022961500046, 17671.512683810317, 0.028, 0.9580000000000001, 0.11, 192.0, 0.0, 0.0, 0.0, 0.0, 0.0, 0.0, 0.0, 0.0, 0.0, 1.6665553803359969E9, 0.0, 2022-10-23 13:03:00.335
17.0, -67026.8690022074, -98109.24954524632, 54702.11710955109, 3260.292501484454, 84304.00750684828, 65344.69906624545, 23165.14678778014, 16080.694327437202, 0.028, 0.9580000000000001, 0.11, 192.0, 0.0, 0.0, 0.0, 0.0, 0.0, 0.0, 0.0, 0.0, 0.0, 1.666555380336007E9, 0.0, 2022-10-23 13:03:00.336
18.0, -67054.60751707644, -98131.37777225707, 53617.31989590167, 2813.838757734151, 84408.9712988104, 64934.25398281265, 22573.384353325888, 15603.350472849665, 0.028, 0.9580000000000001, 0.11, 192.0, 0.0, 0.0, 0.0, 0.0, 0.0, 0.0, 0.0, 0.0, 0.0, 1.6665553803360176E9, 0.0, 2022-10-23 13:03:00.336
19.0, -67099.6909856428, -98174.31547335572, 54542.48095065128, 3407.0764073224555, 84647.30794993734, 65421.67847414953, 23274.111541999762, 16459.511692465745, 0.028, 0.9580000000000001, 0.11, 192.0, 0.0, 0.0, 0.0, 0.0, 0.0, 0.0, 0.0, 0.0, 0.0, 1.666555380336028E9, 0.0, 2022-10-23 13:03:00.336
20.0, -67108.20700028026, -98185.80427000574, 56633.08431304507, 4432.865015609863, 84741.11822141627, 66295.45286839639, 24529.452565843174, 17683.090887438168, 0.028, 0.9580000000000001, 0.11, 192.0, 0.0, 0.0, 0.0, 0.0, 0.0, 0.0, 0.0, 0.0, 0.0, 1.6665553803360386E9, 0.0, 2022-10-23 13:03:00.336
21.0, -67030.4676330647, -98112.02116155878, 55121.72640821057, 3478.177306434787, 84348.28631261425, 65521.05432999782, 23421.364834471326, 16345.160167832395, 0.028, 0.9580000000000001, 0.11, 192.0, 0.0, 0.0, 0.0, 0.0, 0.0, 0.0, 0.0, 0.0, 0.0, 1.6665553803360493E9, 0.0, 2022-10-23 13:03:00.336
22.0, -67044.10219718245, -98124.38167624256, 53645.39368693754, 2809.8824989655614, 84377.8129670397, 64929.068378099015, 22563.61664099892, 15557.909376372025, 0.032, 0.962, 0.108, 192.0, 1.0, 0.0, 30.0, 16.0, 3.0, 96.0, 0.0, 0.0, 0.0, 1.6665553803360593E9, 0.0, 2022-10-23 13:03:00.336
23.0, -67085.94466280278, -98162.55845577222, 54194.79956564899, 3216.4830823520524, 84593.44024580005, 65250.53116685524, 23035.28315249481, 16196.275198015595, 0.032, 0.962, 0.108, 192.0, 0.0, 0.0, 0.0, 0.0, 0.0, 0.0, 0.0, 0.0, 0.0, 1.6665553803360703E9, 0.0, 2022-10-23 13:03:00.336
24.0, -67113.16908754934, -98186.43011885049, 56444.90497647584, 4379.176125428215, 84785.73230334905, 66239.17117585793, 24445.253544480034, 17629.714921678893, 0.032, 0.962, 0.108, 192.0, 0.0, 0.0, 0.0, 0.0, 0.0, 0.0, 0.0, 0.0, 0.0, 1.6665553803360808E9, 0.0, 2022-10-23 13:03:00.336
25.0, -67033.66393252181, -98114.92688833797, 55612.57071644911, 3761.0386325166983, 84423.00819432834, 65758.94394623565, 23753.668219288378, 16703.92801808453, 0.032, 0.962, 0.108, 192.0, 0.0, 0.0, 0.0, 0.0, 0.0, 0.0, 0.0, 0.0, 0.0, 1.6665553803361342E9, 0.0, 2022-10-23 13:03:00.336
26.0, -67034.35683659994, -98109.85304234661, 53764.97551977343, 2858.698708855952, 84353.44956558342, 64981.572625824534, 22623.541667883597, 15585.692594729971, 0.032, 0.962, 0.108, 192.0, 0.0, 0.0, 0.0, 0.0, 0.0, 0.0, 0.0, 0.0, 0.0, 1.6665553803361468E9, 0.0, 2022-10-23 13:03:00.336
27.0, -67079.37324993292, -98152.85779867863, 53981.340406100804, 3097.8623745277378, 84548.28972200034, 65160.58774716708, 22886.979328033845, 16013.259114415541, 0.032, 0.962, 0.108, 192.0, 0.0, 0.0, 0.0, 0.0, 0.0, 0.0, 0.0, 0.0, 0.0, 1.6665553803361576E9, 0.0, 2022-10-23 13:03:00.336
28.0, -67117.68413992932, -98188.5758863182, 56132.248775035, 4244.50686508499, 84773.55060262092, 66124.46202331329, 24266.596051048764, 17463.59675688705, 0.032, 0.962, 0.108, 192.0, 0.0, 0.0, 0.0, 0.0, 0.0, 0.0, 0.0, 0.0, 0.0, 1.666555380336168E9, 0.0, 2022-10-23 13:03:00.336
29.0, -67038.11192966842, -98115.910365094, 56057.8845212322, 4020.944717043009, 84480.7874537453, 65969.36326853791, 24048.510080398333, 17027.98360919757, 0.032, 0.962, 0.108, 192.0, 0.0, 0.0, 0.0, 0.0, 0.0, 0.0, 0.0, 0.0, 0.0, 1.6665553803361785E9, 0.0, 2022-10-23 13:03:00.336
30.0, -67025.93022894028, -98101.96287655388, 53866.72066053399, 2878.994092821371, 84306.04151559371, 64988.32285265003, 22645.938115827816, 15585.312615074232, 0.032, 0.962, 0.108, 192.0, 0.0, 0.0, 0.0, 0.0, 0.0, 0.0, 0.0, 0.0, 0.0, 1.6665553803361893E9, 0.0, 2022-10-23 13:03:00.336
31.0, -67073.51709288562, -98148.11922885409, 53772.999796032884, 2969.473954376454, 84511.85637853818, 65041.765873642675, 22722.291674887143, 15829.103091848267, 0.03, 0.9580000000000001, 0.112, 192.0, 0.0, 240.0, 29.0, 240.0, 3.0, 128.0, 0.0, 0.0, 0.0, 1.6665553803361998E9, 0.0, 2022-10-23 13:03:00.336
32.0, -67123.45088999878, -98196.62251432211, 55693.64049358851, 4033.618156149168, 84763.87229727177, 65939.54604143453, 23999.962091441404, 17211.15615500881, 0.03, 0.9580000000000001, 0.112, 192.0, 0.0, 0.0, 0.0, 0.0, 0.0, 0.0, 0.0, 0.0, 0.0, 1.6665553803362112E9, 0.0, 2022-10-23 13:03:00.336
33.0, -67070.96899401772, -98151.87432192259, 56391.752528161116, 4225.619641020256, 84563.80183265232, 66131.860450728, 24282.5328448454, 17314.778842303615, 0.03, 0.9580000000000001, 0.112, 192.0, 0.0, 0.0, 0.0, 0.0, 0.0, 0.0, 0.0, 0.0, 0.0, 1.6665553803362217E9, 0.0, 2022-10-23 13:03:00.336
34.0, -67027.80777547453, -98108.10960627909, 54123.251631647545, 3002.152204770113, 84308.5449109727, 65104.35075811753, 22800.32161478062, 15724.92161094208, 0.03, 0.9580000000000001, 0.112, 192.0, 0.0, 0.0, 0.0, 0.0, 0.0, 0.0, 0.0, 0.0, 0.0, 1.6665553803362324E9, 0.0, 2022-10-23 13:03:00.336
35.0, -67064.03995323658, -98141.19018807294, 53695.551001495245, 2920.367171808144, 84484.63195379161, 65008.93116103783, 22660.10912181248, 15734.622268035684, 0.03, 0.9580000000000001, 0.112, 192.0, 0.0, 0.0, 0.0, 0.0, 0.0, 0.0, 0.0, 0.0, 0.0, 1.666555380336243E9, 0.0, 2022-10-23 13:03:00.336
36.0, -67113.83963988301, -98187.5700578177, 55238.15664507826, 3804.5127754822706, 84731.3058056004, 65744.90705071772, 23714.865590913963, 16920.896401512196, 0.03, 0.9580000000000001, 0.112, 192.0, 0.0, 0.0, 0.0, 0.0, 0.0, 0.0, 0.0, 0.0, 0.0, 1.6665553803362534E9, 0.0, 2022-10-23 13:03:00.336
37.0, -67088.40335469287, -98164.45835405092, 56657.91710113491, 4417.442311935701, 84659.89198206569, 66296.25753119678, 24493.443905525673, 17566.437133125917, 0.03, 0.9580000000000001, 0.112, 192.0, 0.0, 0.0, 0.0, 0.0, 0.0, 0.0, 0.0, 0.0, 0.0, 1.6665553803362644E9, 0.0, 2022-10-23 13:03:00.336
38.0, -67020.7669759711, -98102.67813237646, 54452.96221410778, 3161.564846225363, 84292.54106194271, 65248.407751131985, 22993.060707218734, 15899.019348504467, 0.03, 0.9580000000000001, 0.112, 192.0, 0.0, 0.0, 0.0, 0.0, 0.0, 0.0, 0.0, 0.0, 0.0, 1.666555380336275E9, 0.0, 2022-10-23 13:03:00.336
39.0, -67050.04776120756, -98123.15233029751, 53638.12936998956, 2872.5567904182426, 84442.70008119346, 64972.22959664221, 22592.31628087953, 15635.313467420754, 0.03, 0.9580000000000001, 0.112, 192.0, 0.0, 0.0, 0.0, 0.0, 0.0, 0.0, 0.0, 0.0, 0.0, 1.6665553803362856E9, 0.0, 2022-10-23 13:03:00.336
40.0, -67100.9873868212, -98166.49236279636, 54809.38313119211, 3584.728072253236, 84690.98325860301, 65559.14170254966, 23440.117948069328, 16629.42965381499, 0.03, 0.9580000000000001, 0.112, 192.0, 0.0, 0.0, 0.0, 0.0, 0.0, 0.0, 0.0, 0.0, 0.0, 1.6665553803362963E9, 0.0, 2022-10-23 13:03:00.336
41.0, -67098.08166004201, -98170.62743552058, 56705.12398542452, 4480.206010366203, 84723.01330840746, 66334.59077293763, 24550.1949846977, 17669.25515762033, 0.03, 0.9580000000000001, 0.112, 192.0, 0.0, 240.0, 29.0, 240.0, 3.0, 128.0, 0.0, 0.0, 0.0, 1.6665553803363187E9, 0.0, 2022-10-23 13:03:00.336
42.0, -67025.70671149573, -98105.47210043337, 54837.099294316686, 3356.650871831283, 84322.26888206827, 65408.93797981, 23226.904657710154, 16143.256860167607, 0.03, 0.9580000000000001, 0.112, 192.0, 0.0, 0.0, 0.0, 0.0, 0.0, 0.0, 0.0, 0.0, 0.0, 1.6665553803363302E9, 0.0, 2022-10-23 13:03:00.336
43.0, -67064.9787265037, -98135.37873451457, 53628.89809952952, 2844.4606476379213, 84405.39501969755, 64948.8273201975, 22558.676905474294, 15574.829646924692, 0.03, 0.9580000000000001, 0.112, 192.0, 0.0, 0.0, 0.0, 0.0, 0.0, 0.0, 0.0, 0.0, 0.0, 1.666555380336341E9, 0.0, 2022-10-23 13:03:00.336
44.0, -67111.13507880391, -98179.27756062479, 54437.31599298907, 3382.511840166073, 84631.728784052, 65389.80488655626, 23193.68996544957, 16360.873444184477, 0.03, 0.9580000000000001, 0.112, 192.0, 0.0, 0.0, 0.0, 0.0, 0.0, 0.0, 0.0, 0.0, 0.0, 1.6665553803363512E9, 0.0, 2022-10-23 13:03:00.336
45.0, -67113.88434337192, -98184.8207932497, 56619.02506578268, 4477.4567457982, 84764.58755309434, 66320.88915358653, 24525.697472774682, 17681.07923043719, 0.03, 0.9580000000000001, 0.112, 192.0, 0.0, 0.0, 0.0, 0.0, 0.0, 0.0, 0.0, 0.0, 0.0, 1.666555380336362E9, 0.0, 2022-10-23 13:03:00.336
46.0, -67026.60078127394, -98099.54888815271, 55293.16428818277, 3604.464662607272, 84363.66431279949, 65609.94721769658, 23517.611446095878, 16443.843119602578, 0.03, 0.9580000000000001, 0.112, 192.0, 0.0, 0.0, 0.0, 0.0, 0.0, 0.0, 0.0, 0.0, 0.0, 1.666555380336372E9, 0.0, 2022-10-23 13:03:00.336
47.0, -67045.55506057203, -98113.74224588183, 53673.71334716241, 2848.5510168732426, 84374.12492920458, 64946.61449749643, 22554.787701939073, 15540.273849996789, 0.03, 0.9580000000000001, 0.112, 192.0, 0.0, 0.0, 0.0, 0.0, 0.0, 0.0, 0.0, 0.0, 0.0, 1.6665553803363824E9, 0.0, 2022-10-23 13:03:00.336
48.0, -67087.46458142574, -98152.23194983388, 54123.676314792196, 3210.3363526268427, 84595.76482722341, 65235.1978701589, 22970.016058685313, 16122.492089568626, 0.03, 0.9580000000000001, 0.112, 192.0, 0.0, 0.0, 0.0, 0.0, 0.0, 0.0, 0.0, 0.0, 0.0, 1.6665553803363943E9, 0.0, 2022-10-23 13:03:00.336
49.0, -67122.64622719839, -98189.40290086305, 56351.407629419286, 4369.900151479263, 84798.0704662884, 66214.69601567936, 24374.510273278986, 17572.405048895485, 0.03, 0.9580000000000001, 0.112, 192.0, 0.0, 0.0, 0.0, 0.0, 0.0, 0.0, 0.0, 0.0, 0.0, 1.6665553803364048E9, 0.0, 2022-10-23 13:03:00.336
50.0, -67044.21395590472, -98119.2631267623, 55766.0154421348, 3876.3736339060824, 84443.79531667178, 65834.44813900568, 23833.329836527093, 16800.442850642547, 0.03, 0.9580000000000001, 0.112, 192.0, 0.0, 0.0, 0.0, 0.0, 0.0, 0.0, 0.0, 0.0, 0.0, 1.6665553803364153E9, 0.0, 2022-10-23 13:03:00.336
51.0, -67039.2742203801, -98110.85887084709, 53786.07556653924, 2887.063072569737, 84341.62549276656, 64980.67855604632, 22601.167571683833, 15565.21839680891, 0.028, 0.96, 0.112, 192.0, 0.0, 224.0, 30.0, 0.0, 3.0, 128.0, 0.0, 0.0, 0.0, 1.6665553803364255E9, 0.0, 2022-10-23 13:03:00.336
52.0, -67082.14486624538, -98150.24264457735, 53900.13651849467, 3077.8352114957825, 84537.65029163961, 65121.49454611475, 22805.529571238705, 15935.497395455528, 0.028, 0.96, 0.112, 192.0, 0.0, 0.0, 0.0, 0.0, 0.0, 0.0, 0.0, 0.0, 0.0, 1.6665553803364403E9, 0.0, 2022-10-23 13:03:00.336
53.0, -67127.92123888984, -98194.2755811543, 55987.72239538698, 4205.748940199487, 84784.48060565957, 66072.4495139658, 24161.989886997926, 17377.38607852293, 0.028, 0.96, 0.112, 192.0, 0.0, 0.0, 0.0, 0.0, 0.0, 0.0, 0.0, 0.0, 0.0, 1.6665553803364503E9, 0.0, 2022-10-23 13:03:00.336
54.0, -67064.95637475925, -98139.49145549434, 56224.2709069575, 4152.708250607044, 84531.86118982568, 66074.72939190023, 24153.719741549463, 17156.148511904303, 0.028, 0.96, 0.112, 192.0, 0.0, 0.0, 0.0, 0.0, 0.0, 0.0, 0.0, 0.0, 0.0, 1.6665553803364613E9, 0.0, 2022-10-23 13:03:00.336
55.0, -67033.88744996637, -98109.11543477958, 53980.647502022686, 2965.696509563507, 84305.84034989362, 65064.16232158689, 22702.35391883301, 15634.575859853729, 0.028, 0.96, 0.112, 192.0, 0.0, 0.0, 0.0, 0.0, 0.0, 0.0, 0.0, 0.0, 0.0, 1.6665553803364716E9, 0.0, 2022-10-23 13:03:00.336
56.0, -67078.56858713253, -98148.27569106528, 53762.09214473869, 2987.444756918521, 84494.2432039074, 65054.03698134864, 22690.172218104868, 15788.758193106438, 0.028, 0.96, 0.112, 192.0, 0.0, 0.0, 0.0, 0.0, 0.0, 0.0, 0.0, 0.0, 0.0, 1.6665553803364928E9, 0.0, 2022-10-23 13:03:00.336
57.0, -67129.21764006825, -98195.9743137329, 55562.547512358135, 3995.955466741975, 84757.9043815022, 65901.68218632725, 23900.183904192916, 17113.121403827834, 0.028, 0.96, 0.112, 192.0, 0.0, 0.0, 0.0, 0.0, 0.0, 0.0, 0.0, 0.0, 0.0, 1.666555380336503E9, 0.0, 2022-10-23 13:03:00.336
58.0, -67082.74836334567, -98157.32814756969, 56559.81529472057, 4366.882665977796, 84619.05534494584, 66249.60944051856, 24389.955328697604, 17435.54531759564, 0.028, 0.96, 0.112, 192.0, 0.0, 0.0, 0.0, 0.0, 0.0, 0.0, 0.0, 0.0, 0.0, 1.6665553803365147E9, 0.0, 2022-10-23 13:03:00.336
59.0, -67039.0283511911, -98111.75294062532, 54269.18617119625, 3096.4542146270533, 84293.99392533231, 65182.78302941121, 22860.671324809948, 15770.474466141995, 0.028, 0.96, 0.112, 192.0, 0.0, 0.0, 0.0, 0.0, 0.0, 0.0, 0.0, 0.0, 0.0, 1.6665553803365247E9, 0.0, 2022-10-23 13:03:00.336
60.0, -67073.07005799652, -98141.16783632849, 53688.86782990311, 2927.206805611468, 84456.64756973357, 65005.846620303, 22608.52129560963, 15669.109305037178, 0.028, 0.96, 0.112, 192.0, 0.0, 0.0, 0.0, 0.0, 0.0, 0.0, 0.0, 0.0, 0.0, 1.6665553803365352E9, 0.0, 2022-10-23 13:03:00.336
61.0, -67118.66761668534, -98185.55840081674, 55119.37947504276, 3767.5206384087373, 84727.88598869872, 65708.47370725557, 23610.125316396396, 16814.27858046038, 0.038, 0.9460000000000001, 0.1, 192.0, 1.0, 48.0, 29.0, 144.0, 3.0, 32.0, 0.0, 0.0, 0.0, 1.6665553803365452E9, 0.0, 2022-10-23 13:03:00.336
62.0, -67095.39945070738, -98167.5205430413, 56745.29007021071, 4503.295362388535, 84705.17661633213, 66362.68691571796, 24534.70522579017, 17631.145433324033, 0.038, 0.9460000000000001, 0.1, 192.0, 0.0, 0.0, 0.0, 0.0, 0.0, 0.0, 0.0, 0.0, 0.0, 1.666555380336556E9, 0.0, 2022-10-23 13:03:00.336
63.0, -67023.5162405391, -98098.38659744103, 54633.51960581775, 3274.6646731692167, 84313.03761160823, 65341.90509818854, 23074.57751924724, 15989.186285637175, 0.038, 0.9460000000000001, 0.1, 192.0, 0.0, 0.0, 0.0, 0.0, 0.0, 0.0, 0.0, 0.0, 0.0, 1.6665553803365664E9, 0.0, 2022-10-23 13:03:00.336
64.0, -67060.84365377948, -98129.23200478936, 53697.2720858183, 2915.382732794611, 84443.54944748276, 65012.86506806196, 22590.975176212214, 15628.585592339707, 0.038, 0.9460000000000001, 0.1, 192.0, 0.0, 0.0, 0.0, 0.0, 0.0, 0.0, 0.0, 0.0, 0.0, 1.6665553803365767E9, 0.0, 2022-10-23 13:03:00.336
65.0, -67113.25849452717, -98178.2717321243, 54727.68750520796, 3551.066345103544, 84672.38660721619, 65537.75108310593, 23347.9617056801, 16538.32394341516, 0.038, 0.9460000000000001, 0.1, 192.0, 0.0, 0.0, 0.0, 0.0, 0.0, 0.0, 0.0, 0.0, 0.0, 1.6665553803365867E9, 0.0, 2022-10-23 13:03:00.336
66.0, -67122.80268940958, -98194.70026429895, 56794.73212894585, 4561.901636350351, 84760.4524803701, 66418.09689022266, 24591.411601473286, 17727.906135071058, 0.038, 0.9460000000000001, 0.1, 192.0, 0.0, 0.0, 0.0, 0.0, 0.0, 0.0, 0.0, 0.0, 0.0, 1.6665553803365967E9, 0.0, 2022-10-23 13:03:00.336
67.0, -67030.48998480916, -98109.56246966869, 55122.37460879977, 3528.6251936704152, 84345.98408293535, 65579.54884523735, 23385.020897986997, 16291.627739861935, 0.038, 0.9460000000000001, 0.1, 192.0, 0.0, 0.0, 0.0, 0.0, 0.0, 0.0, 0.0, 0.0, 0.0, 1.6665553803366072E9, 0.0, 2022-10-23 13:03:00.336
68.0, -67046.11385418342, -98115.57508892717, 53723.84830997566, 2894.863831384639, 84382.28331593076, 65008.79705057109, 22567.304678834043, 15561.93269037398, 0.038, 0.9460000000000001, 0.1, 192.0, 0.0, 0.0, 0.0, 0.0, 0.0, 0.0, 0.0, 0.0, 0.0, 1.6665553803366175E9, 0.0, 2022-10-23 13:03:00.336
69.0, -67101.70264264377, -98162.75962147232, 54335.25792780613, 3319.8599004578473, 84591.65210624362, 65339.155833620534, 23062.909908641566, 16231.769768210623, 0.038, 0.9460000000000001, 0.1, 192.0, 0.0, 0.0, 0.0, 0.0, 0.0, 0.0, 0.0, 0.0, 0.0, 1.666555380336629E9, 0.0, 2022-10-23 13:03:00.336
70.0, -67125.01551211065, -98188.73234852939, 56590.39248113543, 4476.450917297711, 84778.1103584898, 66330.50040370232, 24470.086332569877, 17652.11136962311, 0.04, 0.9540000000000001, 0.096, 192.0, 1.0, 64.0, 29.0, 208.0, 3.0, 0.0, 0.0, 0.0, 0.0, 1.6665553803366392E9, 0.0, 2022-10-23 13:03:00.336
71.0, -67041.576450059, -98111.77529236977, 55536.1053986675, 3747.3146614211396, 84395.00145852583, 65753.4677688441, 23637.97558998771, 16583.89915035953, 0.04, 0.9540000000000001, 0.096, 192.0, 0.0, 0.0, 0.0, 0.0, 0.0, 0.0, 0.0, 0.0, 0.0, 1.6665553803366497E9, 0.0, 2022-10-23 13:03:00.336
72.0, -67056.88739501088, -98122.19120528594, 53774.966749544954, 2898.3507035196667, 84348.93451320345, 65010.85341106098, 22566.567071267018, 15543.917184343003, 0.04, 0.9540000000000001, 0.096, 192.0, 0.0, 0.0, 0.0, 0.0, 0.0, 0.0, 0.0, 0.0, 0.0, 1.6665553803366733E9, 0.0, 2022-10-23 13:03:00.336
73.0, -67101.07679379902, -98160.41268830451, 54088.293503319444, 3183.2460383470107, 84553.74354764743, 65229.00643694478, 22890.555607146696, 16035.789672826491, 0.04, 0.9540000000000001, 0.096, 192.0, 0.0, 0.0, 0.0, 0.0, 0.0, 0.0, 0.0, 0.0, 0.0, 1.6665553803366835E9, 0.0, 2022-10-23 13:03:00.336
74.0, -67136.68312271632, -98193.04623520926, 56296.735262481605, 4348.1295523797935, 84779.87614630177, 66216.61826570252, 24301.956510777058, 17508.590818475583, 0.04, 0.9540000000000001, 0.096, 192.0, 0.0, 0.0, 0.0, 0.0, 0.0, 0.0, 0.0, 0.0, 0.0, 1.666555380336694E9, 0.0, 2022-10-23 13:03:00.336
75.0, -67050.11481644092, -98112.66936214798, 55982.87206684018, 3995.866059764154, 84466.08000589372, 65954.90168987533, 23930.20229699639, 16916.269590409946, 0.04, 0.9540000000000001, 0.096, 192.0, 0.0, 0.0, 0.0, 0.0, 0.0, 0.0, 0.0, 0.0, 0.0, 1.666555380336704E9, 0.0, 2022-10-23 13:03:00.336
76.0, -67056.59682233295, -98114.54690868223, 53912.60879190073, 2945.021145942348, 84331.58955950613, 65058.77555117316, 22629.08490050851, 15587.70425173095, 0.04, 0.9540000000000001, 0.096, 192.0, 0.0, 0.0, 0.0, 0.0, 0.0, 0.0, 0.0, 0.0, 0.0, 1.6665553803367143E9, 0.0, 2022-10-23 13:03:00.336
77.0, -67102.97669207772, -98155.60706324663, 53894.12389923619, 3062.3901560771656, 84512.97396576095, 65130.65876134143, 22742.654114085926, 15867.972775456044, 0.04, 0.9540000000000001, 0.096, 192.0, 0.0, 0.0, 0.0, 0.0, 0.0, 0.0, 0.0, 0.0, 0.0, 1.6665553803367245E9, 0.0, 2022-10-23 13:03:00.336
78.0, -67142.94161116381, -98195.86255501064, 55905.75854846938, 4164.532323423901, 84781.73134109157, 66061.63126964943, 24068.470188196923, 17293.835257748993, 0.04, 0.9540000000000001, 0.096, 192.0, 0.0, 0.0, 0.0, 0.0, 0.0, 0.0, 0.0, 0.0, 0.0, 1.6665553803367348E9, 0.0, 2022-10-23 13:03:00.336
79.0, -67080.08850575548, -98144.47589450788, 56400.469708498684, 4247.457295353091, 84552.08951855774, 66170.88659654696, 24220.149126070635, 17251.724571195195, 0.04, 0.9540000000000001, 0.096, 192.0, 0.0, 0.0, 0.0, 0.0, 0.0, 0.0, 0.0, 0.0, 0.0, 1.666555380336745E9, 0.0, 2022-10-23 13:03:00.336
80.0, -67036.68141802328, -98100.93469630895, 54114.80267224344, 3022.1346643131574, 84301.10178006909, 65132.290438686665, 22724.839773755048, 15665.398915457597, 0.042, 0.9580000000000001, 0.098, 192.0, 1.0, 80.0, 29.0, 240.0, 3.0, 16.0, 0.0, 0.0, 0.0, 1.6665553803367553E9, 0.0, 2022-10-23 13:03:00.336
81.0, -67090.37030820493, -98148.52156025429, 53773.87151406664, 2979.8004603148056, 84481.74857875689, 65068.185635588845, 22634.33756045551, 15733.996419190935, 0.042, 0.9580000000000001, 0.098, 192.0, 0.0, 0.0, 0.0, 0.0, 0.0, 0.0, 0.0, 0.0, 0.0, 1.666555380336766E9, 0.0, 2022-10-23 13:03:00.336
82.0, -67130.26817205765, -98188.46412759593, 55442.585699866504, 3923.982849595887, 84747.62257905277, 65861.56080502996, 23769.292088662638, 16994.94773089263, 0.042, 0.9580000000000001, 0.098, 192.0, 0.0, 0.0, 0.0, 0.0, 0.0, 0.0, 0.0, 0.0, 0.0, 1.666555380336776E9, 0.0, 2022-10-23 13:03:00.336
83.0, -67079.17208423282, -98142.30777529572, 56619.717969860794, 4383.355901641357, 84633.15929569713, 66276.25271990929, 24373.124465122757, 17455.058390505124, 0.042, 0.9580000000000001, 0.098, 192.0, 0.0, 0.0, 0.0, 0.0, 0.0, 0.0, 0.0, 0.0, 0.0, 1.666555380336786E9, 0.0, 2022-10-23 13:03:00.336
84.0, -67024.87969695088, -98084.52851587874, 54362.23648336369, 3124.259784729455, 84313.17172207496, 65221.630361274525, 22860.00077247629, 15791.440402441074, 0.042, 0.9580000000000001, 0.098, 192.0, 0.0, 0.0, 0.0, 0.0, 0.0, 0.0, 0.0, 0.0, 0.0, 1.6665553803367977E9, 0.0, 2022-10-23 13:03:00.336
1.0, -67712.39700465168, -98837.06704820003, 53345.05329669158, 2822.3324206271677, 84382.23861244186, 65073.81827519158, 22588.762353511138, 15621.120109691634, 0.042, 0.9580000000000001, 0.098, 192.0, 0.0, 0.0, 0.0, 0.0, 0.0, 0.0, 0.0, 0.0, 0.0, 1.6665553809171412E9, 0.0, 2022-10-23 13:03:00.917
2.0, -67745.52228993444, -98869.23120847122, 53601.807785249686, 3085.144231932668, 84603.25266161593, 65269.954832786905, 22881.994889020312, 16088.919769396756, 0.042, 0.9580000000000001, 0.098, 192.0, 0.0, 0.0, 0.0, 0.0, 0.0, 0.0, 0.0, 0.0, 0.0, 1.6665553809172263E9, 0.0, 2022-10-23 13:03:00.917
3.0, -67788.68350847764, -98912.52653748114, 55802.895820486054, 4258.990795492029, 84854.06158614894, 66267.98257446082, 24306.158638734658, 17583.737383334326, 0.042, 0.9580000000000001, 0.098, 192.0, 0.0, 0.0, 0.0, 0.0, 0.0, 0.0, 0.0, 0.0, 0.0, 1.666555380917262E9, 0.0, 2022-10-23 13:03:00.917
4.0, -67726.76917633643, -98852.37799315191, 55664.65028102998, 4009.7241413264446, 84555.77755639286, 66107.58645624954, 24065.184481761993, 17108.271075281034, 0.042, 0.9580000000000001, 0.098, 192.0, 0.0, 0.0, 0.0, 0.0, 0.0, 0.0, 0.0, 0.0, 0.0, 1.666555380917414E9, 0.0, 2022-10-23 13:03:00.917
5.0, -67705.33385340379, -98825.69001027227, 53539.28995600819, 2918.400218296077, 84382.99857175334, 65168.18734028189, 22714.334453861054, 15714.595105003727, 0.042, 0.9580000000000001, 0.098, 192.0, 0.0, 0.0, 0.0, 0.0, 0.0, 0.0, 0.0, 0.0, 0.0, 1.6665553809174275E9, 0.0, 2022-10-23 13:03:00.917
6.0, -67741.61073465475, -98858.83764729949, 53474.80517325463, 3020.0336003343587, 84579.06807411529, 65222.56913454165, 22802.22151305932, 15970.410820294717, 0.042, 0.9580000000000001, 0.098, 192.0, 0.0, 0.0, 0.0, 0.0, 0.0, 0.0, 0.0, 0.0, 0.0, 1.6665553809174497E9, 0.0, 2022-10-23 13:03:00.917
7.0, -67799.32293883836, -98912.9512206258, 55415.29421988657, 4080.310950316304, 84829.7205364371, 66115.14134587543, 24087.156246561557, 17357.96241259127, 0.044, 0.9460000000000001, 0.1, 192.0, 1.0, 96.0, 29.0, 144.0, 3.0, 32.0, 0.0, 0.0, 0.0, 1.6665553809174623E9, 0.0, 2022-10-23 13:03:00.917
8.0, -67726.09862400277, -98840.26334765714, 56025.04980862735, 4224.658516008677, 84617.78129551189, 66272.85525475208, 24317.96035980706, 17401.034224156647, 0.044, 0.9460000000000001, 0.1, 192.0, 0.0, 0.0, 0.0, 0.0, 0.0, 0.0, 0.0, 0.0, 0.0, 1.6665553809174771E9, 0.0, 2022-10-23 13:03:00.917
9.0, -67673.43791406607, -98794.73284420167, 53706.86098418963, 2968.512829364876, 84342.67602475596, 65199.90446566397, 22788.631652430493, 15775.92829178909, 0.044, 0.9460000000000001, 0.1, 192.0, 0.0, 0.0, 0.0, 0.0, 0.0, 0.0, 0.0, 0.0, 0.0, 1.6665553809174905E9, 0.0, 2022-10-23 13:03:00.917
10.0, -67712.21819069603, -98841.11271394644, 53343.421619346336, 2924.8151689547503, 84534.02930903785, 65137.74426433376, 22694.597863507017, 15836.74738845198, 0.044, 0.9460000000000001, 0.1, 192.0, 0.0, 0.0, 0.0, 0.0, 0.0, 0.0, 0.0, 0.0, 0.0, 1.666555380917503E9, 0.0, 2022-10-23 13:03:00.917
11.0, -67750.10439754778, -98868.06891775953, 54973.981377360986, 3853.016060950287, 84794.44948368664, 65924.10098601592, 23818.063595064115, 17084.555874413953, 0.044, 0.9460000000000001, 0.1, 192.0, 0.0, 0.0, 0.0, 0.0, 0.0, 0.0, 0.0, 0.0, 0.0, 1.666555380917516E9, 0.0, 2022-10-23 13:03:00.917
12.0, -67706.89847551567, -98816.68225725679, 56290.54382926749, 4392.229544190114, 84698.18052031762, 66414.31944540971, 24524.535182063006, 17652.379590556575, 0.044, 0.9460000000000001, 0.1, 192.0, 0.0, 0.0, 0.0, 0.0, 0.0, 0.0, 0.0, 0.0, 0.0, 1.6665553809175289E9, 0.0, 2022-10-23 13:03:00.917
13.0, -67652.18140508907, -98765.6085211764, 54077.45290725862, 3141.9847180825136, 84342.54191428924, 65367.4307903565, 23024.822536089723, 15987.509904803028, 0.044, 0.9460000000000001, 0.1, 192.0, 0.0, 0.0, 0.0, 0.0, 0.0, 0.0, 0.0, 0.0, 0.0, 1.666555380917542E9, 0.0, 2022-10-23 13:03:00.917
14.0, -67675.80719897833, -98788.22848656517, 53333.340982596994, 2888.091252814681, 84479.98279094491, 65118.454708868834, 22667.462845738275, 15762.651355582639, 0.044, 0.9460000000000001, 0.1, 192.0, 0.0, 0.0, 0.0, 0.0, 0.0, 0.0, 0.0, 0.0, 0.0, 1.6665553809175544E9, 0.0, 2022-10-23 13:03:00.917
15.0, -67708.44074588308, -98810.33436183148, 54567.06786955212, 3627.3528489295068, 84737.76545974797, 65730.84780345534, 23552.636629657347, 16795.70428081802, 0.044, 0.9460000000000001, 0.1, 192.0, 0.0, 0.0, 0.0, 0.0, 0.0, 0.0, 0.0, 0.0, 0.0, 1.6665553809175673E9, 0.0, 2022-10-23 13:03:00.917
16.0, -67686.35722236124, -98799.18084134828, 56452.61632831291, 4515.767635794597, 84773.19297470963, 66511.43777506803, 24664.92648898679, 17819.660046060093, 0.044, 0.9460000000000001, 0.1, 192.0, 0.0, 0.0, 0.0, 0.0, 0.0, 0.0, 0.0, 0.0, 0.0, 1.66655538091758E9, 0.0, 2022-10-23 13:03:00.917
17.0, -67588.14365722462, -98711.11496819436, 54543.21855821831, 3375.9851307851236, 84368.91697274649, 65569.82583639931, 23317.116298331774, 16257.429570845316, 0.05, 0.9460000000000001, 0.096, 192.0, 1.0, 144.0, 29.0, 144.0, 3.0, 0.0, 0.0, 0.0, 0.0, 1.6665553809175928E9, 0.0, 2022-10-23 13:03:00.917
18.0, -67609.93660806854, -98732.77380857157, 53374.08821273902, 2878.368243976622, 84453.45127027646, 65113.31380764411, 22662.456054980285, 15708.224857833966, 0.05, 0.9460000000000001, 0.096, 192.0, 0.0, 0.0, 0.0, 0.0, 0.0, 0.0, 0.0, 0.0, 0.0, 1.6665553809176064E9, 0.0, 2022-10-23 13:03:00.917
19.0, -67627.8627071217, -98745.62606163336, 54247.348516863414, 3451.154047388321, 84708.59643323379, 65588.5342465084, 23340.29505733193, 16541.47553938336, 0.05, 0.9460000000000001, 0.096, 192.0, 0.0, 0.0, 0.0, 0.0, 0.0, 0.0, 0.0, 0.0, 0.0, 1.6665553809176574E9, 0.0, 2022-10-23 13:03:00.917
20.0, -67618.63143666166, -98737.3559161849, 56429.1693483793, 4536.174778482292, 84835.30847255093, 66528.22393515396, 24676.951727503747, 17853.768808098892, 0.05, 0.9460000000000001, 0.096, 192.0, 0.0, 0.0, 0.0, 0.0, 0.0, 0.0, 0.0, 0.0, 0.0, 1.6665553809176707E9, 0.0, 2022-10-23 13:03:00.917
21.0, -67533.27012458684, -98656.04026985649, 55034.06286645686, 3629.588023375037, 84421.10829604964, 65792.80683908545, 23629.079595694497, 16568.14117051854, 0.05, 0.9460000000000001, 0.096, 192.0, 0.0, 0.0, 0.0, 0.0, 0.0, 0.0, 0.0, 0.0, 0.0, 1.6665553809176836E9, 0.0, 2022-10-23 13:03:00.917
22.0, -67533.22542109793, -98655.32501403392, 53477.979120967284, 2910.8453286701833, 84436.9780346129, 65159.93954657788, 22711.451078826318, 15704.91679965458, 0.05, 0.9460000000000001, 0.096, 192.0, 0.0, 0.0, 0.0, 0.0, 0.0, 0.0, 0.0, 0.0, 0.0, 1.6665553809176967E9, 0.0, 2022-10-23 13:03:00.917
23.0, -67562.17093016756, -98683.93524693671, 53966.00710940446, 3284.9911791075683, 84656.22629597501, 65460.97284090196, 23147.645371871637, 16301.149582999897, 0.05, 0.9460000000000001, 0.096, 192.0, 0.0, 0.0, 0.0, 0.0, 0.0, 0.0, 0.0, 0.0, 0.0, 1.6665553809177094E9, 0.0, 2022-10-23 13:03:00.917
24.0, -67585.1038199787, -98706.73402628113, 56235.24561348506, 4462.861056668885, 84867.71850201112, 66471.80813214877, 24583.521435680563, 17766.95463263448, 0.05, 0.9460000000000001, 0.096, 192.0, 0.0, 0.0, 0.0, 0.0, 0.0, 0.0, 0.0, 0.0, 0.0, 1.6665553809177225E9, 0.0, 2022-10-23 13:03:00.917
25.0, -67482.66577514002, -98609.90626930074, 55567.42019264939, 3925.7709891523114, 84504.59206159021, 66062.05595279408, 23992.407201815513, 16930.485299883523, 0.05, 0.9460000000000001, 0.096, 192.0, 0.0, 0.0, 0.0, 0.0, 0.0, 0.0, 0.0, 0.0, 0.0, 1.666555380917735E9, 0.0, 2022-10-23 13:03:00.917
26.0, -67465.20906272043, -98597.25518193904, 53625.634744839044, 2958.9462827380044, 84402.75751385183, 65224.60314328709, 22781.635556415982, 15715.533878270851, 0.05, 0.9460000000000001, 0.096, 192.0, 0.0, 0.0, 0.0, 0.0, 0.0, 0.0, 0.0, 0.0, 0.0, 1.666555380917748E9, 0.0, 2022-10-23 13:03:00.917
27.0, -67473.88153956909, -98599.64681859575, 53777.11251701266, 3168.180962584134, 84611.88043497568, 65376.23737767189, 23004.25893119084, 16103.38134805934, 0.05, 0.9560000000000001, 0.106, 192.0, 1.0, 144.0, 29.0, 224.0, 3.0, 80.0, 0.0, 0.0, 0.0, 1.6665553809177604E9, 0.0, 2022-10-23 13:03:00.917
28.0, -67491.74058338888, -98612.18614723517, 55904.50685077988, 4309.773958894487, 84869.70780726765, 66345.0066858538, 24388.860093219293, 17568.98523199382, 0.05, 0.9560000000000001, 0.106, 192.0, 0.0, 0.0, 0.0, 0.0, 0.0, 0.0, 0.0, 0.0, 0.0, 1.6665553809177763E9, 0.0, 2022-10-23 13:03:00.917
29.0, -67395.29280606423, -98524.34379152583, 56016.55614573433, 4181.87727712122, 84596.54713827935, 66275.67157455345, 24292.836999039293, 17261.112303866423, 0.05, 0.9560000000000001, 0.106, 192.0, 0.0, 0.0, 0.0, 0.0, 0.0, 0.0, 0.0, 0.0, 0.0, 1.6665553809177892E9, 0.0, 2022-10-23 13:03:00.917
30.0, -67356.22195675636, -98485.16118349567, 53806.147433060105, 3023.3193067692887, 84393.83916781416, 65280.706021869904, 22867.71212431337, 15773.35784117673, 0.05, 0.9560000000000001, 0.106, 192.0, 0.0, 0.0, 0.0, 0.0, 0.0, 0.0, 0.0, 0.0, 0.0, 1.6665553809178016E9, 0.0, 2022-10-23 13:03:00.917
31.0, -67371.82347438615, -98502.17086102616, 53658.73767837736, 3088.072310456313, 84592.3673620662, 65311.50672572932, 22909.68870040044, 15972.266015084508, 0.05, 0.9560000000000001, 0.106, 192.0, 0.0, 0.0, 0.0, 0.0, 0.0, 0.0, 0.0, 0.0, 0.0, 1.6665553809178145E9, 0.0, 2022-10-23 13:03:00.917
32.0, -67390.04014611723, -98521.50511998, 55506.3999302864, 4113.950325721541, 84855.98383617209, 66181.34721295205, 24147.908287991082, 17320.433833650808, 0.05, 0.9560000000000001, 0.106, 192.0, 0.0, 0.0, 0.0, 0.0, 0.0, 0.0, 0.0, 0.0, 0.0, 1.666555380917827E9, 0.0, 2022-10-23 13:03:00.917
33.0, -67318.44750862688, -98454.71810754754, 56358.71664985617, 4387.289808665491, 84679.15918578615, 66439.08517826619, 24529.22904839862, 17530.9872664198, 0.05, 0.9560000000000001, 0.106, 192.0, 0.0, 0.0, 0.0, 0.0, 0.0, 0.0, 0.0, 0.0, 0.0, 1.6665553809178398E9, 0.0, 2022-10-23 13:03:00.917
34.0, -67270.83829293709, -98412.36155180473, 54080.00100612653, 3143.52698844993, 84387.4689206444, 65391.12363947912, 23019.927504054012, 15893.856095535291, 0.05, 0.9560000000000001, 0.106, 192.0, 0.0, 0.0, 0.0, 0.0, 0.0, 0.0, 0.0, 0.0, 0.0, 1.6665553809178524E9, 0.0, 2022-10-23 13:03:00.917
35.0, -67285.8810169555, -98426.06317115584, 53570.917674412456, 3017.4855014664536, 84552.29068425784, 65256.0520477357, 22819.566466756638, 15843.028228643923, 0.05, 0.9560000000000001, 0.106, 192.0, 0.0, 0.0, 0.0, 0.0, 0.0, 0.0, 0.0, 0.0, 0.0, 1.6665553809178984E9, 0.0, 2022-10-23 13:03:00.917
36.0, -67315.18415393641, -98452.4382296131, 55051.98896551001, 3872.6632443265016, 84813.87314961829, 65977.85693143093, 23849.5795547461, 17008.98462641056, 0.048, 0.9560000000000001, 0.108, 192.0, 1.0, 128.0, 29.0, 224.0, 3.0, 96.0, 0.0, 0.0, 0.0, 1.6665553809179113E9, 0.0, 2022-10-23 13:03:00.917
37.0, -67268.55841500264, -98414.59672625027, 56590.88421951345, 4548.401182699345, 84769.79550955242, 66581.93517708006, 24711.03813779809, 17751.397818493584, 0.048, 0.9560000000000001, 0.108, 192.0, 0.0, 0.0, 0.0, 0.0, 0.0, 0.0, 0.0, 0.0, 0.0, 1.6665553809179251E9, 0.0, 2022-10-23 13:03:00.917
38.0, -67188.76268729719, -98338.89136778015, 54436.57838542204, 3307.678199729705, 84391.00049626833, 65543.29431573085, 23228.134003655196, 16091.669033964758, 0.048, 0.9560000000000001, 0.108, 192.0, 0.0, 0.0, 0.0, 0.0, 0.0, 0.0, 0.0, 0.0, 0.0, 1.6665553809179375E9, 0.0, 2022-10-23 13:03:00.917
39.0, -67209.79567882964, -98353.59881563173, 53556.567854472145, 2982.7508905829063, 84525.98268103394, 65239.467053349865, 22784.31776575062, 15773.223730709999, 0.048, 0.9560000000000001, 0.108, 192.0, 0.0, 0.0, 0.0, 0.0, 0.0, 0.0, 0.0, 0.0, 0.0, 1.6665553809179509E9, 0.0, 2022-10-23 13:03:00.917
40.0, -67238.94235359936, -98381.06910956731, 54632.93846046191, 3640.5403781581376, 84760.18425943665, 65782.83796105838, 23574.18371131226, 16713.87454436714, 0.048, 0.9560000000000001, 0.108, 192.0, 0.0, 0.0, 0.0, 0.0, 0.0, 0.0, 0.0, 0.0, 0.0, 1.6665553809179633E9, 0.0, 2022-10-23 13:03:00.917
41.0, -67223.18437375837, -98370.16145827311, 56608.1621179774, 4582.644055204875, 84827.75358292504, 66596.08383132027, 24744.94573413679, 17833.026389244365, 0.048, 0.9560000000000001, 0.108, 192.0, 0.0, 0.0, 0.0, 0.0, 0.0, 0.0, 0.0, 0.0, 0.0, 1.666555380917976E9, 0.0, 2022-10-23 13:03:00.917
42.0, -67135.40907328237, -98291.70683523499, 54843.08956183071, 3505.8487660704573, 84422.47175246141, 65706.55145723242, 23478.719410743644, 16353.117388858485, 0.048, 0.9560000000000001, 0.108, 192.0, 0.0, 0.0, 0.0, 0.0, 0.0, 0.0, 0.0, 0.0, 0.0, 1.6665553809179893E9, 0.0, 2022-10-23 13:03:00.917
43.0, -67153.60339326899, -98304.24616387441, 53516.49117666378, 2920.3895235525997, 84477.03236067682, 65174.7811048962, 22715.69791027283, 15687.214218045978, 0.048, 0.9560000000000001, 0.108, 192.0, 0.0, 0.0, 0.0, 0.0, 0.0, 0.0, 0.0, 0.0, 0.0, 1.6665553809179976E9, 0.0, 2022-10-23 13:03:00.917
44.0, -67203.62659735997, -98346.02157426138, 54216.48075777063, 3397.8227851179586, 84706.04833436589, 65563.05325782935, 23277.576062390337, 16420.01616001322, 0.048, 0.9560000000000001, 0.108, 192.0, 0.0, 0.0, 0.0, 0.0, 0.0, 0.0, 0.0, 0.0, 0.0, 1.666555380918007E9, 0.0, 2022-10-23 13:03:00.918
45.0, -67212.05320501962, -98362.45010643604, 56472.911712278335, 4553.586787412976, 84893.24419417909, 66555.98480176745, 24685.60185260795, 17834.859232289702, 0.048, 0.9560000000000001, 0.108, 192.0, 0.0, 0.0, 0.0, 0.0, 0.0, 0.0, 0.0, 0.0, 0.0, 1.6665553809180152E9, 0.0, 2022-10-23 13:03:00.918
46.0, -67133.57623023704, -98290.0975096342, 55327.317753710486, 3775.9919495572985, 84492.25389865087, 65933.44401519824, 23796.42710643138, 16707.92898034203, 0.046, 0.9560000000000001, 0.106, 192.0, 1.0, 112.0, 29.0, 224.0, 3.0, 80.0, 0.0, 0.0, 0.0, 1.6665553809180236E9, 0.0, 2022-10-23 13:03:00.918
47.0, -67145.28854433162, -98298.88174520514, 53618.728055802356, 2960.689718805518, 84459.41918604603, 65216.33299783862, 22762.54716665115, 15713.946904414524, 0.046, 0.9560000000000001, 0.106, 192.0, 0.0, 0.0, 0.0, 0.0, 0.0, 0.0, 0.0, 0.0, 0.0, 1.6665553809180324E9, 0.0, 2022-10-23 13:03:00.918
48.0, -67180.60430057101, -98332.8116932883, 53956.529969755415, 3252.0894112693563, 84658.9308570541, 65436.408273745576, 23096.32576660225, 16218.35872153744, 0.046, 0.9560000000000001, 0.106, 192.0, 0.0, 0.0, 0.0, 0.0, 0.0, 0.0, 0.0, 0.0, 0.0, 1.6665553809180408E9, 0.0, 2022-10-23 13:03:00.918
49.0, -67224.79369935914, -98371.94959782955, 56188.97750246257, 4422.180881760226, 84892.35012440088, 66435.66536136453, 24522.635283784304, 17700.7264138134, 0.046, 0.9560000000000001, 0.106, 192.0, 0.0, 0.0, 0.0, 0.0, 0.0, 0.0, 0.0, 0.0, 0.0, 1.66655538091805E9, 0.0, 2022-10-23 13:03:00.918
50.0, -67132.48099475873, -98288.48818403343, 55776.09607888414, 4014.0156762618635, 84553.2071057805, 66133.24625888423, 24089.078496584716, 17034.242097645056, 0.046, 0.9560000000000001, 0.106, 192.0, 0.0, 0.0, 0.0, 0.0, 0.0, 0.0, 0.0, 0.0, 0.0, 1.6665553809180582E9, 0.0, 2022-10-23 13:03:00.918
51.0, -67128.36827377895, -98283.3472828087, 53726.08348442119, 2978.1911347140235, 84428.5290752088, 65240.897564995, 22799.874579891515, 15726.128605142667, 0.046, 0.9560000000000001, 0.106, 192.0, 0.0, 0.0, 0.0, 0.0, 0.0, 0.0, 0.0, 0.0, 0.0, 1.6665553809180872E9, 0.0, 2022-10-23 13:03:00.918
52.0, -67170.09898067701, -98323.11103619469, 53774.49736291139, 3135.0780290458238, 84618.63066180119, 65349.03530466978, 22962.55057603724, 16053.380495712818, 0.046, 0.9560000000000001, 0.106, 192.0, 0.0, 0.0, 0.0, 0.0, 0.0, 0.0, 0.0, 0.0, 0.0, 1.6665553809180954E9, 0.0, 2022-10-23 13:03:00.918
53.0, -67202.79958281513, -98354.85051332123, 55781.97458767588, 4216.0530943933845, 84860.85651646335, 66258.25956562276, 24272.51926332942, 17462.434466175375, 0.046, 0.9560000000000001, 0.106, 192.0, 0.0, 0.0, 0.0, 0.0, 0.0, 0.0, 0.0, 0.0, 0.0, 1.6665553809181037E9, 0.0, 2022-10-23 13:03:00.918
54.0, -67144.3497710645, -98302.56978304026, 56159.62966199275, 4232.012239934474, 84619.21180715703, 66306.67344411295, 24347.06233108787, 17339.00813329317, 0.046, 0.9560000000000001, 0.106, 192.0, 0.0, 0.0, 0.0, 0.0, 0.0, 0.0, 0.0, 0.0, 0.0, 1.666555380918112E9, 0.0, 2022-10-23 13:03:00.918
55.0, -67122.60152370948, -98279.77100369586, 53919.4260739596, 3051.147228616146, 84395.96258353742, 65304.77885064827, 22897.99873805031, 15800.872838601214, 0.046, 0.9560000000000001, 0.106, 192.0, 0.0, 0.0, 0.0, 0.0, 0.0, 0.0, 0.0, 0.0, 0.0, 1.6665553809181201E9, 0.0, 2022-10-23 13:03:00.918
56.0, -67147.36725656597, -98301.11691965067, 53636.43063741096, 3046.2521965804335, 84586.5112050189, 65271.58651013214, 22849.85308049358, 15913.503278911505, 0.05, 0.9520000000000001, 0.11, 192.0, 1.0, 144.0, 29.0, 192.0, 3.0, 112.0, 0.0, 0.0, 0.0, 1.6665553809181285E9, 0.0, 2022-10-23 13:03:00.918
57.0, -67190.39436464243, -98337.75142881292, 55350.027126077075, 4014.46271115097, 84853.41338555973, 66085.19000830532, 24012.434364847468, 17200.49437290363, 0.05, 0.9520000000000001, 0.11, 192.0, 0.0, 0.0, 0.0, 0.0, 0.0, 0.0, 0.0, 0.0, 0.0, 1.6665553809181373E9, 0.0, 2022-10-23 13:03:00.918
58.0, -67159.28073636064, -98314.77383551287, 56469.46954363222, 4439.97287034665, 84711.03277337943, 66478.67011769654, 24578.849921089404, 17613.82283137117, 0.05, 0.9520000000000001, 0.11, 192.0, 0.0, 0.0, 0.0, 0.0, 0.0, 0.0, 0.0, 0.0, 0.0, 1.6665553809181457E9, 0.0, 2022-10-23 13:03:00.918
59.0, -67109.97278809223, -98272.37257628115, 54202.26504829706, 3174.7970789429046, 84372.3591413926, 65418.213953758954, 23057.970173116944, 15949.735456673558, 0.05, 0.9520000000000001, 0.11, 192.0, 0.0, 0.0, 0.0, 0.0, 0.0, 0.0, 0.0, 0.0, 0.0, 1.666555380918154E9, 0.0, 2022-10-23 13:03:00.918
60.0, -67147.97075366626, -98303.28503886284, 53571.7446889573, 2986.3048179513003, 84531.25769272538, 65231.01809394576, 22782.440219216376, 15818.687178932094, 0.05, 0.9520000000000001, 0.11, 192.0, 0.0, 0.0, 0.0, 0.0, 0.0, 0.0, 0.0, 0.0, 0.0, 1.6665553809181623E9, 0.0, 2022-10-23 13:03:00.918
61.0, -67195.87054203398, -98340.65715559211, 54925.478091892975, 3787.458394462871, 84786.5593178939, 65902.26333168309, 23742.93938194983, 16918.504764855476, 0.05, 0.9520000000000001, 0.11, 192.0, 0.0, 0.0, 0.0, 0.0, 0.0, 0.0, 0.0, 0.0, 0.0, 1.6665553809181707E9, 0.0, 2022-10-23 13:03:00.918
62.0, -67174.4575708458, -98327.04494321883, 56637.755827636225, 4562.169857283814, 84767.60503859581, 66582.5163224359, 24719.822373369025, 17796.458935315484, 0.05, 0.9520000000000001, 0.11, 192.0, 0.0, 0.0, 0.0, 0.0, 0.0, 0.0, 0.0, 0.0, 0.0, 1.6665553809181788E9, 0.0, 2022-10-23 13:03:00.918
63.0, -67099.3333577315, -98257.95570110748, 54610.586716006605, 3377.549752896995, 84387.64773460005, 65600.49242979198, 23314.031757596942, 16191.246055513151, 0.05, 0.9520000000000001, 0.11, 192.0, 0.0, 0.0, 0.0, 0.0, 0.0, 0.0, 0.0, 0.0, 0.0, 1.6665553809181871E9, 0.0, 2022-10-23 13:03:00.918
64.0, -67117.61708469594, -98268.61748321266, 53547.67186017893, 2943.2330063859235, 84496.52308184183, 65197.579884240615, 22739.1672419509, 15733.34821860173, 0.05, 0.9520000000000001, 0.11, 192.0, 0.0, 0.0, 0.0, 0.0, 0.0, 0.0, 0.0, 0.0, 0.0, 1.6665553809181955E9, 0.0, 2022-10-23 13:03:00.918
65.0, -67168.73552426524, -98313.74565526792, 54505.01942694419, 3552.9662433822446, 84746.43793659663, 65702.30462578591, 23465.8895094263, 16620.533659521778, 0.05, 0.9520000000000001, 0.11, 192.0, 0.0, 0.0, 0.0, 0.0, 0.0, 0.0, 0.0, 0.0, 0.0, 1.666555380918204E9, 0.0, 2022-10-23 13:03:00.918
66.0, -67180.20196917081, -98325.79324552933, 56589.319597401576, 4566.1931712857695, 84832.24628356055, 66575.31906072129, 24721.521105947628, 17842.8611568047, 0.046, 0.9540000000000001, 0.1, 192.0, 1.0, 112.0, 29.0, 208.0, 3.0, 32.0, 0.0, 0.0, 0.0, 1.666555380918265E9, 0.0, 2022-10-23 13:03:00.918
67.0, -67099.64628215389, -98254.51353246135, 55018.796624993876, 3578.447232061295, 84429.44549673147, 65770.96918475261, 23573.37904851187, 16467.78183791421, 0.046, 0.9540000000000001, 0.1, 192.0, 0.0, 0.0, 0.0, 0.0, 0.0, 0.0, 0.0, 0.0, 0.0, 1.6665553809182744E9, 0.0, 2022-10-23 13:03:00.918
68.0, -67124.68023594383, -98277.6475879726, 53568.28016856673, 2921.887090431105, 84463.42014830353, 65190.85200915957, 22731.567648836095, 15697.943055384525, 0.046, 0.9540000000000001, 0.1, 192.0, 0.0, 0.0, 0.0, 0.0, 0.0, 0.0, 0.0, 0.0, 0.0, 1.666555380918283E9, 0.0, 2022-10-23 13:03:00.918
69.0, -67168.42259984286, -98319.93708848204, 54131.83470151838, 3328.9123569622466, 84676.54403168488, 65514.415861894595, 23210.900808680155, 16340.712170685789, 0.046, 0.9540000000000001, 0.1, 192.0, 0.0, 0.0, 0.0, 0.0, 0.0, 0.0, 0.0, 0.0, 0.0, 1.6665553809182913E9, 0.0, 2022-10-23 13:03:00.918
70.0, -67191.109620465, -98344.18873121605, 56398.6145137089, 4498.154461163815, 84880.72721728412, 66515.08110941424, 24636.785642717557, 17789.395784067605, 0.046, 0.9540000000000001, 0.1, 192.0, 0.0, 0.0, 0.0, 0.0, 0.0, 0.0, 0.0, 0.0, 0.0, 1.666555380918301E9, 0.0, 2022-10-23 13:03:00.918
71.0, -67111.76092764866, -98268.57277972375, 55504.5000320077, 3844.8576742241, 84498.2441661649, 66000.78982124208, 23901.30149141568, 16817.832507828774, 0.046, 0.9540000000000001, 0.1, 192.0, 0.0, 0.0, 0.0, 0.0, 0.0, 0.0, 0.0, 0.0, 0.0, 1.6665553809183092E9, 0.0, 2022-10-23 13:03:00.918
72.0, -67118.17587830733, -98266.13643957811, 53650.109905017605, 2934.6499365150853, 84427.8808746196, 65206.3417680671, 22759.08264626058, 15696.043157105823, 0.046, 0.9540000000000001, 0.1, 192.0, 0.0, 0.0, 0.0, 0.0, 0.0, 0.0, 0.0, 0.0, 0.0, 1.6665553809183173E9, 0.0, 2022-10-23 13:03:00.918
73.0, -67161.8958904619, -98305.18493714153, 53892.38046316868, 3186.2635238484772, 84637.54023761037, 65398.924398294024, 23044.492071210396, 16144.530909601559, 0.046, 0.9540000000000001, 0.1, 192.0, 0.0, 0.0, 0.0, 0.0, 0.0, 0.0, 0.0, 0.0, 0.0, 1.666555380918326E9, 0.0, 2022-10-23 13:03:00.918
74.0, -67181.36425988248, -98326.24028041844, 56050.3296316063, 4330.315212048914, 84882.38124637381, 66363.5139302628, 24431.97660827358, 17608.614874913084, 0.046, 0.9540000000000001, 0.1, 192.0, 0.0, 0.0, 0.0, 0.0, 0.0, 0.0, 0.0, 0.0, 0.0, 1.666555380918334E9, 0.0, 2022-10-23 13:03:00.918
75.0, -67120.16518356386, -98272.48433500342, 55935.46401685048, 4084.133098618162, 84587.24881258594, 66196.07701254809, 24195.562207169798, 17151.2981833575, 0.046, 0.9480000000000001, 0.098, 192.0, 1.0, 112.0, 29.0, 160.0, 3.0, 16.0, 0.0, 0.0, 0.0, 1.6665553809183424E9, 0.0, 2022-10-23 13:03:00.918
76.0, -67103.42372696682, -98254.37942199463, 53777.44779317949, 2966.501172363898, 84401.03642952877, 65233.81206200267, 22819.767632456736, 15731.73889300095, 0.046, 0.9480000000000001, 0.098, 192.0, 0.0, 0.0, 0.0, 0.0, 0.0, 0.0, 0.0, 0.0, 0.0, 1.6665553809183517E9, 0.0, 2022-10-23 13:03:00.918
77.0, -67136.03492212712, -98286.38712005463, 53694.00873112783, 3055.7069844850284, 84589.75220796492, 65281.689498625936, 22897.81992409467, 15976.468143042106, 0.046, 0.9480000000000001, 0.098, 192.0, 0.0, 0.0, 0.0, 0.0, 0.0, 0.0, 0.0, 0.0, 0.0, 1.66655538091836E9, 0.0, 2022-10-23 13:03:00.918
78.0, -67186.10282970702, -98336.25386193441, 55628.77573117921, 4117.884232745675, 84852.98870241508, 66179.29085246216, 24183.045230274827, 17367.81953189606, 0.046, 0.9480000000000001, 0.098, 192.0, 0.0, 0.0, 0.0, 0.0, 0.0, 0.0, 0.0, 0.0, 0.0, 1.6665553809183683E9, 0.0, 2022-10-23 13:03:00.918
79.0, -67146.8978699324, -98299.37348358316, 56286.811087943446, 4283.667121370688, 84642.9270080241, 66357.21073832641, 24442.59368688985, 17439.389817641953, 0.046, 0.9480000000000001, 0.098, 192.0, 0.0, 0.0, 0.0, 0.0, 0.0, 0.0, 0.0, 0.0, 0.0, 1.6665553809183764E9, 0.0, 2022-10-23 13:03:00.918
80.0, -67084.87177906893, -98243.73999163389, 54001.613438321765, 3055.170542618101, 84380.87515603009, 65316.44646125394, 22946.591430496148, 15832.880536661212, 0.046, 0.9480000000000001, 0.098, 192.0, 0.0, 0.0, 0.0, 0.0, 0.0, 0.0, 0.0, 0.0, 0.0, 1.6665553809183848E9, 0.0, 2022-10-23 13:03:00.918
81.0, -67120.32164577504, -98276.03826237182, 53604.55704981769, 2992.965637798982, 84570.48500424446, 65235.37668411454, 22826.964894171346, 15867.861016733768, 0.046, 0.9480000000000001, 0.098, 192.0, 0.0, 0.0, 0.0, 0.0, 0.0, 0.0, 0.0, 0.0, 0.0, 1.666555380918393E9, 0.0, 2022-10-23 13:03:00.918
82.0, -67179.41965811487, -98321.54641408283, 55176.085850725874, 3886.3201601886944, 84828.51354223651, 65982.81901870001, 23903.24609318329, 17079.124400511315, 0.046, 0.9480000000000001, 0.098, 192.0, 0.0, 0.0, 0.0, 0.0, 0.0, 0.0, 0.0, 0.0, 0.0, 1.66655538091841E9, 0.0, 2022-10-23 13:03:00.918
83.0, -67159.347791594, -98305.52021330837, 56558.92122494236, 4474.0369288965385, 84756.11624194578, 66518.03153968234, 24661.417265107306, 17703.83330629269, 0.046, 0.9480000000000001, 0.098, 192.0, 0.0, 0.0, 0.0, 0.0, 0.0, 0.0, 0.0, 0.0, 0.0, 1.666555380918418E9, 0.0, 2022-10-23 13:03:00.918
84.0, -67088.85038958197, -98238.01794505333, 54352.28995708108, 3228.620079591284, 84396.00728702632, 65479.48008531095, 23169.326563993283, 16047.166710754242, 0.046, 0.9480000000000001, 0.098, 192.0, 0.0, 0.0, 0.0, 0.0, 0.0, 0.0, 0.0, 0.0, 0.0, 1.6665553809184265E9, 0.0, 2022-10-23 13:03:00.918
85.0, -67131.87749765844, -98277.69229146151, 53573.39871804699, 2958.208675170979, 84542.36650971968, 65219.01520717326, 22792.163228054433, 15806.103146803754, 0.046, 0.9460000000000001, 0.10200000000000001, 192.0, 1.0, 112.0, 29.0, 144.0, 3.0, 48.0, 0.0, 0.0, 0.0, 1.6665553809184408E9, 0.0, 2022-10-23 13:03:00.918
86.0, -67186.63927157393, -98328.09547520823, 54770.58050281769, 3677.2195908092967, 84775.71872183308, 65815.40445272977, 23654.739398329188, 16810.098804247238, 0.046, 0.9460000000000001, 0.10200000000000001, 192.0, 0.0, 0.0, 0.0, 0.0, 0.0, 0.0, 0.0, 0.0, 0.0, 1.6665553809184496E9, 0.0, 2022-10-23 13:03:00.918
87.0, -67183.53237909466, -98330.9564984985, 56623.696580373835, 4536.353592437934, 84792.48253017456, 66561.23746171445, 24732.629922941916, 17810.96521746698, 0.046, 0.9460000000000001, 0.10200000000000001, 192.0, 0.0, 0.0, 0.0, 0.0, 0.0, 0.0, 0.0, 0.0, 0.0, 1.666555380918458E9, 0.0, 2022-10-23 13:03:00.918
88.0, -67094.4830291847, -98247.69625040249, 54722.50190049433, 3403.8577561208913, 84402.89162431857, 65624.49820333699, 23393.067525990908, 16265.45384710477, 0.046, 0.9460000000000001, 0.10200000000000001, 192.0, 0.0, 0.0, 0.0, 0.0, 0.0, 0.0, 0.0, 0.0, 0.0, 1.666555380918466E9, 0.0, 2022-10-23 13:03:00.918
89.0, -67125.8425266555, -98275.77004143836, 53548.61063344606, 2918.2661078293454, 84500.21111967697, 65185.353480023565, 22747.12446297699, 15725.25688710891, 0.046, 0.9460000000000001, 0.10200000000000001, 192.0, 0.0, 0.0, 0.0, 0.0, 0.0, 0.0, 0.0, 0.0, 0.0, 1.6665553809184742E9, 0.0, 2022-10-23 13:03:00.918
90.0, -67167.64028878693, -98311.17520465556, 54400.27915242662, 3481.060681469522, 84740.51472431597, 65654.98598277401, 23415.15104951275, 16549.32100168717, 0.046, 0.9460000000000001, 0.10200000000000001, 192.0, 0.0, 0.0, 0.0, 0.0, 0.0, 0.0, 0.0, 0.0, 0.0, 1.6665553809184823E9, 0.0, 2022-10-23 13:03:00.918
91.0, -67171.17186441086, -98318.17130067007, 56556.32842258554, 4545.808380342529, 84857.05671990594, 66565.19372048303, 24726.773765894624, 17846.77271208438, 0.046, 0.9460000000000001, 0.10200000000000001, 192.0, 0.0, 0.0, 0.0, 0.0, 0.0, 0.0, 0.0, 0.0, 0.0, 1.6665553809184904E9, 0.0, 2022-10-23 13:03:00.918
92.0, -67092.73959311719, -98245.77400037933, 55216.25193551206, 3676.6384454534586, 84472.51730829684, 65862.85720620838, 23721.392300294912, 16607.994330882353, 0.046, 0.9460000000000001, 0.10200000000000001, 192.0, 0.0, 0.0, 0.0, 0.0, 0.0, 0.0, 0.0, 0.0, 0.0, 1.6665553809185E9, 0.0, 2022-10-23 13:03:00.918
93.0, -67114.17491604983, -98258.98388135241, 53631.69206758643, 2937.5556632942753, 84471.73499724091, 65215.058948404665, 22782.909605849934, 15721.390035318142, 0.046, 0.9460000000000001, 0.10200000000000001, 192.0, 0.0, 0.0, 0.0, 0.0, 0.0, 0.0, 0.0, 0.0, 0.0, 1.666555380918508E9, 0.0, 2022-10-23 13:03:00.918
94.0, -67161.2029863838, -98302.27921036235, 54092.47327953259, 3294.490670501074, 84683.51777595494, 65500.1107454432, 23200.842523675266, 16306.111670268974, 0.046, 0.9460000000000001, 0.10200000000000001, 192.0, 0.0, 0.0, 0.0, 0.0, 0.0, 0.0, 0.0, 0.0, 0.0, 1.666555380918516E9, 0.0, 2022-10-23 13:03:00.918
95.0, -67201.30201593661, -98343.7640480714, 56336.34255365641, 4451.215797807669, 84877.84384224938, 66485.93443464451, 24615.707947696203, 17759.08681858621, 0.052000000000000005, 0.9500000000000001, 0.10200000000000001, 192.0, 1.0, 160.0, 29.0, 176.0, 3.0, 48.0, 0.0, 0.0, 0.0, 1.6665553809185245E9, 0.0, 2022-10-23 13:03:00.918
96.0, -67102.01556706615, -98256.61459644015, 55715.45579617689, 3942.512445749336, 84532.57644564826, 66094.86831365447, 24052.689856611476, 16958.760256619484, 0.052000000000000005, 0.9500000000000001, 0.10200000000000001, 192.0, 0.0, 0.0, 0.0, 0.0, 0.0, 0.0, 0.0, 0.0, 0.0, 1.6665553809185328E9, 0.0, 2022-10-23 13:03:00.918
97.0, -67091.26437798314, -98243.38236372262, 53759.20876970396, 2971.463259632976, 84438.27443579132, 65258.77896055925, 22838.967780943847, 15739.584355304762, 0.052000000000000005, 0.9500000000000001, 0.10200000000000001, 192.0, 0.0, 0.0, 0.0, 0.0, 0.0, 0.0, 0.0, 0.0, 0.0, 1.6665553809185407E9, 0.0, 2022-10-23 13:03:00.918
98.0, -67135.96786689376, -98284.15194560909, 53892.201649213035, 3166.7728026834493, 84633.33810965277, 65402.210104728954, 23052.158719558563, 16118.155851144296, 0.052000000000000005, 0.9500000000000001, 0.10200000000000001, 192.0, 0.0, 0.0, 0.0, 0.0, 0.0, 0.0, 0.0, 0.0, 0.0, 1.6665553809185584E9, 0.0, 2022-10-23 13:03:00.918
99.0, -67180.09021044853, -98328.25193741941, 55960.341508429236, 4261.181266448649, 84859.89539145176, 66320.91150533098, 24380.20996811509, 17537.849251967582, 0.052000000000000005, 0.9500000000000001, 0.10200000000000001, 192.0, 0.0, 0.0, 0.0, 0.0, 0.0, 0.0, 0.0, 0.0, 0.0, 1.6665553809185665E9, 0.0, 2022-10-23 13:03:00.918
100.0, -67099.19924726478, -98257.59807319619, 56124.53742319792, 4167.281587991904, 84608.66178377412, 66277.03503096521, 24318.206228996067, 17270.164760370822, 0.052000000000000005, 0.9500000000000001, 0.10200000000000001, 192.0, 0.0, 0.0, 0.0, 0.0, 0.0, 0.0, 0.0, 0.0, 0.0, 1.6665553809185748E9, 0.0, 2022-10-23 13:03:00.918
101.0, -67088.1351337594, -98245.32696549023, 53916.38623671368, 3017.373742744177, 84405.5738336532, 65294.65351041002, 22900.77035436277, 15789.138172762177, 0.052000000000000005, 0.9500000000000001, 0.10200000000000001, 192.0, 0.0, 0.0, 0.0, 0.0, 0.0, 0.0, 0.0, 0.0, 0.0, 1.6665553809185832E9, 0.0, 2022-10-23 13:03:00.918
102.0, -67135.7443494492, -98292.75736722439, 53728.05043793326, 3054.0306036508805, 84586.57826025228, 65297.67099591148, 22908.81698236668, 15962.408895779718, 0.052000000000000005, 0.9500000000000001, 0.10200000000000001, 192.0, 0.0, 0.0, 0.0, 0.0, 0.0, 0.0, 0.0, 0.0, 0.0, 1.6665553809185915E9, 0.0, 2022-10-23 13:03:00.918
103.0, -67162.40998058439, -98315.89142273563, 55548.7117825403, 4066.5646274762903, 84857.39199607278, 66152.62522132698, 24128.797546481794, 17302.641845064383, 0.052000000000000005, 0.9500000000000001, 0.10200000000000001, 192.0, 0.0, 0.0, 0.0, 0.0, 0.0, 0.0, 0.0, 0.0, 0.0, 1.6665553809185996E9, 0.0, 2022-10-23 13:03:00.918
104.0, -67123.16031732087, -98283.95077990899, 56457.958395237736, 4370.414241601735, 84685.73059865601, 66441.18624224499, 24550.686723075716, 17556.781179521226, 0.05, 0.9580000000000001, 0.094, 192.0, 1.0, 144.0, 29.0, 240.0, 2.0, 240.0, 0.0, 0.0, 0.0, 1.666555380918608E9, 0.0, 2022-10-23 13:03:00.918
105.0, -67073.89707254137, -98233.61465139565, 54150.4313529052, 3101.4833571294976, 84381.25513568582, 65365.441485099975, 23013.244332461876, 15894.347833913307, 0.05, 0.9580000000000001, 0.094, 192.0, 0.0, 0.0, 0.0, 0.0, 0.0, 0.0, 0.0, 0.0, 0.0, 1.666555380918617E9, 0.0, 2022-10-23 13:03:00.918
106.0, -67115.62777943943, -98271.81378266976, 53613.02836096625, 2962.790782784317, 84560.42671923956, 65216.98119842783, 22798.488771735287, 15832.500557005473, 0.05, 0.9580000000000001, 0.094, 192.0, 0.0, 0.0, 0.0, 0.0, 0.0, 0.0, 0.0, 0.0, 0.0, 1.666555380918625E9, 0.0, 2022-10-23 13:03:00.918
107.0, -67170.6577742884, -98324.89917575112, 55087.7517566385, 3821.2095285903847, 84822.5232747225, 65943.88227985887, 23833.329836527093, 16999.015748383492, 0.05, 0.9580000000000001, 0.094, 192.0, 0.0, 0.0, 0.0, 0.0, 0.0, 0.0, 0.0, 0.0, 0.0, 1.6665553809186337E9, 0.0, 2022-10-23 13:03:00.918
108.0, -67135.342018049, -98292.33268407974, 56653.98319411078, 4506.603420567921, 84770.46606188608, 66555.49306338943, 24710.27817848661, 17759.623260453136, 0.05, 0.9580000000000001, 0.094, 192.0, 0.0, 0.0, 0.0, 0.0, 0.0, 0.0, 0.0, 0.0, 0.0, 1.6665553809186418E9, 0.0, 2022-10-23 13:03:00.918
109.0, -67077.11572374293, -98234.26285198485, 54496.54811579563, 3261.275978240488, 84388.49710088935, 65509.453774625516, 23220.959093685044, 16091.601978731393, 0.05, 0.9580000000000001, 0.094, 192.0, 0.0, 0.0, 0.0, 0.0, 0.0, 0.0, 0.0, 0.0, 0.0, 1.6665553809186502E9, 0.0, 2022-10-23 13:03:00.918
110.0, -67116.11951781744, -98270.76325068036, 53607.59688706361, 2940.8413697292053, 84538.11967827317, 65212.73436698131, 22776.427599957897, 15770.921501031102, 0.05, 0.9580000000000001, 0.094, 192.0, 0.0, 0.0, 0.0, 0.0, 0.0, 0.0, 0.0, 0.0, 0.0, 1.6665553809186585E9, 0.0, 2022-10-23 13:03:00.918
111.0, -67172.42356210036, -98324.36273388419, 54670.39998416901, 3590.539525811616, 84757.63616056874, 65752.79721651044, 23556.414074470293, 16698.094212781692, 0.05, 0.9580000000000001, 0.094, 192.0, 0.0, 0.0, 0.0, 0.0, 0.0, 0.0, 0.0, 0.0, 0.0, 1.6665553809186678E9, 0.0, 2022-10-23 13:03:00.918
112.0, -67152.82108221306, -98308.58240229875, 56659.03468835768, 4541.606252384931, 84825.94309162415, 66566.04308677233, 24731.66879793034, 17825.650313574115, 0.05, 0.9580000000000001, 0.094, 192.0, 0.0, 0.0, 0.0, 0.0, 0.0, 0.0, 0.0, 0.0, 0.0, 1.6665553809186761E9, 0.0, 2022-10-23 13:03:00.918
113.0, -67068.577357361, -98226.55150014776, 54954.64711840715, 3507.793367838069, 84442.34245328218, 65716.96737014859, 23512.336434404428, 16386.376784607983, 0.05, 0.9580000000000001, 0.094, 192.0, 0.0, 0.0, 0.0, 0.0, 0.0, 0.0, 0.0, 0.0, 0.0, 1.6665553809186928E9, 0.0, 2022-10-23 13:03:00.918
114.0, -67100.7415176322, -98252.74774464939, 53595.63870378002, 2905.033875111804, 84492.70093353998, 65174.5352357072, 22731.63470406946, 15696.601950717206, 0.048, 0.9560000000000001, 0.098, 192.0, 1.0, 128.0, 29.0, 224.0, 3.0, 16.0, 0.0, 0.0, 0.0, 1.6665553809187012E9, 0.0, 2022-10-23 13:03:00.918
115.0, -67157.73846599323, -98310.25878313289, 54277.545723622534, 3372.006520272079, 84708.03763962242, 65551.83268211278, 23282.828722337334, 16413.310636676626, 0.048, 0.9560000000000001, 0.098, 192.0, 0.0, 0.0, 0.0, 0.0, 0.0, 0.0, 0.0, 0.0, 0.0, 1.66655538091871E9, 0.0, 2022-10-23 13:03:00.918
116.0, -67178.2573674032, -98333.95163225551, 56528.92518388334, 4517.108740461915, 84876.94977247117, 66536.09174920223, 24682.830236295493, 17820.79998502731, 0.048, 0.9560000000000001, 0.098, 192.0, 0.0, 0.0, 0.0, 0.0, 0.0, 0.0, 0.0, 0.0, 0.0, 1.666555380918718E9, 0.0, 2022-10-23 13:03:00.918
117.0, -67093.25368323966, -98254.87116037264, 55433.421484639824, 3765.6430918744913, 84482.46383457945, 65937.10970128891, 23822.846868377554, 16724.26810553886, 0.048, 0.9560000000000001, 0.098, 192.0, 0.0, 0.0, 0.0, 0.0, 0.0, 0.0, 0.0, 0.0, 0.0, 1.666555380918726E9, 0.0, 2022-10-23 13:03:00.918
118.0, -67104.42955546732, -98264.3930035106, 53662.80569586822, 2909.4148170250437, 84436.1286683236, 65180.65961368795, 22739.480166373276, 15682.743869154916, 0.048, 0.9560000000000001, 0.098, 192.0, 0.0, 0.0, 0.0, 0.0, 0.0, 0.0, 0.0, 0.0, 0.0, 1.6665553809187343E9, 0.0, 2022-10-23 13:03:00.918
119.0, -67145.53441352063, -98302.3015621068, 54024.65808685519, 3232.062248237401, 84669.92791532612, 65441.61623020366, 23107.43458359654, 16217.084672103487, 0.048, 0.9560000000000001, 0.098, 192.0, 0.0, 0.0, 0.0, 0.0, 0.0, 0.0, 0.0, 0.0, 0.0, 1.6665553809187424E9, 0.0, 2022-10-23 13:03:00.918
120.0, -67179.59847207052, -98339.27134743588, 56238.68778213117, 4394.040035490994, 84892.57364184543, 66431.30677119574, 24521.9870831951, 17687.58358807368, 0.048, 0.9560000000000001, 0.098, 192.0, 0.0, 0.0, 0.0, 0.0, 0.0, 0.0, 0.0, 0.0, 0.0, 1.6665553809187508E9, 0.0, 2022-10-23 13:03:00.918
121.0, -67096.36057571895, -98263.58834071021, 55869.8392951297, 4006.974876758442, 84556.1575360486, 66136.80018625261, 24112.81604919625, 17051.296478664455, 0.048, 0.9560000000000001, 0.098, 192.0, 0.0, 0.0, 0.0, 0.0, 0.0, 0.0, 0.0, 0.0, 0.0, 1.6665553813973973E9, 0.0, 2022-10-23 13:03:01.397
122.0, -67100.42859320981, -98262.20253255399, 53789.60714216318, 2952.285462890323, 84417.30849949224, 65227.039483432716, 22803.942597382378, 15719.154860872612, 0.048, 0.9560000000000001, 0.098, 192.0, 0.0, 0.0, 0.0, 0.0, 0.0, 0.0, 0.0, 0.0, 0.0, 1.6665553813975415E9, 0.0, 2022-10-23 13:03:01.397
123.0, -67138.29244831711, -98294.12082363616, 53819.73729368893, 3105.7078368315506, 84621.223464158, 65337.1218248751, 22958.706075990925, 16042.584603140904, 0.048, 0.9560000000000001, 0.098, 192.0, 0.0, 0.0, 0.0, 0.0, 0.0, 0.0, 0.0, 0.0, 0.0, 1.6665553813976035E9, 0.0, 2022-10-23 13:03:01.397
124.0, -67185.11935295098, -98341.10419048122, 55827.348628920154, 4195.333027283315, 84876.25686839306, 66258.37132434503, 24276.74374303147, 17460.89219580796, 0.044, 0.9540000000000001, 0.098, 192.0, 1.0, 96.0, 29.0, 208.0, 3.0, 16.0, 0.0, 0.0, 0.0, 1.6665553813976176E9, 0.0, 2022-10-23 13:03:01.397
125.0, -67122.98150336523, -98288.6446462446, 56302.65847476226, 4271.3513101758135, 84653.07470000681, 66361.50227326182, 24424.53347736996, 17411.651302772916, 0.044, 0.9540000000000001, 0.098, 192.0, 0.0, 0.0, 0.0, 0.0, 0.0, 0.0, 0.0, 0.0, 0.0, 1.666555381397633E9, 0.0, 2022-10-23 13:03:01.397
126.0, -67078.25566271016, -98241.32600323272, 54022.4005606652, 3054.8352664512718, 84405.99851679784, 65324.962475891414, 22939.394168781542, 15836.792091940892, 0.044, 0.9540000000000001, 0.098, 192.0, 0.0, 0.0, 0.0, 0.0, 0.0, 0.0, 0.0, 0.0, 0.0, 1.666555381397647E9, 0.0, 2022-10-23 13:03:01.397
127.0, -67117.17004980684, -98276.64175947211, 53704.357588810635, 3029.5777952167746, 84598.55879528032, 65271.60886187659, 22867.086275468624, 15925.953200573113, 0.044, 0.9540000000000001, 0.098, 192.0, 0.0, 0.0, 0.0, 0.0, 0.0, 0.0, 0.0, 0.0, 0.0, 1.6665553813976605E9, 0.0, 2022-10-23 13:03:01.397
128.0, -67188.49446636373, -98343.71934458248, 55388.606237006934, 3971.0556234187634, 84843.28804532147, 66064.22407200624, 24007.964015956404, 17190.54784662102, 0.044, 0.9540000000000001, 0.098, 192.0, 0.0, 0.0, 0.0, 0.0, 0.0, 0.0, 0.0, 0.0, 0.0, 1.666555381397674E9, 0.0, 2022-10-23 13:03:01.397
129.0, -67150.11652113397, -98300.37931208365, 56572.891065226926, 4433.982602832628, 84718.61001474978, 66490.4941905134, 24623.128726855368, 17651.932555667467, 0.044, 0.9540000000000001, 0.098, 192.0, 0.0, 0.0, 0.0, 0.0, 0.0, 0.0, 0.0, 0.0, 0.0, 1.666555381397751E9, 0.0, 2022-10-23 13:03:01.397
130.0, -67087.15165700337, -98239.40375320957, 54326.54074746856, 3182.396672057709, 84378.93055426248, 65442.35383777069, 23119.973912235968, 15993.321358361407, 0.044, 0.9540000000000001, 0.098, 192.0, 0.0, 0.0, 0.0, 0.0, 0.0, 0.0, 0.0, 0.0, 0.0, 1.6665553813977647E9, 0.0, 2022-10-23 13:03:01.397
131.0, -67124.27790454363, -98283.95077990899, 53639.51517814579, 2960.4885531054206, 84539.68430038504, 65221.496250807795, 22803.763783426737, 15820.65413244416, 0.044, 0.9540000000000001, 0.098, 192.0, 0.0, 0.0, 0.0, 0.0, 0.0, 0.0, 0.0, 0.0, 0.0, 1.6665553813977785E9, 0.0, 2022-10-23 13:03:01.397
132.0, -67194.19416119983, -98351.63186211967, 54941.057257778324, 3727.667478044925, 84788.99565803954, 65863.05837190847, 23727.382567808934, 16887.949930185074, 0.044, 0.9540000000000001, 0.098, 192.0, 0.0, 0.0, 0.0, 0.0, 0.0, 0.0, 0.0, 0.0, 0.0, 1.6665553813978E9, 0.0, 2022-10-23 13:03:01.397
133.0, -67168.37789635395, -98332.74463805494, 56699.96073245534, 4535.191301726259, 84792.8625098303, 66567.69711586203, 24740.90006839038, 17811.076976189255, 0.044, 0.9540000000000001, 0.098, 192.0, 0.0, 0.0, 0.0, 0.0, 0.0, 0.0, 0.0, 0.0, 0.0, 1.6665553813978174E9, 0.0, 2022-10-23 13:03:01.397
134.0, -67087.86691282594, -98258.31332901875, 54684.34747270912, 3349.543017094495, 84401.19289173996, 65577.98422312549, 23332.963685150586, 16208.21102955473, 0.042, 0.96, 0.1, 192.0, 1.0, 80.0, 30.0, 0.0, 3.0, 32.0, 0.0, 0.0, 0.0, 1.6665553813978367E9, 0.0, 2022-10-23 13:03:01.397
135.0, -67116.70066317328, -98284.91190492058, 53608.49095684182, 2914.0639798717475, 84506.71547731347, 65179.00558459826, 22754.813463069615, 15742.132454172666, 0.042, 0.96, 0.1, 192.0, 0.0, 0.0, 0.0, 0.0, 0.0, 0.0, 0.0, 0.0, 0.0, 1.6665553813978517E9, 0.0, 2022-10-23 13:03:01.397
136.0, -67154.22924211374, -98322.32872513875, 54520.062150962614, 3496.0139985101223, 84738.70423301509, 65657.57878513084, 23449.617439462836, 16597.42195575499, 0.042, 0.96, 0.1, 192.0, 0.0, 0.0, 0.0, 0.0, 0.0, 0.0, 0.0, 0.0, 0.0, 1.6665553813978648E9, 0.0, 2022-10-23 13:03:01.397
137.0, -67156.33030609254, -98324.96623098449, 56621.0143710392, 4525.13301672137, 84842.10340286534, 66539.82449052627, 24718.32480649052, 17842.972915526978, 0.042, 0.96, 0.1, 192.0, 0.0, 0.0, 0.0, 0.0, 0.0, 0.0, 0.0, 0.0, 0.0, 1.666555381397878E9, 0.0, 2022-10-23 13:03:01.397
138.0, -67073.51709288562, -98244.20937826746, 55078.38637571173, 3547.51241773515, 84432.06065083273, 65734.24526861255, 23580.039868359552, 16482.086954365608, 0.042, 0.96, 0.1, 192.0, 0.0, 0.0, 0.0, 0.0, 0.0, 0.0, 0.0, 0.0, 0.0, 1.6665553813978913E9, 0.0, 2022-10-23 13:03:01.397
139.0, -67117.39356725139, -98282.63202698613, 53591.50363105579, 2873.9649503189266, 84462.92840992552, 65139.08536900108, 22717.463698084797, 15688.398860502108, 0.042, 0.96, 0.1, 192.0, 0.0, 0.0, 0.0, 0.0, 0.0, 0.0, 0.0, 0.0, 0.0, 1.6665553813979044E9, 0.0, 2022-10-23 13:03:01.397
140.0, -67163.5052160627, -98329.9059665091, 54159.126181498315, 3291.6967024441606, 84684.56830794434, 65481.29057661183, 23209.894980179666, 16342.90264164241, 0.042, 0.96, 0.1, 192.0, 0.0, 0.0, 0.0, 0.0, 0.0, 0.0, 0.0, 0.0, 0.0, 1.6665553813979175E9, 0.0, 2022-10-23 13:03:01.397
141.0, -67185.63344307344, -98353.35294644273, 56411.533822004065, 4446.968966361162, 84879.49787133907, 66469.57295770323, 24622.435822777254, 17785.081897387732, 0.042, 0.96, 0.1, 192.0, 0.0, 0.0, 0.0, 0.0, 0.0, 0.0, 0.0, 0.0, 0.0, 1.6665553813979309E9, 0.0, 2022-10-23 13:03:01.397
142.0, -67094.17010476234, -98267.70106169, 55565.72146007079, 3813.721694197857, 84512.01284074938, 65966.63635571436, 23913.97493052184, 16843.067627318815, 0.042, 0.96, 0.1, 192.0, 0.0, 0.0, 0.0, 0.0, 0.0, 0.0, 0.0, 0.0, 0.0, 1.6665553813979435E9, 0.0, 2022-10-23 13:03:01.397
143.0, -67096.04765129658, -98266.53877097831, 53720.383789585096, 2923.5187677763424, 84463.35309307017, 65199.63624473051, 22791.64913793196, 15731.224802878476, 0.042, 0.9580000000000001, 0.1, 192.0, 1.0, 80.0, 29.0, 240.0, 3.0, 32.0, 0.0, 0.0, 0.0, 1.6665553813979568E9, 0.0, 2022-10-23 13:03:01.397
144.0, -67144.03684664212, -98309.52117556587, 53947.76808592893, 3171.332558552332, 84665.27875247941, 65393.962311024945, 23071.157702345576, 16171.218892481196, 0.042, 0.9580000000000001, 0.1, 192.0, 0.0, 0.0, 0.0, 0.0, 0.0, 0.0, 0.0, 0.0, 0.0, 1.6665553813979845E9, 0.0, 2022-10-23 13:03:01.397
145.0, -67176.04454470212, -98344.14402772713, 56074.849495273775, 4290.70792087411, 84882.49300509608, 66340.156357307, 24433.496526896542, 17606.82673535666, 0.042, 0.9580000000000001, 0.1, 192.0, 0.0, 0.0, 0.0, 0.0, 0.0, 0.0, 0.0, 0.0, 0.0, 1.666555381397998E9, 0.0, 2022-10-23 13:03:01.397
146.0, -67102.842581611, -98280.91094266307, 56019.79714868035, 4075.684139214056, 84596.03304815687, 66193.86418984702, 24227.972236629994, 17188.133858219848, 0.042, 0.9580000000000001, 0.1, 192.0, 0.0, 0.0, 0.0, 0.0, 0.0, 0.0, 0.0, 0.0, 0.0, 1.6665553813980112E9, 0.0, 2022-10-23 13:03:01.398
147.0, -67090.70558437175, -98264.72827967744, 53866.92182623409, 2970.3009689213004, 84424.90809260703, 65249.52533835475, 22861.230118421332, 15771.234425453476, 0.042, 0.9580000000000001, 0.1, 192.0, 0.0, 0.0, 0.0, 0.0, 0.0, 0.0, 0.0, 0.0, 0.0, 1.6665553813980243E9, 0.0, 2022-10-23 13:03:01.398
148.0, -67142.27105883016, -98312.40455060061, 53754.693717323986, 3044.5981674907407, 84606.69483026204, 65285.26577773879, 22918.852915627114, 15993.477820572594, 0.042, 0.9580000000000001, 0.1, 192.0, 0.0, 0.0, 0.0, 0.0, 0.0, 0.0, 0.0, 0.0, 0.0, 1.666555381398038E9, 0.0, 2022-10-23 13:03:01.398
149.0, -67182.81712327208, -98356.30337671083, 55653.11678089104, 4091.442119055047, 84867.45028107766, 66170.39485816895, 24183.335802952744, 17368.735953418727, 0.042, 0.9580000000000001, 0.1, 192.0, 0.0, 0.0, 0.0, 0.0, 0.0, 0.0, 0.0, 0.0, 0.0, 1.6665553813980515E9, 0.0, 2022-10-23 13:03:01.398
150.0, -67129.12823309044, -98308.44829183201, 56400.35794977641, 4313.171424051693, 84678.10865379675, 66394.60520680013, 24507.637263254794, 17509.97662663181, 0.042, 0.9580000000000001, 0.1, 192.0, 0.0, 0.0, 0.0, 0.0, 0.0, 0.0, 0.0, 0.0, 0.0, 1.6665553813980649E9, 0.0, 2022-10-23 13:03:01.398
151.0, -67088.62687213742, -98268.48337274592, 54105.32553259439, 3066.949911946048, 84387.29010668876, 65337.188880108464, 22995.20647468644, 15880.087420950822, 0.042, 0.9580000000000001, 0.1, 192.0, 0.0, 0.0, 0.0, 0.0, 0.0, 0.0, 0.0, 0.0, 0.0, 1.666555381398078E9, 0.0, 2022-10-23 13:03:01.398
152.0, -67128.3906255234, -98304.24616387441, 53654.22262599738, 2967.931684009038, 84560.5608297063, 65223.26203861977, 22836.0397024202, 15873.605415058782, 0.042, 0.9580000000000001, 0.1, 192.0, 0.0, 0.0, 0.0, 0.0, 0.0, 0.0, 0.0, 0.0, 0.0, 1.6665553813980913E9, 0.0, 2022-10-23 13:03:01.398
153.0, -67172.33415512255, -98343.83110330476, 55167.94981574414, 3828.13856937153, 84814.38723974077, 65941.80356762452, 23873.741790502285, 17052.83874903187, 0.046, 0.9540000000000001, 0.096, 192.0, 1.0, 112.0, 29.0, 208.0, 3.0, 0.0, 0.0, 0.0, 0.0, 1.6665553813981044E9, 0.0, 2022-10-23 13:03:01.398
154.0, -67158.65488751589, -98335.47155087847, 56599.377882406465, 4438.765876146063, 84749.12014593127, 66490.2930248133, 24659.293849384052, 17716.618504121125, 0.046, 0.9540000000000001, 0.096, 192.0, 0.0, 0.0, 0.0, 0.0, 0.0, 0.0, 0.0, 0.0, 0.0, 1.6665553813981185E9, 0.0, 2022-10-23 13:03:01.398
155.0, -67085.09529651348, -98265.51059073336, 54443.61918492546, 3221.288707409943, 84392.85569105812, 65479.748306244415, 23197.89209340717, 16082.527170482537, 0.046, 0.9540000000000001, 0.096, 192.0, 0.0, 0.0, 0.0, 0.0, 0.0, 0.0, 0.0, 0.0, 0.0, 1.6665553813981316E9, 0.0, 2022-10-23 13:03:01.398
156.0, -67109.92808460332, -98285.67186423205, 53608.6027155641, 2919.2048810964684, 84524.48511415542, 65192.28252080471, 22781.859073860538, 15795.664882143126, 0.046, 0.9540000000000001, 0.096, 192.0, 0.0, 0.0, 0.0, 0.0, 0.0, 0.0, 0.0, 0.0, 0.0, 1.6665553813981464E9, 0.0, 2022-10-23 13:03:01.398
157.0, -67163.66167827389, -98335.91858576759, 54751.112133397124, 3607.079816708543, 84764.83342228335, 65763.48135036009, 23609.38770882937, 16771.407934595103, 0.046, 0.9540000000000001, 0.096, 192.0, 0.0, 0.0, 0.0, 0.0, 0.0, 0.0, 0.0, 0.0, 0.0, 1.6665553813981597E9, 0.0, 2022-10-23 13:03:01.398
158.0, -67161.27004161717, -98339.78543755836, 56689.72363349482, 4530.162159223814, 84825.38429801278, 66573.08388627577, 24759.42966454383, 17850.8630813197, 0.046, 0.9540000000000001, 0.096, 192.0, 0.0, 0.0, 0.0, 0.0, 0.0, 0.0, 0.0, 0.0, 0.0, 1.6665553813981736E9, 0.0, 2022-10-23 13:03:01.398
159.0, -67097.7910873641, -98273.37840478163, 54855.0477451143, 3425.740113942637, 84411.42999070049, 65666.36302070177, 23457.798177933477, 16331.458548481292, 0.046, 0.9540000000000001, 0.096, 192.0, 0.0, 0.0, 0.0, 0.0, 0.0, 0.0, 0.0, 0.0, 0.0, 1.6665553813981864E9, 0.0, 2022-10-23 13:03:01.398
160.0, -67129.2399918127, -98296.06542540377, 53633.94959377642, 2910.152424592069, 84495.76312253036, 65205.15712561097, 22778.84158835907, 15747.78744551986, 0.046, 0.9540000000000001, 0.096, 192.0, 0.0, 0.0, 0.0, 0.0, 0.0, 0.0, 0.0, 0.0, 0.0, 1.666555381398212E9, 0.0, 2022-10-23 13:03:01.398
161.0, -67176.40217261341, -98337.79613230182, 54416.01478052316, 3426.701238954215, 84721.82866595134, 65634.62354357523, 23395.05683124743, 16520.241382150816, 0.046, 0.9540000000000001, 0.096, 192.0, 0.0, 0.0, 0.0, 0.0, 0.0, 0.0, 0.0, 0.0, 0.0, 1.666555381398226E9, 0.0, 2022-10-23 13:03:01.398
162.0, -67189.23207393075, -98352.16830398659, 56614.04062676914, 4523.210766698214, 84866.89148746627, 66581.9128253356, 24747.627943471427, 17861.48015993597, 0.046, 0.9540000000000001, 0.096, 192.0, 0.0, 0.0, 0.0, 0.0, 0.0, 0.0, 0.0, 0.0, 0.0, 1.6665553813982396E9, 0.0, 2022-10-23 13:03:01.398
163.0, -67090.05738378255, -98266.11408783366, 55340.52763468357, 3679.5218204881935, 84473.12080539713, 65903.42562239476, 23779.93151902336, 16657.950479739964, 0.046, 0.9540000000000001, 0.10200000000000001, 192.0, 1.0, 112.0, 29.0, 208.0, 3.0, 48.0, 0.0, 0.0, 0.0, 1.6665553813982525E9, 0.0, 2022-10-23 13:03:01.398
164.0, -67101.72499438822, -98273.8477914152, 53681.782326910776, 2893.0756918282145, 84461.94493316948, 65210.90152393598, 22784.854207617547, 15718.551363772318, 0.046, 0.9540000000000001, 0.10200000000000001, 192.0, 0.0, 0.0, 0.0, 0.0, 0.0, 0.0, 0.0, 0.0, 0.0, 1.666555381398267E9, 0.0, 2022-10-23 13:03:01.398
165.0, -67163.23699512923, -98332.4093618881, 54113.93095420968, 3241.5393878864516, 84682.17667128763, 65490.991233705434, 23192.63943346017, 16292.544161384603, 0.046, 0.9540000000000001, 0.10200000000000001, 192.0, 0.0, 0.0, 0.0, 0.0, 0.0, 0.0, 0.0, 0.0, 0.0, 1.6665553813982801E9, 0.0, 2022-10-23 13:03:01.398
166.0, -67192.45072513232, -98362.85243783623, 56338.22010019066, 4392.855393034863, 84885.01875221953, 66468.90240536958, 24597.603034687407, 17742.65828641156, 0.046, 0.9540000000000001, 0.10200000000000001, 192.0, 0.0, 0.0, 0.0, 0.0, 0.0, 0.0, 0.0, 0.0, 0.0, 1.6665553813982933E9, 0.0, 2022-10-23 13:03:01.398
167.0, -67113.79493639409, -98288.08585263323, 55798.31371287271, 3925.3686577521157, 84549.69788190101, 66112.0568051406, 24084.63049943811, 17001.49679201803, 0.046, 0.9540000000000001, 0.10200000000000001, 192.0, 0.0, 0.0, 0.0, 0.0, 0.0, 0.0, 0.0, 0.0, 0.0, 1.6665553813983092E9, 0.0, 2022-10-23 13:03:01.398
168.0, -67108.67638691382, -98282.90024791959, 53767.65772910807, 2896.5178604743314, 84419.00723207084, 65215.841259460605, 22803.65202470446, 15719.467785294984, 0.046, 0.9540000000000001, 0.10200000000000001, 192.0, 0.0, 0.0, 0.0, 0.0, 0.0, 0.0, 0.0, 0.0, 0.0, 1.666555381398323E9, 0.0, 2022-10-23 13:03:01.398
169.0, -67158.87840496044, -98329.81655953129, 53846.02294516837, 3060.9372926875703, 84620.95524322454, 65328.538755004265, 22979.470846589906, 16069.026716831533, 0.046, 0.9540000000000001, 0.10200000000000001, 192.0, 0.0, 0.0, 0.0, 0.0, 0.0, 0.0, 0.0, 0.0, 0.0, 1.6665553813983364E9, 0.0, 2022-10-23 13:03:01.398
170.0, -67195.53526586715, -98363.88061808117, 55931.41835110407, 4185.475907978524, 84882.35889462935, 66284.27699616873, 24345.05067408689, 17522.73947271579, 0.046, 0.9540000000000001, 0.10200000000000001, 192.0, 0.0, 0.0, 0.0, 0.0, 0.0, 0.0, 0.0, 0.0, 0.0, 1.6665553813983495E9, 0.0, 2022-10-23 13:03:01.398
171.0, -67119.89696263039, -98299.23937311642, 56177.17578139017, 4127.875462517198, 84624.21859791501, 66271.35768787356, 24336.221735027044, 17308.98974048969, 0.046, 0.9540000000000001, 0.10200000000000001, 192.0, 0.0, 0.0, 0.0, 0.0, 0.0, 0.0, 0.0, 0.0, 0.0, 1.666555381398363E9, 0.0, 2022-10-23 13:03:01.398
172.0, -67103.98252057821, -98282.52026826386, 53928.74675139746, 2941.020183684848, 84401.66227837352, 65256.07439948016, 22880.76554307527, 15785.718355860516, 0.052000000000000005, 0.9560000000000001, 0.098, 192.0, 1.0, 160.0, 29.0, 224.0, 3.0, 16.0, 0.0, 0.0, 0.0, 1.6665553813983767E9, 0.0, 2022-10-23 13:03:01.398
173.0, -67147.47901528823, -98323.26749840588, 53722.50720530835, 2979.8004603148056, 84595.60836501222, 65264.16573097298, 22886.219368722366, 15954.988116620556, 0.052000000000000005, 0.9560000000000001, 0.098, 192.0, 0.0, 0.0, 0.0, 0.0, 0.0, 0.0, 0.0, 0.0, 0.0, 1.6665553813983908E9, 0.0, 2022-10-23 13:03:01.398
174.0, -67190.37201289798, -98365.80286810434, 55474.34752873749, 3950.8719981756212, 84845.65733023373, 66076.4504762233, 24061.071760782215, 17253.736228196172, 0.052000000000000005, 0.9560000000000001, 0.098, 192.0, 0.0, 0.0, 0.0, 0.0, 0.0, 0.0, 0.0, 0.0, 0.0, 1.6665553813984041E9, 0.0, 2022-10-23 13:03:01.398
175.0, -67142.58398325252, -98327.71549555249, 56493.34120671049, 4332.125703349794, 84714.05025888089, 66432.93844854098, 24572.233804730633, 17604.457450444395, 0.052000000000000005, 0.9560000000000001, 0.098, 192.0, 0.0, 0.0, 0.0, 0.0, 0.0, 0.0, 0.0, 0.0, 0.0, 1.6665553813984177E9, 0.0, 2022-10-23 13:03:01.398
176.0, -67084.38004069091, -98268.86335240166, 54194.77721390453, 3064.044185166858, 84397.41544692701, 65356.925470462505, 23037.004236817866, 15937.48670071205, 0.052000000000000005, 0.9560000000000001, 0.098, 192.0, 0.0, 0.0, 0.0, 0.0, 0.0, 0.0, 0.0, 0.0, 0.0, 1.666555381398451E9, 0.0, 2022-10-23 13:03:01.398
177.0, -67137.08545411652, -98316.47256809147, 53626.39470415052, 2909.884203658605, 84570.97674262247, 65197.64693947398, 22805.015481116236, 15852.550071781883, 0.052000000000000005, 0.9560000000000001, 0.098, 192.0, 0.0, 0.0, 0.0, 0.0, 0.0, 0.0, 0.0, 0.0, 0.0, 1.6665553813984663E9, 0.0, 2022-10-23 13:03:01.398
178.0, -67178.50323659221, -98353.710574354, 55051.05019224289, 3742.4196293854275, 84825.22783580159, 65900.47519212666, 23807.446516447846, 16993.114887847292, 0.052000000000000005, 0.9560000000000001, 0.098, 192.0, 0.0, 0.0, 0.0, 0.0, 0.0, 0.0, 0.0, 0.0, 0.0, 1.6665553813984795E9, 0.0, 2022-10-23 13:03:01.398
179.0, -67149.42361705586, -98324.87682400666, 56695.93741845339, 4482.329426089457, 84803.18901576866, 66556.14126397864, 24745.258658559163, 17821.917572250077, 0.052000000000000005, 0.9560000000000001, 0.098, 192.0, 0.0, 0.0, 0.0, 0.0, 0.0, 0.0, 0.0, 0.0, 0.0, 1.6665553813984933E9, 0.0, 2022-10-23 13:03:01.398
180.0, -67092.04668903908, -98270.696195447, 54625.67414351394, 3287.1592983197334, 84419.18604602647, 65562.98620259597, 23318.74797567701, 16198.845648627956, 0.052000000000000005, 0.9560000000000001, 0.098, 192.0, 0.0, 0.0, 0.0, 0.0, 0.0, 0.0, 0.0, 0.0, 0.0, 1.666555381398506E9, 0.0, 2022-10-23 13:03:01.398
181.0, -67131.76573893616, -98305.52021330837, 53651.67452712948, 2905.078578600714, 84520.17122747556, 65208.82281170164, 22804.36728052703, 15800.202286267555, 0.052000000000000005, 0.9560000000000001, 0.098, 192.0, 0.0, 0.0, 0.0, 0.0, 0.0, 0.0, 0.0, 0.0, 0.0, 1.666555381398519E9, 0.0, 2022-10-23 13:03:01.398
182.0, -67170.56836731057, -98345.79805681683, 54663.806219554695, 3531.3297547495076, 84757.6585123132, 65727.00330340902, 23555.34119073644, 16702.07282329474, 0.052000000000000005, 0.9580000000000001, 0.10400000000000001, 192.0, 1.0, 160.0, 29.0, 240.0, 3.0, 64.0, 0.0, 0.0, 0.0, 1.6665553813985324E9, 0.0, 2022-10-23 13:03:01.398
183.0, -67163.25934687369, -98346.98269927296, 56707.1356424255, 4518.807473040518, 84848.76422271303, 66579.45413344553, 24778.76392349767, 17875.62881417618, 0.052000000000000005, 0.9580000000000001, 0.10400000000000001, 192.0, 0.0, 0.0, 0.0, 0.0, 0.0, 0.0, 0.0, 0.0, 0.0, 1.6665553813985462E9, 0.0, 2022-10-23 13:03:01.398
184.0, -67090.10208727147, -98271.27734080283, 55063.23189297103, 3504.865289314424, 84449.20443882995, 65749.80208275343, 23590.23226383117, 16461.16572155544, 0.052000000000000005, 0.9580000000000001, 0.10400000000000001, 192.0, 0.0, 0.0, 0.0, 0.0, 0.0, 0.0, 0.0, 0.0, 0.0, 1.666555381398559E9, 0.0, 2022-10-23 13:03:01.398
185.0, -67123.47324174324, -98298.03237891584, 53662.87275110159, 2872.512086929332, 84480.29571536729, 65178.647956686975, 22772.001954555744, 15729.34725634423, 0.052000000000000005, 0.9580000000000001, 0.10400000000000001, 192.0, 0.0, 0.0, 0.0, 0.0, 0.0, 0.0, 0.0, 0.0, 0.0, 1.6665553813985724E9, 0.0, 2022-10-23 13:03:01.398
186.0, -67165.13689340794, -98338.80196080232, 54317.73416015317, 3331.9521942081687, 84714.00555539198, 65550.69274314556, 23311.193086051117, 16435.505918920746, 0.052000000000000005, 0.9580000000000001, 0.10400000000000001, 192.0, 0.0, 0.0, 0.0, 0.0, 0.0, 0.0, 0.0, 0.0, 0.0, 1.6665553813985856E9, 0.0, 2022-10-23 13:03:01.398
187.0, -67187.04160297413, -98360.6172633907, 56576.71321352878, 4483.98345517915, 84893.57947034591, 66540.450339371, 24720.649387913872, 17856.562776155803, 0.052000000000000005, 0.9580000000000001, 0.10400000000000001, 192.0, 0.0, 0.0, 0.0, 0.0, 0.0, 0.0, 0.0, 0.0, 0.0, 1.6665553813985984E9, 0.0, 2022-10-23 13:03:01.398
188.0, -67092.44902043928, -98271.3443960362, 55557.85364602252, 3771.36513845505, 84513.13042797214, 65972.24664357265, 23905.995357751293, 16804.600275111232, 0.052000000000000005, 0.9580000000000001, 0.10400000000000001, 192.0, 0.0, 0.0, 0.0, 0.0, 0.0, 0.0, 0.0, 0.0, 0.0, 1.6665553813986115E9, 0.0, 2022-10-23 13:03:01.398
189.0, -67106.17299153483, -98285.73891946542, 53745.64126081959, 2888.091252814681, 84446.00813937285, 65192.46133476035, 22787.670527418915, 15720.294799839832, 0.052000000000000005, 0.9580000000000001, 0.10400000000000001, 192.0, 0.0, 0.0, 0.0, 0.0, 0.0, 0.0, 0.0, 0.0, 0.0, 1.666555381398625E9, 0.0, 2022-10-23 13:03:01.398
190.0, -67155.23507061423, -98334.35396365571, 54044.03704929794, 3169.455012018086, 84648.60435111575, 65406.25577047536, 23102.89717947211, 16205.104137075441, 0.052000000000000005, 0.9580000000000001, 0.10400000000000001, 192.0, 0.0, 0.0, 0.0, 0.0, 0.0, 0.0, 0.0, 0.0, 0.0, 1.6665553813986375E9, 0.0, 2022-10-23 13:03:01.398
191.0, -67202.33019618156, -98374.67651065308, 56265.17459931071, 4347.727220979598, 84882.11302544034, 66408.1727156845, 24532.581810066917, 17691.338681142173, 0.052000000000000005, 0.9580000000000001, 0.10400000000000001, 192.0, 0.0, 0.0, 0.0, 0.0, 0.0, 0.0, 0.0, 0.0, 0.0, 1.6665553813986657E9, 0.0, 2022-10-23 13:03:01.398
192.0, -67116.96888410674, -98291.93035267954, 55988.28118899837, 4009.590030859713, 84550.63665516814, 66152.24524167123, 24176.183244727046, 17109.075738081425, 0.054, 0.9560000000000001, 0.1, 192.0, 1.0, 176.0, 29.0, 224.0, 3.0, 32.0, 0.0, 0.0, 0.0, 1.6665553813986797E9, 0.0, 2022-10-23 13:03:01.398
193.0, -67110.93391310381, -98282.92259966405, 53873.35912863721, 2934.895805704094, 84412.83815060118, 65222.32326535264, 22834.296266352685, 15741.193680905544, 0.054, 0.9560000000000001, 0.1, 192.0, 0.0, 0.0, 0.0, 0.0, 0.0, 0.0, 0.0, 0.0, 0.0, 1.6665553813986948E9, 0.0, 2022-10-23 13:03:01.398
194.0, -67153.15635837989, -98323.73688503944, 53880.399928140636, 3083.46785109852, 84624.33035663729, 65326.66120847002, 22978.844997745156, 16048.664277632748, 0.054, 0.9560000000000001, 0.1, 192.0, 0.0, 0.0, 0.0, 0.0, 0.0, 0.0, 0.0, 0.0, 0.0, 1.666555381398708E9, 0.0, 2022-10-23 13:03:01.398
195.0, -67192.04839373213, -98359.6114348902, 55868.69935616248, 4171.863695605242, 84882.18008067372, 66248.20128061787, 24294.781600806906, 17462.255652219734, 0.054, 0.9560000000000001, 0.1, 192.0, 0.0, 0.0, 0.0, 0.0, 0.0, 0.0, 0.0, 0.0, 0.0, 1.6665553813987222E9, 0.0, 2022-10-23 13:03:01.398
196.0, -67130.089358102, -98305.22964063045, 56429.97401117969, 4298.978066322573, 84672.1854415161, 66395.29811087824, 24501.155257362756, 17472.537454669175, 0.054, 0.9560000000000001, 0.1, 192.0, 0.0, 0.0, 0.0, 0.0, 0.0, 0.0, 0.0, 0.0, 0.0, 1.6665553813987353E9, 0.0, 2022-10-23 13:03:01.398
197.0, -67096.02529955213, -98271.50085824738, 54146.45274239215, 3074.3259876162992, 84403.56217665222, 65350.488168059375, 23000.45913463344, 15874.231263903532, 0.054, 0.9560000000000001, 0.1, 192.0, 0.0, 0.0, 0.0, 0.0, 0.0, 0.0, 0.0, 0.0, 0.0, 1.6665553813987484E9, 0.0, 2022-10-23 13:03:01.398
198.0, -67127.02716911164, -98302.99446618491, 53776.59842689019, 3019.564213700797, 84584.27603057338, 65267.227919963356, 22887.24754896731, 15922.063997037889, 0.054, 0.9560000000000001, 0.1, 192.0, 0.0, 0.0, 0.0, 0.0, 0.0, 0.0, 0.0, 0.0, 0.0, 1.6665553813987646E9, 0.0, 2022-10-23 13:03:01.398
199.0, -67186.19223668483, -98362.47245818049, 55422.647943812364, 3955.16353311104, 84842.77395519901, 66048.98018228772, 24010.13213516857, 17175.616881324873, 0.054, 0.9560000000000001, 0.1, 192.0, 0.0, 0.0, 0.0, 0.0, 0.0, 0.0, 0.0, 0.0, 0.0, 1.6665553813987775E9, 0.0, 2022-10-23 13:03:01.398
200.0, -67150.89883218991, -98331.78351304335, 56693.14345039648, 4475.892123686329, 84742.30286387239, 66523.53006881835, 24685.02070725211, 17710.8294023072, 0.054, 0.9560000000000001, 0.1, 192.0, 0.0, 0.0, 0.0, 0.0, 0.0, 0.0, 0.0, 0.0, 0.0, 1.6665553813987908E9, 0.0, 2022-10-23 13:03:01.398
201.0, -67088.64922388188, -98271.21028556947, 54454.415077497375, 3218.0477044639238, 84395.35908643712, 65468.86300669468, 23170.06417156031, 16039.12008275033, 0.054, 0.9560000000000001, 0.1, 192.0, 0.0, 0.0, 0.0, 0.0, 0.0, 0.0, 0.0, 0.0, 0.0, 1.666555381398804E9, 0.0, 2022-10-23 13:03:01.398
202.0, -67135.16320409336, -98312.38219885614, 53712.761844725836, 2960.44384961651, 84537.73969861743, 65214.88013444903, 22808.301187551166, 15820.520021977429, 0.044, 0.9480000000000001, 0.1, 192.0, 1.0, 96.0, 29.0, 160.0, 3.0, 32.0, 0.0, 0.0, 0.0, 1.666555381398817E9, 0.0, 2022-10-23 13:03:01.398
203.0, -67186.57221634057, -98360.32669071278, 54974.94250237256, 3711.529518548193, 84786.24639347153, 65840.05842686396, 23707.713032688265, 16867.542787497376, 0.044, 0.9480000000000001, 0.1, 192.0, 0.0, 0.0, 0.0, 0.0, 0.0, 0.0, 0.0, 0.0, 0.0, 1.666555381398831E9, 0.0, 2022-10-23 13:03:01.398
204.0, -67162.58879454003, -98342.22177770398, 56782.84100089563, 4553.966767068716, 84810.74390539454, 66575.20730199902, 24758.13326336542, 17834.18867995604, 0.044, 0.9480000000000001, 0.1, 192.0, 0.0, 0.0, 0.0, 0.0, 0.0, 0.0, 0.0, 0.0, 0.0, 1.6665553813988435E9, 0.0, 2022-10-23 13:03:01.398
205.0, -67074.16529347483, -98262.2919395318, 54836.71931466095, 3416.4864917381396, 84440.04022360328, 65629.05795920586, 23400.644767361257, 16275.22155943174, 0.044, 0.9480000000000001, 0.1, 192.0, 0.0, 0.0, 0.0, 0.0, 0.0, 0.0, 0.0, 0.0, 0.0, 1.6665553813988569E9, 0.0, 2022-10-23 13:03:01.398
206.0, -67110.26336077016, -98295.08194864774, 53731.71612402393, 2968.8034020427945, 84539.08080328474, 65219.77516648474, 22803.316748537633, 15784.377251193197, 0.044, 0.9480000000000001, 0.1, 192.0, 0.0, 0.0, 0.0, 0.0, 0.0, 0.0, 0.0, 0.0, 0.0, 1.666555381398867E9, 0.0, 2022-10-23 13:03:01.398
207.0, -67162.00764918419, -98341.35005967022, 54599.36614029004, 3520.578565666505, 84750.72947153205, 65674.29788998341, 23464.995439648086, 16601.4676215014, 0.044, 0.9480000000000001, 0.1, 192.0, 0.0, 0.0, 0.0, 0.0, 0.0, 0.0, 0.0, 0.0, 0.0, 1.666555381398886E9, 0.0, 2022-10-23 13:03:01.398
208.0, -67173.74231502322, -98356.48219066647, 56740.28327945272, 4576.363215012934, 84867.1820601442, 66579.05180204533, 24765.57639426904, 17878.15456129963, 0.044, 0.9480000000000001, 0.1, 192.0, 0.0, 0.0, 0.0, 0.0, 0.0, 0.0, 0.0, 0.0, 0.0, 1.6665553813988962E9, 0.0, 2022-10-23 13:03:01.398
209.0, -67108.36346249146, -98296.42305331505, 55298.72987255215, 3651.716250385791, 84451.95370339796, 65822.71347316664, 23691.686831913812, 16566.95652806241, 0.044, 0.9480000000000001, 0.1, 192.0, 0.0, 0.0, 0.0, 0.0, 0.0, 0.0, 0.0, 0.0, 0.0, 1.6665553813989062E9, 0.0, 2022-10-23 13:03:01.398
210.0, -67122.53446847612, -98306.52604180886, 53753.35261265667, 2939.5226168063423, 84453.31715980974, 65188.05804110266, 22775.89115809097, 15714.304532325808, 0.044, 0.9480000000000001, 0.1, 192.0, 0.0, 0.0, 0.0, 0.0, 0.0, 0.0, 0.0, 0.0, 0.0, 1.6665553813989165E9, 0.0, 2022-10-23 13:03:01.398
211.0, -67148.37308506646, -98331.40353338761, 54275.668177088286, 3335.640232043294, 84686.02117133394, 65506.54804784633, 23235.912410725643, 16341.919164886376, 0.038, 0.9560000000000001, 0.108, 192.0, 1.0, 48.0, 29.0, 224.0, 3.0, 96.0, 0.0, 0.0, 0.0, 1.6665553813989265E9, 0.0, 2022-10-23 13:03:01.398
212.0, -67172.69178303382, -98353.75527784292, 56514.32949475402, 4486.777423236063, 84881.55423182897, 66484.190998577, 24642.619448020396, 17783.897254931602, 0.038, 0.9560000000000001, 0.108, 192.0, 0.0, 0.0, 0.0, 0.0, 0.0, 0.0, 0.0, 0.0, 0.0, 1.6665553813989367E9, 0.0, 2022-10-23 13:03:01.398
213.0, -67094.79595360708, -98283.32493106424, 55730.58792717313, 3881.2239624528843, 84510.80584654878, 66001.19215264227, 23967.46265500339, 16880.327985325814, 0.038, 0.9560000000000001, 0.108, 192.0, 0.0, 0.0, 0.0, 0.0, 0.0, 0.0, 0.0, 0.0, 0.0, 1.6665553813989732E9, 0.0, 2022-10-23 13:03:01.398
214.0, -67102.82022986654, -98290.16456486758, 53832.03075313935, 2950.4302681005324, 84441.47073524843, 65198.16102959646, 22800.478076991807, 15722.954657430013, 0.038, 0.9560000000000001, 0.108, 192.0, 0.0, 0.0, 0.0, 0.0, 0.0, 0.0, 0.0, 0.0, 0.0, 1.6665553813990147E9, 0.0, 2022-10-23 13:03:01.399
215.0, -67142.78514895262, -98322.68635305004, 54048.17212202217, 3200.725102511061, 84660.89781056617, 65396.91274129305, 23082.177112362042, 16163.887520299855, 0.038, 0.9560000000000001, 0.108, 192.0, 0.0, 0.0, 0.0, 0.0, 0.0, 0.0, 0.0, 0.0, 0.0, 1.6665553813990564E9, 0.0, 2022-10-23 13:03:01.399
216.0, -67178.61499531448, -98357.8679988227, 56164.92702542866, 4320.122816577294, 84881.88950799579, 66343.9561538644, 24449.65683813773, 17603.004587054802, 0.038, 0.9560000000000001, 0.108, 192.0, 0.0, 0.0, 0.0, 0.0, 0.0, 0.0, 0.0, 0.0, 0.0, 1.6665553813990967E9, 0.0, 2022-10-23 13:03:01.399
217.0, -67111.64916892638, -98297.96532368247, 56193.3137408869, 4147.612052871234, 84600.10106564773, 66237.45009153486, 24300.682461343105, 17237.575916954986, 0.038, 0.9560000000000001, 0.108, 192.0, 0.0, 0.0, 0.0, 0.0, 0.0, 0.0, 0.0, 0.0, 0.0, 1.6665553813991375E9, 0.0, 2022-10-23 13:03:01.399
218.0, -67091.46554368324, -98273.82543967073, 54007.067263968864, 3012.076379308269, 84414.2239587574, 65267.18321647444, 22903.072584041667, 15783.706698859538, 0.038, 0.9560000000000001, 0.108, 192.0, 0.0, 0.0, 0.0, 0.0, 0.0, 0.0, 0.0, 0.0, 0.0, 1.666555381399178E9, 0.0, 2022-10-23 13:03:01.399
219.0, -67124.54612547709, -98306.2578208754, 53870.85573325822, 3079.533944074386, 84612.55098730934, 65297.06749881119, 22952.335828821164, 15997.769355508013, 0.038, 0.9560000000000001, 0.108, 192.0, 0.0, 0.0, 0.0, 0.0, 0.0, 0.0, 0.0, 0.0, 0.0, 1.666555381399218E9, 0.0, 2022-10-23 13:03:01.399
220.0, -67172.62472780046, -98351.78832433085, 55728.19629051642, 4104.652000028133, 84868.29964736696, 66159.10722721902, 24192.634128646154, 17349.155825275877, 0.038, 0.9560000000000001, 0.108, 192.0, 0.0, 0.0, 0.0, 0.0, 0.0, 0.0, 0.0, 0.0, 0.0, 1.6665553813992455E9, 0.0, 2022-10-23 13:03:01.399
221.0, -67131.1398900914, -98314.12563492366, 56545.73369571372, 4364.9157124657295, 84689.77626440243, 66415.3252739102, 24562.130816236833, 17545.068865426645, 0.044, 0.9580000000000001, 0.108, 192.0, 1.0, 96.0, 29.0, 240.0, 3.0, 96.0, 0.0, 0.0, 0.0, 1.6665553813992555E9, 0.0, 2022-10-23 13:03:01.399
222.0, -67092.60548265046, -98274.33952979321, 54263.17355193777, 3119.0294765269136, 84392.20749046892, 65364.323897877206, 23054.99739110439, 15916.81133709089, 0.044, 0.9580000000000001, 0.108, 192.0, 0.0, 0.0, 0.0, 0.0, 0.0, 0.0, 0.0, 0.0, 0.0, 1.6665553813992753E9, 0.0, 2022-10-23 13:03:01.399
223.0, -67128.88236390143, -98302.81565222927, 53768.70826109747, 2996.7207308674733, 84559.15266980561, 65226.72655901034, 22865.320487656652, 15879.685089550627, 0.044, 0.9580000000000001, 0.108, 192.0, 0.0, 0.0, 0.0, 0.0, 0.0, 0.0, 0.0, 0.0, 0.0, 1.6665553813992853E9, 0.0, 2022-10-23 13:03:01.399
224.0, -67177.855036003, -98353.28589120935, 55261.98360466762, 3851.4067353495047, 84804.84304485835, 65938.87548910087, 23898.552226847678, 17045.08269370588, 0.044, 0.9580000000000001, 0.108, 192.0, 0.0, 0.0, 0.0, 0.0, 0.0, 0.0, 0.0, 0.0, 0.0, 1.666555381399295E9, 0.0, 2022-10-23 13:03:01.399
225.0, -67148.19427111081, -98331.13531245415, 56729.487386880806, 4482.642350511832, 84745.16388716268, 66499.14431561761, 24709.384108708397, 17732.063559539743, 0.044, 0.9580000000000001, 0.108, 192.0, 0.0, 0.0, 0.0, 0.0, 0.0, 0.0, 0.0, 0.0, 0.0, 1.666555381399305E9, 0.0, 2022-10-23 13:03:01.399
226.0, -67072.44420915177, -98251.92073010454, 54574.5333522002, 3260.1807427621775, 84397.43779867147, 65479.43538182204, 23244.204907918564, 16092.049013620499, 0.044, 0.9580000000000001, 0.108, 192.0, 0.0, 0.0, 0.0, 0.0, 0.0, 0.0, 0.0, 0.0, 0.0, 1.6665553813993163E9, 0.0, 2022-10-23 13:03:01.399
227.0, -67113.92904686082, -98285.40364329859, 53682.81050715572, 2920.076599130225, 84518.02546000785, 65153.345781963566, 22783.580158183595, 15765.870006784202, 0.044, 0.9580000000000001, 0.108, 192.0, 0.0, 0.0, 0.0, 0.0, 0.0, 0.0, 0.0, 0.0, 0.0, 1.6665553813993263E9, 0.0, 2022-10-23 13:03:01.399
228.0, -67171.93182372235, -98339.38310615816, 54798.94486653148, 3601.827156761546, 84771.00250375301, 65717.39205329324, 23601.96692967021, 16740.853099924698, 0.044, 0.9580000000000001, 0.108, 192.0, 0.0, 0.0, 0.0, 0.0, 0.0, 0.0, 0.0, 0.0, 0.0, 1.6665553813993363E9, 0.0, 2022-10-23 13:03:01.399
229.0, -67167.3050126201, -98342.5123503819, 56799.873030170565, 4570.283540521091, 84843.26569357702, 66568.54648215133, 24808.223522689765, 17881.26145377892, 0.044, 0.9580000000000001, 0.108, 192.0, 0.0, 0.0, 0.0, 0.0, 0.0, 0.0, 0.0, 0.0, 0.0, 1.666555381399346E9, 0.0, 2022-10-23 13:03:01.399
230.0, -67092.04668903908, -98273.28899780381, 55012.918116202134, 3486.4921553721615, 84423.18700828397, 65678.20944526308, 23535.716359104677, 16386.689709030357, 0.044, 0.9580000000000001, 0.108, 192.0, 0.0, 0.0, 0.0, 0.0, 0.0, 0.0, 0.0, 0.0, 0.0, 1.666555381399356E9, 0.0, 2022-10-23 13:03:01.399
231.0, -67111.98444509321, -98288.37642531114, 53712.02423715881, 2911.6499914705746, 84473.85841296417, 65156.631488398496, 22790.777419898204, 15735.315172113798, 0.046, 0.9500000000000001, 0.10200000000000001, 192.0, 1.0, 112.0, 29.0, 176.0, 3.0, 48.0, 0.0, 0.0, 0.0, 1.6665553813993657E9, 0.0, 2022-10-23 13:03:01.399
232.0, -67161.73942825073, -98337.63967009065, 54454.63859494193, 3413.1784335587545, 84719.88406418373, 65567.09892357576, 23386.049078231943, 16492.36875681505, 0.046, 0.9500000000000001, 0.10200000000000001, 192.0, 0.0, 0.0, 0.0, 0.0, 0.0, 0.0, 0.0, 0.0, 0.0, 1.6665553813993764E9, 0.0, 2022-10-23 13:03:01.399
233.0, -67180.11256219298, -98354.98462378797, 56694.171630641424, 4546.434229187278, 84875.42985384821, 66545.61359234019, 24779.32271710905, 17875.785276387367, 0.046, 0.9500000000000001, 0.10200000000000001, 192.0, 0.0, 0.0, 0.0, 0.0, 0.0, 0.0, 0.0, 0.0, 0.0, 1.666555381399386E9, 0.0, 2022-10-23 13:03:01.399
234.0, -67096.69585188579, -98277.40171878359, 55457.22609248473, 3711.5742220371035, 84456.62521798912, 65867.1487411438, 23821.170487543404, 16681.084535251204, 0.046, 0.9500000000000001, 0.10200000000000001, 192.0, 0.0, 0.0, 0.0, 0.0, 0.0, 0.0, 0.0, 0.0, 0.0, 1.666555381399396E9, 0.0, 2022-10-23 13:03:01.399
235.0, -67104.72012814524, -98280.64272172962, 53757.19711270298, 2901.278782043312, 84437.24625554637, 65149.836558084084, 22791.760896654236, 15701.273465308364, 0.046, 0.9500000000000001, 0.10200000000000001, 192.0, 0.0, 0.0, 0.0, 0.0, 0.0, 0.0, 0.0, 0.0, 0.0, 1.6665553813994057E9, 0.0, 2022-10-23 13:03:01.399
236.0, -67150.58590776753, -98322.77576002786, 54154.789943073985, 3234.7221058275827, 84657.58975238679, 65410.72611936642, 23174.132189051175, 16249.7852742416, 0.046, 0.9500000000000001, 0.10200000000000001, 192.0, 0.0, 0.0, 0.0, 0.0, 0.0, 0.0, 0.0, 0.0, 0.0, 1.6665553813994155E9, 0.0, 2022-10-23 13:03:01.399
237.0, -67182.28068140516, -98357.42096393359, 56384.01882457958, 4400.164413471748, 84878.73791202759, 66401.40013711454, 24592.417429973775, 17715.947951787468, 0.046, 0.9500000000000001, 0.10200000000000001, 192.0, 0.0, 0.0, 0.0, 0.0, 0.0, 0.0, 0.0, 0.0, 0.0, 1.6665553813994255E9, 0.0, 2022-10-23 13:03:01.399
238.0, -67100.76386937665, -98280.3968525406, 55908.70897873747, 3966.5629227832464, 84546.79215512183, 66067.75564763018, 24119.67803474403, 17013.522030534987, 0.046, 0.9500000000000001, 0.10200000000000001, 192.0, 0.0, 0.0, 0.0, 0.0, 0.0, 0.0, 0.0, 0.0, 0.0, 1.6665553813994484E9, 0.0, 2022-10-23 13:03:01.399
239.0, -67092.87370358393, -98269.98093962442, 53897.722530093495, 2965.025957229848, 84443.41533701603, 65202.65373023197, 22867.108627213078, 15747.54157633085, 0.046, 0.9500000000000001, 0.10200000000000001, 192.0, 0.0, 0.0, 0.0, 0.0, 0.0, 0.0, 0.0, 0.0, 0.0, 1.6665553813994596E9, 0.0, 2022-10-23 13:03:01.399
240.0, -67146.74140772122, -98319.1547774261, 53969.71749898404, 3133.5804621673183, 84628.5771880838, 65321.43090026747, 23045.296734010786, 16087.80218217399, 0.052000000000000005, 0.9480000000000001, 0.098, 192.0, 1.0, 160.0, 29.0, 160.0, 3.0, 16.0, 0.0, 0.0, 0.0, 1.6665553813994696E9, 0.0, 2022-10-23 13:03:01.399
241.0, -67179.41965811487, -98353.24118772044, 56019.1712998356, 4240.2376818940265, 84878.84967074987, 66254.8397487211, 24384.2556338615, 17518.716158713836, 0.052000000000000005, 0.9480000000000001, 0.098, 192.0, 0.0, 0.0, 0.0, 0.0, 0.0, 0.0, 0.0, 0.0, 0.0, 1.6665553818756063E9, 0.0, 2022-10-23 13:03:01.875
242.0, -67116.47714572873, -98295.01489341437, 56370.18309476174, 4248.84310350932, 84644.22340920252, 66306.2040574794, 24451.534384671973, 17379.710659946282, 0.052000000000000005, 0.9480000000000001, 0.098, 192.0, 0.0, 0.0, 0.0, 0.0, 0.0, 0.0, 0.0, 0.0, 0.0, 1.6665553818757217E9, 0.0, 2022-10-23 13:03:01.875
243.0, -67091.82317159453, -98268.9974628684, 54114.84737573235, 3053.0247751503916, 84402.33283070718, 65287.67976613996, 22984.94702398146, 15833.215812828043, 0.052000000000000005, 0.9480000000000001, 0.098, 192.0, 0.0, 0.0, 0.0, 0.0, 0.0, 0.0, 0.0, 0.0, 0.0, 1.6665553818757596E9, 0.0, 2022-10-23 13:03:01.875
244.0, -67142.67339023035, -98319.19948091502, 53848.727506247465, 3049.2696820819, 84584.00780963991, 65257.1025797251, 22942.188136838453, 15950.785988662958, 0.052000000000000005, 0.9480000000000001, 0.098, 192.0, 0.0, 0.0, 0.0, 0.0, 0.0, 0.0, 0.0, 0.0, 0.0, 1.6665553818757973E9, 0.0, 2022-10-23 13:03:01.875
245.0, -67179.44200985933, -98355.87869356618, 55595.561038918626, 4027.247908979405, 84851.49113553658, 66082.9995373487, 24123.25431385688, 17252.70804795123, 0.052000000000000005, 0.9480000000000001, 0.098, 192.0, 0.0, 0.0, 0.0, 0.0, 0.0, 0.0, 0.0, 0.0, 0.0, 1.6665553818758357E9, 0.0, 2022-10-23 13:03:01.875
246.0, -67125.97663712224, -98311.77870175586, 56669.6741187184, 4432.261518509569, 84718.11827637175, 66456.07250405222, 24662.15487267433, 17634.565250225693, 0.052000000000000005, 0.9480000000000001, 0.098, 192.0, 0.0, 0.0, 0.0, 0.0, 0.0, 0.0, 0.0, 0.0, 0.0, 1.666555381875873E9, 0.0, 2022-10-23 13:03:01.875
247.0, -67071.97482251821, -98255.9887475954, 54385.549352830574, 3166.81750617236, 84399.94119405047, 65385.021613242825, 23129.20518269601, 15967.818017937901, 0.052000000000000005, 0.9480000000000001, 0.098, 192.0, 0.0, 0.0, 0.0, 0.0, 0.0, 0.0, 0.0, 0.0, 0.0, 1.66655538187591E9, 0.0, 2022-10-23 13:03:01.875
248.0, -67118.80172715208, -98292.51149803538, 53767.50126689688, 2981.8121173157833, 84562.52778321836, 65196.95403539587, 22857.497377097294, 15847.006839156968, 0.052000000000000005, 0.9480000000000001, 0.098, 192.0, 0.0, 0.0, 0.0, 0.0, 0.0, 0.0, 0.0, 0.0, 0.0, 1.6665553818759515E9, 0.0, 2022-10-23 13:03:01.875
249.0, -67171.7083062778, -98342.46764689298, 55142.267661365, 3787.503097951782, 84813.76139089602, 65870.21093013417, 23823.293903266658, 16957.620317652265, 0.052000000000000005, 0.9480000000000001, 0.098, 192.0, 0.0, 0.0, 0.0, 0.0, 0.0, 0.0, 0.0, 0.0, 0.0, 1.6665553818760002E9, 0.0, 2022-10-23 13:03:01.876
250.0, -67137.06310237206, -98317.32193438077, 56834.38412360956, 4562.393374728367, 84806.27355650348, 66551.04506624283, 24792.018507959667, 17825.873831018667, 0.054, 0.9500000000000001, 0.10200000000000001, 192.0, 1.0, 176.0, 29.0, 176.0, 3.0, 48.0, 0.0, 0.0, 0.0, 1.6665553818760445E9, 0.0, 2022-10-23 13:03:01.876
251.0, -67074.2323487082, -98253.28418651632, 54765.864284737625, 3358.8189910434476, 84415.38624946908, 65544.50130993144, 23354.935449950153, 16201.34904400695, 0.054, 0.9500000000000001, 0.10200000000000001, 192.0, 0.0, 0.0, 0.0, 0.0, 0.0, 0.0, 0.0, 0.0, 0.0, 1.6665553818760817E9, 0.0, 2022-10-23 13:03:01.876
252.0, -67127.31774178955, -98298.18884112702, 53743.49549335188, 2947.8821692326273, 84517.82429430775, 65162.3311832346, 22805.440164260886, 15770.519169630907, 0.054, 0.9500000000000001, 0.10200000000000001, 192.0, 0.0, 0.0, 0.0, 0.0, 0.0, 0.0, 0.0, 0.0, 0.0, 1.6665553818761153E9, 0.0, 2022-10-23 13:03:01.876
253.0, -67176.20100691331, -98344.79222831634, 54723.418322016994, 3564.343281309996, 84756.69738730161, 65669.93929981462, 23538.778548095055, 16659.716267551932, 0.054, 0.9500000000000001, 0.10200000000000001, 192.0, 0.0, 0.0, 0.0, 0.0, 0.0, 0.0, 0.0, 0.0, 0.0, 1.6665553818761485E9, 0.0, 2022-10-23 13:03:01.876
254.0, -67182.23597791624, -98357.55507440033, 56798.196649336416, 4575.267979534624, 84844.2268185886, 66540.98678123794, 24788.308118380086, 17871.069058307297, 0.054, 0.9500000000000001, 0.10200000000000001, 192.0, 0.0, 0.0, 0.0, 0.0, 0.0, 0.0, 0.0, 0.0, 0.0, 1.6665553818762548E9, 0.0, 2022-10-23 13:03:01.876
255.0, -67103.22256126674, -98283.52609676434, 55179.1256879718, 3567.316063322552, 84432.41827874402, 65712.18409683515, 23609.052432662542, 16466.328974524615, 0.054, 0.9500000000000001, 0.10200000000000001, 192.0, 0.0, 0.0, 0.0, 0.0, 0.0, 0.0, 0.0, 0.0, 0.0, 1.6665553818762848E9, 0.0, 2022-10-23 13:03:01.876
0.0, -67118.80172715208, -98292.13151837964, 53799.53131670134, 2971.73148056644, 84510.06823898175, 65183.29711953368, 22826.56256277115, 15759.902091014636, 0.054, 0.9500000000000001, 0.10200000000000001, 192.0, 0.0, 0.0, 0.0, 0.0, 0.0, 0.0, 0.0, 0.0, 0.0, 1.6665553818763154E9, 0.0, 2022-10-23 13:03:01.876
1.0, -67159.72777124975, -98336.29856542332, 54439.84174011252, 3429.361096544397, 84726.5001805425, 65558.94053684956, 23361.14923490873, 16450.906270850453, 0.054, 0.9500000000000001, 0.10200000000000001, 192.0, 0.0, 0.0, 0.0, 0.0, 0.0, 0.0, 0.0, 0.0, 0.0, 1.6665553818763456E9, 0.0, 2022-10-23 13:03:01.876
2.0, -67173.18352141185, -98352.43652492005, 56681.29702583516, 4569.52358120961, 84893.89239476829, 66532.64958055611, 24754.80285344158, 17857.255680233917, 0.054, 0.9500000000000001, 0.10200000000000001, 192.0, 0.0, 0.0, 0.0, 0.0, 0.0, 0.0, 0.0, 0.0, 0.0, 1.6665553818763723E9, 0.0, 2022-10-23 13:03:01.876
3.0, -67087.62104363693, -98265.75645992237, 55684.900961506486, 3853.910130728499, 84495.11492194116, 65953.69469567474, 23939.25475350079, 16809.69647284704, 0.054, 0.9500000000000001, 0.10200000000000001, 192.0, 0.0, 0.0, 0.0, 0.0, 0.0, 0.0, 0.0, 0.0, 0.0, 1.6665553818763933E9, 0.0, 2022-10-23 13:03:01.876
4.0, -67105.03305256761, -98277.60288448368, 53852.81787548279, 2965.2047711854902, 84453.69713946547, 65173.30588976215, 22814.671434720927, 15719.087805639245, 0.046, 0.9580000000000001, 0.11, 192.0, 1.0, 112.0, 29.0, 240.0, 3.0, 112.0, 0.0, 0.0, 0.0, 1.666555381876414E9, 0.0, 2022-10-23 13:03:01.876
5.0, -67153.82691071354, -98323.66982980608, 54165.63053913481, 3266.0145480650126, 84673.61595316124, 65417.67751189203, 23154.954392308522, 16222.270276817117, 0.046, 0.9580000000000001, 0.11, 192.0, 0.0, 0.0, 0.0, 0.0, 0.0, 0.0, 0.0, 0.0, 0.0, 1.6665553818764408E9, 0.0, 2022-10-23 13:03:01.876
6.0, -67188.87444601947, -98357.8679988227, 56353.978080031644, 4420.437445692712, 84893.78063604601, 66397.53328532378, 24558.107502234878, 17685.460172350427, 0.046, 0.9580000000000001, 0.11, 192.0, 0.0, 0.0, 0.0, 0.0, 0.0, 0.0, 0.0, 0.0, 0.0, 1.6665553818764849E9, 0.0, 2022-10-23 13:03:01.876
7.0, -67110.79980263708, -98289.42695730054, 56155.98632764654, 4126.6237648277, 84577.4587485145, 66180.6766606184, 24257.767111988916, 17158.182520649734, 0.046, 0.9580000000000001, 0.11, 192.0, 0.0, 0.0, 0.0, 0.0, 0.0, 0.0, 0.0, 0.0, 0.0, 1.6665553818765051E9, 0.0, 2022-10-23 13:03:01.876
8.0, -67091.89022682789, -98264.66122444406, 54017.19260420711, 3028.9966498609365, 84420.03541231579, 65235.22022190336, 22897.216426994375, 15766.294689928853, 0.046, 0.9580000000000001, 0.11, 192.0, 0.0, 0.0, 0.0, 0.0, 0.0, 0.0, 0.0, 0.0, 0.0, 1.666555381876526E9, 0.0, 2022-10-23 13:03:01.876
9.0, -67137.30897156107, -98303.3073906073, 54006.7990430354, 3172.1819248416336, 84644.46927839152, 65340.832214454684, 23035.909001339558, 16072.379478499828, 0.046, 0.9580000000000001, 0.11, 192.0, 0.0, 0.0, 0.0, 0.0, 0.0, 0.0, 0.0, 0.0, 0.0, 1.6665553818765466E9, 0.0, 2022-10-23 13:03:01.876
10.0, -67187.26512041868, -98352.43652492005, 55963.42604916407, 4236.594347547812, 84882.87298475183, 66243.97680091581, 24328.82330761234, 17463.619108631505, 0.046, 0.9580000000000001, 0.11, 192.0, 0.0, 0.0, 0.0, 0.0, 0.0, 0.0, 0.0, 0.0, 0.0, 1.6665553818765671E9, 0.0, 2022-10-23 13:03:01.876
11.0, -67127.47420400074, -98298.9040969496, 56552.729791728234, 4363.954587454151, 84669.88321183721, 66383.65285201702, 24539.197926425688, 17486.484943209285, 0.046, 0.9580000000000001, 0.11, 192.0, 0.0, 0.0, 0.0, 0.0, 0.0, 0.0, 0.0, 0.0, 0.0, 1.6665553818765876E9, 0.0, 2022-10-23 13:03:01.876
12.0, -67096.31587223004, -98270.31621579126, 54268.44856362922, 3134.5415871788964, 84412.45817094544, 65344.38614182307, 23042.74863514288, 15889.251636177498, 0.046, 0.9580000000000001, 0.11, 192.0, 0.0, 0.0, 0.0, 0.0, 0.0, 0.0, 0.0, 0.0, 0.0, 1.6665553818766084E9, 0.0, 2022-10-23 13:03:01.876
13.0, -67147.5013670327, -98319.7582745264, 53907.84787033175, 3088.3181796453214, 84594.17785336707, 65284.95285331641, 22949.1171776196, 15944.68396242666, 0.044, 0.9520000000000001, 0.10200000000000001, 192.0, 1.0, 96.0, 29.0, 192.0, 3.0, 48.0, 0.0, 0.0, 0.0, 1.6665553818766549E9, 0.0, 2022-10-23 13:03:01.876
14.0, -67193.52360886618, -98361.22076049099, 55498.95679938279, 3982.7902892577995, 84832.53685623847, 66034.29508618059, 24029.89107726706, 17154.650945025794, 0.044, 0.9520000000000001, 0.10200000000000001, 192.0, 0.0, 0.0, 0.0, 0.0, 0.0, 0.0, 0.0, 0.0, 0.0, 1.6665553818766656E9, 0.0, 2022-10-23 13:03:01.876
15.0, -67151.21175661228, -98326.37439088516, 56801.907038916, 4519.209804440714, 84752.53996283293, 66518.47857457145, 24723.64452167088, 17716.730262843404, 0.044, 0.9520000000000001, 0.10200000000000001, 192.0, 0.0, 0.0, 0.0, 0.0, 0.0, 0.0, 0.0, 0.0, 0.0, 1.6665553818766763E9, 0.0, 2022-10-23 13:03:01.876
17.0, -67123.16031732087, -98295.41722481456, 53782.90161882659, 2980.1580882260905, 84543.32763473125, 65189.130924836514, 22822.226324346822, 15805.343187492275, 0.044, 0.9520000000000001, 0.10200000000000001, 192.0, 0.0, 0.0, 0.0, 0.0, 0.0, 0.0, 0.0, 0.0, 0.0, 1.6665553818767233E9, 0.0, 2022-10-23 13:03:01.876
