%OpenBCI Raw EEG Data
%Number of channels = 8
%Sample Rate = 250 Hz
%Board = OpenBCI_GUI$BoardCytonSerial
Sample Index, EXG Channel 0, EXG Channel 1, EXG Channel 2, EXG Channel 3, EXG Channel 4, EXG Channel 5, EXG Channel 6, EXG Channel 7, Accel Channel 0, Accel Channel 1, Accel Channel 2, Other, Other, Other, Other, Other, Other, Other, Analog Channel 0, Analog Channel 1, Analog Channel 2, Timestamp, Other, Timestamp (Formatted)
94.0, -68967.98389768408, -100371.11197365666, 54914.88336502116, 9964.944120042815, 86320.06780148362, 69184.90757762284, 27789.186273716245, 18991.80787704085, 0.0, 0.0, 0.0, 192.0, 0.0, 0.0, 0.0, 0.0, 0.0, 0.0, 0.0, 0.0, 0.0, 1.6665554555003443E9, 0.0, 2022-10-23 13:04:15.500
95.0, -68975.67289777672, -100380.96909296144, 56925.221613075926, 10912.009884358631, 86410.70412524989, 70018.38177661679, 28999.667346437855, 20139.055864698395, 0.0, 0.0, 0.0, 192.0, 0.0, 0.0, 0.0, 0.0, 0.0, 0.0, 0.0, 0.0, 0.0, 1.6665554555003633E9, 0.0, 2022-10-23 13:04:15.500
96.0, -68905.53312367597, -100312.88567935058, 55208.47352844162, 9865.300043261057, 85980.27658227403, 69167.04853380306, 27772.601279330407, 18690.08167863866, 0.0, 0.0, 0.0, 192.0, 0.0, 0.0, 0.0, 0.0, 0.0, 0.0, 0.0, 0.0, 0.0, 1.666555455500373E9, 0.0, 2022-10-23 13:04:15.500
97.0, -68923.74979540704, -100327.66018243555, 53865.31250063331, 9290.860210759665, 86014.74297222412, 68643.23540249294, 26997.979223487288, 18006.587684939826, 0.0, 0.0, 0.0, 192.0, 0.0, 0.0, 0.0, 0.0, 0.0, 0.0, 0.0, 0.0, 0.0, 1.6665554555003831E9, 0.0, 2022-10-23 13:04:15.500
98.0, -68963.60295577085, -100364.69702299798, 54548.13594199848, 9766.572388001965, 86251.358539028, 69024.2432384781, 27551.140195267224, 18719.720091786396, 0.0, 0.0, 0.0, 192.0, 0.0, 0.0, 0.0, 0.0, 0.0, 0.0, 0.0, 0.0, 0.0, 1.6665554555003955E9, 0.0, 2022-10-23 13:04:15.500
99.0, -68992.50376135156, -100399.20811643697, 56768.64764316651, 10870.502694905126, 86439.2473029193, 69979.13211335328, 28935.339025895482, 20101.057899124375, 0.0, 0.0, 0.0, 192.0, 0.0, 0.0, 0.0, 0.0, 0.0, 0.0, 0.0, 0.0, 0.0, 1.6665554555004084E9, 0.0, 2022-10-23 13:04:15.500
100.0, -68904.14731551973, -100320.03823757629, 55633.96133589284, 10095.85828731755, 86034.30074862251, 69365.26380363271, 28056.200212979344, 18987.09165896078, 0.046, 0.96, 0.08600000000000001, 192.0, 1.0, 112.0, 30.0, 0.0, 2.0, 176.0, 0.0, 0.0, 0.0, 1.6665554555004203E9, 0.0, 2022-10-23 13:04:15.500
101.0, -68912.75273713503, -100325.64852543456, 53873.44853561503, 9275.906893719066, 85985.77511141004, 68637.13337625664, 26988.211511160316, 17965.304012930872, 0.046, 0.96, 0.08600000000000001, 192.0, 0.0, 0.0, 0.0, 0.0, 0.0, 0.0, 0.0, 0.0, 0.0, 1.666555455500436E9, 0.0, 2022-10-23 13:04:15.500
102.0, -68954.7293132221, -100363.80295321977, 54201.840365152406, 9581.27642646747, 86198.92134653585, 68867.42339937967, 27326.371053024657, 18472.688612066344, 0.046, 0.96, 0.08600000000000001, 192.0, 0.0, 0.0, 0.0, 0.0, 0.0, 0.0, 0.0, 0.0, 0.0, 1.6665554555004492E9, 0.0, 2022-10-23 13:04:15.500
103.0, -68993.80016252997, -100400.1468897041, 56397.09459508593, 10715.78391978549, 86444.83523903314, 69831.00710284796, 28730.038253073486, 19933.464519198482, 0.046, 0.96, 0.08600000000000001, 192.0, 0.0, 0.0, 0.0, 0.0, 0.0, 0.0, 0.0, 0.0, 0.0, 1.6665554555004623E9, 0.0, 2022-10-23 13:04:15.500
104.0, -68918.22891452658, -100331.52703422631, 56042.08183790229, 10337.368886157143, 86124.71355494423, 69560.6180501721, 28344.98475134191, 19322.390177534842, 0.046, 0.96, 0.08600000000000001, 192.0, 0.0, 0.0, 0.0, 0.0, 0.0, 0.0, 0.0, 0.0, 0.0, 1.6665554555004752E9, 0.0, 2022-10-23 13:04:15.500
105.0, -68904.14731551973, -100319.41238873154, 53976.646539765185, 9316.184737227528, 85961.41170995375, 68675.53367323085, 27044.001465320765, 18006.118298306264, 0.046, 0.96, 0.08600000000000001, 192.0, 0.0, 0.0, 0.0, 0.0, 0.0, 0.0, 0.0, 0.0, 0.0, 1.6665554555004876E9, 0.0, 2022-10-23 13:04:15.500
106.0, -68943.66519971672, -100356.89626418309, 53973.69610949709, 9457.96185230754, 86151.93797969079, 68760.06797076082, 27166.734894124857, 18301.474249538693, 0.046, 0.96, 0.08600000000000001, 192.0, 0.0, 0.0, 0.0, 0.0, 0.0, 0.0, 0.0, 0.0, 0.0, 1.6665554555005004E9, 0.0, 2022-10-23 13:04:15.500
107.0, -68993.66605206324, -100401.55504960478, 55989.24231400995, 10545.08364738031, 86432.43002086044, 69684.67023189906, 28500.239968328475, 19726.17444111996, 0.046, 0.96, 0.08600000000000001, 192.0, 0.0, 0.0, 0.0, 0.0, 0.0, 0.0, 0.0, 0.0, 0.0, 1.6665554555005133E9, 0.0, 2022-10-23 13:04:15.500
108.0, -68934.81390891242, -100345.63098497762, 56415.42302553928, 10576.644310551204, 86201.11181749246, 69757.84984324573, 28618.883027897245, 19644.188242457898, 0.046, 0.96, 0.08600000000000001, 192.0, 0.0, 0.0, 0.0, 0.0, 0.0, 0.0, 0.0, 0.0, 0.0, 1.6665554555005264E9, 0.0, 2022-10-23 13:04:15.500
109.0, -68904.19201900864, -100311.76809212782, 54132.7287712966, 9375.752136200921, 85915.50122684255, 68729.49078434597, 27128.871039017566, 18074.604043317326, 0.046, 0.9580000000000001, 0.092, 192.0, 1.0, 112.0, 29.0, 240.0, 2.0, 224.0, 0.0, 0.0, 0.0, 1.6665554555005393E9, 0.0, 2022-10-23 13:04:15.500
110.0, -68939.35131303684, -100345.49687451088, 53828.56623274878, 9374.18751408905, 86105.2228337792, 68692.81157169481, 27066.26380279825, 18174.583396265913, 0.046, 0.9580000000000001, 0.092, 192.0, 0.0, 0.0, 0.0, 0.0, 0.0, 0.0, 0.0, 0.0, 0.0, 1.6665554555006561E9, 0.0, 2022-10-23 13:04:15.500
111.0, -68985.75353452605, -100391.4967645999, 55492.430090001835, 10300.153231639057, 86378.04822660067, 69467.38892404901, 28195.33982221363, 19428.18098404181, 0.046, 0.9580000000000001, 0.092, 192.0, 0.0, 0.0, 0.0, 0.0, 0.0, 0.0, 0.0, 0.0, 0.0, 1.6665554555006669E9, 0.0, 2022-10-23 13:04:15.500
112.0, -68949.9683916531, -100363.84765670868, 56665.78491518318, 10746.294050966984, 86282.5168707987, 69888.85341749829, 28814.483143625635, 19896.494733869404, 0.046, 0.9580000000000001, 0.092, 192.0, 0.0, 0.0, 0.0, 0.0, 0.0, 0.0, 0.0, 0.0, 0.0, 1.666555455500677E9, 0.0, 2022-10-23 13:04:15.500
113.0, -68892.18913223615, -100309.46586244892, 54406.06825424055, 9500.139594094706, 85910.29327038447, 68837.29324785392, 27294.050430542284, 18235.089568506428, 0.046, 0.9580000000000001, 0.092, 192.0, 0.0, 0.0, 0.0, 0.0, 0.0, 0.0, 0.0, 0.0, 0.0, 1.6665554555006876E9, 0.0, 2022-10-23 13:04:15.500
114.0, -68925.2250105411, -100337.98668837389, 53734.75596126985, 9305.724120822444, 86066.0625774935, 68632.01482677637, 26985.43989484786, 18078.76146778601, 0.046, 0.9580000000000001, 0.092, 192.0, 0.0, 0.0, 0.0, 0.0, 0.0, 0.0, 0.0, 0.0, 0.0, 1.6665554555006979E9, 0.0, 2022-10-23 13:04:15.500
115.0, -68975.44938033217, -100387.0934709422, 55079.59336991231, 10108.33056072361, 86356.83642111259, 69303.84120986954, 27947.660141904373, 19180.925986877202, 0.046, 0.9580000000000001, 0.092, 192.0, 0.0, 0.0, 0.0, 0.0, 0.0, 0.0, 0.0, 0.0, 0.0, 1.666555455500708E9, 0.0, 2022-10-23 13:04:15.500
116.0, -68955.39986555575, -100372.14015390161, 56808.2102308524, 10874.682471118269, 86365.86652587254, 69986.35172681234, 28946.090214978485, 20078.706154669067, 0.046, 0.9580000000000001, 0.092, 192.0, 0.0, 0.0, 0.0, 0.0, 0.0, 0.0, 0.0, 0.0, 0.0, 1.6665554555007212E9, 0.0, 2022-10-23 13:04:15.500
117.0, -68880.63328035275, -100298.96054255492, 54791.47938388341, 9703.696930849186, 85955.39909069528, 69013.9390842842, 27545.26168647548, 18486.010251761705, 0.046, 0.9580000000000001, 0.092, 192.0, 0.0, 0.0, 0.0, 0.0, 0.0, 0.0, 0.0, 0.0, 0.0, 1.6665554555007317E9, 0.0, 2022-10-23 13:04:15.500
118.0, -68918.43008022668, -100333.5833947162, 53738.37694387161, 9306.595838856201, 86057.0101209891, 68635.9487338005, 26981.48363607927, 18038.03658938844, 0.046, 0.9580000000000001, 0.092, 192.0, 0.0, 0.0, 0.0, 0.0, 0.0, 0.0, 0.0, 0.0, 0.0, 1.666555455500742E9, 0.0, 2022-10-23 13:04:15.500
119.0, -68965.45815056063, -100379.78445050532, 54660.07347823065, 9896.19015409829, 86297.4701878393, 69115.88539074485, 27680.020353796524, 18887.939320557038, 0.048, 0.9500000000000001, 0.08600000000000001, 192.0, 1.0, 128.0, 29.0, 176.0, 2.0, 176.0, 0.0, 0.0, 0.0, 1.6665554555007522E9, 0.0, 2022-10-23 13:04:15.500
120.0, -68972.18602564168, -100386.35586337518, 56725.776997301225, 10872.9166833063, 86401.67402048994, 69960.60251719982, 28924.00669145664, 20097.816896178352, 0.048, 0.9500000000000001, 0.08600000000000001, 192.0, 0.0, 0.0, 0.0, 0.0, 0.0, 0.0, 0.0, 0.0, 0.0, 1.6665554555007863E9, 0.0, 2022-10-23 13:04:15.500
121.0, -68895.27367297097, -100312.48334795039, 55191.15092648875, 9911.076415905525, 85988.05498934448, 69178.64908917536, 27802.999651789625, 18757.986278293884, 0.048, 0.9500000000000001, 0.08600000000000001, 192.0, 0.0, 0.0, 0.0, 0.0, 0.0, 0.0, 0.0, 0.0, 0.0, 1.6665554555008273E9, 0.0, 2022-10-23 13:04:15.500
122.0, -68915.25613251403, -100327.39196150207, 53730.06209493424, 9277.06918443074, 86012.39603905632, 68606.06445146375, 26954.549784010625, 17988.46042018657, 0.048, 0.9500000000000001, 0.08600000000000001, 192.0, 0.0, 0.0, 0.0, 0.0, 0.0, 0.0, 0.0, 0.0, 0.0, 1.6665554555008686E9, 0.0, 2022-10-23 13:04:15.500
123.0, -68956.07041788941, -100366.12753464312, 54324.99847710115, 9721.757140369074, 86257.32645479757, 68968.07330466191, 27468.4834442715, 18660.26445153528, 0.048, 0.9500000000000001, 0.08600000000000001, 192.0, 0.0, 0.0, 0.0, 0.0, 0.0, 0.0, 0.0, 0.0, 0.0, 1.6665554555009098E9, 0.0, 2022-10-23 13:04:15.500
124.0, -68977.90807222224, -100389.194534921, 56550.67343123835, 10836.818616010978, 86454.71471008238, 69924.01271152648, 28860.795958137034, 20069.720753398033, 0.048, 0.9500000000000001, 0.08600000000000001, 192.0, 0.0, 0.0, 0.0, 0.0, 0.0, 0.0, 0.0, 0.0, 0.0, 1.6665554555009513E9, 0.0, 2022-10-23 13:04:15.500
125.0, -68904.37083296428, -100320.0829410652, 55682.576380083134, 10190.294407641222, 86074.82446131998, 69418.32684496962, 28143.372016355042, 19119.369282647287, 0.048, 0.9500000000000001, 0.08600000000000001, 192.0, 0.0, 0.0, 0.0, 0.0, 0.0, 0.0, 0.0, 0.0, 0.0, 1.666555455500992E9, 0.0, 2022-10-23 13:04:15.500
126.0, -68909.9140655892, -100322.36281899964, 53821.54778498981, 9303.22072544345, 85975.33684674941, 68637.33454195673, 26997.57689208709, 17996.864676101766, 0.048, 0.9500000000000001, 0.08600000000000001, 192.0, 0.0, 0.0, 0.0, 0.0, 0.0, 0.0, 0.0, 0.0, 0.0, 1.666555455501143E9, 0.0, 2022-10-23 13:04:15.501
127.0, -68941.34061829337, -100352.64943273658, 54036.079828271846, 9551.07921970835, 86183.31982890604, 68817.13197435522, 27260.589869092688, 18431.762567968675, 0.048, 0.9500000000000001, 0.08600000000000001, 192.0, 0.0, 0.0, 0.0, 0.0, 0.0, 0.0, 0.0, 0.0, 0.0, 1.6665554555011537E9, 0.0, 2022-10-23 13:04:15.501
128.0, -68984.32302288093, -100394.8942297571, 56201.539182846456, 10685.474954304094, 86456.41344266098, 69786.63889010416, 28663.05007494093, 19903.624940350644, 0.048, 0.9500000000000001, 0.08600000000000001, 192.0, 0.0, 0.0, 0.0, 0.0, 0.0, 0.0, 0.0, 0.0, 0.0, 1.6665554555011644E9, 0.0, 2022-10-23 13:04:15.501
129.0, -68907.74594637704, -100325.73793241239, 56131.73468491253, 10450.73693403446, 86158.26352337164, 69638.02214122083, 28456.184680007063, 19478.71827825526, 0.044, 0.9580000000000001, 0.092, 192.0, 1.0, 96.0, 29.0, 240.0, 2.0, 224.0, 0.0, 0.0, 0.0, 1.6665554555011747E9, 0.0, 2022-10-23 13:04:15.501
130.0, -68894.42430668167, -100308.79531011527, 53988.336502115315, 9365.38092677366, 85954.39326219479, 68705.75323173443, 27089.554320520678, 18069.351383370325, 0.044, 0.9580000000000001, 0.092, 192.0, 0.0, 0.0, 0.0, 0.0, 0.0, 0.0, 0.0, 0.0, 0.0, 1.666555455501186E9, 0.0, 2022-10-23 13:04:15.501
131.0, -68944.8721939173, -100353.9905374039, 53906.730283108984, 9466.6343291562, 86144.87482844292, 68764.04658127387, 27166.08669353565, 18306.324578085492, 0.044, 0.9580000000000001, 0.092, 192.0, 0.0, 0.0, 0.0, 0.0, 0.0, 0.0, 0.0, 0.0, 0.0, 1.6665554555011966E9, 0.0, 2022-10-23 13:04:15.501
132.0, -68994.24719741907, -100402.33736066072, 55814.854003769644, 10500.804841614348, 86426.17153241296, 69640.3914261331, 28433.58706636275, 19670.809170104167, 0.044, 0.9580000000000001, 0.092, 192.0, 0.0, 0.0, 0.0, 0.0, 0.0, 0.0, 0.0, 0.0, 0.0, 1.6665554555012083E9, 0.0, 2022-10-23 13:04:15.501
133.0, -68937.78669092497, -100355.66691823804, 56536.68123920933, 10688.425384572194, 86241.38966100094, 69849.9837338905, 28743.896334635778, 19790.323947706693, 0.044, 0.9580000000000001, 0.092, 192.0, 0.0, 0.0, 0.0, 0.0, 0.0, 0.0, 0.0, 0.0, 0.0, 1.6665554555012188E9, 0.0, 2022-10-23 13:04:15.501
134.0, -68890.87037931327, -100312.23747876138, 54246.81207499649, 9463.236863998993, 85928.35347990436, 68806.89487539469, 27231.15262164505, 18171.141227619795, 0.044, 0.9580000000000001, 0.092, 192.0, 0.0, 0.0, 0.0, 0.0, 0.0, 0.0, 0.0, 0.0, 0.0, 1.6665554555012293E9, 0.0, 2022-10-23 13:04:15.501
135.0, -68936.06560660191, -100352.9400054145, 53859.836323241754, 9421.997895478951, 86119.43854325278, 68739.10203446174, 27115.50469583329, 18203.618312313356, 0.044, 0.9580000000000001, 0.092, 192.0, 0.0, 0.0, 0.0, 0.0, 0.0, 0.0, 0.0, 0.0, 0.0, 1.6665554555012395E9, 0.0, 2022-10-23 13:04:15.501
136.0, -68976.85754023284, -100389.90979074356, 55445.29026094559, 10318.883993492604, 86395.14731110899, 69497.80964825269, 28204.52638918476, 19410.925437322312, 0.044, 0.9580000000000001, 0.092, 192.0, 0.0, 0.0, 0.0, 0.0, 0.0, 0.0, 0.0, 0.0, 0.0, 1.6665554555012498E9, 0.0, 2022-10-23 13:04:15.501
137.0, -68952.51649052101, -100367.13336314361, 56838.608603311615, 10877.029404286075, 86331.44483941137, 70014.51492482603, 28962.3846366864, 20030.87342153471, 0.044, 0.9580000000000001, 0.092, 192.0, 0.0, 0.0, 0.0, 0.0, 0.0, 0.0, 0.0, 0.0, 0.0, 1.6665554555012617E9, 0.0, 2022-10-23 13:04:15.501
138.0, -68897.50884741651, -100314.00326657335, 54649.41169612548, 9643.86131094233, 85942.65859635576, 68985.64177580379, 27469.265755327437, 18373.469218429236, 0.042, 0.9580000000000001, 0.092, 192.0, 1.0, 80.0, 29.0, 240.0, 2.0, 224.0, 0.0, 0.0, 0.0, 1.666555455501272E9, 0.0, 2022-10-23 13:04:15.501
139.0, -68935.21624031261, -100348.96139490145, 53825.66050596959, 9355.926138869065, 86061.52517336908, 68701.4169933101, 27049.365883990038, 18088.126848712785, 0.042, 0.9580000000000001, 0.092, 192.0, 0.0, 0.0, 0.0, 0.0, 0.0, 0.0, 0.0, 0.0, 0.0, 1.6665554555012832E9, 0.0, 2022-10-23 13:04:15.501
140.0, -68988.12281943831, -100397.3976251361, 54994.76849970443, 10059.313185133122, 86320.96187126182, 69279.61191887998, 27892.428981355308, 19073.68231698064, 0.042, 0.9580000000000001, 0.092, 192.0, 0.0, 0.0, 0.0, 0.0, 0.0, 0.0, 0.0, 0.0, 0.0, 1.6665554555012963E9, 0.0, 2022-10-23 13:04:15.501
141.0, -68981.4843513351, -100395.58713383522, 56867.21883621441, 10910.087634335476, 86361.26206651474, 70024.68496855319, 28987.73151489872, 20095.40290777718, 0.042, 0.9580000000000001, 0.092, 192.0, 0.0, 0.0, 0.0, 0.0, 0.0, 0.0, 0.0, 0.0, 0.0, 1.6665554555013185E9, 0.0, 2022-10-23 13:04:15.501
142.0, -68904.25907424201, -100327.32490626871, 55020.92004071713, 9815.61211533691, 85950.07937551492, 69126.90480076132, 27685.96591782164, 18588.649462300476, 0.042, 0.9580000000000001, 0.092, 192.0, 0.0, 0.0, 0.0, 0.0, 0.0, 0.0, 0.0, 0.0, 0.0, 1.6665554555013304E9, 0.0, 2022-10-23 13:04:15.501
143.0, -68926.05202508594, -100344.51339775484, 53825.19111933603, 9335.161368270084, 86025.69532700723, 68681.4121820226, 27019.191028975372, 18024.51378399298, 0.042, 0.9580000000000001, 0.092, 192.0, 0.0, 0.0, 0.0, 0.0, 0.0, 0.0, 0.0, 0.0, 0.0, 1.6665554555013413E9, 0.0, 2022-10-23 13:04:15.501
144.0, -68975.58349079889, -100389.17218317655, 54642.48265534433, 9878.375813767412, 86278.24768760773, 69127.57535309499, 27661.356647176344, 18821.219363357945, 0.042, 0.9580000000000001, 0.092, 192.0, 0.0, 0.0, 0.0, 0.0, 0.0, 0.0, 0.0, 0.0, 0.0, 1.666555455501352E9, 0.0, 2022-10-23 13:04:15.501
145.0, -68980.4785228346, -100399.61044783717, 56822.738864748346, 10934.49573928067, 86425.81390450167, 70045.33798042989, 28999.443828993302, 20136.865393741777, 0.042, 0.9580000000000001, 0.092, 192.0, 0.0, 0.0, 0.0, 0.0, 0.0, 0.0, 0.0, 0.0, 0.0, 1.6665554555013633E9, 0.0, 2022-10-23 13:04:15.501
146.0, -68890.46804791309, -100319.90412710955, 55501.527249995146, 10063.247092157257, 86008.79740819901, 69342.82265219958, 27999.11385764049, 18903.1608585311, 0.042, 0.9580000000000001, 0.092, 192.0, 0.0, 0.0, 0.0, 0.0, 0.0, 0.0, 0.0, 0.0, 0.0, 1.666555455501374E9, 0.0, 2022-10-23 13:04:15.501
147.0, -68917.35719649281, -100338.74664768537, 53898.840117316264, 9340.27991775035, 85994.33582953643, 68696.03022289637, 27043.956761831854, 18001.13385929273, 0.042, 0.9580000000000001, 0.092, 192.0, 0.0, 0.0, 0.0, 0.0, 0.0, 0.0, 0.0, 0.0, 0.0, 1.6665554555013852E9, 0.0, 2022-10-23 13:04:15.501
148.0, -68958.23853710157, -100376.96813070394, 54354.39102105988, 9711.58709664191, 86225.4528672043, 68989.3298136389, 27462.783749435395, 18580.91575871894, 0.042, 0.962, 0.092, 192.0, 1.0, 80.0, 30.0, 16.0, 2.0, 224.0, 0.0, 0.0, 0.0, 1.6665554555013957E9, 0.0, 2022-10-23 13:04:15.501
149.0, -68988.77102002753, -100411.88155554314, 56578.546056574116, 10840.14902593482, 86450.3561199136, 69957.3615142538, 28867.970868107186, 20025.62076158771, 0.042, 0.962, 0.092, 192.0, 0.0, 0.0, 0.0, 0.0, 0.0, 0.0, 0.0, 0.0, 0.0, 1.6665554555014071E9, 0.0, 2022-10-23 13:04:15.501
150.0, -68912.9091993462, -100342.61349947614, 56003.256857783424, 10342.062752492757, 86095.34336272995, 69589.22828307489, 28339.17329778353, 19261.794598316505, 0.042, 0.962, 0.092, 192.0, 0.0, 0.0, 0.0, 0.0, 0.0, 0.0, 0.0, 0.0, 0.0, 1.6665554555014179E9, 0.0, 2022-10-23 13:04:15.501
151.0, -68899.40874569521, -100324.62034518961, 54023.80872056589, 9374.6121972337, 85963.78099486601, 68746.90279327665, 27100.774896237243, 18025.117281093273, 0.042, 0.962, 0.092, 192.0, 0.0, 0.0, 0.0, 0.0, 0.0, 0.0, 0.0, 0.0, 0.0, 1.6665554555014284E9, 0.0, 2022-10-23 13:04:15.501
152.0, -68933.76337692302, -100353.65526123706, 54128.28077414999, 9568.737097828043, 86176.12256719143, 68879.0016030075, 27292.35169796368, 18387.148486035883, 0.042, 0.962, 0.092, 192.0, 0.0, 0.0, 0.0, 0.0, 0.0, 0.0, 0.0, 0.0, 0.0, 1.6665554555014389E9, 0.0, 2022-10-23 13:04:15.501
153.0, -68979.24917688957, -100394.2460291679, 56204.668427070195, 10665.425439527684, 86446.48926812282, 69810.7787741159, 28645.52630728797, 19822.666921933524, 0.042, 0.962, 0.092, 192.0, 0.0, 0.0, 0.0, 0.0, 0.0, 0.0, 0.0, 0.0, 0.0, 1.6665554555014496E9, 0.0, 2022-10-23 13:04:15.501
154.0, -68916.15020229224, -100339.59601397467, 56396.87107764138, 10559.209949876065, 86178.22363117023, 69767.2152241725, 28600.08521081033, 19568.706401432326, 0.042, 0.962, 0.092, 192.0, 0.0, 0.0, 0.0, 0.0, 0.0, 0.0, 0.0, 0.0, 0.0, 1.6665554555014603E9, 0.0, 2022-10-23 13:04:15.501
155.0, -68883.4048966652, -100308.08005429269, 54146.45274239215, 9390.280770096871, 85931.6838898282, 68757.11754049272, 27136.649446088013, 18049.212461616095, 0.042, 0.962, 0.092, 192.0, 0.0, 0.0, 0.0, 0.0, 0.0, 0.0, 0.0, 0.0, 0.0, 1.6665554555014708E9, 0.0, 2022-10-23 13:04:15.501
156.0, -68941.60883922683, -100362.57360727472, 53945.28704229439, 9441.86859629972, 86139.84568594047, 68763.89011906268, 27136.649446088013, 18217.811670042476, 0.042, 0.962, 0.092, 192.0, 0.0, 0.0, 0.0, 0.0, 0.0, 0.0, 0.0, 0.0, 0.0, 1.6665554555014815E9, 0.0, 2022-10-23 13:04:15.501
157.0, -68998.24815967657, -100414.8990410446, 55753.87844489556, 10443.204396153022, 86421.7011835219, 69612.29528335277, 28358.52990848183, 19548.567479678095, 0.042, 0.962, 0.092, 192.0, 0.0, 0.0, 0.0, 0.0, 0.0, 0.0, 0.0, 0.0, 0.0, 1.6665554555015225E9, 0.0, 2022-10-23 13:04:15.501
158.0, -68941.63119097128, -100364.36174683116, 56725.2405554343, 10768.489333211104, 86272.19036486035, 69935.41210119869, 28835.89611481382, 19854.942840926986, 0.046, 0.962, 0.1, 192.0, 1.0, 112.0, 30.0, 16.0, 3.0, 32.0, 0.0, 0.0, 0.0, 1.6665554555015347E9, 0.0, 2022-10-23 13:04:15.501
159.0, -68882.1084954868, -100307.56596417022, 54420.48512941422, 9510.756672710977, 85923.9278345022, 68868.51863485797, 27294.564520664757, 18191.928349963233, 0.046, 0.962, 0.1, 192.0, 0.0, 0.0, 0.0, 0.0, 0.0, 0.0, 0.0, 0.0, 0.0, 1.6665554555015464E9, 0.0, 2022-10-23 13:04:15.501
160.0, -68912.64097841275, -100332.64462144907, 53857.534093562856, 9375.752136200921, 86094.44929295174, 68714.11278416071, 27059.44652073938, 18110.63505537928, 0.046, 0.962, 0.1, 192.0, 0.0, 0.0, 0.0, 0.0, 0.0, 0.0, 0.0, 0.0, 0.0, 1.6665554555015574E9, 0.0, 2022-10-23 13:04:15.501
161.0, -68966.75455173905, -100385.46179359696, 55293.85719226089, 10214.16607071949, 86385.60311622657, 69415.82344959062, 28070.013591052724, 19258.687705837216, 0.046, 0.962, 0.1, 192.0, 0.0, 0.0, 0.0, 0.0, 0.0, 0.0, 0.0, 0.0, 0.0, 1.6665554555015683E9, 0.0, 2022-10-23 13:04:15.501
162.0, -68950.23661258658, -100373.03422367982, 56916.2362118049, 10914.49092799317, 86363.29607526018, 70051.17178573273, 28995.55462545808, 20067.865558608242, 0.046, 0.962, 0.1, 192.0, 0.0, 0.0, 0.0, 0.0, 0.0, 0.0, 0.0, 0.0, 0.0, 1.6665554555015793E9, 0.0, 2022-10-23 13:04:15.501
163.0, -68881.41559140869, -100306.04604554726, 54814.434625439004, 9708.34609369589, 85948.71591910314, 69046.46087246668, 27544.635837630733, 18434.914163936875, 0.046, 0.962, 0.1, 192.0, 0.0, 0.0, 0.0, 0.0, 0.0, 0.0, 0.0, 0.0, 0.0, 1.6665554555015898E9, 0.0, 2022-10-23 13:04:15.501
164.0, -68905.64488239824, -100326.76611265732, 53847.051125413316, 9347.790103887333, 86055.66901632179, 68693.90680717312, 27026.500049412258, 18046.7090662371, 0.046, 0.962, 0.1, 192.0, 0.0, 0.0, 0.0, 0.0, 0.0, 0.0, 0.0, 0.0, 0.0, 1.6665554555016005E9, 0.0, 2022-10-23 13:04:15.501
165.0, -68960.6748772472, -100378.2421801379, 54881.75807973839, 9986.290035997634, 86315.30687991463, 69222.10088039648, 27792.963718529194, 18965.432818583588, 0.046, 0.962, 0.1, 192.0, 0.0, 0.0, 0.0, 0.0, 0.0, 0.0, 0.0, 0.0, 0.0, 1.6665554555016112E9, 0.0, 2022-10-23 13:04:15.501
166.0, -68962.3289063369, -100379.51622957185, 56903.18279304299, 10933.534614269092, 86407.66428800396, 70052.62464912231, 29006.685794196823, 20125.108376158285, 0.046, 0.962, 0.1, 192.0, 0.0, 0.0, 0.0, 0.0, 0.0, 0.0, 0.0, 0.0, 0.0, 1.6665554555016217E9, 0.0, 2022-10-23 13:04:15.501
167.0, -68881.43794315314, -100302.84974609016, 55208.942915075175, 9895.29608432008, 85986.62447769934, 69203.0348423761, 27786.816988803985, 18689.902864683016, 0.046, 0.962, 0.1, 192.0, 0.0, 0.0, 0.0, 0.0, 0.0, 0.0, 0.0, 0.0, 0.0, 1.6665554555016327E9, 0.0, 2022-10-23 13:04:15.501
168.0, -68898.15704800571, -100320.7758451433, 53861.95973896501, 9326.93592631053, 86037.69821377972, 68685.10021985772, 27018.96751153082, 18009.202839041096, 0.05, 0.966, 0.094, 192.0, 1.0, 144.0, 30.0, 48.0, 2.0, 240.0, 0.0, 0.0, 0.0, 1.6665554555016432E9, 0.0, 2022-10-23 13:04:15.501
169.0, -68944.62632472829, -100366.55221778777, 54518.944563739846, 9785.660777766798, 86258.37698678697, 69052.9428783587, 27555.856413347294, 18703.55978054521, 0.05, 0.966, 0.094, 192.0, 0.0, 0.0, 0.0, 0.0, 0.0, 0.0, 0.0, 0.0, 0.0, 1.666555455501655E9, 0.0, 2022-10-23 13:04:15.501
170.0, -68960.49606329156, -100378.08571792672, 56738.629250363025, 10883.53376192257, 86436.6545005625, 70003.49551480956, 28935.24961891766, 20087.423335006635, 0.05, 0.966, 0.094, 192.0, 0.0, 0.0, 0.0, 0.0, 0.0, 0.0, 0.0, 0.0, 0.0, 1.6665554555016656E9, 0.0, 2022-10-23 13:04:15.501
171.0, -68883.98604202105, -100302.13449026758, 55686.778508040734, 10153.481084523331, 86054.9090570103, 69431.0896910536, 28109.285606060697, 19028.57649666983, 0.05, 0.966, 0.094, 192.0, 0.0, 0.0, 0.0, 0.0, 0.0, 0.0, 0.0, 0.0, 0.0, 1.6665554555016763E9, 0.0, 2022-10-23 13:04:15.501
172.0, -68916.0607953144, -100330.00711560335, 53965.78359195991, 9357.13313306965, 86008.1045041209, 68735.23518267098, 27073.349305790583, 18025.8548886603, 0.05, 0.966, 0.094, 192.0, 0.0, 0.0, 0.0, 0.0, 0.0, 0.0, 0.0, 0.0, 0.0, 1.6665554555016975E9, 0.0, 2022-10-23 13:04:15.501
173.0, -68955.75749346704, -100362.439496808, 54267.755659551105, 9637.759284706031, 86202.27410820415, 68945.90037416224, 27383.435056619055, 18500.203609490825, 0.05, 0.966, 0.094, 192.0, 0.0, 0.0, 0.0, 0.0, 0.0, 0.0, 0.0, 0.0, 0.0, 1.6665554555017085E9, 0.0, 2022-10-23 13:04:15.501
174.0, -68993.77781078551, -100394.35778789017, 56455.70086904775, 10765.60595817637, 86453.86534379308, 69907.76299330748, 28781.626079276335, 19957.47029274348, 0.05, 0.966, 0.094, 192.0, 0.0, 0.0, 0.0, 0.0, 0.0, 0.0, 0.0, 0.0, 0.0, 1.6665554555017192E9, 0.0, 2022-10-23 13:04:15.501
175.0, -68927.1696123087, -100331.41527550403, 56149.25845256549, 10402.390110777631, 86131.62024398091, 69649.77915880432, 28423.037042979842, 19375.050887471545, 0.05, 0.966, 0.094, 192.0, 0.0, 0.0, 0.0, 0.0, 0.0, 0.0, 0.0, 0.0, 0.0, 1.6665554555017297E9, 0.0, 2022-10-23 13:04:15.501
176.0, -68928.04133034246, -100325.51441496784, 54073.764869423496, 9363.749249428422, 85967.02199781204, 68754.52473813591, 27113.470687087858, 18044.742112725035, 0.05, 0.966, 0.094, 192.0, 0.0, 0.0, 0.0, 0.0, 0.0, 0.0, 0.0, 0.0, 0.0, 1.6665554555017405E9, 0.0, 2022-10-23 13:04:15.501
177.0, -68965.56990928292, -100356.85156069417, 54085.365424795804, 9516.948105925096, 86179.07299745953, 68855.77814051845, 27254.77841553431, 18349.91047977334, 0.05, 0.966, 0.094, 192.0, 1.0, 144.0, 30.0, 48.0, 2.0, 240.0, 0.0, 0.0, 0.0, 1.6665554555017512E9, 0.0, 2022-10-23 13:04:15.501
178.0, -69022.61156113286, -100406.51713687387, 56059.270329388426, 10571.034022692922, 86453.57477111516, 69749.19971814152, 28557.683951578612, 19743.47469132837, 0.05, 0.966, 0.094, 192.0, 0.0, 0.0, 0.0, 0.0, 0.0, 0.0, 0.0, 0.0, 0.0, 1.6665554555017624E9, 0.0, 2022-10-23 13:04:15.501
179.0, -68974.26473787603, -100362.14892413007, 56565.738507001224, 10641.576128193872, 86235.13117255345, 69862.05367589637, 28730.999378085064, 19717.457260782394, 0.05, 0.966, 0.094, 192.0, 0.0, 0.0, 0.0, 0.0, 0.0, 0.0, 0.0, 0.0, 0.0, 1.666555455501773E9, 0.0, 2022-10-23 13:04:15.501
180.0, -68935.39505426826, -100318.49596720886, 54274.08120323196, 9433.10671247324, 85946.74896559108, 68825.51387852596, 27230.10208965565, 18132.53976494548, 0.05, 0.966, 0.094, 192.0, 0.0, 0.0, 0.0, 0.0, 0.0, 0.0, 0.0, 0.0, 0.0, 1.666555455501785E9, 0.0, 2022-10-23 13:04:15.501
181.0, -68978.91390072273, -100352.31415656974, 53944.12475158271, 9420.992066978462, 86139.331595818, 68776.54120642439, 27153.972048040876, 18219.75627181009, 0.05, 0.966, 0.094, 192.0, 0.0, 0.0, 0.0, 0.0, 0.0, 0.0, 0.0, 0.0, 0.0, 1.6665554555017965E9, 0.0, 2022-10-23 13:04:15.501
182.0, -69030.05469203647, -100391.98850297791, 55590.643655138454, 10339.447598391485, 86412.73813399531, 69547.94461106595, 28276.767227264314, 19471.252795607186, 0.05, 0.966, 0.094, 192.0, 0.0, 0.0, 0.0, 0.0, 0.0, 0.0, 0.0, 0.0, 0.0, 1.6665554555018072E9, 0.0, 2022-10-23 13:04:15.501
183.0, -68987.69813629366, -100355.06342113775, 56802.734053460845, 10801.502859771594, 86324.98518526378, 69982.30606106593, 28917.56938905351, 19968.221481826484, 0.05, 0.966, 0.094, 192.0, 0.0, 0.0, 0.0, 0.0, 0.0, 0.0, 0.0, 0.0, 0.0, 1.6665554555018184E9, 0.0, 2022-10-23 13:04:15.501
184.0, -68927.9742751091, -100294.49019366386, 54567.403145718956, 9570.994624018029, 85972.85580311487, 68946.61562998482, 27416.314472712813, 18322.797813749054, 0.05, 0.966, 0.094, 192.0, 0.0, 0.0, 0.0, 0.0, 0.0, 0.0, 0.0, 0.0, 0.0, 1.6665554555018291E9, 0.0, 2022-10-23 13:04:15.501
185.0, -68960.85369120285, -100317.423083475, 53875.90722750512, 9367.750211685921, 86125.69703170026, 68733.62585707019, 27096.371602579547, 18147.694247686177, 0.05, 0.966, 0.094, 192.0, 0.0, 0.0, 0.0, 0.0, 0.0, 0.0, 0.0, 0.0, 0.0, 1.6665554555018396E9, 0.0, 2022-10-23 13:04:15.501
186.0, -69003.67963357922, -100352.24710133638, 55159.27733889548, 10132.559851713164, 86401.137578623, 69369.3765246125, 28015.900017726424, 19211.257304103056, 0.05, 0.966, 0.094, 192.0, 0.0, 0.0, 0.0, 0.0, 0.0, 0.0, 0.0, 0.0, 0.0, 1.666555455501851E9, 0.0, 2022-10-23 13:04:15.501
187.0, -68989.37451712781, -100337.96433662943, 56949.40620057657, 10935.389809058883, 86425.61273880157, 70087.06868732795, 29064.37564663597, 20163.866301043785, 0.044, 0.9580000000000001, 0.096, 192.0, 1.0, 96.0, 29.0, 240.0, 3.0, 0.0, 0.0, 0.0, 0.0, 1.6665554555018618E9, 0.0, 2022-10-23 13:04:15.501
188.0, -68914.42911796918, -100268.29394916225, 54951.56257767232, 9762.437315277733, 85991.9441928797, 69108.12933541887, 27667.6821908572, 18568.018802168226, 0.044, 0.9580000000000001, 0.096, 192.0, 0.0, 0.0, 0.0, 0.0, 0.0, 0.0, 0.0, 0.0, 0.0, 1.6665554555018823E9, 0.0, 2022-10-23 13:04:15.501
189.0, -68944.31340030592, -100293.59612388565, 53846.26881435738, 9326.734760610434, 86079.56303114451, 68695.71729847399, 27063.268669041237, 18081.041345720452, 0.044, 0.9580000000000001, 0.096, 192.0, 0.0, 0.0, 0.0, 0.0, 0.0, 0.0, 0.0, 0.0, 0.0, 1.6665554555018933E9, 0.0, 2022-10-23 13:04:15.501
190.0, -68985.55236882596, -100328.57660395821, 54758.97994744539, 9915.546764796587, 86337.36805169201, 69182.94062411078, 27765.761645527084, 18938.431911281576, 0.044, 0.9580000000000001, 0.096, 192.0, 0.0, 0.0, 0.0, 0.0, 0.0, 0.0, 0.0, 0.0, 0.0, 1.6665554555019035E9, 0.0, 2022-10-23 13:04:15.501
191.0, -68987.49697059358, -100328.0848655802, 56852.57844359618, 10914.423872759804, 86460.43675666294, 70047.14847173078, 29034.89369569942, 20180.42894368517, 0.044, 0.9580000000000001, 0.096, 192.0, 0.0, 0.0, 0.0, 0.0, 0.0, 0.0, 0.0, 0.0, 0.0, 1.6665554555019145E9, 0.0, 2022-10-23 13:04:15.501
192.0, -68914.80909762491, -100257.63216705706, 55396.42934756629, 9996.88476286945, 86062.53100186956, 69309.13857330545, 27969.430741003842, 18887.3581752012, 0.044, 0.9580000000000001, 0.096, 192.0, 0.0, 0.0, 0.0, 0.0, 0.0, 0.0, 0.0, 0.0, 0.0, 1.6665554555019248E9, 0.0, 2022-10-23 13:04:15.501
193.0, -68922.98983609556, -100256.22400715639, 53895.93439053708, 9335.831920603743, 86068.7671385726, 68712.70462426003, 27086.201558852383, 18075.92279624019, 0.044, 0.9580000000000001, 0.096, 192.0, 0.0, 0.0, 0.0, 0.0, 0.0, 0.0, 0.0, 0.0, 0.0, 1.6665554555019355E9, 0.0, 2022-10-23 13:04:15.501
194.0, -68965.79342672747, -100292.79146108526, 54451.30818501809, 9755.374164029858, 86306.79086527716, 69050.10420681289, 27570.049771076414, 18717.775490018787, 0.044, 0.9580000000000001, 0.096, 192.0, 0.0, 0.0, 0.0, 0.0, 0.0, 0.0, 0.0, 0.0, 0.0, 1.666555455501946E9, 0.0, 2022-10-23 13:04:15.501
195.0, -68992.57081658492, -100325.67087717901, 56698.016130687734, 10884.114907278408, 86507.35306827464, 70023.4779743526, 28986.21159627576, 20152.802187538407, 0.044, 0.9580000000000001, 0.096, 192.0, 0.0, 0.0, 0.0, 0.0, 0.0, 0.0, 0.0, 0.0, 0.0, 1.6665554555019565E9, 0.0, 2022-10-23 13:04:15.501
196.0, -68908.55060917743, -100248.66911753049, 55914.2969148513, 10285.289321576276, 86129.2733108131, 69563.38966648455, 28326.723376121925, 19255.826682546936, 0.044, 0.9580000000000001, 0.096, 192.0, 0.0, 0.0, 0.0, 0.0, 0.0, 0.0, 0.0, 0.0, 0.0, 1.6665554555019672E9, 0.0, 2022-10-23 13:04:15.501
197.0, -68897.39708869423, -100229.84894869912, 54045.311098731894, 9396.181630633073, 86032.44555383272, 68784.40902047265, 27175.876757607075, 18116.379453704292, 0.044, 0.9460000000000001, 0.094, 192.0, 1.0, 96.0, 29.0, 144.0, 2.0, 240.0, 0.0, 0.0, 0.0, 1.6665554555019777E9, 0.0, 2022-10-23 13:04:15.501
198.0, -68931.70701643312, -100257.67687054597, 54226.516691031065, 9619.743778675054, 86231.91252135189, 68940.24538281506, 27410.458315665524, 18516.654493409933, 0.044, 0.9460000000000001, 0.094, 192.0, 0.0, 0.0, 0.0, 0.0, 0.0, 0.0, 0.0, 0.0, 0.0, 1.6665554555019891E9, 0.0, 2022-10-23 13:04:15.501
199.0, -68973.54948205347, -100294.89252506406, 56351.16176023028, 10728.479710636106, 86495.59605069114, 69881.72321101704, 28782.31898335445, 19962.23121431246, 0.044, 0.9460000000000001, 0.094, 192.0, 0.0, 0.0, 0.0, 0.0, 0.0, 0.0, 0.0, 0.0, 0.0, 1.6665554555019996E9, 0.0, 2022-10-23 13:04:15.501
200.0, -68893.53023690346, -100223.52340501826, 56344.65740259378, 10527.470472749528, 86219.93198632383, 69758.58745081276, 28620.20178082011, 19581.91628240541, 0.044, 0.9460000000000001, 0.094, 192.0, 0.0, 0.0, 0.0, 0.0, 0.0, 0.0, 0.0, 0.0, 0.0, 1.66655545550201E9, 0.0, 2022-10-23 13:04:15.502
201.0, -68874.19597794962, -100202.91509663047, 54196.40889124977, 9438.15820672014, 86020.66618450478, 68826.07267213735, 27251.82798526621, 18164.480407772113, 0.044, 0.9460000000000001, 0.094, 192.0, 0.0, 0.0, 0.0, 0.0, 0.0, 0.0, 0.0, 0.0, 0.0, 1.666555455502022E9, 0.0, 2022-10-23 13:04:15.502
202.0, -68915.34553949184, -100239.95193719292, 54107.605410528835, 9541.915004481674, 86214.61227114347, 68887.763486834, 27329.41089027058, 18400.805401898077, 0.044, 0.9460000000000001, 0.094, 192.0, 0.0, 0.0, 0.0, 0.0, 0.0, 0.0, 0.0, 0.0, 0.0, 1.6665554555020325E9, 0.0, 2022-10-23 13:04:15.502
203.0, -68962.06068540343, -100287.0694145047, 55994.15969779011, 10563.479133067029, 86483.97314357437, 69757.64867754563, 28586.47299843705, 19757.176310679475, 0.044, 0.9460000000000001, 0.094, 192.0, 0.0, 0.0, 0.0, 0.0, 0.0, 0.0, 0.0, 0.0, 0.0, 1.6665554555020525E9, 0.0, 2022-10-23 13:04:15.502
204.0, -68902.40387945222, -100234.63222201256, 56752.88966332551, 10764.644833164792, 86293.22335639279, 69974.34884003983, 28917.368223353413, 19902.9990915059, 0.044, 0.9460000000000001, 0.094, 192.0, 0.0, 0.0, 0.0, 0.0, 0.0, 0.0, 0.0, 0.0, 0.0, 1.6665554555020633E9, 0.0, 2022-10-23 13:04:15.502
205.0, -68851.12897767175, -100187.60415167859, 54480.566618510085, 9548.955803985096, 85988.52437597804, 68948.04614162995, 27420.20367624804, 18293.226455834683, 0.044, 0.9460000000000001, 0.094, 192.0, 0.0, 0.0, 0.0, 0.0, 0.0, 0.0, 0.0, 0.0, 0.0, 1.6665554555020745E9, 0.0, 2022-10-23 13:04:15.502
206.0, -68879.26982394098, -100212.25812581279, 54019.33837167482, 9460.040564541885, 86157.74943324918, 68831.19122161761, 27247.469395097425, 18272.439333491246, 0.048, 0.9540000000000001, 0.096, 192.0, 1.0, 128.0, 29.0, 208.0, 3.0, 0.0, 0.0, 0.0, 0.0, 1.6665554555020852E9, 0.0, 2022-10-23 13:04:15.502
207.0, -68928.73423442057, -100256.87220774559, 55548.62237556248, 10333.345572155187, 86438.68850930793, 69557.10882629262, 28302.918768277024, 19455.9418506553, 0.048, 0.9540000000000001, 0.096, 192.0, 0.0, 0.0, 0.0, 0.0, 0.0, 0.0, 0.0, 0.0, 0.0, 1.6665554555020964E9, 0.0, 2022-10-23 13:04:15.502
208.0, -68896.32420496037, -100228.84312019862, 56993.70735808699, 10935.412160803338, 86393.42622678593, 70105.17360033674, 29102.70888837682, 20125.041320924916, 0.048, 0.9540000000000001, 0.096, 192.0, 0.0, 0.0, 0.0, 0.0, 0.0, 0.0, 0.0, 0.0, 0.0, 1.666555455502107E9, 0.0, 2022-10-23 13:04:15.502
209.0, -68836.15330888669, -100170.41566019246, 54852.79021892431, 9737.157492298782, 86019.28037634854, 69108.30814937451, 27649.644333081764, 18499.6671676239, 0.048, 0.9540000000000001, 0.096, 192.0, 0.0, 0.0, 0.0, 0.0, 0.0, 0.0, 0.0, 0.0, 0.0, 1.6665554555021176E9, 0.0, 2022-10-23 13:04:15.502
210.0, -68867.33399240184, -100198.04241633922, 54020.5006623865, 9447.72475334701, 86132.04492712556, 68822.76461395796, 27225.229409364394, 18209.362710638372, 0.048, 0.9540000000000001, 0.096, 192.0, 0.0, 0.0, 0.0, 0.0, 0.0, 0.0, 0.0, 0.0, 0.0, 1.6665554555021284E9, 0.0, 2022-10-23 13:04:15.502
211.0, -68920.93347560566, -100249.38437335305, 55159.72437378459, 10129.698828422885, 86382.138595836, 69386.47560912081, 28047.661846597417, 19179.83075139889, 0.048, 0.9540000000000001, 0.096, 192.0, 0.0, 0.0, 0.0, 0.0, 0.0, 0.0, 0.0, 0.0, 0.0, 1.6665554555021389E9, 0.0, 2022-10-23 13:04:15.502
212.0, -68923.07924307337, -100256.13460017856, 57092.233847645984, 11017.241897254216, 86442.1530296985, 70169.88190053486, 29191.15474118647, 20249.272316607516, 0.048, 0.9540000000000001, 0.096, 192.0, 0.0, 0.0, 0.0, 0.0, 0.0, 0.0, 0.0, 0.0, 0.0, 1.666555455502149E9, 0.0, 2022-10-23 13:04:15.502
213.0, -68838.05320716539, -100174.55073291669, 55275.48405831862, 9929.136625425414, 86022.18610312774, 69275.56625313357, 27902.554321593565, 18748.03975201127, 0.048, 0.9540000000000001, 0.096, 192.0, 0.0, 0.0, 0.0, 0.0, 0.0, 0.0, 0.0, 0.0, 0.0, 1.66655545550216E9, 0.0, 2022-10-23 13:04:15.502
214.0, -68858.01331496397, -100188.4982214568, 54041.17602600766, 9420.38856987817, 86083.29577246854, 68803.94444512659, 27204.039955620763, 18149.862366898342, 0.048, 0.9540000000000001, 0.096, 192.0, 0.0, 0.0, 0.0, 0.0, 0.0, 0.0, 0.0, 0.0, 0.0, 1.6665554555021703E9, 0.0, 2022-10-23 13:04:15.502
215.0, -68904.52729517547, -100230.13952137703, 54783.07512796821, 9911.277581605624, 86309.0260397227, 69194.76469692764, 27782.279584679556, 18889.03455603535, 0.048, 0.9540000000000001, 0.096, 192.0, 0.0, 0.0, 0.0, 0.0, 0.0, 0.0, 0.0, 0.0, 0.0, 1.6665554555021813E9, 0.0, 2022-10-23 13:04:15.502
0.0, 0.0, 0.0, 0.0, 0.0, 0.0, 0.0, 0.0, 0.0, 0.048, 0.9540000000000001, 0.096, 192.0, 0.0, 0.0, 0.0, 0.0, 0.0, 0.0, 0.0, 0.0, 0.0, 1.6665554555891953E9, 0.0, 2022-10-23 13:04:15.589
1.0, -68981.81962750193, -100394.46954661245, 55315.560736126994, 10554.918414940646, 86464.54947764272, 69794.73022159698, 28551.291352664397, 19407.706786120747, 0.042, 0.9520000000000001, 0.09, 192.0, 1.0, 80.0, 29.0, 192.0, 2.0, 208.0, 0.0, 0.0, 0.0, 1.6665554556563458E9, 0.0, 2022-10-23 13:04:15.656
2.0, -68948.13554860778, -100363.11004914166, 56530.22158506174, 11007.094205271507, 86361.68674965939, 70215.27829352359, 29178.4365985914, 19894.57248384625, 0.042, 0.9520000000000001, 0.09, 192.0, 0.0, 0.0, 0.0, 0.0, 0.0, 0.0, 0.0, 0.0, 0.0, 1.6665554556563776E9, 0.0, 2022-10-23 13:04:15.656
3.0, -68896.4136119382, -100308.72825488189, 54295.98591279816, 9776.965949173684, 86013.55832976798, 69184.86287413393, 27677.829882839906, 18247.807711101497, 0.042, 0.9520000000000001, 0.09, 192.0, 0.0, 0.0, 0.0, 0.0, 0.0, 0.0, 0.0, 0.0, 0.0, 1.6665554556565344E9, 0.0, 2022-10-23 13:04:15.656
4.0, -68937.18319382468, -100344.28988031029, 53619.71153255839, 9588.853667837819, 86168.16534616535, 68994.9848049861, 27377.288326893846, 18083.701203310633, 0.042, 0.9520000000000001, 0.09, 192.0, 0.0, 0.0, 0.0, 0.0, 0.0, 0.0, 0.0, 0.0, 0.0, 1.666555455656557E9, 0.0, 2022-10-23 13:04:15.656
5.0, -68983.1830839137, -100390.0439012103, 54849.90684388958, 10304.80239448576, 86399.37179081104, 69580.66756494851, 28243.44077628145, 19095.721137013574, 0.042, 0.9520000000000001, 0.09, 192.0, 0.0, 0.0, 0.0, 0.0, 0.0, 0.0, 0.0, 0.0, 0.0, 1.666555455656575E9, 0.0, 2022-10-23 13:04:15.656
6.0, -68964.34056333787, -100375.78348824782, 56632.57022292259, 11100.233924416772, 86440.20842793089, 70281.66297455585, 29274.280878815756, 20046.810215331345, 0.042, 0.9520000000000001, 0.09, 192.0, 0.0, 0.0, 0.0, 0.0, 0.0, 0.0, 0.0, 0.0, 0.0, 1.666555455656597E9, 0.0, 2022-10-23 13:04:15.656
7.0, -68885.61771936629, -100299.38522569957, 54682.53698140824, 9966.173465987858, 86039.82162950297, 69346.33187607907, 27919.29577819059, 18495.465039666302, 0.038, 0.9560000000000001, 0.09, 192.0, 1.0, 48.0, 29.0, 224.0, 2.0, 208.0, 0.0, 0.0, 0.0, 1.6665554556566143E9, 0.0, 2022-10-23 13:04:15.656
8.0, -68911.59044642335, -100322.89926086656, 53582.94291292941, 9543.211405660082, 86133.85541842645, 68950.7283509646, 27324.15823032358, 18011.795641397912, 0.038, 0.9560000000000001, 0.09, 192.0, 0.0, 0.0, 0.0, 0.0, 0.0, 0.0, 0.0, 0.0, 0.0, 1.6665554556566331E9, 0.0, 2022-10-23 13:04:15.656
9.0, -68975.11410416533, -100386.53467733083, 54471.38005153895, 10108.822299101628, 86362.75963339325, 69415.33171121261, 27999.58324427405, 18835.926811209538, 0.038, 0.9560000000000001, 0.09, 192.0, 0.0, 0.0, 0.0, 0.0, 0.0, 0.0, 0.0, 0.0, 0.0, 1.6665554556566508E9, 0.0, 2022-10-23 13:04:15.656
10.0, -68978.06453443343, -100395.02834022384, 56608.40798716641, 11128.687695108378, 86487.68353315396, 70305.60169286748, 29296.40910582651, 20101.393175291203, 0.038, 0.9560000000000001, 0.09, 192.0, 0.0, 0.0, 0.0, 0.0, 0.0, 0.0, 0.0, 0.0, 0.0, 1.6665554556566684E9, 0.0, 2022-10-23 13:04:15.656
11.0, -68868.04924822442, -100289.93043779499, 55148.883777723764, 10199.905657757005, 86080.03241777807, 69559.88044260508, 28222.117212071087, 18800.923979392526, 0.038, 0.9560000000000001, 0.09, 192.0, 0.0, 0.0, 0.0, 0.0, 0.0, 0.0, 0.0, 0.0, 0.0, 1.6665554556566858E9, 0.0, 2022-10-23 13:04:15.656
12.0, -68895.63130088226, -100310.13641478258, 53639.559881634705, 9534.270707877959, 86084.72628411368, 68966.01694417202, 27338.731567708444, 17982.693670117103, 0.038, 0.9560000000000001, 0.09, 192.0, 0.0, 0.0, 0.0, 0.0, 0.0, 0.0, 0.0, 0.0, 0.0, 1.6665554556567032E9, 0.0, 2022-10-23 13:04:15.656
13.0, -68948.09084511887, -100356.7398019719, 54154.789943073985, 9929.4942533367, 86306.79086527716, 69277.51085490118, 27787.196968459724, 18594.282101903213, 0.038, 0.9560000000000001, 0.09, 192.0, 0.0, 0.0, 0.0, 0.0, 0.0, 0.0, 0.0, 0.0, 0.0, 1.6665554556567206E9, 0.0, 2022-10-23 13:04:15.656
14.0, -68981.39494435728, -100393.28490415632, 56394.59119970694, 11058.480865774258, 86525.48033302788, 70246.14605261637, 29191.221796419835, 20028.5264883669, 0.038, 0.9560000000000001, 0.09, 192.0, 0.0, 0.0, 0.0, 0.0, 0.0, 0.0, 0.0, 0.0, 0.0, 1.6665554556567383E9, 0.0, 2022-10-23 13:04:15.656
15.0, -68901.77803060747, -100319.85942362064, 55619.90208863045, 10458.962375994013, 86151.64740701288, 69784.2696051919, 28535.376910612216, 19139.061169512413, 0.038, 0.9560000000000001, 0.09, 192.0, 0.0, 0.0, 0.0, 0.0, 0.0, 0.0, 0.0, 0.0, 0.0, 1.6665554556567557E9, 0.0, 2022-10-23 13:04:15.656
16.0, -68903.67792888617, -100312.70686539494, 53696.28860906227, 9528.772178741954, 86035.23952188964, 68968.78856048448, 27340.922038665063, 17961.504216373472, 0.038, 0.9560000000000001, 0.09, 192.0, 0.0, 0.0, 0.0, 0.0, 0.0, 0.0, 0.0, 0.0, 0.0, 1.6665554561253715E9, 0.0, 2022-10-23 13:04:16.125
17.0, -68933.94219087866, -100338.63488896309, 53873.269721659395, 9761.766762944075, 86254.28661755164, 69131.97864675267, 27579.50455898101, 18370.339974205493, 0.038, 0.9560000000000001, 0.08600000000000001, 192.0, 1.0, 48.0, 29.0, 224.0, 2.0, 176.0, 0.0, 0.0, 0.0, 1.6665554561253984E9, 0.0, 2022-10-23 13:04:16.125
18.0, -68980.36676411233, -100384.21009590747, 55999.70293041503, 10876.761183352612, 86526.50851327283, 70076.16103603377, 28952.616924359434, 19820.051767832254, 0.038, 0.9560000000000001, 0.08600000000000001, 192.0, 0.0, 0.0, 0.0, 0.0, 0.0, 0.0, 0.0, 0.0, 0.0, 1.6665554561254826E9, 0.0, 2022-10-23 13:04:16.125
19.0, -68924.6662169297, -100340.98182213091, 56033.43171279809, 10697.455489332138, 86243.33426276855, 69980.89790116524, 28820.093431483918, 19467.363592071964, 0.038, 0.9560000000000001, 0.08600000000000001, 192.0, 0.0, 0.0, 0.0, 0.0, 0.0, 0.0, 0.0, 0.0, 0.0, 1.6665554561254983E9, 0.0, 2022-10-23 13:04:16.125
20.0, -68893.61964388128, -100312.95273458395, 53868.508800090414, 9600.990665077052, 86028.66810901978, 69042.39285497581, 27445.05881608234, 18034.035627130943, 0.038, 0.9560000000000001, 0.08600000000000001, 192.0, 0.0, 0.0, 0.0, 0.0, 0.0, 0.0, 0.0, 0.0, 0.0, 1.666555456125514E9, 0.0, 2022-10-23 13:04:16.125
21.0, -68928.80128965393, -100342.41233377604, 53736.92408048202, 9680.451116615668, 86221.31779448007, 69076.30045131451, 27490.365802093245, 18240.09635926442, 0.038, 0.9560000000000001, 0.08600000000000001, 192.0, 0.0, 0.0, 0.0, 0.0, 0.0, 0.0, 0.0, 0.0, 0.0, 1.6665554561255298E9, 0.0, 2022-10-23 13:04:16.125
22.0, -68985.06063044794, -100395.40831987957, 55580.42890792238, 10674.433192543172, 86485.18013777497, 69910.75812706449, 28707.887674318277, 19568.52758747668, 0.038, 0.9560000000000001, 0.08600000000000001, 192.0, 0.0, 0.0, 0.0, 0.0, 0.0, 0.0, 0.0, 0.0, 0.0, 1.666555456125546E9, 0.0, 2022-10-23 13:04:16.125
23.0, -68930.03063559897, -100354.39286880409, 56359.4542574232, 10888.741718380657, 86311.30591765713, 70133.49326056162, 29050.94224821833, 19737.931458703453, 0.038, 0.9560000000000001, 0.08600000000000001, 192.0, 0.0, 0.0, 0.0, 0.0, 0.0, 0.0, 0.0, 0.0, 0.0, 1.6665554561255612E9, 0.0, 2022-10-23 13:04:16.125
24.0, -68875.62648959477, -100294.15491749704, 54077.832886914366, 9672.471543845122, 86007.2998413205, 69104.32953886146, 27552.3024859789, 18128.807023621444, 0.038, 0.9560000000000001, 0.08600000000000001, 192.0, 0.0, 0.0, 0.0, 0.0, 0.0, 0.0, 0.0, 0.0, 0.0, 1.6665554561255772E9, 0.0, 2022-10-23 13:04:16.125
25.0, -68921.53697270596, -100332.935194127, 53611.3519801321, 9587.356100959314, 86181.55404109407, 68995.72241255312, 27382.94331824104, 18115.574790903902, 0.038, 0.9560000000000001, 0.08600000000000001, 192.0, 0.0, 0.0, 0.0, 0.0, 0.0, 0.0, 0.0, 0.0, 0.0, 1.6665554561255925E9, 0.0, 2022-10-23 13:04:16.125
26.0, -68972.92363320872, -100384.41126160757, 55123.603954744816, 10449.865216000702, 86453.08303273715, 69716.74498519242, 28427.95442676001, 19292.371784731364, 0.038, 0.9560000000000001, 0.08600000000000001, 192.0, 0.0, 0.0, 0.0, 0.0, 0.0, 0.0, 0.0, 0.0, 0.0, 1.6665554561256075E9, 0.0, 2022-10-23 13:04:16.125
27.0, -68937.85374615833, -100355.46575253794, 56592.62765558096, 11055.686897717345, 86413.76631424026, 70272.36464886245, 29241.423814466456, 19980.09025813225, 0.042, 0.9520000000000001, 0.082, 192.0, 1.0, 80.0, 29.0, 192.0, 2.0, 144.0, 0.0, 0.0, 0.0, 1.6665554561256328E9, 0.0, 2022-10-23 13:04:16.125
28.0, -68867.51280635748, -100284.923647037, 54416.68533285682, 9826.273897442092, 86021.04616416052, 69251.24755516619, 27760.95602046919, 18330.91149698633, 0.042, 0.9520000000000001, 0.082, 192.0, 0.0, 0.0, 0.0, 0.0, 0.0, 0.0, 0.0, 0.0, 0.0, 1.6665554561256483E9, 0.0, 2022-10-23 13:04:16.125
29.0, -68900.70514687362, -100313.3774177286, 53540.60870893106, 9520.45732980458, 86140.73975571868, 68948.82845268589, 27312.02123308435, 18019.663455446178, 0.042, 0.9520000000000001, 0.082, 192.0, 0.0, 0.0, 0.0, 0.0, 0.0, 0.0, 0.0, 0.0, 0.0, 1.666555456125658E9, 0.0, 2022-10-23 13:04:16.125
30.0, -68954.90812717774, -100371.2907876123, 54678.401908684005, 10216.557707376207, 86409.6982967494, 69523.29063693174, 28144.199030899887, 19001.732051579005, 0.042, 0.9520000000000001, 0.082, 192.0, 0.0, 0.0, 0.0, 0.0, 0.0, 0.0, 0.0, 0.0, 0.0, 1.6665554561256683E9, 0.0, 2022-10-23 13:04:16.125
31.0, -68951.8235864429, -100375.09058416971, 56627.65283914243, 11118.361189170026, 86476.23943999285, 70314.31887320506, 29300.52182680629, 20091.40194551968, 0.042, 0.9520000000000001, 0.082, 192.0, 0.0, 0.0, 0.0, 0.0, 0.0, 0.0, 0.0, 0.0, 0.0, 1.6665554561256783E9, 0.0, 2022-10-23 13:04:16.125
32.0, -68874.48655062754, -100298.75937685482, 54832.65129717008, 10045.902138459938, 86060.27347567958, 69437.5940486901, 28034.943704002348, 18613.951637023885, 0.042, 0.9520000000000001, 0.082, 192.0, 0.0, 0.0, 0.0, 0.0, 0.0, 0.0, 0.0, 0.0, 0.0, 1.6665554561256886E9, 0.0, 2022-10-23 13:04:16.125
33.0, -68903.38735620826, -100321.46874922141, 53559.428877762424, 9511.650742489188, 86101.98183083319, 68946.68268521818, 27310.724831905944, 17990.42737369864, 0.042, 0.9520000000000001, 0.082, 192.0, 0.0, 0.0, 0.0, 0.0, 0.0, 0.0, 0.0, 0.0, 0.0, 1.6665554561257093E9, 0.0, 2022-10-23 13:04:16.125
34.0, -68945.90037416224, -100362.10422064117, 54298.28814247705, 10012.151004332425, 86340.65375812695, 69346.28717259016, 27894.038306956092, 18738.227336195392, 0.042, 0.9520000000000001, 0.082, 192.0, 0.0, 0.0, 0.0, 0.0, 0.0, 0.0, 0.0, 0.0, 0.0, 1.6665554561257923E9, 0.0, 2022-10-23 13:04:16.125
35.0, -68953.38820855478, -100372.29661611278, 56488.021491530126, 11086.509953321214, 86517.36664979061, 70270.15182616137, 29241.624980166554, 20083.60118670478, 0.042, 0.9520000000000001, 0.082, 192.0, 0.0, 0.0, 0.0, 0.0, 0.0, 0.0, 0.0, 0.0, 0.0, 1.6665554561258333E9, 0.0, 2022-10-23 13:04:16.125
36.0, -68877.92871927365, -100304.95081006896, 55274.43352632922, 10280.595455240662, 86119.34913627496, 69629.66258879454, 28319.906094063055, 18927.70307394303, 0.042, 0.9520000000000001, 0.082, 192.0, 0.0, 0.0, 0.0, 0.0, 0.0, 0.0, 0.0, 0.0, 0.0, 1.666555456125873E9, 0.0, 2022-10-23 13:04:16.125
37.0, -68894.87134157078, -100317.19956603045, 53597.71741601437, 9511.896611678198, 86069.28122869506, 68940.67006595971, 27309.987224338918, 17968.96969902154, 0.048, 0.9540000000000001, 0.088, 192.0, 1.0, 128.0, 29.0, 208.0, 2.0, 192.0, 0.0, 0.0, 0.0, 1.6665554561259136E9, 0.0, 2022-10-23 13:04:16.125
38.0, -68945.74391195105, -100363.64649100859, 53976.53478104291, 9837.650935369842, 86281.22046962028, 69183.61117644444, 27671.839615325884, 18497.85667632302, 0.048, 0.9540000000000001, 0.088, 192.0, 0.0, 0.0, 0.0, 0.0, 0.0, 0.0, 0.0, 0.0, 0.0, 1.6665554561259577E9, 0.0, 2022-10-23 13:04:16.125
39.0, -68966.28516510548, -100384.97005521895, 56202.41090088021, 10981.233236936718, 86534.33162383219, 70157.94606899573, 29085.498045146232, 19959.303135788818, 0.048, 0.9540000000000001, 0.088, 192.0, 0.0, 0.0, 0.0, 0.0, 0.0, 0.0, 0.0, 0.0, 0.0, 1.6665554561259773E9, 0.0, 2022-10-23 13:04:16.125
40.0, -68891.02684152446, -100319.34533349816, 55728.5539184277, 10541.060333378355, 86195.30036393409, 69836.21505930604, 28625.454440767106, 19267.449589663698, 0.048, 0.9540000000000001, 0.088, 192.0, 0.0, 0.0, 0.0, 0.0, 0.0, 0.0, 0.0, 0.0, 0.0, 1.6665554561259873E9, 0.0, 2022-10-23 13:04:16.125
41.0, -68885.88594029975, -100316.84193811918, 53701.25069633135, 9541.289155636925, 86035.37363235636, 68967.62626977281, 27355.517727794377, 17989.89093183171, 0.048, 0.9540000000000001, 0.088, 192.0, 0.0, 0.0, 0.0, 0.0, 0.0, 0.0, 0.0, 0.0, 0.0, 1.666555456125997E9, 0.0, 2022-10-23 13:04:16.125
42.0, -68928.28719953146, -100358.81851420624, 53783.52746767134, 9732.731846896631, 86254.28661755164, 69097.5569602915, 27540.768985839964, 18341.23800292468, 0.048, 0.9540000000000001, 0.088, 192.0, 0.0, 0.0, 0.0, 0.0, 0.0, 0.0, 0.0, 0.0, 0.0, 1.6665554561260068E9, 0.0, 2022-10-23 13:04:16.126
43.0, -68976.27639487702, -100399.58809609272, 55854.39423971108, 10839.456121856705, 86543.36172859214, 70037.91720127073, 28898.61510975541, 19783.48431390337, 0.048, 0.9540000000000001, 0.088, 192.0, 0.0, 0.0, 0.0, 0.0, 0.0, 0.0, 0.0, 0.0, 0.0, 1.6665554561260166E9, 0.0, 2022-10-23 13:04:16.126
44.0, -68917.49130695955, -100348.35789780115, 56165.15054287321, 10799.08887137042, 86287.18838538986, 70054.47984391211, 28939.362339897438, 19616.539134566683, 0.048, 0.9540000000000001, 0.088, 192.0, 0.0, 0.0, 0.0, 0.0, 0.0, 0.0, 0.0, 0.0, 0.0, 1.6665554561260266E9, 0.0, 2022-10-23 13:04:16.126
45.0, -68888.23287346755, -100318.51831895333, 53906.23854473097, 9621.174290320194, 86019.61565251538, 69044.0468840655, 27475.278374585912, 18079.20850267512, 0.048, 0.9540000000000001, 0.088, 192.0, 0.0, 0.0, 0.0, 0.0, 0.0, 0.0, 0.0, 0.0, 0.0, 1.6665554561260364E9, 0.0, 2022-10-23 13:04:16.126
46.0, -68932.2211065556, -100354.19170310399, 53669.824143627186, 9657.629985526799, 86214.00877404318, 69038.88363109632, 27456.257040054446, 18219.488050876625, 0.046, 0.964, 0.092, 192.0, 1.0, 112.0, 30.0, 32.0, 2.0, 224.0, 0.0, 0.0, 0.0, 1.6665554561260464E9, 0.0, 2022-10-23 13:04:16.126
47.0, -68977.79631349997, -100398.0458257253, 55417.417635609825, 10621.794834350925, 86489.56107968821, 69849.60375423476, 28629.99184489153, 19513.89992402791, 0.046, 0.964, 0.092, 192.0, 0.0, 0.0, 0.0, 0.0, 0.0, 0.0, 0.0, 0.0, 0.0, 1.6665554561260571E9, 0.0, 2022-10-23 13:04:16.126
48.0, -68937.49611824706, -100360.24902585137, 56454.56093008053, 10977.589902590502, 86360.50210720327, 70192.05483103453, 29141.15388883995, 19869.717344011944, 0.046, 0.964, 0.092, 192.0, 0.0, 0.0, 0.0, 0.0, 0.0, 0.0, 0.0, 0.0, 0.0, 1.6665554561260667E9, 0.0, 2022-10-23 13:04:16.126
49.0, -68892.0103182805, -100315.43377821849, 54176.180562517715, 9736.822216131952, 86014.09477163492, 69145.07676900348, 27622.822239735397, 18216.69408281971, 0.046, 0.964, 0.092, 192.0, 0.0, 0.0, 0.0, 0.0, 0.0, 0.0, 0.0, 0.0, 0.0, 1.6665554561260872E9, 0.0, 2022-10-23 13:04:16.126
50.0, -68930.09769083235, -100351.934176914, 53560.23354056282, 9571.933397285151, 86166.06428218655, 68963.35708658185, 27351.94144868153, 18090.742002814055, 0.046, 0.964, 0.092, 192.0, 0.0, 0.0, 0.0, 0.0, 0.0, 0.0, 0.0, 0.0, 0.0, 1.6665554561260977E9, 0.0, 2022-10-23 13:04:16.126
51.0, -68975.51643556553, -100398.15758444757, 54945.08057178028, 10385.715709413971, 86454.20061995991, 69641.57606858922, 28328.22094300043, 19203.300083076963, 0.046, 0.964, 0.092, 192.0, 0.0, 0.0, 0.0, 0.0, 0.0, 0.0, 0.0, 0.0, 0.0, 1.6665554561261077E9, 0.0, 2022-10-23 13:04:16.126
52.0, -68956.71861847861, -100389.23923840991, 56642.784970138666, 11133.940355055376, 86463.87892530907, 70318.81157384058, 29308.926082721482, 20073.609956933255, 0.046, 0.964, 0.092, 192.0, 0.0, 0.0, 0.0, 0.0, 0.0, 0.0, 0.0, 0.0, 0.0, 1.6665554561261177E9, 0.0, 2022-10-23 13:04:16.126
53.0, -68880.11919023028, -100315.7243508964, 54598.69558795638, 9959.333832184533, 86054.19380118774, 69349.77404472519, 27905.70591756176, 18477.13660921295, 0.046, 0.964, 0.092, 192.0, 0.0, 0.0, 0.0, 0.0, 0.0, 0.0, 0.0, 0.0, 0.0, 1.6665554561261275E9, 0.0, 2022-10-23 13:04:16.126
54.0, -68909.53408593347, -100338.47842675191, 53596.219849135865, 9580.874095067275, 86148.40640406686, 68989.06159270545, 27370.02400994587, 18061.416514088694, 0.046, 0.964, 0.092, 192.0, 0.0, 0.0, 0.0, 0.0, 0.0, 0.0, 0.0, 0.0, 0.0, 1.6665554561261375E9, 0.0, 2022-10-23 13:04:16.126
55.0, -68965.21228137163, -100388.76985177635, 54568.65484340845, 10186.15933491699, 86392.01806688524, 69479.48121779933, 28090.398381995965, 18933.80510017933, 0.046, 0.964, 0.092, 192.0, 0.0, 0.0, 0.0, 0.0, 0.0, 0.0, 0.0, 0.0, 0.0, 1.6665554561261475E9, 0.0, 2022-10-23 13:04:16.126
56.0, -68966.1287028943, -100394.08956695671, 56636.10179854653, 11163.891692625486, 86506.05666709623, 70332.8484693585, 29334.89880977855, 20132.059768683885, 0.04, 0.9520000000000001, 0.092, 192.0, 1.0, 64.0, 29.0, 192.0, 2.0, 224.0, 0.0, 0.0, 0.0, 1.6665554561261575E9, 0.0, 2022-10-23 13:04:16.126
57.0, -68892.92673980317, -100326.85551963515, 55001.74224397448, 10146.730857697828, 86069.99648451764, 69506.99621522381, 28149.630504802528, 18723.36342613261, 0.04, 0.9520000000000001, 0.092, 192.0, 0.0, 0.0, 0.0, 0.0, 0.0, 0.0, 0.0, 0.0, 0.0, 1.6665554561261687E9, 0.0, 2022-10-23 13:04:16.126
58.0, -68906.42719345418, -100334.87979589461, 53586.31802634216, 9537.51171082398, 86102.071237811, 68953.90229867725, 27329.232076314936, 17987.611053897268, 0.04, 0.9520000000000001, 0.092, 192.0, 0.0, 0.0, 0.0, 0.0, 0.0, 0.0, 0.0, 0.0, 0.0, 1.6665554561261787E9, 0.0, 2022-10-23 13:04:16.126
59.0, -68950.34837130885, -100376.78931674831, 54242.60994703889, 10013.045074110636, 86360.2338862698, 69343.49320453325, 27879.50967306014, 18695.89313219704, 0.04, 0.9520000000000001, 0.092, 192.0, 0.0, 0.0, 0.0, 0.0, 0.0, 0.0, 0.0, 0.0, 0.0, 1.6665554561261888E9, 0.0, 2022-10-23 13:04:16.126
60.0, -68972.90128146426, -100400.9515525045, 56475.61627335743, 11122.943296783364, 86543.6746530145, 70297.86798928595, 29267.17302407897, 20094.888817654708, 0.04, 0.9520000000000001, 0.092, 192.0, 0.0, 0.0, 0.0, 0.0, 0.0, 0.0, 0.0, 0.0, 0.0, 1.6665554561261992E9, 0.0, 2022-10-23 13:04:16.126
61.0, -68890.33393744635, -100324.933269612, 55477.00738632768, 10403.39593927812, 86139.91274117384, 69728.56905800928, 28462.48787194346, 19057.16437782817, 0.04, 0.9520000000000001, 0.092, 192.0, 0.0, 0.0, 0.0, 0.0, 0.0, 0.0, 0.0, 0.0, 0.0, 1.6665554561262093E9, 0.0, 2022-10-23 13:04:16.126
62.0, -68899.05111778392, -100332.71167668245, 53655.85430334262, 9538.338725368825, 86062.68746408075, 68964.13939763777, 27345.92882942305, 17974.17765547963, 0.04, 0.9520000000000001, 0.092, 192.0, 0.0, 0.0, 0.0, 0.0, 0.0, 0.0, 0.0, 0.0, 0.0, 1.6665554561262195E9, 0.0, 2022-10-23 13:04:16.126
63.0, -68938.05491185843, -100368.58622653321, 53925.10341705125, 9815.500356614633, 86281.4663388093, 69166.64620240286, 27643.341141145367, 18441.59733552901, 0.04, 0.9520000000000001, 0.092, 192.0, 0.0, 0.0, 0.0, 0.0, 0.0, 0.0, 0.0, 0.0, 0.0, 1.6665554561262295E9, 0.0, 2022-10-23 13:04:16.126
64.0, -68978.19864490017, -100404.39372115061, 56090.361605925755, 10936.239175348184, 86538.71256574543, 70113.68961497422, 29025.50596302819, 19893.99133849041, 0.04, 0.9520000000000001, 0.092, 192.0, 0.0, 0.0, 0.0, 0.0, 0.0, 0.0, 0.0, 0.0, 0.0, 1.6665554561262395E9, 0.0, 2022-10-23 13:04:16.126
65.0, -68902.62739689677, -100336.69028719548, 55908.597220015195, 10646.739381163046, 86235.8017248871, 69918.73769983504, 28751.630038217314, 19397.447335415764, 0.04, 0.9520000000000001, 0.092, 192.0, 0.0, 0.0, 0.0, 0.0, 0.0, 0.0, 0.0, 0.0, 0.0, 1.6665554561262605E9, 0.0, 2022-10-23 13:04:16.126
66.0, -68887.71878334509, -100319.74766489836, 53782.946322315496, 9578.70597585511, 86047.24240866213, 68996.90705500926, 27404.535103384867, 18021.339836280327, 0.038, 0.9500000000000001, 0.084, 192.0, 1.0, 48.0, 29.0, 176.0, 2.0, 160.0, 0.0, 0.0, 0.0, 1.666555456126271E9, 0.0, 2022-10-23 13:04:16.126
67.0, -68932.93636237817, -100359.69023224, 53748.41287713205, 9708.234334973615, 86246.82113490357, 69076.18869259223, 27513.946892493594, 18298.546171015045, 0.038, 0.9500000000000001, 0.084, 192.0, 0.0, 0.0, 0.0, 0.0, 0.0, 0.0, 0.0, 0.0, 0.0, 1.666555456126282E9, 0.0, 2022-10-23 13:04:16.126
68.0, -68973.9294617092, -100401.04095948231, 55698.55787736868, 10756.978184816622, 86518.88656841357, 69961.45188348912, 28797.629928306334, 19684.13080979953, 0.038, 0.9500000000000001, 0.084, 192.0, 0.0, 0.0, 0.0, 0.0, 0.0, 0.0, 0.0, 0.0, 0.0, 1.6665554561262922E9, 0.0, 2022-10-23 13:04:16.126
69.0, -68915.99374008104, -100351.84476993619, 56301.89851545078, 10885.545418923548, 86328.04737425417, 70121.04333890001, 29032.859686953987, 19728.27550509876, 0.038, 0.9500000000000001, 0.084, 192.0, 0.0, 0.0, 0.0, 0.0, 0.0, 0.0, 0.0, 0.0, 0.0, 1.6665554561263025E9, 0.0, 2022-10-23 13:04:16.126
70.0, -68889.32810894586, -100320.90995561004, 54032.01181078098, 9687.24604693008, 86032.71377476619, 69109.26927438608, 27555.6552476472, 18150.756436676555, 0.038, 0.9500000000000001, 0.084, 192.0, 0.0, 0.0, 0.0, 0.0, 0.0, 0.0, 0.0, 0.0, 0.0, 1.666555456126314E9, 0.0, 2022-10-23 13:04:16.126
71.0, -68937.31730429141, -100363.0429939083, 53663.69976564643, 9647.594052266366, 86202.83290181553, 69043.66690440977, 27451.04908359636, 18195.88460873182, 0.038, 0.9500000000000001, 0.084, 192.0, 0.0, 0.0, 0.0, 0.0, 0.0, 0.0, 0.0, 0.0, 0.0, 1.6665554561263244E9, 0.0, 2022-10-23 13:04:16.126
72.0, -68979.20447340065, -100403.96903800596, 55227.45015948417, 10514.417053987629, 86455.74289032732, 69763.57188982629, 28507.325471320808, 19379.856512529437, 0.038, 0.9500000000000001, 0.084, 192.0, 0.0, 0.0, 0.0, 0.0, 0.0, 0.0, 0.0, 0.0, 0.0, 1.6665554561263356E9, 0.0, 2022-10-23 13:04:16.126
73.0, -68941.09474910436, -100372.20720913497, 56504.62883766041, 11016.303123987094, 86394.36500005305, 70231.79623267606, 29192.004107475772, 19928.32361797376, 0.038, 0.9500000000000001, 0.084, 192.0, 0.0, 0.0, 0.0, 0.0, 0.0, 0.0, 0.0, 0.0, 0.0, 1.666555456126346E9, 0.0, 2022-10-23 13:04:16.126
74.0, -68885.03657401045, -100320.68643816549, 54295.36006395341, 9796.389615105345, 86030.94798695421, 69215.99885416018, 27710.977519867127, 18293.00293839013, 0.038, 0.9500000000000001, 0.084, 192.0, 0.0, 0.0, 0.0, 0.0, 0.0, 0.0, 0.0, 0.0, 0.0, 1.6665554561263566E9, 0.0, 2022-10-23 13:04:16.126
75.0, -68929.65065594325, -100362.70771774146, 53561.4405347634, 9566.233702449048, 86163.42677634083, 68981.14907516827, 27359.898669707618, 18081.06369746491, 0.034, 0.9580000000000001, 0.078, 192.0, 1.0, 16.0, 29.0, 240.0, 2.0, 112.0, 0.0, 0.0, 0.0, 1.666555456126367E9, 0.0, 2022-10-23 13:04:16.126
76.0, -68976.81283674393, -100408.03705549682, 54794.76509031834, 10297.51572579333, 86416.96261369737, 69586.5237219958, 28239.216296579398, 19102.270198138976, 0.034, 0.9580000000000001, 0.078, 192.0, 0.0, 0.0, 0.0, 0.0, 0.0, 0.0, 0.0, 0.0, 0.0, 1.6665554561263783E9, 0.0, 2022-10-23 13:04:16.126
77.0, -68959.73610398007, -100396.01181697987, 56610.44199591184, 11112.90736352293, 86455.47466939387, 70307.00985276817, 29295.38092558157, 20077.655622679667, 0.034, 0.9580000000000001, 0.078, 192.0, 0.0, 0.0, 0.0, 0.0, 0.0, 0.0, 0.0, 0.0, 0.0, 1.6665554561263888E9, 0.0, 2022-10-23 13:04:16.126
78.0, -68872.67605932667, -100310.96342932743, 54710.67782767747, 10010.340513031544, 86074.77975783107, 69408.22385647582, 27984.808741189092, 18563.324935832614, 0.034, 0.9580000000000001, 0.078, 192.0, 0.0, 0.0, 0.0, 0.0, 0.0, 0.0, 0.0, 0.0, 0.0, 1.6665554561263993E9, 0.0, 2022-10-23 13:04:16.126
79.0, -68904.92962657567, -100341.87589190912, 53556.21022656086, 9547.972327229063, 86135.0847643715, 68977.41633384423, 27349.549812024812, 18034.169737597673, 0.034, 0.9580000000000001, 0.078, 192.0, 0.0, 0.0, 0.0, 0.0, 0.0, 0.0, 0.0, 0.0, 0.0, 1.6665554561264093E9, 0.0, 2022-10-23 13:04:16.126
80.0, -68952.53884226548, -100387.45109885349, 54381.90601848436, 10085.263560445734, 86369.42045324093, 69404.62522561851, 27981.992421387724, 18826.002636671383, 0.034, 0.9580000000000001, 0.078, 192.0, 0.0, 0.0, 0.0, 0.0, 0.0, 0.0, 0.0, 0.0, 0.0, 1.6665554561264195E9, 0.0, 2022-10-23 13:04:16.126
81.0, -68964.76524648252, -100403.03026473883, 56524.67835243683, 11121.691599093867, 86523.06634462671, 70296.75040206319, 29286.440227799445, 20110.020948650952, 0.034, 0.9580000000000001, 0.078, 192.0, 0.0, 0.0, 0.0, 0.0, 0.0, 0.0, 0.0, 0.0, 0.0, 1.6665554561264398E9, 0.0, 2022-10-23 13:04:16.126
82.0, -68888.63520486775, -100336.86910115113, 55116.00436163001, 10217.429425409964, 86108.3744297474, 69568.06118107573, 28245.474785026883, 18836.619715287652, 0.034, 0.9580000000000001, 0.078, 192.0, 0.0, 0.0, 0.0, 0.0, 0.0, 0.0, 0.0, 0.0, 0.0, 1.66655545612645E9, 0.0, 2022-10-23 13:04:16.126
83.0, -68904.21437075309, -100347.5308832563, 53559.227712062326, 9523.296001350403, 86090.24716499414, 68946.10153986234, 27329.79086992632, 17984.571216651348, 0.034, 0.9580000000000001, 0.078, 192.0, 0.0, 0.0, 0.0, 0.0, 0.0, 0.0, 0.0, 0.0, 0.0, 1.6665554561264603E9, 0.0, 2022-10-23 13:04:16.126
84.0, -68931.84112689986, -100370.66493876756, 54068.95924436561, 9921.4923288217, 86323.71113582983, 69261.32819191554, 27783.799503302518, 18603.379261896524, 0.034, 0.9580000000000001, 0.078, 192.0, 0.0, 0.0, 0.0, 0.0, 0.0, 0.0, 0.0, 0.0, 0.0, 1.6665554561264703E9, 0.0, 2022-10-23 13:04:16.126
85.0, -68958.28324059049, -100396.43650012452, 56309.20753588767, 11053.339964549537, 86547.74267050537, 70230.58923847547, 29193.188749931905, 20047.86074732074, 0.044, 0.96, 0.084, 192.0, 1.0, 96.0, 30.0, 0.0, 2.0, 160.0, 0.0, 0.0, 0.0, 1.6665554561264808E9, 0.0, 2022-10-23 13:04:16.126
86.0, -68888.6128531233, -100331.8846621376, 55582.99935853474, 10474.183913968076, 86175.25084915767, 69784.6719365921, 28567.831643561323, 19191.252492815554, 0.044, 0.96, 0.084, 192.0, 0.0, 0.0, 0.0, 0.0, 0.0, 0.0, 0.0, 0.0, 0.0, 1.6665554561264915E9, 0.0, 2022-10-23 13:04:16.126
87.0, -68889.95395779061, -100331.0799993372, 53666.15845753652, 9552.308565653393, 86065.70494958221, 68982.89251123578, 27392.442809634547, 18020.781042668947, 0.044, 0.96, 0.084, 192.0, 0.0, 0.0, 0.0, 0.0, 0.0, 0.0, 0.0, 0.0, 0.0, 1.666555456126502E9, 0.0, 2022-10-23 13:04:16.126
88.0, -68923.50392621802, -100365.00994742036, 53810.058988339784, 9763.018460633572, 86265.12721361248, 69129.38584439586, 27611.489905296556, 18404.448736244292, 0.044, 0.96, 0.084, 192.0, 0.0, 0.0, 0.0, 0.0, 0.0, 0.0, 0.0, 0.0, 0.0, 1.6665554561265123E9, 0.0, 2022-10-23 13:04:16.126
89.0, -68963.60295577085, -100403.4996513724, 55912.68758925052, 10868.021651270587, 86536.29857734425, 70061.02890503751, 28970.721837368234, 19844.102244866164, 0.044, 0.96, 0.084, 192.0, 0.0, 0.0, 0.0, 0.0, 0.0, 0.0, 0.0, 0.0, 0.0, 1.6665554561265223E9, 0.0, 2022-10-23 13:04:16.126
90.0, -68891.74209734704, -100333.71750518293, 55995.05376756832, 10715.985085485589, 86267.69766422483, 69978.48391276407, 28867.926164618275, 19530.239049224743, 0.044, 0.96, 0.084, 192.0, 0.0, 0.0, 0.0, 0.0, 0.0, 0.0, 0.0, 0.0, 0.0, 1.6665554561265326E9, 0.0, 2022-10-23 13:04:16.126
91.0, -68874.754771561, -100312.93038283949, 53775.50319141188, 9580.27059796698, 86033.74195501114, 68996.34826139787, 27445.707016671542, 18055.359191341304, 0.044, 0.96, 0.084, 192.0, 0.0, 0.0, 0.0, 0.0, 0.0, 0.0, 0.0, 0.0, 0.0, 1.6665554561265426E9, 0.0, 2022-10-23 13:04:16.126
92.0, -68927.773109409, -100365.07700265372, 53627.48993962884, 9656.601805281854, 86232.76188764119, 69027.97597980214, 27486.29778460238, 18258.536548440046, 0.044, 0.96, 0.084, 192.0, 0.0, 0.0, 0.0, 0.0, 0.0, 0.0, 0.0, 0.0, 0.0, 1.6665554561265545E9, 0.0, 2022-10-23 13:04:16.126
93.0, -68979.00330770055, -100419.7046661025, 55475.53217119363, 10665.403087783228, 86504.49204498435, 69880.33740286081, 28721.790459369477, 19600.20000936985, 0.044, 0.96, 0.084, 192.0, 0.0, 0.0, 0.0, 0.0, 0.0, 0.0, 0.0, 0.0, 0.0, 1.6665554561265645E9, 0.0, 2022-10-23 13:04:16.126
94.0, -68927.773109409, -100370.41906957854, 56313.3426086119, 10910.847593646955, 86332.2271504673, 70130.22990587115, 29104.340565722057, 19812.899209606556, 0.044, 0.96, 0.084, 192.0, 0.0, 0.0, 0.0, 0.0, 0.0, 0.0, 0.0, 0.0, 0.0, 1.6665554561265748E9, 0.0, 2022-10-23 13:04:16.126
95.0, -68881.61675710879, -100318.92065035351, 54001.769900532956, 9666.593035053378, 86008.90916692128, 69073.90881465779, 27579.169282814182, 18175.522169533037, 0.04, 0.9580000000000001, 0.082, 192.0, 1.0, 64.0, 29.0, 240.0, 2.0, 144.0, 0.0, 0.0, 0.0, 1.6665554561265852E9, 0.0, 2022-10-23 13:04:16.126
96.0, -68924.12977506277, -100358.70675548396, 53522.90612732246, 9583.511600913002, 86194.65216334489, 68968.90031920676, 27412.872304066696, 18158.624250724824, 0.04, 0.9580000000000001, 0.082, 192.0, 0.0, 0.0, 0.0, 0.0, 0.0, 0.0, 0.0, 0.0, 0.0, 1.666555456126606E9, 0.0, 2022-10-23 13:04:16.126
97.0, -68973.28126111999, -100404.68429382853, 55018.55075580487, 10441.192739152044, 86469.42215793398, 69685.27372899935, 28451.647275882635, 19325.00533163611, 0.04, 0.9580000000000001, 0.082, 192.0, 0.0, 0.0, 0.0, 0.0, 0.0, 0.0, 0.0, 0.0, 0.0, 1.666555456126616E9, 0.0, 2022-10-23 13:04:16.126
98.0, -68953.25409808804, -100389.52981108784, 56528.85812864997, 11070.19317986884, 86421.79059049972, 70259.24417486718, 29292.69871624693, 20038.361255927237, 0.04, 0.9580000000000001, 0.082, 192.0, 0.0, 0.0, 0.0, 0.0, 0.0, 0.0, 0.0, 0.0, 0.0, 1.6665554561266272E9, 0.0, 2022-10-23 13:04:16.126
99.0, -68883.29313794294, -100322.74279865537, 54391.76313778915, 9861.075563559005, 86027.97520494166, 69257.46134012478, 27838.561277218017, 18404.940474622308, 0.04, 0.9580000000000001, 0.082, 192.0, 0.0, 0.0, 0.0, 0.0, 0.0, 0.0, 0.0, 0.0, 0.0, 1.6665554561266375E9, 0.0, 2022-10-23 13:04:16.126
100.0, -68910.3611004783, -100346.18977858899, 53511.03735101668, 9554.499036610012, 86147.333520333, 68957.50092953455, 27388.12892295467, 18083.522389354992, 0.04, 0.9580000000000001, 0.082, 192.0, 0.0, 0.0, 0.0, 0.0, 0.0, 0.0, 0.0, 0.0, 0.0, 1.6665554561266477E9, 0.0, 2022-10-23 13:04:16.126
101.0, -68957.54563302346, -100387.07111919775, 54592.92883788692, 10210.813309051193, 86396.57782275413, 69493.40635459499, 28171.557566113184, 19020.865144832747, 0.04, 0.9580000000000001, 0.082, 192.0, 0.0, 0.0, 0.0, 0.0, 0.0, 0.0, 0.0, 0.0, 0.0, 1.666555456126658E9, 0.0, 2022-10-23 13:04:16.126
102.0, -68959.1773103687, -100392.70375880049, 56587.5091061007, 11143.797474360166, 86496.22189953589, 70316.91167556187, 29363.754911870354, 20150.47760611506, 0.04, 0.9580000000000001, 0.082, 192.0, 0.0, 0.0, 0.0, 0.0, 0.0, 0.0, 0.0, 0.0, 0.0, 1.6665554561266682E9, 0.0, 2022-10-23 13:04:16.126
103.0, -68870.01620173648, -100314.65146716255, 54805.20335497896, 10067.4268683704, 86057.72537681168, 69435.64944692249, 28096.567463465628, 18667.864044650083, 0.04, 0.9580000000000001, 0.082, 192.0, 0.0, 0.0, 0.0, 0.0, 0.0, 0.0, 0.0, 0.0, 0.0, 1.6665554561266787E9, 0.0, 2022-10-23 13:04:16.126
104.0, -68894.67017587068, -100333.09165633818, 53491.43487112938, 9517.305733836381, 86111.61543269342, 68923.9733128516, 27346.867602690174, 18019.529344979448, 0.04, 0.9580000000000001, 0.082, 192.0, 0.0, 0.0, 0.0, 0.0, 0.0, 0.0, 0.0, 0.0, 0.0, 1.6665554561266887E9, 0.0, 2022-10-23 13:04:16.126
105.0, -68945.74391195105, -100378.42099409354, 54226.47198754216, 10020.309391058612, 86355.76353737873, 69330.95387589381, 27935.590199898506, 18767.37401096511, 0.034, 0.9520000000000001, 0.07200000000000001, 192.0, 1.0, 16.0, 29.0, 192.0, 2.0, 64.0, 0.0, 0.0, 0.0, 1.666555456126699E9, 0.0, 2022-10-23 13:04:16.126
106.0, -68966.06164766093, -100398.0458257253, 56447.74364802166, 11115.880145535488, 86537.05853665574, 70276.47736984222, 29308.90373097703, 20139.011161209484, 0.034, 0.9520000000000001, 0.07200000000000001, 192.0, 0.0, 0.0, 0.0, 0.0, 0.0, 0.0, 0.0, 0.0, 0.0, 1.66655545612671E9, 0.0, 2022-10-23 13:04:16.126
107.0, -68880.96855651958, -100317.51249045283, 55292.6501980603, 10334.843139033692, 86134.74948820466, 69658.38458041962, 28424.06522322479, 19017.04299653089, 0.034, 0.9520000000000001, 0.07200000000000001, 192.0, 0.0, 0.0, 0.0, 0.0, 0.0, 0.0, 0.0, 0.0, 0.0, 1.66655545612672E9, 0.0, 2022-10-23 13:04:16.126
108.0, -68896.48066717156, -100329.73889466989, 53615.576459834156, 9561.472780880069, 86085.79916784754, 68974.22003438712, 27417.007376790927, 18051.492339550536, 0.034, 0.9520000000000001, 0.07200000000000001, 192.0, 0.0, 0.0, 0.0, 0.0, 0.0, 0.0, 0.0, 0.0, 0.0, 1.6665554561267304E9, 0.0, 2022-10-23 13:04:16.126
109.0, -68942.25703981603, -100372.85540972417, 54024.769845577466, 9906.159032125359, 86305.31565014311, 69246.75485453068, 27806.41946869129, 18596.070241459638, 0.034, 0.9520000000000001, 0.07200000000000001, 192.0, 0.0, 0.0, 0.0, 0.0, 0.0, 0.0, 0.0, 0.0, 0.0, 1.6665554561267405E9, 0.0, 2022-10-23 13:04:16.126
110.0, -68973.25890937554, -100405.46660488447, 56240.99001181007, 11034.408036995894, 86538.95843493444, 70210.40561323233, 29207.22564544984, 20041.982238528995, 0.034, 0.9520000000000001, 0.07200000000000001, 192.0, 0.0, 0.0, 0.0, 0.0, 0.0, 0.0, 0.0, 0.0, 0.0, 1.6665554561267507E9, 0.0, 2022-10-23 13:04:16.126
111.0, -68893.016146781, -100333.42693250501, 55790.13297440207, 10594.123374715255, 86195.90386103439, 69880.2926993719, 28750.423044016727, 19353.481454072175, 0.034, 0.9520000000000001, 0.07200000000000001, 192.0, 0.0, 0.0, 0.0, 0.0, 0.0, 0.0, 0.0, 0.0, 0.0, 1.6665554561267607E9, 0.0, 2022-10-23 13:04:16.126
112.0, -68888.05405951191, -100325.00032484536, 53738.86868224963, 9582.505772412513, 86042.59324581543, 68996.72824105361, 27462.940211646583, 18052.341705839837, 0.034, 0.9520000000000001, 0.07200000000000001, 192.0, 0.0, 0.0, 0.0, 0.0, 0.0, 0.0, 0.0, 0.0, 0.0, 1.6665554561267807E9, 0.0, 2022-10-23 13:04:16.126
113.0, -68931.3717402663, -100363.33356658621, 53786.142621772604, 9751.484960494634, 86248.92219888237, 69105.1118499174, 27619.223608878092, 18376.866683586442, 0.034, 0.9520000000000001, 0.07200000000000001, 192.0, 0.0, 0.0, 0.0, 0.0, 0.0, 0.0, 0.0, 0.0, 0.0, 1.6665554561267936E9, 0.0, 2022-10-23 13:04:16.126
114.0, -68970.10731340734, -100401.1527182046, 55823.83940504067, 10838.494996845127, 86534.44338255447, 70021.48866909608, 28946.246677189672, 19796.649491387547, 0.036000000000000004, 0.9540000000000001, 0.076, 192.0, 1.0, 32.0, 29.0, 208.0, 2.0, 96.0, 0.0, 0.0, 0.0, 1.666555456126804E9, 0.0, 2022-10-23 13:04:16.126
115.0, -68916.0607953144, -100354.57168275974, 56198.02995896697, 10836.282174144051, 86298.69953378434, 70069.67903014172, 29025.70712872829, 19670.406838703973, 0.036000000000000004, 0.9540000000000001, 0.076, 192.0, 0.0, 0.0, 0.0, 0.0, 0.0, 0.0, 0.0, 0.0, 0.0, 1.666555456126815E9, 0.0, 2022-10-23 13:04:16.126
116.0, -68893.39612643672, -100329.60478420315, 53967.862304194256, 9680.138192193293, 86041.07332719247, 69089.1080008874, 27589.27227130798, 18147.35897151935, 0.036000000000000004, 0.9540000000000001, 0.076, 192.0, 0.0, 0.0, 0.0, 0.0, 0.0, 0.0, 0.0, 0.0, 0.0, 1.666555456126825E9, 0.0, 2022-10-23 13:04:16.126
117.0, -68934.83626065687, -100361.70188924097, 53711.01840865832, 9700.254762203069, 86216.48981767772, 69074.15468384679, 27557.353980225802, 18269.37714450087, 0.036000000000000004, 0.9540000000000001, 0.076, 192.0, 0.0, 0.0, 0.0, 0.0, 0.0, 0.0, 0.0, 0.0, 0.0, 1.666555456126835E9, 0.0, 2022-10-23 13:04:16.126
118.0, -68980.63498504579, -100402.33736066072, 55403.4254435808, 10628.098026287322, 86475.32301847018, 69847.30152455586, 28689.559243864926, 19522.751214832213, 0.036000000000000004, 0.9540000000000001, 0.076, 192.0, 0.0, 0.0, 0.0, 0.0, 0.0, 0.0, 0.0, 0.0, 0.0, 1.6665554561268456E9, 0.0, 2022-10-23 13:04:16.126
119.0, -68949.3201910639, -100375.2917498698, 56519.85037563448, 11033.245746284218, 86371.56622070864, 70234.85842166645, 29262.41210250999, 19937.42077796707, 0.036000000000000004, 0.9540000000000001, 0.076, 192.0, 0.0, 0.0, 0.0, 0.0, 0.0, 0.0, 0.0, 0.0, 0.0, 1.6665554561268559E9, 0.0, 2022-10-23 13:04:16.126
120.0, -68895.40778343771, -100324.82151088971, 54267.330976406454, 9801.709330285708, 86019.7050594932, 69204.4877057657, 27763.615878059376, 18292.75706920112, 0.036000000000000004, 0.9540000000000001, 0.076, 192.0, 0.0, 0.0, 0.0, 0.0, 0.0, 0.0, 0.0, 0.0, 0.0, 1.666555456126866E9, 0.0, 2022-10-23 13:04:16.126
121.0, -68931.46114724412, -100357.186836861, 53614.36946563357, 9611.205412293126, 86163.11385191845, 69001.31034866696, 27461.66616221263, 18137.30068651446, 0.036000000000000004, 0.9540000000000001, 0.076, 192.0, 0.0, 0.0, 0.0, 0.0, 0.0, 0.0, 0.0, 0.0, 0.0, 1.6665554561268764E9, 0.0, 2022-10-23 13:04:16.126
122.0, -68976.61167104384, -100401.57740134925, 54962.20200803304, 10397.785651419837, 86439.67198606396, 69656.81995830774, 28406.966138716478, 19224.2883711205, 0.036000000000000004, 0.9540000000000001, 0.076, 192.0, 0.0, 0.0, 0.0, 0.0, 0.0, 0.0, 0.0, 0.0, 0.0, 1.6665554561268864E9, 0.0, 2022-10-23 13:04:16.126
123.0, -68951.80123469845, -100383.2936743848, 56651.59155745406, 11135.326163211605, 86451.38430015855, 70313.22363772674, 29366.23595550489, 20088.36210827376, 0.036000000000000004, 0.9540000000000001, 0.076, 192.0, 0.0, 0.0, 0.0, 0.0, 0.0, 0.0, 0.0, 0.0, 0.0, 1.6665554561268966E9, 0.0, 2022-10-23 13:04:16.126
124.0, -68884.63424261025, -100317.11015905264, 54612.821890452135, 9962.150151985903, 86045.96835922818, 69340.60982949851, 27959.171290298855, 18492.80518207612, 0.038, 0.96, 0.078, 192.0, 1.0, 48.0, 30.0, 0.0, 2.0, 112.0, 0.0, 0.0, 0.0, 1.666555456126907E9, 0.0, 2022-10-23 13:04:16.126
125.0, -68933.42810075618, -100362.01481366335, 53579.05370939418, 9568.290062938937, 86130.70382245825, 68966.30751684995, 27405.339766185258, 18056.56618554189, 0.038, 0.96, 0.078, 192.0, 0.0, 0.0, 0.0, 0.0, 0.0, 0.0, 0.0, 0.0, 0.0, 1.6665554561269178E9, 0.0, 2022-10-23 13:04:16.126
126.0, -68960.58547026939, -100383.941874974, 54526.3206394101, 10168.389698075021, 86377.2882672892, 69449.46282499586, 28112.772478195726, 18919.522335472386, 0.038, 0.96, 0.078, 192.0, 0.0, 0.0, 0.0, 0.0, 0.0, 0.0, 0.0, 0.0, 0.0, 1.666555456126928E9, 0.0, 2022-10-23 13:04:16.126
127.0, -68965.74872323856, -100392.43553786702, 56608.40798716641, 11159.35428850106, 86503.2179955504, 70308.99915802469, 29364.648981648563, 20135.859565241288, 0.038, 0.96, 0.078, 192.0, 0.0, 0.0, 0.0, 0.0, 0.0, 0.0, 0.0, 0.0, 0.0, 1.6665554561270032E9, 0.0, 2022-10-23 13:04:16.127
128.0, -68882.510826887, -100316.7748828858, 55029.61486931025, 10178.224465635356, 86088.01199054862, 69512.6065030821, 28220.95492135941, 18770.23503425539, 0.038, 0.96, 0.078, 192.0, 0.0, 0.0, 0.0, 0.0, 0.0, 0.0, 0.0, 0.0, 0.0, 1.6665554561270142E9, 0.0, 2022-10-23 13:04:16.127
129.0, -68904.68375738667, -100334.49981623887, 53596.55512530269, 9561.316318668882, 86108.26267102512, 68956.60685975634, 27393.359231157214, 18019.32817927935, 0.038, 0.96, 0.078, 192.0, 0.0, 0.0, 0.0, 0.0, 0.0, 0.0, 0.0, 0.0, 0.0, 1.666555456127025E9, 0.0, 2022-10-23 13:04:16.127
130.0, -68955.3775138113, -100380.03031969433, 54189.97158884664, 9996.773004147173, 86336.20576098035, 69302.63421566895, 27891.981946466203, 18681.140980856537, 0.038, 0.96, 0.078, 192.0, 0.0, 0.0, 0.0, 0.0, 0.0, 0.0, 0.0, 0.0, 0.0, 1.6665554561270351E9, 0.0, 2022-10-23 13:04:16.127
131.0, -68974.51060706504, -100402.87380252765, 56434.399656581845, 11117.780043814188, 86536.96912967792, 70266.35202960396, 29290.41883831249, 20100.275588068438, 0.038, 0.96, 0.078, 192.0, 0.0, 0.0, 0.0, 0.0, 0.0, 0.0, 0.0, 0.0, 0.0, 1.6665554561270454E9, 0.0, 2022-10-23 13:04:16.127
132.0, -68887.13763798925, -100324.21801378942, 55504.678845963346, 10437.527053061372, 86146.01476741013, 69734.69343599003, 28535.198096656575, 19113.82605002237, 0.038, 0.96, 0.078, 192.0, 0.0, 0.0, 0.0, 0.0, 0.0, 0.0, 0.0, 0.0, 0.0, 1.6665554561270556E9, 0.0, 2022-10-23 13:04:16.127
133.0, -68894.62547238177, -100325.42500799001, 53676.79788789724, 9577.677795610165, 86075.24914446463, 68980.52322632352, 27422.528257671387, 18027.5536212389, 0.038, 0.96, 0.078, 192.0, 0.0, 0.0, 0.0, 0.0, 0.0, 0.0, 0.0, 0.0, 0.0, 1.666555456127066E9, 0.0, 2022-10-23 13:04:16.127
134.0, -68938.9713333811, -100364.07117415324, 53934.357039255745, 9849.407952953334, 86288.26126912372, 69181.73362991019, 27714.620854213343, 18487.03843200665, 0.04, 0.9560000000000001, 0.076, 192.0, 1.0, 64.0, 29.0, 224.0, 2.0, 96.0, 0.0, 0.0, 0.0, 1.6665554561270776E9, 0.0, 2022-10-23 13:04:16.127
135.0, -68976.83518848839, -100400.97390424895, 56101.828050831326, 10974.50536185567, 86542.11003090264, 70138.25418213061, 29104.117048277505, 19942.67343791407, 0.04, 0.9560000000000001, 0.076, 192.0, 0.0, 0.0, 0.0, 0.0, 0.0, 0.0, 0.0, 0.0, 0.0, 1.6665554561270883E9, 0.0, 2022-10-23 13:04:16.127
136.0, -68907.88005684377, -100340.69124945298, 55939.06264770778, 10680.982253668577, 86225.6987363933, 69937.73668262204, 28833.727995601657, 19449.437493018806, 0.04, 0.9560000000000001, 0.076, 192.0, 0.0, 0.0, 0.0, 0.0, 0.0, 0.0, 0.0, 0.0, 0.0, 1.66655545660472E9, 0.0, 2022-10-23 13:04:16.604
137.0, -68899.78872535095, -100331.37057201512, 53815.15518607559, 9614.178194305683, 86034.9042457228, 69024.98084604512, 27493.875025972728, 18070.33486012636, 0.04, 0.9560000000000001, 0.076, 192.0, 0.0, 0.0, 0.0, 0.0, 0.0, 0.0, 0.0, 0.0, 0.0, 1.666555456604796E9, 0.0, 2022-10-23 13:04:16.604
138.0, -68943.66519971672, -100369.5920550337, 53753.576130101224, 9728.172091027749, 86228.67151840586, 69092.68428000025, 27585.137198583747, 18325.234153894682, 0.04, 0.9560000000000001, 0.076, 192.0, 0.0, 0.0, 0.0, 0.0, 0.0, 0.0, 0.0, 0.0, 0.0, 1.6665554566048377E9, 0.0, 2022-10-23 13:04:16.604
139.0, -68979.6291565453, -100403.11967171666, 55665.47729557483, 10758.431048206217, 86504.78261766228, 69957.89795612072, 28842.33341721695, 19690.746926158303, 0.04, 0.9560000000000001, 0.076, 192.0, 0.0, 0.0, 0.0, 0.0, 0.0, 0.0, 0.0, 0.0, 0.0, 1.6665554566049073E9, 0.0, 2022-10-23 13:04:16.604
140.0, -68914.42911796918, -100340.80300817527, 56321.85862324937, 10915.228535560196, 86326.57215912011, 70135.92960070726, 29110.4202402139, 19774.610671354614, 0.04, 0.9560000000000001, 0.076, 192.0, 0.0, 0.0, 0.0, 0.0, 0.0, 0.0, 0.0, 0.0, 0.0, 1.666555456604956E9, 0.0, 2022-10-23 13:04:16.604
141.0, -68865.21057667858, -100290.26571396181, 54029.32960144635, 9699.807727313964, 86021.31438509398, 69099.54626554802, 27609.187675617657, 18171.163579364253, 0.04, 0.9560000000000001, 0.076, 192.0, 0.0, 0.0, 0.0, 0.0, 0.0, 0.0, 0.0, 0.0, 0.0, 1.66655545660497E9, 0.0, 2022-10-23 13:04:16.604
142.0, -68905.75664112052, -100341.13828434209, 53607.70864578589, 9627.700999701143, 86186.15850045187, 68995.94592999767, 27460.90620290115, 18182.093582402897, 0.04, 0.9560000000000001, 0.076, 192.0, 0.0, 0.0, 0.0, 0.0, 0.0, 0.0, 0.0, 0.0, 0.0, 1.6665554566049807E9, 0.0, 2022-10-23 13:04:16.604
143.0, -68974.60001404287, -100418.76589283538, 55199.89045857078, 10526.330533782308, 86473.02078879128, 69748.8644419747, 28551.31370440885, 19402.49882966266, 0.034, 0.9520000000000001, 0.078, 192.0, 1.0, 16.0, 29.0, 192.0, 2.0, 112.0, 0.0, 0.0, 0.0, 1.6665554566050344E9, 0.0, 2022-10-23 13:04:16.605
144.0, -68957.54563302346, -100404.90781127308, 56538.961117143765, 11057.318575062583, 86402.32222107914, 70239.86521242443, 29273.878547415563, 19990.14854313714, 0.034, 0.9520000000000001, 0.078, 192.0, 0.0, 0.0, 0.0, 0.0, 0.0, 0.0, 0.0, 0.0, 0.0, 1.6665554566050477E9, 0.0, 2022-10-23 13:04:16.605
145.0, -68909.39997546673, -100356.80685720526, 54338.163654585325, 9834.745208590652, 86033.98782420014, 69220.35744432897, 27792.78490457355, 18348.6811338283, 0.034, 0.9520000000000001, 0.078, 192.0, 0.0, 0.0, 0.0, 0.0, 0.0, 0.0, 0.0, 0.0, 0.0, 1.6665554566050587E9, 0.0, 2022-10-23 13:04:16.605
146.0, -68959.35612432435, -100407.2994479298, 53580.953607672884, 9598.75549063152, 86170.6910932888, 68985.39590661478, 27432.94417058756, 18124.291971241473, 0.034, 0.9520000000000001, 0.078, 192.0, 0.0, 0.0, 0.0, 0.0, 0.0, 0.0, 0.0, 0.0, 0.0, 1.6665554566050694E9, 0.0, 2022-10-23 13:04:16.605
147.0, -69012.70973833917, -100465.07870734677, 54789.22185769342, 10320.04628420428, 86425.34451786811, 69582.94744288296, 28300.37066940912, 19134.054378754423, 0.034, 0.9520000000000001, 0.078, 192.0, 0.0, 0.0, 0.0, 0.0, 0.0, 0.0, 0.0, 0.0, 0.0, 1.66655545660508E9, 0.0, 2022-10-23 13:04:16.605
148.0, -69002.42793588972, -100469.50435274892, 56634.31365899011, 11148.44663720687, 86460.43675666294, 70313.06717551556, 29372.986182330395, 20127.16473664817, 0.034, 0.9520000000000001, 0.078, 192.0, 0.0, 0.0, 0.0, 0.0, 0.0, 0.0, 0.0, 0.0, 0.0, 1.6665554566050909E9, 0.0, 2022-10-23 13:04:16.605
149.0, -68942.65937121623, -100411.59098286522, 54736.225871589886, 10029.093626629547, 86051.42218487528, 69393.80698130214, 28045.717244829804, 18594.885599003508, 0.034, 0.9520000000000001, 0.078, 192.0, 0.0, 0.0, 0.0, 0.0, 0.0, 0.0, 0.0, 0.0, 0.0, 1.6665554566051016E9, 0.0, 2022-10-23 13:04:16.605
150.0, -68989.01688921654, -100446.79498038233, 53546.867197378546, 9546.005373716996, 86110.14021755937, 68946.14624335125, 27383.524463596877, 18039.28828707794, 0.034, 0.9520000000000001, 0.078, 192.0, 0.0, 0.0, 0.0, 0.0, 0.0, 0.0, 0.0, 0.0, 0.0, 1.6665554566051123E9, 0.0, 2022-10-23 13:04:16.605
151.0, -69036.8943258398, -100494.29243734985, 54353.51930302612, 10074.847647529561, 86350.7343948763, 69368.21423390081, 28005.59586353253, 18820.906438935574, 0.034, 0.9520000000000001, 0.078, 192.0, 0.0, 0.0, 0.0, 0.0, 0.0, 0.0, 0.0, 0.0, 0.0, 1.6665554566051228E9, 0.0, 2022-10-23 13:04:16.605
152.0, -69045.90207885529, -100507.43526308957, 56530.42275076184, 11136.711971367833, 86516.36082129012, 70288.01086998115, 29342.118423237614, 20136.46306234158, 0.034, 0.9520000000000001, 0.078, 192.0, 0.0, 0.0, 0.0, 0.0, 0.0, 0.0, 0.0, 0.0, 0.0, 1.6665554566051335E9, 0.0, 2022-10-23 13:04:16.605
153.0, -68960.51841503601, -100434.18859650953, 55153.73410627057, 10242.843358855649, 86092.01295280612, 69565.78130314128, 28312.70883234845, 18876.137599484635, 0.034, 0.9520000000000001, 0.08, 192.0, 1.0, 16.0, 29.0, 192.0, 2.0, 128.0, 0.0, 0.0, 0.0, 1.6665554566051443E9, 0.0, 2022-10-23 13:04:16.605
154.0, -68977.01400244403, -100450.10303856172, 53570.56004650117, 9535.142425911716, 86083.60869689092, 68932.08699608887, 27378.137693183147, 18000.575065681347, 0.034, 0.9520000000000001, 0.08, 192.0, 0.0, 0.0, 0.0, 0.0, 0.0, 0.0, 0.0, 0.0, 0.0, 1.666555456605156E9, 0.0, 2022-10-23 13:04:16.605
155.0, -69021.538677399, -100488.59274251375, 54039.11966551777, 9901.465165789743, 86293.84920523754, 69219.39631931738, 27799.468076165685, 18581.027517441216, 0.034, 0.9520000000000001, 0.08, 192.0, 0.0, 0.0, 0.0, 0.0, 0.0, 0.0, 0.0, 0.0, 0.0, 1.6665554566051664E9, 0.0, 2022-10-23 13:04:16.605
156.0, -69040.69412239721, -100506.69765552256, 56258.1785032962, 11020.03586531113, 86508.20243456394, 70174.39695291483, 29193.948709243385, 20011.852087003244, 0.034, 0.9520000000000001, 0.08, 192.0, 0.0, 0.0, 0.0, 0.0, 0.0, 0.0, 0.0, 0.0, 0.0, 1.666555456605198E9, 0.0, 2022-10-23 13:04:16.605
157.0, -68959.3784760688, -100436.42377095507, 55585.39099519146, 10469.378288910186, 86145.59008426548, 69750.47376757547, 28599.61582417677, 19188.816152669926, 0.034, 0.9520000000000001, 0.08, 192.0, 0.0, 0.0, 0.0, 0.0, 0.0, 0.0, 0.0, 0.0, 0.0, 1.6665554566052089E9, 0.0, 2022-10-23 13:04:16.605
158.0, -68955.53397602249, -100429.02534354036, 53653.105038774615, 9545.22306266106, 86046.4600976062, 68947.68851371868, 27413.587559889267, 18006.207705284083, 0.034, 0.9520000000000001, 0.08, 192.0, 0.0, 0.0, 0.0, 0.0, 0.0, 0.0, 0.0, 0.0, 0.0, 1.66655545660523E9, 0.0, 2022-10-23 13:04:16.605
159.0, -68997.64466257628, -100464.22934105746, 53783.68392988252, 9752.848416906407, 86246.23998954773, 69090.22558811016, 27623.559847302422, 18383.39339296739, 0.034, 0.9520000000000001, 0.08, 192.0, 0.0, 0.0, 0.0, 0.0, 0.0, 0.0, 0.0, 0.0, 0.0, 1.6665554566052408E9, 0.0, 2022-10-23 13:04:16.605
160.0, -69039.84475610791, -100503.0766729208, 55859.669251402534, 10841.177206179764, 86507.50953048581, 70010.04457593497, 28964.128072753916, 19809.524096193803, 0.034, 0.9520000000000001, 0.08, 192.0, 0.0, 0.0, 0.0, 0.0, 0.0, 0.0, 0.0, 0.0, 0.0, 1.6665554566052513E9, 0.0, 2022-10-23 13:04:16.605
161.0, -68976.58931929938, -100446.30324200432, 56025.22862258299, 10732.45832114915, 86253.43725126234, 69967.86683414779, 28912.786115740077, 19551.67437215738, 0.034, 0.9520000000000001, 0.08, 192.0, 0.0, 0.0, 0.0, 0.0, 0.0, 0.0, 0.0, 0.0, 0.0, 1.6665554566052618E9, 0.0, 2022-10-23 13:04:16.605
162.0, -68948.56023175243, -100419.68231435804, 53834.08711362924, 9615.09461582835, 86022.36491708338, 69013.87202905084, 27515.57856983883, 18088.797401046446, 0.034, 0.9520000000000001, 0.08, 192.0, 0.0, 0.0, 0.0, 0.0, 0.0, 0.0, 0.0, 0.0, 0.0, 1.6665554566052723E9, 0.0, 2022-10-23 13:04:16.605
163.0, -68984.39007811429, -100455.24393978644, 53654.49084693085, 9674.527904335011, 86207.63852687342, 69030.36761645885, 27535.02458751495, 18267.499597966624, 0.04, 0.9540000000000001, 0.078, 192.0, 1.0, 64.0, 29.0, 208.0, 2.0, 112.0, 0.0, 0.0, 0.0, 1.6665554566052828E9, 0.0, 2022-10-23 13:04:16.605
164.0, -69021.15869774326, -100491.78904197086, 55442.83156905551, 10648.39341025274, 86469.89154456754, 69846.16158558865, 28725.478497204604, 19573.24380555675, 0.04, 0.9540000000000001, 0.078, 192.0, 0.0, 0.0, 0.0, 0.0, 0.0, 0.0, 0.0, 0.0, 0.0, 1.6665554566052942E9, 0.0, 2022-10-23 13:04:16.605
165.0, -68979.07036293393, -100450.77359089538, 56337.81776879046, 10928.080788621997, 86326.57215912011, 70123.99376916811, 29146.6300662315, 19829.931238881498, 0.04, 0.9540000000000001, 0.078, 192.0, 0.0, 0.0, 0.0, 0.0, 0.0, 0.0, 0.0, 0.0, 0.0, 1.6665554566053047E9, 0.0, 2022-10-23 13:04:16.605
166.0, -68937.27260080249, -100407.38885490762, 54087.44413703014, 9725.981620071128, 86018.52041703707, 69115.52776283358, 27670.833786825395, 18225.9030015353, 0.04, 0.9540000000000001, 0.078, 192.0, 0.0, 0.0, 0.0, 0.0, 0.0, 0.0, 0.0, 0.0, 0.0, 1.6665554566053152E9, 0.0, 2022-10-23 13:04:16.605
167.0, -68968.85561571785, -100434.09918953171, 53552.83511314811, 9604.969275590096, 86174.06620670155, 68973.59418554237, 27455.921763887618, 18159.048933869475, 0.04, 0.9540000000000001, 0.078, 192.0, 0.0, 0.0, 0.0, 0.0, 0.0, 0.0, 0.0, 0.0, 0.0, 1.666555456605328E9, 0.0, 2022-10-23 13:04:16.605
168.0, -69020.4434419207, -100485.26233258992, 54983.637330965685, 10420.45032029752, 86439.2473029193, 69651.00850474936, 28447.087520013753, 19287.43204920674, 0.04, 0.9540000000000001, 0.078, 192.0, 0.0, 0.0, 0.0, 0.0, 0.0, 0.0, 0.0, 0.0, 0.0, 1.6665554566053593E9, 0.0, 2022-10-23 13:04:16.605
169.0, -69001.64562483378, -100475.22639932948, 56528.276983294134, 11068.874426945977, 86405.51852053625, 70237.29476181207, 29311.205960655923, 20034.382645414193, 0.04, 0.9540000000000001, 0.078, 192.0, 0.0, 0.0, 0.0, 0.0, 0.0, 0.0, 0.0, 0.0, 0.0, 1.6665554566053696E9, 0.0, 2022-10-23 13:04:16.605
170.0, -68930.03063559897, -100409.66873284207, 54399.69800707079, 9861.52259844811, 86004.84114943042, 69230.2369153782, 27857.113225115925, 18402.325320521035, 0.04, 0.9540000000000001, 0.078, 192.0, 0.0, 0.0, 0.0, 0.0, 0.0, 0.0, 0.0, 0.0, 0.0, 1.6665554566053803E9, 0.0, 2022-10-23 13:04:16.605
171.0, -68963.89352844877, -100439.70947739, 53471.87709473099, 9529.21921363106, 86120.13144733089, 68905.53312367597, 27374.449655348024, 18049.90536569421, 0.04, 0.9540000000000001, 0.078, 192.0, 0.0, 0.0, 0.0, 0.0, 0.0, 0.0, 0.0, 0.0, 0.0, 1.666555456605391E9, 0.0, 2022-10-23 13:04:16.605
172.0, -69005.33366266891, -100478.19918134203, 54537.49651163775, 10187.723957028862, 86386.20661332687, 69449.66399069596, 28161.275763663743, 18990.824400284815, 0.04, 0.9540000000000001, 0.078, 192.0, 0.0, 0.0, 0.0, 0.0, 0.0, 0.0, 0.0, 0.0, 0.0, 1.6665554566054015E9, 0.0, 2022-10-23 13:04:16.605
173.0, -69002.49499112308, -100477.03689063036, 56576.26617863968, 11150.97238433032, 86501.78748390525, 70301.95835852127, 29392.789827917797, 20161.474664387068, 0.036000000000000004, 0.9560000000000001, 0.078, 192.0, 1.0, 32.0, 29.0, 224.0, 2.0, 112.0, 0.0, 0.0, 0.0, 1.666555456605412E9, 0.0, 2022-10-23 13:04:16.605
174.0, -68925.20265879664, -100399.85631702618, 54844.788294409314, 10092.885505304994, 86060.00525474611, 69436.5435167007, 28151.70921703687, 18699.335300843155, 0.036000000000000004, 0.9560000000000001, 0.078, 192.0, 0.0, 0.0, 0.0, 0.0, 0.0, 0.0, 0.0, 0.0, 0.0, 1.6665554566054337E9, 0.0, 2022-10-23 13:04:16.605
175.0, -68952.76235971003, -100419.59290738023, 53502.27546719021, 9526.827576974341, 86101.69125815526, 68914.04913831344, 27381.13282694016, 18025.51961249347, 0.036000000000000004, 0.9560000000000001, 0.078, 192.0, 0.0, 0.0, 0.0, 0.0, 0.0, 0.0, 0.0, 0.0, 0.0, 1.6665554566054444E9, 0.0, 2022-10-23 13:04:16.605
176.0, -68999.47750562162, -100464.47521024647, 54206.60128672139, 10015.436710767355, 86340.34083370458, 69309.47384947227, 27950.744682639204, 18754.18648173648, 0.036000000000000004, 0.9560000000000001, 0.078, 192.0, 0.0, 0.0, 0.0, 0.0, 0.0, 0.0, 0.0, 0.0, 0.0, 1.6665554566054552E9, 0.0, 2022-10-23 13:04:16.605
177.0, -69010.31810168244, -100480.07672787628, 56397.29576078603, 11085.8170492431, 86506.5707572187, 70227.9293808853, 29296.252643615324, 20102.80133519189, 0.036000000000000004, 0.9560000000000001, 0.078, 192.0, 0.0, 0.0, 0.0, 0.0, 0.0, 0.0, 0.0, 0.0, 0.0, 1.666555456605467E9, 0.0, 2022-10-23 13:04:16.605
178.0, -68925.09090007436, -100402.27030542736, 55277.94275020871, 10320.314505137743, 86112.01776409362, 69617.81616423323, 28425.562790103293, 18996.367632909732, 0.036000000000000004, 0.9560000000000001, 0.078, 192.0, 0.0, 0.0, 0.0, 0.0, 0.0, 0.0, 0.0, 0.0, 0.0, 1.6665554566054776E9, 0.0, 2022-10-23 13:04:16.605
179.0, -68945.56509799542, -100422.27511671485, 53532.9867640718, 9509.236754088015, 86045.45426910571, 68896.97240554958, 27367.56531805579, 17976.569292136348, 0.036000000000000004, 0.9560000000000001, 0.078, 192.0, 0.0, 0.0, 0.0, 0.0, 0.0, 0.0, 0.0, 0.0, 0.0, 1.6665554566054883E9, 0.0, 2022-10-23 13:04:16.605
180.0, -68991.36382238434, -100463.69289919054, 53897.00727427093, 9838.030915025582, 86270.60339100401, 69154.15157725234, 27732.368139310856, 18505.52332467119, 0.036000000000000004, 0.9560000000000001, 0.078, 192.0, 0.0, 0.0, 0.0, 0.0, 0.0, 0.0, 0.0, 0.0, 0.0, 1.6665554566054995E9, 0.0, 2022-10-23 13:04:16.605
181.0, -69024.51145941156, -100494.40419607214, 56108.51122242346, 10972.449001365781, 86510.95169913194, 70123.59143776791, 29140.662150461932, 19966.388638781147, 0.036000000000000004, 0.9560000000000001, 0.078, 192.0, 0.0, 0.0, 0.0, 0.0, 0.0, 0.0, 0.0, 0.0, 0.0, 1.66655545660551E9, 0.0, 2022-10-23 13:04:16.605
182.0, -68954.63990624427, -100432.26634648637, 55764.78609618975, 10594.592761348817, 86185.51029986267, 69855.41520779315, 28760.436625532704, 19353.950840705736, 0.04, 0.9460000000000001, 0.076, 192.0, 1.0, 64.0, 29.0, 144.0, 2.0, 96.0, 0.0, 0.0, 0.0, 1.6665554566055217E9, 0.0, 2022-10-23 13:04:16.605
183.0, -68929.69535943215, -100401.28682867132, 53688.063167102715, 9566.636033849243, 86017.42518155875, 68964.09469414887, 27453.932458631094, 18028.738263695035, 0.04, 0.9460000000000001, 0.076, 192.0, 0.0, 0.0, 0.0, 0.0, 0.0, 0.0, 0.0, 0.0, 0.0, 1.666555456605533E9, 0.0, 2022-10-23 13:04:16.605
184.0, -68966.37457208331, -100433.83096859825, 53701.16128935353, 9723.92525958124, 86230.99609982921, 69062.19650056321, 27594.301413810423, 18340.478043613202, 0.04, 0.9460000000000001, 0.076, 192.0, 0.0, 0.0, 0.0, 0.0, 0.0, 0.0, 0.0, 0.0, 0.0, 1.6665554566055436E9, 0.0, 2022-10-23 13:04:16.605
185.0, -69018.23061921963, -100489.57621926979, 55748.73754367084, 10827.609697295393, 86521.3229085592, 70005.73068925508, 28947.96776151273, 19781.450305157938, 0.04, 0.9460000000000001, 0.076, 192.0, 0.0, 0.0, 0.0, 0.0, 0.0, 0.0, 0.0, 0.0, 0.0, 1.6665554566055546E9, 0.0, 2022-10-23 13:04:16.605
186.0, -68956.85272894535, -100437.8095791113, 56197.046482210935, 10860.556168622514, 86276.54895502912, 70084.65469892678, 29074.344524663036, 19702.839219908623, 0.04, 0.9460000000000001, 0.076, 192.0, 0.0, 0.0, 0.0, 0.0, 0.0, 0.0, 0.0, 0.0, 0.0, 1.666555456605565E9, 0.0, 2022-10-23 13:04:16.605
187.0, -68925.76145240801, -100401.93502926052, 53932.81476888833, 9678.215942170136, 86004.84114943042, 69073.43942802423, 27599.732887713064, 18141.771035405523, 0.04, 0.9460000000000001, 0.076, 192.0, 0.0, 0.0, 0.0, 0.0, 0.0, 0.0, 0.0, 0.0, 0.0, 1.6665554566055756E9, 0.0, 2022-10-23 13:04:16.605
188.0, -68965.99459242757, -100435.08266628775, 53617.90104125751, 9665.989537953084, 86183.02925622812, 69021.85160182138, 27519.892456518708, 18219.957437510187, 0.04, 0.9460000000000001, 0.076, 192.0, 0.0, 0.0, 0.0, 0.0, 0.0, 0.0, 0.0, 0.0, 0.0, 1.6665554566055868E9, 0.0, 2022-10-23 13:04:16.605
189.0, -69010.47456389363, -100476.54515225234, 55285.8999712348, 10591.396461891707, 86459.98972177383, 69791.86919830671, 28643.894629942733, 19470.872815951447, 0.04, 0.9460000000000001, 0.076, 192.0, 0.0, 0.0, 0.0, 0.0, 0.0, 0.0, 0.0, 0.0, 0.0, 1.6665554566056068E9, 0.0, 2022-10-23 13:04:16.605
190.0, -68970.15201689626, -100446.16913153758, 56448.302441633045, 11026.383760736438, 86364.19014503839, 70195.87697933639, 29246.475308713354, 19928.301266229304, 0.04, 0.9460000000000001, 0.076, 192.0, 0.0, 0.0, 0.0, 0.0, 0.0, 0.0, 0.0, 0.0, 0.0, 1.6665554566056173E9, 0.0, 2022-10-23 13:04:16.605
191.0, -68925.09090007436, -100405.64541884011, 54210.60224897889, 9804.011559964605, 86014.74297222412, 69167.71908613671, 27752.507061065087, 18289.42665927728, 0.04, 0.9460000000000001, 0.076, 192.0, 0.0, 0.0, 0.0, 0.0, 0.0, 0.0, 0.0, 0.0, 0.0, 1.666555456605628E9, 0.0, 2022-10-23 13:04:16.605
192.0, -68959.73610398007, -100437.85428260021, 53540.96633684234, 9607.85265062483, 86145.92536043232, 68962.1277406368, 27444.209449793037, 18122.97321831861, 0.042, 0.9500000000000001, 0.08, 192.0, 1.0, 80.0, 29.0, 176.0, 2.0, 128.0, 0.0, 0.0, 0.0, 1.6665554566056385E9, 0.0, 2022-10-23 13:04:16.605
193.0, -69001.60092134487, -100477.86390517521, 54845.212977553965, 10372.662290652072, 86416.2026543859, 69596.13497211158, 28365.771873685346, 19187.07271660241, 0.042, 0.9500000000000001, 0.08, 192.0, 0.0, 0.0, 0.0, 0.0, 0.0, 0.0, 0.0, 0.0, 0.0, 1.66655545660565E9, 0.0, 2022-10-23 13:04:16.605
194.0, -68988.18987467169, -100469.6161114712, 56609.2126499668, 11159.734268156799, 86450.24436119132, 70302.78537306612, 29390.845226150184, 20114.536001030923, 0.042, 0.9500000000000001, 0.08, 192.0, 0.0, 0.0, 0.0, 0.0, 0.0, 0.0, 0.0, 0.0, 0.0, 1.6665554566056607E9, 0.0, 2022-10-23 13:04:16.605
195.0, -68915.3678912363, -100396.43650012452, 54623.729541746325, 10006.98775136325, 86031.21620788769, 69354.31144884962, 28014.961244459304, 18536.189918063872, 0.042, 0.9500000000000001, 0.08, 192.0, 0.0, 0.0, 0.0, 0.0, 0.0, 0.0, 0.0, 0.0, 0.0, 1.6665554566056712E9, 0.0, 2022-10-23 13:04:16.605
196.0, -68949.18608059718, -100424.46558767148, 53516.02179003022, 9559.818751790375, 86093.73403712918, 68926.99079835306, 27396.488475380957, 18035.533194009447, 0.042, 0.9500000000000001, 0.08, 192.0, 0.0, 0.0, 0.0, 0.0, 0.0, 0.0, 0.0, 0.0, 0.0, 1.6665554566056817E9, 0.0, 2022-10-23 13:04:16.605
197.0, -68992.95079624066, -100465.4139835136, 54410.449196153786, 10127.57541269963, 86346.66637738542, 69382.00526022974, 28068.69483812986, 18868.02391624736, 0.042, 0.9500000000000001, 0.08, 192.0, 0.0, 0.0, 0.0, 0.0, 0.0, 0.0, 0.0, 0.0, 0.0, 1.666555456605692E9, 0.0, 2022-10-23 13:04:16.605
198.0, -69005.33366266891, -100483.25067558893, 56537.91058515437, 11150.748866885766, 86492.62326867858, 70274.04102969659, 29362.36910371412, 20130.07046342736, 0.042, 0.9500000000000001, 0.08, 192.0, 0.0, 0.0, 0.0, 0.0, 0.0, 0.0, 0.0, 0.0, 0.0, 1.6665554566057038E9, 0.0, 2022-10-23 13:04:16.605
199.0, -68919.50296396053, -100408.88642178613, 55031.35830537776, 10201.44792812442, 86062.9109815253, 69507.7561745353, 28259.086997400165, 18794.553732222765, 0.042, 0.9500000000000001, 0.08, 192.0, 0.0, 0.0, 0.0, 0.0, 0.0, 0.0, 0.0, 0.0, 0.0, 1.6665554566057143E9, 0.0, 2022-10-23 13:04:16.605
200.0, -68929.94122862116, -100416.77658757885, 53524.80602560115, 9534.114245666773, 86058.68650182325, 68899.98989105105, 27369.398161101122, 17976.7928095809, 0.042, 0.9500000000000001, 0.08, 192.0, 0.0, 0.0, 0.0, 0.0, 0.0, 0.0, 0.0, 0.0, 0.0, 1.6665554566057248E9, 0.0, 2022-10-23 13:04:16.605
201.0, -68982.42312460222, -100459.1107915772, 54063.10308731831, 9936.177424928836, 86292.95513545933, 69212.40022330287, 27829.017082335602, 18604.563904352653, 0.042, 0.9500000000000001, 0.08, 192.0, 0.0, 0.0, 0.0, 0.0, 0.0, 0.0, 0.0, 0.0, 0.0, 1.6665554566057355E9, 0.0, 2022-10-23 13:04:16.605
202.0, -69016.91186629675, -100494.58301002777, 56319.77991101503, 11075.199970626829, 86517.54546374625, 70194.11119152441, 29248.621076181065, 20044.128005996707, 0.038, 0.9580000000000001, 0.078, 192.0, 1.0, 48.0, 29.0, 240.0, 2.0, 112.0, 0.0, 0.0, 0.0, 1.666555456605746E9, 0.0, 2022-10-23 13:04:16.605
203.0, -68918.5194872045, -100403.25378218338, 55478.95198809529, 10452.435666613062, 86137.00701439465, 69708.58659846624, 28555.78405329991, 19112.708462799605, 0.038, 0.9580000000000001, 0.078, 192.0, 0.0, 0.0, 0.0, 0.0, 0.0, 0.0, 0.0, 0.0, 0.0, 1.6665554566057572E9, 0.0, 2022-10-23 13:04:16.605
204.0, -68928.1754408092, -100411.88155554314, 53614.34711388912, 9568.22300770557, 86046.81772551748, 68929.74006292106, 27413.05111802234, 17991.142629521208, 0.038, 0.9580000000000001, 0.078, 192.0, 0.0, 0.0, 0.0, 0.0, 0.0, 0.0, 0.0, 0.0, 0.0, 1.6665554566057677E9, 0.0, 2022-10-23 13:04:16.605
205.0, -68979.20447340065, -100460.5636549668, 53863.21143665451, 9836.153368491337, 86257.70643445331, 69137.74539682215, 27707.647109943286, 18445.777111742154, 0.038, 0.9580000000000001, 0.078, 192.0, 0.0, 0.0, 0.0, 0.0, 0.0, 0.0, 0.0, 0.0, 0.0, 1.6665554566057885E9, 0.0, 2022-10-23 13:04:16.605
206.0, -69017.0906802524, -100493.44307106055, 55997.668921669596, 10937.267355593129, 86496.82539663618, 70073.92586158823, 29074.746856063233, 19881.452009850982, 0.038, 0.9580000000000001, 0.078, 192.0, 0.0, 0.0, 0.0, 0.0, 0.0, 0.0, 0.0, 0.0, 0.0, 1.6665554566057992E9, 0.0, 2022-10-23 13:04:16.605
207.0, -68946.88385091828, -100430.92524181906, 55917.80613873078, 10691.398166584751, 86205.0457245166, 69911.40632765369, 28857.62201042438, 19446.308248795063, 0.038, 0.9580000000000001, 0.078, 192.0, 0.0, 0.0, 0.0, 0.0, 0.0, 0.0, 0.0, 0.0, 0.0, 1.66655545660581E9, 0.0, 2022-10-23 13:04:16.605
208.0, -68925.09090007436, -100406.20421245148, 53781.06877578125, 9619.587316463867, 86017.58164376994, 68990.80502877296, 27503.910959233162, 18047.89370869323, 0.038, 0.9580000000000001, 0.078, 192.0, 0.0, 0.0, 0.0, 0.0, 0.0, 0.0, 0.0, 0.0, 0.0, 1.6665554566058207E9, 0.0, 2022-10-23 13:04:16.605
209.0, -68968.34152559537, -100444.80567512581, 53712.71714123692, 9736.106960309382, 86224.98348057074, 69065.34809653141, 27595.039021377448, 18301.38484256087, 0.038, 0.9580000000000001, 0.078, 192.0, 0.0, 0.0, 0.0, 0.0, 0.0, 0.0, 0.0, 0.0, 0.0, 1.6665554566058311E9, 0.0, 2022-10-23 13:04:16.605
210.0, -69007.90411328127, -100484.45766978952, 55607.69803615785, 10753.066629536943, 86489.29285875475, 69926.38199643875, 28845.485013185145, 19652.45838790636, 0.038, 0.9580000000000001, 0.078, 192.0, 0.0, 0.0, 0.0, 0.0, 0.0, 0.0, 0.0, 0.0, 0.0, 1.6665554566058416E9, 0.0, 2022-10-23 13:04:16.605
211.0, -68951.68947597618, -100438.59189016723, 56315.130748168325, 10926.247945576662, 86304.51098734271, 70117.55646676499, 29140.05865336164, 19767.011078239808, 0.04, 0.9540000000000001, 0.078, 192.0, 1.0, 64.0, 29.0, 208.0, 2.0, 112.0, 0.0, 0.0, 0.0, 1.666555456605852E9, 0.0, 2022-10-23 13:04:16.605
212.0, -68914.98791158055, -100398.0011222364, 54015.85149953979, 9701.953494781674, 85995.14049233681, 69073.79705593552, 27625.616207792307, 18149.795311664977, 0.04, 0.9540000000000001, 0.078, 192.0, 0.0, 0.0, 0.0, 0.0, 0.0, 0.0, 0.0, 0.0, 0.0, 1.666555456605863E9, 0.0, 2022-10-23 13:04:16.605
213.0, -68957.63504000129, -100434.09918953171, 53572.05761337967, 9627.566889234411, 86168.85825024346, 68966.82160697241, 27465.354200047757, 18151.382285521304, 0.04, 0.9540000000000001, 0.078, 192.0, 0.0, 0.0, 0.0, 0.0, 0.0, 0.0, 0.0, 0.0, 0.0, 1.666555456605874E9, 0.0, 2022-10-23 13:04:16.605
214.0, -69008.038223748, -100483.74241396695, 55127.359047813305, 10511.26545801943, 86452.12190772557, 69707.02197635436, 28537.857954246756, 19357.46006458522, 0.04, 0.9540000000000001, 0.078, 192.0, 0.0, 0.0, 0.0, 0.0, 0.0, 0.0, 0.0, 0.0, 0.0, 1.6665554566058843E9, 0.0, 2022-10-23 13:04:16.605
215.0, -68983.76422926954, -100462.64236720114, 56550.718134727256, 11095.42829935888, 86396.95780240987, 70246.41427354983, 29325.399318385043, 20011.360348625225, 0.04, 0.9540000000000001, 0.078, 192.0, 0.0, 0.0, 0.0, 0.0, 0.0, 0.0, 0.0, 0.0, 0.0, 1.6665554566058948E9, 0.0, 2022-10-23 13:04:16.605
216.0, -68917.62541742629, -100396.45885186897, 54361.297710096565, 9869.233950285192, 86006.36106805337, 69219.44102280629, 27840.08119584098, 18359.29821244457, 0.04, 0.9540000000000001, 0.078, 192.0, 0.0, 0.0, 0.0, 0.0, 0.0, 0.0, 0.0, 0.0, 0.0, 1.6665554566059053E9, 0.0, 2022-10-23 13:04:16.605
217.0, -68950.66129573123, -100425.2031952385, 53522.54849941117, 9579.354176444314, 86126.97108113422, 68924.4650512296, 27409.85481856523, 18069.843121748345, 0.04, 0.9540000000000001, 0.078, 192.0, 0.0, 0.0, 0.0, 0.0, 0.0, 0.0, 0.0, 0.0, 0.0, 1.6665554566059158E9, 0.0, 2022-10-23 13:04:16.605
218.0, -69005.17720045772, -100479.71909996499, 54683.90043782001, 10277.242693572367, 86390.72166570683, 69498.12257267506, 28244.78188094877, 19056.516177238962, 0.04, 0.9540000000000001, 0.078, 192.0, 0.0, 0.0, 0.0, 0.0, 0.0, 0.0, 0.0, 0.0, 0.0, 1.6665554566059265E9, 0.0, 2022-10-23 13:04:16.605
219.0, -69000.30452016646, -100483.45184128903, 56605.30109468712, 11162.036497835696, 86465.22002997638, 70284.45694261277, 29382.32921151271, 20120.41450982267, 0.04, 0.9540000000000001, 0.078, 192.0, 0.0, 0.0, 0.0, 0.0, 0.0, 0.0, 0.0, 0.0, 0.0, 1.666555456605937E9, 0.0, 2022-10-23 13:04:16.605
220.0, -68912.88684760175, -100402.47147112746, 54748.2734618513, 10058.508522332731, 86043.19674291572, 69375.36679212652, 28072.27111724271, 18605.659139830965, 0.04, 0.9540000000000001, 0.078, 192.0, 0.0, 0.0, 0.0, 0.0, 0.0, 0.0, 0.0, 0.0, 0.0, 1.6665554566059585E9, 0.0, 2022-10-23 13:04:16.605
221.0, -68945.22982182859, -100427.81834933977, 53519.374551698515, 9555.996603488518, 86100.46191221022, 68905.30960623141, 27381.825731018274, 18021.56335372488, 0.04, 0.9580000000000001, 0.082, 192.0, 1.0, 64.0, 29.0, 240.0, 2.0, 144.0, 0.0, 0.0, 0.0, 1.6665554566059692E9, 0.0, 2022-10-23 13:04:16.605
222.0, -68987.67578454921, -100470.80075392732, 54328.61945970291, 10095.970046039825, 86353.99774956677, 69346.89066969046, 28016.88349448246, 18815.87729643313, 0.04, 0.9580000000000001, 0.082, 192.0, 0.0, 0.0, 0.0, 0.0, 0.0, 0.0, 0.0, 0.0, 0.0, 1.66655545660598E9, 0.0, 2022-10-23 13:04:16.605
223.0, -69003.59022660139, -100487.81043145782, 56531.9426693848, 11170.150181072973, 86518.73010620238, 70281.8864920004, 29372.963830585937, 20156.110245717795, 0.04, 0.9580000000000001, 0.082, 192.0, 0.0, 0.0, 0.0, 0.0, 0.0, 0.0, 0.0, 0.0, 0.0, 1.666555456605991E9, 0.0, 2022-10-23 13:04:16.605
224.0, -68921.9169523617, -100406.13715721812, 55256.44037204271, 10333.010295988357, 86106.83215937998, 69617.10090841066, 28412.39761261912, 18956.380362079188, 0.04, 0.9580000000000001, 0.082, 192.0, 0.0, 0.0, 0.0, 0.0, 0.0, 0.0, 0.0, 0.0, 0.0, 1.6665554566060011E9, 0.0, 2022-10-23 13:04:16.606
225.0, -68932.95871412262, -100411.38981716512, 53618.83981452463, 9582.930455557163, 86065.3696734154, 68946.90620266274, 27426.059833295327, 18024.022045614965, 0.04, 0.9580000000000001, 0.082, 192.0, 0.0, 0.0, 0.0, 0.0, 0.0, 0.0, 0.0, 0.0, 0.0, 1.6665554566060116E9, 0.0, 2022-10-23 13:04:16.606
226.0, -68978.66803153373, -100453.2546345299, 54039.47729342905, 9927.259078891168, 86284.2156033773, 69208.15339185637, 27811.895646082838, 18573.15970339295, 0.04, 0.9580000000000001, 0.082, 192.0, 0.0, 0.0, 0.0, 0.0, 0.0, 0.0, 0.0, 0.0, 0.0, 1.6665554566060233E9, 0.0, 2022-10-23 13:04:16.606
227.0, -69006.47360163613, -100487.00576865743, 56278.60799772835, 11070.103772891018, 86526.88849292857, 70186.64570887634, 29229.01859629376, 20028.727654067, 0.04, 0.9580000000000001, 0.082, 192.0, 0.0, 0.0, 0.0, 0.0, 0.0, 0.0, 0.0, 0.0, 0.0, 1.666555456606034E9, 0.0, 2022-10-23 13:04:16.606
228.0, -68940.29008630397, -100425.18084349405, 55711.03015077474, 10574.18561866112, 86168.41121535435, 69815.1820677736, 28702.746773093557, 19266.175540229742, 0.04, 0.9580000000000001, 0.082, 192.0, 0.0, 0.0, 0.0, 0.0, 0.0, 0.0, 0.0, 0.0, 0.0, 1.6665554566060443E9, 0.0, 2022-10-23 13:04:16.606
229.0, -68942.14528109375, -100420.68814285853, 53705.341065566674, 9588.630150393266, 86018.4533618037, 68951.46595853161, 27444.4776707265, 18005.715966906067, 0.04, 0.9580000000000001, 0.082, 192.0, 0.0, 0.0, 0.0, 0.0, 0.0, 0.0, 0.0, 0.0, 0.0, 1.6665554566060548E9, 0.0, 2022-10-23 13:04:16.606
230.0, -68975.94111871018, -100445.65504141511, 53817.99385762142, 9790.13112665786, 86230.37025098447, 69089.59973926541, 27646.246867924558, 18375.994965552683, 0.04, 0.9580000000000001, 0.082, 192.0, 0.0, 0.0, 0.0, 0.0, 0.0, 0.0, 0.0, 0.0, 0.0, 1.6665554566060655E9, 0.0, 2022-10-23 13:04:16.606
231.0, -69003.83609579041, -100475.38286154067, 55896.88490592062, 10884.58429391197, 86494.23259427937, 70020.48284059559, 28996.806323147575, 19811.53575319478, 0.04, 0.9560000000000001, 0.08600000000000001, 192.0, 1.0, 64.0, 29.0, 224.0, 2.0, 176.0, 0.0, 0.0, 0.0, 1.666555456606076E9, 0.0, 2022-10-23 13:04:16.606
232.0, -68938.52429849199, -100427.93010806205, 56108.57827765683, 10794.171487590253, 86240.69675692281, 69992.16318037071, 28970.25245073467, 19580.195198082354, 0.04, 0.9560000000000001, 0.08600000000000001, 192.0, 0.0, 0.0, 0.0, 0.0, 0.0, 0.0, 0.0, 0.0, 0.0, 1.6665554566060874E9, 0.0, 2022-10-23 13:04:16.606
233.0, -68926.5214117195, -100417.02245676785, 53876.957759494515, 9647.14701737726, 86008.03744888752, 69007.68059583672, 27533.63877935872, 18080.39314513125, 0.04, 0.9560000000000001, 0.08600000000000001, 192.0, 0.0, 0.0, 0.0, 0.0, 0.0, 0.0, 0.0, 0.0, 0.0, 1.6665554566060977E9, 0.0, 2022-10-23 13:04:16.606
234.0, -68973.19185414218, -100459.40136425511, 53659.18471326646, 9686.754308552065, 86200.48596864771, 69001.64562483378, 27520.87593327474, 18233.7037603502, 0.04, 0.9560000000000001, 0.08600000000000001, 192.0, 0.0, 0.0, 0.0, 0.0, 0.0, 0.0, 0.0, 0.0, 0.0, 1.6665554566061084E9, 0.0, 2022-10-23 13:04:16.606
235.0, -69021.7398430991, -100508.99988520145, 55427.99001073719, 10654.093105088843, 86474.92068706999, 69812.09752703876, 28701.048040514954, 19532.429520181362, 0.04, 0.9560000000000001, 0.08600000000000001, 192.0, 0.0, 0.0, 0.0, 0.0, 0.0, 0.0, 0.0, 0.0, 0.0, 1.666555456606119E9, 0.0, 2022-10-23 13:04:16.606
236.0, -68978.86919723383, -100472.09715510573, 56417.72525521818, 10993.88432429842, 86347.64985414146, 70147.32899037945, 29192.62995632052, 19858.74263748439, 0.04, 0.9560000000000001, 0.08600000000000001, 192.0, 0.0, 0.0, 0.0, 0.0, 0.0, 0.0, 0.0, 0.0, 0.0, 1.6665554566061387E9, 0.0, 2022-10-23 13:04:16.606
237.0, -68932.24345830006, -100424.46558767148, 54149.06789649343, 9773.434373549744, 86015.19000711323, 69115.81833551149, 27689.743362634585, 18224.8524695459, 0.04, 0.9560000000000001, 0.08600000000000001, 192.0, 0.0, 0.0, 0.0, 0.0, 0.0, 0.0, 0.0, 0.0, 0.0, 1.6665554566061497E9, 0.0, 2022-10-23 13:04:16.606
238.0, -68964.80994997143, -100454.08164907475, 53587.56972403166, 9637.401656794746, 86167.04775894259, 68960.36195282482, 27453.507775486443, 18134.618477179825, 0.04, 0.9560000000000001, 0.08600000000000001, 192.0, 0.0, 0.0, 0.0, 0.0, 0.0, 0.0, 0.0, 0.0, 0.0, 1.6665554566061604E9, 0.0, 2022-10-23 13:04:16.606
239.0, -69011.90507553877, -100502.04849267585, 54978.384671018684, 10435.224823382476, 86431.82652376014, 69619.85017297867, 28418.991377233433, 19242.058007962467, 0.04, 0.9560000000000001, 0.08600000000000001, 192.0, 0.0, 0.0, 0.0, 0.0, 0.0, 0.0, 0.0, 0.0, 0.0, 1.666555456606171E9, 0.0, 2022-10-23 13:04:16.606
240.0, -69004.97603475762, -100497.57814378479, 56583.88812349894, 11120.082273493084, 86419.30954686517, 70239.97697114671, 29328.685024819973, 20040.954058284053, 0.04, 0.9560000000000001, 0.08600000000000001, 192.0, 0.0, 0.0, 0.0, 0.0, 0.0, 0.0, 0.0, 0.0, 0.0, 1.6665554566061814E9, 0.0, 2022-10-23 13:04:16.606
241.0, -68930.25415304353, -100425.09143651623, 54506.09231067805, 9934.746913283696, 86010.94317566672, 69259.11536921446, 27905.258882672657, 18432.097844135507, 0.038, 0.9540000000000001, 0.088, 192.0, 1.0, 48.0, 29.0, 208.0, 2.0, 192.0, 0.0, 0.0, 0.0, 1.6665554566061935E9, 0.0, 2022-10-23 13:04:16.606
242.0, -68962.75358948155, -100457.59087295424, 53546.37545900053, 9580.98585378955, 86110.16256930382, 68917.35719649281, 27400.310623682813, 18051.693505250634, 0.038, 0.9540000000000001, 0.088, 192.0, 0.0, 0.0, 0.0, 0.0, 0.0, 0.0, 0.0, 0.0, 0.0, 1.6665554566062052E9, 0.0, 2022-10-23 13:04:16.606
243.0, -69011.32393018293, -100502.58493454277, 54580.36715750303, 10220.916297544993, 86368.12405206253, 69443.67372318193, 28163.689752064915, 18969.769057007918, 0.038, 0.9540000000000001, 0.088, 192.0, 0.0, 0.0, 0.0, 0.0, 0.0, 0.0, 0.0, 0.0, 0.0, 1.6665554566062157E9, 0.0, 2022-10-23 13:04:16.606
244.0, -69011.74861332758, -100503.16607989861, 56612.25248721272, 11174.486419497302, 86471.6126288906, 70277.10321868697, 29377.791807388287, 20134.60786755179, 0.038, 0.9540000000000001, 0.088, 192.0, 0.0, 0.0, 0.0, 0.0, 0.0, 0.0, 0.0, 0.0, 0.0, 1.6665554566062262E9, 0.0, 2022-10-23 13:04:16.606
245.0, -68929.78476640997, -100426.54429990581, 54915.10688246571, 10131.665781934951, 86041.00627195911, 69422.66308339394, 28152.58093507063, 18692.853294951117, 0.038, 0.9540000000000001, 0.088, 192.0, 0.0, 0.0, 0.0, 0.0, 0.0, 0.0, 0.0, 0.0, 0.0, 1.6665554566062367E9, 0.0, 2022-10-23 13:04:16.606
246.0, -68951.93534516518, -100443.57632918077, 53524.18017675641, 9531.879071221241, 86077.70783635472, 68871.89374827073, 27346.77819571235, 17981.397268938694, 0.038, 0.9540000000000001, 0.088, 192.0, 0.0, 0.0, 0.0, 0.0, 0.0, 0.0, 0.0, 0.0, 0.0, 1.6665554566062472E9, 0.0, 2022-10-23 13:04:16.606
247.0, -68996.6835375647, -100487.13987912415, 54180.092117797394, 9995.566009946586, 86326.37099342002, 69238.88704048241, 27885.14231266288, 18684.44903903592, 0.038, 0.9540000000000001, 0.088, 192.0, 0.0, 0.0, 0.0, 0.0, 0.0, 0.0, 0.0, 0.0, 0.0, 1.6665554566062577E9, 0.0, 2022-10-23 13:04:16.606
248.0, -69017.76123258605, -100509.82689974629, 56424.60959251042, 11114.471985634802, 86530.95651041943, 70206.71757539721, 29286.574338266175, 20090.910207141664, 0.038, 0.9540000000000001, 0.088, 192.0, 0.0, 0.0, 0.0, 0.0, 0.0, 0.0, 0.0, 0.0, 0.0, 1.6665554566062682E9, 0.0, 2022-10-23 13:04:16.606
249.0, -68943.53108924998, -100445.02919257036, 55370.88130365388, 10376.707956398483, 86115.81756065102, 69628.81322250524, 28458.10693003022, 19025.447252446087, 0.038, 0.9540000000000001, 0.088, 192.0, 0.0, 0.0, 0.0, 0.0, 0.0, 0.0, 0.0, 0.0, 0.0, 1.666555456606279E9, 0.0, 2022-10-23 13:04:16.606
250.0, -68949.02961838599, -100445.208006526, 53604.869974240064, 9551.146274941717, 86037.69821377972, 68899.85578058432, 27385.89374850914, 17987.02990854143, 0.036000000000000004, 0.9520000000000001, 0.088, 192.0, 1.0, 32.0, 29.0, 192.0, 2.0, 192.0, 0.0, 0.0, 0.0, 1.6665554566062987E9, 0.0, 2022-10-23 13:04:16.606
251.0, -68974.37649659831, -100466.19629456954, 53921.5271379384, 9854.057115800038, 86269.6646177369, 69127.2624286726, 27714.509095491067, 18485.585568617054, 0.036000000000000004, 0.9520000000000001, 0.088, 192.0, 0.0, 0.0, 0.0, 0.0, 0.0, 0.0, 0.0, 0.0, 0.0, 1.6665554566063154E9, 0.0, 2022-10-23 13:04:16.606
252.0, -69013.64851160628, -100505.24479213296, 56128.56073719988, 10997.907638300376, 86536.58915002218, 70103.54192299151, 29128.458097989336, 19958.85610089971, 0.036000000000000004, 0.9520000000000001, 0.088, 192.0, 0.0, 0.0, 0.0, 0.0, 0.0, 0.0, 0.0, 0.0, 0.0, 1.6665554566063244E9, 0.0, 2022-10-23 13:04:16.606
253.0, -68944.04517937245, -100443.28575650284, 55832.3777714226, 10639.989154337545, 86203.45875066027, 69848.95555364556, 28774.9429076842, 19376.50375086114, 0.036000000000000004, 0.9520000000000001, 0.088, 192.0, 0.0, 0.0, 0.0, 0.0, 0.0, 0.0, 0.0, 0.0, 0.0, 1.6665554566063342E9, 0.0, 2022-10-23 13:04:16.606
254.0, -68929.2706762875, -100426.43254118355, 53744.277804407815, 9603.292894755949, 86031.37267009886, 68948.44847303015, 27457.57579297731, 18032.96274339709, 0.036000000000000004, 0.9520000000000001, 0.088, 192.0, 0.0, 0.0, 0.0, 0.0, 0.0, 0.0, 0.0, 0.0, 0.0, 1.6665554566063428E9, 0.0, 2022-10-23 13:04:16.606
255.0, -68982.08784843539, -100476.65691097462, 53731.15733041255, 9739.63853593332, 86221.94364332482, 69029.7417676141, 27579.169282814182, 18318.282761369082, 0.036000000000000004, 0.9520000000000001, 0.088, 192.0, 0.0, 0.0, 0.0, 0.0, 0.0, 0.0, 0.0, 0.0, 0.0, 1.6665554566063516E9, 0.0, 2022-10-23 13:04:16.606
0.0, -69027.75246235759, -100517.225327161, 55735.59471793112, 10817.149080890309, 86500.08875132665, 69943.68224664715, 28904.180694124785, 19732.99172317883, 0.036000000000000004, 0.9520000000000001, 0.088, 192.0, 0.0, 0.0, 0.0, 0.0, 0.0, 0.0, 0.0, 0.0, 0.0, 1.6665554570841978E9, 0.0, 2022-10-23 13:04:17.084
1.0, -68966.35222033886, -100464.5646172243, 56249.41661946972, 10893.502639949636, 86282.53922254316, 70058.1902334917, 29080.312440432604, 19707.778955433245, 0.036000000000000004, 0.9520000000000001, 0.088, 192.0, 0.0, 0.0, 0.0, 0.0, 0.0, 0.0, 0.0, 0.0, 0.0, 1.6665554570842996E9, 0.0, 2022-10-23 13:04:17.084
2.0, -68931.30468503293, -100434.30035523181, 53958.51927501193, 9684.25091317307, 85983.4952334756, 69023.1927064887, 27579.593965958833, 18116.088881026375, 0.036000000000000004, 0.9520000000000001, 0.088, 192.0, 0.0, 0.0, 0.0, 0.0, 0.0, 0.0, 0.0, 0.0, 0.0, 1.6665554570843368E9, 0.0, 2022-10-23 13:04:17.084
3.0, -68971.42606633021, -100474.35468129572, 53630.64153559703, 9669.34229962138, 86168.47827058772, 68975.98582219909, 27498.01009869696, 18194.27528313104, 0.036000000000000004, 0.9520000000000001, 0.088, 192.0, 0.0, 0.0, 0.0, 0.0, 0.0, 0.0, 0.0, 0.0, 0.0, 1.6665554570843787E9, 0.0, 2022-10-23 13:04:17.084
4.0, -69015.12372674033, -100515.21367016002, 55284.938846223224, 10588.937770001623, 86445.34932915561, 69748.10448266321, 28619.978263375553, 19441.94965862628, 0.038, 0.9500000000000001, 0.084, 192.0, 1.0, 48.0, 29.0, 176.0, 2.0, 160.0, 0.0, 0.0, 0.0, 1.6665554570844107E9, 0.0, 2022-10-23 13:04:17.084
5.0, -68977.0810576774, -100476.05341387432, 56502.416014959344, 11050.389534281438, 86355.65177865647, 70179.1131709949, 29260.512204231287, 19934.6044581657, 0.038, 0.9500000000000001, 0.084, 192.0, 0.0, 0.0, 0.0, 0.0, 0.0, 0.0, 0.0, 0.0, 0.0, 1.6665554570844443E9, 0.0, 2022-10-23 13:04:17.084
6.0, -68918.5194872045, -100418.09534050172, 54246.18622615174, 9806.358493132413, 85996.45924525968, 69128.44707112874, 27741.957037682183, 18272.14876081333, 0.038, 0.9500000000000001, 0.084, 192.0, 0.0, 0.0, 0.0, 0.0, 0.0, 0.0, 0.0, 0.0, 0.0, 1.6665554570844762E9, 0.0, 2022-10-23 13:04:17.084
7.0, -68956.33863882287, -100456.51798922039, 53552.94687187039, 9604.008150578518, 86149.00990116716, 68921.8722488728, 27422.707071627032, 18098.609816862325, 0.038, 0.9500000000000001, 0.084, 192.0, 0.0, 0.0, 0.0, 0.0, 0.0, 0.0, 0.0, 0.0, 0.0, 1.6665554570844986E9, 0.0, 2022-10-23 13:04:17.084
8.0, -69003.21024694566, -100496.84053621776, 54828.158596534566, 10353.909177054069, 86409.85475896059, 69546.8717273321, 28328.600922656173, 19150.28174522898, 0.038, 0.9500000000000001, 0.084, 192.0, 0.0, 0.0, 0.0, 0.0, 0.0, 0.0, 0.0, 0.0, 0.0, 1.6665554570845203E9, 0.0, 2022-10-23 13:04:17.084
9.0, -68989.79920027246, -100485.03881514535, 56610.10671974501, 11146.882015094998, 86441.9518639984, 70252.80687246405, 29362.36910371412, 20095.31350079936, 0.038, 0.9500000000000001, 0.084, 192.0, 0.0, 0.0, 0.0, 0.0, 0.0, 0.0, 0.0, 0.0, 0.0, 1.6665554570845418E9, 0.0, 2022-10-23 13:04:17.084
10.0, -68919.4135569827, -100417.71536084598, 54634.368972107055, 9996.996521591725, 86025.8517892184, 69299.41556446739, 27988.832055191047, 18521.72833940129, 0.038, 0.9500000000000001, 0.084, 192.0, 0.0, 0.0, 0.0, 0.0, 0.0, 0.0, 0.0, 0.0, 0.0, 1.6665554570845635E9, 0.0, 2022-10-23 13:04:17.084
11.0, -68947.08501661838, -100439.93299483455, 53544.45320897737, 9579.532990399955, 86111.61543269342, 68906.89658008773, 27401.316452183302, 18044.362133069295, 0.038, 0.9500000000000001, 0.084, 192.0, 0.0, 0.0, 0.0, 0.0, 0.0, 0.0, 0.0, 0.0, 0.0, 1.666555457084653E9, 0.0, 2022-10-23 13:04:17.084
12.0, -68998.80695328796, -100490.85026870374, 54403.81072805056, 10121.875717863526, 86335.95989179134, 69343.4708527888, 28049.070006498103, 18852.78002652884, 0.038, 0.9500000000000001, 0.084, 192.0, 0.0, 0.0, 0.0, 0.0, 0.0, 0.0, 0.0, 0.0, 0.0, 1.6665554570846753E9, 0.0, 2022-10-23 13:04:17.084
13.0, -69011.1898197162, -100507.3235043673, 56518.621029689435, 11133.046285277163, 86479.72631212787, 70219.25690403664, 29330.94255100996, 20112.189067863117, 0.038, 0.9500000000000001, 0.084, 192.0, 0.0, 0.0, 0.0, 0.0, 0.0, 0.0, 0.0, 0.0, 0.0, 1.6665554570846975E9, 0.0, 2022-10-23 13:04:17.084
14.0, -68922.14046980625, -100427.7065906175, 55065.40001218319, 10220.558669633707, 86080.25593522262, 69483.63864226802, 28267.69241901546, 18823.275723847833, 0.042, 0.9520000000000001, 0.084, 192.0, 1.0, 80.0, 29.0, 192.0, 2.0, 160.0, 0.0, 0.0, 0.0, 1.6665554570847194E9, 0.0, 2022-10-23 13:04:17.084
15.0, -68939.50777524803, -100444.73861989244, 53555.96435737186, 9553.873187765264, 86072.00814151861, 68881.43794315314, 27378.495321094433, 18005.403042483693, 0.042, 0.9520000000000001, 0.084, 192.0, 0.0, 0.0, 0.0, 0.0, 0.0, 0.0, 0.0, 0.0, 0.0, 1.6665554570847423E9, 0.0, 2022-10-23 13:04:17.084
16.0, -68994.00132823006, -100492.12431813769, 54076.67059620269, 9943.911128510372, 86288.08245516807, 69188.88618813589, 27826.93837010126, 18616.477384147332, 0.042, 0.9520000000000001, 0.084, 192.0, 0.0, 0.0, 0.0, 0.0, 0.0, 0.0, 0.0, 0.0, 0.0, 1.6665554570847642E9, 0.0, 2022-10-23 13:04:17.084
17.0, -69022.49980241059, -100520.33221964029, 56328.43003611923, 11077.47984856127, 86511.28697529876, 70164.78570279905, 29241.91555284447, 20058.097846281275, 0.042, 0.9520000000000001, 0.084, 192.0, 0.0, 0.0, 0.0, 0.0, 0.0, 0.0, 0.0, 0.0, 0.0, 1.666555457084786E9, 0.0, 2022-10-23 13:04:17.084
18.0, -68938.92662989219, -100444.78332338134, 55559.23945417875, 10492.042957787868, 86142.81846795302, 69716.23089506995, 28597.13478054223, 19176.74621066406, 0.042, 0.9520000000000001, 0.084, 192.0, 0.0, 0.0, 0.0, 0.0, 0.0, 0.0, 0.0, 0.0, 0.0, 1.6665554570848079E9, 0.0, 2022-10-23 13:04:17.084
19.0, -68943.03935087197, -100444.55980593679, 53673.93686460696, 9590.060662038406, 86033.33962361094, 68927.8178128979, 27434.508792699435, 18027.263048560984, 0.042, 0.9520000000000001, 0.084, 192.0, 0.0, 0.0, 0.0, 0.0, 0.0, 0.0, 0.0, 0.0, 0.0, 1.6665554570848293E9, 0.0, 2022-10-23 13:04:17.084
