%OpenBCI Raw EEG Data
%Number of channels = 8
%Sample Rate = 250 Hz
%Board = OpenBCI_GUI$BoardCytonSerial
Sample Index, EXG Channel 0, EXG Channel 1, EXG Channel 2, EXG Channel 3, EXG Channel 4, EXG Channel 5, EXG Channel 6, EXG Channel 7, Accel Channel 0, Accel Channel 1, Accel Channel 2, Other, Other, Other, Other, Other, Other, Other, Analog Channel 0, Analog Channel 1, Analog Channel 2, Timestamp, Other, Timestamp (Formatted)
219.0, -114336.59366805479, -150230.12014986516, -73761.85193799161, -132160.7017112615, 47378.121003880624, -80613.62273855481, 39479.23803081966, -117549.18754687162, 0.026000000000000002, 0.9580000000000001, 0.028, 192.0, 0.0, 208.0, 29.0, 240.0, 0.0, 224.0, 0.0, 0.0, 0.0, 1.666403657155221E9, 0.0, 2022-10-21 18:54:17.155
220.0, -114333.57618255333, -150226.83444343024, -73760.66729553549, -132157.90774320456, 47388.73808249689, -80609.59942455286, 39485.161243100316, -117552.56266028437, 0.026000000000000002, 0.9580000000000001, 0.028, 192.0, 0.0, 0.0, 0.0, 0.0, 0.0, 0.0, 0.0, 0.0, 0.0, 1.6664036571552527E9, 0.0, 2022-10-21 18:54:17.155
221.0, -114341.95808672406, -150234.94812666753, -73769.63034506206, -132170.38001661064, 47383.574829527715, -80627.59257883938, 39462.51892596709, -117565.07963717934, 0.026000000000000002, 0.9580000000000001, 0.028, 192.0, 0.0, 0.0, 0.0, 0.0, 0.0, 0.0, 0.0, 0.0, 0.0, 1.6664036571552696E9, 0.0, 2022-10-21 18:54:17.155
222.0, -114337.97947621101, -150229.5166527649, -73760.3543711131, -132158.3994815826, 47388.1345853966, -80639.37194816732, 39450.44898396123, -117560.83280573283, 0.026000000000000002, 0.9580000000000001, 0.028, 192.0, 0.0, 0.0, 0.0, 0.0, 0.0, 0.0, 0.0, 0.0, 0.0, 1.666403657155286E9, 0.0, 2022-10-21 18:54:17.155
223.0, -114337.97947621101, -150227.72851320845, -73756.33105711115, -132147.42477505503, 47391.80027148727, -80633.60519809785, 39459.792013143546, -117555.42368357464, 0.026000000000000002, 0.9580000000000001, 0.028, 192.0, 0.0, 0.0, 0.0, 0.0, 0.0, 0.0, 0.0, 0.0, 0.0, 1.6664036571553023E9, 0.0, 2022-10-21 18:54:17.155
224.0, -114346.7413600375, -150234.43403654505, -73762.52249032528, -132152.87860070213, 47384.93828593949, -80630.69947131866, 39467.14573706934, -117555.13311089673, 0.026000000000000002, 0.9580000000000001, 0.028, 192.0, 0.0, 0.0, 0.0, 0.0, 0.0, 0.0, 0.0, 0.0, 0.0, 1.6664036571553185E9, 0.0, 2022-10-21 18:54:17.155
225.0, -114345.13203443671, -150228.6672864756, -73759.95203971291, -132155.91843794804, 47387.44168131849, -80633.02405274201, 39462.18364980026, -117548.58404977132, 0.026000000000000002, 0.9580000000000001, 0.028, 192.0, 0.0, 0.0, 0.0, 0.0, 0.0, 0.0, 0.0, 0.0, 0.0, 1.6664036571553342E9, 0.0, 2022-10-21 18:54:17.155
226.0, -114346.0931594483, -150227.79556844183, -73761.74017926934, -132164.00976944086, 47384.24538186138, -80661.23195424462, 39433.39460294183, -117554.84253821881, 0.026000000000000002, 0.9580000000000001, 0.028, 192.0, 0.0, 0.0, 0.0, 0.0, 0.0, 0.0, 0.0, 0.0, 0.0, 1.6664036571553504E9, 0.0, 2022-10-21 18:54:17.155
227.0, -114355.92792700863, -150236.37863831266, -73767.37281887207, -132164.38974909662, 47379.37270157012, -80649.34082619438, 39445.5092484366, -117559.93873595462, 0.026000000000000002, 0.9580000000000001, 0.028, 192.0, 0.0, 0.0, 0.0, 0.0, 0.0, 0.0, 0.0, 0.0, 0.0, 1.666403657155368E9, 0.0, 2022-10-21 18:54:17.155
228.0, -114352.17283394013, -150233.27174583336, -73759.61676354609, -132158.1983158825, 47384.42419581702, -80634.49926787606, 39463.86003063441, -117557.39063708672, 0.04, 0.96, 0.024, 192.0, 1.0, 64.0, 30.0, 0.0, 0.0, 192.0, 0.0, 0.0, 0.0, 1.666403657155384E9, 0.0, 2022-10-21 18:54:17.155
229.0, -114349.82590077232, -150230.4107225431, -73758.72269376788, -132164.50150781887, 47384.75947198385, -80646.61391337085, 39452.34888223992, -117560.45282607709, 0.04, 0.96, 0.024, 192.0, 0.0, 0.0, 0.0, 0.0, 0.0, 0.0, 0.0, 0.0, 0.0, 1.666403657155402E9, 0.0, 2022-10-21 18:54:17.155
230.0, -114358.87835727673, -150239.79845521433, -73767.2163566609, -132169.37418811015, 47380.087957392694, -80660.42729144423, 39433.148733752816, -117565.41491334618, 0.04, 0.96, 0.024, 192.0, 0.0, 0.0, 0.0, 0.0, 0.0, 0.0, 0.0, 0.0, 0.0, 1.6664036571554184E9, 0.0, 2022-10-21 18:54:17.155
231.0, -114364.08631373482, -150243.88882444965, -73771.39613287403, -132165.57439155274, 47374.768242212325, -80648.26794246053, 39448.28086474906, -117568.99119245901, 0.04, 0.96, 0.024, 192.0, 0.0, 0.0, 0.0, 0.0, 0.0, 0.0, 0.0, 0.0, 0.0, 1.6664036571554344E9, 0.0, 2022-10-21 18:54:17.155
232.0, -114359.66066833267, -150241.29602209284, -73765.47292059338, -132164.41210084106, 47378.59039051418, -80633.51579112004, 39473.1136528389, -117566.66661103566, 0.04, 0.96, 0.024, 192.0, 0.0, 0.0, 0.0, 0.0, 0.0, 0.0, 0.0, 0.0, 0.0, 1.6664036571554515E9, 0.0, 2022-10-21 18:54:17.155
233.0, -114354.31860140785, -150236.62450750166, -73761.31549612469, -132163.16040315156, 47385.541783039786, -80641.85299180186, 39469.87264989289, -117560.43047433264, 0.04, 0.96, 0.024, 192.0, 0.0, 0.0, 0.0, 0.0, 0.0, 0.0, 0.0, 0.0, 0.0, 1.6664036571554677E9, 0.0, 2022-10-21 18:54:17.155
234.0, -114355.10091246378, -150235.68573423455, -73761.6060688026, -132163.83095548523, 47390.70503600896, -80647.57503838242, 39460.17199279928, -117553.72495099604, 0.04, 0.96, 0.024, 192.0, 0.0, 0.0, 0.0, 0.0, 0.0, 0.0, 0.0, 0.0, 0.0, 1.6664036571554837E9, 0.0, 2022-10-21 18:54:17.155
235.0, -114349.64708681668, -150230.8130539433, -73751.34661809762, -132145.4354697985, 47400.785672758306, -80636.0862417324, 39472.53250748307, -117542.92905842412, 0.04, 0.96, 0.024, 192.0, 0.0, 0.0, 0.0, 0.0, 0.0, 0.0, 0.0, 0.0, 0.0, 1.666403657155635E9, 0.0, 2022-10-21 18:54:17.155
236.0, -114351.45757811757, -150232.08710337724, -73750.60901053059, -132145.5472285208, 47397.14233841209, -80614.94149147767, 39496.985315917176, -117545.7453782255, 0.04, 0.96, 0.024, 192.0, 0.0, 0.0, 0.0, 0.0, 0.0, 0.0, 0.0, 0.0, 0.0, 1.666403657155651E9, 0.0, 2022-10-21 18:54:17.155
237.0, -114352.77633104043, -150232.04239988833, -73753.42533033197, -132154.93496119202, 47390.30270460877, -80619.94828223567, 39492.984353659675, -117553.54613704041, 0.04, 0.96, 0.024, 192.0, 0.0, 0.0, 0.0, 0.0, 0.0, 0.0, 0.0, 0.0, 0.0, 1.6664036571556673E9, 0.0, 2022-10-21 18:54:17.155
238.0, -114348.26127866046, -150226.67798121905, -73749.26790586328, -132156.5889902817, 47393.923687210525, -80643.8870005473, 39468.57624871448, -117554.46255856307, 0.042, 0.96, 0.028, 192.0, 1.0, 80.0, 30.0, 0.0, 0.0, 224.0, 0.0, 0.0, 0.0, 1.6664036571556833E9, 0.0, 2022-10-21 18:54:17.155
239.0, -114357.38079039822, -150236.26687959037, -73758.23095538985, -132169.24007764342, 47384.58065802821, -80653.90058206327, 39456.41689973079, -117564.4984918235, 0.042, 0.96, 0.028, 192.0, 0.0, 0.0, 0.0, 0.0, 0.0, 0.0, 0.0, 0.0, 0.0, 1.6664036571557002E9, 0.0, 2022-10-21 18:54:17.155
240.0, -114355.19031944161, -150235.84219644574, -73757.62745828956, -132163.31686536275, 47381.98785567139, -80636.75679406605, 39479.19332733075, -117568.14182616971, 0.042, 0.96, 0.028, 192.0, 0.0, 0.0, 0.0, 0.0, 0.0, 0.0, 0.0, 0.0, 0.0, 1.6664036571557164E9, 0.0, 2022-10-21 18:54:17.155
241.0, -114348.93183099412, -150226.0074288854, -73748.59735352962, -132159.87469671664, 47389.69920750847, -80614.94149147767, 39505.30016485455, -117558.82114873185, 0.042, 0.96, 0.028, 192.0, 0.0, 0.0, 0.0, 0.0, 0.0, 0.0, 0.0, 0.0, 0.0, 1.6664036571557353E9, 0.0, 2022-10-21 18:54:17.155
242.0, -114340.08054018981, -150217.64787645912, -73740.01428365878, -132160.2993798613, 47399.37751285762, -80636.2874074325, 39483.64132447736, -117551.55683178388, 0.042, 0.96, 0.028, 192.0, 0.0, 0.0, 0.0, 0.0, 0.0, 0.0, 0.0, 0.0, 0.0, 1.6664036571557508E9, 0.0, 2022-10-21 18:54:17.155
243.0, -114336.34779886578, -150214.71979793548, -73734.3592923116, -132154.3985193251, 47403.82551000423, -80652.78299484051, 39464.99996960163, -117549.45576780508, 0.042, 0.96, 0.028, 192.0, 0.0, 0.0, 0.0, 0.0, 0.0, 0.0, 0.0, 0.0, 0.0, 1.6664036571557665E9, 0.0, 2022-10-21 18:54:17.155
244.0, -114337.91242097765, -150216.463234003, -73736.7062254794, -132146.26248434334, 47401.09859718068, -80632.86759053083, 39483.93189715528, -117552.76382598447, 0.042, 0.96, 0.028, 192.0, 0.0, 0.0, 0.0, 0.0, 0.0, 0.0, 0.0, 0.0, 0.0, 1.666403657155782E9, 0.0, 2022-10-21 18:54:17.155
245.0, -114339.00765645596, -150216.7538066809, -73736.21448710137, -132147.4918302884, 47403.26671639284, -80615.29911938896, 39502.61795551991, -117548.71816023806, 0.042, 0.96, 0.028, 192.0, 0.0, 0.0, 0.0, 0.0, 0.0, 0.0, 0.0, 0.0, 0.0, 1.666403657155798E9, 0.0, 2022-10-21 18:54:17.155
246.0, -114334.82788024282, -150212.0599403453, -73734.91808592297, -132156.72310074844, 47401.85855649216, -80634.58867485389, 39481.383798287374, -117550.52865153893, 0.042, 0.96, 0.028, 192.0, 0.0, 0.0, 0.0, 0.0, 0.0, 0.0, 0.0, 0.0, 0.0, 1.6664036571558137E9, 0.0, 2022-10-21 18:54:17.155
247.0, -114332.57035405283, -150209.89182113312, -73734.42634754496, -132153.81737396924, 47402.86438499265, -80641.65182610176, 39471.57138247149, -117549.20989861607, 0.042, 0.96, 0.028, 192.0, 0.0, 0.0, 0.0, 0.0, 0.0, 0.0, 0.0, 0.0, 0.0, 1.6664036571558297E9, 0.0, 2022-10-21 18:54:17.155
248.0, -114331.02808368542, -150208.01427459889, -73730.96182715439, -132146.10602213218, 47401.81385300325, -80625.46916311613, 39490.01157164712, -117545.43245380312, 0.036000000000000004, 0.9540000000000001, 0.03, 192.0, 1.0, 32.0, 29.0, 208.0, 0.0, 240.0, 0.0, 0.0, 0.0, 1.6664036571558452E9, 0.0, 2022-10-21 18:54:17.155
249.0, -114321.84151671428, -150194.98320758145, -73716.52260023625, -132126.61530096715, 47416.76717004385, -80599.36232559233, 39522.33219412949, -117533.60838098626, 0.036000000000000004, 0.9540000000000001, 0.03, 192.0, 0.0, 0.0, 0.0, 0.0, 0.0, 0.0, 0.0, 0.0, 0.0, 1.666403657155862E9, 0.0, 2022-10-21 18:54:17.155
250.0, -114324.90370570467, -150196.3466639932, -73723.38458578404, -132145.2343040984, 47413.88379500912, -80624.84331427138, 39500.78511247458, -117540.80564270087, 0.036000000000000004, 0.9540000000000001, 0.03, 192.0, 0.0, 0.0, 0.0, 0.0, 0.0, 0.0, 0.0, 0.0, 0.0, 1.6664036571559255E9, 0.0, 2022-10-21 18:54:17.155
251.0, -114332.01156044145, -150201.9569518515, -73731.02888238775, -132161.03698742832, 47404.563117571255, -80647.84325931588, 39476.80169067403, -117549.52282303845, 0.036000000000000004, 0.9540000000000001, 0.03, 192.0, 0.0, 0.0, 0.0, 0.0, 0.0, 0.0, 0.0, 0.0, 0.0, 1.666403657155942E9, 0.0, 2022-10-21 18:54:17.155
252.0, -114341.9357349796, -150211.456443245, -73738.33790282463, -132151.2469233569, 47397.27644887882, -80631.34767190788, 39494.05723739353, -117556.74243649752, 0.036000000000000004, 0.9540000000000001, 0.03, 192.0, 0.0, 0.0, 0.0, 0.0, 0.0, 0.0, 0.0, 0.0, 0.0, 1.6664036571559577E9, 0.0, 2022-10-21 18:54:17.155
253.0, -114340.8404995013, -150211.03176010033, -73738.02497840226, -132146.50835353238, 47399.42221634653, -80608.90652047475, 39522.712173785236, -117556.20599463058, 0.036000000000000004, 0.9540000000000001, 0.03, 192.0, 0.0, 0.0, 0.0, 0.0, 0.0, 0.0, 0.0, 0.0, 0.0, 1.6664036571559744E9, 0.0, 2022-10-21 18:54:17.155
254.0, -114340.66168554565, -150209.69065543302, -73735.78980395672, -132148.07297564423, 47403.40082685958, -80614.09212518837, 39519.85115049496, -117554.39550332971, 0.036000000000000004, 0.9540000000000001, 0.03, 192.0, 0.0, 0.0, 0.0, 0.0, 0.0, 0.0, 0.0, 0.0, 0.0, 1.6664036571559904E9, 0.0, 2022-10-21 18:54:17.155
255.0, -114343.07567394682, -150211.702312434, -73736.97444641286, -132153.21387686895, 47401.07624543623, -80632.82288704191, 39502.640307264366, -117551.66859050616, 0.036000000000000004, 0.9540000000000001, 0.03, 192.0, 0.0, 0.0, 0.0, 0.0, 0.0, 0.0, 0.0, 0.0, 0.0, 1.666403657156006E9, 0.0, 2022-10-21 18:54:17.156
0.0, -114339.94642972309, -150208.97539961047, -73735.07454813416, -132149.77170822283, 47402.75262627037, -80642.92587553572, 39499.91339444082, -117550.01456141646, 0.036000000000000004, 0.9540000000000001, 0.03, 192.0, 0.0, 0.0, 0.0, 0.0, 0.0, 0.0, 0.0, 0.0, 0.0, 1.666403657156022E9, 0.0, 2022-10-21 18:54:17.156
1.0, -114341.15342392366, -150209.08715833272, -73736.1027283791, -132145.7930977098, 47402.93144022601, -80632.44290738618, 39517.7277347717, -117552.89793645119, 0.036000000000000004, 0.9540000000000001, 0.03, 192.0, 0.0, 0.0, 0.0, 0.0, 0.0, 0.0, 0.0, 0.0, 0.0, 1.6664036571560376E9, 0.0, 2022-10-21 18:54:17.156
2.0, -114338.5829733113, -150206.27083853137, -73733.06289113319, -132148.47530704443, 47407.625306561626, -80638.52258187802, 39517.61597604943, -117550.77452072794, 0.028, 0.9540000000000001, 0.03, 192.0, 0.0, 224.0, 29.0, 208.0, 0.0, 240.0, 0.0, 0.0, 0.0, 1.6664036571560535E9, 0.0, 2022-10-21 18:54:17.156
3.0, -114340.66168554565, -150208.7518821659, -73733.46522253337, -132154.33146409172, 47407.826472261724, -80652.71593960714, 39502.46149330872, -117543.8454799468, 0.028, 0.9540000000000001, 0.03, 192.0, 0.0, 0.0, 0.0, 0.0, 0.0, 0.0, 0.0, 0.0, 0.0, 1.6664036571560705E9, 0.0, 2022-10-21 18:54:17.156
4.0, -114342.11454893525, -150209.9141728776, -73738.51671678027, -132147.35771982168, 47403.42317860403, -80657.76743385404, 39495.75596997213, -117546.12535788123, 0.028, 0.9540000000000001, 0.03, 192.0, 0.0, 0.0, 0.0, 0.0, 0.0, 0.0, 0.0, 0.0, 0.0, 1.6664036571560867E9, 0.0, 2022-10-21 18:54:17.156
5.0, -114345.17673792562, -150214.31746653529, -73737.82381270216, -132139.95929240697, 47405.77011177184, -80628.28548291749, 39527.33898488748, -117538.90574442217, 0.028, 0.9540000000000001, 0.03, 192.0, 0.0, 0.0, 0.0, 0.0, 0.0, 0.0, 0.0, 0.0, 0.0, 1.666403657156103E9, 0.0, 2022-10-21 18:54:17.156
6.0, -114343.27683964692, -150212.7528444234, -73731.38651029904, -132139.75812670687, 47413.8390915202, -80626.18441893869, 39533.39630763487, -117536.80468044338, 0.028, 0.9540000000000001, 0.03, 192.0, 0.0, 0.0, 0.0, 0.0, 0.0, 0.0, 0.0, 0.0, 0.0, 1.6664036571561203E9, 0.0, 2022-10-21 18:54:17.156
7.0, -114358.69954332108, -150227.32618180825, -73745.15518488351, -132151.11281289015, 47404.831338504715, -80634.29810217596, 39518.30888012754, -117555.53544229692, 0.028, 0.9540000000000001, 0.03, 192.0, 0.0, 0.0, 0.0, 0.0, 0.0, 0.0, 0.0, 0.0, 0.0, 1.6664036571561363E9, 0.0, 2022-10-21 18:54:17.156
8.0, -114352.75397929597, -150221.09004510523, -73743.8587837051, -132149.12350763363, 47402.75262627037, -80642.16591622424, 39515.04552543706, -117549.0981398938, 0.028, 0.9540000000000001, 0.03, 192.0, 0.0, 0.0, 0.0, 0.0, 0.0, 0.0, 0.0, 0.0, 0.0, 1.666403657156152E9, 0.0, 2022-10-21 18:54:17.156
9.0, -114344.68499954761, -150214.0045421129, -73732.97348415536, -132124.55894047726, 47414.15201594258, -80628.01726198403, 39540.191237949286, -117538.48106127752, 0.028, 0.9540000000000001, 0.03, 192.0, 0.0, 0.0, 0.0, 0.0, 0.0, 0.0, 0.0, 0.0, 0.0, 1.6664036571561832E9, 0.0, 2022-10-21 18:54:17.156
10.0, -114347.747188538, -150219.4136642711, -73733.50992602229, -132128.2246265679, 47414.73316129842, -80625.44681137167, 39543.99103450668, -117541.5432502679, 0.028, 0.9540000000000001, 0.03, 192.0, 0.0, 0.0, 0.0, 0.0, 0.0, 0.0, 0.0, 0.0, 0.0, 1.6664036571561992E9, 0.0, 2022-10-21 18:54:17.156
11.0, -114358.81130204337, -150234.34462956723, -73749.78199598574, -132161.68518801752, 47399.310457624255, -80648.13383199381, 39520.52170282861, -117554.44020681862, 0.024, 0.96, 0.03, 192.0, 0.0, 192.0, 30.0, 0.0, 0.0, 240.0, 0.0, 0.0, 0.0, 1.6664036571562147E9, 0.0, 2022-10-21 18:54:17.156
12.0, -114349.71414205006, -150226.5215190079, -73740.1036906366, -132150.6881297455, 47407.96058272846, -80654.54878265248, 39515.827836493, -117542.92905842412, 0.024, 0.96, 0.03, 192.0, 0.0, 0.0, 0.0, 0.0, 0.0, 0.0, 0.0, 0.0, 0.0, 1.6664036571562335E9, 0.0, 2022-10-21 18:54:17.156
13.0, -114350.9434879951, -150226.74503645243, -73739.99193191432, -132137.05356562778, 47410.93336474102, -80641.47301214612, 39532.0328512231, -117537.96697115505, 0.024, 0.96, 0.03, 192.0, 0.0, 0.0, 0.0, 0.0, 0.0, 0.0, 0.0, 0.0, 0.0, 1.6664036571562464E9, 0.0, 2022-10-21 18:54:17.156
14.0, -114350.00471472797, -150227.8626236752, -73741.71301623738, -132133.00789988137, 47415.4931206099, -80626.34088114988, 39548.93077003131, -117534.88243042021, 0.024, 0.96, 0.03, 192.0, 0.0, 0.0, 0.0, 0.0, 0.0, 0.0, 0.0, 0.0, 0.0, 1.6664036571562576E9, 0.0, 2022-10-21 18:54:17.156
15.0, -114356.01733398646, -150234.54579526733, -73749.60318203011, -132148.56471402224, 47407.53589958381, -80630.61006434084, 39537.06199372554, -117540.78329095642, 0.024, 0.96, 0.03, 192.0, 0.0, 0.0, 0.0, 0.0, 0.0, 0.0, 0.0, 0.0, 0.0, 1.6664036571562693E9, 0.0, 2022-10-21 18:54:17.156
16.0, -114348.97653448302, -150228.62258298666, -73742.33886508213, -132145.68133898752, 47411.42510311903, -80641.3389016794, 39525.61790056442, -117537.4975845215, 0.024, 0.96, 0.03, 192.0, 0.0, 0.0, 0.0, 0.0, 0.0, 0.0, 0.0, 0.0, 0.0, 1.6664036571562808E9, 0.0, 2022-10-21 18:54:17.156
17.0, -114351.5916885843, -150233.1152836222, -73745.06577790568, -132141.2333418409, 47407.2900303948, -80627.03378522799, 39543.678110084315, -117545.23128810302, 0.024, 0.96, 0.03, 192.0, 0.0, 0.0, 0.0, 0.0, 0.0, 0.0, 0.0, 0.0, 0.0, 1.666403657156292E9, 0.0, 2022-10-21 18:54:17.156
18.0, -114351.61404032876, -150230.58953649874, -73748.48559480734, -132146.3518913212, 47403.69139953749, -80618.13779093478, 39560.75484284817, -117553.63554401822, 0.024, 0.96, 0.03, 192.0, 0.0, 0.0, 0.0, 0.0, 0.0, 0.0, 0.0, 0.0, 0.0, 1.6664036571563036E9, 0.0, 2022-10-21 18:54:17.156
19.0, -114349.91530775015, -150231.32714406576, -73745.33399883914, -132153.45974605795, 47403.95962047096, -80642.05415750196, 39542.94050251729, -117549.76869222746, 0.024, 0.96, 0.03, 192.0, 0.0, 0.0, 0.0, 0.0, 0.0, 0.0, 0.0, 0.0, 0.0, 1.666403657156315E9, 0.0, 2022-10-21 18:54:17.156
20.0, -114342.36041812426, -150223.92871665105, -73735.09689987861, -132138.90876041757, 47418.42119913354, -80645.85395405936, 39536.614958836435, -117535.6423897317, 0.024, 0.96, 0.03, 192.0, 0.0, 0.0, 0.0, 0.0, 0.0, 0.0, 0.0, 0.0, 0.0, 1.6664036571563268E9, 0.0, 2022-10-21 18:54:17.156
21.0, -114341.01931345694, -150223.6157922287, -73737.17561211296, -132124.04485035478, 47416.94598399949, -80628.01726198403, 39554.27283695613, -117538.21284034406, 0.016, 0.9560000000000001, 0.028, 192.0, 0.0, 128.0, 29.0, 224.0, 0.0, 224.0, 0.0, 0.0, 0.0, 1.6664036571563382E9, 0.0, 2022-10-21 18:54:17.156
22.0, -114343.52270883594, -150224.3086963068, -73742.38356857105, -132130.12452484661, 47410.46397810745, -80612.70631703215, 39571.841308097995, -117539.93392466712, 0.016, 0.9560000000000001, 0.028, 192.0, 0.0, 0.0, 0.0, 0.0, 0.0, 0.0, 0.0, 0.0, 0.0, 1.6664036571563501E9, 0.0, 2022-10-21 18:54:17.156
23.0, -114349.60238332777, -150230.70129522102, -73748.93262969644, -132148.3859000666, 47403.98197221541, -80628.03961372848, 39555.010444523155, -117550.86392770577, 0.016, 0.9560000000000001, 0.028, 192.0, 0.0, 0.0, 0.0, 0.0, 0.0, 0.0, 0.0, 0.0, 0.0, 1.6664036571563628E9, 0.0, 2022-10-21 18:54:17.156
24.0, -114341.01931345694, -150220.64301021612, -73742.65178950451, -132142.0827081302, 47413.772036286835, -80646.81507907095, 39532.39047913438, -117549.746340483, 0.016, 0.9560000000000001, 0.028, 192.0, 0.0, 0.0, 0.0, 0.0, 0.0, 0.0, 0.0, 0.0, 0.0, 1.6664036571564093E9, 0.0, 2022-10-21 18:54:17.156
25.0, -114338.60532505576, -150216.9996758699, -73738.87434469156, -132130.4821527579, 47416.38719038811, -80643.10468949136, 39536.30203441406, -117543.35374156878, 0.016, 0.9560000000000001, 0.028, 192.0, 0.0, 0.0, 0.0, 0.0, 0.0, 0.0, 0.0, 0.0, 0.0, 1.6664036571564212E9, 0.0, 2022-10-21 18:54:17.156
26.0, -114344.99792396999, -150223.7722544399, -73747.74798724032, -132135.7795161938, 47407.91587923955, -80634.00752949805, 39549.37780492041, -117543.48785203551, 0.016, 0.9560000000000001, 0.028, 192.0, 0.0, 0.0, 0.0, 0.0, 0.0, 0.0, 0.0, 0.0, 0.0, 1.6664036571564329E9, 0.0, 2022-10-21 18:54:17.156
27.0, -114344.48383384751, -150224.0181236289, -73746.58569652864, -132138.2382080839, 47414.062608964756, -80624.88801776028, 39558.296150958085, -117540.82799444532, 0.016, 0.9560000000000001, 0.028, 192.0, 0.0, 0.0, 0.0, 0.0, 0.0, 0.0, 0.0, 0.0, 0.0, 1.6664036571564455E9, 0.0, 2022-10-21 18:54:17.156
28.0, -114341.2428309015, -150222.5205567504, -73738.76258596928, -132138.57348425072, 47421.63985033511, -80644.0881662474, 39535.20679893575, -117544.06899739135, 0.016, 0.9560000000000001, 0.028, 192.0, 0.0, 0.0, 0.0, 0.0, 0.0, 0.0, 0.0, 0.0, 0.0, 1.6664036571564567E9, 0.0, 2022-10-21 18:54:17.156
29.0, -114351.16700543965, -150232.37767605516, -73747.50211805131, -132140.92041741853, 47410.95571648547, -80644.11051799185, 39530.53528434459, -117559.0446661764, 0.016, 0.9560000000000001, 0.028, 192.0, 0.0, 0.0, 0.0, 0.0, 0.0, 0.0, 0.0, 0.0, 0.0, 1.6664036571564684E9, 0.0, 2022-10-21 18:54:17.156
30.0, -114357.71606656506, -150237.74209472444, -73752.06187392019, -132137.96998715043, 47409.34639088469, -80629.40307014025, 39549.69072934279, -117561.50335806649, 0.016, 0.9560000000000001, 0.028, 192.0, 0.0, 0.0, 0.0, 0.0, 0.0, 0.0, 0.0, 0.0, 0.0, 1.6664036571564796E9, 0.0, 2022-10-21 18:54:17.156
31.0, -114354.58682234131, -150232.958821411, -73748.15031864052, -132141.07687962972, 47416.029562476826, -80628.15137245075, 39557.91617130234, -117556.38480858623, 0.016, 0.9560000000000001, 0.028, 192.0, 0.0, 128.0, 29.0, 224.0, 0.0, 224.0, 0.0, 0.0, 0.0, 1.6664036571564908E9, 0.0, 2022-10-21 18:54:17.156
32.0, -114350.45174961707, -150226.1191876077, -73745.57986802816, -132148.7435279779, 47416.3424868992, -80659.60027689938, 39529.95413898875, -117550.52865153893, 0.016, 0.9560000000000001, 0.028, 192.0, 0.0, 0.0, 0.0, 0.0, 0.0, 0.0, 0.0, 0.0, 0.0, 1.6664036571565027E9, 0.0, 2022-10-21 18:54:17.156
33.0, -114353.84921477428, -150228.2202515865, -73750.16197564149, -132146.441298299, 47408.1393966841, -80675.00062882909, 39516.610147548934, -117550.37218932775, 0.016, 0.9560000000000001, 0.028, 192.0, 0.0, 0.0, 0.0, 0.0, 0.0, 0.0, 0.0, 0.0, 0.0, 1.6664036571565142E9, 0.0, 2022-10-21 18:54:17.156
34.0, -114348.75301703847, -150220.2630305604, -73739.4107865585, -132119.9768328639, 47421.97512650194, -80655.82283208643, 39543.320482173025, -117540.40331130067, 0.016, 0.9560000000000001, 0.028, 192.0, 0.0, 0.0, 0.0, 0.0, 0.0, 0.0, 0.0, 0.0, 0.0, 1.666403657156526E9, 0.0, 2022-10-21 18:54:17.156
35.0, -114348.37303738273, -150219.68188520454, -73737.06385339067, -132113.31601301624, 47426.154902715076, -80644.44579415867, 39558.49731665818, -117534.74831995349, 0.016, 0.9560000000000001, 0.028, 192.0, 0.0, 0.0, 0.0, 0.0, 0.0, 0.0, 0.0, 0.0, 0.0, 1.6664036571565375E9, 0.0, 2022-10-21 18:54:17.156
36.0, -114351.81520602886, -150222.8558329172, -73746.49628955082, -132146.687167488, 47411.84978626368, -80677.10169280788, 39525.550845331054, -117545.18658461412, 0.016, 0.9560000000000001, 0.028, 192.0, 0.0, 0.0, 0.0, 0.0, 0.0, 0.0, 0.0, 0.0, 0.0, 1.66640365715655E9, 0.0, 2022-10-21 18:54:17.156
37.0, -114352.50811010697, -150221.33591429424, -73742.56238252668, -132140.87571392962, 47416.67776306603, -80686.48942547911, 39513.190330647274, -117541.83382294582, 0.016, 0.9560000000000001, 0.028, 192.0, 0.0, 0.0, 0.0, 0.0, 0.0, 0.0, 0.0, 0.0, 0.0, 1.6664036571565611E9, 0.0, 2022-10-21 18:54:17.156
38.0, -114360.04064798841, -150229.78487369834, -73744.77520522776, -132131.8903126586, 47415.42606537653, -80665.6352479023, 39533.70923205724, -117544.53838402491, 0.016, 0.9560000000000001, 0.028, 192.0, 0.0, 0.0, 0.0, 0.0, 0.0, 0.0, 0.0, 0.0, 0.0, 1.6664036571565733E9, 0.0, 2022-10-21 18:54:17.156
39.0, -114359.92888926613, -150229.5166527649, -73743.99289417182, -132130.81742892475, 47417.3930188886, -80653.45354717417, 39549.86954329843, -117545.25363984748, 0.016, 0.9560000000000001, 0.028, 192.0, 0.0, 0.0, 0.0, 0.0, 0.0, 0.0, 0.0, 0.0, 0.0, 1.6664036571565986E9, 0.0, 2022-10-21 18:54:17.156
40.0, -114360.73355206652, -150229.3154870648, -73743.05412090471, -132138.26055982837, 47421.08105672372, -80664.56236416845, 39538.33604315949, -117549.63458176072, 0.02, 0.9560000000000001, 0.028, 192.0, 0.0, 160.0, 29.0, 224.0, 0.0, 224.0, 0.0, 0.0, 0.0, 1.66640365715664E9, 0.0, 2022-10-21 18:54:17.156
41.0, -114359.66066833267, -150226.6109259857, -73741.89183019302, -132140.62984474062, 47420.81283579026, -80687.33879176842, 39513.99499344766, -117546.61709625926, 0.02, 0.9560000000000001, 0.028, 192.0, 0.0, 0.0, 0.0, 0.0, 0.0, 0.0, 0.0, 0.0, 0.0, 1.666403657156683E9, 0.0, 2022-10-21 18:54:17.156
42.0, -114360.55473811088, -150227.1697195971, -73741.66831274847, -132133.7902109373, 47418.734123555914, -80680.78973064301, 39520.54405457307, -117548.27112534895, 0.02, 0.9560000000000001, 0.028, 192.0, 0.0, 0.0, 0.0, 0.0, 0.0, 0.0, 0.0, 0.0, 0.0, 1.6664036571567247E9, 0.0, 2022-10-21 18:54:17.156
43.0, -114369.56249112636, -150236.17747261256, -73748.84322271863, -132134.37135629312, 47413.54851884228, -80665.6352479023, 39533.7315838017, -117556.20599463058, 0.02, 0.9560000000000001, 0.028, 192.0, 0.0, 0.0, 0.0, 0.0, 0.0, 0.0, 0.0, 0.0, 0.0, 1.666403657156767E9, 0.0, 2022-10-21 18:54:17.156
44.0, -114363.14754046769, -150227.32618180825, -73739.90252493651, -132130.7950771803, 47427.11602772665, -80680.92384110973, 39521.70634528474, -117536.491756021, 0.02, 0.9560000000000001, 0.028, 192.0, 0.0, 0.0, 0.0, 0.0, 0.0, 0.0, 0.0, 0.0, 0.0, 1.6664036571568077E9, 0.0, 2022-10-21 18:54:17.156
45.0, -114363.05813348987, -150226.87914691915, -73742.56238252668, -132132.8290859257, 47429.038277749816, -80705.33194605494, 39494.25840309363, -117538.45870953306, 0.02, 0.9560000000000001, 0.028, 192.0, 0.0, 0.0, 0.0, 0.0, 0.0, 0.0, 0.0, 0.0, 0.0, 1.666403657156849E9, 0.0, 2022-10-21 18:54:17.156
46.0, -114378.59259588631, -150242.39125757114, -73757.06866467818, -132137.07591737222, 47419.62819333413, -80689.3951522583, 39506.90949045533, -117544.82895670283, 0.02, 0.9560000000000001, 0.028, 192.0, 0.0, 0.0, 0.0, 0.0, 0.0, 0.0, 0.0, 0.0, 0.0, 1.6664036571568751E9, 0.0, 2022-10-21 18:54:17.156
47.0, -114374.88220630673, -150238.90438543612, -73750.51960355278, -132127.71053644546, 47427.36189691567, -80652.82769832942, 39543.54399961758, -117532.58020074133, 0.02, 0.9560000000000001, 0.028, 192.0, 0.0, 0.0, 0.0, 0.0, 0.0, 0.0, 0.0, 0.0, 0.0, 1.6664036571568892E9, 0.0, 2022-10-21 18:54:17.156
48.0, -114369.56249112636, -150233.04822838883, -73743.52350753827, -132121.9884898649, 47439.163617988066, -80664.00357055708, 39538.00076699266, -117531.30615130738, 0.02, 0.9560000000000001, 0.028, 192.0, 0.0, 0.0, 0.0, 0.0, 0.0, 0.0, 0.0, 0.0, 0.0, 1.666403657156904E9, 0.0, 2022-10-21 18:54:17.156
49.0, -114375.73157259604, -150239.17260636957, -73752.59831578712, -132132.940844648, 47431.16169347307, -80690.91507088127, 39509.122313156404, -117543.17492761314, 0.02, 0.9560000000000001, 0.028, 192.0, 0.0, 0.0, 0.0, 0.0, 0.0, 0.0, 0.0, 0.0, 0.0, 1.6664036571569197E9, 0.0, 2022-10-21 18:54:17.156
50.0, -114379.3972586867, -150243.17356862707, -73757.62745828956, -132142.86501918614, 47421.03635323481, -80707.14243735581, 39497.63351650638, -117551.19920387259, 0.026000000000000002, 0.9580000000000001, 0.026000000000000002, 192.0, 0.0, 208.0, 29.0, 240.0, 0.0, 208.0, 0.0, 0.0, 0.0, 1.666403657156934E9, 0.0, 2022-10-21 18:54:17.156
51.0, -114370.9930027715, -150233.13763536664, -73744.39522557202, -132126.57059747822, 47434.84973130819, -80682.66727717726, 39526.601377320454, -117542.25850609047, 0.026000000000000002, 0.9580000000000001, 0.026000000000000002, 192.0, 0.0, 0.0, 0.0, 0.0, 0.0, 0.0, 0.0, 0.0, 0.0, 1.666403657156949E9, 0.0, 2022-10-21 18:54:17.156
52.0, -114372.26705220545, -150233.1599871111, -73744.26111510528, -132131.17505683601, 47435.54263538631, -80659.15324201027, 39544.77334556262, -117542.5490787684, 0.026000000000000002, 0.9580000000000001, 0.026000000000000002, 192.0, 0.0, 0.0, 0.0, 0.0, 0.0, 0.0, 0.0, 0.0, 0.0, 1.666403657156963E9, 0.0, 2022-10-21 18:54:17.156
53.0, -114368.53431088143, -150227.79556844183, -73740.32720808116, -132140.47338252942, 47436.68257435353, -80679.02394283105, 39523.606243563445, -117537.40817754366, 0.026000000000000002, 0.9580000000000001, 0.026000000000000002, 192.0, 0.0, 0.0, 0.0, 0.0, 0.0, 0.0, 0.0, 0.0, 0.0, 1.666403657156978E9, 0.0, 2022-10-21 18:54:17.156
54.0, -114367.4390754031, -150229.8072254428, -73738.65082724701, -132131.6891469585, 47438.76128658787, -80682.33200101042, 39522.3768976184, -117535.2400583315, 0.026000000000000002, 0.9580000000000001, 0.026000000000000002, 192.0, 0.0, 0.0, 0.0, 0.0, 0.0, 0.0, 0.0, 0.0, 0.0, 1.666403657157006E9, 0.0, 2022-10-21 18:54:17.157
55.0, -114376.26801446296, -150241.49718779293, -73750.45254831942, -132131.2421120694, 47430.491141139406, -80666.28344849151, 39536.749069303165, -117542.83965144631, 0.026000000000000002, 0.9580000000000001, 0.026000000000000002, 192.0, 0.0, 0.0, 0.0, 0.0, 0.0, 0.0, 0.0, 0.0, 0.0, 1.6664036571570213E9, 0.0, 2022-10-21 18:54:17.157
56.0, -114375.57511038485, -150240.69252499254, -73751.95011519792, -132131.39857428058, 47436.1461324866, -80661.56723041144, 39540.101830971464, -117546.3488753258, 0.026000000000000002, 0.9580000000000001, 0.026000000000000002, 192.0, 0.0, 0.0, 0.0, 0.0, 0.0, 0.0, 0.0, 0.0, 0.0, 1.6664036571570363E9, 0.0, 2022-10-21 18:54:17.157
57.0, -114373.76461908396, -150235.73043772345, -73751.03369367524, -132135.39953653808, 47439.38713543262, -80657.74508210958, 39534.223322179714, -117553.61319227377, 0.026000000000000002, 0.9580000000000001, 0.026000000000000002, 192.0, 0.0, 0.0, 0.0, 0.0, 0.0, 0.0, 0.0, 0.0, 0.0, 1.6664036571570487E9, 0.0, 2022-10-21 18:54:17.157
58.0, -114373.96578478406, -150238.54675752483, -73757.26983037828, -132142.50739127488, 47431.02758300633, -80671.75962588306, 39518.10771442744, -117553.09910215129, 0.026000000000000002, 0.9580000000000001, 0.026000000000000002, 192.0, 0.0, 0.0, 0.0, 0.0, 0.0, 0.0, 0.0, 0.0, 0.0, 1.6664036571570616E9, 0.0, 2022-10-21 18:54:17.157
59.0, -114368.13197948123, -150235.14929236763, -73751.79365298673, -132127.0846876007, 47432.9945365184, -80671.55846018296, 39526.266101153626, -117546.23711660352, 0.026000000000000002, 0.9580000000000001, 0.026000000000000002, 192.0, 0.0, 0.0, 0.0, 0.0, 0.0, 0.0, 0.0, 0.0, 0.0, 1.6664036571570745E9, 0.0, 2022-10-21 18:54:17.157
60.0, -114359.14657821019, -150226.58857424124, -73761.47195833588, -132128.64930971258, 47424.32205966974, -80653.38649194081, 39544.05808974005, -117555.06605566337, 0.028, 0.96, 0.028, 192.0, 0.0, 224.0, 30.0, 0.0, 0.0, 224.0, 0.0, 0.0, 0.0, 1.666403657157087E9, 0.0, 2022-10-21 18:54:17.157
61.0, -114355.74911305298, -150218.78781542633, -73761.18138565795, -132146.57540876573, 47418.66706832255, -80677.57107944145, 39521.661641795836, -117556.11658765277, 0.028, 0.96, 0.028, 192.0, 0.0, 0.0, 0.0, 0.0, 0.0, 0.0, 0.0, 0.0, 0.0, 1.666403657157101E9, 0.0, 2022-10-21 18:54:17.157
62.0, -114366.12032248024, -150228.1084928642, -73745.3563505836, -132139.17698135102, 47429.75353357238, -80697.88881515132, 39505.34486834346, -117542.12439562374, 0.028, 0.96, 0.028, 192.0, 0.0, 0.0, 0.0, 0.0, 0.0, 0.0, 0.0, 0.0, 0.0, 1.666403657157114E9, 0.0, 2022-10-21 18:54:17.157
63.0, -114366.90263353619, -150228.84610043123, -73743.2552866048, -132127.35290853417, 47435.587338875215, -80685.5953557009, 39520.99108946217, -117535.79885194289, 0.028, 0.96, 0.028, 192.0, 0.0, 0.0, 0.0, 0.0, 0.0, 0.0, 0.0, 0.0, 0.0, 1.6664036571571276E9, 0.0, 2022-10-21 18:54:17.157
64.0, -114363.99690675699, -150225.44863527402, -73742.49532729332, -132125.00597536637, 47436.28024295333, -80674.8888701068, 39534.84917102446, -117541.38678805671, 0.028, 0.96, 0.028, 192.0, 0.0, 0.0, 0.0, 0.0, 0.0, 0.0, 0.0, 0.0, 0.0, 1.6664036571571407E9, 0.0, 2022-10-21 18:54:17.157
65.0, -114363.97455501254, -150223.2581643174, -73747.03273141774, -132138.55113250628, 47427.9430422715, -80681.37087599885, 39528.18835117678, -117549.41106431617, 0.028, 0.96, 0.028, 192.0, 0.0, 0.0, 0.0, 0.0, 0.0, 0.0, 0.0, 0.0, 0.0, 1.666403657157154E9, 0.0, 2022-10-21 18:54:17.157
66.0, -114364.17572071264, -150217.1114345922, -73745.75868198379, -132144.56375176474, 47426.28901318181, -80704.3484692989, 39507.35652534444, -117544.96306716956, 0.028, 0.96, 0.028, 192.0, 0.0, 0.0, 0.0, 0.0, 0.0, 0.0, 0.0, 0.0, 0.0, 1.6664036571571672E9, 0.0, 2022-10-21 18:54:17.157
67.0, -114367.77435156994, -150214.31746653529, -73739.99193191432, -132130.45980101347, 47432.1451702291, -80688.92576562474, 39522.08632494049, -117534.12247110874, 0.028, 0.96, 0.028, 192.0, 0.0, 0.0, 0.0, 0.0, 0.0, 0.0, 0.0, 0.0, 0.0, 1.66640365715718E9, 0.0, 2022-10-21 18:54:17.157
68.0, -114366.09797073579, -150210.07063508878, -73735.74510046782, -132120.49092298638, 47436.369649931155, -80669.32328573744, 39547.45555489726, -117524.6900349486, 0.028, 0.96, 0.028, 192.0, 0.0, 0.0, 0.0, 0.0, 0.0, 0.0, 0.0, 0.0, 0.0, 1.666403657157193E9, 0.0, 2022-10-21 18:54:17.157
69.0, -114371.50709289398, -150212.41756825658, -73743.67996974946, -132133.05260337028, 47430.11116148367, -80684.05308533348, 39534.513894857635, -117532.98253214151, 0.026000000000000002, 0.9580000000000001, 0.03, 192.0, 0.0, 208.0, 29.0, 240.0, 0.0, 240.0, 0.0, 0.0, 0.0, 1.666403657157217E9, 0.0, 2022-10-21 18:54:17.157
70.0, -114375.53040689594, -150214.205707813, -73748.39618782952, -132142.5967982527, 47427.60776610467, -80703.20853033169, 39513.10092366945, -117537.45288103259, 0.026000000000000002, 0.9580000000000001, 0.03, 192.0, 0.0, 0.0, 0.0, 0.0, 0.0, 0.0, 0.0, 0.0, 0.0, 1.666403657157232E9, 0.0, 2022-10-21 18:54:17.157
71.0, -114378.9502237976, -150217.1561380811, -73747.50211805131, -132134.7289842044, 47429.3959056611, -80684.23189928912, 39529.39534537737, -117537.58699149931, 0.026000000000000002, 0.9580000000000001, 0.03, 192.0, 0.0, 0.0, 0.0, 0.0, 0.0, 0.0, 0.0, 0.0, 0.0, 1.6664036571572444E9, 0.0, 2022-10-21 18:54:17.157
72.0, -114381.31950870986, -150217.82669041475, -73747.59152502913, -132130.929187647, 47431.72048708445, -80665.34467522439, 39552.97643577772, -117534.70361646458, 0.026000000000000002, 0.9580000000000001, 0.03, 192.0, 0.0, 0.0, 0.0, 0.0, 0.0, 0.0, 0.0, 0.0, 0.0, 1.6664036571572573E9, 0.0, 2022-10-21 18:54:17.157
73.0, -114377.27384296345, -150211.210574056, -73745.28929535023, -132131.91266440306, 47438.42601042104, -80674.86651836235, 39547.05322349706, -117525.91938089364, 0.026000000000000002, 0.9580000000000001, 0.03, 192.0, 0.0, 0.0, 0.0, 0.0, 0.0, 0.0, 0.0, 0.0, 0.0, 1.66640365715727E9, 0.0, 2022-10-21 18:54:17.157
74.0, -114378.25731971949, -150212.03758860083, -73744.61874301657, -132137.07591737222, 47440.705888355486, -80691.96560287067, 39527.8307232655, -117521.94077038059, 0.026000000000000002, 0.9580000000000001, 0.03, 192.0, 0.0, 0.0, 0.0, 0.0, 0.0, 0.0, 0.0, 0.0, 0.0, 1.6664036571572828E9, 0.0, 2022-10-21 18:54:17.157
75.0, -114389.27672973595, -150223.99577188442, -73750.60901053059, -132141.1439348631, 47435.22971096393, -80689.73042842513, 39529.417697121826, -117531.30615130738, 0.026000000000000002, 0.9580000000000001, 0.03, 192.0, 0.0, 0.0, 0.0, 0.0, 0.0, 0.0, 0.0, 0.0, 0.0, 1.6664036571572957E9, 0.0, 2022-10-21 18:54:17.157
76.0, -114386.03572678992, -150224.1075306067, -73743.14352788252, -132127.1293910896, 47442.359917445174, -80677.7498933971, 39546.62854035241, -117527.41694777214, 0.026000000000000002, 0.9580000000000001, 0.03, 192.0, 0.0, 0.0, 0.0, 0.0, 0.0, 0.0, 0.0, 0.0, 0.0, 1.6664036571573083E9, 0.0, 2022-10-21 18:54:17.157
77.0, -114378.61494763076, -150219.0560363598, -73736.75092896831, -132121.40734450906, 47449.04308903731, -80668.42921595923, 39559.749014347675, -117520.15263082417, 0.026000000000000002, 0.9580000000000001, 0.03, 192.0, 0.0, 0.0, 0.0, 0.0, 0.0, 0.0, 0.0, 0.0, 0.0, 1.6664036571573215E9, 0.0, 2022-10-21 18:54:17.157
78.0, -114379.10668600879, -150220.4194927716, -73741.62360925956, -132138.1488011061, 47442.449324422996, -80682.28729752151, 39541.55469436105, -117519.75029942398, 0.026000000000000002, 0.9580000000000001, 0.03, 192.0, 0.0, 0.0, 0.0, 0.0, 0.0, 0.0, 0.0, 0.0, 0.0, 1.666403657157334E9, 0.0, 2022-10-21 18:54:17.157
79.0, -114378.21261623056, -150217.33495203673, -73741.46714704837, -132126.95057713398, 47445.802086091295, -80691.65267844828, 39531.16113318934, -117522.72308143653, 0.028, 0.9580000000000001, 0.036000000000000004, 192.0, 0.0, 224.0, 29.0, 240.0, 1.0, 32.0, 0.0, 0.0, 0.0, 1.6664036571573465E9, 0.0, 2022-10-21 18:54:17.157
80.0, -114382.43709593262, -150220.97828638295, -73741.62360925956, -132116.10998107315, 47447.67963262554, -80662.95303856768, 39562.319464960034, -117517.11279357826, 0.028, 0.9580000000000001, 0.036000000000000004, 192.0, 0.0, 0.0, 0.0, 0.0, 0.0, 0.0, 0.0, 0.0, 0.0, 1.6664036571573615E9, 0.0, 2022-10-21 18:54:17.157
81.0, -114386.99685180151, -150226.29800156332, -73747.16684188448, -132129.7445451909, 47442.71754535646, -80675.045332318, 39557.871467813435, -117523.93007563712, 0.028, 0.9580000000000001, 0.036000000000000004, 192.0, 0.0, 0.0, 0.0, 0.0, 0.0, 0.0, 0.0, 0.0, 0.0, 1.6664036571573744E9, 0.0, 2022-10-21 18:54:17.157
82.0, -114388.71793612457, -150225.38158004064, -73754.58762104364, -132139.66871972903, 47440.9964610334, -80686.08709407892, 39545.51095312965, -117525.9417326381, 0.028, 0.9580000000000001, 0.036000000000000004, 192.0, 0.0, 0.0, 0.0, 0.0, 0.0, 0.0, 0.0, 0.0, 0.0, 1.6664036571573873E9, 0.0, 2022-10-21 18:54:17.157
83.0, -114382.39239244371, -150217.82669041475, -73750.38549308604, -132132.4267545255, 47444.550388401796, -80701.88977740881, 39532.0328512231, -117526.00878787147, 0.028, 0.9580000000000001, 0.036000000000000004, 192.0, 0.0, 0.0, 0.0, 0.0, 0.0, 0.0, 0.0, 0.0, 0.0, 1.6664036571574E9, 0.0, 2022-10-21 18:54:17.157
84.0, -114389.25437799148, -150227.19207134153, -73748.15031864052, -132121.85437939817, 47444.57274014625, -80679.91801260925, 39556.01627302364, -117530.50148850698, 0.028, 0.9580000000000001, 0.036000000000000004, 192.0, 0.0, 0.0, 0.0, 0.0, 0.0, 0.0, 0.0, 0.0, 0.0, 1.666403657157442E9, 0.0, 2022-10-21 18:54:17.157
0.0, 0.0, 0.0, 0.0, 0.0, 0.0, 0.0, 0.0, 0.0, 0.04, 0.962, 0.04, 192.0, 1.0, 64.0, 30.0, 16.0, 1.0, 64.0, 0.0, 0.0, 0.0, 1.6664036572395506E9, 0.0, 2022-10-21 18:54:17.239
1.0, -110207.35474912582, -150100.0329971353, -65119.75111004724, -131709.39763896438, 47997.08551133698, -71786.98590838742, 37713.78549501723, -118933.76635715562, 0.04, 0.962, 0.04, 192.0, 0.0, 0.0, 0.0, 0.0, 0.0, 0.0, 0.0, 0.0, 0.0, 1.6664036577266877E9, 0.0, 2022-10-21 18:54:17.726
2.0, -110202.45971709011, -150100.23416283538, -65115.90661000093, -131702.46859818324, 47998.784243915594, -71774.62539370364, 37736.47251563937, -118929.43011873128, 0.04, 0.962, 0.04, 192.0, 0.0, 0.0, 0.0, 0.0, 0.0, 0.0, 0.0, 0.0, 0.0, 1.6664036577268064E9, 0.0, 2022-10-21 18:54:17.726
3.0, -110204.06904269088, -150109.59954376216, -65123.03681648217, -131718.20422627978, 47985.93199085379, -71770.42326574604, 37746.441393666435, -118939.26488629162, 0.04, 0.962, 0.04, 192.0, 0.0, 0.0, 0.0, 0.0, 0.0, 0.0, 0.0, 0.0, 0.0, 1.6664036577268367E9, 0.0, 2022-10-21 18:54:17.726
4.0, -110202.10208917882, -150105.59858150466, -65118.74528154675, -131723.56864494903, 47989.73178741119, -71783.18611183001, 37734.72907957186, -118929.98891234267, 0.04, 0.962, 0.04, 192.0, 0.0, 0.0, 0.0, 0.0, 0.0, 0.0, 0.0, 0.0, 0.0, 1.6664036577268684E9, 0.0, 2022-10-21 18:54:17.726
5.0, -110203.84552524633, -150106.47029953843, -65117.51593560171, -131722.45105772628, 47992.16812755682, -71792.84206543471, 37728.8058672912, -118923.08222330597, 0.04, 0.962, 0.04, 192.0, 0.0, 0.0, 0.0, 0.0, 0.0, 0.0, 0.0, 0.0, 0.0, 1.666403657726896E9, 0.0, 2022-10-21 18:54:17.726
6.0, -110196.3129873649, -150105.01743614883, -65115.28076115618, -131708.77179011964, 47995.61029620294, -71790.71864971146, 37741.23343720835, -118922.56813318351, 0.04, 0.962, 0.04, 192.0, 0.0, 0.0, 0.0, 0.0, 0.0, 0.0, 0.0, 0.0, 0.0, 1.6664036577269309E9, 0.0, 2022-10-21 18:54:17.726
7.0, -110192.58024604086, -150106.71616872743, -65126.74720606175, -131732.1517148199, 47982.78039488559, -71788.79639968829, 37751.068204768686, -118941.09772933695, 0.042, 0.96, 0.04, 192.0, 1.0, 80.0, 30.0, 0.0, 1.0, 64.0, 0.0, 0.0, 0.0, 1.6664036577269566E9, 0.0, 2022-10-21 18:54:17.726
8.0, -110202.14679266773, -150115.81332872075, -65131.21755495281, -131747.01562488265, 47973.95145582574, -71803.61560626216, 37741.076974997166, -118943.98110437169, 0.042, 0.96, 0.04, 192.0, 0.0, 0.0, 0.0, 0.0, 0.0, 0.0, 0.0, 0.0, 0.0, 1.6664036577269864E9, 0.0, 2022-10-21 18:54:17.726
9.0, -110208.20411541512, -150122.2729828683, -65140.962915535325, -131756.62687499844, 47959.6686911188, -71830.37064437517, 37721.72036429887, -118954.5758312435, 0.042, 0.96, 0.04, 192.0, 0.0, 0.0, 0.0, 0.0, 0.0, 0.0, 0.0, 0.0, 0.0, 1.6664036577270124E9, 0.0, 2022-10-21 18:54:17.727
10.0, -110186.72408899356, -150108.54901177276, -65119.304075158136, -131743.61815972545, 47974.57730467049, -71826.48144083994, 37740.4064226635, -118932.08997632147, 0.042, 0.96, 0.04, 192.0, 0.0, 0.0, 0.0, 0.0, 0.0, 0.0, 0.0, 0.0, 0.0, 1.6664036577270389E9, 0.0, 2022-10-21 18:54:17.727
11.0, -110177.58222551135, -150099.09422386816, -65106.18360116287, -131737.2032090668, 47988.77066239961, -71820.66998728157, 37753.70571061441, -118916.35434822492, 0.042, 0.96, 0.04, 192.0, 0.0, 0.0, 0.0, 0.0, 0.0, 0.0, 0.0, 0.0, 0.0, 1.6664036577270656E9, 0.0, 2022-10-21 18:54:17.727
12.0, -110173.93889116513, -150094.69093021046, -65099.65689178192, -131735.9068078884, 47995.58794445848, -71817.92072271356, 37755.113870515095, -118909.0676795325, 0.042, 0.96, 0.04, 192.0, 0.0, 0.0, 0.0, 0.0, 0.0, 0.0, 0.0, 0.0, 0.0, 1.6664036577270918E9, 0.0, 2022-10-21 18:54:17.727
13.0, -110174.4529812876, -150104.74921521536, -65104.90955172892, -131746.16625859335, 47988.12246181041, -71829.27540889685, 37743.80388782071, -118910.81111560001, 0.042, 0.96, 0.04, 192.0, 0.0, 0.0, 0.0, 0.0, 0.0, 0.0, 0.0, 0.0, 0.0, 1.6664036577271185E9, 0.0, 2022-10-21 18:54:17.727
14.0, -110155.78927466742, -150091.0252441198, -65091.677319011374, -131735.839752655, 47993.755101413146, -71830.54945833082, 37757.4608036829, -118899.63524337235, 0.042, 0.96, 0.04, 192.0, 0.0, 0.0, 0.0, 0.0, 0.0, 0.0, 0.0, 0.0, 0.0, 1.6664036577271457E9, 0.0, 2022-10-21 18:54:17.727
15.0, -110159.99140262502, -150092.56751448722, -65097.01938593619, -131737.98552012272, 47984.70264490875, -71834.19279267703, 37764.8145276087, -118917.00254881413, 0.042, 0.96, 0.04, 192.0, 0.0, 0.0, 0.0, 0.0, 0.0, 0.0, 0.0, 0.0, 0.0, 1.6664036577273412E9, 0.0, 2022-10-21 18:54:17.727
16.0, -110170.42966728564, -150104.41393904854, -65106.5188773297, -131749.8542964285, 47980.947551840254, -71838.23845842344, 37764.85923109761, -118920.95880758272, 0.042, 0.96, 0.04, 192.0, 0.0, 0.0, 0.0, 0.0, 0.0, 0.0, 0.0, 0.0, 0.0, 1.6664036577273712E9, 0.0, 2022-10-21 18:54:17.727
17.0, -110153.64350719971, -150092.0310726203, -65089.9115311994, -131737.15850557789, 47998.11369158193, -71832.38230137614, 37772.19060327895, -118902.7644875961, 0.048, 0.96, 0.032, 192.0, 1.0, 128.0, 30.0, 0.0, 1.0, 0.0, 0.0, 0.0, 0.0, 1.6664036577274E9, 0.0, 2022-10-21 18:54:17.727
18.0, -110154.17994906665, -150090.935837142, -65090.135048643955, -131728.5977874515, 47997.62195320392, -71845.30160967131, 37769.35193173312, -118900.52931315058, 0.048, 0.96, 0.032, 192.0, 0.0, 0.0, 0.0, 0.0, 0.0, 0.0, 0.0, 0.0, 0.0, 1.666403657727428E9, 0.0, 2022-10-21 18:54:17.727
19.0, -110161.66778345917, -150097.90958141204, -65098.71811851479, -131728.46367698477, 47991.855203134444, -71840.36187414669, 37788.64148719805, -118902.98800504065, 0.048, 0.96, 0.032, 192.0, 0.0, 0.0, 0.0, 0.0, 0.0, 0.0, 0.0, 0.0, 0.0, 1.666403657727454E9, 0.0, 2022-10-21 18:54:17.727
20.0, -110156.7056961901, -150097.4848982674, -65097.198199891835, -131738.2537410562, 47991.74344441217, -71845.27925792686, 37791.7707314218, -118897.75769683812, 0.048, 0.96, 0.032, 192.0, 0.0, 0.0, 0.0, 0.0, 0.0, 0.0, 0.0, 0.0, 0.0, 1.6664036577274797E9, 0.0, 2022-10-21 18:54:17.727
21.0, -110158.31502179087, -150101.88819192507, -65097.77934524767, -131748.1555638499, 47988.94947635526, -71873.19658675154, 37761.35000721813, -118895.94720553723, 0.048, 0.96, 0.032, 192.0, 0.0, 0.0, 0.0, 0.0, 0.0, 0.0, 0.0, 0.0, 0.0, 1.6664036577275057E9, 0.0, 2022-10-21 18:54:17.727
22.0, -110158.2032630686, -150098.82600293471, -65100.84153423805, -131741.71826144675, 47986.468432720714, -71865.46288317, 37765.93211483146, -118904.73144110818, 0.048, 0.96, 0.032, 192.0, 0.0, 0.0, 0.0, 0.0, 0.0, 0.0, 0.0, 0.0, 0.0, 1.666403657727532E9, 0.0, 2022-10-21 18:54:17.727
23.0, -110145.1498443067, -150090.01941561932, -65085.9105689419, -131738.67842420083, 47992.65986593484, -71863.00419127992, 37782.919440617494, -118893.64497585833, 0.048, 0.96, 0.032, 192.0, 0.0, 0.0, 0.0, 0.0, 0.0, 0.0, 0.0, 0.0, 0.0, 1.6664036577275562E9, 0.0, 2022-10-21 18:54:17.727
24.0, -110150.4472077426, -150097.82017443422, -65085.4635340528, -131749.34020630602, 47991.363464756425, -71861.95365929052, 37795.659934957024, -118890.44867640123, 0.048, 0.96, 0.032, 192.0, 0.0, 0.0, 0.0, 0.0, 0.0, 0.0, 0.0, 0.0, 0.0, 1.6664036577275684E9, 0.0, 2022-10-21 18:54:17.727
25.0, -110146.96033560758, -150095.16031684403, -65085.396478819435, -131756.4480610428, 47992.63751419038, -71881.0196973109, 37778.449091726434, -118886.1124379769, 0.048, 0.96, 0.032, 192.0, 0.0, 0.0, 0.0, 0.0, 0.0, 0.0, 0.0, 0.0, 0.0, 1.6664036577275808E9, 0.0, 2022-10-21 18:54:17.727
26.0, -110139.91953610415, -150092.8804389096, -65081.39551656193, -131751.68713947383, 47993.68804617978, -71888.6192904257, 37771.09536780064, -118880.63626058535, 0.048, 0.96, 0.032, 192.0, 0.0, 0.0, 0.0, 0.0, 0.0, 0.0, 0.0, 0.0, 0.0, 1.6664036577275927E9, 0.0, 2022-10-21 18:54:17.727
27.0, -110141.48415821603, -150096.94845640045, -65081.70844098431, -131751.26245632916, 47988.63655193288, -71879.41037171011, 37788.55208022024, -118884.19018795375, 0.05, 0.9540000000000001, 0.03, 192.0, 1.0, 144.0, 29.0, 208.0, 0.0, 240.0, 0.0, 0.0, 0.0, 1.666403657727605E9, 0.0, 2022-10-21 18:54:17.727
28.0, -110153.06236184387, -150109.75600597335, -65093.845438223536, -131765.5005175472, 47977.25951400513, -71887.81462762531, 37793.29065004476, -118895.72368809268, 0.05, 0.9540000000000001, 0.03, 192.0, 0.0, 0.0, 0.0, 0.0, 0.0, 0.0, 0.0, 0.0, 0.0, 1.66640365772762E9, 0.0, 2022-10-21 18:54:17.727
29.0, -110137.72906514753, -150095.56264824423, -65079.00387990521, -131757.78916571013, 47993.7774531576, -71903.1702760661, 37783.88056562908, -118875.65182157181, 0.05, 0.9540000000000001, 0.03, 192.0, 0.0, 0.0, 0.0, 0.0, 0.0, 0.0, 0.0, 0.0, 0.0, 1.666403657727632E9, 0.0, 2022-10-21 18:54:17.727
30.0, -110127.91664933166, -150087.85129640714, -65072.11954261298, -131749.2955028171, 48000.21475556073, -71895.52597946239, 37783.03119933978, -118862.9560307212, 0.05, 0.9540000000000001, 0.03, 192.0, 0.0, 0.0, 0.0, 0.0, 0.0, 0.0, 0.0, 0.0, 0.0, 1.6664036577276905E9, 0.0, 2022-10-21 18:54:17.727
31.0, -110121.88167832872, -150087.1807440735, -65072.030135635156, -131747.03797662712, 48002.40522651735, -71877.59988040924, 37805.69586821745, -118857.21163239618, 0.05, 0.9540000000000001, 0.03, 192.0, 0.0, 0.0, 0.0, 0.0, 0.0, 0.0, 0.0, 0.0, 0.0, 1.666403657727703E9, 0.0, 2022-10-21 18:54:17.727
32.0, -110122.97691380703, -150091.5840377312, -65071.65015597942, -131752.51415401866, 48001.19823231676, -71888.39577298115, 37806.85815892913, -118865.57118482247, 0.05, 0.9540000000000001, 0.03, 192.0, 0.0, 0.0, 0.0, 0.0, 0.0, 0.0, 0.0, 0.0, 0.0, 1.6664036577277155E9, 0.0, 2022-10-21 18:54:17.727
33.0, -110118.52891666042, -150090.3323400417, -65069.14676060042, -131752.89413367442, 48002.762854428634, -71895.10129631773, 37801.247871070846, -118865.95116447822, 0.05, 0.9540000000000001, 0.03, 192.0, 0.0, 0.0, 0.0, 0.0, 0.0, 0.0, 0.0, 0.0, 0.0, 1.666403657727728E9, 0.0, 2022-10-21 18:54:17.727
34.0, -110107.9341897886, -150080.3858137591, -65058.86495815098, -131731.88349388642, 48014.74338945668, -71896.82238064079, 37799.012696625316, -118848.06976891396, 0.05, 0.9540000000000001, 0.03, 192.0, 0.0, 0.0, 0.0, 0.0, 0.0, 0.0, 0.0, 0.0, 0.0, 1.66640365772774E9, 0.0, 2022-10-21 18:54:17.727
35.0, -110125.63677139721, -150095.00385463284, -65072.030135635156, -131756.89509593192, 47993.86686013542, -71913.83205817129, 37789.647315698545, -118863.62658305487, 0.05, 0.9540000000000001, 0.03, 192.0, 0.0, 0.0, 0.0, 0.0, 0.0, 0.0, 0.0, 0.0, 0.0, 1.6664036577277524E9, 0.0, 2022-10-21 18:54:17.727
36.0, -110119.53474516091, -150090.89113365306, -65062.70945819729, -131761.27603784515, 47998.918354382324, -71913.09445060426, 37805.07001937271, -118855.08821667293, 0.044, 0.9580000000000001, 0.024, 192.0, 1.0, 96.0, 29.0, 240.0, 0.0, 192.0, 0.0, 0.0, 0.0, 1.6664036577277648E9, 0.0, 2022-10-21 18:54:17.727
37.0, -110113.3880154357, -150088.65595920754, -65051.66769643637, -131761.52190703416, 48007.590831230984, -71918.25770357343, 37804.734743205874, -118845.8569462129, 0.044, 0.9580000000000001, 0.024, 192.0, 0.0, 0.0, 0.0, 0.0, 0.0, 0.0, 0.0, 0.0, 0.0, 1.6664036577277775E9, 0.0, 2022-10-21 18:54:17.727
38.0, -110115.71259685906, -150089.90765689703, -65054.5063679822, -131769.7026455048, 48002.1817090728, -71924.69500597657, 37793.64827795605, -118853.99298119462, 0.044, 0.9580000000000001, 0.024, 192.0, 0.0, 0.0, 0.0, 0.0, 0.0, 0.0, 0.0, 0.0, 0.0, 1.66640365772779E9, 0.0, 2022-10-21 18:54:17.727
39.0, -110124.18390800762, -150099.27303782382, -65063.44706576432, -131772.92129670636, 47990.670560678314, -71933.32277933632, 37790.1167023321, -118851.3554753489, 0.044, 0.9580000000000001, 0.024, 192.0, 0.0, 0.0, 0.0, 0.0, 0.0, 0.0, 0.0, 0.0, 0.0, 1.6664036577278025E9, 0.0, 2022-10-21 18:54:17.727
40.0, -110098.34529141728, -150077.18951430198, -65040.93885909783, -131753.85525868597, 48010.96594464373, -71910.74751743645, 37825.58892078268, -118826.67914947023, 0.044, 0.9580000000000001, 0.024, 192.0, 0.0, 0.0, 0.0, 0.0, 0.0, 0.0, 0.0, 0.0, 0.0, 1.666403657727815E9, 0.0, 2022-10-21 18:54:17.727
41.0, -110105.36373917625, -150081.0340143483, -65046.079760322544, -131771.75900599468, 48006.607354474945, -71921.29754081936, 37819.509246290836, -118831.41771929477, 0.044, 0.9580000000000001, 0.024, 192.0, 0.0, 0.0, 0.0, 0.0, 0.0, 0.0, 0.0, 0.0, 0.0, 1.6664036577278268E9, 0.0, 2022-10-21 18:54:17.727
42.0, -110110.07995725633, -150087.09133709566, -65050.75127491371, -131775.4023403409, 48006.02620911911, -71936.69789274906, 37802.14194084906, -118833.00469315109, 0.044, 0.9580000000000001, 0.024, 192.0, 0.0, 0.0, 0.0, 0.0, 0.0, 0.0, 0.0, 0.0, 0.0, 1.6664036577278392E9, 0.0, 2022-10-21 18:54:17.727
43.0, -110100.62516935173, -150082.50922948233, -65040.49182420872, -131761.43250005634, 48013.42463653382, -71928.00306415594, 37814.36834506611, -118822.87935291283, 0.044, 0.9580000000000001, 0.024, 192.0, 0.0, 0.0, 0.0, 0.0, 0.0, 0.0, 0.0, 0.0, 0.0, 1.6664036577278512E9, 0.0, 2022-10-21 18:54:17.727
44.0, -110104.67083509814, -150089.4829737524, -65046.862071378484, -131769.41207282688, 48004.0816073515, -71933.9262764366, 37819.844522457664, -118834.41285305178, 0.044, 0.9580000000000001, 0.024, 192.0, 0.0, 0.0, 0.0, 0.0, 0.0, 0.0, 0.0, 0.0, 0.0, 1.6664036577278633E9, 0.0, 2022-10-21 18:54:17.727
45.0, -110105.69901534308, -150090.15352608604, -65048.58315570154, -131774.68708451834, 48007.00968587514, -71944.92333470861, 37814.43540029948, -118834.85988794088, 0.044, 0.9580000000000001, 0.024, 192.0, 0.0, 0.0, 0.0, 0.0, 0.0, 0.0, 0.0, 0.0, 0.0, 1.6664036577278888E9, 0.0, 2022-10-21 18:54:17.727
46.0, -110089.739869802, -150076.98834860188, -65026.56668741306, -131762.348921579, 48025.96396517324, -71939.67067476163, 37815.240063099875, -118813.17869581922, 0.044, 0.96, 0.02, 192.0, 1.0, 96.0, 30.0, 0.0, 0.0, 160.0, 0.0, 0.0, 0.0, 1.6664036577279024E9, 0.0, 2022-10-21 18:54:17.727
47.0, -110087.57175058982, -150073.94851135593, -65021.15756525488, -131765.56757278056, 48022.85707269396, -71946.7338260095, 37807.10402811814, -118812.6422539523, 0.044, 0.96, 0.02, 192.0, 0.0, 0.0, 0.0, 0.0, 0.0, 0.0, 0.0, 0.0, 0.0, 1.666403657727916E9, 0.0, 2022-10-21 18:54:17.727
48.0, -110083.4366778656, -150070.3275287542, -65013.647379117894, -131756.0010261537, 48025.919261684336, -71933.83686945878, 37825.14188589357, -118802.24869278059, 0.044, 0.96, 0.02, 192.0, 0.0, 0.0, 0.0, 0.0, 0.0, 0.0, 0.0, 0.0, 0.0, 1.6664036577279284E9, 0.0, 2022-10-21 18:54:17.727
49.0, -110082.14027668719, -150073.1214968111, -65012.887419806415, -131760.00198841118, 48031.19427337578, -71925.94670366606, 37839.15642966705, -118799.61118693485, 0.044, 0.96, 0.02, 192.0, 0.0, 0.0, 0.0, 0.0, 0.0, 0.0, 0.0, 0.0, 0.0, 1.6664036577279418E9, 0.0, 2022-10-21 18:54:17.727
50.0, -110088.0858407123, -150080.2740550368, -65019.816460587565, -131768.0039129262, 48028.26619485214, -71941.0341311734, 37819.17397012401, -118806.60728294936, 0.044, 0.96, 0.02, 192.0, 0.0, 0.0, 0.0, 0.0, 0.0, 0.0, 0.0, 0.0, 0.0, 1.666403657727954E9, 0.0, 2022-10-21 18:54:17.727
51.0, -110095.39486114918, -150089.63943596356, -65032.601658415995, -131788.38870386942, 48009.60248823196, -71963.92231749563, 37793.424760511494, -118820.51006800057, 0.044, 0.96, 0.02, 192.0, 0.0, 0.0, 0.0, 0.0, 0.0, 0.0, 0.0, 0.0, 0.0, 1.666403657727966E9, 0.0, 2022-10-21 18:54:17.727
52.0, -110096.33363441631, -150092.94749414295, -65032.959286327285, -131785.81825325708, 48004.77451142961, -71944.72216900851, 37817.29642358976, -118815.3468150314, 0.044, 0.96, 0.02, 192.0, 0.0, 0.0, 0.0, 0.0, 0.0, 0.0, 0.0, 0.0, 0.0, 1.6664036577279778E9, 0.0, 2022-10-21 18:54:17.727
53.0, -110093.87494252622, -150094.80268893274, -65034.36744622797, -131792.54612833812, 48000.68414219429, -71950.75714001145, 37826.7288597499, -118812.91047488576, 0.044, 0.96, 0.02, 192.0, 0.0, 0.0, 0.0, 0.0, 0.0, 0.0, 0.0, 0.0, 0.0, 1.66640365772799E9, 0.0, 2022-10-21 18:54:17.727
54.0, -110082.69907029856, -150084.2750172943, -65031.43936770432, -131793.12727369397, 48005.422712018815, -71980.57436711484, 37796.86692915761, -118806.76374516056, 0.044, 0.96, 0.02, 192.0, 0.0, 0.0, 0.0, 0.0, 0.0, 0.0, 0.0, 0.0, 0.0, 1.6664036577280023E9, 0.0, 2022-10-21 18:54:17.728
55.0, -110082.69907029856, -150084.0738515942, -65025.11382402347, -131786.48880559072, 48013.581098745, -71984.77649507242, 37780.281934771774, -118798.49359971209, 0.044, 0.96, 0.02, 192.0, 0.0, 0.0, 0.0, 0.0, 0.0, 0.0, 0.0, 0.0, 0.0, 1.6664036577280145E9, 0.0, 2022-10-21 18:54:17.728
56.0, -110090.41042213565, -150090.51115399733, -65025.35969321248, -131780.72205552127, 48014.586927245495, -71953.97579121302, 37805.29353681726, -118797.97950958963, 0.046, 0.9540000000000001, 0.026000000000000002, 192.0, 1.0, 112.0, 29.0, 208.0, 0.0, 208.0, 0.0, 0.0, 0.0, 1.6664036577280269E9, 0.0, 2022-10-21 18:54:17.728
57.0, -110074.89831148366, -150075.24491253437, -65014.02735877364, -131774.62002928497, 48026.76862797364, -71936.54143053788, 37825.45481031595, -118784.3896489608, 0.046, 0.9540000000000001, 0.026000000000000002, 192.0, 0.0, 0.0, 0.0, 0.0, 0.0, 0.0, 0.0, 0.0, 0.0, 1.6664036577280395E9, 0.0, 2022-10-21 18:54:17.728
58.0, -110070.94205271508, -150073.2779590223, -65010.093451749504, -131779.6044682985, 48029.607299519455, -71949.59484929977, 37811.50732177583, -118780.09811402537, 0.046, 0.9540000000000001, 0.026000000000000002, 192.0, 0.0, 0.0, 0.0, 0.0, 0.0, 0.0, 0.0, 0.0, 0.0, 1.666403657728052E9, 0.0, 2022-10-21 18:54:17.728
59.0, -110069.10920966974, -150074.6190636896, -65012.68625410632, -131785.9523637238, 48023.684087238806, -71955.04867494687, 37803.32658330519, -118778.4887884246, 0.046, 0.9540000000000001, 0.026000000000000002, 192.0, 0.0, 0.0, 0.0, 0.0, 0.0, 0.0, 0.0, 0.0, 0.0, 1.666403657728064E9, 0.0, 2022-10-21 18:54:17.728
60.0, -110078.34048012979, -150085.7278806839, -65023.63860888942, -131803.5208348657, 48004.863918407435, -71966.60452683027, 37798.81153092522, -118789.97758507462, 0.046, 0.9540000000000001, 0.026000000000000002, 192.0, 0.0, 0.0, 0.0, 0.0, 0.0, 0.0, 0.0, 0.0, 0.0, 1.666403657728087E9, 0.0, 2022-10-21 18:54:17.728
61.0, -110086.49886685597, -150094.95915114394, -65025.29263797911, -131803.47613137678, 48005.914450396835, -71963.60939307325, 37815.86591194462, -118795.43141072172, 0.046, 0.9540000000000001, 0.026000000000000002, 192.0, 0.0, 0.0, 0.0, 0.0, 0.0, 0.0, 0.0, 0.0, 0.0, 1.666403657728099E9, 0.0, 2022-10-21 18:54:17.728
62.0, -110068.14808465817, -150077.50243872433, -65004.371405168946, -131790.28860214812, 48032.66948850983, -71956.52389008092, 37827.01943242782, -118772.49852091057, 0.046, 0.9540000000000001, 0.026000000000000002, 192.0, 0.0, 0.0, 0.0, 0.0, 0.0, 0.0, 0.0, 0.0, 0.0, 1.6664036577281113E9, 0.0, 2022-10-21 18:54:17.728
63.0, -110065.55528230134, -150076.04957533473, -65002.71737607925, -131791.85322426, 48031.39543907588, -71967.5880035863, 37812.66961248751, -118766.26238420754, 0.046, 0.9540000000000001, 0.026000000000000002, 192.0, 0.0, 0.0, 0.0, 0.0, 0.0, 0.0, 0.0, 0.0, 0.0, 1.666403657728124E9, 0.0, 2022-10-21 18:54:17.728
64.0, -110075.99354696198, -150085.90669463953, -65008.551181382085, -131797.37410514048, 48020.13015987041, -71968.50442510897, 37818.88339744609, -118767.1341022413, 0.046, 0.9540000000000001, 0.026000000000000002, 192.0, 0.0, 0.0, 0.0, 0.0, 0.0, 0.0, 0.0, 0.0, 0.0, 1.666403657728136E9, 0.0, 2022-10-21 18:54:17.728
65.0, -110075.77002951743, -150086.75606092883, -65008.86410580446, -131791.33913413752, 48020.33132557051, -71963.3858756287, 37835.66955753202, -118772.6326313773, 0.046, 0.9540000000000001, 0.026000000000000002, 192.0, 0.0, 0.0, 0.0, 0.0, 0.0, 0.0, 0.0, 0.0, 0.0, 1.6664036577281482E9, 0.0, 2022-10-21 18:54:17.728
66.0, -110051.18311061659, -150063.24202576187, -64981.19264616879, -131775.58115429655, 48049.63446255141, -71945.8844597202, 37855.20498218596, -118743.64241881877, 0.046, 0.962, 0.02, 192.0, 1.0, 112.0, 30.0, 16.0, 0.0, 160.0, 0.0, 0.0, 0.0, 1.666403657728161E9, 0.0, 2022-10-21 18:54:17.728
67.0, -110046.8245204478, -150060.5151129383, -64977.48225658921, -131782.7560642667, 48053.43425910881, -71958.17791917062, 37830.95333945195, -118744.04475021896, 0.046, 0.962, 0.02, 192.0, 0.0, 0.0, 0.0, 0.0, 0.0, 0.0, 0.0, 0.0, 0.0, 1.6664036577281744E9, 0.0, 2022-10-21 18:54:17.728
68.0, -110049.70789548254, -150067.55591244172, -64987.69700380528, -131791.74146553772, 48035.86578796695, -71970.5831373433, 37816.04472590026, -118762.66375335024, 0.046, 0.962, 0.02, 192.0, 0.0, 0.0, 0.0, 0.0, 0.0, 0.0, 0.0, 0.0, 0.0, 1.6664036577281868E9, 0.0, 2022-10-21 18:54:17.728
69.0, -110053.28417459538, -150072.98738634438, -64993.88843701941, -131793.28373590513, 48025.94161342879, -71960.83777676079, 37835.53544706529, -118754.25949743504, 0.046, 0.962, 0.02, 192.0, 0.0, 0.0, 0.0, 0.0, 0.0, 0.0, 0.0, 0.0, 0.0, 1.666403657728248E9, 0.0, 2022-10-21 18:54:17.728
70.0, -110064.05771542284, -150089.0359388633, -65003.343224924, -131806.42656164488, 48017.31384006904, -71971.76777979944, 37829.72399350691, -118759.5792126154, 0.046, 0.962, 0.02, 192.0, 0.0, 0.0, 0.0, 0.0, 0.0, 0.0, 0.0, 0.0, 0.0, 1.6664036577282617E9, 0.0, 2022-10-21 18:54:17.728
71.0, -110038.35320929924, -150069.29934850923, -64978.46573334524, -131786.354695124, 48038.54799730158, -71960.18957617159, 37838.10589767765, -118736.33339838189, 0.046, 0.962, 0.02, 192.0, 0.0, 0.0, 0.0, 0.0, 0.0, 0.0, 0.0, 0.0, 0.0, 1.666403657728274E9, 0.0, 2022-10-21 18:54:17.728
72.0, -110042.71179946803, -150073.09914506663, -64985.66299505985, -131793.23903241623, 48029.56259603055, -71965.73280879651, 37833.65790053104, -118742.3236658959, 0.046, 0.962, 0.02, 192.0, 0.0, 0.0, 0.0, 0.0, 0.0, 0.0, 0.0, 0.0, 0.0, 1.666403657728286E9, 0.0, 2022-10-21 18:54:17.728
73.0, -110044.723456469, -150075.73665091238, -64982.891378747394, -131797.3070499071, 48030.523721042126, -71955.71922728053, 37856.18845894199, -118740.64728506176, 0.046, 0.962, 0.02, 192.0, 0.0, 0.0, 0.0, 0.0, 0.0, 0.0, 0.0, 0.0, 0.0, 1.666403657728298E9, 0.0, 2022-10-21 18:54:17.728
74.0, -110031.84885166274, -150063.04086006177, -64968.3850965959, -131787.4499306023, 48045.342927615995, -71958.04380870388, 37865.62089510213, -118727.79503199995, 0.046, 0.962, 0.02, 192.0, 0.0, 0.0, 0.0, 0.0, 0.0, 0.0, 0.0, 0.0, 0.0, 1.66640365772831E9, 0.0, 2022-10-21 18:54:17.728
75.0, -110022.1705463136, -150052.0661535342, -64959.66791625833, -131784.67831428986, 48054.775363776134, -71981.78136131541, 37841.12338317912, -118716.79797372795, 0.042, 0.966, 0.014, 192.0, 1.0, 80.0, 30.0, 48.0, 0.0, 112.0, 0.0, 0.0, 0.0, 1.6664036577283335E9, 0.0, 2022-10-21 18:54:17.728
76.0, -110029.03253186138, -150058.03406930377, -64973.41423909835, -131799.6539830749, 48040.15732290236, -71991.07968700882, 37822.83965621467, -118727.28094187749, 0.042, 0.966, 0.014, 192.0, 0.0, 0.0, 0.0, 0.0, 0.0, 0.0, 0.0, 0.0, 0.0, 1.666403657728346E9, 0.0, 2022-10-21 18:54:17.728
77.0, -110033.45817726353, -150066.39362173007, -64976.319965877534, -131805.15251221092, 48030.74723848668, -71971.25368967697, 37844.811421014245, -118731.34895936835, 0.042, 0.966, 0.014, 192.0, 0.0, 0.0, 0.0, 0.0, 0.0, 0.0, 0.0, 0.0, 0.0, 1.6664036577283587E9, 0.0, 2022-10-21 18:54:17.728
78.0, -110038.6661337216, -150072.5627031997, -64971.06730593053, -131805.0631052331, 48034.837607722, -71956.56859356983, 37866.827889302716, -118732.66771229121, 0.042, 0.966, 0.014, 192.0, 0.0, 0.0, 0.0, 0.0, 0.0, 0.0, 0.0, 0.0, 0.0, 1.666403657728371E9, 0.0, 2022-10-21 18:54:17.728
79.0, -110032.9217353966, -150073.30031076673, -64970.50851231915, -131809.15347446842, 48040.62670953592, -71969.84552977628, 37851.315778650736, -118725.17987789868, 0.042, 0.966, 0.014, 192.0, 0.0, 0.0, 0.0, 0.0, 0.0, 0.0, 0.0, 0.0, 0.0, 1.6664036577283828E9, 0.0, 2022-10-21 18:54:17.728
80.0, -110036.81093893183, -150074.6637671785, -64975.3364891215, -131810.85220704702, 48036.20106413378, -71980.52966362592, 37833.903769720055, -118734.99229371456, 0.042, 0.966, 0.014, 192.0, 0.0, 0.0, 0.0, 0.0, 0.0, 0.0, 0.0, 0.0, 0.0, 1.6664036577283947E9, 0.0, 2022-10-21 18:54:17.728
81.0, -110028.22786906098, -150064.7172408959, -64965.14409364988, -131799.117541208, 48041.81135199206, -71969.17497744263, 37854.42267113002, -118722.11768890831, 0.042, 0.966, 0.014, 192.0, 0.0, 0.0, 0.0, 0.0, 0.0, 0.0, 0.0, 0.0, 0.0, 1.666403657728407E9, 0.0, 2022-10-21 18:54:17.728
82.0, -110040.9683634005, -150080.81049690372, -64979.80683801256, -131822.9668525418, 48022.74531397168, -71992.19727423158, 37851.47224086193, -118728.08560467788, 0.042, 0.966, 0.014, 192.0, 0.0, 0.0, 0.0, 0.0, 0.0, 0.0, 0.0, 0.0, 0.0, 1.6664036577284193E9, 0.0, 2022-10-21 18:54:17.728
83.0, -110035.51453775342, -150079.08941258068, -64980.41033511286, -131827.81718108858, 48029.51789254164, -71999.37218420174, 37846.82307801522, -118732.69006403568, 0.042, 0.966, 0.014, 192.0, 0.0, 0.0, 0.0, 0.0, 0.0, 0.0, 0.0, 0.0, 0.0, 1.6664036577284307E9, 0.0, 2022-10-21 18:54:17.728
84.0, -110011.97815084198, -150056.69296463646, -64955.912823189836, -131805.0631052331, 48055.15534343188, -71978.29448918039, 37856.94841825347, -118713.2216946151, 0.042, 0.966, 0.014, 192.0, 0.0, 0.0, 0.0, 0.0, 0.0, 0.0, 0.0, 0.0, 0.0, 1.6664036577284431E9, 0.0, 2022-10-21 18:54:17.728
85.0, -110006.59138042825, -150051.99909830085, -64944.42402653981, -131798.24582317422, 48051.288491641106, -71967.23037567502, 37866.44790964698, -118707.25377884554, 0.046, 0.97, 0.024, 192.0, 1.0, 112.0, 30.0, 80.0, 0.0, 192.0, 0.0, 0.0, 0.0, 1.6664036577284553E9, 0.0, 2022-10-21 18:54:17.728
86.0, -110021.1200143242, -150067.35474674162, -64955.15286387836, -131819.50233215123, 48033.1388751434, -71980.30614618136, 37864.816232301746, -118720.66482551872, 0.046, 0.97, 0.024, 192.0, 0.0, 0.0, 0.0, 0.0, 0.0, 0.0, 0.0, 0.0, 0.0, 1.666403657728468E9, 0.0, 2022-10-21 18:54:17.728
87.0, -110012.02285433089, -150061.09625829416, -64947.039180641084, -131816.10486699402, 48040.69376476929, -71994.09717251029, 37859.85414503267, -118715.523924294, 0.046, 0.97, 0.024, 192.0, 0.0, 0.0, 0.0, 0.0, 0.0, 0.0, 0.0, 0.0, 0.0, 1.6664036577284803E9, 0.0, 2022-10-21 18:54:17.728
88.0, -109999.61763615819, -150049.9650895554, -64932.46584325622, -131803.1185034655, 48054.50714284267, -72010.3915942182, 37840.16225816754, -118705.84561894485, 0.046, 0.97, 0.024, 192.0, 0.0, 0.0, 0.0, 0.0, 0.0, 0.0, 0.0, 0.0, 0.0, 1.6664036577284932E9, 0.0, 2022-10-21 18:54:17.728
89.0, -110013.02868283137, -150061.3644792276, -64942.345314305465, -131816.48484664975, 48039.50912231316, -71998.09813476779, 37849.6841013055, -118717.60263652833, 0.046, 0.97, 0.024, 192.0, 0.0, 0.0, 0.0, 0.0, 0.0, 0.0, 0.0, 0.0, 0.0, 1.6664036577285051E9, 0.0, 2022-10-21 18:54:17.728
90.0, -110012.715758409, -150063.59965367315, -64940.06543637103, -131815.14374198244, 48039.687936268805, -71986.31876543985, 37872.05819750526, -118718.0720231619, 0.046, 0.97, 0.024, 192.0, 0.0, 0.0, 0.0, 0.0, 0.0, 0.0, 0.0, 0.0, 0.0, 1.6664036577285275E9, 0.0, 2022-10-21 18:54:17.728
91.0, -110011.0170258304, -150064.5607786847, -64933.09169210097, -131818.83177981756, 48045.36527936045, -71987.01166951796, 37874.82981381772, -118712.48408704807, 0.046, 0.97, 0.024, 192.0, 0.0, 0.0, 0.0, 0.0, 0.0, 0.0, 0.0, 0.0, 0.0, 1.6664036577285404E9, 0.0, 2022-10-21 18:54:17.728
92.0, -110007.95483684003, -150065.45484846292, -64931.9741048782, -131833.42746894687, 48038.74916300168, -72003.66371913717, 37857.41780488704, -118716.26153186102, 0.046, 0.97, 0.024, 192.0, 0.0, 0.0, 0.0, 0.0, 0.0, 0.0, 0.0, 0.0, 0.0, 1.666403657728556E9, 0.0, 2022-10-21 18:54:17.728
93.0, -109999.79645011383, -150058.34699372615, -64924.530973974586, -131829.18063750037, 48042.90658747037, -72017.03006232144, 37852.411014129044, -118708.86310444631, 0.046, 0.97, 0.024, 192.0, 0.0, 0.0, 0.0, 0.0, 0.0, 0.0, 0.0, 0.0, 0.0, 1.6664036577285693E9, 0.0, 2022-10-21 18:54:17.728
94.0, -110002.25514200392, -150057.9223105815, -64927.83903215397, -131823.83857057555, 48042.12427641443, -72009.02813780644, 37868.12429048113, -118717.51322955052, 0.046, 0.97, 0.024, 192.0, 0.0, 0.0, 0.0, 0.0, 0.0, 0.0, 0.0, 0.0, 0.0, 1.6664036577285824E9, 0.0, 2022-10-21 18:54:17.728
95.0, -110003.37272922668, -150061.1186100386, -64930.811814166525, -131828.30891946662, 48038.92797695732, -72005.11658252675, 37879.344866197695, -118718.13907839527, 0.048, 0.964, 0.022, 192.0, 1.0, 128.0, 30.0, 32.0, 0.0, 176.0, 0.0, 0.0, 0.0, 1.6664036577285955E9, 0.0, 2022-10-21 18:54:17.728
96.0, -110002.4116042151, -150064.0690403067, -64928.84486065446, -131834.58975965856, 48041.006689191665, -72017.23122802154, 37872.72874983892, -118717.08854640587, 0.048, 0.964, 0.022, 192.0, 0.0, 0.0, 0.0, 0.0, 0.0, 0.0, 0.0, 0.0, 0.0, 1.6664036577286096E9, 0.0, 2022-10-21 18:54:17.728
97.0, -110000.28818849185, -150064.5607786847, -64928.643694954364, -131839.64125390546, 48037.00572693416, -72044.09802485681, 37851.40518562856, -118727.79503199995, 0.048, 0.964, 0.022, 192.0, 0.0, 0.0, 0.0, 0.0, 0.0, 0.0, 0.0, 0.0, 0.0, 1.6664036577286234E9, 0.0, 2022-10-21 18:54:17.728
98.0, -109993.51560992189, -150058.4140489595, -64920.48530822818, -131826.52077991018, 48041.67724152532, -72037.66072245369, 37864.235086945904, -118724.33051160938, 0.048, 0.964, 0.022, 192.0, 0.0, 0.0, 0.0, 0.0, 0.0, 0.0, 0.0, 0.0, 0.0, 1.6664036577286365E9, 0.0, 2022-10-21 18:54:17.728
99.0, -109989.02290928637, -150055.0612872912, -64911.74577614615, -131821.35752694102, 48051.6908230413, -72015.48779195402, 37883.055255777275, -118716.30623534993, 0.048, 0.964, 0.022, 192.0, 0.0, 0.0, 0.0, 0.0, 0.0, 0.0, 0.0, 0.0, 0.0, 1.6664036577286494E9, 0.0, 2022-10-21 18:54:17.728
100.0, -109994.58849365574, -150064.53842694027, -64916.32788375949, -131841.3176347396, 48039.57617754653, -72028.63061769374, 37867.051406747276, -118720.59777028536, 0.048, 0.964, 0.022, 192.0, 0.0, 0.0, 0.0, 0.0, 0.0, 0.0, 0.0, 0.0, 0.0, 1.6664036577286625E9, 0.0, 2022-10-21 18:54:17.728
101.0, -109994.81201110031, -150064.9631100849, -64911.522258701596, -131832.06401253512, 48046.59462530549, -72029.88231538323, 37860.70351132197, -118712.50643879252, 0.048, 0.964, 0.022, 192.0, 0.0, 0.0, 0.0, 0.0, 0.0, 0.0, 0.0, 0.0, 0.0, 1.666403657728676E9, 0.0, 2022-10-21 18:54:17.728
102.0, -110009.27358976289, -150078.30710152473, -64924.77684316359, -131851.7782511447, 48029.45083730827, -72032.51982122897, 37860.882325277606, -118726.96801745512, 0.048, 0.964, 0.022, 192.0, 0.0, 0.0, 0.0, 0.0, 0.0, 0.0, 0.0, 0.0, 0.0, 1.6664036577286887E9, 0.0, 2022-10-21 18:54:17.728
103.0, -109998.34358672424, -150070.2157700319, -64919.837107638974, -131849.5207249547, 48034.10000015498, -72029.23411479403, 37873.2875434503, -118725.8727819768, 0.048, 0.964, 0.022, 192.0, 0.0, 0.0, 0.0, 0.0, 0.0, 0.0, 0.0, 0.0, 0.0, 1.6664036577287016E9, 0.0, 2022-10-21 18:54:17.728
104.0, -109983.97141503947, -150058.2575867483, -64901.84395335245, -131853.74520465676, 48045.56644506055, -72048.36720804778, 37856.16610719754, -118718.9213894512, 0.048, 0.9560000000000001, 0.024, 192.0, 1.0, 128.0, 29.0, 224.0, 0.0, 192.0, 0.0, 0.0, 0.0, 1.6664036577287147E9, 0.0, 2022-10-21 18:54:17.728
105.0, -109984.59726388422, -150067.04182231927, -64906.4707644547, -131860.1154518265, 48036.55869204506, -72049.86477492629, 37847.06894720423, -118723.99523544256, 0.048, 0.9560000000000001, 0.024, 192.0, 0.0, 0.0, 0.0, 0.0, 0.0, 0.0, 0.0, 0.0, 0.0, 1.6664036577287285E9, 0.0, 2022-10-21 18:54:17.728
106.0, -109979.05403125931, -150061.3197757387, -64902.20158126373, -131851.2641610222, 48038.57034904604, -72034.91145788568, 37867.90077303658, -118724.73284300958, 0.048, 0.9560000000000001, 0.024, 192.0, 0.0, 0.0, 0.0, 0.0, 0.0, 0.0, 0.0, 0.0, 0.0, 1.666403657728753E9, 0.0, 2022-10-21 18:54:17.728
107.0, -109978.83051381476, -150056.60355765864, -64898.33472947297, -131847.97845458728, 48041.27491012513, -72024.56260020287, 37887.54795641279, -118724.86695347632, 0.048, 0.9560000000000001, 0.024, 192.0, 0.0, 0.0, 0.0, 0.0, 0.0, 0.0, 0.0, 0.0, 0.0, 1.666403657728766E9, 0.0, 2022-10-21 18:54:17.728
108.0, -109984.79842958432, -150063.28672925077, -64904.41440396481, -131864.58580071758, 48033.29533735458, -72052.43522553865, 37864.32449392373, -118730.1196134233, 0.048, 0.9560000000000001, 0.024, 192.0, 0.0, 0.0, 0.0, 0.0, 0.0, 0.0, 0.0, 0.0, 0.0, 1.6664036577287793E9, 0.0, 2022-10-21 18:54:17.728
109.0, -109984.08317376176, -150064.7619443848, -64902.20158126373, -131861.43420474938, 48036.469285067236, -72057.75494071901, 37851.67340656202, -118737.40628211574, 0.048, 0.9560000000000001, 0.024, 192.0, 0.0, 0.0, 0.0, 0.0, 0.0, 0.0, 0.0, 0.0, 0.0, 1.6664036577287927E9, 0.0, 2022-10-21 18:54:17.728
110.0, -109970.73918232194, -150053.18374075697, -64883.24730196563, -131844.35747198554, 48047.17577066133, -72041.05818761089, 37869.755967826364, -118716.79797372795, 0.048, 0.9560000000000001, 0.024, 192.0, 0.0, 0.0, 0.0, 0.0, 0.0, 0.0, 0.0, 0.0, 0.0, 1.6664036577288055E9, 0.0, 2022-10-21 18:54:17.728
111.0, -109975.2542347019, -150059.174008271, -64878.97811877467, -131839.59655041655, 48050.61793930745, -72031.08930958383, 37887.592659901704, -118718.54140979546, 0.048, 0.9560000000000001, 0.024, 192.0, 0.0, 0.0, 0.0, 0.0, 0.0, 0.0, 0.0, 0.0, 0.0, 1.6664036577288191E9, 0.0, 2022-10-21 18:54:17.728
112.0, -109980.35043243771, -150060.53746468277, -64883.336708943454, -131849.34191099906, 48048.15924741737, -72025.34491125881, 37889.6937238805, -118729.024377945, 0.048, 0.9560000000000001, 0.024, 192.0, 0.0, 0.0, 0.0, 0.0, 0.0, 0.0, 0.0, 0.0, 0.0, 1.6664036577288325E9, 0.0, 2022-10-21 18:54:17.728
113.0, -109982.27268246087, -150061.3644792276, -64882.9120257988, -131863.4682134948, 48042.057221181065, -72040.20882132159, 37871.16412772705, -118719.05549991793, 0.048, 0.9560000000000001, 0.024, 192.0, 0.0, 0.0, 0.0, 0.0, 0.0, 0.0, 0.0, 0.0, 0.0, 1.6664036577288463E9, 0.0, 2022-10-21 18:54:17.728
114.0, -109971.0521067443, -150049.47335117738, -64867.35521165791, -131841.74231788426, 48055.31180564306, -72029.25646653849, 37880.6412673761, -118707.03026140097, 0.044, 0.9540000000000001, 0.024, 192.0, 1.0, 96.0, 29.0, 208.0, 0.0, 192.0, 0.0, 0.0, 0.0, 1.6664036577288594E9, 0.0, 2022-10-21 18:54:17.728
115.0, -109968.03462124284, -150052.33437446767, -64867.01993549108, -131831.57227415708, 48060.11743070095, -72003.14962901469, 37905.94344209951, -118702.76107821001, 0.044, 0.9540000000000001, 0.024, 192.0, 0.0, 0.0, 0.0, 0.0, 0.0, 0.0, 0.0, 0.0, 0.0, 1.666403657728873E9, 0.0, 2022-10-21 18:54:17.728
116.0, -109977.06472600279, -150068.20411303092, -64883.85079906593, -131862.06005359412, 48045.03000319362, -72010.88333259623, 37896.10867453917, -118718.85433421783, 0.044, 0.9540000000000001, 0.024, 192.0, 0.0, 0.0, 0.0, 0.0, 0.0, 0.0, 0.0, 0.0, 0.0, 1.6664036577288864E9, 0.0, 2022-10-21 18:54:17.728
117.0, -109981.87035106067, -150068.74055489787, -64882.33088044297, -131869.30201879764, 48046.61697704995, -72023.55677170238, 37876.819119074244, -118725.69396802117, 0.044, 0.9540000000000001, 0.024, 192.0, 0.0, 0.0, 0.0, 0.0, 0.0, 0.0, 0.0, 0.0, 0.0, 1.6664036577289E9, 0.0, 2022-10-21 18:54:17.728
118.0, -109979.72458359296, -150064.82899961818, -64874.50776988361, -131858.5731814591, 48050.3944218629, -72015.46544020956, 37885.22337498944, -118723.79406974246, 0.044, 0.9540000000000001, 0.024, 192.0, 0.0, 0.0, 0.0, 0.0, 0.0, 0.0, 0.0, 0.0, 0.0, 1.6664036577289133E9, 0.0, 2022-10-21 18:54:17.728
119.0, -109960.63619382813, -150049.29453722175, -64865.74588605713, -131851.84530637806, 48052.45078235278, -72005.78713486042, 37909.51972121235, -118721.69300576366, 0.044, 0.9540000000000001, 0.024, 192.0, 0.0, 0.0, 0.0, 0.0, 0.0, 0.0, 0.0, 0.0, 0.0, 1.6664036577289262E9, 0.0, 2022-10-21 18:54:17.728
120.0, -109966.69351657553, -150057.22940650338, -64871.13265647086, -131868.05032110814, 48043.19716014829, -72030.10583282779, 37902.411866475566, -118729.71728202312, 0.044, 0.9540000000000001, 0.024, 192.0, 0.0, 0.0, 0.0, 0.0, 0.0, 0.0, 0.0, 0.0, 0.0, 1.6664036577289393E9, 0.0, 2022-10-21 18:54:17.728
121.0, -109976.81885681378, -150072.65211017753, -64861.72257205517, -131867.04449260767, 48050.1932561628, -72047.29432431392, 37890.7442558699, -118718.98844468457, 0.044, 0.9540000000000001, 0.024, 192.0, 0.0, 0.0, 0.0, 0.0, 0.0, 0.0, 0.0, 0.0, 0.0, 1.6664036582061584E9, 0.0, 2022-10-21 18:54:18.206
122.0, -109970.38155441065, -150074.55200845623, -64863.22013893368, -131870.35255078704, 48046.8404944945, -72050.6023824933, 37888.12910176863, -118716.28388360547, 0.044, 0.9540000000000001, 0.024, 192.0, 0.0, 0.0, 0.0, 0.0, 0.0, 0.0, 0.0, 0.0, 0.0, 1.6664036582062528E9, 0.0, 2022-10-21 18:54:18.206
123.0, -109963.27369967387, -150067.60061593063, -64845.8528334919, -131851.44297497786, 48061.3914801349, -72039.15828933219, 37908.67035492305, -118702.49285727655, 0.044, 0.9540000000000001, 0.024, 192.0, 0.0, 0.0, 0.0, 0.0, 0.0, 0.0, 0.0, 0.0, 0.0, 1.666403658206336E9, 0.0, 2022-10-21 18:54:18.206
124.0, -109965.7547433084, -150067.4665054639, -64846.97042071467, -131846.83851562007, 48065.77242204815, -72036.47607999755, 37923.06487835227, -118703.87866543279, 0.044, 0.96, 0.026000000000000002, 192.0, 1.0, 96.0, 30.0, 0.0, 0.0, 208.0, 0.0, 0.0, 0.0, 1.666403658206381E9, 0.0, 2022-10-21 18:54:18.206
125.0, -109959.42919962756, -150062.10208679465, -64853.698295795715, -131867.1338995855, 48059.46923011175, -72068.32731584637, 37896.51100593937, -118710.4724300471, 0.044, 0.96, 0.026000000000000002, 192.0, 0.0, 0.0, 0.0, 0.0, 0.0, 0.0, 0.0, 0.0, 0.0, 1.6664036582064042E9, 0.0, 2022-10-21 18:54:18.206
126.0, -109953.21541466897, -150058.3246419817, -64842.56712705697, -131866.3292367851, 48068.342872660505, -72079.36907760729, 37883.949325555484, -118699.18479909716, 0.044, 0.96, 0.026000000000000002, 192.0, 0.0, 0.0, 0.0, 0.0, 0.0, 0.0, 0.0, 0.0, 0.0, 1.6664036582064247E9, 0.0, 2022-10-21 18:54:18.206
127.0, -109971.99088001144, -150077.0777555797, -64849.987906216134, -131866.79862341864, 48060.98914873471, -72069.06492341339, 37890.7442558699, -118716.01566267201, 0.044, 0.96, 0.026000000000000002, 192.0, 0.0, 0.0, 0.0, 0.0, 0.0, 0.0, 0.0, 0.0, 0.0, 1.6664036582064455E9, 0.0, 2022-10-21 18:54:18.206
128.0, -109974.06959224578, -150083.55976147173, -64863.421304633775, -131877.5721642461, 48046.527570072125, -72066.67328675668, 37902.45656996448, -118735.30521813694, 0.044, 0.96, 0.026000000000000002, 192.0, 0.0, 0.0, 0.0, 0.0, 0.0, 0.0, 0.0, 0.0, 0.0, 1.6664036582064655E9, 0.0, 2022-10-21 18:54:18.206
129.0, -109948.27567914435, -150060.80568561621, -64846.009295703094, -131875.11347235602, 48055.58002657653, -72072.01535368149, 37904.222357776445, -118722.78824124197, 0.044, 0.96, 0.026000000000000002, 192.0, 0.0, 0.0, 0.0, 0.0, 0.0, 0.0, 0.0, 0.0, 0.0, 1.6664036582064784E9, 0.0, 2022-10-21 18:54:18.206
130.0, -109979.29990044831, -150090.30998829723, -64869.79155180354, -131901.84615872457, 48026.947441929275, -72106.21352269812, 37870.65003760458, -118740.91550599522, 0.044, 0.96, 0.026000000000000002, 192.0, 0.0, 0.0, 0.0, 0.0, 0.0, 0.0, 0.0, 0.0, 0.0, 1.6664036582064912E9, 0.0, 2022-10-21 18:54:18.206
131.0, -109957.19402518202, -150072.78622064428, -64849.02678120456, -131864.13876582848, 48051.60141606348, -72074.47404557158, 37905.67522116604, -118726.85625873283, 0.044, 0.96, 0.026000000000000002, 192.0, 0.0, 0.0, 0.0, 0.0, 0.0, 0.0, 0.0, 0.0, 0.0, 1.6664036582065048E9, 0.0, 2022-10-21 18:54:18.206
132.0, -109942.88890873062, -150062.2585490058, -64835.07929266445, -131868.16207983042, 48062.93375050232, -72063.96872567758, 37926.08236385374, -118716.1721248832, 0.044, 0.96, 0.026000000000000002, 192.0, 0.0, 0.0, 0.0, 0.0, 0.0, 0.0, 0.0, 0.0, 0.0, 1.6664036582065177E9, 0.0, 2022-10-21 18:54:18.206
133.0, -109945.3028971318, -150061.1186100386, -64841.606002045395, -131884.38944630497, 48060.27389291214, -72090.43319111266, 37904.75879964338, -118714.22752311558, 0.044, 0.96, 0.026000000000000002, 192.0, 0.0, 0.0, 0.0, 0.0, 0.0, 0.0, 0.0, 0.0, 0.0, 1.6664036582065308E9, 0.0, 2022-10-21 18:54:18.206
134.0, -109942.21835639696, -150057.408220459, -64837.09094966543, -131876.32046655662, 48066.733547059725, -72096.73638304906, 37892.39828495959, -118711.70177599214, 0.05, 0.9540000000000001, 0.026000000000000002, 192.0, 1.0, 144.0, 29.0, 208.0, 0.0, 208.0, 0.0, 0.0, 0.0, 1.6664036582065492E9, 0.0, 2022-10-21 18:54:18.206
135.0, -109941.90543197459, -150058.79402861526, -64831.65947576278, -131872.81124267713, 48067.001767993184, -72094.63531907026, 37893.91820358255, -118708.3713660683, 0.05, 0.9540000000000001, 0.026000000000000002, 192.0, 0.0, 0.0, 0.0, 0.0, 0.0, 0.0, 0.0, 0.0, 0.0, 1.6664036582065628E9, 0.0, 2022-10-21 18:54:18.206
136.0, -109962.89372001812, -150080.16229631452, -64847.350400370415, -131888.41276030694, 48051.57906431903, -72086.72280153309, 37905.898738610595, -118729.33730236738, 0.05, 0.9540000000000001, 0.026000000000000002, 192.0, 0.0, 0.0, 0.0, 0.0, 0.0, 0.0, 0.0, 0.0, 0.0, 1.666403658206634E9, 0.0, 2022-10-21 18:54:18.206
137.0, -109961.91024326209, -150076.0272235903, -64843.438845090735, -131895.34180108807, 48054.10481144248, -72096.82579002688, 37902.72479089794, -118727.5715145554, 0.05, 0.9540000000000001, 0.026000000000000002, 192.0, 0.0, 0.0, 0.0, 0.0, 0.0, 0.0, 0.0, 0.0, 0.0, 1.6664036582066467E9, 0.0, 2022-10-21 18:54:18.206
138.0, -109948.4991965889, -150066.1701042855, -64827.703216994196, -131880.79081544766, 48070.734509317226, -72110.1697814667, 37889.02317154684, -118714.76396498251, 0.05, 0.9540000000000001, 0.026000000000000002, 192.0, 0.0, 0.0, 0.0, 0.0, 0.0, 0.0, 0.0, 0.0, 0.0, 1.66640365820666E9, 0.0, 2022-10-21 18:54:18.206
139.0, -109941.27958312984, -150060.0233745603, -64825.13276638184, -131878.1309578575, 48071.31565467306, -72103.17368545219, 37894.231128004925, -118715.74744173855, 0.05, 0.9540000000000001, 0.026000000000000002, 192.0, 0.0, 0.0, 0.0, 0.0, 0.0, 0.0, 0.0, 0.0, 0.0, 1.666403658206673E9, 0.0, 2022-10-21 18:54:18.206
140.0, -109943.17948140854, -150065.6783659075, -64828.68669375023, -131884.76942596072, 48060.787983034614, -72092.6683655582, 37912.80542764728, -118722.11768890831, 0.05, 0.9540000000000001, 0.026000000000000002, 192.0, 0.0, 0.0, 0.0, 0.0, 0.0, 0.0, 0.0, 0.0, 0.0, 1.6664036582066858E9, 0.0, 2022-10-21 18:54:18.206
141.0, -109942.01719069686, -150063.55495018422, -64820.52830702404, -131893.26308885374, 48060.25154116769, -72098.79274353894, 37916.73933467142, -118721.26832261901, 0.05, 0.9540000000000001, 0.026000000000000002, 192.0, 0.0, 0.0, 0.0, 0.0, 0.0, 0.0, 0.0, 0.0, 0.0, 1.6664036582067E9, 0.0, 2022-10-21 18:54:18.206
142.0, -109933.65763827058, -150055.79889485825, -64805.01619637206, -131888.45746379584, 48074.646064596905, -72122.26207521702, 37891.3924564591, -118712.43938355916, 0.05, 0.9540000000000001, 0.026000000000000002, 192.0, 0.0, 0.0, 0.0, 0.0, 0.0, 0.0, 0.0, 0.0, 0.0, 1.6664036582067125E9, 0.0, 2022-10-21 18:54:18.206
143.0, -109944.52058607586, -150066.05834556321, -64811.58760924192, -131891.65376325295, 48068.16405870486, -72133.05796778893, 37880.35069469818, -118723.88347672028, 0.052000000000000005, 0.9560000000000001, 0.03, 192.0, 1.0, 160.0, 29.0, 224.0, 0.0, 240.0, 0.0, 0.0, 0.0, 1.666403658206726E9, 0.0, 2022-10-21 18:54:18.206
144.0, -109921.54299277581, -150041.69494410694, -64784.229074028626, -131854.95219885735, 48097.4001404524, -72101.3184906624, 37919.466247494966, -118689.50649374802, 0.052000000000000005, 0.9560000000000001, 0.03, 192.0, 0.0, 0.0, 0.0, 0.0, 0.0, 0.0, 0.0, 0.0, 0.0, 1.66640365820674E9, 0.0, 2022-10-21 18:54:18.206
145.0, -109934.05996967078, -150050.6132901446, -64796.07549858994, -131864.60815246202, 48087.72183510326, -72098.99390923904, 37924.69655569751, -118691.62990947127, 0.052000000000000005, 0.9560000000000001, 0.03, 192.0, 0.0, 0.0, 0.0, 0.0, 0.0, 0.0, 0.0, 0.0, 0.0, 1.6664036582067525E9, 0.0, 2022-10-21 18:54:18.206
146.0, -109955.18236818103, -150072.2721305218, -64824.46221404818, -131896.59349877757, 48061.32442490154, -72136.16486026823, 37894.05231404928, -118703.9680724106, 0.052000000000000005, 0.9560000000000001, 0.03, 192.0, 0.0, 0.0, 0.0, 0.0, 0.0, 0.0, 0.0, 0.0, 0.0, 1.6664036582067654E9, 0.0, 2022-10-21 18:54:18.206
147.0, -109936.87628947214, -150060.4257059605, -64810.47002201915, -131884.05417013814, 48074.422547152346, -72149.9782383416, 37889.134930269116, -118697.50841826302, 0.052000000000000005, 0.9560000000000001, 0.03, 192.0, 0.0, 0.0, 0.0, 0.0, 0.0, 0.0, 0.0, 0.0, 0.0, 1.666403658206778E9, 0.0, 2022-10-21 18:54:18.206
148.0, -109940.72078951845, -150062.7726391283, -64808.41366152927, -131881.79664394815, 48075.74130007521, -72138.33297948039, 37910.57025320175, -118705.53269452247, 0.052000000000000005, 0.9560000000000001, 0.03, 192.0, 0.0, 0.0, 0.0, 0.0, 0.0, 0.0, 0.0, 0.0, 0.0, 1.6664036582067907E9, 0.0, 2022-10-21 18:54:18.206
149.0, -109951.06964720126, -150071.08748806568, -64820.841231446415, -131889.30683008514, 48069.41575639436, -72136.29897073496, 37926.19412257602, -118711.3217963364, 0.052000000000000005, 0.9560000000000001, 0.03, 192.0, 0.0, 0.0, 0.0, 0.0, 0.0, 0.0, 0.0, 0.0, 0.0, 1.6664036582068036E9, 0.0, 2022-10-21 18:54:18.206
150.0, -109948.63330705564, -150068.2711682643, -64819.298961079, -131896.57114703313, 48071.31565467306, -72156.9296308672, 37913.945366614505, -118709.93598818016, 0.052000000000000005, 0.9560000000000001, 0.03, 192.0, 0.0, 0.0, 0.0, 0.0, 0.0, 0.0, 0.0, 0.0, 0.0, 1.666403658206816E9, 0.0, 2022-10-21 18:54:18.206
151.0, -109945.86169074317, -150064.29255775127, -64803.92096089375, -131892.61488826454, 48073.014387251664, -72167.41259901674, 37901.8977763531, -118710.2265608581, 0.052000000000000005, 0.9560000000000001, 0.03, 192.0, 0.0, 0.0, 0.0, 0.0, 0.0, 0.0, 0.0, 0.0, 0.0, 1.6664036582068489E9, 0.0, 2022-10-21 18:54:18.206
152.0, -109941.5478040633, -150067.53356069728, -64800.63525445882, -131887.92102192892, 48071.203895950784, -72166.78675017199, 37905.60816593268, -118708.72899397957, 0.052000000000000005, 0.9560000000000001, 0.03, 192.0, 0.0, 0.0, 0.0, 0.0, 0.0, 0.0, 0.0, 0.0, 0.0, 1.6664036582068613E9, 0.0, 2022-10-21 18:54:18.206
153.0, -109950.98024022345, -150075.177857301, -64811.744071453104, -131897.17464413343, 48062.97845399123, -72165.26683154903, 37915.97937535994, -118716.32858709438, 0.06, 0.9540000000000001, 0.034, 192.0, 1.0, 224.0, 29.0, 208.0, 1.0, 16.0, 0.0, 0.0, 0.0, 1.666403658206874E9, 0.0, 2022-10-21 18:54:18.206
154.0, -109945.9063942321, -150066.4159734745, -64806.513763250565, -131904.99775469277, 48064.69953831429, -72182.6341369908, 37903.5965089317, -118709.26543584651, 0.06, 0.9540000000000001, 0.034, 192.0, 0.0, 0.0, 0.0, 0.0, 0.0, 0.0, 0.0, 0.0, 0.0, 1.6664036582068872E9, 0.0, 2022-10-21 18:54:18.206
155.0, -109937.81506273928, -150066.9747670859, -64798.02010035755, -131896.23587086628, 48069.9969017502, -72187.28329983751, 37896.2427850059, -118700.99529039804, 0.06, 0.9540000000000001, 0.034, 192.0, 0.0, 0.0, 0.0, 0.0, 0.0, 0.0, 0.0, 0.0, 0.0, 1.6664036582068996E9, 0.0, 2022-10-21 18:54:18.206
156.0, -109940.16199590708, -150069.20994153142, -64798.98122536913, -131895.34180108807, 48061.927922001836, -72189.00438416057, 37898.58971817371, -118704.50451427753, 0.06, 0.9540000000000001, 0.034, 192.0, 0.0, 0.0, 0.0, 0.0, 0.0, 0.0, 0.0, 0.0, 0.0, 1.6664036582069137E9, 0.0, 2022-10-21 18:54:18.206
157.0, -109939.67025752905, -150068.0252990753, -64796.96956836815, -131895.61002202154, 48069.1475354609, -72165.19977631567, 37926.93173014304, -118704.2139415996, 0.06, 0.9540000000000001, 0.034, 192.0, 0.0, 0.0, 0.0, 0.0, 0.0, 0.0, 0.0, 0.0, 0.0, 1.666403658206926E9, 0.0, 2022-10-21 18:54:18.206
158.0, -109948.36508612217, -150074.39554624507, -64808.52542025154, -131912.66440304095, 48061.03385222362, -72173.82754967542, 37916.51581722687, -118724.88930522077, 0.06, 0.9540000000000001, 0.034, 192.0, 0.0, 0.0, 0.0, 0.0, 0.0, 0.0, 0.0, 0.0, 0.0, 1.6664036582069385E9, 0.0, 2022-10-21 18:54:18.206
159.0, -109952.18723442403, -150078.5753224582, -64813.28634182052, -131926.25426366978, 48054.26127365366, -72207.01989019154, 37880.6412673761, -118723.65995927573, 0.06, 0.9540000000000001, 0.034, 192.0, 0.0, 0.0, 0.0, 0.0, 0.0, 0.0, 0.0, 0.0, 0.0, 1.6664036582069511E9, 0.0, 2022-10-21 18:54:18.206
160.0, -109950.77907452335, -150079.4693922364, -64813.75572845408, -131916.39714436498, 48054.93182598732, -72192.98299467361, 37897.8968140956, -118716.95443593913, 0.06, 0.9540000000000001, 0.034, 192.0, 0.0, 0.0, 0.0, 0.0, 0.0, 0.0, 0.0, 0.0, 0.0, 1.6664036582069635E9, 0.0, 2022-10-21 18:54:18.206
161.0, -109947.2027954105, -150073.7696974003, -64806.13378359483, -131901.7344000023, 48058.23988416671, -72173.06759036393, 37929.3010150553, -118720.77658424099, 0.06, 0.9540000000000001, 0.034, 192.0, 0.0, 0.0, 0.0, 0.0, 0.0, 0.0, 0.0, 0.0, 0.0, 1.6664036582069762E9, 0.0, 2022-10-21 18:54:18.206
162.0, -109961.28439441734, -150090.60056097514, -64823.90342043679, -131935.21731319634, 48037.81038973456, -72208.56216055897, 37901.65190716409, -118739.41793911671, 0.06, 0.9540000000000001, 0.034, 192.0, 0.0, 0.0, 0.0, 0.0, 0.0, 0.0, 0.0, 0.0, 0.0, 1.6664036582069888E9, 0.0, 2022-10-21 18:54:18.206
163.0, -109941.03371394084, -150076.00487184583, -64808.41366152927, -131928.4894381153, 48055.334157387515, -72218.70985254167, 37885.983334300916, -118725.89513372126, 0.05, 0.9560000000000001, 0.036000000000000004, 192.0, 1.0, 144.0, 29.0, 224.0, 1.0, 32.0, 0.0, 0.0, 0.0, 1.6664036582070012E9, 0.0, 2022-10-21 18:54:18.207
164.0, -109917.16205086256, -150055.2624529913, -64781.43510597171, -131901.64499302447, 48075.048395997095, -72197.05101216448, 37905.60816593268, -118700.77177295349, 0.05, 0.9560000000000001, 0.036000000000000004, 192.0, 0.0, 0.0, 0.0, 0.0, 0.0, 0.0, 0.0, 0.0, 0.0, 1.6664036582070143E9, 0.0, 2022-10-21 18:54:18.207
165.0, -109933.97056269295, -150068.0252990753, -64790.30874852047, -131907.2329291383, 48061.03385222362, -72198.90620695427, 37913.83360789223, -118712.03705215896, 0.05, 0.9560000000000001, 0.036000000000000004, 192.0, 0.0, 0.0, 0.0, 0.0, 0.0, 0.0, 0.0, 0.0, 0.0, 1.666403658207027E9, 0.0, 2022-10-21 18:54:18.207
166.0, -109923.8452224547, -150059.03989780426, -64780.853960615874, -131910.1833594064, 48063.80546853608, -72198.10154415388, 37927.49052375442, -118698.20132234113, 0.05, 0.9560000000000001, 0.036000000000000004, 192.0, 0.0, 0.0, 0.0, 0.0, 0.0, 0.0, 0.0, 0.0, 0.0, 1.6664036582070515E9, 0.0, 2022-10-21 18:54:18.207
167.0, -109921.65475149808, -150050.07684827768, -64771.980318067115, -131914.16196991946, 48069.32634941654, -72227.49408811261, 37900.60137517469, -118689.66295595921, 0.05, 0.9560000000000001, 0.036000000000000004, 192.0, 0.0, 0.0, 0.0, 0.0, 0.0, 0.0, 0.0, 0.0, 0.0, 1.666403658207064E9, 0.0, 2022-10-21 18:54:18.207
168.0, -109925.52160328884, -150063.4208397175, -64787.62653918583, -131919.70520254437, 48057.09994519949, -72236.23362019463, 37890.185462258516, -118705.84561894485, 0.05, 0.9560000000000001, 0.036000000000000004, 192.0, 0.0, 0.0, 0.0, 0.0, 0.0, 0.0, 0.0, 0.0, 0.0, 1.6664036582070775E9, 0.0, 2022-10-21 18:54:18.207
169.0, -109936.0939784162, -150076.36249975712, -64798.31067303547, -131924.95786249137, 48046.54992181658, -72229.50574511358, 37908.51389271187, -118724.79989824294, 0.05, 0.9560000000000001, 0.036000000000000004, 192.0, 0.0, 0.0, 0.0, 0.0, 0.0, 0.0, 0.0, 0.0, 0.0, 1.6664036582070901E9, 0.0, 2022-10-21 18:54:18.207
170.0, -109931.13189114713, -150069.05347932022, -64789.07940257543, -131925.60606308057, 48050.439125351804, -72229.79631779151, 37918.57217771676, -118729.76198551203, 0.05, 0.9560000000000001, 0.036000000000000004, 192.0, 0.0, 0.0, 0.0, 0.0, 0.0, 0.0, 0.0, 0.0, 0.0, 1.6664036582071033E9, 0.0, 2022-10-21 18:54:18.207
171.0, -109925.23103061093, -150064.9631100849, -64777.434143714214, -131925.2931386582, 48060.47505861224, -72248.59413487841, 37902.277756008836, -118711.79118296996, 0.05, 0.9560000000000001, 0.036000000000000004, 192.0, 0.0, 0.0, 0.0, 0.0, 0.0, 0.0, 0.0, 0.0, 0.0, 1.666403658207116E9, 0.0, 2022-10-21 18:54:18.207
172.0, -109919.24076309691, -150053.54136866826, -64769.43221919921, -131908.9316617169, 48071.44976513979, -72260.84289083992, 37890.20781400297, -118696.43553452916, 0.054, 0.96, 0.038, 192.0, 1.0, 176.0, 30.0, 0.0, 1.0, 48.0, 0.0, 0.0, 0.0, 1.6664036582071285E9, 0.0, 2022-10-21 18:54:18.207
173.0, -109927.66737075656, -150065.63366241858, -64783.62557692833, -131906.96470820485, 48064.207799936274, -72240.92748653024, 37911.643136935614, -118708.21490385711, 0.054, 0.96, 0.038, 192.0, 0.0, 0.0, 0.0, 0.0, 0.0, 0.0, 0.0, 0.0, 0.0, 1.6664036582071428E9, 0.0, 2022-10-21 18:54:18.207
174.0, -109936.87628947214, -150074.95433985643, -64787.559483952464, -131926.3883741365, 48052.473134097236, -72236.94887601721, 37922.99782311891, -118722.87764821979, 0.054, 0.96, 0.038, 192.0, 0.0, 0.0, 0.0, 0.0, 0.0, 0.0, 0.0, 0.0, 0.0, 1.6664036582071555E9, 0.0, 2022-10-21 18:54:18.207
175.0, -109940.72078951845, -150079.9164271255, -64791.02400434304, -131944.96267377885, 48044.06887818204, -72255.2102512372, 37909.74323865691, -118722.98940694207, 0.054, 0.96, 0.038, 192.0, 0.0, 0.0, 0.0, 0.0, 0.0, 0.0, 0.0, 0.0, 0.0, 1.666403658207168E9, 0.0, 2022-10-21 18:54:18.207
176.0, -109921.83356545372, -150059.93396758247, -64775.53424543551, -131929.0482317267, 48062.03968072411, -72259.9041175728, 37902.81419787576, -118699.40831654171, 0.054, 0.96, 0.038, 192.0, 0.0, 0.0, 0.0, 0.0, 0.0, 0.0, 0.0, 0.0, 0.0, 1.666403658207181E9, 0.0, 2022-10-21 18:54:18.207
177.0, -109925.52160328884, -150064.5160751958, -64777.925882092226, -131926.36602239206, 48056.47409635474, -72259.16651000577, 37907.28454676682, -118695.5638164954, 0.054, 0.96, 0.038, 192.0, 0.0, 0.0, 0.0, 0.0, 0.0, 0.0, 0.0, 0.0, 0.0, 1.666403658207195E9, 0.0, 2022-10-21 18:54:18.207
178.0, -109922.52646953183, -150064.49372345136, -64777.61295766985, -131927.55066484818, 48054.75301203168, -72252.86331806939, 37920.382669017636, -118703.7669067105, 0.054, 0.96, 0.038, 192.0, 0.0, 0.0, 0.0, 0.0, 0.0, 0.0, 0.0, 0.0, 0.0, 1.6664036582072077E9, 0.0, 2022-10-21 18:54:18.207
179.0, -109910.83650718171, -150049.87568257758, -64763.307841218455, -131924.1308479465, 48064.364262147465, -72263.68156238575, 37911.53137821333, -118701.79995319844, 0.054, 0.96, 0.038, 192.0, 0.0, 0.0, 0.0, 0.0, 0.0, 0.0, 0.0, 0.0, 0.0, 1.6664036582072203E9, 0.0, 2022-10-21 18:54:18.207
180.0, -109918.92783867453, -150060.93979608297, -64766.48178893111, -131926.3436706476, 48063.2913784136, -72271.99641132313, 37901.4954449529, -118706.38206081177, 0.054, 0.96, 0.038, 192.0, 0.0, 0.0, 0.0, 0.0, 0.0, 0.0, 0.0, 0.0, 0.0, 1.6664036582072327E9, 0.0, 2022-10-21 18:54:18.207
181.0, -109932.0483126698, -150073.5685317002, -64784.273777517534, -131941.16287722145, 48046.8404944945, -72277.94197534824, 37901.54014844181, -118727.03507268848, 0.054, 0.96, 0.038, 192.0, 0.0, 0.0, 0.0, 0.0, 0.0, 0.0, 0.0, 0.0, 0.0, 1.6664036582072568E9, 0.0, 2022-10-21 18:54:18.207
182.0, -109935.82575748274, -150077.70360442443, -64789.392326997804, -131944.06860400064, 48040.55965430256, -72265.08972228643, 37924.31657604177, -118739.03795946098, 0.056, 0.962, 0.038, 192.0, 1.0, 192.0, 30.0, 16.0, 1.0, 48.0, 0.0, 0.0, 0.0, 1.6664036582072697E9, 0.0, 2022-10-21 18:54:18.207
183.0, -109929.61197252417, -150071.75804039932, -64783.62557692833, -131947.86840055804, 48042.23603513671, -72277.20436778122, 37923.89189289712, -118736.80278501545, 0.056, 0.962, 0.038, 192.0, 0.0, 0.0, 0.0, 0.0, 0.0, 0.0, 0.0, 0.0, 0.0, 1.6664036582072833E9, 0.0, 2022-10-21 18:54:18.207
184.0, -109912.80346069377, -150056.4694471919, -64760.178596994716, -131938.3465574201, 48064.766593547654, -72308.27329257409, 37897.78505537332, -118706.3150055784, 0.056, 0.962, 0.038, 192.0, 0.0, 0.0, 0.0, 0.0, 0.0, 0.0, 0.0, 0.0, 0.0, 1.666403658207296E9, 0.0, 2022-10-21 18:54:18.207
185.0, -109915.5974287507, -150059.97867107138, -64761.45264642867, -131931.10459221658, 48064.25250342518, -72301.5677692375, 37894.9463838275, -118709.4218980577, 0.056, 0.962, 0.038, 192.0, 0.0, 0.0, 0.0, 0.0, 0.0, 0.0, 0.0, 0.0, 0.0, 1.6664036582073095E9, 0.0, 2022-10-21 18:54:18.207
186.0, -109925.07456839974, -150066.68419440798, -64772.38264946731, -131937.92187427543, 48048.89685498439, -72280.08774281594, 37921.008517862385, -118722.98940694207, 0.056, 0.962, 0.038, 192.0, 0.0, 0.0, 0.0, 0.0, 0.0, 0.0, 0.0, 0.0, 0.0, 1.6664036582073226E9, 0.0, 2022-10-21 18:54:18.207
187.0, -109925.85687945568, -150072.24977877733, -64771.063896544445, -131942.3475196776, 48049.16507591785, -72281.56295795, 37934.12899185765, -118718.0720231619, 0.056, 0.962, 0.038, 192.0, 0.0, 0.0, 0.0, 0.0, 0.0, 0.0, 0.0, 0.0, 0.0, 1.666403658207336E9, 0.0, 2022-10-21 18:54:18.207
188.0, -109914.97157990595, -150061.09625829416, -64755.86471031484, -131936.87134228603, 48065.481849370226, -72295.2198738122, 37925.5012184979, -118697.75428745203, 0.056, 0.962, 0.038, 192.0, 0.0, 0.0, 0.0, 0.0, 0.0, 0.0, 0.0, 0.0, 0.0, 1.666403658207348E9, 0.0, 2022-10-21 18:54:18.207
189.0, -109916.75971946237, -150064.53842694027, -64757.3846289378, -131937.11721147504, 48065.77242204815, -72308.1168303629, 37911.911357869074, -118701.71054622061, 0.056, 0.962, 0.038, 192.0, 0.0, 0.0, 0.0, 0.0, 0.0, 0.0, 0.0, 0.0, 0.0, 1.6664036582073603E9, 0.0, 2022-10-21 18:54:18.207
190.0, -109930.12606264664, -150078.30710152473, -64764.716001119144, -131945.76733657924, 48051.06497419655, -72305.79224893954, 37922.57313997426, -118724.37521509829, 0.056, 0.962, 0.038, 192.0, 0.0, 0.0, 0.0, 0.0, 0.0, 0.0, 0.0, 0.0, 0.0, 1.6664036582073724E9, 0.0, 2022-10-21 18:54:18.207
191.0, -109921.65475149808, -150071.80274388823, -64756.602317881865, -131945.7449848348, 48057.34581438849, -72307.08865011796, 37935.85007618071, -118720.59777028536, 0.056, 0.962, 0.038, 192.0, 0.0, 0.0, 0.0, 0.0, 0.0, 0.0, 0.0, 0.0, 0.0, 1.6664036582073848E9, 0.0, 2022-10-21 18:54:18.207
192.0, -109913.5410682608, -150067.53356069728, -64758.703381860665, -131958.3513687076, 48056.47409635474, -72340.37039761191, 37907.91039561157, -118718.9213894512, 0.052000000000000005, 0.9580000000000001, 0.038, 192.0, 1.0, 160.0, 29.0, 240.0, 1.0, 48.0, 0.0, 0.0, 0.0, 1.6664036582073975E9, 0.0, 2022-10-21 18:54:18.207
193.0, -109902.94634138899, -150057.02824080328, -64747.46045439965, -131940.91700803244, 48074.221381452255, -72338.55990631103, 37903.93178509853, -118705.4656392891, 0.052000000000000005, 0.9580000000000001, 0.038, 192.0, 0.0, 0.0, 0.0, 0.0, 0.0, 0.0, 0.0, 0.0, 0.0, 1.6664036582074103E9, 0.0, 2022-10-21 18:54:18.207
194.0, -109903.16985883354, -150057.38586871457, -64739.32441941791, -131927.97534799282, 48076.14363147541, -72308.16153385182, 37939.06872738227, -118711.54531378095, 0.052000000000000005, 0.9580000000000001, 0.038, 192.0, 0.0, 0.0, 0.0, 0.0, 0.0, 0.0, 0.0, 0.0, 0.0, 1.6664036582074225E9, 0.0, 2022-10-21 18:54:18.207
195.0, -109901.71699544395, -150048.08754302116, -64728.43911986818, -131921.26982465625, 48082.91621004537, -72314.17415311029, 37951.4068903216, -118698.49189501905, 0.052000000000000005, 0.9580000000000001, 0.038, 192.0, 0.0, 0.0, 0.0, 0.0, 0.0, 0.0, 0.0, 0.0, 0.0, 1.666403658207435E9, 0.0, 2022-10-21 18:54:18.207
196.0, -109927.93559169002, -150068.2711682643, -64749.85209105636, -131951.89171456, 48062.01732897965, -72348.05939770454, 37921.299090540306, -118710.49478179155, 0.052000000000000005, 0.9580000000000001, 0.038, 192.0, 0.0, 0.0, 0.0, 0.0, 0.0, 0.0, 0.0, 0.0, 0.0, 1.6664036582074578E9, 0.0, 2022-10-21 18:54:18.207
197.0, -109911.17178334855, -150061.4091827165, -64748.7345038336, -131952.2046389824, 48062.08438421302, -72357.55888909804, 37910.41379099057, -118715.56862778291, 0.052000000000000005, 0.9580000000000001, 0.038, 192.0, 0.0, 0.0, 0.0, 0.0, 0.0, 0.0, 0.0, 0.0, 0.0, 1.6664036582074704E9, 0.0, 2022-10-21 18:54:18.207
198.0, -109905.40503327908, -150056.7153163809, -64735.211698438135, -131944.5379906342, 48065.37009064795, -72342.62792380189, 37931.24561682292, -118703.14105786575, 0.052000000000000005, 0.9580000000000001, 0.038, 192.0, 0.0, 0.0, 0.0, 0.0, 0.0, 0.0, 0.0, 0.0, 0.0, 1.666403658207484E9, 0.0, 2022-10-21 18:54:18.207
199.0, -109911.37294904864, -150058.59286291516, -64740.598468851866, -131949.16480173645, 48061.011500479166, -72343.074958691, 37936.8559046812, -118708.1702003682, 0.052000000000000005, 0.9580000000000001, 0.038, 192.0, 0.0, 0.0, 0.0, 0.0, 0.0, 0.0, 0.0, 0.0, 0.0, 1.666403658207496E9, 0.0, 2022-10-21 18:54:18.207
200.0, -109908.444870525, -150058.6599181485, -64739.50323337356, -131955.53504890623, 48061.480887112724, -72352.61915357341, 37927.8034481768, -118711.81353471441, 0.052000000000000005, 0.9580000000000001, 0.038, 192.0, 0.0, 0.0, 0.0, 0.0, 0.0, 0.0, 0.0, 0.0, 0.0, 1.6664036582075083E9, 0.0, 2022-10-21 18:54:18.207
201.0, -109907.88607691361, -150061.923272839, -64735.94930600516, -131950.41649942595, 48065.03481448112, -72367.81833980302, 37908.133913056125, -118706.4714677896, 0.052000000000000005, 0.9580000000000001, 0.038, 192.0, 0.0, 0.0, 0.0, 0.0, 0.0, 0.0, 0.0, 0.0, 0.0, 1.6664036582075205E9, 0.0, 2022-10-21 18:54:18.207
202.0, -109918.7490247189, -150062.5714734282, -64737.24570718357, -131942.1016504886, 48065.548904603595, -72366.90191828036, 37912.71602066947, -118698.87187467479, 0.052000000000000005, 0.9540000000000001, 0.042, 192.0, 1.0, 160.0, 29.0, 208.0, 1.0, 80.0, 0.0, 0.0, 0.0, 1.6664036582075326E9, 0.0, 2022-10-21 18:54:18.207
203.0, -109903.21456232245, -150059.15165652655, -64738.72092231762, -131944.62739761203, 48062.62082607995, -72355.74839779716, 37932.74318370142, -118704.07983113288, 0.052000000000000005, 0.9540000000000001, 0.042, 192.0, 0.0, 0.0, 0.0, 0.0, 0.0, 0.0, 0.0, 0.0, 0.0, 1.6664036582075455E9, 0.0, 2022-10-21 18:54:18.207
204.0, -109905.4944402569, -150064.1137437956, -64740.28554442949, -131955.95973205086, 48054.708308542766, -72357.8271100315, 37936.69944247001, -118714.74161323806, 0.052000000000000005, 0.9540000000000001, 0.042, 192.0, 0.0, 0.0, 0.0, 0.0, 0.0, 0.0, 0.0, 0.0, 0.0, 1.666403658207558E9, 0.0, 2022-10-21 18:54:18.207
205.0, -109912.2893705713, -150068.24881651986, -64741.42548339671, -131958.37372045204, 48050.3944218629, -72385.16329350034, 37912.045468335804, -118722.65413077523, 0.052000000000000005, 0.9540000000000001, 0.042, 192.0, 0.0, 0.0, 0.0, 0.0, 0.0, 0.0, 0.0, 0.0, 0.0, 1.66640365820757E9, 0.0, 2022-10-21 18:54:18.207
206.0, -109924.80634746628, -150077.43538349099, -64745.11352123184, -131959.2007349969, 48044.35945085996, -72377.31783119653, 37927.579930732245, -118725.38104359878, 0.052000000000000005, 0.9540000000000001, 0.042, 192.0, 0.0, 0.0, 0.0, 0.0, 0.0, 0.0, 0.0, 0.0, 0.0, 1.6664036582075827E9, 0.0, 2022-10-21 18:54:18.207
207.0, -109911.9987978934, -150064.5160751958, -64730.33901814688, -131947.57782788013, 48056.20587542128, -72370.25467994866, 37950.89280019913, -118711.41120331422, 0.052000000000000005, 0.9540000000000001, 0.042, 192.0, 0.0, 0.0, 0.0, 0.0, 0.0, 0.0, 0.0, 0.0, 0.0, 1.6664036582075944E9, 0.0, 2022-10-21 18:54:18.207
208.0, -109896.77725991933, -150054.6142524021, -64724.505212844044, -131949.81300232565, 48063.380785391426, -72388.3819447019, 37939.33694831574, -118704.54921776644, 0.052000000000000005, 0.9540000000000001, 0.042, 192.0, 0.0, 0.0, 0.0, 0.0, 0.0, 0.0, 0.0, 0.0, 0.0, 1.6664036582076066E9, 0.0, 2022-10-21 18:54:18.207
209.0, -109895.54791397428, -150054.54719716875, -64720.168974419714, -131946.16966797944, 48067.60526509348, -72390.39360170289, 37931.82676217875, -118699.65418573073, 0.052000000000000005, 0.9540000000000001, 0.042, 192.0, 0.0, 0.0, 0.0, 0.0, 0.0, 0.0, 0.0, 0.0, 0.0, 1.6664036582076187E9, 0.0, 2022-10-21 18:54:18.207
210.0, -109904.2427425674, -150060.7162786384, -64723.454680854644, -131950.41649942595, 48057.167000432855, -72384.87272082243, 37937.90643667059, -118709.15367712422, 0.052000000000000005, 0.9540000000000001, 0.042, 192.0, 0.0, 0.0, 0.0, 0.0, 0.0, 0.0, 0.0, 0.0, 0.0, 1.6664036582076309E9, 0.0, 2022-10-21 18:54:18.207
211.0, -109916.8491264402, -150072.60740668862, -64737.49157637258, -131965.16865076646, 48037.67627926783, -72393.07581103752, 37946.02011990787, -118722.31885460841, 0.05, 0.96, 0.04, 192.0, 1.0, 144.0, 30.0, 0.0, 1.0, 64.0, 0.0, 0.0, 0.0, 1.6664036582076561E9, 0.0, 2022-10-21 18:54:18.207
212.0, -109931.62362952514, -150090.10882259713, -64762.72669586262, -131986.26869753227, 48022.41003780485, -72421.73074742923, 37926.97643363195, -118739.44029086117, 0.05, 0.96, 0.04, 192.0, 0.0, 0.0, 0.0, 0.0, 0.0, 0.0, 0.0, 0.0, 0.0, 1.666403658207669E9, 0.0, 2022-10-21 18:54:18.207
213.0, -109897.58192271972, -150054.88247333557, -64726.114538444825, -131961.5476681647, 48058.57516033354, -72410.08548856802, 37937.68291922604, -118702.00111889854, 0.05, 0.96, 0.04, 192.0, 0.0, 0.0, 0.0, 0.0, 0.0, 0.0, 0.0, 0.0, 0.0, 1.6664036582076812E9, 0.0, 2022-10-21 18:54:18.207
214.0, -109889.42353599353, -150045.40533368653, -64703.15929688923, -131947.28725520222, 48073.863753540965, -72402.26237800866, 37942.60030300621, -118692.88160716077, 0.05, 0.96, 0.04, 192.0, 0.0, 0.0, 0.0, 0.0, 0.0, 0.0, 0.0, 0.0, 0.0, 1.6664036582076936E9, 0.0, 2022-10-21 18:54:18.207
215.0, -109896.46433549694, -150055.64243264706, -64707.450831824644, -131944.96267377885, 48068.901666271886, -72385.36445920044, 37962.739224760444, -118702.98459565456, 0.05, 0.96, 0.04, 192.0, 0.0, 0.0, 0.0, 0.0, 0.0, 0.0, 0.0, 0.0, 0.0, 1.666403658207706E9, 0.0, 2022-10-21 18:54:18.207
216.0, -109900.86762915464, -150065.14192404057, -64715.363349361825, -131953.0987087606, 48060.56446559006, -72382.21286323224, 37976.03851271135, -118706.11383987831, 0.05, 0.96, 0.04, 192.0, 0.0, 0.0, 0.0, 0.0, 0.0, 0.0, 0.0, 0.0, 0.0, 1.6664036582077184E9, 0.0, 2022-10-21 18:54:18.207
217.0, -109888.66357668205, -150055.6647843915, -64709.216619636616, -131957.79257509622, 48064.163096447366, -72423.18361081881, 37940.87921868315, -118699.47537177509, 0.05, 0.96, 0.04, 192.0, 0.0, 0.0, 0.0, 0.0, 0.0, 0.0, 0.0, 0.0, 0.0, 1.6664036582077305E9, 0.0, 2022-10-21 18:54:18.207
218.0, -109883.67913766851, -150046.85819707613, -64702.39933757774, -131942.906313289, 48072.23207619573, -72427.56455273206, 37931.491486011924, -118696.45788627362, 0.05, 0.96, 0.04, 192.0, 0.0, 0.0, 0.0, 0.0, 0.0, 0.0, 0.0, 0.0, 0.0, 1.6664036582077427E9, 0.0, 2022-10-21 18:54:18.207
219.0, -109894.51973372934, -150056.42474370298, -64711.89882897125, -131943.06277550015, 48063.09021271351, -72404.65401466537, 37951.42924206606, -118707.521999779, 0.05, 0.96, 0.04, 192.0, 0.0, 0.0, 0.0, 0.0, 0.0, 0.0, 0.0, 0.0, 0.0, 1.6664036582077549E9, 0.0, 2022-10-21 18:54:18.207
220.0, -109889.49059122689, -150053.83194134617, -64707.80845973593, -131947.8460488136, 48063.76076504717, -72401.90475009737, 37961.86750672669, -118705.13036312228, 0.05, 0.96, 0.04, 192.0, 0.0, 0.0, 0.0, 0.0, 0.0, 0.0, 0.0, 0.0, 0.0, 1.666403658207768E9, 0.0, 2022-10-21 18:54:18.207
221.0, -109892.75394591737, -150052.49083667886, -64707.115555657816, -131958.57488615214, 48067.448802882296, -72419.2944072836, 37945.03664315184, -118702.09052587635, 0.048, 0.9580000000000001, 0.038, 192.0, 1.0, 128.0, 29.0, 240.0, 1.0, 48.0, 0.0, 0.0, 0.0, 1.6664036582077804E9, 0.0, 2022-10-21 18:54:18.207
222.0, -109905.47208851244, -150062.169142028, -64716.34682611786, -131966.15212752248, 48059.02219522264, -72431.67727371184, 37929.03279412184, -118704.83979044436, 0.048, 0.9580000000000001, 0.038, 192.0, 0.0, 0.0, 0.0, 0.0, 0.0, 0.0, 0.0, 0.0, 0.0, 1.6664036582077935E9, 0.0, 2022-10-21 18:54:18.207
223.0, -109898.90067564258, -150061.3644792276, -64711.96588420462, -131954.84214482812, 48060.452706867785, -72421.68604394031, 37945.84130595223, -118698.84952293034, 0.048, 0.9580000000000001, 0.038, 192.0, 0.0, 0.0, 0.0, 0.0, 0.0, 0.0, 0.0, 0.0, 0.0, 1.666403658207807E9, 0.0, 2022-10-21 18:54:18.207
224.0, -109892.59748370618, -150054.167217513, -64701.95230268864, -131950.21533372585, 48065.01246273667, -72412.76769790264, 37963.007445693904, -118698.55895025241, 0.048, 0.9580000000000001, 0.038, 192.0, 0.0, 0.0, 0.0, 0.0, 0.0, 0.0, 0.0, 0.0, 0.0, 1.6664036582078192E9, 0.0, 2022-10-21 18:54:18.207
225.0, -109895.72672792993, -150057.8552553481, -64701.21469512161, -131965.01218855527, 48058.08342195552, -72431.76668068966, 37948.836439709245, -118710.94181668066, 0.048, 0.9580000000000001, 0.038, 192.0, 0.0, 0.0, 0.0, 0.0, 0.0, 0.0, 0.0, 0.0, 0.0, 1.6664036582078328E9, 0.0, 2022-10-21 18:54:18.207
226.0, -109905.51679200135, -150068.69585140896, -64714.37987260579, -131981.06074107418, 48043.46538108175, -72452.77732047765, 37927.31170979878, -118723.45879357563, 0.048, 0.9580000000000001, 0.038, 192.0, 0.0, 0.0, 0.0, 0.0, 0.0, 0.0, 0.0, 0.0, 0.0, 1.6664036582078557E9, 0.0, 2022-10-21 18:54:18.207
227.0, -109897.85014365318, -150060.7162786384, -64702.28757885547, -131963.93930482143, 48059.62569232294, -72451.27975359914, 37932.206741834496, -118700.79412469795, 0.048, 0.9580000000000001, 0.038, 192.0, 0.0, 0.0, 0.0, 0.0, 0.0, 0.0, 0.0, 0.0, 0.0, 1.6664036582078679E9, 0.0, 2022-10-21 18:54:18.207
228.0, -109885.75784990286, -150047.79697034325, -64685.32260481389, -131947.98015928033, 48074.89193378591, -72407.55974144457, 37974.25037315492, -118686.53371173546, 0.048, 0.9580000000000001, 0.038, 192.0, 0.0, 0.0, 0.0, 0.0, 0.0, 0.0, 0.0, 0.0, 0.0, 1.6664036582078798E9, 0.0, 2022-10-21 18:54:18.207
229.0, -109895.01147210736, -150053.67547913498, -64693.43628805117, -131964.78867111073, 48069.1475354609, -72422.78127941863, 37963.096852671726, -118696.07790661788, 0.048, 0.9580000000000001, 0.038, 192.0, 0.0, 0.0, 0.0, 0.0, 0.0, 0.0, 0.0, 0.0, 0.0, 1.6664036582078917E9, 0.0, 2022-10-21 18:54:18.207
230.0, -109901.0911465992, -150062.5714734282, -64695.783221218975, -131977.32799975015, 48060.00567197867, -72447.39055006392, 37937.07942212575, -118704.32570032189, 0.048, 0.9580000000000001, 0.038, 192.0, 0.0, 0.0, 0.0, 0.0, 0.0, 0.0, 0.0, 0.0, 0.0, 1.6664036582079039E9, 0.0, 2022-10-21 18:54:18.207
231.0, -109900.4876494989, -150057.45292394795, -64691.33522407237, -131969.30372349068, 48057.77049753314, -72458.78993973613, 37931.71500345648, -118705.6221015003, 0.052000000000000005, 0.9560000000000001, 0.04, 192.0, 1.0, 160.0, 29.0, 224.0, 1.0, 64.0, 0.0, 0.0, 0.0, 1.6664036582079158E9, 0.0, 2022-10-21 18:54:18.207
232.0, -109879.56641668874, -150054.54719716875, -64689.055346137924, -131962.84406934312, 48056.49644809919, -72453.0455414111, 37949.48464029845, -118700.79412469795, 0.052000000000000005, 0.9560000000000001, 0.04, 192.0, 0.0, 0.0, 0.0, 0.0, 0.0, 0.0, 0.0, 0.0, 0.0, 1.6664036582079284E9, 0.0, 2022-10-21 18:54:18.207
233.0, -109876.86185560965, -150053.29549947925, -64687.22250309259, -131968.92374383495, 48058.12812544443, -72454.61016352299, 37951.78686997734, -118696.77081069599, 0.052000000000000005, 0.9560000000000001, 0.04, 192.0, 0.0, 0.0, 0.0, 0.0, 0.0, 0.0, 0.0, 0.0, 0.0, 1.66640365820794E9, 0.0, 2022-10-21 18:54:18.207
234.0, -109875.1854747755, -150050.90386282254, -64679.10881985532, -131971.36008398057, 48067.53820986011, -72470.12227417497, 37929.43512552203, -118689.57354898138, 0.052000000000000005, 0.9560000000000001, 0.04, 192.0, 0.0, 0.0, 0.0, 0.0, 0.0, 0.0, 0.0, 0.0, 0.0, 1.666403658207952E9, 0.0, 2022-10-21 18:54:18.207
235.0, -109891.27873078332, -150064.00198507332, -64681.25458732303, -131972.32120899216, 48060.60916907897, -72466.16601540637, 37926.3505847872, -118695.38500253977, 0.052000000000000005, 0.9560000000000001, 0.04, 192.0, 0.0, 0.0, 0.0, 0.0, 0.0, 0.0, 0.0, 0.0, 0.0, 1.666403658207964E9, 0.0, 2022-10-21 18:54:18.207
236.0, -109918.86078344117, -150093.21571507643, -64712.14469816026, -131995.58937497012, 48029.74140998619, -72456.28654435714, 37942.77911696185, -118722.83294473088, 0.052000000000000005, 0.9560000000000001, 0.04, 192.0, 0.0, 0.0, 0.0, 0.0, 0.0, 0.0, 0.0, 0.0, 0.0, 1.666403658207976E9, 0.0, 2022-10-21 18:54:18.207
237.0, -109878.9852713329, -150053.47431343488, -64674.2137878196, -131957.7478716073, 48073.84140179651, -72437.77929994813, 37974.80916676631, -118686.66782220219, 0.052000000000000005, 0.9560000000000001, 0.04, 192.0, 0.0, 0.0, 0.0, 0.0, 0.0, 0.0, 0.0, 0.0, 0.0, 1.666403658207988E9, 0.0, 2022-10-21 18:54:18.207
238.0, -109867.98821306089, -150043.19251098545, -64658.433456234154, -131950.03651977022, 48090.80637583809, -72455.101901901, 37955.13963164564, -118678.57649070937, 0.052000000000000005, 0.9560000000000001, 0.04, 192.0, 0.0, 0.0, 0.0, 0.0, 0.0, 0.0, 0.0, 0.0, 0.0, 1.666403658208E9, 0.0, 2022-10-21 18:54:18.208
239.0, -109873.82201836372, -150050.4121244445, -64666.10010458233, -131962.48644143183, 48079.116413487965, -72467.41771309587, 37940.47688728296, -118687.40542976922, 0.052000000000000005, 0.9560000000000001, 0.04, 192.0, 0.0, 0.0, 0.0, 0.0, 0.0, 0.0, 0.0, 0.0, 0.0, 1.6664036582080133E9, 0.0, 2022-10-21 18:54:18.208
240.0, -109878.1359050436, -150051.08267677817, -64668.08940983885, -131955.55740065066, 48077.68590184282, -72458.2534978692, 37957.24069562444, -118692.38986878275, 0.048, 0.96, 0.034, 192.0, 1.0, 128.0, 30.0, 0.0, 1.0, 16.0, 0.0, 0.0, 0.0, 1.666403658208025E9, 0.0, 2022-10-21 18:54:18.208
241.0, -109882.5391987013, -150056.98353731437, -64674.70552619762, -131973.7517206373, 48069.393404649905, -72463.21558513827, 37958.693559014035, -118696.94962465164, 0.048, 0.96, 0.034, 192.0, 0.0, 0.0, 0.0, 0.0, 0.0, 0.0, 0.0, 0.0, 0.0, 1.666403658685525E9, 0.0, 2022-10-21 18:54:18.685
242.0, -109876.92891084301, -150051.2614907338, -64674.37025003079, -131977.46211021687, 48071.09213722851, -72486.23788192724, 37934.79954419131, -118699.54242700845, 0.048, 0.96, 0.034, 192.0, 0.0, 0.0, 0.0, 0.0, 0.0, 0.0, 0.0, 0.0, 0.0, 1.6664036586856837E9, 0.0, 2022-10-21 18:54:18.685
243.0, -109880.8851696116, -150053.0719820347, -64675.21961632009, -131983.0053428418, 48062.73258480222, -72501.88410304596, 37914.280642781334, -118706.4714677896, 0.048, 0.96, 0.034, 192.0, 0.0, 0.0, 0.0, 0.0, 0.0, 0.0, 0.0, 0.0, 0.0, 1.666403658685743E9, 0.0, 2022-10-21 18:54:18.685
244.0, -109871.25156775136, -150043.37132494108, -64667.530616227465, -131974.42227297096, 48065.90653251488, -72500.14066697845, 37924.24952080841, -118687.36072628031, 0.048, 0.96, 0.034, 192.0, 0.0, 0.0, 0.0, 0.0, 0.0, 0.0, 0.0, 0.0, 0.0, 1.6664036586857655E9, 0.0, 2022-10-21 18:54:18.685
245.0, -109883.61208243515, -150050.99326980035, -64674.07967735287, -131974.10934854858, 48068.052299982584, -72487.17665519437, 37941.99680590592, -118687.47248500258, 0.048, 0.96, 0.034, 192.0, 0.0, 0.0, 0.0, 0.0, 0.0, 0.0, 0.0, 0.0, 0.0, 1.666403658685788E9, 0.0, 2022-10-21 18:54:18.685
246.0, -109893.29038778429, -150063.39848797306, -64665.20603480411, -131973.63996191503, 48076.56831462006, -72482.84041677004, 37948.0094251644, -118681.37045876628, 0.048, 0.96, 0.034, 192.0, 0.0, 0.0, 0.0, 0.0, 0.0, 0.0, 0.0, 0.0, 0.0, 1.66640365868581E9, 0.0, 2022-10-21 18:54:18.685
247.0, -109875.65486140906, -150047.55110115424, -64655.63948817724, -131968.36495022356, 48081.686864100324, -72511.31653920609, 37923.44485800801, -118673.79321739594, 0.048, 0.96, 0.034, 192.0, 0.0, 0.0, 0.0, 0.0, 0.0, 0.0, 0.0, 0.0, 0.0, 1.6664036586858313E9, 0.0, 2022-10-21 18:54:18.685
248.0, -109869.86575959514, -150040.91263305102, -64655.34891549932, -131957.23378148483, 48085.30784670208, -72507.29322520414, 37928.56340748828, -118675.0672668299, 0.048, 0.96, 0.034, 192.0, 0.0, 0.0, 0.0, 0.0, 0.0, 0.0, 0.0, 0.0, 0.0, 1.6664036586858532E9, 0.0, 2022-10-21 18:54:18.685
249.0, -109879.16408528855, -150051.64147038956, -64660.690982424145, -131969.25902000177, 48074.489602385715, -72511.42829792837, 37933.9054744131, -118686.13138033527, 0.048, 0.96, 0.034, 192.0, 0.0, 0.0, 0.0, 0.0, 0.0, 0.0, 0.0, 0.0, 0.0, 1.6664036586858742E9, 0.0, 2022-10-21 18:54:18.685
250.0, -109875.16312303104, -150050.94856631145, -64658.27699402297, -131981.1054445631, 48074.04256749661, -72521.0618997886, 37927.53522724334, -118687.13720883576, 0.048, 0.9580000000000001, 0.036000000000000004, 192.0, 1.0, 128.0, 29.0, 240.0, 1.0, 32.0, 0.0, 0.0, 0.0, 1.6664036586858957E9, 0.0, 2022-10-21 18:54:18.685
251.0, -109866.15537001555, -150041.18085398446, -64648.21870901808, -131967.56028742317, 48084.3020182016, -72517.8656003315, 37928.36224178818, -118681.23634829956, 0.048, 0.9580000000000001, 0.036000000000000004, 192.0, 0.0, 0.0, 0.0, 0.0, 0.0, 0.0, 0.0, 0.0, 0.0, 1.66640365868592E9, 0.0, 2022-10-21 18:54:18.685
252.0, -109880.59459693368, -150053.20609250144, -64656.980592844564, -131971.78476712524, 48071.94150351781, -72521.33012072208, 37929.34571854422, -118691.58520598237, 0.048, 0.9580000000000001, 0.036000000000000004, 192.0, 0.0, 0.0, 0.0, 0.0, 0.0, 0.0, 0.0, 0.0, 0.0, 1.6664036586859417E9, 0.0, 2022-10-21 18:54:18.685
253.0, -109882.38273649011, -150055.55302566924, -64654.83482537685, -131974.86930786006, 48072.27677968464, -72521.59834165554, 37939.69457622702, -118686.42195301318, 0.048, 0.9580000000000001, 0.036000000000000004, 192.0, 0.0, 0.0, 0.0, 0.0, 0.0, 0.0, 0.0, 0.0, 0.0, 1.6664036586859634E9, 0.0, 2022-10-21 18:54:18.685
254.0, -109869.15050377256, -150042.32079295168, -64647.30228749541, -131975.2492875158, 48081.820974567054, -72520.54780966614, 37945.41662280758, -118673.88262437376, 0.048, 0.9580000000000001, 0.036000000000000004, 192.0, 0.0, 0.0, 0.0, 0.0, 0.0, 0.0, 0.0, 0.0, 0.0, 1.6664036586859848E9, 0.0, 2022-10-21 18:54:18.685
255.0, -109865.68598338199, -150037.13518823805, -64638.74156936903, -131980.9489823519, 48081.30688444458, -72537.870411619, 37926.37293653166, -118678.64354594273, 0.048, 0.9580000000000001, 0.036000000000000004, 192.0, 0.0, 0.0, 0.0, 0.0, 0.0, 0.0, 0.0, 0.0, 0.0, 1.666403658686006E9, 0.0, 2022-10-21 18:54:18.686
0.0, -109869.39637296158, -150039.50447315033, -64641.06615079238, -131978.646752673, 48076.165983219864, -72539.18916454187, 37929.72569819995, -118679.85054014332, 0.048, 0.9580000000000001, 0.036000000000000004, 192.0, 0.0, 0.0, 0.0, 0.0, 0.0, 0.0, 0.0, 0.0, 0.0, 1.6664036586861029E9, 0.0, 2022-10-21 18:54:18.686
1.0, -109883.94735860197, -150043.25956621883, -64653.02433407597, -131980.45724397388, 48071.136840717416, -72549.76153966923, 37930.88798891163, -118683.33741227836, 0.048, 0.9580000000000001, 0.036000000000000004, 192.0, 0.0, 0.0, 0.0, 0.0, 0.0, 0.0, 0.0, 0.0, 0.0, 1.6664036586861217E9, 0.0, 2022-10-21 18:54:18.686
2.0, -109884.12617255762, -150052.42378144548, -64667.105933082814, -131994.8070639142, 48059.8939132564, -72560.46802526331, 37925.94825338701, -118691.78637168246, 0.048, 0.9580000000000001, 0.036000000000000004, 192.0, 0.0, 0.0, 0.0, 0.0, 0.0, 0.0, 0.0, 0.0, 0.0, 1.6664036586861367E9, 0.0, 2022-10-21 18:54:18.686
3.0, -109865.61892814863, -150044.84654007514, -64649.22453751857, -131990.87315689007, 48069.75103256119, -72569.72164746781, 37917.52164572736, -118682.30923203341, 0.048, 0.9580000000000001, 0.036000000000000004, 192.0, 0.0, 0.0, 0.0, 0.0, 0.0, 0.0, 0.0, 0.0, 0.0, 1.6664036586861513E9, 0.0, 2022-10-21 18:54:18.686
4.0, -109869.46342819494, -150045.65120287554, -64641.401426959215, -131986.76043591028, 48071.80739305108, -72572.13563586898, 37913.11835206966, -118682.4656942446, 0.052000000000000005, 0.9520000000000001, 0.042, 192.0, 1.0, 160.0, 29.0, 192.0, 1.0, 80.0, 0.0, 0.0, 0.0, 1.6664036586861646E9, 0.0, 2022-10-21 18:54:18.686
5.0, -109867.92115782753, -150047.12641800957, -64636.97578155706, -131976.5456886942, 48075.60718960848, -72555.1706618274, 37938.84520993772, -118684.90203439022, 0.052000000000000005, 0.9520000000000001, 0.042, 192.0, 0.0, 0.0, 0.0, 0.0, 0.0, 0.0, 0.0, 0.0, 0.0, 1.6664036586861796E9, 0.0, 2022-10-21 18:54:18.686
6.0, -109866.3788874601, -150043.68424936346, -64633.10892976629, -131978.22206952836, 48081.552753633594, -72547.45930999033, 37954.33496884524, -118682.15276982222, 0.052000000000000005, 0.9520000000000001, 0.042, 192.0, 0.0, 0.0, 0.0, 0.0, 0.0, 0.0, 0.0, 0.0, 0.0, 1.6664036586861987E9, 0.0, 2022-10-21 18:54:18.686
7.0, -109862.93671881399, -150039.30330745023, -64630.56083089839, -131986.22399404336, 48082.91621004537, -72575.57780451511, 37930.88798891163, -118677.19068255315, 0.052000000000000005, 0.9520000000000001, 0.042, 192.0, 0.0, 0.0, 0.0, 0.0, 0.0, 0.0, 0.0, 0.0, 0.0, 1.6664036586862123E9, 0.0, 2022-10-21 18:54:18.686
8.0, -109851.47027390842, -150031.07786549066, -64620.770766826965, -131975.78572938274, 48090.20287873779, -72586.5301592982, 37917.47694223845, -118674.03908658495, 0.052000000000000005, 0.9520000000000001, 0.042, 192.0, 0.0, 0.0, 0.0, 0.0, 0.0, 0.0, 0.0, 0.0, 0.0, 1.6664036586862257E9, 0.0, 2022-10-21 18:54:18.686
9.0, -109846.39642791706, -150024.93113576545, -64609.729005066045, -131951.33292094863, 48101.37875096545, -72572.26974633572, 37938.554637259804, -118663.26554575749, 0.052000000000000005, 0.9520000000000001, 0.042, 192.0, 0.0, 0.0, 0.0, 0.0, 0.0, 0.0, 0.0, 0.0, 0.0, 1.666403658686239E9, 0.0, 2022-10-21 18:54:18.686
10.0, -109858.57812864521, -150037.69398184944, -64620.86017380479, -131966.57681066715, 48088.7500153482, -72573.58849925858, 37951.02691066586, -118668.67466791566, 0.052000000000000005, 0.9520000000000001, 0.042, 192.0, 0.0, 0.0, 0.0, 0.0, 0.0, 0.0, 0.0, 0.0, 0.0, 1.6664036586862524E9, 0.0, 2022-10-21 18:54:18.686
11.0, -109867.07179153823, -150048.69104012146, -64631.49960416551, -131997.6010319711, 48072.63440759593, -72614.76041254526, 37918.281605038836, -118676.7659994085, 0.052000000000000005, 0.9520000000000001, 0.042, 192.0, 0.0, 0.0, 0.0, 0.0, 0.0, 0.0, 0.0, 0.0, 0.0, 1.666403658686266E9, 0.0, 2022-10-21 18:54:18.686
12.0, -109856.23119547739, -150039.75034233934, -64617.753281325495, -131980.92663060746, 48087.65477986989, -72616.21327593486, 37911.17375030205, -118665.76894113648, 0.052000000000000005, 0.9520000000000001, 0.042, 192.0, 0.0, 0.0, 0.0, 0.0, 0.0, 0.0, 0.0, 0.0, 0.0, 1.6664036586862795E9, 0.0, 2022-10-21 18:54:18.686
