%OpenBCI Raw EEG Data
%Number of channels = 8
%Sample Rate = 250 Hz
%Board = OpenBCI_GUI$BoardCytonSerial
Sample Index, EXG Channel 0, EXG Channel 1, EXG Channel 2, EXG Channel 3, EXG Channel 4, EXG Channel 5, EXG Channel 6, EXG Channel 7, Accel Channel 0, Accel Channel 1, Accel Channel 2, Other, Other, Other, Other, Other, Other, Other, Analog Channel 0, Analog Channel 1, Analog Channel 2, Timestamp, Other, Timestamp (Formatted)
82.0, -82086.26742199271, -118934.83924088947, 23555.385894225346, 83142.23088529479, 43692.07247401148, 49054.45713453974, 34242.939560763785, 73712.61104495657, 0.0, 0.0, 0.0, 192.0, 0.0, 0.0, 0.0, 0.0, 0.0, 0.0, 0.0, 0.0, 0.0, 1.6665571152042632E9, 0.0, 2022-10-23 13:31:55.204
83.0, -82086.35682897054, -118934.45926123373, 23377.10838044982, 83139.1686963044, 43692.31834320049, 49047.86336992543, 34095.641564803314, 73633.39646260696, 0.0, 0.0, 0.0, 192.0, 0.0, 0.0, 0.0, 0.0, 0.0, 0.0, 0.0, 0.0, 0.0, 1.6665571152042916E9, 0.0, 2022-10-23 13:31:55.204
84.0, -82101.10898031104, -118952.34065679797, 23239.488689838494, 83134.58658869108, 43683.154127973816, 49040.017907621615, 34072.32869533643, 73645.01936972373, 0.0, 0.0, 0.0, 192.0, 0.0, 0.0, 0.0, 0.0, 0.0, 0.0, 0.0, 0.0, 0.0, 1.6665571152043133E9, 0.0, 2022-10-23 13:31:55.204
85.0, -82107.9262623699, -118958.9791249012, 23457.127625599816, 83130.45151596684, 43670.413633634285, 49028.84203539396, 34239.162115950836, 73756.97925770035, 0.0, 0.0, 0.0, 192.0, 0.0, 0.0, 0.0, 0.0, 0.0, 0.0, 0.0, 0.0, 0.0, 1.6665571152043293E9, 0.0, 2022-10-23 13:31:55.204
86.0, -82091.11775053952, -118942.05885434854, 23611.220551874703, 83133.73722240177, 43676.73917731514, 49039.9732041327, 34291.68871542081, 73743.05412090471, 0.0, 0.0, 0.0, 192.0, 0.0, 0.0, 0.0, 0.0, 0.0, 0.0, 0.0, 0.0, 0.0, 1.6665571152043452E9, 0.0, 2022-10-23 13:31:55.204
87.0, -82085.28394523668, -118935.1745170563, 23459.54161400099, 83136.66530092542, 43682.796500062526, 49040.42023902181, 34144.54718167152, 73642.49362260028, 0.0, 0.0, 0.0, 192.0, 0.0, 0.0, 0.0, 0.0, 0.0, 0.0, 0.0, 0.0, 0.0, 1.6665571152043638E9, 0.0, 2022-10-23 13:31:55.204
88.0, -82085.90979408142, -118937.7226159242, 23268.635364608213, 83142.14147831696, 43686.81981406448, 49047.75161120315, 34073.40157907028, 73626.378014848, 0.0, 0.0, 0.0, 192.0, 0.0, 0.0, 0.0, 0.0, 0.0, 0.0, 0.0, 0.0, 0.0, 1.6665571152043793E9, 0.0, 2022-10-23 13:31:55.204
89.0, -82085.50746268124, -118938.46022349123, 23396.6214533593, 83145.89657138546, 43684.048197752025, 49058.23457935269, 34194.212757851215, 73727.31849280816, 0.04, 0.9420000000000001, 0.168, 192.0, 1.0, 64.0, 29.0, 112.0, 5.0, 64.0, 0.0, 0.0, 0.0, 1.6665571152044048E9, 0.0, 2022-10-23 13:31:55.204
90.0, -82086.66975339291, -118938.03554034658, 23582.90089164983, 83140.39804224945, 43679.37668316087, 49052.64664323886, 34278.50118619218, 73752.06187392019, 0.04, 0.9420000000000001, 0.168, 192.0, 0.0, 0.0, 0.0, 0.0, 0.0, 0.0, 0.0, 0.0, 0.0, 1.6665571152044249E9, 0.0, 2022-10-23 13:31:55.204
91.0, -82083.69697138036, -118935.33097926748, 23476.79716072049, 83138.3193300151, 43680.31545642799, 49049.942082159774, 34155.92421959928, 73660.19620420889, 0.04, 0.9420000000000001, 0.168, 192.0, 0.0, 0.0, 0.0, 0.0, 0.0, 0.0, 0.0, 0.0, 0.0, 1.6665571152044413E9, 0.0, 2022-10-23 13:31:55.204
92.0, -82084.5239859252, -118937.320284524, 23271.98812627651, 83138.90047537095, 43675.88981102584, 49047.03635538058, 34061.57750625342, 73617.7725932327, 0.04, 0.9420000000000001, 0.168, 192.0, 0.0, 0.0, 0.0, 0.0, 0.0, 0.0, 0.0, 0.0, 0.0, 1.6665571152044575E9, 0.0, 2022-10-23 13:31:55.204
93.0, -82093.62114591851, -118947.46797650671, 23325.744071691523, 83141.40387074994, 43672.1570697018, 49048.60097749245, 34147.788184617544, 73695.35549823708, 0.04, 0.9420000000000001, 0.168, 192.0, 0.0, 0.0, 0.0, 0.0, 0.0, 0.0, 0.0, 0.0, 0.0, 1.666557115204474E9, 0.0, 2022-10-23 13:31:55.204
94.0, -82095.69985815286, -118948.4291015183, 23596.20017960074, 83136.15121080294, 43672.02295923507, 49051.57375950501, 34308.4972272512, 73770.2114904179, 0.04, 0.9420000000000001, 0.168, 192.0, 0.0, 0.0, 0.0, 0.0, 0.0, 0.0, 0.0, 0.0, 0.0, 1.66655711520449E9, 0.0, 2022-10-23 13:31:55.204
95.0, -82074.91273580943, -118926.23381927417, 23487.92832945923, 83148.69053944237, 43687.93740128725, 49058.4804485417, 34168.91058312781, 73664.80066356667, 0.04, 0.9420000000000001, 0.168, 192.0, 0.0, 0.0, 0.0, 0.0, 0.0, 0.0, 0.0, 0.0, 0.0, 1.6665571152045062E9, 0.0, 2022-10-23 13:31:55.204
96.0, -82082.93701206887, -118937.45439499074, 23287.924920073143, 83144.06372834012, 43685.27754369707, 49053.652471739355, 34065.26554408855, 73630.5801428056, 0.04, 0.9420000000000001, 0.168, 192.0, 0.0, 0.0, 0.0, 0.0, 0.0, 0.0, 0.0, 0.0, 0.0, 1.666557115204522E9, 0.0, 2022-10-23 13:31:55.204
97.0, -82093.19646277386, -118951.80421493105, 23285.8462078388, 83137.96170210383, 43676.89563952633, 49056.98288166319, 34128.52098089707, 73696.60719592658, 0.04, 0.9420000000000001, 0.168, 192.0, 0.0, 0.0, 0.0, 0.0, 0.0, 0.0, 0.0, 0.0, 0.0, 1.6665571152045383E9, 0.0, 2022-10-23 13:31:55.204
98.0, -82090.04486680566, -118946.64096196186, 23560.347981494426, 83137.93935035937, 43675.19690694773, 49060.492105542675, 34300.6964684363, 73790.4621708944, 0.04, 0.9420000000000001, 0.168, 192.0, 0.0, 0.0, 0.0, 0.0, 0.0, 0.0, 0.0, 0.0, 0.0, 1.6665571152047167E9, 0.0, 2022-10-23 13:31:55.204
99.0, -82090.13427378348, -118945.41161601683, 23515.733899561634, 83135.90534161394, 43672.13471795735, 49041.80604717804, 34204.78513297858, 73690.92985283493, 0.038, 0.9440000000000001, 0.16, 192.0, 1.0, 48.0, 29.0, 128.0, 5.0, 0.0, 0.0, 0.0, 0.0, 1.666557115204734E9, 0.0, 2022-10-23 13:31:55.204
100.0, -82103.09828556757, -118958.48738652318, 23316.75867042049, 83127.63519616547, 43663.1046131974, 49029.75845691663, 34075.32382909344, 73622.8240874796, 0.038, 0.9440000000000001, 0.16, 192.0, 0.0, 0.0, 0.0, 0.0, 0.0, 0.0, 0.0, 0.0, 0.0, 1.6665571152047527E9, 0.0, 2022-10-23 13:31:55.204
101.0, -82108.35094551455, -118966.71282848273, 23248.31762889834, 83128.90924559943, 43662.992854475124, 49034.832302907984, 34097.6979252932, 73664.82301531112, 0.038, 0.9440000000000001, 0.16, 192.0, 0.0, 0.0, 0.0, 0.0, 0.0, 0.0, 0.0, 0.0, 0.0, 1.6665571152047696E9, 0.0, 2022-10-23 13:31:55.204
102.0, -82108.37329725901, -118965.84111044898, 23537.772719594566, 83128.21634152131, 43662.523467841565, 49040.84492216646, 34294.952070111285, 73780.26977542278, 0.038, 0.9440000000000001, 0.16, 192.0, 0.0, 0.0, 0.0, 0.0, 0.0, 0.0, 0.0, 0.0, 0.0, 1.6665571152047863E9, 0.0, 2022-10-23 13:31:55.204
103.0, -82093.62114591851, -118949.59139222997, 23546.154623765306, 83134.5195334577, 43668.08905221093, 49034.45232325224, 34233.10479320345, 73688.85114060059, 0.038, 0.9440000000000001, 0.16, 192.0, 0.0, 0.0, 0.0, 0.0, 0.0, 0.0, 0.0, 0.0, 0.0, 1.6665571152048025E9, 0.0, 2022-10-23 13:31:55.204
104.0, -82091.90006159546, -118948.4738050072, 23355.985981939553, 83133.2231322793, 43668.78195628905, 49031.88187263988, 34089.204262400184, 73606.46261053832, 0.038, 0.9440000000000001, 0.16, 192.0, 0.0, 0.0, 0.0, 0.0, 0.0, 0.0, 0.0, 0.0, 0.0, 1.6665571152048233E9, 0.0, 2022-10-23 13:31:55.204
105.0, -82101.51131171123, -118958.26386907863, 23245.635419563703, 83124.41654496391, 43658.187229417235, 49028.1714830603, 34086.611460043365, 73628.12145091551, 0.038, 0.9440000000000001, 0.16, 192.0, 0.0, 0.0, 0.0, 0.0, 0.0, 0.0, 0.0, 0.0, 0.0, 1.6665571152048397E9, 0.0, 2022-10-23 13:31:55.204
106.0, -82099.99139308828, -118957.88388942288, 23480.954585189174, 83130.0715363111, 43658.053118950505, 49037.13453258688, 34252.953142279766, 73743.12117613807, 0.038, 0.9440000000000001, 0.16, 192.0, 0.0, 0.0, 0.0, 0.0, 0.0, 0.0, 0.0, 0.0, 0.0, 1.6665571152048557E9, 0.0, 2022-10-23 13:31:55.204
107.0, -82089.28490749418, -118944.85282240545, 23556.32466749247, 83134.63129217998, 43665.69741555422, 49040.42023902181, 34244.124203219915, 73703.37977449653, 0.038, 0.9440000000000001, 0.16, 192.0, 0.0, 0.0, 0.0, 0.0, 0.0, 0.0, 0.0, 0.0, 0.0, 1.6665571152048717E9, 0.0, 2022-10-23 13:31:55.204
108.0, -82093.71055289633, -118953.23472657618, 23388.910101522222, 83128.37280373249, 43663.66340680879, 49039.660279710326, 34100.15661718328, 73615.82799146509, 0.038, 0.9440000000000001, 0.16, 192.0, 0.0, 0.0, 0.0, 0.0, 0.0, 0.0, 0.0, 0.0, 0.0, 1.6665571152048893E9, 0.0, 2022-10-23 13:31:55.204
109.0, -82101.39955298897, -118962.42129354732, 23221.69670125207, 83122.51664668521, 43655.14739217131, 49035.055820352536, 34052.94973289368, 73606.95434891633, 0.036000000000000004, 0.9460000000000001, 0.16, 192.0, 1.0, 32.0, 29.0, 144.0, 5.0, 0.0, 0.0, 0.0, 0.0, 1.6665571152049055E9, 0.0, 2022-10-23 13:31:55.204
110.0, -82106.78632340269, -118967.6292500054, 23377.220139172096, 83126.98699557627, 43656.287331138534, 49044.93529140178, 34181.53931874506, 73706.86664663156, 0.036000000000000004, 0.9460000000000001, 0.16, 192.0, 0.0, 0.0, 0.0, 0.0, 0.0, 0.0, 0.0, 0.0, 0.0, 1.666557115204923E9, 0.0, 2022-10-23 13:31:55.204
111.0, -82104.64055593498, -118961.97425865821, 23551.317876734483, 83124.19302751936, 43658.12017418387, 49044.13062860139, 34257.06586325954, 73724.41276602898, 0.036000000000000004, 0.9460000000000001, 0.16, 192.0, 0.0, 0.0, 0.0, 0.0, 0.0, 0.0, 0.0, 0.0, 0.0, 1.666557115204939E9, 0.0, 2022-10-23 13:31:55.204
112.0, -82093.35292498505, -118951.8265666755, 23410.501886666047, 83128.35045198804, 43667.39614813282, 49045.404678035346, 34115.199341201704, 73632.16711666192, 0.036000000000000004, 0.9460000000000001, 0.16, 192.0, 0.0, 0.0, 0.0, 0.0, 0.0, 0.0, 0.0, 0.0, 0.0, 1.6665571152049549E9, 0.0, 2022-10-23 13:31:55.204
113.0, -82089.26255574972, -118950.44075851927, 23208.68798597908, 83129.11041129952, 43664.892752753825, 49039.92850064379, 34032.721404161624, 73613.3245960861, 0.036000000000000004, 0.9460000000000001, 0.16, 192.0, 0.0, 0.0, 0.0, 0.0, 0.0, 0.0, 0.0, 0.0, 0.0, 1.6665571152049708E9, 0.0, 2022-10-23 13:31:55.204
114.0, -82106.54045421368, -118963.71769472572, 23319.977321622053, 83124.23773100827, 43659.41657536228, 49043.728297201196, 34149.531620685055, 73711.00171935579, 0.036000000000000004, 0.9460000000000001, 0.16, 192.0, 0.0, 0.0, 0.0, 0.0, 0.0, 0.0, 0.0, 0.0, 0.0, 1.6665571152050488E9, 0.0, 2022-10-23 13:31:55.205
115.0, -82108.82033214813, -118961.48252028019, 23566.80763564201, 83122.40488796293, 43660.80238351851, 49047.282224569586, 34286.68192466282, 73757.6051065451, 0.036000000000000004, 0.9460000000000001, 0.16, 192.0, 0.0, 0.0, 0.0, 0.0, 0.0, 0.0, 0.0, 0.0, 0.0, 1.6665571152050653E9, 0.0, 2022-10-23 13:31:55.205
116.0, -82101.48895996678, -118957.32509581151, 23456.07709361042, 83123.79069611916, 43659.707148040194, 49033.33473602948, 34151.29740849703, 73641.55484933316, 0.036000000000000004, 0.9460000000000001, 0.16, 192.0, 0.0, 0.0, 0.0, 0.0, 0.0, 0.0, 0.0, 0.0, 0.0, 1.6665571152050817E9, 0.0, 2022-10-23 13:31:55.205
117.0, -82102.96417510083, -118959.58262200149, 23265.908451784668, 83123.25425425223, 43658.746023028616, 49043.61653847892, 34061.376340553325, 73605.74735471576, 0.036000000000000004, 0.9460000000000001, 0.16, 192.0, 0.0, 0.0, 0.0, 0.0, 0.0, 0.0, 0.0, 0.0, 0.0, 1.666557115205098E9, 0.0, 2022-10-23 13:31:55.205
118.0, -82116.19640781837, -118972.7254477412, 23321.899571645212, 83123.20955076332, 43653.359252614886, 49051.685518227285, 34154.69487365423, 73684.4925504318, 0.036000000000000004, 0.9460000000000001, 0.16, 192.0, 0.0, 0.0, 0.0, 0.0, 0.0, 0.0, 0.0, 0.0, 0.0, 1.6665571152051141E9, 0.0, 2022-10-23 13:31:55.205
119.0, -82107.21100654734, -118964.05297089256, 23585.627804473377, 83130.13859154447, 43661.87526725236, 49063.62134976642, 34308.96661388476, 73765.07058919319, 0.038, 0.9460000000000001, 0.162, 192.0, 1.0, 48.0, 29.0, 144.0, 5.0, 16.0, 0.0, 0.0, 0.0, 1.66655711520513E9, 0.0, 2022-10-23 13:31:55.205
120.0, -82095.49869245276, -118951.93832539777, 23500.914692987764, 83132.55257994564, 43665.78682253204, 49058.748669475164, 34182.545147245546, 73662.16315772095, 0.038, 0.9460000000000001, 0.162, 192.0, 0.0, 0.0, 0.0, 0.0, 0.0, 0.0, 0.0, 0.0, 0.0, 1.6665571152051473E9, 0.0, 2022-10-23 13:31:55.205
121.0, -82098.15855004294, -118952.4300637758, 23316.42339425366, 83132.48552471228, 43666.300912654515, 49057.78754446359, 34079.30243960648, 73622.53351480169, 0.038, 0.9460000000000001, 0.162, 192.0, 0.0, 0.0, 0.0, 0.0, 0.0, 0.0, 0.0, 0.0, 0.0, 1.6665571152051632E9, 0.0, 2022-10-23 13:31:55.205
122.0, -82099.16437854343, -118957.9285929118, 23292.395268964206, 83136.30767301413, 43669.07252896697, 49061.00619566515, 34129.347995441916, 73679.46340792936, 0.038, 0.9460000000000001, 0.162, 192.0, 0.0, 0.0, 0.0, 0.0, 0.0, 0.0, 0.0, 0.0, 0.0, 1.6665571152051797E9, 0.0, 2022-10-23 13:31:55.205
123.0, -82106.49575072477, -118964.72352322622, 23563.745446651632, 83131.88202761198, 43663.26107540859, 49057.2287508522, 34300.45059924729, 73771.37378112957, 0.038, 0.9460000000000001, 0.162, 192.0, 0.0, 0.0, 0.0, 0.0, 0.0, 0.0, 0.0, 0.0, 0.0, 1.666557115205196E9, 0.0, 2022-10-23 13:31:55.205
124.0, -82101.04192507768, -118959.09088362347, 23551.541394179036, 83122.94132982986, 43658.678967795255, 49043.25891056763, 34226.935711733786, 73685.29721323219, 0.038, 0.9460000000000001, 0.162, 192.0, 0.0, 0.0, 0.0, 0.0, 0.0, 0.0, 0.0, 0.0, 0.0, 1.666557115205212E9, 0.0, 2022-10-23 13:31:55.205
125.0, -82106.24988153575, -118962.86832843642, 23380.77406654049, 83124.41654496391, 43661.13765968534, 49043.95181464575, 34111.645413833314, 73626.26625612573, 0.038, 0.9460000000000001, 0.162, 192.0, 0.0, 0.0, 0.0, 0.0, 0.0, 0.0, 0.0, 0.0, 0.0, 1.6665571152052307E9, 0.0, 2022-10-23 13:31:55.205
126.0, -82106.71926816933, -118961.88485168038, 23299.637234167723, 83132.4184694789, 43664.08808995344, 49055.41825955132, 34128.11864949687, 73661.69377108739, 0.038, 0.9460000000000001, 0.162, 192.0, 0.0, 0.0, 0.0, 0.0, 0.0, 0.0, 0.0, 0.0, 0.0, 1.6665571152052467E9, 0.0, 2022-10-23 13:31:55.205
127.0, -82109.80380890415, -118969.66325875084, 23557.308144248505, 83132.619635179, 43660.22123816267, 49059.95566367575, 34301.79170391461, 73771.84316776315, 0.038, 0.9460000000000001, 0.162, 192.0, 0.0, 0.0, 0.0, 0.0, 0.0, 0.0, 0.0, 0.0, 0.0, 1.666557115205263E9, 0.0, 2022-10-23 13:31:55.205
128.0, -82109.60264320405, -118966.19873836027, 23604.604435515936, 83128.37280373249, 43659.438927106734, 49050.74674496016, 34267.97351455373, 73702.8433326296, 0.036000000000000004, 0.9420000000000001, 0.162, 192.0, 1.0, 32.0, 29.0, 112.0, 5.0, 16.0, 0.0, 0.0, 0.0, 1.6665571152052803E9, 0.0, 2022-10-23 13:31:55.205
129.0, -82096.59392793107, -118953.01120913163, 23407.462049420126, 83135.9723968473, 43672.73821505764, 49059.598035764466, 34108.60557658739, 73615.64917750945, 0.036000000000000004, 0.9420000000000001, 0.162, 192.0, 0.0, 0.0, 0.0, 0.0, 0.0, 0.0, 0.0, 0.0, 0.0, 1.6665571152053585E9, 0.0, 2022-10-23 13:31:55.205
130.0, -82098.94086109888, -118959.8284911905, 23255.134910957207, 83135.10067881354, 43668.71490105568, 49060.000367164655, 34075.63675351581, 73629.90959047194, 0.036000000000000004, 0.9420000000000001, 0.162, 192.0, 0.0, 0.0, 0.0, 0.0, 0.0, 0.0, 0.0, 0.0, 0.0, 1.6665571152053723E9, 0.0, 2022-10-23 13:31:55.205
131.0, -82109.31207052614, -118971.11612214043, 23475.478407797626, 83136.93352185888, 43663.97633123116, 49064.1801433778, 34241.55375260756, 73749.49142330783, 0.036000000000000004, 0.9420000000000001, 0.162, 192.0, 0.0, 0.0, 0.0, 0.0, 0.0, 0.0, 0.0, 0.0, 0.0, 1.6665571152053862E9, 0.0, 2022-10-23 13:31:55.205
132.0, -82109.1332565705, -118971.09377039598, 23595.931958667275, 83133.29018751267, 43659.12600268436, 49051.01496589363, 34266.31948546404, 73718.48955374832, 0.036000000000000004, 0.9420000000000001, 0.162, 192.0, 0.0, 0.0, 0.0, 0.0, 0.0, 0.0, 0.0, 0.0, 0.0, 1.6665571152053998E9, 0.0, 2022-10-23 13:31:55.205
133.0, -82115.50350374026, -118978.46984606623, 23424.87405835081, 83128.30574849913, 43653.985101459635, 49036.32986978649, 34106.66097481978, 73612.49758154126, 0.036000000000000004, 0.9420000000000001, 0.162, 192.0, 0.0, 0.0, 0.0, 0.0, 0.0, 0.0, 0.0, 0.0, 0.0, 1.6665571152054133E9, 0.0, 2022-10-23 13:31:55.205
134.0, -82120.04090786469, -118983.52134031312, 23269.887062297712, 83125.93646358687, 43657.51667708358, 49042.94598614526, 34068.8418232014, 73615.76093623173, 0.036000000000000004, 0.9420000000000001, 0.162, 192.0, 0.0, 0.0, 0.0, 0.0, 0.0, 0.0, 0.0, 0.0, 0.0, 1.6665571152054272E9, 0.0, 2022-10-23 13:31:55.205
135.0, -82127.79696319067, -118992.46203809525, 23431.803099131954, 83127.34462348756, 43654.6556537933, 49046.8798931694, 34210.95421444824, 73717.10374559209, 0.036000000000000004, 0.9420000000000001, 0.162, 192.0, 0.0, 0.0, 0.0, 0.0, 0.0, 0.0, 0.0, 0.0, 0.0, 1.666557115205441E9, 0.0, 2022-10-23 13:31:55.205
136.0, -82127.0370038792, -118988.21520664875, 23630.35364512845, 83125.40002171994, 43655.01328170458, 49045.71760245772, 34303.8480644045, 73737.3097225797, 0.036000000000000004, 0.9420000000000001, 0.162, 192.0, 0.0, 0.0, 0.0, 0.0, 0.0, 0.0, 0.0, 0.0, 0.0, 1.6665571152054543E9, 0.0, 2022-10-23 13:31:55.205
137.0, -82114.81059966215, -118975.85469196495, 23493.47156208415, 83135.27949276919, 43667.46320336619, 49055.68648048479, 34156.34890274393, 73634.49169808527, 0.036000000000000004, 0.9420000000000001, 0.162, 192.0, 0.0, 0.0, 0.0, 0.0, 0.0, 0.0, 0.0, 0.0, 0.0, 1.666557115205468E9, 0.0, 2022-10-23 13:31:55.205
138.0, -82119.4374107644, -118979.6321367779, 23305.76161214848, 83133.35724274603, 43670.011302234096, 49062.99550092167, 34081.26939311855, 73621.70650025684, 0.034, 0.9460000000000001, 0.16, 192.0, 1.0, 16.0, 29.0, 144.0, 5.0, 0.0, 0.0, 0.0, 0.0, 1.6665571152054815E9, 0.0, 2022-10-23 13:31:55.205
139.0, -82123.05839336615, -118981.97906994571, 23388.86539803331, 83138.5204957152, 43668.82665977796, 49064.47071605572, 34182.63455422337, 73712.43223100093, 0.034, 0.9460000000000001, 0.16, 192.0, 0.0, 0.0, 0.0, 0.0, 0.0, 0.0, 0.0, 0.0, 0.0, 1.666557115205496E9, 0.0, 2022-10-23 13:31:55.205
140.0, -82126.70172771237, -118983.52134031312, 23608.33717683997, 83133.8713328685, 43662.70228179721, 49057.8769514414, 34294.84031138901, 73754.47586232137, 0.034, 0.9460000000000001, 0.16, 192.0, 0.0, 0.0, 0.0, 0.0, 0.0, 0.0, 0.0, 0.0, 0.0, 1.66655711520551E9, 0.0, 2022-10-23 13:31:55.205
141.0, -82122.07491661012, -118980.05681992255, 23499.640643553812, 83134.58658869108, 43667.5079068551, 49052.06549788303, 34157.935876600255, 73644.84055576808, 0.034, 0.9460000000000001, 0.16, 192.0, 0.0, 0.0, 0.0, 0.0, 0.0, 0.0, 0.0, 0.0, 0.0, 1.6665571152055235E9, 0.0, 2022-10-23 13:31:55.205
142.0, -82125.04769862267, -118984.52716881361, 23286.002670049988, 83136.03945208067, 43674.99574124763, 49059.016890408624, 34047.22768631312, 73599.98060464628, 0.034, 0.9460000000000001, 0.16, 192.0, 0.0, 0.0, 0.0, 0.0, 0.0, 0.0, 0.0, 0.0, 0.0, 1.6665571152055373E9, 0.0, 2022-10-23 13:31:55.205
143.0, -82131.08266962561, -118990.74095377218, 23294.22811200954, 83136.1735625474, 43672.33588365745, 49062.25789335465, 34115.66872783527, 73672.53436714821, 0.034, 0.9460000000000001, 0.16, 192.0, 0.0, 0.0, 0.0, 0.0, 0.0, 0.0, 0.0, 0.0, 0.0, 1.6665571152055511E9, 0.0, 2022-10-23 13:31:55.205
144.0, -82132.75905045976, -118993.28905264009, 23574.273118290082, 83131.36793748951, 43665.45154636521, 49057.2287508522, 34289.498244464194, 73768.35629562811, 0.034, 0.9460000000000001, 0.16, 192.0, 0.0, 0.0, 0.0, 0.0, 0.0, 0.0, 0.0, 0.0, 0.0, 1.6665571152055645E9, 0.0, 2022-10-23 13:31:55.205
145.0, -82125.04769862267, -118982.71667751274, 23530.70956834669, 83129.22217002179, 43667.66436906628, 49053.004271150145, 34195.10682762943, 73671.394428181, 0.034, 0.9460000000000001, 0.16, 192.0, 0.0, 0.0, 0.0, 0.0, 0.0, 0.0, 0.0, 0.0, 0.0, 1.6665571152055917E9, 0.0, 2022-10-23 13:31:55.205
146.0, -82122.45489626586, -118980.4367995783, 23321.586647222837, 83133.98309159078, 43671.754738301606, 49056.938178174285, 34063.25388708757, 73608.00488090573, 0.034, 0.9460000000000001, 0.16, 192.0, 0.0, 0.0, 0.0, 0.0, 0.0, 0.0, 0.0, 0.0, 0.0, 1.6665571152056067E9, 0.0, 2022-10-23 13:31:55.205
147.0, -82124.82418117812, -118984.57187230252, 23254.77728304592, 83139.3698620045, 43674.10167146941, 49069.34339634698, 34087.46082633267, 73661.42555015392, 0.034, 0.9460000000000001, 0.16, 192.0, 0.0, 0.0, 0.0, 0.0, 0.0, 0.0, 0.0, 0.0, 0.0, 1.6665571152056203E9, 0.0, 2022-10-23 13:31:55.205
148.0, -82131.28383532571, -118988.6845932823, 23529.41316716828, 83137.0229288367, 43669.07252896697, 49073.769041749125, 34267.99586629819, 73775.59826083163, 0.038, 0.9400000000000001, 0.162, 192.0, 1.0, 48.0, 29.0, 96.0, 5.0, 16.0, 0.0, 0.0, 0.0, 1.6665571152056336E9, 0.0, 2022-10-23 13:31:55.205
149.0, -82127.08170736811, -118981.8896629679, 23546.80282435451, 83137.29114977016, 43669.0054737336, 49062.99550092167, 34217.25740638464, 73699.26705351676, 0.038, 0.9400000000000001, 0.162, 192.0, 0.0, 0.0, 0.0, 0.0, 0.0, 0.0, 0.0, 0.0, 0.0, 1.666557115205648E9, 0.0, 2022-10-23 13:31:55.205
150.0, -82121.47141950982, -118977.6875350103, 23334.416548540183, 83142.99084460626, 43673.25230518011, 49067.26468411263, 34060.97400915313, 73610.28475884018, 0.038, 0.9400000000000001, 0.162, 192.0, 0.0, 0.0, 0.0, 0.0, 0.0, 0.0, 0.0, 0.0, 0.0, 1.6665571152056615E9, 0.0, 2022-10-23 13:31:55.205
151.0, -82130.83680043659, -118988.37166885992, 23230.190364145084, 83136.75470790324, 43670.145412700826, 49071.556219048056, 34064.4385295437, 73644.59468657908, 0.038, 0.9400000000000001, 0.162, 192.0, 0.0, 0.0, 0.0, 0.0, 0.0, 0.0, 0.0, 0.0, 0.0, 1.666557115205675E9, 0.0, 2022-10-23 13:31:55.205
152.0, -82141.27506509723, -119000.06163121005, 23480.596957277892, 83128.79748687714, 43656.93553172774, 49063.37548057741, 34242.514877619134, 73752.46420532039, 0.038, 0.9400000000000001, 0.162, 192.0, 0.0, 0.0, 0.0, 0.0, 0.0, 0.0, 0.0, 0.0, 0.0, 1.6665571152056909E9, 0.0, 2022-10-23 13:31:55.205
153.0, -82140.29158834119, -118994.40663986286, 23548.859184844398, 83120.19206526186, 43648.50892406809, 49044.15298034585, 34228.455630356744, 73694.66259415896, 0.038, 0.9400000000000001, 0.162, 192.0, 0.0, 0.0, 0.0, 0.0, 0.0, 0.0, 0.0, 0.0, 0.0, 1.6665571152057047E9, 0.0, 2022-10-23 13:31:55.205
154.0, -82132.31201557064, -118989.15397991586, 23378.15891243922, 83127.59049267657, 43659.573037573464, 49055.75353571815, 34091.50649207908, 73618.21962812182, 0.038, 0.9400000000000001, 0.162, 192.0, 0.0, 0.0, 0.0, 0.0, 0.0, 0.0, 0.0, 0.0, 0.0, 1.6665571152057252E9, 0.0, 2022-10-23 13:31:55.205
155.0, -82126.65702422346, -118986.7399915147, 23221.74140474098, 83135.70417591384, 43668.42432837777, 49073.61257953794, 34059.789366697, 73629.5296108162, 0.038, 0.9400000000000001, 0.162, 192.0, 0.0, 0.0, 0.0, 0.0, 0.0, 0.0, 0.0, 0.0, 0.0, 1.666557115205739E9, 0.0, 2022-10-23 13:31:55.205
156.0, -82134.59189350509, -118994.63015730742, 23405.808020330434, 83136.6205974365, 43666.68089231025, 49078.038224940094, 34206.170941134806, 73733.84520218911, 0.038, 0.9400000000000001, 0.162, 192.0, 0.0, 0.0, 0.0, 0.0, 0.0, 0.0, 0.0, 0.0, 0.0, 1.6665571152057562E9, 0.0, 2022-10-23 13:31:55.205
157.0, -82139.39751856298, -119000.62042482143, 23548.635667399845, 83129.13276304398, 43659.796555018016, 49064.51541954463, 34253.66839810233, 73727.2514375748, 0.032, 0.9420000000000001, 0.164, 192.0, 1.0, 0.0, 29.0, 112.0, 5.0, 32.0, 0.0, 0.0, 0.0, 1.6665571152057753E9, 0.0, 2022-10-23 13:31:55.205
158.0, -82154.70846351486, -119017.38423316291, 23384.082124719876, 83115.98993730426, 43639.523522797055, 49035.16757907481, 34094.255756647086, 73613.14578213046, 0.032, 0.9420000000000001, 0.164, 192.0, 0.0, 0.0, 0.0, 0.0, 0.0, 0.0, 0.0, 0.0, 0.0, 1.6665571152057898E9, 0.0, 2022-10-23 13:31:55.205
159.0, -82160.11758567306, -119015.75255581769, 23209.671462735114, 83120.30382398413, 43642.652767020794, 49038.967375632215, 34039.20341005366, 73608.45191579484, 0.032, 0.9420000000000001, 0.164, 192.0, 0.0, 0.0, 0.0, 0.0, 0.0, 0.0, 0.0, 0.0, 0.0, 1.6665571152058036E9, 0.0, 2022-10-23 13:31:55.205
160.0, -82163.42564385243, -119020.82640180903, 23340.607981754303, 83124.43889670837, 43647.570150800966, 49060.08977414248, 34168.30708602752, 73711.82873390063, 0.032, 0.9420000000000001, 0.164, 192.0, 0.0, 0.0, 0.0, 0.0, 0.0, 0.0, 0.0, 0.0, 0.0, 1.66655711520583E9, 0.0, 2022-10-23 13:31:55.205
161.0, -82163.58210606362, -119022.81570706556, 23520.248951941605, 83120.34852747305, 43646.60902578939, 49058.14517237487, 34251.20970621225, 73735.409824301, 0.032, 0.9420000000000001, 0.164, 192.0, 0.0, 0.0, 0.0, 0.0, 0.0, 0.0, 0.0, 0.0, 0.0, 1.666557115205844E9, 0.0, 2022-10-23 13:31:55.205
162.0, -82169.72883578883, -119026.07906175603, 23393.53691262447, 83112.3689547025, 43638.048307663004, 49042.878930911895, 34111.712469066675, 73626.44507008136, 0.032, 0.9420000000000001, 0.164, 192.0, 0.0, 0.0, 0.0, 0.0, 0.0, 0.0, 0.0, 0.0, 0.0, 1.666557115205858E9, 0.0, 2022-10-23 13:31:55.205
163.0, -82173.05924571268, -119026.9954832787, 23202.8765324207, 83118.85096059453, 43644.79853448851, 49051.10437287145, 34032.989625095084, 73588.40240101844, 0.032, 0.9420000000000001, 0.164, 192.0, 0.0, 0.0, 0.0, 0.0, 0.0, 0.0, 0.0, 0.0, 0.0, 1.6665571152058718E9, 0.0, 2022-10-23 13:31:55.205
164.0, -82193.86871980056, -119051.62710566845, 23236.895887481678, 83130.58562643357, 43655.90735148279, 49068.1811056353, 34111.17602719975, 73665.65002985597, 0.032, 0.9420000000000001, 0.164, 192.0, 0.0, 0.0, 0.0, 0.0, 0.0, 0.0, 0.0, 0.0, 0.0, 1.6665571152058864E9, 0.0, 2022-10-23 13:31:55.205
165.0, -82218.94737707941, -119075.856396658, 23450.042122607487, 83125.2212077643, 43646.47491532265, 49055.23944559568, 34230.981377480195, 73719.27186480425, 0.032, 0.9420000000000001, 0.164, 192.0, 0.0, 0.0, 0.0, 0.0, 0.0, 0.0, 0.0, 0.0, 0.0, 1.6665571152059004E9, 0.0, 2022-10-23 13:31:55.205
166.0, -82224.22238877087, -119080.01382112669, 23345.99475216803, 83113.4641901808, 43639.05413616349, 49034.4746749967, 34100.98363172813, 73615.0233286647, 0.032, 0.9420000000000001, 0.164, 192.0, 0.0, 0.0, 0.0, 0.0, 0.0, 0.0, 0.0, 0.0, 0.0, 1.6665571152059143E9, 0.0, 2022-10-23 13:31:55.205
167.0, -82223.12715329256, -119076.5045972472, 23164.25271800193, 83107.7197918558, 43635.83548496193, 49041.94015764477, 34011.48724692908, 73584.75906667222, 0.044, 0.9420000000000001, 0.162, 192.0, 1.0, 96.0, 29.0, 112.0, 5.0, 16.0, 0.0, 0.0, 0.0, 1.666557115205928E9, 0.0, 2022-10-23 13:31:55.205
168.0, -82231.01731908528, -119081.60079498301, 23146.281915459862, 83109.28441396766, 43637.17658962925, 49054.43478279529, 34066.204317355674, 73643.94648598987, 0.044, 0.9420000000000001, 0.162, 192.0, 0.0, 0.0, 0.0, 0.0, 0.0, 0.0, 0.0, 0.0, 0.0, 1.666557115205944E9, 0.0, 2022-10-23 13:31:55.205
169.0, -82249.12223209409, -119098.63282425796, 23422.795346116465, 83118.73920187226, 43643.77035424356, 49065.99063467868, 34245.800584054065, 73738.2037923579, 0.044, 0.9420000000000001, 0.162, 192.0, 0.0, 0.0, 0.0, 0.0, 0.0, 0.0, 0.0, 0.0, 0.0, 1.666557115205958E9, 0.0, 2022-10-23 13:31:55.205
170.0, -82237.11934532158, -119083.18776883934, 23395.906197536733, 83118.73920187226, 43647.72661301215, 49061.60969276544, 34167.6141819494, 73657.29047742969, 0.044, 0.9420000000000001, 0.162, 192.0, 0.0, 0.0, 0.0, 0.0, 0.0, 0.0, 0.0, 0.0, 0.0, 1.6665571152059717E9, 0.0, 2022-10-23 13:31:55.205
171.0, -82229.51975220678, -119073.12948383445, 23189.21961655851, 83123.83539960807, 43651.191133402725, 49061.98967242118, 34031.179133794205, 73592.85039816504, 0.044, 0.9420000000000001, 0.162, 192.0, 0.0, 0.0, 0.0, 0.0, 0.0, 0.0, 0.0, 0.0, 0.0, 1.6665571152059855E9, 0.0, 2022-10-23 13:31:55.205
172.0, -82228.3127580062, -119070.44727449982, 23088.72617348745, 83123.41071646342, 43647.905426967794, 49062.727279988205, 34035.1353925628, 73627.27208462621, 0.044, 0.9420000000000001, 0.162, 192.0, 0.0, 0.0, 0.0, 0.0, 0.0, 0.0, 0.0, 0.0, 0.0, 1.6665571152059991E9, 0.0, 2022-10-23 13:31:55.205
173.0, -82235.30885402071, -119078.87388215946, 23388.664232333213, 83114.98410880376, 43639.5011710526, 49064.135439888894, 34246.13586022089, 73754.74408325483, 0.044, 0.9420000000000001, 0.162, 192.0, 0.0, 0.0, 0.0, 0.0, 0.0, 0.0, 0.0, 0.0, 0.0, 1.6665571152060137E9, 0.0, 2022-10-23 13:31:55.206
174.0, -82219.64028115754, -119063.36177150748, 23456.725294199623, 83114.42531519239, 43640.30583385299, 49054.904169428846, 34232.6801100588, 73696.67425115994, 0.044, 0.9420000000000001, 0.162, 192.0, 0.0, 0.0, 0.0, 0.0, 0.0, 0.0, 0.0, 0.0, 0.0, 1.6665571152060275E9, 0.0, 2022-10-23 13:31:55.206
175.0, -82212.53242642074, -119053.79522488061, 23279.922995558143, 83119.43210595037, 43647.346633356414, 49056.647605496364, 34093.339335124416, 73616.20797112084, 0.044, 0.9420000000000001, 0.162, 192.0, 0.0, 0.0, 0.0, 0.0, 0.0, 0.0, 0.0, 0.0, 0.0, 1.666557115206041E9, 0.0, 2022-10-23 13:31:55.206
176.0, -82205.13399900604, -119046.95559107729, 23161.279935989372, 83123.63423390797, 43651.884037480835, 49063.95662593325, 34082.07405591894, 73639.27497139871, 0.044, 0.9420000000000001, 0.162, 192.0, 0.0, 0.0, 0.0, 0.0, 0.0, 0.0, 0.0, 0.0, 0.0, 1.6665571152060668E9, 0.0, 2022-10-23 13:31:55.206
177.0, -82200.88716755953, -119044.54160267611, 23405.8750755638, 83123.45541995233, 43649.15712465729, 49070.2821696141, 34256.0376830146, 73757.53805131174, 0.048, 0.9480000000000001, 0.16, 192.0, 1.0, 128.0, 29.0, 160.0, 5.0, 0.0, 0.0, 0.0, 0.0, 1.6665571152060802E9, 0.0, 2022-10-23 13:31:55.206
178.0, -82180.12239696055, -119024.62619836643, 23538.264457972582, 83125.62353916449, 43652.59929330341, 49065.90122770086, 34286.10077930698, 73731.67708297695, 0.048, 0.9480000000000001, 0.16, 192.0, 0.0, 0.0, 0.0, 0.0, 0.0, 0.0, 0.0, 0.0, 0.0, 1.6665571152060947E9, 0.0, 2022-10-23 13:31:55.206
179.0, -82160.81048975117, -119004.84490452349, 23358.735246507556, 83129.46803921081, 43651.951092714204, 49060.5815125205, 34116.339280168926, 73624.74633750276, 0.048, 0.9480000000000001, 0.16, 192.0, 0.0, 0.0, 0.0, 0.0, 0.0, 0.0, 0.0, 0.0, 0.0, 1.666557115206108E9, 0.0, 2022-10-23 13:31:55.206
180.0, -82154.5967047926, -118998.49700909818, 23215.68408199359, 83129.22217002179, 43651.07937468045, 49066.99646317917, 34082.901070463784, 73636.86098299755, 0.048, 0.9480000000000001, 0.16, 192.0, 0.0, 0.0, 0.0, 0.0, 0.0, 0.0, 0.0, 0.0, 0.0, 1.6665571152061224E9, 0.0, 2022-10-23 13:31:55.206
181.0, -82150.57339079064, -118995.30070964107, 23445.97410511662, 83132.12789680099, 43652.7557555146, 49078.75348076266, 34266.140671508394, 73762.63424904755, 0.048, 0.9480000000000001, 0.16, 192.0, 0.0, 0.0, 0.0, 0.0, 0.0, 0.0, 0.0, 0.0, 0.0, 1.6665571152061355E9, 0.0, 2022-10-23 13:31:55.206
182.0, -82136.3353295726, -118984.05778218005, 23650.24669769367, 83129.0210043217, 43656.153220671804, 49077.2335621397, 34350.92083822737, 73770.79263577375, 0.048, 0.9480000000000001, 0.16, 192.0, 0.0, 0.0, 0.0, 0.0, 0.0, 0.0, 0.0, 0.0, 0.0, 1.6665571152061498E9, 0.0, 2022-10-23 13:31:55.206
183.0, -82116.62109096302, -118964.16472961483, 23516.583265850935, 83132.12789680099, 43662.858744008394, 49074.73016676071, 34198.14666487535, 73658.81039605265, 0.048, 0.9480000000000001, 0.16, 192.0, 0.0, 0.0, 0.0, 0.0, 0.0, 0.0, 0.0, 0.0, 0.0, 1.666557115206164E9, 0.0, 2022-10-23 13:31:55.206
184.0, -82116.15170432946, -118967.02575290512, 23339.512746275992, 83135.19008579137, 43667.82083127747, 49081.65920754185, 34123.98357677264, 73636.2798376417, 0.048, 0.9480000000000001, 0.16, 192.0, 0.0, 0.0, 0.0, 0.0, 0.0, 0.0, 0.0, 0.0, 0.0, 1.6665571152061827E9, 0.0, 2022-10-23 13:31:55.206
185.0, -82123.86305616655, -118973.0830756525, 23473.64556475229, 83131.54675144514, 43657.49432533912, 49078.4852598292, 34250.5838573675, 73730.67125447646, 0.048, 0.9480000000000001, 0.16, 192.0, 0.0, 0.0, 0.0, 0.0, 0.0, 0.0, 0.0, 0.0, 0.0, 1.6665571152061985E9, 0.0, 2022-10-23 13:31:55.206
186.0, -82104.81936989063, -118952.11713935342, 23721.816983439563, 83135.95004510284, 43661.22706666316, 49082.173297664325, 34373.47374838278, 73781.07443822318, 0.048, 0.9480000000000001, 0.16, 192.0, 0.0, 0.0, 0.0, 0.0, 0.0, 0.0, 0.0, 0.0, 0.0, 1.6665571152062128E9, 0.0, 2022-10-23 13:31:55.206
187.0, -82087.65323014895, -118935.10746182293, 23643.87645052391, 83134.13955380197, 43662.92579924176, 49072.874971970916, 34248.70631083326, 73680.20101549638, 0.058, 0.9560000000000001, 0.154, 192.0, 1.0, 208.0, 29.0, 224.0, 4.0, 208.0, 0.0, 0.0, 0.0, 1.666557115206228E9, 0.0, 2022-10-23 13:31:55.206
188.0, -82083.78637835817, -118933.16286005532, 23460.703904712667, 83136.93352185888, 43667.1055754549, 49074.551352805065, 34151.58798117495, 73638.22443940931, 0.058, 0.9560000000000001, 0.154, 192.0, 0.0, 0.0, 0.0, 0.0, 0.0, 0.0, 0.0, 0.0, 0.0, 1.6665571152062795E9, 0.0, 2022-10-23 13:31:55.206
189.0, -82091.60948891753, -118944.18227007179, 23521.701815331202, 83132.30671075663, 43656.220275905165, 49073.16554464884, 34240.771441551624, 73713.99685311281, 0.058, 0.9560000000000001, 0.154, 192.0, 0.0, 0.0, 0.0, 0.0, 0.0, 0.0, 0.0, 0.0, 0.0, 1.666557115206335E9, 0.0, 2022-10-23 13:31:55.206
190.0, -82085.82038710361, -118940.76245317013, 23806.23952224726, 83140.28628352718, 43659.75185152911, 49083.849678498475, 34393.79148409265, 73781.52147311228, 0.058, 0.9560000000000001, 0.154, 192.0, 0.0, 0.0, 0.0, 0.0, 0.0, 0.0, 0.0, 0.0, 0.0, 1.6665571152063808E9, 0.0, 2022-10-23 13:31:55.206
191.0, -82074.53275615368, -118929.69833966474, 23754.22701289976, 83144.86839114051, 43666.88205801035, 49084.36376862094, 34276.62363965793, 73674.27780321572, 0.058, 0.9560000000000001, 0.154, 192.0, 0.0, 0.0, 0.0, 0.0, 0.0, 0.0, 0.0, 0.0, 0.0, 1.6665571152064655E9, 0.0, 2022-10-23 13:31:55.206
192.0, -82058.10422397903, -118915.25911274661, 23590.746353953644, 83151.46215575482, 43678.236744193644, 49094.62321932593, 34175.549051231035, 73633.03883469568, 0.058, 0.9560000000000001, 0.154, 192.0, 0.0, 0.0, 0.0, 0.0, 0.0, 0.0, 0.0, 0.0, 0.0, 1.6665571152064817E9, 0.0, 2022-10-23 13:31:55.206
193.0, -82063.40158741493, -118918.29894999255, 23556.838757614943, 83150.25516155425, 43677.38737790434, 49097.819518783035, 34208.65198476934, 73685.09604753209, 0.058, 0.9560000000000001, 0.154, 192.0, 0.0, 0.0, 0.0, 0.0, 0.0, 0.0, 0.0, 0.0, 0.0, 1.666557115206498E9, 0.0, 2022-10-23 13:31:55.206
194.0, -82074.1751282424, -118929.13954605337, 23839.610676719032, 83133.96073984633, 43655.34855787141, 49078.731129018204, 34373.71961757179, 73778.36987714408, 0.058, 0.9560000000000001, 0.154, 192.0, 0.0, 0.0, 0.0, 0.0, 0.0, 0.0, 0.0, 0.0, 0.0, 1.6665571152065144E9, 0.0, 2022-10-23 13:31:55.206
195.0, -82068.54248863965, -118925.20563902923, 23853.53581351469, 83125.86940835351, 43648.84420023492, 49064.62717826691, 34302.68577369282, 73694.72964939233, 0.058, 0.9560000000000001, 0.154, 192.0, 0.0, 0.0, 0.0, 0.0, 0.0, 0.0, 0.0, 0.0, 0.0, 1.666557115206531E9, 0.0, 2022-10-23 13:31:55.206
196.0, -82072.61050613053, -118927.57492394149, 23705.902541387386, 83132.1726002899, 43650.74409851362, 49069.14223064688, 34188.24484208165, 73636.99509346427, 0.052000000000000005, 0.9560000000000001, 0.15, 192.0, 1.0, 160.0, 29.0, 224.0, 4.0, 176.0, 0.0, 0.0, 0.0, 1.666557115206547E9, 0.0, 2022-10-23 13:31:55.206
197.0, -82064.40741591543, -118919.93062733777, 23643.407063890347, 83146.3212545301, 43663.48459285314, 49087.42595761132, 34210.66364177032, 73676.51297766126, 0.052000000000000005, 0.9560000000000001, 0.15, 192.0, 0.0, 0.0, 0.0, 0.0, 0.0, 0.0, 0.0, 0.0, 0.0, 1.666557115206565E9, 0.0, 2022-10-23 13:31:55.206
198.0, -82060.96524726931, -118918.23189475917, 23933.197430753404, 83145.91892312991, 43661.69645329672, 49089.54937333457, 34397.97126030579, 73789.38928716055, 0.052000000000000005, 0.9560000000000001, 0.15, 192.0, 0.0, 0.0, 0.0, 0.0, 0.0, 0.0, 0.0, 0.0, 0.0, 1.6665571152065809E9, 0.0, 2022-10-23 13:31:55.206
199.0, -82058.55125886813, -118915.01324355761, 24016.70354803843, 83137.51466721472, 43656.287331138534, 49074.10431791596, 34380.98393451976, 73727.18438234144, 0.052000000000000005, 0.9560000000000001, 0.15, 192.0, 0.0, 0.0, 0.0, 0.0, 0.0, 0.0, 0.0, 0.0, 0.0, 1.666557115206596E9, 0.0, 2022-10-23 13:31:55.206
200.0, -82045.67665406188, -118901.64690037334, 23842.583458731588, 83142.43205099489, 43665.0045114761, 49078.01587319564, 34224.65583379935, 73635.5869335636, 0.052000000000000005, 0.9560000000000001, 0.15, 192.0, 0.0, 0.0, 0.0, 0.0, 0.0, 0.0, 0.0, 0.0, 0.0, 1.6665571152066107E9, 0.0, 2022-10-23 13:31:55.206
201.0, -82048.5153256077, -118908.12890626538, 23673.24664273818, 83140.19687654935, 43660.131831184844, 49077.12180341742, 34168.39649300533, 73634.67051204092, 0.052000000000000005, 0.9560000000000001, 0.15, 192.0, 0.0, 0.0, 0.0, 0.0, 0.0, 0.0, 0.0, 0.0, 0.0, 1.6665571152066252E9, 0.0, 2022-10-23 13:31:55.206
202.0, -82061.83696530307, -118923.05987156152, 23907.917607774452, 83131.50204795624, 43644.66442402177, 49066.772945734614, 34340.41551833338, 73753.47003382088, 0.052000000000000005, 0.9560000000000001, 0.15, 192.0, 0.0, 0.0, 0.0, 0.0, 0.0, 0.0, 0.0, 0.0, 0.0, 1.66655711520664E9, 0.0, 2022-10-23 13:31:55.206
203.0, -82048.7164913078, -118908.24066498765, 24052.555746144742, 83131.81497237862, 43648.84420023492, 49069.14223064688, 34373.71961757179, 73727.76552769728, 0.052000000000000005, 0.9560000000000001, 0.15, 192.0, 0.0, 0.0, 0.0, 0.0, 0.0, 0.0, 0.0, 0.0, 0.0, 1.666557115206655E9, 0.0, 2022-10-23 13:31:55.206
204.0, -82038.94877898083, -118897.89180730484, 23895.87001751304, 83136.06180382513, 43660.04242420702, 49073.72433826022, 34216.11746741742, 73630.62484629451, 0.052000000000000005, 0.9560000000000001, 0.15, 192.0, 0.0, 0.0, 0.0, 0.0, 0.0, 0.0, 0.0, 0.0, 0.0, 1.6665571152066708E9, 0.0, 2022-10-23 13:31:55.206
205.0, -82043.2179621718, -118900.50696140612, 23728.58956200952, 83135.61476893602, 43661.07060445197, 49079.312274374046, 34159.85812662341, 73624.45576482484, 0.052000000000000005, 0.9560000000000001, 0.15, 192.0, 0.0, 0.0, 0.0, 0.0, 0.0, 0.0, 0.0, 0.0, 0.0, 1.6665571152066855E9, 0.0, 2022-10-23 13:31:55.206
206.0, -82047.97888374077, -118910.00645279961, 23911.717404331852, 83134.36307124652, 43657.04729045001, 49085.19078316579, 34315.73919245472, 73743.29999009371, 0.058, 0.962, 0.156, 192.0, 1.0, 208.0, 30.0, 16.0, 4.0, 224.0, 0.0, 0.0, 0.0, 1.666557115206742E9, 0.0, 2022-10-23 13:31:55.206
207.0, -82038.18881966935, -118903.47974341868, 24116.973473664937, 83134.76540264672, 43657.002586961105, 49079.49108832968, 34401.03344929617, 73757.18042340045, 0.058, 0.962, 0.156, 192.0, 0.0, 0.0, 0.0, 0.0, 0.0, 0.0, 0.0, 0.0, 0.0, 1.6665571152067592E9, 0.0, 2022-10-23 13:31:55.206
208.0, -82036.110107435, -118897.46712416019, 23990.28378609226, 83137.73818465928, 43661.91997074127, 49076.04891968357, 34245.44295614278, 73646.29341915768, 0.058, 0.962, 0.156, 192.0, 0.0, 0.0, 0.0, 0.0, 0.0, 0.0, 0.0, 0.0, 0.0, 1.666557115206774E9, 0.0, 2022-10-23 13:31:55.206
209.0, -82035.81953475709, -118895.47781890367, 23784.89360629244, 83141.76149866123, 43671.37475864586, 49088.34237913399, 34146.49178343914, 73616.20797112084, 0.058, 0.962, 0.156, 192.0, 0.0, 0.0, 0.0, 0.0, 0.0, 0.0, 0.0, 0.0, 0.0, 1.6665571152067888E9, 0.0, 2022-10-23 13:31:55.206
210.0, -82046.52602035119, -118906.5642841535, 23893.321918645135, 83139.5710277046, 43665.049214965016, 49089.86229775695, 34266.25243023067, 73723.18342008394, 0.058, 0.962, 0.156, 192.0, 0.0, 0.0, 0.0, 0.0, 0.0, 0.0, 0.0, 0.0, 0.0, 1.666557115206806E9, 0.0, 2022-10-23 13:31:55.206
211.0, -82057.52307862318, -118918.03072905907, 24162.21340444248, 83127.16580953191, 43647.905426967794, 49072.04795742607, 34406.308460987624, 73776.20175793192, 0.058, 0.962, 0.156, 192.0, 0.0, 0.0, 0.0, 0.0, 0.0, 0.0, 0.0, 0.0, 0.0, 1.6665571152068217E9, 0.0, 2022-10-23 13:31:55.206
212.0, -82046.23544767326, -118907.70422312073, 24068.649002152564, 83129.73626014427, 43652.88986598133, 49074.01491093814, 34266.855927330966, 73655.50233787327, 0.058, 0.962, 0.156, 192.0, 0.0, 0.0, 0.0, 0.0, 0.0, 0.0, 0.0, 0.0, 0.0, 1.6665571152068365E9, 0.0, 2022-10-23 13:31:55.206
213.0, -82042.77092728269, -118906.07254577549, 23899.669814070443, 83128.84219036606, 43654.6556537933, 49079.9828267077, 34181.11463560041, 73620.96889268982, 0.058, 0.962, 0.156, 192.0, 0.0, 0.0, 0.0, 0.0, 0.0, 0.0, 0.0, 0.0, 0.0, 1.6665571152068515E9, 0.0, 2022-10-23 13:31:55.206
214.0, -82042.25683716021, -118904.15029575233, 23919.808735824674, 83137.2687980257, 43660.53416258504, 49092.030416969115, 34251.07559574552, 73687.86766384455, 0.058, 0.962, 0.156, 192.0, 0.0, 0.0, 0.0, 0.0, 0.0, 0.0, 0.0, 0.0, 0.0, 1.6665571152068665E9, 0.0, 2022-10-23 13:31:55.206
215.0, -82037.3618051245, -118896.79657182653, 24214.851762634727, 83147.81882140861, 43669.49721211162, 49105.374408408934, 34425.24038854127, 73783.35431615762, 0.058, 0.962, 0.156, 192.0, 0.0, 0.0, 0.0, 0.0, 0.0, 0.0, 0.0, 0.0, 0.0, 1.666557115206881E9, 0.0, 2022-10-23 13:31:55.206
216.0, -82033.22673240028, -118895.54487413703, 24186.196826243024, 83144.3766527625, 43666.81500277698, 49095.3384751485, 34328.010300160684, 73688.5382161782, 0.062, 0.9480000000000001, 0.154, 192.0, 1.0, 240.0, 29.0, 160.0, 4.0, 208.0, 0.0, 0.0, 0.0, 1.666557115206896E9, 0.0, 2022-10-23 13:31:55.206
217.0, -82035.39485161244, -118903.99383354114, 23999.962091441404, 83134.45247822434, 43655.661482293785, 49083.31323663155, 34199.26425209812, 73620.70067175635, 0.062, 0.9480000000000001, 0.154, 192.0, 0.0, 0.0, 0.0, 0.0, 0.0, 0.0, 0.0, 0.0, 0.0, 1.6665571152069118E9, 0.0, 2022-10-23 13:31:55.206
218.0, -82037.89824699143, -118908.03949928755, 23925.575485894144, 83137.71583291481, 43651.749927014105, 49081.16746916383, 34207.422638824304, 73649.3332564036, 0.062, 0.9480000000000001, 0.154, 192.0, 0.0, 0.0, 0.0, 0.0, 0.0, 0.0, 0.0, 0.0, 0.0, 1.6665571152069263E9, 0.0, 2022-10-23 13:31:55.206
219.0, -82042.88268600496, -118909.89469407735, 24189.683698378052, 83142.40969925043, 43651.39229910282, 49084.20730640976, 34372.624382093476, 73747.52446979577, 0.062, 0.9480000000000001, 0.154, 192.0, 0.0, 0.0, 0.0, 0.0, 0.0, 0.0, 0.0, 0.0, 0.0, 1.6665571152069411E9, 0.0, 2022-10-23 13:31:55.206
220.0, -82035.61836905699, -118900.79753408403, 24211.096669566236, 83139.74984166025, 43652.509886325584, 49079.580495307506, 34315.873302921456, 73675.50714916077, 0.062, 0.9480000000000001, 0.154, 192.0, 0.0, 0.0, 0.0, 0.0, 0.0, 0.0, 0.0, 0.0, 0.0, 1.666557115206956E9, 0.0, 2022-10-23 13:31:55.206
221.0, -82030.99155795474, -118899.76935383909, 24051.639324622076, 83140.97918760529, 43655.21444740468, 49085.01196921015, 34191.552900261035, 73609.92713092889, 0.062, 0.9480000000000001, 0.154, 192.0, 0.0, 0.0, 0.0, 0.0, 0.0, 0.0, 0.0, 0.0, 0.0, 1.6665571152069707E9, 0.0, 2022-10-23 13:31:55.206
222.0, -82036.19951441283, -118904.37381319689, 23926.380148694534, 83141.09094632756, 43653.985101459635, 49087.80593726706, 34170.1175773284, 73617.34791008805, 0.062, 0.9480000000000001, 0.154, 192.0, 0.0, 0.0, 0.0, 0.0, 0.0, 0.0, 0.0, 0.0, 0.0, 1.6665571152070012E9, 0.0, 2022-10-23 13:31:55.207
223.0, -82050.5716860976, -118920.8694006049, 24176.965555782983, 83134.54188520217, 43646.385508344836, 49084.5872860655, 34342.65069277891, 73730.78301319874, 0.062, 0.9480000000000001, 0.154, 192.0, 0.0, 0.0, 0.0, 0.0, 0.0, 0.0, 0.0, 0.0, 0.0, 1.6665571152070162E9, 0.0, 2022-10-23 13:31:55.207
224.0, -82040.93808423735, -118910.85581908892, 24289.439533882087, 83133.73722240177, 43646.34080485592, 49081.0333586971, 34354.56417257359, 73695.55666393718, 0.062, 0.9480000000000001, 0.154, 192.0, 0.0, 0.0, 0.0, 0.0, 0.0, 0.0, 0.0, 0.0, 0.0, 1.6665571152070315E9, 0.0, 2022-10-23 13:31:55.207
225.0, -82031.28213063267, -118904.4185166858, 24140.10752917618, 83136.88881836997, 43653.02397644806, 49079.46873658523, 34211.60241503744, 73604.76387795972, 0.058, 0.926, 0.164, 192.0, 1.0, 208.0, 28.0, 240.0, 5.0, 32.0, 0.0, 0.0, 0.0, 1.666557115207046E9, 0.0, 2022-10-23 13:31:55.207
226.0, -82030.70098527682, -118904.08324051896, 23985.99225115684, 83141.18035330539, 43660.46710735168, 49091.270457657636, 34171.32457152898, 73611.75997397423, 0.058, 0.926, 0.164, 192.0, 0.0, 0.0, 0.0, 0.0, 0.0, 0.0, 0.0, 0.0, 0.0, 1.6665571152070625E9, 0.0, 2022-10-23 13:31:55.207
227.0, -82036.22186615728, -118908.0171475431, 24196.07629729227, 83139.43691723788, 43654.6556537933, 49096.590172838, 34334.26878860817, 73734.42634754496, 0.058, 0.926, 0.164, 192.0, 0.0, 0.0, 0.0, 0.0, 0.0, 0.0, 0.0, 0.0, 0.0, 1.6665571152070773E9, 0.0, 2022-10-23 13:31:55.207
228.0, -82039.61933131449, -118909.02297604359, 24370.464607532576, 83132.30671075663, 43648.06188917898, 49087.42595761132, 34396.63015563848, 73720.76943168277, 0.058, 0.926, 0.164, 192.0, 0.0, 0.0, 0.0, 0.0, 0.0, 0.0, 0.0, 0.0, 0.0, 1.6665571152070918E9, 0.0, 2022-10-23 13:31:55.207
229.0, -82031.70681377732, -118904.61968238589, 24207.07335556428, 83134.69834741334, 43652.46518283668, 49079.06640518503, 34226.04164195558, 73598.10305811204, 0.058, 0.926, 0.164, 192.0, 0.0, 0.0, 0.0, 0.0, 0.0, 0.0, 0.0, 0.0, 0.0, 1.6665571152071064E9, 0.0, 2022-10-23 13:31:55.207
230.0, -82034.79135451214, -118909.35825221041, 24007.382870600566, 83139.95100736035, 43654.36508111538, 49081.882724986404, 34144.70364388271, 73576.53362471267, 0.058, 0.926, 0.164, 192.0, 0.0, 0.0, 0.0, 0.0, 0.0, 0.0, 0.0, 0.0, 0.0, 1.6665571152071211E9, 0.0, 2022-10-23 13:31:55.207
231.0, -82039.41816561439, -118915.90731333582, 24127.009406925372, 83143.61669345101, 43658.23193290614, 49105.57557410903, 34269.225212243226, 73679.86573932954, 0.058, 0.926, 0.164, 192.0, 0.0, 0.0, 0.0, 0.0, 0.0, 0.0, 0.0, 0.0, 0.0, 1.666557115207136E9, 0.0, 2022-10-23 13:31:55.207
232.0, -82032.37736611097, -118909.22414174369, 24359.288735304923, 83141.44857423885, 43662.657578308295, 49110.761178822664, 34392.87506256998, 73729.08428062014, 0.058, 0.926, 0.164, 192.0, 0.0, 0.0, 0.0, 0.0, 0.0, 0.0, 0.0, 0.0, 0.0, 1.6665571152071524E9, 0.0, 2022-10-23 13:31:55.207
233.0, -82025.56008405211, -118898.60706312742, 24231.54851574284, 83150.5233824877, 43669.4078051338, 49108.21307995476, 34243.40894739735, 73621.81825897912, 0.058, 0.926, 0.164, 192.0, 0.0, 0.0, 0.0, 0.0, 0.0, 0.0, 0.0, 0.0, 0.0, 1.666557115207167E9, 0.0, 2022-10-23 13:31:55.207
234.0, -82034.34431962304, -118909.24649348814, 24029.153469700035, 83148.04233885316, 43661.27177015207, 49098.42301588333, 34152.28088525306, 73592.29160455365, 0.058, 0.926, 0.164, 192.0, 0.0, 0.0, 0.0, 0.0, 0.0, 0.0, 0.0, 0.0, 0.0, 1.6665571152071817E9, 0.0, 2022-10-23 13:31:55.207
235.0, -82054.72911056627, -118933.00639784413, 24051.95224904445, 83140.50980097173, 43645.89376996682, 49089.86229775695, 34218.30793837404, 73656.50816637375, 0.056, 0.932, 0.164, 192.0, 1.0, 192.0, 29.0, 32.0, 5.0, 32.0, 0.0, 0.0, 0.0, 1.6665571152071965E9, 0.0, 2022-10-23 13:31:55.207
236.0, -82052.44923263184, -118933.78870890007, 24312.685348115607, 83133.29018751267, 43637.713031496176, 49079.04405344058, 34370.50096637022, 73723.83162067314, 0.056, 0.932, 0.164, 192.0, 0.0, 0.0, 0.0, 0.0, 0.0, 0.0, 0.0, 0.0, 0.0, 1.6665571152072122E9, 0.0, 2022-10-23 13:31:55.207
237.0, -82032.75734576672, -118913.60508365692, 24218.36098651421, 83146.41066150794, 43653.26984563707, 49084.117899431934, 34238.64802582837, 73611.64821525196, 0.056, 0.932, 0.164, 192.0, 0.0, 0.0, 0.0, 0.0, 0.0, 0.0, 0.0, 0.0, 0.0, 1.6665571152072415E9, 0.0, 2022-10-23 13:31:55.207
238.0, -82034.45607834532, -118916.28729299156, 23997.928082695973, 83142.20853355034, 43651.124078169356, 49079.26757088513, 34112.919463267266, 73557.98167681476, 0.056, 0.932, 0.164, 192.0, 0.0, 0.0, 0.0, 0.0, 0.0, 0.0, 0.0, 0.0, 0.0, 1.6665571152072573E9, 0.0, 2022-10-23 13:31:55.207
239.0, -82054.39383439945, -118938.01318860213, 23945.35677973709, 83127.34462348756, 43633.712069238674, 49066.05768991205, 34141.52969617006, 73603.33336631457, 0.056, 0.932, 0.164, 192.0, 0.0, 0.0, 0.0, 0.0, 0.0, 0.0, 0.0, 0.0, 0.0, 1.666557115207272E9, 0.0, 2022-10-23 13:31:55.207
240.0, -82047.2189244293, -118931.28531352108, 24223.256018549924, 83138.18521954838, 43646.69843276721, 49091.471623357735, 34326.46802979327, 73720.90354214949, 0.056, 0.932, 0.164, 192.0, 0.0, 0.0, 0.0, 0.0, 0.0, 0.0, 0.0, 0.0, 0.0, 1.666557115207288E9, 0.0, 2022-10-23 13:31:55.207
241.0, -82036.04305220164, -118918.85774360392, 24200.25607350541, 83144.9801498628, 43658.88013349535, 49096.3890071379, 34251.612037612445, 73644.05824471214, 0.056, 0.932, 0.164, 192.0, 0.0, 0.0, 0.0, 0.0, 0.0, 0.0, 0.0, 0.0, 0.0, 1.666557115207301E9, 0.0, 2022-10-23 13:31:55.207
242.0, -82036.73595627975, -118920.69058664926, 23986.014602901294, 83144.71192892933, 43661.763508530086, 49096.76898679364, 34111.53365511104, 73579.46170323632, 0.056, 0.932, 0.164, 192.0, 0.0, 0.0, 0.0, 0.0, 0.0, 0.0, 0.0, 0.0, 0.0, 1.6665571152073133E9, 0.0, 2022-10-23 13:31:55.207
243.0, -82039.08288944756, -118924.2221622732, 23867.662116010444, 83144.30959752914, 43656.376738116356, 49094.64557107039, 34109.56670159897, 73612.31876758562, 0.056, 0.932, 0.164, 192.0, 0.0, 0.0, 0.0, 0.0, 0.0, 0.0, 0.0, 0.0, 0.0, 1.666557115207326E9, 0.0, 2022-10-23 13:31:55.207
244.0, -82037.9653022248, -118923.12692679488, 24105.305863059268, 83148.89170514247, 43654.94622647121, 49102.60279209648, 34277.763578625156, 73723.8539724176, 0.056, 0.932, 0.164, 192.0, 0.0, 0.0, 0.0, 0.0, 0.0, 0.0, 0.0, 0.0, 0.0, 1.6665571152073388E9, 0.0, 2022-10-23 13:31:55.207
245.0, -82033.31613937809, -118917.11430753641, 24138.721721019952, 83141.80620215014, 43650.58763630243, 49087.35890237796, 34244.86181078694, 73664.8900705445, 0.062, 0.9380000000000001, 0.17, 192.0, 1.0, 240.0, 29.0, 80.0, 5.0, 80.0, 0.0, 0.0, 0.0, 1.6665571152073514E9, 0.0, 2022-10-23 13:31:55.207
246.0, -82030.16454340989, -118911.99575805615, 23950.54238445072, 83137.49231547026, 43646.87724672285, 49077.74765226217, 34101.587128828425, 73580.0652003366, 0.062, 0.9380000000000001, 0.17, 192.0, 0.0, 0.0, 0.0, 0.0, 0.0, 0.0, 0.0, 0.0, 0.0, 1.6665571152073648E9, 0.0, 2022-10-23 13:31:55.207
247.0, -82037.5629708246, -118923.26103726162, 23784.960661525805, 83141.38151900549, 43648.754793257096, 49087.02362621113, 34068.88652669031, 73586.79307541765, 0.062, 0.9380000000000001, 0.17, 192.0, 0.0, 0.0, 0.0, 0.0, 0.0, 0.0, 0.0, 0.0, 0.0, 1.6665571152073777E9, 0.0, 2022-10-23 13:31:55.207
248.0, -82046.59307558455, -118930.54770595404, 23996.60932977311, 83141.64973993895, 43648.754793257096, 49100.45702462876, 34239.6315025844, 73708.76654491026, 0.062, 0.9380000000000001, 0.17, 192.0, 0.0, 0.0, 0.0, 0.0, 0.0, 0.0, 0.0, 0.0, 0.0, 1.66655711520739E9, 0.0, 2022-10-23 13:31:55.207
249.0, -82042.14507843794, -118924.78095588458, 24085.99395584988, 83134.56423694662, 43647.145467656315, 49090.89047800189, 34252.729624835214, 73675.99888753878, 0.062, 0.9380000000000001, 0.17, 192.0, 0.0, 0.0, 0.0, 0.0, 0.0, 0.0, 0.0, 0.0, 0.0, 1.6665571152074027E9, 0.0, 2022-10-23 13:31:55.207
250.0, -82043.73205229426, -118928.08901406397, 23918.601741624087, 83133.89368461295, 43646.13963915582, 49082.64268429788, 34111.33248941094, 73586.83777890656, 0.062, 0.9380000000000001, 0.17, 192.0, 0.0, 0.0, 0.0, 0.0, 0.0, 0.0, 0.0, 0.0, 0.0, 1.666557115207415E9, 0.0, 2022-10-23 13:31:55.207
251.0, -82045.09550870604, -118924.62449367339, 23731.048253899608, 83141.09094632756, 43651.97344445866, 49090.488146601696, 34060.325808563925, 73579.97579335878, 0.062, 0.9380000000000001, 0.17, 192.0, 0.0, 0.0, 0.0, 0.0, 0.0, 0.0, 0.0, 0.0, 0.0, 1.666557115207428E9, 0.0, 2022-10-23 13:31:55.207
252.0, -82039.08288944756, -118920.44471746025, 23876.245185881282, 83146.63417895249, 43654.767412515575, 49105.53087062012, 34199.934804431774, 73689.29817548969, 0.062, 0.9380000000000001, 0.17, 192.0, 0.0, 0.0, 0.0, 0.0, 0.0, 0.0, 0.0, 0.0, 0.0, 1.6665571152074406E9, 0.0, 2022-10-23 13:31:55.207
253.0, -82021.78263923916, -118897.40006892683, 24028.393510388556, 83141.64973993895, 43650.47587758015, 49098.802995539074, 34263.6372761294, 73697.3448034936, 0.062, 0.9380000000000001, 0.17, 192.0, 0.0, 0.0, 0.0, 0.0, 0.0, 0.0, 0.0, 0.0, 0.0, 1.6665571152074676E9, 0.0, 2022-10-23 13:31:55.207
254.0, -82025.64949102992, -118896.55070263753, 23864.44346480888, 83135.79358289165, 43646.229046133645, 49085.61546631044, 34104.17993118524, 73590.5705202306, 0.062, 0.9380000000000001, 0.17, 192.0, 0.0, 0.0, 0.0, 0.0, 0.0, 0.0, 0.0, 0.0, 0.0, 1.66655711520748E9, 0.0, 2022-10-23 13:31:55.207
255.0, -82044.11203195, -118917.58369416997, 23638.48968011018, 83140.91213237193, 43652.5545898145, 49095.1373094484, 34014.86236034183, 73572.01857233269, 0.074, 0.9380000000000001, 0.17200000000000001, 192.0, 2.0, 80.0, 29.0, 80.0, 5.0, 96.0, 0.0, 0.0, 0.0, 1.6665571152074926E9, 0.0, 2022-10-23 13:31:55.207
0.0, -82092.90589009594, -118969.66325875084, 23701.365137262957, 83139.05693758214, 43645.78201124454, 49095.07025421504, 34115.37815515735, 73664.35362867756, 0.074, 0.9380000000000001, 0.17200000000000001, 192.0, 0.0, 0.0, 0.0, 0.0, 0.0, 0.0, 0.0, 0.0, 0.0, 1.666557115207506E9, 0.0, 2022-10-23 13:31:55.207
1.0, -82127.70755621286, -119009.06938422554, 23921.68628235892, 83119.99089956176, 43621.798589444, 49070.99742543667, 34241.754918307655, 73700.60815818407, 0.074, 0.9380000000000001, 0.17200000000000001, 192.0, 0.0, 0.0, 0.0, 0.0, 0.0, 0.0, 0.0, 0.0, 0.0, 1.6665571152075183E9, 0.0, 2022-10-23 13:31:55.207
2.0, -82132.62493999302, -119017.60775060747, 23786.100600493028, 83125.44472520886, 43624.45844703418, 49068.71754750223, 34093.13816942432, 73578.52292996919, 0.074, 0.9380000000000001, 0.17200000000000001, 192.0, 0.0, 0.0, 0.0, 0.0, 0.0, 0.0, 0.0, 0.0, 0.0, 1.6665571152075305E9, 0.0, 2022-10-23 13:31:55.207
3.0, -82145.09721339909, -119033.92452405984, 23554.357713980404, 83128.05987931012, 43625.82190344595, 49076.27243712812, 33984.419284393705, 73536.59105737103, 0.074, 0.9380000000000001, 0.17200000000000001, 192.0, 0.0, 0.0, 0.0, 0.0, 0.0, 0.0, 0.0, 0.0, 0.0, 1.666557115207543E9, 0.0, 2022-10-23 13:31:55.207
4.0, -82173.95331549089, -119059.74078890572, 23551.206118012207, 83127.00934732072, 43622.02210688855, 49076.69712027277, 34056.97304689563, 73613.3245960861, 0.074, 0.9380000000000001, 0.17200000000000001, 192.0, 0.0, 0.0, 0.0, 0.0, 0.0, 0.0, 0.0, 0.0, 0.0, 1.6665571152075555E9, 0.0, 2022-10-23 13:31:55.207
5.0, -82190.51595813227, -119074.87291990197, 23792.783772085164, 83129.11041129952, 43626.60421450189, 49080.27339938562, 34210.216606881215, 73699.57997793914, 0.074, 0.9380000000000001, 0.17200000000000001, 192.0, 0.0, 0.0, 0.0, 0.0, 0.0, 0.0, 0.0, 0.0, 0.0, 1.666557115207568E9, 0.0, 2022-10-23 13:31:55.207
6.0, -82203.92700480545, -119090.6085479985, 23722.97927415124, 83131.09971655604, 43634.762601228074, 49080.22869589671, 34108.449114376206, 73616.6773577544, 0.074, 0.9380000000000001, 0.17200000000000001, 192.0, 0.0, 0.0, 0.0, 0.0, 0.0, 0.0, 0.0, 0.0, 0.0, 1.66655711520758E9, 0.0, 2022-10-23 13:31:55.207
7.0, -82221.74134513632, -119109.27225461869, 23508.380175635837, 83122.65075715193, 43626.13482786832, 49079.37932960741, 33989.180205962686, 73554.09247327954, 0.074, 0.9380000000000001, 0.17200000000000001, 192.0, 0.0, 0.0, 0.0, 0.0, 0.0, 0.0, 0.0, 0.0, 0.0, 1.6665571152075925E9, 0.0, 2022-10-23 13:31:55.207
8.0, -82237.76754591078, -119125.45491760432, 23420.716633882123, 83125.31061474212, 43619.20578708718, 49078.90994297385, 34011.39783995126, 73592.9174533984, 0.076, 0.936, 0.17, 192.0, 2.0, 96.0, 29.0, 64.0, 5.0, 80.0, 0.0, 0.0, 0.0, 1.6665571152076046E9, 0.0, 2022-10-23 13:31:55.207
9.0, -82255.29131356375, -119141.41406314542, 23679.08044804102, 83127.79165837666, 43616.32241205245, 49082.95560872026, 34193.586909006466, 73702.68687041842, 0.076, 0.936, 0.17, 192.0, 0.0, 0.0, 0.0, 0.0, 0.0, 0.0, 0.0, 0.0, 0.0, 1.6665571152076187E9, 0.0, 2022-10-23 13:31:55.207
10.0, -82253.43611877396, -119138.91066776642, 23655.700523340765, 83130.89855085594, 43621.30685106598, 49072.83026848201, 34121.10020173791, 73617.01263392123, 0.076, 0.936, 0.17, 192.0, 0.0, 0.0, 0.0, 0.0, 0.0, 0.0, 0.0, 0.0, 0.0, 1.6665571152076316E9, 0.0, 2022-10-23 13:31:55.207
11.0, -82273.73150273938, -119162.96114480033, 23443.157785315252, 83121.55552167362, 43616.92590915274, 49061.98967242118, 33978.0713889684, 73535.36171142598, 0.076, 0.936, 0.17, 192.0, 0.0, 0.0, 0.0, 0.0, 0.0, 0.0, 0.0, 0.0, 0.0, 1.666557115207644E9, 0.0, 2022-10-23 13:31:55.207
12.0, -82276.34665684064, -119168.12439776951, 23286.963795061565, 83124.26008275272, 43619.96574639866, 49077.837059239995, 33956.68076952467, 73551.43261568935, 0.076, 0.936, 0.17, 192.0, 0.0, 0.0, 0.0, 0.0, 0.0, 0.0, 0.0, 0.0, 0.0, 1.6665571152076688E9, 0.0, 2022-10-23 13:31:55.207
13.0, -82271.29516259374, -119162.75997910023, 23487.727163759133, 83128.01517582122, 43628.95114766969, 49096.791338538096, 34112.09244872242, 73670.83563456961, 0.076, 0.936, 0.17, 192.0, 0.0, 0.0, 0.0, 0.0, 0.0, 0.0, 0.0, 0.0, 0.0, 1.6665571152076817E9, 0.0, 2022-10-23 13:31:55.207
14.0, -82269.14939512603, -119161.17300524391, 23560.795016383534, 83122.60605366302, 43623.58672900042, 49081.4356900973, 34124.54237038403, 73642.24775341127, 0.076, 0.936, 0.17, 192.0, 0.0, 0.0, 0.0, 0.0, 0.0, 0.0, 0.0, 0.0, 0.0, 1.6665571152076948E9, 0.0, 2022-10-23 13:31:55.207
15.0, -82261.68391247797, -119153.66281910692, 23373.286232147962, 83122.6731088964, 43621.66447897726, 49074.193724893776, 33984.35222916034, 73558.49576693724, 0.076, 0.936, 0.17, 192.0, 0.0, 0.0, 0.0, 0.0, 0.0, 0.0, 0.0, 0.0, 0.0, 1.6665571152077084E9, 0.0, 2022-10-23 13:31:55.207
16.0, -82261.92978166697, -119150.1759469719, 23189.510189236426, 83128.23869326577, 43624.07846737844, 49081.10041393047, 33944.566124029894, 73561.28973499415, 0.076, 0.936, 0.17, 192.0, 0.0, 0.0, 0.0, 0.0, 0.0, 0.0, 0.0, 0.0, 0.0, 1.6665571152077212E9, 0.0, 2022-10-23 13:31:55.207
17.0, -82272.43510156097, -119161.73179885528, 23366.714819278102, 83127.43403046537, 43618.334069053424, 49083.31323663155, 34097.36264912637, 73667.57227987912, 0.076, 0.936, 0.17, 192.0, 0.0, 0.0, 0.0, 0.0, 0.0, 0.0, 0.0, 0.0, 0.0, 1.6665571152077339E9, 0.0, 2022-10-23 13:31:55.207
18.0, -82269.37291257059, -119156.18856623037, 23489.537655060012, 83119.67797513938, 43615.80832192997, 49075.02073943862, 34139.89801882482, 73655.70350357336, 0.084, 0.9440000000000001, 0.17400000000000002, 192.0, 2.0, 160.0, 29.0, 128.0, 5.0, 112.0, 0.0, 0.0, 0.0, 1.6665571152077477E9, 0.0, 2022-10-23 13:31:55.207
19.0, -82260.87924967757, -119145.28091493619, 23315.84224889782, 83117.15222801593, 43615.115417851855, 49067.04116666808, 33991.057752496934, 73556.32764772506, 0.084, 0.9440000000000001, 0.17400000000000002, 192.0, 0.0, 0.0, 0.0, 0.0, 0.0, 0.0, 0.0, 0.0, 0.0, 1.6665571152077613E9, 0.0, 2022-10-23 13:31:55.207
20.0, -82255.78305194176, -119138.30717066613, 23098.248016625406, 83120.41558270641, 43616.61298473037, 49071.66797777033, 33922.32613829686, 73540.50261265071, 0.084, 0.9440000000000001, 0.17400000000000002, 192.0, 0.0, 0.0, 0.0, 0.0, 0.0, 0.0, 0.0, 0.0, 0.0, 1.6665571152077737E9, 0.0, 2022-10-23 13:31:55.207
21.0, -82262.06389213371, -119144.99034225826, 23205.31287256633, 83118.89566408345, 43615.741266696605, 49079.312274374046, 34047.607665968855, 73641.77836677771, 0.084, 0.9440000000000001, 0.17400000000000002, 192.0, 0.0, 0.0, 0.0, 0.0, 0.0, 0.0, 0.0, 0.0, 0.0, 1.6665571152077863E9, 0.0, 2022-10-23 13:31:55.207
22.0, -82255.02309263029, -119137.81543228812, 23378.20361592813, 83112.95010005834, 43609.885109649316, 49066.88470445689, 34136.50055366761, 73660.86675654254, 0.084, 0.9440000000000001, 0.17400000000000002, 192.0, 0.0, 0.0, 0.0, 0.0, 0.0, 0.0, 0.0, 0.0, 0.0, 1.6665571152077987E9, 0.0, 2022-10-23 13:31:55.207
23.0, -82241.94732212393, -119123.71148153681, 23197.176837584597, 83118.15805651642, 43619.47400802065, 49070.93037020331, 33979.85952852482, 73547.83398483205, 0.084, 0.9440000000000001, 0.17400000000000002, 192.0, 0.0, 0.0, 0.0, 0.0, 0.0, 0.0, 0.0, 0.0, 0.0, 1.6665571152078114E9, 0.0, 2022-10-23 13:31:55.207
24.0, -82231.68787141894, -119108.46759181829, 22939.617686226095, 83121.17554201788, 43623.2961563225, 49075.46777432773, 33876.16978599665, 73509.97012972477, 0.084, 0.9440000000000001, 0.17400000000000002, 192.0, 0.0, 0.0, 0.0, 0.0, 0.0, 0.0, 0.0, 0.0, 0.0, 1.6665571152078235E9, 0.0, 2022-10-23 13:31:55.207
25.0, -82227.01635682778, -119104.33251909407, 22954.906279433522, 83129.28922525517, 43635.254339606094, 49093.81855652554, 33954.222077634586, 73603.89215992596, 0.084, 0.9440000000000001, 0.17400000000000002, 192.0, 0.0, 0.0, 0.0, 0.0, 0.0, 0.0, 0.0, 0.0, 0.0, 1.6665571152078362E9, 0.0, 2022-10-23 13:31:55.207
26.0, -82217.91919683447, -119096.37529806797, 23197.89209340717, 83133.44664972385, 43640.10466815289, 49100.7923007956, 34113.36649815637, 73694.3943732255, 0.084, 0.9440000000000001, 0.17400000000000002, 192.0, 0.0, 0.0, 0.0, 0.0, 0.0, 0.0, 0.0, 0.0, 0.0, 1.6665571152078485E9, 0.0, 2022-10-23 13:31:55.207
27.0, -82222.83658061465, -119098.29754809113, 23085.060487396775, 83120.52734142868, 43627.61004300237, 49073.94785570477, 33989.381371662785, 73587.73184868478, 0.084, 0.9440000000000001, 0.17400000000000002, 192.0, 0.0, 0.0, 0.0, 0.0, 0.0, 0.0, 0.0, 0.0, 0.0, 1.666557115207861E9, 0.0, 2022-10-23 13:31:55.207
28.0, -82217.71803113438, -119093.87190268897, 22855.150443929488, 83116.25815823772, 43623.07263887795, 49071.93619870379, 33880.394265698706, 73533.28299919165, 0.088, 0.9460000000000001, 0.17, 192.0, 2.0, 192.0, 29.0, 144.0, 5.0, 80.0, 0.0, 0.0, 0.0, 1.666557115207886E9, 0.0, 2022-10-23 13:31:55.207
29.0, -82211.63835664254, -119090.29562357612, 22799.89693163597, 83129.49039095527, 43630.06873489246, 49086.084852944005, 33923.108449352796, 73585.58608121707, 0.088, 0.9460000000000001, 0.17, 192.0, 0.0, 0.0, 0.0, 0.0, 0.0, 0.0, 0.0, 0.0, 0.0, 1.6665571152078993E9, 0.0, 2022-10-23 13:31:55.207
30.0, -82216.3098712337, -119089.53566426465, 23067.290850554808, 83133.08902181257, 43631.58865351542, 49093.95266699227, 34108.918501009764, 73691.37688772404, 0.088, 0.9460000000000001, 0.17, 192.0, 0.0, 0.0, 0.0, 0.0, 0.0, 0.0, 0.0, 0.0, 0.0, 1.6665571152079127E9, 0.0, 2022-10-23 13:31:55.207
31.0, -82214.92406307746, -119088.55218750861, 23020.151021498565, 83120.23676875076, 43618.825807431436, 49071.08683241449, 34025.45708721365, 73591.15166558644, 0.088, 0.9460000000000001, 0.17, 192.0, 0.0, 0.0, 0.0, 0.0, 0.0, 0.0, 0.0, 0.0, 0.0, 1.666557115207925E9, 0.0, 2022-10-23 13:31:55.207
32.0, -82198.80845532518, -119074.2023675683, 22804.41198401594, 83125.82470486459, 43629.71110698117, 49087.64947505587, 33899.192082785616, 73526.24219968822, 0.088, 0.9460000000000001, 0.17, 192.0, 0.0, 0.0, 0.0, 0.0, 0.0, 0.0, 0.0, 0.0, 0.0, 1.6665571152079377E9, 0.0, 2022-10-23 13:31:55.207
33.0, -82206.51980716227, -119079.23151007075, 22723.87864874347, 83126.36114673152, 43627.09595287991, 49089.169393678836, 33934.150211113716, 73574.72313341178, 0.088, 0.9460000000000001, 0.17, 192.0, 0.0, 0.0, 0.0, 0.0, 0.0, 0.0, 0.0, 0.0, 0.0, 1.66655711520795E9, 0.0, 2022-10-23 13:31:55.207
34.0, -82216.22046425586, -119088.52983576416, 23009.42218416002, 83115.81112334861, 43613.46138876217, 49076.96534120624, 34137.171106001275, 73686.6383178995, 0.088, 0.9460000000000001, 0.17, 192.0, 0.0, 0.0, 0.0, 0.0, 0.0, 0.0, 0.0, 0.0, 0.0, 1.6665571152079625E9, 0.0, 2022-10-23 13:31:55.207
35.0, -82208.64322288553, -119079.14210309293, 23039.75350138587, 83114.58177740357, 43612.3438015394, 49064.984806178196, 34100.13426543883, 73617.43731706588, 0.088, 0.9460000000000001, 0.17, 192.0, 0.0, 0.0, 0.0, 0.0, 0.0, 0.0, 0.0, 0.0, 0.0, 1.666557115207975E9, 0.0, 2022-10-23 13:31:55.207
36.0, -82197.98144078034, -119069.06146634358, 22857.385618375018, 83130.0715363111, 43625.97836565714, 49082.21800115323, 33968.63895280826, 73543.76596734118, 0.088, 0.9460000000000001, 0.17, 192.0, 0.0, 0.0, 0.0, 0.0, 0.0, 0.0, 0.0, 0.0, 0.0, 1.6665571152079873E9, 0.0, 2022-10-23 13:31:55.207
37.0, -82202.47414141586, -119072.74950417872, 22717.55310506262, 83129.78096363318, 43624.81607494546, 49089.86229775695, 33952.16571714469, 73559.61335416, 0.088, 0.96, 0.176, 192.0, 2.0, 192.0, 30.0, 0.0, 5.0, 128.0, 0.0, 0.0, 0.0, 1.6665571152079997E9, 0.0, 2022-10-23 13:31:55.207
38.0, -82218.14271427903, -119087.12167586347, 22965.322192349697, 83122.33783272956, 43610.354496282875, 49082.6873877868, 34139.45098393571, 73676.89295731699, 0.088, 0.96, 0.176, 192.0, 0.0, 0.0, 0.0, 0.0, 0.0, 0.0, 0.0, 0.0, 0.0, 1.666557115208013E9, 0.0, 2022-10-23 13:31:55.208
39.0, -82211.81717059818, -119083.6571554729, 23092.28010085584, 83123.63423390797, 43609.34866778239, 49072.09266091498, 34171.32457152898, 73642.42656736691, 0.088, 0.96, 0.176, 192.0, 0.0, 0.0, 0.0, 0.0, 0.0, 0.0, 0.0, 0.0, 0.0, 1.6665571152080257E9, 0.0, 2022-10-23 13:31:55.208
40.0, -82197.44499891342, -119069.32968727704, 22921.24455228383, 83133.98309159078, 43625.97836565714, 49080.47456508572, 34021.053793555955, 73549.35390345502, 0.088, 0.96, 0.176, 192.0, 0.0, 0.0, 0.0, 0.0, 0.0, 0.0, 0.0, 0.0, 0.0, 1.6665571152080393E9, 0.0, 2022-10-23 13:31:55.208
41.0, -82193.77931282275, -119063.92056511887, 22776.51700693572, 83135.99474859175, 43627.833560446925, 49090.10816694596, 33993.851720553845, 73568.30818275311, 0.088, 0.96, 0.176, 192.0, 0.0, 0.0, 0.0, 0.0, 0.0, 0.0, 0.0, 0.0, 0.0, 1.666557115208052E9, 0.0, 2022-10-23 13:31:55.208
42.0, -82197.26618495777, -119068.56972796557, 22962.572927781694, 83137.60407419254, 43628.23589184712, 49103.3403996635, 34145.15067877182, 73678.21171023986, 0.088, 0.96, 0.176, 192.0, 0.0, 0.0, 0.0, 0.0, 0.0, 0.0, 0.0, 0.0, 0.0, 1.6665571152080643E9, 0.0, 2022-10-23 13:31:55.208
43.0, -82191.2982691882, -119063.09355057402, 23152.29453471834, 83138.22992303729, 43630.40401105929, 49103.630972341416, 34227.695671045265, 73687.62179465554, 0.088, 0.96, 0.176, 192.0, 0.0, 0.0, 0.0, 0.0, 0.0, 0.0, 0.0, 0.0, 0.0, 1.666557115208077E9, 0.0, 2022-10-23 13:31:55.208
44.0, -82195.20982446788, -119063.16060580738, 23032.399777460072, 83134.9218648579, 43625.71014472367, 49090.71166404625, 34090.43360834523, 73584.9155288834, 0.088, 0.96, 0.176, 192.0, 0.0, 0.0, 0.0, 0.0, 0.0, 0.0, 0.0, 0.0, 0.0, 1.666557115208103E9, 0.0, 2022-10-23 13:31:55.208
45.0, -82199.32254544766, -119068.83794889903, 22847.349685114586, 83129.42333572189, 43621.01627838806, 49087.78358552261, 34013.05186904095, 73551.96905755629, 0.088, 0.96, 0.176, 192.0, 0.0, 0.0, 0.0, 0.0, 0.0, 0.0, 0.0, 0.0, 0.0, 1.6665571152081165E9, 0.0, 2022-10-23 13:31:55.208
46.0, -82211.97363280936, -119086.1605508519, 22975.536939565773, 83124.57300717509, 43612.612022472866, 49086.33072213301, 34137.95341705721, 73652.32839016062, 0.088, 0.96, 0.176, 192.0, 0.0, 0.0, 0.0, 0.0, 0.0, 0.0, 0.0, 0.0, 0.0, 1.66655711520813E9, 0.0, 2022-10-23 13:31:55.208
47.0, -82217.159237523, -119090.5638445096, 23222.769584985923, 83112.79363784715, 43599.178624055225, 49070.99742543667, 34261.469156917236, 73685.65484114348, 0.094, 0.9420000000000001, 0.17400000000000002, 192.0, 2.0, 240.0, 29.0, 112.0, 5.0, 112.0, 0.0, 0.0, 0.0, 1.6665571152081428E9, 0.0, 2022-10-23 13:31:55.208
48.0, -82194.4498651564, -119071.87778614495, 23123.460784370993, 83123.56717867461, 43610.17568232724, 49072.09266091498, 34124.60942561739, 73573.73965665576, 0.094, 0.9420000000000001, 0.17400000000000002, 192.0, 0.0, 0.0, 0.0, 0.0, 0.0, 0.0, 0.0, 0.0, 0.0, 1.6665571152081563E9, 0.0, 2022-10-23 13:31:55.208
49.0, -82195.32158319016, -119072.28011754515, 22948.513680519307, 83123.83539960807, 43606.91232763676, 49069.83513472499, 34044.14314557829, 73538.60271437201, 0.094, 0.9420000000000001, 0.17400000000000002, 192.0, 0.0, 0.0, 0.0, 0.0, 0.0, 0.0, 0.0, 0.0, 0.0, 1.6665571152081692E9, 0.0, 2022-10-23 13:31:55.208
50.0, -82191.14180697702, -119070.17905356635, 22988.03156471629, 83136.88881836997, 43618.66934522025, 49096.94780074928, 34122.351899427405, 73616.90087519895, 0.094, 0.9420000000000001, 0.17400000000000002, 192.0, 0.0, 0.0, 0.0, 0.0, 0.0, 0.0, 0.0, 0.0, 0.0, 1.666557115208182E9, 0.0, 2022-10-23 13:31:55.208
51.0, -82182.62579233955, -119061.41716973987, 23293.89283584271, 83145.65070219645, 43632.08039189344, 49120.14891149389, 34306.82084641705, 73719.20480957089, 0.094, 0.9420000000000001, 0.17400000000000002, 192.0, 0.0, 0.0, 0.0, 0.0, 0.0, 0.0, 0.0, 0.0, 0.0, 1.6665571152081945E9, 0.0, 2022-10-23 13:31:55.208
52.0, -82173.6403910685, -119053.97403883626, 23234.0348641914, 83145.76246091872, 43631.409839559776, 49110.71647533375, 34194.32451657349, 73608.51897102821, 0.094, 0.9420000000000001, 0.17400000000000002, 192.0, 0.0, 0.0, 0.0, 0.0, 0.0, 0.0, 0.0, 0.0, 0.0, 1.6665571152082071E9, 0.0, 2022-10-23 13:31:55.208
53.0, -82179.07186497115, -119063.54058546312, 23024.151983756066, 83142.09677482805, 43622.71501096666, 49102.40162639638, 34063.410349298756, 73538.98269402776, 0.094, 0.9420000000000001, 0.17400000000000002, 192.0, 0.0, 0.0, 0.0, 0.0, 0.0, 0.0, 0.0, 0.0, 0.0, 1.66655711520822E9, 0.0, 2022-10-23 13:31:55.208
54.0, -82198.29436520272, -119084.41711478439, 22988.23273041639, 83130.69738515584, 43604.87831889133, 49090.71166404625, 34099.95545148318, 73583.46266549382, 0.094, 0.9420000000000001, 0.17400000000000002, 192.0, 0.0, 0.0, 0.0, 0.0, 0.0, 0.0, 0.0, 0.0, 0.0, 1.6665571152082322E9, 0.0, 2022-10-23 13:31:55.208
55.0, -82212.26420548728, -119102.4102690709, 23282.158170003673, 83116.43697219336, 43587.95804833866, 49073.88080047141, 34281.13869203791, 73669.38277118001, 0.094, 0.9420000000000001, 0.17400000000000002, 192.0, 0.0, 0.0, 0.0, 0.0, 0.0, 0.0, 0.0, 0.0, 0.0, 1.6665571152082446E9, 0.0, 2022-10-23 13:31:55.208
56.0, -82198.09319950262, -119088.61924274197, 23288.595472406803, 83120.84026585106, 43596.1387868093, 49071.93619870379, 34215.335156361485, 73577.83002589107, 0.094, 0.9420000000000001, 0.17400000000000002, 192.0, 0.0, 0.0, 0.0, 0.0, 0.0, 0.0, 0.0, 0.0, 0.0, 1.6665571152082572E9, 0.0, 2022-10-23 13:31:55.208
57.0, -82188.23608019782, -119079.18680658184, 23099.879693970644, 83127.00934732072, 43607.26995554804, 49082.21800115323, 34082.923422208245, 73515.04397571612, 0.076, 0.934, 0.176, 192.0, 2.0, 96.0, 29.0, 48.0, 5.0, 128.0, 0.0, 0.0, 0.0, 1.666557115208271E9, 0.0, 2022-10-23 13:31:55.208
58.0, -82182.0446469837, -119076.19167282483, 23021.469774421428, 83137.49231547026, 43616.38946728581, 49099.31708566155, 34105.27516666355, 73567.50351995272, 0.076, 0.934, 0.176, 192.0, 0.0, 0.0, 0.0, 0.0, 0.0, 0.0, 0.0, 0.0, 0.0, 1.666557115208284E9, 0.0, 2022-10-23 13:31:55.208
59.0, -82190.71712383236, -119086.33936480754, 23300.017213823467, 83136.39707999195, 43608.65576370427, 49107.09549273199, 34299.4447707468, 73686.68302138842, 0.076, 0.934, 0.176, 192.0, 0.0, 0.0, 0.0, 0.0, 0.0, 0.0, 0.0, 0.0, 0.0, 1.6665571152083085E9, 0.0, 2022-10-23 13:31:55.208
60.0, -82183.98924875131, -119078.0021641257, 23354.778987738966, 83134.36307124652, 43605.72768518063, 49096.47841411572, 34270.901593077375, 73616.18561937638, 0.076, 0.934, 0.176, 192.0, 0.0, 0.0, 0.0, 0.0, 0.0, 0.0, 0.0, 0.0, 0.0, 1.6665571152083209E9, 0.0, 2022-10-23 13:31:55.208
61.0, -82174.06507421315, -119068.72619017676, 23184.659860689626, 83146.58947546357, 43620.68100222123, 49108.50365263267, 34135.42766993376, 73544.05654001911, 0.076, 0.934, 0.176, 192.0, 0.0, 0.0, 0.0, 0.0, 0.0, 0.0, 0.0, 0.0, 0.0, 1.6665571152083344E9, 0.0, 2022-10-23 13:31:55.208
62.0, -82174.53446084673, -119070.87195764447, 23047.75542590087, 83146.00833010774, 43621.753885955084, 49108.749521821686, 34116.4510388912, 73559.68040939336, 0.076, 0.934, 0.176, 192.0, 0.0, 0.0, 0.0, 0.0, 0.0, 0.0, 0.0, 0.0, 0.0, 1.6665571152083464E9, 0.0, 2022-10-23 13:31:55.208
63.0, -82177.28372541473, -119074.49294024623, 23269.730600086525, 83140.66626318291, 43617.216481830656, 49110.33649567801, 34282.300982749584, 73671.72970434782, 0.076, 0.934, 0.176, 192.0, 0.0, 0.0, 0.0, 0.0, 0.0, 0.0, 0.0, 0.0, 0.0, 1.6665571152083585E9, 0.0, 2022-10-23 13:31:55.208
64.0, -82169.50531834428, -119070.08964658853, 23393.20163645764, 83141.53798121668, 43615.27188006305, 49102.580440352016, 34308.8995586514, 73647.56746859163, 0.076, 0.934, 0.176, 192.0, 0.0, 0.0, 0.0, 0.0, 0.0, 0.0, 0.0, 0.0, 0.0, 1.6665571152083707E9, 0.0, 2022-10-23 13:31:55.208
65.0, -82161.65985604047, -119063.51823371867, 23228.759852499945, 83138.90047537095, 43611.71795269465, 49093.48328035871, 34148.23521950665, 73547.67752262087, 0.076, 0.934, 0.176, 192.0, 0.0, 0.0, 0.0, 0.0, 0.0, 0.0, 0.0, 0.0, 0.0, 1.6665571152083828E9, 0.0, 2022-10-23 13:31:55.208
66.0, -82166.35372237608, -119071.69897218932, 23063.356943530674, 83139.95100736035, 43611.18151082772, 49095.651399570874, 34100.08956194992, 73544.97296154177, 0.076, 0.934, 0.176, 192.0, 0.0, 0.0, 0.0, 0.0, 0.0, 0.0, 0.0, 0.0, 0.0, 1.6665571156218784E9, 0.0, 2022-10-23 13:31:55.621
67.0, -82172.32163814564, -119081.06435311609, 23221.629646018704, 83140.68861492738, 43610.19803407169, 49101.08287347351, 34237.843363027976, 73647.72393080282, 0.062, 0.936, 0.17400000000000002, 192.0, 1.0, 240.0, 29.0, 64.0, 5.0, 112.0, 0.0, 0.0, 0.0, 1.66655711562208E9, 0.0, 2022-10-23 13:31:55.622
68.0, -82162.59862930758, -119068.30150703211, 23405.182171485685, 83144.26489404021, 43614.93660389622, 49096.43371062681, 34315.40391628789, 73662.54313737669, 0.062, 0.936, 0.17400000000000002, 192.0, 0.0, 0.0, 0.0, 0.0, 0.0, 0.0, 0.0, 0.0, 0.0, 1.6665571156221E9, 0.0, 2022-10-23 13:31:55.622
69.0, -82159.06705368366, -119067.18391980934, 23263.315649427852, 83142.20853355034, 43614.2436998181, 49082.62033255343, 34161.95919060221, 73556.57351691408, 0.062, 0.936, 0.17400000000000002, 192.0, 0.0, 0.0, 0.0, 0.0, 0.0, 0.0, 0.0, 0.0, 0.0, 1.666557115622115E9, 0.0, 2022-10-23 13:31:55.622
70.0, -82170.4440916114, -119077.39866702541, 23086.22277810845, 83134.81010613563, 43605.682981691716, 49080.340454618985, 34092.624079301844, 73533.48416489175, 0.062, 0.936, 0.17400000000000002, 192.0, 0.0, 0.0, 0.0, 0.0, 0.0, 0.0, 0.0, 0.0, 0.0, 1.6665571156221287E9, 0.0, 2022-10-23 13:31:55.622
71.0, -82178.98245799333, -119084.08183861755, 23163.135130779163, 83138.38638524848, 43608.20872881517, 49096.590172838, 34187.641344981355, 73619.06899441112, 0.062, 0.936, 0.17400000000000002, 192.0, 0.0, 0.0, 0.0, 0.0, 0.0, 0.0, 0.0, 0.0, 0.0, 1.6665571156221433E9, 0.0, 2022-10-23 13:31:55.622
72.0, -82181.3964463945, -119083.63480372845, 23453.30547729796, 83127.18816127637, 43597.90457462127, 49096.14313794889, 34339.32028285507, 73687.51003593327, 0.062, 0.936, 0.17400000000000002, 192.0, 0.0, 0.0, 0.0, 0.0, 0.0, 0.0, 0.0, 0.0, 0.0, 1.666557115622157E9, 0.0, 2022-10-23 13:31:55.622
73.0, -82155.35666410407, -119057.84089062702, 23455.16067208775, 83137.80523989264, 43609.14750208229, 49098.19949843878, 34255.92592429232, 73613.14578213046, 0.062, 0.936, 0.17400000000000002, 192.0, 0.0, 0.0, 0.0, 0.0, 0.0, 0.0, 0.0, 0.0, 0.0, 1.6665571156221704E9, 0.0, 2022-10-23 13:31:55.622
74.0, -82145.32073084364, -119051.91767834636, 23305.403984237193, 83144.33194927359, 43615.9424323967, 49105.307353175565, 34172.397455262835, 73571.6162409325, 0.062, 0.936, 0.17400000000000002, 192.0, 0.0, 0.0, 0.0, 0.0, 0.0, 0.0, 0.0, 0.0, 0.0, 1.666557115622186E9, 0.0, 2022-10-23 13:31:55.622
75.0, -82151.91449545795, -119057.66207667137, 23302.677071413647, 83154.50199300075, 43624.570205756456, 49118.20430972628, 34224.6781855438, 73627.16032590394, 0.062, 0.936, 0.17400000000000002, 192.0, 0.0, 0.0, 0.0, 0.0, 0.0, 0.0, 0.0, 0.0, 0.0, 1.6665571156223755E9, 0.0, 2022-10-23 13:31:55.622
76.0, -82168.63360031052, -119077.64453621443, 23565.958269352708, 83154.81491742312, 43625.82190344595, 49131.458894188276, 34382.19092872035, 73706.64312918701, 0.048, 0.9460000000000001, 0.17, 192.0, 1.0, 128.0, 29.0, 144.0, 5.0, 80.0, 0.0, 0.0, 0.0, 1.666557115622391E9, 0.0, 2022-10-23 13:31:55.622
77.0, -82169.23709741082, -119080.41615252689, 23485.491989313603, 83154.39023427847, 43624.72666796764, 49113.01870501265, 34254.584819625, 73592.49277025375, 0.048, 0.9460000000000001, 0.17, 192.0, 0.0, 0.0, 0.0, 0.0, 0.0, 0.0, 0.0, 0.0, 0.0, 1.6665571156224062E9, 0.0, 2022-10-23 13:31:55.622
78.0, -82163.80562350817, -119072.5036349897, 23249.234050421008, 83153.876144156, 43624.32433656744, 49107.52017587664, 34104.82813177444, 73525.4598886323, 0.048, 0.9460000000000001, 0.17, 192.0, 0.0, 0.0, 0.0, 0.0, 0.0, 0.0, 0.0, 0.0, 0.0, 1.6665571156224203E9, 0.0, 2022-10-23 13:31:55.622
79.0, -82172.20987942338, -119083.03130662815, 23175.138017551664, 83155.28430405668, 43627.38652555782, 49118.6960481043, 34133.594826888424, 73580.15460731443, 0.048, 0.9460000000000001, 0.17, 192.0, 0.0, 0.0, 0.0, 0.0, 0.0, 0.0, 0.0, 0.0, 0.0, 1.6665571156224344E9, 0.0, 2022-10-23 13:31:55.622
80.0, -82180.70354231639, -119090.65325148741, 23450.623267963325, 83145.49423998526, 43617.32824055293, 49111.05175150058, 34322.86939893597, 73685.07369578764, 0.048, 0.9460000000000001, 0.17, 192.0, 0.0, 0.0, 0.0, 0.0, 0.0, 0.0, 0.0, 0.0, 0.0, 1.6665571156224482E9, 0.0, 2022-10-23 13:31:55.622
81.0, -82168.45478635488, -119075.34230653553, 23434.150032299764, 83143.1696585619, 43619.876339420836, 49099.026512983626, 34247.476964888214, 73593.67741270989, 0.048, 0.9460000000000001, 0.17, 192.0, 0.0, 0.0, 0.0, 0.0, 0.0, 0.0, 0.0, 0.0, 0.0, 1.6665571156224623E9, 0.0, 2022-10-23 13:31:55.622
75.0, -82956.24201968218, -119475.48323577443, 29134.090737592072, 83312.2159018774, 43440.23536923354, 48999.33773271296, 34671.08722580519, 72525.0181585572, 0.048, 0.9460000000000001, 0.17, 192.0, 0.0, 0.0, 0.0, 0.0, 0.0, 0.0, 0.0, 0.0, 0.0, 1.666557115622534E9, 0.0, 2022-10-23 13:31:55.622
76.0, -82916.5229697851, -119441.32977024672, 29298.309004105213, 83327.8174195072, 43460.24018052104, 49015.45334046523, 34755.1521367016, 72534.49529820625, 0.048, 0.9460000000000001, 0.17, 192.0, 0.0, 0.0, 0.0, 0.0, 0.0, 0.0, 0.0, 0.0, 0.0, 1.6665571156225483E9, 0.0, 2022-10-23 13:31:55.622
77.0, -82893.29950729603, -119422.0402147818, 29112.454248959333, 83331.50545734233, 43465.850468379314, 49022.20356729074, 34594.77837023477, 72444.90950642938, 0.048, 0.9460000000000001, 0.17, 192.0, 0.0, 0.0, 0.0, 0.0, 0.0, 0.0, 0.0, 0.0, 0.0, 1.6665571156225622E9, 0.0, 2022-10-23 13:31:55.622
78.0, -82889.90204213883, -119421.16849674804, 28877.693876945246, 83335.75228878883, 43466.632779435255, 49028.23853829367, 34505.84077904711, 72436.68406446982, 0.048, 0.9460000000000001, 0.17, 192.0, 0.0, 0.0, 0.0, 0.0, 0.0, 0.0, 0.0, 0.0, 0.0, 1.6665571156225755E9, 0.0, 2022-10-23 13:31:55.622
79.0, -82890.63964970584, -119423.26956072684, 28965.603287887967, 83339.44032662397, 43464.397604989725, 49031.904224384336, 34626.04846072775, 72537.57983894108, 0.048, 0.9460000000000001, 0.17, 192.0, 0.0, 0.0, 0.0, 0.0, 0.0, 0.0, 0.0, 0.0, 0.0, 1.6665571156225893E9, 0.0, 2022-10-23 13:31:55.622
80.0, -82883.15181531332, -119418.6874531135, 29183.689258538398, 83335.86404751112, 43461.1566020437, 49024.3716865029, 34752.76050004488, 72574.79549345917, 0.048, 0.9460000000000001, 0.17, 192.0, 0.0, 0.0, 0.0, 0.0, 0.0, 0.0, 0.0, 0.0, 0.0, 1.6665571156226027E9, 0.0, 2022-10-23 13:31:55.622
81.0, -82869.1149197954, -119406.19282796298, 29050.74108251823, 83337.65218706754, 43465.112860812296, 49023.65643068033, 34619.253530413334, 72484.360335393, 0.048, 0.9460000000000001, 0.17, 192.0, 0.0, 0.0, 0.0, 0.0, 0.0, 0.0, 0.0, 0.0, 0.0, 1.6665571156226163E9, 0.0, 2022-10-23 13:31:55.622
82.0, -82868.1090912949, -119403.89059828408, 28850.491803943136, 83339.66384406852, 43466.78924164644, 49032.55242497354, 34545.82804987765, 72477.11837018948, 0.046, 0.9420000000000001, 0.17, 192.0, 1.0, 112.0, 29.0, 112.0, 5.0, 80.0, 0.0, 0.0, 0.0, 1.6665571156226296E9, 0.0, 2022-10-23 13:31:55.622
83.0, -82875.9098501098, -119417.10047925718, 28857.28673425755, 83330.67844279748, 43449.779564115954, 49025.6233841924, 34618.18064667948, 72538.69742616385, 0.046, 0.9420000000000001, 0.17, 192.0, 0.0, 0.0, 0.0, 0.0, 0.0, 0.0, 0.0, 0.0, 0.0, 1.666557115622664E9, 0.0, 2022-10-23 13:31:55.622
84.0, -82869.18197502875, -119418.35217694668, 29086.593280624544, 83326.43161135097, 43442.76111635699, 49018.11319805541, 34756.87322102466, 72588.89944421047, 0.046, 0.9420000000000001, 0.17, 192.0, 0.0, 0.0, 0.0, 0.0, 0.0, 0.0, 0.0, 0.0, 0.0, 1.666557115622678E9, 0.0, 2022-10-23 13:31:55.622
85.0, -82847.34432069592, -119392.08887721169, 28996.180474302826, 83342.70368131444, 43462.989445089035, 49030.69723018375, 34646.12032724862, 72509.79662058313, 0.046, 0.9420000000000001, 0.17, 192.0, 0.0, 0.0, 0.0, 0.0, 0.0, 0.0, 0.0, 0.0, 0.0, 1.6665571156226916E9, 0.0, 2022-10-23 13:31:55.622
86.0, -82838.51538163607, -119384.60104281915, 28764.41523604575, 83348.69394882846, 43467.50449746901, 49036.53103548659, 34525.77853510124, 72476.40311436691, 0.046, 0.9420000000000001, 0.17, 192.0, 0.0, 0.0, 0.0, 0.0, 0.0, 0.0, 0.0, 0.0, 0.0, 1.6665571156227157E9, 0.0, 2022-10-23 13:31:55.622
87.0, -82836.57077986846, -119386.90327249805, 28705.473685917103, 83348.85041103965, 43466.342206757334, 49049.249178081656, 34569.6103059781, 72544.10654832203, 0.046, 0.9420000000000001, 0.17, 192.0, 0.0, 0.0, 0.0, 0.0, 0.0, 0.0, 0.0, 0.0, 0.0, 1.6665571156227293E9, 0.0, 2022-10-23 13:31:55.622
88.0, -82826.35603265239, -119374.31924036972, 28987.4409422208, 83351.8231930522, 43469.292637025435, 49057.29580608557, 34764.964552517486, 72646.05285478268, 0.046, 0.9420000000000001, 0.17, 192.0, 0.0, 0.0, 0.0, 0.0, 0.0, 0.0, 0.0, 0.0, 0.0, 1.6665571156227431E9, 0.0, 2022-10-23 13:31:55.622
89.0, -82812.36384062337, -119362.91985069751, 28958.11545349544, 83346.7716988053, 43470.834907392855, 49048.28805307008, 34687.851034146675, 72562.01029563074, 0.046, 0.9420000000000001, 0.17, 192.0, 0.0, 0.0, 0.0, 0.0, 0.0, 0.0, 0.0, 0.0, 0.0, 1.6665571156227567E9, 0.0, 2022-10-23 13:31:55.622
90.0, -82812.29678539, -119365.06561816522, 28755.385131285806, 83341.9213702585, 43464.55406720091, 49041.56017798903, 34563.262410552794, 72511.04831827263, 0.046, 0.9420000000000001, 0.17, 192.0, 0.0, 0.0, 0.0, 0.0, 0.0, 0.0, 0.0, 0.0, 0.0, 1.6665571156227708E9, 0.0, 2022-10-23 13:31:55.622
91.0, -82816.63302381433, -119378.11903692712, 28641.32417933037, 83335.86404751112, 43454.00404381801, 49037.648622709356, 34568.67153271098, 72539.54679245315, 0.052000000000000005, 0.9400000000000001, 0.164, 192.0, 1.0, 160.0, 29.0, 96.0, 5.0, 32.0, 0.0, 0.0, 0.0, 1.6665571156227844E9, 0.0, 2022-10-23 13:31:55.622
92.0, -82820.16459943827, -119380.5777288172, 28882.164225836306, 83335.43936436647, 43450.29365423843, 49047.70690771424, 34743.283360395835, 72635.70399709987, 0.052000000000000005, 0.9400000000000001, 0.164, 192.0, 0.0, 0.0, 0.0, 0.0, 0.0, 0.0, 0.0, 0.0, 0.0, 1.6665571156227992E9, 0.0, 2022-10-23 13:31:55.622
93.0, -82804.45132308619, -119359.56708902921, 28899.95621442273, 83338.27803591228, 43456.19451477462, 49043.03539312308, 34701.21737733095, 72570.16868235692, 0.052000000000000005, 0.9400000000000001, 0.164, 192.0, 0.0, 0.0, 0.0, 0.0, 0.0, 0.0, 0.0, 0.0, 0.0, 1.6665571156228127E9, 0.0, 2022-10-23 13:31:55.622
94.0, -82808.92167197725, -119369.89359496757, 28700.15397073674, 83327.39273636256, 43442.76111635699, 49022.69530566875, 34553.91938137047, 72496.69849833232, 0.052000000000000005, 0.9400000000000001, 0.164, 192.0, 0.0, 0.0, 0.0, 0.0, 0.0, 0.0, 0.0, 0.0, 0.0, 1.666557115622826E9, 0.0, 2022-10-23 13:31:55.622
95.0, -82811.11214293387, -119381.60590906214, 28562.8919080367, 83322.14007641556, 43431.31702319587, 49017.33088699948, 34546.6550644225, 72516.12216426399, 0.052000000000000005, 0.9400000000000001, 0.164, 192.0, 0.0, 0.0, 0.0, 0.0, 0.0, 0.0, 0.0, 0.0, 0.0, 1.66655711562284E9, 0.0, 2022-10-23 13:31:55.622
96.0, -82810.28512838902, -119382.09764744015, 28766.158672113263, 83326.83394275117, 43427.15959872718, 49024.39403824735, 34711.052144891284, 72617.53202885772, 0.052000000000000005, 0.9400000000000001, 0.164, 192.0, 0.0, 0.0, 0.0, 0.0, 0.0, 0.0, 0.0, 0.0, 0.0, 1.6665571156228535E9, 0.0, 2022-10-23 13:31:55.622
97.0, -82784.80413970997, -119359.4776820514, 28860.8630133704, 83333.27124515429, 43442.29172972342, 49039.235596565675, 34731.90632246809, 72585.83725522009, 0.052000000000000005, 0.9400000000000001, 0.164, 192.0, 0.0, 0.0, 0.0, 0.0, 0.0, 0.0, 0.0, 0.0, 0.0, 1.6665571156228693E9, 0.0, 2022-10-23 13:31:55.622
98.0, -82766.20748832315, -119343.92086791049, 28688.285194430973, 83342.92719875899, 43455.233389763045, 49051.75257346065, 34589.45865505441, 72516.83742008655, 0.052000000000000005, 0.9400000000000001, 0.164, 192.0, 0.0, 0.0, 0.0, 0.0, 0.0, 0.0, 0.0, 0.0, 0.0, 1.6665571156228836E9, 0.0, 2022-10-23 13:31:55.622
99.0, -82770.3425610474, -119345.99958014484, 28482.135055319675, 83341.02730048029, 43452.26060775049, 49049.69621297076, 34521.174075743445, 72516.94917880883, 0.052000000000000005, 0.9400000000000001, 0.164, 192.0, 0.0, 0.0, 0.0, 0.0, 0.0, 0.0, 0.0, 0.0, 0.0, 1.6665571156229105E9, 0.0, 2022-10-23 13:31:55.622
100.0, -82794.21422412565, -119364.1268448981, 28641.257124097006, 83331.23723640887, 43438.246063977014, 49043.147151845355, 34672.96477233944, 72620.03542423672, 0.052000000000000005, 0.9400000000000001, 0.164, 192.0, 0.0, 0.0, 0.0, 0.0, 0.0, 0.0, 0.0, 0.0, 0.0, 1.666557115622924E9, 0.0, 2022-10-23 13:31:55.622
101.0, -82781.38432280831, -119354.82851920469, 28829.950550788708, 83330.00789046382, 43442.15761925669, 49044.89058791287, 34767.28913394084, 72625.60100860609, 0.048, 0.934, 0.164, 192.0, 1.0, 128.0, 29.0, 48.0, 5.0, 32.0, 0.0, 0.0, 0.0, 1.666557115622938E9, 0.0, 2022-10-23 13:31:55.622
102.0, -82749.91306661523, -119339.91990565299, 28669.15210117723, 83343.0166057368, 43454.607540918296, 49051.93138741629, 34613.33031813268, 72535.34466449555, 0.048, 0.934, 0.164, 192.0, 0.0, 0.0, 0.0, 0.0, 0.0, 0.0, 0.0, 0.0, 0.0, 1.6665571156229525E9, 0.0, 2022-10-23 13:31:55.622
103.0, -82752.14824106077, -119346.98305690088, 28454.44124393955, 83343.03895748127, 43450.58422691634, 49050.70204147125, 34529.82420084765, 72528.59443767005, 0.048, 0.934, 0.164, 192.0, 0.0, 0.0, 0.0, 0.0, 0.0, 0.0, 0.0, 0.0, 0.0, 1.666557115622966E9, 0.0, 2022-10-23 13:31:55.622
104.0, -82779.41736929624, -119365.60206003215, 28522.189381383585, 83326.65512879552, 43434.55802614189, 49045.49408501317, 34633.33512942018, 72616.86147652406, 0.048, 0.934, 0.164, 192.0, 0.0, 0.0, 0.0, 0.0, 0.0, 0.0, 0.0, 0.0, 0.0, 1.6665571156229796E9, 0.0, 2022-10-23 13:31:55.622
105.0, -82776.60104949487, -119358.673019251, 28763.856442434364, 83320.30723337021, 43430.132380739735, 49037.69332619826, 34774.08406425525, 72662.5484421907, 0.048, 0.934, 0.164, 192.0, 0.0, 0.0, 0.0, 0.0, 0.0, 0.0, 0.0, 0.0, 0.0, 1.6665571156229932E9, 0.0, 2022-10-23 13:31:55.622
106.0, -82767.25802031255, -119348.01123714582, 28628.248408824016, 83327.5715503182, 43435.78737208693, 49031.5242447286, 34621.51105660332, 72551.99671411475, 0.048, 0.934, 0.164, 192.0, 0.0, 0.0, 0.0, 0.0, 0.0, 0.0, 0.0, 0.0, 0.0, 1.666557115623007E9, 0.0, 2022-10-23 13:31:55.623
107.0, -82756.19390680718, -119334.60019047263, 28406.295586382817, 83340.91554175802, 43448.08083153735, 49045.51643675762, 34516.5472646412, 72533.71298715031, 0.048, 0.934, 0.164, 192.0, 0.0, 0.0, 0.0, 0.0, 0.0, 0.0, 0.0, 0.0, 0.0, 1.666557115623021E9, 0.0, 2022-10-23 13:31:55.623
108.0, -82756.26096204054, -119336.45538526242, 28420.28777841184, 83345.922332516, 43455.05457580741, 49065.99063467868, 34605.82013199569, 72616.79442129069, 0.048, 0.934, 0.164, 192.0, 0.0, 0.0, 0.0, 0.0, 0.0, 0.0, 0.0, 0.0, 0.0, 1.6665571156230345E9, 0.0, 2022-10-23 13:31:55.623
109.0, -82750.65067418227, -119335.7177776954, 28706.88184581779, 83345.18472494898, 43455.47925895206, 49072.450288826265, 34796.27934649937, 72695.22669258436, 0.048, 0.934, 0.164, 192.0, 0.0, 0.0, 0.0, 0.0, 0.0, 0.0, 0.0, 0.0, 0.0, 1.666557115623048E9, 0.0, 2022-10-23 13:31:55.623
110.0, -82735.33972923037, -119326.24063804635, 28632.51759201498, 83340.24498942435, 43454.249913007014, 49061.98967242118, 34686.442874245986, 72595.89554022498, 0.048, 0.934, 0.164, 192.0, 0.0, 0.0, 0.0, 0.0, 0.0, 0.0, 0.0, 0.0, 0.0, 1.6665571156230617E9, 0.0, 2022-10-23 13:31:55.623
111.0, -82734.80328736345, -119328.18523981396, 28429.139069216144, 83339.23916092387, 43451.47829669456, 49055.462963040234, 34571.64431472353, 72562.14440609746, 0.052000000000000005, 0.9460000000000001, 0.168, 192.0, 1.0, 160.0, 29.0, 144.0, 5.0, 64.0, 0.0, 0.0, 0.0, 1.666557115623075E9, 0.0, 2022-10-23 13:31:55.623
112.0, -82740.72649964411, -119334.95781838392, 28383.09447563821, 83337.74159404536, 43444.37044195777, 49056.80406770755, 34620.862856014115, 72614.98392998982, 0.052000000000000005, 0.9460000000000001, 0.168, 192.0, 0.0, 0.0, 0.0, 0.0, 0.0, 0.0, 0.0, 0.0, 0.0, 1.6665571156230896E9, 0.0, 2022-10-23 13:31:55.623
113.0, -82734.19979026316, -119329.45928924791, 28654.198784136628, 83335.93110274448, 43439.78833434443, 49068.739899246684, 34802.761352391404, 72710.62704451407, 0.052000000000000005, 0.9460000000000001, 0.168, 192.0, 0.0, 0.0, 0.0, 0.0, 0.0, 0.0, 0.0, 0.0, 0.0, 1.6665571156231031E9, 0.0, 2022-10-23 13:31:55.623
114.0, -82727.15899075974, -119327.1123560801, 28658.691484772145, 83331.61721606461, 43438.246063977014, 49056.66995724082, 34745.809107519286, 72644.26471522627, 0.052000000000000005, 0.9460000000000001, 0.168, 192.0, 0.0, 0.0, 0.0, 0.0, 0.0, 0.0, 0.0, 0.0, 0.0, 1.6665571156231291E9, 0.0, 2022-10-23 13:31:55.623
115.0, -82725.46025818113, -119332.81205091621, 28463.761921377412, 83331.08077419768, 43438.20136048811, 49054.16656186182, 34607.85414074113, 72587.53598779869, 0.052000000000000005, 0.9460000000000001, 0.168, 192.0, 0.0, 0.0, 0.0, 0.0, 0.0, 0.0, 0.0, 0.0, 0.0, 1.6665571156231427E9, 0.0, 2022-10-23 13:31:55.623
116.0, -82739.92183684371, -119349.32999006868, 28344.31419900825, 83315.09927691214, 43419.18002595664, 49041.00138437765, 34602.93675696096, 72607.7866682752, 0.052000000000000005, 0.9460000000000001, 0.168, 192.0, 0.0, 0.0, 0.0, 0.0, 0.0, 0.0, 0.0, 0.0, 0.0, 1.6665571156231563E9, 0.0, 2022-10-23 13:31:55.623
117.0, -82723.51565641352, -119337.26004806282, 28579.678068122634, 83331.14782943104, 43425.50556963749, 49050.925558915806, 34777.10154975671, 72706.49197178984, 0.052000000000000005, 0.9460000000000001, 0.168, 192.0, 0.0, 0.0, 0.0, 0.0, 0.0, 0.0, 0.0, 0.0, 0.0, 1.66655711562317E9, 0.0, 2022-10-23 13:31:55.623
118.0, -82704.80724630442, -119319.9597978544, 28644.922810187676, 83340.89319001355, 43438.29076746592, 49052.78075370559, 34772.27357295437, 72662.36962823506, 0.052000000000000005, 0.9460000000000001, 0.168, 192.0, 0.0, 0.0, 0.0, 0.0, 0.0, 0.0, 0.0, 0.0, 0.0, 1.6665571156231852E9, 0.0, 2022-10-23 13:31:55.623
119.0, -82700.0686764799, -119316.09294606364, 28453.189546250054, 83336.19932367794, 43440.905921567195, 49054.79241070657, 34621.019318225306, 72585.94901394237, 0.052000000000000005, 0.9460000000000001, 0.168, 192.0, 0.0, 0.0, 0.0, 0.0, 0.0, 0.0, 0.0, 0.0, 0.0, 1.6665571156231987E9, 0.0, 2022-10-23 13:31:55.623
120.0, -82698.45935087911, -119317.56816119769, 28278.73418077638, 83337.94275974545, 43443.02933729045, 49064.85069571146, 34580.47325378338, 72593.54860705718, 0.05, 0.9420000000000001, 0.17, 192.0, 1.0, 144.0, 29.0, 112.0, 5.0, 80.0, 0.0, 0.0, 0.0, 1.6665571156232123E9, 0.0, 2022-10-23 13:31:55.623
121.0, -82692.02204847599, -119316.07059431919, 28454.843575339746, 83341.16141094702, 43442.93993031263, 49069.656320769354, 34731.816915490264, 72699.69704147543, 0.05, 0.9420000000000001, 0.17, 192.0, 0.0, 0.0, 0.0, 0.0, 0.0, 0.0, 0.0, 0.0, 0.0, 1.666557115623227E9, 0.0, 2022-10-23 13:31:55.623
122.0, -82698.23583343456, -119320.33977751015, 28623.46513551058, 83327.169218918, 43432.32285169636, 49060.71562298723, 34808.23752978296, 72690.37636403757, 0.05, 0.9420000000000001, 0.17, 192.0, 0.0, 0.0, 0.0, 0.0, 0.0, 0.0, 0.0, 0.0, 0.0, 1.6665571156232405E9, 0.0, 2022-10-23 13:31:55.623
123.0, -82690.72564729759, -119305.78879186974, 28436.53749663085, 83335.05938471072, 43444.325738468855, 49070.483335314195, 34641.47116440191, 72588.07242966563, 0.05, 0.9420000000000001, 0.17, 192.0, 0.0, 0.0, 0.0, 0.0, 0.0, 0.0, 0.0, 0.0, 0.0, 1.6665571156232543E9, 0.0, 2022-10-23 13:31:55.623
124.0, -82680.80147275943, -119296.13283826505, 28230.45441275292, 83340.49085861337, 43448.25964549299, 49083.58145756501, 34574.237117080345, 72590.10643841105, 0.05, 0.9420000000000001, 0.17, 192.0, 0.0, 0.0, 0.0, 0.0, 0.0, 0.0, 0.0, 0.0, 0.0, 1.6665571156232677E9, 0.0, 2022-10-23 13:31:55.623
125.0, -82679.14744366973, -119299.910283078, 28335.954646581966, 83343.12836445909, 43443.31990996837, 49085.034320954604, 34695.5400342393, 72690.46577101538, 0.05, 0.9420000000000001, 0.17, 192.0, 0.0, 0.0, 0.0, 0.0, 0.0, 0.0, 0.0, 0.0, 0.0, 1.6665571156232812E9, 0.0, 2022-10-23 13:31:55.623
126.0, -82688.75869378552, -119314.14834429603, 28547.290390406895, 83329.51615208581, 43424.7009068371, 49059.06159389754, 34812.30554727382, 72706.42491655647, 0.05, 0.9420000000000001, 0.17, 192.0, 0.0, 0.0, 0.0, 0.0, 0.0, 0.0, 0.0, 0.0, 0.0, 1.6665571156232948E9, 0.0, 2022-10-23 13:31:55.623
127.0, -82675.03472268996, -119302.81600985718, 28394.29269961032, 83332.51128584282, 43429.305366194894, 49057.65343399685, 34657.09503377617, 72598.17541815942, 0.05, 0.9420000000000001, 0.17, 192.0, 0.0, 0.0, 0.0, 0.0, 0.0, 0.0, 0.0, 0.0, 0.0, 1.6665571156233084E9, 0.0, 2022-10-23 13:31:55.623
128.0, -82671.77136799948, -119301.89958833452, 28176.0502667487, 83329.96318697491, 43426.04201150442, 49060.31329158703, 34565.139957087034, 72582.84212146308, 0.05, 0.9420000000000001, 0.17, 192.0, 0.0, 0.0, 0.0, 0.0, 0.0, 0.0, 0.0, 0.0, 0.0, 1.666557115623322E9, 0.0, 2022-10-23 13:31:55.623
129.0, -82674.07359767838, -119307.15224828152, 28212.81888637768, 83328.51032358532, 43418.12949396724, 49059.91096018684, 34653.04936802976, 72656.69228514342, 0.05, 0.9420000000000001, 0.17, 192.0, 0.0, 0.0, 0.0, 0.0, 0.0, 0.0, 0.0, 0.0, 0.0, 1.6665571156233358E9, 0.0, 2022-10-23 13:31:55.623
130.0, -82678.02985644697, -119317.43405073095, 28459.179813764076, 83311.74651524384, 43401.20922341457, 49044.28709081258, 34801.107323301716, 72708.52598053527, 0.054, 0.934, 0.16, 192.0, 1.0, 176.0, 29.0, 48.0, 5.0, 0.0, 0.0, 0.0, 0.0, 1.666557115623362E9, 0.0, 2022-10-23 13:31:55.623
131.0, -82649.41962354418, -119284.46522765938, 28371.069237121254, 83329.04676545225, 43420.699944579595, 49057.18404736329, 34688.52158648033, 72623.29877892719, 0.054, 0.934, 0.16, 192.0, 0.0, 0.0, 0.0, 0.0, 0.0, 0.0, 0.0, 0.0, 0.0, 1.6665571156233768E9, 0.0, 2022-10-23 13:31:55.623
132.0, -82637.01440537148, -119279.72665783485, 28146.210687900864, 83344.04478598175, 43442.850523334804, 49083.96143722075, 34574.48298626936, 72592.60983379005, 0.054, 0.934, 0.16, 192.0, 0.0, 0.0, 0.0, 0.0, 0.0, 0.0, 0.0, 0.0, 0.0, 1.6665571156233904E9, 0.0, 2022-10-23 13:31:55.623
133.0, -82640.68009146216, -119284.77815208175, 28132.151440638478, 83347.5763616057, 43440.19066574462, 49097.618353082944, 34649.249571472355, 72660.91676484546, 0.054, 0.934, 0.16, 192.0, 0.0, 0.0, 0.0, 0.0, 0.0, 0.0, 0.0, 0.0, 0.0, 1.6665571156234045E9, 0.0, 2022-10-23 13:31:55.623
134.0, -82644.47988801956, -119286.7004021049, 28407.63669105014, 83346.39171914956, 43435.85442732029, 49100.65819032886, 34834.50082951794, 72734.99044597035, 0.054, 0.934, 0.16, 192.0, 0.0, 0.0, 0.0, 0.0, 0.0, 0.0, 0.0, 0.0, 0.0, 1.666557115623418E9, 0.0, 2022-10-23 13:31:55.623
135.0, -82652.75003346802, -119293.87531207506, 28359.423978260038, 83328.28680614076, 43423.67272659215, 49073.791393493586, 34741.11524118367, 72629.31139818566, 0.054, 0.934, 0.16, 192.0, 0.0, 0.0, 0.0, 0.0, 0.0, 0.0, 0.0, 0.0, 0.0, 1.6665571156234322E9, 0.0, 2022-10-23 13:31:55.623
136.0, -82637.61790247177, -119279.23491945684, 28148.937600724414, 83339.23916092387, 43436.5026279095, 49086.88951574439, 34609.30700413072, 72586.48545580929, 0.054, 0.934, 0.16, 192.0, 0.0, 0.0, 0.0, 0.0, 0.0, 0.0, 0.0, 0.0, 0.0, 1.6665571156234457E9, 0.0, 2022-10-23 13:31:55.623
137.0, -82630.08536459034, -119273.57992810964, 28056.289619957166, 83347.24108543886, 43440.52594191145, 49095.07025421504, 34631.09995497465, 72649.15974726198, 0.054, 0.934, 0.16, 192.0, 0.0, 0.0, 0.0, 0.0, 0.0, 0.0, 0.0, 0.0, 0.0, 1.6665571156234596E9, 0.0, 2022-10-23 13:31:55.623
138.0, -82634.5557134814, -119281.62655611355, 28313.357032937653, 83344.49182087086, 43432.07698250735, 49091.315161146544, 34814.160742063614, 72748.55795485472, 0.054, 0.934, 0.16, 192.0, 0.0, 0.0, 0.0, 0.0, 0.0, 0.0, 0.0, 0.0, 0.0, 1.6665571156234736E9, 0.0, 2022-10-23 13:31:55.623
139.0, -82629.97360586806, -119273.31170717618, 28323.594131898182, 83339.26151266832, 43426.31023243788, 49071.01977718112, 34764.29400018382, 72671.64560218401, 0.054, 0.934, 0.16, 192.0, 0.0, 0.0, 0.0, 0.0, 0.0, 0.0, 0.0, 0.0, 0.0, 1.6665571156234891E9, 0.0, 2022-10-23 13:31:55.623
140.0, -82620.40705924119, -119274.25048044331, 28112.370146795532, 83339.66384406852, 43428.9030347947, 49074.2831318716, 34614.60436756663, 72606.82554326362, 0.05, 0.9440000000000001, 0.164, 192.0, 1.0, 144.0, 29.0, 128.0, 5.0, 32.0, 0.0, 0.0, 0.0, 1.6665571156235027E9, 0.0, 2022-10-23 13:31:55.623
141.0, -82608.67239340216, -119276.70917233339, 27976.940927140826, 83339.14975394604, 43428.7018690946, 49091.09164370199, 34613.19620766595, 72641.02371228025, 0.05, 0.9440000000000001, 0.164, 192.0, 0.0, 0.0, 0.0, 0.0, 0.0, 0.0, 0.0, 0.0, 0.0, 1.6665571156235173E9, 0.0, 2022-10-23 13:31:55.623
142.0, -82639.22722807256, -119299.95498656691, 28208.147371786523, 83326.83394275117, 43410.64165957471, 49085.39194886589, 34793.12775053117, 72738.47731810539, 0.05, 0.9440000000000001, 0.164, 192.0, 0.0, 0.0, 0.0, 0.0, 0.0, 0.0, 0.0, 0.0, 0.0, 1.6665571156235309E9, 0.0, 2022-10-23 13:31:55.623
143.0, -82637.32732979386, -119290.12021900657, 28339.17329778353, 83322.90003572703, 43408.6970578071, 49071.265646370135, 34838.68060573108, 72703.54154152174, 0.05, 0.9440000000000001, 0.164, 192.0, 0.0, 0.0, 0.0, 0.0, 0.0, 0.0, 0.0, 0.0, 0.0, 1.6665571156235445E9, 0.0, 2022-10-23 13:31:55.623
144.0, -82611.08638180332, -119265.19802393891, 28141.18154539842, 83342.70368131444, 43426.04201150442, 49079.5357918186, 34672.897717106076, 72611.49705785478, 0.05, 0.9440000000000001, 0.164, 192.0, 0.0, 0.0, 0.0, 0.0, 0.0, 0.0, 0.0, 0.0, 0.0, 1.6665571156235583E9, 0.0, 2022-10-23 13:31:55.623
145.0, -82609.74527713601, -119270.58479435263, 27938.741795866707, 83343.35188190364, 43421.92929052464, 49080.51926857463, 34611.5198268318, 72622.36000566007, 0.05, 0.9440000000000001, 0.164, 192.0, 0.0, 0.0, 0.0, 0.0, 0.0, 0.0, 0.0, 0.0, 0.0, 1.6665571156235845E9, 0.0, 2022-10-23 13:31:55.623
146.0, -82605.58785266732, -119270.22716644136, 28087.827931383603, 83344.2235999374, 43419.06826723436, 49093.95266699227, 34754.459232623485, 72725.55800981022, 0.05, 0.9440000000000001, 0.164, 192.0, 0.0, 0.0, 0.0, 0.0, 0.0, 0.0, 0.0, 0.0, 0.0, 1.666557115623598E9, 0.0, 2022-10-23 13:31:55.623
147.0, -82604.69378288911, -119263.58869833812, 28225.425270250475, 83336.69106205596, 43414.888491021215, 49083.87203024293, 34808.25988152741, 72722.27230337528, 0.05, 0.9440000000000001, 0.164, 192.0, 0.0, 0.0, 0.0, 0.0, 0.0, 0.0, 0.0, 0.0, 0.0, 1.666557115623612E9, 0.0, 2022-10-23 13:31:55.623
148.0, -82600.62576539825, -119259.78890178072, 28069.74537011926, 83333.31594864321, 43414.08382822083, 49073.45611732675, 34663.19706001247, 72638.45326166788, 0.05, 0.9440000000000001, 0.164, 192.0, 0.0, 0.0, 0.0, 0.0, 0.0, 0.0, 0.0, 0.0, 0.0, 1.6665571156236255E9, 0.0, 2022-10-23 13:31:55.623
149.0, -82595.998954296, -119257.46432035737, 27880.47079807172, 83335.37230913309, 43413.3462206538, 49076.853582483964, 34604.300213372735, 72626.65154059549, 0.05, 0.9440000000000001, 0.164, 192.0, 0.0, 0.0, 0.0, 0.0, 0.0, 0.0, 0.0, 0.0, 0.0, 1.6665571156236389E9, 0.0, 2022-10-23 13:31:55.623
150.0, -82591.3944949382, -119255.22914591184, 27962.993438600715, 83343.88832377057, 43416.05078173289, 49086.218963410734, 34714.695479237496, 72711.00702416981, 0.052000000000000005, 0.9480000000000001, 0.162, 192.0, 1.0, 160.0, 29.0, 160.0, 5.0, 16.0, 0.0, 0.0, 0.0, 1.6665571156236522E9, 0.0, 2022-10-23 13:31:55.623
151.0, -82590.63453562673, -119256.07851220114, 28169.61296434557, 83338.3674428901, 43409.47936886303, 49080.74278601918, 34827.303567803334, 72733.60463781413, 0.052000000000000005, 0.9480000000000001, 0.162, 192.0, 0.0, 0.0, 0.0, 0.0, 0.0, 0.0, 0.0, 0.0, 0.0, 1.6665571156236668E9, 0.0, 2022-10-23 13:31:55.623
152.0, -82577.06702674234, -119245.52848881824, 28024.036052708158, 83338.83682952367, 43420.275261434945, 49088.78941402309, 34675.110539807145, 72634.58640987711, 0.052000000000000005, 0.9480000000000001, 0.162, 192.0, 0.0, 0.0, 0.0, 0.0, 0.0, 0.0, 0.0, 0.0, 0.0, 1.66655711562368E9, 0.0, 2022-10-23 13:31:55.623
153.0, -82580.57625062183, -119255.18444242293, 27813.4155647058, 83335.52877134428, 43416.095485221806, 49085.727225032715, 34585.480044541364, 72622.69528182689, 0.052000000000000005, 0.9480000000000001, 0.162, 192.0, 0.0, 0.0, 0.0, 0.0, 0.0, 0.0, 0.0, 0.0, 0.0, 1.666557115623694E9, 0.0, 2022-10-23 13:31:55.623
154.0, -82587.5946983808, -119262.80638728218, 27824.770250889094, 83332.37717537608, 43406.01484847246, 49083.223829653725, 34663.57703966821, 72695.38315479555, 0.052000000000000005, 0.9480000000000001, 0.162, 192.0, 0.0, 0.0, 0.0, 0.0, 0.0, 0.0, 0.0, 0.0, 0.0, 1.6665571156237135E9, 0.0, 2022-10-23 13:31:55.623
155.0, -82580.15156747718, -119255.85499475659, 28068.69483812986, 83332.89126549856, 43408.51824385145, 49081.21217265275, 34816.77589616489, 72757.56570787022, 0.052000000000000005, 0.9480000000000001, 0.162, 192.0, 0.0, 0.0, 0.0, 0.0, 0.0, 0.0, 0.0, 0.0, 0.0, 1.6665571156237278E9, 0.0, 2022-10-23 13:31:55.623
156.0, -82569.71330281656, -119249.28358188673, 27970.25775554869, 83327.8174195072, 43405.97014498355, 49065.65535851185, 34693.39426677159, 72656.46876769885, 0.052000000000000005, 0.9480000000000001, 0.162, 192.0, 0.0, 0.0, 0.0, 0.0, 0.0, 0.0, 0.0, 0.0, 0.0, 1.6665571156237411E9, 0.0, 2022-10-23 13:31:55.623
157.0, -82571.97082900653, -119244.83558474013, 27777.809235788496, 83329.73966953036, 43407.758284539974, 49081.36863486393, 34601.03685868226, 72629.95959877486, 0.052000000000000005, 0.9480000000000001, 0.162, 192.0, 0.0, 0.0, 0.0, 0.0, 0.0, 0.0, 0.0, 0.0, 0.0, 1.6665571156237552E9, 0.0, 2022-10-23 13:31:55.623
158.0, -82571.00970399496, -119244.07562542864, 27730.33413056542, 83340.91554175802, 43415.98372649953, 49100.52407986213, 34653.161126752035, 72693.99734663933, 0.052000000000000005, 0.9480000000000001, 0.162, 192.0, 0.0, 0.0, 0.0, 0.0, 0.0, 0.0, 0.0, 0.0, 0.0, 1.666557115623769E9, 0.0, 2022-10-23 13:31:55.623
159.0, -82567.36636964875, -119242.51100331677, 28005.104125154514, 83341.74255630285, 43414.486159621025, 49105.12853921992, 34842.88273368868, 72781.86205409313, 0.048, 0.9400000000000001, 0.162, 192.0, 1.0, 128.0, 29.0, 96.0, 5.0, 16.0, 0.0, 0.0, 0.0, 1.6665571156237829E9, 0.0, 2022-10-23 13:31:55.623
160.0, -82552.65892179715, -119230.8433927111, 27967.48613923623, 83337.33926264517, 43416.27429917745, 49094.109129203454, 34760.49420362642, 72677.4570557424, 0.048, 0.9400000000000001, 0.162, 192.0, 0.0, 0.0, 0.0, 0.0, 0.0, 0.0, 0.0, 0.0, 0.0, 1.666557115623797E9, 0.0, 2022-10-23 13:31:55.623
161.0, -82547.16039266114, -119229.61404676606, 27765.471072849166, 83337.11574520062, 43416.07313347735, 49092.20923092476, 34632.91044627553, 72623.61170334955, 0.048, 0.9400000000000001, 0.162, 192.0, 0.0, 0.0, 0.0, 0.0, 0.0, 0.0, 0.0, 0.0, 0.0, 1.6665571156238244E9, 0.0, 2022-10-23 13:31:55.623
162.0, -82548.27797988392, -119231.06691015566, 27633.305207884936, 83344.4694691264, 43416.87779627774, 49101.261687429156, 34624.55089384924, 72656.98285782133, 0.048, 0.9400000000000001, 0.162, 192.0, 0.0, 0.0, 0.0, 0.0, 0.0, 0.0, 0.0, 0.0, 0.0, 1.666557115623838E9, 0.0, 2022-10-23 13:31:55.623
163.0, -82558.96211373355, -119242.10867191658, 27856.08504487098, 83335.28290215528, 43406.663049061666, 49105.12853921992, 34785.863433583196, 72753.52004212381, 0.048, 0.9400000000000001, 0.162, 192.0, 0.0, 0.0, 0.0, 0.0, 0.0, 0.0, 0.0, 0.0, 0.0, 1.6665571156238515E9, 0.0, 2022-10-23 13:31:55.623
164.0, -82562.58309633531, -119242.17572714994, 27918.535818879107, 83325.0681549392, 43407.557118839875, 49098.91475426135, 34781.01310503639, 72704.94970142242, 0.048, 0.9400000000000001, 0.162, 192.0, 0.0, 0.0, 0.0, 0.0, 0.0, 0.0, 0.0, 0.0, 0.0, 1.666557115623865E9, 0.0, 2022-10-23 13:31:55.623
165.0, -82542.35476760326, -119225.45662229737, 27739.185421369722, 83334.63470156607, 43415.06730497686, 49100.50172811768, 34646.05327201525, 72643.30359021468, 0.048, 0.9400000000000001, 0.162, 192.0, 0.0, 0.0, 0.0, 0.0, 0.0, 0.0, 0.0, 0.0, 0.0, 1.6665571156238785E9, 0.0, 2022-10-23 13:31:55.623
166.0, -82528.94372093007, -119216.40416579296, 27558.091587792827, 83342.8154400367, 43417.66010733368, 49105.28500143111, 34602.57912904968, 72652.55721241918, 0.048, 0.9400000000000001, 0.162, 192.0, 0.0, 0.0, 0.0, 0.0, 0.0, 0.0, 0.0, 0.0, 0.0, 1.6665571156238928E9, 0.0, 2022-10-23 13:31:55.623
167.0, -82544.90286647117, -119232.76564273426, 27748.528450552043, 83336.53459984477, 43403.26558390446, 49100.00998973966, 34761.85766003819, 72747.48507112087, 0.048, 0.9400000000000001, 0.162, 192.0, 0.0, 0.0, 0.0, 0.0, 0.0, 0.0, 0.0, 0.0, 0.0, 1.6665571156239064E9, 0.0, 2022-10-23 13:31:55.623
168.0, -82542.28771236989, -119230.26224735526, 27890.685545287794, 83330.00789046382, 43401.611554814765, 49094.757329792665, 34821.69327994505, 72724.97686445438, 0.048, 0.9400000000000001, 0.162, 192.0, 0.0, 0.0, 0.0, 0.0, 0.0, 0.0, 0.0, 0.0, 0.0, 1.66655711562392E9, 0.0, 2022-10-23 13:31:55.623
169.0, -82522.5287702714, -119216.5382762597, 27716.252531558577, 83337.29455915625, 43412.54155785341, 49098.42301588333, 34672.29422000578, 72642.52127915875, 0.05, 0.9400000000000001, 0.166, 192.0, 1.0, 144.0, 29.0, 96.0, 5.0, 48.0, 0.0, 0.0, 0.0, 1.6665571156239333E9, 0.0, 2022-10-23 13:31:55.623
170.0, -82521.56764525983, -119222.68500598491, 27512.225808170537, 83329.22557940788, 43406.26071766147, 49091.538678591096, 34606.60244305163, 72639.90612505747, 0.05, 0.9400000000000001, 0.166, 192.0, 0.0, 0.0, 0.0, 0.0, 0.0, 0.0, 0.0, 0.0, 0.0, 1.6665571156239476E9, 0.0, 2022-10-23 13:31:55.623
171.0, -82529.50251454145, -119233.12327064553, 27644.525783601497, 83325.60459680612, 43399.10815943577, 49097.79716703858, 34741.40581386159, 72733.6716930475, 0.05, 0.9400000000000001, 0.166, 192.0, 0.0, 0.0, 0.0, 0.0, 0.0, 0.0, 0.0, 0.0, 0.0, 1.6665571156239612E9, 0.0, 2022-10-23 13:31:55.623
172.0, -82522.01468014893, -119217.72291871584, 27851.637047724373, 83342.01077723633, 43417.79421780041, 49114.0915887465, 34855.24324837247, 72756.09049273617, 0.05, 0.9400000000000001, 0.166, 192.0, 0.0, 0.0, 0.0, 0.0, 0.0, 0.0, 0.0, 0.0, 0.0, 1.6665571156239746E9, 0.0, 2022-10-23 13:31:55.623
173.0, -82517.9243109136, -119217.07471812663, 27695.44305747069, 83343.12836445909, 43418.44241838961, 49105.039132242106, 34700.368011041646, 72645.15878500447, 0.05, 0.9400000000000001, 0.166, 192.0, 0.0, 0.0, 0.0, 0.0, 0.0, 0.0, 0.0, 0.0, 0.0, 1.6665571156239884E9, 0.0, 2022-10-23 13:31:55.623
174.0, -82509.76592418742, -119219.95809316136, 27475.792464708386, 83340.62496908009, 43411.6474880752, 49100.32291416203, 34607.295347129744, 72618.9401887584, 0.05, 0.9400000000000001, 0.166, 192.0, 0.0, 0.0, 0.0, 0.0, 0.0, 0.0, 0.0, 0.0, 0.0, 1.6665571156240017E9, 0.0, 2022-10-23 13:31:55.624
175.0, -82515.19739809005, -119228.18353512092, 27548.54739291041, 83339.12740220159, 43401.70096179259, 49101.95459150727, 34716.930653683026, 72703.45213454391, 0.05, 0.9400000000000001, 0.166, 192.0, 0.0, 0.0, 0.0, 0.0, 0.0, 0.0, 0.0, 0.0, 0.0, 1.6665571156240156E9, 0.0, 2022-10-23 13:31:55.624
176.0, -82512.20226433304, -119219.66752048345, 27788.02398300457, 83341.04965222474, 43404.71844729405, 49107.72134157674, 34856.874925717704, 72745.80869028672, 0.05, 0.9400000000000001, 0.166, 192.0, 0.0, 0.0, 0.0, 0.0, 0.0, 0.0, 0.0, 0.0, 0.0, 1.6665571156240413E9, 0.0, 2022-10-23 13:31:55.624
177.0, -82504.04387760686, -119207.01643312174, 27668.62096412432, 83343.77656504829, 43415.49198812151, 49116.61733586995, 34721.758630485376, 72652.24428799681, 0.05, 0.9400000000000001, 0.166, 192.0, 0.0, 0.0, 0.0, 0.0, 0.0, 0.0, 0.0, 0.0, 0.0, 1.666557115624055E9, 0.0, 2022-10-23 13:31:55.624
178.0, -82497.49481648146, -119206.90467439947, 27442.220144536514, 83347.71047207243, 43418.464770134065, 49124.28398421812, 34612.548007076744, 72623.67875858293, 0.05, 0.9400000000000001, 0.166, 192.0, 0.0, 0.0, 0.0, 0.0, 0.0, 0.0, 0.0, 0.0, 0.0, 1.6665571161013043E9, 0.0, 2022-10-23 13:31:56.101
179.0, -82505.56379622982, -119215.6889099704, 27419.108440769727, 83351.89024828556, 43418.84474978981, 49132.06239128857, 34672.02599907231, 72690.86810241558, 0.05, 0.9420000000000001, 0.164, 192.0, 1.0, 144.0, 29.0, 112.0, 5.0, 32.0, 0.0, 0.0, 0.0, 1.666557116101454E9, 0.0, 2022-10-23 13:31:56.101
180.0, -82508.69304045357, -119219.82398269464, 27691.799723124474, 83348.33632091718, 43412.36274389777, 49130.117789520955, 34854.46093731653, 72769.74740859836, 0.05, 0.9420000000000001, 0.164, 192.0, 0.0, 0.0, 0.0, 0.0, 0.0, 0.0, 0.0, 0.0, 0.0, 1.666557116101486E9, 0.0, 2022-10-23 13:31:56.101
181.0, -82501.8757583947, -119216.85120068208, 27608.65123375073, 83345.34118716016, 43414.97789799904, 49125.13335050742, 34739.81884000526, 72662.23551776833, 0.05, 0.9420000000000001, 0.164, 192.0, 0.0, 0.0, 0.0, 0.0, 0.0, 0.0, 0.0, 0.0, 0.0, 1.666557116101506E9, 0.0, 2022-10-23 13:31:56.101
182.0, -82496.66780193661, -119220.31572107265, 27399.19303646005, 83340.15558244653, 43410.01581072996, 49124.462798173765, 34620.929911247484, 72619.96836900334, 0.05, 0.9420000000000001, 0.164, 192.0, 0.0, 0.0, 0.0, 0.0, 0.0, 0.0, 0.0, 0.0, 0.0, 1.6665571161015325E9, 0.0, 2022-10-23 13:31:56.101
183.0, -82497.472464737, -119220.9415699174, 27329.433242015035, 83346.19055344946, 43408.27237466245, 49121.84764407249, 34654.90456281955, 72674.1042940741, 0.05, 0.9420000000000001, 0.164, 192.0, 0.0, 0.0, 0.0, 0.0, 0.0, 0.0, 0.0, 0.0, 0.0, 1.666557116101551E9, 0.0, 2022-10-23 13:31:56.101
184.0, -82506.68138345258, -119225.47897404182, 27608.89710293974, 83339.03799522377, 43398.3929036132, 49114.9409550358, 34848.18009712459, 72760.58319337168, 0.05, 0.9420000000000001, 0.164, 192.0, 0.0, 0.0, 0.0, 0.0, 0.0, 0.0, 0.0, 0.0, 0.0, 1.666557116101568E9, 0.0, 2022-10-23 13:31:56.101
185.0, -82496.73485716997, -119214.75013670328, 27601.141047613746, 83336.80282077823, 43402.25975540397, 49108.593059610495, 34781.393084692136, 72674.57368070766, 0.05, 0.9420000000000001, 0.164, 192.0, 0.0, 0.0, 0.0, 0.0, 0.0, 0.0, 0.0, 0.0, 0.0, 1.666557116101585E9, 0.0, 2022-10-23 13:31:56.101
186.0, -82491.92923211209, -119212.40320353548, 27401.361155672213, 83337.00398647833, 43403.511453093466, 49112.54931837909, 34643.304007447245, 72624.75164231678, 0.05, 0.9420000000000001, 0.164, 192.0, 0.0, 0.0, 0.0, 0.0, 0.0, 0.0, 0.0, 0.0, 0.0, 1.6665571161016014E9, 0.0, 2022-10-23 13:31:56.101
187.0, -82487.66004892113, -119208.64811046698, 27272.480997142913, 83343.03895748127, 43405.053723460886, 49124.79807434059, 34641.359405679636, 72655.03825605373, 0.05, 0.9420000000000001, 0.164, 192.0, 0.0, 0.0, 0.0, 0.0, 0.0, 0.0, 0.0, 0.0, 0.0, 1.6665571161016183E9, 0.0, 2022-10-23 13:31:56.101
188.0, -82485.9166128536, -119214.16899134744, 27493.96443295055, 83347.2187336944, 43401.052761203384, 49128.508463920174, 34812.68552692956, 72755.35288516914, 0.052000000000000005, 0.9440000000000001, 0.162, 192.0, 1.0, 160.0, 29.0, 128.0, 5.0, 16.0, 0.0, 0.0, 0.0, 1.6665571161016347E9, 0.0, 2022-10-23 13:31:56.101
189.0, -82483.05558956333, -119219.30989257216, 27563.41130297319, 83331.10312594213, 43392.44733958809, 49115.946783536296, 34811.858512384715, 72708.59303576863, 0.052000000000000005, 0.9440000000000001, 0.162, 192.0, 0.0, 0.0, 0.0, 0.0, 0.0, 0.0, 0.0, 0.0, 0.0, 1.666557116101653E9, 0.0, 2022-10-23 13:31:56.101
190.0, -82478.69699939454, -119201.85318015257, 27379.568204828287, 83339.2168091794, 43402.14799668169, 49122.294678961596, 34667.01920831433, 72636.26279071126, 0.052000000000000005, 0.9440000000000001, 0.162, 192.0, 0.0, 0.0, 0.0, 0.0, 0.0, 0.0, 0.0, 0.0, 0.0, 1.6665571161016703E9, 0.0, 2022-10-23 13:31:56.101
191.0, -82482.40738897413, -119206.47999125482, 27202.609443975623, 83339.44032662397, 43400.58337456982, 49124.954536551784, 34629.55768460723, 72656.98285782133, 0.052000000000000005, 0.9440000000000001, 0.162, 192.0, 0.0, 0.0, 0.0, 0.0, 0.0, 0.0, 0.0, 0.0, 0.0, 1.6665571161016867E9, 0.0, 2022-10-23 13:31:56.101
192.0, -82492.21980479, -119218.0358431382, 27384.329126397268, 83344.0671377262, 43396.56006056786, 49126.206234241276, 34788.54564291783, 72763.95830678444, 0.052000000000000005, 0.9440000000000001, 0.162, 192.0, 0.0, 0.0, 0.0, 0.0, 0.0, 0.0, 0.0, 0.0, 0.0, 1.6665571161017745E9, 0.0, 2022-10-23 13:31:56.101
193.0, -82478.16055752762, -119204.15540983147, 27531.82828805784, 83353.79014656426, 43410.216976430056, 49133.35879246698, 34848.02363491341, 72752.62597234559, 0.052000000000000005, 0.9440000000000001, 0.162, 192.0, 0.0, 0.0, 0.0, 0.0, 0.0, 0.0, 0.0, 0.0, 0.0, 1.6665571161017911E9, 0.0, 2022-10-23 13:31:56.101
194.0, -82468.90693532312, -119198.12043882853, 27375.768408270887, 83349.78918430676, 43411.11104620827, 49126.72032436375, 34704.63719423261, 72666.28118351474, 0.052000000000000005, 0.9440000000000001, 0.162, 192.0, 0.0, 0.0, 0.0, 0.0, 0.0, 0.0, 0.0, 0.0, 0.0, 1.6665571161018074E9, 0.0, 2022-10-23 13:31:56.101
195.0, -82468.12462426718, -119196.42170624992, 27182.649336177034, 83349.63272209559, 43408.965278740565, 49127.83791158652, 34640.95707427944, 72661.58731717913, 0.052000000000000005, 0.9440000000000001, 0.162, 192.0, 0.0, 0.0, 0.0, 0.0, 0.0, 0.0, 0.0, 0.0, 0.0, 1.6665571161018236E9, 0.0, 2022-10-23 13:31:56.101
196.0, -82475.90303133763, -119213.49843901378, 27281.131122247116, 83348.96216976191, 43399.97987746953, 49134.029344800634, 34754.36982564567, 72742.7688530408, 0.052000000000000005, 0.9440000000000001, 0.162, 192.0, 0.0, 0.0, 0.0, 0.0, 0.0, 0.0, 0.0, 0.0, 0.0, 1.66655711610184E9, 0.0, 2022-10-23 13:31:56.101
197.0, -82471.90206908013, -119219.55576176116, 27490.388153837703, 83334.58999807716, 43388.0887494193, 49125.96036505227, 34868.229611901, 72756.62693460309, 0.052000000000000005, 0.9440000000000001, 0.162, 192.0, 0.0, 0.0, 0.0, 0.0, 0.0, 0.0, 0.0, 0.0, 0.0, 1.6665571161018567E9, 0.0, 2022-10-23 13:31:56.101
198.0, -82476.35006622673, -119213.65490122497, 27358.445806318025, 83330.03024220828, 43383.77486273943, 49110.35884742247, 34727.3465665992, 72656.4464159544, 0.046, 0.9400000000000001, 0.16, 192.0, 1.0, 112.0, 29.0, 96.0, 5.0, 0.0, 0.0, 0.0, 0.0, 1.6665571161018732E9, 0.0, 2022-10-23 13:31:56.101
199.0, -82475.52305168188, -119213.65490122497, 27163.60564990111, 83330.49962884183, 43384.15484239517, 49107.18489970981, 34648.86959181662, 72643.46005242587, 0.046, 0.9400000000000001, 0.16, 192.0, 0.0, 0.0, 0.0, 0.0, 0.0, 0.0, 0.0, 0.0, 0.0, 1.6665571161018908E9, 0.0, 2022-10-23 13:31:56.101
200.0, -82466.13531901066, -119207.32935754412, 27188.080810079675, 83342.9719022479, 43394.07901693333, 49129.26842323165, 34727.748897999394, 72720.35005335213, 0.046, 0.9400000000000001, 0.16, 192.0, 0.0, 0.0, 0.0, 0.0, 0.0, 0.0, 0.0, 0.0, 0.0, 1.6665571161019073E9, 0.0, 2022-10-23 13:31:56.101
201.0, -82469.10810102322, -119202.23315980831, 27442.82364163681, 83335.01468122182, 43388.2899151194, 49128.41905694235, 34885.2839929204, 72778.35283021365, 0.046, 0.9400000000000001, 0.16, 192.0, 0.0, 0.0, 0.0, 0.0, 0.0, 0.0, 0.0, 0.0, 0.0, 1.6665571161019237E9, 0.0, 2022-10-23 13:31:56.101
202.0, -82454.62417061618, -119194.29829052667, 27357.171756884072, 83344.93885575997, 43402.57267982634, 49135.48220819023, 34772.206517721, 72681.45801799989, 0.046, 0.9400000000000001, 0.16, 192.0, 0.0, 0.0, 0.0, 0.0, 0.0, 0.0, 0.0, 0.0, 0.0, 1.6665571161019404E9, 0.0, 2022-10-23 13:31:56.101
203.0, -82460.74854859694, -119205.80943892115, 27134.973065253864, 83338.47920161238, 43393.40846459967, 49123.85930107347, 34648.93664704998, 72634.42994766592, 0.046, 0.9400000000000001, 0.16, 192.0, 0.0, 0.0, 0.0, 0.0, 0.0, 0.0, 0.0, 0.0, 0.0, 1.6665571161019592E9, 0.0, 2022-10-23 13:31:56.101
204.0, -82465.28595272136, -119211.7326512018, 27096.5951200241, 83332.13130618708, 43382.27729586093, 49115.365638180454, 34693.48367374941, 72689.63875647054, 0.046, 0.9400000000000001, 0.16, 192.0, 0.0, 0.0, 0.0, 0.0, 0.0, 0.0, 0.0, 0.0, 0.0, 1.6665571161019754E9, 0.0, 2022-10-23 13:31:56.101
205.0, -82459.20627822951, -119204.33422378711, 27395.95203351403, 83338.21098067892, 43386.948810452086, 49131.458894188276, 34896.14694072568, 72787.07001055122, 0.046, 0.9400000000000001, 0.16, 192.0, 0.0, 0.0, 0.0, 0.0, 0.0, 0.0, 0.0, 0.0, 0.0, 1.666557116101992E9, 0.0, 2022-10-23 13:31:56.101
206.0, -82441.83897278774, -119189.09033406859, 27361.530347052856, 83347.44225113896, 43398.54936582439, 49138.25382450269, 34812.57376820729, 72698.69121297494, 0.046, 0.9400000000000001, 0.16, 192.0, 0.0, 0.0, 0.0, 0.0, 0.0, 0.0, 0.0, 0.0, 0.0, 1.6665571161020083E9, 0.0, 2022-10-23 13:31:56.102
207.0, -82437.86036227469, -119186.65399392296, 27154.553193396714, 83344.31300691522, 43398.124682679736, 49136.57744366854, 34681.905470121565, 72656.22289850985, 0.046, 0.9400000000000001, 0.16, 192.0, 0.0, 0.0, 0.0, 0.0, 0.0, 0.0, 0.0, 0.0, 0.0, 1.6665571161020484E9, 0.0, 2022-10-23 13:31:56.102
208.0, -82438.30739716381, -119188.79976139066, 27061.59228820709, 83344.13419295958, 43396.671819290146, 49144.35585073899, 34702.044391875796, 72698.02066064128, 0.044, 0.9460000000000001, 0.16, 192.0, 1.0, 96.0, 29.0, 144.0, 5.0, 0.0, 0.0, 0.0, 0.0, 1.666557116102065E9, 0.0, 2022-10-23 13:31:56.102
209.0, -82445.32584492277, -119205.00477612077, 27330.439070515524, 83337.54042834527, 43384.35600809527, 49140.93603383732, 34891.81070230135, 72788.74639138537, 0.044, 0.9460000000000001, 0.16, 192.0, 0.0, 0.0, 0.0, 0.0, 0.0, 0.0, 0.0, 0.0, 0.0, 1.6665571161020827E9, 0.0, 2022-10-23 13:31:56.102
210.0, -82449.2597519469, -119204.11070634254, 27350.913268436587, 83327.39273636256, 43370.40851955516, 49112.45991140127, 34842.30158833285, 72697.66303273, 0.044, 0.9460000000000001, 0.16, 192.0, 0.0, 0.0, 0.0, 0.0, 0.0, 0.0, 0.0, 0.0, 0.0, 1.6665571161020994E9, 0.0, 2022-10-23 13:31:56.102
211.0, -82452.34429268174, -119201.31673828563, 27129.407480884493, 83326.69983228443, 43370.43087129961, 49109.59888811099, 34674.95407759596, 72621.10830797057, 0.044, 0.9460000000000001, 0.16, 192.0, 0.0, 0.0, 0.0, 0.0, 0.0, 0.0, 0.0, 0.0, 0.0, 1.666557116102116E9, 0.0, 2022-10-23 13:31:56.102
212.0, -82447.7621850684, -119201.83082840811, 26976.454493576824, 83334.92527424399, 43378.32103709233, 49127.36852495295, 34653.027016285305, 72655.64175315402, 0.044, 0.9460000000000001, 0.16, 192.0, 0.0, 0.0, 0.0, 0.0, 0.0, 0.0, 0.0, 0.0, 0.0, 1.666557116102132E9, 0.0, 2022-10-23 13:31:56.102
213.0, -82443.62711234417, -119204.26716855374, 27186.29267052325, 83343.97773074839, 43381.96437143855, 49139.79609487011, 34821.80503866733, 72768.98744928688, 0.044, 0.9460000000000001, 0.16, 192.0, 0.0, 0.0, 0.0, 0.0, 0.0, 0.0, 0.0, 0.0, 0.0, 1.6665571161021488E9, 0.0, 2022-10-23 13:31:56.102
214.0, -82428.11500169217, -119193.7842004042, 27321.230151799937, 83332.71245154292, 43373.67187424563, 49117.86903355945, 34871.40355961365, 72747.30625716523, 0.044, 0.9460000000000001, 0.16, 192.0, 0.0, 0.0, 0.0, 0.0, 0.0, 0.0, 0.0, 0.0, 0.0, 1.6665571161021652E9, 0.0, 2022-10-23 13:31:56.102
215.0, -82423.57759756775, -119187.61511893454, 27117.538704578725, 83324.77758226127, 43371.72727247802, 49113.37633292393, 34694.02011561634, 72640.30845645767, 0.044, 0.9460000000000001, 0.16, 192.0, 0.0, 0.0, 0.0, 0.0, 0.0, 0.0, 0.0, 0.0, 0.0, 1.6665571161021817E9, 0.0, 2022-10-23 13:31:56.102
