%OpenBCI Raw EEG Data
%Number of channels = 8
%Sample Rate = 250 Hz
%Board = OpenBCI_GUI$BoardCytonSerial
Sample Index, EXG Channel 0, EXG Channel 1, EXG Channel 2, EXG Channel 3, EXG Channel 4, EXG Channel 5, EXG Channel 6, EXG Channel 7, Accel Channel 0, Accel Channel 1, Accel Channel 2, Other, Other, Other, Other, Other, Other, Other, Analog Channel 0, Analog Channel 1, Analog Channel 2, Timestamp, Other, Timestamp (Formatted)
204.0, -105441.69461032089, -145808.83333788317, -67891.99327135006, -123180.86602459742, 30058.223612096743, -68096.2211604382, 19173.169931551212, -124724.00811004736, 0.036000000000000004, 0.9560000000000001, 0.042, 192.0, 1.0, 32.0, 29.0, 224.0, 1.0, 80.0, 0.0, 0.0, 0.0, 1.6664034238778465E9, 0.0, 2022-10-21 18:50:23.877
205.0, -105435.95021199588, -145802.3513319911, -67891.09920157185, -123187.07980955599, 30063.2974580881, -68118.05881477104, 19149.052399283933, -124723.15874375806, 0.036000000000000004, 0.9560000000000001, 0.042, 192.0, 0.0, 0.0, 0.0, 0.0, 0.0, 0.0, 0.0, 0.0, 0.0, 1.666403423877911E9, 0.0, 2022-10-21 18:50:23.877
206.0, -105439.88411902, -145805.8158523817, -67889.71339341562, -123172.01473379311, 30067.85721395698, -68098.9257215173, 19163.40221922424, -124719.62716813412, 0.036000000000000004, 0.9560000000000001, 0.042, 192.0, 0.0, 0.0, 0.0, 0.0, 0.0, 0.0, 0.0, 0.0, 0.0, 1.6664034238779547E9, 0.0, 2022-10-21 18:50:23.877
207.0, -105451.1941017144, -145818.28812578777, -67899.14582957576, -123180.7766176196, 30057.821280696546, -68094.67889007079, 19171.89588211726, -124726.08682228171, 0.036000000000000004, 0.9560000000000001, 0.042, 192.0, 0.0, 0.0, 0.0, 0.0, 0.0, 0.0, 0.0, 0.0, 0.0, 1.6664034238779864E9, 0.0, 2022-10-21 18:50:23.877
208.0, -105439.25827017525, -145804.9217826035, -67888.03701258148, -123166.76207384611, 30072.77459773715, -68088.77802953459, 19181.46242874413, -124709.94886278498, 0.036000000000000004, 0.9560000000000001, 0.042, 192.0, 0.0, 0.0, 0.0, 0.0, 0.0, 0.0, 0.0, 0.0, 0.0, 1.66640342387802E9, 0.0, 2022-10-21 18:50:23.878
209.0, -105438.49831086378, -145804.13947154756, -67884.08075381289, -123168.75137910264, 30079.971859451754, -68105.51948613161, 19160.60825116733, -124705.52321738283, 0.036000000000000004, 0.9560000000000001, 0.042, 192.0, 0.0, 0.0, 0.0, 0.0, 0.0, 0.0, 0.0, 0.0, 0.0, 1.6664034238780513E9, 0.0, 2022-10-21 18:50:23.878
210.0, -105462.1911599864, -145828.61463172612, -67907.03599536848, -123195.88639687138, 30055.921382417844, -68109.60985536693, 19152.673381885696, -124723.71753736945, 0.036000000000000004, 0.9560000000000001, 0.042, 192.0, 0.0, 0.0, 0.0, 0.0, 0.0, 0.0, 0.0, 0.0, 0.0, 1.6664034238780818E9, 0.0, 2022-10-21 18:50:23.878
211.0, -105461.76647684175, -145829.1287218486, -67908.82413492491, -123191.3266410025, 30054.066187628054, -68104.44660239776, 19164.87743435829, -124729.05960429426, 0.036000000000000004, 0.9560000000000001, 0.042, 192.0, 0.0, 0.0, 0.0, 0.0, 0.0, 0.0, 0.0, 0.0, 0.0, 1.6664034238781118E9, 0.0, 2022-10-21 18:50:23.878
212.0, -105458.5925291291, -145825.70890494692, -67907.66184421323, -123187.43743746728, 30062.269277843152, -68112.49323040167, 19164.4751029581, -124730.02072930583, 0.036000000000000004, 0.9560000000000001, 0.042, 192.0, 0.0, 0.0, 0.0, 0.0, 0.0, 0.0, 0.0, 0.0, 0.0, 1.6664034238781416E9, 0.0, 2022-10-21 18:50:23.878
213.0, -105465.65568037698, -145835.20839634043, -67920.11176587484, -123201.29551902956, 30052.881545171924, -68107.79936406606, 19159.08833254437, -124741.6436364226, 0.036000000000000004, 0.9560000000000001, 0.042, 192.0, 0.0, 0.0, 0.0, 0.0, 0.0, 0.0, 0.0, 0.0, 0.0, 1.6664034238781712E9, 0.0, 2022-10-21 18:50:23.878
214.0, -105449.20479645787, -145821.35031477813, -67922.10107113136, -123203.06130684154, 30045.818393924048, -68113.85668681344, 19152.78514060797, -124744.88463936863, 0.042, 0.9540000000000001, 0.044, 192.0, 1.0, 80.0, 29.0, 208.0, 1.0, 96.0, 0.0, 0.0, 0.0, 1.6664034238782024E9, 0.0, 2022-10-21 18:50:23.878
215.0, -105456.24559596129, -145819.78569266628, -67924.35859732135, -123201.60844345194, 30043.31499854505, -68109.22987571119, 19165.682097158682, -124737.95559858748, 0.042, 0.9540000000000001, 0.044, 192.0, 0.0, 0.0, 0.0, 0.0, 0.0, 0.0, 0.0, 0.0, 0.0, 1.6664034238782349E9, 0.0, 2022-10-21 18:50:23.878
216.0, -105477.01036656027, -145838.2258818419, -67912.86980067132, -123195.5287689601, 30058.33537081902, -68102.25613144114, 19182.08827758888, -124722.19761874648, 0.042, 0.9540000000000001, 0.044, 192.0, 0.0, 0.0, 0.0, 0.0, 0.0, 0.0, 0.0, 0.0, 0.0, 1.6664034238782673E9, 0.0, 2022-10-21 18:50:23.878
217.0, -105477.52445668275, -145839.90226267604, -67902.34212903287, -123192.15365554734, 30073.176929137342, -68110.99566352316, 19175.025126341003, -124710.21708371844, 0.042, 0.9540000000000001, 0.044, 192.0, 0.0, 0.0, 0.0, 0.0, 0.0, 0.0, 0.0, 0.0, 0.0, 1.6664034238782988E9, 0.0, 2022-10-21 18:50:23.878
218.0, -105464.60514838758, -145821.8644049006, -67894.29550102896, -123176.46273093972, 30084.62102229846, -68125.45724218574, 19162.575204679397, -124701.70106908097, 0.042, 0.9540000000000001, 0.044, 192.0, 0.0, 0.0, 0.0, 0.0, 0.0, 0.0, 0.0, 0.0, 0.0, 1.6664034238783295E9, 0.0, 2022-10-21 18:50:23.878
219.0, -105485.88400910902, -145839.03054464227, -67903.83969591137, -123178.92142282981, 30074.316868104564, -68101.78674480757, 19187.65386195825, -124713.14516224209, 0.042, 0.9540000000000001, 0.044, 192.0, 0.0, 0.0, 0.0, 0.0, 0.0, 0.0, 0.0, 0.0, 0.0, 1.6664034238783605E9, 0.0, 2022-10-21 18:50:23.878
220.0, -105496.34462551412, -145846.36191682363, -67908.31004480243, -123192.89126311438, 30065.57733602254, -68104.35719541993, 19191.900693404757, -124716.11794425464, 0.042, 0.9540000000000001, 0.044, 192.0, 0.0, 0.0, 0.0, 0.0, 0.0, 0.0, 0.0, 0.0, 0.0, 1.6664034238786423E9, 0.0, 2022-10-21 18:50:23.878
221.0, -105501.95491337239, -145844.95375692294, -67913.54035300498, -123200.53555971809, 30061.956353420777, -68121.50098341715, 19175.472161230107, -124720.3424239567, 0.042, 0.9540000000000001, 0.044, 192.0, 0.0, 0.0, 0.0, 0.0, 0.0, 0.0, 0.0, 0.0, 0.0, 1.6664034238786745E9, 0.0, 2022-10-21 18:50:23.878
222.0, -105485.3475672421, -145823.8760619016, -67889.15459980424, -123161.33059994348, 30097.070943960065, -68108.78284082208, 19185.932777635193, -124693.8332550327, 0.042, 0.9540000000000001, 0.044, 192.0, 0.0, 0.0, 0.0, 0.0, 0.0, 0.0, 0.0, 0.0, 0.0, 1.6664034238787057E9, 0.0, 2022-10-21 18:50:23.878
223.0, -105501.9996168613, -145838.78467545327, -67904.91257964523, -123176.23921349517, 30080.642411785415, -68095.84118078246, 19199.701452219662, -124699.80117080227, 0.042, 0.9540000000000001, 0.044, 192.0, 0.0, 0.0, 0.0, 0.0, 0.0, 0.0, 0.0, 0.0, 0.0, 1.666403423878738E9, 0.0, 2022-10-21 18:50:23.878
224.0, -105501.08319533864, -145837.5776812527, -67904.91257964523, -123184.62111766591, 30073.176929137342, -68072.23773863766, 19226.545897310483, -124696.85074053417, 0.046, 0.9560000000000001, 0.044, 192.0, 1.0, 112.0, 29.0, 224.0, 1.0, 96.0, 0.0, 0.0, 0.0, 1.6664034238787687E9, 0.0, 2022-10-21 18:50:23.878
225.0, -105501.95491337239, -145833.55436725073, -67900.28576854298, -123189.71731540172, 30080.62006004096, -68087.10164870044, 19212.620760514827, -124696.85074053417, 0.046, 0.9560000000000001, 0.044, 192.0, 0.0, 0.0, 0.0, 0.0, 0.0, 0.0, 0.0, 0.0, 0.0, 1.6664034238788013E9, 0.0, 2022-10-21 18:50:23.878
226.0, -105496.07640458064, -145824.3230967907, -67894.89899812925, -123184.30819324353, 30092.24296715772, -68095.84118078246, 19201.333129564897, -124690.07816196421, 0.046, 0.9560000000000001, 0.044, 192.0, 0.0, 0.0, 0.0, 0.0, 0.0, 0.0, 0.0, 0.0, 0.0, 1.6664034238788376E9, 0.0, 2022-10-21 18:50:23.878
227.0, -105486.3533957426, -145811.917878618, -67896.7318411746, -123171.7688646041, 30094.72401079226, -68087.72749754519, 19214.520658793528, -124690.12286545312, 0.046, 0.9560000000000001, 0.044, 192.0, 0.0, 0.0, 0.0, 0.0, 0.0, 0.0, 0.0, 0.0, 0.0, 1.6664034238788683E9, 0.0, 2022-10-21 18:50:23.878
228.0, -105492.92480861246, -145816.2764687868, -67911.17106809272, -123183.01179206512, 30077.826091984047, -68086.9228347448, 19219.885077462804, -124699.13061846861, 0.046, 0.9560000000000001, 0.044, 192.0, 0.0, 0.0, 0.0, 0.0, 0.0, 0.0, 0.0, 0.0, 0.0, 1.6664034238788984E9, 0.0, 2022-10-21 18:50:23.878
229.0, -105482.75476488529, -145804.94413434796, -67900.93396913218, -123186.49866420016, 30085.403333354396, -68093.98598599268, 19219.102766406868, -124691.62043233162, 0.046, 0.9560000000000001, 0.044, 192.0, 0.0, 0.0, 0.0, 0.0, 0.0, 0.0, 0.0, 0.0, 0.0, 1.6664034238789282E9, 0.0, 2022-10-21 18:50:23.878
230.0, -105478.86556135006, -145800.5631924347, -67894.2284457956, -123188.33150724549, 30089.67251654536, -68114.34842519146, 19200.2825975755, -124689.60877533065, 0.046, 0.9560000000000001, 0.044, 192.0, 0.0, 0.0, 0.0, 0.0, 0.0, 0.0, 0.0, 0.0, 0.0, 1.6664034238789585E9, 0.0, 2022-10-21 18:50:23.878
231.0, -105473.45643919188, -145796.07049179918, -67891.05449808294, -123175.59101290596, 30091.348897379507, -68097.78578255007, 19217.67225476173, -124685.00431597285, 0.046, 0.9560000000000001, 0.044, 192.0, 0.0, 0.0, 0.0, 0.0, 0.0, 0.0, 0.0, 0.0, 0.0, 1.6664034238789897E9, 0.0, 2022-10-21 18:50:23.878
232.0, -105471.82476184664, -145793.23182025336, -67891.6803469277, -123157.53080338608, 30097.830903271548, -68056.18918611875, 19255.33494416892, -124682.97030722741, 0.046, 0.9560000000000001, 0.044, 192.0, 0.0, 0.0, 0.0, 0.0, 0.0, 0.0, 0.0, 0.0, 0.0, 1.6664034238790195E9, 0.0, 2022-10-21 18:50:23.879
233.0, -105471.80241010219, -145793.8129656092, -67893.51318997302, -123167.99141979116, 30096.914481748878, -68052.50114828363, 19257.838339547914, -124688.24531891887, 0.046, 0.9560000000000001, 0.044, 192.0, 0.0, 0.0, 0.0, 0.0, 0.0, 0.0, 0.0, 0.0, 0.0, 1.6664034238790493E9, 0.0, 2022-10-21 18:50:23.879
234.0, -105479.37965147254, -145804.0053610808, -67905.18080057869, -123193.98649859268, 30083.41402809787, -68084.95588123273, 19226.65765603276, -124692.64861257657, 0.038, 0.9540000000000001, 0.046, 192.0, 1.0, 48.0, 29.0, 208.0, 1.0, 112.0, 0.0, 0.0, 0.0, 1.66640342387908E9, 0.0, 2022-10-21 18:50:23.879
235.0, -105473.61290140306, -145801.39020697956, -67900.82221040991, -123183.10119904295, 30091.90769099089, -68093.2260266812, 19224.42248158723, -124685.54075783977, 0.038, 0.9540000000000001, 0.046, 192.0, 0.0, 0.0, 0.0, 0.0, 0.0, 0.0, 0.0, 0.0, 0.0, 1.6664034238792052E9, 0.0, 2022-10-21 18:50:23.879
236.0, -105469.72369786784, -145795.93638133246, -67899.10112608685, -123173.24407973816, 30093.405257869395, -68069.95786070322, 19253.412694145765, -124683.10441769415, 0.038, 0.9540000000000001, 0.046, 192.0, 0.0, 0.0, 0.0, 0.0, 0.0, 0.0, 0.0, 0.0, 0.0, 1.6664034238792355E9, 0.0, 2022-10-21 18:50:23.879
237.0, -105468.78492460072, -145790.88488708556, -67897.93883537517, -123170.42775993679, 30096.780371282148, -68057.0162006636, 19269.640060620317, -124672.59909780015, 0.038, 0.9540000000000001, 0.046, 192.0, 0.0, 0.0, 0.0, 0.0, 0.0, 0.0, 0.0, 0.0, 0.0, 1.6664034238792655E9, 0.0, 2022-10-21 18:50:23.879
238.0, -105472.98705255831, -145793.72355863138, -67906.11957384582, -123182.8776815984, 30088.689039789326, -68068.70616301372, 19254.23970869061, -124681.98683047139, 0.038, 0.9540000000000001, 0.046, 192.0, 0.0, 0.0, 0.0, 0.0, 0.0, 0.0, 0.0, 0.0, 0.0, 1.6664034238792815E9, 0.0, 2022-10-21 18:50:23.879
239.0, -105481.57012242916, -145802.44073896896, -67915.14967860575, -123193.49476021467, 30078.0496094286, -68081.51371258662, 19241.990952729102, -124692.80507478776, 0.038, 0.9540000000000001, 0.046, 192.0, 0.0, 0.0, 0.0, 0.0, 0.0, 0.0, 0.0, 0.0, 0.0, 1.6664034238792958E9, 0.0, 2022-10-21 18:50:23.879
240.0, -105472.78588685821, -145793.92472433147, -67909.60644598084, -123181.04483855306, 30081.022391441154, -68080.37377361939, 19253.323287167943, -124690.94987999796, 0.038, 0.9540000000000001, 0.046, 192.0, 0.0, 0.0, 0.0, 0.0, 0.0, 0.0, 0.0, 0.0, 0.0, 1.6664034238793097E9, 0.0, 2022-10-21 18:50:23.879
241.0, -105476.87625609354, -145799.1997360229, -67916.04374838398, -123188.42091422332, 30076.529690805637, -68060.88305245436, 19273.931595555736, -124697.58834810118, 0.038, 0.9540000000000001, 0.046, 192.0, 0.0, 0.0, 0.0, 0.0, 0.0, 0.0, 0.0, 0.0, 0.0, 1.6664034238793237E9, 0.0, 2022-10-21 18:50:23.879
242.0, -105475.75866887078, -145798.3503697336, -67916.11080361734, -123199.08269632849, 30082.519958319663, -68075.99283170616, 19259.33590642642, -124694.43675213298, 0.038, 0.9540000000000001, 0.046, 192.0, 0.0, 0.0, 0.0, 0.0, 0.0, 0.0, 0.0, 0.0, 0.0, 1.666403423879338E9, 0.0, 2022-10-21 18:50:23.879
243.0, -105459.19602622939, -145782.61474163708, -67903.75028893356, -123183.5258821876, 30098.724973049757, -68091.03555572458, 19246.10367370888, -124675.84010074618, 0.038, 0.9540000000000001, 0.048, 192.0, 1.0, 48.0, 29.0, 208.0, 1.0, 128.0, 0.0, 0.0, 0.0, 1.6664034238793516E9, 0.0, 2022-10-21 18:50:23.879
244.0, -105462.05704951967, -145786.54864866124, -67909.53939074748, -123170.6736291258, 30093.405257869395, -68090.074430713, 19250.931650511226, -124680.22104265941, 0.038, 0.9540000000000001, 0.048, 192.0, 0.0, 0.0, 0.0, 0.0, 0.0, 0.0, 0.0, 0.0, 0.0, 1.6664034238793666E9, 0.0, 2022-10-21 18:50:23.879
245.0, -105487.58274168763, -145811.98493385137, -67936.83087072741, -123186.07398105551, 30065.353818577987, -68069.60023279193, 19266.175540229742, -124704.49503713788, 0.038, 0.9540000000000001, 0.048, 192.0, 0.0, 0.0, 0.0, 0.0, 0.0, 0.0, 0.0, 0.0, 0.0, 1.6664034238793805E9, 0.0, 2022-10-21 18:50:23.879
246.0, -105455.53034013872, -145780.46897416937, -67906.20898082363, -123163.90105055584, 30096.020411970665, -68055.98802041865, 19279.29601422501, -124670.18510939898, 0.038, 0.9540000000000001, 0.048, 192.0, 0.0, 0.0, 0.0, 0.0, 0.0, 0.0, 0.0, 0.0, 0.0, 1.6664034238793955E9, 0.0, 2022-10-21 18:50:23.879
247.0, -105461.65471811948, -145789.23085799586, -67915.3284925614, -123189.31498400152, 30080.485949574228, -68077.51275032912, 19258.039505248013, -124680.06458044823, 0.038, 0.9540000000000001, 0.048, 192.0, 0.0, 0.0, 0.0, 0.0, 0.0, 0.0, 0.0, 0.0, 0.0, 1.6664034238794105E9, 0.0, 2022-10-21 18:50:23.879
248.0, -105456.75968608377, -145785.25224748283, -67911.17106809272, -123179.65903039683, 30082.207033897288, -68074.09293342746, 19267.449589663698, -124676.55535656874, 0.038, 0.9540000000000001, 0.048, 192.0, 0.0, 0.0, 0.0, 0.0, 0.0, 0.0, 0.0, 0.0, 0.0, 1.666403423879426E9, 0.0, 2022-10-21 18:50:23.879
249.0, -105462.21351173086, -145792.09188128615, -67918.70360597415, -123176.14980651735, 30079.390714095916, -68054.49045354014, 19288.370822473862, -124682.32210663821, 0.038, 0.9540000000000001, 0.048, 192.0, 0.0, 0.0, 0.0, 0.0, 0.0, 0.0, 0.0, 0.0, 0.0, 1.6664034238794403E9, 0.0, 2022-10-21 18:50:23.879
250.0, -105461.25238671928, -145789.87905858507, -67918.99417865208, -123190.32081250202, 30081.447074585805, -68084.10651494343, 19266.33200244093, -124676.93533622449, 0.038, 0.9540000000000001, 0.048, 192.0, 0.0, 0.0, 0.0, 0.0, 0.0, 0.0, 0.0, 0.0, 0.0, 1.6664034238794694E9, 0.0, 2022-10-21 18:50:23.879
251.0, -105452.82577905963, -145780.46897416937, -67916.22256233962, -123186.54336768907, 30088.33141187804, -68092.93545400328, 19257.48071163663, -124672.24146988888, 0.038, 0.9540000000000001, 0.048, 192.0, 0.0, 0.0, 0.0, 0.0, 0.0, 0.0, 0.0, 0.0, 0.0, 1.6664034238794832E9, 0.0, 2022-10-21 18:50:23.879
252.0, -105455.39622967198, -145784.60404689363, -67924.537411277, -123183.23530950968, 30082.63171704194, -68084.73236378818, 19266.399057674298, -124679.41637985903, 0.038, 0.9540000000000001, 0.048, 192.0, 0.0, 0.0, 0.0, 0.0, 0.0, 0.0, 0.0, 0.0, 0.0, 1.6664034238794968E9, 0.0, 2022-10-21 18:50:23.879
253.0, -105465.1415902545, -145796.33871273266, -67935.0874346599, -123182.05066705355, 30074.920365204856, -68068.30383161352, 19287.275586995554, -124685.98779272889, 0.04, 0.9500000000000001, 0.048, 192.0, 1.0, 64.0, 29.0, 176.0, 1.0, 128.0, 0.0, 0.0, 0.0, 1.6664034238795106E9, 0.0, 2022-10-21 18:50:23.879
254.0, -105462.50408440878, -145791.77895686377, -67939.66954227323, -123196.19932129375, 30072.081693659034, -68074.09293342746, 19282.022927048558, -124688.04415321877, 0.04, 0.9500000000000001, 0.048, 192.0, 0.0, 0.0, 0.0, 0.0, 0.0, 0.0, 0.0, 0.0, 0.0, 1.666403423879526E9, 0.0, 2022-10-21 18:50:23.879
255.0, -105452.11052323706, -145782.97236954837, -67932.67344625872, -123198.85917888394, 30084.755132765193, -68105.89946578736, 19254.887909279812, -124684.82550201721, 0.04, 0.9500000000000001, 0.048, 192.0, 0.0, 0.0, 0.0, 0.0, 0.0, 0.0, 0.0, 0.0, 0.0, 1.6664034238795395E9, 0.0, 2022-10-21 18:50:23.879
0.0, -105455.28447094971, -145786.39218645004, -67933.5898677814, -123191.19253053577, 30087.14676942191, -68109.14046873337, 19256.72075232515, -124675.79539725726, 0.04, 0.9500000000000001, 0.048, 192.0, 0.0, 0.0, 0.0, 0.0, 0.0, 0.0, 0.0, 0.0, 0.0, 1.6664034238795533E9, 0.0, 2022-10-21 18:50:23.879
1.0, -105463.55461639818, -145795.22112550988, -67940.72007426263, -123181.40246646435, 30080.038914685123, -68091.7731632916, 19274.982127545136, -124687.88769100759, 0.04, 0.9500000000000001, 0.048, 192.0, 0.0, 0.0, 0.0, 0.0, 0.0, 0.0, 0.0, 0.0, 0.0, 1.666403423879567E9, 0.0, 2022-10-21 18:50:23.879
2.0, -105464.67220362094, -145796.98691332186, -67941.30121961847, -123192.19835903627, 30076.90967046138, -68082.65365155383, 19282.87229333786, -124687.66417356304, 0.04, 0.9500000000000001, 0.048, 192.0, 0.0, 0.0, 0.0, 0.0, 0.0, 0.0, 0.0, 0.0, 0.0, 1.6664034238795807E9, 0.0, 2022-10-21 18:50:23.879
3.0, -105464.56044489867, -145795.42229120998, -67939.46837657313, -123206.0340888541, 30077.401408839396, -68101.16089596282, 19265.214415218165, -124681.49509209336, 0.04, 0.9500000000000001, 0.048, 192.0, 0.0, 0.0, 0.0, 0.0, 0.0, 0.0, 0.0, 0.0, 0.0, 1.6664034238795948E9, 0.0, 2022-10-21 18:50:23.879
4.0, -105473.88112233653, -145802.5524976912, -67941.34592310738, -123207.24108305469, 30074.272164615653, -68110.36981467842, 19257.704229081184, -124688.51353985234, 0.04, 0.9500000000000001, 0.048, 192.0, 0.0, 0.0, 0.0, 0.0, 0.0, 0.0, 0.0, 0.0, 0.0, 1.6664034238796084E9, 0.0, 2022-10-21 18:50:23.879
5.0, -105469.142552512, -145797.27748599977, -67938.23903062809, -123195.19349279327, 30077.08848441702, -68085.60408182193, 19286.78384861754, -124688.44648461897, 0.04, 0.9500000000000001, 0.048, 192.0, 0.0, 0.0, 0.0, 0.0, 0.0, 0.0, 0.0, 0.0, 0.0, 1.666403423879622E9, 0.0, 2022-10-21 18:50:23.879
6.0, -105448.66835459095, -145776.80328807872, -67916.64724548427, -123180.50839668613, 30101.0048509842, -68069.13084615837, 19309.649683195315, -124667.68171401999, 0.04, 0.9500000000000001, 0.048, 192.0, 0.0, 0.0, 0.0, 0.0, 0.0, 0.0, 0.0, 0.0, 0.0, 1.6664034238796356E9, 0.0, 2022-10-21 18:50:23.879
7.0, -105449.96475576935, -145774.54576188873, -67920.75996646404, -123188.10798980093, 30097.67444106036, -68077.87037824039, 19294.33873824343, -124672.91202222253, 0.036000000000000004, 0.9520000000000001, 0.04, 192.0, 1.0, 32.0, 29.0, 192.0, 1.0, 64.0, 0.0, 0.0, 0.0, 1.6664034238796492E9, 0.0, 2022-10-21 18:50:23.879
8.0, -105448.57894761312, -145773.22700896586, -67925.14090837729, -123185.80576012204, 30096.914481748878, -68094.45537262624, 19275.0491827785, -124673.04613268927, 0.036000000000000004, 0.9520000000000001, 0.04, 192.0, 0.0, 0.0, 0.0, 0.0, 0.0, 0.0, 0.0, 0.0, 0.0, 1.666403423879664E9, 0.0, 2022-10-21 18:50:23.879
9.0, -105452.22228195933, -145776.55741888972, -67926.05732989995, -123180.84367285296, 30092.131208435443, -68084.71001204372, 19291.522418442062, -124676.60006005765, 0.036000000000000004, 0.9520000000000001, 0.04, 192.0, 0.0, 0.0, 0.0, 0.0, 0.0, 0.0, 0.0, 0.0, 0.0, 1.666403423879718E9, 0.0, 2022-10-21 18:50:23.879
10.0, -105456.67027910594, -145778.12204100157, -67930.6394375133, -123188.89030085687, 30089.42664735635, -68073.10945667142, 19309.1579448173, -124678.29879263625, 0.036000000000000004, 0.9520000000000001, 0.04, 192.0, 0.0, 0.0, 0.0, 0.0, 0.0, 0.0, 0.0, 0.0, 0.0, 1.6664034238797328E9, 0.0, 2022-10-21 18:50:23.879
11.0, -105455.39622967198, -145777.45148866792, -67931.06412065795, -123201.29551902956, 30089.605461311992, -68091.79551503605, 19289.421354463262, -124675.1248449236, 0.036000000000000004, 0.9520000000000001, 0.04, 192.0, 0.0, 0.0, 0.0, 0.0, 0.0, 0.0, 0.0, 0.0, 0.0, 1.6664034238797472E9, 0.0, 2022-10-21 18:50:23.879
12.0, -105448.62365110203, -145772.69056709894, -67924.51505953254, -123195.01467883763, 30096.646260815414, -68113.74492809117, 19271.96464204367, -124664.44071107397, 0.036000000000000004, 0.9520000000000001, 0.04, 192.0, 0.0, 0.0, 0.0, 0.0, 0.0, 0.0, 0.0, 0.0, 0.0, 1.6664034238797622E9, 0.0, 2022-10-21 18:50:23.879
13.0, -105442.9910114993, -145768.1084594856, -67919.1282891188, -123174.45107393875, 30104.37996439695, -68108.46991639971, 19284.81689510547, -124657.51167029282, 0.036000000000000004, 0.9520000000000001, 0.04, 192.0, 0.0, 0.0, 0.0, 0.0, 0.0, 0.0, 0.0, 0.0, 0.0, 1.666403423879776E9, 0.0, 2022-10-21 18:50:23.879
14.0, -105451.21645345885, -145775.01514852227, -67922.70456823165, -123172.23825123766, 30104.33526090804, -68084.93352948828, 19309.046186095024, -124659.63508601607, 0.036000000000000004, 0.9520000000000001, 0.04, 192.0, 0.0, 0.0, 0.0, 0.0, 0.0, 0.0, 0.0, 0.0, 0.0, 1.66640342387979E9, 0.0, 2022-10-21 18:50:23.879
15.0, -105461.52060765274, -145785.76633760528, -67933.70162650367, -123203.62010045291, 30093.695830547316, -68100.11036397342, 19293.95875858769, -124668.70989426493, 0.036000000000000004, 0.9520000000000001, 0.04, 192.0, 0.0, 0.0, 0.0, 0.0, 0.0, 0.0, 0.0, 0.0, 0.0, 1.666403423879804E9, 0.0, 2022-10-21 18:50:23.879
16.0, -105463.71107860937, -145787.57682890617, -67929.47714680161, -123205.54235047608, 30098.47910386075, -68122.1268322619, 19273.641022877815, -124664.79833898526, 0.042, 0.9580000000000001, 0.038, 192.0, 1.0, 80.0, 29.0, 240.0, 1.0, 48.0, 0.0, 0.0, 0.0, 1.6664034238798177E9, 0.0, 2022-10-21 18:50:23.879
17.0, -105468.11437226705, -145787.7556428618, -67928.69483574567, -123186.29749850006, 30103.307080663097, -68104.84893379796, 19291.589473675427, -124660.95383893893, 0.042, 0.9580000000000001, 0.038, 192.0, 0.0, 0.0, 0.0, 0.0, 0.0, 0.0, 0.0, 0.0, 0.0, 1.6664034238798325E9, 0.0, 2022-10-21 18:50:23.879
18.0, -105486.73337539833, -145806.3075907597, -67942.44115858569, -123184.79993162156, 30093.852292758504, -68062.22415712169, 19330.526212516572, -124668.68754252048, 0.042, 0.9580000000000001, 0.038, 192.0, 0.0, 0.0, 0.0, 0.0, 0.0, 0.0, 0.0, 0.0, 0.0, 1.6664034238798463E9, 0.0, 2022-10-21 18:50:23.879
19.0, -105498.08806158163, -145819.29395428824, -67950.97952496762, -123209.00687086665, 30083.57049030906, -68077.31158462902, 19315.72935768716, -124677.60588855814, 0.042, 0.9580000000000001, 0.038, 192.0, 0.0, 0.0, 0.0, 0.0, 0.0, 0.0, 0.0, 0.0, 0.0, 1.6664034238798602E9, 0.0, 2022-10-21 18:50:23.879
20.0, -105519.59043974763, -145843.05385864424, -67960.92605125024, -123224.00489139617, 30073.869833215456, -68123.95967530724, 19270.936461798723, -124688.1782636855, 0.042, 0.9580000000000001, 0.038, 192.0, 0.0, 0.0, 0.0, 0.0, 0.0, 0.0, 0.0, 0.0, 0.0, 1.666403423879874E9, 0.0, 2022-10-21 18:50:23.879
21.0, -105518.53990775823, -145839.81285569823, -67951.71713253464, -123205.3858882649, 30081.514129819174, -68134.84497485697, 19265.929671040736, -124676.84592924666, 0.042, 0.9580000000000001, 0.038, 192.0, 0.0, 0.0, 0.0, 0.0, 0.0, 0.0, 0.0, 0.0, 0.0, 1.6664034238798876E9, 0.0, 2022-10-21 18:50:23.879
22.0, -105518.71872171387, -145839.11995162012, -67946.86680398784, -123189.49379795717, 30087.81732175557, -68113.20848622423, 19292.371784731364, -124668.7769494983, 0.042, 0.9580000000000001, 0.038, 192.0, 0.0, 0.0, 0.0, 0.0, 0.0, 0.0, 0.0, 0.0, 0.0, 1.6664034238799012E9, 0.0, 2022-10-21 18:50:23.879
23.0, -105524.37371306107, -145843.47854178888, -67945.07866443142, -123201.54138821858, 30088.71139153378, -68115.82364032551, 19289.801334119, -124677.40472285805, 0.042, 0.9580000000000001, 0.038, 192.0, 0.0, 0.0, 0.0, 0.0, 0.0, 0.0, 0.0, 0.0, 0.0, 1.6664034238799148E9, 0.0, 2022-10-21 18:50:23.879
24.0, -105528.32997182966, -145853.31330934924, -67944.63162954232, -123206.14584757636, 30090.343068879018, -68140.835242371, 19266.62257511885, -124669.53690880978, 0.042, 0.9580000000000001, 0.038, 192.0, 0.0, 0.0, 0.0, 0.0, 0.0, 0.0, 0.0, 0.0, 0.0, 1.666403423879943E9, 0.0, 2022-10-21 18:50:23.879
25.0, -105539.9081754575, -145864.7797542548, -67943.20111789717, -123189.49379795717, 30093.360554380484, -68139.7847103816, 19269.796522831504, -124661.84790871716, 0.042, 0.9580000000000001, 0.038, 192.0, 0.0, 0.0, 0.0, 0.0, 0.0, 0.0, 0.0, 0.0, 0.0, 1.6664034238799567E9, 0.0, 2022-10-21 18:50:23.879
26.0, -105575.04511774125, -145896.8992110371, -67957.50623434856, -123197.4286672388, 30082.38584785293, -68113.23083796869, 19290.06955505247, -124671.34740011065, 0.038, 0.962, 0.036000000000000004, 192.0, 1.0, 48.0, 30.0, 16.0, 1.0, 32.0, 0.0, 0.0, 0.0, 1.6664034238799706E9, 0.0, 2022-10-21 18:50:23.879
27.0, -105606.04698730075, -145931.90204285408, -67977.39928691379, -123226.97767340872, 30063.409216810374, -68136.34254173547, 19268.38836293082, -124687.5300630963, 0.038, 0.962, 0.036000000000000004, 192.0, 0.0, 0.0, 0.0, 0.0, 0.0, 0.0, 0.0, 0.0, 0.0, 1.6664034238799853E9, 0.0, 2022-10-21 18:50:23.879
28.0, -105598.40269069704, -145917.99925780288, -67961.30603090597, -123215.1312488474, 30083.749304264704, -68162.44937925928, 19248.38355164332, -124665.26772561882, 0.038, 0.962, 0.036000000000000004, 192.0, 0.0, 0.0, 0.0, 0.0, 0.0, 0.0, 0.0, 0.0, 0.0, 1.6664034238799992E9, 0.0, 2022-10-21 18:50:23.879
29.0, -105608.25981000184, -145931.03032482034, -67961.01545822805, -123208.1351528329, 30087.437342099827, -68151.56407970954, 19253.18917670121, -124669.91688846552, 0.038, 0.962, 0.036000000000000004, 192.0, 0.0, 0.0, 0.0, 0.0, 0.0, 0.0, 0.0, 0.0, 0.0, 1.6664034238800128E9, 0.0, 2022-10-21 18:50:23.880
30.0, -105619.45803397395, -145949.8951971406, -67960.27785066102, -123202.83778939699, 30087.32558337755, -68133.4815184452, 19273.596319388907, -124671.68267627749, 0.038, 0.962, 0.036000000000000004, 192.0, 0.0, 0.0, 0.0, 0.0, 0.0, 0.0, 0.0, 0.0, 0.0, 1.6664034238800266E9, 0.0, 2022-10-21 18:50:23.880
31.0, -105641.74272319589, -145975.19737186402, -67975.61114735737, -123216.584112237, 30075.14388264941, -68134.2861812456, 19272.925767055247, -124684.26670840582, 0.038, 0.962, 0.036000000000000004, 192.0, 0.0, 0.0, 0.0, 0.0, 0.0, 0.0, 0.0, 0.0, 0.0, 1.6664034238800406E9, 0.0, 2022-10-21 18:50:23.880
32.0, -105647.26360407635, -145978.10309864322, -67971.65488858878, -123220.85329542797, 30079.636583284926, -68151.11704482044, 19254.932612768724, -124674.99073445688, 0.038, 0.962, 0.036000000000000004, 192.0, 0.0, 0.0, 0.0, 0.0, 0.0, 0.0, 0.0, 0.0, 0.0, 1.6664034238800545E9, 0.0, 2022-10-21 18:50:23.880
33.0, -105658.05949664826, -145987.42377608106, -67974.02417350103, -123215.80180118106, 30084.084580431532, -68168.75257119567, 19237.43119686022, -124668.3746180981, 0.038, 0.962, 0.036000000000000004, 192.0, 0.0, 0.0, 0.0, 0.0, 0.0, 0.0, 0.0, 0.0, 0.0, 1.6664034238800683E9, 0.0, 2022-10-21 18:50:23.880
34.0, -105668.29659560879, -146002.7123692885, -67978.4945223921, -123211.71143194575, 30078.809568740082, -68150.64765818688, 19256.877214536336, -124671.5262140663, 0.038, 0.962, 0.036000000000000004, 192.0, 0.0, 0.0, 0.0, 0.0, 0.0, 0.0, 0.0, 0.0, 0.0, 1.6664034238800833E9, 0.0, 2022-10-21 18:50:23.880
35.0, -105672.56577879975, -146009.68611355856, -67976.5946241134, -123206.74934467666, 30081.223557141253, -68126.30660847505, 19281.352374714897, -124664.32895235169, 0.038, 0.962, 0.036000000000000004, 192.0, 0.0, 0.0, 0.0, 0.0, 0.0, 0.0, 0.0, 0.0, 0.0, 1.6664034238800972E9, 0.0, 2022-10-21 18:50:23.880
36.0, -105690.201305175, -146028.68509634558, -67983.76953408355, -123224.85425768547, 30075.18858613832, -68132.00630331115, 19270.62353737635, -124667.77112099782, 0.034, 0.96, 0.034, 192.0, 1.0, 16.0, 30.0, 0.0, 1.0, 16.0, 0.0, 0.0, 0.0, 1.6664034238801107E9, 0.0, 2022-10-21 18:50:23.880
37.0, -105701.44423263601, -146040.1738929956, -67984.26127246158, -123224.22840884072, 30076.172062894355, -68151.29585877608, 19253.032714490022, -124676.55535656874, 0.034, 0.96, 0.034, 192.0, 0.0, 0.0, 0.0, 0.0, 0.0, 0.0, 0.0, 0.0, 0.0, 1.6664034238801255E9, 0.0, 2022-10-21 18:50:23.880
38.0, -105699.18670644602, -146037.2234627275, -67975.05235374598, -123211.95730113475, 30082.899937975402, -68153.79925415508, 19260.900528538292, -124673.18024315599, 0.034, 0.96, 0.034, 192.0, 0.0, 0.0, 0.0, 0.0, 0.0, 0.0, 0.0, 0.0, 0.0, 1.6664034238801396E9, 0.0, 2022-10-21 18:50:23.880
39.0, -105727.75223585991, -146070.30404452136, -67996.51002842307, -123244.09910966147, 30054.200298094787, -68163.6340217154, 19255.558461613473, -124699.53294986881, 0.034, 0.96, 0.034, 192.0, 0.0, 0.0, 0.0, 0.0, 0.0, 0.0, 0.0, 0.0, 0.0, 1.6664034238801668E9, 0.0, 2022-10-21 18:50:23.880
40.0, -105715.14585198711, -146062.10095430625, -67982.02609801604, -123236.85714445796, 30070.00298142469, -68166.60680372796, 19252.876252278835, -124683.30558339425, 0.034, 0.96, 0.034, 192.0, 0.0, 0.0, 0.0, 0.0, 0.0, 0.0, 0.0, 0.0, 0.0, 1.6664034238801816E9, 0.0, 2022-10-21 18:50:23.880
41.0, -105715.3023141983, -146060.35751823874, -67973.6441938453, -123231.7832984666, 30079.32365886255, -68186.20928361527, 19232.737330524604, -124671.59326929967, 0.034, 0.96, 0.034, 192.0, 0.0, 0.0, 0.0, 0.0, 0.0, 0.0, 0.0, 0.0, 0.0, 1.6664034238801956E9, 0.0, 2022-10-21 18:50:23.880
42.0, -105733.80955860729, -146076.6742916911, -67988.55280739699, -123230.66571124384, 30064.839728455514, -68164.55044323808, 19252.205699945178, -124680.04222870378, 0.034, 0.96, 0.034, 192.0, 0.0, 0.0, 0.0, 0.0, 0.0, 0.0, 0.0, 0.0, 0.0, 1.6664034238802092E9, 0.0, 2022-10-21 18:50:23.880
43.0, -105750.68512567105, -146091.5829052428, -68004.48960119362, -123243.07092941654, 30048.880582914426, -68139.3376754925, 19276.792618846015, -124698.10243822366, 0.034, 0.96, 0.034, 192.0, 0.0, 0.0, 0.0, 0.0, 0.0, 0.0, 0.0, 0.0, 0.0, 1.666403423880223E9, 0.0, 2022-10-21 18:50:23.880
44.0, -105747.17590179156, -146087.51488775192, -67996.64413888981, -123247.22835388522, 30058.17890860783, -68152.86048088795, 19267.71781059716, -124692.49215036537, 0.034, 0.96, 0.034, 192.0, 0.0, 0.0, 0.0, 0.0, 0.0, 0.0, 0.0, 0.0, 0.0, 1.6664034238802369E9, 0.0, 2022-10-21 18:50:23.880
45.0, -105753.52379721687, -146099.22720184652, -67993.67135687725, -123243.9873509392, 30065.242059855707, -68162.56113798155, 19258.084208736924, -124684.89255725057, 0.034, 0.96, 0.034, 192.0, 0.0, 0.0, 0.0, 0.0, 0.0, 0.0, 0.0, 0.0, 0.0, 1.6664034238802505E9, 0.0, 2022-10-21 18:50:23.880
46.0, -105771.76282069241, -146120.21548989005, -68003.59553141541, -123239.7405194927, 30059.76588246416, -68161.44355075879, 19261.705191338682, -124682.99265897187, 0.042, 0.9580000000000001, 0.038, 192.0, 1.0, 80.0, 29.0, 240.0, 1.0, 48.0, 0.0, 0.0, 0.0, 1.6664034238802643E9, 0.0, 2022-10-21 18:50:23.880
47.0, -105774.64619572714, -146118.89673696717, -68007.84236286192, -123242.80270848307, 30055.563754506562, -68163.8351874155, 19267.136665241323, -124689.40760963055, 0.042, 0.9580000000000001, 0.038, 192.0, 0.0, 0.0, 0.0, 0.0, 0.0, 0.0, 0.0, 0.0, 0.0, 1.666403423880279E9, 0.0, 2022-10-21 18:50:23.880
48.0, -105779.87650392968, -146127.52451032694, -68013.6538164203, -123251.31872312055, 30054.066187628054, -68169.9372136518, 19261.369915171854, -124698.79534230178, 0.042, 0.9580000000000001, 0.038, 192.0, 0.0, 0.0, 0.0, 0.0, 0.0, 0.0, 0.0, 0.0, 0.0, 1.666403423880293E9, 0.0, 2022-10-21 18:50:23.880
49.0, -105780.39059405215, -146128.2397661495, -68016.47013622167, -123257.57721156803, 30053.686207972314, -68177.87208293343, 19248.495310365597, -124700.65053709157, 0.042, 0.9580000000000001, 0.038, 192.0, 0.0, 0.0, 0.0, 0.0, 0.0, 0.0, 0.0, 0.0, 0.0, 1.6664034238803065E9, 0.0, 2022-10-21 18:50:23.880
50.0, -105778.13306786217, -146124.66348703665, -68009.58579892943, -123247.63068528542, 30059.43060629733, -68174.87694917643, 19253.52445286804, -124687.99944972986, 0.042, 0.9580000000000001, 0.038, 192.0, 0.0, 0.0, 0.0, 0.0, 0.0, 0.0, 0.0, 0.0, 0.0, 1.6664034238803203E9, 0.0, 2022-10-21 18:50:23.880
51.0, -105789.55480927884, -146135.54878658638, -68015.77723214355, -123238.39941482538, 30056.346065562495, -68163.20933857076, 19272.165807743768, -124692.49215036537, 0.042, 0.9580000000000001, 0.038, 192.0, 0.0, 0.0, 0.0, 0.0, 0.0, 0.0, 0.0, 0.0, 0.0, 1.666403423880334E9, 0.0, 2022-10-21 18:50:23.880
52.0, -105796.95323669353, -146144.17655994615, -68022.52745896905, -123254.4926708332, 30050.601667237483, -68157.04025710109, 19278.29018572452, -124699.68941207998, 0.042, 0.9580000000000001, 0.038, 192.0, 0.0, 0.0, 0.0, 0.0, 0.0, 0.0, 0.0, 0.0, 0.0, 1.6664034238803475E9, 0.0, 2022-10-21 18:50:23.880
53.0, -105801.53534430687, -146149.9880135045, -68025.2096683037, -123258.15835692387, 30051.0934056155, -68169.62428922944, 19262.934537283723, -124698.23654869039, 0.042, 0.9580000000000001, 0.038, 192.0, 0.0, 0.0, 0.0, 0.0, 0.0, 0.0, 0.0, 0.0, 0.0, 1.6664034238803616E9, 0.0, 2022-10-21 18:50:23.880
54.0, -105819.05911195984, -146169.0987550138, -68032.47398525166, -123264.6403628159, 30047.964161391756, -68172.0382776306, 19258.79946455949, -124696.06842947823, 0.042, 0.9580000000000001, 0.038, 192.0, 0.0, 0.0, 0.0, 0.0, 0.0, 0.0, 0.0, 0.0, 0.0, 1.666403423880395E9, 0.0, 2022-10-21 18:50:23.880
55.0, -105807.70442577654, -146157.92288278614, -68020.58285720144, -123247.72009226325, 30063.744492977203, -68154.84978614448, 19282.62642414885, -124681.8750717491, 0.042, 0.9540000000000001, 0.036000000000000004, 192.0, 1.0, 80.0, 29.0, 208.0, 1.0, 32.0, 0.0, 0.0, 0.0, 1.6664034238804092E9, 0.0, 2022-10-21 18:50:23.880
56.0, -105809.96195196653, -146155.6430048517, -68027.1542700713, -123252.77158651013, 30059.676475486336, -68160.90710889186, 19283.542845671516, -124693.76619979933, 0.042, 0.9540000000000001, 0.036000000000000004, 192.0, 0.0, 0.0, 0.0, 0.0, 0.0, 0.0, 0.0, 0.0, 0.0, 1.666403423880424E9, 0.0, 2022-10-21 18:50:23.880
57.0, -105821.13782419419, -146168.8081823359, -68041.30292431152, -123273.2457844312, 30049.70759745927, -68189.71850749475, 19255.781979058025, -124709.92651104052, 0.042, 0.9540000000000001, 0.036000000000000004, 192.0, 0.0, 0.0, 0.0, 0.0, 0.0, 0.0, 0.0, 0.0, 0.0, 1.666403423880437E9, 0.0, 2022-10-21 18:50:23.880
58.0, -105813.0688444458, -146164.8072200784, -68029.74707242812, -123256.57138306754, 30066.694923245304, -68197.76513549866, 19250.641077833305, -124685.96544098442, 0.042, 0.9540000000000001, 0.036000000000000004, 192.0, 0.0, 0.0, 0.0, 0.0, 0.0, 0.0, 0.0, 0.0, 0.0, 1.6664034238804495E9, 0.0, 2022-10-21 18:50:23.880
59.0, -105826.09991146326, -146175.93838881713, -68044.47687202417, -123254.82794700003, 30053.775614950137, -68190.29965285059, 19258.62065060385, -124698.16949345703, 0.042, 0.9540000000000001, 0.036000000000000004, 192.0, 0.0, 0.0, 0.0, 0.0, 0.0, 0.0, 0.0, 0.0, 0.0, 1.6664034238804622E9, 0.0, 2022-10-21 18:50:23.880
60.0, -105832.62662084421, -146181.28045574194, -68048.58959300394, -123263.18749942632, 30048.1429753474, -68176.57568175503, 19273.551615899996, -124711.46878140794, 0.042, 0.9540000000000001, 0.036000000000000004, 192.0, 0.0, 0.0, 0.0, 0.0, 0.0, 0.0, 0.0, 0.0, 0.0, 1.6664034238804753E9, 0.0, 2022-10-21 18:50:23.880
61.0, -105814.1193764352, -146160.82860956533, -68034.88797365285, -123256.48197608972, 30068.974801179746, -68168.95373689577, 19280.01127004758, -124695.17435970002, 0.042, 0.9540000000000001, 0.036000000000000004, 192.0, 0.0, 0.0, 0.0, 0.0, 0.0, 0.0, 0.0, 0.0, 0.0, 1.6664034238804884E9, 0.0, 2022-10-21 18:50:23.880
62.0, -105814.00761771294, -146160.98507177652, -68033.56922072997, -123250.67052253135, 30072.52872854814, -68182.23067310223, 19267.494293152606, -124692.9838887434, 0.042, 0.9540000000000001, 0.036000000000000004, 192.0, 0.0, 0.0, 0.0, 0.0, 0.0, 0.0, 0.0, 0.0, 0.0, 1.6664034238805013E9, 0.0, 2022-10-21 18:50:23.880
63.0, -105827.55277485285, -146175.73722311703, -68040.14063359983, -123242.57919103852, 30065.309115089076, -68178.05089688908, 19275.607976389885, -124700.91875802503, 0.042, 0.9540000000000001, 0.036000000000000004, 192.0, 0.0, 0.0, 0.0, 0.0, 0.0, 0.0, 0.0, 0.0, 0.0, 1.666403423880514E9, 0.0, 2022-10-21 18:50:23.880
64.0, -105851.42443793113, -146200.97234260707, -68056.18918611875, -123262.53929883712, 30050.601667237483, -68155.8332629005, 19297.24446502262, -124714.66508086504, 0.042, 0.9540000000000001, 0.036000000000000004, 192.0, 0.0, 0.0, 0.0, 0.0, 0.0, 0.0, 0.0, 0.0, 0.0, 1.6664034238805268E9, 0.0, 2022-10-21 18:50:23.880
65.0, -105853.52550190991, -146200.99469435154, -68057.2620698526, -123280.86772929046, 30047.204202080276, -68172.28414681961, 19281.24061599262, -124716.85555182166, 0.048, 0.966, 0.036000000000000004, 192.0, 1.0, 128.0, 30.0, 48.0, 1.0, 32.0, 0.0, 0.0, 0.0, 1.6664034238805397E9, 0.0, 2022-10-21 18:50:23.880
66.0, -105849.16691174114, -146198.89363037274, -68052.97053491719, -123278.99018275621, 30053.932077161324, -68201.11789716696, 19254.99966800209, -124707.937205784, 0.048, 0.966, 0.036000000000000004, 192.0, 0.0, 0.0, 0.0, 0.0, 0.0, 0.0, 0.0, 0.0, 0.0, 1.6664034238805532E9, 0.0, 2022-10-21 18:50:23.880
67.0, -105839.80153081437, -146189.77411863496, -68050.7130087272, -123262.20402267028, 30063.34216157701, -68198.1004116655, 19263.426275661743, -124699.82352254672, 0.048, 0.966, 0.036000000000000004, 192.0, 0.0, 0.0, 0.0, 0.0, 0.0, 0.0, 0.0, 0.0, 0.0, 1.666403423880566E9, 0.0, 2022-10-21 18:50:23.880
68.0, -105839.39919941417, -146182.755670876, -68046.64499123633, -123251.38577835391, 30067.85721395698, -68175.90512942137, 19289.53311318554, -124690.45814161995, 0.048, 0.966, 0.036000000000000004, 192.0, 0.0, 0.0, 0.0, 0.0, 0.0, 0.0, 0.0, 0.0, 0.0, 1.6664034238805785E9, 0.0, 2022-10-21 18:50:23.880
69.0, -105869.52935093992, -146211.14238633425, -68071.54483455955, -123280.21952870126, 30045.23724856821, -68180.35312656798, 19278.513703169072, -124721.37060420164, 0.048, 0.966, 0.036000000000000004, 192.0, 0.0, 0.0, 0.0, 0.0, 0.0, 0.0, 0.0, 0.0, 0.0, 1.6664034238806217E9, 0.0, 2022-10-21 18:50:23.880
70.0, -105857.8840920787, -146202.9616478636, -68056.05507565202, -123279.52662462315, 30062.112815631965, -68194.30061510809, 19264.186234973222, -124704.47268539343, 0.048, 0.966, 0.036000000000000004, 192.0, 0.0, 0.0, 0.0, 0.0, 0.0, 0.0, 0.0, 0.0, 0.0, 1.6664034238806355E9, 0.0, 2022-10-21 18:50:23.880
0.0, 0.0, 0.0, 0.0, 0.0, 0.0, 0.0, 0.0, 0.0, 0.048, 0.966, 0.036000000000000004, 192.0, 0.0, 0.0, 0.0, 0.0, 0.0, 0.0, 0.0, 0.0, 0.0, 1.6664034239850016E9, 0.0, 2022-10-21 18:50:23.985
1.0, -103607.3539981072, -146077.05427134686, -58724.09000683904, -124096.6393466758, 30823.94967364665, -71633.652941424, 18715.808536506716, -124028.7794505095, 0.058, 0.9540000000000001, 0.04, 192.0, 1.0, 208.0, 29.0, 208.0, 1.0, 64.0, 0.0, 0.0, 0.0, 1.6664034244664588E9, 0.0, 2022-10-21 18:50:24.466
2.0, -103609.87974523065, -146081.5693237268, -58733.567146488094, -124095.63351817531, 30817.981757877085, -71637.65390368151, 18706.2643416243, -124034.56855232341, 0.058, 0.9540000000000001, 0.04, 192.0, 0.0, 0.0, 0.0, 0.0, 0.0, 0.0, 0.0, 0.0, 0.0, 1.6664034244665756E9, 0.0, 2022-10-21 18:50:24.466
3.0, -103609.92444871957, -146082.5751522273, -58738.35041980153, -124088.68212564972, 30818.272330555003, -71629.24964776631, 18727.94553374595, -124031.5287150775, 0.058, 0.9540000000000001, 0.04, 192.0, 0.0, 0.0, 0.0, 0.0, 0.0, 0.0, 0.0, 0.0, 0.0, 1.6664034244666457E9, 0.0, 2022-10-21 18:50:24.466
4.0, -103613.79130051033, -146085.2350098175, -58740.47383552478, -124095.25353851958, 30817.780592176987, -71623.57230467467, 18743.3235339312, -124034.65795930124, 0.058, 0.9540000000000001, 0.04, 192.0, 0.0, 0.0, 0.0, 0.0, 0.0, 0.0, 0.0, 0.0, 0.0, 1.6664034244666703E9, 0.0, 2022-10-21 18:50:24.466
5.0, -103609.99150395293, -146077.0766230913, -58736.47287326728, -124092.90660535177, 30826.654234725745, -71628.71320589939, 18735.545126860754, -124030.14290692126, 0.058, 0.9540000000000001, 0.04, 192.0, 0.0, 0.0, 0.0, 0.0, 0.0, 0.0, 0.0, 0.0, 0.0, 1.666403424466704E9, 0.0, 2022-10-21 18:50:24.466
6.0, -103604.71649226148, -146072.49451547797, -58738.77510294618, -124090.04558206149, 30828.621188237812, -71639.79967114922, 18709.818268992694, -124026.4772208306, 0.058, 0.9540000000000001, 0.04, 192.0, 0.0, 0.0, 0.0, 0.0, 0.0, 0.0, 0.0, 0.0, 0.0, 1.666403424466728E9, 0.0, 2022-10-21 18:50:24.466
7.0, -103626.42003612757, -146096.12030936722, -58762.44560032435, -124100.03681183301, 30806.58236820488, -71640.73844441635, 18712.83575449416, -124047.93489550769, 0.058, 0.9560000000000001, 0.032, 192.0, 1.0, 208.0, 29.0, 224.0, 1.0, 0.0, 0.0, 0.0, 0.0, 1.6664034244667518E9, 0.0, 2022-10-21 18:50:24.466
8.0, -103614.32774237725, -146084.8326784173, -58744.608908249014, -124086.69282039319, 30821.647443967755, -71624.89105759753, 18755.929917803995, -124030.65699704374, 0.058, 0.9560000000000001, 0.032, 192.0, 0.0, 0.0, 0.0, 0.0, 0.0, 0.0, 0.0, 0.0, 0.0, 1.6664034244667768E9, 0.0, 2022-10-21 18:50:24.466
9.0, -103599.46383231448, -146068.6276636872, -58735.55645174461, -124087.31866923794, 30833.695034229164, -71633.83175537965, 18746.341019432668, -124016.21777012562, 0.058, 0.9560000000000001, 0.032, 192.0, 0.0, 0.0, 0.0, 0.0, 0.0, 0.0, 0.0, 0.0, 0.0, 1.6664034244668005E9, 0.0, 2022-10-21 18:50:24.466
10.0, -103607.91279171858, -146076.45077424656, -58749.638050751455, -124100.50619846657, 30821.58038873439, -71656.25055506833, 18716.210867906913, -124035.61908431281, 0.058, 0.9560000000000001, 0.032, 192.0, 0.0, 0.0, 0.0, 0.0, 0.0, 0.0, 0.0, 0.0, 0.0, 1.6664034244668248E9, 0.0, 2022-10-21 18:50:24.466
11.0, -103601.94487594902, -146073.83562014528, -58747.46993153929, -124089.53149193902, 30821.893313156765, -71646.70636018591, 18738.227336195392, -124036.33434013539, 0.058, 0.9560000000000001, 0.032, 192.0, 0.0, 0.0, 0.0, 0.0, 0.0, 0.0, 0.0, 0.0, 0.0, 1.6664034244668484E9, 0.0, 2022-10-21 18:50:24.466
12.0, -103601.81076548228, -146075.15437306816, -58750.979155418776, -124086.536358182, 30822.407403279234, -71651.64609571053, 18747.883289800084, -124035.90965699074, 0.058, 0.9560000000000001, 0.032, 192.0, 0.0, 0.0, 0.0, 0.0, 0.0, 0.0, 0.0, 0.0, 0.0, 1.6664034244668708E9, 0.0, 2022-10-21 18:50:24.466
13.0, -103613.7018935325, -146084.34094003928, -58763.47378056929, -124103.23311129012, 30811.745621174054, -71665.54888076174, 18737.489728628367, -124039.91061924823, 0.058, 0.9560000000000001, 0.032, 192.0, 0.0, 0.0, 0.0, 0.0, 0.0, 0.0, 0.0, 0.0, 0.0, 1.666403424466884E9, 0.0, 2022-10-21 18:50:24.466
14.0, -103615.4006261111, -146088.0289778744, -58764.54666430315, -124111.43620150522, 30809.935129873174, -71677.19413962295, 18716.27792314028, -124035.68613954617, 0.058, 0.9560000000000001, 0.032, 192.0, 0.0, 0.0, 0.0, 0.0, 0.0, 0.0, 0.0, 0.0, 0.0, 1.666403424467085E9, 0.0, 2022-10-21 18:50:24.467
15.0, -103630.68921931855, -146103.9434199266, -58777.42126910941, -124115.63832946282, 30798.28987101196, -71680.79277048026, 18715.853239995628, -124052.11467172083, 0.058, 0.9560000000000001, 0.032, 192.0, 0.0, 0.0, 0.0, 0.0, 0.0, 0.0, 0.0, 0.0, 0.0, 1.6664034244670987E9, 0.0, 2022-10-21 18:50:24.467
16.0, -103598.48035555845, -146069.90171312116, -58744.67596348238, -124077.30508772196, 30835.14789761876, -71650.43910150994, 18759.349734705655, -124021.15750565023, 0.058, 0.9560000000000001, 0.032, 192.0, 0.0, 0.0, 0.0, 0.0, 0.0, 0.0, 0.0, 0.0, 0.0, 1.666403424467112E9, 0.0, 2022-10-21 18:50:24.467
17.0, -103611.69023653153, -146080.8317161598, -58753.77312347569, -124096.30407050898, 30828.48707777108, -71659.98329639237, 18754.834682325683, -124030.43347959919, 0.06, 0.9560000000000001, 0.036000000000000004, 192.0, 1.0, 224.0, 29.0, 224.0, 1.0, 32.0, 0.0, 0.0, 0.0, 1.6664034244671254E9, 0.0, 2022-10-21 18:50:24.467
18.0, -103601.31902710427, -146071.2651695329, -58741.92669891438, -124088.1903872717, 30843.999188423062, -71659.78213069227, 18742.80944380873, -124019.23525562708, 0.06, 0.9560000000000001, 0.036000000000000004, 192.0, 0.0, 0.0, 0.0, 0.0, 0.0, 0.0, 0.0, 0.0, 0.0, 1.66640342446714E9, 0.0, 2022-10-21 18:50:24.467
19.0, -103599.9555706925, -146068.96293985404, -58742.19491984784, -124071.3371719524, 30845.876734957306, -71655.02120912328, 18742.071836241703, -124015.99425268106, 0.06, 0.9560000000000001, 0.036000000000000004, 192.0, 0.0, 0.0, 0.0, 0.0, 0.0, 0.0, 0.0, 0.0, 0.0, 1.6664034244671535E9, 0.0, 2022-10-21 18:50:24.467
20.0, -103618.52987033485, -146086.62081797372, -58761.10449565703, -124084.45764594767, 30829.224685338104, -71657.09992135763, 18755.527586403798, -124028.80180225395, 0.06, 0.9560000000000001, 0.036000000000000004, 192.0, 0.0, 0.0, 0.0, 0.0, 0.0, 0.0, 0.0, 0.0, 0.0, 1.666403424467167E9, 0.0, 2022-10-21 18:50:24.467
21.0, -103625.39185588264, -146092.65578897664, -58775.029632452686, -124105.55769271347, 30817.19944682115, -71669.68395348596, 18761.56255740673, -124042.90575300525, 0.06, 0.9560000000000001, 0.036000000000000004, 192.0, 0.0, 0.0, 0.0, 0.0, 0.0, 0.0, 0.0, 0.0, 0.0, 1.6664034244671805E9, 0.0, 2022-10-21 18:50:24.467
22.0, -103620.94385873603, -146088.29719880788, -58775.38726036397, -124111.70442243868, 30818.09351659936, -71699.38942186706, 18732.348827403646, -124040.62587507081, 0.06, 0.9560000000000001, 0.036000000000000004, 192.0, 0.0, 0.0, 0.0, 0.0, 0.0, 0.0, 0.0, 0.0, 0.0, 1.666403424467194E9, 0.0, 2022-10-21 18:50:24.467
23.0, -103629.99631524042, -146094.95801865554, -58788.172458192406, -124115.72773644063, 30810.71744092911, -71698.33888987768, 18728.996065735348, -124051.68998857618, 0.06, 0.9560000000000001, 0.036000000000000004, 192.0, 0.0, 0.0, 0.0, 0.0, 0.0, 0.0, 0.0, 0.0, 0.0, 1.6664034244672072E9, 0.0, 2022-10-21 18:50:24.467
24.0, -103608.06925392977, -146075.60140795726, -58763.31731835811, -124086.89398609329, 30834.142069118272, -71675.24953785534, 18762.970717307417, -124016.55304629244, 0.06, 0.9560000000000001, 0.036000000000000004, 192.0, 0.0, 0.0, 0.0, 0.0, 0.0, 0.0, 0.0, 0.0, 0.0, 1.6664034244672205E9, 0.0, 2022-10-21 18:50:24.467
25.0, -103612.15962316509, -146081.74813768247, -58770.469876583804, -124084.16707326974, 30839.05945289844, -71663.47016852739, 18775.264176757835, -124017.24595037055, 0.06, 0.9560000000000001, 0.036000000000000004, 192.0, 0.0, 0.0, 0.0, 0.0, 0.0, 0.0, 0.0, 0.0, 0.0, 1.666403424467235E9, 0.0, 2022-10-21 18:50:24.467
26.0, -103622.2626116589, -146089.54889649738, -58786.18315293588, -124103.23311129012, 30831.370452805815, -71670.2203953529, 18760.735542861887, -124035.1273459348, 0.06, 0.9560000000000001, 0.036000000000000004, 192.0, 0.0, 0.0, 0.0, 0.0, 0.0, 0.0, 0.0, 0.0, 0.0, 1.6664034244672487E9, 0.0, 2022-10-21 18:50:24.467
27.0, -103617.23346915645, -146084.94443713958, -58781.84691451155, -124102.4955037231, 30833.359758062335, -71682.64796527004, 18742.563574619722, -124017.55887479293, 0.054, 0.9540000000000001, 0.036000000000000004, 192.0, 1.0, 176.0, 29.0, 208.0, 1.0, 32.0, 0.0, 0.0, 0.0, 1.6664034244672644E9, 0.0, 2022-10-21 18:50:24.467
28.0, -103621.48030060295, -146085.95026564007, -58789.06652797062, -124098.8968728658, 30824.217894580117, -71679.56342453521, 18756.3769526931, -124032.8251162559, 0.054, 0.9540000000000001, 0.036000000000000004, 192.0, 0.0, 0.0, 0.0, 0.0, 0.0, 0.0, 0.0, 0.0, 0.0, 1.6664034244672787E9, 0.0, 2022-10-21 18:50:24.467
29.0, -103661.75814411142, -146126.69749578208, -58831.154862779964, -124139.46528905217, 30784.34238247185, -71703.99388122486, 18763.149531263058, -124075.67341037672, 0.054, 0.9540000000000001, 0.036000000000000004, 192.0, 0.0, 0.0, 0.0, 0.0, 0.0, 0.0, 0.0, 0.0, 0.0, 1.6664034244673152E9, 0.0, 2022-10-21 18:50:24.467
30.0, -103626.44238787204, -146090.1300418532, -58794.90033327346, -124114.47603875113, 30821.893313156765, -71704.68678530297, 18765.541167919775, -124037.54133433597, 0.054, 0.9540000000000001, 0.036000000000000004, 192.0, 0.0, 0.0, 0.0, 0.0, 0.0, 0.0, 0.0, 0.0, 0.0, 1.6664034244673288E9, 0.0, 2022-10-21 18:50:24.467
31.0, -103610.97498070897, -146074.55087596786, -58780.751679033245, -124090.91730009524, 30843.686264000688, -71690.42637234049, 18758.790941094274, -124021.31396786142, 0.054, 0.9540000000000001, 0.036000000000000004, 192.0, 0.0, 0.0, 0.0, 0.0, 0.0, 0.0, 0.0, 0.0, 0.0, 1.6664034244673426E9, 0.0, 2022-10-21 18:50:24.467
32.0, -103623.38019888166, -146085.59263772878, -58792.75456580574, -124093.17482628523, 30832.62215049531, -71684.30199435973, 18771.397324967067, -124027.84067724236, 0.054, 0.9540000000000001, 0.036000000000000004, 192.0, 0.0, 0.0, 0.0, 0.0, 0.0, 0.0, 0.0, 0.0, 0.0, 1.6664034244673557E9, 0.0, 2022-10-21 18:50:24.467
33.0, -103618.3063528903, -146080.6305504597, -58793.78274605069, -124091.94548034019, 30833.91855167372, -71685.86661647161, 18780.405077982556, -124016.95537769263, 0.054, 0.9540000000000001, 0.036000000000000004, 192.0, 0.0, 0.0, 0.0, 0.0, 0.0, 0.0, 0.0, 0.0, 0.0, 1.666403424467369E9, 0.0, 2022-10-21 18:50:24.467
34.0, -103624.31897214879, -146086.06202436233, -58804.5786386226, -124102.11552406735, 30828.5764847489, -71697.33306137718, 18764.647098141562, -124026.34311036386, 0.054, 0.9540000000000001, 0.036000000000000004, 192.0, 0.0, 0.0, 0.0, 0.0, 0.0, 0.0, 0.0, 0.0, 0.0, 1.666403424467382E9, 0.0, 2022-10-21 18:50:24.467
35.0, -103618.86514650169, -146078.90946613665, -58799.147164719965, -124100.48384672211, 30831.61632199482, -71701.57989282369, 18760.109694017137, -124023.25856962903, 0.054, 0.9540000000000001, 0.036000000000000004, 192.0, 0.0, 0.0, 0.0, 0.0, 0.0, 0.0, 0.0, 0.0, 0.0, 1.6664034244673953E9, 0.0, 2022-10-21 18:50:24.467
36.0, -103625.8612425162, -146085.61498947322, -58809.98776078079, -124105.6918031802, 30821.33451954538, -71708.73245104939, 18760.735542861887, -124035.66378780172, 0.054, 0.9540000000000001, 0.036000000000000004, 192.0, 0.0, 0.0, 0.0, 0.0, 0.0, 0.0, 0.0, 0.0, 0.0, 1.666403424467409E9, 0.0, 2022-10-21 18:50:24.467
37.0, -103622.955515737, -146084.8773819062, -58809.87600205851, -124097.30989900946, 30828.062394626428, -71701.13285793459, 18781.90264486106, -124030.6793487882, 0.05, 0.9540000000000001, 0.034, 192.0, 1.0, 144.0, 29.0, 208.0, 1.0, 16.0, 0.0, 0.0, 0.0, 1.666403424467422E9, 0.0, 2022-10-21 18:50:24.467
38.0, -103627.33645765025, -146089.05715811934, -58821.990647553284, -124114.78896317352, 30817.110039843326, -71725.36214892413, 18762.456627184943, -124041.07290995991, 0.05, 0.9540000000000001, 0.034, 192.0, 0.0, 0.0, 0.0, 0.0, 0.0, 0.0, 0.0, 0.0, 0.0, 1.6664034244674363E9, 0.0, 2022-10-21 18:50:24.467
39.0, -103619.46864360198, -146081.971655127, -58813.474632915815, -124103.50133222359, 30831.035176638983, -71724.5798378682, 18748.486786900376, -124029.40529935424, 0.05, 0.9540000000000001, 0.034, 192.0, 0.0, 0.0, 0.0, 0.0, 0.0, 0.0, 0.0, 0.0, 0.0, 1.6664034244674497E9, 0.0, 2022-10-21 18:50:24.467
40.0, -103630.66686757408, -146090.64413197569, -58824.56109816565, -124106.63057644732, 30820.552208489444, -71722.63523610058, 18748.129158989093, -124037.49663084706, 0.05, 0.9540000000000001, 0.034, 192.0, 0.0, 0.0, 0.0, 0.0, 0.0, 0.0, 0.0, 0.0, 0.0, 1.6664034244674628E9, 0.0, 2022-10-21 18:50:24.467
41.0, -103629.28105941786, -146089.86182091973, -58824.85167084356, -124106.40705900277, 30821.870961412307, -71714.40979414103, 18773.878368601607, -124030.09820343235, 0.05, 0.9540000000000001, 0.034, 192.0, 0.0, 0.0, 0.0, 0.0, 0.0, 0.0, 0.0, 0.0, 0.0, 1.666403424467476E9, 0.0, 2022-10-21 18:50:24.467
42.0, -103625.88359426065, -146090.2865040644, -58826.08101678861, -124110.58683521592, 30826.09544111436, -71720.62357909961, 18777.2311302699, -124031.48401158859, 0.05, 0.9540000000000001, 0.034, 192.0, 0.0, 0.0, 0.0, 0.0, 0.0, 0.0, 0.0, 0.0, 0.0, 1.6664034244674895E9, 0.0, 2022-10-21 18:50:24.467
43.0, -103623.1566814371, -146083.9386086391, -58820.64954288597, -124107.21172180316, 30834.43264179619, -71725.27274194632, 18758.992106794372, -124033.38390986729, 0.05, 0.9540000000000001, 0.034, 192.0, 0.0, 0.0, 0.0, 0.0, 0.0, 0.0, 0.0, 0.0, 0.0, 1.6664034244675028E9, 0.0, 2022-10-21 18:50:24.467
44.0, -103649.3082224498, -146107.40794031715, -58847.31517402115, -124125.85307667889, 30808.169342061206, -71741.47775667641, 18733.309952415224, -124060.51892763603, 0.05, 0.9540000000000001, 0.034, 192.0, 0.0, 0.0, 0.0, 0.0, 0.0, 0.0, 0.0, 0.0, 0.0, 1.6664034244675307E9, 0.0, 2022-10-21 18:50:24.467
45.0, -103626.80001578332, -146087.224315074, -58827.71269413384, -124102.11552406735, 30828.777650449, -71718.61192209863, 18773.319574990222, -124042.4810698606, 0.05, 0.9540000000000001, 0.034, 192.0, 0.0, 0.0, 0.0, 0.0, 0.0, 0.0, 0.0, 0.0, 0.0, 1.6664034244675455E9, 0.0, 2022-10-21 18:50:24.467
46.0, -103617.09935868971, -146078.01539635842, -58822.86236558705, -124094.24771001909, 30838.38890056478, -71725.80918381324, 18783.355508250657, -124037.11665119132, 0.056, 0.9560000000000001, 0.032, 192.0, 1.0, 192.0, 29.0, 224.0, 1.0, 0.0, 0.0, 0.0, 0.0, 1.666403424467559E9, 0.0, 2022-10-21 18:50:24.467
47.0, -103618.9098499906, -146077.94834112507, -58823.35410396506, -124102.78607640101, 30842.90395294475, -71744.7411113669, 18765.362353964134, -124024.59967429635, 0.056, 0.9560000000000001, 0.032, 192.0, 0.0, 0.0, 0.0, 0.0, 0.0, 0.0, 0.0, 0.0, 0.0, 1.6664034244675744E9, 0.0, 2022-10-21 18:50:24.467
48.0, -103631.02449548537, -146087.44783251858, -58835.87108086003, -124114.43133526223, 30833.53857201798, -71753.95003008247, 18743.27883044229, -124032.9815784671, 0.056, 0.9560000000000001, 0.032, 192.0, 0.0, 0.0, 0.0, 0.0, 0.0, 0.0, 0.0, 0.0, 0.0, 1.6664034244675891E9, 0.0, 2022-10-21 18:50:24.467
49.0, -103649.55409163883, -146105.55274552736, -58854.087752591106, -124122.12033535485, 30817.758240432533, -71749.81495735823, 18759.439141683477, -124043.44219487217, 0.056, 0.9560000000000001, 0.032, 192.0, 0.0, 0.0, 0.0, 0.0, 0.0, 0.0, 0.0, 0.0, 0.0, 1.6664034244676025E9, 0.0, 2022-10-21 18:50:24.467
50.0, -103658.89712082114, -146113.6887805091, -58865.53184575222, -124130.41283254778, 30810.09159208436, -71750.10553003616, 18778.01344132584, -124044.51507860603, 0.056, 0.9560000000000001, 0.032, 192.0, 0.0, 0.0, 0.0, 0.0, 0.0, 0.0, 0.0, 0.0, 0.0, 1.6664034244676158E9, 0.0, 2022-10-21 18:50:24.467
51.0, -103645.0613910033, -146100.90358268065, -58856.546444481195, -124134.7043674832, 30818.4734962551, -71768.54571921179, 18761.51785391782, -124031.41695635521, 0.056, 0.9560000000000001, 0.032, 192.0, 0.0, 0.0, 0.0, 0.0, 0.0, 0.0, 0.0, 0.0, 0.0, 1.6664034244676287E9, 0.0, 2022-10-21 18:50:24.467
52.0, -103628.85637627321, -146083.7821464279, -58842.37543849653, -124114.43133526223, 30841.316979088424, -71753.34653298218, 18761.741371362376, -124016.59774978134, 0.056, 0.9560000000000001, 0.032, 192.0, 0.0, 0.0, 0.0, 0.0, 0.0, 0.0, 0.0, 0.0, 0.0, 1.666403424467642E9, 0.0, 2022-10-21 18:50:24.467
53.0, -103640.61339385669, -146094.488632022, -58852.00904035677, -124112.66554745026, 30833.96325516263, -71746.77512011232, 18773.81131336824, -124030.00879645454, 0.056, 0.9560000000000001, 0.032, 192.0, 0.0, 0.0, 0.0, 0.0, 0.0, 0.0, 0.0, 0.0, 0.0, 1.6664034244676552E9, 0.0, 2022-10-21 18:50:24.467
54.0, -103631.20330944101, -146083.71509119452, -58840.944926851385, -124100.66266067776, 30843.596857022865, -71730.81597457123, 18805.48373526141, -124022.9679969511, 0.056, 0.9560000000000001, 0.032, 192.0, 0.0, 0.0, 0.0, 0.0, 0.0, 0.0, 0.0, 0.0, 0.0, 1.6664034244676683E9, 0.0, 2022-10-21 18:50:24.467
55.0, -103655.14202775265, -146107.60910601725, -58870.2927673212, -124133.51972502706, 30817.4229642657, -71762.4883964644, 18778.639290170588, -124049.20894494164, 0.056, 0.9560000000000001, 0.032, 192.0, 0.0, 0.0, 0.0, 0.0, 0.0, 0.0, 0.0, 0.0, 0.0, 1.6664034244676814E9, 0.0, 2022-10-21 18:50:24.467
56.0, -103648.63767011615, -146103.1834606151, -58863.676650962436, -124132.46919303766, 30826.542476003466, -71769.70800992346, 18765.831740597696, -124037.51898259151, 0.056, 0.9540000000000001, 0.036000000000000004, 192.0, 1.0, 192.0, 29.0, 208.0, 1.0, 32.0, 0.0, 0.0, 0.0, 1.6664034244676945E9, 0.0, 2022-10-21 18:50:24.467
57.0, -103639.54051012284, -146095.67327447812, -58854.087752591106, -124115.48186725163, 30837.271313342015, -71752.47481494842, 18787.177656552514, -124024.71143301863, 0.056, 0.9540000000000001, 0.036000000000000004, 192.0, 0.0, 0.0, 0.0, 0.0, 0.0, 0.0, 0.0, 0.0, 0.0, 1.6664034244677088E9, 0.0, 2022-10-21 18:50:24.467
58.0, -103649.39762942764, -146103.45168154855, -58869.89043592101, -124127.21653309066, 30823.99437713556, -71762.44369297549, 18795.09017408969, -124041.2293721711, 0.056, 0.9540000000000001, 0.036000000000000004, 192.0, 0.0, 0.0, 0.0, 0.0, 0.0, 0.0, 0.0, 0.0, 0.0, 1.666403424467722E9, 0.0, 2022-10-21 18:50:24.467
59.0, -103646.98364102645, -146094.734501211, -58867.5435027532, -124128.78115520254, 30830.834010938885, -71765.10355056568, 18798.733508435907, -124045.23033442859, 0.056, 0.9540000000000001, 0.036000000000000004, 192.0, 0.0, 0.0, 0.0, 0.0, 0.0, 0.0, 0.0, 0.0, 0.0, 1.6664034244677474E9, 0.0, 2022-10-21 18:50:24.467
60.0, -103637.77472231087, -146087.3360737963, -58855.65237470298, -124124.82489643394, 30840.91464768823, -71782.60496647417, 18772.358449978645, -124030.63464529929, 0.056, 0.9540000000000001, 0.036000000000000004, 192.0, 0.0, 0.0, 0.0, 0.0, 0.0, 0.0, 0.0, 0.0, 0.0, 1.6664034244677606E9, 0.0, 2022-10-21 18:50:24.467
61.0, -103636.47832113247, -146087.0902046073, -58856.03235435872, -124110.60918696037, 30847.15078439126, -71765.79645464379, 18779.399249482067, -124026.65603478624, 0.056, 0.9540000000000001, 0.036000000000000004, 192.0, 0.0, 0.0, 0.0, 0.0, 0.0, 0.0, 0.0, 0.0, 0.0, 1.6664034244677737E9, 0.0, 2022-10-21 18:50:24.467
62.0, -103655.45495217502, -146105.6868559941, -58878.04882264719, -124123.32732955544, 30826.38601379228, -71776.90527163807, 18783.444915228476, -124041.47524136011, 0.056, 0.9540000000000001, 0.036000000000000004, 192.0, 0.0, 0.0, 0.0, 0.0, 0.0, 0.0, 0.0, 0.0, 0.0, 1.6664034244677868E9, 0.0, 2022-10-21 18:50:24.467
63.0, -103637.90883277761, -146090.59942848678, -58864.436610273915, -124103.5460357125, 30845.094423901373, -71770.87030063514, 18800.588703225698, -124025.18081965219, 0.056, 0.9540000000000001, 0.036000000000000004, 192.0, 0.0, 0.0, 0.0, 0.0, 0.0, 0.0, 0.0, 0.0, 0.0, 1.6664034244678E9, 0.0, 2022-10-21 18:50:24.467
64.0, -103643.04973400233, -146093.2369343325, -58870.94096791041, -124124.35550980039, 30835.90785693024, -71791.32214681174, 18778.61693842613, -124037.92131399171, 0.056, 0.9540000000000001, 0.036000000000000004, 192.0, 0.0, 0.0, 0.0, 0.0, 0.0, 0.0, 0.0, 0.0, 0.0, 1.6664034244678133E9, 0.0, 2022-10-21 18:50:24.467
65.0, -103638.55703336681, -146087.91721915212, -58870.18100859893, -124112.66554745026, 30840.467612799122, -71786.56122524277, 18782.372031494622, -124040.60352332635, 0.056, 0.9540000000000001, 0.036000000000000004, 192.0, 0.0, 0.0, 0.0, 0.0, 0.0, 0.0, 0.0, 0.0, 0.0, 1.6664034244678264E9, 0.0, 2022-10-21 18:50:24.467
66.0, -103638.46762638899, -146091.5382017539, -58869.041069631705, -124100.81912288895, 30846.34612159087, -71777.21819606045, 18805.10375560567, -124029.69587203216, 0.052000000000000005, 0.962, 0.03, 192.0, 1.0, 160.0, 30.0, 16.0, 0.0, 240.0, 0.0, 0.0, 0.0, 1.6664034244678397E9, 0.0, 2022-10-21 18:50:24.467
67.0, -103656.19255974205, -146108.8831554512, -58886.944816940406, -124127.08242262393, 30829.13527836028, -71799.97227191595, 18789.34577576468, -124043.88922976128, 0.052000000000000005, 0.962, 0.03, 192.0, 0.0, 0.0, 0.0, 0.0, 0.0, 0.0, 0.0, 0.0, 0.0, 1.6664034244678538E9, 0.0, 2022-10-21 18:50:24.467
68.0, -103667.41313545861, -146119.5896410453, -58900.35586361359, -124145.88023971085, 30817.311205543425, -71816.49021106842, 18771.62084241162, -124057.81436655694, 0.052000000000000005, 0.962, 0.03, 192.0, 0.0, 0.0, 0.0, 0.0, 0.0, 0.0, 0.0, 0.0, 0.0, 1.666403424467867E9, 0.0, 2022-10-21 18:50:24.467
69.0, -103634.13138796466, -146086.5314109959, -58870.248063832296, -124116.21947481866, 30845.72027274612, -71802.60977776168, 18782.841418128184, -124025.85137198585, 0.052000000000000005, 0.962, 0.03, 192.0, 0.0, 0.0, 0.0, 0.0, 0.0, 0.0, 0.0, 0.0, 0.0, 1.6664034244678814E9, 0.0, 2022-10-21 18:50:24.467
70.0, -103638.24410894443, -146087.1796115851, -58878.40645055848, -124115.32540504044, 30840.333502332393, -71798.18413235953, 18793.369089766635, -124030.96992146611, 0.052000000000000005, 0.962, 0.03, 192.0, 0.0, 0.0, 0.0, 0.0, 0.0, 0.0, 0.0, 0.0, 0.0, 1.6664034244678943E9, 0.0, 2022-10-21 18:50:24.467
71.0, -103649.77760908338, -146096.45558553404, -58891.16929664246, -124126.70244296819, 30832.465688284123, -71799.77110621585, 18805.215514327945, -124040.40235762626, 0.052000000000000005, 0.962, 0.03, 192.0, 0.0, 0.0, 0.0, 0.0, 0.0, 0.0, 0.0, 0.0, 0.0, 1.6664034244679077E9, 0.0, 2022-10-21 18:50:24.467
72.0, -103652.12454225119, -146103.0940536373, -58895.84081123362, -124137.58774251792, 30830.968121405618, -71825.05092919481, 18777.56640643673, -124040.29059890397, 0.052000000000000005, 0.962, 0.03, 192.0, 0.0, 0.0, 0.0, 0.0, 0.0, 0.0, 0.0, 0.0, 0.0, 1.6664034244679203E9, 0.0, 2022-10-21 18:50:24.467
73.0, -103651.7669143399, -146101.4400245476, -58895.684349022435, -124130.9939779036, 30832.689205728675, -71829.36481587468, 18764.691801630473, -124033.76388952302, 0.052000000000000005, 0.962, 0.03, 192.0, 0.0, 0.0, 0.0, 0.0, 0.0, 0.0, 0.0, 0.0, 0.0, 1.6664034244679337E9, 0.0, 2022-10-21 18:50:24.467
74.0, -103651.63280387316, -146098.7801669574, -58895.125555411054, -124120.48865800962, 30839.48413604309, -71804.77789697384, 18793.10086883317, -124025.15846790774, 0.052000000000000005, 0.962, 0.03, 192.0, 0.0, 0.0, 0.0, 0.0, 0.0, 0.0, 0.0, 0.0, 0.0, 1.666403424467958E9, 0.0, 2022-10-21 18:50:24.467
75.0, -103651.09636200624, -146097.7966902014, -58894.41029958848, -124119.88516090933, 30847.66487451373, -71792.28327182333, 18815.3408545662, -124011.38979332327, 0.052000000000000005, 0.96, 0.032, 192.0, 1.0, 160.0, 30.0, 0.0, 1.0, 0.0, 0.0, 0.0, 0.0, 1.6664034244679725E9, 0.0, 2022-10-21 18:50:24.467
76.0, -103653.44329517405, -146100.56830651383, -58899.03711069073, -124125.60720748988, 30846.949618691164, -71804.3979173181, 18802.086270104202, -124024.93495046318, 0.052000000000000005, 0.96, 0.032, 192.0, 0.0, 0.0, 0.0, 0.0, 0.0, 0.0, 0.0, 0.0, 0.0, 1.666403424467986E9, 0.0, 2022-10-21 18:50:24.467
77.0, -103645.37431542568, -146092.1416988542, -58892.5998082876, -124117.96291088617, 30850.794118737474, -71811.37166158816, 18792.318557777235, -124025.4713923301, 0.052000000000000005, 0.96, 0.032, 192.0, 0.0, 0.0, 0.0, 0.0, 0.0, 0.0, 0.0, 0.0, 0.0, 1.6664034244679992E9, 0.0, 2022-10-21 18:50:24.467
78.0, -103651.87867306218, -146097.14848961218, -58902.121651425565, -124113.91724513976, 30846.144955890773, -71801.06750739425, 18807.853020173672, -124027.9747877091, 0.052000000000000005, 0.96, 0.032, 192.0, 0.0, 0.0, 0.0, 0.0, 0.0, 0.0, 0.0, 0.0, 0.0, 1.6664034244680123E9, 0.0, 2022-10-21 18:50:24.468
79.0, -103674.34217623976, -146119.54493755638, -58928.65317209401, -124135.68784423922, 30824.217894580117, -71817.63015003565, 18814.40208129908, -124047.44315712967, 0.052000000000000005, 0.96, 0.032, 192.0, 0.0, 0.0, 0.0, 0.0, 0.0, 0.0, 0.0, 0.0, 0.0, 1.6664034244680252E9, 0.0, 2022-10-21 18:50:24.468
80.0, -103646.46955090399, -146090.84529767578, -58906.34613112762, -124120.73452719863, 30849.6318280258, -71828.64956005212, 18805.72960445042, -124023.99617719605, 0.052000000000000005, 0.96, 0.032, 192.0, 0.0, 0.0, 0.0, 0.0, 0.0, 0.0, 0.0, 0.0, 0.0, 1.666403424468038E9, 0.0, 2022-10-21 18:50:24.468
81.0, -103652.52687365138, -146097.12613786772, -58915.532698098745, -124128.6470447358, 30842.52397328901, -71844.25107768191, 18773.27487150131, -124043.21867742762, 0.052000000000000005, 0.96, 0.032, 192.0, 0.0, 0.0, 0.0, 0.0, 0.0, 0.0, 0.0, 0.0, 0.0, 1.666403424468051E9, 0.0, 2022-10-21 18:50:24.468
82.0, -103650.78343758386, -146095.5391640114, -58913.96807598688, -124120.04162312052, 30845.58616227939, -71831.01884496438, 18794.95606362296, -124030.41112785474, 0.052000000000000005, 0.96, 0.032, 192.0, 0.0, 0.0, 0.0, 0.0, 0.0, 0.0, 0.0, 0.0, 0.0, 1.666403424468064E9, 0.0, 2022-10-21 18:50:24.468
83.0, -103663.45687669002, -146105.55274552736, -58927.9602680159, -124125.27193132305, 30834.276179585002, -71827.73313852944, 18819.67709299053, -124036.80372676895, 0.052000000000000005, 0.96, 0.032, 192.0, 0.0, 0.0, 0.0, 0.0, 0.0, 0.0, 0.0, 0.0, 0.0, 1.6664034244680767E9, 0.0, 2022-10-21 18:50:24.468
84.0, -103653.17507424059, -146097.729634968, -58920.83006153465, -124128.08825112443, 30844.021540167516, -71842.79821429231, 18813.284494076313, -124029.60646505434, 0.052000000000000005, 0.96, 0.032, 192.0, 0.0, 0.0, 0.0, 0.0, 0.0, 0.0, 0.0, 0.0, 0.0, 1.6664034244680903E9, 0.0, 2022-10-21 18:50:24.468
85.0, -103656.72900160897, -146107.07266415033, -58928.94374477193, -124134.25733259409, 30842.90395294475, -71847.20150795001, 18795.3360432787, -124028.86885748731, 0.056, 0.9580000000000001, 0.03, 192.0, 1.0, 192.0, 29.0, 240.0, 0.0, 240.0, 0.0, 0.0, 0.0, 1.6664034244681032E9, 0.0, 2022-10-21 18:50:24.468
86.0, -103644.45789390302, -146092.25345757647, -58916.18089868795, -124111.68207069422, 30859.980685708608, -71828.42604260755, 18807.361281795656, -124012.41797356821, 0.056, 0.9580000000000001, 0.03, 192.0, 0.0, 0.0, 0.0, 0.0, 0.0, 0.0, 0.0, 0.0, 0.0, 1.6664034244681172E9, 0.0, 2022-10-21 18:50:24.468
87.0, -103653.95738529651, -146101.5294315254, -58922.97582900237, -124111.83853290541, 30851.19645013767, -71815.41732733457, 18840.93360196753, -124028.7794505095, 0.056, 0.9580000000000001, 0.03, 192.0, 0.0, 0.0, 0.0, 0.0, 0.0, 0.0, 0.0, 0.0, 0.0, 1.66640342446813E9, 0.0, 2022-10-21 18:50:24.468
88.0, -103662.18282725607, -146111.07362640783, -58936.14100648654, -124135.1514023723, 30840.28879884348, -71843.13349045915, 18833.266953619357, -124046.41497688473, 0.056, 0.9580000000000001, 0.03, 192.0, 0.0, 0.0, 0.0, 0.0, 0.0, 0.0, 0.0, 0.0, 0.0, 1.6664034244681432E9, 0.0, 2022-10-21 18:50:24.468
89.0, -103684.6239786892, -146127.25628939347, -58957.17399801898, -124162.39817886331, 30820.015766622517, -71881.57849092227, 18791.75976416585, -124064.27402070451, 0.056, 0.9580000000000001, 0.03, 192.0, 0.0, 0.0, 0.0, 0.0, 0.0, 0.0, 0.0, 0.0, 0.0, 1.6664034244681673E9, 0.0, 2022-10-21 18:50:24.468
90.0, -103672.35287098323, -146114.9404781986, -58947.22747173637, -124146.48373681113, 30831.906894672742, -71880.6173659107, 18789.658700187054, -124052.49465137658, 0.056, 0.9580000000000001, 0.03, 192.0, 0.0, 0.0, 0.0, 0.0, 0.0, 0.0, 0.0, 0.0, 0.0, 1.6664034244681811E9, 0.0, 2022-10-21 18:50:24.468
91.0, -103645.41901891459, -146090.4876697645, -58920.07010222317, -124109.31278578196, 30862.282915387503, -71845.30160967131, 18834.4962995644, -124016.24012187007, 0.056, 0.9580000000000001, 0.03, 192.0, 0.0, 0.0, 0.0, 0.0, 0.0, 0.0, 0.0, 0.0, 0.0, 1.666403424468196E9, 0.0, 2022-10-21 18:50:24.468
92.0, -103647.4083241711, -146091.1358703537, -58924.65220983651, -124102.51785546755, 30871.089502702893, -71832.15878393159, 18849.941354983017, -124000.52684551799, 0.056, 0.9580000000000001, 0.03, 192.0, 0.0, 0.0, 0.0, 0.0, 0.0, 0.0, 0.0, 0.0, 0.0, 1.6664034244682095E9, 0.0, 2022-10-21 18:50:24.468
93.0, -103653.9126818076, -146099.9424576691, -58938.398532676525, -124126.5012772681, 30859.287781630494, -71852.99060976393, 18819.453575545976, -124031.3275493774, 0.056, 0.9580000000000001, 0.03, 192.0, 0.0, 0.0, 0.0, 0.0, 0.0, 0.0, 0.0, 0.0, 0.0, 1.6664034244682229E9, 0.0, 2022-10-21 18:50:24.468
94.0, -103663.23335924547, -146109.91133569615, -58947.495692669836, -124136.69367273971, 30846.21201112414, -71867.3627814487, 18805.461383516955, -124042.01168322703, 0.056, 0.9580000000000001, 0.03, 192.0, 0.0, 0.0, 0.0, 0.0, 0.0, 0.0, 0.0, 0.0, 0.0, 1.666403424468236E9, 0.0, 2022-10-21 18:50:24.468
95.0, -103672.24111226096, -146117.86855672224, -58953.37420146158, -124131.32925407044, 30845.541458790478, -71859.04793251133, 18830.405930329078, -124035.55202907945, 0.054, 0.962, 0.036000000000000004, 192.0, 1.0, 176.0, 30.0, 16.0, 1.0, 32.0, 0.0, 0.0, 0.0, 1.666403424468249E9, 0.0, 2022-10-21 18:50:24.468
96.0, -103668.10603953672, -146109.6431147627, -58946.60162289163, -124130.05520463649, 30852.068168171427, -71854.711694087, 18842.498224079398, -124025.6278545413, 0.054, 0.962, 0.036000000000000004, 192.0, 0.0, 0.0, 0.0, 0.0, 0.0, 0.0, 0.0, 0.0, 0.0, 1.666403424468264E9, 0.0, 2022-10-21 18:50:24.468
97.0, -103655.00791728591, -146096.29912332288, -58943.9641170459, -124132.46919303766, 30856.694979273678, -71860.14316798963, 18826.069691904748, -124019.81640098292, 0.054, 0.962, 0.036000000000000004, 192.0, 0.0, 0.0, 0.0, 0.0, 0.0, 0.0, 0.0, 0.0, 0.0, 1.6664034244682777E9, 0.0, 2022-10-21 18:50:24.468
98.0, -103653.6668126186, -146096.16501285613, -58946.84749208063, -124128.31176856898, 30857.92432521872, -71864.45705466952, 18814.223267343434, -124017.13419164828, 0.054, 0.962, 0.036000000000000004, 192.0, 0.0, 0.0, 0.0, 0.0, 0.0, 0.0, 0.0, 0.0, 0.0, 1.6664034244682908E9, 0.0, 2022-10-21 18:50:24.468
99.0, -103679.99716758695, -146119.96962070104, -58969.512160958315, -124141.52164954206, 30833.359758062335, -71871.45315068403, 18822.38165406962, -124042.61518032732, 0.054, 0.962, 0.036000000000000004, 192.0, 0.0, 0.0, 0.0, 0.0, 0.0, 0.0, 0.0, 0.0, 0.0, 1.6664034244683044E9, 0.0, 2022-10-21 18:50:24.468
100.0, -103667.34608022525, -146106.64798100566, -58961.42082946549, -124136.69367273971, 30845.362644834837, -71866.60282213723, 18840.799491500795, -124038.59186632537, 0.054, 0.962, 0.036000000000000004, 192.0, 0.0, 0.0, 0.0, 0.0, 0.0, 0.0, 0.0, 0.0, 0.0, 1.6664034244683175E9, 0.0, 2022-10-21 18:50:24.468
101.0, -103668.26250174791, -146106.17859437212, -58960.415000965004, -124144.49443155462, 30847.173136135716, -71876.45994144201, 18828.52838379483, -124034.7250145346, 0.054, 0.962, 0.036000000000000004, 192.0, 0.0, 0.0, 0.0, 0.0, 0.0, 0.0, 0.0, 0.0, 0.0, 1.6664034244683313E9, 0.0, 2022-10-21 18:50:24.468
102.0, -103663.07689703428, -146103.4963850375, -58954.93882357345, -124142.08044315345, 30853.722197261122, -71885.2218252685, 18814.58089525472, -124026.38781385278, 0.054, 0.962, 0.036000000000000004, 192.0, 0.0, 0.0, 0.0, 0.0, 0.0, 0.0, 0.0, 0.0, 0.0, 1.6664034244683447E9, 0.0, 2022-10-21 18:50:24.468
103.0, -103663.00984180091, -146103.76460597094, -58963.74541088884, -124128.71409996916, 30859.131319419306, -71862.02071452388, 18839.30192462229, -124024.95730220764, 0.054, 0.962, 0.036000000000000004, 192.0, 0.0, 0.0, 0.0, 0.0, 0.0, 0.0, 0.0, 0.0, 0.0, 1.6664034244683578E9, 0.0, 2022-10-21 18:50:24.468
104.0, -103683.68520542208, -146128.66444929416, -58980.59862620814, -124149.38946359033, 30843.127470389307, -71884.75243863493, 18835.323314109246, -124042.34695939386, 0.054, 0.962, 0.036000000000000004, 192.0, 0.0, 0.0, 0.0, 0.0, 0.0, 0.0, 0.0, 0.0, 0.0, 1.6664034244683712E9, 0.0, 2022-10-21 18:50:24.468
105.0, -103666.18378951357, -146109.0396176624, -58958.671564897486, -124135.26316109457, 30866.4850433451, -71877.8681013427, 18840.01718044486, -124024.4208603407, 0.054, 0.96, 0.032, 192.0, 1.0, 176.0, 30.0, 0.0, 1.0, 0.0, 0.0, 0.0, 0.0, 1.6664034244683962E9, 0.0, 2022-10-21 18:50:24.468
106.0, -103656.23726323096, -146100.90358268065, -58952.25661423882, -124126.791849946, 30875.224575427124, -71875.3647059637, 18829.86948846215, -124016.24012187007, 0.054, 0.96, 0.032, 192.0, 0.0, 0.0, 0.0, 0.0, 0.0, 0.0, 0.0, 0.0, 0.0, 1.6664034244684107E9, 0.0, 2022-10-21 18:50:24.468
107.0, -103652.50452190693, -146095.4944605225, -58952.882463083566, -124110.43037300472, 30877.50445336157, -71871.34139196175, 18839.950125211493, -124009.69106074466, 0.054, 0.96, 0.032, 192.0, 0.0, 0.0, 0.0, 0.0, 0.0, 0.0, 0.0, 0.0, 0.0, 1.6664034244684253E9, 0.0, 2022-10-21 18:50:24.468
108.0, -103661.80284760032, -146105.8433182053, -58965.48884695636, -124131.95510291519, 30861.00886595355, -71888.26166251441, 18845.2474886474, -124013.13322939078, 0.054, 0.96, 0.032, 192.0, 0.0, 0.0, 0.0, 0.0, 0.0, 0.0, 0.0, 0.0, 0.0, 1.6664034244684381E9, 0.0, 2022-10-21 18:50:24.468
109.0, -103670.87765584918, -146115.87925146573, -58977.24586453985, -124154.26214388158, 30850.928229204208, -71904.33256677778, 18835.77034899835, -124021.35867135033, 0.054, 0.96, 0.032, 192.0, 0.0, 0.0, 0.0, 0.0, 0.0, 0.0, 0.0, 0.0, 0.0, 1.6664034244684515E9, 0.0, 2022-10-21 18:50:24.468
110.0, -103669.91653083761, -146110.62659151873, -58977.827009895685, -124150.21647813517, 30856.382054851303, -71900.28690103137, 18827.96959018345, -124032.04280519996, 0.054, 0.96, 0.032, 192.0, 0.0, 0.0, 0.0, 0.0, 0.0, 0.0, 0.0, 0.0, 0.0, 1.6664034244684646E9, 0.0, 2022-10-21 18:50:24.468
111.0, -103669.84947560423, -146106.8938501947, -58975.5694837057, -124138.59357101841, 30860.76299676454, -71894.87777887318, 18834.20572688648, -124031.9757499666, 0.054, 0.96, 0.032, 192.0, 0.0, 0.0, 0.0, 0.0, 0.0, 0.0, 0.0, 0.0, 0.0, 1.6664034244684775E9, 0.0, 2022-10-21 18:50:24.468
112.0, -103680.93594085408, -146119.74610325648, -58984.84545765466, -124145.58966703292, 30851.57642979341, -71893.84959862824, 18850.522500338855, -124041.58700008238, 0.054, 0.96, 0.032, 192.0, 0.0, 0.0, 0.0, 0.0, 0.0, 0.0, 0.0, 0.0, 0.0, 1.6664034244684925E9, 0.0, 2022-10-21 18:50:24.468
113.0, -103691.59772295925, -146131.32430688434, -58995.797812437755, -124161.97349571866, 30844.982665179097, -71905.74072667846, 18845.426302603042, -124045.05152047296, 0.054, 0.96, 0.032, 192.0, 0.0, 0.0, 0.0, 0.0, 0.0, 0.0, 0.0, 0.0, 0.0, 1.6664034244685056E9, 0.0, 2022-10-21 18:50:24.468
114.0, -103667.63665290317, -146106.80444321685, -58975.793001150254, -124143.91328619877, 30868.608459068357, -71907.66297670161, 18834.406892586576, -124019.5705317939, 0.058, 0.96, 0.032, 192.0, 1.0, 208.0, 30.0, 0.0, 1.0, 0.0, 0.0, 0.0, 0.0, 1.6664034244685206E9, 0.0, 2022-10-21 18:50:24.468
115.0, -103679.34896699774, -146119.54493755638, -58988.15351583404, -124145.58966703292, 30857.320828118423, -71906.7242034345, 18828.193107628, -124033.272151145, 0.058, 0.96, 0.032, 192.0, 0.0, 0.0, 0.0, 0.0, 0.0, 0.0, 0.0, 0.0, 0.0, 1.6664034244685347E9, 0.0, 2022-10-21 18:50:24.468
116.0, -103675.14683904014, -146118.69557126708, -58996.04368162676, -124142.7509954871, 30854.01276993904, -71902.9244068771, 18858.122093453658, -124039.50828784803, 0.058, 0.96, 0.032, 192.0, 0.0, 0.0, 0.0, 0.0, 0.0, 0.0, 0.0, 0.0, 0.0, 1.666403424468548E9, 0.0, 2022-10-21 18:50:24.468
117.0, -103666.63082440267, -146113.21939387554, -58989.8746001571, -124140.76169023057, 30863.601668310366, -71907.32770053479, 18870.572015115264, -124027.14777316425, 0.058, 0.96, 0.032, 192.0, 0.0, 0.0, 0.0, 0.0, 0.0, 0.0, 0.0, 0.0, 0.0, 1.6664034244685612E9, 0.0, 2022-10-21 18:50:24.468
118.0, -103663.1663040121, -146107.65380950616, -58988.64525421205, -124146.3049228555, 30863.82518575492, -71927.51132577793, 18843.77227351335, -124025.15846790774, 0.058, 0.96, 0.032, 192.0, 0.0, 0.0, 0.0, 0.0, 0.0, 0.0, 0.0, 0.0, 0.0, 1.6664034244685743E9, 0.0, 2022-10-21 18:50:24.468
119.0, -103664.2168360015, -146107.02796066142, -58991.23805656887, -124135.9560651727, 30869.770749780033, -71920.29171231887, 18839.816014744763, -124016.37423233679, 0.058, 0.96, 0.032, 192.0, 0.0, 0.0, 0.0, 0.0, 0.0, 0.0, 0.0, 0.0, 0.0, 1.6664034244685876E9, 0.0, 2022-10-21 18:50:24.468
120.0, -103679.95246409804, -146121.26602187945, -59013.81331846873, -124133.58678026042, 30858.90780197475, -71911.9768633815, 18857.83152077574, -124028.46652608711, 0.058, 0.96, 0.032, 192.0, 0.0, 0.0, 0.0, 0.0, 0.0, 0.0, 0.0, 0.0, 0.0, 1.666403424468614E9, 0.0, 2022-10-21 18:50:24.468
121.0, -103695.30811253884, -146133.2912603964, -59033.751074522865, -124158.84425149493, 30841.831069210897, -71936.49672704897, 18853.271764906858, -124043.44219487217, 0.058, 0.96, 0.032, 192.0, 0.0, 0.0, 0.0, 0.0, 0.0, 0.0, 0.0, 0.0, 0.0, 1.6664034249457471E9, 0.0, 2022-10-21 18:50:24.945
122.0, -103685.20512404504, -146123.05416143587, -59028.654876787055, -124167.38261787685, 30848.693054758678, -71945.10214866426, 18839.458386833478, -124038.59186632537, 0.058, 0.96, 0.032, 192.0, 0.0, 0.0, 0.0, 0.0, 0.0, 0.0, 0.0, 0.0, 0.0, 1.66640342494584E9, 0.0, 2022-10-21 18:50:24.945
123.0, -103667.70370813653, -146106.58092577232, -59008.49360328837, -124134.59260876091, 30874.799892282474, -71937.45785206054, 18835.97151469845, -124018.56470329342, 0.058, 0.96, 0.032, 192.0, 0.0, 0.0, 0.0, 0.0, 0.0, 0.0, 0.0, 0.0, 0.0, 1.666403424945874E9, 0.0, 2022-10-21 18:50:24.945
124.0, -103670.92235933809, -146110.738350241, -59013.05335915725, -124129.31759706946, 30871.804758525464, -71927.01958739992, 18844.889860736115, -124019.1234969048, 0.062, 0.9560000000000001, 0.032, 192.0, 1.0, 240.0, 29.0, 224.0, 1.0, 0.0, 0.0, 0.0, 0.0, 1.666403424945906E9, 0.0, 2022-10-21 18:50:24.945
125.0, -103677.40436523013, -146117.01919043294, -59022.709312761945, -124149.90355371281, 30856.940848462684, -71941.25764861795, 18852.02006721736, -124026.74544176405, 0.062, 0.9560000000000001, 0.032, 192.0, 0.0, 0.0, 0.0, 0.0, 0.0, 0.0, 0.0, 0.0, 0.0, 1.6664034249459257E9, 0.0, 2022-10-21 18:50:24.945
126.0, -103673.85043786174, -146112.88411770872, -59021.34585635017, -124154.37390260387, 30858.59487755238, -71957.50736683696, 18832.171718141046, -124041.98933148257, 0.062, 0.9560000000000001, 0.032, 192.0, 0.0, 0.0, 0.0, 0.0, 0.0, 0.0, 0.0, 0.0, 0.0, 1.6664034249459412E9, 0.0, 2022-10-21 18:50:24.945
127.0, -103672.91166459462, -146110.55953628535, -59020.16121389404, -124164.47689109766, 30855.19741239517, -71969.17497744263, 18808.747089951885, -124043.39749138326, 0.062, 0.9560000000000001, 0.032, 192.0, 0.0, 0.0, 0.0, 0.0, 0.0, 0.0, 0.0, 0.0, 0.0, 1.666403424945958E9, 0.0, 2022-10-21 18:50:24.945
128.0, -103680.89123736517, -146118.96379220055, -59026.889088975084, -124159.69361778423, 30852.224630382614, -71947.20321264306, 18829.355398339678, -124040.22354367061, 0.062, 0.9560000000000001, 0.032, 192.0, 0.0, 0.0, 0.0, 0.0, 0.0, 0.0, 0.0, 0.0, 0.0, 1.6664034249459732E9, 0.0, 2022-10-21 18:50:24.945
129.0, -103688.49083047996, -146128.75385627197, -59035.852138501665, -124166.64501030983, 30844.446223312167, -71944.25278237496, 18856.468064363966, -124046.14675595127, 0.062, 0.9560000000000001, 0.032, 192.0, 0.0, 0.0, 0.0, 0.0, 0.0, 0.0, 0.0, 0.0, 0.0, 1.6664034249459882E9, 0.0, 2022-10-21 18:50:24.945
130.0, -103668.4189639591, -146106.22329786103, -59014.81914696922, -124162.88991724134, 30862.037046198497, -71959.83194826031, 18840.084235678227, -124022.38685159528, 0.062, 0.9560000000000001, 0.032, 192.0, 0.0, 0.0, 0.0, 0.0, 0.0, 0.0, 0.0, 0.0, 0.0, 1.6664034249460032E9, 0.0, 2022-10-21 18:50:24.946
131.0, -103668.17309477009, -146103.87636469322, -59008.78417596629, -124159.02306545057, 30870.083674202404, -71946.15268065366, 18827.410796572065, -124016.1730666367, 0.062, 0.9560000000000001, 0.032, 192.0, 0.0, 0.0, 0.0, 0.0, 0.0, 0.0, 0.0, 0.0, 0.0, 1.6664034249460182E9, 0.0, 2022-10-21 18:50:24.946
132.0, -103677.87375186369, -146114.62755377623, -59019.62477202711, -124163.91809748628, 30856.225592640116, -71947.44908183206, 18824.594476770697, -124030.74640402156, 0.062, 0.9560000000000001, 0.032, 192.0, 0.0, 0.0, 0.0, 0.0, 0.0, 0.0, 0.0, 0.0, 0.0, 1.6664034249460337E9, 0.0, 2022-10-21 18:50:24.946
133.0, -103695.15165032765, -146129.84909175028, -59037.30500189126, -124173.23877492415, 30842.14399363327, -71954.17695691311, 18839.68190427803, -124042.16814543822, 0.062, 0.9560000000000001, 0.032, 192.0, 0.0, 0.0, 0.0, 0.0, 0.0, 0.0, 0.0, 0.0, 0.0, 1.6664034249460566E9, 0.0, 2022-10-21 18:50:24.946
134.0, -103683.2158187885, -146114.69460900957, -59032.141748922084, -124173.4622923687, 30847.329598346903, -71963.89996575117, 18847.460311348477, -124038.86008725883, 0.06, 0.9580000000000001, 0.03, 192.0, 1.0, 224.0, 29.0, 240.0, 0.0, 240.0, 0.0, 0.0, 0.0, 1.666403424946072E9, 0.0, 2022-10-21 18:50:24.946
135.0, -103677.58317918578, -146110.492481052, -59032.275859388814, -124172.59057433494, 30849.877697214808, -71974.5393961119, 18830.696503006995, -124037.76485178052, 0.06, 0.9580000000000001, 0.03, 192.0, 0.0, 0.0, 0.0, 0.0, 0.0, 0.0, 0.0, 0.0, 0.0, 1.6664034249461625E9, 0.0, 2022-10-21 18:50:24.946
136.0, -103677.15849604113, -146107.89967869516, -59034.466330345436, -124165.9521062317, 30853.319865860925, -71969.30908790935, 18835.323314109246, -124034.65795930124, 0.06, 0.9580000000000001, 0.03, 192.0, 0.0, 0.0, 0.0, 0.0, 0.0, 0.0, 0.0, 0.0, 0.0, 1.66640342494618E9, 0.0, 2022-10-21 18:50:24.946
137.0, -103679.66189142012, -146112.10180665276, -59038.17671992502, -124166.98028647665, 30848.424833825215, -71971.99129724399, 18844.375770613646, -124031.1710871662, 0.06, 0.9580000000000001, 0.03, 192.0, 0.0, 0.0, 0.0, 0.0, 0.0, 0.0, 0.0, 0.0, 0.0, 1.6664034249461951E9, 0.0, 2022-10-21 18:50:24.946
138.0, -103666.65317614713, -146101.7976524589, -59025.97266745242, -124152.49635606962, 30862.573488065424, -71963.40822737316, 18852.44475036201, -124015.9719009366, 0.06, 0.9580000000000001, 0.03, 192.0, 0.0, 0.0, 0.0, 0.0, 0.0, 0.0, 0.0, 0.0, 0.0, 1.6664034249462104E9, 0.0, 2022-10-21 18:50:24.946
139.0, -103669.38008897068, -146107.2961815949, -59028.364304109135, -124159.71596952868, 30866.261525900547, -71964.59286982928, 18840.30775312278, -124023.19151439566, 0.06, 0.9580000000000001, 0.03, 192.0, 0.0, 0.0, 0.0, 0.0, 0.0, 0.0, 0.0, 0.0, 0.0, 1.6664034249462256E9, 0.0, 2022-10-21 18:50:24.946
140.0, -103677.82904837478, -146117.06389392185, -59037.10383619116, -124166.7120655432, 30861.098272931373, -71970.80665478786, 18825.2426773599, -124020.3751945943, 0.06, 0.9580000000000001, 0.03, 192.0, 0.0, 0.0, 0.0, 0.0, 0.0, 0.0, 0.0, 0.0, 0.0, 1.666403424946241E9, 0.0, 2022-10-21 18:50:24.946
141.0, -103675.19154252906, -146112.77235898643, -59041.171853682026, -124158.57603056145, 30861.81352875394, -71966.82804427482, 18835.479776320433, -124005.06424964241, 0.06, 0.9580000000000001, 0.03, 192.0, 0.0, 0.0, 0.0, 0.0, 0.0, 0.0, 0.0, 0.0, 0.0, 1.6664034249462557E9, 0.0, 2022-10-21 18:50:24.946
142.0, -103680.2206850315, -146116.59450728828, -59048.41381888555, -124163.42635910826, 30860.427720597712, -71966.89509950818, 18853.048247462302, -124018.05061317094, 0.06, 0.9580000000000001, 0.03, 192.0, 0.0, 0.0, 0.0, 0.0, 0.0, 0.0, 0.0, 0.0, 0.0, 1.6664034249462707E9, 0.0, 2022-10-21 18:50:24.946
143.0, -103680.75712689843, -146116.08041716582, -59052.07950497622, -124171.87531851236, 30860.96416246464, -71987.74927708498, 18833.78104374183, -124029.0253196985, 0.064, 0.9580000000000001, 0.034, 192.0, 2.0, 0.0, 29.0, 240.0, 1.0, 16.0, 0.0, 0.0, 0.0, 1.666403424946286E9, 0.0, 2022-10-21 18:50:24.946
144.0, -103687.70851942404, -146124.6411352922, -59066.42932491653, -124178.33497265996, 30849.430662325703, -72000.08744002432, 18813.86563943215, -124043.26338091653, 0.064, 0.9580000000000001, 0.034, 192.0, 0.0, 0.0, 0.0, 0.0, 0.0, 0.0, 0.0, 0.0, 0.0, 1.6664034249463022E9, 0.0, 2022-10-21 18:50:24.946
145.0, -103706.19341208857, -146138.8344930213, -59082.969615813454, -124185.97926926367, 30836.489002286078, -71995.55003589988, 18830.472985562443, -124052.71816882113, 0.064, 0.9580000000000001, 0.034, 192.0, 0.0, 0.0, 0.0, 0.0, 0.0, 0.0, 0.0, 0.0, 0.0, 1.6664034249463174E9, 0.0, 2022-10-21 18:50:24.946
146.0, -103704.87465916571, -146137.0910569538, -59080.801496601285, -124187.00744950862, 30842.121641888818, -71998.36635570126, 18840.084235678227, -124046.45968037363, 0.064, 0.9580000000000001, 0.034, 192.0, 0.0, 0.0, 0.0, 0.0, 0.0, 0.0, 0.0, 0.0, 0.0, 1.6664034249463313E9, 0.0, 2022-10-21 18:50:24.946
147.0, -103667.21196975851, -146100.9482861696, -59047.60915608516, -124161.61586780738, 30877.68326731721, -71987.3916491737, 18838.854889733182, -124014.87666545829, 0.064, 0.9580000000000001, 0.034, 192.0, 0.0, 0.0, 0.0, 0.0, 0.0, 0.0, 0.0, 0.0, 0.0, 1.6664034249463449E9, 0.0, 2022-10-21 18:50:24.946
148.0, -103669.51419943741, -146101.5964867588, -59049.30788866376, -124161.28059164055, 30874.464616115645, -71990.52089339745, 18821.15230812458, -124016.06130791442, 0.064, 0.9580000000000001, 0.034, 192.0, 0.0, 0.0, 0.0, 0.0, 0.0, 0.0, 0.0, 0.0, 0.0, 1.6664034249463587E9, 0.0, 2022-10-21 18:50:24.946
149.0, -103683.32757751079, -146115.94630669907, -59059.768505068845, -124164.63335330885, 30859.623057797322, -71987.01166951796, 18836.06092167627, -124028.08654643138, 0.064, 0.9580000000000001, 0.034, 192.0, 0.0, 0.0, 0.0, 0.0, 0.0, 0.0, 0.0, 0.0, 0.0, 1.6664034249463725E9, 0.0, 2022-10-21 18:50:24.946
150.0, -103686.79209790136, -146120.81898699034, -59068.21746447295, -124172.43411212375, 30852.649313527265, -71996.73467835602, 18846.67800029254, -124032.80276451145, 0.064, 0.9580000000000001, 0.034, 192.0, 0.0, 0.0, 0.0, 0.0, 0.0, 0.0, 0.0, 0.0, 0.0, 1.6664034249464011E9, 0.0, 2022-10-21 18:50:24.946
151.0, -103684.53457171138, -146118.44970207807, -59069.11153425116, -124175.74217030313, 30856.896144973773, -72004.8930650822, 18840.01718044486, -124027.1701249087, 0.064, 0.9580000000000001, 0.034, 192.0, 0.0, 0.0, 0.0, 0.0, 0.0, 0.0, 0.0, 0.0, 0.0, 1.6664034249464161E9, 0.0, 2022-10-21 18:50:24.946
152.0, -103687.35089151275, -146119.50023406747, -59069.64797611809, -124169.95306848921, 30860.360665364347, -72005.4965621825, 18829.288343106313, -124026.38781385278, 0.064, 0.9580000000000001, 0.034, 192.0, 0.0, 0.0, 0.0, 0.0, 0.0, 0.0, 0.0, 0.0, 0.0, 1.6664034249464304E9, 0.0, 2022-10-21 18:50:24.946
153.0, -103681.69590016555, -146114.49344330947, -59063.16597022605, -124149.94825720172, 30870.575412580423, -71998.41105919017, 18838.363151355166, -124014.60844452483, 0.062, 0.9540000000000001, 0.036000000000000004, 192.0, 1.0, 240.0, 29.0, 208.0, 1.0, 32.0, 0.0, 0.0, 0.0, 1.6664034249464445E9, 0.0, 2022-10-21 18:50:24.946
154.0, -103676.71146115202, -146108.0337891619, -59057.667441090045, -124147.55662054499, 30875.761017294055, -71980.75318107047, 18866.63810809113, -124011.63566251227, 0.062, 0.9540000000000001, 0.036000000000000004, 192.0, 0.0, 0.0, 0.0, 0.0, 0.0, 0.0, 0.0, 0.0, 0.0, 1.6664034249464598E9, 0.0, 2022-10-21 18:50:24.946
155.0, -103681.69590016555, -146111.52066129693, -59061.60134811418, -124170.3553998894, 30869.167252679737, -71994.72302135504, 18858.39031438712, -124013.53556079097, 0.062, 0.9540000000000001, 0.036000000000000004, 192.0, 0.0, 0.0, 0.0, 0.0, 0.0, 0.0, 0.0, 0.0, 0.0, 1.6664034249464755E9, 0.0, 2022-10-21 18:50:24.946
156.0, -103678.1196210527, -146108.7937484734, -59061.221368458435, -124171.00360047861, 30871.87181375883, -72008.73756512851, 18836.306790865277, -124007.1206101323, 0.062, 0.9540000000000001, 0.036000000000000004, 192.0, 0.0, 0.0, 0.0, 0.0, 0.0, 0.0, 0.0, 0.0, 0.0, 1.6664034249464893E9, 0.0, 2022-10-21 18:50:24.946
157.0, -103683.7746123999, -146114.00170493146, -59065.848179560686, -124174.17754819126, 30867.043836956484, -72017.41004197717, 18824.48271804842, -124011.47920030108, 0.062, 0.9540000000000001, 0.036000000000000004, 192.0, 0.0, 0.0, 0.0, 0.0, 0.0, 0.0, 0.0, 0.0, 0.0, 1.6664034249465032E9, 0.0, 2022-10-21 18:50:24.946
158.0, -103686.25565603444, -146117.0415421774, -59063.83652255971, -124170.73537954515, 30867.893203245785, -72010.21278026256, 18844.845157247204, -124002.7173164746, 0.062, 0.9540000000000001, 0.036000000000000004, 192.0, 0.0, 0.0, 0.0, 0.0, 0.0, 0.0, 0.0, 0.0, 0.0, 1.6664034249465168E9, 0.0, 2022-10-21 18:50:24.946
159.0, -103692.46944099301, -146125.15522541467, -59068.865665062156, -124180.52544361657, 30867.937906734696, -72007.68703313913, 18855.819863774763, -123995.38594429326, 0.062, 0.9540000000000001, 0.036000000000000004, 192.0, 0.0, 0.0, 0.0, 0.0, 0.0, 0.0, 0.0, 0.0, 0.0, 1.666403424946531E9, 0.0, 2022-10-21 18:50:24.946
160.0, -103690.3236735253, -146122.11538816875, -59070.00560402937, -124185.08519948546, 30870.418950369236, -72005.2953964824, 18848.91317473807, -124010.0710404004, 0.062, 0.9540000000000001, 0.036000000000000004, 192.0, 0.0, 0.0, 0.0, 0.0, 0.0, 0.0, 0.0, 0.0, 0.0, 1.666403424946545E9, 0.0, 2022-10-21 18:50:24.946
161.0, -103680.08657456478, -146112.12415839723, -59062.67423184803, -124175.20572843621, 30875.269278916036, -72008.6928616396, 18845.67217179205, -124013.04382241296, 0.062, 0.9540000000000001, 0.036000000000000004, 192.0, 0.0, 0.0, 0.0, 0.0, 0.0, 0.0, 0.0, 0.0, 0.0, 1.6664034249465587E9, 0.0, 2022-10-21 18:50:24.946
162.0, -103698.75028118496, -146129.62557430574, -59081.20382800148, -124189.68965884324, 30854.77272925052, -72018.92996060014, 18850.477796849944, -124029.0700231874, 0.062, 0.9540000000000001, 0.036000000000000004, 192.0, 0.0, 0.0, 0.0, 0.0, 0.0, 0.0, 0.0, 0.0, 0.0, 1.6664034249465723E9, 0.0, 2022-10-21 18:50:24.946
163.0, -103691.8212404038, -146122.87534748024, -59073.22425523094, -124188.81794080949, 30862.081749687404, -72034.39736776322, 18850.455445105486, -124013.58026427988, 0.06, 0.9540000000000001, 0.038, 192.0, 1.0, 224.0, 29.0, 208.0, 1.0, 48.0, 0.0, 0.0, 0.0, 1.6664034249465866E9, 0.0, 2022-10-21 18:50:24.946
164.0, -103678.41019373063, -146107.87732695072, -59058.293289934794, -124169.21546092219, 30883.114741219848, -72020.80750713438, 18848.91317473807, -124002.49379903005, 0.06, 0.9540000000000001, 0.038, 192.0, 0.0, 0.0, 0.0, 0.0, 0.0, 0.0, 0.0, 0.0, 0.0, 1.6664034249466016E9, 0.0, 2022-10-21 18:50:24.946
165.0, -103698.05737710684, -146126.00459170397, -59079.54979891179, -124186.04632449703, 30863.15463342126, -72036.6548939532, 18831.38940708511, -124024.28674987398, 0.06, 0.9540000000000001, 0.038, 192.0, 0.0, 0.0, 0.0, 0.0, 0.0, 0.0, 0.0, 0.0, 0.0, 1.6664034249466283E9, 0.0, 2022-10-21 18:50:24.946
166.0, -103690.59189445876, -146118.96379220055, -59069.40210692908, -124171.49533885662, 30875.559851593956, -72015.3983849762, 18862.212462688978, -124011.23333111207, 0.06, 0.9540000000000001, 0.038, 192.0, 0.0, 0.0, 0.0, 0.0, 0.0, 0.0, 0.0, 0.0, 0.0, 1.6664034249466424E9, 0.0, 2022-10-21 18:50:24.946
167.0, -103688.98256885799, -146114.9404781986, -59068.55274063978, -124173.81992027997, 30879.627869084823, -72017.18652453262, 18876.092895995724, -124010.18279912267, 0.06, 0.9540000000000001, 0.038, 192.0, 0.0, 0.0, 0.0, 0.0, 0.0, 0.0, 0.0, 0.0, 0.0, 1.6664034249466562E9, 0.0, 2022-10-21 18:50:24.946
168.0, -103692.40238575965, -146118.76262650045, -59075.414726187555, -124189.24262395414, 30874.19639518218, -72041.59462947783, 18849.382561371633, -124011.68036600118, 0.06, 0.9540000000000001, 0.038, 192.0, 0.0, 0.0, 0.0, 0.0, 0.0, 0.0, 0.0, 0.0, 0.0, 1.66640342494667E9, 0.0, 2022-10-21 18:50:24.946
169.0, -103704.15940334313, -146128.77620801644, -59082.88020883563, -124196.35047869093, 30865.38980786679, -72055.18449010665, 18828.684846006017, -124020.79987773894, 0.06, 0.9540000000000001, 0.038, 192.0, 0.0, 0.0, 0.0, 0.0, 0.0, 0.0, 0.0, 0.0, 0.0, 1.6664034249466836E9, 0.0, 2022-10-21 18:50:24.946
170.0, -103718.3304093278, -146141.7402198005, -59096.49242120891, -124197.62452812488, 30856.20324089566, -72045.7073504576, 18845.11337818067, -124035.10499419035, 0.06, 0.9540000000000001, 0.038, 192.0, 0.0, 0.0, 0.0, 0.0, 0.0, 0.0, 0.0, 0.0, 0.0, 1.6664034249466975E9, 0.0, 2022-10-21 18:50:24.946
171.0, -103694.14582182716, -146115.40986483215, -59072.8442755752, -124178.73730406015, 30877.72797080612, -72028.80943164938, 18878.3057186968, -124018.63175852678, 0.06, 0.9540000000000001, 0.038, 192.0, 0.0, 0.0, 0.0, 0.0, 0.0, 0.0, 0.0, 0.0, 0.0, 1.6664034249467113E9, 0.0, 2022-10-21 18:50:24.946
172.0, -103690.59189445876, -146111.5877165303, -59072.50899940837, -124181.28540292806, 30881.080732474416, -72046.22144058006, 18856.49041610842, -124008.05938339942, 0.06, 0.9540000000000001, 0.038, 192.0, 0.0, 0.0, 0.0, 0.0, 0.0, 0.0, 0.0, 0.0, 0.0, 1.666403424946726E9, 0.0, 2022-10-21 18:50:24.946
173.0, -103699.1749643296, -146121.71305676855, -59082.053194290784, -124193.15417923382, 30871.715351547642, -72060.16892912018, 18831.81409022976, -124010.09339214486, 0.06, 0.9500000000000001, 0.038, 192.0, 1.0, 224.0, 29.0, 176.0, 1.0, 48.0, 0.0, 0.0, 0.0, 1.66640342494674E9, 0.0, 2022-10-21 18:50:24.946
174.0, -103692.31297878182, -146113.487614809, -59073.537179653315, -124178.7596558046, 30879.024371984528, -72044.61211497929, 18852.914136995572, -123998.29167107245, 0.06, 0.9500000000000001, 0.038, 192.0, 0.0, 0.0, 0.0, 0.0, 0.0, 0.0, 0.0, 0.0, 0.0, 1.6664034249467547E9, 0.0, 2022-10-21 18:50:24.946
175.0, -103690.65894969214, -146109.33019034032, -59078.722784366946, -124184.54875761853, 30875.5374998495, -72050.91530691569, 18863.93354701204, -124004.99719440905, 0.06, 0.9500000000000001, 0.038, 192.0, 0.0, 0.0, 0.0, 0.0, 0.0, 0.0, 0.0, 0.0, 0.0, 1.6664034249467685E9, 0.0, 2022-10-21 18:50:24.946
176.0, -103687.99909210195, -146106.84914670576, -59079.92977856753, -124187.90151928682, 30879.426703384725, -72047.54019350294, 18863.844140034216, -124004.50545603102, 0.06, 0.9500000000000001, 0.038, 192.0, 0.0, 0.0, 0.0, 0.0, 0.0, 0.0, 0.0, 0.0, 0.0, 1.666403424946784E9, 0.0, 2022-10-21 18:50:24.946
177.0, -103690.63659794768, -146105.4409868051, -59084.80245885879, -124194.87526355688, 30876.118645205337, -72052.6587429832, 18850.366038127668, -124009.69106074466, 0.06, 0.9500000000000001, 0.038, 192.0, 0.0, 0.0, 0.0, 0.0, 0.0, 0.0, 0.0, 0.0, 0.0, 1.6664034249467978E9, 0.0, 2022-10-21 18:50:24.946
178.0, -103687.7755746574, -146103.16110887064, -59084.6459966476, -124186.11337973039, 30878.465578373147, -72049.59655399281, 18855.752808541394, -124003.81255195291, 0.06, 0.9500000000000001, 0.038, 192.0, 0.0, 0.0, 0.0, 0.0, 0.0, 0.0, 0.0, 0.0, 0.0, 1.6664034249468117E9, 0.0, 2022-10-21 18:50:24.946
179.0, -103697.6773974511, -146113.15233864216, -59094.5478194413, -124189.75671407662, 30870.10602594686, -72049.08246387035, 18876.517579140374, -124018.89997946024, 0.06, 0.9500000000000001, 0.038, 192.0, 0.0, 0.0, 0.0, 0.0, 0.0, 0.0, 0.0, 0.0, 0.0, 1.6664034249468253E9, 0.0, 2022-10-21 18:50:24.946
180.0, -103709.36735980122, -146122.87534748024, -59102.01330208938, -124212.73430737667, 30858.460767085646, -72076.68686827265, 18862.570090600264, -124024.48791557408, 0.06, 0.9500000000000001, 0.038, 192.0, 0.0, 0.0, 0.0, 0.0, 0.0, 0.0, 0.0, 0.0, 0.0, 1.6664034249468508E9, 0.0, 2022-10-21 18:50:24.946
181.0, -103701.32073179731, -146113.33115259782, -59093.56434268527, -124198.85387406993, 30872.274145159026, -72082.27480438648, 18834.2951338643, -124014.16140963572, 0.06, 0.9500000000000001, 0.038, 192.0, 0.0, 0.0, 0.0, 0.0, 0.0, 0.0, 0.0, 0.0, 0.0, 1.6664034249468648E9, 0.0, 2022-10-21 18:50:24.946
182.0, -103707.78038594489, -146120.64017303468, -59104.293180023815, -124198.92092930329, 30864.607496810855, -72073.9599554491, 18834.429244331033, -124025.33728186338, 0.052000000000000005, 0.9560000000000001, 0.038, 192.0, 1.0, 160.0, 29.0, 224.0, 1.0, 48.0, 0.0, 0.0, 0.0, 1.6664034249468784E9, 0.0, 2022-10-21 18:50:24.946
183.0, -103693.2741037934, -146107.11736763924, -59090.256284505886, -124181.95595526171, 30878.39852313978, -72044.500356257, 18881.83729432074, -124008.68523224417, 0.052000000000000005, 0.9560000000000001, 0.038, 192.0, 0.0, 0.0, 0.0, 0.0, 0.0, 0.0, 0.0, 0.0, 0.0, 1.6664034249468932E9, 0.0, 2022-10-21 18:50:24.946
184.0, -103692.29062703736, -146102.60231525925, -59094.25724676338, -124192.99771702263, 30875.15752019376, -72065.19807162262, 18880.496189653422, -124011.32273808989, 0.052000000000000005, 0.9560000000000001, 0.038, 192.0, 0.0, 0.0, 0.0, 0.0, 0.0, 0.0, 0.0, 0.0, 0.0, 1.6664034249469068E9, 0.0, 2022-10-21 18:50:24.946
185.0, -103693.9223043826, -146103.3399228263, -59101.007473588885, -124200.82082758199, 30871.29066840299, -72093.87535975878, 18847.05797994828, -124014.78725848047, 0.052000000000000005, 0.9560000000000001, 0.038, 192.0, 0.0, 0.0, 0.0, 0.0, 0.0, 0.0, 0.0, 0.0, 0.0, 1.6664034249469206E9, 0.0, 2022-10-21 18:50:24.946
186.0, -103691.66477819261, -146104.21164086004, -59102.03565383383, -124195.2105397237, 30874.799892282474, -72088.4215341117, 18840.754788011884, -124007.23236885457, 0.052000000000000005, 0.9560000000000001, 0.038, 192.0, 0.0, 0.0, 0.0, 0.0, 0.0, 0.0, 0.0, 0.0, 0.0, 1.6664034249469347E9, 0.0, 2022-10-21 18:50:24.946
187.0, -103695.03989160537, -146105.6868559941, -59105.276656779846, -124186.18043496377, 30877.772674295033, -72065.91332744519, 18869.409724403587, -123997.28584257196, 0.052000000000000005, 0.9560000000000001, 0.038, 192.0, 0.0, 0.0, 0.0, 0.0, 0.0, 0.0, 0.0, 0.0, 0.0, 1.6664034249469483E9, 0.0, 2022-10-21 18:50:24.946
188.0, -103710.23907783498, -146119.54493755638, -59119.15709008659, -124201.17845549327, 30870.73187479161, -72077.98326945106, 18863.330049911743, -124013.91554044672, 0.052000000000000005, 0.9560000000000001, 0.038, 192.0, 0.0, 0.0, 0.0, 0.0, 0.0, 0.0, 0.0, 0.0, 0.0, 1.666403424946962E9, 0.0, 2022-10-21 18:50:24.946
189.0, -103696.33629278377, -146107.5867542728, -59108.003569603396, -124191.36603967739, 30888.412104655756, -72071.88124321475, 18862.88301502264, -124006.24889209855, 0.052000000000000005, 0.9560000000000001, 0.038, 192.0, 0.0, 0.0, 0.0, 0.0, 0.0, 0.0, 0.0, 0.0, 0.0, 1.666403424946976E9, 0.0, 2022-10-21 18:50:24.946
190.0, -103694.01171136042, -146103.89871643766, -59108.4506044925, -124183.23000469567, 30891.07196224594, -72075.4128188387, 18864.49234062342, -124005.48893278706, 0.052000000000000005, 0.9560000000000001, 0.038, 192.0, 0.0, 0.0, 0.0, 0.0, 0.0, 0.0, 0.0, 0.0, 0.0, 1.66640342494699E9, 0.0, 2022-10-21 18:50:24.946
191.0, -103705.34404579927, -146113.2864491089, -59115.02201736236, -124178.35732440441, 30885.841654043397, -72082.05128694192, 18872.11428548268, -124013.53556079097, 0.052000000000000005, 0.9560000000000001, 0.038, 192.0, 0.0, 0.0, 0.0, 0.0, 0.0, 0.0, 0.0, 0.0, 0.0, 1.6664034249470036E9, 0.0, 2022-10-21 18:50:24.947
192.0, -103711.51312726893, -146119.54493755638, -59122.73336919944, -124194.89761530134, 30879.337296406902, -72086.45458059962, 18881.680832109552, -124017.29065385947, 0.052000000000000005, 0.9540000000000001, 0.044, 192.0, 1.0, 160.0, 29.0, 208.0, 1.0, 96.0, 0.0, 0.0, 0.0, 1.6664034249470172E9, 0.0, 2022-10-21 18:50:24.947
193.0, -103702.75124344246, -146111.49830955247, -59119.06768310877, -124197.73628684715, 30891.58605236841, -72086.58869106635, 18866.749866813407, -124010.45102005613, 0.052000000000000005, 0.9540000000000001, 0.044, 192.0, 0.0, 0.0, 0.0, 0.0, 0.0, 0.0, 0.0, 0.0, 0.0, 1.6664034249470317E9, 0.0, 2022-10-21 18:50:24.947
194.0, -103704.69584521007, -146112.68295200862, -59127.74015995743, -124199.18915023675, 30888.032125000016, -72077.53623456195, 18863.598270845207, -124009.75811597802, 0.052000000000000005, 0.9540000000000001, 0.044, 192.0, 0.0, 0.0, 0.0, 0.0, 0.0, 0.0, 0.0, 0.0, 0.0, 1.6664034249470456E9, 0.0, 2022-10-21 18:50:24.947
195.0, -103706.70750221104, -146112.54884154187, -59136.256174594906, -124198.25037696963, 30881.6395260858, -72081.44778984164, 18874.64003260613, -124011.00981366752, 0.052000000000000005, 0.9540000000000001, 0.044, 192.0, 0.0, 0.0, 0.0, 0.0, 0.0, 0.0, 0.0, 0.0, 0.0, 1.666403424947072E9, 0.0, 2022-10-21 18:50:24.947
196.0, -103725.61707802024, -146129.55851907237, -59154.13757015915, -124207.88397882986, 30866.10506368936, -72095.37292663728, 18877.702221596508, -124027.30423537544, 0.052000000000000005, 0.9540000000000001, 0.044, 192.0, 0.0, 0.0, 0.0, 0.0, 0.0, 0.0, 0.0, 0.0, 0.0, 1.666403424947086E9, 0.0, 2022-10-21 18:50:24.947
197.0, -103707.48981326698, -146110.38072232972, -59138.960735673994, -124204.19594099474, 30880.633697585312, -72101.98904299607, 18873.097762238714, -123999.3198513174, 0.052000000000000005, 0.9540000000000001, 0.044, 192.0, 0.0, 0.0, 0.0, 0.0, 0.0, 0.0, 0.0, 0.0, 0.0, 1.6664034249471009E9, 0.0, 2022-10-21 18:50:24.947
198.0, -103698.70557769605, -146099.65188499115, -59127.06960762377, -124196.17166473529, 30891.541348879502, -72109.87920878879, 18846.87916599264, -123987.47342675609, 0.052000000000000005, 0.9540000000000001, 0.044, 192.0, 0.0, 0.0, 0.0, 0.0, 0.0, 0.0, 0.0, 0.0, 0.0, 1.6664034249471145E9, 0.0, 2022-10-21 18:50:24.947
199.0, -103711.42372029112, -146114.00170493146, -59143.587546776245, -124204.64297588385, 30874.10698820436, -72104.76065930852, 18851.707142794985, -124014.00494742453, 0.052000000000000005, 0.9540000000000001, 0.044, 192.0, 0.0, 0.0, 0.0, 0.0, 0.0, 0.0, 0.0, 0.0, 0.0, 1.666403424947128E9, 0.0, 2022-10-21 18:50:24.947
200.0, -103711.87075518022, -146113.39820783117, -59148.817854978784, -124208.28631023006, 30875.001057982572, -72107.15229596524, 18863.73238131194, -124017.29065385947, 0.052000000000000005, 0.9540000000000001, 0.044, 192.0, 0.0, 0.0, 0.0, 0.0, 0.0, 0.0, 0.0, 0.0, 0.0, 1.6664034249471416E9, 0.0, 2022-10-21 18:50:24.947
201.0, -103699.66670270762, -146100.5906582583, -59139.27366009637, -124192.34951643343, 30895.698773348187, -72103.08427847437, 18867.979212758448, -124007.54529327695, 0.052000000000000005, 0.9540000000000001, 0.044, 192.0, 0.0, 0.0, 0.0, 0.0, 0.0, 0.0, 0.0, 0.0, 0.0, 1.6664034249471552E9, 0.0, 2022-10-21 18:50:24.947
202.0, -103710.5296505129, -146111.31949559684, -59144.52632004337, -124197.5127694026, 30893.553005880476, -72107.4652203876, 18851.68479105053, -124007.7688107215, 0.058, 0.96, 0.044, 192.0, 1.0, 208.0, 30.0, 0.0, 1.0, 96.0, 0.0, 0.0, 0.0, 1.6664034249471688E9, 0.0, 2022-10-21 18:50:24.947
203.0, -103720.96791517353, -146119.00849568946, -59154.830474237264, -124205.82761833997, 30883.5394243645, -72109.54393262195, 18850.58955557222, -124017.51417130402, 0.058, 0.96, 0.044, 192.0, 0.0, 0.0, 0.0, 0.0, 0.0, 0.0, 0.0, 0.0, 0.0, 1.6664034249471848E9, 0.0, 2022-10-21 18:50:24.947
204.0, -103711.5801825023, -146108.52552753992, -59148.43787532305, -124190.09199024344, 30895.765828581552, -72091.0143364685, 18880.2056169755, -124005.06424964241, 0.058, 0.96, 0.044, 192.0, 0.0, 0.0, 0.0, 0.0, 0.0, 0.0, 0.0, 0.0, 0.0, 1.6664034249471993E9, 0.0, 2022-10-21 18:50:24.947
205.0, -103723.80658671935, -146120.21548989005, -59159.32317487278, -124196.99867928014, 30892.994212269095, -72105.09593547534, 18869.029744747848, -124007.23236885457, 0.058, 0.96, 0.044, 192.0, 0.0, 0.0, 0.0, 0.0, 0.0, 0.0, 0.0, 0.0, 0.0, 1.6664034249472132E9, 0.0, 2022-10-21 18:50:24.947
206.0, -103706.81926093332, -146105.61980076073, -59143.47578805397, -124179.96665000518, 30910.517979922057, -72086.74515327754, 18874.77414307286, -124002.31498507441, 0.058, 0.96, 0.044, 192.0, 0.0, 0.0, 0.0, 0.0, 0.0, 0.0, 0.0, 0.0, 0.0, 1.6664034249472268E9, 0.0, 2022-10-21 18:50:24.947
207.0, -103717.7269122275, -146118.11442591125, -59157.95971846101, -124199.52442640359, 30893.821226813943, -72099.77622029498, 18866.97338425796, -124020.24108412757, 0.058, 0.96, 0.044, 192.0, 0.0, 0.0, 0.0, 0.0, 0.0, 0.0, 0.0, 0.0, 0.0, 1.6664034249472408E9, 0.0, 2022-10-21 18:50:24.947
208.0, -103740.16806366063, -146136.5322633424, -59177.495143114946, -124208.19690325225, 30880.186662696204, -72108.35929016583, 18874.729439583953, -124027.63951154226, 0.058, 0.96, 0.044, 192.0, 0.0, 0.0, 0.0, 0.0, 0.0, 0.0, 0.0, 0.0, 0.0, 1.6664034249472544E9, 0.0, 2022-10-21 18:50:24.947
209.0, -103724.76771173094, -146119.99197244548, -59163.39119236365, -124196.28342345756, 30897.21869197115, -72101.3184906624, 18898.712861384494, -124016.06130791442, 0.058, 0.96, 0.044, 192.0, 0.0, 0.0, 0.0, 0.0, 0.0, 0.0, 0.0, 0.0, 0.0, 1.6664034249472678E9, 0.0, 2022-10-21 18:50:24.947
210.0, -103719.85032795076, -146116.52745205493, -59165.3134423868, -124203.99477529465, 30899.45386641668, -72124.00551128453, 18863.218291189467, -124017.022432926, 0.058, 0.96, 0.044, 192.0, 0.0, 0.0, 0.0, 0.0, 0.0, 0.0, 0.0, 0.0, 0.0, 1.6664034249472935E9, 0.0, 2022-10-21 18:50:24.947
211.0, -103730.9814966895, -146126.00459170397, -59177.964529748504, -124204.28534797256, 30889.909671534264, -72124.85487757385, 18856.289250408325, -124023.43738358468, 0.062, 0.96, 0.042, 192.0, 1.0, 240.0, 30.0, 0.0, 1.0, 80.0, 0.0, 0.0, 0.0, 1.6664034249473076E9, 0.0, 2022-10-21 18:50:24.947
212.0, -103722.51018554094, -146117.80150148887, -59171.70604130102, -124192.50597864462, 30895.92229079274, -72119.021072271, 18878.059849507794, -124002.42674379668, 0.062, 0.96, 0.042, 192.0, 0.0, 0.0, 0.0, 0.0, 0.0, 0.0, 0.0, 0.0, 0.0, 1.6664034249473221E9, 0.0, 2022-10-21 18:50:24.947
213.0, -103718.95625817255, -146112.61589677524, -59174.85763726922, -124196.59634787994, 30895.87758730383, -72124.20667698463, 18884.407744933098, -124002.40439205222, 0.062, 0.96, 0.042, 192.0, 0.0, 0.0, 0.0, 0.0, 0.0, 0.0, 0.0, 0.0, 0.0, 1.6664034249473348E9, 0.0, 2022-10-21 18:50:24.947
214.0, -103721.0349704069, -146114.78401598742, -59174.969395991495, -124207.74986836314, 30895.78818032601, -72125.70424386315, 18875.712916339984, -124010.18279912267, 0.062, 0.96, 0.042, 192.0, 0.0, 0.0, 0.0, 0.0, 0.0, 0.0, 0.0, 0.0, 0.0, 1.666403424947347E9, 0.0, 2022-10-21 18:50:24.947
215.0, -103735.87652872522, -146127.47980683803, -59193.09666074475, -124217.09289754546, 30882.57829935292, -72138.10946203583, 18855.68575330803, -124027.79597375345, 0.062, 0.96, 0.042, 192.0, 0.0, 0.0, 0.0, 0.0, 0.0, 0.0, 0.0, 0.0, 0.0, 1.666403424947359E9, 0.0, 2022-10-21 18:50:24.947
216.0, -103729.12630189971, -146122.67418178014, -59189.18510546507, -124205.49234217315, 30888.479159889124, -72129.28052297598, 18878.238663463435, -124015.88249395878, 0.062, 0.96, 0.042, 192.0, 0.0, 0.0, 0.0, 0.0, 0.0, 0.0, 0.0, 0.0, 0.0, 1.6664034249473708E9, 0.0, 2022-10-21 18:50:24.947
217.0, -103722.55488902985, -146114.3369810983, -59182.99367225095, -124202.47485667169, 30899.856197816873, -72126.44185143017, 18893.326090970768, -124014.78725848047, 0.062, 0.96, 0.042, 192.0, 0.0, 0.0, 0.0, 0.0, 0.0, 0.0, 0.0, 0.0, 0.0, 1.6664034249473827E9, 0.0, 2022-10-21 18:50:24.947
218.0, -103721.5267087849, -146110.15720488515, -59185.63117809668, -124207.95103406323, 30901.242005973105, -72141.30576149294, 18876.964614029483, -124015.83779046987, 0.062, 0.96, 0.042, 192.0, 0.0, 0.0, 0.0, 0.0, 0.0, 0.0, 0.0, 0.0, 0.0, 1.6664034249473941E9, 0.0, 2022-10-21 18:50:24.947
219.0, -103725.7288367425, -146117.17565264413, -59191.73320433297, -124212.15316202083, 30897.21869197115, -72158.74012216808, 18851.72949453944, -124011.25568285653, 0.062, 0.96, 0.042, 192.0, 0.0, 0.0, 0.0, 0.0, 0.0, 0.0, 0.0, 0.0, 0.0, 1.6664034249474075E9, 0.0, 2022-10-21 18:50:24.947
220.0, -103721.01261866244, -146108.90550719565, -59181.29493967235, -124189.35438267642, 30908.841599087908, -72133.90733407823, 18881.658480365095, -124001.80089495194, 0.062, 0.96, 0.042, 192.0, 0.0, 0.0, 0.0, 0.0, 0.0, 0.0, 0.0, 0.0, 0.0, 1.6664034249474192E9, 0.0, 2022-10-21 18:50:24.947
221.0, -103727.11464489874, -146116.54980379937, -59187.50872463093, -124186.94039427524, 30907.63460488732, -72133.86263058933, 18889.772163602374, -124012.39562182376, 0.064, 0.962, 0.036000000000000004, 192.0, 2.0, 0.0, 30.0, 16.0, 1.0, 32.0, 0.0, 0.0, 0.0, 1.666403424947431E9, 0.0, 2022-10-21 18:50:24.947
222.0, -103734.20014789107, -146124.86465273675, -59201.746785848954, -124216.57880742298, 30897.553968137978, -72146.15609003975, 18875.958785528994, -124021.98452019508, 0.064, 0.962, 0.036000000000000004, 192.0, 0.0, 0.0, 0.0, 0.0, 0.0, 0.0, 0.0, 0.0, 0.0, 1.666403424947444E9, 0.0, 2022-10-21 18:50:24.947
223.0, -103737.59761304827, -146128.35152487177, -59208.07232952981, -124216.48940044516, 30898.02335477154, -72152.39222674277, 18859.999639987906, -124025.11376441883, 0.064, 0.962, 0.036000000000000004, 192.0, 0.0, 0.0, 0.0, 0.0, 0.0, 0.0, 0.0, 0.0, 0.0, 1.666403424947456E9, 0.0, 2022-10-21 18:50:24.947
224.0, -103749.5334445874, -146140.42146687765, -59222.73507389249, -124214.56715042201, 30887.29451743299, -72151.98989534259, 18866.369887157667, -124022.94564520665, 0.064, 0.962, 0.036000000000000004, 192.0, 0.0, 0.0, 0.0, 0.0, 0.0, 0.0, 0.0, 0.0, 0.0, 1.666403424947469E9, 0.0, 2022-10-21 18:50:24.947
225.0, -103744.86192999624, -146132.91128074066, -59225.596097182766, -124218.45635395723, 30885.50637787657, -72161.39997975827, 18869.54383487032, -124020.46460157212, 0.064, 0.962, 0.036000000000000004, 192.0, 0.0, 0.0, 0.0, 0.0, 0.0, 0.0, 0.0, 0.0, 0.0, 1.666403424947491E9, 0.0, 2022-10-21 18:50:24.947
226.0, -103723.69482799708, -146111.7888822304, -59206.66416962912, -124210.58853990896, 30905.108857763873, -72162.85284314786, 18867.107494724693, -124007.14296187676, 0.064, 0.962, 0.036000000000000004, 192.0, 0.0, 0.0, 0.0, 0.0, 0.0, 0.0, 0.0, 0.0, 0.0, 1.6664034249475029E9, 0.0, 2022-10-21 18:50:24.947
227.0, -103728.00871467695, -146115.32045785434, -59208.876992330195, -124215.26005450012, 30905.287671719514, -72162.85284314786, 18856.848044019705, -124005.89126418726, 0.064, 0.962, 0.036000000000000004, 192.0, 0.0, 0.0, 0.0, 0.0, 0.0, 0.0, 0.0, 0.0, 0.0, 1.6664034249475148E9, 0.0, 2022-10-21 18:50:24.947
228.0, -103718.9339064281, -146105.95507692755, -59197.45525091353, -124196.75281009113, 30917.849352103396, -72147.89952610726, 18871.77900931585, -123993.17312159219, 0.064, 0.962, 0.036000000000000004, 192.0, 0.0, 0.0, 0.0, 0.0, 0.0, 0.0, 0.0, 0.0, 0.0, 1.6664034249475267E9, 0.0, 2022-10-21 18:50:24.947
229.0, -103726.30998209835, -146114.3369810983, -59207.02179754041, -124200.37379269289, 30911.635567144822, -72144.43500571669, 18890.5097711694, -124005.95831942062, 0.064, 0.962, 0.036000000000000004, 192.0, 0.0, 0.0, 0.0, 0.0, 0.0, 0.0, 0.0, 0.0, 0.0, 1.6664034249475384E9, 0.0, 2022-10-21 18:50:24.947
230.0, -103730.89208971168, -146118.5391090559, -59215.314294733325, -124214.7683161221, 30904.885340319317, -72160.79648265797, 18883.804247832806, -124011.61331076782, 0.064, 0.962, 0.036000000000000004, 192.0, 0.0, 0.0, 0.0, 0.0, 0.0, 0.0, 0.0, 0.0, 0.0, 1.6664034249475503E9, 0.0, 2022-10-21 18:50:24.947
231.0, -103737.21763339253, -146120.88604222372, -59220.544602935865, -124224.55838019353, 30901.957261795673, -72185.20458760316, 18854.098779451702, -124012.37327007929, 0.062, 0.966, 0.038, 192.0, 1.0, 240.0, 30.0, 48.0, 1.0, 48.0, 0.0, 0.0, 0.0, 1.6664034249475622E9, 0.0, 2022-10-21 18:50:24.947
232.0, -103738.62579329322, -146120.03667593442, -59222.66801865912, -124216.26588300061, 30908.01458454306, -72174.16282584224, 18861.2513376774, -124003.03024089697, 0.062, 0.966, 0.038, 192.0, 0.0, 0.0, 0.0, 0.0, 0.0, 0.0, 0.0, 0.0, 0.0, 1.6664034249475749E9, 0.0, 2022-10-21 18:50:24.947
233.0, -103744.59370906278, -146126.02694344844, -59228.591230939775, -124205.09001077295, 30910.026241544037, -72170.16186358474, 18872.6060238607, -124006.78533396547, 0.062, 0.966, 0.038, 192.0, 0.0, 0.0, 0.0, 0.0, 0.0, 0.0, 0.0, 0.0, 0.0, 1.6664034249475868E9, 0.0, 2022-10-21 18:50:24.947
234.0, -103738.49168282648, -146119.00849568946, -59227.65245767265, -124203.3689264499, 30915.323604979945, -72161.39997975827, 18883.156047243603, -124010.49572354506, 0.062, 0.966, 0.038, 192.0, 0.0, 0.0, 0.0, 0.0, 0.0, 0.0, 0.0, 0.0, 0.0, 1.6664034249475987E9, 0.0, 2022-10-21 18:50:24.947
235.0, -103739.40810434916, -146119.85786197876, -59235.788492654385, -124222.09968830344, 30906.740535109107, -72179.97427940063, 18859.306735909788, -124017.6706335152, 0.062, 0.966, 0.038, 192.0, 0.0, 0.0, 0.0, 0.0, 0.0, 0.0, 0.0, 0.0, 0.0, 1.666403424947611E9, 0.0, 2022-10-21 18:50:24.947
236.0, -103744.48195034052, -146125.17757715913, -59238.314239777836, -124222.09968830344, 30902.96309029616, -72185.80808470346, 18851.1483491836, -124014.04965091344, 0.062, 0.966, 0.038, 192.0, 0.0, 0.0, 0.0, 0.0, 0.0, 0.0, 0.0, 0.0, 0.0, 1.666403424947624E9, 0.0, 2022-10-21 18:50:24.947
237.0, -103766.83369479582, -146148.26692918147, -59262.90115867867, -124234.3707960094, 30885.573433109934, -72187.14918937079, 18863.888843523127, -124026.43251734169, 0.062, 0.966, 0.038, 192.0, 0.0, 0.0, 0.0, 0.0, 0.0, 0.0, 0.0, 0.0, 0.0, 1.666403424947636E9, 0.0, 2022-10-21 18:50:24.947
238.0, -103745.68894454109, -146123.05416143587, -59243.18692006909, -124217.09289754546, 30908.08163977643, -72176.26388982104, 18887.492285667933, -124004.03606939747, 0.062, 0.966, 0.038, 192.0, 0.0, 0.0, 0.0, 0.0, 0.0, 0.0, 0.0, 0.0, 0.0, 1.6664034249476476E9, 0.0, 2022-10-21 18:50:24.947
239.0, -103741.35270611677, -146117.66739102214, -59239.02949560041, -124218.70222314623, 30913.78133461253, -72191.08309639491, 18867.554529613797, -124011.07686890088, 0.062, 0.966, 0.038, 192.0, 0.0, 0.0, 0.0, 0.0, 0.0, 0.0, 0.0, 0.0, 0.0, 1.6664034249476595E9, 0.0, 2022-10-21 18:50:24.947
240.0, -103753.26618591145, -146133.1347981852, -59253.84870217428, -124226.90531336133, 30903.812456585463, -72205.96935820214, 18844.889860736115, -124025.18081965219, 0.062, 0.964, 0.036000000000000004, 192.0, 1.0, 240.0, 30.0, 32.0, 1.0, 32.0, 0.0, 0.0, 0.0, 1.6664034249476826E9, 0.0, 2022-10-21 18:50:24.947
241.0, -103740.68215378311, -146122.16009165766, -59244.50567299196, -124211.46025794272, 30914.094259034904, -72189.89845393877, 18868.06861973627, -124004.5725112644, 0.062, 0.964, 0.036000000000000004, 192.0, 0.0, 0.0, 0.0, 0.0, 0.0, 0.0, 0.0, 0.0, 0.0, 1.6664034254260235E9, 0.0, 2022-10-21 18:50:25.426
242.0, -103730.46740656703, -146110.85010896326, -59238.515405477934, -124197.73628684715, 30920.956244582685, -72179.54959625598, 18890.93445431405, -123996.1682553492, 0.062, 0.964, 0.036000000000000004, 192.0, 0.0, 0.0, 0.0, 0.0, 0.0, 0.0, 0.0, 0.0, 0.0, 1.6664034254261184E9, 0.0, 2022-10-21 18:50:25.426
243.0, -103744.14667417368, -146125.75872251496, -59249.713629450045, -124224.17840053778, 30908.528674665533, -72197.67686100923, 18881.077335009257, -124001.13034261827, 0.062, 0.964, 0.036000000000000004, 192.0, 0.0, 0.0, 0.0, 0.0, 0.0, 0.0, 0.0, 0.0, 0.0, 1.6664034254261844E9, 0.0, 2022-10-21 18:50:25.426
244.0, -103749.46638935404, -146127.74802777148, -59257.35792605376, -124233.02969134209, 30904.617119385854, -72207.51162856957, 18861.407799888588, -124016.41893582571, 0.062, 0.964, 0.036000000000000004, 192.0, 0.0, 0.0, 0.0, 0.0, 0.0, 0.0, 0.0, 0.0, 0.0, 1.6664034254262044E9, 0.0, 2022-10-21 18:50:25.426
245.0, -103753.26618591145, -146131.994859218, -59263.057620889864, -124229.18519129578, 30896.324622192937, -72208.36099485887, 18872.628375605153, -124023.88441847378, 0.062, 0.964, 0.036000000000000004, 192.0, 0.0, 0.0, 0.0, 0.0, 0.0, 0.0, 0.0, 0.0, 0.0, 1.6664034254262204E9, 0.0, 2022-10-21 18:50:25.426
246.0, -103751.85802601076, -146129.35735337227, -59258.31905106534, -124221.36208073642, 30903.20895948517, -72211.91492222725, 18886.35234670071, -124010.13809563377, 0.062, 0.964, 0.036000000000000004, 192.0, 0.0, 0.0, 0.0, 0.0, 0.0, 0.0, 0.0, 0.0, 0.0, 1.6664034254262364E9, 0.0, 2022-10-21 18:50:25.426
247.0, -103748.84054050929, -146121.42248409064, -59255.45802777506, -124217.60698766792, 30916.284729991527, -72202.37072734484, 18884.45244842201, -124006.0700781429, 0.062, 0.964, 0.036000000000000004, 192.0, 0.0, 0.0, 0.0, 0.0, 0.0, 0.0, 0.0, 0.0, 0.0, 1.6664034254262524E9, 0.0, 2022-10-21 18:50:25.426
248.0, -103747.25356665297, -146119.36612360075, -59253.64753647418, -124218.50105744613, 30925.18072428474, -72195.17346563023, 18881.97140478747, -124002.60555775232, 0.062, 0.964, 0.036000000000000004, 192.0, 0.0, 0.0, 0.0, 0.0, 0.0, 0.0, 0.0, 0.0, 0.0, 1.6664034254262683E9, 0.0, 2022-10-21 18:50:25.426
249.0, -103756.70835455756, -146132.2854318959, -59264.82340870183, -124226.68179591678, 30911.255587489082, -72202.66130002277, 18877.836332063238, -124014.45198231364, 0.062, 0.964, 0.036000000000000004, 192.0, 0.0, 0.0, 0.0, 0.0, 0.0, 0.0, 0.0, 0.0, 0.0, 1.6664034254262855E9, 0.0, 2022-10-21 18:50:25.426
250.0, -103765.98432850651, -146142.5895860898, -59277.96623444155, -124235.84601114345, 30898.6939071052, -72206.72931751363, 18897.41646020609, -124020.86693297232, 0.062, 0.962, 0.038, 192.0, 1.0, 240.0, 30.0, 16.0, 1.0, 48.0, 0.0, 0.0, 0.0, 1.6664034254263017E9, 0.0, 2022-10-21 18:50:25.426
251.0, -103765.00085175048, -146143.70717331258, -59283.621225788746, -124244.98787462567, 30897.241043715603, -72223.11314619936, 18891.716765369983, -124031.1710871662, 0.062, 0.962, 0.038, 192.0, 0.0, 0.0, 0.0, 0.0, 0.0, 0.0, 0.0, 0.0, 0.0, 1.66640342542632E9, 0.0, 2022-10-21 18:50:25.426
252.0, -103760.12817145922, -146139.61680407726, -59282.10130716578, -124248.51945024962, 30899.967956539153, -72239.02758825154, 18865.11818946817, -124033.6744825452, 0.062, 0.962, 0.038, 192.0, 0.0, 0.0, 0.0, 0.0, 0.0, 0.0, 0.0, 0.0, 0.0, 1.666403425426336E9, 0.0, 2022-10-21 18:50:25.426
253.0, -103744.63841255169, -146123.97058295854, -59269.0925918928, -124221.04915631404, 30919.704546893186, -72217.54756183, 18878.35042218571, -124015.45781081413, 0.062, 0.962, 0.038, 192.0, 0.0, 0.0, 0.0, 0.0, 0.0, 0.0, 0.0, 0.0, 0.0, 1.6664034254263525E9, 0.0, 2022-10-21 18:50:25.426
254.0, -103742.53734857289, -146121.91422246865, -59267.25974884746, -124210.25326374212, 30922.722032394653, -72200.69434651069, 18903.853762609215, -124009.15461887773, 0.062, 0.962, 0.038, 192.0, 0.0, 0.0, 0.0, 0.0, 0.0, 0.0, 0.0, 0.0, 0.0, 1.6664034254263685E9, 0.0, 2022-10-21 18:50:25.426
255.0, -103741.82209275033, -146119.85786197876, -59272.40065007218, -124223.77606913759, 30917.60348291439, -72224.83423052242, 18889.816867091282, -124011.97093867911, 0.062, 0.962, 0.038, 192.0, 0.0, 0.0, 0.0, 0.0, 0.0, 0.0, 0.0, 0.0, 0.0, 1.6664034254264548E9, 0.0, 2022-10-21 18:50:25.426
0.0, -103754.1379039452, -146128.53033882743, -59284.2917781224, -124242.3727205244, 30909.31098572147, -72247.74476858911, 18859.574956843255, -124019.41406958272, 0.062, 0.962, 0.038, 192.0, 0.0, 0.0, 0.0, 0.0, 0.0, 0.0, 0.0, 0.0, 0.0, 1.6664034254264722E9, 0.0, 2022-10-21 18:50:25.426
1.0, -103785.36329094927, -146159.66631885368, -59313.61726684777, -124258.30951432104, 30888.389752911302, -72252.88566981384, 18847.72853228194, -124046.99612224057, 0.062, 0.962, 0.038, 192.0, 0.0, 0.0, 0.0, 0.0, 0.0, 0.0, 0.0, 0.0, 0.0, 1.666403425426489E9, 0.0, 2022-10-21 18:50:25.426
2.0, -103773.87449429923, -146150.36799316027, -59304.45305162109, -124245.39020602587, 30896.749305337587, -72235.83128879443, 18885.68179436705, -124029.89703773225, 0.062, 0.962, 0.038, 192.0, 0.0, 0.0, 0.0, 0.0, 0.0, 0.0, 0.0, 0.0, 0.0, 1.6664034254265056E9, 0.0, 2022-10-21 18:50:25.426
3.0, -103742.76086601746, -146116.48274856602, -59271.104248893775, -124218.14342953486, 30929.561666197977, -72222.26377991006, 18912.25801852441, -123992.63667972526, 0.062, 0.962, 0.038, 192.0, 0.0, 0.0, 0.0, 0.0, 0.0, 0.0, 0.0, 0.0, 0.0, 1.666403425426522E9, 0.0, 2022-10-21 18:50:25.426
4.0, -103742.69381078408, -146115.61103053225, -59276.22279837404, -124229.0734325735, 30927.907637108285, -72237.59707660641, 18884.094820510723, -123997.75522920552, 0.058, 0.962, 0.038, 192.0, 1.0, 208.0, 30.0, 16.0, 1.0, 48.0, 0.0, 0.0, 0.0, 1.6664034254265385E9, 0.0, 2022-10-21 18:50:25.426
5.0, -103749.35463063177, -146121.98127770203, -59282.34717635479, -124231.08508957448, 30922.364404483367, -72236.36773066137, 18878.149256485613, -124014.74255499156, 0.058, 0.962, 0.038, 192.0, 0.0, 0.0, 0.0, 0.0, 0.0, 0.0, 0.0, 0.0, 0.0, 1.666403425426562E9, 0.0, 2022-10-21 18:50:25.426
6.0, -103757.4906656135, -146130.31847838385, -59290.01382470296, -124227.70997616173, 30916.664709647266, -72226.51061135657, 18902.043271308336, -124022.1186306618, 0.058, 0.962, 0.038, 192.0, 0.0, 0.0, 0.0, 0.0, 0.0, 0.0, 0.0, 0.0, 0.0, 1.666403425426578E9, 0.0, 2022-10-21 18:50:25.426
7.0, -103751.00865972145, -146122.89769922468, -59285.92345546764, -124221.25032201414, 30926.298311507504, -72228.20934393517, 18918.337693016256, -124012.55208403493, 0.058, 0.962, 0.038, 192.0, 0.0, 0.0, 0.0, 0.0, 0.0, 0.0, 0.0, 0.0, 0.0, 1.6664034254265938E9, 0.0, 2022-10-21 18:50:25.426
8.0, -103759.21174993656, -146131.6372313067, -59299.60272307429, -124242.84210715797, 30915.725936380142, -72253.73503610314, 18889.302776968812, -124024.6220260408, 0.058, 0.962, 0.038, 192.0, 0.0, 0.0, 0.0, 0.0, 0.0, 0.0, 0.0, 0.0, 0.0, 1.6664034254266095E9, 0.0, 2022-10-21 18:50:25.426
