%OpenBCI Raw EEG Data
%Number of channels = 8
%Sample Rate = 250 Hz
%Board = OpenBCI_GUI$BoardCytonSerial
Sample Index, EXG Channel 0, EXG Channel 1, EXG Channel 2, EXG Channel 3, EXG Channel 4, EXG Channel 5, EXG Channel 6, EXG Channel 7, Accel Channel 0, Accel Channel 1, Accel Channel 2, Other, Other, Other, Other, Other, Other, Other, Analog Channel 0, Analog Channel 1, Analog Channel 2, Timestamp, Other, Timestamp (Formatted)
221.0, -79622.92636906223, -112281.01548922247, 53920.878937349196, 29212.36654667456, 61063.580043742666, 77165.62028713469, 54116.50140482205, 52329.18886294233, 0.0, 0.0, 0.0, 192.0, 0.0, 0.0, 0.0, 0.0, 0.0, 0.0, 0.0, 0.0, 0.0, 1.6665561547601023E9, 0.0, 2022-10-23 13:15:54.760
222.0, -79622.34522370639, -112270.93485247313, 52156.99102365864, 29284.920309176483, 61106.629503563585, 76533.95998882772, 53011.47586244057, 51322.82392058658, 0.0, 0.0, 0.0, 192.0, 0.0, 0.0, 0.0, 0.0, 0.0, 0.0, 0.0, 0.0, 0.0, 1.6665561547601209E9, 0.0, 2022-10-23 13:15:54.760
223.0, -79663.60654397089, -112305.04361451193, 52343.69514509382, 29376.473054465423, 61201.82558319874, 76765.85933755152, 53249.7678100786, 51710.17965199705, 0.0, 0.0, 0.0, 192.0, 0.0, 0.0, 0.0, 0.0, 0.0, 0.0, 0.0, 0.0, 0.0, 1.666556154760129E9, 0.0, 2022-10-23 13:15:54.760
225.0, -79642.64060767181, -112292.95132076161, 54340.01884937511, 29250.856250626595, 61105.8248407632, 77370.1611006452, 54420.5968881365, 52646.71774467442, 0.0, 0.0, 0.0, 192.0, 0.0, 0.0, 0.0, 0.0, 0.0, 0.0, 0.0, 0.0, 0.0, 1.666556154760137E9, 0.0, 2022-10-23 13:15:54.760
226.0, -79633.65520640078, -112280.81432352237, 52318.72824653724, 29270.011695624795, 61098.76168951532, 76584.34082082997, 53110.56114561095, 51387.845145207066, 0.0, 0.0, 0.0, 192.0, 0.0, 0.0, 0.0, 0.0, 0.0, 0.0, 0.0, 0.0, 0.0, 1.6665561547601452E9, 0.0, 2022-10-23 13:15:54.760
227.0, -79680.2138901012, -112326.21071651111, 52193.759643287616, 29353.71897860992, 61176.7916294088, 76686.71181043528, 53138.27730873553, 51576.62797887659, 0.0, 0.0, 0.0, 192.0, 0.0, 0.0, 0.0, 0.0, 0.0, 0.0, 0.0, 0.0, 0.0, 1.6665561547601535E9, 0.0, 2022-10-23 13:15:54.760
228.0, -79715.32848064047, -112366.60031874184, 53900.85177431724, 29452.334875146735, 61252.675801834564, 77406.75090631854, 54281.99372076914, 52743.23257723243, 0.0, 0.0, 0.0, 192.0, 0.0, 0.0, 0.0, 0.0, 0.0, 0.0, 0.0, 0.0, 0.0, 1.6665561547601614E9, 0.0, 2022-10-23 13:15:54.760
229.0, -79684.75129422561, -112340.85110912933, 54623.394265579496, 29266.390713023033, 61112.10568095514, 77502.57283479844, 54618.074550399135, 52871.79981133936, 0.07, 0.9480000000000001, 0.17400000000000002, 192.0, 2.0, 48.0, 29.0, 160.0, 5.0, 112.0, 0.0, 0.0, 0.0, 1.6665561547601695E9, 0.0, 2022-10-23 13:15:54.760
230.0, -79664.65707596029, -112313.49257391604, 52493.27301898874, 29229.331520716136, 61053.722924437876, 76615.8344287675, 53199.2081641207, 51446.38436393552, 0.07, 0.9480000000000001, 0.17400000000000002, 192.0, 0.0, 0.0, 0.0, 0.0, 0.0, 0.0, 0.0, 0.0, 0.0, 1.6665561547601807E9, 0.0, 2022-10-23 13:15:54.760
231.0, -79690.29452685053, -112330.6140101688, 52092.28272346053, 29361.609144402642, 61180.47966724392, 76632.6876440868, 53055.57585425089, 51475.39692823851, 0.07, 0.9480000000000001, 0.17400000000000002, 192.0, 0.0, 0.0, 0.0, 0.0, 0.0, 0.0, 0.0, 0.0, 0.0, 1.6665561547601888E9, 0.0, 2022-10-23 13:15:54.760
232.0, -79730.77353605909, -112366.68972571967, 53489.87024901751, 29472.451445156512, 61269.32785145377, 77269.60060234078, 54023.87577579925, 52506.125272050536, 0.07, 0.9480000000000001, 0.17400000000000002, 192.0, 0.0, 0.0, 0.0, 0.0, 0.0, 0.0, 0.0, 0.0, 0.0, 1.6665561547601967E9, 0.0, 2022-10-23 13:15:54.760
233.0, -79717.5189515971, -112359.96185063862, 54840.69792517399, 29337.022225501805, 61177.70805093146, 77646.09338594596, 54786.51729661433, 53090.73514827909, 0.07, 0.9480000000000001, 0.17400000000000002, 192.0, 0.0, 0.0, 0.0, 0.0, 0.0, 0.0, 0.0, 0.0, 0.0, 1.6665561547602048E9, 0.0, 2022-10-23 13:15:54.760
234.0, -79670.26736381858, -112310.94447504813, 52823.855319482725, 29221.955445045885, 61058.50619775131, 76746.74859604223, 53403.48075669775, 51645.58311052121, 0.07, 0.9480000000000001, 0.17400000000000002, 192.0, 0.0, 0.0, 0.0, 0.0, 0.0, 0.0, 0.0, 0.0, 0.0, 1.666556154760213E9, 0.0, 2022-10-23 13:15:54.760
235.0, -79705.42665784678, -112341.05227482943, 52031.91066168674, 29355.61887688862, 61169.437905483, 76580.85394869494, 52985.23491445004, 51400.496232568774, 0.07, 0.9480000000000001, 0.17400000000000002, 192.0, 0.0, 0.0, 0.0, 0.0, 0.0, 0.0, 0.0, 0.0, 0.0, 1.6665561547602205E9, 0.0, 2022-10-23 13:15:54.760
236.0, -79754.71225437072, -112390.1814091422, 53069.03160441299, 29460.917945017572, 61267.94204329754, 77103.05775440428, 53744.52367359682, 52254.55638820605, 0.07, 0.9480000000000001, 0.17400000000000002, 192.0, 0.0, 0.0, 0.0, 0.0, 0.0, 0.0, 0.0, 0.0, 0.0, 1.6665561547602284E9, 0.0, 2022-10-23 13:15:54.760
237.0, -79745.70450135524, -112378.51379853653, 54863.54140800732, 29391.739295928397, 61227.82066200026, 77697.63650865991, 54827.8903756011, 53190.08865238293, 0.07, 0.9480000000000001, 0.17400000000000002, 192.0, 0.0, 0.0, 0.0, 0.0, 0.0, 0.0, 0.0, 0.0, 0.0, 1.6665561547602365E9, 0.0, 2022-10-23 13:15:54.760
238.0, -79702.49857932313, -112334.74908289303, 53190.96037041669, 29216.322805443146, 61066.48577052185, 76894.73949608082, 53641.459779913406, 51874.39791851019, 0.078, 0.9440000000000001, 0.166, 192.0, 2.0, 112.0, 29.0, 128.0, 5.0, 48.0, 0.0, 0.0, 0.0, 1.6665561547603264E9, 0.0, 2022-10-23 13:15:54.760
239.0, -79719.99999523163, -112345.5673272094, 52037.69976350066, 29323.164143939513, 61148.85194883966, 76564.24660256466, 52974.03669047794, 51358.22908380379, 0.078, 0.9440000000000001, 0.166, 192.0, 0.0, 0.0, 0.0, 0.0, 0.0, 0.0, 0.0, 0.0, 0.0, 1.666556154760336E9, 0.0, 2022-10-23 13:15:54.760
240.0, -79740.85417280844, -112360.0736093609, 52741.86912082066, 29426.518610300853, 61242.46105461849, 76974.64698250854, 53531.35508672656, 52030.05546689695, 0.078, 0.9440000000000001, 0.166, 192.0, 0.0, 0.0, 0.0, 0.0, 0.0, 0.0, 0.0, 0.0, 0.0, 1.6665561547603443E9, 0.0, 2022-10-23 13:15:54.760
241.0, -79748.43141417879, -112368.25434783153, 54781.309340156244, 29436.57689530574, 61262.711735095, 77716.9931193582, 54805.89625905708, 53202.762091489094, 0.078, 0.9440000000000001, 0.166, 192.0, 0.0, 0.0, 0.0, 0.0, 0.0, 0.0, 0.0, 0.0, 0.0, 1.6665561547603524E9, 0.0, 2022-10-23 13:15:54.760
242.0, -79673.5530702535, -112298.36044291979, 53620.44914012541, 29229.555038160688, 61088.5692940437, 77075.52040523535, 53922.197690272056, 52152.11834336738, 0.078, 0.9440000000000001, 0.166, 192.0, 0.0, 0.0, 0.0, 0.0, 0.0, 0.0, 0.0, 0.0, 0.0, 1.6665561547603605E9, 0.0, 2022-10-23 13:15:54.760
243.0, -79660.96903812517, -112282.26718691197, 52105.805528855984, 29331.166068454513, 61156.47389369892, 76581.2786318396, 52999.29416171243, 51355.03278434668, 0.078, 0.9440000000000001, 0.166, 192.0, 0.0, 0.0, 0.0, 0.0, 0.0, 0.0, 0.0, 0.0, 0.0, 1.6665561547603683E9, 0.0, 2022-10-23 13:15:54.760
244.0, -79687.99229717163, -112311.63737912624, 52467.34499542058, 29423.59053177721, 61237.78954002733, 76863.0894259321, 53337.476055321225, 51832.13076974521, 0.078, 0.9440000000000001, 0.166, 192.0, 0.0, 0.0, 0.0, 0.0, 0.0, 0.0, 0.0, 0.0, 0.0, 1.6665561547603807E9, 0.0, 2022-10-23 13:15:54.760
245.0, -79712.69097479475, -112335.4643387156, 54535.59661335905, 29479.156968493102, 61294.94295059955, 77662.83484254299, 54668.63419635704, 53110.203517699665, 0.078, 0.9440000000000001, 0.166, 192.0, 0.0, 0.0, 0.0, 0.0, 0.0, 0.0, 0.0, 0.0, 0.0, 1.6665561547603889E9, 0.0, 2022-10-23 13:15:54.760
246.0, -79651.80482289848, -112276.99217522051, 54072.55787522291, 29245.938866846427, 61106.16011693003, 77273.51215762045, 54228.21542360967, 52466.9873675093, 0.078, 0.9440000000000001, 0.166, 192.0, 0.0, 0.0, 0.0, 0.0, 0.0, 0.0, 0.0, 0.0, 0.0, 1.6665561547603965E9, 0.0, 2022-10-23 13:15:54.760
247.0, -79629.45307844318, -112251.93586968612, 52247.91792010283, 29308.90373097703, 61131.97638177591, 76606.29023388508, 53075.804182982945, 51392.941342942875, 0.078, 0.9440000000000001, 0.166, 192.0, 0.0, 0.0, 0.0, 0.0, 0.0, 0.0, 0.0, 0.0, 0.0, 1.6665561547604043E9, 0.0, 2022-10-23 13:15:54.760
248.0, -79664.99235212713, -112286.5587218474, 52344.4551044053, 29393.10275234017, 61211.68270250353, 76795.72126814381, 53249.946624034244, 51710.67139037507, 0.076, 0.9500000000000001, 0.168, 192.0, 2.0, 96.0, 29.0, 176.0, 5.0, 64.0, 0.0, 0.0, 0.0, 1.6665561547604125E9, 0.0, 2022-10-23 13:15:54.760
249.0, -79686.27121284857, -112303.72486158907, 54243.19109239472, 29493.73030587796, 61297.82632563428, 77571.34915248743, 54499.096214663536, 52950.0979721663, 0.076, 0.9500000000000001, 0.168, 192.0, 0.0, 0.0, 0.0, 0.0, 0.0, 0.0, 0.0, 0.0, 0.0, 1.6665561547604208E9, 0.0, 2022-10-23 13:15:54.760
250.0, -79640.07015705945, -112261.99415469101, 54500.347912353034, 29285.479102787867, 61143.57693714821, 77472.4873867616, 54528.08642722207, 52766.47839146595, 0.076, 0.9500000000000001, 0.168, 192.0, 0.0, 0.0, 0.0, 0.0, 0.0, 0.0, 0.0, 0.0, 0.0, 1.666556154760429E9, 0.0, 2022-10-23 13:15:54.760
251.0, -79608.82241831094, -112232.40044503218, 52410.213936592816, 29283.981535909363, 61110.00461697634, 76631.41359465285, 53156.65044267779, 51427.09480847059, 0.076, 0.9500000000000001, 0.168, 192.0, 0.0, 0.0, 0.0, 0.0, 0.0, 0.0, 0.0, 0.0, 0.0, 1.6665561547604365E9, 0.0, 2022-10-23 13:15:54.760
252.0, -79630.81653485495, -112252.42760806414, 52207.70713182773, 29389.995859860883, 61215.59425778321, 76718.58539802855, 53139.95368956968, 51572.8728858081, 0.076, 0.9500000000000001, 0.168, 192.0, 0.0, 0.0, 0.0, 0.0, 0.0, 0.0, 0.0, 0.0, 0.0, 1.6665561547604444E9, 0.0, 2022-10-23 13:15:54.760
253.0, -79658.39858751281, -112280.56845433336, 53835.38351480765, 29500.480532703466, 61306.05176759384, 77428.54385716247, 54244.71101101769, 52709.52614659383, 0.076, 0.9500000000000001, 0.168, 192.0, 0.0, 0.0, 0.0, 0.0, 0.0, 0.0, 0.0, 0.0, 0.0, 1.6665561547604856E9, 0.0, 2022-10-23 13:15:54.760
254.0, -79610.76702007855, -112239.55300325788, 54787.21020069244, 29348.42161517401, 61199.67981573103, 77625.46272581372, 54734.951822155934, 53005.79851934892, 0.076, 0.9500000000000001, 0.168, 192.0, 0.0, 0.0, 0.0, 0.0, 0.0, 0.0, 0.0, 0.0, 0.0, 1.6665561547604947E9, 0.0, 2022-10-23 13:15:54.760
255.0, -79571.69617077067, -112198.96223532704, 52664.599140238664, 29277.924213161972, 61118.23005893589, 76716.39492707193, 53306.51888925063, 51555.05854547722, 0.076, 0.9500000000000001, 0.168, 192.0, 0.0, 0.0, 0.0, 0.0, 0.0, 0.0, 0.0, 0.0, 0.0, 1.6665561547605026E9, 0.0, 2022-10-23 13:15:54.760
0.0, -79613.4939329021, -112240.55883175836, 52127.30790702199, 29375.66839166503, 61209.98396992493, 76658.83918509951, 53065.70119448915, 51479.82257364066, 0.076, 0.9500000000000001, 0.168, 192.0, 0.0, 0.0, 0.0, 0.0, 0.0, 0.0, 0.0, 0.0, 0.0, 1.6665561547605104E9, 0.0, 2022-10-23 13:15:54.760
1.0, -79648.18384029673, -112275.94164323111, 53420.33397201705, 29482.420323183578, 61291.344319742246, 77265.15260519418, 53982.16742064565, 52457.95726274935, 0.076, 0.9500000000000001, 0.168, 192.0, 0.0, 0.0, 0.0, 0.0, 0.0, 0.0, 0.0, 0.0, 0.0, 1.6665561547605183E9, 0.0, 2022-10-23 13:15:54.760
2.0, -79630.16833426575, -112263.82699773634, 54943.18067350158, 29368.62759216161, 61213.11321414867, 77714.2885582791, 54867.654128987095, 53163.71359392567, 0.068, 0.9440000000000001, 0.17400000000000002, 192.0, 2.0, 32.0, 29.0, 128.0, 5.0, 112.0, 0.0, 0.0, 0.0, 1.6665561547605264E9, 0.0, 2022-10-23 13:15:54.760
3.0, -79576.07711268391, -112209.7804796434, 53034.18523480716, 29241.446166210913, 61087.1164306541, 76843.46459430034, 53549.370592757536, 51752.31269029531, 0.068, 0.9440000000000001, 0.17400000000000002, 192.0, 0.0, 0.0, 0.0, 0.0, 0.0, 0.0, 0.0, 0.0, 0.0, 1.6665561547605352E9, 0.0, 2022-10-23 13:15:54.760
4.0, -79591.81274078044, -112219.25761929246, 52125.89974712131, 29363.397283959068, 61186.62639696913, 76622.36113814845, 53052.40190653824, 51417.55061358817, 0.068, 0.9440000000000001, 0.17400000000000002, 192.0, 0.0, 0.0, 0.0, 0.0, 0.0, 0.0, 0.0, 0.0, 0.0, 1.666556154760543E9, 0.0, 2022-10-23 13:15:54.760
5.0, -79619.12657250483, -112242.61519224825, 53026.5632899479, 29470.819767811274, 61277.285072479855, 77089.08791411972, 53724.38475184259, 52190.49628859715, 0.068, 0.9440000000000001, 0.17400000000000002, 192.0, 0.0, 0.0, 0.0, 0.0, 0.0, 0.0, 0.0, 0.0, 0.0, 1.6665561547605507E9, 0.0, 2022-10-23 13:15:54.760
6.0, -79626.72616561964, -112253.16521563116, 54922.81823430279, 29426.987996934415, 61258.822531559774, 77741.73650047023, 54887.658940274596, 53223.4151033658, 0.068, 0.9440000000000001, 0.17400000000000002, 192.0, 0.0, 0.0, 0.0, 0.0, 0.0, 0.0, 0.0, 0.0, 0.0, 1.6665561547605586E9, 0.0, 2022-10-23 13:15:54.760
7.0, -79567.67285676871, -112194.15661026914, 53412.28734401314, 29238.518087687266, 61098.605227304135, 76993.13187517309, 53802.12411905815, 51995.94670485815, 0.068, 0.9440000000000001, 0.17400000000000002, 192.0, 0.0, 0.0, 0.0, 0.0, 0.0, 0.0, 0.0, 0.0, 0.0, 1.6665561547605667E9, 0.0, 2022-10-23 13:15:54.760
8.0, -79572.56788880443, -112199.34221498278, 52124.335125009435, 29348.935705296484, 61174.42234449653, 76599.67411752632, 53039.14732207624, 51378.0774328801, 0.068, 0.9440000000000001, 0.17400000000000002, 192.0, 0.0, 0.0, 0.0, 0.0, 0.0, 0.0, 0.0, 0.0, 0.0, 1.6665561547605755E9, 0.0, 2022-10-23 13:15:54.760
9.0, -79600.10523797336, -112229.42766301963, 52690.683626018006, 29448.266857655868, 61255.08979023574, 76952.58581073115, 53505.40471141395, 51968.83403883386, 0.068, 0.9440000000000001, 0.17400000000000002, 192.0, 0.0, 0.0, 0.0, 0.0, 0.0, 0.0, 0.0, 0.0, 0.0, 1.6665561547605865E9, 0.0, 2022-10-23 13:15:54.760
10.0, -79613.292767202, -112242.1905091036, 54774.804982519745, 29475.156006235604, 61287.38806097366, 77735.07568062254, 54829.1420732906, 53205.220783379176, 0.068, 0.9440000000000001, 0.17400000000000002, 192.0, 0.0, 0.0, 0.0, 0.0, 0.0, 0.0, 0.0, 0.0, 0.0, 1.6665561547605944E9, 0.0, 2022-10-23 13:15:54.760
11.0, -79552.25015309456, -112185.55118865386, 53844.54773003433, 29253.180832049948, 61099.90162848254, 77178.13726402966, 54093.970846411095, 52285.04416764309, 0.07, 0.936, 0.17, 192.0, 2.0, 48.0, 29.0, 64.0, 5.0, 80.0, 0.0, 0.0, 0.0, 1.6665561547606027E9, 0.0, 2022-10-23 13:15:54.760
12.0, -79552.20544960564, -112187.74165961047, 52180.058023936515, 29331.56839985471, 61144.806283093254, 76597.14837040287, 53057.47575252959, 51363.45939200633, 0.07, 0.936, 0.17, 192.0, 0.0, 0.0, 0.0, 0.0, 0.0, 0.0, 0.0, 0.0, 0.0, 1.6665561547606113E9, 0.0, 2022-10-23 13:15:54.760
13.0, -79590.62809832432, -112225.65021820668, 52467.21088495385, 29419.030775908326, 61230.391112612626, 76865.77163526675, 53357.592625331, 51803.386426375684, 0.07, 0.936, 0.17, 192.0, 0.0, 0.0, 0.0, 0.0, 0.0, 0.0, 0.0, 0.0, 0.0, 1.6665561547606273E9, 0.0, 2022-10-23 13:15:54.760
14.0, -79618.12074400435, -112252.6511255087, 54509.82505200208, 29487.672983130575, 61281.71071788201, 77670.05445600205, 54685.55446690971, 53086.73418602159, 0.07, 0.936, 0.17, 192.0, 0.0, 0.0, 0.0, 0.0, 0.0, 0.0, 0.0, 0.0, 0.0, 1.6665561547606351E9, 0.0, 2022-10-23 13:15:54.760
15.0, -79553.34538857287, -112191.60851140124, 54269.74496480763, 29275.621983483077, 61111.03279722128, 77361.5556790299, 54387.67276855383, 52579.93073224196, 0.07, 0.936, 0.17, 192.0, 0.0, 0.0, 0.0, 0.0, 0.0, 0.0, 0.0, 0.0, 0.0, 1.6665561547606432E9, 0.0, 2022-10-23 13:15:54.760
16.0, -79539.55436224394, -112174.04004025938, 52318.68354304833, 29313.66465254601, 61123.79564330526, 76621.75764104816, 53137.76321861306, 51391.488479553285, 0.07, 0.936, 0.17, 192.0, 0.0, 0.0, 0.0, 0.0, 0.0, 0.0, 0.0, 0.0, 0.0, 1.6665561547606509E9, 0.0, 2022-10-23 13:15:54.760
17.0, -79570.1315486588, -112201.64444466168, 52295.34832183699, 29401.57406348873, 61214.566077538264, 76768.13921548596, 53236.84850178343, 51643.77261922033, 0.07, 0.936, 0.17, 192.0, 0.0, 0.0, 0.0, 0.0, 0.0, 0.0, 0.0, 0.0, 0.0, 1.6665561547606587E9, 0.0, 2022-10-23 13:15:54.760
18.0, -79604.97791826462, -112233.60743923277, 54106.621933772796, 29497.485398946454, 61294.1159360547, 77518.26375940607, 54441.38401047993, 52856.39945940965, 0.07, 0.936, 0.17, 192.0, 0.0, 0.0, 0.0, 0.0, 0.0, 0.0, 0.0, 0.0, 0.0, 1.6665561547606664E9, 0.0, 2022-10-23 13:15:54.760
19.0, -79561.30260959895, -112197.17409577062, 54584.457526738355, 29303.159332652016, 61145.61094589364, 77501.16467489775, 54608.95503866137, 52825.50934857242, 0.07, 0.936, 0.17, 192.0, 0.0, 0.0, 0.0, 0.0, 0.0, 0.0, 0.0, 0.0, 0.0, 1.6665561547606745E9, 0.0, 2022-10-23 13:15:54.760
20.0, -79528.19967606064, -112166.66396458913, 52500.55968768116, 29285.27793708777, 61111.81510827722, 76668.78571138212, 53243.39756290884, 51473.29586425971, 0.07, 0.936, 0.17, 192.0, 0.0, 0.0, 0.0, 0.0, 0.0, 0.0, 0.0, 0.0, 0.0, 1.6665561547606823E9, 0.0, 2022-10-23 13:15:54.760
21.0, -79569.37158934731, -112205.2877790079, 52176.99583494614, 29375.266060264836, 61190.78382143782, 76697.9547378963, 53142.568843670946, 51535.6125278011, 0.07200000000000001, 0.9440000000000001, 0.17, 192.0, 2.0, 64.0, 29.0, 128.0, 5.0, 80.0, 0.0, 0.0, 0.0, 1.66655615476069E9, 0.0, 2022-10-23 13:15:54.760
22.0, -79599.5911478509, -112230.54525024239, 53705.49752777786, 29495.876073345673, 61291.09845055324, 77386.96961247559, 54197.16885056125, 52634.17841603499, 0.07200000000000001, 0.9440000000000001, 0.17, 192.0, 0.0, 0.0, 0.0, 0.0, 0.0, 0.0, 0.0, 0.0, 0.0, 1.6665561547606983E9, 0.0, 2022-10-23 13:15:54.760
23.0, -79557.90514444174, -112193.70957538004, 54880.305216348796, 29363.643153148074, 61198.24930408589, 77686.01360154315, 54843.06721008626, 53085.19191565418, 0.07200000000000001, 0.9440000000000001, 0.17, 192.0, 0.0, 0.0, 0.0, 0.0, 0.0, 0.0, 0.0, 0.0, 0.0, 1.666556154760706E9, 0.0, 2022-10-23 13:15:54.760
24.0, -79511.05588806342, -112147.44146435756, 52806.19744136303, 29277.387771295045, 61100.348663371646, 76783.40545694894, 53437.14248384744, 51629.109874857655, 0.07200000000000001, 0.9440000000000001, 0.17, 192.0, 0.0, 0.0, 0.0, 0.0, 0.0, 0.0, 0.0, 0.0, 0.0, 1.666556154760714E9, 0.0, 2022-10-23 13:15:54.760
25.0, -79549.0762053819, -112181.10319150725, 52138.59553797192, 29384.363220258147, 61195.12005986215, 76668.11515904847, 53105.17437519722, 51463.95283507739, 0.07200000000000001, 0.9440000000000001, 0.17, 192.0, 0.0, 0.0, 0.0, 0.0, 0.0, 0.0, 0.0, 0.0, 0.0, 1.6665561547607217E9, 0.0, 2022-10-23 13:15:54.760
26.0, -79582.51441508703, -112211.65802617765, 53306.96592413973, 29495.294927989835, 61291.59018893125, 77237.0341106694, 53946.98577487299, 52382.721290912785, 0.07200000000000001, 0.9440000000000001, 0.17, 192.0, 0.0, 0.0, 0.0, 0.0, 0.0, 0.0, 0.0, 0.0, 0.0, 1.6665561547607296E9, 0.0, 2022-10-23 13:15:54.760
27.0, -79582.08973194238, -112217.06714833585, 54987.39242403417, 29410.827685693228, 61241.67874356255, 77771.68783804034, 54948.07570553729, 53219.05651319701, 0.07200000000000001, 0.9440000000000001, 0.17, 192.0, 0.0, 0.0, 0.0, 0.0, 0.0, 0.0, 0.0, 0.0, 0.0, 1.6665561547607372E9, 0.0, 2022-10-23 13:15:54.760
28.0, -79523.72932716958, -112159.66786857462, 53169.79326841751, 29254.097253572614, 61084.166000386, 76911.52565616676, 53671.992262839354, 51832.600156378765, 0.07200000000000001, 0.9440000000000001, 0.17, 192.0, 0.0, 0.0, 0.0, 0.0, 0.0, 0.0, 0.0, 0.0, 0.0, 1.6665561547607453E9, 0.0, 2022-10-23 13:15:54.760
29.0, -79532.6253214628, -112168.0274210009, 52116.82493887245, 29370.326324740214, 61176.545760219786, 76620.75181254766, 53070.21624686912, 51395.1318138995, 0.07200000000000001, 0.9440000000000001, 0.17, 192.0, 0.0, 0.0, 0.0, 0.0, 0.0, 0.0, 0.0, 0.0, 0.0, 1.6665561547607973E9, 0.0, 2022-10-23 13:15:54.760
30.0, -79558.7768624755, -112194.38012771371, 52932.66361149116, 29472.093817245226, 61270.55719739881, 77076.03449535782, 53699.52961200829, 52134.974555370165, 0.07200000000000001, 0.9440000000000001, 0.17, 192.0, 0.0, 0.0, 0.0, 0.0, 0.0, 0.0, 0.0, 0.0, 0.0, 1.666556154760806E9, 0.0, 2022-10-23 13:15:54.760
31.0, -79572.99257194909, -112203.32082549583, 54947.628670648184, 29453.49716585841, 61271.92065381059, 77799.22518720927, 54956.21174051902, 53265.816362597514, 0.076, 0.9400000000000001, 0.166, 192.0, 2.0, 96.0, 29.0, 96.0, 5.0, 48.0, 0.0, 0.0, 0.0, 1.6665561547608137E9, 0.0, 2022-10-23 13:15:54.760
32.0, -79531.66419645121, -112159.04201972987, 53576.572665759646, 29257.204146051903, 61091.58677954516, 77069.46308248796, 53940.369658514224, 52094.22732522814, 0.076, 0.9400000000000001, 0.166, 192.0, 0.0, 0.0, 0.0, 0.0, 0.0, 0.0, 0.0, 0.0, 0.0, 1.666556154760822E9, 0.0, 2022-10-23 13:15:54.760
33.0, -79561.14614738777, -112185.90881656515, 52174.64890177833, 29341.537277881776, 61152.87526284162, 76622.31643465954, 53099.005293727554, 51381.273732337206, 0.076, 0.9400000000000001, 0.166, 192.0, 0.0, 0.0, 0.0, 0.0, 0.0, 0.0, 0.0, 0.0, 0.0, 1.6665561547608297E9, 0.0, 2022-10-23 13:15:54.760
34.0, -79586.98476397811, -112214.16142155665, 52637.44177072546, 29428.44086032401, 61221.76333925287, 76935.01733958928, 53498.83329854409, 51908.79725322691, 0.076, 0.9400000000000001, 0.166, 192.0, 0.0, 0.0, 0.0, 0.0, 0.0, 0.0, 0.0, 0.0, 0.0, 1.6665561547608376E9, 0.0, 2022-10-23 13:15:54.760
35.0, -79589.04112446799, -112217.58123845831, 54729.788569186756, 29487.270651730378, 61279.29672948083, 77739.45662253578, 54841.97197460794, 53182.690224968224, 0.076, 0.9400000000000001, 0.166, 192.0, 0.0, 0.0, 0.0, 0.0, 0.0, 0.0, 0.0, 0.0, 0.0, 1.6665561547608452E9, 0.0, 2022-10-23 13:15:54.760
36.0, -79528.60200746084, -112159.53375810788, 53966.63295824921, 29254.186660550436, 61078.48865729436, 77226.19351460857, 54206.91421114376, 52361.755354613706, 0.076, 0.9400000000000001, 0.166, 192.0, 0.0, 0.0, 0.0, 0.0, 0.0, 0.0, 0.0, 0.0, 0.0, 1.6665561547608533E9, 0.0, 2022-10-23 13:15:54.760
37.0, -79527.99851036054, -112157.07506621779, 52216.87134705441, 29332.350710910647, 61132.11049224264, 76612.79459152158, 53118.40660791476, 51372.73536595528, 0.076, 0.9400000000000001, 0.166, 192.0, 0.0, 0.0, 0.0, 0.0, 0.0, 0.0, 0.0, 0.0, 0.0, 1.6665561547608607E9, 0.0, 2022-10-23 13:15:54.760
38.0, -79570.95856320365, -112196.54824692587, 52391.952561372826, 29411.92292117154, 61210.11808039166, 76828.15364934846, 53341.72288676773, 51740.265100033896, 0.076, 0.9400000000000001, 0.166, 192.0, 0.0, 0.0, 0.0, 0.0, 0.0, 0.0, 0.0, 0.0, 0.0, 1.6665561547608683E9, 0.0, 2022-10-23 13:15:54.760
39.0, -79588.43762736769, -112216.70952042456, 54372.65239627986, 29507.007242084415, 61290.94198834205, 77624.90393220233, 54635.71007677437, 53014.44864445313, 0.076, 0.9400000000000001, 0.166, 192.0, 0.0, 0.0, 0.0, 0.0, 0.0, 0.0, 0.0, 0.0, 0.0, 1.6665561547608762E9, 0.0, 2022-10-23 13:15:54.760
40.0, -79529.56313247242, -112164.78641805488, 54388.142155187394, 29296.632623271063, 61125.8296520507, 77430.30964497443, 54502.851307732024, 52677.58550376719, 0.076, 0.9400000000000001, 0.166, 192.0, 0.0, 0.0, 0.0, 0.0, 0.0, 0.0, 0.0, 0.0, 0.0, 1.666556154760884E9, 0.0, 2022-10-23 13:15:54.760
41.0, -79503.72451588209, -112136.220888641, 52372.439488463344, 29325.242856173856, 61125.56143111723, 76656.00051355369, 53199.78930947654, 51427.74300905979, 0.074, 0.9420000000000001, 0.162, 192.0, 2.0, 80.0, 29.0, 112.0, 5.0, 16.0, 0.0, 0.0, 0.0, 1.6665561547608917E9, 0.0, 2022-10-23 13:15:54.760
42.0, -79538.772051188, -112168.38504891218, 52251.40479223786, 29416.214456106958, 61213.62730427114, 76766.21696546281, 53231.19351043624, 51620.705618942455, 0.074, 0.9420000000000001, 0.162, 192.0, 0.0, 0.0, 0.0, 0.0, 0.0, 0.0, 0.0, 0.0, 0.0, 1.6665561547609E9, 0.0, 2022-10-23 13:15:54.760
43.0, -79577.4852725846, -112204.2372470185, 53980.11106015576, 29514.204503799025, 61290.56200868631, 77499.10831440787, 54391.94195174479, 52799.313104070796, 0.074, 0.9420000000000001, 0.162, 192.0, 0.0, 0.0, 0.0, 0.0, 0.0, 0.0, 0.0, 0.0, 0.0, 1.666556154760908E9, 0.0, 2022-10-23 13:15:54.760
44.0, -79535.93337964219, -112170.73198207999, 54716.19870855793, 29334.317664422713, 61160.050172811774, 77599.53470224557, 54737.49992102384, 52935.85991094827, 0.074, 0.9420000000000001, 0.162, 192.0, 0.0, 0.0, 0.0, 0.0, 0.0, 0.0, 0.0, 0.0, 0.0, 1.6665561547609243E9, 0.0, 2022-10-23 13:15:54.760
45.0, -79498.62831814628, -112135.68444677407, 52618.26397398281, 29291.379963324067, 61100.03573894927, 76733.87399123597, 53347.17671241483, 51534.092609178144, 0.074, 0.9420000000000001, 0.162, 192.0, 0.0, 0.0, 0.0, 0.0, 0.0, 0.0, 0.0, 0.0, 0.0, 1.666556154760932E9, 0.0, 2022-10-23 13:15:54.760
46.0, -79520.80124864593, -112152.78353128237, 52174.403032589325, 29405.48561876841, 61199.143373864106, 76710.38230781344, 53163.46772473666, 51521.88855670555, 0.074, 0.9420000000000001, 0.162, 192.0, 0.0, 0.0, 0.0, 0.0, 0.0, 0.0, 0.0, 0.0, 0.0, 1.66655615476094E9, 0.0, 2022-10-23 13:15:54.760
47.0, -79560.52029854302, -112188.92630206661, 53575.522133770246, 29516.08205033327, 61295.881723866674, 77356.21361210509, 54139.07666672191, 52561.3564325996, 0.074, 0.9420000000000001, 0.162, 192.0, 0.0, 0.0, 0.0, 0.0, 0.0, 0.0, 0.0, 0.0, 0.0, 1.6665561547609477E9, 0.0, 2022-10-23 13:15:54.760
48.0, -79545.36581580232, -112180.18676998459, 54962.71609815551, 29383.066819079737, 61201.93734192102, 77756.5557070441, 54933.234147218966, 53165.56878871546, 0.074, 0.9420000000000001, 0.162, 192.0, 0.0, 0.0, 0.0, 0.0, 0.0, 0.0, 0.0, 0.0, 0.0, 1.6665561547609556E9, 0.0, 2022-10-23 13:15:54.760
49.0, -79490.02289653098, -112129.44831007103, 52932.10481787978, 29266.860099656595, 61071.85018919113, 76843.03991115569, 53535.19958677288, 51695.583962867735, 0.074, 0.9420000000000001, 0.162, 192.0, 0.0, 0.0, 0.0, 0.0, 0.0, 0.0, 0.0, 0.0, 0.0, 1.6665561547609634E9, 0.0, 2022-10-23 13:15:54.760
50.0, -79519.68366142317, -112153.65524931613, 52120.06594181847, 29391.649888950575, 61179.272673043335, 76661.34258047851, 53097.77594778252, 51433.50975912926, 0.074, 0.9440000000000001, 0.17400000000000002, 192.0, 2.0, 80.0, 29.0, 128.0, 5.0, 112.0, 0.0, 0.0, 0.0, 1.6665561547609727E9, 0.0, 2022-10-23 13:15:54.760
51.0, -79556.36287407433, -112184.18773224208, 53190.870963438865, 29498.08889604675, 61274.356993956215, 77204.64643295365, 53883.4174136421, 52308.51349932117, 0.074, 0.9440000000000001, 0.17400000000000002, 192.0, 0.0, 0.0, 0.0, 0.0, 0.0, 0.0, 0.0, 0.0, 0.0, 1.6665561547609887E9, 0.0, 2022-10-23 13:15:54.760
52.0, -79562.28608635499, -112189.86507533373, 54987.906514156646, 29429.40198533559, 61231.66516204658, 77795.22422495177, 54961.956138844034, 53238.3684204064, 0.074, 0.9440000000000001, 0.17400000000000002, 192.0, 0.0, 0.0, 0.0, 0.0, 0.0, 0.0, 0.0, 0.0, 0.0, 1.666556154761017E9, 0.0, 2022-10-23 13:15:54.761
53.0, -79512.30758575292, -112145.38510386767, 53308.0835113625, 29249.671608170465, 61069.90558742352, 76981.50896805633, 53765.40020291808, 51910.138357894226, 0.074, 0.9440000000000001, 0.17400000000000002, 192.0, 0.0, 0.0, 0.0, 0.0, 0.0, 0.0, 0.0, 0.0, 0.0, 1.6665561547610304E9, 0.0, 2022-10-23 13:15:54.761
54.0, -79525.09278358135, -112158.99731624096, 52172.793706988545, 29365.408940960046, 61162.03947806829, 76666.05879855857, 53114.830328801916, 51404.899526226465, 0.074, 0.9440000000000001, 0.17400000000000002, 192.0, 0.0, 0.0, 0.0, 0.0, 0.0, 0.0, 0.0, 0.0, 0.0, 1.6665561547610393E9, 0.0, 2022-10-23 13:15:54.761
55.0, -79564.14128114478, -112195.58712191429, 52878.81825909833, 29454.279476914344, 61233.54270858082, 77067.60788769816, 53668.79596338225, 52070.512124361056, 0.074, 0.9440000000000001, 0.17400000000000002, 192.0, 0.0, 0.0, 0.0, 0.0, 0.0, 0.0, 0.0, 0.0, 0.0, 1.666556154761047E9, 0.0, 2022-10-23 13:15:54.761
56.0, -79578.7369702741, -112212.4403372336, 54903.9086584936, 29460.78383455084, 61240.33763889523, 77786.0600097251, 54923.66760059209, 53226.20907142271, 0.074, 0.9440000000000001, 0.17400000000000002, 192.0, 0.0, 0.0, 0.0, 0.0, 0.0, 0.0, 0.0, 0.0, 0.0, 1.6665561547610548E9, 0.0, 2022-10-23 13:15:54.761
57.0, -79496.10257102283, -112133.35986535072, 53759.946377270986, 29279.019448640283, 61082.53432304077, 77154.28795269584, 54053.51418894699, 52184.01428270511, 0.074, 0.9440000000000001, 0.17400000000000002, 192.0, 0.0, 0.0, 0.0, 0.0, 0.0, 0.0, 0.0, 0.0, 0.0, 1.666556154761063E9, 0.0, 2022-10-23 13:15:54.761
58.0, -79509.9159490962, -112142.07704568829, 52254.69049867279, 29375.556632942753, 61153.16583551954, 76659.01799905516, 53137.2938319795, 51385.09588063906, 0.074, 0.9440000000000001, 0.17400000000000002, 192.0, 0.0, 0.0, 0.0, 0.0, 0.0, 0.0, 0.0, 0.0, 0.0, 1.6665561547610717E9, 0.0, 2022-10-23 13:15:54.761
59.0, -79545.9246094137, -112178.08570600579, 52626.06473279771, 29450.859660012684, 61224.087920676226, 76940.20294430292, 53479.320225634605, 51861.5903689373, 0.074, 0.9440000000000001, 0.17400000000000002, 192.0, 0.0, 0.0, 0.0, 0.0, 0.0, 0.0, 0.0, 0.0, 0.0, 1.6665561547610793E9, 0.0, 2022-10-23 13:15:54.761
60.0, -79576.21122315065, -112209.69107266559, 54685.48741167634, 29498.111247791203, 61279.721412625484, 77729.599503231, 54794.6309798516, 53128.39783768629, 0.07200000000000001, 0.9440000000000001, 0.17, 192.0, 2.0, 64.0, 29.0, 128.0, 5.0, 80.0, 0.0, 0.0, 0.0, 1.6665561547611015E9, 0.0, 2022-10-23 13:15:54.761
61.0, -79514.58746368736, -112156.89625226216, 54206.46717625466, 29277.723047461874, 61106.94242798596, 77337.16992582916, 54341.874044164906, 52475.74925133577, 0.07200000000000001, 0.9440000000000001, 0.17, 192.0, 0.0, 0.0, 0.0, 0.0, 0.0, 0.0, 0.0, 0.0, 0.0, 1.66655615476111E9, 0.0, 2022-10-23 13:15:54.761
62.0, -79511.32410899688, -112148.73786553596, 52358.02261328967, 29330.56257135422, 61131.81991956472, 76658.68272288832, 53170.66498645127, 51385.27469459471, 0.07200000000000001, 0.9440000000000001, 0.17, 192.0, 0.0, 0.0, 0.0, 0.0, 0.0, 0.0, 0.0, 0.0, 0.0, 1.6665561547611177E9, 0.0, 2022-10-23 13:15:54.761
63.0, -79537.09567035385, -112169.36852566821, 52425.10019840005, 29431.63715978112, 61223.596182298206, 76833.85334418456, 53320.064046390544, 51691.04655874331, 0.07200000000000001, 0.9440000000000001, 0.17, 192.0, 0.0, 0.0, 0.0, 0.0, 0.0, 0.0, 0.0, 0.0, 0.0, 1.6665561547611253E9, 0.0, 2022-10-23 13:15:54.761
64.0, -79577.39586560677, -112207.6347121757, 54352.625233247905, 29526.56501848281, 61304.86712513771, 77630.26835087161, 54591.25245705277, 52958.569283314864, 0.07200000000000001, 0.9440000000000001, 0.17, 192.0, 0.0, 0.0, 0.0, 0.0, 0.0, 0.0, 0.0, 0.0, 0.0, 1.6665561547611337E9, 0.0, 2022-10-23 13:15:54.761
65.0, -79529.98781561707, -112163.95940351003, 54600.37196879053, 29320.817210771707, 61146.50501567186, 77525.37161414286, 54607.54687876069, 52767.28305426634, 0.07200000000000001, 0.9440000000000001, 0.17, 192.0, 0.0, 0.0, 0.0, 0.0, 0.0, 0.0, 0.0, 0.0, 0.0, 1.6665561547611413E9, 0.0, 2022-10-23 13:15:54.761
66.0, -79503.05396354842, -112132.75636825043, 52523.22435655884, 29321.80068752774, 61118.4759281249, 76699.13938035243, 53247.39852516634, 51439.54473013219, 0.07200000000000001, 0.9440000000000001, 0.17, 192.0, 0.0, 0.0, 0.0, 0.0, 0.0, 0.0, 0.0, 0.0, 0.0, 1.6665561547611487E9, 0.0, 2022-10-23 13:15:54.761
67.0, -79542.63890297877, -112168.63091810119, 52297.583496282525, 29410.514761270853, 61198.361062808166, 76758.1703374589, 53203.946733945224, 51560.84764729114, 0.07200000000000001, 0.9440000000000001, 0.17, 192.0, 0.0, 0.0, 0.0, 0.0, 0.0, 0.0, 0.0, 0.0, 0.0, 1.6665561547611566E9, 0.0, 2022-10-23 13:15:54.761
68.0, -79578.64756329627, -112205.980683086, 53931.74188515448, 29512.483419475964, 61277.50858992441, 77461.40092151177, 54305.46305244721, 52693.92462896403, 0.07200000000000001, 0.9440000000000001, 0.17, 192.0, 0.0, 0.0, 0.0, 0.0, 0.0, 0.0, 0.0, 0.0, 0.0, 1.6665561547611642E9, 0.0, 2022-10-23 13:15:54.761
69.0, -79538.66029246572, -112169.59204311277, 54869.50932377688, 29359.776301357306, 61169.14733280508, 77648.35091213595, 54783.209238434945, 52977.41180389069, 0.07200000000000001, 0.9440000000000001, 0.17, 192.0, 0.0, 0.0, 0.0, 0.0, 0.0, 0.0, 0.0, 0.0, 0.0, 1.666556154761172E9, 0.0, 2022-10-23 13:15:54.761
70.0, -79506.22791126107, -112137.29377237485, 52779.21888580548, 29287.35664932211, 61093.71019526842, 76769.70383759783, 53385.934637300335, 51548.95651924092, 0.068, 0.9420000000000001, 0.17200000000000001, 192.0, 2.0, 32.0, 29.0, 112.0, 5.0, 96.0, 0.0, 0.0, 0.0, 1.6665561547611797E9, 0.0, 2022-10-23 13:15:54.761
71.0, -79529.09374583885, -112159.86903427471, 52225.76734134762, 29402.021098377838, 61190.98498713792, 76700.18991234183, 53128.48724466411, 51465.316291489165, 0.068, 0.9420000000000001, 0.17200000000000001, 192.0, 0.0, 0.0, 0.0, 0.0, 0.0, 0.0, 0.0, 0.0, 0.0, 1.666556154761188E9, 0.0, 2022-10-23 13:15:54.761
72.0, -79575.5853743059, -112205.69011040809, 53518.25696447575, 29507.633090929165, 61279.14026726965, 77307.33034698134, 54040.483121929545, 52454.47039061432, 0.068, 0.9420000000000001, 0.17200000000000001, 192.0, 0.0, 0.0, 0.0, 0.0, 0.0, 0.0, 0.0, 0.0, 0.0, 1.6665561547611964E9, 0.0, 2022-10-23 13:15:54.761
73.0, -79555.60291476284, -112191.38499395669, 55021.74705526198, 29402.021098377838, 61204.373682066645, 77748.9561139293, 54906.8590887617, 53155.778724644035, 0.068, 0.9420000000000001, 0.17200000000000001, 192.0, 0.0, 0.0, 0.0, 0.0, 0.0, 0.0, 0.0, 0.0, 0.0, 1.666556154761205E9, 0.0, 2022-10-23 13:15:54.761
74.0, -79502.67398389269, -112139.48424333146, 53085.41543309873, 29274.21382358239, 61082.89195095205, 76871.00194346928, 53568.70485171138, 51731.726733651965, 0.068, 0.9420000000000001, 0.17200000000000001, 192.0, 0.0, 0.0, 0.0, 0.0, 0.0, 0.0, 0.0, 0.0, 0.0, 1.6665561547612128E9, 0.0, 2022-10-23 13:15:54.761
75.0, -79532.44650750715, -112164.02645874339, 52176.32528261248, 29381.77041790133, 61168.02974558232, 76647.10451926048, 53069.81391546893, 51393.65659876545, 0.068, 0.9420000000000001, 0.17200000000000001, 192.0, 0.0, 0.0, 0.0, 0.0, 0.0, 0.0, 0.0, 0.0, 0.0, 1.6665561547612338E9, 0.0, 2022-10-23 13:15:54.761
76.0, -79560.34148458738, -112186.17703749861, 53115.67969509122, 29499.25118675842, 61271.898302066125, 77141.6592170786, 53772.955092543976, 52194.586657832464, 0.068, 0.9420000000000001, 0.17200000000000001, 192.0, 0.0, 0.0, 0.0, 0.0, 0.0, 0.0, 0.0, 0.0, 0.0, 1.666556154761242E9, 0.0, 2022-10-23 13:15:54.761
77.0, -79558.88862119778, -112186.40055494316, 55026.84325299779, 29460.985000250937, 61261.08005774976, 77803.15909423342, 54944.410019446615, 53232.53461510356, 0.068, 0.9420000000000001, 0.17200000000000001, 192.0, 0.0, 0.0, 0.0, 0.0, 0.0, 0.0, 0.0, 0.0, 0.0, 1.66655615476125E9, 0.0, 2022-10-23 13:15:54.761
78.0, -79488.23475697456, -112122.31810358979, 53481.15306867994, 29279.332373062658, 61099.34283487116, 77027.15123023406, 53827.046314125815, 51978.06530929391, 0.068, 0.9420000000000001, 0.17200000000000001, 192.0, 0.0, 0.0, 0.0, 0.0, 0.0, 0.0, 0.0, 0.0, 0.0, 1.6665561547612581E9, 0.0, 2022-10-23 13:15:54.761
79.0, -79516.68852766616, -112145.76508352341, 52196.218335177706, 29383.29033652429, 61176.545760219786, 76637.9403040338, 53070.618578269314, 51367.75092694175, 0.068, 0.9440000000000001, 0.164, 192.0, 2.0, 32.0, 29.0, 128.0, 5.0, 32.0, 0.0, 0.0, 0.0, 1.6665561547612662E9, 0.0, 2022-10-23 13:15:54.761
80.0, -79559.33565608689, -112183.49482816397, 52768.17712404456, 29465.768273564372, 61249.21128144399, 76992.95306121744, 53540.564005442146, 51962.55319864192, 0.068, 0.9440000000000001, 0.164, 192.0, 0.0, 0.0, 0.0, 0.0, 0.0, 0.0, 0.0, 0.0, 0.0, 1.6665561547612748E9, 0.0, 2022-10-23 13:15:54.761
81.0, -79579.31811562993, -112205.5783516858, 54850.040954356315, 29484.096704017724, 61278.29090098035, 77770.50319558421, 54857.797009682305, 53194.42489080726, 0.068, 0.9440000000000001, 0.164, 192.0, 0.0, 0.0, 0.0, 0.0, 0.0, 0.0, 0.0, 0.0, 0.0, 1.6665561547612827E9, 0.0, 2022-10-23 13:15:54.761
82.0, -79514.69922240963, -112148.6708103026, 53882.45628863052, 29268.067093857182, 61093.37491910159, 77187.43558972307, 54092.3168173214, 52249.08021081451, 0.068, 0.9440000000000001, 0.164, 192.0, 0.0, 0.0, 0.0, 0.0, 0.0, 0.0, 0.0, 0.0, 0.0, 1.6665561547612903E9, 0.0, 2022-10-23 13:15:54.761
83.0, -79529.33961502787, -112163.60177559874, 52253.4835044722, 29341.559629626234, 61141.319410958225, 76630.54187661909, 53090.064595945434, 51355.72568842479, 0.068, 0.9440000000000001, 0.164, 192.0, 0.0, 0.0, 0.0, 0.0, 0.0, 0.0, 0.0, 0.0, 0.0, 1.6665561547612984E9, 0.0, 2022-10-23 13:15:54.761
84.0, -79549.88086818228, -112177.03517401639, 52521.32445828014, 29443.30477038679, 61233.49800509191, 76880.32262090714, 53373.08238423853, 51780.36412958671, 0.068, 0.9440000000000001, 0.164, 192.0, 0.0, 0.0, 0.0, 0.0, 0.0, 0.0, 0.0, 0.0, 0.0, 1.666556154761306E9, 0.0, 2022-10-23 13:15:54.761
85.0, -79573.61842079382, -112205.17602028561, 54544.805532074635, 29511.544646208844, 61298.94391285705, 77673.4295694148, 54683.408699442, 53052.49131351606, 0.068, 0.9440000000000001, 0.164, 192.0, 0.0, 0.0, 0.0, 0.0, 0.0, 0.0, 0.0, 0.0, 0.0, 1.666556154761314E9, 0.0, 2022-10-23 13:15:54.761
86.0, -79519.92953061218, -112157.05271447334, 54303.29493323505, 29285.970841165883, 61127.30486718475, 77377.60423154882, 54388.365672631946, 52554.38268832954, 0.068, 0.9440000000000001, 0.164, 192.0, 0.0, 0.0, 0.0, 0.0, 0.0, 0.0, 0.0, 0.0, 0.0, 1.6665561547613215E9, 0.0, 2022-10-23 13:15:54.761
0.0, 0.0, 0.0, 0.0, 0.0, 0.0, 0.0, 0.0, 0.0, 0.06, 0.9400000000000001, 0.156, 192.0, 1.0, 224.0, 29.0, 96.0, 4.0, 224.0, 0.0, 0.0, 0.0, 1.6665561548708491E9, 0.0, 2022-10-23 13:15:54.870
1.0, -79636.15860177978, -112326.32247523338, 52940.129094139236, 29561.94782995556, 61067.7151164669, 77491.50872129307, 53574.35984305857, 51908.238459615524, 0.06, 0.9400000000000001, 0.156, 192.0, 0.0, 0.0, 0.0, 0.0, 0.0, 0.0, 0.0, 0.0, 0.0, 1.6665561548708725E9, 0.0, 2022-10-23 13:15:54.870
2.0, -79667.11576785038, -112355.8267779144, 52210.14347197336, 29671.180805108645, 61164.29700425828, 77354.93956267113, 53198.917591442776, 51696.768605323865, 0.06, 0.9400000000000001, 0.156, 192.0, 0.0, 0.0, 0.0, 0.0, 0.0, 0.0, 0.0, 0.0, 0.0, 1.6665561553503263E9, 0.0, 2022-10-23 13:15:55.350
3.0, -79713.1156579394, -112405.29118839398, 53305.177784583306, 29770.60136444585, 61251.17823495606, 77891.11320866505, 53977.02651942093, 52565.893836724026, 0.06, 0.9400000000000001, 0.156, 192.0, 0.0, 0.0, 0.0, 0.0, 0.0, 0.0, 0.0, 0.0, 0.0, 1.6665561553503828E9, 0.0, 2022-10-23 13:15:55.350
4.0, -79722.90572201082, -112415.0365489765, 55070.63032038574, 29688.615165783784, 61194.31539706176, 78452.05258751543, 55013.81218598034, 53458.711917246816, 0.06, 0.9400000000000001, 0.156, 192.0, 0.0, 0.0, 0.0, 0.0, 0.0, 0.0, 0.0, 0.0, 0.0, 1.6665561553504848E9, 0.0, 2022-10-23 13:15:55.350
5.0, -79654.53173572203, -112346.84137664335, 53336.04554367609, 29533.22583833049, 61052.09124709264, 77627.34027234797, 53801.43121498004, 52127.24085178863, 0.06, 0.9400000000000001, 0.156, 192.0, 0.0, 0.0, 0.0, 0.0, 0.0, 0.0, 0.0, 0.0, 0.0, 1.6665561553504937E9, 0.0, 2022-10-23 13:15:55.350
6.0, -79673.93304990925, -112363.24755707356, 52252.38826899389, 29650.125461831747, 61144.96274530444, 77341.48381250905, 53199.4540333097, 51670.32649163324, 0.06, 0.9400000000000001, 0.156, 192.0, 0.0, 0.0, 0.0, 0.0, 0.0, 0.0, 0.0, 0.0, 0.0, 1.6665561553505015E9, 0.0, 2022-10-23 13:15:55.350
7.0, -79694.92133795278, -112381.84420846036, 52994.153260487714, 29760.74424514106, 61232.31336263578, 77758.27679136716, 53771.36811868765, 52352.14410449793, 0.046, 0.9380000000000001, 0.148, 192.0, 1.0, 112.0, 29.0, 80.0, 4.0, 160.0, 0.0, 0.0, 0.0, 1.6665561553505137E9, 0.0, 2022-10-23 13:15:55.350
8.0, -79708.93588172625, -112398.78683075748, 55025.03276169691, 29760.543079440962, 61246.32790640926, 78480.34989599585, 55016.22617438152, 53497.358083410036, 0.046, 0.9380000000000001, 0.148, 192.0, 0.0, 0.0, 0.0, 0.0, 0.0, 0.0, 0.0, 0.0, 0.0, 1.6665561553505228E9, 0.0, 2022-10-23 13:15:55.350
9.0, -79654.77760491105, -112347.13194932126, 53780.04059553631, 29545.206373358535, 61057.05333436171, 77804.05316401162, 54086.617122485295, 52402.860212667016, 0.046, 0.9380000000000001, 0.148, 192.0, 0.0, 0.0, 0.0, 0.0, 0.0, 0.0, 0.0, 0.0, 0.0, 1.6665561553505304E9, 0.0, 2022-10-23 13:15:55.350
10.0, -79664.94764863822, -112352.3175540349, 52252.36591724944, 29636.222676780544, 61120.24171593687, 77294.56750089735, 53163.46772473666, 51609.30622927025, 0.046, 0.9380000000000001, 0.148, 192.0, 0.0, 0.0, 0.0, 0.0, 0.0, 0.0, 0.0, 0.0, 0.0, 1.6665561553505385E9, 0.0, 2022-10-23 13:15:55.350
11.0, -79698.25174787662, -112385.3757840843, 52672.57871300921, 29727.663663347204, 61209.8498594582, 77607.82719943848, 53544.07322932163, 52124.02220058706, 0.046, 0.9380000000000001, 0.148, 192.0, 0.0, 0.0, 0.0, 0.0, 0.0, 0.0, 0.0, 0.0, 0.0, 1.6665561553505464E9, 0.0, 2022-10-23 13:15:55.350
12.0, -79724.33623365597, -112410.20857217415, 54768.90412198355, 29778.200957560657, 61256.587357114244, 78407.39380209372, 54870.35869006618, 53399.61390490698, 0.046, 0.9380000000000001, 0.148, 192.0, 0.0, 0.0, 0.0, 0.0, 0.0, 0.0, 0.0, 0.0, 0.0, 1.6665561553505545E9, 0.0, 2022-10-23 13:15:55.350
13.0, -79670.51323300759, -112357.01142037052, 54198.10762382837, 29554.3258850963, 61071.55961651321, 77975.24517479482, 54360.80597171855, 52697.70207377697, 0.046, 0.9380000000000001, 0.148, 192.0, 0.0, 0.0, 0.0, 0.0, 0.0, 0.0, 0.0, 0.0, 0.0, 1.666556155350562E9, 0.0, 2022-10-23 13:15:55.350
14.0, -79674.64830573181, -112360.0736093609, 52363.11881102548, 29607.344222944288, 61102.60618956163, 77313.03004181743, 53216.28489688455, 51637.80470345077, 0.046, 0.9380000000000001, 0.148, 192.0, 0.0, 0.0, 0.0, 0.0, 0.0, 0.0, 0.0, 0.0, 0.0, 1.66655615535057E9, 0.0, 2022-10-23 13:15:55.350
15.0, -79696.30714610901, -112378.24557760305, 52475.86101005805, 29712.2633114175, 61201.19973435399, 77513.07815469244, 53400.686788640836, 51970.689233623656, 0.046, 0.9380000000000001, 0.148, 192.0, 0.0, 0.0, 0.0, 0.0, 0.0, 0.0, 0.0, 0.0, 0.0, 1.666556155350578E9, 0.0, 2022-10-23 13:15:55.350
16.0, -79733.1651727158, -112407.30284539495, 54426.810673095075, 29809.135771886802, 61285.84579060624, 78303.79346654337, 54668.99182426833, 53233.62985058187, 0.046, 0.9380000000000001, 0.148, 192.0, 0.0, 0.0, 0.0, 0.0, 0.0, 0.0, 0.0, 0.0, 0.0, 1.6665561553505857E9, 0.0, 2022-10-23 13:15:55.350
17.0, -79687.12057913787, -112363.89575766276, 54599.23202982331, 29593.061458237346, 61118.25241068035, 78171.4040841346, 54636.671201785946, 52996.67900761116, 0.048, 0.9380000000000001, 0.14400000000000002, 192.0, 1.0, 128.0, 29.0, 80.0, 4.0, 128.0, 0.0, 0.0, 0.0, 1.6665561553505936E9, 0.0, 2022-10-23 13:15:55.350
18.0, -79666.62402947235, -112345.83554814286, 52509.455681974374, 29592.793237303882, 61090.200971388935, 77350.29039982443, 53288.59279019747, 51686.82207904125, 0.048, 0.9380000000000001, 0.14400000000000002, 192.0, 0.0, 0.0, 0.0, 0.0, 0.0, 0.0, 0.0, 0.0, 0.0, 1.666556155350602E9, 0.0, 2022-10-23 13:15:55.350
19.0, -79695.72600075317, -112377.99970841405, 52303.238487629715, 29707.88236950426, 61193.28721681681, 77423.96174954913, 53264.78818235257, 51832.57780463431, 0.048, 0.9380000000000001, 0.14400000000000002, 192.0, 0.0, 0.0, 0.0, 0.0, 0.0, 0.0, 0.0, 0.0, 0.0, 1.6665561553506253E9, 0.0, 2022-10-23 13:15:55.350
20.0, -79727.08549822397, -112408.1298599398, 53968.599911761274, 29821.831562737414, 61294.02652907688, 78142.03389192032, 54380.028471950114, 52986.12898422826, 0.048, 0.9380000000000001, 0.14400000000000002, 192.0, 0.0, 0.0, 0.0, 0.0, 0.0, 0.0, 0.0, 0.0, 0.0, 1.6665561553506331E9, 0.0, 2022-10-23 13:15:55.350
21.0, -79698.87759672137, -112385.04050791747, 54855.695945703505, 29636.356787247278, 61165.61575718114, 78308.86731253473, 54821.67659064253, 53231.88641451436, 0.048, 0.9380000000000001, 0.14400000000000002, 192.0, 0.0, 0.0, 0.0, 0.0, 0.0, 0.0, 0.0, 0.0, 0.0, 1.6665561553506408E9, 0.0, 2022-10-23 13:15:55.350
22.0, -79668.54627949552, -112355.78207442547, 52745.44539993351, 29574.151882428156, 61080.5673695287, 77434.33295897639, 53435.82373092458, 51813.3329526583, 0.048, 0.9380000000000001, 0.14400000000000002, 192.0, 0.0, 0.0, 0.0, 0.0, 0.0, 0.0, 0.0, 0.0, 0.0, 1.6665561553506489E9, 0.0, 2022-10-23 13:15:55.350
23.0, -79696.86593972039, -112377.99970841405, 52239.759533376644, 29690.1574361512, 61181.12786783313, 77396.35734514683, 53221.13522543135, 51765.7684404574, 0.048, 0.9380000000000001, 0.14400000000000002, 192.0, 0.0, 0.0, 0.0, 0.0, 0.0, 0.0, 0.0, 0.0, 0.0, 1.6665561553506565E9, 0.0, 2022-10-23 13:15:55.350
24.0, -79738.0155012626, -112418.92575251171, 53571.34235755711, 29792.483722267596, 61268.00909853091, 78010.15859963401, 54146.676259836706, 52757.783562872835, 0.048, 0.9380000000000001, 0.14400000000000002, 192.0, 0.0, 0.0, 0.0, 0.0, 0.0, 0.0, 0.0, 0.0, 0.0, 1.6665561553506644E9, 0.0, 2022-10-23 13:15:55.350
25.0, -79726.07966972348, -112412.64491231978, 55008.62658126671, 29675.82996795535, 61181.68666144451, 78406.47738057106, 54950.981432316476, 53394.98709380473, 0.048, 0.9380000000000001, 0.14400000000000002, 192.0, 0.0, 0.0, 0.0, 0.0, 0.0, 0.0, 0.0, 0.0, 0.0, 1.6665561553506722E9, 0.0, 2022-10-23 13:15:55.350
26.0, -79679.96802091217, -112370.08719087687, 53030.094865571846, 29545.22872510299, 61055.0640291052, 77522.10825945238, 53604.26647713977, 51963.9166550537, 0.048, 0.9380000000000001, 0.14400000000000002, 192.0, 0.0, 0.0, 0.0, 0.0, 0.0, 0.0, 0.0, 0.0, 0.0, 1.6665561553506799E9, 0.0, 2022-10-23 13:15:55.350
27.0, -79709.02528870408, -112397.55748481244, 52192.485593853664, 29658.619124724763, 61153.79168436429, 77349.97747540206, 53172.38607077433, 51689.1019569757, 0.052000000000000005, 0.9460000000000001, 0.14400000000000002, 192.0, 1.0, 160.0, 29.0, 144.0, 4.0, 128.0, 0.0, 0.0, 0.0, 1.6665561553506875E9, 0.0, 2022-10-23 13:15:55.350
28.0, -79732.56167561552, -112417.74111005559, 53166.32874802694, 29772.79183540247, 61245.43383663105, 77847.1696790659, 53885.54082936535, 52503.13013829353, 0.052000000000000005, 0.9460000000000001, 0.14400000000000002, 192.0, 0.0, 0.0, 0.0, 0.0, 0.0, 0.0, 0.0, 0.0, 0.0, 1.6665561553506958E9, 0.0, 2022-10-23 13:15:55.350
29.0, -79726.14672495684, -112415.46123212115, 55049.41851489765, 29737.163154740712, 61235.30849639279, 78485.31198326492, 55014.86271796974, 53506.656409103445, 0.052000000000000005, 0.9460000000000001, 0.14400000000000002, 192.0, 0.0, 0.0, 0.0, 0.0, 0.0, 0.0, 0.0, 0.0, 0.0, 1.6665561553507047E9, 0.0, 2022-10-23 13:15:55.350
30.0, -79670.26736381858, -112362.6217082288, 53470.42423134139, 29544.871097191706, 61065.92697691047, 77718.13305832542, 53897.61077137122, 52246.44270496878, 0.052000000000000005, 0.9460000000000001, 0.14400000000000002, 192.0, 0.0, 0.0, 0.0, 0.0, 0.0, 0.0, 0.0, 0.0, 0.0, 1.6665561553507123E9, 0.0, 2022-10-23 13:15:55.350
31.0, -79675.2518028321, -112361.86174891732, 52206.65659983833, 29661.837775926328, 61146.125036016114, 77340.63444621974, 53161.25490203559, 51655.90961645957, 0.052000000000000005, 0.9460000000000001, 0.14400000000000002, 192.0, 0.0, 0.0, 0.0, 0.0, 0.0, 0.0, 0.0, 0.0, 0.0, 1.66655615535072E9, 0.0, 2022-10-23 13:15:55.350
32.0, -79713.04860270604, -112398.69742377967, 52819.47437756949, 29758.240849762067, 61230.90520273509, 77710.51111346616, 53650.75810560681, 52266.84984765647, 0.052000000000000005, 0.9460000000000001, 0.14400000000000002, 192.0, 0.0, 0.0, 0.0, 0.0, 0.0, 0.0, 0.0, 0.0, 0.0, 1.6665561553507276E9, 0.0, 2022-10-23 13:15:55.350
33.0, -79723.71038481122, -112413.9860169871, 54889.33532110874, 29781.978402373603, 61258.5096071374, 78463.13905276525, 54930.39547567314, 53464.05398417163, 0.052000000000000005, 0.9460000000000001, 0.14400000000000002, 192.0, 0.0, 0.0, 0.0, 0.0, 0.0, 0.0, 0.0, 0.0, 0.0, 1.6665561553507357E9, 0.0, 2022-10-23 13:15:55.350
34.0, -79654.01764559957, -112353.90452789122, 53843.18427362255, 29570.866175993226, 61087.18348588747, 77865.14048160797, 54127.96784972762, 52490.07671953162, 0.052000000000000005, 0.9460000000000001, 0.14400000000000002, 192.0, 0.0, 0.0, 0.0, 0.0, 0.0, 0.0, 0.0, 0.0, 0.0, 1.6665561553507433E9, 0.0, 2022-10-23 13:15:55.350
35.0, -79666.91460215028, -112361.01238262802, 52232.629326895396, 29656.71922644606, 61145.432131938, 77329.7044431811, 53153.38708798732, 51631.09918011417, 0.052000000000000005, 0.9460000000000001, 0.14400000000000002, 192.0, 0.0, 0.0, 0.0, 0.0, 0.0, 0.0, 0.0, 0.0, 0.0, 1.6665561553507583E9, 0.0, 2022-10-23 13:15:55.350
36.0, -79706.52189332509, -112394.91997896672, 52538.557653255186, 29741.74526235405, 61225.29491487681, 77595.10905684342, 53455.44856255634, 52075.94359826369, 0.052000000000000005, 0.9540000000000001, 0.14, 192.0, 1.0, 160.0, 29.0, 208.0, 4.0, 96.0, 0.0, 0.0, 0.0, 1.6665561553507662E9, 0.0, 2022-10-23 13:15:55.350
37.0, -79742.0164635201, -112430.19103171719, 54593.889962898495, 29801.290309582986, 61278.08973528025, 78390.76410421898, 54765.9760434599, 53349.74716302719, 0.052000000000000005, 0.9540000000000001, 0.14, 192.0, 0.0, 0.0, 0.0, 0.0, 0.0, 0.0, 0.0, 0.0, 0.0, 1.6665561553507743E9, 0.0, 2022-10-23 13:15:55.350
38.0, -79691.14389313983, -112389.3320428529, 54275.39995615482, 29567.71458002503, 61090.78211674478, 78066.59675438366, 54425.02253353865, 52799.29075232634, 0.052000000000000005, 0.9540000000000001, 0.14, 192.0, 0.0, 0.0, 0.0, 0.0, 0.0, 0.0, 0.0, 0.0, 0.0, 1.666556155350782E9, 0.0, 2022-10-23 13:15:55.350
39.0, -79666.13229109434, -112364.25338557403, 52336.29671767911, 29623.05749929637, 61106.96477973042, 77345.37301604426, 53200.63867576584, 51648.15356113357, 0.052000000000000005, 0.9540000000000001, 0.14, 192.0, 0.0, 0.0, 0.0, 0.0, 0.0, 0.0, 0.0, 0.0, 0.0, 1.6665561553507895E9, 0.0, 2022-10-23 13:15:55.350
40.0, -79701.60450954492, -112399.30092087996, 52359.609587146, 29721.002843499526, 61210.16278388057, 77518.26375940607, 53333.25157561917, 51938.70388730811, 0.052000000000000005, 0.9540000000000001, 0.14, 192.0, 0.0, 0.0, 0.0, 0.0, 0.0, 0.0, 0.0, 0.0, 0.0, 1.6665561553507977E9, 0.0, 2022-10-23 13:15:55.350
41.0, -79738.75310882964, -112434.61667711934, 54266.10163046142, 29817.00358593507, 61292.32779649828, 78316.44455390508, 54592.548858231174, 53195.67658849676, 0.052000000000000005, 0.9540000000000001, 0.14, 192.0, 0.0, 0.0, 0.0, 0.0, 0.0, 0.0, 0.0, 0.0, 0.0, 1.6665561553508053E9, 0.0, 2022-10-23 13:15:55.350
42.0, -79691.27800360657, -112389.62261553081, 54658.88883577452, 29618.117763771745, 61127.19310846247, 78262.73331197898, 54698.96551358289, 53095.67488380372, 0.052000000000000005, 0.9540000000000001, 0.14, 192.0, 0.0, 0.0, 0.0, 0.0, 0.0, 0.0, 0.0, 0.0, 0.0, 1.666556155350813E9, 0.0, 2022-10-23 13:15:55.350
43.0, -79684.28190759206, -112383.36412708332, 52560.238845376836, 29595.564853616343, 61084.389517830554, 77421.92774080369, 53340.40413384487, 51750.591605972244, 0.052000000000000005, 0.9540000000000001, 0.14, 192.0, 0.0, 0.0, 0.0, 0.0, 0.0, 0.0, 0.0, 0.0, 0.0, 1.6665561553508203E9, 0.0, 2022-10-23 13:15:55.350
44.0, -79731.64525409284, -112423.82078454742, 52279.34447280699, 29687.74344775003, 61172.50009447338, 77461.60208721187, 53268.02918529859, 51843.19488325058, 0.052000000000000005, 0.9540000000000001, 0.14, 192.0, 0.0, 0.0, 0.0, 0.0, 0.0, 0.0, 0.0, 0.0, 0.0, 1.6665561553508284E9, 0.0, 2022-10-23 13:15:55.350
45.0, -79765.01640856462, -112454.62148840685, 53826.93455540354, 29793.735419957095, 61255.045086746824, 78127.88523768011, 54306.04419780305, 52928.21561434455, 0.052000000000000005, 0.9540000000000001, 0.14, 192.0, 0.0, 0.0, 0.0, 0.0, 0.0, 0.0, 0.0, 0.0, 0.0, 1.666556155350836E9, 0.0, 2022-10-23 13:15:55.350
46.0, -79722.79396328855, -112414.79067978749, 54913.18463244256, 29664.408226538686, 61169.99669909439, 78384.95265066059, 54881.53456229384, 53315.70545622176, 0.05, 0.9560000000000001, 0.136, 192.0, 1.0, 144.0, 29.0, 224.0, 4.0, 64.0, 0.0, 0.0, 0.0, 1.666556155350844E9, 0.0, 2022-10-23 13:15:55.350
47.0, -79697.9611751987, -112390.89666496476, 52829.06327594081, 29572.386094616188, 61069.19033160095, 77504.4950848216, 53498.56507761063, 51880.0976133463, 0.05, 0.9560000000000001, 0.136, 192.0, 0.0, 0.0, 0.0, 0.0, 0.0, 0.0, 0.0, 0.0, 0.0, 1.666556155350852E9, 0.0, 2022-10-23 13:15:55.350
48.0, -79725.56557960101, -112417.8305170334, 52193.960808987715, 29685.530625048952, 61156.3844867211, 77395.6197375798, 53189.753376216104, 51733.80544588631, 0.05, 0.9560000000000001, 0.136, 192.0, 0.0, 0.0, 0.0, 0.0, 0.0, 0.0, 0.0, 0.0, 0.0, 1.6665561553508596E9, 0.0, 2022-10-23 13:15:55.350
49.0, -79758.60145790596, -112442.32802895643, 53397.669303139366, 29806.341803829888, 61255.201548958015, 77962.01294207727, 54034.38109569324, 52662.34161404868, 0.05, 0.9560000000000001, 0.136, 192.0, 0.0, 0.0, 0.0, 0.0, 0.0, 0.0, 0.0, 0.0, 0.0, 1.6665561553508675E9, 0.0, 2022-10-23 13:15:55.350
50.0, -79764.16704227532, -112448.47475868164, 55046.93747126311, 29706.384802625755, 61204.41838555555, 78484.50732046453, 55001.16109861864, 53470.53599006367, 0.05, 0.9560000000000001, 0.136, 192.0, 0.0, 0.0, 0.0, 0.0, 0.0, 0.0, 0.0, 0.0, 0.0, 1.666556155350877E9, 0.0, 2022-10-23 13:15:55.350
51.0, -79712.06512595, -112394.58470279988, 53186.825297692456, 29545.295780336357, 61054.058200604704, 77634.33636836248, 53722.77542624181, 52083.90081928979, 0.05, 0.9560000000000001, 0.136, 192.0, 0.0, 0.0, 0.0, 0.0, 0.0, 0.0, 0.0, 0.0, 0.0, 1.6665561553508928E9, 0.0, 2022-10-23 13:15:55.350
52.0, -79735.93678902827, -112411.10264195236, 52195.32426539949, 29671.694895231118, 61161.27951875681, 77385.40499036372, 53175.492963253615, 51696.12040473466, 0.05, 0.9560000000000001, 0.136, 192.0, 0.0, 0.0, 0.0, 0.0, 0.0, 0.0, 0.0, 0.0, 0.0, 1.666556155350901E9, 0.0, 2022-10-23 13:15:55.350
53.0, -79772.70540865725, -112447.4912819256, 53052.89364491626, 29771.808358646438, 61245.478540119955, 77840.88883887397, 53814.261116297384, 52440.16527416292, 0.05, 0.9560000000000001, 0.136, 192.0, 0.0, 0.0, 0.0, 0.0, 0.0, 0.0, 0.0, 0.0, 0.0, 1.6665561553509085E9, 0.0, 2022-10-23 13:15:55.350
54.0, -79786.02704835261, -112467.54079670201, 54981.26804605342, 29739.80066058644, 61222.38918809762, 78487.36834375482, 54968.61695869172, 53482.58358032508, 0.05, 0.9560000000000001, 0.136, 192.0, 0.0, 0.0, 0.0, 0.0, 0.0, 0.0, 0.0, 0.0, 0.0, 1.6665561553509164E9, 0.0, 2022-10-23 13:15:55.350
55.0, -79730.99705350364, -112420.42331939022, 53558.64656670649, 29544.736986724973, 61057.343907039634, 77770.9055269844, 53943.655364949154, 52304.4454818303, 0.05, 0.9560000000000001, 0.136, 192.0, 0.0, 0.0, 0.0, 0.0, 0.0, 0.0, 0.0, 0.0, 0.0, 1.6665561553509245E9, 0.0, 2022-10-23 13:15:55.350
56.0, -79730.84059129246, -112416.288246666, 52217.76541683262, 29654.215831067067, 61138.52544290131, 77372.19510939064, 53162.93128286974, 51655.77550599283, 0.05, 0.9500000000000001, 0.132, 192.0, 1.0, 144.0, 29.0, 176.0, 4.0, 32.0, 0.0, 0.0, 0.0, 1.6665561553509324E9, 0.0, 2022-10-23 13:15:55.350
57.0, -79757.08153928298, -112437.96943878764, 52711.582507083716, 29759.447843962655, 61226.99364745542, 77698.77644762713, 53575.00804364777, 52203.75087305914, 0.05, 0.9500000000000001, 0.132, 192.0, 0.0, 0.0, 0.0, 0.0, 0.0, 0.0, 0.0, 0.0, 0.0, 1.6665561553509407E9, 0.0, 2022-10-23 13:15:55.350
58.0, -79782.47312098421, -112457.7954361195, 54807.43852942449, 29798.250472337066, 61270.40073518762, 78487.77067515501, 54890.162335653586, 53453.21338811081, 0.05, 0.9500000000000001, 0.132, 192.0, 0.0, 0.0, 0.0, 0.0, 0.0, 0.0, 0.0, 0.0, 0.0, 1.6665561553509488E9, 0.0, 2022-10-23 13:15:55.350
59.0, -79708.01946020359, -112395.74699351157, 53998.10421444228, 29574.598917317264, 61080.969700928894, 77978.44147425193, 54236.68673475823, 52609.61384887861, 0.05, 0.9500000000000001, 0.132, 192.0, 0.0, 0.0, 0.0, 0.0, 0.0, 0.0, 0.0, 0.0, 0.0, 1.666556155350957E9, 0.0, 2022-10-23 13:15:55.350
60.0, -79703.0573729345, -112394.87527547781, 52279.478583273725, 29661.457796270588, 61129.74120733038, 77383.50509208502, 53181.371472045364, 51653.853255969676, 0.05, 0.9500000000000001, 0.132, 192.0, 0.0, 0.0, 0.0, 0.0, 0.0, 0.0, 0.0, 0.0, 0.0, 1.6665561553509648E9, 0.0, 2022-10-23 13:15:55.350
61.0, -79748.8784490679, -112438.46117716565, 52496.06698704565, 29745.88033507828, 61211.436833314525, 77615.11386813091, 53427.2630127982, 52046.43929558269, 0.05, 0.9500000000000001, 0.132, 192.0, 0.0, 0.0, 0.0, 0.0, 0.0, 0.0, 0.0, 0.0, 0.0, 1.6665561553509743E9, 0.0, 2022-10-23 13:15:55.350
62.0, -79802.00854563815, -112492.08301211394, 54509.55683106862, 29794.60713799085, 61257.079095492256, 78402.29760435791, 54717.15983356951, 53311.324514308515, 0.05, 0.9500000000000001, 0.132, 192.0, 0.0, 0.0, 0.0, 0.0, 0.0, 0.0, 0.0, 0.0, 0.0, 1.6665561553509822E9, 0.0, 2022-10-23 13:15:55.350
63.0, -79755.8745450824, -112453.97328781764, 54444.58030993704, 29560.38320784369, 61070.062049634704, 78174.73449405843, 54537.65297384894, 52919.94546889609, 0.05, 0.9500000000000001, 0.132, 192.0, 0.0, 0.0, 0.0, 0.0, 0.0, 0.0, 0.0, 0.0, 0.0, 1.6665561553509903E9, 0.0, 2022-10-23 13:15:55.350
64.0, -79727.59958834643, -112421.9879415021, 52447.04961145516, 29586.84767327877, 61067.42454378898, 77412.51765638801, 53266.956301564736, 51694.17580296705, 0.05, 0.9500000000000001, 0.132, 192.0, 0.0, 0.0, 0.0, 0.0, 0.0, 0.0, 0.0, 0.0, 0.0, 1.6665561553510013E9, 0.0, 2022-10-23 13:15:55.351
65.0, -79745.03394902157, -112435.84602306438, 52378.83208737756, 29707.904721248713, 61180.77023992184, 77544.81763181897, 53336.87255822094, 51922.05183768891, 0.05, 0.9500000000000001, 0.132, 192.0, 0.0, 0.0, 0.0, 0.0, 0.0, 0.0, 0.0, 0.0, 0.0, 1.6665561553510127E9, 0.0, 2022-10-23 13:15:55.351
66.0, -79775.14174880288, -112466.4455612237, 54142.72000106812, 29817.629434779818, 61267.562063641795, 78276.50198656345, 54497.062205918104, 53105.64376183078, 0.048, 0.9520000000000001, 0.132, 192.0, 1.0, 128.0, 29.0, 192.0, 4.0, 32.0, 0.0, 0.0, 0.0, 1.6665561553510284E9, 0.0, 2022-10-23 13:15:55.351
67.0, -79735.19918146124, -112429.09579623888, 54775.60964532014, 29627.416089465154, 61130.43411140849, 78329.31915871134, 54761.93037771349, 53172.02844286305, 0.048, 0.9520000000000001, 0.132, 192.0, 0.0, 0.0, 0.0, 0.0, 0.0, 0.0, 0.0, 0.0, 0.0, 1.6665561553510368E9, 0.0, 2022-10-23 13:15:55.351
68.0, -79697.00005018713, -112390.71785100912, 52676.199695610965, 29595.698964083072, 61082.51197129631, 77486.5913375129, 53396.261143238684, 51796.9267722281, 0.048, 0.9520000000000001, 0.132, 192.0, 0.0, 0.0, 0.0, 0.0, 0.0, 0.0, 0.0, 0.0, 0.0, 1.666556155351045E9, 0.0, 2022-10-23 13:15:55.351
69.0, -79723.10688771092, -112416.66822632174, 52259.473771986224, 29703.657889802205, 61173.751792162875, 77465.84891865838, 53226.90197550082, 51798.558449573335, 0.048, 0.9520000000000001, 0.132, 192.0, 0.0, 0.0, 0.0, 0.0, 0.0, 0.0, 0.0, 0.0, 0.0, 1.6665561553510528E9, 0.0, 2022-10-23 13:15:55.351
70.0, -79751.44889968025, -112444.40674119077, 53718.03685641728, 29831.308702386465, 61279.453191692024, 78120.86678992114, 54223.47685378514, 52857.38293616569, 0.048, 0.9520000000000001, 0.132, 192.0, 0.0, 0.0, 0.0, 0.0, 0.0, 0.0, 0.0, 0.0, 0.0, 1.6665561553510606E9, 0.0, 2022-10-23 13:15:55.351
71.0, -79731.04175699255, -112428.5370026275, 54990.54402000237, 29689.97862219556, 61187.788687680804, 78450.55502063692, 54916.69385632204, 53372.143610971405, 0.048, 0.9520000000000001, 0.132, 192.0, 0.0, 0.0, 0.0, 0.0, 0.0, 0.0, 0.0, 0.0, 0.0, 1.6665561553510692E9, 0.0, 2022-10-23 13:15:55.351
72.0, -79692.99908792962, -112396.68576677868, 52943.43715231862, 29569.882699237194, 61067.22337808888, 77555.21119299068, 53538.44058971889, 51928.399733114216, 0.048, 0.9520000000000001, 0.132, 192.0, 0.0, 0.0, 0.0, 0.0, 0.0, 0.0, 0.0, 0.0, 0.0, 1.666556155351077E9, 0.0, 2022-10-23 13:15:55.351
73.0, -79722.90572201082, -112423.26199093605, 52210.90343128484, 29684.01070642599, 61157.457370454955, 77415.11045874482, 53167.82631490545, 51723.52364343687, 0.048, 0.9520000000000001, 0.132, 192.0, 0.0, 0.0, 0.0, 0.0, 0.0, 0.0, 0.0, 0.0, 0.0, 1.6665561553510847E9, 0.0, 2022-10-23 13:15:55.351
74.0, -79759.98726606218, -112457.7954361195, 53315.90662192186, 29794.60713799085, 61243.243365674425, 77958.05668330869, 53957.96048140055, 52602.14836623053, 0.048, 0.9520000000000001, 0.132, 192.0, 0.0, 0.0, 0.0, 0.0, 0.0, 0.0, 0.0, 0.0, 0.0, 1.6665561553510923E9, 0.0, 2022-10-23 13:15:55.351
75.0, -79755.53926891557, -112454.55443317347, 55075.3018349769, 29721.852209788827, 61198.20460059698, 78522.59469301638, 54993.44974678156, 53492.954789752344, 0.054, 0.9460000000000001, 0.132, 192.0, 1.0, 176.0, 29.0, 144.0, 4.0, 32.0, 0.0, 0.0, 0.0, 1.6665561553511E9, 0.0, 2022-10-23 13:15:55.351
76.0, -79711.93101548326, -112408.19691517318, 53328.825930217026, 29545.921629181106, 61039.12723530856, 77694.37315396943, 53774.92204605604, 52149.95022415522, 0.054, 0.9460000000000001, 0.132, 192.0, 0.0, 0.0, 0.0, 0.0, 0.0, 0.0, 0.0, 0.0, 0.0, 1.6665561553511083E9, 0.0, 2022-10-23 13:15:55.351
77.0, -79712.82508526147, -112402.81014475944, 52219.352390688946, 29680.702648246606, 61147.041457538784, 77388.73540028757, 53148.82733211844, 51678.77545103734, 0.054, 0.9460000000000001, 0.132, 192.0, 0.0, 0.0, 0.0, 0.0, 0.0, 0.0, 0.0, 0.0, 0.0, 1.666556155351116E9, 0.0, 2022-10-23 13:15:55.351
78.0, -79751.78417584707, -112438.30471495447, 52959.66451879317, 29787.61104197634, 61245.81381628678, 77800.25336745422, 53717.12043489462, 52367.65621514991, 0.054, 0.9460000000000001, 0.132, 192.0, 0.0, 0.0, 0.0, 0.0, 0.0, 0.0, 0.0, 0.0, 0.0, 1.666556155351124E9, 0.0, 2022-10-23 13:15:55.351
79.0, -79775.99111509218, -112464.85858736737, 54963.87838886719, 29759.13491954028, 61237.18604292704, 78500.01943111653, 54938.755028099426, 53490.13846995097, 0.054, 0.9460000000000001, 0.132, 192.0, 0.0, 0.0, 0.0, 0.0, 0.0, 0.0, 0.0, 0.0, 0.0, 1.6665561553511317E9, 0.0, 2022-10-23 13:15:55.351
80.0, -79720.04469872055, -112415.39417688778, 53701.80948994273, 29549.587315271776, 61050.97365986987, 77828.32715849008, 54004.36270288977, 52389.06918633809, 0.054, 0.9460000000000001, 0.132, 192.0, 0.0, 0.0, 0.0, 0.0, 0.0, 0.0, 0.0, 0.0, 0.0, 1.6665561553511393E9, 0.0, 2022-10-23 13:15:55.351
81.0, -79726.95138775723, -112419.59630484537, 52226.70611461474, 29647.331493774833, 61118.520631613814, 77362.87443195278, 53126.766160341045, 51635.92715691652, 0.054, 0.9460000000000001, 0.132, 192.0, 0.0, 0.0, 0.0, 0.0, 0.0, 0.0, 0.0, 0.0, 0.0, 1.6665561553511472E9, 0.0, 2022-10-23 13:15:55.351
82.0, -79761.44012945177, -112449.36882845985, 52673.71865197643, 29732.290474449455, 61199.03161514183, 77690.8862818344, 53526.370647713025, 52164.52356154008, 0.054, 0.9460000000000001, 0.132, 192.0, 0.0, 0.0, 0.0, 0.0, 0.0, 0.0, 0.0, 0.0, 0.0, 1.666556155351162E9, 0.0, 2022-10-23 13:15:55.351
83.0, -79782.89780412886, -112473.3969537493, 54735.75648495633, 29783.051286107457, 61235.93434523754, 78458.8698695743, 54817.29564872928, 53405.04537880962, 0.054, 0.9460000000000001, 0.132, 192.0, 0.0, 0.0, 0.0, 0.0, 0.0, 0.0, 0.0, 0.0, 0.0, 1.66655615535117E9, 0.0, 2022-10-23 13:15:55.351
84.0, -79719.26238766461, -112412.19787743068, 54149.403172660255, 29566.373475357712, 61065.97168039939, 78031.1245359331, 54303.5184506796, 52699.199640655475, 0.054, 0.9460000000000001, 0.132, 192.0, 0.0, 0.0, 0.0, 0.0, 0.0, 0.0, 0.0, 0.0, 0.0, 1.666556155351178E9, 0.0, 2022-10-23 13:15:55.351
85.0, -79717.78717253056, -112395.45642083365, 52346.355002684, 29630.43357496662, 61106.070709952204, 77393.67513581218, 53188.501678526605, 51665.07383168624, 0.052000000000000005, 0.9420000000000001, 0.132, 192.0, 1.0, 160.0, 29.0, 112.0, 4.0, 32.0, 0.0, 0.0, 0.0, 1.666556155351186E9, 0.0, 2022-10-23 13:15:55.351
86.0, -79739.04368150755, -112429.74399682808, 52472.485896645296, 29720.578160354875, 61189.08508885922, 77594.55026323203, 53377.30686394058, 52002.272248539004, 0.052000000000000005, 0.9420000000000001, 0.132, 192.0, 0.0, 0.0, 0.0, 0.0, 0.0, 0.0, 0.0, 0.0, 0.0, 1.6665561553511949E9, 0.0, 2022-10-23 13:15:55.351
87.0, -79765.84342310947, -112464.16568328926, 54421.6474201259, 29823.217370893643, 61274.558159656306, 78379.74469420251, 54641.208605910375, 53258.86497007191, 0.052000000000000005, 0.9420000000000001, 0.132, 192.0, 0.0, 0.0, 0.0, 0.0, 0.0, 0.0, 0.0, 0.0, 0.0, 1.6665561553512025E9, 0.0, 2022-10-23 13:15:55.351
88.0, -79723.17394294428, -112420.64683683477, 54581.015358092234, 29608.86414156725, 61111.5245355993, 78244.89661990364, 54605.356407804065, 53008.34661821683, 0.052000000000000005, 0.9420000000000001, 0.132, 192.0, 0.0, 0.0, 0.0, 0.0, 0.0, 0.0, 0.0, 0.0, 0.0, 1.6665561553512104E9, 0.0, 2022-10-23 13:15:55.351
89.0, -79705.29254738004, -112393.48946732157, 52492.46835618834, 29609.355879945266, 61077.549884027234, 77422.79945883746, 53256.29451945955, 51692.722939577456, 0.052000000000000005, 0.9420000000000001, 0.132, 192.0, 0.0, 0.0, 0.0, 0.0, 0.0, 0.0, 0.0, 0.0, 0.0, 1.6665561553512185E9, 0.0, 2022-10-23 13:15:55.351
90.0, -79742.12822224239, -112426.57004911543, 52296.8458887155, 29705.669546803183, 61173.97530960743, 77499.17536964123, 53237.13907446135, 51842.99371755049, 0.052000000000000005, 0.9420000000000001, 0.132, 192.0, 0.0, 0.0, 0.0, 0.0, 0.0, 0.0, 0.0, 0.0, 0.0, 1.666556155351226E9, 0.0, 2022-10-23 13:15:55.351
91.0, -79773.46536796873, -112453.57095641745, 53981.407461334165, 29822.23389413761, 61277.82151434678, 78224.84710512724, 54363.957567686746, 53008.614839150294, 0.052000000000000005, 0.9420000000000001, 0.132, 192.0, 0.0, 0.0, 0.0, 0.0, 0.0, 0.0, 0.0, 0.0, 0.0, 1.666556155351234E9, 0.0, 2022-10-23 13:15:55.351
92.0, -79744.85513506594, -112430.36984567283, 54835.82524488273, 29648.49378448651, 61156.25037625437, 78375.27434531145, 54780.817601778224, 53232.62402208138, 0.052000000000000005, 0.9420000000000001, 0.132, 192.0, 0.0, 0.0, 0.0, 0.0, 0.0, 0.0, 0.0, 0.0, 0.0, 1.666556155351242E9, 0.0, 2022-10-23 13:15:55.351
93.0, -79703.88438747935, -112405.73822328309, 52736.10237075119, 29579.47159760852, 61077.415773560504, 77508.8983784793, 53405.42535846536, 51825.71581908653, 0.052000000000000005, 0.9420000000000001, 0.132, 192.0, 0.0, 0.0, 0.0, 0.0, 0.0, 0.0, 0.0, 0.0, 0.0, 1.6665561553512502E9, 0.0, 2022-10-23 13:15:55.351
94.0, -79729.00774824712, -112426.48064213761, 52252.88000737191, 29691.476189074063, 61167.96269034895, 77470.76630243854, 53204.214954878684, 51782.711062754526, 0.052000000000000005, 0.9420000000000001, 0.132, 192.0, 0.0, 0.0, 0.0, 0.0, 0.0, 0.0, 0.0, 0.0, 0.0, 1.666556155351258E9, 0.0, 2022-10-23 13:15:55.351
95.0, -79762.78123411909, -112452.00633430557, 53604.57940156214, 29813.494362055586, 61263.06936300628, 78088.59087092768, 54138.428466132704, 52782.28107479586, 0.048, 0.9480000000000001, 0.13, 192.0, 1.0, 128.0, 29.0, 160.0, 4.0, 16.0, 0.0, 0.0, 0.0, 1.666556155351266E9, 0.0, 2022-10-23 13:15:55.351
96.0, -79736.40617566183, -112431.82270906243, 55037.236814169504, 29691.63265128525, 61181.06081259976, 78487.07777107689, 54939.246766477445, 53415.505995214706, 0.048, 0.9480000000000001, 0.13, 192.0, 0.0, 0.0, 0.0, 0.0, 0.0, 0.0, 0.0, 0.0, 0.0, 1.666556155351274E9, 0.0, 2022-10-23 13:15:55.351
97.0, -79667.56280273949, -112363.98516464057, 53052.513665260514, 29568.541594569877, 61061.70249720842, 77606.0167081376, 53591.458927566884, 51984.99435007505, 0.048, 0.9480000000000001, 0.13, 192.0, 0.0, 0.0, 0.0, 0.0, 0.0, 0.0, 0.0, 0.0, 0.0, 1.66655615535129E9, 0.0, 2022-10-23 13:15:55.351
98.0, -79683.27607909156, -112384.526417795, 52194.5196025991, 29705.334270636355, 61178.24449279839, 77421.34659544786, 53141.585366914915, 51701.32836119275, 0.048, 0.9480000000000001, 0.13, 192.0, 0.0, 0.0, 0.0, 0.0, 0.0, 0.0, 0.0, 0.0, 0.0, 1.6665561553512988E9, 0.0, 2022-10-23 13:15:55.351
99.0, -79744.02812052109, -112464.47860771163, 53171.69316669621, 29810.09689689838, 61267.986746786446, 77915.27544442123, 53854.91893946158, 52517.25644078928, 0.048, 0.9480000000000001, 0.13, 192.0, 0.0, 0.0, 0.0, 0.0, 0.0, 0.0, 0.0, 0.0, 0.0, 1.6665561553513064E9, 0.0, 2022-10-23 13:15:55.351
100.0, -79760.30019048456, -112473.82163689395, 55020.49535757248, 29747.668474634705, 61231.62045855766, 78521.87943719381, 54958.44691496455, 53486.316321649116, 0.048, 0.9480000000000001, 0.13, 192.0, 0.0, 0.0, 0.0, 0.0, 0.0, 0.0, 0.0, 0.0, 0.0, 1.6665561553513143E9, 0.0, 2022-10-23 13:15:55.351
101.0, -79704.62199504639, -112403.07836569291, 53421.87624238447, 29562.148995655658, 61063.93767165395, 77746.20684936129, 53832.768360706374, 52218.19009997727, 0.048, 0.9480000000000001, 0.13, 192.0, 0.0, 0.0, 0.0, 0.0, 0.0, 0.0, 0.0, 0.0, 0.0, 1.666556155351322E9, 0.0, 2022-10-23 13:15:55.351
102.0, -79719.37414638688, -112424.11135722535, 52198.27469566759, 29679.003915668003, 61150.52832967381, 77394.39039163475, 53130.342439453896, 51661.609311295666, 0.048, 0.9480000000000001, 0.13, 192.0, 0.0, 0.0, 0.0, 0.0, 0.0, 0.0, 0.0, 0.0, 0.0, 1.6665561553513296E9, 0.0, 2022-10-23 13:15:55.351
103.0, -79789.11158908745, -112504.19765760872, 52831.23139515298, 29763.78408238698, 61231.48634809093, 77772.67131479637, 53636.117712988584, 52284.150097864884, 0.048, 0.9480000000000001, 0.13, 192.0, 0.0, 0.0, 0.0, 0.0, 0.0, 0.0, 0.0, 0.0, 0.0, 1.6665561553513377E9, 0.0, 2022-10-23 13:15:55.351
104.0, -79804.80251369507, -112510.99258792313, 54900.71235903649, 29773.79766390296, 61248.764246554885, 78526.55095178497, 54920.69481857953, 53478.18028666738, 0.048, 0.9440000000000001, 0.134, 192.0, 1.0, 128.0, 29.0, 128.0, 4.0, 48.0, 0.0, 0.0, 0.0, 1.6665561553513453E9, 0.0, 2022-10-23 13:15:55.351
105.0, -79717.80952427501, -112439.66817136624, 53840.189139865535, 29559.71265551003, 61066.82104668869, 77920.05871773466, 54112.23222163108, 52489.07089103114, 0.048, 0.9440000000000001, 0.134, 192.0, 0.0, 0.0, 0.0, 0.0, 0.0, 0.0, 0.0, 0.0, 0.0, 1.6665561553513536E9, 0.0, 2022-10-23 13:15:55.351
106.0, -79760.25548699564, -112451.91692732775, 52241.860597355444, 29652.651208955194, 61117.85007928015, 77379.59353680535, 53146.793323373, 51630.87566266962, 0.048, 0.9440000000000001, 0.134, 192.0, 0.0, 0.0, 0.0, 0.0, 0.0, 0.0, 0.0, 0.0, 0.0, 1.6665561553513615E9, 0.0, 2022-10-23 13:15:55.351
107.0, -79779.4332837383, -112459.60592742037, 52558.406002331496, 29753.99401831556, 61198.428118041535, 77644.19348766726, 53456.9684811793, 52080.25748494357, 0.048, 0.9440000000000001, 0.134, 192.0, 0.0, 0.0, 0.0, 0.0, 0.0, 0.0, 0.0, 0.0, 0.0, 1.6665561553513691E9, 0.0, 2022-10-23 13:15:55.351
108.0, -79741.23415246418, -112477.57672996244, 54613.447739296884, 29811.46035331015, 61265.058668262805, 78440.1167559763, 54768.34532837216, 53357.83849452001, 0.048, 0.9440000000000001, 0.134, 192.0, 0.0, 0.0, 0.0, 0.0, 0.0, 0.0, 0.0, 0.0, 0.0, 1.666556155351377E9, 0.0, 2022-10-23 13:15:55.351
109.0, -79706.90187298083, -112433.11911024083, 54261.675985059264, 29593.352030915266, 61098.96285521542, 78108.46157174846, 54411.58913512101, 52799.82719419327, 0.048, 0.9440000000000001, 0.134, 192.0, 0.0, 0.0, 0.0, 0.0, 0.0, 0.0, 0.0, 0.0, 0.0, 1.6665561553513849E9, 0.0, 2022-10-23 13:15:55.351
110.0, -79763.45178645274, -112474.40278224979, 52349.14897074091, 29631.57351393384, 61095.61009354712, 77402.12409521629, 53212.10512067141, 51662.27986362933, 0.048, 0.9440000000000001, 0.134, 192.0, 0.0, 0.0, 0.0, 0.0, 0.0, 0.0, 0.0, 0.0, 0.0, 1.6665561553513925E9, 0.0, 2022-10-23 13:15:55.351
111.0, -79766.84925160995, -112471.56411070397, 52362.82823834756, 29722.29924467793, 61175.02584159683, 77555.83704183543, 53329.787055228604, 51938.97210824158, 0.048, 0.9440000000000001, 0.134, 192.0, 0.0, 0.0, 0.0, 0.0, 0.0, 0.0, 0.0, 0.0, 0.0, 1.6665561553514004E9, 0.0, 2022-10-23 13:15:55.351
112.0, -79732.53932387107, -112462.06461931046, 54241.29119411602, 29837.76835653405, 61281.84482834874, 78330.54850465638, 54563.15631427245, 53184.14308835782, 0.048, 0.9440000000000001, 0.134, 192.0, 0.0, 0.0, 0.0, 0.0, 0.0, 0.0, 0.0, 0.0, 0.0, 1.6665561553514085E9, 0.0, 2022-10-23 13:15:55.351
113.0, -79721.74343129915, -112466.42320947924, 54625.405922580474, 29631.640569167208, 61130.99290501987, 78282.98399245548, 54672.322234192165, 53085.46013658764, 0.048, 0.9440000000000001, 0.134, 192.0, 0.0, 0.0, 0.0, 0.0, 0.0, 0.0, 0.0, 0.0, 0.0, 1.6665561553514235E9, 0.0, 2022-10-23 13:15:55.351
114.0, -79757.86385033892, -112457.46015995266, 52481.650111871975, 29592.52501637042, 61057.99210762884, 77410.90833078722, 53272.052499300546, 51699.495518147414, 0.052000000000000005, 0.9440000000000001, 0.138, 192.0, 1.0, 160.0, 29.0, 128.0, 4.0, 80.0, 0.0, 0.0, 0.0, 1.666556155351434E9, 0.0, 2022-10-23 13:15:55.351
115.0, -79723.46451562221, -112469.03836358052, 52230.41650419433, 29716.10781146381, 61173.99766135188, 77483.08211363341, 53230.72412380268, 51822.11718822923, 0.052000000000000005, 0.9440000000000001, 0.138, 192.0, 0.0, 0.0, 0.0, 0.0, 0.0, 0.0, 0.0, 0.0, 0.0, 1.6665561553514423E9, 0.0, 2022-10-23 13:15:55.351
116.0, -79787.09993208646, -112532.87494574487, 53805.47688072645, 29835.175554177233, 61281.755421370915, 78175.33799115873, 54296.61176164291, 52936.64222200421, 0.052000000000000005, 0.9440000000000001, 0.138, 192.0, 0.0, 0.0, 0.0, 0.0, 0.0, 0.0, 0.0, 0.0, 0.0, 1.6665561553514502E9, 0.0, 2022-10-23 13:15:55.351
117.0, -79757.08153928298, -112491.36775629137, 54882.80861172779, 29672.186633609133, 61169.77318164983, 78431.0642994719, 54868.3023295763, 53312.91148816484, 0.052000000000000005, 0.9440000000000001, 0.138, 192.0, 0.0, 0.0, 0.0, 0.0, 0.0, 0.0, 0.0, 0.0, 0.0, 1.666556155351458E9, 0.0, 2022-10-23 13:15:55.351
118.0, -79769.62086792242, -112444.3843894463, 52778.72714742746, 29577.95167898556, 61047.24091854584, 77525.86335252087, 53467.27263537319, 51857.298834001886, 0.052000000000000005, 0.9440000000000001, 0.138, 192.0, 0.0, 0.0, 0.0, 0.0, 0.0, 0.0, 0.0, 0.0, 0.0, 1.6665561553514657E9, 0.0, 2022-10-23 13:15:55.351
119.0, -79882.2066047438, -112525.99060845264, 52161.6625382498, 29664.29646781641, 61117.51480311332, 77423.20179023764, 53173.01191961908, 51725.24472775993, 0.052000000000000005, 0.9440000000000001, 0.138, 192.0, 0.0, 0.0, 0.0, 0.0, 0.0, 0.0, 0.0, 0.0, 0.0, 1.6665561553514733E9, 0.0, 2022-10-23 13:15:55.351
120.0, -79812.31269983205, -112526.6164572974, 53407.01233232169, 29779.966745372625, 61212.64382751511, 78011.8126287237, 54050.85433135681, 52671.75169846436, 0.052000000000000005, 0.9440000000000001, 0.138, 192.0, 0.0, 0.0, 0.0, 0.0, 0.0, 0.0, 0.0, 0.0, 0.0, 1.6665561553514812E9, 0.0, 2022-10-23 13:15:55.351
121.0, -79831.53520006362, -112533.94782947873, 54993.896781670664, 29677.68516274514, 61136.44673066697, 78479.45582621764, 54958.55867368683, 53417.11532081549, 0.052000000000000005, 0.9440000000000001, 0.138, 192.0, 0.0, 0.0, 0.0, 0.0, 0.0, 0.0, 0.0, 0.0, 0.0, 1.6665561553514888E9, 0.0, 2022-10-23 13:15:55.351
122.0, -79750.21955373521, -112438.37177018783, 53123.23458471711, 29535.997454642948, 61005.823136070154, 77628.10023165944, 53675.68030067448, 52023.86403368283, 0.052000000000000005, 0.9440000000000001, 0.138, 192.0, 0.0, 0.0, 0.0, 0.0, 0.0, 0.0, 0.0, 0.0, 0.0, 1.6665561558307807E9, 0.0, 2022-10-23 13:15:55.830
123.0, -79760.32254222901, -112468.65838392478, 52153.99588990163, 29656.003970623493, 61112.91034375553, 77388.4671793541, 53149.967271085654, 51669.76769802185, 0.052000000000000005, 0.9440000000000001, 0.138, 192.0, 0.0, 0.0, 0.0, 0.0, 0.0, 0.0, 0.0, 0.0, 0.0, 1.6665561558308296E9, 0.0, 2022-10-23 13:15:55.830
124.0, -79739.2224954632, -112431.77800557352, 53042.187159322166, 29838.684778056715, 61282.22480800448, 77880.98786842679, 53824.29704955781, 52460.19243719488, 0.048, 0.9460000000000001, 0.14200000000000002, 192.0, 1.0, 128.0, 29.0, 144.0, 4.0, 112.0, 0.0, 0.0, 0.0, 1.66655615583086E9, 0.0, 2022-10-23 13:15:55.830
125.0, -79786.94346987527, -112464.61271817837, 54990.409909535636, 29813.606120777862, 61280.74959287043, 78555.67527481023, 55008.89480220018, 53534.752551883765, 0.048, 0.9460000000000001, 0.14200000000000002, 192.0, 0.0, 0.0, 0.0, 0.0, 0.0, 0.0, 0.0, 0.0, 0.0, 1.6665561558308775E9, 0.0, 2022-10-23 13:15:55.830
126.0, -79654.93406712223, -112394.33883361088, 53528.29289773618, 29593.66495533764, 61074.957081670414, 77809.39523093644, 53952.193731331085, 52318.750598281695, 0.048, 0.9460000000000001, 0.14200000000000002, 192.0, 0.0, 0.0, 0.0, 0.0, 0.0, 0.0, 0.0, 0.0, 0.0, 1.6665561558308866E9, 0.0, 2022-10-23 13:15:55.830
127.0, -79765.28462949808, -112466.13263680133, 52178.33693961346, 29680.63559301324, 61142.41464643653, 77393.9657084901, 53163.24420729211, 51668.82892475474, 0.048, 0.9460000000000001, 0.14200000000000002, 192.0, 0.0, 0.0, 0.0, 0.0, 0.0, 0.0, 0.0, 0.0, 0.0, 1.6665561558308945E9, 0.0, 2022-10-23 13:15:55.830
128.0, -79776.63931568139, -112441.14338650029, 52720.165576954554, 29777.284536037987, 61229.6535050456, 77738.65195973539, 53617.744579046324, 52253.50585621665, 0.048, 0.9460000000000001, 0.14200000000000002, 192.0, 0.0, 0.0, 0.0, 0.0, 0.0, 0.0, 0.0, 0.0, 0.0, 1.6665561558310733E9, 0.0, 2022-10-23 13:15:55.831
129.0, -79812.5362172766, -112496.97804414966, 54814.456977183465, 29800.709164227148, 61261.79531357233, 78509.00483238755, 54929.948440784035, 53496.508717120734, 0.048, 0.9460000000000001, 0.14200000000000002, 192.0, 0.0, 0.0, 0.0, 0.0, 0.0, 0.0, 0.0, 0.0, 0.0, 1.6665561558310823E9, 0.0, 2022-10-23 13:15:55.831
130.0, -79724.00095748913, -112442.99858129008, 54003.33452264482, 29590.736876813997, 61084.166000386, 78006.93994843244, 54282.4631074027, 52642.80618939474, 0.048, 0.9460000000000001, 0.14200000000000002, 192.0, 0.0, 0.0, 0.0, 0.0, 0.0, 0.0, 0.0, 0.0, 0.0, 1.6665561558310905E9, 0.0, 2022-10-23 13:15:55.831
131.0, -79760.56841141802, -112470.26770952556, 52282.69723447529, 29656.026322367947, 61105.95895122993, 77396.22323468009, 53217.9612777187, 51678.03784347032, 0.048, 0.9460000000000001, 0.14200000000000002, 192.0, 0.0, 0.0, 0.0, 0.0, 0.0, 0.0, 0.0, 0.0, 0.0, 1.6665561558310983E9, 0.0, 2022-10-23 13:15:55.831
132.0, -79721.5199138546, -112455.42615120724, 52533.506159008284, 29747.400253701242, 61184.950016134986, 77646.78629002409, 53488.21621992782, 52090.4945839041, 0.048, 0.9460000000000001, 0.14200000000000002, 192.0, 0.0, 0.0, 0.0, 0.0, 0.0, 0.0, 0.0, 0.0, 0.0, 1.6665561558311062E9, 0.0, 2022-10-23 13:15:55.831
133.0, -79656.96807586767, -112368.7237344651, 54569.280692253196, 29856.007380009578, 61298.27336052339, 78458.04285502945, 54798.65429385356, 53377.61978836296, 0.048, 0.9460000000000001, 0.14200000000000002, 192.0, 0.0, 0.0, 0.0, 0.0, 0.0, 0.0, 0.0, 0.0, 0.0, 1.6665561558311143E9, 0.0, 2022-10-23 13:15:55.831
134.0, -79654.37527351086, -112334.48086195957, 54415.00895202267, 29635.82034538035, 61133.78687307679, 78185.21746220798, 54552.628642633994, 52924.795797442894, 0.052000000000000005, 0.9480000000000001, 0.14, 192.0, 1.0, 160.0, 29.0, 160.0, 4.0, 96.0, 0.0, 0.0, 0.0, 1.6665561558311222E9, 0.0, 2022-10-23 13:15:55.831
135.0, -79679.4539307897, -112387.83447597439, 52412.650276738445, 29665.1011306168, 61126.94723927346, 77426.62160713931, 53283.45188897275, 51713.197137498515, 0.052000000000000005, 0.9480000000000001, 0.14, 192.0, 0.0, 0.0, 0.0, 0.0, 0.0, 0.0, 0.0, 0.0, 0.0, 1.6665561558311372E9, 0.0, 2022-10-23 13:15:55.831
136.0, -79759.65198989534, -112472.05584908198, 52349.663060863386, 29704.954290980615, 61157.41266696605, 77551.72432085566, 53354.75395378518, 51936.491064607035, 0.052000000000000005, 0.9480000000000001, 0.14, 192.0, 0.0, 0.0, 0.0, 0.0, 0.0, 0.0, 0.0, 0.0, 0.0, 1.6665561558311453E9, 0.0, 2022-10-23 13:15:55.831
137.0, -79745.81626007751, -112471.11707581487, 54135.12040795331, 29801.826751449917, 61213.22497287095, 78286.60497505724, 54525.49362486525, 53110.471738633125, 0.052000000000000005, 0.9480000000000001, 0.14, 192.0, 0.0, 0.0, 0.0, 0.0, 0.0, 0.0, 0.0, 0.0, 0.0, 1.6665561558311532E9, 0.0, 2022-10-23 13:15:55.831
138.0, -79660.29848579151, -112351.35642902332, 54752.430886319984, 29678.82510171236, 61149.835425595695, 78349.34632174329, 54790.00416874936, 53172.31901554096, 0.052000000000000005, 0.9480000000000001, 0.14, 192.0, 0.0, 0.0, 0.0, 0.0, 0.0, 0.0, 0.0, 0.0, 0.0, 1.6665561558311608E9, 0.0, 2022-10-23 13:15:55.831
139.0, -79684.6618872478, -112385.10756315084, 52614.30771521422, 29648.694950186607, 61120.01819849232, 77484.53497702301, 53398.652779895405, 51798.51374608443, 0.052000000000000005, 0.9480000000000001, 0.14, 192.0, 0.0, 0.0, 0.0, 0.0, 0.0, 0.0, 0.0, 0.0, 0.0, 1.666556155831169E9, 0.0, 2022-10-23 13:15:55.831
140.0, -79717.02721321907, -112459.06948555345, 52213.29506794156, 29727.015462758, 61184.12300159014, 77471.10157860538, 53248.11378098891, 51811.90244101315, 0.052000000000000005, 0.9480000000000001, 0.14, 192.0, 0.0, 0.0, 0.0, 0.0, 0.0, 0.0, 0.0, 0.0, 0.0, 1.6665561558311765E9, 0.0, 2022-10-23 13:15:55.831
141.0, -79829.81411574056, -112482.8517416539, 53656.45780044291, 29820.021071436535, 61249.255984932905, 78102.49365597888, 54223.856833440885, 52827.275136384385, 0.052000000000000005, 0.9480000000000001, 0.14, 192.0, 0.0, 0.0, 0.0, 0.0, 0.0, 0.0, 0.0, 0.0, 0.0, 1.6665561558311844E9, 0.0, 2022-10-23 13:15:55.831
142.0, -79717.83187601947, -112393.31065336593, 54961.68791791057, 29727.84247730285, 61213.40378682659, 78484.14969255326, 54965.375955745694, 53388.013349534674, 0.052000000000000005, 0.9480000000000001, 0.14, 192.0, 0.0, 0.0, 0.0, 0.0, 0.0, 0.0, 0.0, 0.0, 0.0, 1.6665561558311925E9, 0.0, 2022-10-23 13:15:55.831
143.0, -79633.47639244514, -112418.29990366696, 52934.36234406976, 29621.269359739945, 61108.81997452021, 77615.2256268532, 53613.31893364417, 51976.59009415986, 0.06, 0.9540000000000001, 0.14200000000000002, 192.0, 1.0, 224.0, 29.0, 208.0, 4.0, 112.0, 0.0, 0.0, 0.0, 1.6665561558312008E9, 0.0, 2022-10-23 13:15:55.831
144.0, -79660.25378230259, -112376.39038281328, 52208.46709113921, 29722.768631311494, 61186.51463824685, 77469.22403207113, 53243.21874895319, 51767.89185618066, 0.06, 0.9540000000000001, 0.14200000000000002, 192.0, 0.0, 0.0, 0.0, 0.0, 0.0, 0.0, 0.0, 0.0, 0.0, 1.6665561558312325E9, 0.0, 2022-10-23 13:15:55.831
145.0, -79717.83187601947, -112413.20370593116, 53345.47797983623, 29809.314585842443, 61256.78852281434, 78021.53563756176, 54056.218750026084, 52657.55834073524, 0.06, 0.9540000000000001, 0.14200000000000002, 192.0, 0.0, 0.0, 0.0, 0.0, 0.0, 0.0, 0.0, 0.0, 0.0, 1.6665561558312407E9, 0.0, 2022-10-23 13:15:55.831
146.0, -79663.6512474598, -112356.45262675913, 55081.60502691329, 29759.179623029187, 61228.6029730562, 78577.78115007654, 55075.79357335491, 53519.75453135426, 0.06, 0.9540000000000001, 0.14200000000000002, 192.0, 0.0, 0.0, 0.0, 0.0, 0.0, 0.0, 0.0, 0.0, 0.0, 1.6665561558312485E9, 0.0, 2022-10-23 13:15:55.831
147.0, -79628.2460842426, -112327.90944908971, 53335.0397151756, 29615.56966490384, 61109.021140220306, 77771.59843106252, 53869.067593701795, 52194.54195434356, 0.06, 0.9540000000000001, 0.14200000000000002, 192.0, 0.0, 0.0, 0.0, 0.0, 0.0, 0.0, 0.0, 0.0, 0.0, 1.6665561558312564E9, 0.0, 2022-10-23 13:15:55.831
148.0, -79656.85631714539, -112354.4186180137, 52229.72360011621, 29730.25646570402, 61190.85087667118, 77467.45824425915, 53243.19639720874, 51726.831701616255, 0.06, 0.9540000000000001, 0.14200000000000002, 192.0, 0.0, 0.0, 0.0, 0.0, 0.0, 0.0, 0.0, 0.0, 0.0, 1.6665561558312645E9, 0.0, 2022-10-23 13:15:55.831
149.0, -79745.25746646614, -112431.10745323986, 52979.51286786948, 29788.013373376536, 61239.71179005049, 77875.55639452414, 53813.23293605244, 52409.1187011145, 0.06, 0.9540000000000001, 0.14200000000000002, 192.0, 0.0, 0.0, 0.0, 0.0, 0.0, 0.0, 0.0, 0.0, 0.0, 1.6665561558312724E9, 0.0, 2022-10-23 13:15:55.831
150.0, -79710.32168988249, -112433.65555210777, 54995.12612761571, 29765.192242287667, 61242.17048194057, 78580.86569081136, 55045.59636659579, 53530.32690648162, 0.06, 0.9540000000000001, 0.14200000000000002, 192.0, 0.0, 0.0, 0.0, 0.0, 0.0, 0.0, 0.0, 0.0, 0.0, 1.6665561558312802E9, 0.0, 2022-10-23 13:15:55.831
151.0, -79666.02053237207, -112356.36321978131, 53737.46052234895, 29594.693135582584, 61094.93954121346, 77921.93626426891, 54123.13987292527, 52435.76198050523, 0.06, 0.9540000000000001, 0.14200000000000002, 192.0, 0.0, 0.0, 0.0, 0.0, 0.0, 0.0, 0.0, 0.0, 0.0, 1.666556155831288E9, 0.0, 2022-10-23 13:15:55.831
152.0, -79649.65905543078, -112373.3728973118, 52245.92861484631, 29693.06316293039, 61143.28636447029, 77426.97923505059, 53219.4141411083, 51666.929026476035, 0.06, 0.9540000000000001, 0.14200000000000002, 192.0, 0.0, 0.0, 0.0, 0.0, 0.0, 0.0, 0.0, 0.0, 0.0, 1.666556155831296E9, 0.0, 2022-10-23 13:15:55.831
153.0, -79687.81348321598, -112381.28541484899, 52674.85859094365, 29778.402123260752, 61221.15984215258, 77728.70543345278, 53592.42005257846, 52179.163954158306, 0.07, 0.9500000000000001, 0.14, 192.0, 2.0, 48.0, 29.0, 176.0, 4.0, 96.0, 0.0, 0.0, 0.0, 1.6665561558313038E9, 0.0, 2022-10-23 13:15:55.831
154.0, -79751.00186479115, -112405.20178141617, 54736.11411286761, 29824.46906858314, 61265.86333106319, 78496.21963455912, 54886.69781526302, 53416.44476848183, 0.07, 0.9500000000000001, 0.14, 192.0, 0.0, 0.0, 0.0, 0.0, 0.0, 0.0, 0.0, 0.0, 0.0, 1.6665561558313131E9, 0.0, 2022-10-23 13:15:55.831
155.0, -79634.95160757919, -112370.28835657697, 54099.04469240245, 29606.740725843996, 61092.68201502348, 78046.7707570518, 54339.28124180809, 52677.96548342294, 0.07, 0.9500000000000001, 0.14, 192.0, 0.0, 0.0, 0.0, 0.0, 0.0, 0.0, 0.0, 0.0, 0.0, 1.6665561558313215E9, 0.0, 2022-10-23 13:15:55.831
156.0, -79632.15763952228, -112369.64015598777, 52288.10635663347, 29665.883441672737, 61121.91809677102, 77403.77812430599, 53215.79315850654, 51642.520921530835, 0.07, 0.9500000000000001, 0.14, 192.0, 0.0, 0.0, 0.0, 0.0, 0.0, 0.0, 0.0, 0.0, 0.0, 1.6665561558313296E9, 0.0, 2022-10-23 13:15:55.831
157.0, -79705.85134099143, -112448.96649705965, 52431.64925952545, 29769.79670164546, 61222.053911930794, 77619.58421702197, 53422.32327727357, 52002.8757456393, 0.07, 0.9500000000000001, 0.14, 192.0, 0.0, 0.0, 0.0, 0.0, 0.0, 0.0, 0.0, 0.0, 0.0, 1.666556155831339E9, 0.0, 2022-10-23 13:15:55.831
158.0, -79769.71027490024, -112436.27070620903, 54397.77575704763, 29844.965618248658, 61282.403621960126, 78411.12654341776, 54694.29399899173, 53258.03795552706, 0.07, 0.9500000000000001, 0.14, 192.0, 0.0, 0.0, 0.0, 0.0, 0.0, 0.0, 0.0, 0.0, 0.0, 1.6665561558313468E9, 0.0, 2022-10-23 13:15:55.831
159.0, -79699.0117071881, -112387.0745166629, 54496.54811579563, 29630.00889182197, 61103.94729422895, 78247.77999493838, 54612.397207307484, 52964.76071652898, 0.07, 0.9500000000000001, 0.14, 192.0, 0.0, 0.0, 0.0, 0.0, 0.0, 0.0, 0.0, 0.0, 0.0, 1.666556155831375E9, 0.0, 2022-10-23 13:15:55.831
160.0, -79652.76594791007, -112375.22809210159, 52430.64343102496, 29675.53939527743, 61121.04637873726, 77460.21627905563, 53288.59279019747, 51685.32451216275, 0.07, 0.9500000000000001, 0.14, 192.0, 0.0, 0.0, 0.0, 0.0, 0.0, 0.0, 0.0, 0.0, 0.0, 1.6665561558313832E9, 0.0, 2022-10-23 13:15:55.831
161.0, -79762.55771667454, -112430.79452881748, 52293.4931270472, 29737.856058818827, 61197.310530818766, 77576.64651592333, 53319.0358661456, 51875.8954853887, 0.07, 0.9500000000000001, 0.14, 192.0, 0.0, 0.0, 0.0, 0.0, 0.0, 0.0, 0.0, 0.0, 0.0, 1.666556155831391E9, 0.0, 2022-10-23 13:15:55.831
162.0, -79741.99411177565, -112449.81586334895, 53993.723272529045, 29830.928722730725, 61257.81670305928, 78296.03741121739, 54448.268347772166, 53024.26106026901, 0.07, 0.9500000000000001, 0.14, 192.0, 0.0, 0.0, 0.0, 0.0, 0.0, 0.0, 0.0, 0.0, 0.0, 1.6665561558313992E9, 0.0, 2022-10-23 13:15:55.831
163.0, -79736.80850706203, -112426.61475260435, 54791.41232865004, 29681.529662791454, 61141.29705921377, 78415.97687196457, 54819.75434061937, 53200.99630367712, 0.062, 0.9520000000000001, 0.138, 192.0, 1.0, 240.0, 29.0, 192.0, 4.0, 80.0, 0.0, 0.0, 0.0, 1.6665561558314073E9, 0.0, 2022-10-23 13:15:55.831
164.0, -79706.14191366934, -112425.49716538157, 52658.720631446915, 29615.927292815126, 61071.827837446675, 77535.72047182565, 53415.68480917034, 51777.43605106307, 0.062, 0.9520000000000001, 0.138, 192.0, 0.0, 0.0, 0.0, 0.0, 0.0, 0.0, 0.0, 0.0, 0.0, 1.666556155831416E9, 0.0, 2022-10-23 13:15:55.831
165.0, -79683.36548606938, -112406.27466515002, 52176.12411691238, 29725.40613715722, 61172.43303924001, 77502.68459352072, 53213.446225338725, 51746.32242278128, 0.062, 0.9520000000000001, 0.138, 192.0, 0.0, 0.0, 0.0, 0.0, 0.0, 0.0, 0.0, 0.0, 0.0, 1.666556155831424E9, 0.0, 2022-10-23 13:15:55.831
166.0, -79785.42355125232, -112486.11509634437, 53541.055743820165, 29834.48265009912, 61248.07134247677, 78126.7900022018, 54157.33804194189, 52755.43662970503, 0.062, 0.9520000000000001, 0.138, 192.0, 0.0, 0.0, 0.0, 0.0, 0.0, 0.0, 0.0, 0.0, 0.0, 1.666556155831432E9, 0.0, 2022-10-23 13:15:55.831
167.0, -79690.51804429508, -112391.81308648743, 54982.095060598265, 29719.773497554484, 61156.071562298726, 78543.56062931546, 54974.09313608326, 53393.824803093055, 0.062, 0.9520000000000001, 0.138, 192.0, 0.0, 0.0, 0.0, 0.0, 0.0, 0.0, 0.0, 0.0, 0.0, 1.66655615583144E9, 0.0, 2022-10-23 13:15:55.831
168.0, -79633.63285465633, -112345.63438244276, 52981.211600448085, 29617.111935271256, 61050.21370055839, 77656.30813316205, 53616.00114297881, 51955.26652994949, 0.062, 0.9520000000000001, 0.138, 192.0, 0.0, 0.0, 0.0, 0.0, 0.0, 0.0, 0.0, 0.0, 0.0, 1.6665561558314478E9, 0.0, 2022-10-23 13:15:55.831
169.0, -79692.70851525171, -112400.48556333609, 52128.805473900495, 29734.79386982845, 61182.02193761134, 77468.26290705954, 53165.16645731527, 51674.37215737965, 0.062, 0.9520000000000001, 0.138, 192.0, 0.0, 0.0, 0.0, 0.0, 0.0, 0.0, 0.0, 0.0, 0.0, 1.6665561558314557E9, 0.0, 2022-10-23 13:15:55.831
170.0, -79753.23703923667, -112447.84890983689, 53139.26078549156, 29815.4389638232, 61261.72825833896, 77979.33554403014, 53903.33281795178, 52506.54995519519, 0.062, 0.9520000000000001, 0.138, 192.0, 0.0, 0.0, 0.0, 0.0, 0.0, 0.0, 0.0, 0.0, 0.0, 1.6665561558314638E9, 0.0, 2022-10-23 13:15:55.831
171.0, -79752.6782456253, -112459.51652044256, 54993.293284570376, 29769.595535945362, 61229.58644981223, 78596.24369099662, 55012.35932259075, 53478.24734190075, 0.062, 0.9520000000000001, 0.138, 192.0, 0.0, 0.0, 0.0, 0.0, 0.0, 0.0, 0.0, 0.0, 0.0, 1.6665561558314717E9, 0.0, 2022-10-23 13:15:55.831
172.0, -79656.61044795638, -112365.14745535224, 53375.362262172974, 29597.91178678415, 61074.621805503586, 77815.89958857294, 53870.58751232475, 52201.873326524896, 0.056, 0.9540000000000001, 0.134, 192.0, 1.0, 192.0, 29.0, 208.0, 4.0, 48.0, 0.0, 0.0, 0.0, 1.66655615583148E9, 0.0, 2022-10-23 13:15:55.831
173.0, -79666.42286377226, -112366.44385653066, 52184.66248329431, 29708.73173579356, 61156.7868181213, 77480.6904769767, 53190.33452157194, 51665.02912819733, 0.056, 0.9540000000000001, 0.134, 192.0, 0.0, 0.0, 0.0, 0.0, 0.0, 0.0, 0.0, 0.0, 0.0, 1.6665561558314884E9, 0.0, 2022-10-23 13:15:55.831
174.0, -79718.32361439748, -112424.42428164772, 52823.94472646055, 29798.31752757043, 61231.17342366856, 77858.25614431575, 53692.80173692724, 52287.63696999991, 0.056, 0.9540000000000001, 0.134, 192.0, 0.0, 0.0, 0.0, 0.0, 0.0, 0.0, 0.0, 0.0, 0.0, 1.6665561558314965E9, 0.0, 2022-10-23 13:15:55.831
175.0, -79768.68209465529, -112465.12680830083, 54863.98844289642, 29810.05219340947, 61244.78563604184, 78591.21454849417, 54948.36627821521, 53457.035536412666, 0.056, 0.9540000000000001, 0.134, 192.0, 0.0, 0.0, 0.0, 0.0, 0.0, 0.0, 0.0, 0.0, 0.0, 1.6665561558315232E9, 0.0, 2022-10-23 13:15:55.831
176.0, -79754.35462645943, -112440.47283416663, 53765.06492675125, 29584.120760455226, 61041.78709289874, 77966.01390433477, 54107.33718959537, 52436.767809005716, 0.056, 0.9540000000000001, 0.134, 192.0, 0.0, 0.0, 0.0, 0.0, 0.0, 0.0, 0.0, 0.0, 0.0, 1.6665561558315313E9, 0.0, 2022-10-23 13:15:55.831
177.0, -79727.8678092799, -112433.27557245202, 52202.007436991626, 29663.78237769394, 61098.739337770865, 77452.50492721856, 53163.400669503295, 51603.91945885652, 0.056, 0.9540000000000001, 0.134, 192.0, 0.0, 0.0, 0.0, 0.0, 0.0, 0.0, 0.0, 0.0, 0.0, 1.6665561558315396E9, 0.0, 2022-10-23 13:15:55.831
178.0, -79693.80375073002, -112425.56422061495, 52534.4002287865, 29763.202937031143, 61186.335824291215, 77723.6986426948, 53479.90137099045, 52059.55976957796, 0.056, 0.9540000000000001, 0.134, 192.0, 0.0, 0.0, 0.0, 0.0, 0.0, 0.0, 0.0, 0.0, 0.0, 1.6665561558315516E9, 0.0, 2022-10-23 13:15:55.831
179.0, -79725.90085576783, -112455.40379946277, 54591.20775356385, 29841.411690880264, 61261.4600374055, 78518.81724820343, 54788.439546637484, 53334.682087264315, 0.056, 0.9540000000000001, 0.134, 192.0, 0.0, 0.0, 0.0, 0.0, 0.0, 0.0, 0.0, 0.0, 0.0, 1.6665561558315625E9, 0.0, 2022-10-23 13:15:55.831
180.0, -79692.97673618517, -112391.36605159832, 54210.982228634624, 29628.421917965643, 61088.01050043232, 78178.62369759366, 54409.041036253104, 52754.29669073781, 0.056, 0.9540000000000001, 0.134, 192.0, 0.0, 0.0, 0.0, 0.0, 0.0, 0.0, 0.0, 0.0, 0.0, 1.6665561558315704E9, 0.0, 2022-10-23 13:15:55.831
181.0, -79693.46847456318, -112376.74801072455, 52322.37158088345, 29661.100168359302, 61089.10573591063, 77489.94409918119, 53225.06913245549, 51638.207034850966, 0.056, 0.9540000000000001, 0.134, 192.0, 0.0, 0.0, 0.0, 0.0, 0.0, 0.0, 0.0, 0.0, 0.0, 1.666556155831578E9, 0.0, 2022-10-23 13:15:55.831
182.0, -79724.11271621141, -112420.40096764576, 52364.75048837072, 29754.21753576011, 61171.85189388417, 77656.59870583996, 53360.38659338791, 51930.27727964846, 0.052000000000000005, 0.9540000000000001, 0.136, 192.0, 1.0, 160.0, 29.0, 208.0, 4.0, 64.0, 0.0, 0.0, 0.0, 1.666556155831586E9, 0.0, 2022-10-23 13:15:55.831
183.0, -79745.01159727712, -112452.52042442805, 54252.71293553268, 29859.33778993342, 61263.40463917311, 78428.42679362617, 54592.884134398, 53172.363719029876, 0.052000000000000005, 0.9540000000000001, 0.136, 192.0, 0.0, 0.0, 0.0, 0.0, 0.0, 0.0, 0.0, 0.0, 0.0, 1.666556155831594E9, 0.0, 2022-10-23 13:15:55.831
184.0, -79712.7133265392, -112431.37567417332, 54599.65671296796, 29638.234333781522, 61097.28647438127, 78361.997409105, 54674.1550772375, 53041.44955175514, 0.052000000000000005, 0.9540000000000001, 0.136, 192.0, 0.0, 0.0, 0.0, 0.0, 0.0, 0.0, 0.0, 0.0, 0.0, 1.666556155831602E9, 0.0, 2022-10-23 13:15:55.831
185.0, -79654.28586653303, -112363.09109486236, 52503.800690627184, 29643.598752450795, 61074.10771538111, 77534.98286425864, 53319.32643882352, 51709.71026536349, 0.052000000000000005, 0.9540000000000001, 0.136, 192.0, 0.0, 0.0, 0.0, 0.0, 0.0, 0.0, 0.0, 0.0, 0.0, 1.6665561558316097E9, 0.0, 2022-10-23 13:15:55.831
186.0, -79739.33425418548, -112401.3796331143, 52212.31159118553, 29750.03775954697, 61171.76248690635, 77566.8564518519, 53232.22169068119, 51796.77031001691, 0.052000000000000005, 0.9540000000000001, 0.136, 192.0, 0.0, 0.0, 0.0, 0.0, 0.0, 0.0, 0.0, 0.0, 0.0, 1.6665561558316176E9, 0.0, 2022-10-23 13:15:55.831
187.0, -79796.59942347997, -112462.8469303664, 53787.21550550646, 29838.036577467512, 61252.27347043437, 78247.77999493838, 54285.34648243743, 52896.140861051186, 0.052000000000000005, 0.9540000000000001, 0.136, 192.0, 0.0, 0.0, 0.0, 0.0, 0.0, 0.0, 0.0, 0.0, 0.0, 1.6665561558316255E9, 0.0, 2022-10-23 13:15:55.831
188.0, -79683.25372734711, -112443.60207839038, 54839.692096673505, 29689.464532073085, 61146.05798078275, 78497.73955318208, 54841.54729146329, 53260.60840613943, 0.052000000000000005, 0.9540000000000001, 0.136, 192.0, 0.0, 0.0, 0.0, 0.0, 0.0, 0.0, 0.0, 0.0, 0.0, 1.666556155831633E9, 0.0, 2022-10-23 13:15:55.831
189.0, -79632.38115696683, -112373.3728973118, 52744.1489987551, 29627.684310398618, 61073.59362525865, 77620.321824589, 53455.11328638951, 51838.67983087061, 0.052000000000000005, 0.9540000000000001, 0.136, 192.0, 0.0, 0.0, 0.0, 0.0, 0.0, 0.0, 0.0, 0.0, 0.0, 1.6665561558316407E9, 0.0, 2022-10-23 13:15:55.831
190.0, -79700.77749500007, -112420.31156066795, 52154.44292479073, 29731.083480248868, 61166.10749555916, 77542.4036434178, 53183.539591257526, 51733.7607423974, 0.052000000000000005, 0.9540000000000001, 0.136, 192.0, 0.0, 0.0, 0.0, 0.0, 0.0, 0.0, 0.0, 0.0, 0.0, 1.6665561558316703E9, 0.0, 2022-10-23 13:15:55.831
191.0, -79715.28377715156, -112453.01216280606, 53410.63331492345, 29858.667237599762, 61272.6135578887, 78137.13885988461, 54070.43445949966, 52700.02665520032, 0.052000000000000005, 0.9540000000000001, 0.136, 192.0, 0.0, 0.0, 0.0, 0.0, 0.0, 0.0, 0.0, 0.0, 0.0, 1.6665561558316784E9, 0.0, 2022-10-23 13:15:55.831
192.0, -79722.65985282182, -112443.9373545572, 54974.204894805545, 29756.60917241683, 61196.72938546293, 78599.73056313164, 54969.06399358082, 53436.06960011359, 0.054, 0.9460000000000001, 0.138, 192.0, 1.0, 176.0, 29.0, 144.0, 4.0, 80.0, 0.0, 0.0, 0.0, 1.6665561558316865E9, 0.0, 2022-10-23 13:15:55.831
193.0, -79647.71445366317, -112318.7675856075, 53068.808086968435, 29610.04878402338, 61062.03777337525, 77731.81232593207, 53663.43154471297, 52028.982583163095, 0.054, 0.9460000000000001, 0.138, 192.0, 0.0, 0.0, 0.0, 0.0, 0.0, 0.0, 0.0, 0.0, 0.0, 1.6665561558316948E9, 0.0, 2022-10-23 13:15:55.831
194.0, -79685.82417795947, -112380.90543519324, 52107.347799223404, 29728.043643002948, 61154.12696053112, 77496.53786379551, 53139.81957910294, 51663.8444857412, 0.054, 0.9460000000000001, 0.138, 192.0, 0.0, 0.0, 0.0, 0.0, 0.0, 0.0, 0.0, 0.0, 0.0, 1.6665561558317027E9, 0.0, 2022-10-23 13:15:55.831
195.0, -79747.20206823375, -112454.73324712912, 53003.47393792558, 29814.075507411424, 61230.01113295688, 77968.04791308021, 53806.1027295712, 52430.5763757916, 0.054, 0.9460000000000001, 0.138, 192.0, 0.0, 0.0, 0.0, 0.0, 0.0, 0.0, 0.0, 0.0, 0.0, 1.6665561558317108E9, 0.0, 2022-10-23 13:15:55.831
196.0, -79755.15928925983, -112455.73907562961, 54943.33713571276, 29775.965783115123, 61205.73713847842, 78625.12214483287, 54974.38370876118, 53473.88875173197, 0.054, 0.9460000000000001, 0.138, 192.0, 0.0, 0.0, 0.0, 0.0, 0.0, 0.0, 0.0, 0.0, 0.0, 1.6665561558317187E9, 0.0, 2022-10-23 13:15:55.831
197.0, -79682.1137883799, -112383.63234801679, 53477.375623866996, 29594.357859415755, 61047.59854645712, 77888.9897929418, 53922.22004201652, 52267.83332441251, 0.054, 0.9460000000000001, 0.138, 192.0, 0.0, 0.0, 0.0, 0.0, 0.0, 0.0, 0.0, 0.0, 0.0, 1.6665561558317268E9, 0.0, 2022-10-23 13:15:55.831
198.0, -79700.3081083665, -112402.92190348172, 52159.33795682645, 29696.795904254428, 61130.30000094176, 77493.63213701632, 53156.00224208859, 51636.35184006117, 0.054, 0.9460000000000001, 0.138, 192.0, 0.0, 0.0, 0.0, 0.0, 0.0, 0.0, 0.0, 0.0, 0.0, 1.6665561558317347E9, 0.0, 2022-10-23 13:15:55.831
199.0, -79739.44601290775, -112426.65945609326, 52684.022806170324, 29787.298117553964, 61204.41838555555, 77823.67799564339, 53589.87195371056, 52194.98898923266, 0.054, 0.9460000000000001, 0.138, 192.0, 0.0, 0.0, 0.0, 0.0, 0.0, 0.0, 0.0, 0.0, 0.0, 1.6665561558317459E9, 0.0, 2022-10-23 13:15:55.831
200.0, -79820.78401098061, -112489.17728533475, 54734.21421458891, 29816.71301325715, 61233.47565334746, 78570.62859185084, 54861.39564053961, 53397.42343395036, 0.054, 0.9460000000000001, 0.138, 192.0, 0.0, 0.0, 0.0, 0.0, 0.0, 0.0, 0.0, 0.0, 0.0, 1.6665561558317535E9, 0.0, 2022-10-23 13:15:55.831
201.0, -79720.62584407638, -112417.1376129553, 53858.1152389187, 29589.887510524695, 61055.89104365004, 78036.44425111345, 54164.40119318977, 52519.20104255689, 0.054, 0.9420000000000001, 0.138, 192.0, 1.0, 176.0, 29.0, 112.0, 4.0, 80.0, 0.0, 0.0, 0.0, 1.6665561558317616E9, 0.0, 2022-10-23 13:15:55.831
202.0, -79677.39757029981, -112406.90051399477, 52183.03080594907, 29676.612279011286, 61116.33016065719, 77470.5874884829, 53144.178169271734, 51604.25473502335, 0.054, 0.9420000000000001, 0.138, 192.0, 0.0, 0.0, 0.0, 0.0, 0.0, 0.0, 0.0, 0.0, 0.0, 1.6665561558317697E9, 0.0, 2022-10-23 13:15:55.831
203.0, -79692.59675652943, -112408.48748785109, 52417.29943958515, 29781.71018144014, 61218.47763281794, 77714.86970363495, 53404.82186136507, 52019.125463858305, 0.054, 0.9420000000000001, 0.138, 192.0, 0.0, 0.0, 0.0, 0.0, 0.0, 0.0, 0.0, 0.0, 0.0, 1.6665561558317778E9, 0.0, 2022-10-23 13:15:55.831
204.0, -79773.39831273536, -112454.28621224001, 54443.01568782517, 29843.57981009243, 61273.9099590671, 78514.39160280128, 54706.11807180859, 53299.92512463631, 0.054, 0.9420000000000001, 0.138, 192.0, 0.0, 0.0, 0.0, 0.0, 0.0, 0.0, 0.0, 0.0, 0.0, 1.666556155831786E9, 0.0, 2022-10-23 13:15:55.831
205.0, -79726.86198077942, -112432.71677884064, 54300.612723900405, 29610.451115423577, 61078.93569218346, 78254.59727699724, 54475.13514460745, 52859.863979800226, 0.054, 0.9420000000000001, 0.138, 192.0, 0.0, 0.0, 0.0, 0.0, 0.0, 0.0, 0.0, 0.0, 0.0, 1.6665561558318155E9, 0.0, 2022-10-23 13:15:55.831
206.0, -79676.9058319218, -112373.64111824527, 52332.89925252191, 29681.663773258184, 61109.69169255396, 77522.57764608593, 53234.568623848994, 51674.08158470173, 0.054, 0.9420000000000001, 0.138, 192.0, 0.0, 0.0, 0.0, 0.0, 0.0, 0.0, 0.0, 0.0, 0.0, 1.6665561558318243E9, 0.0, 2022-10-23 13:15:55.831
207.0, -79712.48980909465, -112396.12697316731, 52273.26479831515, 29776.166948815222, 61198.361062808166, 77652.79890928256, 53306.429482272804, 51902.382302568236, 0.054, 0.9420000000000001, 0.138, 192.0, 0.0, 0.0, 0.0, 0.0, 0.0, 0.0, 0.0, 0.0, 0.0, 1.6665561558318324E9, 0.0, 2022-10-23 13:15:55.831
208.0, -79767.38569347688, -112465.46208446767, 54039.67845912915, 29845.39030139331, 61257.10144723672, 78374.2014615776, 54462.93109213485, 53074.84305797137, 0.054, 0.9420000000000001, 0.138, 192.0, 0.0, 0.0, 0.0, 0.0, 0.0, 0.0, 0.0, 0.0, 0.0, 1.6665561558318405E9, 0.0, 2022-10-23 13:15:55.831
209.0, -79751.44889968025, -112453.16862501725, 54576.2320847788, 29644.291656528912, 61101.84623025015, 78376.52604300095, 54660.095829975115, 53074.01604342652, 0.054, 0.9420000000000001, 0.138, 192.0, 0.0, 0.0, 0.0, 0.0, 0.0, 0.0, 0.0, 0.0, 0.0, 1.666556155831849E9, 0.0, 2022-10-23 13:15:55.831
210.0, -79702.1633031563, -112430.54865962848, 52486.746309607784, 29646.72799667454, 61091.810296989715, 77556.1052627689, 53309.1340433519, 51730.43033247356, 0.054, 0.9420000000000001, 0.138, 192.0, 0.0, 0.0, 0.0, 0.0, 0.0, 0.0, 0.0, 0.0, 0.0, 1.6665561558318574E9, 0.0, 2022-10-23 13:15:55.831
211.0, -79744.02812052109, -112421.5856101019, 52123.776331398054, 29742.08053852088, 61174.35528926317, 77570.16451003129, 53182.64552147932, 51772.25044634944, 0.062, 0.9520000000000001, 0.134, 192.0, 1.0, 240.0, 29.0, 192.0, 4.0, 48.0, 0.0, 0.0, 0.0, 1.6665561558318658E9, 0.0, 2022-10-23 13:15:55.831
212.0, -79774.53825170259, -112459.71768614266, 53610.27909639825, 29825.921931972734, 61244.94209825303, 78224.48947721595, 54197.16885056125, 52836.93108998908, 0.062, 0.9520000000000001, 0.134, 192.0, 0.0, 0.0, 0.0, 0.0, 0.0, 0.0, 0.0, 0.0, 0.0, 1.6665561558318741E9, 0.0, 2022-10-23 13:15:55.831
213.0, -79785.7364756747, -112486.76329693357, 54813.76407310535, 29677.26047960049, 61125.00263750585, 78505.89793990826, 54840.22853854043, 53293.53252572209, 0.062, 0.9520000000000001, 0.134, 192.0, 0.0, 0.0, 0.0, 0.0, 0.0, 0.0, 0.0, 0.0, 0.0, 1.6665561558318822E9, 0.0, 2022-10-23 13:15:55.831
214.0, -79695.41307633079, -112406.6769965502, 52777.4083945046, 29630.590037177808, 61077.23695960486, 77643.61234231143, 53485.24343791526, 51880.11996509075, 0.062, 0.9520000000000001, 0.134, 192.0, 0.0, 0.0, 0.0, 0.0, 0.0, 0.0, 0.0, 0.0, 0.0, 1.6665561558318903E9, 0.0, 2022-10-23 13:15:55.831
215.0, -79749.14667000136, -112442.10451151188, 52079.251656443084, 29710.274006160977, 61153.56816691973, 77515.80506751598, 53138.009087802064, 51697.64032335763, 0.062, 0.9520000000000001, 0.134, 192.0, 0.0, 0.0, 0.0, 0.0, 0.0, 0.0, 0.0, 0.0, 0.0, 1.6665561558318985E9, 0.0, 2022-10-23 13:15:55.831
216.0, -79741.569428631, -112450.21819474915, 53212.887431727344, 29854.62157185335, 61270.22192123198, 78074.17399575401, 53947.522216739926, 52599.577915618174, 0.062, 0.9520000000000001, 0.134, 192.0, 0.0, 0.0, 0.0, 0.0, 0.0, 0.0, 0.0, 0.0, 0.0, 1.666556155831906E9, 0.0, 2022-10-23 13:15:55.831
217.0, -79729.43243139178, -112432.56031662946, 54941.68310662307, 29792.03668737849, 61242.52810985185, 78630.26304605759, 54966.292377268364, 53472.21237089782, 0.062, 0.9520000000000001, 0.134, 192.0, 0.0, 0.0, 0.0, 0.0, 0.0, 0.0, 0.0, 0.0, 0.0, 1.6665561558319147E9, 0.0, 2022-10-23 13:15:55.831
218.0, -79691.88150070686, -112400.88789473628, 53161.299605524495, 29625.53854293091, 61088.5692940437, 77796.72179183028, 53729.92798446751, 52117.204918528194, 0.062, 0.9520000000000001, 0.134, 192.0, 0.0, 0.0, 0.0, 0.0, 0.0, 0.0, 0.0, 0.0, 0.0, 1.6665561558319228E9, 0.0, 2022-10-23 13:15:55.831
219.0, -79747.64910312285, -112471.43000023723, 52063.91835974674, 29710.40811662771, 61158.32908848871, 77493.67684050523, 53105.88963101979, 51645.739572732404, 0.062, 0.9520000000000001, 0.134, 192.0, 0.0, 0.0, 0.0, 0.0, 0.0, 0.0, 0.0, 0.0, 0.0, 1.6665561558319309E9, 0.0, 2022-10-23 13:15:55.831
220.0, -79771.63252492339, -112468.63603218032, 52845.55886334883, 29809.828675964916, 61237.9012987496, 77932.03925276271, 53703.508222521334, 52354.356927199, 0.062, 0.9520000000000001, 0.134, 192.0, 0.0, 0.0, 0.0, 0.0, 0.0, 0.0, 0.0, 0.0, 0.0, 1.6665561558319392E9, 0.0, 2022-10-23 13:15:55.831
221.0, -79767.29628649907, -112454.46502619566, 54862.982614395936, 29803.10080088387, 61241.455226118, 78641.61773224089, 54938.71032461051, 53487.79153678317, 0.058, 0.9480000000000001, 0.13, 192.0, 1.0, 208.0, 29.0, 160.0, 4.0, 16.0, 0.0, 0.0, 0.0, 1.666556155831982E9, 0.0, 2022-10-23 13:15:55.831
222.0, -79720.15645744282, -112421.540906613, 53565.70971795437, 29586.534748856397, 61053.87938664906, 77944.8468023356, 53977.31709209885, 52359.67664237937, 0.058, 0.9480000000000001, 0.13, 192.0, 0.0, 0.0, 0.0, 0.0, 0.0, 0.0, 0.0, 0.0, 0.0, 1.6665561558319917E9, 0.0, 2022-10-23 13:15:55.831
223.0, -79683.79016921403, -112389.06382191942, 52107.414854456765, 29702.74146827954, 61143.17460574801, 77480.84693918788, 53107.38719789829, 51623.45488351046, 0.058, 0.9480000000000001, 0.13, 192.0, 0.0, 0.0, 0.0, 0.0, 0.0, 0.0, 0.0, 0.0, 0.0, 1.6665561558319995E9, 0.0, 2022-10-23 13:15:55.831
224.0, -79737.18848671776, -112446.97719180313, 52566.0055954463, 29787.342821042876, 61220.936324708025, 77803.62848086697, 53509.53978413818, 52154.28646257955, 0.058, 0.9480000000000001, 0.13, 192.0, 0.0, 0.0, 0.0, 0.0, 0.0, 0.0, 0.0, 0.0, 0.0, 1.666556155832008E9, 0.0, 2022-10-23 13:15:55.832
225.0, -79752.34296945846, -112468.47956996913, 54645.5001408458, 29848.698359572692, 61272.63590963315, 78588.06295252597, 54818.1897185075, 53405.38065497645, 0.058, 0.9480000000000001, 0.13, 192.0, 0.0, 0.0, 0.0, 0.0, 0.0, 0.0, 0.0, 0.0, 0.0, 1.6665561558320167E9, 0.0, 2022-10-23 13:15:55.832
226.0, -79689.69102975023, -112405.22413316062, 54004.22859242304, 29616.642548637697, 61083.22722711888, 78132.02031040435, 54264.64876707182, 52654.0267651113, 0.058, 0.9480000000000001, 0.13, 192.0, 0.0, 0.0, 0.0, 0.0, 0.0, 0.0, 0.0, 0.0, 0.0, 1.666556155832026E9, 0.0, 2022-10-23 13:15:55.832
227.0, -79695.0107449306, -112412.39904313076, 52191.27859965308, 29679.54035753493, 61111.99392223286, 77480.2434420876, 53136.08683777891, 51614.24596479487, 0.058, 0.9480000000000001, 0.13, 192.0, 0.0, 0.0, 0.0, 0.0, 0.0, 0.0, 0.0, 0.0, 0.0, 1.666556155832034E9, 0.0, 2022-10-23 13:15:55.832
228.0, -79743.17875423179, -112465.77500889004, 52319.06352270407, 29761.839480619372, 61187.07343185824, 77675.30711594905, 53321.51690978014, 51948.940986268644, 0.058, 0.9480000000000001, 0.13, 192.0, 0.0, 0.0, 0.0, 0.0, 0.0, 0.0, 0.0, 0.0, 0.0, 1.6665561558320422E9, 0.0, 2022-10-23 13:15:55.832
229.0, -79772.90657435734, -112485.37748877735, 54268.89559851833, 29855.62740035384, 61267.89733980863, 78454.15365149423, 54580.2330470363, 53198.694073998224, 0.058, 0.9480000000000001, 0.13, 192.0, 0.0, 0.0, 0.0, 0.0, 0.0, 0.0, 0.0, 0.0, 0.0, 1.66655615583205E9, 0.0, 2022-10-23 13:15:55.832
230.0, -79716.6695853078, -112430.4369009062, 54368.02558517762, 29641.609447194274, 61109.356416387134, 78295.2774519059, 54502.448976331834, 52920.63837297421, 0.058, 0.9480000000000001, 0.13, 192.0, 0.0, 0.0, 0.0, 0.0, 0.0, 0.0, 0.0, 0.0, 0.0, 1.6665561558320577E9, 0.0, 2022-10-23 13:15:55.832
231.0, -79691.56857628448, -112403.79362151548, 52323.17624368385, 29659.289677058423, 61097.84526799265, 77507.95960521216, 53192.48028903965, 51656.11078215967, 0.062, 0.9460000000000001, 0.132, 192.0, 1.0, 240.0, 29.0, 144.0, 4.0, 32.0, 0.0, 0.0, 0.0, 1.6665561558320656E9, 0.0, 2022-10-23 13:15:55.832
232.0, -79727.64429183534, -112428.49229913858, 52172.27961686607, 29760.476024207597, 61194.24834182839, 77609.4141732948, 53207.947696202726, 51839.193920993086, 0.062, 0.9460000000000001, 0.132, 192.0, 0.0, 0.0, 0.0, 0.0, 0.0, 0.0, 0.0, 0.0, 0.0, 1.666556155832074E9, 0.0, 2022-10-23 13:15:55.832
233.0, -79759.60728640643, -112460.79056987651, 53855.54478830633, 29858.689589344216, 61272.27828172187, 78320.31140569584, 54325.37845675689, 52994.510888398996, 0.062, 0.9460000000000001, 0.132, 192.0, 0.0, 0.0, 0.0, 0.0, 0.0, 0.0, 0.0, 0.0, 0.0, 1.6665561558320818E9, 0.0, 2022-10-23 13:15:55.832
234.0, -79727.15255345733, -112435.26487770854, 54673.84215281512, 29687.050543671914, 61151.71297212994, 78457.48406141807, 54720.40083651553, 53191.94384717272, 0.062, 0.9460000000000001, 0.132, 192.0, 0.0, 0.0, 0.0, 0.0, 0.0, 0.0, 0.0, 0.0, 0.0, 1.6665561558320897E9, 0.0, 2022-10-23 13:15:55.832
235.0, -79713.16036142831, -112422.97141825812, 52557.3554703421, 29617.827191093827, 61062.395401286536, 77578.27819326856, 53325.808444715556, 51768.24948409194, 0.062, 0.9460000000000001, 0.132, 192.0, 0.0, 0.0, 0.0, 0.0, 0.0, 0.0, 0.0, 0.0, 0.0, 1.6665561558320975E9, 0.0, 2022-10-23 13:15:55.832
236.0, -79745.30216995504, -112460.67881115423, 52086.15834547977, 29724.489715634554, 61158.083219299704, 77546.94104754222, 53131.97411679913, 51739.2592715334, 0.062, 0.9460000000000001, 0.132, 192.0, 0.0, 0.0, 0.0, 0.0, 0.0, 0.0, 0.0, 0.0, 0.0, 1.6665561558321316E9, 0.0, 2022-10-23 13:15:55.832
237.0, -79772.66070516834, -112475.47566598364, 53467.33969060656, 29848.76541480606, 61258.46490364849, 78186.08918024173, 54093.613218499806, 52763.103278053204, 0.062, 0.9460000000000001, 0.132, 192.0, 0.0, 0.0, 0.0, 0.0, 0.0, 0.0, 0.0, 0.0, 0.0, 1.6665561558321402E9, 0.0, 2022-10-23 13:15:55.832
238.0, -79754.80166134855, -112464.03157282253, 54871.699794733504, 29732.826916316382, 61182.558379478265, 78573.8919465413, 54879.65701575959, 53376.16692497336, 0.062, 0.9460000000000001, 0.132, 192.0, 0.0, 0.0, 0.0, 0.0, 0.0, 0.0, 0.0, 0.0, 0.0, 1.666556155832148E9, 0.0, 2022-10-23 13:15:55.832
239.0, -79714.25559690662, -112412.37669138631, 52862.926168790604, 29610.987557290504, 61060.22728207437, 77676.42470317183, 53512.51256615073, 51930.50079709302, 0.062, 0.9460000000000001, 0.132, 192.0, 0.0, 0.0, 0.0, 0.0, 0.0, 0.0, 0.0, 0.0, 0.0, 1.6665561558321557E9, 0.0, 2022-10-23 13:15:55.832
240.0, -79743.51403039861, -112439.98109578862, 52048.47330432812, 29715.817238785894, 61151.645916896574, 77508.00430870109, 53094.60200006986, 51667.30900613177, 0.06, 0.9460000000000001, 0.14, 192.0, 1.0, 224.0, 29.0, 144.0, 4.0, 96.0, 0.0, 0.0, 0.0, 1.6665561558321636E9, 0.0, 2022-10-23 13:15:55.832
241.0, -79771.11843480093, -112478.15787531828, 53059.12978161929, 29828.894713985293, 61240.27058366187, 78016.95352994843, 53834.51179677389, 52496.2905044902, 0.06, 0.9460000000000001, 0.14, 192.0, 0.0, 0.0, 0.0, 0.0, 0.0, 0.0, 0.0, 0.0, 0.0, 1.666556155832172E9, 0.0, 2022-10-23 13:15:55.832
242.0, -79767.43039696579, -112476.48149448413, 54885.066137917776, 29791.500245511565, 61226.457205588486, 78614.86269412789, 54924.002876758925, 53453.883940444466, 0.06, 0.9460000000000001, 0.14, 192.0, 0.0, 0.0, 0.0, 0.0, 0.0, 0.0, 0.0, 0.0, 0.0, 1.6665561558321817E9, 0.0, 2022-10-23 13:15:55.832
243.0, -79722.77161154409, -112430.92863928422, 53268.476220187695, 29604.371440931733, 61061.76955244179, 77834.38448123747, 53786.63436015062, 52180.10272742543, 0.06, 0.9460000000000001, 0.14, 192.0, 0.0, 0.0, 0.0, 0.0, 0.0, 0.0, 0.0, 0.0, 0.0, 1.6665561563102248E9, 0.0, 2022-10-23 13:15:56.310
244.0, -79721.98930048816, -112423.32904616941, 52072.92611276223, 29715.59372134134, 61140.537099902285, 77492.40279107128, 53102.73803505159, 51638.3858488066, 0.06, 0.9460000000000001, 0.14, 192.0, 0.0, 0.0, 0.0, 0.0, 0.0, 0.0, 0.0, 0.0, 0.0, 1.6665561563102684E9, 0.0, 2022-10-23 13:15:56.310
245.0, -79757.99796080566, -112456.63314540782, 52717.41631238655, 29816.0871644124, 61230.659333546086, 77871.42132179992, 53609.60854406459, 52265.77696392262, 0.06, 0.9460000000000001, 0.14, 192.0, 0.0, 0.0, 0.0, 0.0, 0.0, 0.0, 0.0, 0.0, 0.0, 1.6665561563102884E9, 0.0, 2022-10-23 13:15:56.310
246.0, -79773.91240285784, -112467.58550019092, 54778.6271308216, 29825.631359294817, 61254.12866522416, 78621.27764478656, 54884.17206813957, 53451.00056540973, 0.06, 0.9460000000000001, 0.14, 192.0, 0.0, 0.0, 0.0, 0.0, 0.0, 0.0, 0.0, 0.0, 0.0, 1.6665561563103087E9, 0.0, 2022-10-23 13:15:56.310
247.0, -79706.14191366934, -112402.45251684816, 53701.138937609074, 29617.536618415907, 61078.30984333871, 78018.9651869494, 54067.059346086906, 52460.70652731735, 0.06, 0.9460000000000001, 0.14, 192.0, 0.0, 0.0, 0.0, 0.0, 0.0, 0.0, 0.0, 0.0, 0.0, 1.6665561563103251E9, 0.0, 2022-10-23 13:15:56.310
248.0, -79731.95817851523, -112434.54962188598, 52111.16994752526, 29688.21283438359, 61116.86660252412, 77482.00922989956, 53100.636971072796, 51611.764921160335, 0.06, 0.9460000000000001, 0.14, 192.0, 0.0, 0.0, 0.0, 0.0, 0.0, 0.0, 0.0, 0.0, 0.0, 1.6665561563103333E9, 0.0, 2022-10-23 13:15:56.310
249.0, -79757.21564974972, -112467.02670657953, 52450.24591091227, 29777.061018593435, 61196.30470231828, 77760.02022743467, 53425.11724533048, 52072.90376101778, 0.06, 0.9460000000000001, 0.14, 192.0, 0.0, 0.0, 0.0, 0.0, 0.0, 0.0, 0.0, 0.0, 0.0, 1.6665561563103411E9, 0.0, 2022-10-23 13:15:56.310
250.0, -79804.57899625052, -112510.8584774564, 54516.19529917184, 29827.866533740347, 61242.59516508522, 78555.47410911013, 54739.221005346895, 53337.69957276578, 0.052000000000000005, 0.9480000000000001, 0.14400000000000002, 192.0, 1.0, 160.0, 29.0, 160.0, 4.0, 128.0, 0.0, 0.0, 0.0, 1.666556156310349E9, 0.0, 2022-10-23 13:15:56.310
251.0, -79723.26334992211, -112435.28722945301, 54124.659791548234, 29619.212999250056, 61075.27000609279, 78200.79662809332, 54345.51737851112, 52739.38807718612, 0.052000000000000005, 0.9480000000000001, 0.14400000000000002, 192.0, 0.0, 0.0, 0.0, 0.0, 0.0, 0.0, 0.0, 0.0, 0.0, 1.666556156310358E9, 0.0, 2022-10-23 13:15:56.310
252.0, -79719.4188498758, -112422.32321766892, 52234.14924551836, 29672.410151053686, 61101.44389884995, 77512.63111980334, 53160.80786714648, 51624.55011898877, 0.052000000000000005, 0.9480000000000001, 0.14400000000000002, 192.0, 0.0, 0.0, 0.0, 0.0, 0.0, 0.0, 0.0, 0.0, 0.0, 1.6665561563104904E9, 0.0, 2022-10-23 13:15:56.310
253.0, -79760.54605967356, -112463.51748270006, 52272.59424598149, 29761.92888759719, 61180.01028061036, 77677.13995899439, 53298.27109554662, 51918.36379985378, 0.052000000000000005, 0.9480000000000001, 0.14400000000000002, 192.0, 0.0, 0.0, 0.0, 0.0, 0.0, 0.0, 0.0, 0.0, 0.0, 1.6665561563104987E9, 0.0, 2022-10-23 13:15:56.310
254.0, -79781.55669946155, -112480.72832593064, 54147.77149531502, 29863.316400446463, 61264.72339209598, 78440.80966005441, 54523.86194752002, 53152.627128675835, 0.052000000000000005, 0.9480000000000001, 0.14400000000000002, 192.0, 0.0, 0.0, 0.0, 0.0, 0.0, 0.0, 0.0, 0.0, 0.0, 1.6665561563105068E9, 0.0, 2022-10-23 13:15:56.310
255.0, -79731.60055060394, -112437.63416262082, 54499.94558095284, 29659.02145612496, 61113.93852400047, 78382.87393842626, 54613.313628830154, 53037.24742379754, 0.052000000000000005, 0.9480000000000001, 0.14400000000000002, 192.0, 0.0, 0.0, 0.0, 0.0, 0.0, 0.0, 0.0, 0.0, 0.0, 1.6665561563105147E9, 0.0, 2022-10-23 13:15:56.310
0.0, -79713.54034108405, -112425.74303457058, 52417.92528842989, 29634.881572113227, 61069.97264265688, 77563.01195180559, 53268.65503414334, 51705.82106182827, 0.052000000000000005, 0.9480000000000001, 0.14400000000000002, 192.0, 0.0, 0.0, 0.0, 0.0, 0.0, 0.0, 0.0, 0.0, 0.0, 1.666556156310523E9, 0.0, 2022-10-23 13:15:56.310
1.0, -79742.95523678724, -112454.57678491794, 52156.70045098072, 29742.929904810182, 61170.62254793913, 77617.23728385416, 53209.78053924806, 51808.549679344855, 0.052000000000000005, 0.9480000000000001, 0.14400000000000002, 192.0, 0.0, 0.0, 0.0, 0.0, 0.0, 0.0, 0.0, 0.0, 0.0, 1.666556156310531E9, 0.0, 2022-10-23 13:15:56.310
2.0, -79772.61600167943, -112480.32599453045, 53734.17481591402, 29855.403882909286, 61265.12572349617, 78300.731277553, 54270.95195900821, 52912.770558925935, 0.052000000000000005, 0.9480000000000001, 0.14400000000000002, 192.0, 0.0, 0.0, 0.0, 0.0, 0.0, 0.0, 0.0, 0.0, 0.0, 1.6665561563105392E9, 0.0, 2022-10-23 13:15:56.310
3.0, -79754.51108867062, -112463.02574432203, 54745.032458905276, 29688.59281403933, 61141.34176270268, 78509.6306812323, 54787.72429081491, 53241.18474020776, 0.052000000000000005, 0.9480000000000001, 0.14400000000000002, 192.0, 0.0, 0.0, 0.0, 0.0, 0.0, 0.0, 0.0, 0.0, 0.0, 1.666556156310547E9, 0.0, 2022-10-23 13:15:56.310
4.0, -79729.00774824712, -112438.05884576547, 52648.19295980847, 29610.987557290504, 61051.130122081064, 77627.04969967005, 53394.584762404535, 51806.91800199962, 0.056, 0.9460000000000001, 0.14400000000000002, 192.0, 1.0, 192.0, 29.0, 144.0, 4.0, 128.0, 0.0, 0.0, 0.0, 1.6665561563105552E9, 0.0, 2022-10-23 13:15:56.310
5.0, -79743.6257891209, -112452.52042442805, 52067.15936269276, 29730.278817448478, 61157.12209428813, 77563.01195180559, 53129.26955572004, 51709.03971302983, 0.056, 0.9460000000000001, 0.14400000000000002, 192.0, 0.0, 0.0, 0.0, 0.0, 0.0, 0.0, 0.0, 0.0, 0.0, 1.6665561563105638E9, 0.0, 2022-10-23 13:15:56.310
6.0, -79773.91240285784, -112477.53202647353, 53315.6831044773, 29850.71001657367, 61262.48821765045, 78154.30499962629, 54006.93315350213, 52664.532085005296, 0.056, 0.9460000000000001, 0.14400000000000002, 192.0, 0.0, 0.0, 0.0, 0.0, 0.0, 0.0, 0.0, 0.0, 0.0, 1.6665561563105717E9, 0.0, 2022-10-23 13:15:56.310
7.0, -79749.571353146, -112450.26289823806, 54890.028225186856, 29761.660666663727, 61202.004397154386, 78624.92097913277, 54913.96694349849, 53416.958858604296, 0.056, 0.9460000000000001, 0.14400000000000002, 192.0, 0.0, 0.0, 0.0, 0.0, 0.0, 0.0, 0.0, 0.0, 0.0, 1.6665561563105915E9, 0.0, 2022-10-23 13:15:56.310
8.0, -79708.33238462596, -112410.4767931076, 53002.91514431419, 29609.2888247119, 61055.44400876093, 77767.06102693808, 53622.19257619293, 52027.12738837331, 0.056, 0.9460000000000001, 0.14400000000000002, 192.0, 0.0, 0.0, 0.0, 0.0, 0.0, 0.0, 0.0, 0.0, 0.0, 1.6665561563105993E9, 0.0, 2022-10-23 13:15:56.310
9.0, -79742.79877457605, -112447.37952320333, 52031.150702375264, 29717.091288219846, 61140.49239641338, 77522.51059085257, 53086.48831683258, 51652.42274432454, 0.056, 0.9460000000000001, 0.14400000000000002, 192.0, 0.0, 0.0, 0.0, 0.0, 0.0, 0.0, 0.0, 0.0, 0.0, 1.6665561563106072E9, 0.0, 2022-10-23 13:15:56.310
10.0, -79788.61985070942, -112495.9051604158, 52921.733608452516, 29807.593501519383, 61221.293952619315, 77991.58429999165, 53750.715106810945, 52416.94181167386, 0.056, 0.9460000000000001, 0.14400000000000002, 192.0, 0.0, 0.0, 0.0, 0.0, 0.0, 0.0, 0.0, 0.0, 0.0, 1.6665561563106153E9, 0.0, 2022-10-23 13:15:56.310
11.0, -79770.44788246726, -112479.58838696343, 54894.94560896702, 29794.204806590657, 61230.48051959044, 78686.14240719586, 54959.9221300986, 53498.98976075528, 0.056, 0.9460000000000001, 0.14400000000000002, 192.0, 0.0, 0.0, 0.0, 0.0, 0.0, 0.0, 0.0, 0.0, 0.0, 1.666556156310635E9, 0.0, 2022-10-23 13:15:56.310
12.0, -79711.93101548326, -112422.92671476922, 53455.49326604525, 29600.348126929777, 61058.4614942624, 77963.01877057776, 53926.109245551736, 52304.557240552575, 0.056, 0.9460000000000001, 0.14400000000000002, 192.0, 0.0, 0.0, 0.0, 0.0, 0.0, 0.0, 0.0, 0.0, 0.0, 1.6665561563106434E9, 0.0, 2022-10-23 13:15:56.310
