%OpenBCI Raw EEG Data
%Number of channels = 8
%Sample Rate = 250 Hz
%Board = OpenBCI_GUI$BoardCytonSerial
Sample Index, EXG Channel 0, EXG Channel 1, EXG Channel 2, EXG Channel 3, EXG Channel 4, EXG Channel 5, EXG Channel 6, EXG Channel 7, Accel Channel 0, Accel Channel 1, Accel Channel 2, Other, Other, Other, Other, Other, Other, Other, Analog Channel 0, Analog Channel 1, Analog Channel 2, Timestamp, Other, Timestamp (Formatted)
83.0, -110754.54780513619, -150163.57900662173, -63424.907734979126, -132376.50780397747, 49418.90232788352, -78894.14774109695, 39218.97431838207, -118504.74697408045, 0.0, 0.0, 0.0, 192.0, 0.0, 0.0, 0.0, 0.0, 0.0, 0.0, 0.0, 0.0, 0.0, 1.6664036793691876E9, 0.0, 2022-10-21 18:54:39.369
84.0, -110757.40882842647, -150167.33409969023, -63426.472357091, -132379.63704820123, 49417.382409260565, -78901.90379642294, 39202.63519318523, -118514.40292768514, 0.0, 0.0, 0.0, 192.0, 0.0, 0.0, 0.0, 0.0, 0.0, 0.0, 0.0, 0.0, 0.0, 1.6664036793692284E9, 0.0, 2022-10-21 18:54:39.369
85.0, -110763.42144768494, -150172.74322184842, -63430.763892026414, -132379.05590284537, 49410.1627958015, -78889.40917127242, 39221.23184457205, -118521.73429986648, 0.0, 0.0, 0.0, 192.0, 0.0, 0.0, 0.0, 0.0, 0.0, 0.0, 0.0, 0.0, 0.0, 1.6664036793692536E9, 0.0, 2022-10-21 18:54:39.369
86.0, -110764.5390349077, -150173.30201545978, -63433.13317693868, -132377.58068771134, 49411.660362680006, -78884.62589795899, 39232.63123424426, -118525.53409642389, 0.0, 0.0, 0.0, 192.0, 0.0, 0.0, 0.0, 0.0, 0.0, 0.0, 0.0, 0.0, 0.0, 1.6664036793692791E9, 0.0, 2022-10-21 18:54:39.369
87.0, -110760.40396218348, -150170.66450961406, -63432.41792111611, -132385.38144652624, 49413.06852258069, -78896.22645333128, 39216.4038677697, -118516.1240120082, 0.0, 0.0, 0.0, 192.0, 0.0, 0.0, 0.0, 0.0, 0.0, 0.0, 0.0, 0.0, 0.0, 1.6664036793693027E9, 0.0, 2022-10-21 18:54:39.369
88.0, -110761.9462325509, -150172.54205614832, -63433.021418216405, -132381.31342903536, 49413.962592358905, -78906.48590403628, 39195.99672508201, -118518.15802075363, 0.0, 0.0, 0.0, 192.0, 0.0, 0.0, 0.0, 0.0, 0.0, 0.0, 0.0, 0.0, 0.0, 1.6664036793693266E9, 0.0, 2022-10-21 18:54:39.369
89.0, -110759.889872061, -150168.63050086863, -63430.02628445939, -132365.73426315002, 49417.56122321621, -78887.08458984907, 39213.140513079234, -118518.53800040937, 0.038, 0.9580000000000001, 0.046, 192.0, 1.0, 48.0, 29.0, 240.0, 1.0, 112.0, 0.0, 0.0, 0.0, 1.6664036793693502E9, 0.0, 2022-10-21 18:54:39.369
90.0, -110771.2445582443, -150182.6450446421, -63441.49272936496, -132381.69340869112, 49402.8090718757, -78898.81925568811, 39209.296013032916, -118528.7750993699, 0.038, 0.9580000000000001, 0.046, 192.0, 0.0, 0.0, 0.0, 0.0, 0.0, 0.0, 0.0, 0.0, 0.0, 1.6664036793693795E9, 0.0, 2022-10-21 18:54:39.369
91.0, -110778.82179961466, -150188.32238773376, -63446.65598233414, -132394.43390303064, 49396.52823168376, -78907.15645636994, 39203.708076919094, -118531.54671568236, 0.038, 0.9580000000000001, 0.046, 192.0, 0.0, 0.0, 0.0, 0.0, 0.0, 0.0, 0.0, 0.0, 0.0, 1.6664036793694048E9, 0.0, 2022-10-21 18:54:39.369
92.0, -110774.91024433497, -150182.17565800855, -63446.18659570058, -132391.93050765165, 49397.332894484156, -78911.06801164962, 39192.308687246885, -118526.6740353911, 0.038, 0.9580000000000001, 0.046, 192.0, 0.0, 0.0, 0.0, 0.0, 0.0, 0.0, 0.0, 0.0, 0.0, 1.6664036793694289E9, 0.0, 2022-10-21 18:54:39.369
93.0, -110775.62550015755, -150182.26506498636, -63443.012647987925, -132382.25220230248, 49399.72453114087, -78912.40911631694, 39190.45349245709, -118520.61671264372, 0.038, 0.9580000000000001, 0.046, 192.0, 0.0, 0.0, 0.0, 0.0, 0.0, 0.0, 0.0, 0.0, 0.0, 1.666403679369453E9, 0.0, 2022-10-21 18:54:39.369
94.0, -110773.43502920092, -150181.63921614163, -63436.39653162915, -132373.0432835869, 49407.23471727785, -78896.33821205357, 39209.76539966648, -118520.61671264372, 0.038, 0.9580000000000001, 0.046, 192.0, 0.0, 0.0, 0.0, 0.0, 0.0, 0.0, 0.0, 0.0, 0.0, 1.6664036793694768E9, 0.0, 2022-10-21 18:54:39.369
95.0, -110782.3980787275, -150192.56921918027, -63441.78330204288, -132389.11418785027, 49401.803243375216, -78903.15549411243, 39204.46803623057, -118528.64098890318, 0.038, 0.9580000000000001, 0.046, 192.0, 0.0, 0.0, 0.0, 0.0, 0.0, 0.0, 0.0, 0.0, 0.0, 1.666403679369501E9, 0.0, 2022-10-21 18:54:39.369
96.0, -110778.41946821446, -150188.43414645604, -63439.25755491943, -132381.02285635745, 49404.798377132225, -78914.53253204019, 39184.03854179842, -118528.41747145861, 0.038, 0.9580000000000001, 0.046, 192.0, 0.0, 0.0, 0.0, 0.0, 0.0, 0.0, 0.0, 0.0, 0.0, 1.666403679369528E9, 0.0, 2022-10-21 18:54:39.369
97.0, -110784.18621828392, -150192.5468674358, -63444.957249755535, -132389.87414716175, 49393.80131886021, -78919.69578500936, 39174.47199517155, -118536.37469248471, 0.038, 0.9580000000000001, 0.046, 192.0, 0.0, 0.0, 0.0, 0.0, 0.0, 0.0, 0.0, 0.0, 0.0, 1.6664036793695529E9, 0.0, 2022-10-21 18:54:39.369
98.0, -110796.97141611236, -150201.8451931292, -63441.44802587605, -132384.57678372585, 49395.52240318328, -78902.08261037858, 39200.44472222862, -118525.66820689062, 0.048, 0.964, 0.04, 192.0, 1.0, 128.0, 30.0, 32.0, 1.0, 64.0, 0.0, 0.0, 0.0, 1.6664036793695776E9, 0.0, 2022-10-21 18:54:39.369
99.0, -110807.02970111725, -150211.0094083559, -63440.08456946428, -132384.6438389592, 49400.328028241165, -78905.9718139138, 39199.438893728126, -118524.9753028125, 0.048, 0.964, 0.04, 192.0, 0.0, 0.0, 0.0, 0.0, 0.0, 0.0, 0.0, 0.0, 0.0, 1.666403679369804E9, 0.0, 2022-10-21 18:54:39.369
100.0, -110820.55250651271, -150230.50012952092, -63443.50438636594, -132392.71281870757, 49399.411606718495, -78924.50141006726, 39168.5934863798, -118524.23769524548, 0.048, 0.964, 0.04, 192.0, 0.0, 0.0, 0.0, 0.0, 0.0, 0.0, 0.0, 0.0, 0.0, 1.6664036793698184E9, 0.0, 2022-10-21 18:54:39.369
101.0, -110826.47571879337, -150234.74696096743, -63443.83966253277, -132390.5446994954, 49397.601115417616, -78924.45670657835, 39157.05998624086, -118522.2260382445, 0.048, 0.964, 0.04, 192.0, 0.0, 0.0, 0.0, 0.0, 0.0, 0.0, 0.0, 0.0, 0.0, 1.6664036793698335E9, 0.0, 2022-10-21 18:54:39.369
102.0, -110825.02285540377, -150231.68477197704, -63442.230336931985, -132386.05199885988, 49395.94708632793, -78911.4703430498, 39170.94041954761, -118524.50591617894, 0.048, 0.964, 0.04, 192.0, 0.0, 0.0, 0.0, 0.0, 0.0, 0.0, 0.0, 0.0, 0.0, 1.6664036793698473E9, 0.0, 2022-10-21 18:54:39.369
103.0, -110836.913983454, -150244.98405992796, -63449.06997073531, -132391.88580416274, 49391.29792348122, -78909.3245755821, 39178.383550451224, -118537.8275558743, 0.048, 0.964, 0.04, 192.0, 0.0, 0.0, 0.0, 0.0, 0.0, 0.0, 0.0, 0.0, 0.0, 1.6664036793698611E9, 0.0, 2022-10-21 18:54:39.369
104.0, -110854.95184122943, -150258.39510660115, -63441.49272936496, -132387.03547561594, 49401.89265035304, -78911.53739828318, 39175.321361460854, -118525.64585514615, 0.048, 0.964, 0.04, 192.0, 0.0, 0.0, 0.0, 0.0, 0.0, 0.0, 0.0, 0.0, 0.0, 1.666403679369875E9, 0.0, 2022-10-21 18:54:39.369
105.0, -110859.89157675405, -150261.03261244687, -63430.83094725978, -132380.30760053487, 49407.100606811124, -78922.19918038836, 39157.03763449641, -118517.66628237562, 0.048, 0.964, 0.04, 192.0, 0.0, 0.0, 0.0, 0.0, 0.0, 0.0, 0.0, 0.0, 0.0, 1.6664036793698924E9, 0.0, 2022-10-21 18:54:39.369
106.0, -110875.85072229514, -150274.33190039778, -63440.419845631106, -132385.47085350406, 49391.49908918132, -78922.40034608846, 39155.02597749543, -118526.85284934675, 0.048, 0.964, 0.04, 192.0, 0.0, 0.0, 0.0, 0.0, 0.0, 0.0, 0.0, 0.0, 0.0, 1.666403679369906E9, 0.0, 2022-10-21 18:54:39.369
107.0, -110890.84874282464, -150290.5369151279, -63447.01361024543, -132390.27647856195, 49389.46508043588, -78913.50435179524, 39164.68193110012, -118530.2726662484, 0.048, 0.964, 0.04, 192.0, 0.0, 0.0, 0.0, 0.0, 0.0, 0.0, 0.0, 0.0, 0.0, 1.6664036793699195E9, 0.0, 2022-10-21 18:54:39.369
108.0, -110889.57469339069, -150288.480554638, -63439.54812759735, -132393.0927983633, 49398.74105438484, -78923.0261949332, 39148.65573032567, -118521.77900335539, 0.052000000000000005, 0.976, 0.034, 192.0, 1.0, 160.0, 30.0, 128.0, 1.0, 16.0, 0.0, 0.0, 0.0, 1.6664036793699331E9, 0.0, 2022-10-21 18:54:39.369
109.0, -110899.83414409569, -150296.41542391962, -63435.79303452886, -132390.65645821768, 49400.41743521899, -78934.5820468166, 39124.851122480766, -118515.40875618563, 0.052000000000000005, 0.976, 0.034, 192.0, 0.0, 0.0, 0.0, 0.0, 0.0, 0.0, 0.0, 0.0, 0.0, 1.6664036793699481E9, 0.0, 2022-10-21 18:54:39.369
110.0, -110907.09846104366, -150305.9819705465, -63433.04376996086, -132386.3425715378, 49402.1608712865, -78912.8785029505, 39140.74321278849, -118516.48163991948, 0.052000000000000005, 0.976, 0.034, 192.0, 0.0, 0.0, 0.0, 0.0, 0.0, 0.0, 0.0, 0.0, 0.0, 1.6664036793699615E9, 0.0, 2022-10-21 18:54:39.369
111.0, -110906.80788836574, -150301.981008289, -63433.04376996086, -132388.6448012167, 49403.07729280917, -78916.2312646188, 39147.18051519162, -118514.96172129652, 0.052000000000000005, 0.976, 0.034, 192.0, 0.0, 0.0, 0.0, 0.0, 0.0, 0.0, 0.0, 0.0, 0.0, 1.666403679369975E9, 0.0, 2022-10-21 18:54:39.369
112.0, -110897.19663824995, -150289.55343837183, -63428.3722553697, -132387.21428957157, 49410.878051624066, -78927.67535777991, 39132.27190163993, -118512.23480847297, 0.052000000000000005, 0.976, 0.034, 192.0, 0.0, 0.0, 0.0, 0.0, 0.0, 0.0, 0.0, 0.0, 0.0, 1.6664036793699884E9, 0.0, 2022-10-21 18:54:39.369
113.0, -110893.173324248, -150283.04908073533, -63423.54427856735, -132377.2454115445, 49419.50582498382, -78931.09517468157, 39114.725782242516, -118509.10556424923, 0.052000000000000005, 0.976, 0.034, 192.0, 0.0, 0.0, 0.0, 0.0, 0.0, 0.0, 0.0, 0.0, 0.0, 1.666403679370002E9, 0.0, 2022-10-21 18:54:39.370
114.0, -110910.71944364542, -150298.91881929862, -63429.69100829256, -132377.29011503342, 49414.47668248137, -78914.93486344039, 39128.896788227175, -118503.96466302451, 0.052000000000000005, 0.976, 0.034, 192.0, 0.0, 0.0, 0.0, 0.0, 0.0, 0.0, 0.0, 0.0, 0.0, 1.6664036793700547E9, 0.0, 2022-10-21 18:54:39.370
115.0, -110921.18006005051, -150310.11704327073, -63437.38000838519, -132388.28717330543, 49406.72062715538, -78915.98539542979, 39131.914273728646, -118507.36212818172, 0.052000000000000005, 0.976, 0.034, 192.0, 0.0, 0.0, 0.0, 0.0, 0.0, 0.0, 0.0, 0.0, 0.0, 1.6664036793700693E9, 0.0, 2022-10-21 18:54:39.370
116.0, -110916.933228604, -150299.81288907683, -63436.95532524054, -132391.997562885, 49406.742978899834, -78916.09715415206, 39125.58873004779, -118509.08321250477, 0.052000000000000005, 0.976, 0.034, 192.0, 0.0, 0.0, 0.0, 0.0, 0.0, 0.0, 0.0, 0.0, 0.0, 1.6664036793700836E9, 0.0, 2022-10-21 18:54:39.370
117.0, -110897.04017603878, -150276.29885390983, -63430.2721536484, -132385.29203954843, 49412.77794990277, -78940.01352071924, 39091.65878196464, -118508.41266017112, 0.052000000000000005, 0.976, 0.034, 192.0, 0.0, 0.0, 0.0, 0.0, 0.0, 0.0, 0.0, 0.0, 0.0, 1.6664036793700972E9, 0.0, 2022-10-21 18:54:39.370
118.0, -110894.6261876376, -150274.2648451644, -63432.26145890492, -132375.77019641045, 49409.98398184586, -78933.55386657166, 39094.855081421745, -118499.09198273325, 0.048, 0.974, 0.032, 192.0, 1.0, 128.0, 30.0, 112.0, 1.0, 0.0, 0.0, 0.0, 0.0, 1.6664036793701112E9, 0.0, 2022-10-21 18:54:39.370
119.0, -110894.84970508215, -150272.63316781918, -63441.17980494259, -132376.21723129955, 49407.0111998333, -78922.377994344, 39110.590709518285, -118510.89370380566, 0.048, 0.974, 0.032, 192.0, 0.0, 0.0, 0.0, 0.0, 0.0, 0.0, 0.0, 0.0, 0.0, 1.6664036793701255E9, 0.0, 2022-10-21 18:54:39.370
120.0, -110895.76612660482, -150270.15212418462, -63453.920299282116, -132394.5456617529, 49397.26583925079, -78944.95325624385, 39095.413875033126, -118519.2756079764, 0.048, 0.974, 0.032, 192.0, 0.0, 0.0, 0.0, 0.0, 0.0, 0.0, 0.0, 0.0, 0.0, 1.6664036793701396E9, 0.0, 2022-10-21 18:54:39.370
121.0, -110889.48528641288, -150263.5136560814, -63453.60737485974, -132394.3891995417, 49401.06563580819, -78966.29917219868, 39068.34591249775, -118515.76638409692, 0.048, 0.974, 0.032, 192.0, 0.0, 0.0, 0.0, 0.0, 0.0, 0.0, 0.0, 0.0, 0.0, 1.6664036793701532E9, 0.0, 2022-10-21 18:54:39.370
122.0, -110876.74479207335, -150248.49328380745, -63441.76095029843, -132383.25803080297, 49411.72741791337, -78950.6305993355, 39076.30313352384, -118507.51859039291, 0.048, 0.974, 0.032, 192.0, 0.0, 0.0, 0.0, 0.0, 0.0, 0.0, 0.0, 0.0, 0.0, 1.6664036793701673E9, 0.0, 2022-10-21 18:54:39.370
123.0, -110857.79051277525, -150226.87914691915, -63436.75415954044, -132373.6467806872, 49417.20359530492, -78925.14961065646, 39104.287517581884, -118505.79750606985, 0.048, 0.974, 0.032, 192.0, 0.0, 0.0, 0.0, 0.0, 0.0, 0.0, 0.0, 0.0, 0.0, 1.6664036793701808E9, 0.0, 2022-10-21 18:54:39.370
124.0, -110847.0169719478, -150216.12795783614, -63445.091360222264, -132391.81874892936, 49408.151138800524, -78929.21762814732, 39107.506168783446, -118518.24742773145, 0.048, 0.974, 0.032, 192.0, 0.0, 0.0, 0.0, 0.0, 0.0, 0.0, 0.0, 0.0, 0.0, 1.6664036793701947E9, 0.0, 2022-10-21 18:54:39.370
125.0, -110830.11905313958, -150201.8451931292, -63435.41305487312, -132386.45433026008, 49418.52234822779, -78951.41291039145, 39083.522746982904, -118521.53313416638, 0.048, 0.974, 0.032, 192.0, 0.0, 0.0, 0.0, 0.0, 0.0, 0.0, 0.0, 0.0, 0.0, 1.666403679370214E9, 0.0, 2022-10-21 18:54:39.370
126.0, -110817.28915182223, -150191.42928021305, -63430.763892026414, -132374.56320220986, 49422.29979304073, -78949.0883289681, 39086.85315690674, -118518.60505564274, 0.048, 0.974, 0.032, 192.0, 0.0, 0.0, 0.0, 0.0, 0.0, 0.0, 0.0, 0.0, 0.0, 1.6664036793702369E9, 0.0, 2022-10-21 18:54:39.370
127.0, -110801.46411674788, -150175.13485850513, -63425.377121612684, -132365.82367012784, 49422.8138831632, -78940.21468641933, 39106.76856121642, -118514.33587245177, 0.056, 0.978, 0.034, 192.0, 1.0, 192.0, 30.0, 144.0, 1.0, 16.0, 0.0, 0.0, 0.0, 1.6664036793702512E9, 0.0, 2022-10-21 18:54:39.370
128.0, -110793.12691606604, -150168.56344563526, -63432.21675541601, -132385.51555699296, 49414.74490341484, -78951.07763422461, 39102.27586058091, -118517.15219225314, 0.056, 0.978, 0.034, 192.0, 0.0, 0.0, 0.0, 0.0, 0.0, 0.0, 0.0, 0.0, 0.0, 1.6664036793702655E9, 0.0, 2022-10-21 18:54:39.370
129.0, -110781.23578801582, -150157.3875734076, -63433.93783973907, -132392.93633615214, 49418.25412729432, -78964.62279136453, 39085.31088653933, -118515.34170095227, 0.056, 0.978, 0.034, 192.0, 0.0, 0.0, 0.0, 0.0, 0.0, 0.0, 0.0, 0.0, 0.0, 1.666403679370294E9, 0.0, 2022-10-21 18:54:39.370
130.0, -110761.25332847278, -150140.9366894885, -63416.101147663736, -132378.60886795627, 49435.08499086917, -78965.20393672037, 39079.70059868105, -118501.05893624532, 0.056, 0.978, 0.034, 192.0, 0.0, 0.0, 0.0, 0.0, 0.0, 0.0, 0.0, 0.0, 0.0, 1.6664036793703082E9, 0.0, 2022-10-21 18:54:39.370
131.0, -110759.01815402725, -150139.43912261, -63417.84458373125, -132368.48352771802, 49436.09081936965, -78945.75791904425, 39101.627659991704, -118496.81210479881, 0.056, 0.978, 0.034, 192.0, 0.0, 0.0, 0.0, 0.0, 0.0, 0.0, 0.0, 0.0, 0.0, 1.6664036793703218E9, 0.0, 2022-10-21 18:54:39.370
132.0, -110756.04537201469, -150135.95225047498, -63426.74057802446, -132370.98692309702, 49434.995583891345, -78947.90368651196, 39109.74134322898, -118510.98311078348, 0.056, 0.978, 0.034, 192.0, 0.0, 0.0, 0.0, 0.0, 0.0, 0.0, 0.0, 0.0, 0.0, 1.6664036793703356E9, 0.0, 2022-10-21 18:54:39.370
133.0, -110748.66929634444, -150131.3254393727, -63438.184671185576, -132393.0927983633, 49427.59715647664, -78962.14174773, 39094.78802618838, -118516.45928817503, 0.056, 0.978, 0.034, 192.0, 0.0, 0.0, 0.0, 0.0, 0.0, 0.0, 0.0, 0.0, 0.0, 1.6664036793703487E9, 0.0, 2022-10-21 18:54:39.370
134.0, -110733.31364790365, -150113.5334507863, -63429.243973403456, -132390.20942332858, 49434.95088040244, -78983.73353287381, 39067.89887760865, -118510.96075903902, 0.056, 0.978, 0.034, 192.0, 0.0, 0.0, 0.0, 0.0, 0.0, 0.0, 0.0, 0.0, 0.0, 1.6664036793703623E9, 0.0, 2022-10-21 18:54:39.370
135.0, -110724.21648791034, -150107.47612803892, -63421.890249477656, -132370.47283297454, 49444.651537496036, -78965.78508207621, 39084.05918884983, -118496.58858735426, 0.056, 0.978, 0.034, 192.0, 0.0, 0.0, 0.0, 0.0, 0.0, 0.0, 0.0, 0.0, 0.0, 1.666403679370376E9, 0.0, 2022-10-21 18:54:39.370
136.0, -110721.46722334233, -150107.81140420574, -63425.06419719031, -132377.89361213372, 49442.43871479496, -78947.4790033673, 39109.27195659542, -118498.4661338885, 0.056, 0.978, 0.034, 192.0, 0.0, 0.0, 0.0, 0.0, 0.0, 0.0, 0.0, 0.0, 0.0, 1.6664036793703897E9, 0.0, 2022-10-21 18:54:39.370
137.0, -110712.30300811566, -150098.93776165697, -63418.98452269847, -132366.4495189726, 49458.10728765813, -78943.88037251, 39114.8822444537, -118488.81018028382, 0.062, 0.96, 0.048, 192.0, 1.0, 240.0, 30.0, 0.0, 1.0, 128.0, 0.0, 0.0, 0.0, 1.6664036793704033E9, 0.0, 2022-10-21 18:54:39.370
138.0, -110705.55278129016, -150094.22154357692, -63416.97286569749, -132369.35524575177, 49460.4765725704, -78954.7880238042, 39099.41483729063, -118488.3631453947, 0.062, 0.96, 0.048, 192.0, 0.0, 0.0, 0.0, 0.0, 0.0, 0.0, 0.0, 0.0, 0.0, 1.6664036793704183E9, 0.0, 2022-10-21 18:54:39.370
139.0, -110703.876400456, -150098.40131979005, -63425.46652859051, -132385.51555699296, 49448.96542417591, -78973.71995135784, 39088.01544761842, -118496.96856701, 0.062, 0.96, 0.048, 192.0, 0.0, 0.0, 0.0, 0.0, 0.0, 0.0, 0.0, 0.0, 0.0, 1.666403679370432E9, 0.0, 2022-10-21 18:54:39.370
140.0, -110706.49155455727, -150101.7317297139, -63421.08558667727, -132377.58068771134, 49456.49796205735, -78954.45274763736, 39109.76369497344, -118495.02396524239, 0.062, 0.96, 0.048, 192.0, 0.0, 0.0, 0.0, 0.0, 0.0, 0.0, 0.0, 0.0, 0.0, 1.6664036793704455E9, 0.0, 2022-10-21 18:54:39.370
141.0, -110699.4284033094, -150095.71911045542, -63418.828060487285, -132379.50293773448, 49463.49405807186, -78957.62669535002, 39104.443979793075, -118488.22903492798, 0.062, 0.96, 0.048, 192.0, 0.0, 0.0, 0.0, 0.0, 0.0, 0.0, 0.0, 0.0, 0.0, 1.6664036793704593E9, 0.0, 2022-10-21 18:54:39.370
142.0, -110691.89586542796, -150091.65109296454, -63420.07975817678, -132378.78768191193, 49465.1257354171, -78972.75882634627, 39081.220517304006, -118495.22513094249, 0.062, 0.96, 0.048, 192.0, 0.0, 0.0, 0.0, 0.0, 0.0, 0.0, 0.0, 0.0, 0.0, 1.666403679370473E9, 0.0, 2022-10-21 18:54:39.370
143.0, -110700.6801009989, -150105.86680243813, -63430.69683679305, -132382.92275463615, 49453.815752722716, -78968.71316059986, 39081.712255682025, -118506.46805840351, 0.062, 0.96, 0.048, 192.0, 0.0, 0.0, 0.0, 0.0, 0.0, 0.0, 0.0, 0.0, 0.0, 1.6664036793704865E9, 0.0, 2022-10-21 18:54:39.370
144.0, -110706.26803711272, -150115.36629383164, -63437.78233978538, -132388.22011807206, 49445.25503459633, -78962.14174773, 39100.19714834656, -118514.20176198504, 0.062, 0.96, 0.048, 192.0, 0.0, 0.0, 0.0, 0.0, 0.0, 0.0, 0.0, 0.0, 0.0, 1.6664036793705373E9, 0.0, 2022-10-21 18:54:39.370
145.0, -110691.06885088312, -150098.08839536767, -63426.874688491196, -132379.63704820123, 49459.671909770004, -78957.55964011665, 39111.484779296494, -118499.38255541117, 0.062, 0.96, 0.048, 192.0, 0.0, 0.0, 0.0, 0.0, 0.0, 0.0, 0.0, 0.0, 0.0, 1.666403679370551E9, 0.0, 2022-10-21 18:54:39.370
146.0, -110687.71608921482, -150092.7239766984, -63423.54427856735, -132372.32802776434, 49466.86917148461, -78967.95320128837, 39094.989191888475, -118490.6206715847, 0.062, 0.96, 0.048, 192.0, 0.0, 0.0, 0.0, 0.0, 0.0, 0.0, 0.0, 0.0, 0.0, 1.6664036793705647E9, 0.0, 2022-10-21 18:54:39.370
147.0, -110693.25932183974, -150098.60248549015, -63426.31589487981, -132369.91403936315, 49461.75062200435, -78960.73358782931, 39098.85604367925, -118495.85097978724, 0.06, 0.9460000000000001, 0.062, 192.0, 1.0, 224.0, 29.0, 144.0, 1.0, 240.0, 0.0, 0.0, 0.0, 1.6664036793705795E9, 0.0, 2022-10-21 18:54:39.370
148.0, -110693.68400498439, -150098.71424421243, -63426.919391980104, -132375.65843768817, 49459.2248748809, -78963.28168669721, 39111.10479964075, -118487.84905527224, 0.06, 0.9460000000000001, 0.062, 192.0, 0.0, 0.0, 0.0, 0.0, 0.0, 0.0, 0.0, 0.0, 0.0, 1.666403679370594E9, 0.0, 2022-10-21 18:54:39.370
149.0, -110692.9240456729, -150094.3333022992, -63419.096281420745, -132367.12007130624, 49465.95274996194, -78969.80839607817, 39112.7811804749, -118482.23876741396, 0.06, 0.9460000000000001, 0.062, 192.0, 0.0, 0.0, 0.0, 0.0, 0.0, 0.0, 0.0, 0.0, 0.0, 1.6664036793706076E9, 0.0, 2022-10-21 18:54:39.370
150.0, -110700.83656321009, -150104.70451172645, -63423.79014775636, -132373.49031847602, 49459.85072372565, -78983.93469857391, 39094.65391572165, -118491.98412799647, 0.06, 0.9460000000000001, 0.062, 192.0, 0.0, 0.0, 0.0, 0.0, 0.0, 0.0, 0.0, 0.0, 0.0, 1.6664036793706212E9, 0.0, 2022-10-21 18:54:39.370
151.0, -110708.92789470291, -150114.33811358668, -63438.542299096865, -132384.3979697702, 49447.19963636394, -78989.96966957685, 39084.17094757211, -118516.19106724157, 0.06, 0.9460000000000001, 0.062, 192.0, 0.0, 0.0, 0.0, 0.0, 0.0, 0.0, 0.0, 0.0, 0.0, 1.6664036793706348E9, 0.0, 2022-10-21 18:54:39.370
152.0, -110699.74132773177, -150105.03978789327, -63427.58994431376, -132367.0977195618, 49460.096592914655, -78967.95320128837, 39116.31275609884, -118498.64494784415, 0.06, 0.9460000000000001, 0.062, 192.0, 0.0, 0.0, 0.0, 0.0, 0.0, 0.0, 0.0, 0.0, 0.0, 1.6664036793706484E9, 0.0, 2022-10-21 18:54:39.370
153.0, -110698.1767056199, -150104.16806985953, -63419.34215060975, -132366.00248408347, 49465.14808716156, -78962.56643087465, 39130.21554115004, -118486.4185436271, 0.06, 0.9460000000000001, 0.062, 192.0, 0.0, 0.0, 0.0, 0.0, 0.0, 0.0, 0.0, 0.0, 0.0, 1.666403679370662E9, 0.0, 2022-10-21 18:54:39.370
154.0, -110709.62079878102, -150115.29923859827, -63429.53454608138, -132384.44267325912, 49455.31331960122, -78983.19709100689, 39110.434247307094, -118498.2649681884, 0.06, 0.9460000000000001, 0.062, 192.0, 0.0, 0.0, 0.0, 0.0, 0.0, 0.0, 0.0, 0.0, 0.0, 1.6664036793706756E9, 0.0, 2022-10-21 18:54:39.370
155.0, -110708.12323190251, -150114.22635486443, -63428.08168269178, -132379.99467611252, 49459.806020236734, -78986.72866663084, 39106.41093330514, -118492.98995649695, 0.06, 0.9460000000000001, 0.062, 192.0, 0.0, 0.0, 0.0, 0.0, 0.0, 0.0, 0.0, 0.0, 0.0, 1.6664036793706892E9, 0.0, 2022-10-21 18:54:39.370
156.0, -110701.7306329883, -150109.66659899554, -63418.69395002055, -132366.38246373922, 49465.99745345086, -78974.77048334724, 39128.24858763797, -118488.5196076059, 0.06, 0.9460000000000001, 0.062, 192.0, 0.0, 0.0, 0.0, 0.0, 0.0, 0.0, 0.0, 0.0, 0.0, 1.6664036793707027E9, 0.0, 2022-10-21 18:54:39.370
157.0, -110696.14269687448, -150102.84931693666, -63411.608447028215, -132359.0510915579, 49476.0780902002, -78968.42258792193, 39145.45943086856, -118478.66248830111, 0.058, 0.9400000000000001, 0.078, 192.0, 1.0, 208.0, 29.0, 96.0, 2.0, 112.0, 0.0, 0.0, 0.0, 1.666403679370716E9, 0.0, 2022-10-21 18:54:39.370
158.0, -110698.15435387545, -150104.57040125973, -63419.02922618738, -132365.8460218723, 49474.714633788426, -78983.17473926244, 39128.896788227175, -118478.4166191121, 0.058, 0.9400000000000001, 0.078, 192.0, 0.0, 0.0, 0.0, 0.0, 0.0, 0.0, 0.0, 0.0, 0.0, 1.6664036793707306E9, 0.0, 2022-10-21 18:54:39.370
159.0, -110699.58486552059, -150103.78809020377, -63416.726996508485, -132369.10937656276, 49475.11696518862, -78990.70727714387, 39118.07854391081, -118476.29320338884, 0.058, 0.9400000000000001, 0.078, 192.0, 0.0, 0.0, 0.0, 0.0, 0.0, 0.0, 0.0, 0.0, 0.0, 1.6664036793707757E9, 0.0, 2022-10-21 18:54:39.370
160.0, -110707.78795573568, -150115.679218254, -63424.14777566765, -132367.9470858511, 49467.96440696292, -78983.15238751798, 39132.00368070647, -118487.75964829442, 0.058, 0.9400000000000001, 0.078, 192.0, 0.0, 0.0, 0.0, 0.0, 0.0, 0.0, 0.0, 0.0, 0.0, 1.6664036793707905E9, 0.0, 2022-10-21 18:54:39.370
161.0, -110700.6801009989, -150109.46543329544, -63419.230391887475, -132356.90532409018, 49475.29577914427, -78967.86379431056, 39161.552686876385, -118484.18336918157, 0.058, 0.9400000000000001, 0.078, 192.0, 0.0, 0.0, 0.0, 0.0, 0.0, 0.0, 0.0, 0.0, 0.0, 1.666403679370804E9, 0.0, 2022-10-21 18:54:39.370
162.0, -110694.91335092943, -150103.87749718162, -63415.050615674336, -132355.0948327893, 49480.727253046905, -78969.18254723342, 39169.3981491802, -118474.52741557687, 0.058, 0.9400000000000001, 0.078, 192.0, 0.0, 0.0, 0.0, 0.0, 0.0, 0.0, 0.0, 0.0, 0.0, 1.6664036793708177E9, 0.0, 2022-10-21 18:54:39.370
163.0, -110702.93762718889, -150114.47222405343, -63424.1701274121, -132379.34647552329, 49468.56790406322, -78987.10864628656, 39151.13677396021, -118483.28929940336, 0.058, 0.9400000000000001, 0.078, 192.0, 0.0, 0.0, 0.0, 0.0, 0.0, 0.0, 0.0, 0.0, 0.0, 1.6664036793708313E9, 0.0, 2022-10-21 18:54:39.370
164.0, -110702.08826089959, -150112.84054670818, -63421.331455866275, -132375.72549292154, 49465.70688077294, -78984.82876835213, 39160.21158220906, -118488.74312505045, 0.058, 0.9400000000000001, 0.078, 192.0, 0.0, 0.0, 0.0, 0.0, 0.0, 0.0, 0.0, 0.0, 0.0, 1.6664036793708448E9, 0.0, 2022-10-21 18:54:39.370
165.0, -110703.40701382245, -150116.9756194324, -63423.18665065607, -132375.90430687717, 49459.29193011426, -78984.4934921853, 39177.198907995094, -118495.02396524239, 0.058, 0.9400000000000001, 0.078, 192.0, 0.0, 0.0, 0.0, 0.0, 0.0, 0.0, 0.0, 0.0, 0.0, 1.6664036793708584E9, 0.0, 2022-10-21 18:54:39.370
166.0, -110703.76464173372, -150120.5295468008, -63426.40530185763, -132384.5991354703, 49459.56015104773, -78996.31756500216, 39175.522527160945, -118496.87916003219, 0.05, 0.936, 0.094, 192.0, 1.0, 144.0, 29.0, 64.0, 2.0, 240.0, 0.0, 0.0, 0.0, 1.6664036793708718E9, 0.0, 2022-10-21 18:54:39.370
167.0, -110691.0241473942, -150109.91246818454, -63424.483051834475, -132381.69340869112, 49469.30551163024, -79009.9968326088, 39156.25532344048, -118504.79167756936, 0.05, 0.936, 0.094, 192.0, 0.0, 0.0, 0.0, 0.0, 0.0, 0.0, 0.0, 0.0, 0.0, 1.6664036793708863E9, 0.0, 2022-10-21 18:54:39.370
168.0, -110688.02901363719, -150111.11946238513, -63421.08558667727, -132372.30567601987, 49472.546514576265, -78997.07752431363, 39167.073567756845, -118493.7722675529, 0.05, 0.936, 0.094, 192.0, 0.0, 0.0, 0.0, 0.0, 0.0, 0.0, 0.0, 0.0, 0.0, 1.6664036793709E9, 0.0, 2022-10-21 18:54:39.370
169.0, -110694.22044685131, -150119.4790148114, -63428.394607114154, -132374.25027778748, 49462.331767360185, -78977.45269268188, 39200.53412920644, -118497.95204376604, 0.05, 0.936, 0.094, 192.0, 0.0, 0.0, 0.0, 0.0, 0.0, 0.0, 0.0, 0.0, 0.0, 1.6664036793709152E9, 0.0, 2022-10-21 18:54:39.370
170.0, -110690.9794439053, -150119.4343113225, -63425.89121173516, -132378.51946097845, 49461.37064234861, -78997.12222780255, 39192.152225035694, -118496.85680828773, 0.05, 0.936, 0.094, 192.0, 0.0, 0.0, 0.0, 0.0, 0.0, 0.0, 0.0, 0.0, 0.0, 1.6664036793709285E9, 0.0, 2022-10-21 18:54:39.370
171.0, -110687.53727525918, -150118.71905549994, -63428.08168269178, -132376.95483886657, 49463.65052028305, -79008.25339654129, 39173.913201560164, -118503.85290430224, 0.05, 0.936, 0.094, 192.0, 0.0, 0.0, 0.0, 0.0, 0.0, 0.0, 0.0, 0.0, 0.0, 1.6664036793709424E9, 0.0, 2022-10-21 18:54:39.370
172.0, -110682.50813275673, -150111.65590425205, -63419.90094422114, -132368.08119631783, 49467.20444765144, -79002.75486740528, 39176.863631828266, -118493.34758440824, 0.05, 0.936, 0.094, 192.0, 0.0, 0.0, 0.0, 0.0, 0.0, 0.0, 0.0, 0.0, 0.0, 1.666403679370956E9, 0.0, 2022-10-21 18:54:39.370
173.0, -110687.98431014828, -150117.75793048835, -63427.88051699168, -132377.33481852233, 49452.22877886639, -79004.25243428379, 39187.16778602216, -118506.31159619232, 0.05, 0.936, 0.094, 192.0, 0.0, 0.0, 0.0, 0.0, 0.0, 0.0, 0.0, 0.0, 0.0, 1.6664036793709695E9, 0.0, 2022-10-21 18:54:39.370
174.0, -110684.38567929098, -150113.39934031956, -63421.197345399545, -132376.57485921084, 49458.353156847144, -78993.81416962316, 39210.61476595578, -118501.23775020096, 0.05, 0.936, 0.094, 192.0, 0.0, 0.0, 0.0, 0.0, 0.0, 0.0, 0.0, 0.0, 0.0, 1.6664036793710246E9, 0.0, 2022-10-21 18:54:39.371
175.0, -110682.79870543466, -150112.99700891937, -63416.52583080839, -132378.34064702282, 49468.009110451836, -79009.66155644198, 39192.95688783609, -118494.0628402308, 0.05, 0.936, 0.094, 192.0, 0.0, 0.0, 0.0, 0.0, 0.0, 0.0, 0.0, 0.0, 0.0, 1.666403679371039E9, 0.0, 2022-10-21 18:54:39.371
176.0, -110682.50813275673, -150113.35463683066, -63412.50251680643, -132369.93639110762, 49473.731157032395, -78998.84331212561, 39196.37670473775, -118490.12893320668, 0.044, 0.9440000000000001, 0.106, 192.0, 1.0, 96.0, 29.0, 128.0, 3.0, 80.0, 0.0, 0.0, 0.0, 1.6664036793710523E9, 0.0, 2022-10-21 18:54:39.371
177.0, -110688.05136538165, -150120.2836776118, -63419.07392967629, -132375.59138245482, 49461.415345837515, -78991.75780913327, 39210.52535897796, -118507.473886904, 0.044, 0.9440000000000001, 0.106, 192.0, 0.0, 0.0, 0.0, 0.0, 0.0, 0.0, 0.0, 0.0, 0.0, 1.666403679371067E9, 0.0, 2022-10-21 18:54:39.371
178.0, -110690.51005727173, -150121.51302355685, -63423.67838903408, -132386.47668200455, 49453.21225562242, -79003.76069590577, 39217.677917203655, -118513.64296837366, 0.044, 0.9440000000000001, 0.106, 192.0, 0.0, 0.0, 0.0, 0.0, 0.0, 0.0, 0.0, 0.0, 0.0, 1.6664036793710809E9, 0.0, 2022-10-21 18:54:39.371
179.0, -110689.50422877124, -150123.61408753565, -63419.87859247668, -132393.3386675523, 49455.82740972369, -79017.3505565346, 39207.50787347649, -118501.39421241215, 0.044, 0.9440000000000001, 0.106, 192.0, 0.0, 0.0, 0.0, 0.0, 0.0, 0.0, 0.0, 0.0, 0.0, 1.6664036793710945E9, 0.0, 2022-10-21 18:54:39.371
180.0, -110688.61015899303, -150121.84829972367, -63416.14585115264, -132384.55443198138, 49460.02953768129, -79022.44675427041, 39197.56134719388, -118506.8256863148, 0.044, 0.9440000000000001, 0.106, 192.0, 0.0, 0.0, 0.0, 0.0, 0.0, 0.0, 0.0, 0.0, 0.0, 1.666403679371108E9, 0.0, 2022-10-21 18:54:39.371
181.0, -110694.6227782515, -150128.8890992271, -63422.538450066866, -132378.51946097845, 49460.0742411702, -79005.14650406201, 39222.640004472734, -118519.61088414323, 0.044, 0.9440000000000001, 0.106, 192.0, 0.0, 0.0, 0.0, 0.0, 0.0, 0.0, 0.0, 0.0, 0.0, 1.6664036793711216E9, 0.0, 2022-10-21 18:54:39.371
182.0, -110681.81522867862, -150115.50040429836, -63406.19932487003, -132365.0413590719, 49477.88858150108, -78987.0415910532, 39251.47375482008, -118505.19400896956, 0.044, 0.9440000000000001, 0.106, 192.0, 0.0, 0.0, 0.0, 0.0, 0.0, 0.0, 0.0, 0.0, 0.0, 1.6664036793711352E9, 0.0, 2022-10-21 18:54:39.371
183.0, -110683.87158916851, -150115.2321833649, -63405.57347602528, -132373.15504230917, 49479.92259024651, -78993.0989138006, 39247.9645309406, -118500.67895658959, 0.044, 0.9440000000000001, 0.106, 192.0, 0.0, 0.0, 0.0, 0.0, 0.0, 0.0, 0.0, 0.0, 0.0, 1.6664036793711488E9, 0.0, 2022-10-21 18:54:39.371
184.0, -110694.44396429586, -150127.54799455978, -63419.655075032126, -132391.5952314848, 49468.03146219629, -79015.40595476699, 39225.14339985173, -118511.29603520586, 0.044, 0.9440000000000001, 0.106, 192.0, 0.0, 0.0, 0.0, 0.0, 0.0, 0.0, 0.0, 0.0, 0.0, 1.6664036793711624E9, 0.0, 2022-10-21 18:54:39.371
185.0, -110684.69860371335, -150116.14860488757, -63410.64732201664, -132370.67399867464, 49474.93815123298, -79012.52257973225, 39236.72160347958, -118505.75280258094, 0.044, 0.9440000000000001, 0.106, 192.0, 0.0, 0.0, 0.0, 0.0, 0.0, 0.0, 0.0, 0.0, 0.0, 1.666403679371176E9, 0.0, 2022-10-21 18:54:39.371
186.0, -110692.90169392845, -150121.3342096012, -63419.18568839857, -132379.10060633428, 49464.76810750581, -79014.17660882194, 39248.56802804089, -118512.95006429554, 0.048, 0.9380000000000001, 0.112, 192.0, 1.0, 128.0, 29.0, 80.0, 3.0, 128.0, 0.0, 0.0, 0.0, 1.6664036793711896E9, 0.0, 2022-10-21 18:54:39.371
187.0, -110701.35065333256, -150132.1301021731, -63420.8173657438, -132399.753618211, 49458.80019173625, -79022.46910601486, 39246.80224022892, -118521.06374753283, 0.048, 0.9380000000000001, 0.112, 192.0, 0.0, 0.0, 0.0, 0.0, 0.0, 0.0, 0.0, 0.0, 0.0, 1.6664036793712041E9, 0.0, 2022-10-21 18:54:39.371
188.0, -110697.26028409724, -150128.50911957136, -63410.53556329436, -132393.7409989525, 49471.09365118667, -79022.8490856706, 39242.935388438156, -118508.18914272657, 0.048, 0.9380000000000001, 0.112, 192.0, 0.0, 0.0, 0.0, 0.0, 0.0, 0.0, 0.0, 0.0, 0.0, 1.6664036793712177E9, 0.0, 2022-10-21 18:54:39.371
189.0, -110692.96874916182, -150121.06598866775, -63406.378138825676, -132381.17931856864, 49474.75933727733, -79003.96186160587, 39258.358092112314, -118506.57981712578, 0.048, 0.9380000000000001, 0.112, 192.0, 0.0, 0.0, 0.0, 0.0, 0.0, 0.0, 0.0, 0.0, 0.0, 1.6664036793712447E9, 0.0, 2022-10-21 18:54:39.371
190.0, -110676.31669954261, -150100.90471516905, -63406.087566147755, -132379.32412377885, 49474.26759889932, -78990.81903586615, 39278.720531311104, -118511.36309043922, 0.048, 0.9380000000000001, 0.112, 192.0, 0.0, 0.0, 0.0, 0.0, 0.0, 0.0, 0.0, 0.0, 0.0, 1.6664036793712606E9, 0.0, 2022-10-21 18:54:39.371
191.0, -110677.38958327647, -150106.40324430505, -63405.6181795142, -132379.79351041242, 49476.391014622575, -79003.11249531657, 39271.85854576332, -118515.56521839682, 0.048, 0.9380000000000001, 0.112, 192.0, 0.0, 0.0, 0.0, 0.0, 0.0, 0.0, 0.0, 0.0, 0.0, 1.6664036793712747E9, 0.0, 2022-10-21 18:54:39.371
192.0, -110707.09505165757, -150143.32832614522, -63411.69785400604, -132388.0413041164, 49470.60191280865, -79023.51963800426, 39250.9149612087, -118519.43207018758, 0.048, 0.9380000000000001, 0.112, 192.0, 0.0, 0.0, 0.0, 0.0, 0.0, 0.0, 0.0, 0.0, 0.0, 1.666403679371288E9, 0.0, 2022-10-21 18:54:39.371
193.0, -110731.8384327696, -150164.6965938445, -63417.2187348865, -132387.1919378271, 49468.612607552124, -79008.18634130793, 39264.97420847109, -118518.62740738719, 0.048, 0.9380000000000001, 0.112, 192.0, 0.0, 0.0, 0.0, 0.0, 0.0, 0.0, 0.0, 0.0, 0.0, 1.6664036793713014E9, 0.0, 2022-10-21 18:54:39.371
194.0, -110738.72277006182, -150172.40794568157, -63414.08949066276, -132370.83046088583, 49476.32395938921, -78977.96678280435, 39306.97313630261, -118511.69836660606, 0.048, 0.9380000000000001, 0.112, 192.0, 0.0, 0.0, 0.0, 0.0, 0.0, 0.0, 0.0, 0.0, 0.0, 1.6664036793713148E9, 0.0, 2022-10-21 18:54:39.371
195.0, -110756.38064818153, -150195.83257387075, -63424.684217534574, -132383.43684475863, 49467.67383428501, -78991.02020156625, 39309.36477295933, -118516.86161957523, 0.05, 0.9400000000000001, 0.114, 192.0, 1.0, 144.0, 29.0, 96.0, 3.0, 144.0, 0.0, 0.0, 0.0, 1.6664036793713284E9, 0.0, 2022-10-21 18:54:39.371
196.0, -110767.93650006491, -150210.8529461447, -63423.924258223095, -132392.53400475194, 49471.27246514231, -79019.20575132439, 39278.720531311104, -118514.2241137295, 0.05, 0.9400000000000001, 0.114, 192.0, 0.0, 0.0, 0.0, 0.0, 0.0, 0.0, 0.0, 0.0, 0.0, 1.666403679371343E9, 0.0, 2022-10-21 18:54:39.371
197.0, -110782.55454093868, -150226.78973994133, -63429.28867689236, -132384.04034185893, 49475.07226169971, -79006.26409128477, 39285.291944180964, -118516.07930851929, 0.05, 0.9400000000000001, 0.114, 192.0, 0.0, 0.0, 0.0, 0.0, 0.0, 0.0, 0.0, 0.0, 0.0, 1.6664036793713565E9, 0.0, 2022-10-21 18:54:39.371
198.0, -110798.87131439106, -150247.17453088457, -63435.256592661935, -132389.42711227265, 49463.941092960966, -78994.64118416801, 39315.17622651771, -118525.8693725907, 0.05, 0.9400000000000001, 0.114, 192.0, 0.0, 0.0, 0.0, 0.0, 0.0, 0.0, 0.0, 0.0, 0.0, 1.66640367937137E9, 0.0, 2022-10-21 18:54:39.371
199.0, -110811.36593954157, -150260.02678394638, -63437.84939501875, -132403.1510833682, 49456.90029345755, -79015.36125127808, 39311.711706127135, -118535.79354712887, 0.05, 0.9400000000000001, 0.114, 192.0, 0.0, 0.0, 0.0, 0.0, 0.0, 0.0, 0.0, 0.0, 0.0, 1.6664036793713837E9, 0.0, 2022-10-21 18:54:39.371
200.0, -110815.07632912116, -150264.8547607487, -63442.14092995417, -132409.23075786006, 49454.35219458964, -79037.98121666686, 39290.79047331696, -118551.99856185897, 0.05, 0.9400000000000001, 0.114, 192.0, 0.0, 0.0, 0.0, 0.0, 0.0, 0.0, 0.0, 0.0, 0.0, 1.6664036793713973E9, 0.0, 2022-10-21 18:54:39.371
201.0, -110827.43684380494, -150282.31147316832, -63440.68806656457, -132401.58646125632, 49456.34149984617, -79038.71882423387, 39289.49407213856, -118539.41452973062, 0.05, 0.9400000000000001, 0.114, 192.0, 0.0, 0.0, 0.0, 0.0, 0.0, 0.0, 0.0, 0.0, 0.0, 1.6664036793714108E9, 0.0, 2022-10-21 18:54:39.371
202.0, -110834.18707063045, -150291.96742677302, -63435.41305487312, -132387.50486224948, 49462.42117433801, -79019.76454493578, 39319.42305796422, -118529.19978251455, 0.05, 0.9400000000000001, 0.114, 192.0, 0.0, 0.0, 0.0, 0.0, 0.0, 0.0, 0.0, 0.0, 0.0, 1.6664036793714244E9, 0.0, 2022-10-21 18:54:39.371
203.0, -110837.45042532092, -150295.36489193022, -63442.878537521196, -132399.7983216999, 49457.570845791204, -79021.50798100329, 39330.59893019187, -118542.09673906527, 0.05, 0.9400000000000001, 0.114, 192.0, 0.0, 0.0, 0.0, 0.0, 0.0, 0.0, 0.0, 0.0, 0.0, 1.666403679371438E9, 0.0, 2022-10-21 18:54:39.371
204.0, -110843.88772772405, -150303.25505772294, -63444.08553172178, -132403.21813860157, 49462.86820922711, -79043.23387661384, 39308.850682836855, -118546.72355016752, 0.05, 0.9400000000000001, 0.114, 192.0, 0.0, 0.0, 0.0, 0.0, 0.0, 0.0, 0.0, 0.0, 0.0, 1.6664036793714635E9, 0.0, 2022-10-21 18:54:39.371
0.0, 0.0, 0.0, 0.0, 0.0, 0.0, 0.0, 0.0, 0.0, 0.042, 0.9520000000000001, 0.07, 192.0, 1.0, 80.0, 29.0, 192.0, 2.0, 48.0, 0.0, 0.0, 0.0, 1.666403679937428E9, 0.0, 2022-10-21 18:54:39.937
1.0, -110947.0410283853, -150248.04624891834, -63504.882276640215, -132391.50582450698, 49628.42758040757, -79587.67766805622, 39503.19910087575, -118479.89183424614, 0.042, 0.9520000000000001, 0.07, 192.0, 0.0, 0.0, 0.0, 0.0, 0.0, 0.0, 0.0, 0.0, 0.0, 1.6664036799375389E9, 0.0, 2022-10-21 18:54:39.937
2.0, -110960.56383378075, -150266.44173460506, -63520.01440763646, -132395.30562106438, 49618.659868080606, -79589.06347621244, 39504.83077822099, -118496.96856701, 0.042, 0.9520000000000001, 0.07, 192.0, 0.0, 0.0, 0.0, 0.0, 0.0, 0.0, 0.0, 0.0, 0.0, 1.6664036799375708E9, 0.0, 2022-10-21 18:54:39.937
3.0, -110982.91557823606, -150276.50001960993, -63539.21455612357, -132419.3560980983, 49597.98450445945, -79601.96043276315, 39497.96879267321, -118512.50302940643, 0.042, 0.9520000000000001, 0.07, 192.0, 0.0, 0.0, 0.0, 0.0, 0.0, 0.0, 0.0, 0.0, 0.0, 1.66640367993761E9, 0.0, 2022-10-21 18:54:39.937
4.0, -110974.1983978985, -150275.3600806427, -63526.71993097305, -132423.73704001153, 49601.78430101684, -79611.95166253467, 39487.44112103476, -118496.09684897625, 0.042, 0.9520000000000001, 0.07, 192.0, 0.0, 0.0, 0.0, 0.0, 0.0, 0.0, 0.0, 0.0, 0.0, 1.666403679937637E9, 0.0, 2022-10-21 18:54:39.937
5.0, -110962.48608380392, -150271.20265617402, -63522.696616971094, -132421.59127254382, 49602.14192892813, -79599.27822342853, 39496.38181881688, -118493.7722675529, 0.042, 0.9520000000000001, 0.07, 192.0, 0.0, 0.0, 0.0, 0.0, 0.0, 0.0, 0.0, 0.0, 0.0, 1.66640367993766E9, 0.0, 2022-10-21 18:54:39.937
6.0, -110946.07990337371, -150238.8149784583, -63504.81522140685, -132397.8537199323, 49622.34790591573, -79580.61451680835, 39520.07466793951, -118476.40496211112, 0.042, 0.9520000000000001, 0.07, 192.0, 0.0, 0.0, 0.0, 0.0, 0.0, 0.0, 0.0, 0.0, 0.0, 1.66640367993769E9, 0.0, 2022-10-21 18:54:39.937
7.0, -111012.01754951687, -150267.3134526388, -63532.26316359796, -132404.98392641352, 49618.235184935955, -79584.70488604366, 39514.88906322588, -118487.17850293858, 0.042, 0.9520000000000001, 0.054, 192.0, 1.0, 80.0, 29.0, 192.0, 1.0, 176.0, 0.0, 0.0, 0.0, 1.666403679937713E9, 0.0, 2022-10-21 18:54:39.937
8.0, -111042.52768069836, -150302.3833396892, -63559.5993470668, -132424.27348187845, 49601.20315566101, -79602.1839502077, 39489.11750186891, -118505.30576769183, 0.042, 0.9520000000000001, 0.054, 192.0, 0.0, 0.0, 0.0, 0.0, 0.0, 0.0, 0.0, 0.0, 0.0, 1.6664036799377375E9, 0.0, 2022-10-21 18:54:39.937
9.0, -110896.99547254985, -150230.25426033192, -63498.71319517055, -132397.58549899884, 49628.5616908743, -79592.59505183638, 39499.44400780726, -118482.48463660297, 0.042, 0.9520000000000001, 0.054, 192.0, 0.0, 0.0, 0.0, 0.0, 0.0, 0.0, 0.0, 0.0, 0.0, 1.6664036799377625E9, 0.0, 2022-10-21 18:54:39.937
10.0, -110922.23059203991, -150243.93352793856, -63498.13204981471, -132395.52913850895, 49625.700667584024, -79593.39971463678, 39504.27198460961, -118478.75189527893, 0.042, 0.9520000000000001, 0.054, 192.0, 0.0, 0.0, 0.0, 0.0, 0.0, 0.0, 0.0, 0.0, 0.0, 1.666403679937785E9, 0.0, 2022-10-21 18:54:39.937
11.0, -110956.42876105652, -150259.5126938239, -63510.44786100958, -132409.67779274916, 49616.15647270161, -79572.21026089315, 39529.97649073321, -118487.53613084987, 0.042, 0.9520000000000001, 0.054, 192.0, 0.0, 0.0, 0.0, 0.0, 0.0, 0.0, 0.0, 0.0, 0.0, 1.6664036799378016E9, 0.0, 2022-10-21 18:54:39.937
12.0, -110970.39860134109, -150274.6671765646, -63524.23888733851, -132422.03830743293, 49612.66960056658, -79584.07903719891, 39518.644156294366, -118490.19598844004, 0.042, 0.9520000000000001, 0.054, 192.0, 0.0, 0.0, 0.0, 0.0, 0.0, 0.0, 0.0, 0.0, 0.0, 1.666403679937818E9, 0.0, 2022-10-21 18:54:39.937
13.0, -111015.63853211862, -150287.20650520403, -63540.15332939069, -132432.92360698266, 49597.20219340351, -79613.31511894646, 39483.99895238864, -118497.86263678821, 0.042, 0.9520000000000001, 0.054, 192.0, 0.0, 0.0, 0.0, 0.0, 0.0, 0.0, 0.0, 0.0, 0.0, 1.6664036799378343E9, 0.0, 2022-10-21 18:54:39.937
14.0, -110959.40154306908, -150261.88197873617, -63526.58582050632, -132409.32016483787, 49609.94268774303, -79602.45217114118, 39497.5217577841, -118477.61195631171, 0.042, 0.9520000000000001, 0.054, 192.0, 0.0, 0.0, 0.0, 0.0, 0.0, 0.0, 0.0, 0.0, 0.0, 1.6664036799378507E9, 0.0, 2022-10-21 18:54:39.937
15.0, -110950.48319703141, -150256.45050483354, -63517.26514306846, -132416.09274340782, 49607.86397550869, -79589.77873203502, 39516.833664993486, -118491.04535472934, 0.042, 0.9520000000000001, 0.054, 192.0, 0.0, 0.0, 0.0, 0.0, 0.0, 0.0, 0.0, 0.0, 0.0, 1.6664036799379332E9, 0.0, 2022-10-21 18:54:39.937
16.0, -110997.57832259874, -150301.31045595533, -63543.48373931453, -132436.11990643977, 49595.21288814698, -79604.37442116434, 39502.66265900882, -118496.96856701, 0.042, 0.9520000000000001, 0.054, 192.0, 0.0, 0.0, 0.0, 0.0, 0.0, 0.0, 0.0, 0.0, 0.0, 1.6664036799379492E9, 0.0, 2022-10-21 18:54:39.937
17.0, -110964.60949952717, -150260.205597902, -63537.0464369114, -132417.52325505298, 49612.557841844304, -79609.33650843341, 39490.10097862494, -118486.82087502729, 0.05, 0.96, 0.044, 192.0, 1.0, 144.0, 30.0, 0.0, 1.0, 96.0, 0.0, 0.0, 0.0, 1.6664036799379656E9, 0.0, 2022-10-21 18:54:39.937
18.0, -110949.90205167557, -150260.8090950023, -63514.62763722273, -132406.52619678096, 49616.558804101805, -79596.50660711607, 39508.18353988928, -118492.1182384632, 0.05, 0.96, 0.044, 192.0, 0.0, 0.0, 0.0, 0.0, 0.0, 0.0, 0.0, 0.0, 0.0, 1.6664036799379833E9, 0.0, 2022-10-21 18:54:39.937
19.0, -110969.54923505179, -150281.19388594557, -63524.462404783066, -132397.92077516566, 49617.117597713186, -79597.42302863873, 39517.25834813814, -118502.0200612569, 0.05, 0.96, 0.044, 192.0, 0.0, 0.0, 0.0, 0.0, 0.0, 0.0, 0.0, 0.0, 0.0, 1.6664036799379995E9, 0.0, 2022-10-21 18:54:39.937
20.0, -111014.23037221795, -150282.60204584623, -63559.01820171097, -132416.47272306358, 49605.092359196235, -79612.53280789051, 39500.94157468576, -118511.13957299467, 0.05, 0.96, 0.044, 192.0, 0.0, 0.0, 0.0, 0.0, 0.0, 0.0, 0.0, 0.0, 0.0, 1.6664036799380157E9, 0.0, 2022-10-21 18:54:39.938
21.0, -110968.25283387338, -150266.9111212386, -63537.98521017852, -132422.9994324445, 49611.14968194362, -79620.60178763888, 39485.67533322279, -118502.75766882392, 0.05, 0.96, 0.044, 192.0, 0.0, 0.0, 0.0, 0.0, 0.0, 0.0, 0.0, 0.0, 0.0, 1.6664036799380312E9, 0.0, 2022-10-21 18:54:39.938
22.0, -110964.25187161588, -150247.33099309576, -63496.969759103034, -132398.2560513325, 49630.34983043073, -79601.17812170723, 39500.8745194524, -118482.70815404752, 0.05, 0.96, 0.044, 192.0, 0.0, 0.0, 0.0, 0.0, 0.0, 0.0, 0.0, 0.0, 0.0, 1.6664036799380486E9, 0.0, 2022-10-21 18:54:39.938
23.0, -110985.73189803743, -150277.95288299953, -63518.226268080034, -132395.66324897567, 49620.895042526136, -79588.57173783443, 39524.41090636384, -118483.9151482481, 0.05, 0.96, 0.044, 192.0, 0.0, 0.0, 0.0, 0.0, 0.0, 0.0, 0.0, 0.0, 0.0, 1.6664036799380646E9, 0.0, 2022-10-21 18:54:39.938
24.0, -110979.27224388985, -150286.468897637, -63540.443902068604, -132403.1063798793, 49613.25074592242, -79601.64750834079, 39522.04162145157, -118484.63040407067, 0.05, 0.96, 0.044, 192.0, 0.0, 0.0, 0.0, 0.0, 0.0, 0.0, 0.0, 0.0, 0.0, 1.6664036799380808E9, 0.0, 2022-10-21 18:54:39.938
25.0, -110976.97001421095, -150282.4232318906, -63539.974515435046, -132403.5534147684, 49624.91835652809, -79617.85252307088, 39494.593679260455, -118478.50602608992, 0.05, 0.96, 0.044, 192.0, 0.0, 0.0, 0.0, 0.0, 0.0, 0.0, 0.0, 0.0, 0.0, 1.6664036799380968E9, 0.0, 2022-10-21 18:54:39.938
26.0, -110994.11380220817, -150290.93924652808, -63547.32823936084, -132414.0587346624, 49606.63462956365, -79622.09935451738, 39480.35561804243, -118500.03075600039, 0.05, 0.96, 0.044, 192.0, 0.0, 0.0, 0.0, 0.0, 0.0, 0.0, 0.0, 0.0, 0.0, 1.6664036799381132E9, 0.0, 2022-10-21 18:54:39.938
27.0, -110966.55410129478, -150266.79936251635, -63528.82099495185, -132405.83329270282, 49611.373199388174, -79595.67959257122, 39519.001784205655, -118490.64302332915, 0.046, 0.9580000000000001, 0.038, 192.0, 1.0, 112.0, 29.0, 240.0, 1.0, 48.0, 0.0, 0.0, 0.0, 1.6664036799381292E9, 0.0, 2022-10-21 18:54:39.938
28.0, -110984.3460898812, -150286.11126972572, -63534.74420723251, -132416.9644614416, 49612.89311801113, -79604.4861798866, 39520.99108946217, -118494.50987511991, 0.046, 0.9580000000000001, 0.038, 192.0, 0.0, 0.0, 0.0, 0.0, 0.0, 0.0, 0.0, 0.0, 0.0, 1.666403679938149E9, 0.0, 2022-10-21 18:54:39.938
29.0, -110988.65997656107, -150290.6263221057, -63542.23204162503, -132419.1102289093, 49613.3625046447, -79617.13726724831, 39496.80650196153, -118507.58564562627, 0.046, 0.9580000000000001, 0.038, 192.0, 0.0, 0.0, 0.0, 0.0, 0.0, 0.0, 0.0, 0.0, 0.0, 1.666403679938165E9, 0.0, 2022-10-21 18:54:39.938
30.0, -110989.24112191692, -150292.0344820064, -63542.47791081404, -132412.71762999508, 49613.898946511625, -79620.49002891661, 39486.01060938962, -118502.73531707947, 0.046, 0.9580000000000001, 0.038, 192.0, 0.0, 0.0, 0.0, 0.0, 0.0, 0.0, 0.0, 0.0, 0.0, 1.6664036799381974E9, 0.0, 2022-10-21 18:54:39.938
31.0, -110995.4996103644, -150299.5223163989, -63563.08621920183, -132429.19086565863, 49596.91162072559, -79624.62510164084, 39481.76377794311, -118502.51179963491, 0.046, 0.9580000000000001, 0.038, 192.0, 0.0, 0.0, 0.0, 0.0, 0.0, 0.0, 0.0, 0.0, 0.0, 1.6664036799382136E9, 0.0, 2022-10-21 18:54:39.938
32.0, -110963.58131928222, -150255.60113854424, -63519.56737274735, -132415.04221141842, 49624.42661815007, -79593.82439778143, 39523.047449952064, -118474.16978766558, 0.046, 0.9580000000000001, 0.038, 192.0, 0.0, 0.0, 0.0, 0.0, 0.0, 0.0, 0.0, 0.0, 0.0, 1.6664036799382305E9, 0.0, 2022-10-21 18:54:39.938
33.0, -110955.40058081158, -150244.98405992796, -63509.28557029791, -132407.8002462149, 49633.27790895438, -79606.1849124652, 39513.257385880635, -118459.0600084138, 0.046, 0.9580000000000001, 0.038, 192.0, 0.0, 0.0, 0.0, 0.0, 0.0, 0.0, 0.0, 0.0, 0.0, 1.6664036799382465E9, 0.0, 2022-10-21 18:54:39.938
34.0, -110991.14102019562, -150275.20361843152, -63533.0454746539, -132430.7107842816, 49605.04765570732, -79642.81942162746, 39472.59956271644, -118503.33881417976, 0.046, 0.9580000000000001, 0.038, 192.0, 0.0, 0.0, 0.0, 0.0, 0.0, 0.0, 0.0, 0.0, 0.0, 1.6664036799382625E9, 0.0, 2022-10-21 18:54:39.938
35.0, -111021.78526184383, -150300.10346175474, -63544.48956781502, -132429.6155488033, 49593.78237650185, -79633.18581976723, 39488.69281872426, -118506.75863108142, 0.046, 0.9580000000000001, 0.038, 192.0, 0.0, 0.0, 0.0, 0.0, 0.0, 0.0, 0.0, 0.0, 0.0, 1.666403679938278E9, 0.0, 2022-10-21 18:54:39.938
36.0, -110975.33833686571, -150275.5165428539, -63532.3972740647, -132418.19380738662, 49610.16620518759, -79607.36955492134, 39519.58292956149, -118495.04631698685, 0.046, 0.9580000000000001, 0.038, 192.0, 0.0, 0.0, 0.0, 0.0, 0.0, 0.0, 0.0, 0.0, 0.0, 1.666403679938294E9, 0.0, 2022-10-21 18:54:39.938
37.0, -110974.91365372106, -150274.2648451644, -63538.43224506763, -132421.97125219958, 49611.95434474401, -79619.32773820493, 39505.61308927692, -118494.0628402308, 0.052000000000000005, 0.96, 0.036000000000000004, 192.0, 1.0, 160.0, 30.0, 0.0, 1.0, 32.0, 0.0, 0.0, 0.0, 1.66640367993831E9, 0.0, 2022-10-21 18:54:39.938
38.0, -110974.42191534305, -150272.83433351928, -63538.67811425664, -132424.1617231562, 49610.6579435656, -79637.56676168046, 39481.20498433173, -118498.19791295505, 0.052000000000000005, 0.96, 0.036000000000000004, 192.0, 0.0, 0.0, 0.0, 0.0, 0.0, 0.0, 0.0, 0.0, 0.0, 1.6664036799383273E9, 0.0, 2022-10-21 18:54:39.938
39.0, -110977.72997352242, -150273.8178102753, -63535.86179445527, -132430.2190459036, 49601.180803916555, -79641.5453721935, 39479.282734308574, -118515.14053525217, 0.052000000000000005, 0.96, 0.036000000000000004, 192.0, 0.0, 0.0, 0.0, 0.0, 0.0, 0.0, 0.0, 0.0, 0.0, 1.6664036799383433E9, 0.0, 2022-10-21 18:54:39.938
40.0, -110980.56864506826, -150278.13169695518, -63543.5507945479, -132434.84585700583, 49596.33047536975, -79629.20720925418, 39500.98627817468, -118514.46998291851, 0.052000000000000005, 0.96, 0.036000000000000004, 192.0, 0.0, 0.0, 0.0, 0.0, 0.0, 0.0, 0.0, 0.0, 0.0, 1.6664036799383595E9, 0.0, 2022-10-21 18:54:39.938
41.0, -110959.93798493601, -150252.78481874286, -63530.40796880818, -132421.59127254382, 49618.10107446922, -79616.37730793683, 39518.06301093853, -118487.02204072739, 0.052000000000000005, 0.96, 0.036000000000000004, 192.0, 0.0, 0.0, 0.0, 0.0, 0.0, 0.0, 0.0, 0.0, 0.0, 1.6664036799383829E9, 0.0, 2022-10-21 18:54:39.938
42.0, -110953.09835113268, -150234.47874003396, -63524.35064606079, -132417.8138277309, 49623.64430709414, -79627.15084876429, 39502.32738284199, -118477.34373537824, 0.052000000000000005, 0.96, 0.036000000000000004, 192.0, 0.0, 0.0, 0.0, 0.0, 0.0, 0.0, 0.0, 0.0, 0.0, 1.6664036799383981E9, 0.0, 2022-10-21 18:54:39.938
43.0, -110962.19551112599, -150248.62739427417, -63520.21557333656, -132412.8070369729, 49622.61612684919, -79630.68242438823, 39495.152472871836, -118485.59152908224, 0.052000000000000005, 0.96, 0.036000000000000004, 192.0, 0.0, 0.0, 0.0, 0.0, 0.0, 0.0, 0.0, 0.0, 0.0, 1.6664036799384134E9, 0.0, 2022-10-21 18:54:39.938
44.0, -110967.51522630635, -150266.0170514604, -63530.05034089689, -132405.0509816469, 49621.29737392633, -79601.46869438514, 39523.20391216325, -118492.43116288558, 0.052000000000000005, 0.96, 0.036000000000000004, 192.0, 0.0, 0.0, 0.0, 0.0, 0.0, 0.0, 0.0, 0.0, 0.0, 1.6664036799384286E9, 0.0, 2022-10-21 18:54:39.938
45.0, -110970.17508389654, -150261.9043304806, -63534.36422757676, -132416.8079992304, 49615.03888547885, -79617.83017132642, 39516.36427835993, -118484.94332849304, 0.052000000000000005, 0.96, 0.036000000000000004, 192.0, 0.0, 0.0, 0.0, 0.0, 0.0, 0.0, 0.0, 0.0, 0.0, 1.6664036799384577E9, 0.0, 2022-10-21 18:54:39.938
46.0, -110954.79708371128, -150240.73722848145, -63526.272896083945, -132422.3512318553, 49617.69874306903, -79639.33254949244, 39492.40320830384, -118479.73537203496, 0.046, 0.964, 0.036000000000000004, 192.0, 1.0, 112.0, 30.0, 32.0, 1.0, 32.0, 0.0, 0.0, 0.0, 1.6664036799384727E9, 0.0, 2022-10-21 18:54:39.938
47.0, -110949.85734818666, -150239.79845521433, -63514.582933733815, -132408.53785378192, 49624.98541176145, -79628.06727028695, 39497.074722895, -118480.1153516907, 0.046, 0.964, 0.036000000000000004, 192.0, 0.0, 0.0, 0.0, 0.0, 0.0, 0.0, 0.0, 0.0, 0.0, 1.6664036799384892E9, 0.0, 2022-10-21 18:54:39.938
48.0, -110962.62019427064, -150264.09480143726, -63524.97649490553, -132406.83912120332, 49620.55976635931, -79612.1975317237, 39512.273909124604, -118495.40394489813, 0.046, 0.964, 0.036000000000000004, 192.0, 0.0, 0.0, 0.0, 0.0, 0.0, 0.0, 0.0, 0.0, 0.0, 1.6664036799385045E9, 0.0, 2022-10-21 18:54:39.938
49.0, -110961.12262739213, -150255.93641471106, -63529.60330600778, -132416.8079992304, 49615.016533734386, -79623.35105220688, 39507.602394533445, -118507.36212818172, 0.046, 0.964, 0.036000000000000004, 192.0, 0.0, 0.0, 0.0, 0.0, 0.0, 0.0, 0.0, 0.0, 0.0, 1.6664036799385211E9, 0.0, 2022-10-21 18:54:39.938
50.0, -110946.99632489638, -150242.19009187105, -63523.85890768277, -132422.39593534422, 49618.659868080606, -79649.14496530831, 39485.20594658923, -118493.68286057508, 0.046, 0.964, 0.036000000000000004, 192.0, 0.0, 0.0, 0.0, 0.0, 0.0, 0.0, 0.0, 0.0, 0.0, 1.6664036799385371E9, 0.0, 2022-10-21 18:54:39.938
51.0, -110945.87873767361, -150239.39612381413, -63519.38855879171, -132414.57282478487, 49619.285716925355, -79650.84369788691, 39484.40128378884, -118495.24748268694, 0.046, 0.964, 0.036000000000000004, 192.0, 0.0, 0.0, 0.0, 0.0, 0.0, 0.0, 0.0, 0.0, 0.0, 1.6664036799385524E9, 0.0, 2022-10-21 18:54:39.938
52.0, -110962.66489775955, -150258.4174583456, -63533.29134384291, -132410.63891776072, 49611.77553078837, -79631.77765986654, 39504.20492937624, -118502.28828219036, 0.046, 0.964, 0.036000000000000004, 192.0, 0.0, 0.0, 0.0, 0.0, 0.0, 0.0, 0.0, 0.0, 0.0, 1.6664036799385676E9, 0.0, 2022-10-21 18:54:39.938
53.0, -110948.20331909697, -150240.5137110369, -63515.991093634504, -132402.03349614545, 49625.32068792829, -79612.15282823477, 39529.909435499845, -118487.5137791054, 0.046, 0.964, 0.036000000000000004, 192.0, 0.0, 0.0, 0.0, 0.0, 0.0, 0.0, 0.0, 0.0, 0.0, 1.666403679938583E9, 0.0, 2022-10-21 18:54:39.938
54.0, -110958.50747329087, -150256.89753972265, -63518.89682041369, -132416.9644614416, 49619.01749599189, -79629.14015402082, 39511.46924632422, -118487.73729654995, 0.046, 0.964, 0.036000000000000004, 192.0, 0.0, 0.0, 0.0, 0.0, 0.0, 0.0, 0.0, 0.0, 0.0, 1.6664036799385984E9, 0.0, 2022-10-21 18:54:39.938
55.0, -110950.10321737567, -150246.32516459527, -63523.45657628257, -132417.72442075307, 49616.46939712398, -79642.68531116072, 39494.660734493824, -118485.1668459376, 0.046, 0.964, 0.036000000000000004, 192.0, 0.0, 0.0, 0.0, 0.0, 0.0, 0.0, 0.0, 0.0, 0.0, 1.6664036799386137E9, 0.0, 2022-10-21 18:54:39.938
56.0, -110966.62115652814, -150261.6584612916, -63530.13974787471, -132414.7516387405, 49609.71917029848, -79648.0050263411, 39494.21369960472, -118495.40394489813, 0.044, 0.962, 0.036000000000000004, 192.0, 1.0, 96.0, 30.0, 16.0, 1.0, 32.0, 0.0, 0.0, 0.0, 1.6664036799386313E9, 0.0, 2022-10-21 18:54:39.938
57.0, -110973.34903160919, -150270.3085863958, -63534.520689787954, -132412.6505747617, 49611.507309854904, -79632.00117731109, 39516.23016789319, -118492.60997684121, 0.044, 0.962, 0.036000000000000004, 192.0, 0.0, 0.0, 0.0, 0.0, 0.0, 0.0, 0.0, 0.0, 0.0, 1.6664036799386482E9, 0.0, 2022-10-21 18:54:39.938
58.0, -110966.37528733913, -150263.53600782587, -63535.25829735498, -132427.02274644646, 49613.25074592242, -79642.68531116072, 39501.522720041605, -118501.21539845651, 0.044, 0.962, 0.036000000000000004, 192.0, 0.0, 0.0, 0.0, 0.0, 0.0, 0.0, 0.0, 0.0, 0.0, 1.666403679938664E9, 0.0, 2022-10-21 18:54:39.938
59.0, -110957.85927270167, -150257.27751937837, -63521.579029748325, -132426.39689760172, 49616.849376779726, -79647.55799145198, 39493.65490599333, -118499.76253506691, 0.044, 0.962, 0.036000000000000004, 192.0, 0.0, 0.0, 0.0, 0.0, 0.0, 0.0, 0.0, 0.0, 0.0, 1.6664036799386792E9, 0.0, 2022-10-21 18:54:39.938
60.0, -110952.58426101021, -150254.2600338769, -63523.411872793666, -132421.83714173283, 49613.20604243351, -79651.98363685413, 39497.454702550735, -118501.39421241215, 0.044, 0.962, 0.036000000000000004, 192.0, 0.0, 0.0, 0.0, 0.0, 0.0, 0.0, 0.0, 0.0, 0.0, 1.6664036799387093E9, 0.0, 2022-10-21 18:54:39.938
61.0, -110962.79900822628, -150262.15019966965, -63537.98521017852, -132428.02857494695, 49606.25464990791, -79652.54243046552, 39499.980449674185, -118507.20566597053, 0.044, 0.962, 0.036000000000000004, 192.0, 0.0, 0.0, 0.0, 0.0, 0.0, 0.0, 0.0, 0.0, 0.0, 1.6664036799387248E9, 0.0, 2022-10-21 18:54:39.938
62.0, -110966.77761873933, -150267.20169391652, -63534.96772467706, -132424.3628888563, 49619.66569658109, -79645.79220364001, 39495.577156016494, -118494.57693035329, 0.044, 0.962, 0.036000000000000004, 192.0, 0.0, 0.0, 0.0, 0.0, 0.0, 0.0, 0.0, 0.0, 0.0, 1.6664036799387405E9, 0.0, 2022-10-21 18:54:39.938
63.0, -110954.03712439981, -150252.71776350948, -63528.441015296106, -132417.59031028632, 49626.2147577065, -79648.11678506336, 39483.52956575508, -118499.40490715564, 0.044, 0.962, 0.036000000000000004, 192.0, 0.0, 0.0, 0.0, 0.0, 0.0, 0.0, 0.0, 0.0, 0.0, 1.6664036799387555E9, 0.0, 2022-10-21 18:54:39.938
64.0, -110958.26160410186, -150256.33874611126, -63527.61400075126, -132413.43288581763, 49624.78424606136, -79639.62312217035, 39493.744312971154, -118488.98899423945, 0.044, 0.962, 0.036000000000000004, 192.0, 0.0, 0.0, 0.0, 0.0, 0.0, 0.0, 0.0, 0.0, 0.0, 1.6664036799387708E9, 0.0, 2022-10-21 18:54:39.938
65.0, -110952.20428135447, -150247.10747565122, -63521.444919281596, -132410.32599333837, 49624.98541176145, -79630.57066566595, 39514.21851089221, -118485.12214244869, 0.044, 0.962, 0.036000000000000004, 192.0, 0.0, 0.0, 0.0, 0.0, 0.0, 0.0, 0.0, 0.0, 0.0, 1.6664036799387867E9, 0.0, 2022-10-21 18:54:39.938
66.0, -110962.26256635935, -150259.42328684608, -63535.41475956616, -132427.64859529122, 49612.58019358876, -79652.98946535462, 39493.610202504424, -118502.6682618461, 0.046, 0.962, 0.036000000000000004, 192.0, 1.0, 112.0, 30.0, 16.0, 1.0, 32.0, 0.0, 0.0, 0.0, 1.666403679938802E9, 0.0, 2022-10-21 18:54:39.938
67.0, -110964.27422336033, -150254.81882748829, -63538.14167238971, -132428.58736855834, 49617.028190735364, -79668.41216902879, 39468.19626905874, -118503.6740903466, 0.046, 0.962, 0.036000000000000004, 192.0, 0.0, 0.0, 0.0, 0.0, 0.0, 0.0, 0.0, 0.0, 0.0, 1.6664036799388185E9, 0.0, 2022-10-21 18:54:39.938
68.0, -110967.62698502863, -150259.3115281238, -63543.93077420363, -132423.267653378, 49612.13315869965, -79656.23046830064, 39474.9688476287, -118516.07930851929, 0.046, 0.962, 0.036000000000000004, 192.0, 0.0, 0.0, 0.0, 0.0, 0.0, 0.0, 0.0, 0.0, 0.0, 1.666403679938834E9, 0.0, 2022-10-21 18:54:39.938
69.0, -110973.93017696503, -150270.12977244018, -63551.19509115161, -132430.6660807927, 49599.213850404485, -79653.48120373263, 39496.694743239255, -118522.85188708924, 0.046, 0.962, 0.036000000000000004, 192.0, 0.0, 0.0, 0.0, 0.0, 0.0, 0.0, 0.0, 0.0, 0.0, 1.66640367993885E9, 0.0, 2022-10-21 18:54:39.938
70.0, -110970.86798797465, -150260.58557755777, -63554.34668711981, -132434.33176688335, 49609.24978366492, -79659.29265729102, 39499.15343512934, -118510.11139274972, 0.046, 0.962, 0.036000000000000004, 192.0, 0.0, 0.0, 0.0, 0.0, 0.0, 0.0, 0.0, 0.0, 0.0, 1.6664036799388669E9, 0.0, 2022-10-21 18:54:39.938
71.0, -110956.04878140078, -150247.59921402924, -63547.305887616385, -132430.5543220704, 49617.318763413285, -79670.64734347431, 39475.12530983988, -118500.67895658959, 0.046, 0.962, 0.036000000000000004, 192.0, 0.0, 0.0, 0.0, 0.0, 0.0, 0.0, 0.0, 0.0, 0.0, 1.666403679938882E9, 0.0, 2022-10-21 18:54:39.938
72.0, -110961.30144134778, -150259.49034207946, -63553.743190019515, -132432.09659243783, 49608.020437719875, -79672.56959349746, 39467.883344636364, -118509.21732297151, 0.046, 0.962, 0.036000000000000004, 192.0, 0.0, 0.0, 0.0, 0.0, 0.0, 0.0, 0.0, 0.0, 0.0, 1.6664036799388976E9, 0.0, 2022-10-21 18:54:39.938
73.0, -110981.52977007983, -150269.74979278445, -63547.64116378321, -132423.759391756, 49614.0107052339, -79656.38693051183, 39484.49069076666, -118510.71488985002, 0.046, 0.962, 0.036000000000000004, 192.0, 0.0, 0.0, 0.0, 0.0, 0.0, 0.0, 0.0, 0.0, 0.0, 1.6664036799389143E9, 0.0, 2022-10-21 18:54:39.938
74.0, -110989.79991552829, -150271.85085676322, -63565.29904190291, -132432.87890349375, 49602.94659172852, -79644.87578211735, 39503.422618320306, -118516.90632306413, 0.046, 0.962, 0.036000000000000004, 192.0, 0.0, 0.0, 0.0, 0.0, 0.0, 0.0, 0.0, 0.0, 0.0, 1.6664036799389305E9, 0.0, 2022-10-21 18:54:39.938
75.0, -110990.38106088413, -150269.39216487316, -63578.33010892035, -132450.38031940226, 49591.0554636783, -79667.69691320621, 39481.584963987465, -118515.92284630811, 0.056, 0.9580000000000001, 0.026000000000000002, 192.0, 1.0, 192.0, 29.0, 240.0, 0.0, 208.0, 0.0, 0.0, 0.0, 1.6664036799389603E9, 0.0, 2022-10-21 18:54:39.938
76.0, -110973.25962463136, -150258.84214149026, -63541.96382069157, -132430.19669415912, 49614.77066454538, -79670.89321266333, 39473.80655691702, -118489.19015993955, 0.056, 0.9580000000000001, 0.026000000000000002, 192.0, 0.0, 0.0, 0.0, 0.0, 0.0, 0.0, 0.0, 0.0, 0.0, 1.6664036799389772E9, 0.0, 2022-10-21 18:54:39.938
77.0, -110969.97391819644, -150253.90240596564, -63537.67228575615, -132417.14327539722, 49618.70457156951, -79647.04390132951, 39499.19813861825, -118487.13379944967, 0.056, 0.9580000000000001, 0.026000000000000002, 192.0, 0.0, 0.0, 0.0, 0.0, 0.0, 0.0, 0.0, 0.0, 0.0, 1.6664036799389927E9, 0.0, 2022-10-21 18:54:39.938
78.0, -110978.69109853401, -150266.68760379407, -63555.73249527604, -132429.6602522922, 49611.507309854904, -79656.63279970083, 39495.845376949954, -118506.75863108142, 0.056, 0.9580000000000001, 0.026000000000000002, 192.0, 0.0, 0.0, 0.0, 0.0, 0.0, 0.0, 0.0, 0.0, 0.0, 1.6664036799390085E9, 0.0, 2022-10-21 18:54:39.939
79.0, -110979.96514796796, -150268.78866777287, -63570.462294872086, -132436.45518260662, 49611.328495899266, -79672.59194524193, 39474.1641848283, -118518.13566900918, 0.056, 0.9580000000000001, 0.026000000000000002, 192.0, 0.0, 0.0, 0.0, 0.0, 0.0, 0.0, 0.0, 0.0, 0.0, 1.6664036799390252E9, 0.0, 2022-10-21 18:54:39.939
80.0, -110985.32956663723, -150263.9159874816, -63554.59255630882, -132424.58640630083, 49622.25849893791, -79668.5015760066, 39469.33620802596, -118502.44474440155, 0.056, 0.9580000000000001, 0.026000000000000002, 192.0, 0.0, 0.0, 0.0, 0.0, 0.0, 0.0, 0.0, 0.0, 0.0, 1.6664036799390416E9, 0.0, 2022-10-21 18:54:39.939
81.0, -110970.53271180783, -150255.5117315664, -63538.58870727882, -132413.008202673, 49628.82991180777, -79644.83107862844, 39497.20883336173, -118491.38063089618, 0.056, 0.9580000000000001, 0.026000000000000002, 192.0, 0.0, 0.0, 0.0, 0.0, 0.0, 0.0, 0.0, 0.0, 0.0, 1.6664036799390578E9, 0.0, 2022-10-21 18:54:39.939
82.0, -110960.80970296977, -150247.08512390676, -63523.255410582475, -132404.3580775688, 49638.66467936811, -79631.80001161099, 39515.40315334835, -118484.45159011503, 0.056, 0.9580000000000001, 0.026000000000000002, 192.0, 0.0, 0.0, 0.0, 0.0, 0.0, 0.0, 0.0, 0.0, 0.0, 1.666403679939073E9, 0.0, 2022-10-21 18:54:39.939
83.0, -110973.77371475384, -150255.98111819997, -63532.73255023153, -132421.8594934773, 49631.73563858696, -79632.31410173347, 39510.753990501646, -118488.58666283927, 0.056, 0.9580000000000001, 0.026000000000000002, 192.0, 0.0, 0.0, 0.0, 0.0, 0.0, 0.0, 0.0, 0.0, 0.0, 1.666403679939089E9, 0.0, 2022-10-21 18:54:39.939
84.0, -110983.94375848101, -150267.4252113611, -63544.08723641482, -132432.94595872713, 49620.29154542584, -79649.7484624086, 39492.00087690364, -118496.1192007207, 0.056, 0.9580000000000001, 0.026000000000000002, 192.0, 0.0, 0.0, 0.0, 0.0, 0.0, 0.0, 0.0, 0.0, 0.0, 1.6664036799391043E9, 0.0, 2022-10-21 18:54:39.939
85.0, -110967.44817107299, -150245.90048145063, -63520.90847741467, -132407.62143225927, 49634.037868265856, -79652.31891302096, 39496.8735571949, -118480.54003483536, 0.054, 0.962, 0.028, 192.0, 1.0, 176.0, 30.0, 16.0, 0.0, 224.0, 0.0, 0.0, 0.0, 1.6664036799391196E9, 0.0, 2022-10-21 18:54:39.939
86.0, -110962.57549078173, -150243.97823142746, -63511.61015172126, -132398.12194086576, 49645.10198177123, -79634.70573839018, 39521.54988307356, -118472.00166845342, 0.054, 0.962, 0.028, 192.0, 0.0, 0.0, 0.0, 0.0, 0.0, 0.0, 0.0, 0.0, 0.0, 1.6664036799391356E9, 0.0, 2022-10-21 18:54:39.939
87.0, -110987.22946491593, -150267.78283927237, -63528.8433466963, -132416.5621300414, 49634.373144432684, -79637.7008721472, 39518.17476966081, -118479.95888947952, 0.054, 0.962, 0.028, 192.0, 0.0, 0.0, 0.0, 0.0, 0.0, 0.0, 0.0, 0.0, 0.0, 1.666403679939151E9, 0.0, 2022-10-21 18:54:39.939
88.0, -110976.67944153304, -150258.57392055678, -63523.94831466059, -132417.34444109732, 49636.608318878214, -79644.8981338618, 39508.96585094522, -118478.70719179002, 0.054, 0.962, 0.028, 192.0, 0.0, 0.0, 0.0, 0.0, 0.0, 0.0, 0.0, 0.0, 0.0, 1.6664036799391663E9, 0.0, 2022-10-21 18:54:39.939
89.0, -110972.92434846454, -150258.9091967236, -63521.0425878814, -132405.5427200249, 49640.83279858027, -79638.63964541431, 39514.933766714785, -118479.89183424614, 0.054, 0.962, 0.028, 192.0, 0.0, 0.0, 0.0, 0.0, 0.0, 0.0, 0.0, 0.0, 0.0, 1.6664036799391816E9, 0.0, 2022-10-21 18:54:39.939
90.0, -110972.96905195345, -150254.32708911027, -63519.45561402507, -132395.238565831, 49650.600510907236, -79598.56296760595, 39555.03279626761, -118471.08524693076, 0.054, 0.962, 0.028, 192.0, 0.0, 0.0, 0.0, 0.0, 0.0, 0.0, 0.0, 0.0, 0.0, 1.666403679939212E9, 0.0, 2022-10-21 18:54:39.939
91.0, -110971.35972635266, -150250.4155338306, -63523.680093727125, -132412.27059510598, 49641.369240447195, -79604.8885112868, 39556.06097651255, -118471.57698530877, 0.054, 0.962, 0.028, 192.0, 0.0, 0.0, 0.0, 0.0, 0.0, 0.0, 0.0, 0.0, 0.0, 1.6664036799392273E9, 0.0, 2022-10-21 18:54:39.939
92.0, -110964.40833382707, -150244.64878376113, -63510.62667496523, -132406.86147294778, 49652.61216790821, -79632.87289534484, 39524.54501683057, -118461.29518285934, 0.054, 0.962, 0.028, 192.0, 0.0, 0.0, 0.0, 0.0, 0.0, 0.0, 0.0, 0.0, 0.0, 1.666403679939244E9, 0.0, 2022-10-21 18:54:39.939
93.0, -110977.7970287558, -150262.97721421448, -63517.66747446865, -132398.68073447715, 49648.03006029488, -79618.63483412682, 39532.61399657893, -118474.10273243222, 0.054, 0.962, 0.028, 192.0, 0.0, 0.0, 0.0, 0.0, 0.0, 0.0, 0.0, 0.0, 0.0, 1.6664036799392595E9, 0.0, 2022-10-21 18:54:39.939
94.0, -110985.97776722643, -150269.70508929552, -63524.6412187387, -132404.38042931326, 49636.85418806722, -79622.32287196194, 39542.24759843917, -118480.62944181317, 0.054, 0.962, 0.028, 192.0, 0.0, 0.0, 0.0, 0.0, 0.0, 0.0, 0.0, 0.0, 0.0, 1.6664036799392748E9, 0.0, 2022-10-21 18:54:39.939
95.0, -110965.41416232755, -150245.05111516133, -63503.58587546181, -132394.0986268638, 49655.9202260876, -79627.95551156468, 39542.22524669472, -118459.01530492489, 0.046, 0.964, 0.028, 192.0, 1.0, 112.0, 30.0, 32.0, 0.0, 224.0, 0.0, 0.0, 0.0, 1.66640367993929E9, 0.0, 2022-10-21 18:54:39.939
96.0, -110959.31213609126, -150240.58076627026, -63505.642235951695, -132392.93633615214, 49660.74820288995, -79630.25774124358, 39525.416734864324, -118461.07166541478, 0.046, 0.964, 0.028, 192.0, 0.0, 0.0, 0.0, 0.0, 0.0, 0.0, 0.0, 0.0, 0.0, 1.6664036799393065E9, 0.0, 2022-10-21 18:54:39.939
97.0, -110965.436514072, -150250.99667918644, -63511.23017206552, -132394.23273733055, 49656.903702843636, -79618.94775854918, 39533.01632797913, -118463.35154334921, 0.046, 0.964, 0.028, 192.0, 0.0, 0.0, 0.0, 0.0, 0.0, 0.0, 0.0, 0.0, 0.0, 1.6664036799393227E9, 0.0, 2022-10-21 18:54:39.939
98.0, -110982.93792998052, -150274.93539749808, -63536.21942236656, -132406.07916189186, 49637.61414737871, -79614.18683698021, 39546.1368019744, -118487.87140701669, 0.046, 0.964, 0.028, 192.0, 0.0, 0.0, 0.0, 0.0, 0.0, 0.0, 0.0, 0.0, 0.0, 1.666403679939338E9, 0.0, 2022-10-21 18:54:39.939
99.0, -110978.82520900074, -150271.5602840853, -63528.97745716303, -132407.2414526035, 49646.57719690528, -79623.14988650678, 39551.94825553278, -118478.90835749012, 0.046, 0.964, 0.028, 192.0, 0.0, 0.0, 0.0, 0.0, 0.0, 0.0, 0.0, 0.0, 0.0, 1.6664036799393535E9, 0.0, 2022-10-21 18:54:39.939
100.0, -110988.10118294969, -150284.8819237807, -63538.499300300995, -132409.8119032159, 49646.97952830548, -79641.76888963806, 39525.79671452007, -118477.88017724517, 0.046, 0.964, 0.028, 192.0, 0.0, 0.0, 0.0, 0.0, 0.0, 0.0, 0.0, 0.0, 0.0, 1.6664036799393687E9, 0.0, 2022-10-21 18:54:39.939
101.0, -110971.80676124178, -150261.7702200139, -63538.05226541189, -132410.1471793827, 49640.944557302544, -79646.1498315513, 39518.19712140526, -118476.74023827795, 0.046, 0.964, 0.028, 192.0, 0.0, 0.0, 0.0, 0.0, 0.0, 0.0, 0.0, 0.0, 0.0, 1.6664036799393845E9, 0.0, 2022-10-21 18:54:39.939
102.0, -110972.70083101999, -150260.25030139094, -63522.9424861601, -132397.11611236527, 49645.52666491588, -79627.21790399765, 39540.951197260765, -118471.77815100887, 0.046, 0.964, 0.028, 192.0, 0.0, 0.0, 0.0, 0.0, 0.0, 0.0, 0.0, 0.0, 0.0, 1.666403679939401E9, 0.0, 2022-10-21 18:54:39.939
103.0, -110970.39860134109, -150260.47381883548, -63517.15338434618, -132402.41347580118, 49642.24095848095, -79621.18293299472, 39552.81997356653, -118468.40303759612, 0.046, 0.964, 0.028, 192.0, 0.0, 0.0, 0.0, 0.0, 0.0, 0.0, 0.0, 0.0, 0.0, 1.6664036799394162E9, 0.0, 2022-10-21 18:54:39.939
104.0, -110973.438438587, -150265.83823750477, -63515.45465176758, -132405.16274036918, 49644.25261548193, -79640.293674504, 39532.92692100131, -118464.02209568289, 0.042, 0.964, 0.03, 192.0, 1.0, 80.0, 30.0, 32.0, 0.0, 240.0, 0.0, 0.0, 0.0, 1.6664036799394317E9, 0.0, 2022-10-21 18:54:39.939
105.0, -110985.62013931516, -150278.73519405548, -63522.45074778209, -132405.36390606928, 49641.1680747471, -79642.26062801607, 39523.181560418794, -118475.01915395488, 0.042, 0.964, 0.03, 192.0, 0.0, 0.0, 0.0, 0.0, 0.0, 0.0, 0.0, 0.0, 0.0, 1.6664036799394617E9, 0.0, 2022-10-21 18:54:39.939
106.0, -110984.59195907021, -150280.478630123, -63535.19124212161, -132402.27936533446, 49636.94359504504, -79626.88262783083, 39545.555656618555, -118481.16588368009, 0.042, 0.964, 0.03, 192.0, 0.0, 0.0, 0.0, 0.0, 0.0, 0.0, 0.0, 0.0, 0.0, 1.6664036799394772E9, 0.0, 2022-10-21 18:54:39.939
107.0, -110969.66099377406, -150264.1618566706, -63518.60624773577, -132398.47956877705, 49647.00188004993, -79620.35591844987, 39566.29807547308, -118474.34860162123, 0.042, 0.964, 0.03, 192.0, 0.0, 0.0, 0.0, 0.0, 0.0, 0.0, 0.0, 0.0, 0.0, 1.6664036799394925E9, 0.0, 2022-10-21 18:54:39.939
108.0, -110965.6376797721, -150259.467990335, -63518.53919250241, -132412.42705731717, 49641.83862708076, -79649.63670368632, 39536.79377279208, -118481.38940112466, 0.042, 0.964, 0.03, 192.0, 0.0, 0.0, 0.0, 0.0, 0.0, 0.0, 0.0, 0.0, 0.0, 1.6664036799395075E9, 0.0, 2022-10-21 18:54:39.939
109.0, -110970.2868426188, -150265.83823750477, -63519.36620704726, -132412.02472591697, 49644.1185050152, -79655.60461945589, 39521.25931039564, -118473.54393882085, 0.042, 0.964, 0.03, 192.0, 0.0, 0.0, 0.0, 0.0, 0.0, 0.0, 0.0, 0.0, 0.0, 1.6664036799395227E9, 0.0, 2022-10-21 18:54:39.939
110.0, -110973.192569398, -150270.1744759291, -63523.07659662684, -132405.3415543248, 49642.53153115887, -79632.2470465001, 39543.186371706295, -118473.90156673212, 0.042, 0.964, 0.03, 192.0, 0.0, 0.0, 0.0, 0.0, 0.0, 0.0, 0.0, 0.0, 0.0, 1.666403679939538E9, 0.0, 2022-10-21 18:54:39.939
111.0, -110970.80093274129, -150272.1637811856, -63530.16209961916, -132413.72345849557, 49635.20015897753, -79636.73974713561, 39547.366147919434, -118478.93070923457, 0.042, 0.964, 0.03, 192.0, 0.0, 0.0, 0.0, 0.0, 0.0, 0.0, 0.0, 0.0, 0.0, 1.6664036799395533E9, 0.0, 2022-10-21 18:54:39.939
112.0, -110966.06236291675, -150263.8712839927, -63524.931791416624, -132417.8585312198, 49637.86001656771, -79649.27907577505, 39535.49737161367, -118480.85295925773, 0.042, 0.964, 0.03, 192.0, 0.0, 0.0, 0.0, 0.0, 0.0, 0.0, 0.0, 0.0, 0.0, 1.6664036799395697E9, 0.0, 2022-10-21 18:54:39.939
113.0, -110965.45886581647, -150261.68081303607, -63526.58582050632, -132416.49507480802, 49638.82114157929, -79657.21394505668, 39517.191292904776, -118476.47201734448, 0.042, 0.964, 0.03, 192.0, 0.0, 0.0, 0.0, 0.0, 0.0, 0.0, 0.0, 0.0, 0.0, 1.666403679939586E9, 0.0, 2022-10-21 18:54:39.939
114.0, -110956.24994710088, -150249.14148439665, -63505.441070251596, -132397.1384641097, 49650.533455673874, -79638.7961076255, 39531.54111284508, -118457.51773804639, 0.048, 0.9580000000000001, 0.034, 192.0, 1.0, 128.0, 29.0, 240.0, 1.0, 16.0, 0.0, 0.0, 0.0, 1.6664036799396014E9, 0.0, 2022-10-21 18:54:39.939
115.0, -110977.55115956679, -150276.05298472082, -63529.4468437966, -132408.38139157073, 49630.34983043073, -79632.17999126673, 39547.813182808546, -118481.34469763574, 0.048, 0.9580000000000001, 0.034, 192.0, 0.0, 0.0, 0.0, 0.0, 0.0, 0.0, 0.0, 0.0, 0.0, 1.666403679939618E9, 0.0, 2022-10-21 18:54:39.939
116.0, -110978.06524968926, -150278.64578707766, -63544.176643392646, -132431.3142813819, 49616.78232154636, -79659.51617473557, 39530.5799878335, -118490.84418902925, 0.048, 0.9580000000000001, 0.034, 192.0, 0.0, 0.0, 0.0, 0.0, 0.0, 0.0, 0.0, 0.0, 0.0, 1.666403679939635E9, 0.0, 2022-10-21 18:54:39.939
117.0, -110976.18770315501, -150276.7235370545, -63534.587745021316, -132428.9673482141, 49628.27111819638, -79678.64926798931, 39502.640307264366, -118485.65858431562, 0.048, 0.9580000000000001, 0.034, 192.0, 0.0, 0.0, 0.0, 0.0, 0.0, 0.0, 0.0, 0.0, 0.0, 1.6664036799396505E9, 0.0, 2022-10-21 18:54:39.939
118.0, -110972.5443688088, -150272.63316781918, -63524.23888733851, -132414.5057695515, 49638.999955534935, -79653.61531419937, 39524.72383078621, -118478.46132260101, 0.048, 0.9580000000000001, 0.034, 192.0, 0.0, 0.0, 0.0, 0.0, 0.0, 0.0, 0.0, 0.0, 0.0, 1.666403679939666E9, 0.0, 2022-10-21 18:54:39.939
119.0, -110977.55115956679, -150279.13752545568, -63526.541117017405, -132408.6943159931, 49641.70451661402, -79651.22367754266, 39539.408926893346, -118475.86852024418, 0.048, 0.9580000000000001, 0.034, 192.0, 0.0, 0.0, 0.0, 0.0, 0.0, 0.0, 0.0, 0.0, 0.0, 1.6664036799396808E9, 0.0, 2022-10-21 18:54:39.939
120.0, -110978.51228457836, -150270.6662143071, -63524.48475652752, -132413.2093683731, 49642.17390324759, -79652.94476186571, 39542.3817089059, -118468.20187189602, 0.048, 0.9580000000000001, 0.034, 192.0, 0.0, 0.0, 0.0, 0.0, 0.0, 0.0, 0.0, 0.0, 0.0, 1.6664036804168491E9, 0.0, 2022-10-21 18:54:40.416
121.0, -110986.89418874911, -150282.49028712398, -63529.625657752236, -132431.22487440406, 49632.33913568725, -79668.0992446064, 39515.04552543706, -118491.49238961845, 0.048, 0.9580000000000001, 0.034, 192.0, 0.0, 0.0, 0.0, 0.0, 0.0, 0.0, 0.0, 0.0, 0.0, 1.6664036804169242E9, 0.0, 2022-10-21 18:54:40.416
122.0, -110979.80868575677, -150272.87903700818, -63534.319524087856, -132432.87890349375, 49628.1146559852, -79671.36259929689, 39500.06985665201, -118497.59441585475, 0.048, 0.9580000000000001, 0.034, 192.0, 0.0, 0.0, 0.0, 0.0, 0.0, 0.0, 0.0, 0.0, 0.0, 1.6664036804170108E9, 0.0, 2022-10-21 18:54:40.417
123.0, -110967.8952059621, -150259.84796999075, -63523.23305883802, -132416.67388876367, 49636.04952526683, -79658.80091891301, 39519.60528130594, -118484.27277615939, 0.048, 0.9580000000000001, 0.034, 192.0, 0.0, 0.0, 0.0, 0.0, 0.0, 0.0, 0.0, 0.0, 0.0, 1.6664036804170442E9, 0.0, 2022-10-21 18:54:40.417
124.0, -110973.75136300939, -150268.4757433505, -63521.66843672615, -132417.92558645317, 49635.714249100005, -79650.46371823117, 39536.03381348059, -118488.29609016134, 0.048, 0.964, 0.034, 192.0, 1.0, 128.0, 30.0, 32.0, 1.0, 16.0, 0.0, 0.0, 0.0, 1.6664036804170768E9, 0.0, 2022-10-21 18:54:40.417
125.0, -110985.55308408178, -150279.20458068902, -63524.57416350534, -132431.67190929316, 49630.886272297656, -79666.24404981663, 39519.02413595011, -118496.45447688753, 0.048, 0.964, 0.034, 192.0, 0.0, 0.0, 0.0, 0.0, 0.0, 0.0, 0.0, 0.0, 0.0, 1.6664036804171047E9, 0.0, 2022-10-21 18:54:40.417
126.0, -110984.61431081466, -150274.8683422647, -63525.647047239196, -132431.69426103763, 49627.55586237382, -79678.7610267116, 39503.37791483139, -118501.21539845651, 0.048, 0.964, 0.034, 192.0, 0.0, 0.0, 0.0, 0.0, 0.0, 0.0, 0.0, 0.0, 0.0, 1.6664036804171276E9, 0.0, 2022-10-21 18:54:40.417
127.0, -110990.96220623997, -150280.8809615232, -63536.1970706221, -132429.59319705883, 49624.53837687235, -79667.96513413968, 39512.78799924708, -118501.93065427907, 0.048, 0.964, 0.034, 192.0, 0.0, 0.0, 0.0, 0.0, 0.0, 0.0, 0.0, 0.0, 0.0, 1.6664036804171505E9, 0.0, 2022-10-21 18:54:40.417
128.0, -110989.68815680602, -150282.44558363504, -63543.72960850354, -132435.58346457285, 49621.56559485979, -79661.41607301428, 39521.14755167336, -118504.970491525, 0.048, 0.964, 0.034, 192.0, 0.0, 0.0, 0.0, 0.0, 0.0, 0.0, 0.0, 0.0, 0.0, 1.6664036804171731E9, 0.0, 2022-10-21 18:54:40.417
129.0, -110985.84365675971, -150277.05881322132, -63542.38850383622, -132443.31716815438, 49619.710400070006, -79671.38495104134, 39510.44106607927, -118494.8675030312, 0.048, 0.964, 0.034, 192.0, 0.0, 0.0, 0.0, 0.0, 0.0, 0.0, 0.0, 0.0, 0.0, 1.666403680417196E9, 0.0, 2022-10-21 18:54:40.417
130.0, -110974.37721185414, -150260.54087406886, -63525.6917507281, -132431.33663312634, 49630.68510659756, -79666.26640156108, 39512.34096435797, -118474.66152604361, 0.048, 0.964, 0.034, 192.0, 0.0, 0.0, 0.0, 0.0, 0.0, 0.0, 0.0, 0.0, 0.0, 1.6664036804172194E9, 0.0, 2022-10-21 18:54:40.417
131.0, -110983.92140673655, -150274.89069400917, -63533.98424792103, -132428.5650168139, 49622.79494080484, -79663.67359920427, 39519.761743517134, -118486.77617153838, 0.048, 0.964, 0.034, 192.0, 0.0, 0.0, 0.0, 0.0, 0.0, 0.0, 0.0, 0.0, 0.0, 1.6664036804172423E9, 0.0, 2022-10-21 18:54:40.417
132.0, -110998.91942726605, -150294.29200819635, -63549.18343415063, -132440.65731056422, 49611.88728951065, -79677.39757029981, 39516.58779580448, -118504.7693258249, 0.048, 0.964, 0.034, 192.0, 0.0, 0.0, 0.0, 0.0, 0.0, 0.0, 0.0, 0.0, 0.0, 1.6664036804172652E9, 0.0, 2022-10-21 18:54:40.417
133.0, -110986.96124398247, -150276.9694062435, -63541.516785802465, -132446.84874377833, 49616.29058316834, -79682.98550641365, 39511.4245428353, -118505.3728229252, 0.048, 0.964, 0.034, 192.0, 0.0, 0.0, 0.0, 0.0, 0.0, 0.0, 0.0, 0.0, 0.0, 1.6664036804172888E9, 0.0, 2022-10-21 18:54:40.417
134.0, -110978.91461597856, -150262.6642897921, -63531.860832197766, -132445.4629356221, 49618.88338552516, -79688.57344252747, 39502.10386539744, -118502.84707580175, 0.044, 0.962, 0.034, 192.0, 1.0, 96.0, 30.0, 16.0, 1.0, 16.0, 0.0, 0.0, 0.0, 1.6664036804173195E9, 0.0, 2022-10-21 18:54:40.417
135.0, -110971.31502286375, -150260.98790895796, -63521.2437535815, -132439.71853729707, 49619.688048325545, -79685.89123319283, 39506.551862544045, -118508.74793633795, 0.044, 0.962, 0.034, 192.0, 0.0, 0.0, 0.0, 0.0, 0.0, 0.0, 0.0, 0.0, 0.0, 1.666403680417344E9, 0.0, 2022-10-21 18:54:40.417
136.0, -110975.45009558799, -150270.97913872948, -63525.6917507281, -132439.27150240797, 49616.134120957155, -79691.99325942913, 39505.993068932665, -118510.26785496091, 0.044, 0.962, 0.034, 192.0, 0.0, 0.0, 0.0, 0.0, 0.0, 0.0, 0.0, 0.0, 0.0, 1.6664036804174557E9, 0.0, 2022-10-21 18:54:40.417
137.0, -110974.98070895442, -150269.8615515067, -63528.26220134047, -132434.9576157281, 49621.29737392633, -79688.64049776083, 39502.03681016407, -118519.7226428655, 0.044, 0.962, 0.034, 192.0, 0.0, 0.0, 0.0, 0.0, 0.0, 0.0, 0.0, 0.0, 0.0, 1.6664036804174843E9, 0.0, 2022-10-21 18:54:40.417
138.0, -110980.00985145687, -150270.44269686256, -63528.03868389591, -132439.1150401968, 49617.58698434675, -79690.98743092864, 39493.833719948976, -118507.65270085963, 0.044, 0.962, 0.034, 192.0, 0.0, 0.0, 0.0, 0.0, 0.0, 0.0, 0.0, 0.0, 0.0, 1.66640368041751E9, 0.0, 2022-10-21 18:54:40.417
139.0, -110994.27026441936, -150287.9217610266, -63546.188300393624, -132450.49207812455, 49598.14096667063, -79709.82995150446, 39484.870670422395, -118516.81691608632, 0.044, 0.962, 0.034, 192.0, 0.0, 0.0, 0.0, 0.0, 0.0, 0.0, 0.0, 0.0, 0.0, 1.6664036804175332E9, 0.0, 2022-10-21 18:54:40.417
140.0, -110988.36940388316, -150284.50194412493, -63538.72281774555, -132444.68062456616, 49605.29352489633, -79706.70070728073, 39496.4712257947, -118509.8208200718, 0.044, 0.962, 0.034, 192.0, 0.0, 0.0, 0.0, 0.0, 0.0, 0.0, 0.0, 0.0, 0.0, 1.6664036804175563E9, 0.0, 2022-10-21 18:54:40.417
141.0, -110988.79408702781, -150277.84112427727, -63535.41475956616, -132446.49111586704, 49613.92129825608, -79692.93203269626, 39502.61795551991, -118509.88787530517, 0.044, 0.962, 0.034, 192.0, 0.0, 0.0, 0.0, 0.0, 0.0, 0.0, 0.0, 0.0, 0.0, 1.6664036804175797E9, 0.0, 2022-10-21 18:54:40.417
142.0, -110982.22267415795, -150272.8119817748, -63534.96772467706, -132447.29577866744, 49622.079684982265, -79701.313936867, 39483.976600644186, -118500.00840425592, 0.044, 0.962, 0.034, 192.0, 0.0, 0.0, 0.0, 0.0, 0.0, 0.0, 0.0, 0.0, 0.0, 1.6664036804176028E9, 0.0, 2022-10-21 18:54:40.417
143.0, -110979.76398226786, -150272.34259514126, -63536.15236713319, -132444.4124036327, 49620.06802798129, -79704.17496015728, 39479.52860349758, -118500.41073565611, 0.044, 0.962, 0.032, 192.0, 1.0, 96.0, 30.0, 16.0, 1.0, 0.0, 0.0, 0.0, 0.0, 1.6664036804176264E9, 0.0, 2022-10-21 18:54:40.417
144.0, -110980.47923809043, -150273.03549921938, -63534.38657932122, -132434.33176688335, 49626.59473736224, -79692.68616350724, 39498.862862451424, -118503.89760779115, 0.044, 0.962, 0.032, 192.0, 0.0, 0.0, 0.0, 0.0, 0.0, 0.0, 0.0, 0.0, 0.0, 1.6664036804176512E9, 0.0, 2022-10-21 18:54:40.417
145.0, -110973.25962463136, -150263.0219177034, -63531.72672173104, -132434.80115351692, 49631.936804287056, -79680.79503545702, 39513.59266204747, -118499.717831578, 0.044, 0.962, 0.032, 192.0, 0.0, 0.0, 0.0, 0.0, 0.0, 0.0, 0.0, 0.0, 0.0, 1.666403680417674E9, 0.0, 2022-10-21 18:54:40.417
146.0, -110969.3927728406, -150256.67402227808, -63529.80447170788, -132442.98189198755, 49629.45576065252, -79696.01657343109, 39495.24187984966, -118503.31646243531, 0.044, 0.962, 0.032, 192.0, 0.0, 0.0, 0.0, 0.0, 0.0, 0.0, 0.0, 0.0, 0.0, 1.6664036804176967E9, 0.0, 2022-10-21 18:54:40.417
147.0, -110971.96322345296, -150259.80326650184, -63520.77436694794, -132436.0081477175, 49632.71911534299, -79707.50537008111, 39480.08739710896, -118495.18042745358, 0.044, 0.962, 0.032, 192.0, 0.0, 0.0, 0.0, 0.0, 0.0, 0.0, 0.0, 0.0, 0.0, 1.6664036804177196E9, 0.0, 2022-10-21 18:54:40.417
148.0, -110989.41993587256, -150282.4232318906, -63538.72281774555, -132444.09947921033, 49615.932955257056, -79699.70461126622, 39495.800673461046, -118510.93840729457, 0.044, 0.962, 0.032, 192.0, 0.0, 0.0, 0.0, 0.0, 0.0, 0.0, 0.0, 0.0, 0.0, 1.6664036804177425E9, 0.0, 2022-10-21 18:54:40.417
149.0, -110985.41897361506, -150270.35328988472, -63540.6450677687, -132452.90606652573, 49611.462606365996, -79694.56371004149, 39511.223377135204, -118519.40971844313, 0.044, 0.962, 0.032, 192.0, 0.0, 0.0, 0.0, 0.0, 0.0, 0.0, 0.0, 0.0, 0.0, 1.6664036804177654E9, 0.0, 2022-10-21 18:54:40.417
150.0, -110985.50838059287, -150267.13463868317, -63537.42641656714, -132451.49790662504, 49626.34886817323, -79701.20217814473, 39498.214661862214, -118505.7751543254, 0.044, 0.962, 0.032, 192.0, 0.0, 0.0, 0.0, 0.0, 0.0, 0.0, 0.0, 0.0, 0.0, 1.6664036804177887E9, 0.0, 2022-10-21 18:54:40.417
151.0, -110984.59195907021, -150270.1074206957, -63536.84527121131, -132447.96633100108, 49627.64526935164, -79703.43735259025, 39488.022266390595, -118512.52538115089, 0.044, 0.962, 0.032, 192.0, 0.0, 0.0, 0.0, 0.0, 0.0, 0.0, 0.0, 0.0, 0.0, 1.6664036804178357E9, 0.0, 2022-10-21 18:54:40.417
152.0, -110983.65318580308, -150269.79449627336, -63530.89970718619, -132437.08103145135, 49627.37704841817, -79701.1574746558, 39498.39347581786, -118511.83247707278, 0.044, 0.962, 0.032, 192.0, 0.0, 0.0, 0.0, 0.0, 0.0, 0.0, 0.0, 0.0, 0.0, 1.6664036804178588E9, 0.0, 2022-10-21 18:54:40.417
153.0, -110987.85531376068, -150276.5670748433, -63535.45946305507, -132443.29481640994, 49623.465493138494, -79711.03694570505, 39496.60533626143, -118514.42527942959, 0.044, 0.964, 0.03, 192.0, 1.0, 96.0, 30.0, 32.0, 0.0, 240.0, 0.0, 0.0, 0.0, 1.6664036804178813E9, 0.0, 2022-10-21 18:54:40.417
154.0, -110987.85531376068, -150273.50488585292, -63538.231079367535, -132447.54164785644, 49628.24876645193, -79716.9154544968, 39481.808481432025, -118511.18427648357, 0.044, 0.964, 0.03, 192.0, 0.0, 0.0, 0.0, 0.0, 0.0, 0.0, 0.0, 0.0, 0.0, 1.6664036804179049E9, 0.0, 2022-10-21 18:54:40.417
155.0, -110982.96028172497, -150263.6701182926, -63534.85596595478, -132445.10530771082, 49630.99803101993, -79712.0204224611, 39474.03007436157, -118505.52928513638, 0.044, 0.964, 0.03, 192.0, 0.0, 0.0, 0.0, 0.0, 0.0, 0.0, 0.0, 0.0, 0.0, 1.6664036804179273E9, 0.0, 2022-10-21 18:54:40.417
156.0, -110994.33731965272, -150274.33190039778, -63547.28353587193, -132444.77003154397, 49619.44217913654, -79703.39264910134, 39481.517908754104, -118517.53217190888, 0.044, 0.964, 0.03, 192.0, 0.0, 0.0, 0.0, 0.0, 0.0, 0.0, 0.0, 0.0, 0.0, 1.6664036804179523E9, 0.0, 2022-10-21 18:54:40.417
157.0, -110995.27609291984, -150274.19778993106, -63556.44775109861, -132453.93424677066, 49609.428597620565, -79711.10400093842, 39488.581060001976, -118531.90434359365, 0.044, 0.964, 0.03, 192.0, 0.0, 0.0, 0.0, 0.0, 0.0, 0.0, 0.0, 0.0, 0.0, 1.6664036804179761E9, 0.0, 2022-10-21 18:54:40.417
158.0, -110986.49185734891, -150265.9723479715, -63543.394332336706, -132453.55426711493, 49620.604469848215, -79713.74150678415, 39488.804577446535, -118508.39030842666, 0.044, 0.964, 0.03, 192.0, 0.0, 0.0, 0.0, 0.0, 0.0, 0.0, 0.0, 0.0, 0.0, 1.6664036804179997E9, 0.0, 2022-10-21 18:54:40.417
159.0, -110974.4442670875, -150252.7624669984, -63531.25733509748, -132446.33465365585, 49632.22737696498, -79720.82700977648, 39468.933876625764, -118493.99578499745, 0.044, 0.964, 0.03, 192.0, 0.0, 0.0, 0.0, 0.0, 0.0, 0.0, 0.0, 0.0, 0.0, 1.6664036804180222E9, 0.0, 2022-10-21 18:54:40.418
160.0, -110975.76302001036, -150253.09774316524, -63529.33508507432, -132437.12573494026, 49634.64136536615, -79701.98448920065, 39481.42850177628, -118495.89568327615, 0.044, 0.964, 0.03, 192.0, 0.0, 0.0, 0.0, 0.0, 0.0, 0.0, 0.0, 0.0, 0.0, 1.6664036804180443E9, 0.0, 2022-10-21 18:54:40.418
161.0, -110985.55308408178, -150263.60306305924, -63536.73351248902, -132439.65148206372, 49629.32165018578, -79687.90289019381, 39502.19327237526, -118512.70419510653, 0.044, 0.964, 0.03, 192.0, 0.0, 0.0, 0.0, 0.0, 0.0, 0.0, 0.0, 0.0, 0.0, 1.666403680418075E9, 0.0, 2022-10-21 18:54:40.418
162.0, -110988.48116260543, -150267.961653228, -63538.27578285644, -132447.96633100108, 49626.617089106694, -79712.44510560574, 39484.91537391131, -118519.2756079764, 0.044, 0.964, 0.03, 192.0, 0.0, 0.0, 0.0, 0.0, 0.0, 0.0, 0.0, 0.0, 0.0, 1.6664036804181097E9, 0.0, 2022-10-21 18:54:40.418
163.0, -110983.38496486962, -150261.94903396955, -63535.19124212161, -132451.45320313613, 49627.600565862725, -79720.55878884302, 39472.42074876079, -118512.77125033991, 0.048, 0.962, 0.032, 192.0, 1.0, 128.0, 30.0, 16.0, 1.0, 0.0, 0.0, 0.0, 0.0, 1.6664036804181416E9, 0.0, 2022-10-21 18:54:40.418
164.0, -110979.58516831222, -150255.77995249987, -63529.625657752236, -132441.84195302034, 49628.69580134103, -79713.5626928285, 39480.17680408678, -118505.03754675837, 0.048, 0.962, 0.032, 192.0, 0.0, 0.0, 0.0, 0.0, 0.0, 0.0, 0.0, 0.0, 0.0, 1.66640368041822E9, 0.0, 2022-10-21 18:54:40.418
165.0, -110987.52003759386, -150262.9101589811, -63536.30882934437, -132441.97606348706, 49624.24780419443, -79697.24591937613, 39507.37887708889, -118510.64783461666, 0.048, 0.962, 0.032, 192.0, 0.0, 0.0, 0.0, 0.0, 0.0, 0.0, 0.0, 0.0, 0.0, 1.666403680418233E9, 0.0, 2022-10-21 18:54:40.418
166.0, -110985.01664221486, -150261.6584612916, -63535.705332244084, -132447.92162751217, 49624.650135594624, -79695.79305598653, 39513.682069025286, -118509.97728228298, 0.048, 0.962, 0.032, 192.0, 0.0, 0.0, 0.0, 0.0, 0.0, 0.0, 0.0, 0.0, 0.0, 1.6664036804182577E9, 0.0, 2022-10-21 18:54:40.418
167.0, -110983.34026138071, -150258.57392055678, -63533.894840943205, -132454.15776421523, 49624.24780419443, -79712.0204224611, 39494.459568793725, -118510.31255844982, 0.048, 0.962, 0.032, 192.0, 0.0, 0.0, 0.0, 0.0, 0.0, 0.0, 0.0, 0.0, 0.0, 1.6664036804182696E9, 0.0, 2022-10-21 18:54:40.418
168.0, -110988.16823818306, -150266.08410669377, -63542.00852418048, -132456.28117993847, 49613.98835348945, -79722.23516967717, 39485.787091945065, -118521.66724463312, 0.048, 0.962, 0.032, 192.0, 0.0, 0.0, 0.0, 0.0, 0.0, 0.0, 0.0, 0.0, 0.0, 1.6664036804182818E9, 0.0, 2022-10-21 18:54:40.418
169.0, -110990.51517135087, -150266.6652520496, -63543.57314629235, -132452.59314210335, 49614.457740123005, -79709.29350963754, 39505.90366195484, -118513.12887825118, 0.048, 0.962, 0.032, 192.0, 0.0, 0.0, 0.0, 0.0, 0.0, 0.0, 0.0, 0.0, 0.0, 1.6664036804182937E9, 0.0, 2022-10-21 18:54:40.418
170.0, -110984.23433115892, -150259.17741765708, -63531.011465908465, -132443.11600245428, 49632.1156182427, -79694.38489608584, 39520.29818538406, -118500.00840425592, 0.048, 0.962, 0.032, 192.0, 0.0, 0.0, 0.0, 0.0, 0.0, 0.0, 0.0, 0.0, 0.0, 1.666403680418306E9, 0.0, 2022-10-21 18:54:40.418
171.0, -110991.07396496224, -150268.22987416148, -63539.57218403485, -132452.28021768096, 49630.215719964, -79699.48109382167, 39504.00376367614, -118509.08321250477, 0.048, 0.962, 0.032, 192.0, 0.0, 0.0, 0.0, 0.0, 0.0, 0.0, 0.0, 0.0, 0.0, 1.666403680418318E9, 0.0, 2022-10-21 18:54:40.418
172.0, -110991.20807542898, -150265.7711822714, -63537.78404447842, -132450.87205778027, 49626.95236527352, -79711.03694570505, 39492.71613272621, -118514.46998291851, 0.048, 0.9580000000000001, 0.03, 192.0, 1.0, 128.0, 29.0, 240.0, 0.0, 240.0, 0.0, 0.0, 0.0, 1.66640368041833E9, 0.0, 2022-10-21 18:54:40.418
173.0, -110986.0001189709, -150262.8654554922, -63525.53528851692, -132440.76906928647, 49631.646231609135, -79702.23035838966, 39508.69763001175, -118508.16679098211, 0.048, 0.9580000000000001, 0.03, 192.0, 0.0, 0.0, 0.0, 0.0, 0.0, 0.0, 0.0, 0.0, 0.0, 1.6664036804183426E9, 0.0, 2022-10-21 18:54:40.418
174.0, -110984.21197941447, -150261.47964733597, -63525.71410247256, -132441.93135999815, 49633.322612443284, -79701.91743396729, 39518.19712140526, -118508.7702880824, 0.048, 0.9580000000000001, 0.03, 192.0, 0.0, 0.0, 0.0, 0.0, 0.0, 0.0, 0.0, 0.0, 0.0, 1.6664036804183547E9, 0.0, 2022-10-21 18:54:40.418
175.0, -110983.13909568061, -150262.4184206031, -63530.586782763814, -132444.27829316596, 49639.37993519067, -79713.0709544505, 39498.304068840036, -118501.99770951245, 0.048, 0.9580000000000001, 0.03, 192.0, 0.0, 0.0, 0.0, 0.0, 0.0, 0.0, 0.0, 0.0, 0.0, 1.6664036804183676E9, 0.0, 2022-10-21 18:54:40.418
176.0, -110990.96220623997, -150270.0180137179, -63532.978419420535, -132441.37256638677, 49641.101019513735, -79712.17688467227, 39485.496519267144, -118497.68382283257, 0.048, 0.9580000000000001, 0.03, 192.0, 0.0, 0.0, 0.0, 0.0, 0.0, 0.0, 0.0, 0.0, 0.0, 1.66640368041838E9, 0.0, 2022-10-21 18:54:40.418
177.0, -110988.83879051672, -150267.13463868317, -63528.30690482938, -132428.34149936933, 49643.64911838164, -79695.41307633079, 39510.68693526828, -118494.55457860883, 0.048, 0.9580000000000001, 0.03, 192.0, 0.0, 0.0, 0.0, 0.0, 0.0, 0.0, 0.0, 0.0, 0.0, 1.6664036804183931E9, 0.0, 2022-10-21 18:54:40.418
178.0, -110993.55500859678, -150270.5768073293, -63531.68201824213, -132431.94013022663, 49640.743391602446, -79696.86593972039, 39516.72190627121, -118498.2649681884, 0.048, 0.9580000000000001, 0.03, 192.0, 0.0, 0.0, 0.0, 0.0, 0.0, 0.0, 0.0, 0.0, 0.0, 1.6664036804184053E9, 0.0, 2022-10-21 18:54:40.418
179.0, -111002.27218893435, -150280.74685105644, -63543.260221869976, -132451.40849964722, 49628.5616908743, -79717.87657950837, 39496.73944672816, -118511.76542183942, 0.048, 0.9580000000000001, 0.03, 192.0, 0.0, 0.0, 0.0, 0.0, 0.0, 0.0, 0.0, 0.0, 0.0, 1.6664036804184175E9, 0.0, 2022-10-21 18:54:40.418
180.0, -110989.19641842801, -150269.63803406217, -63534.20776536558, -132442.46780186507, 49639.40228693513, -79718.63653881986, 39487.35171405694, -118506.80333457033, 0.048, 0.9580000000000001, 0.03, 192.0, 0.0, 0.0, 0.0, 0.0, 0.0, 0.0, 0.0, 0.0, 0.0, 1.6664036804184294E9, 0.0, 2022-10-21 18:54:40.418
181.0, -110992.50447660738, -150270.59915907375, -63532.44197755361, -132436.92456924016, 49639.73756310196, -79701.73862001165, 39503.556728787036, -118505.55163688085, 0.048, 0.9580000000000001, 0.03, 192.0, 0.0, 0.0, 0.0, 0.0, 0.0, 0.0, 0.0, 0.0, 0.0, 1.666403680418456E9, 0.0, 2022-10-21 18:54:40.418
182.0, -110997.91359876558, -150276.00828123192, -63534.69950374359, -132436.72340354006, 49641.95038580304, -79685.62301225937, 39524.366202874924, -118503.38351766867, 0.042, 0.964, 0.03, 192.0, 1.0, 80.0, 30.0, 32.0, 0.0, 240.0, 0.0, 0.0, 0.0, 1.666403680418468E9, 0.0, 2022-10-21 18:54:40.418
183.0, -111001.1993052005, -150279.58456034478, -63543.260221869976, -132444.92649375516, 49638.10588575672, -79691.61327977339, 39519.24765339466, -118505.9763200255, 0.042, 0.964, 0.03, 192.0, 0.0, 0.0, 0.0, 0.0, 0.0, 0.0, 0.0, 0.0, 0.0, 1.6664036804184818E9, 0.0, 2022-10-21 18:54:40.418
184.0, -110997.82419178775, -150273.68369980858, -63544.646030026204, -132445.73115655556, 49638.374106690186, -79703.63851829035, 39501.81329271952, -118504.29993919135, 0.042, 0.964, 0.03, 192.0, 0.0, 0.0, 0.0, 0.0, 0.0, 0.0, 0.0, 0.0, 0.0, 1.6664036804184945E9, 0.0, 2022-10-21 18:54:40.418
185.0, -110993.04091847432, -150269.30275789532, -63540.42155032415, -132436.5669413289, 49640.966909047, -79707.10303868091, 39496.560632772525, -118498.17556121059, 0.042, 0.964, 0.03, 192.0, 0.0, 0.0, 0.0, 0.0, 0.0, 0.0, 0.0, 0.0, 0.0, 1.666403680418508E9, 0.0, 2022-10-21 18:54:40.418
186.0, -110997.26539817637, -150274.39895563113, -63541.00269567999, -132436.63399656225, 49638.8658450682, -79702.99031770114, 39504.11552239842, -118501.21539845651, 0.042, 0.964, 0.03, 192.0, 0.0, 0.0, 0.0, 0.0, 0.0, 0.0, 0.0, 0.0, 0.0, 1.6664036804185236E9, 0.0, 2022-10-21 18:54:40.418
187.0, -110997.6453778321, -150272.2755399079, -63537.11349214477, -132441.10434545332, 49641.57040614729, -79716.13314344086, 39494.14664437135, -118497.8179332993, 0.042, 0.964, 0.03, 192.0, 0.0, 0.0, 0.0, 0.0, 0.0, 0.0, 0.0, 0.0, 0.0, 1.666403680418536E9, 0.0, 2022-10-21 18:54:40.418
188.0, -110993.10797370768, -150263.60306305924, -63529.268029840954, -132433.4600488496, 49649.92995857358, -79714.1214864399, 39486.50234776764, -118486.30678490482, 0.042, 0.964, 0.03, 192.0, 0.0, 0.0, 0.0, 0.0, 0.0, 0.0, 0.0, 0.0, 0.0, 1.666403680418548E9, 0.0, 2022-10-21 18:54:40.418
189.0, -110997.26539817637, -150270.3756416292, -63531.07852114183, -132426.9109877242, 49651.0698975408, -79700.97866070017, 39493.543147271055, -118487.17850293858, 0.042, 0.964, 0.03, 192.0, 0.0, 0.0, 0.0, 0.0, 0.0, 0.0, 0.0, 0.0, 0.0, 1.66640368041856E9, 0.0, 2022-10-21 18:54:40.418
190.0, -111001.73574706743, -150276.45531612102, -63539.66159101267, -132435.18113317265, 49641.369240447195, -79690.92037569528, 39511.98333644668, -118503.40586941312, 0.042, 0.964, 0.03, 192.0, 0.0, 0.0, 0.0, 0.0, 0.0, 0.0, 0.0, 0.0, 0.0, 1.6664036804185722E9, 0.0, 2022-10-21 18:54:40.418
191.0, -110994.53848535282, -150267.2687491499, -63532.77725372044, -132432.1636476712, 49649.482923684474, -79703.2138351457, 39507.892967211366, -118496.67799433209, 0.042, 0.964, 0.03, 192.0, 0.0, 0.0, 0.0, 0.0, 0.0, 0.0, 0.0, 0.0, 0.0, 1.6664036804185843E9, 0.0, 2022-10-21 18:54:40.418
192.0, -111000.93108426704, -150272.54376084136, -63539.125149145744, -132441.35021464233, 49643.738525359455, -79722.25752142162, 39482.03199887658, -118504.29993919135, 0.044, 0.9540000000000001, 0.034, 192.0, 1.0, 96.0, 29.0, 208.0, 1.0, 16.0, 0.0, 0.0, 0.0, 1.6664036804185963E9, 0.0, 2022-10-21 18:54:40.418
193.0, -111000.1487732111, -150270.4203451181, -63539.46042531257, -132439.69618555263, 49642.95621430352, -79728.9183412693, 39472.75602492762, -118505.35047118075, 0.044, 0.9540000000000001, 0.034, 192.0, 0.0, 0.0, 0.0, 0.0, 0.0, 0.0, 0.0, 0.0, 0.0, 1.6664036804186091E9, 0.0, 2022-10-21 18:54:40.418
194.0, -111000.7969738003, -150275.85181902073, -63539.3486665903, -132430.8672464928, 49648.432391695074, -79701.20217814473, 39504.33903984297, -118502.69061359056, 0.044, 0.9540000000000001, 0.034, 192.0, 0.0, 0.0, 0.0, 0.0, 0.0, 0.0, 0.0, 0.0, 0.0, 1.6664036804186213E9, 0.0, 2022-10-21 18:54:40.418
195.0, -111000.41699414457, -150275.6730050651, -63535.86179445527, -132434.13060118325, 49653.01449930841, -79698.58702404345, 39509.546996301055, -118495.64981408714, 0.044, 0.9540000000000001, 0.034, 192.0, 0.0, 0.0, 0.0, 0.0, 0.0, 0.0, 0.0, 0.0, 0.0, 1.6664036804186337E9, 0.0, 2022-10-21 18:54:40.418
196.0, -111000.97578775595, -150276.54472309886, -63536.71116074457, -132435.22583666156, 49653.90856908662, -79705.82898924696, 39494.325458326995, -118494.64398558665, 0.044, 0.9540000000000001, 0.034, 192.0, 0.0, 0.0, 0.0, 0.0, 0.0, 0.0, 0.0, 0.0, 0.0, 1.6664036804186573E9, 0.0, 2022-10-21 18:54:40.418
197.0, -110996.50543886489, -150274.35425214222, -63534.297172343395, -132428.2073889026, 49659.965891834014, -79696.03892517554, 39500.136911885376, -118485.03273547087, 0.044, 0.9540000000000001, 0.034, 192.0, 0.0, 0.0, 0.0, 0.0, 0.0, 0.0, 0.0, 0.0, 0.0, 1.6664036804186695E9, 0.0, 2022-10-21 18:54:40.418
198.0, -111003.81445930178, -150279.4280981336, -63530.89970718619, -132424.4075923452, 49662.04460406835, -79679.67744823426, 39519.29235688357, -118490.39715414014, 0.044, 0.9540000000000001, 0.034, 192.0, 0.0, 0.0, 0.0, 0.0, 0.0, 0.0, 0.0, 0.0, 0.0, 1.6664036804186828E9, 0.0, 2022-10-21 18:54:40.418
199.0, -111003.47918313494, -150276.99175798797, -63526.02702689493, -132419.57961554284, 49669.53243846088, -79671.02732313005, 39534.82681928001, -118488.78782853935, 0.044, 0.9540000000000001, 0.034, 192.0, 0.0, 0.0, 0.0, 0.0, 0.0, 0.0, 0.0, 0.0, 0.0, 1.6664036804186954E9, 0.0, 2022-10-21 18:54:40.418
200.0, -111001.98161625644, -150277.79642078833, -63528.150442618185, -132431.53779882644, 49666.537304703874, -79694.40724783031, 39513.01151669163, -118498.35437516624, 0.044, 0.9540000000000001, 0.034, 192.0, 0.0, 0.0, 0.0, 0.0, 0.0, 0.0, 0.0, 0.0, 0.0, 1.6664036804187076E9, 0.0, 2022-10-21 18:54:40.418
201.0, -110996.68425282053, -150276.6788335656, -63527.949276918094, -132435.9634442286, 49661.97754883499, -79710.70166953822, 39492.559670515024, -118500.43308740057, 0.044, 0.9540000000000001, 0.034, 192.0, 0.0, 0.0, 0.0, 0.0, 0.0, 0.0, 0.0, 0.0, 0.0, 1.6664036804187198E9, 0.0, 2022-10-21 18:54:40.418
202.0, -110995.16433419757, -150272.7672782859, -63526.13878561721, -132428.58736855834, 49657.88717959967, -79705.06902993549, 39504.89783345435, -118497.68382283257, 0.04, 0.96, 0.032, 192.0, 1.0, 64.0, 30.0, 0.0, 1.0, 0.0, 0.0, 0.0, 0.0, 1.6664036804187317E9, 0.0, 2022-10-21 18:54:40.418
203.0, -111000.90873252258, -150278.31051091081, -63530.9444106751, -132430.28610113694, 49659.16122903362, -79692.44029431824, 39530.49058085568, -118497.90734027712, 0.04, 0.96, 0.032, 192.0, 0.0, 0.0, 0.0, 0.0, 0.0, 0.0, 0.0, 0.0, 0.0, 1.6664036804187448E9, 0.0, 2022-10-21 18:54:40.418
204.0, -111004.84263954671, -150279.29398766687, -63528.016332151456, -132440.14322044174, 49662.134011046175, -79701.00101244463, 39524.00857496364, -118496.90151177664, 0.04, 0.96, 0.032, 192.0, 0.0, 0.0, 0.0, 0.0, 0.0, 0.0, 0.0, 0.0, 0.0, 1.6664036804187567E9, 0.0, 2022-10-21 18:54:40.418
205.0, -110998.91942726605, -150272.58846433027, -63522.04841638189, -132435.24818840603, 49669.93476986108, -79717.38484113036, 39501.925051441794, -118488.78782853935, 0.04, 0.96, 0.032, 192.0, 0.0, 0.0, 0.0, 0.0, 0.0, 0.0, 0.0, 0.0, 0.0, 1.666403680418769E9, 0.0, 2022-10-21 18:54:40.418
206.0, -110994.65024407509, -150269.63803406217, -63519.276800069434, -132416.9644614416, 49676.70734843104, -79702.6103380454, 39512.832702735985, -118489.19015993955, 0.04, 0.96, 0.032, 192.0, 0.0, 0.0, 0.0, 0.0, 0.0, 0.0, 0.0, 0.0, 0.0, 1.6664036804187813E9, 0.0, 2022-10-21 18:54:40.418
207.0, -110998.51709586587, -150273.99662423096, -63528.28455308492, -132420.33957485433, 49668.88423787168, -79682.09143663543, 39540.63827283839, -118493.79461929735, 0.04, 0.96, 0.032, 192.0, 0.0, 0.0, 0.0, 0.0, 0.0, 0.0, 0.0, 0.0, 0.0, 1.6664036804187932E9, 0.0, 2022-10-21 18:54:40.418
208.0, -110994.29261616382, -150273.3260718973, -63532.46432929806, -132431.38133661525, 49667.76665064891, -79697.44708507623, 39526.66843255382, -118486.55265409383, 0.04, 0.96, 0.032, 192.0, 0.0, 0.0, 0.0, 0.0, 0.0, 0.0, 0.0, 0.0, 0.0, 1.6664036804188054E9, 0.0, 2022-10-21 18:54:40.418
209.0, -110993.66676731907, -150269.92860674008, -63525.95997166157, -132428.69912728062, 49674.0251390964, -79710.6122625604, 39507.669449766814, -118476.33790687776, 0.04, 0.96, 0.032, 192.0, 0.0, 0.0, 0.0, 0.0, 0.0, 0.0, 0.0, 0.0, 0.0, 1.6664036804188175E9, 0.0, 2022-10-21 18:54:40.418
210.0, -110997.17599119854, -150268.0063567169, -63517.71217795756, -132420.764257999, 49676.059147841836, -79707.75123927013, 39511.40219109085, -118473.5662905653, 0.04, 0.96, 0.032, 192.0, 0.0, 0.0, 0.0, 0.0, 0.0, 0.0, 0.0, 0.0, 0.0, 1.66640368041883E9, 0.0, 2022-10-21 18:54:40.418
211.0, -111003.7027005795, -150273.70605155302, -63528.73158797403, -132429.14616216972, 49668.012519837925, -79698.76583799909, 39530.24471166667, -118489.77130529539, 0.04, 0.96, 0.034, 192.0, 1.0, 64.0, 30.0, 0.0, 1.0, 16.0, 0.0, 0.0, 0.0, 1.666403680418853E9, 0.0, 2022-10-21 18:54:40.418
212.0, -111001.26636043387, -150273.90721725312, -63531.9949426645, -132432.14129592673, 49673.600455951746, -79699.2575763771, 39532.72575530121, -118494.68868907556, 0.04, 0.96, 0.034, 192.0, 0.0, 0.0, 0.0, 0.0, 0.0, 0.0, 0.0, 0.0, 0.0, 1.666403680418866E9, 0.0, 2022-10-21 18:54:40.418
213.0, -110993.42089813006, -150266.4193828606, -63524.82003269435, -132429.92847322565, 49683.50227874545, -79705.33725086895, 39518.73356327219, -118479.35539237922, 0.04, 0.96, 0.034, 192.0, 0.0, 0.0, 0.0, 0.0, 0.0, 0.0, 0.0, 0.0, 0.0, 1.666403680418878E9, 0.0, 2022-10-21 18:54:40.418
214.0, -110988.27999690533, -150261.8149235028, -63519.52266925844, -132412.87409220627, 49691.34774104926, -79702.11859966739, 39515.090228925976, -118480.47297960198, 0.04, 0.96, 0.034, 192.0, 0.0, 0.0, 0.0, 0.0, 0.0, 0.0, 0.0, 0.0, 0.0, 1.6664036804188905E9, 0.0, 2022-10-21 18:54:40.418
215.0, -111003.9485697685, -150276.0753364653, -63532.28551534242, -132427.49213308003, 49674.31571177432, -79699.03405893255, 39527.00370872065, -118496.96856701, 0.04, 0.96, 0.034, 192.0, 0.0, 0.0, 0.0, 0.0, 0.0, 0.0, 0.0, 0.0, 0.0, 1.6664036804189029E9, 0.0, 2022-10-21 18:54:40.418
216.0, -111011.21288671647, -150283.3173016688, -63542.36615209177, -132442.75837454302, 49662.82691512429, -79714.14383818435, 39526.51197034263, -118505.95396828103, 0.04, 0.96, 0.034, 192.0, 0.0, 0.0, 0.0, 0.0, 0.0, 0.0, 0.0, 0.0, 0.0, 1.666403680418915E9, 0.0, 2022-10-21 18:54:40.418
217.0, -111006.76488956988, -150277.34938589923, -63536.24177411101, -132439.60677857482, 49678.38372926518, -79713.9203207398, 39525.05910695304, -118494.48752337546, 0.04, 0.96, 0.034, 192.0, 0.0, 0.0, 0.0, 0.0, 0.0, 0.0, 0.0, 0.0, 0.0, 1.6664036804189272E9, 0.0, 2022-10-21 18:54:40.418
218.0, -111002.22748544544, -150270.6215108182, -63529.4468437966, -132430.93430172614, 49688.620828225714, -79702.2080066452, 39526.80254302055, -118484.27277615939, 0.04, 0.96, 0.034, 192.0, 0.0, 0.0, 0.0, 0.0, 0.0, 0.0, 0.0, 0.0, 0.0, 1.666403680418939E9, 0.0, 2022-10-21 18:54:40.418
219.0, -111004.73088082444, -150271.20265617402, -63527.50224202898, -132420.54074055442, 49691.45949977154, -79685.17597737027, 39546.337967674495, -118483.33400289227, 0.04, 0.96, 0.034, 192.0, 0.0, 0.0, 0.0, 0.0, 0.0, 0.0, 0.0, 0.0, 0.0, 1.6664036804189513E9, 0.0, 2022-10-21 18:54:40.418
220.0, -111009.24593320441, -150274.8236387758, -63533.246640354, -132428.09563018032, 49687.45853751404, -79692.84262571843, 39544.46042114025, -118482.30582264732, 0.04, 0.96, 0.034, 192.0, 0.0, 0.0, 0.0, 0.0, 0.0, 0.0, 0.0, 0.0, 0.0, 1.6664036804189644E9, 0.0, 2022-10-21 18:54:40.418
221.0, -111005.22261920245, -150270.19682767356, -63531.369093819754, -132432.45422034911, 49691.19127883807, -79704.55493981301, 39524.99205171967, -118476.06968594428, 0.04, 0.9580000000000001, 0.036000000000000004, 192.0, 1.0, 64.0, 29.0, 240.0, 1.0, 32.0, 0.0, 0.0, 0.0, 1.6664036804189768E9, 0.0, 2022-10-21 18:54:40.418
222.0, -111006.36255816968, -150270.3085863958, -63533.64897175419, -132426.5533598129, 49692.30886606084, -79704.44318109074, 39515.224339392706, -118477.99193596745, 0.04, 0.9580000000000001, 0.036000000000000004, 192.0, 0.0, 0.0, 0.0, 0.0, 0.0, 0.0, 0.0, 0.0, 0.0, 1.6664036804189894E9, 0.0, 2022-10-21 18:54:40.418
223.0, -111011.68227335004, -150278.35521439972, -63540.06392241287, -132420.2501678765, 49686.56446773583, -79688.64049776083, 39536.36908964743, -118480.58473832427, 0.04, 0.9580000000000001, 0.036000000000000004, 192.0, 0.0, 0.0, 0.0, 0.0, 0.0, 0.0, 0.0, 0.0, 0.0, 1.6664036804190018E9, 0.0, 2022-10-21 18:54:40.419
224.0, -111016.62200887466, -150283.89844702464, -63544.06488467037, -132418.57378704238, 49686.69857820256, -79672.43548303074, 39562.7888515936, -118480.09299994624, 0.04, 0.9580000000000001, 0.036000000000000004, 192.0, 0.0, 0.0, 0.0, 0.0, 0.0, 0.0, 0.0, 0.0, 0.0, 1.666403680419014E9, 0.0, 2022-10-21 18:54:40.419
225.0, -111017.0019885304, -150280.23276093398, -63549.272841128455, -132439.71853729707, 49680.104813588245, -79697.9611751987, 39542.202894950264, -118493.4146396416, 0.04, 0.9580000000000001, 0.036000000000000004, 192.0, 0.0, 0.0, 0.0, 0.0, 0.0, 0.0, 0.0, 0.0, 0.0, 1.666403680419027E9, 0.0, 2022-10-21 18:54:40.419
226.0, -111007.56955237026, -150269.28040615088, -63535.72768398854, -132435.22583666156, 49684.95514213505, -79720.82700977648, 39515.31374637053, -118492.22999718548, 0.04, 0.9580000000000001, 0.036000000000000004, 192.0, 0.0, 0.0, 0.0, 0.0, 0.0, 0.0, 0.0, 0.0, 0.0, 1.6664036804190502E9, 0.0, 2022-10-21 18:54:40.419
227.0, -111004.5967703577, -150265.63707180467, -63525.6917507281, -132406.9061764367, 49694.96872365102, -79698.87759672137, 39538.13487745939, -118484.40688662612, 0.04, 0.9580000000000001, 0.036000000000000004, 192.0, 0.0, 0.0, 0.0, 0.0, 0.0, 0.0, 0.0, 0.0, 0.0, 1.6664036804190624E9, 0.0, 2022-10-21 18:54:40.419
228.0, -111006.94370352551, -150270.48740035147, -63530.184451363624, -132405.0956851358, 49694.141709106174, -79683.45489304721, 39563.07942427152, -118486.91028200512, 0.04, 0.9580000000000001, 0.036000000000000004, 192.0, 0.0, 0.0, 0.0, 0.0, 0.0, 0.0, 0.0, 0.0, 0.0, 1.6664036804190748E9, 0.0, 2022-10-21 18:54:40.419
229.0, -111011.61521811667, -150275.49419110946, -63537.22525086704, -132427.98387145804, 49689.44784277056, -79701.1574746558, 39546.337967674495, -118490.71007856252, 0.04, 0.9580000000000001, 0.036000000000000004, 192.0, 0.0, 0.0, 0.0, 0.0, 0.0, 0.0, 0.0, 0.0, 0.0, 1.666403680419087E9, 0.0, 2022-10-21 18:54:40.419
230.0, -111012.03990126132, -150274.7118800535, -63538.61105902327, -132428.2073889026, 49691.68301721609, -79710.32168988249, 39527.11546744293, -118492.05118322984, 0.04, 0.9580000000000001, 0.036000000000000004, 192.0, 0.0, 0.0, 0.0, 0.0, 0.0, 0.0, 0.0, 0.0, 0.0, 1.666403680419099E9, 0.0, 2022-10-21 18:54:40.419
231.0, -111011.81638381677, -150275.60594983172, -63538.991038679014, -132420.2501678765, 49690.78894743788, -79706.812466003, 39531.831685523, -118493.8169710418, 0.046, 0.9580000000000001, 0.032, 192.0, 1.0, 112.0, 29.0, 240.0, 1.0, 0.0, 0.0, 0.0, 0.0, 1.6664036804191113E9, 0.0, 2022-10-21 18:54:40.419
232.0, -111009.02241575986, -150274.2648451644, -63536.822919466846, -132417.2997376084, 49694.991075395475, -79701.49275082264, 39543.72281357322, -118486.59735758274, 0.046, 0.9580000000000001, 0.032, 192.0, 0.0, 0.0, 0.0, 0.0, 0.0, 0.0, 0.0, 0.0, 0.0, 1.666403680419124E9, 0.0, 2022-10-21 18:54:40.419
233.0, -111009.8047268158, -150273.214313175, -63536.97938167804, -132421.8594934773, 49696.823918440816, -79699.056410677, 39544.01338625114, -118482.30582264732, 0.046, 0.9580000000000001, 0.032, 192.0, 0.0, 0.0, 0.0, 0.0, 0.0, 0.0, 0.0, 0.0, 0.0, 1.6664036804191363E9, 0.0, 2022-10-21 18:54:40.419
234.0, -111005.73670932493, -150270.75562128492, -63533.06782639836, -132427.4697813356, 49697.60622949675, -79712.95919572821, 39525.215569164226, -118481.97054648049, 0.046, 0.9580000000000001, 0.032, 192.0, 0.0, 0.0, 0.0, 0.0, 0.0, 0.0, 0.0, 0.0, 0.0, 1.6664036804191484E9, 0.0, 2022-10-21 18:54:40.419
235.0, -111005.35672966919, -150268.3192811393, -63530.72089323055, -132423.13354291124, 49691.9288864051, -79714.05443120652, 39524.6791272973, -118484.29512790384, 0.046, 0.9580000000000001, 0.032, 192.0, 0.0, 0.0, 0.0, 0.0, 0.0, 0.0, 0.0, 0.0, 0.0, 1.6664036804191604E9, 0.0, 2022-10-21 18:54:40.419
236.0, -111013.76098558439, -150274.64482482016, -63538.14167238971, -132425.07814467885, 49686.00567412444, -79698.09528566543, 39546.02504325212, -118494.91220652011, 0.046, 0.9580000000000001, 0.032, 192.0, 0.0, 0.0, 0.0, 0.0, 0.0, 0.0, 0.0, 0.0, 0.0, 1.6664036804191723E9, 0.0, 2022-10-21 18:54:40.419
237.0, -111011.99519777241, -150272.02967071888, -63538.87927995674, -132433.32593838286, 49686.34095029128, -79699.77166649958, 39549.266046198136, -118493.43699138606, 0.046, 0.9580000000000001, 0.032, 192.0, 0.0, 0.0, 0.0, 0.0, 0.0, 0.0, 0.0, 0.0, 0.0, 1.6664036804191847E9, 0.0, 2022-10-21 18:54:40.419
238.0, -110993.68911906352, -150253.50007456544, -63520.886125670215, -132417.34444109732, 49704.04353189988, -79709.78524801556, 39532.16696168983, -118471.15230216412, 0.046, 0.9580000000000001, 0.032, 192.0, 0.0, 0.0, 0.0, 0.0, 0.0, 0.0, 0.0, 0.0, 0.0, 1.6664036804191968E9, 0.0, 2022-10-21 18:54:40.419
239.0, -110997.31010166528, -150259.22212114598, -63525.60234375028, -132419.87018822078, 49696.62275274072, -79703.59381480144, 39526.28845289808, -118477.07551444478, 0.046, 0.9580000000000001, 0.032, 192.0, 0.0, 0.0, 0.0, 0.0, 0.0, 0.0, 0.0, 0.0, 0.0, 1.6664036804192088E9, 0.0, 2022-10-21 18:54:40.419
240.0, -110997.35480515419, -150256.78578100036, -63528.55277401838, -132415.9586329411, 49694.432281784095, -79694.36254434139, 39541.42058389432, -118477.09786618923, 0.048, 0.9580000000000001, 0.03, 192.0, 1.0, 128.0, 29.0, 240.0, 0.0, 240.0, 0.0, 0.0, 0.0, 1.666403680897362E9, 0.0, 2022-10-21 18:54:40.897
241.0, -111000.52875286684, -150260.7643915134, -63534.07365489884, -132426.79922900192, 49688.01733112542, -79699.97283219968, 39542.64992983937, -118478.93070923457, 0.048, 0.9580000000000001, 0.03, 192.0, 0.0, 0.0, 0.0, 0.0, 0.0, 0.0, 0.0, 0.0, 0.0, 1.66640368089753E9, 0.0, 2022-10-21 18:54:40.897
242.0, -110998.47239237695, -150259.0656589348, -63529.692712985605, -132428.8108860029, 49689.894877659666, -79715.77551552957, 39526.69078429828, -118478.64013655666, 0.048, 0.9580000000000001, 0.03, 192.0, 0.0, 0.0, 0.0, 0.0, 0.0, 0.0, 0.0, 0.0, 0.0, 1.6664036808976085E9, 0.0, 2022-10-21 18:54:40.897
243.0, -111004.84263954671, -150263.78187701487, -63534.25246885449, -132425.54753131242, 49688.59847648126, -79715.08261145146, 39526.04258370907, -118479.46715110149, 0.048, 0.9580000000000001, 0.03, 192.0, 0.0, 0.0, 0.0, 0.0, 0.0, 0.0, 0.0, 0.0, 0.0, 1.666403680897638E9, 0.0, 2022-10-21 18:54:40.897
244.0, -111010.78820357182, -150272.1637811856, -63538.83457646782, -132419.98194694304, 49690.856002671244, -79696.68712576474, 39546.65089209687, -118475.01915395488, 0.048, 0.9580000000000001, 0.03, 192.0, 0.0, 0.0, 0.0, 0.0, 0.0, 0.0, 0.0, 0.0, 0.0, 1.6664036808976557E9, 0.0, 2022-10-21 18:54:40.897
245.0, -111014.94562804051, -150276.05298472082, -63547.596460294306, -132424.54170281193, 49688.93375264809, -79684.0583901475, 39565.15813650586, -118483.17754068108, 0.048, 0.9580000000000001, 0.03, 192.0, 0.0, 0.0, 0.0, 0.0, 0.0, 0.0, 0.0, 0.0, 0.0, 1.6664036808976755E9, 0.0, 2022-10-21 18:54:40.897
246.0, -111013.49276465092, -150272.49905735243, -63546.76944574946, -132429.68260403664, 49689.470194515015, -79707.30420438101, 39544.21455195124, -118479.17657842358, 0.048, 0.9580000000000001, 0.03, 192.0, 0.0, 0.0, 0.0, 0.0, 0.0, 0.0, 0.0, 0.0, 0.0, 1.6664036808976903E9, 0.0, 2022-10-21 18:54:40.897
247.0, -111019.21481123148, -150277.8634760217, -63545.71891376006, -132430.53197032594, 49690.721892204514, -79716.73664054116, 39528.702441299254, -118483.11048544772, 0.048, 0.9580000000000001, 0.03, 192.0, 0.0, 0.0, 0.0, 0.0, 0.0, 0.0, 0.0, 0.0, 0.0, 1.6664036808977044E9, 0.0, 2022-10-21 18:54:40.897
248.0, -111010.6540931051, -150272.1190776967, -63544.06488467037, -132420.5630922989, 49692.42062478312, -79702.94561421224, 39544.21455195124, -118486.17267443809, 0.048, 0.9580000000000001, 0.03, 192.0, 0.0, 0.0, 0.0, 0.0, 0.0, 0.0, 0.0, 0.0, 0.0, 1.666403680897719E9, 0.0, 2022-10-21 18:54:40.897
249.0, -111004.03797674633, -150265.54766482685, -63540.041570668414, -132419.7137260096, 49696.466290529526, -79701.5151025671, 39557.089156757494, -118482.12700869168, 0.048, 0.9580000000000001, 0.03, 192.0, 0.0, 0.0, 0.0, 0.0, 0.0, 0.0, 0.0, 0.0, 0.0, 1.666403680897733E9, 0.0, 2022-10-21 18:54:40.897
250.0, -111011.27994194985, -150270.19682767356, -63549.541062061915, -132427.62624354675, 49692.53238350539, -79718.99416673115, 39539.36422340444, -118490.2630436734, 0.042, 0.962, 0.028, 192.0, 1.0, 80.0, 30.0, 16.0, 0.0, 224.0, 0.0, 0.0, 0.0, 1.6664036808977475E9, 0.0, 2022-10-21 18:54:40.897
251.0, -111006.72018608096, -150265.458257849, -63547.70821901658, -132423.53587431143, 49695.30399981785, -79721.92224525478, 39526.95900523174, -118491.9170727631, 0.042, 0.962, 0.028, 192.0, 0.0, 0.0, 0.0, 0.0, 0.0, 0.0, 0.0, 0.0, 0.0, 1.6664036808977633E9, 0.0, 2022-10-21 18:54:40.897
252.0, -111000.41699414457, -150260.3620601132, -63533.76073047647, -132413.9469759401, 49700.243735342476, -79720.87171326538, 39528.702441299254, -118485.54682559334, 0.042, 0.962, 0.028, 192.0, 0.0, 0.0, 0.0, 0.0, 0.0, 0.0, 0.0, 0.0, 0.0, 1.6664036808977787E9, 0.0, 2022-10-21 18:54:40.897
253.0, -111006.72018608096, -150267.9169497391, -63539.16985263465, -132416.2045021301, 49694.0299503839, -79708.62295730389, 39548.30492118656, -118483.04343021434, 0.042, 0.962, 0.028, 192.0, 0.0, 0.0, 0.0, 0.0, 0.0, 0.0, 0.0, 0.0, 0.0, 1.666403680897794E9, 0.0, 2022-10-21 18:54:40.897
254.0, -111009.02241575986, -150266.0617549493, -63542.81318698087, -132425.34636561232, 49692.755900949945, -79709.1593991708, 39547.12027873043, -118479.78007552387, 0.042, 0.962, 0.028, 192.0, 0.0, 0.0, 0.0, 0.0, 0.0, 0.0, 0.0, 0.0, 0.0, 1.6664036808978126E9, 0.0, 2022-10-21 18:54:40.897
255.0, -111011.59286637222, -150267.89459799466, -63541.85206196929, -132428.18503715814, 49691.414796282625, -79728.65012033583, 39522.08632494049, -118482.84226451424, 0.042, 0.962, 0.028, 192.0, 0.0, 0.0, 0.0, 0.0, 0.0, 0.0, 0.0, 0.0, 0.0, 1.66640368089783E9, 0.0, 2022-10-21 18:54:40.897
0.0, -111005.33437792474, -150268.25222590592, -63535.30300084389, -132417.32208935288, 49695.03577888439, -79728.7171755692, 39522.17573191831, -118484.00455522593, 0.042, 0.962, 0.028, 192.0, 0.0, 0.0, 0.0, 0.0, 0.0, 0.0, 0.0, 0.0, 0.0, 1.6664036808978698E9, 0.0, 2022-10-21 18:54:40.897
1.0, -110998.2488749324, -150258.79743800135, -63519.23209658052, -132400.42417054466, 49706.32340983432, -79710.7687247716, 39548.72960433121, -118470.25823238591, 0.042, 0.962, 0.028, 192.0, 0.0, 0.0, 0.0, 0.0, 0.0, 0.0, 0.0, 0.0, 0.0, 1.666403680897885E9, 0.0, 2022-10-21 18:54:40.897
2.0, -110995.56666559777, -150254.32708911027, -63520.99788439249, -132400.3571153113, 49711.03962791439, -79710.32168988249, 39548.52843863111, -118466.1678631506, 0.042, 0.962, 0.028, 192.0, 0.0, 0.0, 0.0, 0.0, 0.0, 0.0, 0.0, 0.0, 0.0, 1.6664036808978992E9, 0.0, 2022-10-21 18:54:40.897
3.0, -111003.56859011276, -150264.67594679308, -63534.07365489884, -132419.04317367592, 49701.20486035405, -79730.55001861454, 39518.644156294366, -118479.37774412367, 0.042, 0.962, 0.028, 192.0, 0.0, 0.0, 0.0, 0.0, 0.0, 0.0, 0.0, 0.0, 0.0, 1.6664036808979135E9, 0.0, 2022-10-21 18:54:40.897
4.0, -111009.0000640154, -150269.9062549956, -63541.33797184682, -132417.56795854188, 49697.02508414091, -79718.92711149777, 39528.8812552549, -118491.38063089618, 0.044, 0.962, 0.03, 192.0, 1.0, 96.0, 30.0, 16.0, 0.0, 240.0, 0.0, 0.0, 0.0, 1.6664036808979275E9, 0.0, 2022-10-21 18:54:40.897
5.0, -111005.15556396909, -150265.1229816822, -63533.85013745429, -132410.63891776072, 49698.56735450833, -79703.32559386798, 39559.25727596966, -118481.36704938019, 0.044, 0.962, 0.03, 192.0, 0.0, 0.0, 0.0, 0.0, 0.0, 0.0, 0.0, 0.0, 0.0, 1.6664036808979428E9, 0.0, 2022-10-21 18:54:40.897
6.0, -111001.4451743895, -150260.42911534657, -63529.84917519679, -132419.78078124294, 49699.57318300882, -79712.35569862791, 39558.65377886937, -118477.1649214226, 0.044, 0.962, 0.03, 192.0, 0.0, 0.0, 0.0, 0.0, 0.0, 0.0, 0.0, 0.0, 0.0, 1.6664036808979588E9, 0.0, 2022-10-21 18:54:40.897
7.0, -110997.95830225448, -150256.24933913344, -63526.965800162056, -132418.8643597203, 49706.27870634541, -79728.09132672446, 39534.24567392417, -118467.55367130681, 0.044, 0.962, 0.03, 192.0, 0.0, 0.0, 0.0, 0.0, 0.0, 0.0, 0.0, 0.0, 0.0, 1.6664036808979728E9, 0.0, 2022-10-21 18:54:40.897
8.0, -111003.16625871258, -150263.24543514795, -63533.80543396538, -132419.04317367592, 49698.85792718625, -79721.40815513232, 39535.25150242466, -118474.77328476588, 0.044, 0.962, 0.03, 192.0, 0.0, 0.0, 0.0, 0.0, 0.0, 0.0, 0.0, 0.0, 0.0, 1.666403680897987E9, 0.0, 2022-10-21 18:54:40.897
9.0, -111005.66965409156, -150264.13950492616, -63537.33700958932, -132418.97611844254, 49694.58874399528, -79703.92909096826, 39563.951142305275, -118475.68970628855, 0.044, 0.962, 0.03, 192.0, 0.0, 0.0, 0.0, 0.0, 0.0, 0.0, 0.0, 0.0, 0.0, 1.6664036808980012E9, 0.0, 2022-10-21 18:54:40.898
10.0, -111003.03214824584, -150259.3115281238, -63536.53234678893, -132419.7137260096, 49703.0824068883, -79710.09817243794, 39567.505069673665, -118472.44870334252, 0.044, 0.962, 0.03, 192.0, 0.0, 0.0, 0.0, 0.0, 0.0, 0.0, 0.0, 0.0, 0.0, 1.6664036808980153E9, 0.0, 2022-10-21 18:54:40.898
11.0, -111002.00396800089, -150260.1161909242, -63537.09114040031, -132426.59806330182, 49704.04353189988, -79734.99801576114, 39537.84430478147, -118472.64986904262, 0.044, 0.962, 0.03, 192.0, 0.0, 0.0, 0.0, 0.0, 0.0, 0.0, 0.0, 0.0, 0.0, 1.6664036808980296E9, 0.0, 2022-10-21 18:54:40.898
12.0, -111005.8484680472, -150266.77701077188, -63541.360323591274, -132427.7156505246, 49704.04353189988, -79742.35173968694, 39522.712173785236, -118471.2640608864, 0.044, 0.962, 0.03, 192.0, 0.0, 0.0, 0.0, 0.0, 0.0, 0.0, 0.0, 0.0, 0.0, 1.666403680898044E9, 0.0, 2022-10-21 18:54:40.898
13.0, -111009.8494303047, -150273.14725794166, -63542.2990968584, -132417.67971726414, 49707.10572089026, -79734.84155354995, 39529.7306215442, -118473.1639591651, 0.044, 0.962, 0.03, 192.0, 0.0, 0.0, 0.0, 0.0, 0.0, 0.0, 0.0, 0.0, 0.0, 1.666403680898058E9, 0.0, 2022-10-21 18:54:40.898
14.0, -111005.6025988582, -150264.3630223707, -63552.11151267428, -132418.4620283201, 49700.89193593168, -79723.28570166657, 39545.130973473904, -118484.85392151523, 0.042, 0.964, 0.034, 192.0, 1.0, 80.0, 30.0, 32.0, 1.0, 16.0, 0.0, 0.0, 0.0, 1.666403680898072E9, 0.0, 2022-10-21 18:54:40.898
15.0, -111002.16043021208, -150261.07731593578, -63539.88510845722, -132421.501865566, 49705.764616222936, -79720.20116093173, 39548.39432816438, -118480.94236623554, 0.042, 0.964, 0.034, 192.0, 0.0, 0.0, 0.0, 0.0, 0.0, 0.0, 0.0, 0.0, 0.0, 1.6664036808981E9, 0.0, 2022-10-21 18:54:40.898
16.0, -110993.42089813006, -150248.06860066278, -63522.830727437824, -132405.252147347, 49720.025029185425, -79725.05148947853, 39534.60330183546, -118466.27962187286, 0.042, 0.964, 0.034, 192.0, 0.0, 0.0, 0.0, 0.0, 0.0, 0.0, 0.0, 0.0, 0.0, 1.6664036808981144E9, 0.0, 2022-10-21 18:54:40.898
17.0, -110998.4500406325, -150253.5671297988, -63530.72089323055, -132403.1510833682, 49712.31367734834, -79716.84839926343, 39543.946331017774, -118471.62168879768, 0.042, 0.964, 0.034, 192.0, 0.0, 0.0, 0.0, 0.0, 0.0, 0.0, 0.0, 0.0, 0.0, 1.666403680898128E9, 0.0, 2022-10-21 18:54:40.898
18.0, -111010.67644484955, -150268.6098538172, -63541.62854452474, -132418.81965623138, 49704.37880806671, -79708.57825381497, 39563.54881090508, -118473.9686219655, 0.042, 0.964, 0.034, 192.0, 0.0, 0.0, 0.0, 0.0, 0.0, 0.0, 0.0, 0.0, 0.0, 1.666403680898142E9, 0.0, 2022-10-21 18:54:40.898
19.0, -111007.52484888135, -150263.78187701487, -63540.890936957716, -132426.508656324, 49704.781139466904, -79727.04079473506, 39545.287435685095, -118473.40982835411, 0.042, 0.964, 0.034, 192.0, 0.0, 0.0, 0.0, 0.0, 0.0, 0.0, 0.0, 0.0, 0.0, 1.666403680898156E9, 0.0, 2022-10-21 18:54:40.898
