%OpenBCI Raw EEG Data
%Number of channels = 8
%Sample Rate = 250 Hz
%Board = OpenBCI_GUI$BoardCytonSerial
Sample Index, EXG Channel 0, EXG Channel 1, EXG Channel 2, EXG Channel 3, EXG Channel 4, EXG Channel 5, EXG Channel 6, EXG Channel 7, Accel Channel 0, Accel Channel 1, Accel Channel 2, Other, Other, Other, Other, Other, Other, Other, Analog Channel 0, Analog Channel 1, Analog Channel 2, Timestamp, Other, Timestamp (Formatted)
208.0, -80196.9862219079, -113084.91833030205, 53920.25308850445, 31309.11663879355, 61339.19940462106, 81046.7771943542, 55186.077080497394, 54011.962296004574, 0.0, 0.0, 0.0, 192.0, 0.0, 0.0, 0.0, 0.0, 0.0, 0.0, 0.0, 0.0, 0.0, 1.6665561764817548E9, 0.0, 2022-10-23 13:16:16.481
209.0, -80168.04071283826, -113055.54813808778, 54550.88520656648, 31117.33867136701, 61201.78087970983, 81104.48939853781, 55460.82472334203, 54078.14581133673, 0.062, 0.9460000000000001, 0.14400000000000002, 192.0, 1.0, 240.0, 29.0, 144.0, 4.0, 128.0, 0.0, 0.0, 0.0, 1.6665561764817724E9, 0.0, 2022-10-23 13:16:16.481
210.0, -80139.51988691329, -113023.4286813055, 52459.38777439449, 31081.91115640535, 61151.06477154074, 80266.14251925261, 54095.82604120088, 52709.23557391591, 0.062, 0.9460000000000001, 0.14400000000000002, 192.0, 0.0, 0.0, 0.0, 0.0, 0.0, 0.0, 0.0, 0.0, 0.0, 1.666556176481783E9, 0.0, 2022-10-23 13:16:16.481
211.0, -80170.03001809478, -113052.24007990838, 52060.25267365607, 31186.74083790074, 61233.36389462518, 80257.51474589285, 53941.48724573699, 52720.21028044347, 0.062, 0.9460000000000001, 0.14400000000000002, 192.0, 0.0, 0.0, 0.0, 0.0, 0.0, 0.0, 0.0, 0.0, 0.0, 1.6665561764817913E9, 0.0, 2022-10-23 13:16:16.481
212.0, -80214.42058258303, -113090.81919083824, 53490.20552518434, 31298.276042732723, 61320.93802940107, 80887.36455289896, 54912.84935627572, 53746.15535094206, 0.062, 0.9460000000000001, 0.14400000000000002, 192.0, 0.0, 0.0, 0.0, 0.0, 0.0, 0.0, 0.0, 0.0, 0.0, 1.6665561764817991E9, 0.0, 2022-10-23 13:16:16.481
213.0, -80188.93959390398, -113067.90865277156, 54754.68841250997, 31169.909974325896, 61235.755531281895, 81223.8700656736, 55610.49200421477, 54261.675985059264, 0.062, 0.9460000000000001, 0.14400000000000002, 192.0, 0.0, 0.0, 0.0, 0.0, 0.0, 0.0, 0.0, 0.0, 0.0, 1.6665561764818075E9, 0.0, 2022-10-23 13:16:16.481
214.0, -80156.08252955467, -113043.79112050428, 52704.9887424694, 31046.975379821706, 61113.91617225602, 80338.04808116533, 54227.20959510918, 52821.486034570466, 0.062, 0.9460000000000001, 0.14400000000000002, 192.0, 0.0, 0.0, 0.0, 0.0, 0.0, 0.0, 0.0, 0.0, 0.0, 1.6665561764818153E9, 0.0, 2022-10-23 13:16:16.481
215.0, -80178.81425366573, -113063.4830073694, 51988.05653906543, 31166.87013707997, 61215.124871149645, 80214.84526572768, 53868.95583497952, 52628.456369454434, 0.062, 0.9460000000000001, 0.14400000000000002, 192.0, 0.0, 0.0, 0.0, 0.0, 0.0, 0.0, 0.0, 0.0, 0.0, 1.6665561764818232E9, 0.0, 2022-10-23 13:16:16.481
216.0, -80190.10188461565, -113069.89795802809, 53092.70210179116, 31301.807618356663, 61328.179994604594, 80761.30071417103, 54664.29795793271, 53510.992647527775, 0.062, 0.9460000000000001, 0.14400000000000002, 192.0, 0.0, 0.0, 0.0, 0.0, 0.0, 0.0, 0.0, 0.0, 0.0, 1.6665561764818313E9, 0.0, 2022-10-23 13:16:16.481
217.0, -80198.88612018658, -113076.17879822002, 54834.48414021542, 31220.536675517164, 61288.2150755185, 81318.3955929751, 55698.60258085759, 54392.545448845085, 0.062, 0.9460000000000001, 0.14400000000000002, 192.0, 0.0, 0.0, 0.0, 0.0, 0.0, 0.0, 0.0, 0.0, 0.0, 1.666556176481839E9, 0.0, 2022-10-23 13:16:16.481
218.0, -80144.10199452663, -113026.28970459578, 53080.2298283851, 31045.500164687655, 61132.04343700927, 80493.97385048555, 54472.34117655053, 53049.98791813707, 0.062, 0.9460000000000001, 0.14400000000000002, 192.0, 0.0, 0.0, 0.0, 0.0, 0.0, 0.0, 0.0, 0.0, 0.0, 1.6665561764818468E9, 0.0, 2022-10-23 13:16:16.481
219.0, -80156.2166400214, -113034.26927736631, 51983.0721000519, 31174.335619728045, 61230.100539934705, 80204.6305185116, 53854.47190457248, 52589.251409679826, 0.06, 0.9520000000000001, 0.156, 192.0, 1.0, 224.0, 29.0, 192.0, 4.0, 224.0, 0.0, 0.0, 0.0, 1.666556176481855E9, 0.0, 2022-10-23 13:16:16.481
220.0, -80194.70634397345, -113068.44509463849, 52729.21803345896, 31278.89708028997, 61317.965247388514, 80627.32435790592, 54432.465664442265, 53279.249761015155, 0.06, 0.9520000000000001, 0.156, 192.0, 0.0, 0.0, 0.0, 0.0, 0.0, 0.0, 0.0, 0.0, 0.0, 1.6665561764818635E9, 0.0, 2022-10-23 13:16:16.481
221.0, -80215.76168725034, -113092.16029550557, 54749.74867698535, 31266.76008305074, 61320.222773578505, 81339.69680544101, 55677.122554436035, 54414.71837934475, 0.06, 0.9520000000000001, 0.156, 192.0, 0.0, 0.0, 0.0, 0.0, 0.0, 0.0, 0.0, 0.0, 0.0, 1.6665561764818711E9, 0.0, 2022-10-23 13:16:16.481
222.0, -80169.65003843904, -113051.30130664127, 53507.03638875919, 31038.124089017405, 61125.6284863506, 80668.7421403816, 54749.83808396317, 53316.46541553324, 0.06, 0.9520000000000001, 0.156, 192.0, 0.0, 0.0, 0.0, 0.0, 0.0, 0.0, 0.0, 0.0, 0.0, 1.666556176481879E9, 0.0, 2022-10-23 13:16:16.481
223.0, -80183.64223046807, -113064.62294633663, 52024.24401333857, 31133.72250005275, 61188.191019081, 80186.34679154716, 53855.365974350694, 52549.42060106047, 0.06, 0.9520000000000001, 0.156, 192.0, 0.0, 0.0, 0.0, 0.0, 0.0, 0.0, 0.0, 0.0, 0.0, 1.666556176481888E9, 0.0, 2022-10-23 13:16:16.481
224.0, -80206.46336155693, -113083.42076342354, 52437.43836133938, 31238.596885037052, 61284.75055512793, 80488.83294926083, 54228.126016631846, 53060.6720519867, 0.06, 0.9520000000000001, 0.156, 192.0, 0.0, 0.0, 0.0, 0.0, 0.0, 0.0, 0.0, 0.0, 0.0, 1.666556176481992E9, 0.0, 2022-10-23 13:16:16.481
225.0, -80220.12027741913, -113098.26232174186, 54510.9649909693, 31306.970871325837, 61346.46372156903, 81270.94283949648, 55541.313355125596, 54320.43872123227, 0.06, 0.9520000000000001, 0.156, 192.0, 0.0, 0.0, 0.0, 0.0, 0.0, 0.0, 0.0, 0.0, 0.0, 1.6665561764820004E9, 0.0, 2022-10-23 13:16:16.482
226.0, -80170.32059077271, -113055.81635902124, 53913.14523376766, 31071.24937430017, 61158.55260593326, 80831.99928188317, 55014.75095924747, 53600.31021837118, 0.06, 0.9520000000000001, 0.156, 192.0, 0.0, 0.0, 0.0, 0.0, 0.0, 0.0, 0.0, 0.0, 0.0, 1.6665561764820082E9, 0.0, 2022-10-23 13:16:16.482
227.0, -80168.8230238942, -113052.91063224204, 52103.79387185501, 31134.01307273067, 61186.84991441369, 80187.5314340033, 53886.3678439102, 52560.440011076935, 0.06, 0.9520000000000001, 0.156, 192.0, 0.0, 0.0, 0.0, 0.0, 0.0, 0.0, 0.0, 0.0, 0.0, 1.666556176482016E9, 0.0, 2022-10-23 13:16:16.482
228.0, -80205.14460863407, -113087.06409776976, 52243.24640551167, 31223.241236596255, 61268.52318865338, 80398.95658480604, 54091.17687835418, 52912.8376141593, 0.062, 0.9480000000000001, 0.148, 192.0, 1.0, 240.0, 29.0, 160.0, 4.0, 160.0, 0.0, 0.0, 0.0, 1.666556176482024E9, 0.0, 2022-10-23 13:16:16.482
229.0, -80239.72275730643, -113124.70443543249, 54178.37103347434, 31312.80467662867, 61334.84081445227, 81170.67291386997, 55347.05434406452, 54157.449800664166, 0.062, 0.9480000000000001, 0.148, 192.0, 0.0, 0.0, 0.0, 0.0, 0.0, 0.0, 0.0, 0.0, 0.0, 1.6665561764820323E9, 0.0, 2022-10-23 13:16:16.482
230.0, -80197.38855330808, -113086.57235939174, 54323.836186389475, 31090.293060576092, 61169.34849850518, 81024.31369117662, 55299.266314419074, 53898.52719289389, 0.062, 0.9480000000000001, 0.148, 192.0, 0.0, 0.0, 0.0, 0.0, 0.0, 0.0, 0.0, 0.0, 0.0, 1.6665561764820423E9, 0.0, 2022-10-23 13:16:16.482
231.0, -80175.12621583059, -113062.87951026911, 52276.170525094334, 31095.3892583119, 61151.9811930634, 80229.15038217907, 53980.33457760031, 52615.805282092726, 0.062, 0.9480000000000001, 0.148, 192.0, 0.0, 0.0, 0.0, 0.0, 0.0, 0.0, 0.0, 0.0, 0.0, 1.6665561764820502E9, 0.0, 2022-10-23 13:16:16.482
232.0, -80198.6849544865, -113087.55583614777, 52116.46731096117, 31211.484219012764, 61262.68938335054, 80329.1073833832, 53993.16447891766, 52793.2110778345, 0.062, 0.9480000000000001, 0.148, 192.0, 0.0, 0.0, 0.0, 0.0, 0.0, 0.0, 0.0, 0.0, 0.0, 1.666556176482058E9, 0.0, 2022-10-23 13:16:16.482
233.0, -80235.09594620418, -113125.88907788863, 53823.492386757425, 31323.354700011576, 61351.55991930484, 81060.99290382778, 55144.078152665876, 53963.41430704765, 0.062, 0.9480000000000001, 0.148, 192.0, 0.0, 0.0, 0.0, 0.0, 0.0, 0.0, 0.0, 0.0, 0.0, 1.666556176482066E9, 0.0, 2022-10-23 13:16:16.482
234.0, -80197.25444284135, -113090.50626641588, 54647.06476295767, 31140.33861641152, 61208.084071646226, 81176.73023661735, 55529.355171842006, 54145.67043133622, 0.062, 0.9480000000000001, 0.148, 192.0, 0.0, 0.0, 0.0, 0.0, 0.0, 0.0, 0.0, 0.0, 0.0, 1.6665561764820735E9, 0.0, 2022-10-23 13:16:16.482
235.0, -80166.36433200412, -113056.82218752173, 52511.48969071981, 31076.05499935806, 61135.70912309994, 80286.1026270512, 54109.058273918425, 52712.47657686193, 0.062, 0.9480000000000001, 0.148, 192.0, 0.0, 0.0, 0.0, 0.0, 0.0, 0.0, 0.0, 0.0, 0.0, 1.6665561764820817E9, 0.0, 2022-10-23 13:16:16.482
236.0, -80193.0746666282, -113081.65497561157, 52026.65800173974, 31197.06734383909, 61242.34929589621, 80260.17460348304, 53909.59130639926, 52682.90521894756, 0.062, 0.9480000000000001, 0.148, 192.0, 0.0, 0.0, 0.0, 0.0, 0.0, 0.0, 0.0, 0.0, 0.0, 1.6665561764820893E9, 0.0, 2022-10-23 13:16:16.482
237.0, -80230.22326591292, -113121.55283946429, 53357.88319800892, 31312.558807439666, 61328.98465740498, 80868.03029394512, 54834.81941638225, 53672.126373306084, 0.062, 0.9480000000000001, 0.148, 192.0, 0.0, 0.0, 0.0, 0.0, 0.0, 0.0, 0.0, 0.0, 0.0, 1.6665561764820971E9, 0.0, 2022-10-23 13:16:16.482
238.0, -80222.7354315204, -113124.43621449903, 54804.9351340455, 31187.70196291232, 61244.8079877863, 81276.24020293239, 55656.06721115914, 54317.2200700307, 0.06, 0.9440000000000001, 0.154, 192.0, 1.0, 224.0, 29.0, 128.0, 4.0, 208.0, 0.0, 0.0, 0.0, 1.666556176482105E9, 0.0, 2022-10-23 13:16:16.482
239.0, -80182.39053277858, -113082.32552794523, 52850.87857852919, 31051.915115346328, 61115.48079436789, 80408.92546283311, 54324.70790442323, 52901.63939018719, 0.06, 0.9440000000000001, 0.154, 192.0, 0.0, 0.0, 0.0, 0.0, 0.0, 0.0, 0.0, 0.0, 0.0, 1.6665561764821436E9, 0.0, 2022-10-23 13:16:16.482
240.0, -80205.85986445664, -113097.7929351083, 51987.78831813196, 31175.475558695267, 61215.37074033866, 80211.73837324839, 53862.74205002094, 52605.5681831322, 0.06, 0.9440000000000001, 0.154, 192.0, 0.0, 0.0, 0.0, 0.0, 0.0, 0.0, 0.0, 0.0, 0.0, 1.666556176482152E9, 0.0, 2022-10-23 13:16:16.482
241.0, -80243.18727769701, -113133.66748495908, 52965.833600262835, 31288.2848129612, 61311.01385486292, 80711.74689671361, 54584.79280290518, 53421.11628307299, 0.06, 0.9440000000000001, 0.154, 192.0, 0.0, 0.0, 0.0, 0.0, 0.0, 0.0, 0.0, 0.0, 0.0, 1.66655617648216E9, 0.0, 2022-10-23 13:16:16.482
242.0, -80260.66634186106, -113151.88415669015, 54835.0429338268, 31238.23925712577, 61285.35405222822, 81333.43831699352, 55708.727921095844, 54405.6435710959, 0.06, 0.9440000000000001, 0.154, 192.0, 0.0, 0.0, 0.0, 0.0, 0.0, 0.0, 0.0, 0.0, 0.0, 1.666556176482168E9, 0.0, 2022-10-23 13:16:16.482
243.0, -80212.81125698224, -113107.40418522409, 53240.357725662914, 31040.67218788531, 61113.73735830037, 80549.02619707897, 54572.65580566595, 53131.527081910026, 0.06, 0.9440000000000001, 0.154, 192.0, 0.0, 0.0, 0.0, 0.0, 0.0, 0.0, 0.0, 0.0, 0.0, 1.666556176482176E9, 0.0, 2022-10-23 13:16:16.482
244.0, -80237.688748561, -113126.89490638912, 51965.2130562321, 31144.87602053595, 61183.608911467665, 80154.7190731429, 53819.714941944476, 52532.7014962079, 0.06, 0.9440000000000001, 0.154, 192.0, 0.0, 0.0, 0.0, 0.0, 0.0, 0.0, 0.0, 0.0, 0.0, 1.666556176482184E9, 0.0, 2022-10-23 13:16:16.482
245.0, -80289.79066488633, -113175.35348836822, 52588.93848525745, 31246.643513040963, 61277.24036899095, 80533.91641782719, 54320.93045961028, 53163.4453729922, 0.06, 0.9440000000000001, 0.154, 192.0, 0.0, 0.0, 0.0, 0.0, 0.0, 0.0, 0.0, 0.0, 0.0, 1.6665561764821918E9, 0.0, 2022-10-23 13:16:16.482
246.0, -80334.1141741412, -113214.04435802036, 54668.79065856823, 31261.395664381467, 61297.73691865646, 81293.38399092961, 55618.762149663235, 54370.41722183433, 0.06, 0.9440000000000001, 0.154, 192.0, 0.0, 0.0, 0.0, 0.0, 0.0, 0.0, 0.0, 0.0, 0.0, 1.6665561764822E9, 0.0, 2022-10-23 13:16:16.482
247.0, -80282.70516189399, -113169.67614527658, 53632.787303064746, 31044.226115253703, 61119.23588743638, 80697.68764945123, 54819.8884510861, 53394.2047827488, 0.06, 0.9440000000000001, 0.154, 192.0, 0.0, 0.0, 0.0, 0.0, 0.0, 0.0, 0.0, 0.0, 0.0, 1.6665561764822078E9, 0.0, 2022-10-23 13:16:16.482
248.0, -80294.81980738876, -113179.93559598156, 52022.21000459314, 31139.601008844496, 61181.26197829986, 80154.45085220944, 53836.277584585856, 52531.986240385326, 0.052000000000000005, 0.9480000000000001, 0.156, 192.0, 1.0, 160.0, 29.0, 160.0, 4.0, 224.0, 0.0, 0.0, 0.0, 1.6665561764822156E9, 0.0, 2022-10-23 13:16:16.482
249.0, -80343.50190681242, -113224.23675349198, 52332.69808682181, 31237.859277470026, 61270.22192123198, 80421.59890193927, 54145.96100401414, 52983.75969931599, 0.052000000000000005, 0.9480000000000001, 0.156, 192.0, 0.0, 0.0, 0.0, 0.0, 0.0, 0.0, 0.0, 0.0, 0.0, 1.6665561764822245E9, 0.0, 2022-10-23 13:16:16.482
250.0, -80386.84193931127, -113263.48641675549, 54404.1907077063, 31297.046696787682, 61323.24025907997, 81226.52992326379, 55476.33683399401, 54265.96751999468, 0.052000000000000005, 0.9480000000000001, 0.156, 192.0, 0.0, 0.0, 0.0, 0.0, 0.0, 0.0, 0.0, 0.0, 0.0, 1.666556176482232E9, 0.0, 2022-10-23 13:16:16.482
251.0, -80344.41832833509, -113223.40973894713, 54047.56862492188, 31065.415568997334, 61136.558489389245, 80875.00403821516, 55097.944152110125, 53687.07969034668, 0.052000000000000005, 0.9480000000000001, 0.156, 192.0, 0.0, 0.0, 0.0, 0.0, 0.0, 0.0, 0.0, 0.0, 0.0, 1.666556176482241E9, 0.0, 2022-10-23 13:16:16.482
252.0, -80351.28031388287, -113229.15413727214, 52123.66457267578, 31116.511656822167, 61158.97728907791, 80168.68891342747, 53882.05395723033, 52553.73448774034, 0.052000000000000005, 0.9480000000000001, 0.156, 192.0, 0.0, 0.0, 0.0, 0.0, 0.0, 0.0, 0.0, 0.0, 0.0, 1.6665561764822488E9, 0.0, 2022-10-23 13:16:16.482
253.0, -80401.16940750711, -113279.82554195232, 52162.444849305735, 31205.583358476564, 61241.634040073644, 80350.78857550485, 54025.46274965558, 52853.47138088601, 0.052000000000000005, 0.9480000000000001, 0.156, 192.0, 0.0, 0.0, 0.0, 0.0, 0.0, 0.0, 0.0, 0.0, 0.0, 1.6665561764822564E9, 0.0, 2022-10-23 13:16:16.482
254.0, -80445.55997199536, -113317.5999900818, 54038.091485272824, 31312.022365572735, 61326.5259655149, 81122.68371852442, 55261.26834884505, 54088.36055855281, 0.052000000000000005, 0.9480000000000001, 0.156, 192.0, 0.0, 0.0, 0.0, 0.0, 0.0, 0.0, 0.0, 0.0, 0.0, 1.6665561764822645E9, 0.0, 2022-10-23 13:16:16.482
255.0, -80416.34624199227, -113293.41540258116, 54416.28300145662, 31101.088953148002, 61170.13080956112, 81060.18824102738, 55357.55966395851, 53980.088708411306, 0.052000000000000005, 0.9480000000000001, 0.156, 192.0, 0.0, 0.0, 0.0, 0.0, 0.0, 0.0, 0.0, 0.0, 0.0, 1.6665561764822805E9, 0.0, 2022-10-23 13:16:16.482
0.0, -80393.61451788123, -113272.94120466009, 52312.760330767676, 31075.160929579848, 61122.58864910468, 80220.36614660814, 53988.82824049333, 52630.11039854412, 0.052000000000000005, 0.9480000000000001, 0.156, 192.0, 0.0, 0.0, 0.0, 0.0, 0.0, 0.0, 0.0, 0.0, 0.0, 1.6665561764822886E9, 0.0, 2022-10-23 13:16:16.482
1.0, -80428.25972178695, -113301.70789977408, 52023.752274960556, 31182.89633785443, 61216.600086283695, 80265.00258028539, 53912.072350033806, 52721.12670196613, 0.054, 0.9480000000000001, 0.15, 192.0, 1.0, 176.0, 29.0, 160.0, 4.0, 176.0, 0.0, 0.0, 0.0, 1.6665561764822965E9, 0.0, 2022-10-23 13:16:16.482
2.0, -80464.17897512663, -113331.65923734418, 53587.65913100948, 31306.09915329208, 61314.09839559775, 80955.31385604308, 54974.92015062811, 53826.018133880876, 0.054, 0.9480000000000001, 0.15, 192.0, 0.0, 0.0, 0.0, 0.0, 0.0, 0.0, 0.0, 0.0, 0.0, 1.6665561764823048E9, 0.0, 2022-10-23 13:16:16.482
3.0, -80436.97690212452, -113306.71469053206, 54671.74108883633, 31158.152956742404, 61223.372664853654, 81212.7165451904, 55553.33859364255, 54213.61973448035, 0.054, 0.9480000000000001, 0.15, 192.0, 0.0, 0.0, 0.0, 0.0, 0.0, 0.0, 0.0, 0.0, 0.0, 1.6665561764823124E9, 0.0, 2022-10-23 13:16:16.482
4.0, -80391.98284053599, -113264.42519002262, 52581.11537469809, 31069.327124277013, 61130.52351838631, 80326.82750544876, 54160.377879187814, 52775.48614448144, 0.054, 0.9480000000000001, 0.15, 192.0, 0.0, 0.0, 0.0, 0.0, 0.0, 0.0, 0.0, 0.0, 0.0, 1.6665561764823203E9, 0.0, 2022-10-23 13:16:16.482
5.0, -80423.00706183995, -113289.79441997939, 51967.112954510805, 31183.611593676997, 61226.14428116611, 80240.59447534019, 53874.163791437604, 52653.5797302222, 0.054, 0.9480000000000001, 0.15, 192.0, 0.0, 0.0, 0.0, 0.0, 0.0, 0.0, 0.0, 0.0, 0.0, 1.6665561764823282E9, 0.0, 2022-10-23 13:16:16.482
6.0, -80447.14694585168, -113309.55336207789, 53162.68541368072, 31297.449028187875, 61312.734939185975, 80801.51150244613, 54717.02572310278, 53574.58336050312, 0.054, 0.9480000000000001, 0.15, 192.0, 0.0, 0.0, 0.0, 0.0, 0.0, 0.0, 0.0, 0.0, 0.0, 1.666556176482336E9, 0.0, 2022-10-23 13:16:16.482
7.0, -80423.56585545134, -113287.96157693406, 54768.88177023909, 31208.35497478902, 61263.91872929558, 81293.49574965189, 55651.73097273481, 54347.95371865675, 0.054, 0.9480000000000001, 0.15, 192.0, 0.0, 0.0, 0.0, 0.0, 0.0, 0.0, 0.0, 0.0, 0.0, 1.6665561764823437E9, 0.0, 2022-10-23 13:16:16.482
8.0, -80354.1189854287, -113221.88982032417, 52921.577146241325, 31061.43695848429, 61132.713989342934, 80454.5900767553, 54379.80495450556, 52977.0541759794, 0.054, 0.9480000000000001, 0.15, 192.0, 0.0, 0.0, 0.0, 0.0, 0.0, 0.0, 0.0, 0.0, 0.0, 1.6665561764823515E9, 0.0, 2022-10-23 13:16:16.482
9.0, -80368.6252675802, -113234.0715210523, 51937.541596596435, 31172.301610982613, 61215.01311242737, 80200.8307219542, 53834.64590724062, 52590.145479458035, 0.054, 0.9480000000000001, 0.15, 192.0, 0.0, 0.0, 0.0, 0.0, 0.0, 0.0, 0.0, 0.0, 0.0, 1.6665561764823592E9, 0.0, 2022-10-23 13:16:16.482
10.0, -80398.71071561704, -113260.22306206502, 52780.582342217254, 31278.22652795631, 61297.04401457835, 80642.27767494651, 54467.1555718369, 53328.043619161086, 0.054, 0.9480000000000001, 0.15, 192.0, 0.0, 0.0, 0.0, 0.0, 0.0, 0.0, 0.0, 0.0, 0.0, 1.6665561764823673E9, 0.0, 2022-10-23 13:16:16.482
11.0, -80386.86429105572, -113246.81201539184, 54762.869150980616, 31265.307219661147, 61305.98471236047, 81337.95336937348, 55687.046728974194, 54425.31310621656, 0.06, 0.9480000000000001, 0.148, 192.0, 1.0, 224.0, 29.0, 160.0, 4.0, 160.0, 0.0, 0.0, 0.0, 1.666556176482375E9, 0.0, 2022-10-23 13:16:16.482
12.0, -80319.63024373415, -113178.03569770286, 53372.009500504675, 31050.90928684584, 61130.94820153096, 80632.42055564173, 54681.620559885574, 53256.85331307093, 0.06, 0.9480000000000001, 0.148, 192.0, 0.0, 0.0, 0.0, 0.0, 0.0, 0.0, 0.0, 0.0, 0.0, 1.6665561764823833E9, 0.0, 2022-10-23 13:16:16.482
13.0, -80317.32801405525, -113171.01724994389, 52011.10118759885, 31154.59902937401, 61197.042309885306, 80207.29037610178, 53876.130744949674, 52582.83645902115, 0.06, 0.9480000000000001, 0.148, 192.0, 0.0, 0.0, 0.0, 0.0, 0.0, 0.0, 0.0, 0.0, 0.0, 1.666556176482391E9, 0.0, 2022-10-23 13:16:16.482
14.0, -80330.91787468409, -113180.9190727376, 52511.31087676417, 31262.71441730433, 61290.69611915304, 80530.63071139225, 54297.57288665449, 53132.912890066254, 0.06, 0.9480000000000001, 0.148, 192.0, 0.0, 0.0, 0.0, 0.0, 0.0, 0.0, 0.0, 0.0, 0.0, 1.6665561764824235E9, 0.0, 2022-10-23 13:16:16.482
15.0, -80343.83718297926, -113196.43118338958, 54595.81221292165, 31299.41598169994, 61330.81750045032, 81305.72215386893, 55610.11202455903, 54370.26075962315, 0.06, 0.9480000000000001, 0.148, 192.0, 0.0, 0.0, 0.0, 0.0, 0.0, 0.0, 0.0, 0.0, 0.0, 1.6665561764824317E9, 0.0, 2022-10-23 13:16:16.482
16.0, -80264.82376632975, -113123.58684820973, 53799.285447512324, 31073.14927257887, 61149.74601861787, 80801.75737163513, 54962.89491211116, 53532.942060582885, 0.06, 0.9480000000000001, 0.148, 192.0, 0.0, 0.0, 0.0, 0.0, 0.0, 0.0, 0.0, 0.0, 0.0, 1.6665561764824412E9, 0.0, 2022-10-23 13:16:16.482
17.0, -80250.83157430073, -113112.32156900426, 52062.08551670141, 31145.904200780893, 61185.911141146564, 80189.49838751536, 53883.70798632002, 52558.71892675387, 0.06, 0.9480000000000001, 0.148, 192.0, 0.0, 0.0, 0.0, 0.0, 0.0, 0.0, 0.0, 0.0, 0.0, 1.6665561764824493E9, 0.0, 2022-10-23 13:16:16.482
18.0, -80272.98215305593, -113135.72384544896, 52279.27741757363, 31250.28684738718, 61283.65531964962, 80431.94775962207, 54137.62380333231, 52958.68104203714, 0.06, 0.9480000000000001, 0.148, 192.0, 0.0, 0.0, 0.0, 0.0, 0.0, 0.0, 0.0, 0.0, 0.0, 1.6665561764824572E9, 0.0, 2022-10-23 13:16:16.482
19.0, -80298.06081033479, -113159.43904631604, 54282.32899693597, 31326.550999468687, 61346.7319425025, 81221.34431855015, 55431.8345107835, 54226.18141486424, 0.06, 0.9480000000000001, 0.148, 192.0, 0.0, 0.0, 0.0, 0.0, 0.0, 0.0, 0.0, 0.0, 0.0, 1.6665561764824648E9, 0.0, 2022-10-23 13:16:16.482
20.0, -80233.84424851468, -113101.16804852105, 54156.399268674766, 31099.591386269498, 61168.365021749145, 80949.77062341817, 55196.3812346913, 53796.580886433236, 0.06, 0.9480000000000001, 0.148, 192.0, 0.0, 0.0, 0.0, 0.0, 0.0, 0.0, 0.0, 0.0, 0.0, 1.666556176482473E9, 0.0, 2022-10-23 13:16:16.482
21.0, -80222.64602454258, -113088.29344371479, 52154.24175909063, 31123.48540109222, 61167.62741418212, 80192.29235557227, 53916.56505066932, 52580.578932831166, 0.064, 0.9420000000000001, 0.152, 192.0, 2.0, 0.0, 29.0, 112.0, 4.0, 192.0, 0.0, 0.0, 0.0, 1.6665561764824805E9, 0.0, 2022-10-23 13:16:16.482
22.0, -80253.98317026893, -113119.89881037461, 52094.51789790606, 31224.761155219217, 61264.81279907379, 80333.711842741, 53996.986627219514, 52822.84949098224, 0.064, 0.9420000000000001, 0.152, 192.0, 0.0, 0.0, 0.0, 0.0, 0.0, 0.0, 0.0, 0.0, 0.0, 1.6665561764824896E9, 0.0, 2022-10-23 13:16:16.482
23.0, -80298.5078452239, -113164.66935451858, 53884.08796597576, 31310.94948183888, 61330.37046556121, 81075.45448249037, 55185.96532177512, 54017.70669432959, 0.064, 0.9420000000000001, 0.152, 192.0, 0.0, 0.0, 0.0, 0.0, 0.0, 0.0, 0.0, 0.0, 0.0, 1.6665561764824977E9, 0.0, 2022-10-23 13:16:16.482
24.0, -80227.42929785601, -113098.28467348633, 54535.55190987014, 31134.750680297697, 61197.91402791906, 81131.66911979546, 55464.93744432181, 54090.50632602052, 0.064, 0.9420000000000001, 0.152, 192.0, 0.0, 0.0, 0.0, 0.0, 0.0, 0.0, 0.0, 0.0, 0.0, 1.666556176482505E9, 0.0, 2022-10-23 13:16:16.482
25.0, -80178.43427400998, -113047.00977170585, 52409.65514298143, 31107.3921450844, 61154.37282972012, 80264.62260062965, 54065.98646235305, 52698.17146041054, 0.064, 0.9420000000000001, 0.152, 192.0, 0.0, 0.0, 0.0, 0.0, 0.0, 0.0, 0.0, 0.0, 0.0, 1.6665561764825132E9, 0.0, 2022-10-23 13:16:16.482
26.0, -80202.68591674398, -113068.13217021611, 52003.99333286206, 31224.939969174862, 61263.18112172856, 80260.71104534996, 53913.033475045384, 52723.76420781186, 0.064, 0.9420000000000001, 0.152, 192.0, 0.0, 0.0, 0.0, 0.0, 0.0, 0.0, 0.0, 0.0, 0.0, 1.666556176482521E9, 0.0, 2022-10-23 13:16:16.482
27.0, -80240.39330964009, -113104.3419962337, 53461.05885041462, 31337.50335425179, 61358.95834671955, 80913.73961135621, 54918.99608600093, 53787.908409584576, 0.064, 0.9420000000000001, 0.152, 192.0, 0.0, 0.0, 0.0, 0.0, 0.0, 0.0, 0.0, 0.0, 0.0, 1.6665561764825287E9, 0.0, 2022-10-23 13:16:16.482
28.0, -80222.31074837575, -113094.66369088455, 54784.0809564687, 31190.764151902695, 61260.94594728303, 81273.96032499794, 55661.52103680623, 54336.554328984545, 0.064, 0.9420000000000001, 0.152, 192.0, 0.0, 0.0, 0.0, 0.0, 0.0, 0.0, 0.0, 0.0, 0.0, 1.6665561764825368E9, 0.0, 2022-10-23 13:16:16.482
29.0, -80172.77928266278, -113046.31686762773, 52761.80687687479, 31080.34653429348, 61148.18139650601, 80390.6193841242, 54293.75073835263, 52899.001884341465, 0.064, 0.9420000000000001, 0.152, 192.0, 0.0, 0.0, 0.0, 0.0, 0.0, 0.0, 0.0, 0.0, 0.0, 1.6665561764825444E9, 0.0, 2022-10-23 13:16:16.482
30.0, -80198.21556785292, -113069.29446092779, 51999.50063222655, 31200.75538167422, 61240.583508084244, 80225.95408272196, 53893.85567830273, 52666.677852473, 0.064, 0.9420000000000001, 0.152, 192.0, 0.0, 0.0, 0.0, 0.0, 0.0, 0.0, 0.0, 0.0, 0.0, 1.666556176482561E9, 0.0, 2022-10-23 13:16:16.482
31.0, -80238.15813519456, -113108.41001372457, 53081.392119096774, 31315.15160979648, 61336.80776796434, 80752.31531289998, 54671.31640569168, 53531.332734982105, 0.058, 0.9500000000000001, 0.14400000000000002, 192.0, 1.0, 208.0, 29.0, 176.0, 4.0, 128.0, 0.0, 0.0, 0.0, 1.6665561764825692E9, 0.0, 2022-10-23 13:16:16.482
32.0, -80227.94338797849, -113098.46348744196, 54879.03116691484, 31252.119690432515, 61303.99540710395, 81342.82604966474, 55745.787113402745, 54449.29652801711, 0.058, 0.9500000000000001, 0.14400000000000002, 192.0, 0.0, 0.0, 0.0, 0.0, 0.0, 0.0, 0.0, 0.0, 0.0, 1.6665561764825776E9, 0.0, 2022-10-23 13:16:16.482
33.0, -80168.86772738311, -113040.41600709152, 53156.38222174433, 31080.078313360016, 61147.35438196116, 80523.63461537774, 54536.133055225975, 53114.20447995717, 0.058, 0.9500000000000001, 0.14400000000000002, 192.0, 0.0, 0.0, 0.0, 0.0, 0.0, 0.0, 0.0, 0.0, 0.0, 1.6665561764825854E9, 0.0, 2022-10-23 13:16:16.482
34.0, -80195.24278584037, -113063.25948992485, 52046.39459209378, 31185.73500940025, 61225.42902534355, 80215.64992852807, 53905.05390227484, 52629.08221829918, 0.058, 0.9500000000000001, 0.14400000000000002, 192.0, 0.0, 0.0, 0.0, 0.0, 0.0, 0.0, 0.0, 0.0, 0.0, 1.6665561764825933E9, 0.0, 2022-10-23 13:16:16.482
35.0, -80225.32823387721, -113091.44503968299, 52765.15963854309, 31291.883443818504, 61308.599866461744, 80614.22623565511, 54458.86307464398, 53294.761871667135, 0.058, 0.9500000000000001, 0.14400000000000002, 192.0, 0.0, 0.0, 0.0, 0.0, 0.0, 0.0, 0.0, 0.0, 0.0, 1.6665561764826012E9, 0.0, 2022-10-23 13:16:16.482
36.0, -80226.57993156671, -113097.01062405237, 54780.191752933475, 31299.281871233212, 61329.54345101636, 81321.90481685459, 55696.076833734136, 54432.1974435088, 0.058, 0.9500000000000001, 0.14400000000000002, 192.0, 0.0, 0.0, 0.0, 0.0, 0.0, 0.0, 0.0, 0.0, 0.0, 1.6665561764826088E9, 0.0, 2022-10-23 13:16:16.482
37.0, -80168.26423028282, -113040.84069023617, 53576.17033435945, 31091.924737921327, 61165.86162637015, 80679.0462945755, 54802.54349738878, 53369.30493942559, 0.058, 0.9500000000000001, 0.14400000000000002, 192.0, 0.0, 0.0, 0.0, 0.0, 0.0, 0.0, 0.0, 0.0, 0.0, 1.666556176482617E9, 0.0, 2022-10-23 13:16:16.482
38.0, -80172.75693091833, -113039.90191696906, 52118.16604353977, 31194.22867229327, 61236.29197314882, 80218.48860007389, 53933.597079944266, 52622.80137810724, 0.058, 0.9500000000000001, 0.14400000000000002, 192.0, 0.0, 0.0, 0.0, 0.0, 0.0, 0.0, 0.0, 0.0, 0.0, 1.6665561764826255E9, 0.0, 2022-10-23 13:16:16.482
39.0, -80207.37978307961, -113068.19922544948, 52527.87351940555, 31285.08851350409, 61317.45115726604, 80513.7551443285, 54296.87998257637, 53125.17918648472, 0.058, 0.9500000000000001, 0.14400000000000002, 192.0, 0.0, 0.0, 0.0, 0.0, 0.0, 0.0, 0.0, 0.0, 0.0, 1.666556176482633E9, 0.0, 2022-10-23 13:16:16.482
40.0, -80247.88114403262, -113109.46054571397, 54634.659544784976, 31317.431487730923, 61350.79995999336, 81310.08074403772, 55632.01673412523, 54395.78645179111, 0.06, 0.9520000000000001, 0.146, 192.0, 1.0, 224.0, 29.0, 192.0, 4.0, 144.0, 0.0, 0.0, 0.0, 1.6665561764826412E9, 0.0, 2022-10-23 13:16:16.482
41.0, -80185.25155606885, -113052.30713514176, 54052.79893312442, 31078.781912181606, 61152.71880063043, 80864.74458751018, 55106.34840802532, 53670.62880642758, 0.06, 0.9520000000000001, 0.146, 192.0, 0.0, 0.0, 0.0, 0.0, 0.0, 0.0, 0.0, 0.0, 0.0, 1.6665561764826498E9, 0.0, 2022-10-23 13:16:16.482
42.0, -80178.63543971008, -113043.56760305972, 52219.66531511132, 31144.317226924566, 61185.978196379925, 80208.43031506901, 53958.92160641213, 52612.720741357894, 0.06, 0.9520000000000001, 0.146, 192.0, 0.0, 0.0, 0.0, 0.0, 0.0, 0.0, 0.0, 0.0, 0.0, 1.666556176482659E9, 0.0, 2022-10-23 13:16:16.482
43.0, -80202.26123359933, -113063.30419341376, 52329.32297340906, 31248.163431663925, 61278.42501144708, 80405.729163376, 54140.86480627833, 52950.54500705541, 0.06, 0.9520000000000001, 0.146, 192.0, 0.0, 0.0, 0.0, 0.0, 0.0, 0.0, 0.0, 0.0, 0.0, 1.6665561764826677E9, 0.0, 2022-10-23 13:16:16.482
44.0, -80232.27962640281, -113088.11462975916, 54254.72459253366, 31343.38186304353, 61353.95155596156, 81177.49019592884, 55394.61885626541, 54193.72668191513, 0.06, 0.9520000000000001, 0.146, 192.0, 0.0, 0.0, 0.0, 0.0, 0.0, 0.0, 0.0, 0.0, 0.0, 1.6665561764826756E9, 0.0, 2022-10-23 13:16:16.482
45.0, -80185.29625955776, -113050.22842290741, 54431.37042896396, 31131.12969769594, 61196.68468197402, 81043.26797047473, 55367.081507096475, 53955.8370656773, 0.06, 0.9520000000000001, 0.146, 192.0, 0.0, 0.0, 0.0, 0.0, 0.0, 0.0, 0.0, 0.0, 0.0, 1.6665561764826837E9, 0.0, 2022-10-23 13:16:16.482
46.0, -80167.45956748242, -113031.92234419851, 52386.498735725734, 31129.900351750894, 61169.52731246082, 80249.51282137785, 54048.7085638891, 52671.50582927535, 0.06, 0.9520000000000001, 0.146, 192.0, 0.0, 0.0, 0.0, 0.0, 0.0, 0.0, 0.0, 0.0, 0.0, 1.6665561764827E9, 0.0, 2022-10-23 13:16:16.482
47.0, -80198.64025099757, -113057.7833125333, 52188.596390318446, 31234.685329757373, 61255.3580111692, 80321.57484550177, 54026.24506071152, 52813.215889122, 0.06, 0.9520000000000001, 0.146, 192.0, 0.0, 0.0, 0.0, 0.0, 0.0, 0.0, 0.0, 0.0, 0.0, 1.6665561764827077E9, 0.0, 2022-10-23 13:16:16.482
48.0, -80233.50897234786, -113092.9426065615, 53876.04133797185, 31344.790022944217, 61352.789265249885, 81045.2796274757, 55162.42893486368, 53975.50660079797, 0.06, 0.9520000000000001, 0.146, 192.0, 0.0, 0.0, 0.0, 0.0, 0.0, 0.0, 0.0, 0.0, 0.0, 1.666556176482716E9, 0.0, 2022-10-23 13:16:16.482
49.0, -80190.37010554911, -113054.69877179847, 54727.53104299677, 31161.326904455058, 61213.6496560156, 81171.11994875908, 55567.97898626077, 54181.65673990927, 0.06, 0.9520000000000001, 0.146, 192.0, 0.0, 0.0, 0.0, 0.0, 0.0, 0.0, 0.0, 0.0, 0.0, 1.6665561764827237E9, 0.0, 2022-10-23 13:16:16.482
50.0, -80159.88232611207, -113020.52295452631, 52589.18435444646, 31092.081200132514, 61139.88889931308, 80275.37378971264, 54146.8327220479, 52742.31615570976, 0.058, 0.9500000000000001, 0.146, 192.0, 1.0, 208.0, 29.0, 176.0, 4.0, 144.0, 0.0, 0.0, 0.0, 1.6665561764827313E9, 0.0, 2022-10-23 13:16:16.482
51.0, -80185.76564619133, -113039.70075126896, 52090.82986007093, 31220.55902726162, 61258.755476326405, 80244.05899573077, 53939.58734745829, 52707.67095180404, 0.058, 0.9500000000000001, 0.146, 192.0, 0.0, 0.0, 0.0, 0.0, 0.0, 0.0, 0.0, 0.0, 0.0, 1.6665561764827397E9, 0.0, 2022-10-23 13:16:16.482
52.0, -80221.01434719734, -113075.441190653, 53426.16777731988, 31339.96204614187, 61355.62793679571, 80860.36364559694, 54871.18570461103, 53701.4742137759, 0.058, 0.9500000000000001, 0.146, 192.0, 0.0, 0.0, 0.0, 0.0, 0.0, 0.0, 0.0, 0.0, 0.0, 1.6665561764827476E9, 0.0, 2022-10-23 13:16:16.482
53.0, -80196.69564922997, -113062.14190270209, 54883.322701850266, 31221.497800528745, 61274.46875267849, 81268.30533365076, 55696.16624071196, 54355.66507049383, 0.058, 0.9500000000000001, 0.146, 192.0, 0.0, 0.0, 0.0, 0.0, 0.0, 0.0, 0.0, 0.0, 0.0, 1.6665561764827554E9, 0.0, 2022-10-23 13:16:16.482
54.0, -80136.45769792292, -113007.8271636757, 52897.70548316306, 31087.29792681908, 61138.12311150112, 80374.14614846066, 54334.69913419475, 52918.60436422877, 0.058, 0.9500000000000001, 0.146, 192.0, 0.0, 0.0, 0.0, 0.0, 0.0, 0.0, 0.0, 0.0, 0.0, 1.6665561764827633E9, 0.0, 2022-10-23 13:16:16.482
55.0, -80163.19038429146, -113034.4257395775, 52019.23722258058, 31201.60474796352, 61232.73804578043, 80180.64709671105, 53868.95583497952, 52617.973401304895, 0.058, 0.9500000000000001, 0.146, 192.0, 0.0, 0.0, 0.0, 0.0, 0.0, 0.0, 0.0, 0.0, 0.0, 1.6665561764827712E9, 0.0, 2022-10-23 13:16:16.482
56.0, -80203.11059988863, -113068.82507429423, 53002.266943724986, 31306.657946903462, 61321.63093347919, 80693.91020463828, 54603.389454291995, 53443.02099263918, 0.058, 0.9500000000000001, 0.146, 192.0, 0.0, 0.0, 0.0, 0.0, 0.0, 0.0, 0.0, 0.0, 0.0, 1.6665561764827793E9, 0.0, 2022-10-23 13:16:16.482
57.0, -80209.70436450296, -113074.48006564142, 54886.76487049638, 31268.682333073895, 61310.700930440544, 81336.81343040627, 55752.58204371716, 54454.3033187751, 0.058, 0.9500000000000001, 0.146, 192.0, 0.0, 0.0, 0.0, 0.0, 0.0, 0.0, 0.0, 0.0, 0.0, 1.666556176482787E9, 0.0, 2022-10-23 13:16:16.482
58.0, -80163.7268261584, -113033.64342852158, 53269.817324855016, 31072.076388845016, 61139.352457446155, 80541.69482489763, 54606.22812583782, 53171.69316669621, 0.058, 0.9500000000000001, 0.146, 192.0, 0.0, 0.0, 0.0, 0.0, 0.0, 0.0, 0.0, 0.0, 0.0, 1.6665561764827948E9, 0.0, 2022-10-23 13:16:16.482
59.0, -80173.98627686338, -113039.79015824679, 52006.72024568561, 31179.431817463854, 61219.461109573975, 80167.83954713817, 53872.37565188118, 52583.082328210156, 0.058, 0.9500000000000001, 0.146, 192.0, 0.0, 0.0, 0.0, 0.0, 0.0, 0.0, 0.0, 0.0, 0.0, 1.6665561764828038E9, 0.0, 2022-10-23 13:16:16.482
60.0, -80196.76270446333, -113060.5325771013, 52637.91115735903, 31289.469455417333, 61313.40549151963, 80556.17875530467, 54384.3870621189, 53215.07790268397, 0.064, 0.9500000000000001, 0.154, 192.0, 2.0, 0.0, 29.0, 176.0, 4.0, 208.0, 0.0, 0.0, 0.0, 1.6665561764828117E9, 0.0, 2022-10-23 13:16:16.482
61.0, -80205.90456794556, -113071.01554525085, 54728.469816263896, 31313.966967340348, 61342.90979420064, 81323.91647385556, 55694.06517673316, 54428.419998695856, 0.064, 0.9500000000000001, 0.154, 192.0, 0.0, 0.0, 0.0, 0.0, 0.0, 0.0, 0.0, 0.0, 0.0, 1.6665561764828296E9, 0.0, 2022-10-23 13:16:16.482
62.0, -80149.8687445961, -113020.36649231512, 53704.648161488556, 31079.72068544873, 61152.65174539707, 80727.99661493262, 54898.47718459096, 53451.224082854285, 0.064, 0.9500000000000001, 0.154, 192.0, 0.0, 0.0, 0.0, 0.0, 0.0, 0.0, 0.0, 0.0, 0.0, 1.6665561764828372E9, 0.0, 2022-10-23 13:16:16.482
63.0, -80149.08643354016, -113018.04191089177, 52110.34293298041, 31171.58635516004, 61219.25994387388, 80199.10963763115, 53929.327896753304, 52594.347607415635, 0.064, 0.9500000000000001, 0.154, 192.0, 0.0, 0.0, 0.0, 0.0, 0.0, 0.0, 0.0, 0.0, 0.0, 1.6665561764828453E9, 0.0, 2022-10-23 13:16:16.482
64.0, -80179.73067518839, -113043.79112050428, 52427.49183505677, 31272.750350564762, 61301.64847393614, 80469.6998560071, 54242.18526389424, 53045.62932796828, 0.064, 0.9500000000000001, 0.154, 192.0, 0.0, 0.0, 0.0, 0.0, 0.0, 0.0, 0.0, 0.0, 0.0, 1.6665561764828532E9, 0.0, 2022-10-23 13:16:16.482
65.0, -80209.03381216929, -113074.7929900638, 54473.9057986624, 31333.211819316366, 61345.56965179082, 81256.36950211161, 55551.55045408612, 54309.17344202679, 0.064, 0.9500000000000001, 0.154, 192.0, 0.0, 0.0, 0.0, 0.0, 0.0, 0.0, 0.0, 0.0, 0.0, 1.6665561764828613E9, 0.0, 2022-10-23 13:16:16.482
66.0, -80147.34299747265, -113015.2255910904, 54130.71711429562, 31103.190017126803, 61170.66725142804, 80909.98451828773, 55182.187876962176, 53739.53923458329, 0.064, 0.9500000000000001, 0.154, 192.0, 0.0, 0.0, 0.0, 0.0, 0.0, 0.0, 0.0, 0.0, 0.0, 1.666556176482869E9, 0.0, 2022-10-23 13:16:16.482
67.0, -80138.20113399043, -113001.83689616167, 52210.255230695635, 31149.279314193645, 61191.566132493754, 80205.25636735636, 53968.555208272366, 52599.913191785, 0.064, 0.9500000000000001, 0.154, 192.0, 0.0, 0.0, 0.0, 0.0, 0.0, 0.0, 0.0, 0.0, 0.0, 1.6665561764828768E9, 0.0, 2022-10-23 13:16:16.482
68.0, -80177.11552108712, -113036.23623087839, 52208.66825683931, 31244.36363510652, 61280.83899984825, 80358.05289245283, 54077.050575858426, 52869.27406421591, 0.064, 0.9500000000000001, 0.154, 192.0, 0.0, 0.0, 0.0, 0.0, 0.0, 0.0, 0.0, 0.0, 0.0, 1.6665561764828844E9, 0.0, 2022-10-23 13:16:16.482
69.0, -80215.53816980579, -113072.66957434054, 54072.781392667464, 31343.67243572145, 61364.72509678902, 81128.651634294, 55306.79885230051, 54103.269172104505, 0.058, 0.9520000000000001, 0.15, 192.0, 1.0, 208.0, 29.0, 192.0, 4.0, 176.0, 0.0, 0.0, 0.0, 1.6665561764828925E9, 0.0, 2022-10-23 13:16:16.482
70.0, -80174.12038733011, -113035.96800994492, 54497.44218557384, 31134.929494253338, 61201.378548309636, 81091.32422105363, 55438.65179284237, 54023.920479288165, 0.058, 0.9520000000000001, 0.15, 192.0, 0.0, 0.0, 0.0, 0.0, 0.0, 0.0, 0.0, 0.0, 0.0, 1.6665561764829006E9, 0.0, 2022-10-23 13:16:16.482
71.0, -80143.34203521514, -113008.2741985648, 52411.84561393805, 31119.618549301453, 61164.07348681373, 80267.26010647537, 54083.28671256146, 52684.76041373735, 0.058, 0.9520000000000001, 0.15, 192.0, 0.0, 0.0, 0.0, 0.0, 0.0, 0.0, 0.0, 0.0, 0.0, 1.6665561764829085E9, 0.0, 2022-10-23 13:16:16.482
72.0, -80173.11455882962, -113032.928172699, 52112.51105219258, 31229.052690154636, 61256.76617106989, 80304.74398192692, 53996.40548186368, 52761.225731518956, 0.058, 0.9520000000000001, 0.15, 192.0, 0.0, 0.0, 0.0, 0.0, 0.0, 0.0, 0.0, 0.0, 0.0, 1.6665561764829164E9, 0.0, 2022-10-23 13:16:16.482
73.0, -80208.89970170257, -113064.0865044697, 53667.27604475928, 31349.461537535375, 61355.53852981789, 80985.4216558244, 55049.776142808936, 53855.6118435397, 0.058, 0.9520000000000001, 0.15, 192.0, 0.0, 0.0, 0.0, 0.0, 0.0, 0.0, 0.0, 0.0, 0.0, 1.6665561764829245E9, 0.0, 2022-10-23 13:16:16.482
74.0, -80173.29337278527, -113033.3305040992, 54749.79338047426, 31203.102314842024, 61251.3570489117, 81226.1275918636, 55615.69996067286, 54239.5030545596, 0.058, 0.9520000000000001, 0.15, 192.0, 0.0, 0.0, 0.0, 0.0, 0.0, 0.0, 0.0, 0.0, 0.0, 1.6665561764829338E9, 0.0, 2022-10-23 13:16:16.482
0.0, 0.0, 0.0, 0.0, 0.0, 0.0, 0.0, 0.0, 0.0, 0.058, 0.9520000000000001, 0.15, 192.0, 0.0, 0.0, 0.0, 0.0, 0.0, 0.0, 0.0, 0.0, 0.0, 1.666556176549549E9, 0.0, 2022-10-23 13:16:16.549
1.0, -78350.30744675487, -109967.38642065364, 51828.57684237681, 31180.50470119771, 61324.827232936295, 79221.15376247809, 54813.89818357208, 52183.00845420462, 0.058, 0.9560000000000001, 0.138, 192.0, 1.0, 208.0, 29.0, 224.0, 4.0, 80.0, 0.0, 0.0, 0.0, 1.6665561770375524E9, 0.0, 2022-10-23 13:16:17.037
2.0, -78368.9488016306, -109984.35139469522, 50562.976367828414, 31282.00397276926, 61397.00101578248, 78803.06438244157, 54076.625892713775, 51603.718293156424, 0.058, 0.9560000000000001, 0.138, 192.0, 0.0, 0.0, 0.0, 0.0, 0.0, 0.0, 0.0, 0.0, 0.0, 1.6665561770376716E9, 0.0, 2022-10-23 13:16:17.037
3.0, -78400.77768573495, -110015.59913344374, 51156.70575579474, 31374.54019481423, 61492.28650239546, 79139.56989521622, 54546.30309895314, 52215.30672494254, 0.058, 0.9560000000000001, 0.138, 192.0, 0.0, 0.0, 0.0, 0.0, 0.0, 0.0, 0.0, 0.0, 0.0, 1.6665561770376804E9, 0.0, 2022-10-23 13:16:17.037
4.0, -78404.37631659226, -110018.6166189452, 53257.59092063796, 31395.84140728014, 61543.04731405346, 79939.40471880493, 55849.432152442, 53441.1657978494, 0.058, 0.9560000000000001, 0.138, 192.0, 0.0, 0.0, 0.0, 0.0, 0.0, 0.0, 0.0, 0.0, 0.0, 1.6665561770376885E9, 0.0, 2022-10-23 13:16:17.037
5.0, -78335.242370992, -109951.6060890682, 52256.50098997367, 31185.533843700156, 61336.45014005306, 79364.47314792551, 55074.67598613215, 52481.5383531497, 0.058, 0.9560000000000001, 0.138, 192.0, 0.0, 0.0, 0.0, 0.0, 0.0, 0.0, 0.0, 0.0, 0.0, 1.6665561770377014E9, 0.0, 2022-10-23 13:16:17.037
6.0, -78349.88276361022, -109961.64202232863, 50612.08315039673, 31261.462719614832, 61382.360623164255, 78769.2908965696, 54072.848447900826, 51605.126453057106, 0.058, 0.9560000000000001, 0.138, 192.0, 0.0, 0.0, 0.0, 0.0, 0.0, 0.0, 0.0, 0.0, 0.0, 1.6665561770377092E9, 0.0, 2022-10-23 13:16:17.037
7.0, -78366.95949637408, -109976.99767076941, 50919.08436049037, 31365.040703420724, 61497.60621757582, 79023.83256242664, 54380.81078300605, 52071.04856622798, 0.058, 0.9560000000000001, 0.138, 192.0, 0.0, 0.0, 0.0, 0.0, 0.0, 0.0, 0.0, 0.0, 0.0, 1.6665561770377169E9, 0.0, 2022-10-23 13:16:17.037
8.0, -78389.42299955167, -110005.5632001833, 52996.12021399978, 31434.375814721086, 61576.910206903245, 79861.79946205611, 55705.33045593864, 53360.90068351039, 0.052000000000000005, 0.9460000000000001, 0.138, 192.0, 1.0, 160.0, 29.0, 144.0, 4.0, 80.0, 0.0, 0.0, 0.0, 1.6665561770377247E9, 0.0, 2022-10-23 13:16:17.037
9.0, -78352.11793805576, -109972.28145268935, 52691.577695796215, 31195.480369982764, 61352.498692571964, 79547.60099024785, 55359.459562237214, 52800.006008148914, 0.052000000000000005, 0.9460000000000001, 0.138, 192.0, 0.0, 0.0, 0.0, 0.0, 0.0, 0.0, 0.0, 0.0, 0.0, 1.6665561770377333E9, 0.0, 2022-10-23 13:16:17.037
10.0, -78345.03243506342, -109964.41363864108, 50754.24024513248, 31234.551219290643, 61346.217852380025, 78796.18004514933, 54141.11067546734, 51649.025279167334, 0.052000000000000005, 0.9460000000000001, 0.138, 192.0, 0.0, 0.0, 0.0, 0.0, 0.0, 0.0, 0.0, 0.0, 0.0, 1.6665561770377412E9, 0.0, 2022-10-23 13:16:17.037
11.0, -78370.91575514266, -109984.28433946185, 50751.44627707556, 31333.927075138938, 61461.86577819178, 78923.3838228445, 54247.52733081905, 51927.95269822511, 0.052000000000000005, 0.9460000000000001, 0.138, 192.0, 0.0, 0.0, 0.0, 0.0, 0.0, 0.0, 0.0, 0.0, 0.0, 1.666556177037749E9, 0.0, 2022-10-23 13:16:17.037
12.0, -78399.48128455655, -110014.2133252875, 52631.2726892558, 31428.92198907399, 61566.09196258688, 79715.68610855176, 55477.946159594794, 53175.82823942044, 0.052000000000000005, 0.9460000000000001, 0.138, 192.0, 0.0, 0.0, 0.0, 0.0, 0.0, 0.0, 0.0, 0.0, 0.0, 1.6665561770377567E9, 0.0, 2022-10-23 13:16:17.037
13.0, -78340.22681000552, -109962.67020257357, 53094.467889603126, 31242.553143805642, 61413.2954374904, 79733.27693143809, 55638.118760361525, 53125.04507601799, 0.052000000000000005, 0.9460000000000001, 0.138, 192.0, 0.0, 0.0, 0.0, 0.0, 0.0, 0.0, 0.0, 0.0, 0.0, 1.6665561770377645E9, 0.0, 2022-10-23 13:16:17.037
14.0, -78305.3357369108, -109930.43898706902, 50968.97345411462, 31227.912751187418, 61353.72803851701, 78859.65899940241, 54262.57005483747, 51763.28739682286, 0.052000000000000005, 0.9460000000000001, 0.138, 192.0, 0.0, 0.0, 0.0, 0.0, 0.0, 0.0, 0.0, 0.0, 0.0, 1.6665561770377724E9, 0.0, 2022-10-23 13:16:17.037
15.0, -78334.90709482516, -109952.61191756868, 50666.01790976738, 31329.23320880332, 61466.91727243868, 78873.40532224243, 54179.57802767492, 51859.086973558304, 0.052000000000000005, 0.9460000000000001, 0.138, 192.0, 0.0, 0.0, 0.0, 0.0, 0.0, 0.0, 0.0, 0.0, 0.0, 1.6665561770377803E9, 0.0, 2022-10-23 13:16:17.037
16.0, -78380.05761862488, -109992.39802269913, 52210.814024307016, 31429.212561751912, 61567.56717772093, 79551.46784203862, 55219.18001403571, 52956.44586759161, 0.052000000000000005, 0.9460000000000001, 0.138, 192.0, 0.0, 0.0, 0.0, 0.0, 0.0, 0.0, 0.0, 0.0, 0.0, 1.666556177037788E9, 0.0, 2022-10-23 13:16:17.037
17.0, -78346.44059496411, -109962.67020257357, 53337.72192451024, 31284.686182103895, 61448.857062918796, 79849.61776132796, 55815.479852614386, 53361.68299456633, 0.048, 0.9520000000000001, 0.134, 192.0, 1.0, 128.0, 29.0, 192.0, 4.0, 48.0, 0.0, 0.0, 0.0, 1.6665561770378058E9, 0.0, 2022-10-23 13:16:17.037
18.0, -78302.16178919814, -109917.6984927295, 51207.5336226861, 31202.118838085993, 61325.117805614216, 78918.3323285976, 54392.3889866339, 51894.91681992017, 0.048, 0.9520000000000001, 0.134, 192.0, 0.0, 0.0, 0.0, 0.0, 0.0, 0.0, 0.0, 0.0, 0.0, 1.6665561770378144E9, 0.0, 2022-10-23 13:16:17.037
19.0, -78323.12772549722, -109933.12119640365, 50563.401050973065, 31317.878522620027, 61446.37601928425, 78799.86808298447, 54089.45579403112, 51774.88795219517, 0.048, 0.9520000000000001, 0.134, 192.0, 0.0, 0.0, 0.0, 0.0, 0.0, 0.0, 0.0, 0.0, 0.0, 1.666556177037822E9, 0.0, 2022-10-23 13:16:17.037
20.0, -78359.67282768164, -109966.13472296414, 51742.03088784587, 31425.949207061436, 61549.05993331194, 79355.04071176538, 54919.19725170103, 52701.635980801104, 0.048, 0.9520000000000001, 0.134, 192.0, 0.0, 0.0, 0.0, 0.0, 0.0, 0.0, 0.0, 0.0, 0.0, 1.66655617703783E9, 0.0, 2022-10-23 13:16:17.037
21.0, -78352.43086247813, -109963.54192060733, 53401.42439620786, 31345.371168300055, 61504.40114789023, 79901.85378812002, 55885.932551137514, 53513.652505117956, 0.048, 0.9520000000000001, 0.134, 192.0, 0.0, 0.0, 0.0, 0.0, 0.0, 0.0, 0.0, 0.0, 0.0, 1.6665561770378375E9, 0.0, 2022-10-23 13:16:17.037
22.0, -78286.02382970141, -109907.2378763244, 51556.891388522556, 31199.436628751355, 61338.84177670977, 79047.48070806035, 54622.835471968116, 52139.42255251677, 0.048, 0.9520000000000001, 0.134, 192.0, 0.0, 0.0, 0.0, 0.0, 0.0, 0.0, 0.0, 0.0, 0.0, 1.6665561770378456E9, 0.0, 2022-10-23 13:16:17.037
23.0, -78298.6302135742, -109920.2465915974, 50522.43030338649, 31307.753182381774, 61430.72979816554, 78738.75841364365, 54049.89320634523, 51735.079495320264, 0.048, 0.9520000000000001, 0.134, 192.0, 0.0, 0.0, 0.0, 0.0, 0.0, 0.0, 0.0, 0.0, 0.0, 1.6665561770378535E9, 0.0, 2022-10-23 13:16:17.037
24.0, -78340.45032745007, -109955.96467923697, 51351.81413314511, 31410.0124132648, 61540.58862216338, 79175.46679681144, 54674.065670259675, 52482.87945781702, 0.048, 0.9520000000000001, 0.134, 192.0, 0.0, 0.0, 0.0, 0.0, 0.0, 0.0, 0.0, 0.0, 0.0, 1.666556177037861E9, 0.0, 2022-10-23 13:16:17.037
25.0, -78358.0411503364, -109976.32711843576, 53320.421674301826, 31372.327372113155, 61531.469110425605, 79868.39322667042, 55862.84319911519, 53558.98184287332, 0.048, 0.9520000000000001, 0.134, 192.0, 0.0, 0.0, 0.0, 0.0, 0.0, 0.0, 0.0, 0.0, 0.0, 1.6665561770378692E9, 0.0, 2022-10-23 13:16:17.037
26.0, -78290.13655068119, -109911.6411699821, 51911.61357302828, 31179.051837808114, 61330.19165160557, 79127.7234706549, 54841.32377401874, 52378.65327342192, 0.048, 0.9520000000000001, 0.134, 192.0, 0.0, 0.0, 0.0, 0.0, 0.0, 0.0, 0.0, 0.0, 0.0, 1.6665561770378768E9, 0.0, 2022-10-23 13:16:17.037
27.0, -78277.19489064156, -109901.89580939959, 50524.754884809845, 31297.091400276593, 61420.29153350491, 78666.24935463064, 54035.14105500473, 51714.314724721284, 0.05, 0.9420000000000001, 0.132, 192.0, 1.0, 144.0, 29.0, 112.0, 4.0, 32.0, 0.0, 0.0, 0.0, 1.6665561770378857E9, 0.0, 2022-10-23 13:16:17.037
28.0, -78312.7341643255, -109940.16199590708, 51009.787739490006, 31375.434264592444, 61511.46429913811, 78967.30500069917, 54450.59292919552, 52270.40377502487, 0.05, 0.9420000000000001, 0.132, 192.0, 0.0, 0.0, 0.0, 0.0, 0.0, 0.0, 0.0, 0.0, 0.0, 1.666556177037894E9, 0.0, 2022-10-23 13:16:17.037
29.0, -78357.66117068067, -109970.02392649937, 53093.79733726947, 31400.065886982193, 61553.41852348072, 79753.50526017013, 55751.375049516566, 53508.01986551522, 0.05, 0.9420000000000001, 0.132, 192.0, 0.0, 0.0, 0.0, 0.0, 0.0, 0.0, 0.0, 0.0, 0.0, 1.6665561770379016E9, 0.0, 2022-10-23 13:16:17.037
30.0, -78294.8304170168, -109903.05810011126, 52350.13244749695, 31185.578547189063, 61350.66584952663, 79279.87179516218, 55143.787579987955, 52699.37845461112, 0.05, 0.9420000000000001, 0.132, 192.0, 0.0, 0.0, 0.0, 0.0, 0.0, 0.0, 0.0, 0.0, 0.0, 1.6665561770379095E9, 0.0, 2022-10-23 13:16:17.037
31.0, -78292.10350419325, -109897.42546050853, 50584.54580122779, 31258.15466143545, 61380.28191092991, 78627.44672625622, 54053.24596801352, 51713.487710176436, 0.05, 0.9420000000000001, 0.132, 192.0, 0.0, 0.0, 0.0, 0.0, 0.0, 0.0, 0.0, 0.0, 0.0, 1.6665561770379171E9, 0.0, 2022-10-23 13:16:17.037
32.0, -78321.7866208299, -109925.96863817796, 50762.75625976995, 31352.3002090812, 61495.14752568574, 78828.99240600973, 54276.495191633134, 52099.032950286026, 0.05, 0.9420000000000001, 0.132, 192.0, 0.0, 0.0, 0.0, 0.0, 0.0, 0.0, 0.0, 0.0, 0.0, 1.6665561770379248E9, 0.0, 2022-10-23 13:16:17.037
33.0, -78361.997409105, -109963.13958920713, 52756.84478960572, 31416.807343579218, 61568.21537831013, 79637.27618900254, 55554.858512265506, 53359.38076488743, 0.05, 0.9420000000000001, 0.132, 192.0, 0.0, 0.0, 0.0, 0.0, 0.0, 0.0, 0.0, 0.0, 0.0, 1.6665561770379455E9, 0.0, 2022-10-23 13:16:17.037
34.0, -78298.227882174, -109900.51000124335, 52710.15199543858, 31227.80099246514, 61396.37516693773, 79441.63136978525, 55380.06787062501, 52977.501210868504, 0.05, 0.9420000000000001, 0.132, 192.0, 0.0, 0.0, 0.0, 0.0, 0.0, 0.0, 0.0, 0.0, 0.0, 1.6665561770379536E9, 0.0, 2022-10-23 13:16:17.037
35.0, -78286.47086459052, -109885.2884632693, 50694.002293825426, 31253.03611195518, 61386.830972055315, 78666.87520347539, 54106.28665760597, 51752.93853914006, 0.05, 0.9420000000000001, 0.132, 192.0, 0.0, 0.0, 0.0, 0.0, 0.0, 0.0, 0.0, 0.0, 0.0, 1.6665561770379612E9, 0.0, 2022-10-23 13:16:17.037
36.0, -78317.13745798319, -109915.66448398406, 50598.11331011216, 31345.840554933617, 61489.02314770498, 78781.11496938646, 54163.61888213383, 51976.5677424154, 0.05, 0.9420000000000001, 0.132, 192.0, 0.0, 0.0, 0.0, 0.0, 0.0, 0.0, 0.0, 0.0, 0.0, 1.666556177037969E9, 0.0, 2022-10-23 13:16:17.037
37.0, -78355.13542355722, -109955.18236818103, 52370.98662507375, 31442.71301540292, 61586.74497446358, 79546.1257751138, 55338.89595733833, 53174.442431264215, 0.056, 0.9460000000000001, 0.134, 192.0, 1.0, 192.0, 29.0, 144.0, 4.0, 48.0, 0.0, 0.0, 0.0, 1.6665561770379767E9, 0.0, 2022-10-23 13:16:17.037
38.0, -78299.6807455636, -109899.75004193188, 53089.59520931187, 31273.66677208743, 61453.193301343126, 79674.44714003171, 55666.21490314185, 53286.1788017963, 0.056, 0.9460000000000001, 0.134, 192.0, 0.0, 0.0, 0.0, 0.0, 0.0, 0.0, 0.0, 0.0, 0.0, 1.6665561770379856E9, 0.0, 2022-10-23 13:16:17.037
39.0, -78255.37958805318, -109859.09221876768, 50958.15520979824, 31246.710568274328, 61386.45099239958, 78796.40356259388, 54274.751755565616, 51884.16563083716, 0.056, 0.9460000000000001, 0.134, 192.0, 0.0, 0.0, 0.0, 0.0, 0.0, 0.0, 0.0, 0.0, 0.0, 1.6665561770379932E9, 0.0, 2022-10-23 13:16:17.037
40.0, -78294.15986468314, -109898.02895760883, 50527.48179763339, 31335.335235039624, 61486.251531392525, 78762.13833834391, 54105.3702360833, 51891.36289255177, 0.056, 0.9460000000000001, 0.134, 192.0, 0.0, 0.0, 0.0, 0.0, 0.0, 0.0, 0.0, 0.0, 0.0, 1.666556177038001E9, 0.0, 2022-10-23 13:16:17.038
41.0, -78341.29969373938, -109940.60903079619, 51937.76511404099, 31433.995835065347, 61579.994747638084, 79395.16209306265, 55062.986023782025, 52920.01252412946, 0.056, 0.9460000000000001, 0.134, 192.0, 0.0, 0.0, 0.0, 0.0, 0.0, 0.0, 0.0, 0.0, 0.0, 1.6665561770380087E9, 0.0, 2022-10-23 13:16:17.038
42.0, -78320.11023999575, -109925.23103061093, 53275.09233654646, 31304.042792802193, 61487.45852559311, 79788.01635360913, 55801.778233263285, 53474.49224883226, 0.056, 0.9460000000000001, 0.134, 192.0, 0.0, 0.0, 0.0, 0.0, 0.0, 0.0, 0.0, 0.0, 0.0, 1.6665561770380163E9, 0.0, 2022-10-23 13:16:17.038
43.0, -78271.2716783609, -109879.96874808894, 51225.035038594615, 31199.682497940365, 61347.91658495863, 78876.08753157705, 54420.10514975848, 52020.75714120354, 0.056, 0.9460000000000001, 0.134, 192.0, 0.0, 0.0, 0.0, 0.0, 0.0, 0.0, 0.0, 0.0, 0.0, 1.6665561770380244E9, 0.0, 2022-10-23 13:16:17.038
44.0, -78290.76239952593, -109896.71020468597, 50437.96306108988, 31321.25363603278, 61460.994060158024, 78689.6739828198, 54014.55509836139, 51790.40006284715, 0.056, 0.9460000000000001, 0.134, 192.0, 0.0, 0.0, 0.0, 0.0, 0.0, 0.0, 0.0, 0.0, 0.0, 1.666556177038032E9, 0.0, 2022-10-23 13:16:17.038
45.0, -78321.09371675178, -109927.39914982309, 51501.168489595475, 31428.094974529147, 61574.675032457715, 79216.41519265357, 54777.44248836547, 52654.876131400604, 0.056, 0.9460000000000001, 0.134, 192.0, 0.0, 0.0, 0.0, 0.0, 0.0, 0.0, 0.0, 0.0, 0.0, 1.66655617703804E9, 0.0, 2022-10-23 13:16:17.038
46.0, -78319.73026034002, -109927.30974284527, 53320.64519174638, 31366.337104599133, 61556.503064215554, 79852.52348810715, 55860.42921071401, 53592.12947990054, 0.048, 0.9540000000000001, 0.136, 192.0, 1.0, 128.0, 29.0, 208.0, 4.0, 64.0, 0.0, 0.0, 0.0, 1.6665561770380476E9, 0.0, 2022-10-23 13:16:17.038
47.0, -78257.83827994327, -109867.2282537494, 51605.618191435125, 31198.408448506412, 61367.63082356821, 79038.33884457813, 54661.5039898758, 52259.36201326395, 0.048, 0.9540000000000001, 0.136, 192.0, 0.0, 0.0, 0.0, 0.0, 0.0, 0.0, 0.0, 0.0, 0.0, 1.666556177038056E9, 0.0, 2022-10-23 13:16:17.038
48.0, -78276.23376562998, -109877.80062887676, 50463.17582883547, 31316.380955741522, 61466.02320266047, 78704.78376207159, 54019.42777865264, 51773.92682718359, 0.048, 0.9540000000000001, 0.136, 192.0, 0.0, 0.0, 0.0, 0.0, 0.0, 0.0, 0.0, 0.0, 0.0, 1.6665561770380752E9, 0.0, 2022-10-23 13:16:17.038
49.0, -78312.60005385877, -109910.30006531479, 51176.1294217264, 31411.554683632217, 61566.427238753706, 79106.57872040018, 54573.90750335545, 52449.217730667326, 0.048, 0.9540000000000001, 0.136, 192.0, 0.0, 0.0, 0.0, 0.0, 0.0, 0.0, 0.0, 0.0, 0.0, 1.6665561770380828E9, 0.0, 2022-10-23 13:16:17.038
50.0, -78322.77009758593, -109928.6955510015, 53203.6561612673, 31403.50805562831, 61583.056936628454, 79851.6964735623, 55810.85304151214, 53589.38021533254, 0.048, 0.9540000000000001, 0.136, 192.0, 0.0, 0.0, 0.0, 0.0, 0.0, 0.0, 0.0, 0.0, 0.0, 1.6665561770380907E9, 0.0, 2022-10-23 13:16:17.038
51.0, -78244.02490186988, -109859.76277110133, 52039.48790305709, 31206.812704421605, 61388.52970463392, 79234.27423647336, 54946.376972958686, 52544.19029285792, 0.048, 0.9540000000000001, 0.136, 192.0, 0.0, 0.0, 0.0, 0.0, 0.0, 0.0, 0.0, 0.0, 0.0, 1.666556177038098E9, 0.0, 2022-10-23 13:16:17.038
52.0, -78255.53605026437, -109862.3779252026, 50493.57420129469, 31295.48207467581, 61439.82695815885, 78698.50292187964, 54016.18677570663, 51742.1649983126, 0.048, 0.9540000000000001, 0.136, 192.0, 0.0, 0.0, 0.0, 0.0, 0.0, 0.0, 0.0, 0.0, 0.0, 1.666556177038106E9, 0.0, 2022-10-23 13:16:17.038
53.0, -78291.4776553485, -109889.80351564927, 50879.54412454893, 31384.68788679694, 61544.12019778731, 78986.05811429716, 54372.92061721333, 52244.162827034335, 0.048, 0.9540000000000001, 0.136, 192.0, 0.0, 0.0, 0.0, 0.0, 0.0, 0.0, 0.0, 0.0, 0.0, 1.6665561770381136E9, 0.0, 2022-10-23 13:16:17.038
54.0, -78322.72539409703, -109920.42540555303, 52972.91910325517, 31435.336939732664, 61609.43199508572, 79815.37488882242, 55700.03309250273, 53519.84393833208, 0.048, 0.9540000000000001, 0.136, 192.0, 0.0, 0.0, 0.0, 0.0, 0.0, 0.0, 0.0, 0.0, 0.0, 1.6665561770381212E9, 0.0, 2022-10-23 13:16:17.038
55.0, -78244.49428850345, -109847.11168373963, 52470.69775708888, 31228.31508258761, 61416.335274736324, 79441.36314885177, 55240.6376887128, 52854.38780240867, 0.048, 0.9540000000000001, 0.136, 192.0, 0.0, 0.0, 0.0, 0.0, 0.0, 0.0, 0.0, 0.0, 0.0, 1.666556177038129E9, 0.0, 2022-10-23 13:16:17.038
56.0, -78230.65855868561, -109834.3264859112, 50612.50783354138, 31290.14000775099, 61438.50820523599, 78757.31036154156, 54091.22158184309, 51788.90249596864, 0.046, 0.9500000000000001, 0.136, 192.0, 1.0, 112.0, 29.0, 176.0, 4.0, 64.0, 0.0, 0.0, 0.0, 1.6665561770381365E9, 0.0, 2022-10-23 13:16:17.038
57.0, -78261.72748347849, -109869.2846142393, 50678.959569807004, 31366.82884297715, 61525.65765686723, 78913.48200005079, 54244.129865661846, 52100.50816542008, 0.046, 0.9500000000000001, 0.136, 192.0, 0.0, 0.0, 0.0, 0.0, 0.0, 0.0, 0.0, 0.0, 0.0, 1.6665561770381453E9, 0.0, 2022-10-23 13:16:17.038
58.0, -78299.81485603034, -109904.46626001195, 52595.86752603859, 31445.082300315178, 61614.14821316579, 79701.69391652274, 55485.65751143188, 53339.06302917755, 0.046, 0.9500000000000001, 0.136, 192.0, 0.0, 0.0, 0.0, 0.0, 0.0, 0.0, 0.0, 0.0, 0.0, 1.6665561770381532E9, 0.0, 2022-10-23 13:16:17.038
59.0, -78239.71101519001, -109841.45669239244, 52820.52490955889, 31256.70179804585, 61454.73557171054, 79618.59013063791, 55487.199781799296, 53128.62135513084, 0.046, 0.9500000000000001, 0.136, 192.0, 0.0, 0.0, 0.0, 0.0, 0.0, 0.0, 0.0, 0.0, 0.0, 1.6665561770381608E9, 0.0, 2022-10-23 13:16:17.038
60.0, -78215.77229687838, -109814.7240060239, 50753.279120120904, 31263.18380393789, 61424.56071669587, 78813.52499884665, 54170.77144035953, 51837.45048492557, 0.046, 0.9500000000000001, 0.136, 192.0, 0.0, 0.0, 0.0, 0.0, 0.0, 0.0, 0.0, 0.0, 0.0, 1.6665561770381684E9, 0.0, 2022-10-23 13:16:17.038
61.0, -78250.46220427302, -109850.41974191902, 50539.86466406163, 31344.767671199763, 61511.64311309375, 78873.67354317589, 54149.134951726795, 51980.747518628545, 0.046, 0.9500000000000001, 0.136, 192.0, 0.0, 0.0, 0.0, 0.0, 0.0, 0.0, 0.0, 0.0, 0.0, 1.6665561770381763E9, 0.0, 2022-10-23 13:16:17.038
62.0, -78286.40380935714, -109884.17087604653, 52184.684835038766, 31448.815041639216, 61613.79058525451, 79597.89241527229, 55251.724153962634, 53120.15004398228, 0.046, 0.9500000000000001, 0.136, 192.0, 0.0, 0.0, 0.0, 0.0, 0.0, 0.0, 0.0, 0.0, 0.0, 1.6665561770381837E9, 0.0, 2022-10-23 13:16:17.038
63.0, -78241.14152683516, -109838.7297795689, 53139.46195119166, 31297.896063076983, 61500.35548214382, 79835.0444239431, 55738.34398249912, 53398.11633802848, 0.046, 0.9500000000000001, 0.136, 192.0, 0.0, 0.0, 0.0, 0.0, 0.0, 0.0, 0.0, 0.0, 0.0, 1.6665561770381913E9, 0.0, 2022-10-23 13:16:17.038
64.0, -78199.67904087056, -109799.167191883, 51001.450538808174, 31236.60757978053, 61391.927169791124, 78932.57038981562, 54328.03831434707, 51947.59988160132, 0.046, 0.9500000000000001, 0.136, 192.0, 0.0, 0.0, 0.0, 0.0, 0.0, 0.0, 0.0, 0.0, 0.0, 1.6665561770382068E9, 0.0, 2022-10-23 13:16:17.038
65.0, -78230.94913136354, -109832.2701254213, 50447.350793761114, 31347.069900878658, 61501.38366238877, 78854.9651330668, 54081.78914568295, 51873.90618013217, 0.046, 0.9500000000000001, 0.136, 192.0, 0.0, 0.0, 0.0, 0.0, 0.0, 0.0, 0.0, 0.0, 0.0, 1.6665561770382144E9, 0.0, 2022-10-23 13:16:17.038
66.0, -78273.1268731507, -109876.86185560965, 51745.40600125861, 31440.187268279467, 61602.70412000467, 79468.78873929844, 54987.057147867345, 52851.191502951566, 0.048, 0.9420000000000001, 0.14200000000000002, 192.0, 1.0, 128.0, 29.0, 112.0, 4.0, 112.0, 0.0, 0.0, 0.0, 1.6665561770382223E9, 0.0, 2022-10-23 13:16:17.038
67.0, -78247.62353272719, -109851.44792216396, 53238.25666168412, 31341.034929875725, 61531.64792438125, 79936.29782632564, 55832.333067933694, 53526.95179306887, 0.048, 0.9420000000000001, 0.14200000000000002, 192.0, 0.0, 0.0, 0.0, 0.0, 0.0, 0.0, 0.0, 0.0, 0.0, 1.666556177038231E9, 0.0, 2022-10-23 13:16:17.038
68.0, -78177.75197955991, -109773.79796192622, 51303.15438546591, 31244.207172895334, 61418.03400731493, 79086.93153702398, 54527.03589523267, 52132.091180335425, 0.048, 0.9420000000000001, 0.14200000000000002, 192.0, 0.0, 0.0, 0.0, 0.0, 0.0, 0.0, 0.0, 0.0, 0.0, 1.6665561770382388E9, 0.0, 2022-10-23 13:16:17.038
69.0, -78215.88405560066, -109810.18660189946, 50400.90386878298, 31339.626769975042, 61505.45167987963, 78867.30329600612, 54053.44713371362, 51823.25712719645, 0.048, 0.9420000000000001, 0.14200000000000002, 192.0, 0.0, 0.0, 0.0, 0.0, 0.0, 0.0, 0.0, 0.0, 0.0, 1.666556177038247E9, 0.0, 2022-10-23 13:16:17.038
70.0, -78250.64101822866, -109848.0281052623, 51329.73060962327, 31436.678044399985, 61598.14436413579, 79353.45373790905, 54739.221005346895, 52614.531232658774, 0.048, 0.9420000000000001, 0.14200000000000002, 192.0, 0.0, 0.0, 0.0, 0.0, 0.0, 0.0, 0.0, 0.0, 0.0, 1.666556177038255E9, 0.0, 2022-10-23 13:16:17.038
71.0, -78245.16484083711, -109843.60245986015, 53246.459751899216, 31404.245663195332, 61590.63417799881, 80048.70474919138, 55894.403862286075, 53637.57057637818, 0.048, 0.9420000000000001, 0.14200000000000002, 192.0, 0.0, 0.0, 0.0, 0.0, 0.0, 0.0, 0.0, 0.0, 0.0, 1.6665561770382628E9, 0.0, 2022-10-23 13:16:17.038
72.0, -78181.86470053968, -109781.93399690796, 51703.11650074917, 31219.93317841687, 61399.1914867391, 79304.68223150757, 54800.531840387805, 52388.4656892378, 0.048, 0.9420000000000001, 0.14200000000000002, 192.0, 0.0, 0.0, 0.0, 0.0, 0.0, 0.0, 0.0, 0.0, 0.0, 1.6665561770382707E9, 0.0, 2022-10-23 13:16:17.038
73.0, -78196.3039274578, -109792.97575866888, 50400.90386878298, 31321.320691266144, 61470.53825504044, 78894.75123819725, 54043.567662664376, 51776.67609175159, 0.048, 0.9420000000000001, 0.14200000000000002, 192.0, 0.0, 0.0, 0.0, 0.0, 0.0, 0.0, 0.0, 0.0, 0.0, 1.6665561770382783E9, 0.0, 2022-10-23 13:16:17.038
74.0, -78235.93357037706, -109833.56652659972, 50965.01719534602, 31409.744192331338, 61561.71102067364, 79241.4044429546, 54500.146746652936, 52368.61734016149, 0.048, 0.9420000000000001, 0.14200000000000002, 192.0, 0.0, 0.0, 0.0, 0.0, 0.0, 0.0, 0.0, 0.0, 0.0, 1.666556177038286E9, 0.0, 2022-10-23 13:16:17.038
75.0, -78258.68764623257, -109863.89784382557, 53047.99861288055, 31422.328224459678, 61598.658454258264, 80042.0886328326, 55795.27387562679, 53580.484221039325, 0.048, 0.9460000000000001, 0.14200000000000002, 192.0, 1.0, 128.0, 29.0, 144.0, 4.0, 112.0, 0.0, 0.0, 0.0, 1.666556177038294E9, 0.0, 2022-10-23 13:16:17.038
76.0, -78200.93073856006, -109801.84940121764, 52102.54217416551, 31207.4162015219, 61396.6433878712, 79509.7147833961, 55063.20954122658, 52649.06467784222, 0.048, 0.9460000000000001, 0.14200000000000002, 192.0, 0.0, 0.0, 0.0, 0.0, 0.0, 0.0, 0.0, 0.0, 0.0, 1.666556177038302E9, 0.0, 2022-10-23 13:16:17.038
77.0, -78192.14650298913, -109788.90774117802, 50456.13502933205, 31305.76387712525, 61453.394467043225, 78944.99795973278, 54069.94272112164, 51765.88019917968, 0.048, 0.9460000000000001, 0.14200000000000002, 192.0, 0.0, 0.0, 0.0, 0.0, 0.0, 0.0, 0.0, 0.0, 0.0, 1.66655617703831E9, 0.0, 2022-10-23 13:16:17.038
78.0, -78218.6109684242, -109815.84159324666, 50733.60958500023, 31395.39437239103, 61551.831549624396, 79199.98666047891, 54359.84484670697, 52205.650771337845, 0.048, 0.9460000000000001, 0.14200000000000002, 192.0, 0.0, 0.0, 0.0, 0.0, 0.0, 0.0, 0.0, 0.0, 0.0, 1.6665561770383177E9, 0.0, 2022-10-23 13:16:17.038
79.0, -78245.43306177057, -109841.21082320344, 52796.07210112478, 31464.617724969117, 61633.795396542, 80041.30632177668, 55683.693967305895, 53488.685606561376, 0.048, 0.9460000000000001, 0.14200000000000002, 192.0, 0.0, 0.0, 0.0, 0.0, 0.0, 0.0, 0.0, 0.0, 0.0, 1.6665561770383325E9, 0.0, 2022-10-23 13:16:17.038
80.0, -78180.45654063899, -109783.99035739785, 52551.52166503926, 31250.376254365, 61438.26233604698, 79767.13982428788, 55382.01247239262, 52963.1513909282, 0.048, 0.9460000000000001, 0.14200000000000002, 192.0, 0.0, 0.0, 0.0, 0.0, 0.0, 0.0, 0.0, 0.0, 0.0, 1.6665561770383403E9, 0.0, 2022-10-23 13:16:17.038
81.0, -78166.66551431007, -109771.85336015861, 50594.648789721585, 31285.04381001518, 61436.20597555709, 79023.87726591555, 54146.38568715879, 51788.94719945755, 0.048, 0.9460000000000001, 0.14200000000000002, 192.0, 0.0, 0.0, 0.0, 0.0, 0.0, 0.0, 0.0, 0.0, 0.0, 1.666556177038348E9, 0.0, 2022-10-23 13:16:17.038
82.0, -78196.706258858, -109798.1166598936, 50572.60996968865, 31371.76857850177, 61532.83256683738, 79158.12184311413, 54243.146388905814, 52046.662813027244, 0.048, 0.9460000000000001, 0.14200000000000002, 192.0, 0.0, 0.0, 0.0, 0.0, 0.0, 0.0, 0.0, 0.0, 0.0, 1.6665561770383558E9, 0.0, 2022-10-23 13:16:17.038
83.0, -78235.88886688816, -109835.73464581188, 52402.45788126682, 31464.394207524565, 61632.67780931924, 79933.39209954644, 55443.92680453382, 53259.08848751646, 0.048, 0.9460000000000001, 0.14200000000000002, 192.0, 0.0, 0.0, 0.0, 0.0, 0.0, 0.0, 0.0, 0.0, 0.0, 1.6665561770383637E9, 0.0, 2022-10-23 13:16:17.038
84.0, -78191.02891576635, -109796.99907267083, 52900.76767215344, 31266.402455139454, 61467.587824772345, 79966.56208831813, 55624.23832705478, 53218.31890562998, 0.048, 0.9460000000000001, 0.14200000000000002, 192.0, 0.0, 0.0, 0.0, 0.0, 0.0, 0.0, 0.0, 0.0, 0.0, 1.666556177038371E9, 0.0, 2022-10-23 13:16:17.038
85.0, -78163.75978753089, -109765.61722345559, 50787.83491704881, 31251.33737937658, 61408.42275719914, 79116.79346761625, 54255.797476267515, 51853.856665355765, 0.054, 0.9480000000000001, 0.14, 192.0, 1.0, 176.0, 29.0, 160.0, 4.0, 96.0, 0.0, 0.0, 0.0, 1.6665561770383787E9, 0.0, 2022-10-23 13:16:17.038
86.0, -78183.451674396, -109784.2138748424, 50455.039793853735, 31362.514956297277, 61523.04250276596, 79133.51257246883, 54154.87935005181, 51926.81275925789, 0.054, 0.9480000000000001, 0.14, 192.0, 0.0, 0.0, 0.0, 0.0, 0.0, 0.0, 0.0, 0.0, 0.0, 1.666556177038387E9, 0.0, 2022-10-23 13:16:17.038
87.0, -78222.76839289289, -109823.97762822839, 51968.20818998911, 31465.422387769508, 61626.32991389393, 79812.91619693235, 55181.58437986188, 53004.05508328141, 0.054, 0.9480000000000001, 0.14, 192.0, 0.0, 0.0, 0.0, 0.0, 0.0, 0.0, 0.0, 0.0, 0.0, 1.6665561770383947E9, 0.0, 2022-10-23 13:16:17.038
88.0, -78189.62075586568, -109791.99228191284, 53146.39099197281, 31325.612226201563, 61529.18923249117, 80147.94649457294, 55818.631448582586, 53441.05403912712, 0.054, 0.9480000000000001, 0.14, 192.0, 0.0, 0.0, 0.0, 0.0, 0.0, 0.0, 0.0, 0.0, 0.0, 1.6665561770384023E9, 0.0, 2022-10-23 13:16:17.038
89.0, -78148.38178734563, -109751.3568104931, 51081.358025235895, 31238.149850147947, 61416.402329969686, 79268.3606467677, 54445.16145529288, 52006.966114874616, 0.054, 0.9480000000000001, 0.14, 192.0, 0.0, 0.0, 0.0, 0.0, 0.0, 0.0, 0.0, 0.0, 0.0, 1.66655617703841E9, 0.0, 2022-10-23 13:16:17.038
90.0, -78173.99688649141, -109774.64732821552, 50394.89124952451, 31343.02423513225, 61507.39628164724, 79127.38819448807, 54104.85614596083, 51840.69148787159, 0.054, 0.9480000000000001, 0.14, 192.0, 0.0, 0.0, 0.0, 0.0, 0.0, 0.0, 0.0, 0.0, 0.0, 1.6665561770384176E9, 0.0, 2022-10-23 13:16:17.038
91.0, -78203.07650602776, -109806.29739836424, 51532.19271089944, 31450.46907072891, 61605.83336422841, 79673.93304990925, 54903.88630674915, 52734.58245212823, 0.054, 0.9480000000000001, 0.14, 192.0, 0.0, 0.0, 0.0, 0.0, 0.0, 0.0, 0.0, 0.0, 0.0, 1.666556177038426E9, 0.0, 2022-10-23 13:16:17.038
92.0, -78177.81903479327, -109784.50444752032, 53237.02731573908, 31391.214596177888, 61582.20757033915, 80265.06963551875, 55907.88196419263, 53578.0478808937, 0.054, 0.9480000000000001, 0.14, 192.0, 0.0, 0.0, 0.0, 0.0, 0.0, 0.0, 0.0, 0.0, 0.0, 1.6665561770384336E9, 0.0, 2022-10-23 13:16:17.038
93.0, -78114.85417066267, -109721.58428687863, 51413.52729958622, 31243.51426881722, 61416.6481991587, 79427.46036380058, 54650.52928334824, 52199.347579401445, 0.054, 0.9480000000000001, 0.14, 192.0, 0.0, 0.0, 0.0, 0.0, 0.0, 0.0, 0.0, 0.0, 0.0, 1.6665561770384412E9, 0.0, 2022-10-23 13:16:17.038
94.0, -78151.22045889145, -109755.44717972842, 50363.464696820345, 31334.82114491715, 61496.734499542064, 79129.84688637816, 54067.75225016502, 51776.83255396278, 0.054, 0.9480000000000001, 0.14, 192.0, 0.0, 0.0, 0.0, 0.0, 0.0, 0.0, 0.0, 0.0, 0.0, 1.666556177038449E9, 0.0, 2022-10-23 13:16:17.038
95.0, -78180.14361621662, -109791.79111621274, 51166.227598932695, 31423.60227389363, 61585.783849452004, 79566.30940035694, 54677.03845227224, 52499.10682429157, 0.058, 0.9540000000000001, 0.14, 192.0, 1.0, 208.0, 29.0, 208.0, 4.0, 96.0, 0.0, 0.0, 0.0, 1.666556177038464E9, 0.0, 2022-10-23 13:16:17.038
96.0, -78183.31756392927, -109790.22649410088, 53158.90796886778, 31406.391430663043, 61602.94998919368, 80300.47479873596, 55894.18034484152, 53600.66784628247, 0.058, 0.9540000000000001, 0.14, 192.0, 0.0, 0.0, 0.0, 0.0, 0.0, 0.0, 0.0, 0.0, 0.0, 1.6665561770384731E9, 0.0, 2022-10-23 13:16:17.038
97.0, -78124.688938223, -109723.90886830198, 51810.8295572793, 31224.694099985853, 61416.62584741424, 79619.17127599374, 54917.20794644451, 52453.03987896918, 0.058, 0.9540000000000001, 0.14, 192.0, 0.0, 0.0, 0.0, 0.0, 0.0, 0.0, 0.0, 0.0, 0.0, 1.6665561770384808E9, 0.0, 2022-10-23 13:16:17.038
98.0, -78150.54990655779, -109750.84272037062, 50377.83686850511, 31313.877560362525, 61468.839522461836, 79140.97805511691, 54067.14875306473, 51734.587756942245, 0.058, 0.9540000000000001, 0.14, 192.0, 0.0, 0.0, 0.0, 0.0, 0.0, 0.0, 0.0, 0.0, 0.0, 1.6665561770384889E9, 0.0, 2022-10-23 13:16:17.038
99.0, -78184.79277906333, -109786.42669754347, 50845.569472976866, 31393.226253178866, 61552.83737812488, 79452.15904142369, 54471.044775372124, 52272.08015585902, 0.058, 0.9540000000000001, 0.14, 192.0, 0.0, 0.0, 0.0, 0.0, 0.0, 0.0, 0.0, 0.0, 0.0, 1.6665561770384965E9, 0.0, 2022-10-23 13:16:17.038
100.0, -78197.9579565475, -109801.93880819545, 52937.37982957123, 31436.1192507886, 61613.276495132035, 80267.93065880903, 55786.44493656694, 53521.050932532664, 0.058, 0.9540000000000001, 0.14, 192.0, 0.0, 0.0, 0.0, 0.0, 0.0, 0.0, 0.0, 0.0, 0.0, 1.666556177038504E9, 0.0, 2022-10-23 13:16:17.038
101.0, -78156.4954705829, -109762.9573658654, 52220.64879186735, 31209.47256201179, 61403.48302167452, 79806.97063290724, 55186.25589445304, 52715.00232398538, 0.058, 0.9540000000000001, 0.14, 192.0, 0.0, 0.0, 0.0, 0.0, 0.0, 0.0, 0.0, 0.0, 0.0, 1.6665561770385125E9, 0.0, 2022-10-23 13:16:17.038
102.0, -78130.45568829247, -109731.57551665015, 50447.06022108319, 31301.025307300726, 61452.07571412036, 79166.79431996278, 54095.55782026742, 51719.992067812935, 0.058, 0.9540000000000001, 0.14, 192.0, 0.0, 0.0, 0.0, 0.0, 0.0, 0.0, 0.0, 0.0, 0.0, 1.66655617703852E9, 0.0, 2022-10-23 13:16:17.038
103.0, -78162.7986625193, -109759.11286581909, 50630.18806340553, 31388.510035098796, 61559.587604950386, 79386.0872848138, 54329.71469518122, 52109.82884285794, 0.058, 0.9540000000000001, 0.14, 192.0, 0.0, 0.0, 0.0, 0.0, 0.0, 0.0, 0.0, 0.0, 0.0, 1.666556177038528E9, 0.0, 2022-10-23 13:16:17.038
104.0, -78187.34087793123, -109788.97479641138, 52617.10168327113, 31462.449605756952, 61632.208422685675, 80200.76366672083, 55611.72135015981, 53370.57898885954, 0.058, 0.9540000000000001, 0.14, 192.0, 0.0, 0.0, 0.0, 0.0, 0.0, 0.0, 0.0, 0.0, 0.0, 1.6665561770385356E9, 0.0, 2022-10-23 13:16:17.038
105.0, -78124.688938223, -109735.5541271632, 52662.58748323769, 31262.692065559873, 61456.479007778056, 80051.63282771503, 55499.89557264991, 53034.1181795738, 0.054, 0.9540000000000001, 0.14, 192.0, 1.0, 176.0, 29.0, 208.0, 4.0, 96.0, 0.0, 0.0, 0.0, 1.6665561770385437E9, 0.0, 2022-10-23 13:16:17.038
106.0, -78107.58985371469, -109715.21403970887, 50635.17250241906, 31285.826121071117, 61435.46836799006, 79264.47144323247, 54206.10954834337, 51783.82864997729, 0.054, 0.9540000000000001, 0.14, 192.0, 0.0, 0.0, 0.0, 0.0, 0.0, 0.0, 0.0, 0.0, 0.0, 1.666556177038552E9, 0.0, 2022-10-23 13:16:17.038
107.0, -78151.66749378055, -109753.03319132724, 50510.87445150309, 31370.762750001282, 61535.4253691942, 79356.87355481072, 54239.61481328188, 51980.92633258419, 0.054, 0.9540000000000001, 0.14, 192.0, 0.0, 0.0, 0.0, 0.0, 0.0, 0.0, 0.0, 0.0, 0.0, 1.6665561770385597E9, 0.0, 2022-10-23 13:16:17.038
108.0, -78189.1066657432, -109790.38295631207, 52235.423294952314, 31462.628419712597, 61626.10639644938, 80095.66576429197, 55383.84531543795, 53145.98866057261, 0.054, 0.9540000000000001, 0.14, 192.0, 0.0, 0.0, 0.0, 0.0, 0.0, 0.0, 0.0, 0.0, 0.0, 1.6665561770385675E9, 0.0, 2022-10-23 13:16:17.038
109.0, -78132.80262146027, -109742.907851089, 52996.79076633343, 31299.68420263341, 61491.57124657289, 80238.02402472783, 55738.18752028794, 53284.278903517596, 0.054, 0.9540000000000001, 0.14, 192.0, 0.0, 0.0, 0.0, 0.0, 0.0, 0.0, 0.0, 0.0, 0.0, 1.6665561770385752E9, 0.0, 2022-10-23 13:16:17.038
110.0, -78104.2370920464, -109712.46477514086, 50853.325528302856, 31255.159527678436, 61407.55103916539, 79344.33422617128, 54329.60293645894, 51860.428078225625, 0.054, 0.9540000000000001, 0.14, 192.0, 0.0, 0.0, 0.0, 0.0, 0.0, 0.0, 0.0, 0.0, 0.0, 1.66655617703859E9, 0.0, 2022-10-23 13:16:17.038
111.0, -78139.93282794152, -109744.2042522674, 50407.11765374156, 31352.5013747813, 61511.88898228276, 79307.54325479786, 54153.739411084585, 51860.361022992256, 0.054, 0.9540000000000001, 0.14, 192.0, 0.0, 0.0, 0.0, 0.0, 0.0, 0.0, 0.0, 0.0, 0.0, 1.666556177038598E9, 0.0, 2022-10-23 13:16:17.038
112.0, -78172.18639519053, -109773.14976133702, 51786.22028663401, 31460.03561735578, 61608.62733228533, 79936.9683786593, 55098.94998061061, 52872.649177628664, 0.054, 0.9540000000000001, 0.14, 192.0, 0.0, 0.0, 0.0, 0.0, 0.0, 0.0, 0.0, 0.0, 0.0, 1.6665561770386064E9, 0.0, 2022-10-23 13:16:17.038
113.0, -78146.59364778921, -109753.14495004952, 53167.06635559397, 31340.900819408995, 61531.402055192244, 80362.7691105329, 55870.711013163454, 53454.6662515004, 0.054, 0.9540000000000001, 0.14, 192.0, 0.0, 0.0, 0.0, 0.0, 0.0, 0.0, 0.0, 0.0, 0.0, 1.6665561770386145E9, 0.0, 2022-10-23 13:16:17.038
114.0, -78089.37318198361, -109704.57460934814, 51159.589130829474, 31233.008948923227, 61397.24688497149, 79480.54575688193, 54514.340104382056, 52016.66677196822, 0.046, 0.9480000000000001, 0.132, 192.0, 1.0, 112.0, 29.0, 160.0, 4.0, 32.0, 0.0, 0.0, 0.0, 1.6665561770386221E9, 0.0, 2022-10-23 13:16:17.038
115.0, -78104.2370920464, -109711.7942228072, 50362.123592153024, 31363.140805142026, 61514.45943289512, 79302.15648438412, 54105.54905003894, 51780.76646098691, 0.046, 0.9480000000000001, 0.132, 192.0, 0.0, 0.0, 0.0, 0.0, 0.0, 0.0, 0.0, 0.0, 0.0, 1.6665561770386305E9, 0.0, 2022-10-23 13:16:17.038
116.0, -78144.11260415467, -109743.3548859781, 51384.067700394124, 31465.46709125842, 61613.72353002114, 79813.76556322165, 54842.195492052495, 52619.873299583596, 0.046, 0.9480000000000001, 0.132, 192.0, 0.0, 0.0, 0.0, 0.0, 0.0, 0.0, 0.0, 0.0, 0.0, 1.6665561770386384E9, 0.0, 2022-10-23 13:16:17.038
117.0, -78144.96197044397, -109748.16051103598, 53191.362701816885, 31394.38854389054, 61581.179390094214, 80440.8884574042, 55912.12879563914, 53546.30840376716, 0.046, 0.9480000000000001, 0.132, 192.0, 0.0, 0.0, 0.0, 0.0, 0.0, 0.0, 0.0, 0.0, 0.0, 1.6665561770386465E9, 0.0, 2022-10-23 13:16:17.038
118.0, -78085.86395810414, -109693.30933014267, 51529.555205053715, 31221.497800528745, 61408.780385110425, 79660.58905846943, 54749.05577290723, 52244.363992734434, 0.046, 0.9480000000000001, 0.132, 192.0, 0.0, 0.0, 0.0, 0.0, 0.0, 0.0, 0.0, 0.0, 0.0, 1.666556177038654E9, 0.0, 2022-10-23 13:16:17.038
119.0, -78097.17394079852, -109707.01094949376, 50345.717411722835, 31334.597627472598, 61492.28650239546, 79304.59282452975, 54072.35670952281, 51722.24959400292, 0.046, 0.9480000000000001, 0.132, 192.0, 0.0, 0.0, 0.0, 0.0, 0.0, 0.0, 0.0, 0.0, 0.0, 1.666556177038662E9, 0.0, 2022-10-23 13:16:17.038
120.0, -78127.88523768011, -109736.51525217477, 51005.20563187667, 31430.061928041214, 61584.84507618488, 79681.57734651296, 54588.59259946259, 52368.34911922802, 0.046, 0.9480000000000001, 0.132, 192.0, 0.0, 0.0, 0.0, 0.0, 0.0, 0.0, 0.0, 0.0, 0.0, 1.6665561770386698E9, 0.0, 2022-10-23 13:16:17.038
121.0, -78145.61017103317, -109758.35290650761, 53057.38634555177, 31427.51382917331, 61606.16864039525, 80454.54537326639, 55852.56139666574, 53534.46197920585, 0.046, 0.9480000000000001, 0.132, 192.0, 0.0, 0.0, 0.0, 0.0, 0.0, 0.0, 0.0, 0.0, 0.0, 1.6665561775169744E9, 0.0, 2022-10-23 13:16:17.516
122.0, -78079.65017314556, -109697.4891063558, 51949.72329732458, 31221.76602146221, 61412.8931060902, 79865.55455512459, 55019.82480523882, 52513.389588998514, 0.046, 0.9480000000000001, 0.132, 192.0, 0.0, 0.0, 0.0, 0.0, 0.0, 0.0, 0.0, 0.0, 0.0, 1.6665561775170608E9, 0.0, 2022-10-23 13:16:17.517
123.0, -78082.17592026902, -109701.80299303569, 50410.850395065594, 31309.09428704909, 61464.570339270875, 79345.63062734969, 54098.46354704661, 51710.09024501923, 0.046, 0.9480000000000001, 0.132, 192.0, 0.0, 0.0, 0.0, 0.0, 0.0, 0.0, 0.0, 0.0, 0.0, 1.666556177517074E9, 0.0, 2022-10-23 13:16:17.517
124.0, -78122.45376377748, -109734.45889168489, 50763.09153593678, 31400.490570126844, 61558.31355551643, 79617.20432248167, 54430.83398709703, 52190.5186403416, 0.048, 0.9420000000000001, 0.134, 192.0, 1.0, 128.0, 29.0, 112.0, 4.0, 48.0, 0.0, 0.0, 0.0, 1.6665561775170825E9, 0.0, 2022-10-23 13:16:17.517
125.0, -78143.37499658763, -109755.02249658377, 52830.09145618576, 31464.617724969117, 61626.01698947156, 80436.75338467996, 55743.484883723846, 53454.375678822485, 0.048, 0.9420000000000001, 0.134, 192.0, 0.0, 0.0, 0.0, 0.0, 0.0, 0.0, 0.0, 0.0, 0.0, 1.6665561775170918E9, 0.0, 2022-10-23 13:16:17.517
126.0, -78094.1341035526, -109704.23933318131, 52382.78834614615, 31241.770832749706, 61430.88626037673, 80081.91944145196, 55315.44897740472, 52815.13813914516, 0.048, 0.9420000000000001, 0.134, 192.0, 0.0, 0.0, 0.0, 0.0, 0.0, 0.0, 0.0, 0.0, 0.0, 1.666556177517241E9, 0.0, 2022-10-23 13:16:17.517
127.0, -78093.03886807429, -109698.31612090065, 50489.6179425261, 31288.77655133922, 61436.07186509036, 79365.99306654849, 54127.163186927224, 51708.100939762706, 0.048, 0.9420000000000001, 0.134, 192.0, 0.0, 0.0, 0.0, 0.0, 0.0, 0.0, 0.0, 0.0, 0.0, 1.6665561775172513E9, 0.0, 2022-10-23 13:16:17.517
128.0, -78112.23901656139, -109717.98565602132, 50566.23972251889, 31391.59457583363, 61552.12212230231, 79548.15978385923, 54294.62245638639, 52037.163321633736, 0.048, 0.9420000000000001, 0.134, 192.0, 0.0, 0.0, 0.0, 0.0, 0.0, 0.0, 0.0, 0.0, 0.0, 1.6665561775172596E9, 0.0, 2022-10-23 13:16:17.517
129.0, -78145.65487452208, -109748.42873196946, 52484.66759737344, 31479.727504220904, 61635.96351575417, 80352.82258425029, 55549.87407325197, 53287.0281680856, 0.048, 0.9420000000000001, 0.134, 192.0, 0.0, 0.0, 0.0, 0.0, 0.0, 0.0, 0.0, 0.0, 0.0, 1.6665561775172677E9, 0.0, 2022-10-23 13:16:17.517
130.0, -78095.29639426427, -109703.83700178111, 52759.77286812936, 31274.5831936101, 61454.579109499355, 80276.42432170204, 55576.56205613161, 53094.065558202936, 0.048, 0.9420000000000001, 0.134, 192.0, 0.0, 0.0, 0.0, 0.0, 0.0, 0.0, 0.0, 0.0, 0.0, 1.6665561775172756E9, 0.0, 2022-10-23 13:16:17.517
131.0, -78060.78530082529, -109674.71267875585, 50658.84299979723, 31277.779493067206, 61428.33816150882, 79433.4953348035, 54219.40883629428, 51765.16494335711, 0.048, 0.9420000000000001, 0.134, 192.0, 0.0, 0.0, 0.0, 0.0, 0.0, 0.0, 0.0, 0.0, 0.0, 1.6665561775172837E9, 0.0, 2022-10-23 13:16:17.517
132.0, -78090.3790104841, -109702.85352502509, 50423.657944638486, 31372.461482579885, 61529.61391563582, 79481.84215806033, 54182.8413823654, 51900.43770080063, 0.048, 0.9420000000000001, 0.134, 192.0, 0.0, 0.0, 0.0, 0.0, 0.0, 0.0, 0.0, 0.0, 0.0, 1.6665561775172915E9, 0.0, 2022-10-23 13:16:17.517
133.0, -78136.66947325105, -109748.54049069172, 52050.663775284745, 31480.219242598923, 61638.55631811098, 80202.21653011043, 55279.57442755395, 53037.09096158636, 0.048, 0.9420000000000001, 0.134, 192.0, 0.0, 0.0, 0.0, 0.0, 0.0, 0.0, 0.0, 0.0, 0.0, 1.666556177517304E9, 0.0, 2022-10-23 13:16:17.517
134.0, -78098.29152802129, -109713.71647283036, 53081.45917433014, 31315.10690630757, 61515.956999773625, 80467.93406819511, 55818.81026253823, 53362.59941608899, 0.05, 0.9500000000000001, 0.136, 192.0, 1.0, 144.0, 29.0, 176.0, 4.0, 64.0, 0.0, 0.0, 0.0, 1.666556177517312E9, 0.0, 2022-10-23 13:16:17.517
135.0, -78034.99138772386, -109653.83614943459, 50939.312689222425, 31255.47245210081, 61408.087481032315, 79543.28710356797, 54389.617370321444, 51900.05772114488, 0.05, 0.9500000000000001, 0.136, 192.0, 0.0, 0.0, 0.0, 0.0, 0.0, 0.0, 0.0, 0.0, 0.0, 1.666556177517321E9, 0.0, 2022-10-23 13:16:17.517
136.0, -78068.29548696226, -109679.89828346948, 50358.88258920701, 31369.578107545152, 61526.28350571198, 79452.22609665706, 54123.542204325466, 51819.27851668341, 0.05, 0.9500000000000001, 0.136, 192.0, 0.0, 0.0, 0.0, 0.0, 0.0, 0.0, 0.0, 0.0, 0.0, 1.6665561775173292E9, 0.0, 2022-10-23 13:16:17.517
137.0, -78112.79781017278, -109721.27136245626, 51634.139017360096, 31474.899527418558, 61630.37557964034, 80061.51229876427, 55018.84132848279, 52789.43363302155, 0.05, 0.9500000000000001, 0.136, 192.0, 0.0, 0.0, 0.0, 0.0, 0.0, 0.0, 0.0, 0.0, 0.0, 1.666556177517337E9, 0.0, 2022-10-23 13:16:17.517
138.0, -78094.1788070415, -109710.20724895087, 53190.13335587184, 31376.373037859565, 61563.94619511917, 80562.79487166344, 55908.44075780401, 53502.29781893466, 0.05, 0.9500000000000001, 0.136, 192.0, 0.0, 0.0, 0.0, 0.0, 0.0, 0.0, 0.0, 0.0, 0.0, 1.6665561775173447E9, 0.0, 2022-10-23 13:16:17.517
139.0, -78027.39179460905, -109641.65444870645, 51272.845419984515, 31265.70955106134, 61427.242926030514, 79700.08459092195, 54594.448756509875, 52090.76280483756, 0.05, 0.9500000000000001, 0.136, 192.0, 0.0, 0.0, 0.0, 0.0, 0.0, 0.0, 0.0, 0.0, 0.0, 1.6665561775173528E9, 0.0, 2022-10-23 13:16:17.517
140.0, -78059.31008569124, -109668.16361763045, 50335.54736799567, 31371.120377912568, 61523.80246207744, 79456.2047071701, 54091.020416142994, 51752.46915250649, 0.05, 0.9500000000000001, 0.136, 192.0, 0.0, 0.0, 0.0, 0.0, 0.0, 0.0, 0.0, 0.0, 0.0, 1.6665561775173607E9, 0.0, 2022-10-23 13:16:17.517
141.0, -78091.40719072905, -109703.65818782547, 51225.794997906094, 31453.397149252552, 61606.66037877326, 79916.20360806031, 54748.63108976258, 52520.05040884619, 0.05, 0.9500000000000001, 0.136, 192.0, 0.0, 0.0, 0.0, 0.0, 0.0, 0.0, 0.0, 0.0, 0.0, 1.6665561775173838E9, 0.0, 2022-10-23 13:16:17.517
142.0, -78095.11758030864, -109710.67663558444, 53142.47943669313, 31420.383622692065, 61597.56321877995, 80604.10089541685, 55901.891696678606, 53548.945909612885, 0.05, 0.9500000000000001, 0.136, 192.0, 0.0, 0.0, 0.0, 0.0, 0.0, 0.0, 0.0, 0.0, 0.0, 1.666556177517392E9, 0.0, 2022-10-23 13:16:17.517
143.0, -78029.6716725435, -109645.58835573058, 51659.105915916676, 31249.258667142236, 61421.69969340559, 79883.6594681334, 54841.793160652305, 52335.961441512285, 0.046, 0.9440000000000001, 0.14, 192.0, 1.0, 112.0, 29.0, 128.0, 4.0, 96.0, 0.0, 0.0, 0.0, 1.6665561775174E9, 0.0, 2022-10-23 13:16:17.517
144.0, -78048.71535881942, -109665.57081527363, 50338.94483315288, 31343.58302874363, 61494.54402858544, 79462.84317527333, 54071.28382578896, 51711.319590964275, 0.046, 0.9440000000000001, 0.14, 192.0, 0.0, 0.0, 0.0, 0.0, 0.0, 0.0, 0.0, 0.0, 0.0, 1.6665561775174084E9, 0.0, 2022-10-23 13:16:17.517
145.0, -78091.00485932885, -109704.30638841467, 50891.32349387688, 31422.395279693043, 61575.54675049148, 79804.69075497279, 54526.924136510395, 52294.76717648115, 0.046, 0.9440000000000001, 0.14, 192.0, 0.0, 0.0, 0.0, 0.0, 0.0, 0.0, 0.0, 0.0, 0.0, 1.6665561775174165E9, 0.0, 2022-10-23 13:16:17.517
146.0, -78106.76283916985, -109720.89138280052, 52999.3612169458, 31456.83931789867, 61631.00142848509, 80628.82192478442, 55850.0356495423, 53528.87404309202, 0.046, 0.9440000000000001, 0.14, 192.0, 0.0, 0.0, 0.0, 0.0, 0.0, 0.0, 0.0, 0.0, 0.0, 1.6665561775174246E9, 0.0, 2022-10-23 13:16:17.517
147.0, -78038.67942555898, -109654.30553606815, 52109.49356669111, 31245.123594418004, 61435.08838833433, 80109.47914236537, 55143.944042199146, 52626.93645083147, 0.046, 0.9440000000000001, 0.14, 192.0, 0.0, 0.0, 0.0, 0.0, 0.0, 0.0, 0.0, 0.0, 0.0, 1.6665561775174325E9, 0.0, 2022-10-23 13:16:17.517
148.0, -78047.21779194092, -109659.49114078179, 50408.79403457571, 31319.063165076157, 61467.364307327785, 79494.71676286659, 54095.53546852297, 51692.9017535331, 0.046, 0.9440000000000001, 0.14, 192.0, 0.0, 0.0, 0.0, 0.0, 0.0, 0.0, 0.0, 0.0, 0.0, 1.6665561775174403E9, 0.0, 2022-10-23 13:16:17.517
149.0, -78074.55397540976, -109689.53188532972, 50662.039299254335, 31410.481799898364, 61566.67310794272, 79732.87460003789, 54369.478448567206, 52121.22823253015, 0.046, 0.9440000000000001, 0.14, 192.0, 0.0, 0.0, 0.0, 0.0, 0.0, 0.0, 0.0, 0.0, 0.0, 1.666556177517448E9, 0.0, 2022-10-23 13:16:17.517
150.0, -78091.27308026231, -109715.86224029807, 52701.188945912, 31480.845091443673, 61641.171472212256, 80560.40323500673, 55678.55306608118, 53395.61294264948, 0.046, 0.9440000000000001, 0.14, 192.0, 0.0, 0.0, 0.0, 0.0, 0.0, 0.0, 0.0, 0.0, 0.0, 1.6665561775174563E9, 0.0, 2022-10-23 13:16:17.517
151.0, -78026.49772483084, -109655.84780643557, 52524.76662692626, 31266.983600495292, 61454.98144089955, 80316.2551303214, 55421.2844874006, 52922.40416078617, 0.046, 0.9440000000000001, 0.14, 192.0, 0.0, 0.0, 0.0, 0.0, 0.0, 0.0, 0.0, 0.0, 0.0, 1.666556177517464E9, 0.0, 2022-10-23 13:16:17.517
152.0, -78041.54044884926, -109662.62038500553, 50543.21742572993, 31280.461702401844, 61431.89208887722, 79551.46784203862, 54163.171847244725, 51725.80352137131, 0.046, 0.9440000000000001, 0.14, 192.0, 0.0, 0.0, 0.0, 0.0, 0.0, 0.0, 0.0, 0.0, 0.0, 1.6665561775174718E9, 0.0, 2022-10-23 13:16:17.517
153.0, -78064.8309665717, -109684.77096376073, 50509.98038172488, 31386.900709498015, 61547.629421666796, 79687.50055879362, 54260.60310132541, 51988.369463487805, 0.044, 0.9400000000000001, 0.136, 192.0, 1.0, 96.0, 29.0, 96.0, 4.0, 64.0, 0.0, 0.0, 0.0, 1.6665561775174797E9, 0.0, 2022-10-23 13:16:17.517
154.0, -78089.10496105015, -109704.17227794795, 52314.16849066836, 31497.720658507427, 61652.72732409565, 80456.2888093339, 55446.47490340172, 53192.25677159509, 0.044, 0.9400000000000001, 0.136, 192.0, 0.0, 0.0, 0.0, 0.0, 0.0, 0.0, 0.0, 0.0, 0.0, 1.666556177517488E9, 0.0, 2022-10-23 13:16:17.517
155.0, -78061.70172234795, -109678.91480671345, 52878.19241025358, 31301.24882474528, 61495.99689197504, 80515.85620830729, 55667.31013862016, 53197.97881817565, 0.044, 0.9400000000000001, 0.136, 192.0, 0.0, 0.0, 0.0, 0.0, 0.0, 0.0, 0.0, 0.0, 0.0, 1.6665561775174968E9, 0.0, 2022-10-23 13:16:17.517
156.0, -78027.86118124261, -109644.04608536317, 50777.91074251065, 31275.36550466603, 61429.58985919832, 79662.44425325922, 54302.423215201285, 51828.129807487705, 0.044, 0.9400000000000001, 0.136, 192.0, 0.0, 0.0, 0.0, 0.0, 0.0, 0.0, 0.0, 0.0, 0.0, 1.6665561775175045E9, 0.0, 2022-10-23 13:16:17.517
157.0, -78048.0224547413, -109663.51445478374, 50411.65505786599, 31385.06786645268, 61537.16880526171, 79653.41414849927, 54173.27483573852, 51875.046119099396, 0.044, 0.9400000000000001, 0.136, 192.0, 0.0, 0.0, 0.0, 0.0, 0.0, 0.0, 0.0, 0.0, 0.0, 1.6665561775175204E9, 0.0, 2022-10-23 13:16:17.517
158.0, -78084.96988832593, -109698.67374881194, 51896.45909028758, 31495.0831526617, 61647.29585019301, 80320.9042931681, 55182.456097895636, 52942.408972073674, 0.044, 0.9400000000000001, 0.136, 192.0, 0.0, 0.0, 0.0, 0.0, 0.0, 0.0, 0.0, 0.0, 0.0, 1.666556177517528E9, 0.0, 2022-10-23 13:16:17.517
159.0, -78056.98550426788, -109679.25008288027, 53140.91481458126, 31350.847345691604, 61546.310668743936, 80685.57300395644, 55864.29606250478, 53423.7090854298, 0.044, 0.9400000000000001, 0.136, 192.0, 0.0, 0.0, 0.0, 0.0, 0.0, 0.0, 0.0, 0.0, 0.0, 1.6665561775175357E9, 0.0, 2022-10-23 13:16:17.517
160.0, -78003.67659374197, -109636.11121608154, 51068.90810357429, 31251.292675887667, 61411.32848397833, 79781.3778855059, 54468.98841488224, 51965.48127716557, 0.044, 0.9400000000000001, 0.136, 192.0, 0.0, 0.0, 0.0, 0.0, 0.0, 0.0, 0.0, 0.0, 0.0, 1.6665561775175436E9, 0.0, 2022-10-23 13:16:17.517
161.0, -78029.42580335449, -109658.30649832565, 50362.32475785312, 31371.20978489039, 61527.490499912565, 79634.21400001216, 54115.45087283265, 51790.40006284715, 0.044, 0.9400000000000001, 0.136, 192.0, 0.0, 0.0, 0.0, 0.0, 0.0, 0.0, 0.0, 0.0, 0.0, 1.6665561775175514E9, 0.0, 2022-10-23 13:16:17.517
162.0, -78058.68423684649, -109686.31323412816, 51508.83513794364, 31483.102617633656, 61640.85854778988, 80197.56736726372, 54934.39643793064, 52696.897410976584, 0.044, 0.9400000000000001, 0.136, 192.0, 0.0, 0.0, 0.0, 0.0, 0.0, 0.0, 0.0, 0.0, 0.0, 1.666556177517559E9, 0.0, 2022-10-23 13:16:17.517
163.0, -78071.76000735283, -109699.21019067886, 53221.24698415363, 31390.655802566507, 61586.32029131893, 80769.12382473038, 55935.26285115038, 53532.29385999368, 0.05, 0.9420000000000001, 0.14200000000000002, 192.0, 1.0, 144.0, 29.0, 112.0, 4.0, 112.0, 0.0, 0.0, 0.0, 1.6665561775175667E9, 0.0, 2022-10-23 13:16:17.517
164.0, -78021.37917535058, -109642.0344283622, 51420.59045083409, 31233.61244602352, 61409.31682697735, 79920.40573601791, 54678.93835055093, 52155.3593463134, 0.05, 0.9420000000000001, 0.14200000000000002, 192.0, 0.0, 0.0, 0.0, 0.0, 0.0, 0.0, 0.0, 0.0, 0.0, 1.6665561775175755E9, 0.0, 2022-10-23 13:16:17.517
165.0, -78027.43649809796, -109646.39301853097, 50355.88745545, 31354.31186608218, 61517.54397362995, 79616.8466945704, 54087.89117191925, 51727.43519871655, 0.05, 0.9420000000000001, 0.14200000000000002, 192.0, 0.0, 0.0, 0.0, 0.0, 0.0, 0.0, 0.0, 0.0, 0.0, 1.6665561775175834E9, 0.0, 2022-10-23 13:16:17.517
166.0, -78063.10988224864, -109684.50274282727, 51140.25487187563, 31444.009416581324, 61608.35911135186, 80043.11681307755, 54685.64387388753, 52443.09335268657, 0.05, 0.9420000000000001, 0.14200000000000002, 192.0, 0.0, 0.0, 0.0, 0.0, 0.0, 0.0, 0.0, 0.0, 0.0, 1.6665561775175924E9, 0.0, 2022-10-23 13:16:17.517
167.0, -78065.16624273852, -109689.86716149654, 53139.73017212513, 31433.749965876337, 61616.51749807805, 80772.47658639868, 55903.25515309038, 53549.54940671318, 0.05, 0.9420000000000001, 0.14200000000000002, 192.0, 0.0, 0.0, 0.0, 0.0, 0.0, 0.0, 0.0, 0.0, 0.0, 1.6665561775176E9, 0.0, 2022-10-23 13:16:17.517
168.0, -77997.95454716141, -109621.33671299658, 51828.9344702881, 31245.704739773842, 61435.87069939026, 80097.54331082622, 54936.5645571428, 52417.679419240885, 0.05, 0.9420000000000001, 0.14200000000000002, 192.0, 0.0, 0.0, 0.0, 0.0, 0.0, 0.0, 0.0, 0.0, 0.0, 1.666556177517608E9, 0.0, 2022-10-23 13:16:17.517
169.0, -78011.32089034568, -109633.56311721363, 50427.636555151534, 31344.92413341095, 61515.80053756244, 79656.56574446747, 54119.56359381242, 51728.88806210615, 0.05, 0.9420000000000001, 0.14200000000000002, 192.0, 0.0, 0.0, 0.0, 0.0, 0.0, 0.0, 0.0, 0.0, 0.0, 1.6665561775176156E9, 0.0, 2022-10-23 13:16:17.517
170.0, -78036.46660285791, -109662.1286466275, 50866.91538893168, 31432.69943388694, 61595.90918969026, 79950.49118405476, 54503.8124327436, 52249.974280592716, 0.05, 0.9420000000000001, 0.14200000000000002, 192.0, 0.0, 0.0, 0.0, 0.0, 0.0, 0.0, 0.0, 0.0, 0.0, 1.6665561775176232E9, 0.0, 2022-10-23 13:16:17.517
171.0, -78059.4218444135, -109686.02266145023, 52941.40314357319, 31480.398056554564, 61655.96832704167, 80753.79052803403, 55804.371035620105, 53490.31728390662, 0.05, 0.9420000000000001, 0.14200000000000002, 192.0, 0.0, 0.0, 0.0, 0.0, 0.0, 0.0, 0.0, 0.0, 0.0, 1.6665561775176313E9, 0.0, 2022-10-23 13:16:17.517
172.0, -78007.78931472174, -109638.18992831587, 52295.03539741461, 31247.761100263728, 61443.51499599397, 80318.69147046703, 55246.38208703782, 52726.22289970194, 0.05, 0.9420000000000001, 0.14200000000000002, 192.0, 0.0, 0.0, 0.0, 0.0, 0.0, 0.0, 0.0, 0.0, 0.0, 1.6665561775176463E9, 0.0, 2022-10-23 13:16:17.517
173.0, -78004.48125654236, -109636.55825097064, 50484.38763432355, 31307.261444003758, 61459.13886536824, 79646.66392167377, 54118.46835833411, 51693.32643667775, 0.044, 0.9440000000000001, 0.14, 192.0, 1.0, 96.0, 29.0, 128.0, 4.0, 96.0, 0.0, 0.0, 0.0, 1.6665561775176544E9, 0.0, 2022-10-23 13:16:17.517
174.0, -78030.20811441042, -109664.16265537294, 50624.75658950288, 31401.1611224605, 61561.17457880671, 79840.23002865673, 54318.33765725347, 52053.368336363834, 0.044, 0.9440000000000001, 0.14, 192.0, 0.0, 0.0, 0.0, 0.0, 0.0, 0.0, 0.0, 0.0, 0.0, 1.6665561775176623E9, 0.0, 2022-10-23 13:16:17.517
175.0, -78065.74738809436, -109692.66112955345, 52586.412738134, 31487.57296652472, 61650.670963605764, 80647.57503838242, 55587.24618998125, 53309.60342998546, 0.044, 0.9440000000000001, 0.14, 192.0, 0.0, 0.0, 0.0, 0.0, 0.0, 0.0, 0.0, 0.0, 0.0, 1.6665561775176709E9, 0.0, 2022-10-23 13:16:17.517
176.0, -78002.71546873038, -109630.4785764788, 52692.09178591869, 31285.46849315983, 61485.69273778114, 80519.2536734645, 55513.10545362299, 53020.081284055865, 0.044, 0.9440000000000001, 0.14, 192.0, 0.0, 0.0, 0.0, 0.0, 0.0, 0.0, 0.0, 0.0, 0.0, 1.6665561775176797E9, 0.0, 2022-10-23 13:16:17.517
177.0, -77975.91572712848, -109609.4232332019, 50646.527188602355, 31303.975737568828, 61461.12817062476, 79714.65792830681, 54203.98613262011, 51753.83260891827, 0.044, 0.9440000000000001, 0.14, 192.0, 0.0, 0.0, 0.0, 0.0, 0.0, 0.0, 0.0, 0.0, 0.0, 1.666556177517687E9, 0.0, 2022-10-23 13:16:17.517
178.0, -78011.99144267934, -109641.74385568427, 50510.60623056963, 31392.890977012037, 61561.48750322909, 79806.00950789565, 54236.91025220278, 51951.57849211437, 0.044, 0.9440000000000001, 0.14, 192.0, 0.0, 0.0, 0.0, 0.0, 0.0, 0.0, 0.0, 0.0, 0.0, 1.666556177517695E9, 0.0, 2022-10-23 13:16:17.517
179.0, -78047.418957641, -109672.61161477705, 52204.309666670524, 31494.90433870606, 61652.59321362892, 80532.01651954849, 55361.78414366057, 53104.45911937465, 0.044, 0.9440000000000001, 0.14, 192.0, 0.0, 0.0, 0.0, 0.0, 0.0, 0.0, 0.0, 0.0, 0.0, 1.6665561775177028E9, 0.0, 2022-10-23 13:16:17.517
180.0, -78016.10416365913, -109647.77882668721, 53011.6099729073, 31322.48298197782, 61517.05223525193, 80690.71390518117, 55743.55193895721, 53275.0252813131, 0.044, 0.9440000000000001, 0.14, 192.0, 0.0, 0.0, 0.0, 0.0, 0.0, 0.0, 0.0, 0.0, 0.0, 1.6665561775177104E9, 0.0, 2022-10-23 13:16:17.517
181.0, -77979.24613705232, -109608.35034946805, 50875.632569269255, 31265.933068505892, 61418.92807709314, 79792.73257168921, 54334.81089291703, 51849.40866820916, 0.044, 0.9440000000000001, 0.14, 192.0, 0.0, 0.0, 0.0, 0.0, 0.0, 0.0, 0.0, 0.0, 0.0, 1.6665561775177183E9, 0.0, 2022-10-23 13:16:17.517
182.0, -78018.5628555492, -109640.6262684615, 50392.67842682343, 31374.383732603044, 61528.31751445741, 79738.19431521825, 54132.66171606323, 51828.97917377701, 0.048, 0.9480000000000001, 0.14, 192.0, 1.0, 128.0, 29.0, 160.0, 4.0, 96.0, 0.0, 0.0, 0.0, 1.666556177517726E9, 0.0, 2022-10-23 13:16:17.517
183.0, -78067.31201020622, -109685.95560621687, 51763.28739682286, 31472.46318727293, 61632.141367452314, 80375.04021823886, 55080.97917806854, 52841.64730806915, 0.048, 0.9480000000000001, 0.14, 192.0, 0.0, 0.0, 0.0, 0.0, 0.0, 0.0, 0.0, 0.0, 0.0, 1.6665561775177343E9, 0.0, 2022-10-23 13:16:17.517
184.0, -78045.0720244732, -109667.64952750797, 53189.842783193926, 31355.20593586039, 61556.90539561575, 80816.88950263137, 55883.563266225254, 53456.70026024584, 0.048, 0.9480000000000001, 0.14, 192.0, 0.0, 0.0, 0.0, 0.0, 0.0, 0.0, 0.0, 0.0, 0.0, 1.6665561775177422E9, 0.0, 2022-10-23 13:16:17.517
185.0, -77983.29180279873, -109614.63118965998, 51202.14685227238, 31247.89521073046, 61420.69386490511, 79934.91201816942, 54534.00963950272, 52026.054504639455, 0.048, 0.9480000000000001, 0.14, 192.0, 0.0, 0.0, 0.0, 0.0, 0.0, 0.0, 0.0, 0.0, 0.0, 1.66655617751775E9, 0.0, 2022-10-23 13:16:17.517
186.0, -78015.70183225893, -109642.79438767367, 50368.31502536715, 31354.334217826632, 61517.83454630787, 79729.20891394722, 54095.51311677851, 51761.07457412178, 0.048, 0.9480000000000001, 0.14, 192.0, 0.0, 0.0, 0.0, 0.0, 0.0, 0.0, 0.0, 0.0, 0.0, 1.666556177517758E9, 0.0, 2022-10-23 13:16:17.517
187.0, -78036.33249239117, -109660.00523090425, 51380.69258698137, 31461.89081214557, 61621.166660924755, 80237.2417136719, 54832.24896576989, 52594.12408997108, 0.048, 0.9480000000000001, 0.14, 192.0, 0.0, 0.0, 0.0, 0.0, 0.0, 0.0, 0.0, 0.0, 0.0, 1.6665561775177653E9, 0.0, 2022-10-23 13:16:17.517
188.0, -78033.22559991188, -109657.05480063615, 53257.38975493786, 31414.84039006715, 61612.11420442036, 80902.67549785084, 55960.27445319587, 53573.063441880164, 0.048, 0.9480000000000001, 0.14, 192.0, 0.0, 0.0, 0.0, 0.0, 0.0, 0.0, 0.0, 0.0, 0.0, 1.6665561775177805E9, 0.0, 2022-10-23 13:16:17.517
189.0, -77974.75343641681, -109602.09186102056, 51615.45295899546, 31232.383100078478, 61417.74343463701, 80108.04863072022, 54797.044968252776, 52269.64381571339, 0.048, 0.9480000000000001, 0.14, 192.0, 0.0, 0.0, 0.0, 0.0, 0.0, 0.0, 0.0, 0.0, 0.0, 1.6665561775177886E9, 0.0, 2022-10-23 13:16:17.517
190.0, -77979.26848879678, -109608.46210819032, 50371.01958644624, 31355.898839938505, 61509.810270048416, 79712.6686230503, 54072.98255836756, 51712.19130899803, 0.048, 0.9480000000000001, 0.14, 192.0, 0.0, 0.0, 0.0, 0.0, 0.0, 0.0, 0.0, 0.0, 0.0, 1.6665561775177965E9, 0.0, 2022-10-23 13:16:17.517
191.0, -78016.17121889249, -109646.34831504207, 51023.57876581893, 31449.88792537307, 61609.27553287453, 80089.47433107786, 54589.50902098525, 52360.99539530223, 0.048, 0.9480000000000001, 0.14, 192.0, 0.0, 0.0, 0.0, 0.0, 0.0, 0.0, 0.0, 0.0, 0.0, 1.666556177517804E9, 0.0, 2022-10-23 13:16:17.517
192.0, -78035.1702016795, -109665.97314667383, 53088.0305872, 31457.576925465695, 61637.41637914377, 80865.01280844364, 55866.15125729457, 53543.67089792144, 0.052000000000000005, 0.9440000000000001, 0.14, 192.0, 1.0, 160.0, 29.0, 128.0, 4.0, 96.0, 0.0, 0.0, 0.0, 1.666556177517812E9, 0.0, 2022-10-23 13:16:17.517
193.0, -77961.02946532125, -109593.15116323844, 52008.776606175496, 31259.115786447026, 61439.53638548093, 80273.76446411187, 55044.94816600659, 52537.238900332326, 0.052000000000000005, 0.9440000000000001, 0.14, 192.0, 0.0, 0.0, 0.0, 0.0, 0.0, 0.0, 0.0, 0.0, 0.0, 1.6665561775178201E9, 0.0, 2022-10-23 13:16:17.517
194.0, -77976.27335503977, -109606.31634072261, 50419.7016858699, 31335.312883295166, 61489.55958957191, 79725.18559994527, 54086.907695163216, 51698.869669302665, 0.052000000000000005, 0.9440000000000001, 0.14, 192.0, 0.0, 0.0, 0.0, 0.0, 0.0, 0.0, 0.0, 0.0, 0.0, 1.666556177517828E9, 0.0, 2022-10-23 13:16:17.517
195.0, -78016.23827412585, -109644.47076850782, 50727.5746139973, 31411.040593509748, 61569.712945188636, 79966.47268134031, 54386.6892917978, 52147.491532265136, 0.052000000000000005, 0.9440000000000001, 0.14, 192.0, 0.0, 0.0, 0.0, 0.0, 0.0, 0.0, 0.0, 0.0, 0.0, 1.6665561775178356E9, 0.0, 2022-10-23 13:16:17.517
196.0, -78036.98069298037, -109666.06255365165, 52778.19070556053, 31483.124969378114, 61649.978059527646, 80779.60679287992, 55688.72310980834, 53413.22611728026, 0.052000000000000005, 0.9440000000000001, 0.14, 192.0, 0.0, 0.0, 0.0, 0.0, 0.0, 0.0, 0.0, 0.0, 0.0, 1.6665561775178435E9, 0.0, 2022-10-23 13:16:17.517
197.0, -77970.79717764822, -109607.29981747865, 52398.9710091318, 31273.57736510961, 61467.54312128343, 80456.80289945638, 55305.480099377644, 52823.90002297163, 0.052000000000000005, 0.9440000000000001, 0.14, 192.0, 0.0, 0.0, 0.0, 0.0, 0.0, 0.0, 0.0, 0.0, 0.0, 1.6665561775178523E9, 0.0, 2022-10-23 13:16:17.517
198.0, -77966.48329096833, -109599.40965168591, 50501.821994998696, 31311.62003417254, 61473.801609730916, 79745.65979786632, 54116.836680988876, 51712.86186133169, 0.052000000000000005, 0.9440000000000001, 0.14, 192.0, 0.0, 0.0, 0.0, 0.0, 0.0, 0.0, 0.0, 0.0, 0.0, 1.6665561775178602E9, 0.0, 2022-10-23 13:16:17.517
199.0, -77994.5570820042, -109626.29880026565, 50556.5837689142, 31399.30592767071, 61562.56038696294, 79911.64385219144, 54268.1579909513, 52024.355772060844, 0.052000000000000005, 0.9440000000000001, 0.14, 192.0, 0.0, 0.0, 0.0, 0.0, 0.0, 0.0, 0.0, 0.0, 0.0, 1.6665561775178678E9, 0.0, 2022-10-23 13:16:17.517
200.0, -78027.34709112014, -109661.8827774385, 52437.28189912819, 31487.88589094709, 61647.40760891529, 80693.21730056017, 55497.392177270915, 53253.7687723361, 0.052000000000000005, 0.9440000000000001, 0.14, 192.0, 0.0, 0.0, 0.0, 0.0, 0.0, 0.0, 0.0, 0.0, 0.0, 1.6665561775178757E9, 0.0, 2022-10-23 13:16:17.517
201.0, -77978.28501204074, -109615.14527978246, 52807.47149079698, 31283.412132669942, 61478.31666211089, 80662.72952112312, 55595.29281798516, 53128.442541175194, 0.052000000000000005, 0.9440000000000001, 0.14, 192.0, 0.0, 0.0, 0.0, 0.0, 0.0, 0.0, 0.0, 0.0, 0.0, 1.6665561775178835E9, 0.0, 2022-10-23 13:16:17.517
202.0, -77947.3949012035, -109574.59921534052, 50731.7767419549, 31294.72211536433, 61451.96395539808, 79834.30681637608, 54259.239644913636, 51805.845118265766, 0.048, 0.9400000000000001, 0.138, 192.0, 1.0, 128.0, 29.0, 96.0, 4.0, 80.0, 0.0, 0.0, 0.0, 1.6665561775178914E9, 0.0, 2022-10-23 13:16:17.517
203.0, -77990.80198893571, -109613.55830592613, 50441.71815415838, 31387.235985664844, 61544.2766599985, 79845.68385430383, 54176.20291426217, 51896.012055398474, 0.048, 0.9400000000000001, 0.138, 192.0, 0.0, 0.0, 0.0, 0.0, 0.0, 0.0, 0.0, 0.0, 0.0, 1.6665561775179071E9, 0.0, 2022-10-23 13:16:17.517
204.0, -78026.83300099766, -109650.03635287718, 52017.27026906852, 31487.50591129135, 61648.01110601558, 80538.25265625151, 55237.44138925569, 53006.469071682586, 0.048, 0.9400000000000001, 0.138, 192.0, 0.0, 0.0, 0.0, 0.0, 0.0, 0.0, 0.0, 0.0, 0.0, 1.6665561775179148E9, 0.0, 2022-10-23 13:16:17.517
205.0, -77998.3121750727, -109629.0257130892, 53066.03647065598, 31332.474211749344, 61531.13383425878, 80803.65726991383, 55781.37109057559, 53350.820046761044, 0.048, 0.9400000000000001, 0.138, 192.0, 0.0, 0.0, 0.0, 0.0, 0.0, 0.0, 0.0, 0.0, 0.0, 1.6665561775179224E9, 0.0, 2022-10-23 13:16:17.517
206.0, -77962.52703219975, -109594.55932313911, 50947.56048292643, 31247.917562474915, 61414.12245203525, 79888.42038970237, 54366.84094272149, 51897.30845657688, 0.048, 0.9400000000000001, 0.138, 192.0, 0.0, 0.0, 0.0, 0.0, 0.0, 0.0, 0.0, 0.0, 0.0, 1.6665561775179317E9, 0.0, 2022-10-23 13:16:17.517
207.0, -77955.86621235206, -109583.71872707829, 50358.79318222919, 31389.940546743936, 61550.8257211239, 79799.57220549253, 54101.14575638125, 51817.15510096015, 0.048, 0.9400000000000001, 0.138, 192.0, 0.0, 0.0, 0.0, 0.0, 0.0, 0.0, 0.0, 0.0, 0.0, 1.6665561775179396E9, 0.0, 2022-10-23 13:16:17.517
208.0, -77998.46863728388, -109628.91395436693, 51604.34414200117, 31493.004440427358, 61651.788550828525, 80392.60868938074, 54979.32344428581, 52775.888475881635, 0.048, 0.9400000000000001, 0.138, 192.0, 0.0, 0.0, 0.0, 0.0, 0.0, 0.0, 0.0, 0.0, 0.0, 1.6665561775179472E9, 0.0, 2022-10-23 13:16:17.517
209.0, -77992.97010814787, -109628.31045726663, 53204.61728627888, 31389.940546743936, 61582.09581161688, 80912.17498924435, 55901.10938562267, 53522.883775578, 0.048, 0.9400000000000001, 0.138, 192.0, 0.0, 0.0, 0.0, 0.0, 0.0, 0.0, 0.0, 0.0, 0.0, 1.6665561775179553E9, 0.0, 2022-10-23 13:16:17.517
210.0, -77938.49890691029, -109571.49232286125, 51330.49056893475, 31247.64934154145, 61421.43147247213, 80057.82426092915, 54611.212564851354, 52127.01733434408, 0.048, 0.9400000000000001, 0.138, 192.0, 0.0, 0.0, 0.0, 0.0, 0.0, 0.0, 0.0, 0.0, 0.0, 1.6665561775179627E9, 0.0, 2022-10-23 13:16:17.517
211.0, -77957.18496527494, -109589.91016029242, 50340.5318070092, 31364.16898538697, 61515.8675927958, 79775.85700462545, 54060.53263670595, 51746.65769894811, 0.05, 0.9420000000000001, 0.14, 192.0, 1.0, 144.0, 29.0, 112.0, 4.0, 96.0, 0.0, 0.0, 0.0, 1.6665561775179708E9, 0.0, 2022-10-23 13:16:17.517
212.0, -77988.79033193474, -109624.93534385388, 51202.236259250196, 31467.344637792667, 61627.06752146096, 80228.7927542678, 54704.19582178543, 52504.76181563876, 0.05, 0.9420000000000001, 0.14, 192.0, 0.0, 0.0, 0.0, 0.0, 0.0, 0.0, 0.0, 0.0, 0.0, 1.6665561775179791E9, 0.0, 2022-10-23 13:16:17.517
213.0, -77997.2616430833, -109629.58450670059, 53155.75637289958, 31434.800497865737, 61626.24050691611, 80937.52186745667, 55889.799402928285, 53564.45802026487, 0.05, 0.9420000000000001, 0.14, 192.0, 0.0, 0.0, 0.0, 0.0, 0.0, 0.0, 0.0, 0.0, 0.0, 1.6665561775179868E9, 0.0, 2022-10-23 13:16:17.517
214.0, -77939.05770052168, -109571.22410192777, 51695.06987274526, 31249.90686773144, 61433.054379588895, 80205.03284991179, 54832.628945425626, 52352.389973686935, 0.05, 0.9420000000000001, 0.14, 192.0, 0.0, 0.0, 0.0, 0.0, 0.0, 0.0, 0.0, 0.0, 0.0, 1.6665561775179944E9, 0.0, 2022-10-23 13:16:17.517
215.0, -77952.73696812833, -109583.20463695582, 50326.070228346616, 31357.57522077265, 61514.88411603977, 79757.03683579408, 54024.971011277565, 51695.38279716764, 0.05, 0.9420000000000001, 0.14, 192.0, 0.0, 0.0, 0.0, 0.0, 0.0, 0.0, 0.0, 0.0, 0.0, 1.6665561775180023E9, 0.0, 2022-10-23 13:16:17.518
216.0, -77986.26458481129, -109622.2754862637, 50871.564551778385, 31438.64499791205, 61610.21430614166, 80100.51609283878, 54482.77944121116, 52285.93823742131, 0.05, 0.9420000000000001, 0.14, 192.0, 0.0, 0.0, 0.0, 0.0, 0.0, 0.0, 0.0, 0.0, 0.0, 1.66655617751801E9, 0.0, 2022-10-23 13:16:17.518
217.0, -78007.07405889918, -109642.77203592921, 52977.165934701676, 31466.98700988138, 61662.15976025579, 80917.22648349125, 55805.86860249861, 53526.46005469085, 0.05, 0.9420000000000001, 0.14, 192.0, 0.0, 0.0, 0.0, 0.0, 0.0, 0.0, 0.0, 0.0, 0.0, 1.6665561775180175E9, 0.0, 2022-10-23 13:16:17.518
218.0, -77938.07422376564, -109575.22506418527, 52173.88894246685, 31260.23337366979, 61468.772467228475, 80439.14502133668, 55163.83709476436, 52677.83137295621, 0.05, 0.9420000000000001, 0.14, 192.0, 0.0, 0.0, 0.0, 0.0, 0.0, 0.0, 0.0, 0.0, 0.0, 1.6665561775180256E9, 0.0, 2022-10-23 13:16:17.518
219.0, -77928.17240097195, -109565.8149797696, 50462.952311390916, 31344.611208988576, 61501.80834553342, 79819.86758945795, 54111.69577976415, 51729.44685571753, 0.05, 0.9420000000000001, 0.14, 192.0, 0.0, 0.0, 0.0, 0.0, 0.0, 0.0, 0.0, 0.0, 0.0, 1.666556177518051E9, 0.0, 2022-10-23 13:16:17.518
220.0, -77955.82150886316, -109597.64386387395, 50665.07913650026, 31435.783974621772, 61596.73620423511, 80023.35787097906, 54344.310384310535, 52121.205880785696, 0.05, 0.9420000000000001, 0.14, 192.0, 0.0, 0.0, 0.0, 0.0, 0.0, 0.0, 0.0, 0.0, 0.0, 1.6665561775180583E9, 0.0, 2022-10-23 13:16:17.518
221.0, -77987.53863424524, -109634.99362885876, 52677.607855511655, 31503.666222532538, 61674.25205400611, 80836.33552030749, 55636.82235918312, 53388.68390186834, 0.05, 0.9500000000000001, 0.148, 192.0, 1.0, 144.0, 29.0, 176.0, 4.0, 160.0, 0.0, 0.0, 0.0, 1.666556177518066E9, 0.0, 2022-10-23 13:16:17.518
222.0, -77934.69911035289, -109576.11913396348, 52580.80245027572, 31295.884406076006, 61493.47114485159, 80622.65284331475, 55433.086208472996, 52966.57120782986, 0.05, 0.9500000000000001, 0.148, 192.0, 0.0, 0.0, 0.0, 0.0, 0.0, 0.0, 0.0, 0.0, 0.0, 1.6665561775180745E9, 0.0, 2022-10-23 13:16:17.518
223.0, -77930.16170622846, -109568.94422399334, 50575.80626914576, 31316.023327830237, 61466.64905150522, 79835.31264487657, 54153.09121049538, 51743.0143646019, 0.05, 0.9500000000000001, 0.148, 192.0, 0.0, 0.0, 0.0, 0.0, 0.0, 0.0, 0.0, 0.0, 0.0, 1.666556177518082E9, 0.0, 2022-10-23 13:16:17.518
224.0, -77975.60280270611, -109617.02282631671, 50503.207803154924, 31392.3098316562, 61558.33590726089, 79938.89062868245, 54218.470063027155, 51970.77864060148, 0.05, 0.9500000000000001, 0.148, 192.0, 0.0, 0.0, 0.0, 0.0, 0.0, 0.0, 0.0, 0.0, 0.0, 1.6665561775180905E9, 0.0, 2022-10-23 13:16:17.518
225.0, -78006.62702401007, -109646.16950108642, 52266.35810927846, 31490.344582837177, 61647.09468449291, 80680.20858528717, 55379.6208357359, 53148.514407696064, 0.05, 0.9500000000000001, 0.148, 192.0, 0.0, 0.0, 0.0, 0.0, 0.0, 0.0, 0.0, 0.0, 0.0, 1.6665561775180984E9, 0.0, 2022-10-23 13:16:17.518
226.0, -77959.24132576481, -109594.22404697229, 52915.5421752384, 31329.836705903617, 61532.385531948275, 80789.15098776233, 55667.04191768669, 53225.002077222125, 0.05, 0.9500000000000001, 0.148, 192.0, 0.0, 0.0, 0.0, 0.0, 0.0, 0.0, 0.0, 0.0, 0.0, 1.666556177518106E9, 0.0, 2022-10-23 13:16:17.518
227.0, -77926.6971858379, -109560.3611541225, 50770.93699824059, 31291.369353696035, 61453.88620542124, 79898.83630261854, 54259.95490073621, 51821.31252542884, 0.05, 0.9500000000000001, 0.148, 192.0, 0.0, 0.0, 0.0, 0.0, 0.0, 0.0, 0.0, 0.0, 0.0, 1.6665561775181136E9, 0.0, 2022-10-23 13:16:17.518
228.0, -77966.17036654596, -109601.75658485372, 50397.46170013687, 31393.494474112333, 61568.30478528795, 79896.24350026173, 54135.72390505361, 51870.97810160853, 0.05, 0.9500000000000001, 0.148, 192.0, 0.0, 0.0, 0.0, 0.0, 0.0, 0.0, 0.0, 0.0, 0.0, 1.6665561775181215E9, 0.0, 2022-10-23 13:16:17.518
229.0, -77996.2111110939, -109635.17244281441, 51871.894523131195, 31505.700231277973, 61671.435734204744, 80565.03004610898, 55146.4697893226, 52932.417742302154, 0.05, 0.9500000000000001, 0.148, 192.0, 0.0, 0.0, 0.0, 0.0, 0.0, 0.0, 0.0, 0.0, 0.0, 1.666556177518129E9, 0.0, 2022-10-23 13:16:17.518
230.0, -77957.2520205083, -109608.90914307942, 53135.88567207881, 31376.954183215403, 61580.15120984927, 80923.86495159447, 55835.618774368624, 53428.38060002096, 0.05, 0.9500000000000001, 0.148, 192.0, 0.0, 0.0, 0.0, 0.0, 0.0, 0.0, 0.0, 0.0, 0.0, 1.6665561775181367E9, 0.0, 2022-10-23 13:16:17.518
231.0, -77908.32405189563, -109557.88011048795, 51097.54068822154, 31279.433522156898, 61459.56354851289, 80035.47251647383, 54466.03798461414, 51994.04680657945, 0.052000000000000005, 0.9560000000000001, 0.15, 192.0, 1.0, 160.0, 29.0, 224.0, 4.0, 176.0, 0.0, 0.0, 0.0, 1.6665561775181444E9, 0.0, 2022-10-23 13:16:17.518
232.0, -77936.17432548694, -109577.57199735308, 50344.71158322234, 31391.2592996668, 61558.09003807188, 79857.37381665396, 54079.08458460386, 51786.957894201034, 0.052000000000000005, 0.9560000000000001, 0.15, 192.0, 0.0, 0.0, 0.0, 0.0, 0.0, 0.0, 0.0, 0.0, 0.0, 1.6665561775181527E9, 0.0, 2022-10-23 13:16:17.518
233.0, -77980.18491031944, -109623.370721742, 51454.810971595165, 31486.544786279774, 61655.856568319396, 80402.48816042997, 54876.23719885793, 52674.97034966593, 0.052000000000000005, 0.9560000000000001, 0.15, 192.0, 0.0, 0.0, 0.0, 0.0, 0.0, 0.0, 0.0, 0.0, 0.0, 1.6665561775181603E9, 0.0, 2022-10-23 13:16:17.518
234.0, -77971.51243347078, -109616.10640479403, 53198.71642574268, 31415.242721467344, 61608.73909100761, 80990.24963262673, 55903.29985657929, 53543.02269733223, 0.052000000000000005, 0.9560000000000001, 0.15, 192.0, 0.0, 0.0, 0.0, 0.0, 0.0, 0.0, 0.0, 0.0, 0.0, 1.666556177518176E9, 0.0, 2022-10-23 13:16:17.518
235.0, -77903.80899951566, -109544.87139521497, 51455.146247762, 31268.704684818353, 61453.90855716569, 80175.50619548633, 54692.662321646494, 52206.276620182594, 0.052000000000000005, 0.9560000000000001, 0.15, 192.0, 0.0, 0.0, 0.0, 0.0, 0.0, 0.0, 0.0, 0.0, 0.0, 1.666556177518184E9, 0.0, 2022-10-23 13:16:17.518
236.0, -77924.90904628146, -109567.22313967027, 50360.38015608551, 31381.69275303993, 61550.11046530133, 79860.3018951776, 54081.63268347176, 51754.99489962994, 0.052000000000000005, 0.9560000000000001, 0.15, 192.0, 0.0, 0.0, 0.0, 0.0, 0.0, 0.0, 0.0, 0.0, 0.0, 1.666556177518192E9, 0.0, 2022-10-23 13:16:17.518
237.0, -77963.57756418915, -109606.2269337448, 51109.85649941641, 31464.684780202482, 61631.22494592964, 80269.2494117319, 54658.978242752346, 52447.16137017743, 0.052000000000000005, 0.9560000000000001, 0.15, 192.0, 0.0, 0.0, 0.0, 0.0, 0.0, 0.0, 0.0, 0.0, 0.0, 1.6665561775181997E9, 0.0, 2022-10-23 13:16:17.518
238.0, -77972.80883464919, -109614.63118965998, 53143.75348612708, 31453.173631808, 61641.663210590275, 81020.08921147457, 55906.58556301422, 53580.10424138358, 0.052000000000000005, 0.9560000000000001, 0.15, 192.0, 0.0, 0.0, 0.0, 0.0, 0.0, 0.0, 0.0, 0.0, 0.0, 1.666556177518208E9, 0.0, 2022-10-23 13:16:17.518
239.0, -77895.67296453392, -109541.11630214647, 51891.78757569642, 31265.441330127876, 61450.39933328621, 80357.98583721946, 54976.417717506614, 52474.87753330202, 0.052000000000000005, 0.9560000000000001, 0.15, 192.0, 0.0, 0.0, 0.0, 0.0, 0.0, 0.0, 0.0, 0.0, 0.0, 1.666556177518216E9, 0.0, 2022-10-23 13:16:17.518
240.0, -77910.26865366324, -109555.1084941755, 50376.674577793434, 31358.290476595223, 61522.90839229923, 79831.91517971936, 54063.41601174069, 51701.48482340394, 0.052000000000000005, 0.9560000000000001, 0.15, 192.0, 0.0, 0.0, 0.0, 0.0, 0.0, 0.0, 0.0, 0.0, 0.0, 1.6665561775182238E9, 0.0, 2022-10-23 13:16:17.518
241.0, -77946.12085176955, -109588.72551783628, 50807.54915565839, 31437.482707200375, 61616.18222191122, 80130.02039551978, 54449.92237686186, 52229.343620460466, 0.052000000000000005, 0.9520000000000001, 0.14400000000000002, 192.0, 1.0, 160.0, 29.0, 192.0, 4.0, 128.0, 0.0, 0.0, 0.0, 1.6665561779965007E9, 0.0, 2022-10-23 13:16:17.996
242.0, -77964.71750315637, -109607.34452096756, 52888.98830282549, 31486.90241419106, 61671.63689990484, 80938.1477163014, 55763.7132124559, 53484.39407162596, 0.052000000000000005, 0.9520000000000001, 0.14400000000000002, 192.0, 0.0, 0.0, 0.0, 0.0, 0.0, 0.0, 0.0, 0.0, 0.0, 1.666556177996584E9, 0.0, 2022-10-23 13:16:17.996
243.0, -77904.97129022733, -109555.28730813114, 52328.764179797676, 31275.76783606623, 61481.44590633463, 80549.78615639046, 55271.28193036103, 52783.06338585179, 0.052000000000000005, 0.9520000000000001, 0.14400000000000002, 192.0, 0.0, 0.0, 0.0, 0.0, 0.0, 0.0, 0.0, 0.0, 0.0, 1.6665561779965928E9, 0.0, 2022-10-23 13:16:17.996
244.0, -77912.05679321967, -109566.15025593642, 50514.607192827134, 31327.62388320254, 61488.062022693404, 79878.67502911986, 54144.083457479894, 51737.09115232124, 0.052000000000000005, 0.9520000000000001, 0.14400000000000002, 192.0, 0.0, 0.0, 0.0, 0.0, 0.0, 0.0, 0.0, 0.0, 0.0, 1.6665561779966009E9, 0.0, 2022-10-23 13:16:17.996
245.0, -77935.70493885338, -109588.613759114, 50633.22790065144, 31424.339881460655, 61588.868390186835, 80060.61822898606, 54330.117026581414, 52079.16224946526, 0.052000000000000005, 0.9520000000000001, 0.14400000000000002, 192.0, 0.0, 0.0, 0.0, 0.0, 0.0, 0.0, 0.0, 0.0, 0.0, 1.6665561779966087E9, 0.0, 2022-10-23 13:16:17.996
246.0, -77951.41821520546, -109603.74589011025, 52569.47011583688, 31522.128763452623, 61680.39878373132, 80850.79709897007, 55582.060585267616, 53321.7851307136, 0.052000000000000005, 0.9520000000000001, 0.14400000000000002, 192.0, 0.0, 0.0, 0.0, 0.0, 0.0, 0.0, 0.0, 0.0, 0.0, 1.6665561779966166E9, 0.0, 2022-10-23 13:16:17.996
247.0, -77900.65740354746, -109558.9082907329, 52692.650579530076, 31311.016537072246, 61502.07656646688, 80706.6506989778, 55507.83044193154, 53036.68863018616, 0.052000000000000005, 0.9520000000000001, 0.14400000000000002, 192.0, 0.0, 0.0, 0.0, 0.0, 0.0, 0.0, 0.0, 0.0, 0.0, 1.6665561779966245E9, 0.0, 2022-10-23 13:16:17.996
248.0, -77890.7332290093, -109547.44184582733, 50643.97908973445, 31307.552016681675, 61471.09704865183, 79903.3066515096, 54201.52744073003, 51767.08719338026, 0.052000000000000005, 0.9520000000000001, 0.14400000000000002, 192.0, 0.0, 0.0, 0.0, 0.0, 0.0, 0.0, 0.0, 0.0, 0.0, 1.666556177996632E9, 0.0, 2022-10-23 13:16:17.996
249.0, -77934.0956132526, -109587.20559921332, 50457.073802599174, 31395.997869491326, 61558.96175610564, 79964.32691387259, 54192.899667370286, 51928.51149183649, 0.052000000000000005, 0.9520000000000001, 0.14400000000000002, 192.0, 0.0, 0.0, 0.0, 0.0, 0.0, 0.0, 0.0, 0.0, 0.0, 1.66655617799664E9, 0.0, 2022-10-23 13:16:17.996
250.0, -77972.31709627117, -109624.3765502425, 52140.04840136152, 31501.006364942357, 61660.595138143915, 80695.13955058332, 55319.18171872875, 53084.2307906426, 0.05, 0.9460000000000001, 0.14, 192.0, 1.0, 144.0, 29.0, 144.0, 4.0, 96.0, 0.0, 0.0, 0.0, 1.6665561779966917E9, 0.0, 2022-10-23 13:16:17.996
251.0, -77920.77397355724, -109576.05207873012, 52999.316513456884, 31341.683130464928, 61530.351523202844, 80867.96323871175, 55733.13602604104, 53293.66663618883, 0.05, 0.9460000000000001, 0.14, 192.0, 0.0, 0.0, 0.0, 0.0, 0.0, 0.0, 0.0, 0.0, 0.0, 1.6665561779967008E9, 0.0, 2022-10-23 13:16:17.996
252.0, -77888.31924060814, -109535.7518834772, 50850.039821867926, 31284.19444372588, 61441.235118059536, 79954.33568410107, 54308.68170364878, 51852.672022899635, 0.05, 0.9460000000000001, 0.14, 192.0, 0.0, 0.0, 0.0, 0.0, 0.0, 0.0, 0.0, 0.0, 0.0, 1.666556177996709E9, 0.0, 2022-10-23 13:16:17.996
253.0, -77915.76718279925, -109562.10459019, 50339.213054086336, 31392.220424678377, 61558.84999738336, 79890.72261938127, 54090.685139976165, 51814.89757477016, 0.05, 0.9460000000000001, 0.14, 192.0, 0.0, 0.0, 0.0, 0.0, 0.0, 0.0, 0.0, 0.0, 0.0, 1.6665561779967172E9, 0.0, 2022-10-23 13:16:17.996
254.0, -77947.93134307044, -109595.90042780644, 51675.08741320222, 31506.639004545097, 61668.999394059116, 80515.61033911828, 55018.97543894952, 52810.846604209735, 0.05, 0.9460000000000001, 0.14, 192.0, 0.0, 0.0, 0.0, 0.0, 0.0, 0.0, 0.0, 0.0, 0.0, 1.666556177996725E9, 0.0, 2022-10-23 13:16:17.996
255.0, -77936.12962199803, -109589.77604982568, 53162.32778576944, 31393.628584579063, 61594.05399490047, 80990.80842623812, 55870.06281257425, 53474.872228488, 0.05, 0.9460000000000001, 0.14, 192.0, 0.0, 0.0, 0.0, 0.0, 0.0, 0.0, 0.0, 0.0, 0.0, 1.6665561779967341E9, 0.0, 2022-10-23 13:16:17.996
0.0, -77874.99760091277, -109532.19795610881, 51192.80382309006, 31272.929164520403, 61446.42072277317, 80106.19343593043, 54529.74045631176, 52047.55688280545, 0.05, 0.9460000000000001, 0.14, 192.0, 0.0, 0.0, 0.0, 0.0, 0.0, 0.0, 0.0, 0.0, 0.0, 1.6665561779967422E9, 0.0, 2022-10-23 13:16:17.996
1.0, -77907.16176118396, -109564.49622684674, 50317.48715847578, 31384.576128074663, 61550.624555423805, 79882.34071521054, 54068.28869203194, 51760.33696655476, 0.05, 0.9460000000000001, 0.14, 192.0, 0.0, 0.0, 0.0, 0.0, 0.0, 0.0, 0.0, 0.0, 0.0, 1.66655617799675E9, 0.0, 2022-10-23 13:16:17.996
2.0, -77965.43275897895, -109618.00630307273, 51317.70537110631, 31473.223146584412, 61641.88672803483, 80396.14026500467, 54806.410349179554, 52594.03468299326, 0.05, 0.9460000000000001, 0.14, 192.0, 0.0, 0.0, 0.0, 0.0, 0.0, 0.0, 0.0, 0.0, 0.0, 1.6665561779967577E9, 0.0, 2022-10-23 13:16:17.996
3.0, -77961.09652055461, -109614.94411408236, 53185.215972091675, 31422.4176314375, 61607.755614251575, 81045.54784840916, 55921.15890039908, 53563.67570920893, 0.05, 0.9460000000000001, 0.14, 192.0, 0.0, 0.0, 0.0, 0.0, 0.0, 0.0, 0.0, 0.0, 0.0, 1.666556177996766E9, 0.0, 2022-10-23 13:16:17.996
4.0, -77882.7313044943, -109538.50114804521, 51572.35879568563, 31262.66971381542, 61433.27789703345, 80259.01231277136, 54772.23453190739, 52275.768193694144, 0.052000000000000005, 0.9440000000000001, 0.14200000000000002, 192.0, 1.0, 160.0, 29.0, 128.0, 4.0, 112.0, 0.0, 0.0, 0.0, 1.6665561779967737E9, 0.0, 2022-10-23 13:16:17.996
5.0, -77910.15689494097, -109562.35045937901, 50315.4755014748, 31360.48094755184, 61516.35933117382, 79861.95592426728, 54043.254738242, 51703.80940482729, 0.052000000000000005, 0.9440000000000001, 0.14200000000000002, 192.0, 0.0, 0.0, 0.0, 0.0, 0.0, 0.0, 0.0, 0.0, 0.0, 1.6665561779967823E9, 0.0, 2022-10-23 13:16:17.996
6.0, -77941.00230228929, -109593.2629219607, 50977.42241351872, 31449.865573628616, 61617.67978878973, 80255.36897842515, 54577.32732025711, 52360.03427029065, 0.052000000000000005, 0.9440000000000001, 0.14200000000000002, 192.0, 0.0, 0.0, 0.0, 0.0, 0.0, 0.0, 0.0, 0.0, 0.0, 1.6665561779967904E9, 0.0, 2022-10-23 13:16:17.996
7.0, -77938.36479644357, -109594.44756441684, 53059.442706041664, 31476.84412918617, 61654.96249854118, 81043.15621175244, 55868.7887631403, 53557.81955216164, 0.052000000000000005, 0.9440000000000001, 0.14200000000000002, 192.0, 0.0, 0.0, 0.0, 0.0, 0.0, 0.0, 0.0, 0.0, 0.0, 1.6665561779967983E9, 0.0, 2022-10-23 13:16:17.996
8.0, -77874.81878695713, -109532.66734274237, 52041.67837401371, 31274.471434887822, 61459.183568857145, 80470.48216706302, 55080.50979143498, 52583.97639798837, 0.052000000000000005, 0.9440000000000001, 0.14200000000000002, 192.0, 0.0, 0.0, 0.0, 0.0, 0.0, 0.0, 0.0, 0.0, 0.0, 1.666556177996806E9, 0.0, 2022-10-23 13:16:17.996
9.0, -77890.59911854257, -109541.29511610212, 50416.393627690515, 31355.40710156049, 61502.680063567175, 79891.03554380365, 54085.14190735125, 51710.91725956408, 0.052000000000000005, 0.9440000000000001, 0.14200000000000002, 192.0, 0.0, 0.0, 0.0, 0.0, 0.0, 0.0, 0.0, 0.0, 0.0, 1.6665561779968228E9, 0.0, 2022-10-23 13:16:17.996
10.0, -77928.08299399412, -109577.50494211972, 50704.909945119616, 31432.45356469793, 61587.2367128416, 80124.6112733616, 54372.138306157394, 52152.38656430085, 0.052000000000000005, 0.9440000000000001, 0.14200000000000002, 192.0, 0.0, 0.0, 0.0, 0.0, 0.0, 0.0, 0.0, 0.0, 0.0, 1.6665561779968307E9, 0.0, 2022-10-23 13:16:17.996
11.0, -77963.68932291142, -109612.99951231475, 52755.99542331642, 31494.367896839132, 61662.003298044605, 80940.67346342486, 55679.380080626026, 53419.551660961115, 0.052000000000000005, 0.9440000000000001, 0.14200000000000002, 192.0, 0.0, 0.0, 0.0, 0.0, 0.0, 0.0, 0.0, 0.0, 0.0, 1.6665561779968388E9, 0.0, 2022-10-23 13:16:17.996
12.0, -77898.44458084638, -109553.27565113017, 52446.3790591215, 31287.56955713863, 61480.59654004533, 80648.80438432746, 55342.24871900663, 52866.41304092563, 0.052000000000000005, 0.9440000000000001, 0.14200000000000002, 192.0, 0.0, 0.0, 0.0, 0.0, 0.0, 0.0, 0.0, 0.0, 0.0, 1.6665561779968467E9, 0.0, 2022-10-23 13:16:17.996
13.0, -77886.64285977399, -109540.60221202401, 50507.678152045984, 31334.53057223923, 61479.90363596722, 79906.14532305543, 54118.4236548452, 51717.533375922845, 0.052000000000000005, 0.9440000000000001, 0.14200000000000002, 192.0, 0.0, 0.0, 0.0, 0.0, 0.0, 0.0, 0.0, 0.0, 0.0, 1.6665561779968543E9, 0.0, 2022-10-23 13:16:17.996
