%OpenBCI Raw EEG Data
%Number of channels = 8
%Sample Rate = 250 Hz
%Board = OpenBCI_GUI$BoardCytonSerial
Sample Index, EXG Channel 0, EXG Channel 1, EXG Channel 2, EXG Channel 3, EXG Channel 4, EXG Channel 5, EXG Channel 6, EXG Channel 7, Accel Channel 0, Accel Channel 1, Accel Channel 2, Other, Other, Other, Other, Other, Other, Other, Analog Channel 0, Analog Channel 1, Analog Channel 2, Timestamp, Other, Timestamp (Formatted)
219.0, -112711.59949440951, -149910.7360733433, -73668.98043977981, -131882.26603058173, 45720.40387635278, -76304.65344246071, 37634.77207836772, -117771.9450321132, 0.0, 0.0, 0.0, 192.0, 0.0, 0.0, 0.0, 0.0, 0.0, 0.0, 0.0, 0.0, 0.0, 1.6664036348259993E9, 0.0, 2022-10-21 18:53:54.825
220.0, -112707.95616006329, -149903.1811837174, -73673.27197471523, -131879.44971078035, 45717.788722251506, -76281.69820090511, 37659.24723854628, -117768.48051172264, 0.0, 0.0, 0.0, 192.0, 0.0, 0.0, 0.0, 0.0, 0.0, 0.0, 0.0, 0.0, 0.0, 1.6664036348260217E9, 0.0, 2022-10-21 18:53:54.826
221.0, -112706.68211062934, -149900.20840170485, -73676.93766080591, -131893.10662664255, 45715.821768739435, -76284.46981721757, 37659.9401426244, -117768.48051172264, 0.0, 0.0, 0.0, 192.0, 0.0, 0.0, 0.0, 0.0, 0.0, 0.0, 0.0, 0.0, 0.0, 1.666403634826034E9, 0.0, 2022-10-21 18:53:54.826
222.0, -112708.91728507487, -149903.1811837174, -73676.11064626106, -131902.29319361367, 45710.41264658125, -76314.93524491016, 37627.9324445644, -117775.07427633695, 0.0, 0.0, 0.0, 192.0, 0.0, 0.0, 0.0, 0.0, 0.0, 0.0, 0.0, 0.0, 0.0, 1.666403634826046E9, 0.0, 2022-10-21 18:53:54.826
223.0, -112700.44597392631, -149891.55827660064, -73672.71318110386, -131897.80049297816, 45708.46804481364, -76310.10726810781, 37631.084040532594, -117774.09079958091, 0.0, 0.0, 0.0, 192.0, 0.0, 0.0, 0.0, 0.0, 0.0, 0.0, 0.0, 0.0, 0.0, 1.6664036348260577E9, 0.0, 2022-10-21 18:53:54.826
224.0, -112684.77740106314, -149874.86152349252, -73655.56939310663, -131871.7383589433, 45725.85770199987, -76276.24437525801, 37665.79629967169, -117762.08791280842, 0.0, 0.0, 0.0, 192.0, 0.0, 0.0, 0.0, 0.0, 0.0, 0.0, 0.0, 0.0, 0.0, 1.666403634826069E9, 0.0, 2022-10-21 18:53:54.826
225.0, -112691.88525579993, -149883.66811080792, -73659.4809483863, -131887.2281178508, 45721.990850209106, -76274.41153221269, 37668.299695050686, -117769.1957675452, 0.0, 0.0, 0.0, 192.0, 0.0, 0.0, 0.0, 0.0, 0.0, 0.0, 0.0, 0.0, 0.0, 1.666403634826082E9, 0.0, 2022-10-21 18:53:54.826
226.0, -112687.48196214224, -149877.4319741049, -73658.65393384146, -131891.20672836385, 45725.1424461773, -76291.9576516101, 37653.324026265625, -117762.04320931951, 0.0, 0.0, 0.0, 192.0, 0.0, 0.0, 0.0, 0.0, 0.0, 0.0, 0.0, 0.0, 0.0, 1.6664036348260937E9, 0.0, 2022-10-21 18:53:54.826
227.0, -112684.2409591962, -149872.29107288018, -73655.07765472861, -131885.57408876112, 45726.88588224482, -76300.25014880302, 37647.60197968507, -117753.08015979292, 0.0, 0.0, 0.0, 192.0, 0.0, 0.0, 0.0, 0.0, 0.0, 0.0, 0.0, 0.0, 0.0, 1.666403634826105E9, 0.0, 2022-10-21 18:53:54.826
228.0, -112685.8949882859, -149872.11225892452, -73658.139843719, -131881.2825538257, 45725.70123978869, -76285.05096257341, 37665.282209549216, -117760.00920057407, 0.04, 0.9540000000000001, 0.03, 192.0, 1.0, 64.0, 29.0, 208.0, 0.0, 240.0, 0.0, 0.0, 0.0, 1.6664036348261166E9, 0.0, 2022-10-21 18:53:54.826
229.0, -112689.60537786549, -149875.91205548192, -73660.39736990898, -131885.57408876112, 45720.515635075055, -76278.77012238147, 37671.31718055215, -117766.58061344393, 0.04, 0.9540000000000001, 0.03, 192.0, 0.0, 0.0, 0.0, 0.0, 0.0, 0.0, 0.0, 0.0, 0.0, 1.6664036348261313E9, 0.0, 2022-10-21 18:53:54.826
230.0, -112689.6947848433, -149875.4203171039, -73659.59270710859, -131894.31362084314, 45721.409704853264, -76288.87311087527, 37656.45327048937, -117763.80899713148, 0.04, 0.9540000000000001, 0.03, 192.0, 0.0, 0.0, 0.0, 0.0, 0.0, 0.0, 0.0, 0.0, 0.0, 1.6664036348261435E9, 0.0, 2022-10-21 18:53:54.826
231.0, -112690.7006133438, -149875.2862066372, -73656.6869803294, -131891.96668767533, 45725.50007408859, -76301.97123312608, 37641.87993310451, -117761.35030524139, 0.04, 0.9540000000000001, 0.03, 192.0, 0.0, 0.0, 0.0, 0.0, 0.0, 0.0, 0.0, 0.0, 0.0, 1.6664036348261569E9, 0.0, 2022-10-21 18:53:54.826
232.0, -112689.82889531004, -149877.25316014924, -73653.91536401694, -131880.7237602143, 45729.61279506836, -76285.67681141816, 37660.18601181341, -117755.09181679391, 0.04, 0.9540000000000001, 0.03, 192.0, 0.0, 0.0, 0.0, 0.0, 0.0, 0.0, 0.0, 0.0, 0.0, 1.6664036348261688E9, 0.0, 2022-10-21 18:53:54.826
233.0, -112690.0971162435, -149879.15305842794, -73658.31865767464, -131883.27185908222, 45729.948071235194, -76271.17052926666, 37673.75352069778, -117761.14913954129, 0.04, 0.9540000000000001, 0.03, 192.0, 0.0, 0.0, 0.0, 0.0, 0.0, 0.0, 0.0, 0.0, 0.0, 1.666403634826181E9, 0.0, 2022-10-21 18:53:54.826
234.0, -112691.30411044409, -149877.11904968251, -73659.12332047503, -131890.53617603017, 45728.78578052352, -76280.29004100442, 37662.197668814384, -117762.33378199743, 0.04, 0.9540000000000001, 0.03, 192.0, 0.0, 0.0, 0.0, 0.0, 0.0, 0.0, 0.0, 0.0, 0.0, 1.6664036348261929E9, 0.0, 2022-10-21 18:53:54.826
235.0, -112696.847343069, -149882.0811369516, -73660.4867768868, -131897.17464413343, 45721.78968450901, -76312.45420127561, 37632.46984868882, -117750.75557836957, 0.04, 0.9540000000000001, 0.03, 192.0, 0.0, 0.0, 0.0, 0.0, 0.0, 0.0, 0.0, 0.0, 0.0, 1.6664036348263128E9, 0.0, 2022-10-21 18:53:54.826
236.0, -112690.87942729944, -149876.4708490933, -73652.84248028309, -131885.05999863864, 45725.92475723324, -76299.44548600263, 37648.45134597437, -117745.72643586714, 0.04, 0.9540000000000001, 0.03, 192.0, 0.0, 0.0, 0.0, 0.0, 0.0, 0.0, 0.0, 0.0, 0.0, 1.6664036348263257E9, 0.0, 2022-10-21 18:53:54.826
237.0, -112689.53832263211, -149875.91205548192, -73648.50624185875, -131881.10373987004, 45727.064696200454, -76288.51548296398, 37660.96832286934, -117748.78862485751, 0.04, 0.9540000000000001, 0.03, 192.0, 0.0, 0.0, 0.0, 0.0, 0.0, 0.0, 0.0, 0.0, 0.0, 1.666403634826338E9, 0.0, 2022-10-21 18:53:54.826
238.0, -112687.90664528689, -149870.10060192354, -73647.34395114708, -131880.41083579193, 45731.31152764697, -76296.94209062363, 37649.971264597334, -117752.20844175917, 0.038, 0.96, 0.03, 192.0, 1.0, 48.0, 30.0, 0.0, 0.0, 240.0, 0.0, 0.0, 0.0, 1.6664036348263502E9, 0.0, 2022-10-21 18:53:54.826
239.0, -112690.20887496579, -149870.4805815793, -73653.04364598318, -131887.07165563962, 45726.05886769997, -76316.49986702202, 37626.32311896361, -117761.32795349693, 0.038, 0.96, 0.03, 192.0, 0.0, 0.0, 0.0, 0.0, 0.0, 0.0, 0.0, 0.0, 0.0, 1.666403634826363E9, 0.0, 2022-10-21 18:53:54.826
240.0, -112699.03781402562, -149880.11418343952, -73658.36336116355, -131881.01433289223, 45720.47093158614, -76312.9682913981, 37627.954796308855, -117770.80509314599, 0.038, 0.96, 0.03, 192.0, 0.0, 0.0, 0.0, 0.0, 0.0, 0.0, 0.0, 0.0, 0.0, 1.6664036348263772E9, 0.0, 2022-10-21 18:53:54.826
241.0, -112694.67922385685, -149875.4203171039, -73651.59078259359, -131874.44292002238, 45724.71776303265, -76285.81092188488, 37658.50963097926, -117763.04903781999, 0.038, 0.96, 0.03, 192.0, 0.0, 0.0, 0.0, 0.0, 0.0, 0.0, 0.0, 0.0, 0.0, 1.6664036348263917E9, 0.0, 2022-10-21 18:53:54.826
242.0, -112693.33811918952, -149871.59816880204, -73650.09321571508, -131885.64114399446, 45723.019030454045, -76295.98096561205, 37650.463002975346, -117763.6972384092, 0.038, 0.96, 0.03, 192.0, 0.0, 0.0, 0.0, 0.0, 0.0, 0.0, 0.0, 0.0, 0.0, 1.6664036348264039E9, 0.0, 2022-10-21 18:53:54.826
243.0, -112697.09321225801, -149873.3863083585, -73650.76376804874, -131886.71402772833, 45723.82369325444, -76320.94786416863, 37622.143342750474, -117759.31629649596, 0.038, 0.96, 0.03, 192.0, 0.0, 0.0, 0.0, 0.0, 0.0, 0.0, 0.0, 0.0, 0.0, 1.6664036348264158E9, 0.0, 2022-10-21 18:53:54.826
244.0, -112690.0971162435, -149866.25610187722, -73643.4323958674, -131873.39238803298, 45726.95293747818, -76306.75450643951, 37637.051956302166, -117753.28132549302, 0.038, 0.96, 0.03, 192.0, 0.0, 0.0, 0.0, 0.0, 0.0, 0.0, 0.0, 0.0, 0.0, 1.666403634826428E9, 0.0, 2022-10-21 18:53:54.826
245.0, -112693.56163663407, -149870.368822857, -73648.26037266974, -131876.6780944679, 45719.91213797476, -76291.51061672099, 37655.3356832666, -117757.90813659527, 0.038, 0.96, 0.03, 192.0, 0.0, 0.0, 0.0, 0.0, 0.0, 0.0, 0.0, 0.0, 0.0, 1.66640363482644E9, 0.0, 2022-10-21 18:53:54.826
246.0, -112698.61313088097, -149872.93927346938, -73654.80943379515, -131895.94529818837, 45714.65947802776, -76303.53585523795, 37644.718604650334, -117758.28811625102, 0.038, 0.96, 0.03, 192.0, 0.0, 0.0, 0.0, 0.0, 0.0, 0.0, 0.0, 0.0, 0.0, 1.666403634826452E9, 0.0, 2022-10-21 18:53:54.826
247.0, -112695.32742444605, -149870.10060192354, -73645.68992205738, -131893.5313097872, 45727.10939968937, -76333.62130327479, 37614.34258393557, -117750.12972952482, 0.034, 0.9560000000000001, 0.018000000000000002, 192.0, 1.0, 16.0, 29.0, 224.0, 0.0, 144.0, 0.0, 0.0, 0.0, 1.666403634826464E9, 0.0, 2022-10-21 18:53:54.826
248.0, -112703.39640419441, -149877.14140142698, -73646.02519822422, -131887.04930389515, 45726.95293747818, -76335.87882946478, 37609.134627477484, -117755.82942436093, 0.034, 0.9560000000000001, 0.018000000000000002, 192.0, 0.0, 0.0, 0.0, 0.0, 0.0, 0.0, 0.0, 0.0, 0.0, 1.6664036348264768E9, 0.0, 2022-10-21 18:53:54.826
249.0, -112711.3536252205, -149885.2327329198, -73646.82986102461, -131882.06486488163, 45724.24837639909, -76315.09170712135, 37631.55342716616, -117756.07529354993, 0.034, 0.9560000000000001, 0.018000000000000002, 192.0, 0.0, 0.0, 0.0, 0.0, 0.0, 0.0, 0.0, 0.0, 0.0, 1.6664036348264885E9, 0.0, 2022-10-21 18:53:54.826
250.0, -112725.92696260536, -149894.55341035765, -73652.37309364953, -131888.79273996266, 45719.77802750803, -76306.79920992842, 37638.72833713631, -117754.4436162047, 0.034, 0.9560000000000001, 0.018000000000000002, 192.0, 0.0, 0.0, 0.0, 0.0, 0.0, 0.0, 0.0, 0.0, 0.0, 1.6664036348265436E9, 0.0, 2022-10-21 18:53:54.826
251.0, -112728.31859926209, -149897.32502667012, -73651.0319889822, -131894.15715863195, 45723.26489964306, -76330.02267241749, 37612.37563042351, -117748.56510741296, 0.034, 0.9560000000000001, 0.018000000000000002, 192.0, 0.0, 0.0, 0.0, 0.0, 0.0, 0.0, 0.0, 0.0, 0.0, 1.666403634826556E9, 0.0, 2022-10-21 18:53:54.826
252.0, -112738.53334647816, -149906.39983491896, -73654.7870820507, -131888.05513239565, 45722.594347309394, -76334.761242242, 37601.11035121803, -117758.24341276211, 0.034, 0.9560000000000001, 0.018000000000000002, 192.0, 0.0, 0.0, 0.0, 0.0, 0.0, 0.0, 0.0, 0.0, 0.0, 1.666403634826568E9, 0.0, 2022-10-21 18:53:54.826
253.0, -112754.06780887459, -149920.16850950345, -73660.71029433135, -131888.99390566276, 45714.61477453885, -76323.74183222554, 37614.00730776874, -117770.76038965708, 0.034, 0.9560000000000001, 0.018000000000000002, 192.0, 0.0, 0.0, 0.0, 0.0, 0.0, 0.0, 0.0, 0.0, 0.0, 1.66640363482658E9, 0.0, 2022-10-21 18:53:54.826
254.0, -112766.98711716976, -149933.7807218767, -73666.36528567855, -131895.25239411026, 45709.675039014226, -76319.04796588993, 37619.572892138116, -117781.82450316245, 0.034, 0.9560000000000001, 0.018000000000000002, 192.0, 0.0, 0.0, 0.0, 0.0, 0.0, 0.0, 0.0, 0.0, 0.0, 1.666403634826592E9, 0.0, 2022-10-21 18:53:54.826
255.0, -112781.15812315443, -149953.02557385273, -73673.47314041533, -131910.8315599956, 45701.494300543585, -76337.10817540983, 37600.1715779509, -117780.1481223283, 0.034, 0.9560000000000001, 0.018000000000000002, 192.0, 0.0, 0.0, 0.0, 0.0, 0.0, 0.0, 0.0, 0.0, 0.0, 1.6664036348266037E9, 0.0, 2022-10-21 18:53:54.826
0.0, -112777.78300974167, -149950.4998267293, -73660.55383212016, -131901.30971685765, 45711.351419848375, -76352.30736163942, 37586.64877255545, -117765.28421226553, 0.034, 0.9560000000000001, 0.018000000000000002, 192.0, 0.0, 0.0, 0.0, 0.0, 0.0, 0.0, 0.0, 0.0, 0.0, 1.6664036348266156E9, 0.0, 2022-10-21 18:53:54.826
1.0, -112793.2727686492, -149966.81660018166, -73662.90076528797, -131889.15036787395, 45714.12303616083, -76322.62424500278, 37615.32606069161, -117765.21715703217, 0.03, 0.966, 0.006, 192.0, 0.0, 240.0, 30.0, 48.0, 0.0, 48.0, 0.0, 0.0, 0.0, 1.6664036348266275E9, 0.0, 2022-10-21 18:53:54.826
2.0, -112805.879152522, -149976.20433285288, -73664.7336083333, -131894.26891735423, 45711.12790240382, -76308.07325936238, 37633.58743591159, -117766.51355821057, 0.03, 0.966, 0.006, 192.0, 0.0, 0.0, 0.0, 0.0, 0.0, 0.0, 0.0, 0.0, 0.0, 1.6664036348266401E9, 0.0, 2022-10-21 18:53:54.826
3.0, -112814.21635320382, -149982.7980974672, -73666.85702405656, -131902.49435931377, 45713.09485591589, -76340.19271614465, 37605.1783687089, -117768.90519486729, 0.03, 0.966, 0.006, 192.0, 0.0, 0.0, 0.0, 0.0, 0.0, 0.0, 0.0, 0.0, 0.0, 1.6664036348266523E9, 0.0, 2022-10-21 18:53:54.826
4.0, -112820.85482130705, -149989.45891731489, -73667.08054150111, -131901.26501336874, 45715.15121640578, -76351.74856802805, 37588.727484789786, -117767.6982006667, 0.03, 0.966, 0.006, 192.0, 0.0, 0.0, 0.0, 0.0, 0.0, 0.0, 0.0, 0.0, 0.0, 1.666403634826664E9, 0.0, 2022-10-21 18:53:54.826
5.0, -112827.67210336591, -149992.47640281636, -73671.46148341436, -131892.25726035325, 45715.62060303934, -76353.35789362882, 37590.85090051305, -117769.48634022313, 0.03, 0.966, 0.006, 192.0, 0.0, 0.0, 0.0, 0.0, 0.0, 0.0, 0.0, 0.0, 0.0, 1.666403634826676E9, 0.0, 2022-10-21 18:53:54.826
6.0, -112827.8285655771, -149989.16834463697, -73668.86868105755, -131886.64697249496, 45719.71097227466, -76348.46286159311, 37601.06564772912, -117769.62045068985, 0.03, 0.966, 0.006, 192.0, 0.0, 0.0, 0.0, 0.0, 0.0, 0.0, 0.0, 0.0, 0.0, 1.6664036348266892E9, 0.0, 2022-10-21 18:53:54.826
7.0, -112840.34554247207, -150003.2052401549, -73673.00375378177, -131909.80337975067, 45711.95491694867, -76350.29570463845, 37592.48257785828, -117777.01887810456, 0.03, 0.966, 0.006, 192.0, 0.0, 0.0, 0.0, 0.0, 0.0, 0.0, 0.0, 0.0, 0.0, 1.6664036348267014E9, 0.0, 2022-10-21 18:53:54.826
8.0, -112832.20950749035, -149993.52693480576, -73668.91338454645, -131912.70910652986, 45715.01710593905, -76382.77278933201, 37559.67021699789, -117766.93824135522, 0.03, 0.966, 0.006, 192.0, 0.0, 0.0, 0.0, 0.0, 0.0, 0.0, 0.0, 0.0, 0.0, 1.666403634826713E9, 0.0, 2022-10-21 18:53:54.826
9.0, -112835.20464124736, -149995.73975750682, -73671.394428181, -131904.21544363684, 45714.771236750035, -76378.63771660779, 37558.50792628621, -117765.3959709878, 0.03, 0.966, 0.006, 192.0, 0.0, 0.0, 0.0, 0.0, 0.0, 0.0, 0.0, 0.0, 0.0, 1.666403634826762E9, 0.0, 2022-10-21 18:53:54.826
10.0, -112836.8363185926, -149999.74071976432, -73668.98043977981, -131898.56045228965, 45717.5428530625, -76363.41617863372, 37572.075435170584, -117764.32308725394, 0.03, 0.966, 0.006, 192.0, 0.0, 0.0, 0.0, 0.0, 0.0, 0.0, 0.0, 0.0, 0.0, 1.6664036348267746E9, 0.0, 2022-10-21 18:53:54.826
11.0, -112835.56226915865, -149994.62217028407, -73670.25448921377, -131905.42243783743, 45717.25228038458, -76365.65135307924, 37566.17457463439, -117771.96738385766, 0.042, 0.976, 0.0, 192.0, 1.0, 80.0, 30.0, 128.0, 0.0, 0.0, 0.0, 0.0, 0.0, 1.6664036348267868E9, 0.0, 2022-10-21 18:53:54.826
12.0, -112836.61280114805, -149998.01963544128, -73673.80841658216, -131913.67023154144, 45716.76054200656, -76395.26741448253, 37530.09885908352, -117781.53393048454, 0.042, 0.976, 0.0, 192.0, 0.0, 0.0, 0.0, 0.0, 0.0, 0.0, 0.0, 0.0, 0.0, 1.6664036348267996E9, 0.0, 2022-10-21 18:53:54.826
13.0, -112831.00251328976, -149990.8000219822, -73667.37111417904, -131906.71883901584, 45718.973364707635, -76390.86412082483, 37527.975443360265, -117774.73900017011, 0.042, 0.976, 0.0, 192.0, 0.0, 0.0, 0.0, 0.0, 0.0, 0.0, 0.0, 0.0, 0.0, 1.6664036348268113E9, 0.0, 2022-10-21 18:53:54.826
14.0, -112820.6760073514, -149975.66789098596, -73667.48287290131, -131899.81214997915, 45718.16870190724, -76376.84957705135, 37540.29125455514, -117774.06844783646, 0.042, 0.976, 0.0, 192.0, 0.0, 0.0, 0.0, 0.0, 0.0, 0.0, 0.0, 0.0, 0.0, 1.6664036348268232E9, 0.0, 2022-10-21 18:53:54.826
15.0, -112813.88107703699, -149969.63291998304, -73675.01541078275, -131913.04438269668, 45712.536062304505, -76387.77958009, 37524.37681250296, -117776.05775309299, 0.042, 0.976, 0.0, 192.0, 0.0, 0.0, 0.0, 0.0, 0.0, 0.0, 0.0, 0.0, 0.0, 1.6664036348268352E9, 0.0, 2022-10-21 18:53:54.826
16.0, -112802.01230073122, -149961.13925709002, -73670.52271014723, -131915.6818885424, 45716.71583851765, -76397.32377497242, 37502.673268636856, -117774.18020655874, 0.042, 0.976, 0.0, 192.0, 0.0, 0.0, 0.0, 0.0, 0.0, 0.0, 0.0, 0.0, 0.0, 1.6664036348268468E9, 0.0, 2022-10-21 18:53:54.826
17.0, -112790.83642850358, -149945.0907045711, -73663.1913379659, -131908.59638555007, 45721.834387997915, -76399.40248720677, 37495.744227855714, -117770.53687221253, 0.042, 0.976, 0.0, 192.0, 0.0, 0.0, 0.0, 0.0, 0.0, 0.0, 0.0, 0.0, 0.0, 1.6664036348268583E9, 0.0, 2022-10-21 18:53:54.826
18.0, -112790.34469012555, -149941.1344458025, -73666.43234091191, -131907.41174309395, 45719.91213797476, -76395.33446971589, 37501.33216396954, -117776.41538100426, 0.042, 0.976, 0.0, 192.0, 0.0, 0.0, 0.0, 0.0, 0.0, 0.0, 0.0, 0.0, 0.0, 1.6664036348268704E9, 0.0, 2022-10-21 18:53:54.826
19.0, -112778.34180335306, -149924.70591362787, -73663.48191064381, -131906.1823971489, 45728.67402180124, -76377.92246078521, 37514.631451920446, -117772.43677049123, 0.042, 0.976, 0.0, 192.0, 0.0, 0.0, 0.0, 0.0, 0.0, 0.0, 0.0, 0.0, 0.0, 1.6664036348268821E9, 0.0, 2022-10-21 18:53:54.826
20.0, -112773.91615795091, -149912.72537859983, -73659.77152106423, -131911.85974024056, 45731.847969513896, -76384.33741144388, 37499.879300579945, -117761.93145059723, 0.066, 0.974, 0.002, 192.0, 2.0, 16.0, 30.0, 112.0, 0.0, 16.0, 0.0, 0.0, 0.0, 1.666403634826894E9, 0.0, 2022-10-21 18:53:54.826
21.0, -112750.29036406164, -149900.78954706067, -73650.5849540931, -131905.42243783743, 45737.838237027914, -76399.87187384033, 37480.05330324809, -117759.53981394052, 0.066, 0.974, 0.002, 192.0, 0.0, 0.0, 0.0, 0.0, 0.0, 0.0, 0.0, 0.0, 0.0, 1.6664036348269076E9, 0.0, 2022-10-21 18:53:54.826
22.0, -112736.02995109916, -149889.16663994393, -73645.35464589056, -131897.68873425588, 45738.62054808385, -76406.46563845464, 37476.32056192405, -117758.86926160686, 0.066, 0.974, 0.002, 192.0, 0.0, 0.0, 0.0, 0.0, 0.0, 0.0, 0.0, 0.0, 0.0, 1.6664036348269196E9, 0.0, 2022-10-21 18:53:54.826
23.0, -112727.3127707616, -149879.9800729728, -73642.53832608918, -131894.00069642076, 45742.57680685244, -76386.14790274476, 37495.02897203314, -117760.99267733011, 0.066, 0.974, 0.002, 192.0, 0.0, 0.0, 0.0, 0.0, 0.0, 0.0, 0.0, 0.0, 0.0, 1.6664036348269312E9, 0.0, 2022-10-21 18:53:54.826
24.0, -112721.09898580301, -149870.99467170177, -73644.46057611234, -131901.93556570238, 45745.1472574648, -76380.7834840755, 37490.51391965317, -117761.12678779683, 0.066, 0.974, 0.002, 192.0, 0.0, 0.0, 0.0, 0.0, 0.0, 0.0, 0.0, 0.0, 0.0, 1.6664036348269548E9, 0.0, 2022-10-21 18:53:54.826
25.0, -112708.42554669686, -149854.0073459157, -73640.81724176613, -131898.31458310064, 45748.85764704438, -76392.02641153651, 37474.018332245156, -117755.8964795943, 0.066, 0.974, 0.002, 192.0, 0.0, 0.0, 0.0, 0.0, 0.0, 0.0, 0.0, 0.0, 0.0, 1.6664036348269668E9, 0.0, 2022-10-21 18:53:54.826
26.0, -112696.42265992436, -149844.35139231104, -73635.72104403032, -131886.28934458367, 45753.05977500198, -76391.69113536968, 37478.08634973602, -117750.15208126928, 0.066, 0.974, 0.002, 192.0, 0.0, 0.0, 0.0, 0.0, 0.0, 0.0, 0.0, 0.0, 0.0, 1.6664036348269787E9, 0.0, 2022-10-21 18:53:54.826
27.0, -112689.2477499542, -149837.69057246335, -73636.16807891942, -131883.09304512656, 45755.69728084771, -76383.82332132141, 37487.87641380745, -117750.040322547, 0.066, 0.974, 0.002, 192.0, 0.0, 0.0, 0.0, 0.0, 0.0, 0.0, 0.0, 0.0, 0.0, 1.6664036348269928E9, 0.0, 2022-10-21 18:53:54.826
28.0, -112688.3983836649, -149835.45539801783, -73642.89595400047, -131895.16298713244, 45751.65161510129, -76389.45596092416, 37477.46050089127, -117760.63504941882, 0.066, 0.974, 0.002, 192.0, 0.0, 0.0, 0.0, 0.0, 0.0, 0.0, 0.0, 0.0, 0.0, 1.6664036348270054E9, 0.0, 2022-10-21 18:53:54.827
29.0, -112688.33132843154, -149835.79067418465, -73642.20304992236, -131902.13673140248, 45746.91304527677, -76396.42970519421, 37464.5411925961, -117763.4960727091, 0.066, 0.974, 0.002, 192.0, 0.0, 0.0, 0.0, 0.0, 0.0, 0.0, 0.0, 0.0, 0.0, 1.6664036348270173E9, 0.0, 2022-10-21 18:53:54.827
30.0, -112677.89306377091, -149822.60314495603, -73639.74435803227, -131900.97444069083, 45743.023841741546, -76401.95058607467, 37463.22243967324, -117762.55729944198, 0.074, 0.978, 0.002, 192.0, 2.0, 80.0, 30.0, 144.0, 0.0, 16.0, 0.0, 0.0, 0.0, 1.6664036348270292E9, 0.0, 2022-10-21 18:53:54.827
31.0, -112686.18556096383, -149829.15220608143, -73656.66462858494, -131911.54681581818, 45726.34944037789, -76399.3801354623, 37467.424567630835, -117785.06550610847, 0.074, 0.978, 0.002, 192.0, 0.0, 0.0, 0.0, 0.0, 0.0, 0.0, 0.0, 0.0, 0.0, 1.6664036348270426E9, 0.0, 2022-10-21 18:53:54.827
32.0, -112685.67147084135, -149828.92868863686, -73660.19620420889, -131921.11336244506, 45725.52242583304, -76404.029298309, 37460.428471616324, -117782.98679387412, 0.074, 0.978, 0.002, 192.0, 0.0, 0.0, 0.0, 0.0, 0.0, 0.0, 0.0, 0.0, 0.0, 1.6664036348270545E9, 0.0, 2022-10-21 18:53:54.827
33.0, -112661.1963106628, -149805.32524649208, -73633.17294516241, -131896.77231273323, 45755.13848723632, -76412.61236817985, 37451.778346512125, -117751.33672372541, 0.074, 0.978, 0.002, 192.0, 0.0, 0.0, 0.0, 0.0, 0.0, 0.0, 0.0, 0.0, 0.0, 1.6664036348270662E9, 0.0, 2022-10-21 18:53:54.827
34.0, -112661.55393857407, -149803.73827263573, -73637.79975626466, -131890.5808795191, 45752.746850579606, -76404.1857605202, 37459.02031171564, -117749.16860451325, 0.074, 0.978, 0.002, 192.0, 0.0, 0.0, 0.0, 0.0, 0.0, 0.0, 0.0, 0.0, 0.0, 1.666403634827078E9, 0.0, 2022-10-21 18:53:54.827
35.0, -112666.4936740987, -149806.48753720373, -73646.06990171313, -131893.19603362036, 45749.84112380041, -76388.67364986821, 37478.37692241394, -117753.92952608223, 0.074, 0.978, 0.002, 192.0, 0.0, 0.0, 0.0, 0.0, 0.0, 0.0, 0.0, 0.0, 0.0, 1.6664036348270905E9, 0.0, 2022-10-21 18:53:54.827
36.0, -112658.40234260588, -149794.1046707755, -73641.95718073336, -131888.16689111793, 45760.972292539154, -76391.26645222503, 37474.53242236763, -117741.54665965399, 0.074, 0.978, 0.002, 192.0, 0.0, 0.0, 0.0, 0.0, 0.0, 0.0, 0.0, 0.0, 0.0, 1.6664036348271022E9, 0.0, 2022-10-21 18:53:54.827
37.0, -112656.01070594916, -149786.72859510526, -73638.02327370922, -131886.49051028377, 45769.95769381019, -76399.84952209587, 37458.55092508208, -117741.52430790954, 0.074, 0.978, 0.002, 192.0, 0.0, 0.0, 0.0, 0.0, 0.0, 0.0, 0.0, 0.0, 0.0, 1.6664036348271155E9, 0.0, 2022-10-21 18:53:54.827
38.0, -112673.37801139093, -149797.0103975547, -73640.97370397732, -131889.0833126406, 45768.01309204258, -76399.40248720677, 37453.49943083518, -117752.05197954798, 0.074, 0.978, 0.002, 192.0, 0.0, 0.0, 0.0, 0.0, 0.0, 0.0, 0.0, 0.0, 0.0, 1.6664036348271315E9, 0.0, 2022-10-21 18:53:54.827
39.0, -112664.75023803118, -149802.93360983534, -73648.46153836984, -131890.9832109193, 45760.92758905025, -76390.95352780266, 37465.25644841867, -117757.99754357309, 0.074, 0.978, 0.002, 192.0, 0.0, 0.0, 0.0, 0.0, 0.0, 0.0, 0.0, 0.0, 0.0, 1.666403634827162E9, 0.0, 2022-10-21 18:53:54.827
40.0, -112671.79103753461, -149808.63330467144, -73661.20203270936, -131904.37190584803, 45751.94218777921, -76390.97587954711, 37465.88229726342, -117766.35709599938, 0.068, 0.978, 0.014, 192.0, 2.0, 32.0, 30.0, 144.0, 0.0, 112.0, 0.0, 0.0, 0.0, 1.666403634827178E9, 0.0, 2022-10-21 18:53:54.827
41.0, -112671.70163055678, -149806.9569238373, -73660.82205305363, -131908.95401346136, 45754.91496979177, -76423.45296424067, 37433.00288116967, -117763.31725875346, 0.068, 0.978, 0.014, 192.0, 0.0, 0.0, 0.0, 0.0, 0.0, 0.0, 0.0, 0.0, 0.0, 1.6664036348271947E9, 0.0, 2022-10-21 18:53:54.827
42.0, -112667.70066829928, -149801.77131912368, -73656.8881460295, -131902.24849012477, 45756.993682026114, -76424.72701367462, 37426.27500608862, -117763.78664538702, 0.068, 0.978, 0.014, 192.0, 0.0, 0.0, 0.0, 0.0, 0.0, 0.0, 0.0, 0.0, 0.0, 1.6664036348272107E9, 0.0, 2022-10-21 18:53:54.827
43.0, -112670.20406367828, -149806.39813022592, -73657.20107045188, -131898.5828040341, 45759.228856471644, -76401.12357152982, 37447.82208774353, -117763.60783143138, 0.068, 0.978, 0.014, 192.0, 0.0, 0.0, 0.0, 0.0, 0.0, 0.0, 0.0, 0.0, 0.0, 1.666403634827226E9, 0.0, 2022-10-21 18:53:54.827
44.0, -112675.12144745844, -149809.2144500273, -73658.74334081929, -131901.57793779112, 45762.49221116212, -76395.49093192708, 37454.706425035765, -117756.36586622786, 0.068, 0.978, 0.014, 192.0, 0.0, 0.0, 0.0, 0.0, 0.0, 0.0, 0.0, 0.0, 0.0, 1.6664036348272417E9, 0.0, 2022-10-21 18:53:54.827
45.0, -112678.69772657129, -149809.9073541054, -73664.13011123301, -131912.5302925742, 45759.094746004914, -76409.6395861673, 37435.86390445995, -117763.83134887593, 0.068, 0.978, 0.014, 192.0, 0.0, 0.0, 0.0, 0.0, 0.0, 0.0, 0.0, 0.0, 0.0, 1.6664036348272572E9, 0.0, 2022-10-21 18:53:54.827
46.0, -112673.84739802449, -149805.32524649208, -73661.35849492055, -131906.87530122703, 45765.174420496754, -76418.20030429367, 37422.92224442032, -117758.77985462903, 0.068, 0.978, 0.014, 192.0, 0.0, 0.0, 0.0, 0.0, 0.0, 0.0, 0.0, 0.0, 0.0, 1.666403634827273E9, 0.0, 2022-10-21 18:53:54.827
47.0, -112681.33523241703, -149812.74602565123, -73663.72777983281, -131902.67317326943, 45764.66033037428, -76408.81257162245, 37433.22639861422, -117754.48831969361, 0.068, 0.978, 0.014, 192.0, 0.0, 0.0, 0.0, 0.0, 0.0, 0.0, 0.0, 0.0, 0.0, 1.6664036348272886E9, 0.0, 2022-10-21 18:53:54.827
48.0, -112687.86194179798, -149819.7644734102, -73668.13107349051, -131905.71301051535, 45764.92855130775, -76400.92240582973, 37441.04950917358, -117758.48928195112, 0.068, 0.978, 0.014, 192.0, 0.0, 0.0, 0.0, 0.0, 0.0, 0.0, 0.0, 0.0, 0.0, 1.6664036348273041E9, 0.0, 2022-10-21 18:53:54.827
49.0, -112681.6481568394, -149811.6731419174, -73656.9328495184, -131903.50018781426, 45780.17244102627, -76406.24212101009, 37429.583064268, -117751.26966849205, 0.068, 0.978, 0.014, 192.0, 0.0, 0.0, 0.0, 0.0, 0.0, 0.0, 0.0, 0.0, 0.0, 1.6664036348273213E9, 0.0, 2022-10-21 18:53:54.827
50.0, -112679.97177600524, -149811.360217495, -73660.15150071996, -131901.130902902, 45781.759414882596, -76431.9913306226, 37398.648249941856, -117755.15887202727, 0.076, 0.978, 0.034, 192.0, 2.0, 96.0, 30.0, 144.0, 1.0, 16.0, 0.0, 0.0, 0.0, 1.666403634827337E9, 0.0, 2022-10-21 18:53:54.827
51.0, -112679.88236902743, -149811.53903145064, -73661.42555015392, -131893.17368187592, 45786.296819007024, -76425.21875205263, 37407.27602330161, -117748.36394171286, 0.076, 0.978, 0.034, 192.0, 0.0, 0.0, 0.0, 0.0, 0.0, 0.0, 0.0, 0.0, 0.0, 1.666403634827354E9, 0.0, 2022-10-21 18:53:54.827
52.0, -112683.45864814028, -149813.93066810735, -73665.47121590034, -131894.20186212086, 45785.22393527316, -76405.90684484325, 37428.39842181187, -117756.25410750558, 0.076, 0.978, 0.034, 192.0, 0.0, 0.0, 0.0, 0.0, 0.0, 0.0, 0.0, 0.0, 0.0, 1.666403634827371E9, 0.0, 2022-10-21 18:53:54.827
53.0, -112686.27496794164, -149819.40684549892, -73667.01348626775, -131906.54002506018, 45782.42996721625, -76404.49868494258, 37426.29735783307, -117756.81290111697, 0.076, 0.978, 0.034, 192.0, 0.0, 0.0, 0.0, 0.0, 0.0, 0.0, 0.0, 0.0, 0.0, 1.666403634827388E9, 0.0, 2022-10-21 18:53:54.827
54.0, -112684.55388361859, -149817.95398210932, -73665.4935676448, -131908.64108903898, 45785.514507951084, -76440.6414557268, 37392.635630683384, -117757.81872961746, 0.076, 0.978, 0.034, 192.0, 0.0, 0.0, 0.0, 0.0, 0.0, 0.0, 0.0, 0.0, 0.0, 1.6664036348274195E9, 0.0, 2022-10-21 18:53:54.827
55.0, -112692.8463808115, -149825.64298220194, -73672.84729157058, -131903.92487095893, 45782.04998756051, -76440.12736560433, 37395.362543506926, -117762.15496804178, 0.076, 0.978, 0.034, 192.0, 0.0, 0.0, 0.0, 0.0, 0.0, 0.0, 0.0, 0.0, 0.0, 1.6664036348274355E9, 0.0, 2022-10-21 18:53:54.827
56.0, -112688.08545924253, -149824.07836009006, -73673.65195437097, -131897.35345808906, 45784.57573468396, -76411.9865193351, 37426.543227022084, -117757.72932263963, 0.076, 0.978, 0.034, 192.0, 0.0, 0.0, 0.0, 0.0, 0.0, 0.0, 0.0, 0.0, 0.0, 1.6664036348274512E9, 0.0, 2022-10-21 18:53:54.827
57.0, -112680.03883123862, -149819.29508677663, -73676.22240498333, -131903.41078083645, 45786.788557385036, -76440.86497317135, 37406.605470967945, -117753.72836038213, 0.076, 0.978, 0.034, 192.0, 0.0, 0.0, 0.0, 0.0, 0.0, 0.0, 0.0, 0.0, 0.0, 1.6664036348274667E9, 0.0, 2022-10-21 18:53:54.827
58.0, -112676.12727595893, -149825.08418859055, -73680.55864340767, -131906.56237680465, 45790.007208586605, -76456.80176696798, 37388.83583412598, -117760.18801452972, 0.076, 0.978, 0.034, 192.0, 0.0, 0.0, 0.0, 0.0, 0.0, 0.0, 0.0, 0.0, 0.0, 1.6664036348274825E9, 0.0, 2022-10-21 18:53:54.827
59.0, -112672.99803173519, -149830.64977295994, -73680.71510561884, -131898.87337671203, 45799.28318253555, -76443.05544412798, 37399.609374953434, -117754.1977470157, 0.082, 0.9520000000000001, 0.05, 192.0, 2.0, 144.0, 29.0, 192.0, 1.0, 144.0, 0.0, 0.0, 0.0, 1.6664036348274984E9, 0.0, 2022-10-21 18:53:54.827
60.0, -112677.69189807081, -149837.69057246335, -73687.82296035564, -131895.31944934363, 45799.506699980106, -76417.86502812685, 37425.60445375496, -117747.51457542356, 0.082, 0.9520000000000001, 0.05, 192.0, 0.0, 0.0, 0.0, 0.0, 0.0, 0.0, 0.0, 0.0, 0.0, 1.6664036348275185E9, 0.0, 2022-10-21 18:53:54.827
61.0, -112683.41394465137, -149845.5136830227, -73701.5469314512, -131910.80920825116, 45792.7564731546, -76413.8417141249, 37429.91834043483, -117758.64574416229, 0.082, 0.9520000000000001, 0.05, 192.0, 0.0, 0.0, 0.0, 0.0, 0.0, 0.0, 0.0, 0.0, 0.0, 1.6664036348275356E9, 0.0, 2022-10-21 18:53:54.827
62.0, -112676.30608991458, -149833.06376136112, -73694.34966973659, -131913.1784931634, 45803.39590351533, -76425.55402821947, 37421.20116009726, -117748.5427556685, 0.082, 0.9520000000000001, 0.05, 192.0, 0.0, 0.0, 0.0, 0.0, 0.0, 0.0, 0.0, 0.0, 0.0, 1.6664036348275511E9, 0.0, 2022-10-21 18:53:54.827
63.0, -112673.89210151341, -149819.54095596564, -73689.90167258999, -131900.72857150182, 45813.87887166487, -76423.72118517413, 37425.73856422169, -117748.67686613523, 0.082, 0.9520000000000001, 0.05, 192.0, 0.0, 0.0, 0.0, 0.0, 0.0, 0.0, 0.0, 0.0, 0.0, 1.666403634827567E9, 0.0, 2022-10-21 18:53:54.827
64.0, -112676.08257247003, -149816.2105460418, -73691.93568133541, -131894.40302782095, 45817.58926124445, -76401.034164552, 37450.48194533372, -117758.08695055092, 0.082, 0.9520000000000001, 0.05, 192.0, 0.0, 0.0, 0.0, 0.0, 0.0, 0.0, 0.0, 0.0, 0.0, 1.6664036348275828E9, 0.0, 2022-10-21 18:53:54.827
65.0, -112678.18363644883, -149816.5681739531, -73698.86472211656, -131904.32720235913, 45816.80695018852, -76401.280033741, 37451.06309068955, -117763.16079654227, 0.082, 0.9520000000000001, 0.05, 192.0, 0.0, 0.0, 0.0, 0.0, 0.0, 0.0, 0.0, 0.0, 0.0, 1.6664036348275988E9, 0.0, 2022-10-21 18:53:54.827
66.0, -112676.03786898112, -149812.47780471775, -73700.71991690635, -131910.51863557324, 45820.53969151255, -76418.5355804605, 37431.75118348017, -117758.73515114012, 0.082, 0.9520000000000001, 0.05, 192.0, 0.0, 0.0, 0.0, 0.0, 0.0, 0.0, 0.0, 0.0, 0.0, 1.6664036348276148E9, 0.0, 2022-10-21 18:53:54.827
67.0, -112669.93584274482, -149803.49240344673, -73696.5401406932, -131902.7849319917, 45830.26270035061, -76419.76492640555, 37429.11367763444, -117755.06946504946, 0.082, 0.9520000000000001, 0.05, 192.0, 0.0, 0.0, 0.0, 0.0, 0.0, 0.0, 0.0, 0.0, 0.0, 1.666403634827631E9, 0.0, 2022-10-21 18:53:54.827
68.0, -112676.32844165903, -149811.33786575054, -73698.7976668832, -131898.5828040341, 45828.318098583, -76398.3296034729, 37454.16998316884, -117766.78177914403, 0.082, 0.9520000000000001, 0.05, 192.0, 0.0, 0.0, 0.0, 0.0, 0.0, 0.0, 0.0, 0.0, 0.0, 1.6664036348276467E9, 0.0, 2022-10-21 18:53:54.827
69.0, -112689.80654356559, -149825.73238917976, -73710.95701586688, -131914.631356553, 45821.098485123934, -76386.84080682287, 37470.08442522102, -117774.4484274922, 0.09, 0.934, 0.062, 192.0, 2.0, 208.0, 29.0, 48.0, 1.0, 240.0, 0.0, 0.0, 0.0, 1.6664036348276768E9, 0.0, 2022-10-21 18:53:54.827
70.0, -112686.23026445274, -149821.39615075543, -73708.40891699897, -131918.52056008825, 45832.83315096297, -76399.91657732923, 37459.37793962693, -117769.15106405629, 0.09, 0.934, 0.062, 192.0, 0.0, 0.0, 0.0, 0.0, 0.0, 0.0, 0.0, 0.0, 0.0, 1.6664036348276954E9, 0.0, 2022-10-21 18:53:54.827
71.0, -112671.56752009006, -149806.39813022592, -73693.16502728045, -131898.78396973418, 45850.64749129385, -76401.81647560793, 37459.57910532702, -117761.37265698584, 0.09, 0.934, 0.062, 192.0, 0.0, 0.0, 0.0, 0.0, 0.0, 0.0, 0.0, 0.0, 0.0, 1.6664036348277123E9, 0.0, 2022-10-21 18:53:54.827
72.0, -112676.06022072557, -149813.39422624043, -73699.08823956111, -131891.07261789712, 45848.725241270695, -76387.31019345643, 37475.29238167911, -117764.18897678722, 0.09, 0.934, 0.062, 192.0, 0.0, 0.0, 0.0, 0.0, 0.0, 0.0, 0.0, 0.0, 0.0, 1.6664036348277278E9, 0.0, 2022-10-21 18:53:54.827
73.0, -112692.57815987804, -149830.69447644884, -73715.47206824686, -131903.36607734754, 45836.9682236872, -76379.30826894144, 37486.870585306955, -117775.54366297051, 0.09, 0.934, 0.062, 192.0, 0.0, 0.0, 0.0, 0.0, 0.0, 0.0, 0.0, 0.0, 0.0, 1.6664036348277435E9, 0.0, 2022-10-21 18:53:54.827
74.0, -112694.32159594556, -149832.81789217208, -73720.23298981584, -131916.7324205318, 45834.040145163555, -76387.80193183446, 37482.37788467144, -117788.84295092142, 0.09, 0.934, 0.062, 192.0, 0.0, 0.0, 0.0, 0.0, 0.0, 0.0, 0.0, 0.0, 0.0, 1.6664036348277595E9, 0.0, 2022-10-21 18:53:54.827
75.0, -112684.28566268513, -149826.5147002357, -73707.6489576875, -131906.80824599366, 45847.22767439219, -76404.69985064268, 37472.610172344466, -117774.8507588924, 0.09, 0.934, 0.062, 192.0, 0.0, 0.0, 0.0, 0.0, 0.0, 0.0, 0.0, 0.0, 0.0, 1.6664036348277752E9, 0.0, 2022-10-21 18:53:54.827
76.0, -112684.06214524058, -149827.58758396955, -73705.03380358622, -131891.40789406394, 45853.55321807304, -76393.8816063263, 37491.899727809396, -117770.0004303456, 0.09, 0.934, 0.062, 192.0, 0.0, 0.0, 0.0, 0.0, 0.0, 0.0, 0.0, 0.0, 0.0, 1.666403634827791E9, 0.0, 2022-10-21 18:53:54.827
77.0, -112687.21374120878, -149828.6157642145, -73703.33507100762, -131891.85492895305, 45853.91084598433, -76367.46184438013, 37524.46621948078, -117776.7506571711, 0.09, 0.934, 0.062, 192.0, 0.0, 0.0, 0.0, 0.0, 0.0, 0.0, 0.0, 0.0, 0.0, 1.6664036348278067E9, 0.0, 2022-10-21 18:53:54.827
78.0, -112687.88429354243, -149830.98504912676, -73709.92883562193, -131909.40104835047, 45848.367613359405, -76362.58916408887, 37531.10468758401, -117784.551415986, 0.09, 0.934, 0.062, 192.0, 0.0, 0.0, 0.0, 0.0, 0.0, 0.0, 0.0, 0.0, 0.0, 1.6664036348278227E9, 0.0, 2022-10-21 18:53:54.827
79.0, -112681.82697079504, -149826.40294151343, -73702.57511169615, -131906.22710063783, 45856.86127625243, -76383.48804515458, 37516.82192287707, -117771.76621815756, 0.088, 0.932, 0.068, 192.0, 2.0, 192.0, 29.0, 32.0, 2.0, 32.0, 0.0, 0.0, 0.0, 1.6664036348278387E9, 0.0, 2022-10-21 18:53:54.827
80.0, -112683.5480551181, -149828.01226711422, -73703.6032919411, -131898.71691450084, 45857.68829079727, -76373.09448398286, 37531.28350153965, -117778.4046862608, 0.088, 0.932, 0.068, 192.0, 0.0, 0.0, 0.0, 0.0, 0.0, 0.0, 0.0, 0.0, 0.0, 1.6664036348278556E9, 0.0, 2022-10-21 18:53:54.827
81.0, -112685.78322956363, -149829.57688922607, -73707.49249547631, -131900.54975754616, 45854.514343084615, -76361.56098384393, 37553.143507616944, -117786.29485205351, 0.088, 0.932, 0.068, 192.0, 0.0, 0.0, 0.0, 0.0, 0.0, 0.0, 0.0, 0.0, 0.0, 1.6664036348278716E9, 0.0, 2022-10-21 18:53:54.827
82.0, -112682.0951917285, -149826.00061011323, -73703.22331228535, -131903.79076049218, 45861.26456991012, -76370.70284732615, 37551.400071549426, -117783.03149736304, 0.088, 0.932, 0.068, 192.0, 0.0, 0.0, 0.0, 0.0, 0.0, 0.0, 0.0, 0.0, 0.0, 1.6664036348278875E9, 0.0, 2022-10-21 18:53:54.827
83.0, -112682.38576440643, -149826.09001709105, -73704.36325125257, -131907.34468786058, 45863.16446818882, -76382.41516142072, 37538.61487372099, -117782.87503515185, 0.088, 0.932, 0.068, 192.0, 0.0, 0.0, 0.0, 0.0, 0.0, 0.0, 0.0, 0.0, 0.0, 1.666403634827904E9, 0.0, 2022-10-21 18:53:54.827
84.0, -112681.82697079504, -149826.69351419134, -73703.22331228535, -131901.93556570238, 45862.002177477145, -76370.74755081505, 37552.47295528328, -117787.85947416538, 0.088, 0.932, 0.068, 192.0, 0.0, 0.0, 0.0, 0.0, 0.0, 0.0, 0.0, 0.0, 0.0, 1.6664036348279195E9, 0.0, 2022-10-21 18:53:54.827
0.0, 0.0, 0.0, 0.0, 0.0, 0.0, 0.0, 0.0, 0.0, 0.058, 0.9420000000000001, 0.044, 192.0, 1.0, 208.0, 29.0, 112.0, 1.0, 96.0, 0.0, 0.0, 0.0, 1.666403634919584E9, 0.0, 2022-10-21 18:53:54.919
1.0, -113139.79186293982, -150041.02439177327, -73791.40094416153, -131948.404842425, 46146.49518090429, -77058.06369281575, 38006.81686482631, -117858.13335873287, 0.058, 0.9420000000000001, 0.044, 192.0, 0.0, 0.0, 0.0, 0.0, 0.0, 0.0, 0.0, 0.0, 0.0, 1.666403635399109E9, 0.0, 2022-10-21 18:53:55.399
2.0, -113147.68202873255, -150048.64633663255, -73793.5690633737, -131957.12202276255, 46141.13076223502, -77043.22213449742, 38021.613719655725, -117864.25773671363, 0.058, 0.9420000000000001, 0.044, 192.0, 0.0, 0.0, 0.0, 0.0, 0.0, 0.0, 0.0, 0.0, 0.0, 1.666403635399217E9, 0.0, 2022-10-21 18:53:55.399
3.0, -113142.76464495239, -150042.67842086297, -73787.15411271503, -131951.53408664872, 46151.90430306248, -77049.27945724482, 38013.075353273794, -117857.77573082158, 0.058, 0.9420000000000001, 0.044, 192.0, 0.0, 0.0, 0.0, 0.0, 0.0, 0.0, 0.0, 0.0, 0.0, 1.6664036353994212E9, 0.0, 2022-10-21 18:53:55.399
4.0, -113154.94634568052, -150054.413086702, -73799.62638612109, -131960.07245303065, 46140.34845117908, -77077.21913781395, 37985.85092852723, -117862.13432099037, 0.058, 0.9420000000000001, 0.044, 192.0, 0.0, 0.0, 0.0, 0.0, 0.0, 0.0, 0.0, 0.0, 0.0, 1.666403635399531E9, 0.0, 2022-10-21 18:53:55.399
5.0, -113143.88223217515, -150046.34410695365, -73790.75274357233, -131942.03459525522, 46147.94804429389, -77064.25512602986, 38005.09578050325, -117855.36174242041, 0.058, 0.9420000000000001, 0.044, 192.0, 0.0, 0.0, 0.0, 0.0, 0.0, 0.0, 0.0, 0.0, 0.0, 1.6664036353995464E9, 0.0, 2022-10-21 18:53:55.399
6.0, -113148.48669153295, -150051.48500817837, -73797.10063899764, -131954.93155180593, 46142.71773609135, -77052.60986716865, 38018.81975159881, -117863.34131519096, 0.058, 0.9420000000000001, 0.044, 192.0, 0.0, 0.0, 0.0, 0.0, 0.0, 0.0, 0.0, 0.0, 0.0, 1.6664036353995693E9, 0.0, 2022-10-21 18:53:55.399
7.0, -113148.15141536611, -150047.75226685434, -73799.4699239099, -131958.97721755234, 46144.52822739223, -77054.62152416963, 38015.243472485956, -117858.73685583317, 0.046, 0.9420000000000001, 0.036000000000000004, 192.0, 1.0, 112.0, 29.0, 112.0, 1.0, 32.0, 0.0, 0.0, 0.0, 1.6664036353995843E9, 0.0, 2022-10-21 18:53:55.399
8.0, -113147.14558686562, -150045.5617958977, -73795.82658956369, -131954.12688900554, 46147.925692549434, -77070.91594587755, 38000.58072812328, -117852.5677743635, 0.046, 0.9420000000000001, 0.036000000000000004, 192.0, 0.0, 0.0, 0.0, 0.0, 0.0, 0.0, 0.0, 0.0, 0.0, 1.6664036353996005E9, 0.0, 2022-10-21 18:53:55.399
9.0, -113147.92789792156, -150046.5676243982, -73798.4193919205, -131951.08705175962, 46142.51657039125, -77063.24929752939, 38007.88974856016, -117867.319925704, 0.046, 0.9420000000000001, 0.036000000000000004, 192.0, 0.0, 0.0, 0.0, 0.0, 0.0, 0.0, 0.0, 0.0, 0.0, 1.6664036353996155E9, 0.0, 2022-10-21 18:53:55.399
10.0, -113147.57027001027, -150044.48891216386, -73791.93738602845, -131950.21533372585, 46143.92473029193, -77053.8839166026, 38023.75948712343, -117862.93898379077, 0.046, 0.9420000000000001, 0.036000000000000004, 192.0, 0.0, 0.0, 0.0, 0.0, 0.0, 0.0, 0.0, 0.0, 0.0, 1.6664036353996303E9, 0.0, 2022-10-21 18:53:55.399
11.0, -113148.5090432774, -150044.75713309733, -73793.70317384043, -131955.51269716176, 46143.745916336295, -77061.50586146186, 38017.14337076466, -117861.88845180137, 0.046, 0.9420000000000001, 0.036000000000000004, 192.0, 0.0, 0.0, 0.0, 0.0, 0.0, 0.0, 0.0, 0.0, 0.0, 1.6664036353996456E9, 0.0, 2022-10-21 18:53:55.399
12.0, -113139.6577524731, -150032.37426666907, -73791.93738602845, -131954.68568261692, 46145.39994542598, -77074.55928022377, 38001.94418453505, -117861.66493435681, 0.046, 0.9420000000000001, 0.036000000000000004, 192.0, 0.0, 0.0, 0.0, 0.0, 0.0, 0.0, 0.0, 0.0, 0.0, 1.6664036353996603E9, 0.0, 2022-10-21 18:53:55.399
13.0, -113139.23306932845, -150031.99428701334, -73789.52339762729, -131947.66723485795, 46147.07632626013, -77077.19678606949, 38004.80520782533, -117854.24415519765, 0.046, 0.9420000000000001, 0.036000000000000004, 192.0, 0.0, 0.0, 0.0, 0.0, 0.0, 0.0, 0.0, 0.0, 0.0, 1.6664036353996756E9, 0.0, 2022-10-21 18:53:55.399
14.0, -113144.9104124201, -150037.85044406063, -73789.74691507184, -131941.4981533883, 46146.76340183776, -77060.12005330564, 38025.25705400194, -117857.30634418802, 0.046, 0.9420000000000001, 0.036000000000000004, 192.0, 0.0, 0.0, 0.0, 0.0, 0.0, 0.0, 0.0, 0.0, 0.0, 1.666403635399688E9, 0.0, 2022-10-21 18:53:55.399
15.0, -113164.44583707403, -150058.19053151496, -73811.65162463803, -131968.18613626793, 46125.97627949432, -77053.30277124677, 38030.01797557092, -117866.82818732598, 0.046, 0.9420000000000001, 0.036000000000000004, 192.0, 0.0, 0.0, 0.0, 0.0, 0.0, 0.0, 0.0, 0.0, 0.0, 1.6664036353997595E9, 0.0, 2022-10-21 18:53:55.399
16.0, -113151.68299099006, -150043.50543540783, -73799.49227565435, -131965.97331356685, 46141.82366631313, -77072.97230636745, 38010.415495683614, -117856.41227440981, 0.046, 0.9420000000000001, 0.036000000000000004, 192.0, 0.0, 0.0, 0.0, 0.0, 0.0, 0.0, 0.0, 0.0, 0.0, 1.6664036353997717E9, 0.0, 2022-10-21 18:53:55.399
17.0, -113149.89485143362, -150045.02535403077, -73792.18325521747, -131959.71482511936, 46147.098678004586, -77092.95476591049, 37992.77996930837, -117859.45211165573, 0.048, 0.9500000000000001, 0.034, 192.0, 1.0, 128.0, 29.0, 176.0, 1.0, 16.0, 0.0, 0.0, 0.0, 1.666403635399784E9, 0.0, 2022-10-21 18:53:55.399
18.0, -113154.07462764677, -150045.83001683117, -73796.60890061961, -131955.28917971722, 46142.42716341343, -77084.03641987282, 38006.03455377037, -117864.01186752462, 0.048, 0.9500000000000001, 0.034, 192.0, 0.0, 0.0, 0.0, 0.0, 0.0, 0.0, 0.0, 0.0, 0.0, 1.6664036353997977E9, 0.0, 2022-10-21 18:53:55.399
19.0, -113159.14847363812, -150049.5180546663, -73808.90236007003, -131968.56611592366, 46132.86061678656, -77089.62435598664, 38003.84408281375, -117873.2207862402, 0.048, 0.9500000000000001, 0.034, 192.0, 0.0, 0.0, 0.0, 0.0, 0.0, 0.0, 0.0, 0.0, 0.0, 1.6664036353998098E9, 0.0, 2022-10-21 18:53:55.399
20.0, -113136.5061565049, -150029.42383640097, -73791.78092381728, -131951.10940350406, 46154.13947750801, -77090.47372227594, 37998.5690711223, -117855.96523952071, 0.048, 0.9500000000000001, 0.034, 192.0, 0.0, 0.0, 0.0, 0.0, 0.0, 0.0, 0.0, 0.0, 0.0, 1.6664036353998218E9, 0.0, 2022-10-21 18:53:55.399
21.0, -113132.28167680284, -150025.33346716565, -73791.53505462827, -131950.81883082615, 46148.68565186091, -77101.82840845925, 37985.96268724951, -117855.80877730952, 0.048, 0.9500000000000001, 0.034, 192.0, 0.0, 0.0, 0.0, 0.0, 0.0, 0.0, 0.0, 0.0, 0.0, 1.666403635399834E9, 0.0, 2022-10-21 18:53:55.399
22.0, -113140.86474667369, -150032.35191492463, -73793.39024941805, -131947.8460488136, 46151.300805962186, -77093.93824266651, 37997.697353088544, -117859.56387037801, 0.048, 0.9500000000000001, 0.034, 192.0, 0.0, 0.0, 0.0, 0.0, 0.0, 0.0, 0.0, 0.0, 0.0, 1.6664036353998475E9, 0.0, 2022-10-21 18:53:55.399
23.0, -113150.81127295629, -150040.97968828437, -73797.05593550873, -131945.901447046, 46154.20653274137, -77073.57580346773, 38014.46116143002, -117863.25190821313, 0.048, 0.9500000000000001, 0.034, 192.0, 0.0, 0.0, 0.0, 0.0, 0.0, 0.0, 0.0, 0.0, 0.0, 1.66640363539986E9, 0.0, 2022-10-21 18:53:55.399
24.0, -113151.92886017906, -150040.57735688417, -73797.95000528694, -131952.38345293803, 46154.47475367484, -77087.50094026339, 37997.09385598825, -117865.4200274253, 0.048, 0.9500000000000001, 0.034, 192.0, 0.0, 0.0, 0.0, 0.0, 0.0, 0.0, 0.0, 0.0, 0.0, 1.6664036353998735E9, 0.0, 2022-10-21 18:53:55.399
25.0, -113150.65481074511, -150038.99038302785, -73797.34650818665, -131953.65750237196, 46153.535980407716, -77099.48147529144, 37983.39223663715, -117865.01769602511, 0.048, 0.9500000000000001, 0.034, 192.0, 0.0, 0.0, 0.0, 0.0, 0.0, 0.0, 0.0, 0.0, 0.0, 1.6664036353998857E9, 0.0, 2022-10-21 18:53:55.399
26.0, -113149.91720317808, -150038.25277546083, -73800.85573206613, -131945.2979499457, 46150.13851525051, -77087.07625711874, 38000.89365254565, -117866.31409720352, 0.048, 0.9500000000000001, 0.034, 192.0, 0.0, 0.0, 0.0, 0.0, 0.0, 0.0, 0.0, 0.0, 0.0, 1.6664036353998976E9, 0.0, 2022-10-21 18:53:55.399
27.0, -113155.72865673646, -150043.72895285237, -73808.88000832558, -131954.32805470563, 46140.32609943463, -77086.24924257389, 38011.17545499509, -117872.572585651, 0.052000000000000005, 0.9520000000000001, 0.03, 192.0, 1.0, 160.0, 29.0, 192.0, 0.0, 240.0, 0.0, 0.0, 0.0, 1.6664036353999095E9, 0.0, 2022-10-21 18:53:55.399
28.0, -113157.36033408169, -150047.0146592873, -73811.98690080487, -131960.78770885323, 46139.07440174513, -77105.22587361645, 37994.52340537589, -117872.95256530674, 0.052000000000000005, 0.9520000000000001, 0.03, 192.0, 0.0, 0.0, 0.0, 0.0, 0.0, 0.0, 0.0, 0.0, 0.0, 1.666403635399924E9, 0.0, 2022-10-21 18:53:55.399
29.0, -113160.958964939, -150051.64147038956, -73814.87027583961, -131965.81685135566, 46135.72164007684, -77113.20544638699, 37979.92771624657, -117877.6240798979, 0.052000000000000005, 0.9520000000000001, 0.03, 192.0, 0.0, 0.0, 0.0, 0.0, 0.0, 0.0, 0.0, 0.0, 0.0, 1.666403635399936E9, 0.0, 2022-10-21 18:53:55.399
30.0, -113165.71988650798, -150052.89316807906, -73811.69632812696, -131959.29014197472, 46136.30278543267, -77098.20742585749, 37996.08802748776, -117872.9749170512, 0.052000000000000005, 0.9520000000000001, 0.03, 192.0, 0.0, 0.0, 0.0, 0.0, 0.0, 0.0, 0.0, 0.0, 0.0, 1.6664036353999603E9, 0.0, 2022-10-21 18:53:55.399
31.0, -113160.24370911643, -150046.94760405394, -73806.35426120213, -131951.37762443753, 46140.77313432373, -77085.86926291815, 38015.33287946378, -117869.06336177152, 0.052000000000000005, 0.9520000000000001, 0.03, 192.0, 0.0, 0.0, 0.0, 0.0, 0.0, 0.0, 0.0, 0.0, 0.0, 1.666403635399973E9, 0.0, 2022-10-21 18:53:55.399
32.0, -113146.13975836513, -150032.77659806926, -73795.24544420785, -131946.5049441463, 46157.715756620855, -77085.26576581787, 38016.58457715328, -117846.28693417156, 0.052000000000000005, 0.9520000000000001, 0.03, 192.0, 0.0, 0.0, 0.0, 0.0, 0.0, 0.0, 0.0, 0.0, 0.0, 1.6664036353999853E9, 0.0, 2022-10-21 18:53:55.399
33.0, -113147.92789792156, -150034.1624062255, -73798.1735227315, -131949.81300232565, 46158.207494998875, -77093.8935391776, 38004.35817293623, -117845.90695451581, 0.052000000000000005, 0.9520000000000001, 0.03, 192.0, 0.0, 0.0, 0.0, 0.0, 0.0, 0.0, 0.0, 0.0, 0.0, 1.6664036353999972E9, 0.0, 2022-10-21 18:53:55.399
34.0, -113154.29814509132, -150042.32079295168, -73794.88781629656, -131947.91310404695, 46150.250273972786, -77086.78568444082, 38012.98594629597, -117861.21789946771, 0.052000000000000005, 0.9520000000000001, 0.03, 192.0, 0.0, 0.0, 0.0, 0.0, 0.0, 0.0, 0.0, 0.0, 0.0, 1.6664036354000096E9, 0.0, 2022-10-21 18:53:55.400
35.0, -113147.48086303246, -150037.58222312716, -73784.65071733603, -131937.5865981086, 46156.28524497572, -77075.43099825752, 38031.895522105166, -117858.08865524396, 0.052000000000000005, 0.9520000000000001, 0.03, 192.0, 0.0, 0.0, 0.0, 0.0, 0.0, 0.0, 0.0, 0.0, 0.0, 1.6664036354000216E9, 0.0, 2022-10-21 18:53:55.400
36.0, -113154.87929044716, -150042.1643307405, -73794.28431919626, -131948.76247033625, 46151.9937100403, -77079.70018144848, 38026.642862158165, -117864.95064079174, 0.052000000000000005, 0.9520000000000001, 0.03, 192.0, 0.0, 0.0, 0.0, 0.0, 0.0, 0.0, 0.0, 0.0, 0.0, 1.6664036354000337E9, 0.0, 2022-10-21 18:53:55.400
37.0, -113155.52749103637, -150041.80670282923, -73791.69151683945, -131952.98695003832, 46154.51945716375, -77087.05390537428, 38017.47864693149, -117861.06143725652, 0.05, 0.96, 0.022, 192.0, 1.0, 144.0, 30.0, 0.0, 0.0, 176.0, 0.0, 0.0, 0.0, 1.666403635400046E9, 0.0, 2022-10-21 18:53:55.400
38.0, -113153.56053752429, -150042.72312435188, -73789.00930750482, -131947.86840055804, 46156.97814905383, -77094.96642291146, 38012.40480094014, -117861.32965818998, 0.05, 0.96, 0.022, 192.0, 0.0, 0.0, 0.0, 0.0, 0.0, 0.0, 0.0, 0.0, 0.0, 1.6664036354000587E9, 0.0, 2022-10-21 18:53:55.400
39.0, -113159.77432248287, -150048.0651912767, -73796.7653628308, -131947.86840055804, 46147.70217510488, -77088.73028620843, 38024.98883306847, -117863.60953612442, 0.05, 0.96, 0.022, 192.0, 0.0, 0.0, 0.0, 0.0, 0.0, 0.0, 0.0, 0.0, 0.0, 1.6664036354000711E9, 0.0, 2022-10-21 18:53:55.400
40.0, -113152.95704042401, -150039.92915629497, -73785.83535979217, -131938.90535103148, 46158.52041942125, -77082.20357682748, 38038.42223148611, -117853.90887903082, 0.05, 0.96, 0.022, 192.0, 0.0, 0.0, 0.0, 0.0, 0.0, 0.0, 0.0, 0.0, 0.0, 1.6664036354000838E9, 0.0, 2022-10-21 18:53:55.400
41.0, -113161.22718587247, -150047.34993545414, -73791.17742671698, -131954.43981342792, 46154.07242227464, -77109.58446378523, 38009.20850148302, -117857.14988197683, 0.05, 0.96, 0.022, 192.0, 0.0, 0.0, 0.0, 0.0, 0.0, 0.0, 0.0, 0.0, 0.0, 1.666403635400096E9, 0.0, 2022-10-21 18:53:55.400
42.0, -113144.35161880871, -150032.88835679155, -73777.00642073232, -131933.7868015512, 46166.34352998061, -77112.55724579778, 38007.15214099314, -117844.7670155486, 0.05, 0.96, 0.022, 192.0, 0.0, 0.0, 0.0, 0.0, 0.0, 0.0, 0.0, 0.0, 0.0, 1.6664036354001083E9, 0.0, 2022-10-21 18:53:55.400
43.0, -113149.13489212215, -150038.25277546083, -73782.57200510168, -131926.05309796968, 46161.18027701143, -77082.89648090559, 38036.0305948294, -117850.2208411957, 0.05, 0.96, 0.022, 192.0, 0.0, 0.0, 0.0, 0.0, 0.0, 0.0, 0.0, 0.0, 0.0, 1.6664036354001205E9, 0.0, 2022-10-21 18:53:55.400
44.0, -113149.20194735551, -150037.60457487163, -73785.70124932543, -131931.01518523876, 46160.107393277576, -77089.82552168674, 38034.35421399525, -117847.4715766277, 0.05, 0.96, 0.022, 192.0, 0.0, 0.0, 0.0, 0.0, 0.0, 0.0, 0.0, 0.0, 0.0, 1.666403635400133E9, 0.0, 2022-10-21 18:53:55.400
45.0, -113154.52166253587, -150041.80670282923, -73793.43495290696, -131944.26976970074, 46158.05103278769, -77103.77301022685, 38019.55735916583, -117851.00315225162, 0.05, 0.96, 0.022, 192.0, 0.0, 0.0, 0.0, 0.0, 0.0, 0.0, 0.0, 0.0, 0.0, 1.666403635400156E9, 0.0, 2022-10-21 18:53:55.400
46.0, -113156.86859570368, -150043.88541506356, -73797.21239771991, -131942.52633363323, 46155.88291357552, -77110.07620216325, 38010.504902661436, -117859.63092561137, 0.046, 0.966, 0.024, 192.0, 1.0, 112.0, 30.0, 48.0, 0.0, 192.0, 0.0, 0.0, 0.0, 1.6664036354001687E9, 0.0, 2022-10-21 18:53:55.400
47.0, -113159.43904631604, -150047.34993545414, -73799.5146273988, -131933.40682189548, 46156.03937578671, -77093.55826301078, 38028.05102205885, -117857.59691686595, 0.046, 0.966, 0.024, 192.0, 0.0, 0.0, 0.0, 0.0, 0.0, 0.0, 0.0, 0.0, 0.0, 1.6664036354001815E9, 0.0, 2022-10-21 18:53:55.400
48.0, -113157.18152012606, -150043.95247029694, -73801.9733192889, -131937.16191496397, 46157.26872173175, -77074.55928022377, 38049.508696735946, -117863.31896344651, 0.046, 0.966, 0.024, 192.0, 0.0, 0.0, 0.0, 0.0, 0.0, 0.0, 0.0, 0.0, 0.0, 1.6664036354001937E9, 0.0, 2022-10-21 18:53:55.400
49.0, -113150.09601713372, -150039.63858361705, -73790.95390927243, -131942.7498510778, 46164.24246600181, -77100.50965553637, 38031.91787384962, -117850.28789642906, 0.046, 0.966, 0.024, 192.0, 0.0, 0.0, 0.0, 0.0, 0.0, 0.0, 0.0, 0.0, 0.0, 1.6664036354002073E9, 0.0, 2022-10-21 18:53:55.400
50.0, -113152.75587472391, -150042.92429005197, -73785.58949060315, -131938.1900952089, 46168.824573615144, -77106.47757130595, 38027.64869065866, -117837.97208523419, 0.046, 0.966, 0.024, 192.0, 0.0, 0.0, 0.0, 0.0, 0.0, 0.0, 0.0, 0.0, 0.0, 1.6664036354002194E9, 0.0, 2022-10-21 18:53:55.400
51.0, -113157.13681663714, -150045.42768543097, -73794.97722327439, -131940.2911591877, 46160.46502118886, -77097.67098399055, 38039.31630126433, -117841.54836434704, 0.046, 0.966, 0.024, 192.0, 0.0, 0.0, 0.0, 0.0, 0.0, 0.0, 0.0, 0.0, 0.0, 1.6664036354002318E9, 0.0, 2022-10-21 18:53:55.400
52.0, -113158.25440385992, -150047.50639766533, -73799.78284833227, -131949.4553744144, 46152.619558885046, -77093.82648394424, 38046.60296995675, -117849.34912316194, 0.046, 0.966, 0.024, 192.0, 0.0, 0.0, 0.0, 0.0, 0.0, 0.0, 0.0, 0.0, 0.0, 1.6664036354002438E9, 0.0, 2022-10-21 18:53:55.400
53.0, -113145.89388917612, -150035.88349054856, -73786.30474642573, -131949.52242964774, 46161.58260841163, -77104.37650732715, 38035.76237389593, -117840.83310852446, 0.046, 0.966, 0.024, 192.0, 0.0, 0.0, 0.0, 0.0, 0.0, 0.0, 0.0, 0.0, 0.0, 1.666403635400256E9, 0.0, 2022-10-21 18:53:55.400
54.0, -113142.74229320792, -150033.29068819174, -73782.19202544594, -131946.3037784462, 46162.7448991233, -77114.94888245451, 38022.26192024493, -117841.12368120239, 0.046, 0.966, 0.024, 192.0, 0.0, 0.0, 0.0, 0.0, 0.0, 0.0, 0.0, 0.0, 0.0, 1.666403635400268E9, 0.0, 2022-10-21 18:53:55.400
55.0, -113148.0620083883, -150038.27512720527, -73787.51174062632, -131943.398051667, 46158.207494998875, -77099.70499273599, 38039.04808033086, -117849.10325397292, 0.046, 0.966, 0.024, 192.0, 0.0, 0.0, 0.0, 0.0, 0.0, 0.0, 0.0, 0.0, 0.0, 1.66640363540028E9, 0.0, 2022-10-21 18:53:55.400
56.0, -113157.06976140378, -150049.18277849947, -73795.17838897448, -131955.33388320613, 46145.891683804, -77092.46302753246, 38050.96156012554, -117851.15961446281, 0.05, 0.968, 0.026000000000000002, 192.0, 1.0, 144.0, 30.0, 64.0, 0.0, 208.0, 0.0, 0.0, 0.0, 1.666403635400292E9, 0.0, 2022-10-21 18:53:55.400
57.0, -113153.56053752429, -150047.55110115424, -73787.28822318175, -131959.37954895254, 46150.96552979536, -77092.30656532128, 38052.12385083722, -117843.98470449266, 0.05, 0.968, 0.026000000000000002, 192.0, 0.0, 0.0, 0.0, 0.0, 0.0, 0.0, 0.0, 0.0, 0.0, 1.6664036354003046E9, 0.0, 2022-10-21 18:53:55.400
58.0, -113138.8083861838, -150032.53072888026, -73766.92578398297, -131941.81107781065, 46176.78179464123, -77110.45618181898, 38036.81290588533, -117821.2082768927, 0.05, 0.968, 0.026000000000000002, 192.0, 0.0, 0.0, 0.0, 0.0, 0.0, 0.0, 0.0, 0.0, 0.0, 1.6664036354003167E9, 0.0, 2022-10-21 18:53:55.400
59.0, -113158.07558990427, -150052.64729889005, -73784.60601384712, -131950.93058954843, 46158.05103278769, -77118.43575458953, 38027.268711002915, -117838.53087884557, 0.05, 0.968, 0.026000000000000002, 192.0, 0.0, 0.0, 0.0, 0.0, 0.0, 0.0, 0.0, 0.0, 0.0, 1.6664036354003286E9, 0.0, 2022-10-21 18:53:55.400
60.0, -113171.0619534328, -150064.40431647352, -73798.88877855406, -131964.65456064398, 46141.778962824224, -77108.84685621821, 38039.6292256867, -117851.65135284082, 0.05, 0.968, 0.026000000000000002, 192.0, 0.0, 0.0, 0.0, 0.0, 0.0, 0.0, 0.0, 0.0, 0.0, 1.6664036354003513E9, 0.0, 2022-10-21 18:53:55.400
61.0, -113146.4079792986, -150039.75034233934, -73771.73140904086, -131943.37569992253, 46171.52913469424, -77091.07721937624, 38059.45522301856, -117828.27142814058, 0.05, 0.968, 0.026000000000000002, 192.0, 0.0, 0.0, 0.0, 0.0, 0.0, 0.0, 0.0, 0.0, 0.0, 1.6664036354003637E9, 0.0, 2022-10-21 18:53:55.400
62.0, -113137.06495011628, -150030.74258932384, -73764.53414732625, -131938.72653707583, 46180.313370265176, -77107.48339980643, 38040.16566755363, -117827.84674499593, 0.05, 0.968, 0.026000000000000002, 192.0, 0.0, 0.0, 0.0, 0.0, 0.0, 0.0, 0.0, 0.0, 0.0, 1.6664036354003756E9, 0.0, 2022-10-21 18:53:55.400
63.0, -113145.24568858692, -150036.88931904905, -73772.4690166079, -131942.92866503343, 46171.149155038496, -77104.89059744962, 38039.919798364615, -117836.8097945225, 0.05, 0.968, 0.026000000000000002, 192.0, 0.0, 0.0, 0.0, 0.0, 0.0, 0.0, 0.0, 0.0, 0.0, 1.6664036354003875E9, 0.0, 2022-10-21 18:53:55.400
64.0, -113148.82196769977, -150040.59970862864, -73774.54772884223, -131942.21340921085, 46167.19289626991, -77091.9936408989, 38056.16951658363, -117839.93903874625, 0.05, 0.968, 0.026000000000000002, 192.0, 0.0, 0.0, 0.0, 0.0, 0.0, 0.0, 0.0, 0.0, 0.0, 1.6664036354003997E9, 0.0, 2022-10-21 18:53:55.400
65.0, -113145.67037173157, -150039.19154872795, -73774.4136183755, -131946.81786856864, 46171.484431205325, -77093.17828335504, 38059.05289161836, -117838.75439629013, 0.05, 0.968, 0.026000000000000002, 192.0, 0.0, 0.0, 0.0, 0.0, 0.0, 0.0, 0.0, 0.0, 0.0, 1.6664036354004118E9, 0.0, 2022-10-21 18:53:55.400
66.0, -113138.18253733905, -150029.44618814543, -73767.2163566609, -131950.5506098927, 46176.89355336351, -77117.40757434459, 38036.2764640184, -117831.78065202007, 0.046, 0.9580000000000001, 0.028, 192.0, 1.0, 112.0, 29.0, 240.0, 0.0, 224.0, 0.0, 0.0, 0.0, 1.6664036354004238E9, 0.0, 2022-10-21 18:53:55.400
67.0, -113138.58486873924, -150029.62500210106, -73765.09294093764, -131941.67696734393, 46180.96157085438, -77138.75349029941, 38016.76339110892, -117833.68055029877, 0.046, 0.9580000000000001, 0.028, 192.0, 0.0, 0.0, 0.0, 0.0, 0.0, 0.0, 0.0, 0.0, 0.0, 1.6664036354004364E9, 0.0, 2022-10-21 18:53:55.400
68.0, -113147.2573455879, -150037.96220278292, -73768.78097877276, -131938.72653707583, 46176.37946324104, -77118.01107144488, 38038.042251830375, -117845.0128847376, 0.046, 0.9580000000000001, 0.028, 192.0, 0.0, 0.0, 0.0, 0.0, 0.0, 0.0, 0.0, 0.0, 0.0, 1.6664036354004483E9, 0.0, 2022-10-21 18:53:55.400
69.0, -113156.75683698141, -150046.8134935872, -73779.12983645557, -131946.57199937964, 46170.88093410504, -77112.89252196462, 38047.80996415734, -117845.28110567106, 0.046, 0.9580000000000001, 0.028, 192.0, 0.0, 0.0, 0.0, 0.0, 0.0, 0.0, 0.0, 0.0, 0.0, 1.6664036354004605E9, 0.0, 2022-10-21 18:53:55.400
70.0, -113157.09211314823, -150046.25469997583, -73778.72750505537, -131951.22116222634, 46173.294922506204, -77122.9508069695, 38037.3269960078, -117837.63680906735, 0.046, 0.9580000000000001, 0.028, 192.0, 0.0, 0.0, 0.0, 0.0, 0.0, 0.0, 0.0, 0.0, 0.0, 1.6664036354004738E9, 0.0, 2022-10-21 18:53:55.400
71.0, -113155.66160150309, -150045.47238891988, -73774.54772884223, -131954.66333087246, 46172.35614923909, -77127.24234190493, 38028.43100171459, -117838.307361401, 0.046, 0.9580000000000001, 0.028, 192.0, 0.0, 0.0, 0.0, 0.0, 0.0, 0.0, 0.0, 0.0, 0.0, 1.666403635400486E9, 0.0, 2022-10-21 18:53:55.400
72.0, -113155.23691835844, -150046.52292090928, -73772.9607549859, -131940.71584233234, 46175.44068997392, -77112.04315567532, 38046.982949612495, -117840.09550095744, 0.046, 0.9580000000000001, 0.028, 192.0, 0.0, 0.0, 0.0, 0.0, 0.0, 0.0, 0.0, 0.0, 0.0, 1.666403635400498E9, 0.0, 2022-10-21 18:53:55.400
73.0, -113167.41861908659, -150058.19053151496, -73788.83049354918, -131960.43008094194, 46162.051995045185, -77109.96444344097, 38050.80509791435, -117860.18971922276, 0.046, 0.9580000000000001, 0.028, 192.0, 0.0, 0.0, 0.0, 0.0, 0.0, 0.0, 0.0, 0.0, 0.0, 1.6664036354005098E9, 0.0, 2022-10-21 18:53:55.400
74.0, -113154.63342125816, -150042.79017958525, -73775.88883350955, -131954.395109939, 46177.899381864, -77106.67873700605, 38052.0344438594, -117843.35885564791, 0.046, 0.9580000000000001, 0.028, 192.0, 0.0, 0.0, 0.0, 0.0, 0.0, 0.0, 0.0, 0.0, 0.0, 1.6664036354005215E9, 0.0, 2022-10-21 18:53:55.400
75.0, -113148.48669153295, -150035.25764170382, -73770.74793228482, -131947.33195869112, 46185.476623234346, -77111.59612078621, 38044.65836818914, -117833.83701250995, 0.042, 0.9560000000000001, 0.028, 192.0, 1.0, 80.0, 29.0, 224.0, 0.0, 224.0, 0.0, 0.0, 0.0, 1.6664036354005475E9, 0.0, 2022-10-21 18:53:55.400
76.0, -113152.44295030153, -150041.71729585138, -73775.88883350955, -131946.46024065735, 46182.883820877534, -77120.76033601289, 38041.14914430966, -117840.09550095744, 0.042, 0.9560000000000001, 0.028, 192.0, 0.0, 0.0, 0.0, 0.0, 0.0, 0.0, 0.0, 0.0, 0.0, 1.6664036354005613E9, 0.0, 2022-10-21 18:53:55.400
77.0, -113161.24953761692, -150051.19443550045, -73781.54382485674, -131948.56130463615, 46180.402777243, -77088.10443736368, 38070.87696443522, -117851.49489062965, 0.042, 0.9560000000000001, 0.028, 192.0, 0.0, 0.0, 0.0, 0.0, 0.0, 0.0, 0.0, 0.0, 0.0, 1.6664036354005735E9, 0.0, 2022-10-21 18:53:55.400
78.0, -113158.52262479338, -150048.64633663255, -73772.55842358571, -131957.05496752917, 46186.303637779194, -77108.01984167336, 38056.147164839174, -117847.42687313879, 0.042, 0.9560000000000001, 0.028, 192.0, 0.0, 0.0, 0.0, 0.0, 0.0, 0.0, 0.0, 0.0, 0.0, 1.666403635400586E9, 0.0, 2022-10-21 18:53:55.400
79.0, -113159.21552887149, -150048.0651912767, -73771.95492648541, -131959.51365941926, 46184.649608689506, -77138.23940017694, 38026.933434836086, -117850.82433829599, 0.042, 0.9560000000000001, 0.028, 192.0, 0.0, 0.0, 0.0, 0.0, 0.0, 0.0, 0.0, 0.0, 0.0, 1.6664036354005978E9, 0.0, 2022-10-21 18:53:55.400
80.0, -113158.92495619357, -150049.09337152165, -73772.44666486343, -131952.11523200455, 46176.8488498746, -77123.82252500326, 38042.75846991044, -117852.85834704142, 0.042, 0.9560000000000001, 0.028, 192.0, 0.0, 0.0, 0.0, 0.0, 0.0, 0.0, 0.0, 0.0, 0.0, 1.6664036354006097E9, 0.0, 2022-10-21 18:53:55.400
81.0, -113153.67229624657, -150039.23625221686, -73764.1094641816, -131951.10940350406, 46177.0500155747, -77110.76910624137, 38060.46105151904, -117846.15282370482, 0.042, 0.9560000000000001, 0.028, 192.0, 0.0, 0.0, 0.0, 0.0, 0.0, 0.0, 0.0, 0.0, 0.0, 1.666403635400622E9, 0.0, 2022-10-21 18:53:55.400
82.0, -113157.06976140378, -150039.77269408377, -73764.35533337061, -131963.29110423222, 46173.56314343967, -77119.79921100131, 38053.24143805998, -117846.68926557175, 0.042, 0.9560000000000001, 0.028, 192.0, 0.0, 0.0, 0.0, 0.0, 0.0, 0.0, 0.0, 0.0, 0.0, 1.6664036354006336E9, 0.0, 2022-10-21 18:53:55.400
83.0, -113159.10377014922, -150041.58318538466, -73767.23870840535, -131970.22014501336, 46168.46694570386, -77139.3569873997, 38032.34255699427, -117844.34233240395, 0.042, 0.9560000000000001, 0.028, 192.0, 0.0, 0.0, 0.0, 0.0, 0.0, 0.0, 0.0, 0.0, 0.0, 1.6664036354006455E9, 0.0, 2022-10-21 18:53:55.400
84.0, -113158.18734862654, -150042.18668248496, -73767.73044678336, -131956.85380182907, 46173.76430913977, -77128.62815006115, 38041.48442047649, -117840.67664631328, 0.042, 0.9560000000000001, 0.028, 192.0, 0.0, 0.0, 0.0, 0.0, 0.0, 0.0, 0.0, 0.0, 0.0, 1.6664036354006572E9, 0.0, 2022-10-21 18:53:55.400
85.0, -113156.93565093704, -150042.58901388515, -73765.42821710446, -131955.75856635076, 46171.93146609444, -77103.23656835992, 38072.53099352491, -117838.6649893123, 0.042, 0.96, 0.018000000000000002, 192.0, 1.0, 80.0, 30.0, 0.0, 0.0, 144.0, 0.0, 0.0, 0.0, 1.666403635400669E9, 0.0, 2022-10-21 18:53:55.400
86.0, -113156.24274685893, -150041.91846155148, -73768.82568226167, -131966.35329322258, 46169.673939904445, -77117.87696097814, 38062.76328119794, -117853.64065809736, 0.042, 0.96, 0.018000000000000002, 192.0, 0.0, 0.0, 0.0, 0.0, 0.0, 0.0, 0.0, 0.0, 0.0, 1.6664036354006815E9, 0.0, 2022-10-21 18:53:55.400
87.0, -113163.10473240672, -150048.3110604657, -73776.87231026558, -131978.49029046184, 46162.02964330073, -77145.34725491372, 38036.365870996226, -117866.98464953717, 0.042, 0.96, 0.018000000000000002, 192.0, 0.0, 0.0, 0.0, 0.0, 0.0, 0.0, 0.0, 0.0, 0.0, 1.6664036354006937E9, 0.0, 2022-10-21 18:53:55.400
88.0, -113160.60133702772, -150045.9641272979, -73775.30768815371, -131969.99662756882, 46164.354224724084, -77162.04400802184, 38025.39116446867, -117866.09057975897, 0.042, 0.96, 0.018000000000000002, 192.0, 0.0, 0.0, 0.0, 0.0, 0.0, 0.0, 0.0, 0.0, 0.0, 1.6664036354007056E9, 0.0, 2022-10-21 18:53:55.400
89.0, -113150.25247934491, -150034.54238588124, -73770.39030437355, -131948.7401185918, 46175.01600682927, -77137.30062690981, 38050.201600814056, -117860.88262330087, 0.042, 0.96, 0.018000000000000002, 192.0, 0.0, 0.0, 0.0, 0.0, 0.0, 0.0, 0.0, 0.0, 0.0, 1.6664036354007187E9, 0.0, 2022-10-21 18:53:55.400
90.0, -113153.33702007974, -150038.78921732775, -73771.75376078532, -131963.80519435467, 46172.04322481671, -77120.35800461269, 38063.05385387586, -117852.07603598548, 0.042, 0.96, 0.018000000000000002, 192.0, 0.0, 0.0, 0.0, 0.0, 0.0, 0.0, 0.0, 0.0, 0.0, 1.6664036354007304E9, 0.0, 2022-10-21 18:53:55.400
91.0, -113161.27188936138, -150046.5676243982, -73777.7663800438, -131987.47569173286, 46163.594265412605, -77155.13731898514, 38028.00631856994, -117850.71257957371, 0.042, 0.96, 0.018000000000000002, 192.0, 0.0, 0.0, 0.0, 0.0, 0.0, 0.0, 0.0, 0.0, 0.0, 1.6664036354007545E9, 0.0, 2022-10-21 18:53:55.400
92.0, -113169.92201446558, -150056.3576884696, -73784.27073768029, -131991.14137782351, 46152.351337951586, -77176.12560702868, 38009.27555671639, -117858.40157966633, 0.042, 0.96, 0.018000000000000002, 192.0, 0.0, 0.0, 0.0, 0.0, 0.0, 0.0, 0.0, 0.0, 0.0, 1.6664036354007676E9, 0.0, 2022-10-21 18:53:55.400
93.0, -113160.06489516079, -150045.83001683117, -73770.83733926265, -131971.80711886968, 46162.677843889935, -77150.39874916062, 38041.5291239654, -117856.47932964317, 0.042, 0.96, 0.018000000000000002, 192.0, 0.0, 0.0, 0.0, 0.0, 0.0, 0.0, 0.0, 0.0, 0.0, 1.6664036354007792E9, 0.0, 2022-10-21 18:53:55.400
94.0, -113152.64411600163, -150038.07396150517, -73762.94717346993, -131963.22404899885, 46170.47860270484, -77127.17528667155, 38067.99358940048, -117857.8204343105, 0.042, 0.96, 0.018000000000000002, 192.0, 0.0, 0.0, 0.0, 0.0, 0.0, 0.0, 0.0, 0.0, 0.0, 1.666403635400791E9, 0.0, 2022-10-21 18:53:55.400
95.0, -113149.24665084442, -150033.33539168065, -73762.12015892508, -131971.22597351385, 46167.28230324773, -77153.9079730401, 38043.58548445529, -117856.07699824298, 0.046, 0.964, 0.02, 192.0, 1.0, 112.0, 30.0, 32.0, 0.0, 160.0, 0.0, 0.0, 0.0, 1.6664036354008036E9, 0.0, 2022-10-21 18:53:55.400
96.0, -113146.4079792986, -150028.9097462785, -73762.34367636964, -131969.86251710207, 46164.577742168636, -77175.23153725047, 38025.033536557385, -117854.71354183121, 0.046, 0.964, 0.02, 192.0, 0.0, 0.0, 0.0, 0.0, 0.0, 0.0, 0.0, 0.0, 0.0, 1.666403635400816E9, 0.0, 2022-10-21 18:53:55.400
97.0, -113146.87736593216, -150031.07786549066, -73759.84028099064, -131958.68664487443, 46167.19289626991, -77153.28212419536, 38048.50286823545, -117850.84669004045, 0.046, 0.964, 0.02, 192.0, 0.0, 0.0, 0.0, 0.0, 0.0, 0.0, 0.0, 0.0, 0.0, 1.6664036354008288E9, 0.0, 2022-10-21 18:53:55.400
98.0, -113150.96773516748, -150034.74355158134, -73764.66825779299, -131959.401900697, 46167.148192780995, -77143.93909501303, 38062.24919107547, -117849.6173440954, 0.046, 0.964, 0.02, 192.0, 0.0, 0.0, 0.0, 0.0, 0.0, 0.0, 0.0, 0.0, 0.0, 1.6664036354008412E9, 0.0, 2022-10-21 18:53:55.400
99.0, -113158.58968002674, -150040.68911560645, -73776.76055154331, -131974.69049390443, 46161.6943671339, -77160.36762718769, 38043.87605713321, -117859.49681514464, 0.046, 0.964, 0.02, 192.0, 0.0, 0.0, 0.0, 0.0, 0.0, 0.0, 0.0, 0.0, 0.0, 1.6664036354008532E9, 0.0, 2022-10-21 18:53:55.400
100.0, -113160.13195039415, -150039.79504582824, -73779.91214751151, -131979.6972846624, 46158.38630895452, -77173.55515641632, 38027.6263389142, -117866.20233848123, 0.046, 0.964, 0.02, 192.0, 0.0, 0.0, 0.0, 0.0, 0.0, 0.0, 0.0, 0.0, 0.0, 1.6664036354008648E9, 0.0, 2022-10-21 18:53:55.400
101.0, -113159.93078469406, -150039.43741791695, -73778.50398761082, -131971.53889793623, 46157.82751534313, -77177.95845007402, 38027.51458019192, -117866.78348383708, 0.046, 0.964, 0.02, 192.0, 0.0, 0.0, 0.0, 0.0, 0.0, 0.0, 0.0, 0.0, 0.0, 1.6664036354008772E9, 0.0, 2022-10-21 18:53:55.400
102.0, -113158.29910734882, -150037.78338882726, -73774.97241198688, -131965.36981646655, 46166.254123002785, -77145.74958631392, 38059.58933348529, -117863.02839076858, 0.046, 0.964, 0.02, 192.0, 0.0, 0.0, 0.0, 0.0, 0.0, 0.0, 0.0, 0.0, 0.0, 1.6664036354008932E9, 0.0, 2022-10-21 18:53:55.400
103.0, -113155.05810440281, -150031.83782480215, -73775.50885385381, -131971.60595316958, 46173.250219017296, -77154.89144979614, 38050.29100779188, -117850.89139352935, 0.046, 0.964, 0.02, 192.0, 0.0, 0.0, 0.0, 0.0, 0.0, 0.0, 0.0, 0.0, 0.0, 1.666403635400905E9, 0.0, 2022-10-21 18:53:55.400
104.0, -113157.42738931507, -150029.0662084897, -73777.60991783261, -131971.76241538077, 46171.484431205325, -77158.60183937573, 38038.33282450829, -117848.43270163926, 0.046, 0.964, 0.02, 192.0, 0.0, 0.0, 0.0, 0.0, 0.0, 0.0, 0.0, 0.0, 0.0, 1.6664036354009163E9, 0.0, 2022-10-21 18:53:55.400
105.0, -113160.84720621673, -150031.86017654662, -73779.95685100042, -131971.49419444732, 46164.95772182438, -77154.3103044403, 38043.25020828846, -117852.09838772994, 0.044, 0.962, 0.022, 192.0, 1.0, 96.0, 30.0, 16.0, 0.0, 176.0, 0.0, 0.0, 0.0, 1.6664036354009285E9, 0.0, 2022-10-21 18:53:55.400
106.0, -113163.84233997374, -150037.58222312716, -73781.34265915664, -131972.00828456978, 46159.5933031551, -77147.42596714807, 38056.16951658363, -117859.40740816682, 0.044, 0.962, 0.022, 192.0, 0.0, 0.0, 0.0, 0.0, 0.0, 0.0, 0.0, 0.0, 0.0, 1.6664036354009533E9, 0.0, 2022-10-21 18:53:55.400
107.0, -113160.5566335388, -150034.3635719256, -73782.52730161278, -131976.59039218313, 46156.687576375916, -77148.58825785974, 38055.4319090166, -117866.9175943038, 0.044, 0.962, 0.022, 192.0, 0.0, 0.0, 0.0, 0.0, 0.0, 0.0, 0.0, 0.0, 0.0, 1.6664036354009647E9, 0.0, 2022-10-21 18:53:55.400
108.0, -113156.9580026815, -150027.6133451001, -73780.00155448932, -131976.83626137214, 46159.548599666196, -77170.13533951466, 38033.840123872775, -117862.78252157957, 0.044, 0.962, 0.022, 192.0, 0.0, 0.0, 0.0, 0.0, 0.0, 0.0, 0.0, 0.0, 0.0, 1.6664036354009764E9, 0.0, 2022-10-21 18:53:55.400
109.0, -113157.49444454843, -150028.9097462785, -73776.67114456548, -131968.32024673466, 46165.494163691306, -77162.78161558886, 38038.89161811968, -117860.94967853423, 0.044, 0.962, 0.022, 192.0, 0.0, 0.0, 0.0, 0.0, 0.0, 0.0, 0.0, 0.0, 0.0, 1.6664036354009883E9, 0.0, 2022-10-21 18:53:55.400
110.0, -113161.04837191683, -150031.99428701334, -73781.14149345654, -131972.67883690345, 46160.35326246658, -77158.17715623108, 38046.04417634537, -117864.34714369144, 0.044, 0.962, 0.022, 192.0, 0.0, 0.0, 0.0, 0.0, 0.0, 0.0, 0.0, 0.0, 0.0, 1.666403635401E9, 0.0, 2022-10-21 18:53:55.401
111.0, -113163.35060159572, -150034.20710971442, -73784.04722023573, -131978.155014295, 46161.51555317826, -77163.58627838925, 38044.63601644469, -117867.40933268183, 0.044, 0.962, 0.022, 192.0, 0.0, 0.0, 0.0, 0.0, 0.0, 0.0, 0.0, 0.0, 0.0, 1.6664036354010117E9, 0.0, 2022-10-21 18:53:55.401
112.0, -113163.37295334018, -150033.82713005866, -73782.95198475743, -131982.4018457415, 46166.34352998061, -77181.28885999786, 38023.6253766567, -117866.58231813698, 0.044, 0.962, 0.022, 192.0, 0.0, 0.0, 0.0, 0.0, 0.0, 0.0, 0.0, 0.0, 0.0, 1.666403635401024E9, 0.0, 2022-10-21 18:53:55.401
113.0, -113164.73640975195, -150036.64344986004, -73781.54382485674, -131973.01411307027, 46168.31048349267, -77184.48515945497, 38021.03257429988, -117862.11196924592, 0.044, 0.962, 0.022, 192.0, 0.0, 0.0, 0.0, 0.0, 0.0, 0.0, 0.0, 0.0, 0.0, 1.6664036354010367E9, 0.0, 2022-10-21 18:53:55.401
114.0, -113170.27964237686, -150042.65606911853, -73788.1152377266, -131973.25998225927, 46159.101564777084, -77166.98374354646, 38042.24437978797, -117866.02352452559, 0.04, 0.962, 0.024, 192.0, 1.0, 64.0, 30.0, 16.0, 0.0, 192.0, 0.0, 0.0, 0.0, 1.666403635401049E9, 0.0, 2022-10-21 18:53:55.401
115.0, -113171.39722959964, -150041.38201968456, -73792.25031045084, -131984.5923166981, 46152.53015190722, -77165.8661563237, 38046.80413565685, -117874.65129788534, 0.04, 0.962, 0.024, 192.0, 0.0, 0.0, 0.0, 0.0, 0.0, 0.0, 0.0, 0.0, 0.0, 1.6664036354010613E9, 0.0, 2022-10-21 18:53:55.401
116.0, -113171.3078226218, -150041.58318538466, -73790.32806042768, -131996.41638951498, 46152.50780016277, -77191.01186883592, 38023.558321423334, -117869.75626584963, 0.04, 0.962, 0.024, 192.0, 0.0, 0.0, 0.0, 0.0, 0.0, 0.0, 0.0, 0.0, 0.0, 1.6664036354010727E9, 0.0, 2022-10-21 18:53:55.401
117.0, -113153.73935147993, -150023.32181016466, -73769.58564157315, -131971.09186304713, 46176.02183532975, -77201.00309860744, 38015.8246178418, -117847.4715766277, 0.04, 0.962, 0.024, 192.0, 0.0, 0.0, 0.0, 0.0, 0.0, 0.0, 0.0, 0.0, 0.0, 1.6664036354010844E9, 0.0, 2022-10-21 18:53:55.401
118.0, -113161.1601306391, -150031.83782480215, -73772.42431311897, -131960.13950826402, 46173.13846029502, -77171.49879592644, 38043.18315305509, -117849.34912316194, 0.04, 0.962, 0.024, 192.0, 0.0, 0.0, 0.0, 0.0, 0.0, 0.0, 0.0, 0.0, 0.0, 1.666403635401096E9, 0.0, 2022-10-21 18:53:55.401
119.0, -113167.03863943084, -150037.96220278292, -73777.09582771013, -131976.27746776075, 46165.56121892467, -77142.95561825701, 38067.8371271893, -117858.42393141078, 0.04, 0.962, 0.024, 192.0, 0.0, 0.0, 0.0, 0.0, 0.0, 0.0, 0.0, 0.0, 0.0, 1.666403635401108E9, 0.0, 2022-10-21 18:53:55.401
120.0, -113165.92105220808, -150036.77756032677, -73776.44762712093, -131985.82166264317, 46168.198724770395, -77163.89920281163, 38047.407632757146, -117865.91176580332, 0.04, 0.962, 0.024, 192.0, 0.0, 0.0, 0.0, 0.0, 0.0, 0.0, 0.0, 0.0, 0.0, 1.6664036354011197E9, 0.0, 2022-10-21 18:53:55.401
121.0, -113160.98131668345, -150031.70371433542, -73772.67018230798, -131978.93732535094, 46171.73030039434, -77179.59012741926, 38032.11903954972, -117864.68241985828, 0.04, 0.962, 0.024, 192.0, 0.0, 0.0, 0.0, 0.0, 0.0, 0.0, 0.0, 0.0, 0.0, 1.66640363587855E9, 0.0, 2022-10-21 18:53:55.878
122.0, -113157.98618292644, -150028.4180079005, -73765.74114152684, -131966.77797636724, 46174.88189636253, -77169.218917992, 38048.54757172437, -117851.74075981865, 0.04, 0.962, 0.024, 192.0, 0.0, 0.0, 0.0, 0.0, 0.0, 0.0, 0.0, 0.0, 0.0, 1.6664036358786056E9, 0.0, 2022-10-21 18:53:55.878
123.0, -113158.65673526011, -150028.23919394484, -73768.1104264391, -131967.18030776744, 46171.75265213879, -77158.98181903145, 38065.26667657694, -117859.318001189, 0.04, 0.962, 0.024, 192.0, 0.0, 0.0, 0.0, 0.0, 0.0, 0.0, 0.0, 0.0, 0.0, 1.6664036358786807E9, 0.0, 2022-10-21 18:53:55.878
124.0, -113156.26509860338, -150024.4617491319, -73762.47778683636, -131973.32703749265, 46177.60880918608, -77161.99930453293, 38061.77980444191, -117858.06630349951, 0.04, 0.962, 0.026000000000000002, 192.0, 1.0, 64.0, 30.0, 16.0, 0.0, 208.0, 0.0, 0.0, 0.0, 1.666403635878715E9, 0.0, 2022-10-21 18:53:55.878
125.0, -113154.94634568052, -150024.12647296506, -73757.7615687563, -131973.5952584261, 46181.341550510115, -77186.69798215604, 38036.790554140876, -117853.95358251972, 0.04, 0.962, 0.026000000000000002, 192.0, 0.0, 0.0, 0.0, 0.0, 0.0, 0.0, 0.0, 0.0, 0.0, 1.6664036358787339E9, 0.0, 2022-10-21 18:53:55.878
126.0, -113156.1086363922, -150026.83103404415, -73764.914126982, -131973.32703749265, 46173.11610855057, -77190.49777871344, 38034.3765657397, -117858.78155932207, 0.04, 0.962, 0.026000000000000002, 192.0, 0.0, 0.0, 0.0, 0.0, 0.0, 0.0, 0.0, 0.0, 0.0, 1.66640363587875E9, 0.0, 2022-10-21 18:53:55.878
127.0, -113154.63342125816, -150026.29459217723, -73769.85386250661, -131973.77407238176, 46171.506782949786, -77186.02742982238, 38041.395013498666, -117864.88358555837, 0.04, 0.962, 0.026000000000000002, 192.0, 0.0, 0.0, 0.0, 0.0, 0.0, 0.0, 0.0, 0.0, 0.0, 1.6664036358787656E9, 0.0, 2022-10-21 18:53:55.878
128.0, -113160.5566335388, -150032.30721143572, -73771.4184846185, -131978.06560731717, 46176.53592545223, -77185.17806353308, 38037.37169949671, -117868.7727890936, 0.04, 0.962, 0.026000000000000002, 192.0, 0.0, 0.0, 0.0, 0.0, 0.0, 0.0, 0.0, 0.0, 0.0, 1.6664036358787813E9, 0.0, 2022-10-21 18:53:55.878
129.0, -113160.19900562752, -150031.54725212423, -73770.05502820671, -131979.80904338468, 46176.42416672995, -77191.54831070284, 38025.12294353521, -117867.34227744845, 0.04, 0.962, 0.026000000000000002, 192.0, 0.0, 0.0, 0.0, 0.0, 0.0, 0.0, 0.0, 0.0, 0.0, 1.6664036358787973E9, 0.0, 2022-10-21 18:53:55.878
130.0, -113157.91912769308, -150027.92626952246, -73766.2105281604, -131968.20848801237, 46180.06750107616, -77192.80000839234, 38026.59815866926, -117853.39478890835, 0.04, 0.962, 0.026000000000000002, 192.0, 0.0, 0.0, 0.0, 0.0, 0.0, 0.0, 0.0, 0.0, 0.0, 1.6664036358788133E9, 0.0, 2022-10-21 18:53:55.878
131.0, -113161.67422076158, -150030.74258932384, -73763.19304265894, -131956.56322915116, 46185.677788934445, -77158.60183937573, 38060.416348030136, -117847.3151144165, 0.04, 0.962, 0.026000000000000002, 192.0, 0.0, 0.0, 0.0, 0.0, 0.0, 0.0, 0.0, 0.0, 0.0, 1.6664036358788285E9, 0.0, 2022-10-21 18:53:55.878
132.0, -113165.18344464105, -150031.12256897957, -73767.77515027227, -131967.02384555625, 46181.81093714368, -77161.3064004548, 38057.51062125094, -117850.04202724005, 0.04, 0.962, 0.026000000000000002, 192.0, 0.0, 0.0, 0.0, 0.0, 0.0, 0.0, 0.0, 0.0, 0.0, 1.6664036358788452E9, 0.0, 2022-10-21 18:53:55.878
133.0, -113166.8598254752, -150033.55890912522, -73771.32907764066, -131979.83139512915, 46175.50774520728, -77172.3705139602, 38041.10444082075, -117847.7174458167, 0.04, 0.962, 0.026000000000000002, 192.0, 0.0, 0.0, 0.0, 0.0, 0.0, 0.0, 0.0, 0.0, 0.0, 1.6664036358788607E9, 0.0, 2022-10-21 18:53:55.878
134.0, -113156.57802302577, -150023.70178982042, -73760.84610949113, -131968.70022639039, 46181.92269586596, -77169.2636214809, 38044.256036788945, -117837.52505034508, 0.042, 0.964, 0.03, 192.0, 1.0, 80.0, 30.0, 32.0, 0.0, 240.0, 0.0, 0.0, 0.0, 1.6664036358788831E9, 0.0, 2022-10-21 18:53:55.878
135.0, -113159.55080503832, -150022.9641822534, -73764.19887115943, -131964.05106354368, 46180.67099817646, -77166.29083946835, 38051.20742931455, -117846.55515510502, 0.042, 0.964, 0.03, 192.0, 0.0, 0.0, 0.0, 0.0, 0.0, 0.0, 0.0, 0.0, 0.0, 1.6664036358789003E9, 0.0, 2022-10-21 18:53:55.878
136.0, -113175.04056394585, -150040.17502548397, -73778.2134149329, -131982.22303178586, 46169.875105604544, -77167.52018541339, 38046.982949612495, -117862.58135587948, 0.042, 0.964, 0.03, 192.0, 0.0, 0.0, 0.0, 0.0, 0.0, 0.0, 0.0, 0.0, 0.0, 1.6664036358790655E9, 0.0, 2022-10-21 18:53:55.879
137.0, -113168.64796503163, -150033.49185389184, -73772.08903695215, -131982.02186608576, 46178.39112024202, -77183.79225537686, 38028.22983601449, -117855.96523952071, 0.042, 0.964, 0.03, 192.0, 0.0, 0.0, 0.0, 0.0, 0.0, 0.0, 0.0, 0.0, 0.0, 1.666403635879082E9, 0.0, 2022-10-21 18:53:55.879
138.0, -113163.12708415117, -150025.62403984356, -73765.31645838219, -131971.56124968067, 46182.1015098216, -77181.55708093132, 38031.58259768279, -117851.62900109637, 0.042, 0.964, 0.03, 192.0, 0.0, 0.0, 0.0, 0.0, 0.0, 0.0, 0.0, 0.0, 0.0, 1.666403635879099E9, 0.0, 2022-10-21 18:53:55.879
139.0, -113166.07751441927, -150028.30624917822, -73768.02101946129, -131963.71578737686, 46178.88285862003, -77166.29083946835, 38051.05096710336, -117854.49002438666, 0.042, 0.964, 0.03, 192.0, 0.0, 0.0, 0.0, 0.0, 0.0, 0.0, 0.0, 0.0, 0.0, 1.666403635879116E9, 0.0, 2022-10-21 18:53:55.879
140.0, -113164.60229928522, -150025.82520554366, -73767.77515027227, -131963.89460133252, 46180.55923945418, -77164.1674237451, 38056.59419972828, -117854.24415519765, 0.042, 0.964, 0.03, 192.0, 0.0, 0.0, 0.0, 0.0, 0.0, 0.0, 0.0, 0.0, 0.0, 1.6664036358791313E9, 0.0, 2022-10-21 18:53:55.879
141.0, -113161.1601306391, -150021.53367060825, -73759.88498447955, -131965.52627867775, 46188.38235001354, -77189.4695984685, 38032.83429537228, -117847.04689348304, 0.042, 0.964, 0.03, 192.0, 0.0, 0.0, 0.0, 0.0, 0.0, 0.0, 0.0, 0.0, 0.0, 1.6664036358791473E9, 0.0, 2022-10-21 18:53:55.879
142.0, -113177.45455234702, -150038.07396150517, -73771.39613287403, -131978.155014295, 46177.83232663063, -77202.2771480414, 38017.47864693149, -117861.50847214562, 0.042, 0.964, 0.03, 192.0, 0.0, 0.0, 0.0, 0.0, 0.0, 0.0, 0.0, 0.0, 0.0, 1.666403635879163E9, 0.0, 2022-10-21 18:53:55.879
143.0, -113178.08040119176, -150038.07396150517, -73773.94423174193, -131974.69049390443, 46178.14525105301, -77184.48515945497, 38038.28812101938, -117862.24607971264, 0.042, 0.962, 0.032, 192.0, 1.0, 80.0, 30.0, 16.0, 1.0, 0.0, 0.0, 0.0, 0.0, 1.6664036358791783E9, 0.0, 2022-10-21 18:53:55.879
144.0, -113169.63144178766, -150032.30721143572, -73768.22218516137, -131964.76631936626, 46188.51646048027, -77173.80102560532, 38056.43773751709, -117850.64552434035, 0.042, 0.962, 0.032, 192.0, 0.0, 0.0, 0.0, 0.0, 0.0, 0.0, 0.0, 0.0, 0.0, 1.6664036358791947E9, 0.0, 2022-10-21 18:53:55.879
145.0, -113168.69266852054, -150030.87669979056, -73763.61772580359, -131971.00245606928, 46188.8517366471, -77193.40350549264, 38039.517466964426, -117840.20725967971, 0.042, 0.962, 0.032, 192.0, 0.0, 0.0, 0.0, 0.0, 0.0, 0.0, 0.0, 0.0, 0.0, 1.6664036358792107E9, 0.0, 2022-10-21 18:53:55.879
146.0, -113170.48080807696, -150032.77659806926, -73766.32228688269, -131971.11421479157, 46187.085948835134, -77200.06432534031, 38028.07337380331, -117838.03914046755, 0.042, 0.962, 0.032, 192.0, 0.0, 0.0, 0.0, 0.0, 0.0, 0.0, 0.0, 0.0, 0.0, 1.666403635879226E9, 0.0, 2022-10-21 18:53:55.879
147.0, -113172.38070635566, -150035.43645565945, -73768.73627528385, -131963.84989784358, 46192.89740239351, -77181.75824663142, 38044.21133330004, -117836.27335265558, 0.042, 0.962, 0.032, 192.0, 0.0, 0.0, 0.0, 0.0, 0.0, 0.0, 0.0, 0.0, 0.0, 1.6664036358792424E9, 0.0, 2022-10-21 18:53:55.879
148.0, -113180.15911342611, -150043.10310400763, -73777.07347596568, -131967.89556359002, 46185.72249242336, -77166.58141214626, 38058.181173584606, -117851.98662900766, 0.042, 0.962, 0.032, 192.0, 0.0, 0.0, 0.0, 0.0, 0.0, 0.0, 0.0, 0.0, 0.0, 1.6664036358792582E9, 0.0, 2022-10-21 18:53:55.879
149.0, -113184.24948266143, -150044.28774646376, -73782.16967370149, -131979.47376721786, 46182.45913773288, -77176.46088319551, 38048.18994381308, -117857.95454477723, 0.042, 0.962, 0.032, 192.0, 0.0, 0.0, 0.0, 0.0, 0.0, 0.0, 0.0, 0.0, 0.0, 1.666403635879274E9, 0.0, 2022-10-21 18:53:55.879
150.0, -113179.466209348, -150039.48212140586, -73773.00545847481, -131972.45531945888, 46194.41732101647, -77186.54151994485, 38035.00241458445, -117844.27527717059, 0.042, 0.962, 0.032, 192.0, 0.0, 0.0, 0.0, 0.0, 0.0, 0.0, 0.0, 0.0, 0.0, 1.6664036358792903E9, 0.0, 2022-10-21 18:53:55.879
151.0, -113172.04543018884, -150032.08369399115, -73763.52831882576, -131955.62445588404, 46201.92750715346, -77180.19362451955, 38043.630187944196, -117838.88850675685, 0.042, 0.962, 0.032, 192.0, 0.0, 0.0, 0.0, 0.0, 0.0, 0.0, 0.0, 0.0, 0.0, 1.6664036358793466E9, 0.0, 2022-10-21 18:53:55.879
152.0, -113180.42733435957, -150041.15850224002, -73766.43404560495, -131962.73231062084, 46193.18797507143, -77173.6669151386, 38055.498964249964, -117845.10229171543, 0.042, 0.962, 0.032, 192.0, 0.0, 0.0, 0.0, 0.0, 0.0, 0.0, 0.0, 0.0, 0.0, 1.6664036358793628E9, 0.0, 2022-10-21 18:53:55.879
153.0, -113177.99099421395, -150038.74451383884, -73764.24357464834, -131969.52724093525, 46195.49020475033, -77192.91176711462, 38040.16566755363, -117840.22961142418, 0.044, 0.964, 0.028, 192.0, 1.0, 96.0, 30.0, 32.0, 0.0, 224.0, 0.0, 0.0, 0.0, 1.6664036358793783E9, 0.0, 2022-10-21 18:53:55.879
154.0, -113178.59449131424, -150042.32079295168, -73772.53607184126, -131971.87417410305, 46195.1549285835, -77200.6231189517, 38024.474742946004, -117841.77188179159, 0.044, 0.964, 0.028, 192.0, 0.0, 0.0, 0.0, 0.0, 0.0, 0.0, 0.0, 0.0, 0.0, 1.6664036358793952E9, 0.0, 2022-10-21 18:53:55.879
155.0, -113184.22713091697, -150049.24983373284, -73780.5156446118, -131970.89069734703, 46187.935315124436, -77202.23244455249, 38024.63120515719, -117846.93513476076, 0.044, 0.964, 0.028, 192.0, 0.0, 0.0, 0.0, 0.0, 0.0, 0.0, 0.0, 0.0, 0.0, 1.6664036358794107E9, 0.0, 2022-10-21 18:53:55.879
156.0, -113184.85297976172, -150049.78627559976, -73783.33196441317, -131966.68856938943, 46184.51549822277, -77179.94775533053, 38051.52035373692, -117857.32869593248, 0.044, 0.964, 0.028, 192.0, 0.0, 0.0, 0.0, 0.0, 0.0, 0.0, 0.0, 0.0, 0.0, 1.6664036358794286E9, 0.0, 2022-10-21 18:53:55.879
157.0, -113188.89864550813, -150050.3674209556, -73788.78579006027, -131974.6457904155, 46182.07915807714, -77175.1644820171, 38058.315284051336, -117858.13335873287, 0.044, 0.964, 0.028, 192.0, 0.0, 0.0, 0.0, 0.0, 0.0, 0.0, 0.0, 0.0, 0.0, 1.666403635879445E9, 0.0, 2022-10-21 18:53:55.879
158.0, -113180.7626105264, -150041.44907491794, -73776.17940618747, -131972.65648515898, 46197.345399540114, -77182.20528152052, 38046.93824612359, -117832.96529447619, 0.044, 0.964, 0.028, 192.0, 0.0, 0.0, 0.0, 0.0, 0.0, 0.0, 0.0, 0.0, 0.0, 1.6664036358794603E9, 0.0, 2022-10-21 18:53:55.879
159.0, -113179.39915411462, -150042.54431039625, -73776.89466201003, -131966.44270020042, 46197.077178606654, -77191.97299384749, 38036.41057448513, -117834.14993693233, 0.044, 0.964, 0.028, 192.0, 0.0, 0.0, 0.0, 0.0, 0.0, 0.0, 0.0, 0.0, 0.0, 1.666403635879476E9, 0.0, 2022-10-21 18:53:55.879
160.0, -113178.79565701434, -150042.85723481863, -73779.28629866676, -131959.02192104125, 46193.47854774935, -77175.92444132858, 38059.52227825192, -117844.34233240395, 0.044, 0.964, 0.028, 192.0, 0.0, 0.0, 0.0, 0.0, 0.0, 0.0, 0.0, 0.0, 0.0, 1.6664036358794916E9, 0.0, 2022-10-21 18:53:55.879
161.0, -113180.04735470383, -150043.43838017446, -73779.84509227813, -131969.95192407988, 46191.08691109263, -77181.28885999786, 38062.69622596457, -117847.60568709442, 0.044, 0.964, 0.028, 192.0, 0.0, 0.0, 0.0, 0.0, 0.0, 0.0, 0.0, 0.0, 0.0, 1.6664036358795073E9, 0.0, 2022-10-21 18:53:55.879
162.0, -113177.99099421395, -150039.70563885043, -73776.7158480544, -131970.84599385812, 46199.20059432991, -77199.19260730656, 38045.731251922996, -117851.85251854092, 0.044, 0.964, 0.028, 192.0, 0.0, 0.0, 0.0, 0.0, 0.0, 0.0, 0.0, 0.0, 0.0, 1.6664036358795223E9, 0.0, 2022-10-21 18:53:55.879
163.0, -113179.15328492562, -150039.83974931715, -73773.09486545263, -131965.03454029973, 46198.820614674165, -77197.9185578726, 38044.81483040033, -117847.5162801166, 0.036000000000000004, 0.962, 0.032, 192.0, 1.0, 32.0, 30.0, 16.0, 1.0, 0.0, 0.0, 0.0, 0.0, 1.6664036358795376E9, 0.0, 2022-10-21 18:53:55.879
164.0, -113186.03762221786, -150045.04770577524, -73775.2629846648, -131960.8994675755, 46197.83713791813, -77182.98759257646, 38061.69039746409, -117843.33650390345, 0.036000000000000004, 0.962, 0.032, 192.0, 0.0, 0.0, 0.0, 0.0, 0.0, 0.0, 0.0, 0.0, 0.0, 1.666403635879554E9, 0.0, 2022-10-21 18:53:55.879
165.0, -113186.10467745122, -150046.38881044256, -73777.29699341023, -131960.58654315313, 46199.40176003001, -77168.88364182516, 38076.978990671516, -117846.53280336056, 0.036000000000000004, 0.962, 0.032, 192.0, 0.0, 0.0, 0.0, 0.0, 0.0, 0.0, 0.0, 0.0, 0.0, 1.6664036358795695E9, 0.0, 2022-10-21 18:53:55.879
166.0, -113171.59839529973, -150030.89905153503, -73766.92578398297, -131952.15993549346, 46213.170434614476, -77184.84278736624, 38060.72927245251, -117839.98374223516, 0.036000000000000004, 0.962, 0.032, 192.0, 0.0, 0.0, 0.0, 0.0, 0.0, 0.0, 0.0, 0.0, 0.0, 1.6664036358796213E9, 0.0, 2022-10-21 18:53:55.879
167.0, -113172.06778193329, -150030.87669979056, -73766.18817641595, -131943.0404237557, 46217.841949205635, -77193.2693950259, 38050.201600814056, -117837.14507068934, 0.036000000000000004, 0.962, 0.032, 192.0, 0.0, 0.0, 0.0, 0.0, 0.0, 0.0, 0.0, 0.0, 0.0, 1.6664036358796365E9, 0.0, 2022-10-21 18:53:55.879
168.0, -113179.2650436479, -150038.69981034994, -73770.8149875182, -131953.0987087606, 46211.87403343607, -77180.46184545301, 38065.221973088024, -117830.10427118592, 0.036000000000000004, 0.962, 0.032, 192.0, 0.0, 0.0, 0.0, 0.0, 0.0, 0.0, 0.0, 0.0, 0.0, 1.6664036358796523E9, 0.0, 2022-10-21 18:53:55.879
169.0, -113183.98126172797, -150043.05840051873, -73774.83830152015, -131962.03940654272, 46207.29192582273, -77168.92834531407, 38079.571793028335, -117828.65140779632, 0.036000000000000004, 0.962, 0.032, 192.0, 0.0, 0.0, 0.0, 0.0, 0.0, 0.0, 0.0, 0.0, 0.0, 1.6664036358796675E9, 0.0, 2022-10-21 18:53:55.879
170.0, -113188.65277631913, -150046.63467963156, -73783.2649091798, -131970.22014501336, 46202.97803914286, -77185.71450540001, 38062.15978409765, -117843.18004169226, 0.036000000000000004, 0.962, 0.032, 192.0, 0.0, 0.0, 0.0, 0.0, 0.0, 0.0, 0.0, 0.0, 0.0, 1.666403635879683E9, 0.0, 2022-10-21 18:53:55.879
171.0, -113181.74608728243, -150040.33148769516, -73778.05695272172, -131964.38633971053, 46209.54945201272, -77194.85636888223, 38053.59906597126, -117834.7087305437, 0.036000000000000004, 0.962, 0.032, 192.0, 0.0, 0.0, 0.0, 0.0, 0.0, 0.0, 0.0, 0.0, 0.0, 1.6664036358796985E9, 0.0, 2022-10-21 18:53:55.879
172.0, -113180.74025878195, -150038.25277546083, -73776.76055154331, -131957.16672625145, 46204.87793742156, -77188.64258392365, 38061.310417808345, -117842.4647858697, 0.038, 0.9580000000000001, 0.03, 192.0, 1.0, 48.0, 29.0, 240.0, 0.0, 240.0, 0.0, 0.0, 0.0, 1.6664036358797138E9, 0.0, 2022-10-21 18:53:55.879
173.0, -113181.8131425158, -150037.02342951577, -73778.45928412191, -131952.4505081714, 46203.648591476514, -77181.51237744241, 38075.54847902638, -117844.87877427087, 0.038, 0.9580000000000001, 0.03, 192.0, 0.0, 0.0, 0.0, 0.0, 0.0, 0.0, 0.0, 0.0, 0.0, 1.6664036358797305E9, 0.0, 2022-10-21 18:53:55.879
174.0, -113183.17659892757, -150038.99038302785, -73780.02390623378, -131958.21725824085, 46206.442559533425, -77186.02742982238, 38071.81573770234, -117840.98957073565, 0.038, 0.9580000000000001, 0.03, 192.0, 0.0, 0.0, 0.0, 0.0, 0.0, 0.0, 0.0, 0.0, 0.0, 1.666403635879746E9, 0.0, 2022-10-21 18:53:55.879
175.0, -113179.48856109245, -150037.13518823805, -73774.45832186441, -131955.46799367285, 46214.824463704164, -77202.85829339724, 38054.42608051611, -117836.85449801142, 0.038, 0.9580000000000001, 0.03, 192.0, 0.0, 0.0, 0.0, 0.0, 0.0, 0.0, 0.0, 0.0, 0.0, 1.6664036358797622E9, 0.0, 2022-10-21 18:53:55.879
176.0, -113190.17269494208, -150049.67451687748, -73781.34265915664, -131950.66236861495, 46209.61650724608, -77180.46184545301, 38073.80504295886, -117840.98957073565, 0.038, 0.9580000000000001, 0.03, 192.0, 0.0, 0.0, 0.0, 0.0, 0.0, 0.0, 0.0, 0.0, 0.0, 1.666403635879776E9, 0.0, 2022-10-21 18:53:55.879
177.0, -113196.87821827868, -150056.29063323626, -73788.67403133799, -131956.6973396179, 46200.34053329713, -77167.8107580913, 38092.133473412214, -117852.65718134132, 0.038, 0.9580000000000001, 0.03, 192.0, 0.0, 0.0, 0.0, 0.0, 0.0, 0.0, 0.0, 0.0, 0.0, 1.666403635879791E9, 0.0, 2022-10-21 18:53:55.879
178.0, -113188.98805248596, -150049.74157211086, -73783.08609522416, -131957.03261578473, 46208.118940367574, -77186.85444436723, 38084.53388029741, -117837.99443697864, 0.038, 0.9580000000000001, 0.03, 192.0, 0.0, 0.0, 0.0, 0.0, 0.0, 0.0, 0.0, 0.0, 0.0, 1.6664036358798044E9, 0.0, 2022-10-21 18:53:55.879
179.0, -113193.63721533267, -150054.23427274637, -73788.15994121552, -131961.41355769796, 46207.20251884491, -77204.73583993147, 38065.19962134357, -117838.84380326794, 0.038, 0.9580000000000001, 0.03, 192.0, 0.0, 0.0, 0.0, 0.0, 0.0, 0.0, 0.0, 0.0, 0.0, 1.666403635879819E9, 0.0, 2022-10-21 18:53:55.879
180.0, -113194.84420953324, -150053.1613890125, -73786.14828421453, -131954.01513028325, 46209.43769329044, -77186.3180025003, 38080.44351106209, -117846.68926557175, 0.038, 0.9580000000000001, 0.03, 192.0, 0.0, 0.0, 0.0, 0.0, 0.0, 0.0, 0.0, 0.0, 0.0, 1.666403635879833E9, 0.0, 2022-10-21 18:53:55.879
181.0, -113190.97735774248, -150050.63564188906, -73780.53799635626, -131946.28142670172, 46215.02562940426, -77187.92732810108, 38090.63590653371, -117848.320942917, 0.038, 0.9580000000000001, 0.03, 192.0, 0.0, 0.0, 0.0, 0.0, 0.0, 0.0, 0.0, 0.0, 0.0, 1.6664036358798912E9, 0.0, 2022-10-21 18:53:55.879
182.0, -113194.62069208869, -150052.33437446767, -73785.76830455879, -131955.89267681752, 46208.543623512225, -77204.13234283119, 38081.29287735139, -117853.50654763062, 0.042, 0.96, 0.032, 192.0, 1.0, 80.0, 30.0, 0.0, 1.0, 0.0, 0.0, 0.0, 0.0, 1.6664036358799052E9, 0.0, 2022-10-21 18:53:55.879
183.0, -113187.17756118508, -150046.05353427574, -73779.21924343338, -131958.1949064964, 46216.41143756049, -77234.86599145723, 38047.78761241289, -117836.87684975588, 0.042, 0.96, 0.032, 192.0, 0.0, 0.0, 0.0, 0.0, 0.0, 0.0, 0.0, 0.0, 0.0, 1.6664036358799195E9, 0.0, 2022-10-21 18:53:55.879
184.0, -113186.26113966241, -150045.22651973087, -73776.53703409876, -131941.20758071038, 46225.955632442914, -77218.14688660466, 38056.348330539266, -117830.66306479729, 0.042, 0.96, 0.032, 192.0, 0.0, 0.0, 0.0, 0.0, 0.0, 0.0, 0.0, 0.0, 0.0, 1.666403635879933E9, 0.0, 2022-10-21 18:53:55.879
185.0, -113184.89768325063, -150042.8125313297, -73775.88883350955, -131935.396127152, 46223.67575450847, -77190.65424092463, 38083.885679708204, -117831.73594853115, 0.042, 0.96, 0.032, 192.0, 0.0, 0.0, 0.0, 0.0, 0.0, 0.0, 0.0, 0.0, 0.0, 1.6664036358799465E9, 0.0, 2022-10-21 18:53:55.879
186.0, -113189.94917749753, -150048.57928139917, -73787.60114760413, -131954.70803436136, 46211.963440413885, -77193.55996770383, 38081.20347037357, -117845.57167834899, 0.042, 0.96, 0.032, 192.0, 0.0, 0.0, 0.0, 0.0, 0.0, 0.0, 0.0, 0.0, 0.0, 1.6664036358799603E9, 0.0, 2022-10-21 18:53:55.879
187.0, -113190.84324727574, -150047.6181563876, -73791.0656679947, -131966.39799671152, 46206.66607697798, -77210.97197663451, 38062.42800503111, -117848.79032955055, 0.042, 0.96, 0.032, 192.0, 0.0, 0.0, 0.0, 0.0, 0.0, 0.0, 0.0, 0.0, 0.0, 1.6664036358799732E9, 0.0, 2022-10-21 18:53:55.879
188.0, -113203.44963114854, -150061.8115141167, -73797.01123201981, -131972.61178167007, 46192.8526989046, -77213.16244759112, 38059.76814744093, -117852.54542261905, 0.042, 0.96, 0.032, 192.0, 0.0, 0.0, 0.0, 0.0, 0.0, 0.0, 0.0, 0.0, 0.0, 1.6664036358799868E9, 0.0, 2022-10-21 18:53:55.879
189.0, -113201.32621542529, -150057.7211448814, -73793.63611860706, -131967.53793567873, 46194.484376249835, -77208.60269172225, 38072.575697013825, -117854.84765229795, 0.042, 0.96, 0.032, 192.0, 0.0, 0.0, 0.0, 0.0, 0.0, 0.0, 0.0, 0.0, 0.0, 1.6664036358800004E9, 0.0, 2022-10-21 18:53:55.880
190.0, -113180.53909308185, -150034.90001379253, -73771.64200206305, -131945.67792960143, 46220.52415854027, -77194.78931364886, 38092.04406643439, -117830.43954735274, 0.042, 0.96, 0.032, 192.0, 0.0, 0.0, 0.0, 0.0, 0.0, 0.0, 0.0, 0.0, 0.0, 1.666403635880014E9, 0.0, 2022-10-21 18:53:55.880
191.0, -113182.46134310501, -150037.06813300468, -73776.7158480544, -131949.20950522536, 46217.95370792791, -77202.38890676366, 38082.76809248544, -117835.312227644, 0.042, 0.96, 0.032, 192.0, 0.0, 0.0, 0.0, 0.0, 0.0, 0.0, 0.0, 0.0, 0.0, 1.6664036358800273E9, 0.0, 2022-10-21 18:53:55.880
192.0, -113185.34471813974, -150040.91263305102, -73778.39222888854, -131939.46414464284, 46219.47362655087, -77196.57745320529, 38086.612592531754, -117833.72525378768, 0.046, 0.962, 0.026000000000000002, 192.0, 1.0, 112.0, 30.0, 16.0, 0.0, 208.0, 0.0, 0.0, 0.0, 1.6664036358800406E9, 0.0, 2022-10-21 18:53:55.880
193.0, -113185.27766290637, -150038.34218243865, -73778.39222888854, -131942.5039818888, 46215.897347438025, -77204.0205841089, 38085.3385430978, -117832.51825958709, 0.046, 0.962, 0.026000000000000002, 192.0, 0.0, 0.0, 0.0, 0.0, 0.0, 0.0, 0.0, 0.0, 0.0, 1.666403635880055E9, 0.0, 2022-10-21 18:53:55.880
194.0, -113198.4204886461, -150049.45099943294, -73794.19491221845, -131958.08314777413, 46204.073274621165, -77199.34906951775, 38090.92647921163, -117846.0187132381, 0.046, 0.962, 0.026000000000000002, 192.0, 0.0, 0.0, 0.0, 0.0, 0.0, 0.0, 0.0, 0.0, 0.0, 1.6664036358800683E9, 0.0, 2022-10-21 18:53:55.880
195.0, -113197.66052933462, -150049.42864768847, -73792.42912440648, -131967.13560427853, 46203.46977752087, -77206.25575855444, 38082.365761085246, -117847.53863186105, 0.046, 0.962, 0.026000000000000002, 192.0, 0.0, 0.0, 0.0, 0.0, 0.0, 0.0, 0.0, 0.0, 0.0, 1.666403635880082E9, 0.0, 2022-10-21 18:53:55.880
196.0, -113192.38551764317, -150044.37715344157, -73785.32126966969, -131967.67204614545, 46208.610678745594, -77222.75134596245, 38065.44549053258, -117843.18004169226, 0.046, 0.962, 0.026000000000000002, 192.0, 0.0, 0.0, 0.0, 0.0, 0.0, 0.0, 0.0, 0.0, 0.0, 1.6664036358801088E9, 0.0, 2022-10-21 18:53:55.880
197.0, -113191.75966879842, -150043.39367668555, -73783.28726092426, -131960.16186000846, 46209.907079924, -77206.41222076562, 38081.24817386248, -117845.57167834899, 0.046, 0.962, 0.026000000000000002, 192.0, 0.0, 0.0, 0.0, 0.0, 0.0, 0.0, 0.0, 0.0, 0.0, 1.666403635880122E9, 0.0, 2022-10-21 18:53:55.880
198.0, -113193.10077346573, -150044.73478135286, -73785.81300804771, -131962.15116526498, 46206.21904208887, -77192.55413920333, 38101.655316550175, -117846.30928591601, 0.046, 0.962, 0.026000000000000002, 192.0, 0.0, 0.0, 0.0, 0.0, 0.0, 0.0, 0.0, 0.0, 0.0, 1.6664036358801367E9, 0.0, 2022-10-21 18:53:55.880
199.0, -113191.04441297584, -150042.1643307405, -73785.47773188088, -131967.51558393426, 46206.82253918917, -77206.59103472126, 38091.932307712115, -117844.14116670385, 0.046, 0.962, 0.026000000000000002, 192.0, 0.0, 0.0, 0.0, 0.0, 0.0, 0.0, 0.0, 0.0, 0.0, 1.6664036358801503E9, 0.0, 2022-10-21 18:53:55.880
200.0, -113191.87142752069, -150040.37619118407, -73782.48259812387, -131965.63803740003, 46210.66703923548, -77225.43355529709, 38071.36870281323, -117849.1703092063, 0.046, 0.962, 0.026000000000000002, 192.0, 0.0, 0.0, 0.0, 0.0, 0.0, 0.0, 0.0, 0.0, 0.0, 1.6664036358801637E9, 0.0, 2022-10-21 18:53:55.880
201.0, -113192.74314555444, -150041.13615049556, -73781.72263881238, -131960.43008094194, 46210.354114813104, -77229.97095942151, 38070.00524640146, -117841.83893702495, 0.046, 0.962, 0.026000000000000002, 192.0, 0.0, 0.0, 0.0, 0.0, 0.0, 0.0, 0.0, 0.0, 0.0, 1.6664036358801768E9, 0.0, 2022-10-21 18:53:55.880
202.0, -113194.44187813305, -150042.83488307416, -73791.915034284, -131963.22404899885, 46205.03439963274, -77210.2790725564, 38093.340467612805, -117848.41034989481, 0.044, 0.9580000000000001, 0.038, 192.0, 1.0, 96.0, 29.0, 240.0, 1.0, 48.0, 0.0, 0.0, 0.0, 1.666403635880191E9, 0.0, 2022-10-21 18:53:55.880
203.0, -113184.85297976172, -150031.54725212423, -73788.89754878254, -131967.22501125635, 46208.901251423515, -77203.41708700861, 38103.30934563987, -117844.5658498485, 0.044, 0.9580000000000001, 0.038, 192.0, 0.0, 0.0, 0.0, 0.0, 0.0, 0.0, 0.0, 0.0, 0.0, 1.6664036358802056E9, 0.0, 2022-10-21 18:53:55.880
204.0, -113190.99970948693, -150035.57056612617, -73782.90728126852, -131964.38633971053, 46215.09268463763, -77224.69594773007, 38081.96342968505, -117839.3131899015, 0.044, 0.9580000000000001, 0.038, 192.0, 0.0, 0.0, 0.0, 0.0, 0.0, 0.0, 0.0, 0.0, 0.0, 1.6664036358802192E9, 0.0, 2022-10-21 18:53:55.880
205.0, -113197.59347410125, -150041.91846155148, -73777.96754574389, -131954.97625529484, 46221.93231844096, -77232.13907863369, 38077.02369416043, -117824.69514902773, 0.044, 0.9580000000000001, 0.038, 192.0, 0.0, 0.0, 0.0, 0.0, 0.0, 0.0, 0.0, 0.0, 0.0, 1.6664036358802323E9, 0.0, 2022-10-21 18:53:55.880
206.0, -113196.52059036739, -150041.35966794012, -73780.80621728972, -131948.53895289171, 46220.25593760681, -77215.75524994794, 38095.10625542477, -117832.13827993134, 0.044, 0.9580000000000001, 0.038, 192.0, 0.0, 0.0, 0.0, 0.0, 0.0, 0.0, 0.0, 0.0, 0.0, 1.6664036358802457E9, 0.0, 2022-10-21 18:53:55.880
207.0, -113202.28734043686, -150047.90872906553, -73786.79648480374, -131955.8032698397, 46212.54458576973, -77218.50451451594, 38093.09459842379, -117844.34233240395, 0.044, 0.9580000000000001, 0.038, 192.0, 0.0, 0.0, 0.0, 0.0, 0.0, 0.0, 0.0, 0.0, 0.0, 1.666403635880259E9, 0.0, 2022-10-21 18:53:55.880
208.0, -113209.3728434292, -150054.54719716875, -73789.85867379412, -131962.06175828716, 46211.561109013695, -77238.41991882562, 38069.66997023463, -117843.58237309246, 0.044, 0.9580000000000001, 0.038, 192.0, 0.0, 0.0, 0.0, 0.0, 0.0, 0.0, 0.0, 0.0, 0.0, 1.6664036358802724E9, 0.0, 2022-10-21 18:53:55.880
209.0, -113200.90153228064, -150043.25956621883, -73782.19202544594, -131946.28142670172, 46221.9099666965, -77240.94566594907, 38066.80894694435, -117831.95946597571, 0.044, 0.9580000000000001, 0.038, 192.0, 0.0, 0.0, 0.0, 0.0, 0.0, 0.0, 0.0, 0.0, 0.0, 1.6664036358802855E9, 0.0, 2022-10-21 18:53:55.880
210.0, -113209.46225040701, -150050.8144558447, -73787.77996155978, -131960.16186000846, 46211.8069782027, -77237.65995951415, 38076.263734848944, -117842.57654459198, 0.044, 0.9580000000000001, 0.038, 192.0, 0.0, 0.0, 0.0, 0.0, 0.0, 0.0, 0.0, 0.0, 0.0, 1.666403635880299E9, 0.0, 2022-10-21 18:53:55.880
211.0, -113214.78196558738, -150057.38586871457, -73789.63515634957, -131967.96261882337, 46210.82350144667, -77242.51028806095, 38077.22485986052, -117845.12464345989, 0.044, 0.9540000000000001, 0.032, 192.0, 1.0, 96.0, 29.0, 208.0, 1.0, 0.0, 0.0, 0.0, 0.0, 1.6664036358803241E9, 0.0, 2022-10-21 18:53:55.880
212.0, -113214.53609639837, -150057.18470301447, -73789.5681011162, -131967.26971474526, 46218.84777770612, -77245.2372008845, 38068.84295568978, -117833.92641948778, 0.044, 0.9540000000000001, 0.032, 192.0, 0.0, 0.0, 0.0, 0.0, 0.0, 0.0, 0.0, 0.0, 0.0, 1.6664036358803384E9, 0.0, 2022-10-21 18:53:55.880
213.0, -113217.24065747746, -150060.9174443385, -73792.25031045084, -131965.90625833347, 46218.132521883555, -77242.19736363857, 38065.75841495495, -117841.32484690248, 0.044, 0.9540000000000001, 0.032, 192.0, 0.0, 0.0, 0.0, 0.0, 0.0, 0.0, 0.0, 0.0, 0.0, 1.6664036358803523E9, 0.0, 2022-10-21 18:53:55.880
214.0, -113215.40781443212, -150058.3693454706, -73793.9713947739, -131959.51365941926, 46212.99162065883, -77240.00689268195, 38073.760339469954, -117852.5677743635, 0.044, 0.9540000000000001, 0.032, 192.0, 0.0, 0.0, 0.0, 0.0, 0.0, 0.0, 0.0, 0.0, 0.0, 1.6664036358803656E9, 0.0, 2022-10-21 18:53:55.880
215.0, -113220.90634356813, -150065.00781357381, -73798.26292970931, -131957.59140939612, 46212.16460611398, -77226.08175588629, 38089.31715361085, -117855.16057672031, 0.044, 0.9540000000000001, 0.032, 192.0, 0.0, 0.0, 0.0, 0.0, 0.0, 0.0, 0.0, 0.0, 0.0, 1.6664036358803787E9, 0.0, 2022-10-21 18:53:55.880
216.0, -113228.05890179383, -150074.1273253116, -73804.9684530459, -131973.57290668166, 46207.67190547847, -77223.48895352948, 38087.461958821055, -117854.13239647537, 0.044, 0.9540000000000001, 0.032, 192.0, 0.0, 0.0, 0.0, 0.0, 0.0, 0.0, 0.0, 0.0, 0.0, 1.6664036358803923E9, 0.0, 2022-10-21 18:53:55.880
217.0, -113217.08419526627, -150061.49858969435, -73795.55836863023, -131972.7011886479, 46213.438655547936, -77260.6375528142, 38054.02374911591, -117839.5590590905, 0.044, 0.9540000000000001, 0.032, 192.0, 0.0, 0.0, 0.0, 0.0, 0.0, 0.0, 0.0, 0.0, 0.0, 1.6664036358804064E9, 0.0, 2022-10-21 18:53:55.880
218.0, -113217.48652666647, -150061.87856935008, -73797.34650818665, -131960.07245303065, 46214.08685613714, -77257.39654986818, 38056.996531128476, -117841.2130881802, 0.044, 0.9540000000000001, 0.032, 192.0, 0.0, 0.0, 0.0, 0.0, 0.0, 0.0, 0.0, 0.0, 0.0, 1.6664036358804204E9, 0.0, 2022-10-21 18:53:55.880
219.0, -113219.87816332318, -150065.90188335202, -73800.67691811049, -131970.66717990246, 46207.560146756194, -77237.8834769587, 38074.453243548065, -117849.32677141747, 0.044, 0.9540000000000001, 0.032, 192.0, 0.0, 0.0, 0.0, 0.0, 0.0, 0.0, 0.0, 0.0, 0.0, 1.6664036358804338E9, 0.0, 2022-10-21 18:53:55.880
220.0, -113212.65854986412, -150057.8552553481, -73792.47382789539, -131973.57290668166, 46215.606774760105, -77242.86791597222, 38068.172403356126, -117843.40355913683, 0.044, 0.9540000000000001, 0.032, 192.0, 0.0, 0.0, 0.0, 0.0, 0.0, 0.0, 0.0, 0.0, 0.0, 1.6664036358804488E9, 0.0, 2022-10-21 18:53:55.880
221.0, -113210.53513414087, -150055.35185996915, -73790.6633365945, -131970.89069734703, 46220.702972495914, -77259.40820686915, 38050.29100779188, -117838.9108585013, 0.044, 0.96, 0.028, 192.0, 1.0, 96.0, 30.0, 0.0, 0.0, 224.0, 0.0, 0.0, 0.0, 1.666403635880462E9, 0.0, 2022-10-21 18:53:55.880
222.0, -113214.8713725652, -150059.19636001546, -73795.08898199665, -131965.03454029973, 46217.88665269454, -77243.5831717948, 38062.651522475666, -117839.22378292368, 0.044, 0.96, 0.028, 192.0, 0.0, 0.0, 0.0, 0.0, 0.0, 0.0, 0.0, 0.0, 0.0, 1.6664036358804762E9, 0.0, 2022-10-21 18:53:55.880
223.0, -113221.62159939071, -150063.8678746066, -73797.34650818665, -131968.43200545694, 46214.93622242645, -77221.56670350632, 38087.97604894353, -117838.37441663438, 0.044, 0.96, 0.028, 192.0, 0.0, 0.0, 0.0, 0.0, 0.0, 0.0, 0.0, 0.0, 0.0, 1.6664036358804896E9, 0.0, 2022-10-21 18:53:55.880
224.0, -113222.89564882466, -150064.00198507332, -73800.45340066594, -131978.155014295, 46214.15391137051, -77226.66290124213, 38084.332714597316, -117839.7602247906, 0.044, 0.96, 0.028, 192.0, 0.0, 0.0, 0.0, 0.0, 0.0, 0.0, 0.0, 0.0, 0.0, 1.6664036358805032E9, 0.0, 2022-10-21 18:53:55.880
225.0, -113216.726567355, -150056.5588541697, -73795.40190641904, -131978.35617999508, 46216.63495500505, -77239.49280255947, 38069.80408070136, -117850.6678760848, 0.044, 0.96, 0.028, 192.0, 0.0, 0.0, 0.0, 0.0, 0.0, 0.0, 0.0, 0.0, 0.0, 1.666403635880518E9, 0.0, 2022-10-21 18:53:55.880
226.0, -113201.50502938093, -150040.68911560645, -73778.43693237746, -131949.7012436034, 46233.085838924155, -77237.81642172532, 38076.50960403796, -117831.26656189759, 0.044, 0.96, 0.028, 192.0, 0.0, 0.0, 0.0, 0.0, 0.0, 0.0, 0.0, 0.0, 0.0, 1.6664036358805435E9, 0.0, 2022-10-21 18:53:55.880
227.0, -113202.68967183706, -150043.90776680803, -73780.24742367833, -131945.2532464568, 46225.262728364796, -77223.46660178502, 38096.06738043635, -117827.04208219553, 0.044, 0.96, 0.028, 192.0, 0.0, 0.0, 0.0, 0.0, 0.0, 0.0, 0.0, 0.0, 0.0, 1.6664036358805568E9, 0.0, 2022-10-21 18:53:55.880
228.0, -113214.6255033762, -150057.9670140704, -73795.96070003041, -131984.72642716486, 46199.66998096347, -77258.15650917965, 38068.95471441206, -117846.44339638275, 0.044, 0.96, 0.028, 192.0, 0.0, 0.0, 0.0, 0.0, 0.0, 0.0, 0.0, 0.0, 0.0, 1.6664036358805707E9, 0.0, 2022-10-21 18:53:55.880
229.0, -113210.8257068188, -150054.8154181022, -73788.36110691562, -131982.2453835303, 46212.81280670319, -77277.78134081142, 38051.07331884782, -117836.89920150033, 0.044, 0.96, 0.028, 192.0, 0.0, 0.0, 0.0, 0.0, 0.0, 0.0, 0.0, 0.0, 0.0, 1.666403635880584E9, 0.0, 2022-10-21 18:53:55.880
230.0, -113216.70421561053, -150061.29742399426, -73791.42329590599, -131975.40574972698, 46216.14321662703, -77272.30516341986, 38047.49703973497, -117841.54836434704, 0.044, 0.96, 0.028, 192.0, 0.0, 0.0, 0.0, 0.0, 0.0, 0.0, 0.0, 0.0, 0.0, 1.666403635880598E9, 0.0, 2022-10-21 18:53:55.880
231.0, -113212.16681148611, -150056.5141506808, -73786.90824352602, -131967.96261882337, 46216.724361982866, -77247.09239567428, 38072.8886214362, -117832.83118400947, 0.036000000000000004, 0.9580000000000001, 0.034, 192.0, 1.0, 32.0, 29.0, 240.0, 1.0, 16.0, 0.0, 0.0, 0.0, 1.666403635880612E9, 0.0, 2022-10-21 18:53:55.880
232.0, -113204.61192186021, -150047.64050813206, -73779.73333355587, -131967.20265951188, 46221.17235912947, -77243.04672992787, 38081.650505262674, -117823.17523040477, 0.036000000000000004, 0.9580000000000001, 0.034, 192.0, 0.0, 0.0, 0.0, 0.0, 0.0, 0.0, 0.0, 0.0, 0.0, 1.666403635880626E9, 0.0, 2022-10-21 18:53:55.880
233.0, -113208.21055271752, -150050.79210410026, -73786.37180165909, -131974.75754913778, 46218.758370728305, -77262.7833202819, 38060.282237563406, -117829.50077408562, 0.036000000000000004, 0.9580000000000001, 0.034, 192.0, 0.0, 0.0, 0.0, 0.0, 0.0, 0.0, 0.0, 0.0, 0.0, 1.6664036358806396E9, 0.0, 2022-10-21 18:53:55.880
234.0, -113211.33979694126, -150053.67547913498, -73787.0647057372, -131970.93540083594, 46219.04894340622, -77262.26923015944, 38058.29293230688, -117828.42789035177, 0.036000000000000004, 0.9580000000000001, 0.034, 192.0, 0.0, 0.0, 0.0, 0.0, 0.0, 0.0, 0.0, 0.0, 0.0, 1.666403635880653E9, 0.0, 2022-10-21 18:53:55.880
235.0, -113212.03270101937, -150053.45196169044, -73786.55061561473, -131963.02288329875, 46217.283155594254, -77255.98838996749, 38069.222935345526, -117827.22089615118, 0.036000000000000004, 0.9580000000000001, 0.034, 192.0, 0.0, 0.0, 0.0, 0.0, 0.0, 0.0, 0.0, 0.0, 0.0, 1.6664036358806665E9, 0.0, 2022-10-21 18:53:55.880
236.0, -113220.57106740131, -150062.8173426172, -73795.82658956369, -131968.20848801237, 46213.86333869259, -77245.6842357736, 38078.81183371685, -117843.73883530365, 0.036000000000000004, 0.9580000000000001, 0.034, 192.0, 0.0, 0.0, 0.0, 0.0, 0.0, 0.0, 0.0, 0.0, 0.0, 1.6664036358806796E9, 0.0, 2022-10-21 18:53:55.880
237.0, -113210.84805856325, -150054.0107553018, -73778.86161552211, -131965.39216821102, 46230.29187086724, -77260.59284932529, 38062.919743409126, -117833.36762587639, 0.036000000000000004, 0.9580000000000001, 0.034, 192.0, 0.0, 0.0, 0.0, 0.0, 0.0, 0.0, 0.0, 0.0, 0.0, 1.6664036358806932E9, 0.0, 2022-10-21 18:53:55.880
238.0, -113206.71298583901, -150052.7590576123, -73776.49233060985, -131953.7022058609, 46238.09262968214, -77271.23227968601, 38050.80509791435, -117823.46580308268, 0.036000000000000004, 0.9580000000000001, 0.034, 192.0, 0.0, 0.0, 0.0, 0.0, 0.0, 0.0, 0.0, 0.0, 0.0, 1.6664036358807068E9, 0.0, 2022-10-21 18:53:55.880
239.0, -113210.93746554106, -150057.63173790358, -73783.04139173524, -131950.8411825706, 46230.62714703407, -77251.16041316514, 38069.848784190275, -117832.02652120907, 0.036000000000000004, 0.9580000000000001, 0.034, 192.0, 0.0, 0.0, 0.0, 0.0, 0.0, 0.0, 0.0, 0.0, 0.0, 1.6664036358807204E9, 0.0, 2022-10-21 18:53:55.880
240.0, -113213.23969521996, -150059.15165652655, -73790.39511566104, -131956.71969136235, 46225.598004531625, -77243.96315145055, 38079.6388482617, -117840.564887591, 0.044, 0.9560000000000001, 0.034, 192.0, 1.0, 96.0, 29.0, 224.0, 1.0, 16.0, 0.0, 0.0, 0.0, 1.6664036358807354E9, 0.0, 2022-10-21 18:53:55.880
241.0, -113209.73047134049, -150055.32950822468, -73788.83049354918, -131962.21822049835, 46230.53774005625, -77261.86689875924, 38063.65735097615, -117831.60183806442, 0.044, 0.9560000000000001, 0.034, 192.0, 0.0, 0.0, 0.0, 0.0, 0.0, 0.0, 0.0, 0.0, 0.0, 1.6664036363580556E9, 0.0, 2022-10-21 18:53:56.358
242.0, -113209.46225040701, -150054.88247333557, -73786.95294701493, -131958.50783091877, 46231.744734256834, -77275.8367390438, 38047.05000484586, -117828.38318686286, 0.044, 0.9560000000000001, 0.034, 192.0, 0.0, 0.0, 0.0, 0.0, 0.0, 0.0, 0.0, 0.0, 0.0, 1.66640363635831E9, 0.0, 2022-10-21 18:53:56.358
243.0, -113211.40685217462, -150057.43057220348, -73790.08219123867, -131959.60306639707, 46224.36865858659, -77270.5840790968, 38053.17438282661, -117833.52408808758, 0.044, 0.9560000000000001, 0.034, 192.0, 0.0, 0.0, 0.0, 0.0, 0.0, 0.0, 0.0, 0.0, 0.0, 1.6664036363583355E9, 0.0, 2022-10-21 18:53:56.358
244.0, -113214.46904116501, -150061.14096178306, -73790.39511566104, -131960.6983018754, 46222.35700158561, -77251.04865444287, 38076.062569148846, -117837.6144573229, 0.044, 0.9560000000000001, 0.034, 192.0, 0.0, 0.0, 0.0, 0.0, 0.0, 0.0, 0.0, 0.0, 0.0, 1.66640363635836E9, 0.0, 2022-10-21 18:53:56.358
245.0, -113204.3213491823, -150054.5695489132, -73775.0618189647, -131953.52339190524, 46241.24422565034, -77247.91941021912, 38080.465862806544, -117820.51537281458, 0.044, 0.9560000000000001, 0.034, 192.0, 0.0, 0.0, 0.0, 0.0, 0.0, 0.0, 0.0, 0.0, 0.0, 1.6664036363583844E9, 0.0, 2022-10-21 18:53:56.358
246.0, -113206.48946839446, -150053.69783087945, -73776.53703409876, -131955.4456419284, 46240.81954250569, -77264.10207320478, 38058.71761545153, -117824.44927983872, 0.044, 0.9560000000000001, 0.034, 192.0, 0.0, 0.0, 0.0, 0.0, 0.0, 0.0, 0.0, 0.0, 0.0, 1.666403636358408E9, 0.0, 2022-10-21 18:53:56.358
247.0, -113202.68967183706, -150048.80279884374, -73773.07251370818, -131944.35917667858, 46240.976004716875, -77259.56466908034, 38064.0820341208, -117820.87300072587, 0.044, 0.9560000000000001, 0.034, 192.0, 0.0, 0.0, 0.0, 0.0, 0.0, 0.0, 0.0, 0.0, 0.0, 1.666403636358432E9, 0.0, 2022-10-21 18:53:56.358
248.0, -113206.08713699426, -150053.02727854578, -73775.77707478727, -131956.18324949543, 46234.47164708038, -77241.236238627, 38084.10919715276, -117834.95459973272, 0.044, 0.9560000000000001, 0.034, 192.0, 0.0, 0.0, 0.0, 0.0, 0.0, 0.0, 0.0, 0.0, 0.0, 1.6664036363584557E9, 0.0, 2022-10-21 18:53:56.358
249.0, -113214.69255860956, -150061.58799667217, -73786.48356038137, -131974.55638343768, 46227.94493769943, -77252.83679399929, 38070.87696443522, -117841.48130911366, 0.044, 0.9560000000000001, 0.034, 192.0, 0.0, 0.0, 0.0, 0.0, 0.0, 0.0, 0.0, 0.0, 0.0, 1.6664036363584795E9, 0.0, 2022-10-21 18:53:56.358
250.0, -113199.44866889104, -150045.15946449753, -73778.86161552211, -131965.92861007794, 46237.556187815215, -77277.9378030226, 38047.05000484586, -117827.15384091782, 0.042, 0.9520000000000001, 0.04, 192.0, 1.0, 80.0, 29.0, 192.0, 1.0, 64.0, 0.0, 0.0, 0.0, 1.666403636358503E9, 0.0, 2022-10-21 18:53:56.358
251.0, -113195.9170932671, -150038.92332779447, -73777.40875213251, -131954.46216517236, 46239.34432737164, -77267.87951801771, 38058.60585672926, -117819.75541350311, 0.042, 0.9520000000000001, 0.04, 192.0, 0.0, 0.0, 0.0, 0.0, 0.0, 0.0, 0.0, 0.0, 0.0, 1.66640363635853E9, 0.0, 2022-10-21 18:53:56.358
252.0, -113206.75768932793, -150052.2673192343, -73782.59435684614, -131964.90042983298, 46225.37448708707, -77254.24495389998, 38081.5387465404, -117830.08191944147, 0.042, 0.9520000000000001, 0.04, 192.0, 0.0, 0.0, 0.0, 0.0, 0.0, 0.0, 0.0, 0.0, 0.0, 1.666403636358554E9, 0.0, 2022-10-21 18:53:56.358
253.0, -113204.74603232695, -150052.40142970104, -73777.65462132152, -131970.93540083594, 46225.93328069845, -77258.06710220184, 38084.06449366385, -117826.03625369506, 0.042, 0.9520000000000001, 0.04, 192.0, 0.0, 0.0, 0.0, 0.0, 0.0, 0.0, 0.0, 0.0, 0.0, 1.6664036363585775E9, 0.0, 2022-10-21 18:53:56.358
254.0, -113204.74603232695, -150052.6696506345, -73778.99572598883, -131975.13752879354, 46228.30256561072, -77279.88240479022, 38059.52227825192, -117823.64461703833, 0.042, 0.9520000000000001, 0.04, 192.0, 0.0, 0.0, 0.0, 0.0, 0.0, 0.0, 0.0, 0.0, 0.0, 1.666403636358601E9, 0.0, 2022-10-21 18:53:56.358
255.0, -113205.66245384961, -150054.4577901909, -73779.17453994448, -131972.43296771444, 46225.173321386974, -77272.6851430756, 38065.15491785466, -117823.80107924952, 0.042, 0.9520000000000001, 0.04, 192.0, 0.0, 0.0, 0.0, 0.0, 0.0, 0.0, 0.0, 0.0, 0.0, 1.6664036363586245E9, 0.0, 2022-10-21 18:53:56.358
0.0, -113204.63427360468, -150051.663822134, -73777.87813876607, -131963.80519435467, 46228.28021386626, -77259.51996559143, 38081.7399122405, -117830.21602990819, 0.042, 0.9520000000000001, 0.04, 192.0, 0.0, 0.0, 0.0, 0.0, 0.0, 0.0, 0.0, 0.0, 0.0, 1.666403636358648E9, 0.0, 2022-10-21 18:53:56.358
1.0, -113205.08130849378, -150052.44613318995, -73778.34752539963, -131968.54376417922, 46228.77195224428, -77256.10014868977, 38089.697133266585, -117833.79230902104, 0.042, 0.9520000000000001, 0.04, 192.0, 0.0, 0.0, 0.0, 0.0, 0.0, 0.0, 0.0, 0.0, 0.0, 1.6664036363587484E9, 0.0, 2022-10-21 18:53:56.358
2.0, -113199.04633749084, -150048.2663569768, -73772.35725788561, -131971.40478746948, 46233.82344649118, -77281.06704724635, 38069.714673723545, -117833.8593642544, 0.042, 0.9520000000000001, 0.04, 192.0, 0.0, 0.0, 0.0, 0.0, 0.0, 0.0, 0.0, 0.0, 0.0, 1.6664036363587782E9, 0.0, 2022-10-21 18:53:56.358
3.0, -113197.30290142333, -150046.411162187, -73768.93744098395, -131962.06175828716, 46238.9643477159, -77284.21864321454, 38066.071339377326, -117825.58921880594, 0.042, 0.9520000000000001, 0.04, 192.0, 0.0, 0.0, 0.0, 0.0, 0.0, 0.0, 0.0, 0.0, 0.0, 1.6664036363588028E9, 0.0, 2022-10-21 18:53:56.358
4.0, -113203.33787242626, -150052.93787156796, -73769.89856599552, -131960.4971361753, 46236.55035931473, -77265.73375055, 38085.24913611998, -117834.23934391014, 0.044, 0.9520000000000001, 0.04, 192.0, 1.0, 96.0, 29.0, 192.0, 1.0, 64.0, 0.0, 0.0, 0.0, 1.666403636358827E9, 0.0, 2022-10-21 18:53:56.358
5.0, -113208.63523586217, -150058.34699372615, -73774.52537709777, -131971.62830491405, 46228.63784177755, -77271.94753550859, 38083.483348308015, -117845.0128847376, 0.044, 0.9520000000000001, 0.04, 192.0, 0.0, 0.0, 0.0, 0.0, 0.0, 0.0, 0.0, 0.0, 0.0, 1.666403636358853E9, 0.0, 2022-10-21 18:53:56.358
6.0, -113212.03270101937, -150059.0175460598, -73777.02877247677, -131980.7925201407, 46227.85553072161, -77282.07287574683, 38069.982894657005, -117846.37634114939, 0.044, 0.9520000000000001, 0.04, 192.0, 0.0, 0.0, 0.0, 0.0, 0.0, 0.0, 0.0, 0.0, 0.0, 1.6664036363588867E9, 0.0, 2022-10-21 18:53:56.358
7.0, -113209.8198783183, -150056.04476404726, -73775.44179862045, -131979.0937875621, 46229.241338877844, -77284.55391938137, 38063.85851667625, -117842.75535854761, 0.044, 0.9520000000000001, 0.04, 192.0, 0.0, 0.0, 0.0, 0.0, 0.0, 0.0, 0.0, 0.0, 0.0, 1.6664036363589108E9, 0.0, 2022-10-21 18:53:56.358
8.0, -113200.92388402509, -150048.78044709927, -73763.23774614785, -131961.30179897568, 46241.44539135044, -77263.92325924913, 38091.84290073429, -117821.85647748191, 0.044, 0.9520000000000001, 0.04, 192.0, 0.0, 0.0, 0.0, 0.0, 0.0, 0.0, 0.0, 0.0, 0.0, 1.6664036363589346E9, 0.0, 2022-10-21 18:53:56.358
9.0, -113200.968587514, -150048.98161279937, -73764.26592639279, -131971.71771189186, 46235.38806860305, -77252.79209051038, 38110.43955212111, -117824.561038561, 0.044, 0.9520000000000001, 0.04, 192.0, 0.0, 0.0, 0.0, 0.0, 0.0, 0.0, 0.0, 0.0, 0.0, 1.666403636358958E9, 0.0, 2022-10-21 18:53:56.358
10.0, -113194.93361651107, -150041.3149644512, -73762.90246998101, -131974.55638343768, 46236.12567617008, -77272.86395703125, 38093.318115868344, -117823.73402401616, 0.044, 0.9520000000000001, 0.04, 192.0, 0.0, 0.0, 0.0, 0.0, 0.0, 0.0, 0.0, 0.0, 0.0, 1.666403636358982E9, 0.0, 2022-10-21 18:53:56.358
11.0, -113195.2688926779, -150040.44324641745, -73765.20469965991, -131976.18806078294, 46235.455123836415, -77296.26623347595, 38067.65831323365, -117820.42596583677, 0.044, 0.9520000000000001, 0.04, 192.0, 0.0, 0.0, 0.0, 0.0, 0.0, 0.0, 0.0, 0.0, 0.0, 1.6664036363590064E9, 0.0, 2022-10-21 18:53:56.359
12.0, -113199.15809621313, -150044.48891216386, -73764.914126982, -131969.48253744634, 46234.24812963583, -77287.97373628303, 38077.00134241597, -117825.87979148387, 0.044, 0.9520000000000001, 0.04, 192.0, 0.0, 0.0, 0.0, 0.0, 0.0, 0.0, 0.0, 0.0, 0.0, 1.6664036363590307E9, 0.0, 2022-10-21 18:53:56.359
13.0, -113200.83447704728, -150045.45003717544, -73763.7071327814, -131967.82850835664, 46235.119847669586, -77273.0874744758, 38097.050857192386, -117827.22089615118, 0.044, 0.9520000000000001, 0.04, 192.0, 0.0, 0.0, 0.0, 0.0, 0.0, 0.0, 0.0, 0.0, 0.0, 1.6664036363590572E9, 0.0, 2022-10-21 18:53:56.359
14.0, -113204.07547999329, -150048.73574361036, -73767.43987410545, -131975.22693577135, 46234.561054058206, -77282.83283505832, 38086.120854153734, -117829.05373919652, 0.044, 0.9560000000000001, 0.04, 192.0, 1.0, 96.0, 29.0, 224.0, 1.0, 64.0, 0.0, 0.0, 0.0, 1.6664036363590724E9, 0.0, 2022-10-21 18:53:56.359
15.0, -113204.25429394894, -150048.84750233265, -73765.74114152684, -131975.58456368264, 46236.39389710354, -77298.5461114104, 38064.953752154564, -117830.30543688602, 0.044, 0.9560000000000001, 0.04, 192.0, 0.0, 0.0, 0.0, 0.0, 0.0, 0.0, 0.0, 0.0, 0.0, 1.6664036363590884E9, 0.0, 2022-10-21 18:53:56.359
16.0, -113199.49337237995, -150043.37132494108, -73755.48169082185, -131958.95486580787, 46247.145086186545, -77293.33815495232, 38072.642752247186, -117821.43179433726, 0.044, 0.9560000000000001, 0.04, 192.0, 0.0, 0.0, 0.0, 0.0, 0.0, 0.0, 0.0, 0.0, 0.0, 1.66640363635912E9, 0.0, 2022-10-21 18:53:56.359
17.0, -113206.35535792774, -150049.58510989966, -73761.8072345027, -131963.04523504322, 46240.12663842757, -77265.26436391645, 38099.6436595492, -117824.67279728327, 0.044, 0.9560000000000001, 0.04, 192.0, 0.0, 0.0, 0.0, 0.0, 0.0, 0.0, 0.0, 0.0, 0.0, 1.666403636359135E9, 0.0, 2022-10-21 18:53:56.359
18.0, -113207.20472421704, -150051.28384247827, -73769.3621241286, -131974.48932820433, 46231.409458090006, -77267.81246278435, 38098.74958977099, -117831.04304445304, 0.044, 0.9560000000000001, 0.04, 192.0, 0.0, 0.0, 0.0, 0.0, 0.0, 0.0, 0.0, 0.0, 0.0, 1.6664036363591502E9, 0.0, 2022-10-21 18:53:56.359
