%OpenBCI Raw EEG Data
%Number of channels = 8
%Sample Rate = 250 Hz
%Board = OpenBCI_GUI$BoardCytonSerial
Sample Index, EXG Channel 0, EXG Channel 1, EXG Channel 2, EXG Channel 3, EXG Channel 4, EXG Channel 5, EXG Channel 6, EXG Channel 7, Accel Channel 0, Accel Channel 1, Accel Channel 2, Other, Other, Other, Other, Other, Other, Other, Analog Channel 0, Analog Channel 1, Analog Channel 2, Timestamp, Other, Timestamp (Formatted)
220.0, -104508.62103803409, -147490.33272151146, -63237.957744354935, -131217.99453711446, 36018.83036122684, -79953.28515211167, 25935.354940337533, -121342.50209838178, 0.0, 0.0, 0.0, 192.0, 0.0, 0.0, 0.0, 0.0, 0.0, 0.0, 0.0, 0.0, 0.0, 1.666403493041463E9, 0.0, 2022-10-21 18:51:33.041
221.0, -104509.38099734558, -147492.65730293482, -63241.176395556504, -131228.63396747518, 36014.22590186905, -79975.48043435579, 25931.2198676133, -121343.59733386009, 0.0, 0.0, 0.0, 192.0, 0.0, 0.0, 0.0, 0.0, 0.0, 0.0, 0.0, 0.0, 0.0, 1.666403493041489E9, 0.0, 2022-10-21 18:51:33.041
222.0, -104508.4645758229, -147491.04797733403, -63241.28815427878, -131229.90801690915, 36018.20451238209, -79974.78753027768, 25920.4686785303, -121335.14837445598, 0.0, 0.0, 0.0, 192.0, 0.0, 0.0, 0.0, 0.0, 0.0, 0.0, 0.0, 0.0, 0.0, 1.6664034930415032E9, 0.0, 2022-10-21 18:51:33.041
223.0, -104500.70852049692, -147483.18016328575, -63233.487395463875, -131212.36189751173, 36031.86142824429, -79952.368730589, 25935.444347315355, -121320.35151962657, 0.0, 0.0, 0.0, 192.0, 0.0, 0.0, 0.0, 0.0, 0.0, 0.0, 0.0, 0.0, 0.0, 1.6664034930415215E9, 0.0, 2022-10-21 18:51:33.041
224.0, -104499.23330536287, -147479.9168085953, -63234.20265128645, -131204.98582184146, 36036.17531492416, -79933.63796873546, 25960.81357727213, -121316.59642655808, 0.0, 0.0, 0.0, 192.0, 0.0, 0.0, 0.0, 0.0, 0.0, 0.0, 0.0, 0.0, 0.0, 1.6664034930415435E9, 0.0, 2022-10-21 18:51:33.041
225.0, -104506.67643626648, -147486.01883483157, -63243.970363613415, -131219.17917957058, 36026.47465783056, -79938.75651821573, 25964.367504640522, -121330.74508079828, 0.0, 0.0, 0.0, 192.0, 0.0, 0.0, 0.0, 0.0, 0.0, 0.0, 0.0, 0.0, 0.0, 1.6664034930415652E9, 0.0, 2022-10-21 18:51:33.041
226.0, -104513.8736979811, -147492.14321281234, -63251.14527358357, -131231.85261867676, 36016.66224201468, -79964.43867259487, 25941.009931684726, -121338.50113612428, 0.0, 0.0, 0.0, 192.0, 0.0, 0.0, 0.0, 0.0, 0.0, 0.0, 0.0, 0.0, 0.0, 1.6664034930415864E9, 0.0, 2022-10-21 18:51:33.041
227.0, -104506.74349149984, -147482.19668652973, -63243.79154965777, -131215.60290045774, 36024.150076407204, -79963.34343711656, 25936.204306626834, -121327.61583657455, 0.0, 0.0, 0.0, 192.0, 0.0, 0.0, 0.0, 0.0, 0.0, 0.0, 0.0, 0.0, 0.0, 1.6664034930416076E9, 0.0, 2022-10-21 18:51:33.041
228.0, -104514.18662240346, -147489.32689301096, -63249.982982871894, -131220.34147028226, 36012.59422452381, -79959.4765853258, 25952.208155656834, -121338.52348786873, 0.066, 0.9520000000000001, 0.032, 192.0, 2.0, 16.0, 29.0, 192.0, 1.0, 0.0, 0.0, 0.0, 0.0, 1.6664034930416293E9, 0.0, 2022-10-21 18:51:33.041
229.0, -104513.85134623664, -147488.5669336995, -63245.736151425386, -131222.48723774997, 36014.36001233578, -79956.5708585466, 25962.512309850732, -121335.79657504518, 0.066, 0.9520000000000001, 0.032, 192.0, 0.0, 0.0, 0.0, 0.0, 0.0, 0.0, 0.0, 0.0, 0.0, 1.6664034930416553E9, 0.0, 2022-10-21 18:51:33.041
230.0, -104505.9611804439, -147480.2073812732, -63239.45531123344, -131220.36382202673, 36022.049012428404, -79956.28028586868, 25952.38696961248, -121327.4370226189, 0.066, 0.9520000000000001, 0.032, 192.0, 0.0, 0.0, 0.0, 0.0, 0.0, 0.0, 0.0, 0.0, 0.0, 1.6664034930416715E9, 0.0, 2022-10-21 18:51:33.041
231.0, -104511.25854387981, -147483.33662549694, -63242.53985196828, -131217.45809524754, 36022.71956476207, -79944.5679717741, 25949.3247806221, -121330.25334242027, 0.066, 0.9520000000000001, 0.032, 192.0, 0.0, 0.0, 0.0, 0.0, 0.0, 0.0, 0.0, 0.0, 0.0, 1.6664034930416873E9, 0.0, 2022-10-21 18:51:33.041
232.0, -104521.56269807371, -147494.64660819134, -63249.08891309368, -131219.73797318197, 36012.92950069064, -79940.63406474997, 25960.165376682926, -121338.21056344637, 0.066, 0.9520000000000001, 0.032, 192.0, 0.0, 0.0, 0.0, 0.0, 0.0, 0.0, 0.0, 0.0, 0.0, 1.6664034930417032E9, 0.0, 2022-10-21 18:51:33.041
233.0, -104516.39944510454, -147493.37255875737, -63244.57386071371, -131219.9167871376, 36011.0519541564, -79944.59032351855, 25972.10120822206, -121337.65176983498, 0.066, 0.9520000000000001, 0.032, 192.0, 0.0, 0.0, 0.0, 0.0, 0.0, 0.0, 0.0, 0.0, 0.0, 1.6664034930417185E9, 0.0, 2022-10-21 18:51:33.041
234.0, -104512.71140726941, -147492.1655645568, -63241.93635486798, -131220.94496738256, 36014.04708791341, -79954.35803584552, 25959.85245226055, -121336.66829307894, 0.066, 0.9520000000000001, 0.032, 192.0, 0.0, 0.0, 0.0, 0.0, 0.0, 0.0, 0.0, 0.0, 0.0, 1.6664034930417347E9, 0.0, 2022-10-21 18:51:33.041
235.0, -104508.79985198974, -147487.1140703099, -63239.924697867005, -131214.79823765735, 36019.65737577169, -79951.78758523316, 25949.369484111012, -121331.92972325442, 0.066, 0.9520000000000001, 0.032, 192.0, 0.0, 0.0, 0.0, 0.0, 0.0, 0.0, 0.0, 0.0, 0.0, 1.6664034930417504E9, 0.0, 2022-10-21 18:51:33.041
236.0, -104507.30228511123, -147484.38715748634, -63237.28719202128, -131208.40563874313, 36019.23269262704, -79948.70304449834, 25958.891327248974, -121324.30777839516, 0.066, 0.9520000000000001, 0.032, 192.0, 0.0, 0.0, 0.0, 0.0, 0.0, 0.0, 0.0, 0.0, 0.0, 1.6664034930419245E9, 0.0, 2022-10-21 18:51:33.041
237.0, -104514.49954682584, -147491.38325350086, -63244.126825824605, -131211.19960680004, 36015.276433858446, -79950.33472184357, 25970.827158788106, -121325.76064178476, 0.066, 0.9520000000000001, 0.032, 192.0, 0.0, 0.0, 0.0, 0.0, 0.0, 0.0, 0.0, 0.0, 0.0, 1.6664034930419405E9, 0.0, 2022-10-21 18:51:33.041
238.0, -104512.28672412476, -147486.82349763197, -63247.881918893094, -131211.98191785597, 36017.712774004074, -79956.5261550577, 25971.72122856632, -121320.50798183776, 0.03, 0.962, 0.034, 192.0, 0.0, 240.0, 30.0, 16.0, 1.0, 16.0, 0.0, 0.0, 0.0, 1.666403493041957E9, 0.0, 2022-10-21 18:51:33.041
239.0, -104504.37420658758, -147480.09562255093, -63244.64091594707, -131208.83032188777, 36024.17242815166, -79957.48728006927, 25953.079873690593, -121309.9803101993, 0.03, 0.962, 0.034, 192.0, 0.0, 0.0, 0.0, 0.0, 0.0, 0.0, 0.0, 0.0, 0.0, 1.6664034930419745E9, 0.0, 2022-10-21 18:51:33.041
240.0, -104496.57344777268, -147472.27251199158, -63242.04811359026, -131193.58643216925, 36029.112163676284, -79943.62919850698, 25954.577440569097, -121307.54397005368, 0.03, 0.962, 0.034, 192.0, 0.0, 0.0, 0.0, 0.0, 0.0, 0.0, 0.0, 0.0, 0.0, 1.6664034930419905E9, 0.0, 2022-10-21 18:51:33.041
241.0, -104504.70948275442, -147480.74382314013, -63254.14040734058, -131208.96443235452, 36014.717640247065, -79955.45327132384, 25952.297562634656, -121322.96667372785, 0.03, 0.962, 0.034, 192.0, 0.0, 0.0, 0.0, 0.0, 0.0, 0.0, 0.0, 0.0, 0.0, 1.6664034930420065E9, 0.0, 2022-10-21 18:51:33.042
242.0, -104511.54911655774, -147488.00814008812, -63265.09276212368, -131228.0751738638, 36004.48054128654, -79981.69421931436, 25922.949722164838, -121333.80726978867, 0.03, 0.962, 0.034, 192.0, 0.0, 0.0, 0.0, 0.0, 0.0, 0.0, 0.0, 0.0, 0.0, 1.6664034930420296E9, 0.0, 2022-10-21 18:51:33.042
243.0, -104507.07876766668, -147482.39785222983, -63259.59423298768, -131222.95662438354, 36013.823570468856, -79977.08975995658, 25911.304463303622, -121327.638188319, 0.03, 0.962, 0.034, 192.0, 0.0, 0.0, 0.0, 0.0, 0.0, 0.0, 0.0, 0.0, 0.0, 1.6664034930420456E9, 0.0, 2022-10-21 18:51:33.042
244.0, -104508.8669072231, -147484.09658480843, -63263.349326056166, -131217.07811559178, 36012.88479720173, -79967.65732379643, 25916.445364528343, -121324.06190920615, 0.03, 0.962, 0.034, 192.0, 0.0, 0.0, 0.0, 0.0, 0.0, 0.0, 0.0, 0.0, 0.0, 1.6664034930420618E9, 0.0, 2022-10-21 18:51:33.042
245.0, -104511.30324736873, -147489.05867207752, -63269.361945314646, -131214.57472021278, 36009.755552977986, -79963.38814060547, 25937.18778338287, -121324.84422026208, 0.03, 0.962, 0.034, 192.0, 0.0, 0.0, 0.0, 0.0, 0.0, 0.0, 0.0, 0.0, 0.0, 1.666403493042078E9, 0.0, 2022-10-21 18:51:33.042
246.0, -104515.2148026484, -147492.38908200135, -63275.79924771777, -131223.89539765066, 36010.31434658937, -79969.93720173088, 25944.250934630745, -121328.91223775296, 0.03, 0.962, 0.034, 192.0, 0.0, 0.0, 0.0, 0.0, 0.0, 0.0, 0.0, 0.0, 0.0, 1.666403493042094E9, 0.0, 2022-10-21 18:51:33.042
247.0, -104507.07876766668, -147483.1578115413, -63271.12773312661, -131222.50958949444, 36020.03735542743, -79980.04019022468, 25924.313178576613, -121319.14452542599, 0.03, 0.962, 0.034, 192.0, 0.0, 0.0, 0.0, 0.0, 0.0, 0.0, 0.0, 0.0, 0.0, 1.666403493042112E9, 0.0, 2022-10-21 18:51:33.042
248.0, -104504.30715135422, -147482.19668652973, -63275.352212828664, -131220.54263598236, 36017.01986992596, -79981.15777744744, 25912.51145750421, -121318.8316010036, 0.026000000000000002, 0.9500000000000001, 0.032, 192.0, 0.0, 208.0, 29.0, 176.0, 1.0, 0.0, 0.0, 0.0, 0.0, 1.6664034930421278E9, 0.0, 2022-10-21 18:51:33.042
249.0, -104509.53745955676, -147486.53292495405, -63283.24237862139, -131221.07907784928, 36011.18606462313, -79973.91581224393, 25927.33066407808, -121325.96180748485, 0.026000000000000002, 0.9500000000000001, 0.032, 192.0, 0.0, 0.0, 0.0, 0.0, 0.0, 0.0, 0.0, 0.0, 0.0, 1.666403493042146E9, 0.0, 2022-10-21 18:51:33.042
250.0, -104501.75905248632, -147478.9109800948, -63281.14131464259, -131222.8672174057, 36014.94115769162, -79973.13350118799, 25939.46766131731, -121322.3408248831, 0.026000000000000002, 0.9500000000000001, 0.032, 192.0, 0.0, 0.0, 0.0, 0.0, 0.0, 0.0, 0.0, 0.0, 0.0, 1.666403493042162E9, 0.0, 2022-10-21 18:51:33.042
251.0, -104481.08368886515, -147455.88868330582, -63276.827427962715, -131232.23259833248, 36019.45621007159, -79979.3249344021, 25916.870047672994, -121316.97640621381, 0.026000000000000002, 0.9500000000000001, 0.032, 192.0, 0.0, 0.0, 0.0, 0.0, 0.0, 0.0, 0.0, 0.0, 0.0, 1.6664034930422373E9, 0.0, 2022-10-21 18:51:33.042
252.0, -104495.00882566081, -147462.52715140907, -63286.52808505632, -131242.3355868263, 36008.9508901776, -79987.37156240601, 25896.64171894094, -121325.15714468446, 0.026000000000000002, 0.9500000000000001, 0.032, 192.0, 0.0, 0.0, 0.0, 0.0, 0.0, 0.0, 0.0, 0.0, 0.0, 1.666403493042253E9, 0.0, 2022-10-21 18:51:33.042
253.0, -104516.667666038, -147486.35411099842, -63278.14618088558, -131226.04116511837, 36016.93046294814, -79978.11794020153, 25920.379271552476, -121307.65572877595, 0.026000000000000002, 0.9500000000000001, 0.032, 192.0, 0.0, 0.0, 0.0, 0.0, 0.0, 0.0, 0.0, 0.0, 0.0, 1.6664034930422697E9, 0.0, 2022-10-21 18:51:33.042
254.0, -104530.92807900049, -147504.70489319623, -63274.07816339471, -131221.21318831603, 36022.831323484344, -79977.73796054578, 25935.019664170704, -121302.3807170845, 0.026000000000000002, 0.9500000000000001, 0.032, 192.0, 0.0, 0.0, 0.0, 0.0, 0.0, 0.0, 0.0, 0.0, 0.0, 1.6664034930422852E9, 0.0, 2022-10-21 18:51:33.042
255.0, -104540.2711081828, -147514.1596811008, -63280.00137567537, -131232.8137436883, 36018.89741646021, -79988.5785566066, 25919.485201774267, -121307.38750784249, 0.026000000000000002, 0.9500000000000001, 0.032, 192.0, 0.0, 0.0, 0.0, 0.0, 0.0, 0.0, 0.0, 0.0, 0.0, 1.666403493042301E9, 0.0, 2022-10-21 18:51:33.042
0.0, -104546.44018965248, -147519.9711346592, -63274.2346256059, -131230.980900643, 36023.63598628473, -79985.85164378305, 25907.75053593523, -121310.60615904405, 0.026000000000000002, 0.9500000000000001, 0.032, 192.0, 0.0, 0.0, 0.0, 0.0, 0.0, 0.0, 0.0, 0.0, 0.0, 1.666403493042317E9, 0.0, 2022-10-21 18:51:33.042
1.0, -104556.4761229129, -147530.25293710863, -63270.94891917097, -131222.8672174057, 36024.574759551855, -79969.64662905296, 25923.955550665327, -121311.880208478, 0.038, 0.9460000000000001, 0.026000000000000002, 192.0, 1.0, 48.0, 29.0, 144.0, 0.0, 208.0, 0.0, 0.0, 0.0, 1.6664034930423324E9, 0.0, 2022-10-21 18:51:33.042
2.0, -104566.10972477314, -147537.5172540566, -63275.53102678431, -131227.94106339707, 36020.05970717189, -79965.98094296228, 25945.65909453143, -121315.27767363521, 0.038, 0.9460000000000001, 0.026000000000000002, 192.0, 0.0, 0.0, 0.0, 0.0, 0.0, 0.0, 0.0, 0.0, 0.0, 1.6664034930423496E9, 0.0, 2022-10-21 18:51:33.042
3.0, -104573.75402137685, -147545.89915822734, -63272.62530000512, -131239.6757292361, 36021.04318392792, -79984.7340565603, 25931.66690250241, -121319.25628414826, 0.038, 0.9460000000000001, 0.026000000000000002, 192.0, 0.0, 0.0, 0.0, 0.0, 0.0, 0.0, 0.0, 0.0, 0.0, 1.6664034930423653E9, 0.0, 2022-10-21 18:51:33.042
4.0, -104578.04555631228, -147549.4754373402, -63270.6359947486, -131239.74278446948, 36020.01500368297, -79998.54743463367, 25904.576588222575, -121320.46327834885, 0.038, 0.9460000000000001, 0.026000000000000002, 192.0, 0.0, 0.0, 0.0, 0.0, 0.0, 0.0, 0.0, 0.0, 0.0, 1.666403493042381E9, 0.0, 2022-10-21 18:51:33.042
5.0, -104585.80161163826, -147559.08668745597, -63269.80898020375, -131234.11014486672, 36017.735125748535, -79992.62422235301, 25909.069288858092, -121323.16783942794, 0.038, 0.9460000000000001, 0.026000000000000002, 192.0, 0.0, 0.0, 0.0, 0.0, 0.0, 0.0, 0.0, 0.0, 0.0, 1.6664034930423963E9, 0.0, 2022-10-21 18:51:33.042
6.0, -104593.24474254188, -147565.23341718118, -63264.735134212395, -131226.19762732956, 36024.59711129631, -79971.16654767592, 25941.188745640367, -121320.50798183776, 0.038, 0.9460000000000001, 0.026000000000000002, 192.0, 0.0, 0.0, 0.0, 0.0, 0.0, 0.0, 0.0, 0.0, 0.0, 1.6664034930424128E9, 0.0, 2022-10-21 18:51:33.042
7.0, -104588.75204190637, -147555.93509148777, -63259.39306728758, -131234.0654413778, 36029.536846820934, -79976.50861460074, 25934.95260893734, -121310.31558636614, 0.038, 0.9460000000000001, 0.026000000000000002, 192.0, 0.0, 0.0, 0.0, 0.0, 0.0, 0.0, 0.0, 0.0, 0.0, 1.6664034930424335E9, 0.0, 2022-10-21 18:51:33.042
8.0, -104582.60531218116, -147548.87194023991, -63262.343497555674, -131243.4755257935, 36023.7030415181, -79991.17135896342, 25909.538675491654, -121311.32141486663, 0.038, 0.9460000000000001, 0.026000000000000002, 192.0, 0.0, 0.0, 0.0, 0.0, 0.0, 0.0, 0.0, 0.0, 0.0, 1.6664034930424497E9, 0.0, 2022-10-21 18:51:33.042
9.0, -104587.32153026122, -147553.40934436434, -63263.259919078344, -131237.06057513482, 36022.80897173989, -79985.09168447157, 25910.723317947784, -121310.76262125524, 0.038, 0.9460000000000001, 0.026000000000000002, 192.0, 0.0, 0.0, 0.0, 0.0, 0.0, 0.0, 0.0, 0.0, 0.0, 1.6664034930424657E9, 0.0, 2022-10-21 18:51:33.042
10.0, -104591.56836170774, -147555.08572519847, -63265.159817357046, -131236.61354024571, 36016.058744914386, -79984.9799257493, 25937.210135127323, -121313.91421722344, 0.038, 0.9460000000000001, 0.026000000000000002, 192.0, 0.0, 0.0, 0.0, 0.0, 0.0, 0.0, 0.0, 0.0, 0.0, 1.6664034930424976E9, 0.0, 2022-10-21 18:51:33.042
11.0, -104594.89877163158, -147556.80680952154, -63271.26184359335, -131253.8243834763, 36006.49219828752, -80011.131466762, 25923.17323960939, -121326.7888220297, 0.052000000000000005, 0.96, 0.02, 192.0, 1.0, 160.0, 30.0, 0.0, 0.0, 160.0, 0.0, 0.0, 0.0, 1.6664034930425136E9, 0.0, 2022-10-21 18:51:33.042
12.0, -104580.57130343573, -147542.79226574805, -63257.962555642436, -131246.3365490838, 36024.03831768493, -80007.0858010156, 25898.385155008455, -121312.95309221186, 0.052000000000000005, 0.96, 0.02, 192.0, 0.0, 0.0, 0.0, 0.0, 0.0, 0.0, 0.0, 0.0, 0.0, 1.6664034930425308E9, 0.0, 2022-10-21 18:51:33.042
13.0, -104580.90657960255, -147544.0886669265, -63256.420285275024, -131240.94977867007, 36025.89351247472, -79994.97115552082, 25887.253986269712, -121308.39333634298, 0.052000000000000005, 0.96, 0.02, 192.0, 0.0, 0.0, 0.0, 0.0, 0.0, 0.0, 0.0, 0.0, 0.0, 1.6664034930425467E9, 0.0, 2022-10-21 18:51:33.042
14.0, -104581.21950402494, -147544.4239430933, -63260.51065451034, -131232.94785415506, 36024.23948338503, -79982.09655071456, 25906.70000394583, -121311.61198754454, 0.052000000000000005, 0.96, 0.02, 192.0, 0.0, 0.0, 0.0, 0.0, 0.0, 0.0, 0.0, 0.0, 0.0, 1.6664034930425627E9, 0.0, 2022-10-21 18:51:33.042
15.0, -104582.49355345889, -147543.55222505954, -63262.67877372251, -131240.70390948106, 36021.914901961674, -79993.74180957577, 25903.07902134407, -121316.57407481362, 0.052000000000000005, 0.96, 0.02, 192.0, 0.0, 0.0, 0.0, 0.0, 0.0, 0.0, 0.0, 0.0, 0.0, 1.6664034930425787E9, 0.0, 2022-10-21 18:51:33.042
16.0, -104584.19228603749, -147544.7368675157, -63260.555357999256, -131249.5775520298, 36024.66416652968, -79997.1839782219, 25879.766151877186, -121313.95892071235, 0.052000000000000005, 0.96, 0.02, 192.0, 0.0, 0.0, 0.0, 0.0, 0.0, 0.0, 0.0, 0.0, 0.0, 1.6664034930425942E9, 0.0, 2022-10-21 18:51:33.042
17.0, -104584.2816930153, -147544.55805356003, -63260.51065451034, -131241.15094437017, 36027.726355520055, -79989.07029498462, 25866.89154707093, -121309.80149624366, 0.052000000000000005, 0.96, 0.02, 192.0, 0.0, 0.0, 0.0, 0.0, 0.0, 0.0, 0.0, 0.0, 0.0, 1.66640349304261E9, 0.0, 2022-10-21 18:51:33.042
18.0, -104587.54504770579, -147548.04492569505, -63268.37846855861, -131242.6708629931, 36019.478561816046, -79984.93522226039, 25882.001326322716, -121317.26697889174, 0.052000000000000005, 0.96, 0.02, 192.0, 0.0, 0.0, 0.0, 0.0, 0.0, 0.0, 0.0, 0.0, 0.0, 1.6664034930426264E9, 0.0, 2022-10-21 18:51:33.042
19.0, -104588.17089655052, -147547.35202161694, -63272.89352093858, -131251.4327468196, 36018.47273331556, -79990.79137930767, 25891.88079737196, -121320.37387137102, 0.052000000000000005, 0.96, 0.02, 192.0, 0.0, 0.0, 0.0, 0.0, 0.0, 0.0, 0.0, 0.0, 0.0, 1.666403493042642E9, 0.0, 2022-10-21 18:51:33.042
20.0, -104595.12228907613, -147552.96230947523, -63281.454239064966, -131259.85935447924, 36012.28130010144, -80007.44342892688, 25874.200567507814, -121325.13479294, 0.052000000000000005, 0.96, 0.02, 192.0, 0.0, 0.0, 0.0, 0.0, 0.0, 0.0, 0.0, 0.0, 0.0, 1.666403493042658E9, 0.0, 2022-10-21 18:51:33.042
21.0, -104600.03967285629, -147557.20914092174, -63287.82448623473, -131263.94972371456, 36006.93923317662, -80015.9370918199, 25861.951811546303, -121326.31943539613, 0.062, 0.962, 0.022, 192.0, 1.0, 240.0, 30.0, 16.0, 0.0, 176.0, 0.0, 0.0, 0.0, 1.6664034930426736E9, 0.0, 2022-10-21 18:51:33.042
22.0, -104594.16116406456, -147548.91664372882, -63284.9858146889, -131252.3268165978, 36010.78373322293, -80002.72721084682, 25884.191797279334, -121319.61391205955, 0.062, 0.962, 0.022, 192.0, 0.0, 0.0, 0.0, 0.0, 0.0, 0.0, 0.0, 0.0, 0.0, 1.6664034930426905E9, 0.0, 2022-10-21 18:51:33.042
23.0, -104596.66455944355, -147550.99535596315, -63287.310396112254, -131252.70679625354, 36010.18023612264, -80009.99152779479, 25892.50664621671, -121322.85491500556, 0.062, 0.962, 0.022, 192.0, 0.0, 0.0, 0.0, 0.0, 0.0, 0.0, 0.0, 0.0, 0.0, 1.6664034930427065E9, 0.0, 2022-10-21 18:51:33.042
24.0, -104591.8365826412, -147545.6309372939, -63287.98094844591, -131259.25585737894, 36011.34252683431, -80019.96040582185, 25871.02661979516, -121325.80534527366, 0.062, 0.962, 0.022, 192.0, 0.0, 0.0, 0.0, 0.0, 0.0, 0.0, 0.0, 0.0, 0.0, 1.6664034930427217E9, 0.0, 2022-10-21 18:51:33.042
25.0, -104589.37789075112, -147544.8262744935, -63291.35606185866, -131259.85935447924, 36012.28130010144, -80018.82046685464, 25853.860480053485, -121324.41953711743, 0.062, 0.962, 0.022, 192.0, 0.0, 0.0, 0.0, 0.0, 0.0, 0.0, 0.0, 0.0, 0.0, 1.666403493042775E9, 0.0, 2022-10-21 18:51:33.042
26.0, -104590.40607099606, -147545.56388206052, -63294.68647178251, -131257.35595910024, 36007.18510236563, -80019.15574302146, 25854.486328898234, -121326.96763598533, 0.062, 0.962, 0.022, 192.0, 0.0, 0.0, 0.0, 0.0, 0.0, 0.0, 0.0, 0.0, 0.0, 1.666403493042791E9, 0.0, 2022-10-21 18:51:33.042
27.0, -104588.46146922845, -147542.34523085895, -63292.3395386147, -131251.70096775304, 36008.9508901776, -80014.12660051901, 25872.50183492921, -121326.1406214405, 0.062, 0.962, 0.022, 192.0, 0.0, 0.0, 0.0, 0.0, 0.0, 0.0, 0.0, 0.0, 0.0, 1.6664034930428069E9, 0.0, 2022-10-21 18:51:33.042
28.0, -104587.25447502786, -147541.8311407365, -63294.373547360134, -131257.64653177818, 36007.63213725473, -80021.94971107837, 25863.11410225798, -121326.92293249643, 0.062, 0.962, 0.022, 192.0, 0.0, 0.0, 0.0, 0.0, 0.0, 0.0, 0.0, 0.0, 0.0, 1.6664034930428245E9, 0.0, 2022-10-21 18:51:33.042
29.0, -104599.10089958918, -147552.06823969702, -63306.19762017699, -131271.77283427393, 35996.79154119391, -80032.32092050563, 25841.656427580885, -121339.32815066913, 0.062, 0.962, 0.022, 192.0, 0.0, 0.0, 0.0, 0.0, 0.0, 0.0, 0.0, 0.0, 0.0, 1.6664034930428405E9, 0.0, 2022-10-21 18:51:33.042
30.0, -104595.74813792088, -147547.59789080595, -63302.01784396385, -131266.56487781584, 36000.30076507339, -80033.46085947286, 25843.958657259784, -121334.27665642223, 0.062, 0.962, 0.022, 192.0, 0.0, 0.0, 0.0, 0.0, 0.0, 0.0, 0.0, 0.0, 0.0, 1.6664034930428565E9, 0.0, 2022-10-21 18:51:33.042
31.0, -104595.68108268752, -147545.7873995051, -63299.17917241802, -131260.50755506844, 36006.335736076326, -80026.26359775825, 25867.78561684914, -121333.24847617728, 0.066, 0.962, 0.028, 192.0, 2.0, 16.0, 30.0, 16.0, 0.0, 224.0, 0.0, 0.0, 0.0, 1.6664034930428724E9, 0.0, 2022-10-21 18:51:33.042
32.0, -104600.77728042332, -147550.66007979633, -63302.084899197216, -131271.14698542916, 36006.11221863177, -80032.92441760593, 25856.743855088218, -121332.39910988798, 0.066, 0.962, 0.028, 192.0, 0.0, 0.0, 0.0, 0.0, 0.0, 0.0, 0.0, 0.0, 0.0, 1.6664034930428894E9, 0.0, 2022-10-21 18:51:33.042
33.0, -104592.21656229695, -147542.6805070258, -63294.15002991558, -131272.51044184095, 36012.86244545728, -80028.31995824813, 25839.644770579907, -121316.0823364356, 0.066, 0.962, 0.028, 192.0, 0.0, 0.0, 0.0, 0.0, 0.0, 0.0, 0.0, 0.0, 0.0, 1.666403493042905E9, 0.0, 2022-10-21 18:51:33.042
34.0, -104590.38371925161, -147540.49003606918, -63290.17141940253, -131262.80978474734, 36016.952814692595, -80010.6844318729, 25846.417349149866, -121317.62460680302, 0.066, 0.962, 0.028, 192.0, 0.0, 0.0, 0.0, 0.0, 0.0, 0.0, 0.0, 0.0, 0.0, 1.6664034930429208E9, 0.0, 2022-10-21 18:51:33.042
35.0, -104592.6859489305, -147541.071181425, -63293.613588048654, -131263.70385452555, 36011.141361134214, -80007.37637369352, 25867.02565753766, -121329.60514183107, 0.066, 0.962, 0.028, 192.0, 0.0, 0.0, 0.0, 0.0, 0.0, 0.0, 0.0, 0.0, 0.0, 1.666403493042939E9, 0.0, 2022-10-21 18:51:33.042
36.0, -104590.60723669616, -147539.55126280204, -63293.47947758192, -131271.99635171847, 36013.37653557975, -80023.40257446797, 25859.806044078596, -121329.18045868642, 0.066, 0.962, 0.028, 192.0, 0.0, 0.0, 0.0, 0.0, 0.0, 0.0, 0.0, 0.0, 0.0, 1.6664034930429535E9, 0.0, 2022-10-21 18:51:33.042
37.0, -104585.86866687164, -147533.60569877693, -63288.092707168194, -131270.25291565096, 36023.92655896265, -80023.91666459045, 25844.293933426612, -121319.81507775965, 0.066, 0.962, 0.028, 192.0, 0.0, 0.0, 0.0, 0.0, 0.0, 0.0, 0.0, 0.0, 0.0, 1.6664034930429685E9, 0.0, 2022-10-21 18:51:33.042
38.0, -104582.85118137016, -147527.4142655628, -63281.789515231794, -131253.01972067592, 36033.26958814497, -80004.91768180343, 25845.858555538485, -121312.6848712784, 0.066, 0.962, 0.028, 192.0, 0.0, 0.0, 0.0, 0.0, 0.0, 0.0, 0.0, 0.0, 0.0, 1.6664034930429833E9, 0.0, 2022-10-21 18:51:33.042
39.0, -104589.4896494734, -147534.6338790219, -63291.020785691835, -131255.1878398881, 36022.71956476207, -79995.68641134338, 25869.26083198319, -121321.37969987151, 0.066, 0.962, 0.028, 192.0, 0.0, 0.0, 0.0, 0.0, 0.0, 0.0, 0.0, 0.0, 0.0, 1.6664034930429974E9, 0.0, 2022-10-21 18:51:33.042
40.0, -104594.67525418702, -147538.70189651274, -63299.22387590694, -131266.3413603713, 36020.08205891634, -80013.2325307408, 25864.701076114306, -121325.42536561792, 0.064, 0.9560000000000001, 0.022, 192.0, 2.0, 0.0, 29.0, 224.0, 0.0, 176.0, 0.0, 0.0, 0.0, 1.6664034930430472E9, 0.0, 2022-10-21 18:51:33.043
41.0, -104595.94930362098, -147537.85253022343, -63298.933303229016, -131271.81753776284, 36023.948910707106, -80021.07799304462, 25842.483442125733, -121322.47493534982, 0.064, 0.9560000000000001, 0.022, 192.0, 0.0, 0.0, 0.0, 0.0, 0.0, 0.0, 0.0, 0.0, 0.0, 1.6664034930430644E9, 0.0, 2022-10-21 18:51:33.043
42.0, -104595.25639954286, -147538.41132383482, -63298.75448927337, -131269.22473540602, 36024.46300082958, -80013.76897260774, 25840.82941303604, -121318.25045564777, 0.064, 0.9560000000000001, 0.022, 192.0, 0.0, 0.0, 0.0, 0.0, 0.0, 0.0, 0.0, 0.0, 0.0, 1.6664034930430791E9, 0.0, 2022-10-21 18:51:33.043
43.0, -104593.62472219762, -147539.3277453575, -63300.92260848554, -131264.46381383704, 36023.948910707106, -80009.45508592785, 25861.482424912745, -121319.36804287054, 0.064, 0.9560000000000001, 0.022, 192.0, 0.0, 0.0, 0.0, 0.0, 0.0, 0.0, 0.0, 0.0, 0.0, 1.6664034930430937E9, 0.0, 2022-10-21 18:51:33.043
44.0, -104594.51879197583, -147540.3782773469, -63302.77780327533, -131266.11784292673, 36024.150076407204, -80017.36760346504, 25871.607765151, -121317.40108935846, 0.064, 0.9560000000000001, 0.022, 192.0, 0.0, 0.0, 0.0, 0.0, 0.0, 0.0, 0.0, 0.0, 0.0, 1.6664034930431087E9, 0.0, 2022-10-21 18:51:33.043
45.0, -104598.67621644452, -147545.4744750827, -63307.158745188564, -131272.04105520737, 36024.77592525195, -80020.04981279967, 25859.515471400675, -121316.35055736906, 0.064, 0.9560000000000001, 0.022, 192.0, 0.0, 0.0, 0.0, 0.0, 0.0, 0.0, 0.0, 0.0, 0.0, 1.6664034930431232E9, 0.0, 2022-10-21 18:51:33.043
46.0, -104602.65482695757, -147548.7378297732, -63310.84678302369, -131270.99052321797, 36023.61363454028, -80021.390917467, 25848.02667475065, -121320.95501672686, 0.064, 0.9560000000000001, 0.022, 192.0, 0.0, 0.0, 0.0, 0.0, 0.0, 0.0, 0.0, 0.0, 0.0, 1.666403493043138E9, 0.0, 2022-10-21 18:51:33.043
47.0, -104598.96678912244, -147543.84279773745, -63306.28702715481, -131257.8253457338, 36028.70983227609, -80015.40064995298, 25855.894488798916, -121318.56338007015, 0.064, 0.9560000000000001, 0.022, 192.0, 0.0, 0.0, 0.0, 0.0, 0.0, 0.0, 0.0, 0.0, 0.0, 1.6664034930431528E9, 0.0, 2022-10-21 18:51:33.043
48.0, -104599.45852750046, -147545.60858554943, -63308.5445533448, -131260.26168587944, 36025.22296014106, -80010.01387953924, 25873.373552962967, -121327.4370226189, 0.064, 0.9560000000000001, 0.022, 192.0, 0.0, 0.0, 0.0, 0.0, 0.0, 0.0, 0.0, 0.0, 0.0, 1.6664034930431678E9, 0.0, 2022-10-21 18:51:33.043
49.0, -104598.60916121116, -147542.90402447034, -63306.6446550661, -131271.34815112926, 36027.54754156441, -80025.86126635806, 25857.481462655243, -121332.84614477708, 0.064, 0.9560000000000001, 0.022, 192.0, 0.0, 0.0, 0.0, 0.0, 0.0, 0.0, 0.0, 0.0, 0.0, 1.6664034930431824E9, 0.0, 2022-10-21 18:51:33.043
50.0, -104595.14464082058, -147537.00316393413, -63302.19665791949, -131270.09645343976, 36029.84977124331, -80038.51235371977, 25831.329921642533, -121332.82379303263, 0.064, 0.9520000000000001, 0.026000000000000002, 192.0, 2.0, 0.0, 29.0, 192.0, 0.0, 208.0, 0.0, 0.0, 0.0, 1.6664034930431983E9, 0.0, 2022-10-21 18:51:33.043
51.0, -104594.1388123201, -147534.0750854105, -63302.33076838622, -131262.3851016027, 36029.58155030984, -80026.55417043617, 25839.30949441308, -121328.82283077513, 0.064, 0.9520000000000001, 0.026000000000000002, 192.0, 0.0, 0.0, 0.0, 0.0, 0.0, 0.0, 0.0, 0.0, 0.0, 1.6664034930432138E9, 0.0, 2022-10-21 18:51:33.043
52.0, -104599.34676877818, -147537.74077150118, -63307.85164926668, -131261.2898661244, 36028.57572180936, -80017.00997555375, 25867.718561615773, -121329.69454880888, 0.064, 0.9520000000000001, 0.026000000000000002, 192.0, 0.0, 0.0, 0.0, 0.0, 0.0, 0.0, 0.0, 0.0, 0.0, 1.666403493043228E9, 0.0, 2022-10-21 18:51:33.043
53.0, -104594.56349546475, -147531.54933828703, -63307.315207399755, -131265.1343661707, 36035.43770735714, -80031.76212689426, 25855.805081821094, -121323.86074350605, 0.064, 0.9520000000000001, 0.026000000000000002, 192.0, 0.0, 0.0, 0.0, 0.0, 0.0, 0.0, 0.0, 0.0, 0.0, 1.6664034930432427E9, 0.0, 2022-10-21 18:51:33.043
54.0, -104598.16212632206, -147535.9749836892, -63312.23259117992, -131272.66690405214, 36031.772021266464, -80035.83014438512, 25830.748776286695, -121326.47589760732, 0.064, 0.9520000000000001, 0.026000000000000002, 192.0, 0.0, 0.0, 0.0, 0.0, 0.0, 0.0, 0.0, 0.0, 0.0, 1.6664034930432577E9, 0.0, 2022-10-21 18:51:33.043
55.0, -104605.78407118132, -147545.4744750827, -63318.66989358305, -131271.48226159601, 36025.71469851908, -80029.95163559337, 25836.582581589533, -121332.95790349937, 0.064, 0.9520000000000001, 0.026000000000000002, 192.0, 0.0, 0.0, 0.0, 0.0, 0.0, 0.0, 0.0, 0.0, 0.0, 1.666403493043368E9, 0.0, 2022-10-21 18:51:33.043
56.0, -104602.18544032401, -147540.71355351372, -63314.66893132555, -131262.60861904724, 36030.587378810334, -80027.11296404756, 25856.229764965745, -121330.23099067582, 0.064, 0.9520000000000001, 0.026000000000000002, 192.0, 0.0, 0.0, 0.0, 0.0, 0.0, 0.0, 0.0, 0.0, 0.0, 1.6664034930433831E9, 0.0, 2022-10-21 18:51:33.043
57.0, -104600.62081821213, -147539.4171523353, -63313.28312316932, -131268.01774120543, 36034.163657923185, -80030.0410425712, 25851.982933519237, -121331.57209534313, 0.064, 0.9520000000000001, 0.026000000000000002, 192.0, 0.0, 0.0, 0.0, 0.0, 0.0, 0.0, 0.0, 0.0, 0.0, 1.6664034930433977E9, 0.0, 2022-10-21 18:51:33.043
58.0, -104597.49157398839, -147535.7291145002, -63309.66214056756, -131269.47060459503, 36037.73993703603, -80035.33840600711, 25829.43002336383, -121325.11244119555, 0.064, 0.9520000000000001, 0.026000000000000002, 192.0, 0.0, 0.0, 0.0, 0.0, 0.0, 0.0, 0.0, 0.0, 0.0, 1.6664034930434115E9, 0.0, 2022-10-21 18:51:33.043
59.0, -104601.73840543491, -147540.60179479144, -63314.311303414266, -131263.54739231436, 36033.671919545166, -80027.91762684795, 25836.761395545174, -121324.2407231618, 0.064, 0.9520000000000001, 0.026000000000000002, 192.0, 0.0, 0.0, 0.0, 0.0, 0.0, 0.0, 0.0, 0.0, 0.0, 1.666403493043426E9, 0.0, 2022-10-21 18:51:33.043
60.0, -104601.31372229026, -147540.35592560243, -63312.85844002467, -131260.9322382131, 36035.37065212377, -80026.26359775825, 25848.652523595396, -121318.31751088114, 0.068, 0.9580000000000001, 0.028, 192.0, 2.0, 32.0, 29.0, 240.0, 0.0, 224.0, 0.0, 0.0, 0.0, 1.6664034930434403E9, 0.0, 2022-10-21 18:51:33.043
61.0, -104610.43323402802, -147547.9778704617, -63319.65337033908, -131268.17420341662, 36035.638873057236, -80024.36369947955, 25851.87117479696, -121328.46520286385, 0.068, 0.9580000000000001, 0.028, 192.0, 0.0, 0.0, 0.0, 0.0, 0.0, 0.0, 0.0, 0.0, 0.0, 1.6664034930434556E9, 0.0, 2022-10-21 18:51:33.043
62.0, -104617.65284748709, -147554.90691124284, -63328.147033232104, -131285.16152920265, 36030.587378810334, -80037.68533917492, 25828.960636730273, -121337.00356924577, 0.068, 0.9580000000000001, 0.028, 192.0, 0.0, 0.0, 0.0, 0.0, 0.0, 0.0, 0.0, 0.0, 0.0, 1.6664034930434704E9, 0.0, 2022-10-21 18:51:33.043
63.0, -104605.40409152558, -147540.825312236, -63314.19954469199, -131269.76117727294, 36043.41728012768, -80025.10130704657, 25824.892619239406, -121322.11730743854, 0.068, 0.9580000000000001, 0.028, 192.0, 0.0, 0.0, 0.0, 0.0, 0.0, 0.0, 0.0, 0.0, 0.0, 1.6664034930434847E9, 0.0, 2022-10-21 18:51:33.043
64.0, -104605.24762931438, -147538.65719302383, -63311.11500395716, -131256.30542711084, 36048.13349820775, -80007.39872543798, 25851.804119563596, -121315.41178410195, 0.068, 0.9580000000000001, 0.028, 192.0, 0.0, 0.0, 0.0, 0.0, 0.0, 0.0, 0.0, 0.0, 0.0, 1.6664034930434992E9, 0.0, 2022-10-21 18:51:33.043
65.0, -104610.36617879465, -147545.7873995051, -63318.53578311632, -131266.72134002703, 36042.59026558283, -80015.37829820851, 25856.252116710202, -121320.32916788211, 0.068, 0.9580000000000001, 0.028, 192.0, 0.0, 0.0, 0.0, 0.0, 0.0, 0.0, 0.0, 0.0, 0.0, 1.6664034930435135E9, 0.0, 2022-10-21 18:51:33.043
66.0, -104605.5382019923, -147541.16058840282, -63315.406538892574, -131268.46477609454, 36046.390062140235, -80025.54834193568, 25837.610761834476, -121319.34569112607, 0.068, 0.9580000000000001, 0.028, 192.0, 0.0, 0.0, 0.0, 0.0, 0.0, 0.0, 0.0, 0.0, 0.0, 1.666403493043528E9, 0.0, 2022-10-21 18:51:33.043
67.0, -104615.0376933858, -147549.34132687346, -63324.861326797174, -131274.85737500875, 36038.56695158088, -80030.2422082713, 25822.523334327143, -121330.32039765363, 0.068, 0.9580000000000001, 0.028, 192.0, 0.0, 0.0, 0.0, 0.0, 0.0, 0.0, 0.0, 0.0, 0.0, 1.6664034930435424E9, 0.0, 2022-10-21 18:51:33.043
68.0, -104615.46237653046, -147550.39185886286, -63327.588239620716, -131273.51627034144, 36036.1529631797, -80027.9399785924, 25837.141375200914, -121332.95790349937, 0.068, 0.9580000000000001, 0.028, 192.0, 0.0, 0.0, 0.0, 0.0, 0.0, 0.0, 0.0, 0.0, 0.0, 1.6664034930435567E9, 0.0, 2022-10-21 18:51:33.043
69.0, -104616.15528060858, -147550.70478328524, -63330.315152444266, -131276.98079073202, 36035.66122480169, -80030.71159490486, 25845.63503809393, -121331.16976394293, 0.07200000000000001, 0.964, 0.028, 192.0, 2.0, 64.0, 30.0, 32.0, 0.0, 224.0, 0.0, 0.0, 0.0, 1.6664034930435715E9, 0.0, 2022-10-21 18:51:33.043
70.0, -104614.43419628551, -147547.70964952823, -63331.74566408941, -131278.43365412162, 36041.18210568215, -80032.16445829446, 25833.676854810343, -121325.5371243402, 0.07200000000000001, 0.964, 0.028, 192.0, 0.0, 0.0, 0.0, 0.0, 0.0, 0.0, 0.0, 0.0, 0.0, 1.6664034930436022E9, 0.0, 2022-10-21 18:51:33.043
71.0, -104612.10961486216, -147545.40741984933, -63332.52797514534, -131276.55610758736, 36041.51738184898, -80032.70090016138, 25819.25997963667, -121321.75967952725, 0.07200000000000001, 0.964, 0.028, 192.0, 0.0, 0.0, 0.0, 0.0, 0.0, 0.0, 0.0, 0.0, 0.0, 1.6664034930436184E9, 0.0, 2022-10-21 18:51:33.043
72.0, -104611.2378968284, -147544.40159134884, -63332.05858851178, -131271.14698542916, 36041.495030104525, -80036.25482752977, 25816.510715068667, -121322.385528372, 0.07200000000000001, 0.964, 0.028, 192.0, 0.0, 0.0, 0.0, 0.0, 0.0, 0.0, 0.0, 0.0, 0.0, 1.666403493043633E9, 0.0, 2022-10-21 18:51:33.043
73.0, -104619.32922832124, -147552.85055075295, -63341.423969438554, -131271.92929648512, 36037.56112308039, -80029.10226930407, 25830.413500119867, -121329.11340345306, 0.07200000000000001, 0.964, 0.028, 192.0, 0.0, 0.0, 0.0, 0.0, 0.0, 0.0, 0.0, 0.0, 0.0, 1.6664034930436475E9, 0.0, 2022-10-21 18:51:33.043
74.0, -104625.58771676871, -147555.89038799886, -63351.079923043246, -131292.15762521717, 36029.02275669846, -80045.08376658963, 25821.137526170914, -121339.28344718022, 0.07200000000000001, 0.964, 0.028, 192.0, 0.0, 0.0, 0.0, 0.0, 0.0, 0.0, 0.0, 0.0, 0.0, 1.6664034930436616E9, 0.0, 2022-10-21 18:51:33.043
75.0, -104614.47889977443, -147542.5240448146, -63339.054684526294, -131291.71059032806, 36039.63983531473, -80050.55994398116, 25792.66140373485, -121328.21933367483, 0.07200000000000001, 0.964, 0.028, 192.0, 0.0, 0.0, 0.0, 0.0, 0.0, 0.0, 0.0, 0.0, 0.0, 1.666403493043676E9, 0.0, 2022-10-21 18:51:33.043
76.0, -104616.71407421996, -147548.60371930644, -63340.61930663816, -131281.60760183426, 36040.153925437204, -80031.11392630506, 25803.837275962505, -121327.59348483008, 0.07200000000000001, 0.964, 0.028, 192.0, 0.0, 0.0, 0.0, 0.0, 0.0, 0.0, 0.0, 0.0, 0.0, 1.66640349304369E9, 0.0, 2022-10-21 18:51:33.043
77.0, -104623.8442807012, -147555.17513217631, -63349.71646663147, -131285.22858443603, 36034.56598932338, -80038.33353976412, 25812.956787700274, -121331.59444708758, 0.07200000000000001, 0.964, 0.028, 192.0, 0.0, 0.0, 0.0, 0.0, 0.0, 0.0, 0.0, 0.0, 0.0, 1.6664034930437045E9, 0.0, 2022-10-21 18:51:33.043
78.0, -104621.36323706666, -147552.35881237494, -63348.77769336435, -131286.41322689215, 36039.192800425626, -80045.15082182299, 25802.58557827301, -121334.00843548877, 0.07200000000000001, 0.964, 0.028, 192.0, 0.0, 0.0, 0.0, 0.0, 0.0, 0.0, 0.0, 0.0, 0.0, 1.6664034930437188E9, 0.0, 2022-10-21 18:51:33.043
79.0, -104617.4963852759, -147550.2801001406, -63348.01773405287, -131287.91079377066, 36042.36674813828, -80046.0895950901, 25780.680868706808, -121331.01330173176, 0.074, 0.962, 0.032, 192.0, 2.0, 80.0, 30.0, 16.0, 1.0, 0.0, 0.0, 0.0, 0.0, 1.6664034930437334E9, 0.0, 2022-10-21 18:51:33.043
80.0, -104617.96577190945, -147549.69895478475, -63347.97303056396, -131283.32868615733, 36040.33273939285, -80044.65908344497, 25778.892729150382, -121330.5886185871, 0.074, 0.962, 0.032, 192.0, 0.0, 0.0, 0.0, 0.0, 0.0, 0.0, 0.0, 0.0, 0.0, 1.6664034930437484E9, 0.0, 2022-10-21 18:51:33.043
81.0, -104628.0464086588, -147559.60077757845, -63358.00896382439, -131292.2917356839, 36030.252102643506, -80042.60272295508, 25789.86743567794, -121338.389377402, 0.074, 0.962, 0.032, 192.0, 0.0, 0.0, 0.0, 0.0, 0.0, 0.0, 0.0, 0.0, 0.0, 1.6664034930437627E9, 0.0, 2022-10-21 18:51:33.043
82.0, -104637.25532737438, -147568.40736489385, -63369.743629663426, -131305.993355035, 36020.93142520564, -80048.48123174683, 25790.314470567046, -121345.18430771641, 0.074, 0.962, 0.032, 192.0, 0.0, 0.0, 0.0, 0.0, 0.0, 0.0, 0.0, 0.0, 0.0, 1.6664034930437772E9, 0.0, 2022-10-21 18:51:33.043
83.0, -104622.07849288924, -147553.72226878672, -63360.98174583695, -131301.478302655, 36034.34247187882, -80049.97879862534, 25781.127903595916, -121332.68968256589, 0.074, 0.962, 0.032, 192.0, 0.0, 0.0, 0.0, 0.0, 0.0, 0.0, 0.0, 0.0, 0.0, 1.6664034930437913E9, 0.0, 2022-10-21 18:51:33.043
84.0, -104618.92689692104, -147552.04588795255, -63360.19943478101, -131291.82234905034, 36034.54363757892, -80049.95644688088, 25769.281479034602, -121334.29900816668, 0.074, 0.962, 0.032, 192.0, 0.0, 0.0, 0.0, 0.0, 0.0, 0.0, 0.0, 0.0, 0.0, 1.6664034930438058E9, 0.0, 2022-10-21 18:51:33.043
85.0, -104620.75973996636, -147554.2810623981, -63362.03227782634, -131288.1343112152, 36033.64956780071, -80047.45305150189, 25781.39612452938, -121334.41076688896, 0.074, 0.962, 0.032, 192.0, 0.0, 0.0, 0.0, 0.0, 0.0, 0.0, 0.0, 0.0, 0.0, 1.666403493043821E9, 0.0, 2022-10-21 18:51:33.043
0.0, 0.0, 0.0, 0.0, 0.0, 0.0, 0.0, 0.0, 0.0, 0.074, 0.962, 0.032, 192.0, 0.0, 0.0, 0.0, 0.0, 0.0, 0.0, 0.0, 0.0, 0.0, 1.666403493138568E9, 0.0, 2022-10-21 18:51:33.138
1.0, -103824.72471293506, -147627.90770863387, -61916.38850169045, -131056.34672121367, 36519.64354749245, -75649.2555915422, 25995.34702245558, -121383.27168026826, 0.062, 0.97, 0.038, 192.0, 1.0, 240.0, 30.0, 80.0, 1.0, 48.0, 0.0, 0.0, 0.0, 1.6664034931545043E9, 0.0, 2022-10-21 18:51:33.154
2.0, -103833.508948506, -147636.17785408234, -61928.95018207433, -131070.60713417616, 36501.426875761375, -75665.41590278338, 25985.221682217325, -121400.39311652102, 0.062, 0.97, 0.038, 192.0, 0.0, 0.0, 0.0, 0.0, 0.0, 0.0, 0.0, 0.0, 0.0, 1.6664034936369655E9, 0.0, 2022-10-21 18:51:33.636
3.0, -103823.4059600122, -147625.4937202327, -61916.90259181293, -131056.36907295813, 36514.12266661199, -75644.6511321844, 26011.686147652406, -121391.34066001662, 0.062, 0.97, 0.038, 192.0, 0.0, 0.0, 0.0, 0.0, 0.0, 0.0, 0.0, 0.0, 0.0, 1.666403493637051E9, 0.0, 2022-10-21 18:51:33.637
4.0, -103830.20089032661, -147628.06417084506, -61925.887993083954, -131067.20966901895, 36504.48906475175, -75649.36735026448, 26016.11179305456, -121396.21334030788, 0.062, 0.97, 0.038, 192.0, 0.0, 0.0, 0.0, 0.0, 0.0, 0.0, 0.0, 0.0, 0.0, 1.6664034936370883E9, 0.0, 2022-10-21 18:51:33.637
5.0, -103836.23586132955, -147634.92615639284, -61930.40304546393, -131076.91032611256, 36506.34425954155, -75660.87849865896, 25995.70465036686, -121386.71384891437, 0.062, 0.97, 0.038, 192.0, 0.0, 0.0, 0.0, 0.0, 0.0, 0.0, 0.0, 0.0, 0.0, 1.6664034936371372E9, 0.0, 2022-10-21 18:51:33.637
6.0, -103821.23784080004, -147621.87273763094, -61917.88606856896, -131055.36324445764, 36527.26549235171, -75627.93202733184, 26008.33338598411, -121377.01319182078, 0.062, 0.97, 0.038, 192.0, 0.0, 0.0, 0.0, 0.0, 0.0, 0.0, 0.0, 0.0, 0.0, 1.6664034936371603E9, 0.0, 2022-10-21 18:51:33.637
7.0, -103819.69557043262, -147619.32463876304, -61914.019216778186, -131048.76947984332, 36526.5725882736, -75605.08854449852, 26045.839613180116, -121370.86646209557, 0.062, 0.97, 0.038, 192.0, 0.0, 0.0, 0.0, 0.0, 0.0, 0.0, 0.0, 0.0, 0.0, 1.666403493637176E9, 0.0, 2022-10-21 18:51:33.637
8.0, -103821.01432335548, -147621.2468887862, -61914.376844689476, -131053.35158745667, 36526.50553304023, -75623.7522511187, 26047.136014358523, -121367.87132833856, 0.05, 0.96, 0.034, 192.0, 1.0, 144.0, 30.0, 0.0, 1.0, 16.0, 0.0, 0.0, 0.0, 1.6664034936371918E9, 0.0, 2022-10-21 18:51:33.637
9.0, -103825.77524492446, -147624.33142952103, -61921.90938257091, -131065.82386086273, 36521.23052134878, -75639.01849258167, 26023.443165235898, -121380.85769186709, 0.05, 0.96, 0.034, 192.0, 0.0, 0.0, 0.0, 0.0, 0.0, 0.0, 0.0, 0.0, 0.0, 1.6664034936372087E9, 0.0, 2022-10-21 18:51:33.637
10.0, -103819.15912856569, -147619.3916939964, -61916.43320517936, -131055.63146539111, 36526.90786444043, -75642.81828913908, 26007.729888883816, -121377.70609589889, 0.05, 0.96, 0.034, 192.0, 0.0, 0.0, 0.0, 0.0, 0.0, 0.0, 0.0, 0.0, 0.0, 1.6664034936372259E9, 0.0, 2022-10-21 18:51:33.637
11.0, -103828.16688158119, -147629.74055167922, -61926.15621401742, -131055.25148573537, 36520.023527148194, -75638.95143734831, 26011.283816252213, -121382.24350002331, 0.05, 0.96, 0.034, 192.0, 0.0, 0.0, 0.0, 0.0, 0.0, 0.0, 0.0, 0.0, 0.0, 1.6664034936372416E9, 0.0, 2022-10-21 18:51:33.637
12.0, -103846.31649807889, -147645.11855186446, -61946.78687414967, -131068.81899461974, 36502.09742809504, -75637.00683558069, 26028.829935649628, -121400.43782000993, 0.05, 0.96, 0.034, 192.0, 0.0, 0.0, 0.0, 0.0, 0.0, 0.0, 0.0, 0.0, 0.0, 1.6664034936372569E9, 0.0, 2022-10-21 18:51:33.637
13.0, -103850.65273650322, -147648.62777574395, -61957.96274637732, -131083.70525642697, 36495.280146036166, -75653.77064392217, 26021.364453001555, -121406.0034043793, 0.05, 0.96, 0.034, 192.0, 0.0, 0.0, 0.0, 0.0, 0.0, 0.0, 0.0, 0.0, 0.0, 1.6664034936372728E9, 0.0, 2022-10-21 18:51:33.637
14.0, -103826.57990772485, -147625.42666499934, -61937.510900200716, -131067.81316611925, 36518.74947771424, -75634.74930939071, 26023.48786872481, -121380.45536046689, 0.05, 0.96, 0.034, 192.0, 0.0, 0.0, 0.0, 0.0, 0.0, 0.0, 0.0, 0.0, 0.0, 1.6664034936372888E9, 0.0, 2022-10-21 18:51:33.637
15.0, -103824.12121583476, -147620.3975224969, -61931.1183012865, -131055.47500317992, 36528.31602434111, -75618.81251559407, 26037.569467731653, -121370.46413069537, 0.05, 0.96, 0.034, 192.0, 0.0, 0.0, 0.0, 0.0, 0.0, 0.0, 0.0, 0.0, 0.0, 1.6664034936373715E9, 0.0, 2022-10-21 18:51:33.637
16.0, -103837.68872471915, -147635.32848779304, -61942.54004270316, -131058.47013693693, 36519.97882365928, -75618.61134989398, 26052.902764427992, -121373.90629934148, 0.05, 0.96, 0.034, 192.0, 0.0, 0.0, 0.0, 0.0, 0.0, 0.0, 0.0, 0.0, 0.0, 1.6664034936373873E9, 0.0, 2022-10-21 18:51:33.637
17.0, -103840.97443115407, -147638.45773201677, -61944.417589237404, -131069.10956729765, 36516.246082335245, -75633.58701867903, 26050.600534749097, -121377.81785462116, 0.046, 0.9540000000000001, 0.036000000000000004, 192.0, 1.0, 112.0, 29.0, 208.0, 1.0, 32.0, 0.0, 0.0, 0.0, 1.666403493637404E9, 0.0, 2022-10-21 18:51:33.637
18.0, -103828.16688158119, -147622.6997521758, -61933.30877224312, -131060.25827649335, 36532.42874532089, -75638.39264373692, 26029.902819383482, -121372.54284292972, 0.046, 0.9540000000000001, 0.036000000000000004, 192.0, 0.0, 0.0, 0.0, 0.0, 0.0, 0.0, 0.0, 0.0, 0.0, 1.6664034936374228E9, 0.0, 2022-10-21 18:51:33.637
19.0, -103828.34569553682, -147623.07973183153, -61935.74511238875, -131062.44874744998, 36527.80193421864, -75629.49664944371, 26028.740528671806, -121380.5000639558, 0.046, 0.9540000000000001, 0.036000000000000004, 192.0, 0.0, 0.0, 0.0, 0.0, 0.0, 0.0, 0.0, 0.0, 0.0, 1.666403493637438E9, 0.0, 2022-10-21 18:51:33.637
20.0, -103830.98320138255, -147623.1467870649, -61937.443844967354, -131059.31950322623, 36525.3208905841, -75620.33243421704, 26050.01938939326, -121378.62251742155, 0.046, 0.9540000000000001, 0.036000000000000004, 192.0, 0.0, 0.0, 0.0, 0.0, 0.0, 0.0, 0.0, 0.0, 0.0, 1.6664034936374533E9, 0.0, 2022-10-21 18:51:33.637
21.0, -103846.87529169027, -147640.78231344014, -61950.94429861836, -131076.686808668, 36513.13918985596, -75629.4519459548, 26045.3478748021, -121386.64679368101, 0.046, 0.9540000000000001, 0.036000000000000004, 192.0, 0.0, 0.0, 0.0, 0.0, 0.0, 0.0, 0.0, 0.0, 0.0, 1.666403493637468E9, 0.0, 2022-10-21 18:51:33.637
22.0, -103843.38841955524, -147640.0000023842, -61947.25626078323, -131082.56531745975, 36516.13432361297, -75641.56659144958, 26026.393595504, -121384.83630238014, 0.046, 0.9540000000000001, 0.036000000000000004, 192.0, 0.0, 0.0, 0.0, 0.0, 0.0, 0.0, 0.0, 0.0, 0.0, 1.666403493637484E9, 0.0, 2022-10-21 18:51:33.637
23.0, -103842.89668117723, -147639.77648493965, -61943.54587120365, -131068.81899461974, 36524.18095161688, -75624.37809996345, 26039.692883454907, -121377.1473022875, 0.046, 0.9540000000000001, 0.036000000000000004, 192.0, 0.0, 0.0, 0.0, 0.0, 0.0, 0.0, 0.0, 0.0, 0.0, 1.6664034936374993E9, 0.0, 2022-10-21 18:51:33.637
24.0, -103830.73733219354, -147625.4937202327, -61932.124129786986, -131058.49248868138, 36532.2722831097, -75616.75615510419, 26062.424607565954, -121370.12885452854, 0.046, 0.9540000000000001, 0.036000000000000004, 192.0, 0.0, 0.0, 0.0, 0.0, 0.0, 0.0, 0.0, 0.0, 0.0, 1.666403493637515E9, 0.0, 2022-10-21 18:51:33.637
25.0, -103830.06677985989, -147622.20801379776, -61932.68292339837, -131059.92300032653, 36532.78637323217, -75625.47333544175, 26060.815281965173, -121376.65556390949, 0.046, 0.9540000000000001, 0.036000000000000004, 192.0, 0.0, 0.0, 0.0, 0.0, 0.0, 0.0, 0.0, 0.0, 0.0, 1.66640349363753E9, 0.0, 2022-10-21 18:51:33.637
26.0, -103829.21741357059, -147624.46553998775, -61930.82772860858, -131057.19608750298, 36539.313082613124, -75623.37227146295, 26049.550002759697, -121372.07345629614, 0.046, 0.9540000000000001, 0.036000000000000004, 192.0, 0.0, 0.0, 0.0, 0.0, 0.0, 0.0, 0.0, 0.0, 0.0, 1.666403493637545E9, 0.0, 2022-10-21 18:51:33.637
27.0, -103832.74898919452, -147627.90770863387, -61932.34764723154, -131062.7840236168, 36533.83690522157, -75629.36253897697, 26036.787156675717, -121360.2940869682, 0.04, 0.9580000000000001, 0.036000000000000004, 192.0, 1.0, 64.0, 29.0, 240.0, 1.0, 32.0, 0.0, 0.0, 0.0, 1.6664034936375604E9, 0.0, 2022-10-21 18:51:33.637
28.0, -103834.85005317332, -147627.46067374476, -61937.510900200716, -131064.84038410669, 36524.627986505984, -75639.59963793751, 26035.4460520084, -121362.32809571363, 0.04, 0.9580000000000001, 0.036000000000000004, 192.0, 0.0, 0.0, 0.0, 0.0, 0.0, 0.0, 0.0, 0.0, 0.0, 1.66640349363758E9, 0.0, 2022-10-21 18:51:33.637
29.0, -103843.88015793326, -147640.29057506213, -61953.090066086064, -131081.40302674807, 36514.39088754546, -75644.04763508412, 26036.116604342056, -121378.71192439938, 0.04, 0.9580000000000001, 0.036000000000000004, 192.0, 0.0, 0.0, 0.0, 0.0, 0.0, 0.0, 0.0, 0.0, 0.0, 1.6664034936375952E9, 0.0, 2022-10-21 18:51:33.637
30.0, -103828.83743391484, -147624.8455196435, -61937.15327228943, -131073.71402665545, 36535.46858256681, -75632.55883843408, 26034.395520019, -121358.50594741177, 0.04, 0.9580000000000001, 0.036000000000000004, 192.0, 0.0, 0.0, 0.0, 0.0, 0.0, 0.0, 0.0, 0.0, 0.0, 1.666403493637626E9, 0.0, 2022-10-21 18:51:33.637
31.0, -103819.42734949915, -147611.76974913714, -61924.18926050535, -131058.82776484822, 36545.057480938136, -75628.37906222095, 26025.544229214698, -121347.53124088423, 0.04, 0.9580000000000001, 0.036000000000000004, 192.0, 0.0, 0.0, 0.0, 0.0, 0.0, 0.0, 0.0, 0.0, 0.0, 1.6664034936376412E9, 0.0, 2022-10-21 18:51:33.637
32.0, -103829.59739322632, -147624.93492662132, -61935.3204292441, -131057.86663983663, 36534.39569883295, -75619.01368129416, 26040.34108404411, -121349.76641532975, 0.04, 0.9580000000000001, 0.036000000000000004, 192.0, 0.0, 0.0, 0.0, 0.0, 0.0, 0.0, 0.0, 0.0, 0.0, 1.6664034936376567E9, 0.0, 2022-10-21 18:51:33.637
33.0, -103842.06966663238, -147636.40137152688, -61945.55752820463, -131075.56922144524, 36521.208169604324, -75626.41210870887, 26045.325523057643, -121361.05404627968, 0.04, 0.9580000000000001, 0.036000000000000004, 192.0, 0.0, 0.0, 0.0, 0.0, 0.0, 0.0, 0.0, 0.0, 0.0, 1.6664034936376717E9, 0.0, 2022-10-21 18:51:33.637
35.0, -103829.01624787049, -147621.87273763094, -61932.41470246491, -131067.81316611925, 36532.94283544336, -75636.53744894713, 26033.792022918708, -121368.09484578311, 0.04, 0.9580000000000001, 0.036000000000000004, 192.0, 0.0, 0.0, 0.0, 0.0, 0.0, 0.0, 0.0, 0.0, 0.0, 1.666403493637687E9, 0.0, 2022-10-21 18:51:33.637
36.0, -103832.81604442789, -147632.89214764742, -61941.37775199149, -131065.42152946253, 36525.65616675093, -75638.99614083722, 26032.51797348475, -121367.78192136073, 0.04, 0.9580000000000001, 0.036000000000000004, 192.0, 0.0, 0.0, 0.0, 0.0, 0.0, 0.0, 0.0, 0.0, 0.0, 1.6664034936377025E9, 0.0, 2022-10-21 18:51:33.637
37.0, -103824.94823037961, -147623.10208357597, -61931.61003966451, -131053.91038106804, 36539.38013784649, -75623.01464355167, 26063.117511644068, -121351.86747930855, 0.038, 0.9580000000000001, 0.042, 192.0, 1.0, 48.0, 29.0, 240.0, 1.0, 80.0, 0.0, 0.0, 0.0, 1.6664034936377175E9, 0.0, 2022-10-21 18:51:33.637
38.0, -103825.35056177981, -147620.91161261935, -61932.548812931636, -131065.46623295144, 36539.111916913025, -75628.3567104765, 26059.742398231316, -121351.97923803082, 0.038, 0.9580000000000001, 0.042, 192.0, 0.0, 0.0, 0.0, 0.0, 0.0, 0.0, 0.0, 0.0, 0.0, 1.6664034936377337E9, 0.0, 2022-10-21 18:51:33.637
39.0, -103834.58183223986, -147629.40527551237, -61943.814092137116, -131084.01818084935, 36526.97491967379, -75651.71428343229, 26027.53353447122, -121366.64198239351, 0.038, 0.9580000000000001, 0.042, 192.0, 0.0, 0.0, 0.0, 0.0, 0.0, 0.0, 0.0, 0.0, 0.0, 1.666403493637749E9, 0.0, 2022-10-21 18:51:33.637
40.0, -103844.21543410009, -147638.48008376124, -61950.13963581796, -131086.47687273944, 36518.213035847315, -75654.3070857891, 26027.01944434875, -121370.84411035111, 0.038, 0.9580000000000001, 0.042, 192.0, 0.0, 0.0, 0.0, 0.0, 0.0, 0.0, 0.0, 0.0, 0.0, 1.666403493637764E9, 0.0, 2022-10-21 18:51:33.637
41.0, -103834.09009386184, -147624.17496730984, -61940.34957174654, -131076.84327087918, 36530.68530925337, -75638.63851292593, 26049.862927182072, -121361.3446189576, 0.038, 0.9580000000000001, 0.042, 192.0, 0.0, 0.0, 0.0, 0.0, 0.0, 0.0, 0.0, 0.0, 0.0, 1.666403493637779E9, 0.0, 2022-10-21 18:51:33.637
42.0, -103841.13089336526, -147629.67349644584, -61940.081350813074, -131086.3874657616, 36530.32768134209, -75646.41691999638, 26039.603476477085, -121359.04238927871, 0.038, 0.9580000000000001, 0.042, 192.0, 0.0, 0.0, 0.0, 0.0, 0.0, 0.0, 0.0, 0.0, 0.0, 1.6664034936377943E9, 0.0, 2022-10-21 18:51:33.637
43.0, -103833.66541071719, -147622.67740043133, -61933.64404840995, -131080.44190173649, 36540.31891111361, -75638.86203037048, 26030.126336828034, -121344.20083096038, 0.038, 0.9580000000000001, 0.042, 192.0, 0.0, 0.0, 0.0, 0.0, 0.0, 0.0, 0.0, 0.0, 0.0, 1.6664034936378095E9, 0.0, 2022-10-21 18:51:33.637
44.0, -103834.1124456063, -147624.53259522113, -61935.45453971083, -131078.05026507977, 36534.149829643946, -75634.27992275714, 26030.707482183872, -121344.98314201631, 0.038, 0.9580000000000001, 0.042, 192.0, 0.0, 0.0, 0.0, 0.0, 0.0, 0.0, 0.0, 0.0, 0.0, 1.6664034936378243E9, 0.0, 2022-10-21 18:51:33.637
45.0, -103834.9618118956, -147624.4431882433, -61935.767464133205, -131066.87439285213, 36534.88743721097, -75634.39168147942, 26041.033988122224, -121347.53124088423, 0.038, 0.9580000000000001, 0.042, 192.0, 0.0, 0.0, 0.0, 0.0, 0.0, 0.0, 0.0, 0.0, 0.0, 1.6664034936378393E9, 0.0, 2022-10-21 18:51:33.637
46.0, -103845.51183527849, -147635.21672907076, -61947.74799916125, -131084.33110527173, 36525.36559407301, -75652.47424274376, 26034.306113041177, -121359.37766544553, 0.034, 0.9580000000000001, 0.042, 192.0, 1.0, 16.0, 29.0, 240.0, 1.0, 80.0, 0.0, 0.0, 0.0, 1.6664034936378682E9, 0.0, 2022-10-21 18:51:33.637
47.0, -103836.12410260727, -147626.38779001092, -61937.17562403389, -131079.70429416947, 36532.78637323217, -75658.3080480466, 26024.471345480844, -121346.72657808384, 0.034, 0.9580000000000001, 0.042, 192.0, 0.0, 0.0, 0.0, 0.0, 0.0, 0.0, 0.0, 0.0, 0.0, 1.666403493637884E9, 0.0, 2022-10-21 18:51:33.637
48.0, -103842.60610849931, -147630.12053133495, -61942.02595258069, -131085.2922302833, 36527.019623162705, -75658.9562486358, 26020.179810545425, -121349.20762171836, 0.034, 0.9580000000000001, 0.042, 192.0, 0.0, 0.0, 0.0, 0.0, 0.0, 0.0, 0.0, 0.0, 0.0, 1.6664034936378987E9, 0.0, 2022-10-21 18:51:33.637
49.0, -103856.97828018408, -147641.60932798497, -61947.83740613907, -131085.44869249448, 36527.73487898528, -75650.68610318734, 26034.306113041177, -121355.06377876566, 0.034, 0.9580000000000001, 0.042, 192.0, 0.0, 0.0, 0.0, 0.0, 0.0, 0.0, 0.0, 0.0, 0.0, 1.6664034936379137E9, 0.0, 2022-10-21 18:51:33.637
50.0, -103858.45349531813, -147644.42564778635, -61956.55458647664, -131093.5400239873, 36524.18095161688, -75650.9543241208, 26045.392578291012, -121365.90437482648, 0.034, 0.9580000000000001, 0.042, 192.0, 0.0, 0.0, 0.0, 0.0, 0.0, 0.0, 0.0, 0.0, 0.0, 1.66640349363793E9, 0.0, 2022-10-21 18:51:33.637
51.0, -103832.95015489461, -147621.4480544863, -61934.24754551024, -131080.82188139224, 36545.86214373853, -75660.72203644777, 26036.027197364238, -121342.8373745486, 0.034, 0.9580000000000001, 0.042, 192.0, 0.0, 0.0, 0.0, 0.0, 0.0, 0.0, 0.0, 0.0, 0.0, 1.666403493637945E9, 0.0, 2022-10-21 18:51:33.637
52.0, -103849.82572195838, -147637.45190351628, -61946.54100496066, -131089.22613730744, 36534.99919593325, -75666.82406268407, 26016.514124454752, -121357.03073227772, 0.034, 0.9580000000000001, 0.042, 192.0, 0.0, 0.0, 0.0, 0.0, 0.0, 0.0, 0.0, 0.0, 0.0, 1.66640349363796E9, 0.0, 2022-10-21 18:51:33.637
53.0, -103856.10656215031, -147639.35180179498, -61954.34176377556, -131087.7956256623, 36528.763059230216, -75658.0621788576, 26030.193392061403, -121360.83052883513, 0.034, 0.9580000000000001, 0.042, 192.0, 0.0, 0.0, 0.0, 0.0, 0.0, 0.0, 0.0, 0.0, 0.0, 1.6664034936379747E9, 0.0, 2022-10-21 18:51:33.637
54.0, -103845.44478004513, -147630.79108366862, -61948.127978816985, -131078.34083775769, 36539.29073086867, -75657.12340559046, 26040.810470677672, -121349.76641532975, 0.034, 0.9580000000000001, 0.042, 192.0, 0.0, 0.0, 0.0, 0.0, 0.0, 0.0, 0.0, 0.0, 0.0, 1.66640349363799E9, 0.0, 2022-10-21 18:51:33.637
55.0, -103830.5585182379, -147616.73183640622, -61936.10274030003, -131072.73054989942, 36555.6298560655, -75654.26238230019, 26026.170078059447, -121336.33301691212, 0.034, 0.9580000000000001, 0.042, 192.0, 0.0, 0.0, 0.0, 0.0, 0.0, 0.0, 0.0, 0.0, 0.0, 1.6664034936380048E9, 0.0, 2022-10-21 18:51:33.638
56.0, -103845.17655911167, -147627.32656327804, -61947.435074738874, -131080.19603254748, 36550.42189960741, -75645.7016641738, 26024.225476291835, -121338.43408089092, 0.036000000000000004, 0.9520000000000001, 0.046, 192.0, 1.0, 32.0, 29.0, 192.0, 1.0, 112.0, 0.0, 0.0, 0.0, 1.6664034936380205E9, 0.0, 2022-10-21 18:51:33.638
57.0, -103836.90641366321, -147619.9951910967, -61940.61779268001, -131068.81899461974, 36556.0768909546, -75639.66669317088, 26045.124357357545, -121323.70428129486, 0.036000000000000004, 0.9520000000000001, 0.046, 192.0, 0.0, 0.0, 0.0, 0.0, 0.0, 0.0, 0.0, 0.0, 0.0, 1.6664034936380367E9, 0.0, 2022-10-21 18:51:33.638
58.0, -103832.99485838352, -147614.60842068295, -61937.376789733986, -131056.79375610278, 36560.41312937893, -75637.11859430297, 26052.88041268354, -121323.07843245011, 0.036000000000000004, 0.9520000000000001, 0.046, 192.0, 0.0, 0.0, 0.0, 0.0, 0.0, 0.0, 0.0, 0.0, 0.0, 1.666403493638052E9, 0.0, 2022-10-21 18:51:33.638
59.0, -103849.60220451382, -147629.71819993475, -61951.92777537439, -131081.44773023698, 36542.62114079251, -75651.82604215456, 26038.262371809768, -121336.71299656785, 0.036000000000000004, 0.9520000000000001, 0.046, 192.0, 0.0, 0.0, 0.0, 0.0, 0.0, 0.0, 0.0, 0.0, 0.0, 1.6664034936380668E9, 0.0, 2022-10-21 18:51:33.638
60.0, -103870.54578906845, -147652.36051706798, -61973.47485702931, -131108.5380445168, 36520.023527148194, -75689.62284202849, 25998.409211445956, -121365.30087772619, 0.036000000000000004, 0.9520000000000001, 0.046, 192.0, 0.0, 0.0, 0.0, 0.0, 0.0, 0.0, 0.0, 0.0, 0.0, 1.6664034936380827E9, 0.0, 2022-10-21 18:51:33.638
61.0, -103848.93165218017, -147631.81926391355, -61951.79366490766, -131082.96764885995, 36541.25768438073, -75670.17682435237, 26021.364453001555, -121342.6362088485, 0.036000000000000004, 0.9520000000000001, 0.046, 192.0, 0.0, 0.0, 0.0, 0.0, 0.0, 0.0, 0.0, 0.0, 0.0, 1.6664034936381097E9, 0.0, 2022-10-21 18:51:33.638
62.0, -103839.32040206438, -147624.35378126547, -61938.628487423484, -131073.35639874416, 36552.724129286304, -75652.49659448821, 26051.651066738497, -121328.46520286385, 0.036000000000000004, 0.9520000000000001, 0.046, 192.0, 0.0, 0.0, 0.0, 0.0, 0.0, 0.0, 0.0, 0.0, 0.0, 1.666403493638124E9, 0.0, 2022-10-21 18:51:33.638
63.0, -103835.52060550697, -147624.17496730984, -61939.79077813516, -131078.74316915788, 36556.43451886589, -75661.10201610351, 26036.00484561978, -121331.88501976551, 0.036000000000000004, 0.9520000000000001, 0.046, 192.0, 0.0, 0.0, 0.0, 0.0, 0.0, 0.0, 0.0, 0.0, 0.0, 1.666403493638138E9, 0.0, 2022-10-21 18:51:33.638
64.0, -103845.33302132286, -147629.74055167922, -61951.123112574, -131094.92583214355, 36545.50451582724, -75674.15543486542, 26009.115697040048, -121338.43408089092, 0.036000000000000004, 0.9520000000000001, 0.046, 192.0, 0.0, 0.0, 0.0, 0.0, 0.0, 0.0, 0.0, 0.0, 0.0, 1.6664034936381521E9, 0.0, 2022-10-21 18:51:33.638
65.0, -103836.39232354073, -147621.62686844193, -61941.06482756911, -131083.6829046825, 36553.5287920867, -75665.37119929447, 26013.541342442197, -121330.18628718691, 0.036000000000000004, 0.9520000000000001, 0.046, 192.0, 0.0, 0.0, 0.0, 0.0, 0.0, 0.0, 0.0, 0.0, 0.0, 1.6664034936381676E9, 0.0, 2022-10-21 18:51:33.638
66.0, -103843.50017827752, -147629.51703423465, -61946.98803984977, -131078.74316915788, 36548.87962923999, -75653.54712647761, 26033.657912451974, -121339.90929602497, 0.042, 0.9520000000000001, 0.046, 192.0, 1.0, 80.0, 29.0, 192.0, 1.0, 112.0, 0.0, 0.0, 0.0, 1.6664034936381814E9, 0.0, 2022-10-21 18:51:33.638
67.0, -103855.19014062764, -147637.96599363876, -61952.86654864151, -131089.40495126307, 36544.141059415466, -75654.46354800029, 26040.16227008847, -121349.07351125164, 0.042, 0.9520000000000001, 0.046, 192.0, 0.0, 0.0, 0.0, 0.0, 0.0, 0.0, 0.0, 0.0, 0.0, 1.666403493638196E9, 0.0, 2022-10-21 18:51:33.638
68.0, -103849.512797536, -147633.07096160305, -61950.161987562424, -131093.40591352058, 36547.158544916936, -75662.62193472647, 26028.964046116358, -121337.80823204617, 0.042, 0.9520000000000001, 0.046, 192.0, 0.0, 0.0, 0.0, 0.0, 0.0, 0.0, 0.0, 0.0, 0.0, 1.6664034936382098E9, 0.0, 2022-10-21 18:51:33.638
69.0, -103834.1124456063, -147617.15651955086, -61935.141615288456, -131075.92684935653, 36559.586114834085, -75657.72690269076, 26037.90474389848, -121312.8860369785, 0.042, 0.9520000000000001, 0.046, 192.0, 0.0, 0.0, 0.0, 0.0, 0.0, 0.0, 0.0, 0.0, 0.0, 1.6664034936382236E9, 0.0, 2022-10-21 18:51:33.638
70.0, -103844.66246898919, -147626.61130745546, -61939.63431592397, -131076.48564296792, 36552.00887346374, -75656.0058183677, 26061.150558132, -121321.82673476062, 0.042, 0.9520000000000001, 0.046, 192.0, 0.0, 0.0, 0.0, 0.0, 0.0, 0.0, 0.0, 0.0, 0.0, 1.6664034936382377E9, 0.0, 2022-10-21 18:51:33.638
71.0, -103847.23291960156, -147630.29934529058, -61944.842272382055, -131083.36998026015, 36549.527829829196, -75675.72005697728, 26060.658819753986, -121325.06773770663, 0.042, 0.9520000000000001, 0.046, 192.0, 0.0, 0.0, 0.0, 0.0, 0.0, 0.0, 0.0, 0.0, 0.0, 1.6664034936382525E9, 0.0, 2022-10-21 18:51:33.638
72.0, -103842.33788756584, -147625.0466853436, -61940.997772335744, -131090.07550359674, 36554.44521360937, -75684.59369952604, 26036.340121786612, -121330.14158369799, 0.042, 0.9520000000000001, 0.046, 192.0, 0.0, 0.0, 0.0, 0.0, 0.0, 0.0, 0.0, 0.0, 0.0, 1.6664034936382666E9, 0.0, 2022-10-21 18:51:33.638
73.0, -103843.61193699979, -147623.593821954, -61938.628487423484, -131084.39816050508, 36556.032187465695, -75680.57038552409, 26030.126336828034, -121330.14158369799, 0.042, 0.9520000000000001, 0.046, 192.0, 0.0, 0.0, 0.0, 0.0, 0.0, 0.0, 0.0, 0.0, 0.0, 1.6664034936382804E9, 0.0, 2022-10-21 18:51:33.638
74.0, -103839.63332648676, -147619.05641782956, -61936.59447867805, -131074.38457898912, 36558.22265842231, -75666.26526907268, 26054.333276073132, -121323.74898478377, 0.042, 0.9520000000000001, 0.046, 192.0, 0.0, 0.0, 0.0, 0.0, 0.0, 0.0, 0.0, 0.0, 0.0, 1.6664034936382942E9, 0.0, 2022-10-21 18:51:33.638
75.0, -103851.47975104807, -147628.60061271198, -61951.704257929836, -131089.5390617298, 36545.884495482984, -75670.04271388563, 26059.362418575576, -121342.32328442614, 0.044, 0.96, 0.044, 192.0, 1.0, 96.0, 30.0, 0.0, 1.0, 96.0, 0.0, 0.0, 0.0, 1.6664034936383078E9, 0.0, 2022-10-21 18:51:33.638
76.0, -103847.12116087928, -147627.66183944486, -61944.26112702622, -131098.47975951192, 36551.71830078582, -75679.18457736785, 26042.419796278453, -121335.99774074528, 0.044, 0.96, 0.044, 192.0, 0.0, 0.0, 0.0, 0.0, 0.0, 0.0, 0.0, 0.0, 0.0, 1.6664034936383345E9, 0.0, 2022-10-21 18:51:33.638
77.0, -103851.09977139233, -147630.67932494634, -61945.78104564918, -131100.31260255727, 36553.03705370868, -75678.13404537845, 26041.21280207787, -121330.56626684264, 0.044, 0.96, 0.044, 192.0, 0.0, 0.0, 0.0, 0.0, 0.0, 0.0, 0.0, 0.0, 0.0, 1.666403493638348E9, 0.0, 2022-10-21 18:51:33.638
78.0, -103848.57402426888, -147625.76194116616, -61939.38844673496, -131089.22613730744, 36557.86503051103, -75669.41686504088, 26060.54706103171, -121320.12800218201, 0.044, 0.96, 0.044, 192.0, 0.0, 0.0, 0.0, 0.0, 0.0, 0.0, 0.0, 0.0, 0.0, 1.666403493638362E9, 0.0, 2022-10-21 18:51:33.638
79.0, -103845.22126260058, -147622.9009178759, -61935.05220831063, -131087.30388728427, 36562.46948986882, -75656.8104811681, 26083.144674676023, -121309.62268228803, 0.044, 0.96, 0.044, 192.0, 0.0, 0.0, 0.0, 0.0, 0.0, 0.0, 0.0, 0.0, 0.0, 1.6664034936383755E9, 0.0, 2022-10-21 18:51:33.638
80.0, -103851.36799232579, -147630.07582784604, -61946.00456309373, -131101.81016943578, 36552.56766707512, -75672.09907437552, 26068.414875079976, -121322.96667372785, 0.044, 0.96, 0.044, 192.0, 0.0, 0.0, 0.0, 0.0, 0.0, 0.0, 0.0, 0.0, 0.0, 1.666403493638389E9, 0.0, 2022-10-21 18:51:33.638
81.0, -103855.8606929613, -147633.40623776987, -61951.79366490766, -131102.61483223617, 36546.599751305555, -75686.67241176039, 26051.405197549488, -121332.33205465462, 0.044, 0.96, 0.044, 192.0, 0.0, 0.0, 0.0, 0.0, 0.0, 0.0, 0.0, 0.0, 0.0, 1.666403493638403E9, 0.0, 2022-10-21 18:51:33.638
82.0, -103862.3650505978, -147642.48104601874, -61958.67800219989, -131104.06769562577, 36540.14009715797, -75696.50717932072, 26055.562622018173, -121342.4350431484, 0.044, 0.96, 0.044, 192.0, 0.0, 0.0, 0.0, 0.0, 0.0, 0.0, 0.0, 0.0, 0.0, 1.6664034936384184E9, 0.0, 2022-10-21 18:51:33.638
83.0, -103839.2086433421, -147617.6482579289, -61930.11247278601, -131076.15036680107, 36572.21485045133, -75664.09714986052, 26099.707317317407, -121303.45360081835, 0.044, 0.96, 0.044, 192.0, 0.0, 0.0, 0.0, 0.0, 0.0, 0.0, 0.0, 0.0, 0.0, 1.6664034936384368E9, 0.0, 2022-10-21 18:51:33.638
84.0, -103832.79369268342, -147605.26539150064, -61922.31171397111, -131070.22715452041, 36579.97090577733, -75654.12827183346, 26112.55957037921, -121279.15725459544, 0.044, 0.96, 0.044, 192.0, 0.0, 0.0, 0.0, 0.0, 0.0, 0.0, 0.0, 0.0, 0.0, 1.6664034936384509E9, 0.0, 2022-10-21 18:51:33.638
85.0, -103855.39130632774, -147633.62975521444, -61954.83350215358, -131115.958823676, 36546.28682688318, -75698.09415317705, 26058.02131390826, -121332.22029593233, 0.046, 0.964, 0.04, 192.0, 1.0, 112.0, 30.0, 32.0, 1.0, 64.0, 0.0, 0.0, 0.0, 1.6664034936384647E9, 0.0, 2022-10-21 18:51:33.638
86.0, -103857.80529472891, -147637.60836572747, -61959.952051633845, -131120.1609516336, 36535.28976861117, -75709.80646727163, 26053.77448246175, -121345.7431013278, 0.046, 0.964, 0.04, 192.0, 0.0, 0.0, 0.0, 0.0, 0.0, 0.0, 0.0, 0.0, 0.0, 1.66640349363848E9, 0.0, 2022-10-21 18:51:33.638
87.0, -103846.22709110107, -147622.25271728667, -61943.523519459195, -131103.46419852547, 36546.376233861, -75695.92603396488, 26082.652936298007, -121325.02303421772, 0.046, 0.964, 0.04, 192.0, 0.0, 0.0, 0.0, 0.0, 0.0, 0.0, 0.0, 0.0, 0.0, 1.6664034936384935E9, 0.0, 2022-10-21 18:51:33.638
88.0, -103845.69064923414, -147623.68322893183, -61942.0706560696, -131112.18137886302, 36549.527829829196, -75700.95517646732, 26073.600479793608, -121316.46231609135, 0.046, 0.964, 0.04, 192.0, 0.0, 0.0, 0.0, 0.0, 0.0, 0.0, 0.0, 0.0, 0.0, 1.6664034936385074E9, 0.0, 2022-10-21 18:51:33.638
89.0, -103840.63915498724, -147619.61521144095, -61936.795644378144, -131112.2484340964, 36556.74744328826, -75697.28949037666, 26057.3507615746, -121304.95116769687, 0.046, 0.964, 0.04, 192.0, 0.0, 0.0, 0.0, 0.0, 0.0, 0.0, 0.0, 0.0, 0.0, 1.6664034936385212E9, 0.0, 2022-10-21 18:51:33.638
90.0, -103838.20281484161, -147614.87664161643, -61930.11247278601, -131095.86460541066, 36561.217792179326, -75685.68893500435, 26058.736569730827, -121305.82288573062, 0.046, 0.964, 0.04, 192.0, 0.0, 0.0, 0.0, 0.0, 0.0, 0.0, 0.0, 0.0, 0.0, 1.6664034936385348E9, 0.0, 2022-10-21 18:51:33.638
91.0, -103865.04725993244, -147642.7492669522, -61956.50988298773, -131113.07544864123, 36538.53077155719, -75695.3225368646, 26070.49358731432, -121335.19307794489, 0.046, 0.964, 0.04, 192.0, 0.0, 0.0, 0.0, 0.0, 0.0, 0.0, 0.0, 0.0, 0.0, 1.6664034936385484E9, 0.0, 2022-10-21 18:51:33.638
92.0, -103844.64011724474, -147618.22940328473, -61931.36417047551, -131104.1347508591, 36561.70953055734, -75698.58589155506, 26080.931851974947, -121315.52354282422, 0.046, 0.964, 0.04, 192.0, 0.0, 0.0, 0.0, 0.0, 0.0, 0.0, 0.0, 0.0, 0.0, 1.666403493638575E9, 0.0, 2022-10-21 18:51:33.638
93.0, -103835.74412295152, -147607.2994002461, -61919.38363544746, -131092.3330297867, 36577.221641209326, -75692.97560369679, 26067.92313670196, -121295.45167630336, 0.046, 0.964, 0.04, 192.0, 0.0, 0.0, 0.0, 0.0, 0.0, 0.0, 0.0, 0.0, 0.0, 1.66640349363859E9, 0.0, 2022-10-21 18:51:33.638
94.0, -103841.82379744337, -147616.5977259395, -61926.35737971752, -131095.81990192176, 36570.53846961719, -75691.7686094962, 26059.340066831122, -121304.75000199677, 0.046, 0.964, 0.04, 192.0, 0.0, 0.0, 0.0, 0.0, 0.0, 0.0, 0.0, 0.0, 0.0, 1.666403493638604E9, 0.0, 2022-10-21 18:51:33.638
95.0, -103851.27858534797, -147624.57729871004, -61933.800510621135, -131097.8315589227, 36562.89417301347, -75686.5159495492, 26075.72389551686, -121322.96667372785, 0.048, 0.9560000000000001, 0.042, 192.0, 1.0, 128.0, 29.0, 224.0, 1.0, 80.0, 0.0, 0.0, 0.0, 1.6664034936386185E9, 0.0, 2022-10-21 18:51:33.638
96.0, -103858.00646042901, -147631.52869123564, -61939.50020545724, -131106.32522181573, 36559.09437645607, -75696.2166066428, 26084.217558409877, -121323.34665338357, 0.048, 0.9560000000000001, 0.042, 192.0, 0.0, 0.0, 0.0, 0.0, 0.0, 0.0, 0.0, 0.0, 0.0, 1.6664034936386328E9, 0.0, 2022-10-21 18:51:33.638
97.0, -103861.20275988613, -147636.13315059344, -61948.753827661734, -131117.32228008774, 36552.813536264126, -75716.10965920803, 26066.045590167712, -121326.94528424088, 0.048, 0.9560000000000001, 0.042, 192.0, 0.0, 0.0, 0.0, 0.0, 0.0, 0.0, 0.0, 0.0, 0.0, 1.6664034936386473E9, 0.0, 2022-10-21 18:51:33.638
98.0, -103862.20858838661, -147639.44120877283, -61948.23973753926, -131125.2571493694, 36547.493821083764, -75715.1708859409, 26060.032970909237, -121331.28152266522, 0.048, 0.9560000000000001, 0.042, 192.0, 0.0, 0.0, 0.0, 0.0, 0.0, 0.0, 0.0, 0.0, 0.0, 1.6664034936386616E9, 0.0, 2022-10-21 18:51:33.638
99.0, -103848.23874810204, -147624.17496730984, -61923.317542471596, -131107.8898439276, 36565.71049281484, -75698.34002236606, 26086.676250299963, -121305.5323130527, 0.048, 0.9560000000000001, 0.042, 192.0, 0.0, 0.0, 0.0, 0.0, 0.0, 0.0, 0.0, 0.0, 0.0, 1.666403493638676E9, 0.0, 2022-10-21 18:51:33.638
100.0, -103846.80823645691, -147622.85621438696, -61924.32337097209, -131110.77321896233, 36564.704664314355, -75694.115542664, 26096.198093437924, -121310.85202823306, 0.048, 0.9560000000000001, 0.042, 192.0, 0.0, 0.0, 0.0, 0.0, 0.0, 0.0, 0.0, 0.0, 0.0, 1.66640349363869E9, 0.0, 2022-10-21 18:51:33.638
101.0, -103845.22126260058, -147620.57633645253, -61921.998789548736, -131113.701297486, 36566.917487015424, -75698.83176074407, 26088.106761945102, -121315.70235677986, 0.048, 0.9560000000000001, 0.042, 192.0, 0.0, 0.0, 0.0, 0.0, 0.0, 0.0, 0.0, 0.0, 0.0, 1.666403493638704E9, 0.0, 2022-10-21 18:51:33.638
102.0, -103853.46905630459, -147626.85717664447, -61933.12995828748, -131112.91898643004, 36561.66482706843, -75698.78705725516, 26086.519788088775, -121329.26986566423, 0.048, 0.9560000000000001, 0.042, 192.0, 0.0, 0.0, 0.0, 0.0, 0.0, 0.0, 0.0, 0.0, 0.0, 1.666403493638718E9, 0.0, 2022-10-21 18:51:33.638
103.0, -103864.24259713205, -147636.35666803797, -61946.13867356047, -131123.13373364613, 36544.02930069319, -75704.73262128027, 26099.461448128397, -121345.51958388324, 0.048, 0.9560000000000001, 0.042, 192.0, 0.0, 0.0, 0.0, 0.0, 0.0, 0.0, 0.0, 0.0, 0.0, 1.6664034936387317E9, 0.0, 2022-10-21 18:51:33.638
104.0, -103872.95977746962, -147646.41495304287, -61943.657629925925, -131130.44275408302, 36541.57060880311, -75710.43231611638, 26116.73934659235, -121335.95303725637, 0.048, 0.9560000000000001, 0.042, 192.0, 0.0, 0.0, 0.0, 0.0, 0.0, 0.0, 0.0, 0.0, 0.0, 1.6664034936387453E9, 0.0, 2022-10-21 18:51:33.638
105.0, -103850.60803301432, -147623.57147020954, -61919.69655986984, -131119.26688185535, 36568.03507423819, -75708.95710098233, 26107.508076132308, -121303.14067639598, 0.044, 0.96, 0.04, 192.0, 1.0, 96.0, 30.0, 0.0, 1.0, 64.0, 0.0, 0.0, 0.0, 1.6664034936387591E9, 0.0, 2022-10-21 18:51:33.638
106.0, -103846.29414633443, -147619.72697016323, -61919.38363544746, -131111.6449369961, 36573.086568485094, -75709.09121144906, 26081.44594209742, -121301.21842637283, 0.044, 0.96, 0.04, 192.0, 0.0, 0.0, 0.0, 0.0, 0.0, 0.0, 0.0, 0.0, 0.0, 1.666403493638774E9, 0.0, 2022-10-21 18:51:33.638
107.0, -103845.13185562276, -147616.30715326156, -61919.58480114756, -131109.32035557274, 36567.58803934909, -75701.4692665898, 26094.566416092686, -121302.91715895143, 0.044, 0.96, 0.04, 192.0, 0.0, 0.0, 0.0, 0.0, 0.0, 0.0, 0.0, 0.0, 0.0, 1.6664034936388E9, 0.0, 2022-10-21 18:51:33.638
108.0, -103856.53124529496, -147627.70654293377, -61930.42539720838, -131128.8557802267, 36549.57253331811, -75713.7180225513, 26107.575131365673, -121316.46231609135, 0.044, 0.96, 0.04, 192.0, 0.0, 0.0, 0.0, 0.0, 0.0, 0.0, 0.0, 0.0, 0.0, 1.6664034936388135E9, 0.0, 2022-10-21 18:51:33.638
109.0, -103866.3660128553, -147636.04374361562, -61939.83548162407, -131142.28917864434, 36543.8281349931, -75726.2797029352, 26098.12034346108, -121331.39328138749, 0.044, 0.96, 0.04, 192.0, 0.0, 0.0, 0.0, 0.0, 0.0, 0.0, 0.0, 0.0, 0.0, 1.6664034936388273E9, 0.0, 2022-10-21 18:51:33.638
110.0, -103859.25815811851, -147627.95241212277, -61939.321391501595, -131134.71193727397, 36549.99721646276, -75736.51680189572, 26083.16702642048, -121315.52354282422, 0.044, 0.96, 0.04, 192.0, 0.0, 0.0, 0.0, 0.0, 0.0, 0.0, 0.0, 0.0, 0.0, 1.6664034936388412E9, 0.0, 2022-10-21 18:51:33.638
111.0, -103844.93068992266, -147614.0943305605, -61928.65960939642, -131124.2960243578, 36558.66969331142, -75728.1796012139, 26087.4585613559, -121311.16495265544, 0.044, 0.96, 0.04, 192.0, 0.0, 0.0, 0.0, 0.0, 0.0, 0.0, 0.0, 0.0, 0.0, 1.6664034936388552E9, 0.0, 2022-10-21 18:51:33.638
112.0, -103854.4078295717, -147619.1011213185, -61921.30588547062, -131112.22608235193, 36561.553068346155, -75700.23992064476, 26129.032806042767, -121312.77427825621, 0.044, 0.96, 0.04, 192.0, 0.0, 0.0, 0.0, 0.0, 0.0, 0.0, 0.0, 0.0, 0.0, 1.66640349363887E9, 0.0, 2022-10-21 18:51:33.638
113.0, -103869.94229196815, -147633.85327265898, -61937.55560368963, -131140.63514955464, 36543.783431504184, -75728.47017389181, 26112.671329101486, -121332.71203431036, 0.044, 0.96, 0.04, 192.0, 0.0, 0.0, 0.0, 0.0, 0.0, 0.0, 0.0, 0.0, 0.0, 1.6664034936388836E9, 0.0, 2022-10-21 18:51:33.638
114.0, -103852.75380048202, -147621.82803414203, -61931.45357745333, -131133.77316400685, 36559.384949133986, -75736.56150538463, 26091.705392802407, -121324.64305456198, 0.044, 0.966, 0.034, 192.0, 1.0, 96.0, 30.0, 48.0, 1.0, 16.0, 0.0, 0.0, 0.0, 1.6664034936388988E9, 0.0, 2022-10-21 18:51:33.638
115.0, -103855.97245168358, -147625.0466853436, -61935.23102226628, -131130.06277442726, 36555.56280083213, -75726.19029595736, 26103.59652085263, -121335.61776108954, 0.044, 0.966, 0.034, 192.0, 0.0, 0.0, 0.0, 0.0, 0.0, 0.0, 0.0, 0.0, 0.0, 1.6664034936389136E9, 0.0, 2022-10-21 18:51:33.638
116.0, -103850.42921905867, -147614.87664161643, -61919.51774591419, -131118.61868126615, 36565.19640269237, -75716.17671444139, 26136.207716012923, -121322.16201092745, 0.044, 0.966, 0.034, 192.0, 0.0, 0.0, 0.0, 0.0, 0.0, 0.0, 0.0, 0.0, 0.0, 1.6664034936389277E9, 0.0, 2022-10-21 18:51:33.638
117.0, -103850.65273650322, -147614.87664161643, -61918.31075171361, -131117.36698357665, 36572.2819056847, -75719.70829006533, 26138.26407650281, -121306.89576946448, 0.044, 0.966, 0.034, 192.0, 0.0, 0.0, 0.0, 0.0, 0.0, 0.0, 0.0, 0.0, 0.0, 1.6664034936389413E9, 0.0, 2022-10-21 18:51:33.638
118.0, -103863.10265816482, -147623.7502841652, -61931.78885362016, -131134.19784715152, 36559.54141134518, -75732.89581929396, 26116.40407042552, -121335.68481632292, 0.044, 0.966, 0.034, 192.0, 0.0, 0.0, 0.0, 0.0, 0.0, 0.0, 0.0, 0.0, 0.0, 1.666403493638955E9, 0.0, 2022-10-21 18:51:33.638
119.0, -103869.13762916776, -147628.846481901, -61931.90061234243, -131139.62932105415, 36552.70177754185, -75741.34477869807, 26106.30108193172, -121336.60123784558, 0.044, 0.966, 0.034, 192.0, 0.0, 0.0, 0.0, 0.0, 0.0, 0.0, 0.0, 0.0, 0.0, 1.666403493638969E9, 0.0, 2022-10-21 18:51:33.638
120.0, -103885.18618168667, -147646.92904316535, -61947.45742648333, -131148.68177755855, 36536.742632000765, -75745.56925840012, 26117.365195437098, -121355.57786888813, 0.044, 0.966, 0.034, 192.0, 0.0, 0.0, 0.0, 0.0, 0.0, 0.0, 0.0, 0.0, 0.0, 1.6664034936389828E9, 0.0, 2022-10-21 18:51:33.638
121.0, -103855.34660283884, -147620.3975224969, -61919.92007731439, -131129.1016494157, 36566.582210848595, -75732.00174951575, 26138.442890458453, -121331.90737150997, 0.044, 0.966, 0.034, 192.0, 0.0, 0.0, 0.0, 0.0, 0.0, 0.0, 0.0, 0.0, 0.0, 1.6664034936389966E9, 0.0, 2022-10-21 18:51:33.638
122.0, -103848.2610998465, -147614.0049235827, -61909.459460909304, -131119.93743418902, 36581.28965870019, -75717.76368829771, 26137.54882068024, -121315.09885967957, 0.044, 0.966, 0.034, 192.0, 0.0, 0.0, 0.0, 0.0, 0.0, 0.0, 0.0, 0.0, 0.0, 1.666403493639022E9, 0.0, 2022-10-21 18:51:33.639
123.0, -103855.07838190538, -147621.4480544863, -61920.456519181316, -131138.13175417564, 36563.4306148804, -75732.09115649357, 26117.365195437098, -121321.04442370468, 0.044, 0.966, 0.034, 192.0, 0.0, 0.0, 0.0, 0.0, 0.0, 0.0, 0.0, 0.0, 0.0, 1.666403494116402E9, 0.0, 2022-10-21 18:51:34.116
124.0, -103865.20372214362, -147625.58312721053, -61929.30780998562, -131146.71482404647, 36550.086623440584, -75743.3787874435, 26114.54887563573, -121334.03078723322, 0.04, 0.972, 0.038, 192.0, 1.0, 64.0, 30.0, 96.0, 1.0, 48.0, 0.0, 0.0, 0.0, 1.666403494116556E9, 0.0, 2022-10-21 18:51:34.116
125.0, -103849.28928009144, -147612.08267355952, -61919.51774591419, -131130.3980505941, 36565.3305131591, -75722.1222784665, 26147.204774284935, -121327.74994704127, 0.04, 0.972, 0.038, 192.0, 0.0, 0.0, 0.0, 0.0, 0.0, 0.0, 0.0, 0.0, 0.0, 1.6664034941166313E9, 0.0, 2022-10-21 18:51:34.116
126.0, -103853.15613188222, -147618.27410677364, -61925.128033772475, -131146.24543741293, 36559.20613517835, -75737.67909260739, 26135.35834972362, -121333.11436571054, 0.04, 0.972, 0.038, 192.0, 0.0, 0.0, 0.0, 0.0, 0.0, 0.0, 0.0, 0.0, 0.0, 1.6664034941166549E9, 0.0, 2022-10-21 18:51:34.116
127.0, -103869.87523673478, -147632.46746450276, -61938.38261823447, -131162.53985912085, 36544.364576860025, -75766.24462202127, 26098.902654517016, -121343.2397059488, 0.04, 0.972, 0.038, 192.0, 0.0, 0.0, 0.0, 0.0, 0.0, 0.0, 0.0, 0.0, 0.0, 1.6664034941166794E9, 0.0, 2022-10-21 18:51:34.116
128.0, -103861.33687035285, -147623.68322893183, -61930.00071406373, -131147.4524316135, 36556.61333282153, -75747.69267412338, 26109.989119766848, -121331.37092964303, 0.04, 0.972, 0.038, 192.0, 0.0, 0.0, 0.0, 0.0, 0.0, 0.0, 0.0, 0.0, 0.0, 1.666403494116704E9, 0.0, 2022-10-21 18:51:34.116
129.0, -103856.5088935505, -147616.37420849493, -61921.35058895953, -131135.22602739645, 36569.62204809452, -75720.08826972106, 26138.666407903005, -121319.50215333726, 0.04, 0.972, 0.038, 192.0, 0.0, 0.0, 0.0, 0.0, 0.0, 0.0, 0.0, 0.0, 0.0, 1.6664034941167269E9, 0.0, 2022-10-21 18:51:34.116
130.0, -103860.08517266336, -147614.4966619607, -61919.338931958555, -131138.08705068674, 36569.04090273868, -75729.25248494775, 26136.811213113215, -121324.30777839516, 0.04, 0.972, 0.038, 192.0, 0.0, 0.0, 0.0, 0.0, 0.0, 0.0, 0.0, 0.0, 0.0, 1.66640349411675E9, 0.0, 2022-10-21 18:51:34.116
131.0, -103861.22511163059, -147613.2896677601, -61917.528440657676, -131137.95294022, 36568.884440527494, -75746.35156945605, 26112.69368084594, -121316.39526085799, 0.04, 0.972, 0.038, 192.0, 0.0, 0.0, 0.0, 0.0, 0.0, 0.0, 0.0, 0.0, 0.0, 1.6664034941167724E9, 0.0, 2022-10-21 18:51:34.116
132.0, -103854.54194003844, -147608.61815316894, -61917.34962670203, -131133.5049430734, 36572.304257429154, -75745.63631363348, 26106.92693077647, -121310.60615904405, 0.04, 0.972, 0.038, 192.0, 0.0, 0.0, 0.0, 0.0, 0.0, 0.0, 0.0, 0.0, 0.0, 1.666403494116795E9, 0.0, 2022-10-21 18:51:34.116
133.0, -103873.60797805882, -147630.25464180167, -61937.17562403389, -131148.77118453637, 36555.31693164312, -75745.85983107804, 26109.810305811206, -121338.94817101338, 0.04, 0.972, 0.038, 192.0, 0.0, 0.0, 0.0, 0.0, 0.0, 0.0, 0.0, 0.0, 0.0, 1.666403494116818E9, 0.0, 2022-10-21 18:51:34.116
134.0, -103882.70513805213, -147639.06122911707, -61947.725647416795, -131168.93245803507, 36545.95155071635, -75763.3388952421, 26100.78020105126, -121347.4418339064, 0.044, 0.96, 0.036000000000000004, 192.0, 1.0, 96.0, 30.0, 0.0, 1.0, 32.0, 0.0, 0.0, 0.0, 1.6664034941168404E9, 0.0, 2022-10-21 18:51:34.116
135.0, -103863.84026573185, -147617.38003699543, -61929.330161730075, -131147.67594905806, 36572.86305104054, -75745.54690665567, 26110.0114715113, -121326.23002841831, 0.044, 0.96, 0.036000000000000004, 192.0, 0.0, 0.0, 0.0, 0.0, 0.0, 0.0, 0.0, 0.0, 0.0, 1.666403494116872E9, 0.0, 2022-10-21 18:51:34.116
136.0, -103853.62551851578, -147607.72408339073, -61917.26021972421, -131123.58076853523, 36588.397513436976, -75718.88127552049, 26127.915218820002, -121311.16495265544, 0.044, 0.96, 0.036000000000000004, 192.0, 0.0, 0.0, 0.0, 0.0, 0.0, 0.0, 0.0, 0.0, 0.0, 1.6664034941168945E9, 0.0, 2022-10-21 18:51:34.116
137.0, -103873.09388793635, -147627.66183944486, -61932.8170338651, -131141.19394316603, 36567.58803934909, -75728.20195295835, 26144.522564950297, -121325.35831038456, 0.044, 0.96, 0.036000000000000004, 192.0, 0.0, 0.0, 0.0, 0.0, 0.0, 0.0, 0.0, 0.0, 0.0, 1.6664034941169956E9, 0.0, 2022-10-21 18:51:34.116
138.0, -103855.32425109438, -147608.05935955755, -61915.58383889006, -131136.47772508595, 36581.826100567116, -75744.29520896617, 26143.092053305158, -121317.132868425, 0.044, 0.96, 0.036000000000000004, 192.0, 0.0, 0.0, 0.0, 0.0, 0.0, 0.0, 0.0, 0.0, 0.0, 1.666403494117018E9, 0.0, 2022-10-21 18:51:34.117
139.0, -103859.16875114069, -147607.47821420172, -61916.29909471263, -131141.68568154404, 36580.93203078891, -75759.96378182934, 26104.714108075394, -121325.42536561792, 0.044, 0.96, 0.036000000000000004, 192.0, 0.0, 0.0, 0.0, 0.0, 0.0, 0.0, 0.0, 0.0, 0.0, 1.6664034941170402E9, 0.0, 2022-10-21 18:51:34.117
140.0, -103863.1697133982, -147612.52970844862, -61924.859812839015, -131145.954864735, 36574.11474873003, -75760.8354998631, 26094.58876783714, -121331.01330173176, 0.044, 0.96, 0.036000000000000004, 192.0, 0.0, 0.0, 0.0, 0.0, 0.0, 0.0, 0.0, 0.0, 0.0, 1.6664034941170623E9, 0.0, 2022-10-21 18:51:34.117
141.0, -103855.95009993913, -147605.46655720074, -61919.38363544746, -131127.91700695956, 36585.02240002422, -75746.26216247823, 26125.054195529723, -121321.64792080497, 0.044, 0.96, 0.036000000000000004, 192.0, 0.0, 0.0, 0.0, 0.0, 0.0, 0.0, 0.0, 0.0, 0.0, 1.6664034941170845E9, 0.0, 2022-10-21 18:51:34.117
142.0, -103866.29895762194, -147616.57537419503, -61931.23006000878, -131143.07148970026, 36577.19928946487, -75756.38750271649, 26123.288407717755, -121321.51381033825, 0.044, 0.96, 0.036000000000000004, 192.0, 0.0, 0.0, 0.0, 0.0, 0.0, 0.0, 0.0, 0.0, 0.0, 1.666403494117107E9, 0.0, 2022-10-21 18:51:34.117
143.0, -103874.01030945902, -147622.85621438696, -61943.72468515929, -131159.79059455285, 36567.31981841562, -75775.52059597023, 26096.958052749404, -121321.06677544914, 0.042, 0.96, 0.04, 192.0, 1.0, 80.0, 30.0, 0.0, 1.0, 64.0, 0.0, 0.0, 0.0, 1.6664034941171288E9, 0.0, 2022-10-21 18:51:34.117
144.0, -103887.8683910213, -147633.36153428096, -61958.23096731079, -131161.93636202055, 36553.26057115324, -75784.640107708, 26083.234081653845, -121342.77031931524, 0.042, 0.96, 0.04, 192.0, 0.0, 0.0, 0.0, 0.0, 0.0, 0.0, 0.0, 0.0, 0.0, 1.6664034941171522E9, 0.0, 2022-10-21 18:51:34.117
145.0, -103874.21147515911, -147620.53163296363, -61937.93558334537, -131137.41649835306, 36570.69493182837, -75760.27670625171, 26118.50513440432, -121330.29804590918, 0.042, 0.96, 0.04, 192.0, 0.0, 0.0, 0.0, 0.0, 0.0, 0.0, 0.0, 0.0, 0.0, 1.6664034941171744E9, 0.0, 2022-10-21 18:51:34.117
146.0, -103863.90732096521, -147613.26731601564, -61933.19701352084, -131147.47478335796, 36572.23720219579, -75755.51578468274, 26133.525506678285, -121328.35344414157, 0.042, 0.96, 0.04, 192.0, 0.0, 0.0, 0.0, 0.0, 0.0, 0.0, 0.0, 0.0, 0.0, 1.666403494117196E9, 0.0, 2022-10-21 18:51:34.117
147.0, -103869.09292567885, -147620.06224633005, -61944.10466481503, -131163.92566727707, 36562.447138124364, -75778.87335763853, 26112.827791312673, -121335.97538900083, 0.042, 0.96, 0.04, 192.0, 0.0, 0.0, 0.0, 0.0, 0.0, 0.0, 0.0, 0.0, 0.0, 1.6664034941172185E9, 0.0, 2022-10-21 18:51:34.117
148.0, -103876.87133274929, -147623.63852544292, -61941.46715896931, -131163.4562806435, 36560.25666716775, -75788.12697984303, 26102.16600920749, -121336.37772040103, 0.042, 0.96, 0.04, 192.0, 0.0, 0.0, 0.0, 0.0, 0.0, 0.0, 0.0, 0.0, 0.0, 1.666403494117232E9, 0.0, 2022-10-21 18:51:34.117
149.0, -103873.78679201446, -147617.22357478424, -61935.70040889984, -131157.17544045157, 36559.876687512005, -75782.09200884009, 26118.438079170952, -121333.51669711074, 0.042, 0.96, 0.04, 192.0, 0.0, 0.0, 0.0, 0.0, 0.0, 0.0, 0.0, 0.0, 0.0, 1.6664034941172442E9, 0.0, 2022-10-21 18:51:34.117
150.0, -103868.71294602311, -147612.6861706598, -61930.85008035303, -131145.64194031263, 36569.107957972046, -75770.15617730096, 26143.159108538523, -121322.45258360537, 0.042, 0.96, 0.04, 192.0, 0.0, 0.0, 0.0, 0.0, 0.0, 0.0, 0.0, 0.0, 0.0, 1.6664034941172564E9, 0.0, 2022-10-21 18:51:34.117
151.0, -103867.30478612242, -147613.06615031554, -61937.376789733986, -131154.26971367237, 36567.364521904536, -75780.48268323932, 26140.990989326358, -121325.71593829585, 0.042, 0.96, 0.04, 192.0, 0.0, 0.0, 0.0, 0.0, 0.0, 0.0, 0.0, 0.0, 0.0, 1.6664034941172688E9, 0.0, 2022-10-21 18:51:34.117
152.0, -103866.00838494401, -147611.5015282037, -61929.598382663535, -131153.97914099446, 36576.12640573101, -75787.92581414293, 26123.64603562904, -121318.36221437005, 0.042, 0.96, 0.04, 192.0, 0.0, 0.0, 0.0, 0.0, 0.0, 0.0, 0.0, 0.0, 0.0, 1.6664034941172938E9, 0.0, 2022-10-21 18:51:34.117
153.0, -103861.44862907514, -147605.86888860093, -61924.63629539446, -131133.77316400685, 36585.871766313525, -75770.7373226568, 26131.290332232755, -121309.42151658793, 0.046, 0.962, 0.038, 192.0, 1.0, 112.0, 30.0, 16.0, 1.0, 48.0, 0.0, 0.0, 0.0, 1.6664034941173065E9, 0.0, 2022-10-21 18:51:34.117
154.0, -103874.79262051496, -147619.12347306294, -61943.07648457009, -131150.78284153735, 36568.52681261621, -75781.75673267327, 26120.628550127574, -121319.54685682617, 0.046, 0.962, 0.038, 192.0, 0.0, 0.0, 0.0, 0.0, 0.0, 0.0, 0.0, 0.0, 0.0, 1.6664034941173196E9, 0.0, 2022-10-21 18:51:34.117
155.0, -103872.04335594695, -147617.82707188453, -61942.58474619207, -131158.3600829077, 36570.5831731061, -75791.30092755568, 26108.536256377254, -121316.81994400264, 0.046, 0.962, 0.038, 192.0, 0.0, 0.0, 0.0, 0.0, 0.0, 0.0, 0.0, 0.0, 0.0, 1.666403494117332E9, 0.0, 2022-10-21 18:51:34.117
156.0, -103867.4165448447, -147610.67451365883, -61940.61779268001, -131158.7624143079, 36572.84069929608, -75798.36407880356, 26091.817151524683, -121319.99389171529, 0.046, 0.962, 0.038, 192.0, 0.0, 0.0, 0.0, 0.0, 0.0, 0.0, 0.0, 0.0, 0.0, 1.6664034941173441E9, 0.0, 2022-10-21 18:51:34.117
157.0, -103878.63712056127, -147621.58216495303, -61947.368019505506, -131160.5952573532, 36560.94957124586, -75809.60700626457, 26088.68790730094, -121336.13185121202, 0.046, 0.962, 0.038, 192.0, 0.0, 0.0, 0.0, 0.0, 0.0, 0.0, 0.0, 0.0, 0.0, 1.6664034941173584E9, 0.0, 2022-10-21 18:51:34.117
158.0, -103887.8683910213, -147631.43928425782, -61953.82767365309, -131162.87513528767, 36555.965132232326, -75808.08708764162, 26102.79185805224, -121343.37381641554, 0.046, 0.962, 0.038, 192.0, 0.0, 0.0, 0.0, 0.0, 0.0, 0.0, 0.0, 0.0, 0.0, 1.6664034941173706E9, 0.0, 2022-10-21 18:51:34.117
159.0, -103880.67112930669, -147625.71723767725, -61952.330106774585, -131167.70311209, 36561.7318823018, -75809.83052370913, 26104.557645864206, -121333.87432502203, 0.046, 0.962, 0.038, 192.0, 0.0, 0.0, 0.0, 0.0, 0.0, 0.0, 0.0, 0.0, 0.0, 1.6664034941173828E9, 0.0, 2022-10-21 18:51:34.117
160.0, -103863.43793433165, -147608.05935955755, -61936.88505135597, -131145.86545775717, 36587.92812680342, -75791.25622406676, 26101.78602955175, -121310.36028985505, 0.046, 0.962, 0.038, 192.0, 0.0, 0.0, 0.0, 0.0, 0.0, 0.0, 0.0, 0.0, 0.0, 1.6664034941173947E9, 0.0, 2022-10-21 18:51:34.117
161.0, -103872.15511466922, -147612.842632871, -61946.02691483819, -131149.93347524805, 36576.97577202031, -75787.8364071651, 26096.06398297119, -121320.26211264875, 0.046, 0.962, 0.038, 192.0, 0.0, 0.0, 0.0, 0.0, 0.0, 0.0, 0.0, 0.0, 0.0, 1.666403494117407E9, 0.0, 2022-10-21 18:51:34.117
162.0, -103873.65268154773, -147615.591897439, -61944.574051448595, -131149.12881244766, 36574.89705978597, -75780.79560766168, 26124.40599494052, -121313.46718233434, 0.046, 0.962, 0.038, 192.0, 0.0, 0.0, 0.0, 0.0, 0.0, 0.0, 0.0, 0.0, 0.0, 1.6664034941174195E9, 0.0, 2022-10-21 18:51:34.117
163.0, -103869.87523673478, -147612.17208053733, -61945.57987994908, -131150.17934443706, 36579.50151914376, -75797.64882298099, 26120.539143149752, -121310.87437997751, 0.038, 0.964, 0.046, 192.0, 1.0, 48.0, 30.0, 32.0, 1.0, 112.0, 0.0, 0.0, 0.0, 1.6664034941174319E9, 0.0, 2022-10-21 18:51:34.117
164.0, -103873.16094316971, -147613.13320554892, -61954.989964364766, -131158.94122826355, 36580.37323717752, -75809.24937835328, 26086.676250299963, -121311.29906312218, 0.038, 0.964, 0.046, 192.0, 0.0, 0.0, 0.0, 0.0, 0.0, 0.0, 0.0, 0.0, 0.0, 1.6664034941174448E9, 0.0, 2022-10-21 18:51:34.117
165.0, -103885.94614099814, -147626.343086522, -61967.842217426565, -131167.99368476792, 36566.42574863741, -75808.37766031953, 26076.148578661512, -121324.41953711743, 0.038, 0.964, 0.046, 192.0, 0.0, 0.0, 0.0, 0.0, 0.0, 0.0, 0.0, 0.0, 0.0, 1.666403494117457E9, 0.0, 2022-10-21 18:51:34.117
166.0, -103882.39221362976, -147623.43735974282, -61956.174606820896, -131157.04132998484, 36569.934972516894, -75793.55845374566, 26109.296215688733, -121326.11826969603, 0.038, 0.964, 0.046, 192.0, 0.0, 0.0, 0.0, 0.0, 0.0, 0.0, 0.0, 0.0, 0.0, 1.6664034941174693E9, 0.0, 2022-10-21 18:51:34.117
167.0, -103876.71487053811, -147618.00588584016, -61954.05119109764, -131161.01994049788, 36573.26538244073, -75798.67700322592, 26121.008529783314, -121327.88405750801, 0.038, 0.964, 0.046, 192.0, 0.0, 0.0, 0.0, 0.0, 0.0, 0.0, 0.0, 0.0, 0.0, 1.6664034941174934E9, 0.0, 2022-10-21 18:51:34.117
168.0, -103880.76053628452, -147622.96797310925, -61962.09781910155, -131172.12875749217, 36571.2313736953, -75810.97046267634, 26097.338032405143, -121333.51669711074, 0.038, 0.964, 0.046, 192.0, 0.0, 0.0, 0.0, 0.0, 0.0, 0.0, 0.0, 0.0, 0.0, 1.666403494117506E9, 0.0, 2022-10-21 18:51:34.117
169.0, -103879.08415545037, -147621.090426575, -61958.54389173316, -131164.1044812327, 36575.589963864084, -75804.0414218952, 26096.533369604753, -121326.92293249643, 0.038, 0.964, 0.046, 192.0, 0.0, 0.0, 0.0, 0.0, 0.0, 0.0, 0.0, 0.0, 0.0, 1.6664034941175182E9, 0.0, 2022-10-21 18:51:34.117
170.0, -103891.15409745624, -147634.09914184798, -61970.81499943913, -131171.18998422503, 36560.502536356755, -75816.4466400679, 26100.02024173978, -121341.85389779258, 0.038, 0.964, 0.046, 192.0, 0.0, 0.0, 0.0, 0.0, 0.0, 0.0, 0.0, 0.0, 0.0, 1.6664034941175303E9, 0.0, 2022-10-21 18:51:34.117
171.0, -103874.12206818128, -147614.31784800504, -61953.11241783052, -131149.17351593656, 36581.71434184484, -75798.85581718157, 26129.144564765047, -121322.27376964972, 0.038, 0.964, 0.046, 192.0, 0.0, 0.0, 0.0, 0.0, 0.0, 0.0, 0.0, 0.0, 0.0, 1.6664034941175425E9, 0.0, 2022-10-21 18:51:34.117
172.0, -103891.91405676771, -147629.85231040147, -61968.40101103795, -131171.32409469178, 36569.55499286115, -75821.72165175935, 26101.07077372918, -121341.65273209248, 0.038, 0.964, 0.046, 192.0, 0.0, 0.0, 0.0, 0.0, 0.0, 0.0, 0.0, 0.0, 0.0, 1.666403494117555E9, 0.0, 2022-10-21 18:51:34.117
173.0, -103888.0695567214, -147624.30907777656, -61957.850987655045, -131166.49611788942, 36576.95342027586, -75820.8946372145, 26083.904633987506, -121332.39910988798, 0.05, 0.962, 0.042, 192.0, 1.0, 144.0, 30.0, 16.0, 1.0, 80.0, 0.0, 0.0, 0.0, 1.6664034941175673E9, 0.0, 2022-10-21 18:51:34.117
174.0, -103884.09094620837, -147621.0010195972, -61958.16391207742, -131159.2541526859, 36578.65215285446, -75808.64588125299, 26100.22140743988, -121318.87630449251, 0.05, 0.962, 0.042, 192.0, 0.0, 0.0, 0.0, 0.0, 0.0, 0.0, 0.0, 0.0, 0.0, 1.6664034941175804E9, 0.0, 2022-10-21 18:51:34.117
175.0, -103889.14244045525, -147628.08652258952, -61968.64688022696, -131170.54178363582, 36568.72797831631, -75813.87618945554, 26112.537218634752, -121326.96763598533, 0.05, 0.962, 0.042, 192.0, 0.0, 0.0, 0.0, 0.0, 0.0, 0.0, 0.0, 0.0, 0.0, 1.6664034941175928E9, 0.0, 2022-10-21 18:51:34.117
176.0, -103882.83924851887, -147618.11764456244, -61962.187226079375, -131170.54178363582, 36577.422806909424, -75822.01222443728, 26108.268035443787, -121333.02495873273, 0.05, 0.962, 0.042, 192.0, 0.0, 0.0, 0.0, 0.0, 0.0, 0.0, 0.0, 0.0, 0.0, 1.6664034941176047E9, 0.0, 2022-10-21 18:51:34.117
177.0, -103872.4680390916, -147605.4889089452, -61948.1726823059, -131162.47280388747, 36591.95144080537, -75821.0958029146, 26091.057192213204, -121311.05319393316, 0.05, 0.962, 0.042, 192.0, 0.0, 0.0, 0.0, 0.0, 0.0, 0.0, 0.0, 0.0, 0.0, 1.666403494117617E9, 0.0, 2022-10-21 18:51:34.117
178.0, -103884.35916714183, -147618.00588584016, -61957.94039463287, -131157.89069627415, 36586.63172562501, -75806.83538995212, 26101.11547721809, -121315.74706026877, 0.05, 0.962, 0.042, 192.0, 0.0, 0.0, 0.0, 0.0, 0.0, 0.0, 0.0, 0.0, 0.0, 1.6664034941176305E9, 0.0, 2022-10-21 18:51:34.117
179.0, -103892.271684679, -147624.66670568785, -61967.61869998201, -131168.12779523467, 36571.834870795596, -75814.144410389, 26112.49251514584, -121337.56236285715, 0.05, 0.962, 0.042, 192.0, 0.0, 0.0, 0.0, 0.0, 0.0, 0.0, 0.0, 0.0, 0.0, 1.6664034941176429E9, 0.0, 2022-10-21 18:51:34.117
180.0, -103886.99667298755, -147617.11181606195, -61963.662441213426, -131176.7108651055, 36572.170146962424, -75835.87030599956, 26106.032860998257, -121320.26211264875, 0.05, 0.962, 0.042, 192.0, 0.0, 0.0, 0.0, 0.0, 0.0, 0.0, 0.0, 0.0, 0.0, 1.666403494117655E9, 0.0, 2022-10-21 18:51:34.117
181.0, -103896.49616438105, -147623.48206323173, -61973.05017388466, -131185.98683905444, 36565.62108583702, -75845.03452122623, 26086.54213983323, -121325.35831038456, 0.05, 0.962, 0.042, 192.0, 0.0, 0.0, 0.0, 0.0, 0.0, 0.0, 0.0, 0.0, 0.0, 1.6664034941176674E9, 0.0, 2022-10-21 18:51:34.117
182.0, -103880.78288802897, -147611.27801075912, -61957.292194043664, -131166.51846963388, 36578.62980111001, -75830.66234954147, 26101.54016036274, -121319.79272601519, 0.046, 0.96, 0.042, 192.0, 1.0, 112.0, 30.0, 0.0, 1.0, 80.0, 0.0, 0.0, 0.0, 1.66640349411769E9, 0.0, 2022-10-21 18:51:34.117
183.0, -103885.81203053142, -147615.03310382762, -61959.326202789096, -131160.72936781996, 36583.010743023246, -75814.50203830028, 26124.02601528478, -121327.77229878573, 0.046, 0.96, 0.042, 192.0, 0.0, 0.0, 0.0, 0.0, 0.0, 0.0, 0.0, 0.0, 0.0, 1.6664034941177027E9, 0.0, 2022-10-21 18:51:34.117
184.0, -103899.8712777938, -147629.24881330118, -61973.76542970722, -131183.34933320872, 36573.71241732984, -75823.2415703823, 26114.54887563573, -121340.60220010308, 0.046, 0.96, 0.042, 192.0, 0.0, 0.0, 0.0, 0.0, 0.0, 0.0, 0.0, 0.0, 0.0, 1.6664034941177151E9, 0.0, 2022-10-21 18:51:34.117
185.0, -103886.88491426528, -147618.43056898483, -61965.539987747674, -131179.39307444013, 36581.3343621891, -75841.94998049141, 26083.658764798496, -121331.86266802106, 0.046, 0.96, 0.042, 192.0, 0.0, 0.0, 0.0, 0.0, 0.0, 0.0, 0.0, 0.0, 0.0, 1.6664034941177275E9, 0.0, 2022-10-21 18:51:34.117
186.0, -103879.06180370592, -147611.23330727022, -61954.140598075464, -131161.6457893426, 36595.728885618315, -75815.86549471205, 26100.869608029083, -121310.67321427743, 0.046, 0.96, 0.042, 192.0, 0.0, 0.0, 0.0, 0.0, 0.0, 0.0, 0.0, 0.0, 0.0, 1.6664034941177404E9, 0.0, 2022-10-21 18:51:34.117
187.0, -103886.52728635399, -147616.77653989513, -61961.71783944582, -131163.16570796559, 36589.38099019301, -75806.142485874, 26129.703358376428, -121310.8296764886, 0.046, 0.96, 0.042, 192.0, 0.0, 0.0, 0.0, 0.0, 0.0, 0.0, 0.0, 0.0, 0.0, 1.6664034941177528E9, 0.0, 2022-10-21 18:51:34.117
188.0, -103888.7177573106, -147617.9388306068, -61961.24845281225, -131169.3124376908, 36590.364466949046, -75818.63711102452, 26135.671274145996, -121309.22035088783, 0.046, 0.96, 0.042, 192.0, 0.0, 0.0, 0.0, 0.0, 0.0, 0.0, 0.0, 0.0, 0.0, 1.6664034941177652E9, 0.0, 2022-10-21 18:51:34.117
189.0, -103896.63027484779, -147623.48206323173, -61967.708106959835, -131179.6612953736, 36583.41307442344, -75837.47963160035, 26106.837523798647, -121325.11244119555, 0.046, 0.96, 0.042, 192.0, 0.0, 0.0, 0.0, 0.0, 0.0, 0.0, 0.0, 0.0, 0.0, 1.666403494117778E9, 0.0, 2022-10-21 18:51:34.117
190.0, -103888.49423986605, -147618.85525212946, -61962.70131620185, -131170.47472840248, 36586.45291166937, -75842.62053282507, 26095.92987250446, -121315.32237712412, 0.046, 0.96, 0.042, 192.0, 0.0, 0.0, 0.0, 0.0, 0.0, 0.0, 0.0, 0.0, 0.0, 1.6664034941177912E9, 0.0, 2022-10-21 18:51:34.117
191.0, -103888.49423986605, -147619.01171434065, -61962.813074924125, -131166.83139405627, 36586.43055992491, -75829.72357627435, 26106.479895887365, -121315.6800050354, 0.046, 0.96, 0.042, 192.0, 0.0, 0.0, 0.0, 0.0, 0.0, 0.0, 0.0, 0.0, 0.0, 1.666403494117803E9, 0.0, 2022-10-21 18:51:34.117
192.0, -103893.74689981305, -147618.5423277071, -61966.45640927034, -131172.8663650592, 36585.178862235414, -75829.5000588298, 26115.577055880673, -121323.27959815021, 0.046, 0.9560000000000001, 0.048, 192.0, 1.0, 112.0, 29.0, 224.0, 1.0, 128.0, 0.0, 0.0, 0.0, 1.6664034941178155E9, 0.0, 2022-10-21 18:51:34.117
193.0, -103878.41360311671, -147603.32078973303, -61948.44090323936, -131162.09282423175, 36604.66958340044, -75826.84020123961, 26113.766564579793, -121305.80053398617, 0.046, 0.9560000000000001, 0.048, 192.0, 0.0, 0.0, 0.0, 0.0, 0.0, 0.0, 0.0, 0.0, 0.0, 1.6664034941178288E9, 0.0, 2022-10-21 18:51:34.117
194.0, -103883.12982119678, -147608.93107759132, -61954.498225986754, -131164.21623995499, 36599.77455136473, -75832.0481576977, 26108.871532544083, -121306.33697585309, 0.046, 0.9560000000000001, 0.048, 192.0, 0.0, 0.0, 0.0, 0.0, 0.0, 0.0, 0.0, 0.0, 0.0, 1.666403494117841E9, 0.0, 2022-10-21 18:51:34.117
195.0, -103893.90336202424, -147618.5423277071, -61966.61287148153, -131164.21623995499, 36592.443179183385, -75825.96848320586, 26124.137774007057, -121320.10565043756, 0.046, 0.9560000000000001, 0.048, 192.0, 0.0, 0.0, 0.0, 0.0, 0.0, 0.0, 0.0, 0.0, 0.0, 1.6664034941178536E9, 0.0, 2022-10-21 18:51:34.117
196.0, -103900.94416152766, -147625.60547895497, -61979.93451117689, -131168.77599582387, 36586.05058026917, -75827.64486404, 26139.560477681218, -121326.1406214405, 0.046, 0.9560000000000001, 0.048, 192.0, 0.0, 0.0, 0.0, 0.0, 0.0, 0.0, 0.0, 0.0, 0.0, 1.6664034941178658E9, 0.0, 2022-10-21 18:51:34.117
197.0, -103904.52044064051, -147629.44997900128, -61977.78874370918, -131176.8226238278, 36584.396551179474, -75842.97816073634, 26125.07654727418, -121324.91127549545, 0.046, 0.9560000000000001, 0.048, 192.0, 0.0, 0.0, 0.0, 0.0, 0.0, 0.0, 0.0, 0.0, 0.0, 1.6664034941178892E9, 0.0, 2022-10-21 18:51:34.117
198.0, -103908.90138255375, -147635.3955430264, -61982.035575155685, -131188.959621067, 36575.254687697256, -75864.18996622444, 26101.54016036274, -121332.37675814352, 0.046, 0.9560000000000001, 0.048, 192.0, 0.0, 0.0, 0.0, 0.0, 0.0, 0.0, 0.0, 0.0, 0.0, 1.6664034941179016E9, 0.0, 2022-10-21 18:51:34.117
199.0, -103888.4718881216, -147616.37420849493, -61968.1774935934, -131166.71963533398, 36590.92326056043, -75841.27942815774, 26133.63726540056, -121315.6353015465, 0.046, 0.9560000000000001, 0.048, 192.0, 0.0, 0.0, 0.0, 0.0, 0.0, 0.0, 0.0, 0.0, 0.0, 1.666403494117915E9, 0.0, 2022-10-21 18:51:34.117
200.0, -103889.7682893, -147614.87664161643, -61964.623566225004, -131164.19388821052, 36596.31003097416, -75836.67496879995, 26155.117291822113, -121314.76358351274, 0.046, 0.9560000000000001, 0.048, 192.0, 0.0, 0.0, 0.0, 0.0, 0.0, 0.0, 0.0, 0.0, 0.0, 1.666403494117927E9, 0.0, 2022-10-21 18:51:34.117
201.0, -103898.30665568194, -147621.91744111985, -61970.144447105464, -131178.54370815083, 36588.97865879282, -75852.0529689852, 26132.78789911126, -121328.55460984167, 0.046, 0.9560000000000001, 0.048, 192.0, 0.0, 0.0, 0.0, 0.0, 0.0, 0.0, 0.0, 0.0, 0.0, 1.6664034941179395E9, 0.0, 2022-10-21 18:51:34.117
202.0, -103900.273609194, -147621.4480544863, -61973.45250528485, -131186.29976347683, 36586.13998724699, -75864.659352858, 26108.715070332895, -121322.83256326111, 0.044, 0.9560000000000001, 0.046, 192.0, 1.0, 96.0, 29.0, 224.0, 1.0, 112.0, 0.0, 0.0, 0.0, 1.6664034941179516E9, 0.0, 2022-10-21 18:51:34.117
203.0, -103893.5233823685, -147614.42960672732, -61964.69062145837, -131166.78669056736, 36597.09234203009, -75840.76533803527, 26132.40791945552, -121307.54397005368, 0.044, 0.9560000000000001, 0.046, 192.0, 0.0, 0.0, 0.0, 0.0, 0.0, 0.0, 0.0, 0.0, 0.0, 1.6664034941179645E9, 0.0, 2022-10-21 18:51:34.117
204.0, -103882.54867584094, -147607.4335107128, -61959.75088593375, -131149.28527465885, 36606.43537121241, -75825.63320703903, 26159.498233735354, -121302.09014440658, 0.044, 0.9560000000000001, 0.046, 192.0, 0.0, 0.0, 0.0, 0.0, 0.0, 0.0, 0.0, 0.0, 0.0, 1.666403494117978E9, 0.0, 2022-10-21 18:51:34.117
205.0, -103877.67599554968, -147602.56083042157, -61953.33593527508, -131147.02774846886, 36612.24682477079, -75835.24445715481, 26156.36898951161, -121292.54594952417, 0.044, 0.9560000000000001, 0.046, 192.0, 0.0, 0.0, 0.0, 0.0, 0.0, 0.0, 0.0, 0.0, 0.0, 1.6664034941179912E9, 0.0, 2022-10-21 18:51:34.117
206.0, -103887.019024732, -147605.26539150064, -61959.125037089, -131147.4524316135, 36610.32457474763, -75838.84308801212, 26142.354445738132, -121304.39237408548, 0.044, 0.9560000000000001, 0.046, 192.0, 0.0, 0.0, 0.0, 0.0, 0.0, 0.0, 0.0, 0.0, 0.0, 1.6664034941180072E9, 0.0, 2022-10-21 18:51:34.118
207.0, -103919.54081291448, -147639.53061575064, -61997.19005789639, -131195.03929555885, 36564.30233291416, -75872.08013201716, 26126.440003685955, -121339.32815066913, 0.044, 0.9560000000000001, 0.046, 192.0, 0.0, 0.0, 0.0, 0.0, 0.0, 0.0, 0.0, 0.0, 0.0, 1.6664034941180196E9, 0.0, 2022-10-21 18:51:34.118
208.0, -103912.61177213333, -147634.38971452593, -61993.27850261671, -131194.63696415865, 36565.57638234811, -75880.95377456592, 26145.640152173062, -121331.61679883204, 0.044, 0.9560000000000001, 0.046, 192.0, 0.0, 0.0, 0.0, 0.0, 0.0, 0.0, 0.0, 0.0, 0.0, 1.6664034941180315E9, 0.0, 2022-10-21 18:51:34.118
209.0, -103898.7760423155, -147621.33629576402, -61981.208560610845, -131181.09180701873, 36586.20704248036, -75876.55048090822, 26144.008474827824, -121319.30098763717, 0.044, 0.9560000000000001, 0.046, 192.0, 0.0, 0.0, 0.0, 0.0, 0.0, 0.0, 0.0, 0.0, 0.0, 1.666403494118044E9, 0.0, 2022-10-21 18:51:34.118
210.0, -103889.9247515112, -147611.41212122585, -61967.73045870429, -131171.68172260307, 36604.04373455569, -75861.97714352336, 26135.98419856837, -121307.78983924269, 0.044, 0.9560000000000001, 0.046, 192.0, 0.0, 0.0, 0.0, 0.0, 0.0, 0.0, 0.0, 0.0, 0.0, 1.6664034941180563E9, 0.0, 2022-10-21 18:51:34.118
211.0, -103885.99084448705, -147607.1429380349, -61962.16487433492, -131160.9528852645, 36613.90085386048, -75847.35910264959, 26133.234934000368, -121300.2796531057, 0.04, 0.9560000000000001, 0.052000000000000005, 192.0, 1.0, 64.0, 29.0, 224.0, 1.0, 160.0, 0.0, 0.0, 0.0, 1.6664034941180687E9, 0.0, 2022-10-21 18:51:34.118
212.0, -103897.36788241481, -147620.66574343035, -61974.704202974346, -131161.06464398679, 36604.37901072252, -75833.56807632066, 26155.02788484429, -121303.56535954063, 0.04, 0.9560000000000001, 0.052000000000000005, 192.0, 0.0, 0.0, 0.0, 0.0, 0.0, 0.0, 0.0, 0.0, 0.0, 1.6664034941180923E9, 0.0, 2022-10-21 18:51:34.118
213.0, -103904.81101331842, -147627.90770863387, -61988.204656625356, -131175.92855404958, 36590.67739137142, -75856.07628298715, 26152.1221580651, -121316.52937132471, 0.04, 0.9560000000000001, 0.052000000000000005, 192.0, 0.0, 0.0, 0.0, 0.0, 0.0, 0.0, 0.0, 0.0, 0.0, 1.6664034941181052E9, 0.0, 2022-10-21 18:51:34.118
214.0, -103911.18126048819, -147630.90284239087, -61994.37373809502, -131189.2725454894, 36587.81636808114, -75878.80800709821, 26124.74127110735, -121320.0385952042, 0.04, 0.9560000000000001, 0.052000000000000005, 192.0, 0.0, 0.0, 0.0, 0.0, 0.0, 0.0, 0.0, 0.0, 0.0, 1.6664034941181176E9, 0.0, 2022-10-21 18:51:34.118
215.0, -103911.87416456631, -147628.39944701188, -61995.401918339965, -131181.29297271883, 36595.25949898476, -75858.33380917714, 26133.570210167196, -121322.07260394962, 0.04, 0.9560000000000001, 0.052000000000000005, 192.0, 0.0, 0.0, 0.0, 0.0, 0.0, 0.0, 0.0, 0.0, 0.0, 1.66640349411813E9, 0.0, 2022-10-21 18:51:34.118
216.0, -103914.17639424521, -147628.60061271198, -61998.86643873053, -131180.84593782973, 36589.55980414865, -75855.38337890904, 26152.636248187573, -121329.71690055334, 0.04, 0.9560000000000001, 0.052000000000000005, 192.0, 0.0, 0.0, 0.0, 0.0, 0.0, 0.0, 0.0, 0.0, 0.0, 1.6664034941181426E9, 0.0, 2022-10-21 18:51:34.118
217.0, -103912.27649596651, -147630.18758656833, -61997.011243940746, -131181.82941458578, 36590.5879843936, -75870.20258548291, 26154.871422633103, -121314.89769397947, 0.04, 0.9560000000000001, 0.052000000000000005, 192.0, 0.0, 0.0, 0.0, 0.0, 0.0, 0.0, 0.0, 0.0, 0.0, 1.666403494118155E9, 0.0, 2022-10-21 18:51:34.118
218.0, -103889.74593755555, -147606.62884791242, -61972.401973295455, -131159.0529869858, 36620.7404876638, -75863.36295167959, 26147.785919640773, -121288.05324888865, 0.04, 0.9560000000000001, 0.052000000000000005, 192.0, 0.0, 0.0, 0.0, 0.0, 0.0, 0.0, 0.0, 0.0, 0.0, 1.6664034941181674E9, 0.0, 2022-10-21 18:51:34.118
219.0, -103902.03939700597, -147620.55398470807, -61990.283368859695, -131182.49996691942, 36603.66375489995, -75863.8099865687, 26135.805384612726, -121316.14939166897, 0.04, 0.9560000000000001, 0.052000000000000005, 192.0, 0.0, 0.0, 0.0, 0.0, 0.0, 0.0, 0.0, 0.0, 0.0, 1.6664034941181798E9, 0.0, 2022-10-21 18:51:34.118
220.0, -103903.33579818437, -147622.72210392024, -61986.59533102457, -131172.1511092366, 36605.04956305618, -75855.6515998425, 26156.816024400716, -121317.71401378085, 0.04, 0.9560000000000001, 0.052000000000000005, 192.0, 0.0, 0.0, 0.0, 0.0, 0.0, 0.0, 0.0, 0.0, 0.0, 1.666403494118192E9, 0.0, 2022-10-21 18:51:34.118
221.0, -103904.90042029625, -147625.91840337735, -61989.79163048168, -131172.57579238128, 36602.27794674372, -75855.8080620537, 26177.02200138831, -121318.20575215886, 0.042, 0.9540000000000001, 0.05, 192.0, 1.0, 80.0, 29.0, 208.0, 1.0, 144.0, 0.0, 0.0, 0.0, 1.6664034941182058E9, 0.0, 2022-10-21 18:51:34.118
222.0, -103906.71091159713, -147631.46163600226, -61996.854781729555, -131187.95379256652, 36595.594775151585, -75885.3123647347, 26154.60320169964, -121312.79663000068, 0.042, 0.9540000000000001, 0.05, 192.0, 0.0, 0.0, 0.0, 0.0, 0.0, 0.0, 0.0, 0.0, 0.0, 1.666403494118219E9, 0.0, 2022-10-21 18:51:34.118
223.0, -103895.06565273591, -147613.8484613715, -61980.51565653273, -131169.08892024626, 36616.02426958374, -75874.71763786288, 26153.932649365983, -121301.3301850951, 0.042, 0.9540000000000001, 0.05, 192.0, 0.0, 0.0, 0.0, 0.0, 0.0, 0.0, 0.0, 0.0, 0.0, 1.6664034941182308E9, 0.0, 2022-10-21 18:51:34.118
224.0, -103908.11907149781, -147625.80664465507, -61991.73623224929, -131172.0169987699, 36602.590871166096, -75876.48342567486, 26157.777149412294, -121324.86657200655, 0.042, 0.9540000000000001, 0.05, 192.0, 0.0, 0.0, 0.0, 0.0, 0.0, 0.0, 0.0, 0.0, 0.0, 1.6664034941182432E9, 0.0, 2022-10-21 18:51:34.118
225.0, -103906.73326334158, -147628.01946735615, -61993.367909594526, -131173.64867611512, 36600.33334497611, -75885.91586183499, 26169.288297806776, -121323.72663303932, 0.042, 0.9540000000000001, 0.05, 192.0, 0.0, 0.0, 0.0, 0.0, 0.0, 0.0, 0.0, 0.0, 0.0, 1.6664034941182551E9, 0.0, 2022-10-21 18:51:34.118
226.0, -103909.61663837632, -147626.11956907745, -61993.21144738334, -131183.30462971982, 36605.56365317865, -75889.5591961812, 26161.12991108059, -121315.36708061304, 0.042, 0.9540000000000001, 0.05, 192.0, 0.0, 0.0, 0.0, 0.0, 0.0, 0.0, 0.0, 0.0, 0.0, 1.6664034941182692E9, 0.0, 2022-10-21 18:51:34.118
227.0, -103915.87512682381, -147628.28768828962, -61998.86643873053, -131194.3687432252, 36601.897967087985, -75891.12381829308, 26145.260172517323, -121311.20965614435, 0.042, 0.9540000000000001, 0.05, 192.0, 0.0, 0.0, 0.0, 0.0, 0.0, 0.0, 0.0, 0.0, 0.0, 1.6664034941182923E9, 0.0, 2022-10-21 18:51:34.118
228.0, -103904.4757371516, -147614.8989933609, -61985.969482179826, -131177.0684930168, 36609.45285671388, -75874.49412041833, 26165.689666949474, -121299.27382460522, 0.042, 0.9540000000000001, 0.05, 192.0, 0.0, 0.0, 0.0, 0.0, 0.0, 0.0, 0.0, 0.0, 0.0, 1.6664034941183047E9, 0.0, 2022-10-21 18:51:34.118
229.0, -103916.65743787974, -147627.1477493224, -62000.96750270933, -131183.48344367545, 36596.354734463064, -75878.18215825346, 26177.67020197752, -121311.09789742208, 0.042, 0.9540000000000001, 0.05, 192.0, 0.0, 0.0, 0.0, 0.0, 0.0, 0.0, 0.0, 0.0, 0.0, 1.6664034941183171E9, 0.0, 2022-10-21 18:51:34.118
230.0, -103903.35814992883, -147617.0447608286, -62001.07926143161, -131187.1267780217, 36600.24393799829, -75886.98874556884, 26179.838321189683, -121303.40889732944, 0.042, 0.9540000000000001, 0.05, 192.0, 0.0, 0.0, 0.0, 0.0, 0.0, 0.0, 0.0, 0.0, 0.0, 1.6664034941183293E9, 0.0, 2022-10-21 18:51:34.118
231.0, -103884.56033284192, -147598.0904815305, -61976.715859975324, -131168.12779523467, 36625.63551969952, -75878.02569604227, 26172.596355986163, -121281.9735743968, 0.044, 0.9580000000000001, 0.046, 192.0, 1.0, 96.0, 29.0, 240.0, 1.0, 112.0, 0.0, 0.0, 0.0, 1.666403494118342E9, 0.0, 2022-10-21 18:51:34.118
232.0, -103903.67107435121, -147617.6482579289, -61993.50202006126, -131183.63990588664, 36606.502426445775, -75890.11798979259, 26155.497271477852, -121304.57118804113, 0.044, 0.9580000000000001, 0.046, 192.0, 0.0, 0.0, 0.0, 0.0, 0.0, 0.0, 0.0, 0.0, 0.0, 1.6664034941183553E9, 0.0, 2022-10-21 18:51:34.118
233.0, -103915.56220240143, -147629.29351679012, -62008.20946791286, -131192.98293506895, 36592.06319952765, -75902.27733877627, 26157.978315112392, -121321.7373277828, 0.044, 0.9580000000000001, 0.046, 192.0, 0.0, 0.0, 0.0, 0.0, 0.0, 0.0, 0.0, 0.0, 0.0, 1.6664034941183672E9, 0.0, 2022-10-21 18:51:34.118
234.0, -103907.04618776396, -147618.65408642936, -61993.54672355017, -131183.3716849532, 36607.59766192408, -75896.89056836255, 26169.377704784598, -121307.54397005368, 0.044, 0.9580000000000001, 0.046, 192.0, 0.0, 0.0, 0.0, 0.0, 0.0, 0.0, 0.0, 0.0, 0.0, 1.666403494118379E9, 0.0, 2022-10-21 18:51:34.118
235.0, -103914.17639424521, -147626.36543826645, -62000.565171309136, -131192.35708622422, 36607.0388683127, -75899.23750153036, 26159.36412326862, -121318.40691785896, 0.044, 0.9580000000000001, 0.046, 192.0, 0.0, 0.0, 0.0, 0.0, 0.0, 0.0, 0.0, 0.0, 0.0, 1.6664034941183915E9, 0.0, 2022-10-21 18:51:34.118
236.0, -103921.46306293763, -147634.36736278146, -62011.65163655897, -131195.6204409147, 36598.65696414196, -75910.90511213602, 26148.098844063144, -121328.75577554177, 0.044, 0.9580000000000001, 0.046, 192.0, 0.0, 0.0, 0.0, 0.0, 0.0, 0.0, 0.0, 0.0, 0.0, 1.6664034941184037E9, 0.0, 2022-10-21 18:51:34.118
237.0, -103922.73711237159, -147634.92615639284, -62009.50586909126, -131184.53397566485, 36601.607394410064, -75901.5173794648, 26168.327172795198, -121319.21158065935, 0.044, 0.9580000000000001, 0.046, 192.0, 0.0, 0.0, 0.0, 0.0, 0.0, 0.0, 0.0, 0.0, 0.0, 1.6664034941184156E9, 0.0, 2022-10-21 18:51:34.118
238.0, -103909.03549302048, -147620.35281900797, -61994.75371775076, -131171.79348132532, 36620.51697021925, -75888.3074984917, 26186.543844526273, -121303.81122872964, 0.044, 0.9580000000000001, 0.046, 192.0, 0.0, 0.0, 0.0, 0.0, 0.0, 0.0, 0.0, 0.0, 0.0, 1.6664034941184278E9, 0.0, 2022-10-21 18:51:34.118
239.0, -103912.36590294432, -147621.73862716422, -61997.011243940746, -131180.24244072943, 36620.762839408264, -75895.03537357275, 26165.846129160658, -121304.39237408548, 0.044, 0.9580000000000001, 0.046, 192.0, 0.0, 0.0, 0.0, 0.0, 0.0, 0.0, 0.0, 0.0, 0.0, 1.66640349411844E9, 0.0, 2022-10-21 18:51:34.118
240.0, -103903.26874295101, -147613.06615031554, -61989.232836870295, -131170.2512109579, 36629.65883370148, -75889.3133269922, 26159.40882675753, -121292.6800599909, 0.044, 0.9580000000000001, 0.046, 192.0, 0.0, 0.0, 0.0, 0.0, 0.0, 0.0, 0.0, 0.0, 0.0, 1.6664034941184533E9, 0.0, 2022-10-21 18:51:34.118
241.0, -103912.38825468878, -147625.02433359914, -62001.10161317606, -131181.20356574102, 36616.15838005047, -75893.67191716099, 26160.101730835646, -121299.29617634967, 0.046, 0.9560000000000001, 0.038, 192.0, 1.0, 112.0, 29.0, 224.0, 1.0, 48.0, 0.0, 0.0, 0.0, 1.6664034941184654E9, 0.0, 2022-10-21 18:51:34.118
242.0, -103917.86443208033, -147629.00294411217, -62005.683720789406, -131187.976144311, 36612.157417792965, -75906.47946673387, 26154.536146466275, -121301.88897870648, 0.046, 0.9560000000000001, 0.038, 192.0, 0.0, 0.0, 0.0, 0.0, 0.0, 0.0, 0.0, 0.0, 0.0, 1.6664034941185E9, 0.0, 2022-10-21 18:51:34.118
243.0, -103908.16377498672, -147619.5928596965, -61998.397052096974, -131185.5621559098, 36622.930958620425, -75904.78073415527, 26149.32819000819, -121295.02699315871, 0.046, 0.9560000000000001, 0.038, 192.0, 0.0, 0.0, 0.0, 0.0, 0.0, 0.0, 0.0, 0.0, 0.0, 1.6664034945959475E9, 0.0, 2022-10-21 18:51:34.595
244.0, -103917.99854254707, -147628.55590922307, -62010.489345847294, -131191.23949900144, 36613.61028118256, -75905.76421091131, 26141.572134682196, -121308.23687413179, 0.046, 0.9560000000000001, 0.038, 192.0, 0.0, 0.0, 0.0, 0.0, 0.0, 0.0, 0.0, 0.0, 0.0, 1.66640349459615E9, 0.0, 2022-10-21 18:51:34.596
245.0, -103921.50776642654, -147629.85231040147, -62016.300799405675, -131186.59033615474, 36607.642365413, -75908.20055105693, 26158.55946046823, -121312.10372592256, 0.046, 0.9560000000000001, 0.038, 192.0, 0.0, 0.0, 0.0, 0.0, 0.0, 0.0, 0.0, 0.0, 0.0, 1.6664034945961757E9, 0.0, 2022-10-21 18:51:34.596
246.0, -103906.46504240812, -147615.03310382762, -62003.157973665955, -131179.23661222894, 36617.05244982868, -75906.12183882258, 26175.703248465452, -121304.61589153003, 0.046, 0.9560000000000001, 0.038, 192.0, 0.0, 0.0, 0.0, 0.0, 0.0, 0.0, 0.0, 0.0, 0.0, 1.6664034945962007E9, 0.0, 2022-10-21 18:51:34.596
247.0, -103911.15890874373, -147619.3916939964, -62004.94611322238, -131188.19966175553, 36615.376068994534, -75914.92842613798, 26165.75672218284, -121299.72085949432, 0.046, 0.9560000000000001, 0.038, 192.0, 0.0, 0.0, 0.0, 0.0, 0.0, 0.0, 0.0, 0.0, 0.0, 1.6664034945962248E9, 0.0, 2022-10-21 18:51:34.596
248.0, -103921.28424898199, -147630.07582784604, -62013.59623832658, -131200.40371422813, 36606.77064737924, -75933.61448450261, 26140.90158234854, -121305.48760956379, 0.046, 0.9560000000000001, 0.038, 192.0, 0.0, 0.0, 0.0, 0.0, 0.0, 0.0, 0.0, 0.0, 0.0, 1.6664034945962484E9, 0.0, 2022-10-21 18:51:34.596
249.0, -103922.46889143813, -147630.7463801797, -62015.85376451657, -131196.715676393, 36605.653060156474, -75935.49203103686, 26141.370968982097, -121306.29227236418, 0.046, 0.9560000000000001, 0.038, 192.0, 0.0, 0.0, 0.0, 0.0, 0.0, 0.0, 0.0, 0.0, 0.0, 1.666403494596272E9, 0.0, 2022-10-21 18:51:34.596
250.0, -103905.88389705228, -147615.88247011692, -62002.21920039883, -131174.94507729352, 36622.036888842216, -75909.74282142436, 26174.78682694278, -121288.54498726666, 0.046, 0.9580000000000001, 0.042, 192.0, 1.0, 112.0, 29.0, 240.0, 1.0, 80.0, 0.0, 0.0, 0.0, 1.666403494596296E9, 0.0, 2022-10-21 18:51:34.596
251.0, -103910.26483896552, -147620.33046726353, -62007.11423243454, -131191.4183129571, 36618.326499262635, -75921.3657285411, 26163.87917564859, -121281.88416741899, 0.046, 0.9580000000000001, 0.042, 192.0, 0.0, 0.0, 0.0, 0.0, 0.0, 0.0, 0.0, 0.0, 0.0, 1.6664034945963228E9, 0.0, 2022-10-21 18:51:34.596
252.0, -103925.3299147284, -147634.50147324818, -62024.28037217622, -131212.60776670073, 36604.691935144896, -75944.79035673027, 26132.65378864453, -121297.01629841523, 0.046, 0.9580000000000001, 0.042, 192.0, 0.0, 0.0, 0.0, 0.0, 0.0, 0.0, 0.0, 0.0, 0.0, 1.66640349459635E9, 0.0, 2022-10-21 18:51:34.596
253.0, -103919.27259198102, -147629.56173772356, -62023.83333728711, -131204.40467648563, 36609.31874624715, -75936.31904558171, 26137.012378813313, -121305.5323130527, 0.046, 0.9580000000000001, 0.042, 192.0, 0.0, 0.0, 0.0, 0.0, 0.0, 0.0, 0.0, 0.0, 0.0, 1.6664034945963745E9, 0.0, 2022-10-21 18:51:34.596
254.0, -103912.85764132233, -147623.9961533542, -62020.1900029409, -131182.87994657518, 36618.929996362924, -75924.94200765395, 26159.051198846246, -121309.0862404211, 0.046, 0.9580000000000001, 0.042, 192.0, 0.0, 0.0, 0.0, 0.0, 0.0, 0.0, 0.0, 0.0, 0.0, 1.666403494596398E9, 0.0, 2022-10-21 18:51:34.596
255.0, -103909.03549302048, -147621.51510971965, -62012.61276157055, -131181.9635250525, 36623.93678712092, -75926.88660942156, 26163.812120415227, -121294.40114431396, 0.046, 0.9580000000000001, 0.042, 192.0, 0.0, 0.0, 0.0, 0.0, 0.0, 0.0, 0.0, 0.0, 0.0, 1.6664034945964217E9, 0.0, 2022-10-21 18:51:34.596
0.0, -103923.89940308325, -147635.08261860404, -62027.633133844516, -131203.17533054057, 36611.57627243713, -75938.75538572733, 26143.0697015607, -121303.74417349628, 0.046, 0.9580000000000001, 0.042, 192.0, 0.0, 0.0, 0.0, 0.0, 0.0, 0.0, 0.0, 0.0, 0.0, 1.6664034945964456E9, 0.0, 2022-10-21 18:51:34.596
1.0, -103917.64091463578, -147628.77942666764, -62022.64869483098, -131189.83133910075, 36621.58985395311, -75922.43861227496, 26151.60806794263, -121298.46916180482, 0.046, 0.9580000000000001, 0.042, 192.0, 0.0, 0.0, 0.0, 0.0, 0.0, 0.0, 0.0, 0.0, 0.0, 1.6664034945964696E9, 0.0, 2022-10-21 18:51:34.596
2.0, -103920.39017920378, -147629.53938597912, -62026.62730534402, -131182.0752837748, 36622.863903387064, -75916.53775173877, 26167.902489650547, -121304.2806153632, 0.046, 0.9580000000000001, 0.042, 192.0, 0.0, 0.0, 0.0, 0.0, 0.0, 0.0, 0.0, 0.0, 0.0, 1.6664034945965736E9, 0.0, 2022-10-21 18:51:34.596
3.0, -103918.08794952488, -147626.87952838893, -62019.89943026298, -131177.82845232828, 36628.76476392326, -75918.90703665103, 26178.27369907781, -121300.70433625036, 0.046, 0.9580000000000001, 0.042, 192.0, 0.0, 0.0, 0.0, 0.0, 0.0, 0.0, 0.0, 0.0, 0.0, 1.666403494596598E9, 0.0, 2022-10-21 18:51:34.596
4.0, -103925.64283915078, -147634.07679010354, -62027.94605826689, -131196.82743511526, 36620.11463881906, -75936.8778391931, 26158.93944012397, -121304.45942931884, 0.05, 0.9520000000000001, 0.04, 192.0, 1.0, 144.0, 29.0, 192.0, 1.0, 64.0, 0.0, 0.0, 0.0, 1.666403494596622E9, 0.0, 2022-10-21 18:51:34.596
5.0, -103931.6331066648, -147638.01069712767, -62033.0422560027, -131194.23463275845, 36618.393554496, -75930.9769786569, 26162.0239808588, -121300.79374322818, 0.05, 0.9520000000000001, 0.04, 192.0, 0.0, 0.0, 0.0, 0.0, 0.0, 0.0, 0.0, 0.0, 0.0, 1.6664034945966504E9, 0.0, 2022-10-21 18:51:34.596
6.0, -103927.31921998493, -147631.61809821345, -62027.38726465551, -131182.70113261952, 36621.90277837548, -75926.03724313226, 26183.504007280353, -121298.08918214908, 0.05, 0.9520000000000001, 0.04, 192.0, 0.0, 0.0, 0.0, 0.0, 0.0, 0.0, 0.0, 0.0, 0.0, 1.666403494596674E9, 0.0, 2022-10-21 18:51:34.596
7.0, -103922.6253536493, -147626.87952838893, -62023.31924716464, -131185.1151210207, 36622.506275475775, -75929.68057747849, 26186.432085803997, -121292.99298441327, 0.05, 0.9520000000000001, 0.04, 192.0, 0.0, 0.0, 0.0, 0.0, 0.0, 0.0, 0.0, 0.0, 0.0, 1.6664034945967057E9, 0.0, 2022-10-21 18:51:34.596
8.0, -103921.77598736, -147626.45484524427, -62024.50388962077, -131196.78273162636, 36623.422696998445, -75940.90115319505, 26169.444760017963, -121285.19222559837, 0.05, 0.9520000000000001, 0.04, 192.0, 0.0, 0.0, 0.0, 0.0, 0.0, 0.0, 0.0, 0.0, 0.0, 1.6664034945967293E9, 0.0, 2022-10-21 18:51:34.596
9.0, -103915.31633321242, -147617.8941271179, -62017.12781395052, -131187.8196820998, 36628.36243252306, -75943.40454857404, 26157.30776277873, -121277.5702807391, 0.05, 0.9520000000000001, 0.04, 192.0, 0.0, 0.0, 0.0, 0.0, 0.0, 0.0, 0.0, 0.0, 0.0, 1.666403494596753E9, 0.0, 2022-10-21 18:51:34.596
10.0, -103925.75459787305, -147631.19341506882, -62026.13556696601, -131198.72733339397, 36612.649156170984, -75946.62319977561, 26157.441873245465, -121293.21650185782, 0.05, 0.9520000000000001, 0.04, 192.0, 0.0, 0.0, 0.0, 0.0, 0.0, 0.0, 0.0, 0.0, 0.0, 1.6664034945967765E9, 0.0, 2022-10-21 18:51:34.596
11.0, -103928.77208337451, -147632.82509241404, -62026.47084313284, -131201.65541191763, 36611.97860383733, -75947.31610385372, 26168.930669895493, -121297.84331296007, 0.05, 0.9520000000000001, 0.04, 192.0, 0.0, 0.0, 0.0, 0.0, 0.0, 0.0, 0.0, 0.0, 0.0, 1.6664034945968008E9, 0.0, 2022-10-21 18:51:34.596
12.0, -103932.32601074291, -147633.47329300325, -62032.88579379151, -131208.0703625763, 36610.48103695882, -75959.20723190394, 26158.492405234865, -121296.41280131493, 0.05, 0.9520000000000001, 0.04, 192.0, 0.0, 0.0, 0.0, 0.0, 0.0, 0.0, 0.0, 0.0, 0.0, 1.6664034945968244E9, 0.0, 2022-10-21 18:51:34.596
13.0, -103932.86245260984, -147636.04374361562, -62037.400846171484, -131210.66316493312, 36607.0388683127, -75978.69795306897, 26133.88313458957, -121300.95020543937, 0.05, 0.9520000000000001, 0.04, 192.0, 0.0, 0.0, 0.0, 0.0, 0.0, 0.0, 0.0, 0.0, 0.0, 1.666403494596848E9, 0.0, 2022-10-21 18:51:34.596
14.0, -103915.4280919347, -147619.36934225194, -62022.67104657544, -131185.7633216099, 36623.40034525399, -75958.40256910355, 26153.46326273242, -121281.43713252989, 0.04, 0.9580000000000001, 0.044, 192.0, 1.0, 64.0, 29.0, 240.0, 1.0, 96.0, 0.0, 0.0, 0.0, 1.6664034945968716E9, 0.0, 2022-10-21 18:51:34.596
15.0, -103928.45915895214, -147629.85231040147, -62034.204546714376, -131201.54365319535, 36611.06218231466, -75957.82142374771, 26171.791693185773, -121300.95020543937, 0.04, 0.9580000000000001, 0.044, 192.0, 0.0, 0.0, 0.0, 0.0, 0.0, 0.0, 0.0, 0.0, 0.0, 1.666403494596897E9, 0.0, 2022-10-21 18:51:34.596
16.0, -103941.35611550286, -147643.7997989416, -62043.68168636342, -131209.12089456568, 36611.08453405911, -75967.70089479696, 26163.141568081566, -121304.16885664093, 0.04, 0.9580000000000001, 0.044, 192.0, 0.0, 0.0, 0.0, 0.0, 0.0, 0.0, 0.0, 0.0, 0.0, 1.6664034945969207E9, 0.0, 2022-10-21 18:51:34.596
