%OpenBCI Raw EEG Data
%Number of channels = 8
%Sample Rate = 250 Hz
%Board = OpenBCI_GUI$BoardCytonSerial
Sample Index, EXG Channel 0, EXG Channel 1, EXG Channel 2, EXG Channel 3, EXG Channel 4, EXG Channel 5, EXG Channel 6, EXG Channel 7, Accel Channel 0, Accel Channel 1, Accel Channel 2, Other, Other, Other, Other, Other, Other, Other, Analog Channel 0, Analog Channel 1, Analog Channel 2, Timestamp, Other, Timestamp (Formatted)
189.0, -106394.12479330598, -143199.1554140038, -41083.04275072131, -116895.30961457606, 24822.841563563536, -77478.70117172017, 7864.438934855335, -129819.66940399044, 0.0, 0.0, 0.0, 192.0, 0.0, 0.0, 0.0, 0.0, 0.0, 0.0, 0.0, 0.0, 0.0, 1.666403356547892E9, 0.0, 2022-10-21 18:49:16.547
190.0, -106392.42606072738, -143197.7025506142, -41081.72399779844, -116890.68280347381, 24823.690929852837, -77478.72352346462, 7890.523420634678, -129817.97067141184, 0.0, 0.0, 0.0, 192.0, 0.0, 0.0, 0.0, 0.0, 0.0, 0.0, 0.0, 0.0, 0.0, 1.6664033565479193E9, 0.0, 2022-10-21 18:49:16.547
191.0, -106394.57182819508, -143201.7035128717, -41090.10590196918, -116911.60403628398, 24816.046633249123, -77499.26477661905, 7870.876237258463, -129836.32145360965, 0.098, 0.936, 0.11800000000000001, 192.0, 3.0, 16.0, 29.0, 64.0, 3.0, 176.0, 0.0, 0.0, 0.0, 1.6664033565479336E9, 0.0, 2022-10-21 18:49:16.547
192.0, -106392.89544736093, -143203.2457832391, -41089.144776957604, -116907.2901496041, 24820.58403737355, -77504.58449179943, 7852.234882382737, -129840.43417458942, 0.098, 0.936, 0.11800000000000001, 192.0, 0.0, 0.0, 0.0, 0.0, 0.0, 0.0, 0.0, 0.0, 0.0, 1.666403356547952E9, 0.0, 2022-10-21 18:49:16.547
193.0, -106392.87309561648, -143200.78709134902, -41088.92125951305, -116898.32710007753, 24821.63456936295, -77499.33183185243, 7867.03173721215, -129841.08237517862, 0.098, 0.936, 0.11800000000000001, 192.0, 0.0, 0.0, 0.0, 0.0, 0.0, 0.0, 0.0, 0.0, 0.0, 1.6664033565479667E9, 0.0, 2022-10-21 18:49:16.547
194.0, -106396.58348519605, -143200.63062913783, -41089.41299789107, -116902.46217280177, 24817.678310594358, -77499.82357023044, 7883.504972875711, -129838.17664839944, 0.098, 0.936, 0.11800000000000001, 192.0, 0.0, 0.0, 0.0, 0.0, 0.0, 0.0, 0.0, 0.0, 0.0, 1.6664033565479813E9, 0.0, 2022-10-21 18:49:16.547
195.0, -106389.43092697037, -143193.16514648977, -41081.58988733171, -116909.01123392717, 24826.931932798856, -77491.93340443772, 7885.7177955767875, -129826.8443139606, 0.098, 0.936, 0.11800000000000001, 192.0, 0.0, 0.0, 0.0, 0.0, 0.0, 0.0, 0.0, 0.0, 0.0, 1.6664033565479953E9, 0.0, 2022-10-21 18:49:16.547
196.0, -106386.45814495781, -143192.1369662448, -41088.13894845712, -116915.96262645276, 24820.785203073647, -77495.86731146184, 7869.646891313421, -129831.76169774076, 0.098, 0.936, 0.11800000000000001, 192.0, 0.0, 0.0, 0.0, 0.0, 0.0, 0.0, 0.0, 0.0, 0.0, 1.66640335654801E9, 0.0, 2022-10-21 18:49:16.548
197.0, -106391.33082524907, -143197.3896261918, -41094.84447179371, -116910.21822812775, 24814.370252414974, -77491.48636954861, 7879.325196662569, -129839.33893911111, 0.098, 0.936, 0.11800000000000001, 192.0, 0.0, 0.0, 0.0, 0.0, 0.0, 0.0, 0.0, 0.0, 0.0, 1.6664033565480242E9, 0.0, 2022-10-21 18:49:16.548
198.0, -106389.63209267046, -143193.20984997868, -41097.16905321706, -116909.95000719429, 24814.370252414974, -77489.27354684753, 7895.37374918148, -129842.71405252386, 0.098, 0.936, 0.11800000000000001, 192.0, 0.0, 0.0, 0.0, 0.0, 0.0, 0.0, 0.0, 0.0, 0.0, 1.6664033565480385E9, 0.0, 2022-10-21 18:49:16.548
199.0, -106389.36387173699, -143192.8969255563, -41094.37508516015, -116918.4436700873, 24819.220580961774, -77504.31627086595, 7875.547751849623, -129840.1436019115, 0.098, 0.936, 0.11800000000000001, 192.0, 0.0, 0.0, 0.0, 0.0, 0.0, 0.0, 0.0, 0.0, 0.0, 1.6664033565480523E9, 0.0, 2022-10-21 18:49:16.548
200.0, -106393.56599969459, -143197.5907918919, -41098.21958520646, -116921.61761779996, 24819.891133295434, -77504.65154703279, 7860.639138297933, -129830.8452762181, 0.098, 0.936, 0.11800000000000001, 192.0, 0.0, 0.0, 0.0, 0.0, 0.0, 0.0, 0.0, 0.0, 0.0, 1.6664033565480669E9, 0.0, 2022-10-21 18:49:16.548
201.0, -106389.92266534838, -143193.4557191677, -41097.23610845043, -116911.0452426726, 24822.707453096802, -77493.40861957177, 7867.8140482680865, -129823.75977322577, 0.1, 0.9440000000000001, 0.11, 192.0, 3.0, 32.0, 29.0, 128.0, 3.0, 112.0, 0.0, 0.0, 0.0, 1.6664033565480812E9, 0.0, 2022-10-21 18:49:16.548
202.0, -106390.16853453738, -143193.41101567878, -41094.397436904605, -116904.49618154719, 24823.825040319567, -77488.4912357916, 7884.063766487095, -129823.44684880339, 0.1, 0.9440000000000001, 0.11, 192.0, 0.0, 0.0, 0.0, 0.0, 0.0, 0.0, 0.0, 0.0, 0.0, 1.6664033565480971E9, 0.0, 2022-10-21 18:49:16.548
203.0, -106385.00528156821, -143186.81725106447, -41096.72201832796, -116909.7935449831, 24823.266246708186, -77490.77111372603, 7886.567161866089, -129826.8890174495, 0.1, 0.9440000000000001, 0.11, 192.0, 0.0, 0.0, 0.0, 0.0, 0.0, 0.0, 0.0, 0.0, 0.0, 1.6664033565481117E9, 0.0, 2022-10-21 18:49:16.548
204.0, -106382.36777572248, -143183.8891725408, -41103.449893409, -116921.46115558877, 24819.220580961774, -77511.73705002511, 7860.862655742486, -129831.53818029621, 0.1, 0.9440000000000001, 0.11, 192.0, 0.0, 0.0, 0.0, 0.0, 0.0, 0.0, 0.0, 0.0, 0.0, 1.6664033565481257E9, 0.0, 2022-10-21 18:49:16.548
205.0, -106386.68166240236, -143188.60539062088, -41107.048524266305, -116914.50976306318, 24816.895999538425, -77515.67095704925, 7852.033716682639, -129836.61202628756, 0.1, 0.9440000000000001, 0.11, 192.0, 0.0, 0.0, 0.0, 0.0, 0.0, 0.0, 0.0, 0.0, 0.0, 1.666403356548286E9, 0.0, 2022-10-21 18:49:16.548
206.0, -106391.44258397134, -143193.85805056788, -41110.982431290446, -116913.28041711813, 24816.180743715853, -77506.28322437803, 7868.663414557388, -129843.63047404653, 0.1, 0.9440000000000001, 0.11, 192.0, 0.0, 0.0, 0.0, 0.0, 0.0, 0.0, 0.0, 0.0, 0.0, 1.6664033565483007E9, 0.0, 2022-10-21 18:49:16.548
207.0, -106384.22297051227, -143188.22541096515, -41107.29439345532, -116909.01123392717, 24825.2108484758, -77508.42899184574, 7876.374766394469, -129837.3496338546, 0.1, 0.9440000000000001, 0.11, 192.0, 0.0, 0.0, 0.0, 0.0, 0.0, 0.0, 0.0, 0.0, 0.0, 1.6664033565483184E9, 0.0, 2022-10-21 18:49:16.548
208.0, -106384.71470889029, -143186.6384371088, -41108.85901556719, -116912.72162350675, 24827.91540955489, -77510.30653837998, 7861.019117953672, -129831.40406982948, 0.1, 0.9440000000000001, 0.11, 192.0, 0.0, 0.0, 0.0, 0.0, 0.0, 0.0, 0.0, 0.0, 0.0, 1.6664033565483325E9, 0.0, 2022-10-21 18:49:16.548
209.0, -106385.04998505712, -143187.3983964203, -41107.49555915542, -116908.65360601588, 24830.28469446715, -77496.98489868462, 7859.655661541899, -129819.64705224599, 0.1, 0.9440000000000001, 0.11, 192.0, 0.0, 0.0, 0.0, 0.0, 0.0, 0.0, 0.0, 0.0, 0.0, 1.6664033565483468E9, 0.0, 2022-10-21 18:49:16.548
210.0, -106391.55434269362, -143196.42850118023, -41110.960079545985, -116903.66916700234, 24824.316778697586, -77487.93244218022, 7884.756670565209, -129821.70341273588, 0.1, 0.9440000000000001, 0.11, 192.0, 0.0, 0.0, 0.0, 0.0, 0.0, 0.0, 0.0, 0.0, 0.0, 1.6664033565483613E9, 0.0, 2022-10-21 18:49:16.548
211.0, -106393.90127586143, -143197.61314363638, -41119.364335461185, -116915.47088807475, 24821.29929319612, -77494.97324168363, 7896.536039893155, -129824.67619474843, 0.1, 0.9540000000000001, 0.096, 192.0, 3.0, 32.0, 29.0, 208.0, 3.0, 0.0, 0.0, 0.0, 0.0, 1.6664033565483792E9, 0.0, 2022-10-21 18:49:16.548
212.0, -106395.97998809577, -143197.81430933648, -41123.32059422977, -116925.26095214617, 24824.830868820056, -77507.66903253425, 7873.692557059831, -129825.74907848229, 0.1, 0.9540000000000001, 0.096, 192.0, 0.0, 0.0, 0.0, 0.0, 0.0, 0.0, 0.0, 0.0, 0.0, 1.666403356548395E9, 0.0, 2022-10-21 18:49:16.548
213.0, -106390.57086593758, -143192.1369662448, -41119.990184305934, -116918.01898694265, 24832.050482279123, -77502.34931735389, 7860.885007486941, -129820.27290109074, 0.1, 0.9540000000000001, 0.096, 192.0, 0.0, 0.0, 0.0, 0.0, 0.0, 0.0, 0.0, 0.0, 0.0, 1.6664033565484095E9, 0.0, 2022-10-21 18:49:16.548
214.0, -106388.08982230304, -143192.87457381186, -41119.90077732811, -116907.73718449322, 24833.615104390992, -77495.15205563928, 7871.032699469651, -129817.00954640027, 0.1, 0.9540000000000001, 0.096, 192.0, 0.0, 0.0, 0.0, 0.0, 0.0, 0.0, 0.0, 0.0, 0.0, 1.6664033565484235E9, 0.0, 2022-10-21 18:49:16.548
215.0, -106389.63209267046, -143196.71907385817, -41125.22049250847, -116909.3912135829, 24829.614142133494, -77493.43097131622, 7887.9529700223175, -129818.57416851213, 0.1, 0.9540000000000001, 0.096, 192.0, 0.0, 0.0, 0.0, 0.0, 0.0, 0.0, 0.0, 0.0, 0.0, 1.666403356548438E9, 0.0, 2022-10-21 18:49:16.548
216.0, -106398.34927300803, -143202.6422861388, -41136.843399625235, -116924.2551236457, 24821.67927285186, -77501.1423231533, 7889.763461323198, -129821.85987494707, 0.1, 0.9540000000000001, 0.096, 192.0, 0.0, 0.0, 0.0, 0.0, 0.0, 0.0, 0.0, 0.0, 0.0, 1.6664033565484526E9, 0.0, 2022-10-21 18:49:16.548
217.0, -106392.00137758272, -143196.36144594688, -41135.39053623564, -116925.81974575756, 24823.08743275254, -77516.27445414955, 7872.351452392513, -129812.20392134237, 0.1, 0.9540000000000001, 0.096, 192.0, 0.0, 0.0, 0.0, 0.0, 0.0, 0.0, 0.0, 0.0, 0.0, 1.6664033565484667E9, 0.0, 2022-10-21 18:49:16.548
218.0, -106384.33472923456, -143193.41101567878, -41133.51298970139, -116913.68274851833, 24825.881400809456, -77504.18216039923, 7888.221190955782, -129815.84725568858, 0.1, 0.9540000000000001, 0.096, 192.0, 0.0, 0.0, 0.0, 0.0, 0.0, 0.0, 0.0, 0.0, 0.0, 1.666403356548481E9, 0.0, 2022-10-21 18:49:16.548
219.0, -106392.60487468302, -143202.88815532782, -41145.67233868508, -116918.93540846532, 24818.281807694653, -77501.52230280904, 7907.287228976158, -129830.42059307345, 0.1, 0.9540000000000001, 0.096, 192.0, 0.0, 0.0, 0.0, 0.0, 0.0, 0.0, 0.0, 0.0, 0.0, 1.6664033565484953E9, 0.0, 2022-10-21 18:49:16.548
220.0, -106398.0587003301, -143206.8444140964, -41151.796716665835, -116935.87803076244, 24815.53254312665, -77517.92848323924, 7899.37471143898, -129834.55566579768, 0.1, 0.9560000000000001, 0.1, 192.0, 3.0, 32.0, 29.0, 224.0, 3.0, 32.0, 0.0, 0.0, 0.0, 1.666403356548556E9, 0.0, 2022-10-21 18:49:16.548
221.0, -106388.55920893661, -143198.03782678102, -41145.82880089626, -116946.53981286763, 24821.746328085224, -77538.42503290475, 7865.333004633547, -129827.22429361634, 0.1, 0.9560000000000001, 0.1, 192.0, 0.0, 0.0, 0.0, 0.0, 0.0, 0.0, 0.0, 0.0, 0.0, 1.6664033565485716E9, 0.0, 2022-10-21 18:49:16.548
222.0, -106382.36777572248, -143192.1369662448, -41137.737469403444, -116918.89070497641, 24834.24095323574, -77517.5038000946, 7875.525400105167, -129812.06981087565, 0.1, 0.9560000000000001, 0.1, 192.0, 0.0, 0.0, 0.0, 0.0, 0.0, 0.0, 0.0, 0.0, 0.0, 1.666403356548586E9, 0.0, 2022-10-21 18:49:16.548
223.0, -106388.58156068106, -143197.9484198032, -41142.27487352787, -116912.38634733993, 24836.386720703453, -77499.73416325262, 7908.695388876843, -129809.9910986413, 0.1, 0.9560000000000001, 0.1, 192.0, 0.0, 0.0, 0.0, 0.0, 0.0, 0.0, 0.0, 0.0, 0.0, 1.6664033565486004E9, 0.0, 2022-10-21 18:49:16.548
224.0, -106394.0130345837, -143201.47999542713, -41149.628597453666, -116929.95481848178, 24835.44794743633, -77510.4406488467, 7903.107452763016, -129819.6917557349, 0.1, 0.9560000000000001, 0.1, 192.0, 0.0, 0.0, 0.0, 0.0, 0.0, 0.0, 0.0, 0.0, 0.0, 1.6664033565486147E9, 0.0, 2022-10-21 18:49:16.548
225.0, -106393.38718573895, -143201.56940240497, -41151.28262654336, -116938.91786800837, 24835.112671269497, -77527.56208509947, 7868.305786646103, -129823.71506973685, 0.1, 0.9560000000000001, 0.1, 192.0, 0.0, 0.0, 0.0, 0.0, 0.0, 0.0, 0.0, 0.0, 0.0, 1.6664033565486293E9, 0.0, 2022-10-21 18:49:16.548
226.0, -106395.80117414013, -143205.32449547344, -41154.300112044824, -116927.38436786942, 24835.738520114246, -77518.06259370597, 7868.730469790754, -129823.71506973685, 0.1, 0.9560000000000001, 0.1, 192.0, 0.0, 0.0, 0.0, 0.0, 0.0, 0.0, 0.0, 0.0, 0.0, 1.6664033565486434E9, 0.0, 2022-10-21 18:49:16.548
227.0, -106398.23751428575, -143206.5538414185, -41157.13878359065, -116920.72354802175, 24836.67729338137, -77523.35995714187, 7879.347548407024, -129814.81907544364, 0.1, 0.9560000000000001, 0.1, 192.0, 0.0, 0.0, 0.0, 0.0, 0.0, 0.0, 0.0, 0.0, 0.0, 1.666403356548658E9, 0.0, 2022-10-21 18:49:16.548
228.0, -106397.365796252, -143208.34198097492, -41166.07948137278, -116936.88385926293, 24829.547086900126, -77536.9498177707, 7875.435993127346, -129819.06590689016, 0.1, 0.9560000000000001, 0.1, 192.0, 0.0, 0.0, 0.0, 0.0, 0.0, 0.0, 0.0, 0.0, 0.0, 1.6664033565486727E9, 0.0, 2022-10-21 18:49:16.548
229.0, -106395.2647322732, -143206.41973095178, -41166.682978473065, -116945.46692913378, 24830.619970633983, -77548.46096616519, 7854.827684739553, -129816.49545627779, 0.1, 0.9560000000000001, 0.1, 192.0, 0.0, 0.0, 0.0, 0.0, 0.0, 0.0, 0.0, 0.0, 0.0, 1.6664033565486872E9, 0.0, 2022-10-21 18:49:16.548
230.0, -106400.27152303119, -143208.72196063065, -41168.649931985135, -116942.11416746548, 24830.35174970052, -77547.34337894242, 7849.195045136816, -129823.53625578122, 0.1, 0.9460000000000001, 0.10200000000000001, 192.0, 3.0, 32.0, 29.0, 144.0, 3.0, 48.0, 0.0, 0.0, 0.0, 1.6664033565487015E9, 0.0, 2022-10-21 18:49:16.548
231.0, -106398.8633631305, -143205.52566117354, -41173.00852215392, -116935.07336796206, 24828.63066537746, -77521.68357630773, 7884.577856609566, -129827.24664536079, 0.1, 0.9460000000000001, 0.10200000000000001, 192.0, 0.0, 0.0, 0.0, 0.0, 0.0, 0.0, 0.0, 0.0, 0.0, 1.6664033565487168E9, 0.0, 2022-10-21 18:49:16.548
232.0, -106388.69331940333, -143194.5956581349, -41166.52651626188, -116932.54762083861, 24837.258438737208, -77527.04799497701, 7894.591438125544, -129823.84918020359, 0.1, 0.9460000000000001, 0.10200000000000001, 192.0, 0.0, 0.0, 0.0, 0.0, 0.0, 0.0, 0.0, 0.0, 0.0, 1.6664033565487328E9, 0.0, 2022-10-21 18:49:16.548
233.0, -106396.00233984023, -143202.21760299418, -41175.690731488554, -116948.61852510198, 24832.54222065714, -77551.23258247765, 7861.443801098323, -129830.55470354018, 0.1, 0.9460000000000001, 0.10200000000000001, 192.0, 0.0, 0.0, 0.0, 0.0, 0.0, 0.0, 0.0, 0.0, 0.0, 1.6664033565487473E9, 0.0, 2022-10-21 18:49:16.548
234.0, -106396.58348519605, -143206.17386176274, -41169.25342908543, -116940.84011803153, 24841.14764227243, -77549.37738768785, 7850.446742826312, -129818.97649991233, 0.1, 0.9460000000000001, 0.10200000000000001, 192.0, 0.0, 0.0, 0.0, 0.0, 0.0, 0.0, 0.0, 0.0, 0.0, 1.666403356548762E9, 0.0, 2022-10-21 18:49:16.548
235.0, -106398.84101138604, -143209.92895483124, -41170.169850608094, -116922.13170792244, 24847.29437199764, -77532.300654924, 7865.578873822556, -129820.29525283519, 0.1, 0.9460000000000001, 0.10200000000000001, 192.0, 0.0, 0.0, 0.0, 0.0, 0.0, 0.0, 0.0, 0.0, 0.0, 1.6664033565487912E9, 0.0, 2022-10-21 18:49:16.548
236.0, -106398.79630789714, -143211.69474264322, -41173.120280876195, -116922.04230094461, 24851.63061042197, -77521.01302397407, 7885.0695949875835, -129816.00371789977, 0.1, 0.9460000000000001, 0.10200000000000001, 192.0, 0.0, 0.0, 0.0, 0.0, 0.0, 0.0, 0.0, 0.0, 0.0, 1.6664033565488057E9, 0.0, 2022-10-21 18:49:16.548
237.0, -106399.7127294198, -143211.38181822083, -41172.9191151761, -116932.56997258306, 24857.218546535798, -77520.27541640705, 7874.631330326954, -129812.78506669821, 0.1, 0.9460000000000001, 0.10200000000000001, 192.0, 0.0, 0.0, 0.0, 0.0, 0.0, 0.0, 0.0, 0.0, 0.0, 1.6664033565488195E9, 0.0, 2022-10-21 18:49:16.548
238.0, -106396.8070026406, -143208.9007745863, -41174.19316461005, -116929.5524870816, 24858.67140992539, -77524.47754436464, 7855.140609161927, -129803.889072405, 0.1, 0.9460000000000001, 0.10200000000000001, 192.0, 0.0, 0.0, 0.0, 0.0, 0.0, 0.0, 0.0, 0.0, 0.0, 1.6664033565488338E9, 0.0, 2022-10-21 18:49:16.548
239.0, -106401.99260735424, -143213.23701301063, -41180.56341177981, -116921.88583873342, 24851.20592727732, -77513.7487070261, 7874.2737024156695, -129803.0397061157, 0.1, 0.9460000000000001, 0.10200000000000001, 192.0, 0.0, 0.0, 0.0, 0.0, 0.0, 0.0, 0.0, 0.0, 0.0, 1.666403356548848E9, 0.0, 2022-10-21 18:49:16.548
240.0, -106405.4124242559, -143221.8647863704, -41189.7723304954, -116934.96160923978, 24840.38768296095, -77523.31525365297, 7897.899496304929, -129814.28263357672, 0.10200000000000001, 0.9560000000000001, 0.10200000000000001, 192.0, 3.0, 48.0, 29.0, 224.0, 3.0, 48.0, 0.0, 0.0, 0.0, 1.6664033565488825E9, 0.0, 2022-10-21 18:49:16.548
241.0, -106398.34927300803, -143215.4498357117, -41185.79371998236, -116942.53885061013, 24847.741406886747, -77536.79335555952, 7886.231885699259, -129804.78314218321, 0.10200000000000001, 0.9560000000000001, 0.10200000000000001, 192.0, 0.0, 0.0, 0.0, 0.0, 0.0, 0.0, 0.0, 0.0, 0.0, 1.6664033565489264E9, 0.0, 2022-10-21 18:49:16.548
242.0, -106395.66706367339, -143210.01836180908, -41186.93365894957, -116943.74584481072, 24844.388645218452, -77543.32006494046, 7861.019117953672, -129806.68304046191, 0.10200000000000001, 0.9560000000000001, 0.10200000000000001, 192.0, 0.0, 0.0, 0.0, 0.0, 0.0, 0.0, 0.0, 0.0, 0.0, 1.6664033565489676E9, 0.0, 2022-10-21 18:49:16.548
243.0, -106403.110194577, -143219.0037630801, -41191.62752528519, -116936.54858309611, 24841.125290527976, -77531.56304735698, 7876.5088768612, -129814.12617136553, 0.10200000000000001, 0.9560000000000001, 0.10200000000000001, 192.0, 0.0, 0.0, 0.0, 0.0, 0.0, 0.0, 0.0, 0.0, 0.0, 1.6664033565490084E9, 0.0, 2022-10-21 18:49:16.549
244.0, -106392.26959851618, -143207.4479111967, -41182.8209379698, -116925.39506261291, 24856.726808157782, -77522.26472166357, 7893.362092180502, -129808.02414512922, 0.10200000000000001, 0.9560000000000001, 0.10200000000000001, 192.0, 0.0, 0.0, 0.0, 0.0, 0.0, 0.0, 0.0, 0.0, 0.0, 1.6664033565490491E9, 0.0, 2022-10-21 18:49:16.549
245.0, -106388.40274672542, -143201.61410589388, -41183.536193792366, -116932.86054526098, 24861.890061126956, -77526.55625659898, 7876.486525116745, -129802.79383692669, 0.10200000000000001, 0.9560000000000001, 0.10200000000000001, 192.0, 0.0, 0.0, 0.0, 0.0, 0.0, 0.0, 0.0, 0.0, 0.0, 1.6664033565490909E9, 0.0, 2022-10-21 18:49:16.549
246.0, -106396.02469158468, -143210.57715542044, -41189.70527526204, -116939.56606859757, 24854.558688945617, -77529.03730023353, 7865.60122556701, -129805.16312183895, 0.10200000000000001, 0.9560000000000001, 0.10200000000000001, 192.0, 0.0, 0.0, 0.0, 0.0, 0.0, 0.0, 0.0, 0.0, 0.0, 1.666403356549131E9, 0.0, 2022-10-21 18:49:16.549
247.0, -106397.43285148536, -143211.5159286876, -41192.09691191875, -116933.46404236127, 24849.663656909903, -77528.23263743313, 7875.123068704971, -129806.7947991842, 0.10200000000000001, 0.9560000000000001, 0.10200000000000001, 192.0, 0.0, 0.0, 0.0, 0.0, 0.0, 0.0, 0.0, 0.0, 0.0, 1.6664033565491722E9, 0.0, 2022-10-21 18:49:16.549
248.0, -106399.15393580843, -143213.16995777725, -41199.338877122274, -116933.1511179389, 24845.997970819233, -77522.01885247456, 7906.951952809329, -129810.01345038576, 0.10200000000000001, 0.9560000000000001, 0.10200000000000001, 192.0, 0.0, 0.0, 0.0, 0.0, 0.0, 0.0, 0.0, 0.0, 0.0, 1.6664033565491886E9, 0.0, 2022-10-21 18:49:16.549
249.0, -106391.68845316034, -143209.12429203084, -41198.64597304416, -116937.26383891868, 24854.73750290126, -77535.31814042547, 7898.167717238393, -129804.24670031629, 0.10200000000000001, 0.9480000000000001, 0.108, 192.0, 3.0, 48.0, 29.0, 160.0, 3.0, 96.0, 0.0, 0.0, 0.0, 1.6664033565492196E9, 0.0, 2022-10-21 18:49:16.549
250.0, -106396.89640961844, -143214.8016351225, -41210.55945283883, -116947.0539029901, 24848.076683053576, -77542.31423643998, 7879.481658873757, -129808.6946974629, 0.10200000000000001, 0.9480000000000001, 0.108, 192.0, 0.0, 0.0, 0.0, 0.0, 0.0, 0.0, 0.0, 0.0, 0.0, 1.6664033565494003E9, 0.0, 2022-10-21 18:49:16.549
251.0, -106399.66802593089, -143220.34486774742, -41219.16487445413, -116941.24244943172, 24848.68018015387, -77540.21317246118, 7881.046280985628, -129813.27680507622, 0.10200000000000001, 0.9480000000000001, 0.108, 192.0, 0.0, 0.0, 0.0, 0.0, 0.0, 0.0, 0.0, 0.0, 0.0, 1.6664033565494425E9, 0.0, 2022-10-21 18:49:16.549
252.0, -106404.18307831086, -143224.4575887272, -41226.00450825745, -116936.30271390709, 24846.445005708338, -77521.68357630773, 7914.216269757304, -129809.32054630764, 0.10200000000000001, 0.9480000000000001, 0.108, 192.0, 0.0, 0.0, 0.0, 0.0, 0.0, 0.0, 0.0, 0.0, 0.0, 1.6664033565494833E9, 0.0, 2022-10-21 18:49:16.549
253.0, -106402.70786317681, -143225.46341722767, -41226.76446756893, -116941.22009768727, 24847.29437199764, -77537.17333521525, 7917.881955847974, -129803.59849972709, 0.10200000000000001, 0.9480000000000001, 0.108, 192.0, 0.0, 0.0, 0.0, 0.0, 0.0, 0.0, 0.0, 0.0, 0.0, 1.6664033565495188E9, 0.0, 2022-10-21 18:49:16.549
254.0, -106406.39590101194, -143227.76564690657, -41228.9325867811, -116947.9479727683, 24850.20009877683, -77552.28311446705, 7886.768327566187, -129796.69181069039, 0.10200000000000001, 0.9480000000000001, 0.108, 192.0, 0.0, 0.0, 0.0, 0.0, 0.0, 0.0, 0.0, 0.0, 0.0, 1.666403356549534E9, 0.0, 2022-10-21 18:49:16.549
255.0, -106402.4619939878, -143223.34000150443, -41228.82082805882, -116943.03058898814, 24850.893002854944, -77545.82346031946, 7876.397118138924, -129794.36722926704, 0.10200000000000001, 0.9480000000000001, 0.108, 192.0, 0.0, 0.0, 0.0, 0.0, 0.0, 0.0, 0.0, 0.0, 0.0, 1.6664033565495498E9, 0.0, 2022-10-21 18:49:16.549
0.0, -106410.26275280271, -143232.70538243122, -41238.54383689688, -116945.5563361116, 24843.025188806678, -77543.7000445962, 7891.797470068631, -129811.13103760852, 0.10200000000000001, 0.9480000000000001, 0.108, 192.0, 0.0, 0.0, 0.0, 0.0, 0.0, 0.0, 0.0, 0.0, 0.0, 1.6664033565495656E9, 0.0, 2022-10-21 18:49:16.549
1.0, -106403.93720912185, -143226.93863236174, -41234.20759847255, -116942.47179537677, 24853.709322656316, -77538.13446022684, 7907.778967354175, -129803.889072405, 0.10200000000000001, 0.9480000000000001, 0.108, 192.0, 0.0, 0.0, 0.0, 0.0, 0.0, 0.0, 0.0, 0.0, 0.0, 1.6664033565495813E9, 0.0, 2022-10-21 18:49:16.549
2.0, -106407.28997079015, -143227.92210911776, -41232.50886589395, -116949.1549669689, 24859.520776214693, -77544.41530041878, 7891.41749041289, -129804.26905206074, 0.10200000000000001, 0.9480000000000001, 0.108, 192.0, 0.0, 0.0, 0.0, 0.0, 0.0, 0.0, 0.0, 0.0, 0.0, 1.666403356549597E9, 0.0, 2022-10-21 18:49:16.549
3.0, -106410.8215464141, -143229.79965565202, -41238.45442991906, -116947.43388264584, 24851.45179646633, -77546.94104754222, 7885.628388598966, -129806.01248812825, 0.098, 0.9460000000000001, 0.116, 192.0, 3.0, 16.0, 29.0, 144.0, 3.0, 160.0, 0.0, 0.0, 0.0, 1.6664033565496128E9, 0.0, 2022-10-21 18:49:16.549
4.0, -106407.24526730124, -143229.28556552954, -41237.49330490748, -116933.30758015008, 24853.575212189582, -77540.57080037246, 7911.489356933756, -129800.58101422561, 0.098, 0.9460000000000001, 0.116, 192.0, 0.0, 0.0, 0.0, 0.0, 0.0, 0.0, 0.0, 0.0, 0.0, 1.6664033565496297E9, 0.0, 2022-10-21 18:49:16.549
5.0, -106412.67674120388, -143235.61110921038, -41239.84023807529, -116938.20261218579, 24855.720979657293, -77544.0576725075, 7925.61565942951, -129807.8453311736, 0.098, 0.9460000000000001, 0.116, 192.0, 0.0, 0.0, 0.0, 0.0, 0.0, 0.0, 0.0, 0.0, 0.0, 1.6664033565496452E9, 0.0, 2022-10-21 18:49:16.549
6.0, -106412.22970631477, -143232.95125162022, -41239.08027876381, -116945.66809483388, 24860.54895645964, -77548.9080010543, 7912.986923812262, -129803.73261019381, 0.098, 0.9460000000000001, 0.116, 192.0, 0.0, 0.0, 0.0, 0.0, 0.0, 0.0, 0.0, 0.0, 0.0, 1.6664033565496612E9, 0.0, 2022-10-21 18:49:16.549
7.0, -106402.03731084315, -143219.07081831346, -41227.926758280606, -116941.98005699874, 24867.321535029598, -77555.97115230217, 7887.349472922025, -129794.74720892278, 0.098, 0.9460000000000001, 0.116, 192.0, 0.0, 0.0, 0.0, 0.0, 0.0, 0.0, 0.0, 0.0, 0.0, 1.6664033565496764E9, 0.0, 2022-10-21 18:49:16.549
8.0, -106404.78657541116, -143221.32834450345, -41237.11332525174, -116937.66617031887, 24862.650020438436, -77542.73891958463, 7899.2182492277925, -129796.44594150138, 0.098, 0.9460000000000001, 0.116, 192.0, 0.0, 0.0, 0.0, 0.0, 0.0, 0.0, 0.0, 0.0, 0.0, 1.666403356549692E9, 0.0, 2022-10-21 18:49:16.549
9.0, -106407.3123225346, -143226.08926607243, -41241.85189507627, -116943.54467911062, 24859.07374132559, -77538.46973639366, 7924.788644884664, -129792.71320017734, 0.098, 0.9460000000000001, 0.116, 192.0, 0.0, 0.0, 0.0, 0.0, 0.0, 0.0, 0.0, 0.0, 0.0, 1.6664033565497563E9, 0.0, 2022-10-21 18:49:16.549
10.0, -106409.3686830245, -143227.45272248422, -41244.60115964427, -116949.37848441345, 24863.40997974992, -77549.13151849885, 7916.965534325306, -129793.51786297774, 0.098, 0.9460000000000001, 0.116, 192.0, 0.0, 0.0, 0.0, 0.0, 0.0, 0.0, 0.0, 0.0, 0.0, 1.666403356549772E9, 0.0, 2022-10-21 18:49:16.549
11.0, -106404.9653893668, -143221.19423403672, -41244.04236603289, -116952.61948735946, 24862.985296605268, -77560.53090817106, 7892.602132869021, -129787.16996755243, 0.098, 0.9460000000000001, 0.116, 192.0, 0.0, 0.0, 0.0, 0.0, 0.0, 0.0, 0.0, 0.0, 0.0, 1.666403356549788E9, 0.0, 2022-10-21 18:49:16.549
12.0, -106402.64080794345, -143222.13300730384, -41237.04627001837, -116936.86150751848, 24864.39345650595, -77547.34337894242, 7906.057883031116, -129786.09708381857, 0.098, 0.9460000000000001, 0.116, 192.0, 0.0, 0.0, 0.0, 0.0, 0.0, 0.0, 0.0, 0.0, 0.0, 1.6664033565498035E9, 0.0, 2022-10-21 18:49:16.549
13.0, -106414.15195633793, -143237.06397259998, -41247.6857003791, -116936.14625169591, 24856.01155233521, -77542.94008528473, 7933.125845566493, -129803.6879067049, 0.09, 0.9500000000000001, 0.12, 192.0, 2.0, 208.0, 29.0, 176.0, 3.0, 192.0, 0.0, 0.0, 0.0, 1.6664033565498195E9, 0.0, 2022-10-21 18:49:16.549
14.0, -106412.34146503705, -143231.67720218626, -41251.552552169866, -116947.2550686902, 24858.49259596975, -77556.1052627689, 7929.594269942555, -129802.86089216005, 0.09, 0.9500000000000001, 0.12, 192.0, 0.0, 0.0, 0.0, 0.0, 0.0, 0.0, 0.0, 0.0, 0.0, 1.666403356549838E9, 0.0, 2022-10-21 18:49:16.549
15.0, -106400.33857826455, -143219.83077762494, -41245.83050558931, -116948.08208323504, 24866.62863095148, -77557.04403603602, 7909.030665043672, -129790.634487943, 0.09, 0.9500000000000001, 0.12, 192.0, 0.0, 0.0, 0.0, 0.0, 0.0, 0.0, 0.0, 0.0, 0.0, 1.666403356549853E9, 0.0, 2022-10-21 18:49:16.549
16.0, -106405.03244460016, -143226.558652706, -41249.183267257606, -116942.74001631023, 24861.30891577112, -77554.54064065703, 7915.356208724525, -129790.18745305389, 0.09, 0.9500000000000001, 0.12, 192.0, 0.0, 0.0, 0.0, 0.0, 0.0, 0.0, 0.0, 0.0, 0.0, 1.666403356549868E9, 0.0, 2022-10-21 18:49:16.549
17.0, -106399.53391546416, -143220.12135030286, -41246.99279630098, -116935.96743774027, 24863.074703583086, -77553.44540517872, 7936.277441534691, -129786.56647045213, 0.09, 0.9500000000000001, 0.12, 192.0, 0.0, 0.0, 0.0, 0.0, 0.0, 0.0, 0.0, 0.0, 0.0, 1.6664033565498831E9, 0.0, 2022-10-21 18:49:16.549
18.0, -106401.09853757604, -143221.97654509265, -41254.435927204606, -116950.11609198048, 24860.660715181915, -77561.71555062718, 7933.349363011046, -129792.26616528824, 0.09, 0.9500000000000001, 0.12, 192.0, 0.0, 0.0, 0.0, 0.0, 0.0, 0.0, 0.0, 0.0, 0.0, 1.6664033565498981E9, 0.0, 2022-10-21 18:49:16.549
19.0, -106396.58348519605, -143215.4051322228, -41252.42427020363, -116953.24533620421, 24868.30501178563, -77557.64753313632, 7920.810034371619, -129787.23702278579, 0.09, 0.9500000000000001, 0.12, 192.0, 0.0, 0.0, 0.0, 0.0, 0.0, 0.0, 0.0, 0.0, 0.0, 1.6664033565499156E9, 0.0, 2022-10-21 18:49:16.549
20.0, -106395.24238052874, -143214.57811767794, -41252.178401014615, -116937.93439125233, 24871.098979842543, -77542.42599516225, 7936.947993868351, -129783.61604018403, 0.09, 0.9500000000000001, 0.12, 192.0, 0.0, 0.0, 0.0, 0.0, 0.0, 0.0, 0.0, 0.0, 0.0, 1.6664033565499306E9, 0.0, 2022-10-21 18:49:16.549
21.0, -106400.5620957091, -143222.64709742632, -41261.81200287485, -116934.02283597266, 24862.605316949528, -77542.22482946215, 7960.104401124049, -129796.133017079, 0.09, 0.9500000000000001, 0.12, 192.0, 0.0, 0.0, 0.0, 0.0, 0.0, 0.0, 0.0, 0.0, 0.0, 1.666403356549945E9, 0.0, 2022-10-21 18:49:16.549
22.0, -106402.79727015464, -143225.37401024986, -41268.65163667818, -116955.81578681657, 24853.597563934036, -77572.08676005444, 7947.565072484622, -129794.0319531002, 0.088, 0.9540000000000001, 0.126, 192.0, 2.0, 192.0, 29.0, 208.0, 3.0, 240.0, 0.0, 0.0, 0.0, 1.6664033565499604E9, 0.0, 2022-10-21 18:49:16.549
23.0, -106403.64663644394, -143226.558652706, -41267.556401199865, -116963.9071183094, 24862.672372182893, -77574.72426590018, 7931.158892054426, -129787.23702278579, 0.088, 0.9540000000000001, 0.126, 192.0, 0.0, 0.0, 0.0, 0.0, 0.0, 0.0, 0.0, 0.0, 0.0, 1.6664033565499768E9, 0.0, 2022-10-21 18:49:16.549
24.0, -106395.89058111794, -143220.30016425851, -41263.30956975336, -116947.99267625723, 24873.535319988172, -77555.0100272906, 7944.86051140553, -129779.19039478188, 0.088, 0.9540000000000001, 0.126, 192.0, 0.0, 0.0, 0.0, 0.0, 0.0, 0.0, 0.0, 0.0, 0.0, 1.6664033565500083E9, 0.0, 2022-10-21 18:49:16.550
25.0, -106390.19088628184, -143215.1145595449, -41260.96263658555, -116937.68852206333, 24875.68108745588, -77548.34920744291, 7962.607796503044, -129769.44503419937, 0.088, 0.9540000000000001, 0.126, 192.0, 0.0, 0.0, 0.0, 0.0, 0.0, 0.0, 0.0, 0.0, 0.0, 1.6664033565500233E9, 0.0, 2022-10-21 18:49:16.550
26.0, -106391.12965954897, -143216.14273978982, -41258.21337201755, -116934.98396098423, 24880.48671251377, -77542.29188469551, 7979.036328677694, -129763.9241533189, 0.088, 0.9540000000000001, 0.126, 192.0, 0.0, 0.0, 0.0, 0.0, 0.0, 0.0, 0.0, 0.0, 0.0, 1.6664033565500393E9, 0.0, 2022-10-21 18:49:16.550
27.0, -106397.11992706299, -143219.94253634723, -41268.40576748917, -116949.89257453593, 24874.272927555197, -77555.18884124623, 7963.703031981353, -129771.70256038936, 0.088, 0.9540000000000001, 0.126, 192.0, 0.0, 0.0, 0.0, 0.0, 0.0, 0.0, 0.0, 0.0, 0.0, 1.666403356550054E9, 0.0, 2022-10-21 18:49:16.550
28.0, -106389.92266534838, -143215.67335315625, -41266.17059304364, -116947.34447566803, 24877.53628224567, -77565.94003032924, 7946.2910230506695, -129769.19916501036, 0.088, 0.9540000000000001, 0.126, 192.0, 0.0, 0.0, 0.0, 0.0, 0.0, 0.0, 0.0, 0.0, 0.0, 1.6664033565500689E9, 0.0, 2022-10-21 18:49:16.550
29.0, -106391.84491537153, -143215.47218745615, -41264.695377909586, -116929.23956265922, 24883.50419801524, -77548.72918709865, 7963.658328492443, -129769.35562722155, 0.088, 0.9540000000000001, 0.126, 192.0, 0.0, 0.0, 0.0, 0.0, 0.0, 0.0, 0.0, 0.0, 0.0, 1.666403356550085E9, 0.0, 2022-10-21 18:49:16.550
30.0, -106406.68647368986, -143228.77147540706, -41279.22401180554, -116944.03641748863, 24872.30597404313, -77548.19274523172, 7977.382299588001, -129780.84442387157, 0.088, 0.9540000000000001, 0.126, 192.0, 0.0, 0.0, 0.0, 0.0, 0.0, 0.0, 0.0, 0.0, 0.0, 1.6664033565501003E9, 0.0, 2022-10-21 18:49:16.550
31.0, -106400.7632614092, -143225.68693467224, -41277.704093182576, -116955.6593246054, 24874.54114848866, -77560.19563200422, 7975.884732709495, -129779.54802269317, 0.088, 0.9540000000000001, 0.126, 192.0, 0.0, 0.0, 0.0, 0.0, 0.0, 0.0, 0.0, 0.0, 0.0, 1.666403356550116E9, 0.0, 2022-10-21 18:49:16.550
32.0, -106401.90320037643, -143229.53143471855, -41280.632171706224, -116956.46398740579, 24871.63542170947, -77580.9604026032, 7952.258938820236, -129781.85025237207, 0.09, 0.9560000000000001, 0.128, 192.0, 2.0, 208.0, 29.0, 224.0, 4.0, 0.0, 0.0, 0.0, 0.0, 1.6664033565501313E9, 0.0, 2022-10-21 18:49:16.550
33.0, -106414.24136331576, -143243.05424011403, -41292.00920963397, -116948.9985047577, 24862.82883439408, -77571.61737342089, 7966.1393721269815, -129785.31477276263, 0.09, 0.9560000000000001, 0.128, 192.0, 0.0, 0.0, 0.0, 0.0, 0.0, 0.0, 0.0, 0.0, 0.0, 1.6664033565501482E9, 0.0, 2022-10-21 18:49:16.550
34.0, -106396.71759566279, -143222.3118212595, -41273.88194488072, -116936.25801041818, 24878.117427601508, -77556.41818719127, 7996.090709697093, -129769.89206908847, 0.09, 0.9560000000000001, 0.128, 192.0, 0.0, 0.0, 0.0, 0.0, 0.0, 0.0, 0.0, 0.0, 0.0, 1.6664033565501645E9, 0.0, 2022-10-21 18:49:16.550
35.0, -106393.54364795014, -143217.43914096823, -41268.49517446699, -116944.52815586665, 24886.119352116508, -77560.37444595987, 7988.357006115557, -129758.78325209419, 0.09, 0.9560000000000001, 0.128, 192.0, 0.0, 0.0, 0.0, 0.0, 0.0, 0.0, 0.0, 0.0, 0.0, 1.6664033565501797E9, 0.0, 2022-10-21 18:49:16.550
36.0, -106403.17724981038, -143228.79382715153, -41274.30662802537, -116960.19672872982, 24883.191273592864, -77574.92543160028, 7959.523255768211, -129755.69871135935, 0.09, 0.9560000000000001, 0.128, 192.0, 0.0, 0.0, 0.0, 0.0, 0.0, 0.0, 0.0, 0.0, 0.0, 1.6664033565501952E9, 0.0, 2022-10-21 18:49:16.550
37.0, -106398.10340381903, -143225.44106548323, -41279.42517750564, -116940.5495453536, 24883.30303231514, -77567.57170767448, 7965.513523282233, -129776.91051684745, 0.09, 0.9560000000000001, 0.128, 192.0, 0.0, 0.0, 0.0, 0.0, 0.0, 0.0, 0.0, 0.0, 0.0, 1.666403356550212E9, 0.0, 2022-10-21 18:49:16.550
38.0, -106401.94790386534, -143229.37497250736, -41284.901354897185, -116945.53398436714, 24875.74814268925, -77575.97596358966, 7975.549456542666, -129781.73849364978, 0.09, 0.9560000000000001, 0.128, 192.0, 0.0, 0.0, 0.0, 0.0, 0.0, 0.0, 0.0, 0.0, 0.0, 1.6664033565502279E9, 0.0, 2022-10-21 18:49:16.550
39.0, -106402.50669747671, -143232.90654813132, -41287.494157254005, -116946.13748146743, 24887.01342189472, -77566.0070855626, 7988.62522704902, -129772.30605748965, 0.09, 0.9560000000000001, 0.128, 192.0, 0.0, 0.0, 0.0, 0.0, 0.0, 0.0, 0.0, 0.0, 0.0, 1.6664033565502436E9, 0.0, 2022-10-21 18:49:16.550
40.0, -106403.2666567882, -143228.74912366262, -41292.255078822986, -116953.53590888214, 24891.059087641133, -77570.36567573139, 7971.5931977740765, -129766.76282486474, 0.09, 0.9560000000000001, 0.128, 192.0, 0.0, 0.0, 0.0, 0.0, 0.0, 0.0, 0.0, 0.0, 0.0, 1.66640335655028E9, 0.0, 2022-10-21 18:49:16.550
41.0, -106403.60193295503, -143232.14658881983, -41286.82360492034, -116946.80803380109, 24891.21554985232, -77566.38706521834, 7965.938206426884, -129757.62096138252, 0.09, 0.9560000000000001, 0.128, 192.0, 0.0, 0.0, 0.0, 0.0, 0.0, 0.0, 0.0, 0.0, 0.0, 1.6664033565502954E9, 0.0, 2022-10-21 18:49:16.550
42.0, -106415.53776449416, -143241.19904532423, -41301.01696264946, -116951.7030658368, 24879.25736656873, -77559.32391397047, 7988.066433437638, -129767.52278417621, 0.096, 0.9440000000000001, 0.122, 192.0, 3.0, 0.0, 29.0, 128.0, 3.0, 208.0, 0.0, 0.0, 0.0, 1.666403356550311E9, 0.0, 2022-10-21 18:49:16.550
43.0, -106420.79042444116, -143243.76949593658, -41308.79536971991, -116960.80022583011, 24874.652907210937, -77572.77966413255, 7991.218029405836, -129782.40904598346, 0.096, 0.9440000000000001, 0.122, 192.0, 0.0, 0.0, 0.0, 0.0, 0.0, 0.0, 0.0, 0.0, 0.0, 1.6664033565503275E9, 0.0, 2022-10-21 18:49:16.550
44.0, -106406.95469462332, -143233.55474872052, -41302.46982603906, -116961.58253688605, 24882.7218869593, -77591.01868760808, 7968.1286773835045, -129773.31188599014, 0.096, 0.9440000000000001, 0.122, 192.0, 0.0, 0.0, 0.0, 0.0, 0.0, 0.0, 0.0, 0.0, 0.0, 1.6664033565503435E9, 0.0, 2022-10-21 18:49:16.550
45.0, -106405.23361030026, -143231.56544346397, -41302.246308594506, -116954.07235074906, 24887.706325972835, -77580.15573980281, 7964.597101759566, -129769.91442083294, 0.096, 0.9440000000000001, 0.122, 192.0, 0.0, 0.0, 0.0, 0.0, 0.0, 0.0, 0.0, 0.0, 0.0, 1.666403356550359E9, 0.0, 2022-10-21 18:49:16.550
46.0, -106413.66021795991, -143235.94638537723, -41309.75649473149, -116951.34543792551, 24883.079514870587, -77569.38219897535, 7987.909971226451, -129770.56262142214, 0.096, 0.9440000000000001, 0.122, 192.0, 0.0, 0.0, 0.0, 0.0, 0.0, 0.0, 0.0, 0.0, 0.0, 1.6664033565503745E9, 0.0, 2022-10-21 18:49:16.550
47.0, -106406.77588066769, -143231.47603648616, -41310.337640087324, -116955.59226937202, 24885.11352361602, -77570.81271062049, 7996.761262030753, -129763.49947017425, 0.096, 0.9440000000000001, 0.122, 192.0, 0.0, 0.0, 0.0, 0.0, 0.0, 0.0, 0.0, 0.0, 0.0, 1.6664033565503912E9, 0.0, 2022-10-21 18:49:16.550
48.0, -106400.7632614092, -143223.809388138, -41309.018887164464, -116959.68263860735, 24889.06978238461, -77578.54641420204, 7985.585389803099, -129766.06992078661, 0.096, 0.9440000000000001, 0.122, 192.0, 0.0, 0.0, 0.0, 0.0, 0.0, 0.0, 0.0, 0.0, 0.0, 1.6664033565504067E9, 0.0, 2022-10-21 18:49:16.550
49.0, -106404.78657541116, -143225.88810037234, -41313.489236055524, -116959.5038246517, 24887.281642828184, -77590.03521085206, 7958.919758667917, -129767.54513592066, 0.096, 0.9440000000000001, 0.122, 192.0, 0.0, 0.0, 0.0, 0.0, 0.0, 0.0, 0.0, 0.0, 0.0, 1.666403356550423E9, 0.0, 2022-10-21 18:49:16.550
50.0, -106415.53776449416, -143236.86280689988, -41318.674840769156, -116962.96834504227, 24871.546014731648, -77586.83891139495, 7974.38716583099, -129784.01837158423, 0.096, 0.9440000000000001, 0.122, 192.0, 0.0, 0.0, 0.0, 0.0, 0.0, 0.0, 0.0, 0.0, 0.0, 1.6664033565504384E9, 0.0, 2022-10-21 18:49:16.550
51.0, -106397.65636892991, -143216.94740259022, -41309.577680775845, -116964.89059506543, 24878.25153806824, -77598.26065281162, 7979.662177522443, -129773.9824383238, 0.096, 0.9440000000000001, 0.122, 192.0, 0.0, 0.0, 0.0, 0.0, 0.0, 0.0, 0.0, 0.0, 0.0, 1.666403356550454E9, 0.0, 2022-10-21 18:49:16.550
52.0, -106403.44547074384, -143222.3118212595, -41315.43383782313, -116973.38425795845, 24876.15047408944, -77610.08472562846, 7957.399840044956, -129789.96393560934, 0.10200000000000001, 0.9520000000000001, 0.108, 192.0, 3.0, 48.0, 29.0, 192.0, 3.0, 96.0, 0.0, 0.0, 0.0, 1.6664033565504696E9, 0.0, 2022-10-21 18:49:16.550
53.0, -106406.64177020095, -143225.08343757194, -41310.359991831785, -116961.02374327467, 24882.990107892765, -77598.84179816744, 7948.325031796102, -129773.24483075677, 0.10200000000000001, 0.9520000000000001, 0.108, 192.0, 0.0, 0.0, 0.0, 0.0, 0.0, 0.0, 0.0, 0.0, 0.0, 1.6664033565504863E9, 0.0, 2022-10-21 18:49:16.550
54.0, -106411.78267142567, -143233.19712080923, -41321.401753592705, -116959.41441767388, 24877.692744456857, -77585.1178270719, 7959.992642401772, -129774.07184530162, 0.10200000000000001, 0.9520000000000001, 0.108, 192.0, 0.0, 0.0, 0.0, 0.0, 0.0, 0.0, 0.0, 0.0, 0.0, 1.6664033565505016E9, 0.0, 2022-10-21 18:49:16.550
0.0, 0.0, 0.0, 0.0, 0.0, 0.0, 0.0, 0.0, 0.0, 0.088, 0.9480000000000001, 0.092, 192.0, 2.0, 192.0, 29.0, 160.0, 2.0, 224.0, 0.0, 0.0, 0.0, 1.6664033566287355E9, 0.0, 2022-10-21 18:49:16.628
1.0, -104184.58779866551, -143306.84611878946, -26846.859079224956, -116793.87739823788, 25020.073356637164, -69250.82287202154, 8566.641338663261, -129187.40560858317, 0.088, 0.9480000000000001, 0.092, 192.0, 0.0, 0.0, 0.0, 0.0, 0.0, 0.0, 0.0, 0.0, 0.0, 1.6664033566447015E9, 0.0, 2022-10-21 18:49:16.644
2.0, -104184.94542657679, -143310.66826709133, -26853.810471750556, -116801.40993611932, 25022.800269460713, -69262.49048262721, 8560.181684515677, -129187.85264347227, 0.088, 0.9480000000000001, 0.092, 192.0, 0.0, 0.0, 0.0, 0.0, 0.0, 0.0, 0.0, 0.0, 0.0, 1.6664033571238217E9, 0.0, 2022-10-21 18:49:17.123
3.0, -104197.6412174274, -143320.9277177963, -26871.714219059257, -116816.94439851576, 25012.0043768888, -69290.87719808545, 8533.247832447032, -129192.90413771918, 0.088, 0.9480000000000001, 0.092, 192.0, 0.0, 0.0, 0.0, 0.0, 0.0, 0.0, 0.0, 0.0, 0.0, 1.6664033571239789E9, 0.0, 2022-10-21 18:49:17.123
4.0, -104188.43229871182, -143306.95787751174, -26860.381884620416, -116796.24668315014, 25023.582580516646, -69270.38064841994, 8559.60053915984, -129186.4891870605, 0.088, 0.9480000000000001, 0.092, 192.0, 0.0, 0.0, 0.0, 0.0, 0.0, 0.0, 0.0, 0.0, 0.0, 1.666403357124003E9, 0.0, 2022-10-21 18:49:17.124
5.0, -104184.07370854303, -143301.39229314236, -26860.51599508715, -116785.20492138922, 25029.774013730766, -69258.26600292516, 8591.138850586278, -129173.59223050979, 0.088, 0.9480000000000001, 0.092, 192.0, 0.0, 0.0, 0.0, 0.0, 0.0, 0.0, 0.0, 0.0, 0.0, 1.6664033571240242E9, 0.0, 2022-10-21 18:49:17.124
6.0, -104170.14857174738, -143287.04247320205, -26861.343009631993, -116784.89199696685, 25038.91587721299, -69263.4963111277, 8598.55962974544, -129159.60003848077, 0.088, 0.9480000000000001, 0.092, 192.0, 0.0, 0.0, 0.0, 0.0, 0.0, 0.0, 0.0, 0.0, 0.0, 1.6664033571240528E9, 0.0, 2022-10-21 18:49:17.124
7.0, -104164.06889725554, -143280.4263568433, -26862.37118987694, -116777.80649397451, 25049.465900595893, -69283.23290148174, 8577.973673102102, -129162.72928270452, 0.08, 0.9540000000000001, 0.092, 192.0, 2.0, 128.0, 29.0, 208.0, 2.0, 224.0, 0.0, 0.0, 0.0, 1.666403357124074E9, 0.0, 2022-10-21 18:49:17.124
8.0, -104164.65004261138, -143282.14744116634, -26866.238041667708, -116772.41972356079, 25048.683589539956, -69282.852921826, 8575.112649811823, -129168.49603277398, 0.08, 0.9540000000000001, 0.092, 192.0, 0.0, 0.0, 0.0, 0.0, 0.0, 0.0, 0.0, 0.0, 0.0, 1.666403357124097E9, 0.0, 2022-10-21 18:49:17.124
9.0, -104169.16509499135, -143284.98611271215, -26875.357553405473, -116780.28753760905, 25041.039292936242, -69281.33300320304, 8581.527600470496, -129168.74190196299, 0.08, 0.9540000000000001, 0.092, 192.0, 0.0, 0.0, 0.0, 0.0, 0.0, 0.0, 0.0, 0.0, 0.0, 1.6664033571241183E9, 0.0, 2022-10-21 18:49:17.124
10.0, -104172.85313282647, -143290.1270139369, -26884.432361654326, -116783.2156161327, 25043.67679878197, -69272.79463682111, 8587.070833095411, -129172.3405328203, 0.08, 0.9540000000000001, 0.092, 192.0, 0.0, 0.0, 0.0, 0.0, 0.0, 0.0, 0.0, 0.0, 0.0, 1.6664033571241393E9, 0.0, 2022-10-21 18:49:17.124
11.0, -104187.96291207826, -143307.96370601223, -26906.51588517617, -116805.05327046553, 25023.51552528328, -69296.93452083285, 8556.180722258177, -129192.77002725245, 0.08, 0.9540000000000001, 0.092, 192.0, 0.0, 0.0, 0.0, 0.0, 0.0, 0.0, 0.0, 0.0, 0.0, 1.6664033571241603E9, 0.0, 2022-10-21 18:49:17.124
12.0, -104182.12910677542, -143302.48752862067, -26906.582940409535, -116790.14465691385, 25026.912990440487, -69302.8130296246, 8551.084524522368, -129184.7904544819, 0.08, 0.9540000000000001, 0.092, 192.0, 0.0, 0.0, 0.0, 0.0, 0.0, 0.0, 0.0, 0.0, 0.0, 1.6664033571241815E9, 0.0, 2022-10-21 18:49:17.124
13.0, -104180.60918815246, -143301.59345884246, -26902.872550829954, -116771.52565378258, 25033.126775399065, -69269.03954375262, 8590.334187785887, -129177.54848927839, 0.08, 0.9540000000000001, 0.092, 192.0, 0.0, 0.0, 0.0, 0.0, 0.0, 0.0, 0.0, 0.0, 0.0, 1.6664033571242049E9, 0.0, 2022-10-21 18:49:17.124
14.0, -104181.01151955266, -143302.88986002086, -26917.982330081744, -116785.74136325615, 25027.829411963157, -69266.53614837362, 8593.418728520719, -129184.5892887818, 0.08, 0.9540000000000001, 0.092, 192.0, 0.0, 0.0, 0.0, 0.0, 0.0, 0.0, 0.0, 0.0, 0.0, 1.6664033571242256E9, 0.0, 2022-10-21 18:49:17.124
15.0, -104176.69763287279, -143295.78200528407, -26924.03965282913, -116789.45175283572, 25032.90325795451, -69286.51860791667, 8570.351728242842, -129185.17043413765, 0.08, 0.9540000000000001, 0.092, 192.0, 0.0, 0.0, 0.0, 0.0, 0.0, 0.0, 0.0, 0.0, 0.0, 1.6664033571243408E9, 0.0, 2022-10-21 18:49:17.124
16.0, -104164.82885656701, -143280.53811556555, -26911.209751511786, -116769.46929329268, 25049.86823199609, -69278.71784910177, 8578.755984158039, -129169.16658510764, 0.08, 0.9540000000000001, 0.092, 192.0, 0.0, 0.0, 0.0, 0.0, 0.0, 0.0, 0.0, 0.0, 0.0, 1.6664033571243622E9, 0.0, 2022-10-21 18:49:17.124
17.0, -104163.04071701059, -143279.1299556649, -26908.974577066252, -116758.31577280948, 25052.8633657531, -69260.88115702644, 8603.365254803331, -129159.98001813651, 0.07200000000000001, 0.962, 0.096, 192.0, 2.0, 64.0, 30.0, 16.0, 3.0, 0.0, 0.0, 0.0, 0.0, 1.6664033571243837E9, 0.0, 2022-10-21 18:49:17.124
18.0, -104174.6412723829, -143295.29026690606, -26930.99104535473, -116784.04263067755, 25033.216182376884, -69259.47299712575, 8602.873516425314, -129181.16947188014, 0.07200000000000001, 0.962, 0.096, 192.0, 0.0, 0.0, 0.0, 0.0, 0.0, 0.0, 0.0, 0.0, 0.0, 1.666403357124406E9, 0.0, 2022-10-21 18:49:17.124
19.0, -104174.79773459409, -143294.91028725033, -26937.13777507994, -116790.3681743584, 25031.405691076005, -69261.28348842663, 8601.420653035719, -129182.22000386954, 0.07200000000000001, 0.962, 0.096, 192.0, 0.0, 0.0, 0.0, 0.0, 0.0, 0.0, 0.0, 0.0, 0.0, 1.6664033571244273E9, 0.0, 2022-10-21 18:49:17.124
20.0, -104170.55090314757, -143293.30096164954, -26934.679083189858, -116777.85119746343, 25031.629208520557, -69261.88698552693, 8624.442949824685, -129178.75548347898, 0.07200000000000001, 0.962, 0.096, 192.0, 0.0, 0.0, 0.0, 0.0, 0.0, 0.0, 0.0, 0.0, 0.0, 1.666403357124448E9, 0.0, 2022-10-21 18:49:17.124
21.0, -104163.86773155544, -143288.2271156582, -26928.398242997915, -116751.4090837728, 25038.826470235166, -69255.02499997914, 8673.773249837548, -129178.82253871234, 0.07200000000000001, 0.962, 0.096, 192.0, 0.0, 0.0, 0.0, 0.0, 0.0, 0.0, 0.0, 0.0, 0.0, 1.6664033571244707E9, 0.0, 2022-10-21 18:49:17.124
22.0, -104169.835647325, -143293.54683083855, -26939.41765301438, -116758.71810420968, 25042.44745283693, -69247.02307546414, 8718.052055603512, -129181.92943119163, 0.07200000000000001, 0.962, 0.096, 192.0, 0.0, 0.0, 0.0, 0.0, 0.0, 0.0, 0.0, 0.0, 0.0, 1.6664033571244996E9, 0.0, 2022-10-21 18:49:17.124
23.0, -104169.96975779174, -143292.69746454924, -26951.15231885342, -116773.29144159454, 25045.755511016312, -69272.7052298433, 8714.833404401947, -129180.02953291293, 0.07200000000000001, 0.962, 0.096, 192.0, 0.0, 0.0, 0.0, 0.0, 0.0, 0.0, 0.0, 0.0, 0.0, 1.6664033571245277E9, 0.0, 2022-10-21 18:49:17.124
24.0, -104159.35267917547, -143283.3767871114, -26956.00264740022, -116770.69863923773, 25049.778825018268, -69294.47582894276, 8705.289209519531, -129170.15006186368, 0.07200000000000001, 0.962, 0.096, 192.0, 0.0, 0.0, 0.0, 0.0, 0.0, 0.0, 0.0, 0.0, 0.0, 1.6664033571245484E9, 0.0, 2022-10-21 18:49:17.124
25.0, -104162.07959199902, -143285.38844411235, -26959.690685235346, -116766.07182813548, 25046.604877305614, -69314.48064023026, 8706.876183375858, -129176.85558520028, 0.07200000000000001, 0.962, 0.096, 192.0, 0.0, 0.0, 0.0, 0.0, 0.0, 0.0, 0.0, 0.0, 0.0, 1.6664033571245692E9, 0.0, 2022-10-21 18:49:17.124
26.0, -104154.92703377332, -143276.8724294749, -26955.84618518903, -116755.4100460303, 25054.226822164874, -69305.69640465932, 8735.48641627865, -129179.87307070174, 0.07200000000000001, 0.962, 0.096, 192.0, 0.0, 0.0, 0.0, 0.0, 0.0, 0.0, 0.0, 0.0, 0.0, 1.66640335712459E9, 0.0, 2022-10-21 18:49:17.124
27.0, -104155.15055121787, -143277.319464364, -26972.788807486155, -116766.40710430231, 25050.80700526321, -69319.84505889953, 8731.954840654713, -129187.56207079436, 0.08, 0.96, 0.096, 192.0, 2.0, 128.0, 30.0, 0.0, 3.0, 0.0, 0.0, 0.0, 0.0, 1.666403357124611E9, 0.0, 2022-10-21 18:49:17.124
28.0, -104147.12627495841, -143270.27866486058, -26979.360220356015, -116764.52955776807, 25054.20447042042, -69339.00050389773, 8719.817843415482, -129176.29679158889, 0.08, 0.96, 0.096, 192.0, 0.0, 0.0, 0.0, 0.0, 0.0, 0.0, 0.0, 0.0, 0.0, 1.6664033571246357E9, 0.0, 2022-10-21 18:49:17.124
29.0, -104145.06991446852, -143269.25048461562, -26975.471016820793, -116762.98728740064, 25056.707865799413, -69337.2123643413, 8729.786721442548, -129175.24625959949, 0.08, 0.96, 0.096, 192.0, 0.0, 0.0, 0.0, 0.0, 0.0, 0.0, 0.0, 0.0, 0.0, 1.6664033571246564E9, 0.0, 2022-10-21 18:49:17.124
30.0, -104146.20985343575, -143272.8267637285, -26976.38743834346, -116756.72879895316, 25062.899299013534, -69322.81784091209, 8753.077239164977, -129170.59709675278, 0.08, 0.96, 0.096, 192.0, 0.0, 0.0, 0.0, 0.0, 0.0, 0.0, 0.0, 0.0, 0.0, 1.6664033571246881E9, 0.0, 2022-10-21 18:49:17.124
31.0, -104157.43042915231, -143282.1250894219, -26992.86067400702, -116758.71810420968, 25060.619421079093, -69324.20364906832, 8758.106381667421, -129173.4357682986, 0.08, 0.96, 0.096, 192.0, 0.0, 0.0, 0.0, 0.0, 0.0, 0.0, 0.0, 0.0, 0.0, 1.6664033571247032E9, 0.0, 2022-10-21 18:49:17.124
32.0, -104146.36631564693, -143270.50218230512, -26992.659508306922, -116761.17679609977, 25068.889566527556, -69341.7721202102, 8746.975212928679, -129161.5893437373, 0.08, 0.96, 0.096, 192.0, 0.0, 0.0, 0.0, 0.0, 0.0, 0.0, 0.0, 0.0, 0.0, 1.666403357124718E9, 0.0, 2022-10-21 18:49:17.124
33.0, -104143.7288098012, -143269.89868520483, -26985.8198745036, -116755.92413615277, 25064.106293214118, -69350.91398369242, 8744.628279760871, -129168.92071591863, 0.08, 0.96, 0.096, 192.0, 0.0, 0.0, 0.0, 0.0, 0.0, 0.0, 0.0, 0.0, 0.0, 1.6664033571247325E9, 0.0, 2022-10-21 18:49:17.124
34.0, -104157.63159485241, -143282.63917954435, -26993.017136218208, -116757.9581448982, 25051.25404015232, -69356.03253317268, 8747.913986195801, -129196.9945069545, 0.08, 0.96, 0.096, 192.0, 0.0, 0.0, 0.0, 0.0, 0.0, 0.0, 0.0, 0.0, 0.0, 1.6664033571247475E9, 0.0, 2022-10-21 18:49:17.124
35.0, -104168.7851153356, -143294.44090061676, -27003.365993901014, -116765.84831069093, 25050.941115729944, -69360.8158064861, 8750.68560250826, -129197.75446626598, 0.08, 0.96, 0.096, 192.0, 0.0, 0.0, 0.0, 0.0, 0.0, 0.0, 0.0, 0.0, 0.0, 1.6664033571247628E9, 0.0, 2022-10-21 18:49:17.124
36.0, -104154.01061225064, -143278.74997600913, -27000.281453166182, -116754.1136448519, 25072.175272962486, -69356.83719597307, 8754.932433954767, -129184.63399227071, 0.08600000000000001, 0.96, 0.09, 192.0, 2.0, 176.0, 30.0, 0.0, 2.0, 208.0, 0.0, 0.0, 0.0, 1.6664033571247776E9, 0.0, 2022-10-21 18:49:17.124
37.0, -104142.45476036725, -143265.83066771398, -26995.67699380839, -116734.91349636478, 25084.20051147944, -69354.40085582744, 8755.312413610509, -129165.81382343934, 0.08600000000000001, 0.96, 0.09, 192.0, 0.0, 0.0, 0.0, 0.0, 0.0, 0.0, 0.0, 0.0, 0.0, 1.6664033571247933E9, 0.0, 2022-10-21 18:49:17.124
38.0, -104148.06504822553, -143271.3739003389, -27005.86938928001, -116737.68511267724, 25076.15388347553, -69356.14429189495, 8761.883826480369, -129167.64666648468, 0.08600000000000001, 0.96, 0.09, 192.0, 0.0, 0.0, 0.0, 0.0, 0.0, 0.0, 0.0, 0.0, 0.0, 1.666403357124808E9, 0.0, 2022-10-21 18:49:17.124
39.0, -104152.3342314165, -143274.816068985, -27021.672072609912, -116738.28860977753, 25074.589261363657, -69363.05098093164, 8765.97419571569, -129178.0402276564, 0.08600000000000001, 0.96, 0.09, 192.0, 0.0, 0.0, 0.0, 0.0, 0.0, 0.0, 0.0, 0.0, 0.0, 1.6664033571248224E9, 0.0, 2022-10-21 18:49:17.124
40.0, -104148.60149009246, -143270.68099626078, -27037.564162917635, -116741.32844702345, 25076.91384278701, -69381.02178347371, 8752.965480442701, -129170.19476535259, 0.08600000000000001, 0.96, 0.09, 192.0, 0.0, 0.0, 0.0, 0.0, 0.0, 0.0, 0.0, 0.0, 0.0, 1.6664033571248376E9, 0.0, 2022-10-21 18:49:17.124
41.0, -104148.60149009246, -143271.7762317391, -27040.715758885835, -116735.4499382317, 25080.758342833324, -69373.75746652573, 8756.228835133175, -129171.71468397554, 0.08600000000000001, 0.96, 0.09, 192.0, 0.0, 0.0, 0.0, 0.0, 0.0, 0.0, 0.0, 0.0, 0.0, 1.6664033571248524E9, 0.0, 2022-10-21 18:49:17.124
42.0, -104155.17290296232, -143277.74414750864, -27051.39989273547, -116733.550039953, 25078.72433408789, -69350.95868718132, 8783.140335457365, -129178.35315207878, 0.08600000000000001, 0.96, 0.09, 192.0, 0.0, 0.0, 0.0, 0.0, 0.0, 0.0, 0.0, 0.0, 0.0, 1.6664033571248667E9, 0.0, 2022-10-21 18:49:17.124
43.0, -104156.9833942632, -143280.9627987102, -27063.447482996882, -116740.23321154514, 25076.042124753254, -69348.16471912441, 8796.394919919363, -129177.14615787819, 0.08600000000000001, 0.96, 0.09, 192.0, 0.0, 0.0, 0.0, 0.0, 0.0, 0.0, 0.0, 0.0, 0.0, 1.6664033571248815E9, 0.0, 2022-10-21 18:49:17.124
44.0, -104155.0834959845, -143277.85590623092, -27073.97515463533, -116741.23904004564, 25078.165540476508, -69365.8225972441, 8784.101460468944, -129178.77783522343, 0.08600000000000001, 0.96, 0.09, 192.0, 0.0, 0.0, 0.0, 0.0, 0.0, 0.0, 0.0, 0.0, 0.0, 1.6664033571248963E9, 0.0, 2022-10-21 18:49:17.124
45.0, -104156.73752507419, -143281.70040627723, -27081.798265194688, -116749.1068540939, 25075.95271777543, -69383.07814396359, 8764.409573603818, -129179.40368406818, 0.08600000000000001, 0.96, 0.09, 192.0, 0.0, 0.0, 0.0, 0.0, 0.0, 0.0, 0.0, 0.0, 0.0, 1.6664033571249113E9, 0.0, 2022-10-21 18:49:17.124
46.0, -104177.77051660664, -143301.68286582027, -27107.70393701839, -116759.72393271017, 25056.57375533268, -69377.66902180541, 8774.490210353162, -129195.58634705382, 0.076, 0.96, 0.096, 192.0, 2.0, 96.0, 30.0, 0.0, 3.0, 0.0, 0.0, 0.0, 0.0, 1.6664033571249387E9, 0.0, 2022-10-21 18:49:17.124
47.0, -104153.54122561708, -143272.58089453948, -27096.304547346183, -116725.74928113811, 25083.127627745587, -69347.47181504629, 8822.010019065145, -129170.21711709704, 0.076, 0.96, 0.096, 192.0, 0.0, 0.0, 0.0, 0.0, 0.0, 0.0, 0.0, 0.0, 0.0, 1.666403357124954E9, 0.0, 2022-10-21 18:49:17.124
48.0, -104158.30214718607, -143278.3699963534, -27115.437640599925, -116740.9484673677, 25075.90801428652, -69352.67977150438, 8822.054722554056, -129178.17433812314, 0.076, 0.96, 0.096, 192.0, 0.0, 0.0, 0.0, 0.0, 0.0, 0.0, 0.0, 0.0, 0.0, 1.6664033571249683E9, 0.0, 2022-10-21 18:49:17.124
49.0, -104152.64715583887, -143275.7101387632, -27114.722384777357, -116746.29053429254, 25078.500816643336, -69384.64276607547, 8791.723405328203, -129168.33957056279, 0.076, 0.96, 0.096, 192.0, 0.0, 0.0, 0.0, 0.0, 0.0, 0.0, 0.0, 0.0, 0.0, 1.6664033571249843E9, 0.0, 2022-10-21 18:49:17.124
50.0, -104156.42460065182, -143274.1678683958, -27112.777783009744, -116728.31973175047, 25079.730162588377, -69374.49507409276, 8804.732120601193, -129173.10049213178, 0.076, 0.96, 0.096, 192.0, 0.0, 0.0, 0.0, 0.0, 0.0, 0.0, 0.0, 0.0, 0.0, 1.6664033571249986E9, 0.0, 2022-10-21 18:49:17.124
51.0, -104168.7851153356, -143286.05899644602, -27132.8049460417, -116731.89601086332, 25070.63300259507, -69364.90617572144, 8825.206318522254, -129185.61746902675, 0.076, 0.96, 0.096, 192.0, 0.0, 0.0, 0.0, 0.0, 0.0, 0.0, 0.0, 0.0, 0.0, 1.666403357125013E9, 0.0, 2022-10-21 18:49:17.125
52.0, -104187.09119404451, -143300.20765068624, -27167.226632502872, -116765.60244150192, 25046.71663602789, -69395.81863830313, 8802.094614755466, -129204.01295471347, 0.076, 0.96, 0.096, 192.0, 0.0, 0.0, 0.0, 0.0, 0.0, 0.0, 0.0, 0.0, 0.0, 1.6664033571250272E9, 0.0, 2022-10-21 18:49:17.125
53.0, -104179.4916009297, -143295.84906051744, -27170.22176625988, -116767.12236012488, 25055.21029892091, -69415.19760074587, 8781.955693001235, -129187.07033241635, 0.076, 0.96, 0.096, 192.0, 0.0, 0.0, 0.0, 0.0, 0.0, 0.0, 0.0, 0.0, 0.0, 1.6664033571250415E9, 0.0, 2022-10-21 18:49:17.125
54.0, -104165.34294668949, -143283.6673597893, -27164.991458057342, -116744.03300810255, 25069.671877583492, -69384.19573118637, 8806.430853179796, -129177.66024800065, 0.076, 0.96, 0.096, 192.0, 0.0, 0.0, 0.0, 0.0, 0.0, 0.0, 0.0, 0.0, 0.0, 1.666403357125056E9, 0.0, 2022-10-21 18:49:17.125
55.0, -104157.74335357468, -143275.03958642954, -27166.913708080498, -116726.30807474948, 25076.511511386816, -69368.34834436755, 8832.470635470228, -129173.07814038733, 0.076, 0.96, 0.096, 192.0, 0.0, 0.0, 0.0, 0.0, 0.0, 0.0, 0.0, 0.0, 0.0, 1.66640335712507E9, 0.0, 2022-10-21 18:49:17.125
56.0, -104162.6383856104, -143277.78885099755, -27180.637679176056, -116731.47132771867, 25077.070304998197, -69371.76816126921, 8836.27043202763, -129177.21321311155, 0.058, 0.9560000000000001, 0.096, 192.0, 1.0, 208.0, 29.0, 224.0, 3.0, 0.0, 0.0, 0.0, 0.0, 1.6664033571250844E9, 0.0, 2022-10-21 18:49:17.125
57.0, -104162.34781293248, -143278.30294112003, -27193.378173515583, -116747.67634244876, 25074.522206130292, -69391.68356557889, 8815.058626539543, -129184.3881230817, 0.058, 0.9560000000000001, 0.096, 192.0, 0.0, 0.0, 0.0, 0.0, 0.0, 0.0, 0.0, 0.0, 0.0, 1.6664033571250997E9, 0.0, 2022-10-21 18:49:17.125
58.0, -104154.85997853994, -143271.19508638323, -27197.669708451, -116741.1496330678, 25075.013944508308, -69399.05964124914, 8809.1801177478, -129183.38229458121, 0.058, 0.9560000000000001, 0.096, 192.0, 0.0, 0.0, 0.0, 0.0, 0.0, 0.0, 0.0, 0.0, 0.0, 1.6664033571251144E9, 0.0, 2022-10-21 18:49:17.125
59.0, -104161.11846698743, -143275.061938174, -27209.42672603449, -116739.6520661893, 25066.542633359746, -69407.84387682007, 8809.336579958985, -129192.70297201908, 0.058, 0.9560000000000001, 0.096, 192.0, 0.0, 0.0, 0.0, 0.0, 0.0, 0.0, 0.0, 0.0, 0.0, 1.666403357125129E9, 0.0, 2022-10-21 18:49:17.125
60.0, -104155.57523436252, -143272.04445267253, -27215.372290059604, -116743.02717960205, 25069.448360138937, -69398.85847554904, 8828.581431935005, -129180.70008524659, 0.058, 0.9560000000000001, 0.096, 192.0, 0.0, 0.0, 0.0, 0.0, 0.0, 0.0, 0.0, 0.0, 0.0, 1.6664033571251433E9, 0.0, 2022-10-21 18:49:17.125
61.0, -104156.02226925163, -143273.3185021065, -27228.649226266054, -116750.42560701676, 25067.213185693407, -69409.14027799848, 8817.159690518343, -129191.8983092187, 0.058, 0.9560000000000001, 0.096, 192.0, 0.0, 0.0, 0.0, 0.0, 0.0, 0.0, 0.0, 0.0, 0.0, 1.6664033571251707E9, 0.0, 2022-10-21 18:49:17.125
62.0, -104161.00670826515, -143278.5711620535, -27242.19438340597, -116746.49169999264, 25064.82154903669, -69432.31903699864, 8787.431870392784, -129203.38710586872, 0.058, 0.9560000000000001, 0.096, 192.0, 0.0, 0.0, 0.0, 0.0, 0.0, 0.0, 0.0, 0.0, 0.0, 1.6664033571251853E9, 0.0, 2022-10-21 18:49:17.125
63.0, -104160.29145244259, -143279.0181969426, -27245.278924140803, -116734.28764752003, 25065.916784515, -69409.4308506764, 8814.432777694796, -129192.5465098079, 0.058, 0.9560000000000001, 0.096, 192.0, 0.0, 0.0, 0.0, 0.0, 0.0, 0.0, 0.0, 0.0, 0.0, 1.6664033571251993E9, 0.0, 2022-10-21 18:49:17.125
64.0, -104161.99018502119, -143279.4652318317, -27259.360523147647, -116745.66468544779, 25062.80989203571, -69411.88954256648, 8824.871042355424, -129191.2501086295, 0.058, 0.9560000000000001, 0.096, 192.0, 0.0, 0.0, 0.0, 0.0, 0.0, 0.0, 0.0, 0.0, 0.0, 1.6664033571252155E9, 0.0, 2022-10-21 18:49:17.125
65.0, -104166.6840513568, -143284.6731882898, -27273.285659943303, -116760.01450538808, 25060.8652902681, -69425.68056889542, 8809.001303792156, -129199.47555058904, 0.058, 0.9560000000000001, 0.096, 192.0, 0.0, 0.0, 0.0, 0.0, 0.0, 0.0, 0.0, 0.0, 0.0, 1.6664033571252303E9, 0.0, 2022-10-21 18:49:17.125
66.0, -104161.1855222208, -143278.8617347314, -27270.759912819853, -116743.0495313465, 25071.929403773476, -69428.56394393014, 8802.318132200018, -129190.6466115292, 0.064, 0.9480000000000001, 0.08600000000000001, 192.0, 2.0, 0.0, 29.0, 160.0, 2.0, 176.0, 0.0, 0.0, 0.0, 1.6664033571252456E9, 0.0, 2022-10-21 18:49:17.125
67.0, -104156.31284192954, -143271.7762317391, -27265.417845895034, -116725.23519101563, 25075.326868930682, -69418.99739730328, 8818.903126585858, -129190.57955629582, 0.064, 0.9480000000000001, 0.08600000000000001, 192.0, 0.0, 0.0, 0.0, 0.0, 0.0, 0.0, 0.0, 0.0, 0.0, 1.6664033571252613E9, 0.0, 2022-10-21 18:49:17.125
68.0, -104184.76661262116, -143297.74895879615, -27304.041660313807, -116758.69575246522, 25044.883792982557, -69439.06926382415, 8814.343370716973, -129221.04498398841, 0.064, 0.9480000000000001, 0.08600000000000001, 192.0, 0.0, 0.0, 0.0, 0.0, 0.0, 0.0, 0.0, 0.0, 0.0, 1.6664033571252756E9, 0.0, 2022-10-21 18:49:17.125
69.0, -104167.8910455574, -143278.0123684421, -27308.132029549128, -116753.93483089625, 25066.207357192918, -69440.92445861392, 8811.12471951541, -129205.66698380317, 0.064, 0.9480000000000001, 0.08600000000000001, 192.0, 0.0, 0.0, 0.0, 0.0, 0.0, 0.0, 0.0, 0.0, 0.0, 1.66640335712529E9, 0.0, 2022-10-21 18:49:17.125
70.0, -104160.00087976467, -143268.4234700708, -27299.705421889477, -116743.02717960205, 25078.903148043533, -69444.41133074896, 8797.512507142128, -129192.01006794097, 0.064, 0.9480000000000001, 0.08600000000000001, 192.0, 0.0, 0.0, 0.0, 0.0, 0.0, 0.0, 0.0, 0.0, 0.0, 1.666403357125306E9, 0.0, 2022-10-21 18:49:17.125
71.0, -104163.19717922178, -143271.75387999462, -27302.722907390944, -116729.52672595104, 25080.467770155403, -69417.00809204676, 8822.434702209795, -129190.8924807182, 0.064, 0.9480000000000001, 0.08600000000000001, 192.0, 0.0, 0.0, 0.0, 0.0, 0.0, 0.0, 0.0, 0.0, 0.0, 1.6664033571253204E9, 0.0, 2022-10-21 18:49:17.125
72.0, -104167.91339730185, -143277.38651959738, -27325.36522452417, -116738.82505164445, 25069.62717409458, -69406.36866168602, 8841.70190593027, -129198.13444592172, 0.064, 0.9480000000000001, 0.08600000000000001, 192.0, 0.0, 0.0, 0.0, 0.0, 0.0, 0.0, 0.0, 0.0, 0.0, 1.6664033571253347E9, 0.0, 2022-10-21 18:49:17.125
73.0, -104157.49748438568, -143263.14845837932, -27324.337044279226, -116736.00873184309, 25090.52605516029, -69424.20535376137, 8823.596992921472, -129181.8400242138, 0.064, 0.9480000000000001, 0.08600000000000001, 192.0, 0.0, 0.0, 0.0, 0.0, 0.0, 0.0, 0.0, 0.0, 0.0, 1.6664033571253493E9, 0.0, 2022-10-21 18:49:17.125
74.0, -104179.26808348515, -143281.65570278832, -27347.336989323736, -116748.12337733786, 25079.68545909947, -69434.889487611, 8799.904143798845, -129196.56982380986, 0.064, 0.9480000000000001, 0.08600000000000001, 192.0, 0.0, 0.0, 0.0, 0.0, 0.0, 0.0, 0.0, 0.0, 0.0, 1.666403357125363E9, 0.0, 2022-10-21 18:49:17.125
75.0, -104160.71613558724, -143261.2038566117, -27335.93759965153, -116723.44705145921, 25093.87881682859, -69412.02365303322, 8825.005152822156, -129179.04605615689, 0.07200000000000001, 0.9520000000000001, 0.082, 192.0, 2.0, 64.0, 29.0, 192.0, 2.0, 144.0, 0.0, 0.0, 0.0, 1.666403357125378E9, 0.0, 2022-10-21 18:49:17.125
76.0, -104160.17969372032, -143257.7616879656, -27342.576067754755, -116719.89312409081, 25092.493008672358, -69417.11985076903, 8833.610574437449, -129176.81088171135, 0.07200000000000001, 0.9520000000000001, 0.082, 192.0, 0.0, 0.0, 0.0, 0.0, 0.0, 0.0, 0.0, 0.0, 0.0, 1.6664033571254065E9, 0.0, 2022-10-21 18:49:17.125
77.0, -104165.7899815786, -143262.07557464548, -27354.98128592745, -116725.77163288256, 25096.181046507485, -69423.51244968324, 8833.69998141527, -129167.35609380677, 0.07200000000000001, 0.9520000000000001, 0.082, 192.0, 0.0, 0.0, 0.0, 0.0, 0.0, 0.0, 0.0, 0.0, 0.0, 1.6664033571254213E9, 0.0, 2022-10-21 18:49:17.125
78.0, -104165.74527808969, -143260.84622870042, -27364.927812210062, -116736.41106324329, 25095.890473829568, -69444.1431098155, 8810.230649737197, -129178.26374510095, 0.07200000000000001, 0.9520000000000001, 0.082, 192.0, 0.0, 0.0, 0.0, 0.0, 0.0, 0.0, 0.0, 0.0, 0.0, 1.6664033571254356E9, 0.0, 2022-10-21 18:49:17.125
79.0, -104161.96783327674, -143256.2194175982, -27364.436073832047, -116723.82703111495, 25099.936139575977, -69450.91568838546, 8802.519297900117, -129173.56987876534, 0.07200000000000001, 0.9520000000000001, 0.082, 192.0, 0.0, 0.0, 0.0, 0.0, 0.0, 0.0, 0.0, 0.0, 0.0, 1.6664033571254504E9, 0.0, 2022-10-21 18:49:17.125
80.0, -104167.42165892383, -143258.1193158769, -27373.868509992186, -116719.62490315735, 25092.694174372456, -69438.06343532365, 8818.389036463384, -129187.02562892744, 0.07200000000000001, 0.9520000000000001, 0.082, 192.0, 0.0, 0.0, 0.0, 0.0, 0.0, 0.0, 0.0, 0.0, 0.0, 1.6664033571254644E9, 0.0, 2022-10-21 18:49:17.125
81.0, -104160.15734197585, -143251.8608274294, -27372.90738498061, -116716.13803102232, 25100.0255465538, -69434.55421144416, 8830.257812769152, -129180.16364337965, 0.07200000000000001, 0.9520000000000001, 0.082, 192.0, 0.0, 0.0, 0.0, 0.0, 0.0, 0.0, 0.0, 0.0, 0.0, 1.6664033571254797E9, 0.0, 2022-10-21 18:49:17.125
82.0, -104164.51593214464, -143257.3146530765, -27384.37382988618, -116723.24588575911, 25100.807857609732, -69448.03231335072, 8811.45999568224, -129183.62816377023, 0.07200000000000001, 0.9520000000000001, 0.082, 192.0, 0.0, 0.0, 0.0, 0.0, 0.0, 0.0, 0.0, 0.0, 0.0, 1.6664033571254923E9, 0.0, 2022-10-21 18:49:17.125
83.0, -104178.06108928456, -143272.8714672174, -27407.083202252772, -116739.29443827803, 25085.608671380123, -69454.49196749831, 8799.322998443007, -129194.51346331996, 0.07200000000000001, 0.9520000000000001, 0.082, 192.0, 0.0, 0.0, 0.0, 0.0, 0.0, 0.0, 0.0, 0.0, 0.0, 1.6664033571255052E9, 0.0, 2022-10-21 18:49:17.125
84.0, -104198.37882499443, -143292.11631919342, -27429.591408919267, -116747.87750814886, 25063.592203091648, -69468.52886301624, 8796.417271663819, -129212.30545190639, 0.07200000000000001, 0.9520000000000001, 0.082, 192.0, 0.0, 0.0, 0.0, 0.0, 0.0, 0.0, 0.0, 0.0, 0.0, 1.666403357125518E9, 0.0, 2022-10-21 18:49:17.125
85.0, -104175.8929700724, -143269.25048461562, -27415.353347701235, -116730.08551956243, 25089.184950492974, -69457.57650823313, 8812.46582418273, -129187.18209113862, 0.074, 0.9560000000000001, 0.074, 192.0, 2.0, 80.0, 29.0, 224.0, 2.0, 80.0, 0.0, 0.0, 0.0, 1.6664033571255305E9, 0.0, 2022-10-21 18:49:17.125
86.0, -104150.50138837117, -143241.73548719115, -27404.33393768477, -116716.38390021132, 25111.983729837386, -69463.7902931917, 8800.462937410228, -129165.52325076143, 0.074, 0.9560000000000001, 0.074, 192.0, 0.0, 0.0, 0.0, 0.0, 0.0, 0.0, 0.0, 0.0, 0.0, 1.6664033571255436E9, 0.0, 2022-10-21 18:49:17.125
87.0, -104165.07472575603, -143258.72281297718, -27429.47965019699, -116727.55977243898, 25092.090677272165, -69473.49095028531, 8784.526143613595, -129187.11503590526, 0.074, 0.9560000000000001, 0.074, 192.0, 0.0, 0.0, 0.0, 0.0, 0.0, 0.0, 0.0, 0.0, 0.0, 1.6664033571255565E9, 0.0, 2022-10-21 18:49:17.125
88.0, -104173.45662992676, -143265.29422584703, -27445.930534116094, -116722.70944389218, 25080.53482538877, -69475.3014415862, 8796.484326897184, -129193.88761447521, 0.074, 0.9560000000000001, 0.074, 192.0, 0.0, 0.0, 0.0, 0.0, 0.0, 0.0, 0.0, 0.0, 0.0, 1.6664033571255689E9, 0.0, 2022-10-21 18:49:17.125
89.0, -104183.04552829808, -143275.30780736302, -27464.169557591627, -116734.01942658657, 25074.030467752276, -69471.92632817345, 8815.170385261821, -129196.59217555431, 0.074, 0.9560000000000001, 0.074, 192.0, 0.0, 0.0, 0.0, 0.0, 0.0, 0.0, 0.0, 0.0, 0.0, 1.6664033571255815E9, 0.0, 2022-10-21 18:49:17.125
90.0, -104179.2904352296, -143271.53036255008, -27472.283240828903, -116739.4509004892, 25082.52413064529, -69491.64056678303, 8796.84195480847, -129188.23262312802, 0.074, 0.9560000000000001, 0.074, 192.0, 0.0, 0.0, 0.0, 0.0, 0.0, 0.0, 0.0, 0.0, 0.0, 1.666403357125594E9, 0.0, 2022-10-21 18:49:17.125
91.0, -104182.48673468671, -143275.03958642954, -27489.00234568147, -116739.56265921149, 25075.8186073087, -69502.01177621029, 8777.440640621262, -129197.93328022162, 0.074, 0.9560000000000001, 0.074, 192.0, 0.0, 0.0, 0.0, 0.0, 0.0, 0.0, 0.0, 0.0, 0.0, 1.666403357125618E9, 0.0, 2022-10-21 18:49:17.125
92.0, -104163.64421411089, -143258.1193158769, -27473.91491817414, -116714.03696704352, 25096.471619185402, -69471.83692119562, 8807.391978191374, -129175.91681193314, 0.074, 0.9560000000000001, 0.074, 192.0, 0.0, 0.0, 0.0, 0.0, 0.0, 0.0, 0.0, 0.0, 0.0, 1.666403357125632E9, 0.0, 2022-10-21 18:49:17.125
93.0, -104162.2360542102, -143254.1630571083, -27469.3328105608, -116710.7959640975, 25096.11399127412, -69464.5949559921, 8822.79233012108, -129174.50865203245, 0.074, 0.9560000000000001, 0.074, 192.0, 0.0, 0.0, 0.0, 0.0, 0.0, 0.0, 0.0, 0.0, 0.0, 1.6664033571256444E9, 0.0, 2022-10-21 18:49:17.125
94.0, -104159.7326588312, -143252.77724895207, -27476.977107164515, -116720.74249038011, 25093.87881682859, -69494.07690692865, 8799.725329843204, -129177.95082067858, 0.074, 0.9560000000000001, 0.074, 192.0, 0.0, 0.0, 0.0, 0.0, 0.0, 0.0, 0.0, 0.0, 0.0, 1.666403357125657E9, 0.0, 2022-10-21 18:49:17.125
95.0, -104166.70640310126, -143262.09792638992, -27491.371630593734, -116728.45384221719, 25087.06153476972, -69513.05353797121, 8777.798268532548, -129190.1995766401, 0.07, 0.9560000000000001, 0.076, 192.0, 2.0, 48.0, 29.0, 224.0, 2.0, 96.0, 0.0, 0.0, 0.0, 1.6664033571256697E9, 0.0, 2022-10-21 18:49:17.125
96.0, -104157.54218787458, -143252.57608325197, -27479.838130454795, -116704.76099309458, 25103.646529155558, -69489.98653769333, 8802.854574066947, -129174.10632063227, 0.07, 0.9560000000000001, 0.076, 192.0, 0.0, 0.0, 0.0, 0.0, 0.0, 0.0, 0.0, 0.0, 0.0, 1.6664033571256828E9, 0.0, 2022-10-21 18:49:17.125
97.0, -104165.47705715623, -143260.28743508906, -27490.611671282255, -116704.58217913893, 25101.00902330983, -69482.0516684117, 8820.914783586835, -129172.54169852039, 0.07, 0.9560000000000001, 0.076, 192.0, 0.0, 0.0, 0.0, 0.0, 0.0, 0.0, 0.0, 0.0, 0.0, 1.6664033571256964E9, 0.0, 2022-10-21 18:49:17.125
98.0, -104173.1884089933, -143269.45165031572, -27517.925503006638, -116731.56073469648, 25086.525092902793, -69507.80087802421, 8801.513469399628, -129188.47849231702, 0.07, 0.9560000000000001, 0.076, 192.0, 0.0, 0.0, 0.0, 0.0, 0.0, 0.0, 0.0, 0.0, 0.0, 1.6664033571257093E9, 0.0, 2022-10-21 18:49:17.125
99.0, -104175.15536250536, -143272.58089453948, -27524.58632285432, -116736.83574638794, 25087.754438847835, -69525.32464567717, 8782.581541845982, -129195.47458833153, 0.07, 0.9560000000000001, 0.076, 192.0, 0.0, 0.0, 0.0, 0.0, 0.0, 0.0, 0.0, 0.0, 0.0, 1.6664033571257217E9, 0.0, 2022-10-21 18:49:17.125
100.0, -104181.03387129711, -143276.60420854142, -27528.497878134, -116727.02333057206, 25091.39777319405, -69514.41699438298, 8797.288989697576, -129194.51346331996, 0.07, 0.9560000000000001, 0.076, 192.0, 0.0, 0.0, 0.0, 0.0, 0.0, 0.0, 0.0, 0.0, 0.0, 1.666403357125734E9, 0.0, 2022-10-21 18:49:17.125
101.0, -104162.6830890993, -143260.98033916717, -27521.770003052952, -116705.65506287279, 25108.474505957904, -69494.83686624013, 8827.329734245508, -129180.94595443559, 0.07, 0.9560000000000001, 0.076, 192.0, 0.0, 0.0, 0.0, 0.0, 0.0, 0.0, 0.0, 0.0, 0.0, 1.6664033571257467E9, 0.0, 2022-10-21 18:49:17.125
102.0, -104158.39155416389, -143256.28647283156, -27528.721395578552, -116709.32074896345, 25111.8272676262, -69507.5103053463, 8820.914783586835, -129180.65538175768, 0.07, 0.9560000000000001, 0.076, 192.0, 0.0, 0.0, 0.0, 0.0, 0.0, 0.0, 0.0, 0.0, 0.0, 1.6664033571257596E9, 0.0, 2022-10-21 18:49:17.125
103.0, -104167.22049322374, -143261.2038566117, -27544.814651586374, -116727.40331022779, 25104.987633822875, -69536.52286964928, 8795.50085014115, -129174.97803866603, 0.07, 0.9560000000000001, 0.076, 192.0, 0.0, 0.0, 0.0, 0.0, 0.0, 0.0, 0.0, 0.0, 0.0, 1.6664033571257722E9, 0.0, 2022-10-21 18:49:17.125
104.0, -104171.8920078149, -143265.87537120288, -27561.3549424833, -116733.77355739757, 25092.850636583644, -69558.89696584904, 8776.613626076416, -129186.19861438259, 0.076, 0.9540000000000001, 0.076, 192.0, 2.0, 96.0, 29.0, 208.0, 2.0, 96.0, 0.0, 0.0, 0.0, 1.6664033571257849E9, 0.0, 2022-10-21 18:49:17.125
105.0, -104171.51202815915, -143268.0658421595, -27562.047846561414, -116728.78911838403, 25094.7728866068, -69542.53548890776, 8803.592181633972, -129184.43282657061, 0.076, 0.9540000000000001, 0.076, 192.0, 0.0, 0.0, 0.0, 0.0, 0.0, 0.0, 0.0, 0.0, 0.0, 1.666403357125798E9, 0.0, 2022-10-21 18:49:17.125
106.0, -104169.25450196916, -143266.4565165587, -27565.758236140995, -116720.4519177022, 25108.0274710688, -69535.13706149305, 8819.55132717506, -129180.96830618005, 0.076, 0.9540000000000001, 0.076, 192.0, 0.0, 0.0, 0.0, 0.0, 0.0, 0.0, 0.0, 0.0, 0.0, 1.6664033571258216E9, 0.0, 2022-10-21 18:49:17.125
107.0, -104158.70447858627, -143249.67035647278, -27564.5065384515, -116716.18273451124, 25118.778660151802, -69548.8163290997, 8809.917725314823, -129171.84879444228, 0.076, 0.9540000000000001, 0.076, 192.0, 0.0, 0.0, 0.0, 0.0, 0.0, 0.0, 0.0, 0.0, 0.0, 1.6664033571258347E9, 0.0, 2022-10-21 18:49:17.125
108.0, -104158.05627799706, -143249.93857740625, -27571.234413532547, -116715.26631298856, 25113.77186939381, -69556.14770128104, 8804.262733967631, -129169.32304731883, 0.076, 0.9540000000000001, 0.076, 192.0, 0.0, 0.0, 0.0, 0.0, 0.0, 0.0, 0.0, 0.0, 0.0, 1.6664033571258476E9, 0.0, 2022-10-21 18:49:17.125
109.0, -104161.61020536545, -143250.92205416228, -27576.576480457366, -116708.87371407435, 25109.569741436215, -69544.90477382002, 8825.563946433538, -129161.90226815967, 0.076, 0.9540000000000001, 0.076, 192.0, 0.0, 0.0, 0.0, 0.0, 0.0, 0.0, 0.0, 0.0, 0.0, 1.6664033571258602E9, 0.0, 2022-10-21 18:49:17.125
110.0, -104178.79869685158, -143266.92590319228, -27605.901969182727, -116727.49271720562, 25095.48814242937, -69557.75702688182, 8826.569774934027, -129184.87986145972, 0.076, 0.9540000000000001, 0.076, 192.0, 0.0, 0.0, 0.0, 0.0, 0.0, 0.0, 0.0, 0.0, 0.0, 1.6664033571258729E9, 0.0, 2022-10-21 18:49:17.125
111.0, -104193.14851679189, -143280.35930160992, -27637.507335842532, -116754.49362450762, 25084.49108415736, -69604.69569023796, 8785.084937224978, -129204.90702449168, 0.076, 0.9540000000000001, 0.076, 192.0, 0.0, 0.0, 0.0, 0.0, 0.0, 0.0, 0.0, 0.0, 0.0, 1.6664033571258855E9, 0.0, 2022-10-21 18:49:17.125
112.0, -104171.71319385925, -143259.39336531085, -27624.02923393598, -116729.14674629532, 25105.54642743426, -69601.8793704366, 8783.632073835382, -129181.5941550248, 0.076, 0.9540000000000001, 0.076, 192.0, 0.0, 0.0, 0.0, 0.0, 0.0, 0.0, 0.0, 0.0, 0.0, 1.6664033571258993E9, 0.0, 2022-10-21 18:49:17.125
113.0, -104167.26519671264, -143255.59356875345, -27621.61524553481, -116712.74056586511, 25108.720375146913, -69571.168073555, 8818.41138820784, -129175.51448053295, 0.076, 0.9540000000000001, 0.076, 192.0, 0.0, 0.0, 0.0, 0.0, 0.0, 0.0, 0.0, 0.0, 0.0, 1.666403357125913E9, 0.0, 2022-10-21 18:49:17.125
114.0, -104173.8366095825, -143254.8559611864, -27629.304245627434, -116707.6443681293, 25112.74368914887, -69567.94942235344, 8831.911841858846, -129168.92071591863, 0.07200000000000001, 0.9560000000000001, 0.078, 192.0, 2.0, 64.0, 29.0, 224.0, 2.0, 112.0, 0.0, 0.0, 0.0, 1.6664033571259255E9, 0.0, 2022-10-21 18:49:17.125
115.0, -104166.19231297879, -143249.3574320504, -27633.93105672968, -116712.58410365394, 25120.58915145268, -69577.69478293596, 8825.765112133637, -129159.57768673632, 0.07200000000000001, 0.9560000000000001, 0.078, 192.0, 0.0, 0.0, 0.0, 0.0, 0.0, 0.0, 0.0, 0.0, 0.0, 1.6664033571259391E9, 0.0, 2022-10-21 18:49:17.125
116.0, -104175.82591483902, -143260.19802811122, -27646.85036502485, -116722.24005725862, 25112.989558337875, -69586.34490804016, 8817.293800985075, -129172.74286422049, 0.07200000000000001, 0.9560000000000001, 0.078, 192.0, 0.0, 0.0, 0.0, 0.0, 0.0, 0.0, 0.0, 0.0, 0.0, 1.666403357125952E9, 0.0, 2022-10-21 18:49:17.125
117.0, -104186.04066205511, -143271.9103422058, -27652.773577305506, -116718.61907465686, 25108.295692002263, -69580.2205300594, 8835.622231438427, -129170.66415198614, 0.07200000000000001, 0.9560000000000001, 0.078, 192.0, 0.0, 0.0, 0.0, 0.0, 0.0, 0.0, 0.0, 0.0, 0.0, 1.6664033571259649E9, 0.0, 2022-10-21 18:49:17.125
118.0, -104177.74816486218, -143259.5051240331, -27652.885336027783, -116713.00878679859, 25113.458944971437, -69573.0232683448, 8857.951624149278, -129161.29877105937, 0.07200000000000001, 0.9560000000000001, 0.078, 192.0, 0.0, 0.0, 0.0, 0.0, 0.0, 0.0, 0.0, 0.0, 0.0, 1.6664033571259775E9, 0.0, 2022-10-21 18:49:17.125
119.0, -104176.9435020618, -143254.7665542086, -27665.33525768939, -116733.304170764, 25109.770907136313, -69588.40126853005, 8846.440475754795, -129173.2346025985, 0.07200000000000001, 0.9560000000000001, 0.078, 192.0, 0.0, 0.0, 0.0, 0.0, 0.0, 0.0, 0.0, 0.0, 0.0, 1.6664033571259902E9, 0.0, 2022-10-21 18:49:17.125
120.0, -104171.35556594796, -143249.26802507258, -27672.040781025982, -116730.48785096263, 25115.8282298837, -69605.36624257163, 8825.251022011164, -129170.32887581932, 0.07200000000000001, 0.9560000000000001, 0.078, 192.0, 0.0, 0.0, 0.0, 0.0, 0.0, 0.0, 0.0, 0.0, 0.0, 1.6664033571260028E9, 0.0, 2022-10-21 18:49:17.126
121.0, -104170.05916476955, -143249.84917042844, -27675.393542694277, -116719.1555165238, 25112.58722693768, -69600.69472798047, 8831.040123825089, -129167.66901822913, 0.07200000000000001, 0.9560000000000001, 0.078, 192.0, 0.0, 0.0, 0.0, 0.0, 0.0, 0.0, 0.0, 0.0, 0.0, 1.6664033571260157E9, 0.0, 2022-10-21 18:49:17.126
122.0, -104171.64613862589, -143253.313690819, -27675.304135716455, -116708.53843790751, 25116.81170663973, -69592.02225113181, 8851.111990345955, -129173.50282353198, 0.07200000000000001, 0.9560000000000001, 0.078, 192.0, 0.0, 0.0, 0.0, 0.0, 0.0, 0.0, 0.0, 0.0, 0.0, 1.6664033576018305E9, 0.0, 2022-10-21 18:49:17.601
123.0, -104186.51004868867, -143270.6586445163, -27708.1388483213, -116731.27016201857, 25101.81368611022, -69627.49446958238, 8822.814681865535, -129191.98771619651, 0.07200000000000001, 0.9560000000000001, 0.078, 192.0, 0.0, 0.0, 0.0, 0.0, 0.0, 0.0, 0.0, 0.0, 0.0, 1.6664033576019995E9, 0.0, 2022-10-21 18:49:17.601
124.0, -104174.75303110517, -143257.53817052106, -27703.690851174695, -116726.03985381602, 25117.795183395767, -69648.16983320354, 8800.686454854782, -129168.76425370744, 0.068, 0.96, 0.08, 192.0, 2.0, 32.0, 30.0, 0.0, 2.0, 128.0, 0.0, 0.0, 0.0, 1.6664033576020582E9, 0.0, 2022-10-21 18:49:17.602
125.0, -104164.9853187782, -143248.08338261646, -27697.81234238295, -116708.11375476286, 25130.133346335097, -69617.12326015512, 8825.765112133637, -129154.6379512117, 0.068, 0.96, 0.08, 192.0, 0.0, 0.0, 0.0, 0.0, 0.0, 0.0, 0.0, 0.0, 0.0, 1.666403357602081E9, 0.0, 2022-10-21 18:49:17.602
126.0, -104171.35556594796, -143255.28064433107, -27711.82688615643, -116708.94076930771, 25120.142116563573, -69609.21074261794, 8844.048839098077, -129168.25016358498, 0.068, 0.96, 0.08, 192.0, 0.0, 0.0, 0.0, 0.0, 0.0, 0.0, 0.0, 0.0, 0.0, 1.666403357602101E9, 0.0, 2022-10-21 18:49:17.602
127.0, -104175.46828692775, -143257.04643214305, -27724.1426973513, -116716.16038276677, 25121.93025612, -69622.24180963538, 8842.685382686304, -129173.2346025985, 0.068, 0.96, 0.08, 192.0, 0.0, 0.0, 0.0, 0.0, 0.0, 0.0, 0.0, 0.0, 0.0, 1.666403357602121E9, 0.0, 2022-10-21 18:49:17.602
128.0, -104172.7413741042, -143252.59843499644, -27732.368139310856, -116718.08263278993, 25125.461831743938, -69632.94829522948, 8829.788426135592, -129167.19963159558, 0.068, 0.96, 0.08, 192.0, 0.0, 0.0, 0.0, 0.0, 0.0, 0.0, 0.0, 0.0, 0.0, 1.666403357602141E9, 0.0, 2022-10-21 18:49:17.602
129.0, -104171.78024909261, -143254.38657455286, -27736.92789517974, -116714.43929844371, 25127.227619555906, -69634.44586210798, 8833.834091882001, -129169.09952987428, 0.068, 0.96, 0.08, 192.0, 0.0, 0.0, 0.0, 0.0, 0.0, 0.0, 0.0, 0.0, 0.0, 1.6664033576021605E9, 0.0, 2022-10-21 18:49:17.602
130.0, -104181.07857478602, -143265.7636124806, -27754.20579364369, -116714.23813274362, 25117.750479906856, -69629.34966437217, 8852.1401705909, -129176.74382647799, 0.068, 0.96, 0.08, 192.0, 0.0, 0.0, 0.0, 0.0, 0.0, 0.0, 0.0, 0.0, 0.0, 1.6664033576021805E9, 0.0, 2022-10-21 18:49:17.602
131.0, -104184.52074343213, -143267.7752694816, -27769.44968336221, -116737.23807778813, 25107.35691873514, -69645.50997561336, 8851.156693834864, -129185.30454460437, 0.068, 0.96, 0.08, 192.0, 0.0, 0.0, 0.0, 0.0, 0.0, 0.0, 0.0, 0.0, 0.0, 1.6664033576022003E9, 0.0, 2022-10-21 18:49:17.602
132.0, -104171.9367113038, -143254.6100919974, -27764.465244348678, -116725.99515032711, 25122.667863687024, -69649.15330995957, 8852.050763613077, -129174.66511424365, 0.068, 0.96, 0.08, 192.0, 0.0, 0.0, 0.0, 0.0, 0.0, 0.0, 0.0, 0.0, 0.0, 1.6664033576022243E9, 0.0, 2022-10-21 18:49:17.602
133.0, -104164.67239435583, -143248.84334192795, -27762.118311180868, -116717.054452545, 25128.434613756493, -69666.96765029045, 8838.058571584055, -129167.17727985112, 0.068, 0.96, 0.08, 192.0, 0.0, 0.0, 0.0, 0.0, 0.0, 0.0, 0.0, 0.0, 0.0, 1.6664033576022444E9, 0.0, 2022-10-21 18:49:17.602
134.0, -104165.7899815786, -143248.19514133874, -27762.900622236804, -116705.40919368378, 25131.02741611331, -69655.56826061825, 8858.242196827197, -129160.22588732552, 0.066, 0.962, 0.082, 192.0, 2.0, 16.0, 30.0, 16.0, 2.0, 144.0, 0.0, 0.0, 0.0, 1.6664033576022713E9, 0.0, 2022-10-21 18:49:17.602
135.0, -104179.2904352296, -143264.19899036872, -27785.565291114486, -116718.64142640131, 25122.667863687024, -69647.94631575899, 8873.910769690368, -129165.72441646153, 0.066, 0.962, 0.082, 192.0, 0.0, 0.0, 0.0, 0.0, 0.0, 0.0, 0.0, 0.0, 0.0, 1.6664033576022923E9, 0.0, 2022-10-21 18:49:17.602
136.0, -104167.5334176461, -143255.32534781998, -27788.381610915854, -116718.37320546785, 25132.25676205835, -69655.03181875132, 8867.56287426506, -129159.33181754731, 0.066, 0.962, 0.082, 192.0, 0.0, 0.0, 0.0, 0.0, 0.0, 0.0, 0.0, 0.0, 0.0, 1.6664033576023116E9, 0.0, 2022-10-21 18:49:17.602
137.0, -104162.52662688812, -143246.54111224905, -27785.386477158845, -116704.62688262784, 25140.43750052899, -69667.01235377937, 8856.163484592853, -129151.95574187706, 0.066, 0.962, 0.082, 192.0, 0.0, 0.0, 0.0, 0.0, 0.0, 0.0, 0.0, 0.0, 0.0, 1.6664033576024108E9, 0.0, 2022-10-21 18:49:17.602
138.0, -104179.0445660406, -143263.64019675736, -27800.83153257746, -116719.62490315735, 25119.091584574177, -69664.59836537819, 8867.629929498426, -129169.07717812982, 0.066, 0.962, 0.082, 192.0, 0.0, 0.0, 0.0, 0.0, 0.0, 0.0, 0.0, 0.0, 0.0, 1.6664033576024306E9, 0.0, 2022-10-21 18:49:17.602
139.0, -104187.80644986707, -143269.69751950473, -27814.756669373117, -116735.80756614299, 25109.793258880767, -69669.80632183628, 8881.197438382798, -129175.00039041048, 0.066, 0.962, 0.082, 192.0, 0.0, 0.0, 0.0, 0.0, 0.0, 0.0, 0.0, 0.0, 0.0, 1.66640335760245E9, 0.0, 2022-10-21 18:49:17.602
140.0, -104167.15343799036, -143248.99980413914, -27804.810143090504, -116712.47234493165, 25142.046826129776, -69669.87337706964, 8883.834944228523, -129151.15107907666, 0.066, 0.962, 0.082, 192.0, 0.0, 0.0, 0.0, 0.0, 0.0, 0.0, 0.0, 0.0, 0.0, 1.6664033576024697E9, 0.0, 2022-10-21 18:49:17.602
141.0, -104170.32738570301, -143252.1514001073, -27813.862599594904, -116714.64046414381, 25142.002122640864, -69680.98219406392, 8864.210112596764, -129159.15300359167, 0.066, 0.962, 0.082, 192.0, 0.0, 0.0, 0.0, 0.0, 0.0, 0.0, 0.0, 0.0, 0.0, 1.6664033576024888E9, 0.0, 2022-10-21 18:49:17.602
142.0, -104182.2408654977, -143264.40015606882, -27825.351396244932, -116719.75901362408, 25129.708663190446, -69676.17656900604, 8875.922426691344, -129161.1870123371, 0.066, 0.962, 0.082, 192.0, 0.0, 0.0, 0.0, 0.0, 0.0, 0.0, 0.0, 0.0, 0.0, 1.6664033576025083E9, 0.0, 2022-10-21 18:49:17.602
143.0, -104176.5411706616, -143258.94633042175, -27828.23477127967, -116714.90868507729, 25135.8330411712, -69675.23779573891, 8897.201287412798, -129153.87799190021, 0.07, 0.962, 0.08600000000000001, 192.0, 2.0, 48.0, 30.0, 16.0, 2.0, 176.0, 0.0, 0.0, 0.0, 1.6664033576025288E9, 0.0, 2022-10-21 18:49:17.602
144.0, -104182.21851375325, -143260.5109525336, -27841.198783063744, -116725.36930148237, 25134.44723301497, -69693.76739189237, 8881.867990716457, -129159.86825941423, 0.07, 0.962, 0.08600000000000001, 192.0, 0.0, 0.0, 0.0, 0.0, 0.0, 0.0, 0.0, 0.0, 0.0, 1.6664033576025496E9, 0.0, 2022-10-21 18:49:17.602
145.0, -104169.2321502247, -143247.50223726063, -27834.470907982697, -116717.36737696736, 25145.77956745381, -69701.702261174, 8870.84858069999, -129151.70987268805, 0.07, 0.962, 0.08600000000000001, 192.0, 0.0, 0.0, 0.0, 0.0, 0.0, 0.0, 0.0, 0.0, 0.0, 1.66640335760257E9, 0.0, 2022-10-21 18:49:17.602
146.0, -104173.5907403935, -143252.48667627416, -27840.46117549672, -116710.32657746394, 25142.15858485205, -69699.98117685094, 8875.922426691344, -129156.9848843795, 0.07, 0.962, 0.08600000000000001, 192.0, 0.0, 0.0, 0.0, 0.0, 0.0, 0.0, 0.0, 0.0, 0.0, 1.6664033576025896E9, 0.0, 2022-10-21 18:49:17.602
147.0, -104176.60822589496, -143256.1523623648, -27846.160870332824, -116705.6997663617, 25141.666846474036, -69690.61579592417, 8901.224601414753, -129157.99071288, 0.07, 0.962, 0.08600000000000001, 192.0, 0.0, 0.0, 0.0, 0.0, 0.0, 0.0, 0.0, 0.0, 0.0, 1.6664033576026096E9, 0.0, 2022-10-21 18:49:17.602
148.0, -104173.41192643785, -143251.36908905138, -27850.027722123592, -116708.56078965198, 25151.702779734467, -69702.88690363013, 8900.509345592183, -129146.79248890789, 0.07, 0.962, 0.08600000000000001, 192.0, 0.0, 0.0, 0.0, 0.0, 0.0, 0.0, 0.0, 0.0, 0.0, 1.666403357602629E9, 0.0, 2022-10-21 18:49:17.602
149.0, -104172.85313282647, -143253.42544954128, -27865.249260097655, -116726.64335091632, 25141.44332902948, -69735.78867146834, 8867.585226009516, -129155.95670413456, 0.07, 0.962, 0.08600000000000001, 192.0, 0.0, 0.0, 0.0, 0.0, 0.0, 0.0, 0.0, 0.0, 0.0, 1.6664033576026485E9, 0.0, 2022-10-21 18:49:17.602
150.0, -104177.72581311772, -143258.4098885548, -27880.873129471915, -116719.2002200127, 25131.474451002414, -69734.51462203439, 8872.748478978692, -129164.33860830529, 0.07, 0.962, 0.08600000000000001, 192.0, 0.0, 0.0, 0.0, 0.0, 0.0, 0.0, 0.0, 0.0, 0.0, 1.6664033576026711E9, 0.0, 2022-10-21 18:49:17.602
151.0, -104184.40898470987, -143263.55078977952, -27881.096646916467, -116713.41111819877, 25127.49584048937, -69735.25222960142, 8890.607522798482, -129170.08300663032, 0.07, 0.962, 0.08600000000000001, 192.0, 0.0, 0.0, 0.0, 0.0, 0.0, 0.0, 0.0, 0.0, 0.0, 1.6664033576026847E9, 0.0, 2022-10-21 18:49:17.602
152.0, -104191.67330165784, -143272.37972883938, -27895.960556979247, -116728.76676663957, 25117.750479906856, -69745.0646454173, 8894.407319355883, -129177.95082067858, 0.07, 0.962, 0.08600000000000001, 192.0, 0.0, 0.0, 0.0, 0.0, 0.0, 0.0, 0.0, 0.0, 0.0, 1.6664033576027129E9, 0.0, 2022-10-21 18:49:17.602
153.0, -104169.29920545808, -143255.1688856088, -27888.1821499088, -116720.2060485132, 25136.63770397159, -69757.96160196801, 8885.354862851485, -129158.30363730236, 0.066, 0.9580000000000001, 0.082, 192.0, 2.0, 16.0, 29.0, 240.0, 2.0, 144.0, 0.0, 0.0, 0.0, 1.6664033576027267E9, 0.0, 2022-10-21 18:49:17.602
154.0, -104160.3361559315, -143245.1106006039, -27880.157873649347, -116701.40823142628, 25152.954477423966, -69758.31922987929, 8875.117763890954, -129155.6884832011, 0.066, 0.9580000000000001, 0.082, 192.0, 0.0, 0.0, 0.0, 0.0, 0.0, 0.0, 0.0, 0.0, 0.0, 1.6664033576027417E9, 0.0, 2022-10-21 18:49:17.602
155.0, -104174.1942374938, -143257.8063914545, -27887.42219059732, -116697.47432440214, 25145.31018082025, -69725.48451727444, 8907.818366029069, -129164.58447749431, 0.066, 0.9580000000000001, 0.082, 192.0, 0.0, 0.0, 0.0, 0.0, 0.0, 0.0, 0.0, 0.0, 0.0, 1.6664033576027553E9, 0.0, 2022-10-21 18:49:17.602
156.0, -104177.3905369509, -143260.13097287787, -27900.252091914666, -116717.81441185647, 25139.319913306226, -69729.5078312764, 8919.664790590381, -129167.73607346251, 0.066, 0.9580000000000001, 0.082, 192.0, 0.0, 0.0, 0.0, 0.0, 0.0, 0.0, 0.0, 0.0, 0.0, 1.6664033576027708E9, 0.0, 2022-10-21 18:49:17.602
157.0, -104176.7423363617, -143258.67810948828, -27912.165571709345, -116722.46357470317, 25142.31504706324, -69764.22009041549, 8888.685272775325, -129161.09760535927, 0.066, 0.9580000000000001, 0.082, 192.0, 0.0, 0.0, 0.0, 0.0, 0.0, 0.0, 0.0, 0.0, 0.0, 1.6664033576027844E9, 0.0, 2022-10-21 18:49:17.602
158.0, -104168.76276359115, -143249.93857740625, -27910.57859785302, -116712.293530976, 25144.63962848659, -69765.13651193817, 8887.970016952755, -129158.75067219147, 0.066, 0.9580000000000001, 0.082, 192.0, 0.0, 0.0, 0.0, 0.0, 0.0, 0.0, 0.0, 0.0, 0.0, 1.6664033576027982E9, 0.0, 2022-10-21 18:49:17.602
159.0, -104173.27781597112, -143256.5993972539, -27914.57956011052, -116710.3489292084, 25132.703796947455, -69761.06849444729, 8909.360636396485, -129166.75259670647, 0.066, 0.9580000000000001, 0.082, 192.0, 0.0, 0.0, 0.0, 0.0, 0.0, 0.0, 0.0, 0.0, 0.0, 1.6664033576028118E9, 0.0, 2022-10-21 18:49:17.602
160.0, -104178.55282766257, -143263.75195547962, -27927.498868405684, -116719.33433047943, 25128.009930611843, -69770.21035792952, 8921.117653979976, -129172.76521596494, 0.066, 0.9580000000000001, 0.082, 192.0, 0.0, 0.0, 0.0, 0.0, 0.0, 0.0, 0.0, 0.0, 0.0, 1.6664033576028254E9, 0.0, 2022-10-21 18:49:17.602
161.0, -104164.91826354484, -143248.1057343609, -27925.062528260056, -116718.39555721231, 25143.54439300828, -69782.99555575795, 8912.713398064781, -129155.17439307862, 0.066, 0.9580000000000001, 0.082, 192.0, 0.0, 0.0, 0.0, 0.0, 0.0, 0.0, 0.0, 0.0, 0.0, 1.6664033576028392E9, 0.0, 2022-10-21 18:49:17.602
162.0, -104164.5382838891, -143248.6645279723, -27933.153859752878, -116715.46747868866, 25144.460814530947, -69783.6214046027, 8902.968037482267, -129154.28032330041, 0.066, 0.9580000000000001, 0.082, 192.0, 0.0, 0.0, 0.0, 0.0, 0.0, 0.0, 0.0, 0.0, 0.0, 1.666403357602853E9, 0.0, 2022-10-21 18:49:17.602
163.0, -104159.59854836448, -143244.19417908124, -27933.556191153075, -116697.20610346868, 25150.205212855963, -69762.94604098154, 8922.704627836303, -129147.17246856361, 0.068, 0.9560000000000001, 0.074, 192.0, 2.0, 32.0, 29.0, 224.0, 2.0, 80.0, 0.0, 0.0, 0.0, 1.6664033576028676E9, 0.0, 2022-10-21 18:49:17.602
164.0, -104171.4896764147, -143255.43710654226, -27943.614476157964, -116705.65506287279, 25140.191631339985, -69757.93925022356, 8936.585061143049, -129154.1909163226, 0.068, 0.9560000000000001, 0.074, 192.0, 0.0, 0.0, 0.0, 0.0, 0.0, 0.0, 0.0, 0.0, 0.0, 1.6664033576028826E9, 0.0, 2022-10-21 18:49:17.602
165.0, -104195.07076681504, -143280.9627987102, -27979.891357408927, -116747.09519709292, 25111.939026348475, -69798.77588734339, 8902.073967704055, -129182.33176259181, 0.068, 0.9560000000000001, 0.074, 192.0, 0.0, 0.0, 0.0, 0.0, 0.0, 0.0, 0.0, 0.0, 0.0, 1.6664033576028965E9, 0.0, 2022-10-21 18:49:17.602
166.0, -104163.95713853325, -143248.4633622722, -27956.377322241944, -116718.61907465686, 25144.952552908966, -69794.79727683036, 8905.449081116805, -129147.19482030808, 0.068, 0.9560000000000001, 0.074, 192.0, 0.0, 0.0, 0.0, 0.0, 0.0, 0.0, 0.0, 0.0, 0.0, 1.66640335760291E9, 0.0, 2022-10-21 18:49:17.602
167.0, -104160.5820251205, -143245.24471107064, -27955.505604208185, -116700.51416164807, 25149.288791333296, -69786.59418661526, 8916.960229511289, -129148.26770404194, 0.068, 0.9560000000000001, 0.074, 192.0, 0.0, 0.0, 0.0, 0.0, 0.0, 0.0, 0.0, 0.0, 0.0, 1.6664033576029363E9, 0.0, 2022-10-21 18:49:17.602
168.0, -104164.5382838891, -143248.77628669457, -27966.77088341366, -116702.36935643785, 25140.862183673646, -69763.41542761511, 8948.811465360102, -129157.45427101306, 0.068, 0.9560000000000001, 0.074, 192.0, 0.0, 0.0, 0.0, 0.0, 0.0, 0.0, 0.0, 0.0, 0.0, 1.66640335760295E9, 0.0, 2022-10-21 18:49:17.602
169.0, -104177.345833462, -143263.08140314597, -27998.845636707025, -116735.51699346508, 25121.7290904199, -69784.60488135874, 8934.036962275144, -129179.493091046, 0.068, 0.9560000000000001, 0.074, 192.0, 0.0, 0.0, 0.0, 0.0, 0.0, 0.0, 0.0, 0.0, 0.0, 1.666403357602964E9, 0.0, 2022-10-21 18:49:17.602
170.0, -104164.67239435583, -143250.22915008417, -27995.358764572, -116724.54228693752, 25136.436538271493, -69809.16944851511, 8911.506403864194, -129166.35026530628, 0.068, 0.9560000000000001, 0.074, 192.0, 0.0, 0.0, 0.0, 0.0, 0.0, 0.0, 0.0, 0.0, 0.0, 1.6664033576029775E9, 0.0, 2022-10-21 18:49:17.602
171.0, -104158.81623730854, -143244.82002792598, -27993.123590126466, -116711.22064724215, 25140.102224362163, -69815.91967534061, 8907.147813695408, -129160.47175651453, 0.068, 0.9560000000000001, 0.074, 192.0, 0.0, 0.0, 0.0, 0.0, 0.0, 0.0, 0.0, 0.0, 0.0, 1.666403357602991E9, 0.0, 2022-10-21 18:49:17.602
172.0, -104158.52566463062, -143245.40117328183, -28007.048726922123, -116709.47721117464, 25134.626046970614, -69806.93427406959, 8920.603563857505, -129168.67484672963, 0.064, 0.96, 0.074, 192.0, 2.0, 0.0, 30.0, 0.0, 2.0, 80.0, 0.0, 0.0, 0.0, 1.6664033576030056E9, 0.0, 2022-10-21 18:49:17.603
173.0, -104156.96104251874, -143240.79671392404, -28011.027337435167, -116702.61522562685, 25144.237297086394, -69795.22195997501, 8933.612279130493, -129151.3298930323, 0.064, 0.96, 0.074, 192.0, 0.0, 0.0, 0.0, 0.0, 0.0, 0.0, 0.0, 0.0, 0.0, 1.6664033576030202E9, 0.0, 2022-10-21 18:49:17.603
174.0, -104154.25648143966, -143233.37593476486, -28018.269302638688, -116710.68420537523, 25147.388893054595, -69806.7778118584, 8916.870822533469, -129144.71377667354, 0.064, 0.96, 0.074, 192.0, 0.0, 0.0, 0.0, 0.0, 0.0, 0.0, 0.0, 0.0, 0.0, 1.666403357603034E9, 0.0, 2022-10-21 18:49:17.603
175.0, -104169.7909438361, -143248.82099018348, -28045.985465763268, -116721.61420841387, 25125.394776510573, -69826.60380919026, 8894.85435424499, -129168.47368102953, 0.064, 0.96, 0.074, 192.0, 0.0, 0.0, 0.0, 0.0, 0.0, 0.0, 0.0, 0.0, 0.0, 1.6664033576030476E9, 0.0, 2022-10-21 18:49:17.603
176.0, -104177.03290903961, -143255.5488652645, -28061.586983393074, -116719.17786826825, 25125.21596255493, -69818.95951258655, 8914.278020176653, -129169.45715778557, 0.064, 0.96, 0.074, 192.0, 0.0, 0.0, 0.0, 0.0, 0.0, 0.0, 0.0, 0.0, 0.0, 1.6664033576030614E9, 0.0, 2022-10-21 18:49:17.603
177.0, -104176.92115031734, -143253.0007663966, -28063.93391656088, -116717.9485223232, 25135.631875471103, -69808.40948920364, 8927.510252894193, -129162.2375443265, 0.064, 0.96, 0.074, 192.0, 0.0, 0.0, 0.0, 0.0, 0.0, 0.0, 0.0, 0.0, 0.0, 1.6664033576030762E9, 0.0, 2022-10-21 18:49:17.603
178.0, -104186.30888298857, -143261.53913277856, -28082.64232666997, -116736.65693243229, 25126.378253266605, -69836.43857675059, 8898.743557780213, -129173.36871306524, 0.064, 0.96, 0.074, 192.0, 0.0, 0.0, 0.0, 0.0, 0.0, 0.0, 0.0, 0.0, 0.0, 1.66640335760309E9, 0.0, 2022-10-21 18:49:17.603
179.0, -104191.06980455754, -143266.1212403919, -28093.237053541787, -116737.1039673214, 25122.801974153757, -69851.07896936881, 8885.108993662476, -129174.19572761009, 0.064, 0.96, 0.074, 192.0, 0.0, 0.0, 0.0, 0.0, 0.0, 0.0, 0.0, 0.0, 0.0, 1.6664033576031036E9, 0.0, 2022-10-21 18:49:17.603
180.0, -104179.2457317407, -143253.805429197, -28077.054390556146, -116709.45485943019, 25143.007951141353, -69818.60188467526, 8927.979639527755, -129148.75944241995, 0.064, 0.96, 0.074, 192.0, 0.0, 0.0, 0.0, 0.0, 0.0, 0.0, 0.0, 0.0, 0.0, 1.666403357603118E9, 0.0, 2022-10-21 18:49:17.603
181.0, -104171.42262118134, -143243.61303372539, -28077.255556256245, -116707.3984989403, 25151.16633786754, -69814.86914335121, 8945.995145558732, -129139.19289579308, 0.064, 0.96, 0.074, 192.0, 0.0, 0.0, 0.0, 0.0, 0.0, 0.0, 0.0, 0.0, 0.0, 1.6664033576031325E9, 0.0, 2022-10-21 18:49:17.603
182.0, -104178.48577242921, -143248.79863843904, -28097.41682975493, -116726.46453696067, 25142.896192419077, -69845.04399836589, 8918.994238256722, -129151.77692792141, 0.066, 0.9560000000000001, 0.08, 192.0, 2.0, 16.0, 29.0, 224.0, 2.0, 128.0, 0.0, 0.0, 0.0, 1.6664033576031585E9, 0.0, 2022-10-21 18:49:17.603
183.0, -104167.04167926809, -143237.77922842256, -28096.567463465628, -116708.47138267415, 25154.854375702667, -69864.40060906418, 8895.211982156276, -129147.0830615858, 0.066, 0.9560000000000001, 0.08, 192.0, 0.0, 0.0, 0.0, 0.0, 0.0, 0.0, 0.0, 0.0, 0.0, 1.6664033576031728E9, 0.0, 2022-10-21 18:49:17.603
184.0, -104160.47026639823, -143231.29722253053, -28090.26427152923, -116685.96317600766, 25165.18088164102, -69840.64070470819, 8918.971886512267, -129136.3318725028, 0.066, 0.9560000000000001, 0.08, 192.0, 0.0, 0.0, 0.0, 0.0, 0.0, 0.0, 0.0, 0.0, 0.0, 1.6664033576031864E9, 0.0, 2022-10-21 18:49:17.603
185.0, -104179.2457317407, -143249.78211519506, -28109.956158394358, -116705.05156577249, 25145.98073315391, -69834.42691974962, 8933.187595985843, -129147.79831740836, 0.066, 0.9560000000000001, 0.08, 192.0, 0.0, 0.0, 0.0, 0.0, 0.0, 0.0, 0.0, 0.0, 0.0, 1.6664033576032004E9, 0.0, 2022-10-21 18:49:17.603
186.0, -104190.15338303488, -143261.53913277856, -28137.42645232993, -116737.79687139952, 25129.753366679357, -69878.86218772676, 8897.737729279725, -129157.7895471799, 0.066, 0.9560000000000001, 0.08, 192.0, 0.0, 0.0, 0.0, 0.0, 0.0, 0.0, 0.0, 0.0, 0.0, 1.6664033576032157E9, 0.0, 2022-10-21 18:49:17.603
187.0, -104176.92115031734, -143246.58581573796, -28135.772423240236, -116717.68030138974, 25151.54631752328, -69881.18676915011, 8894.675540289349, -129136.35422424725, 0.066, 0.9560000000000001, 0.08, 192.0, 0.0, 0.0, 0.0, 0.0, 0.0, 0.0, 0.0, 0.0, 0.0, 1.6664033576032336E9, 0.0, 2022-10-21 18:49:17.603
188.0, -104185.54892367708, -143254.3642228084, -28149.25052514679, -116712.27117923155, 25143.946724408477, -69868.04394341039, 8913.920392265367, -129136.62244518072, 0.066, 0.9560000000000001, 0.08, 192.0, 0.0, 0.0, 0.0, 0.0, 0.0, 0.0, 0.0, 0.0, 0.0, 1.6664033576032476E9, 0.0, 2022-10-21 18:49:17.603
189.0, -104185.63833065491, -143257.82874319897, -28141.38271109852, -116709.99130129711, 25143.857317430655, -69863.39478056369, 8934.86397681999, -129144.49025922899, 0.066, 0.9560000000000001, 0.08, 192.0, 0.0, 0.0, 0.0, 0.0, 0.0, 0.0, 0.0, 0.0, 0.0, 1.6664033576032617E9, 0.0, 2022-10-21 18:49:17.603
190.0, -104176.36235670595, -143248.6645279723, -28133.537248794706, -116706.10209776189, 25155.346114080683, -69881.03030693893, 8924.425712159362, -129132.75559338994, 0.066, 0.9560000000000001, 0.08, 192.0, 0.0, 0.0, 0.0, 0.0, 0.0, 0.0, 0.0, 0.0, 0.0, 1.6664033576032755E9, 0.0, 2022-10-21 18:49:17.603
191.0, -104178.99986255167, -143252.37491755188, -28147.14946116799, -116719.53549617952, 25148.193555854985, -69905.90779851768, 8894.742595522714, -129134.27551201291, 0.066, 0.9560000000000001, 0.08, 192.0, 0.0, 0.0, 0.0, 0.0, 0.0, 0.0, 0.0, 0.0, 0.0, 1.6664033576032894E9, 0.0, 2022-10-21 18:49:17.603
192.0, -104190.08632780152, -143266.94825493672, -28157.319504895153, -116713.3440629654, 25139.789299939788, -69907.36066190728, 8896.463679845772, -129147.5300964749, 0.074, 0.9520000000000001, 0.082, 192.0, 2.0, 80.0, 29.0, 192.0, 2.0, 144.0, 0.0, 0.0, 0.0, 1.6664033576033034E9, 0.0, 2022-10-21 18:49:17.603
193.0, -104188.29818824508, -143264.9589496802, -28159.71114155187, -116710.32657746394, 25138.738767950388, -69899.98458623703, 8917.943706267322, -129148.87120114222, 0.074, 0.9520000000000001, 0.082, 192.0, 0.0, 0.0, 0.0, 0.0, 0.0, 0.0, 0.0, 0.0, 0.0, 1.6664033576033185E9, 0.0, 2022-10-21 18:49:17.603
194.0, -104176.20589449476, -143250.89970241784, -28145.026045444734, -116707.42085068475, 25154.40734081356, -69908.96998750806, 8912.512232364683, -129128.35229973226, 0.074, 0.9520000000000001, 0.082, 192.0, 0.0, 0.0, 0.0, 0.0, 0.0, 0.0, 0.0, 0.0, 0.0, 1.6664033576033323E9, 0.0, 2022-10-21 18:49:17.603
195.0, -104184.5430951766, -143259.72864147768, -28159.554679340683, -116716.94269382271, 25145.287829075794, -69935.85913608779, 8877.107069147476, -129141.98686384999, 0.074, 0.9520000000000001, 0.082, 192.0, 0.0, 0.0, 0.0, 0.0, 0.0, 0.0, 0.0, 0.0, 0.0, 1.6664033576033468E9, 0.0, 2022-10-21 18:49:17.603
196.0, -104179.8939323299, -143254.6100919974, -28160.493452607807, -116701.36352793737, 25151.099282634175, -69937.96020006659, 8874.84954295749, -129135.46015446904, 0.074, 0.9520000000000001, 0.082, 192.0, 0.0, 0.0, 0.0, 0.0, 0.0, 0.0, 0.0, 0.0, 0.0, 1.666403357603361E9, 0.0, 2022-10-21 18:49:17.603
197.0, -104175.0436037831, -143250.7655919511, -28157.76653978426, -116677.15658869226, 25161.939878694997, -69909.97581600855, 8903.705645049291, -129126.34064273127, 0.074, 0.9520000000000001, 0.082, 192.0, 0.0, 0.0, 0.0, 0.0, 0.0, 0.0, 0.0, 0.0, 0.0, 1.6664033576033876E9, 0.0, 2022-10-21 18:49:17.603
198.0, -104189.01344406766, -143265.45068805822, -28183.359287185587, -116707.08557451793, 25145.82427094272, -69919.58706612434, 8899.659979302882, -129136.7789073919, 0.074, 0.9520000000000001, 0.082, 192.0, 0.0, 0.0, 0.0, 0.0, 0.0, 0.0, 0.0, 0.0, 0.0, 1.6664033576034029E9, 0.0, 2022-10-21 18:49:17.603
199.0, -104195.80837438208, -143272.8267637285, -28199.58665366014, -116726.48688870513, 25138.179974339007, -69945.51508969249, 8876.436516813817, -129143.84205863978, 0.074, 0.9520000000000001, 0.082, 192.0, 0.0, 0.0, 0.0, 0.0, 0.0, 0.0, 0.0, 0.0, 0.0, 1.6664033576034164E9, 0.0, 2022-10-21 18:49:17.603
200.0, -104190.51101094617, -143266.79179272556, -28196.30094722521, -116715.78040311104, 25140.035169128798, -69948.77844438296, 8879.297540104097, -129145.27257028493, 0.074, 0.9520000000000001, 0.082, 192.0, 0.0, 0.0, 0.0, 0.0, 0.0, 0.0, 0.0, 0.0, 0.0, 1.6664033576034305E9, 0.0, 2022-10-21 18:49:17.603
201.0, -104179.73747011871, -143253.58191175247, -28186.42147617596, -116694.92622553423, 25152.663904746045, -69930.38295869625, 8909.852374774502, -129131.41448872263, 0.084, 0.9460000000000001, 0.08600000000000001, 192.0, 2.0, 160.0, 29.0, 144.0, 2.0, 176.0, 0.0, 0.0, 0.0, 1.6664033576034443E9, 0.0, 2022-10-21 18:49:17.603
202.0, -104187.82880161153, -143258.27577808808, -28199.094915282123, -116704.045737272, 25150.384026811604, -69933.33338896434, 8913.540412609627, -129141.36101500524, 0.084, 0.9460000000000001, 0.08600000000000001, 192.0, 0.0, 0.0, 0.0, 0.0, 0.0, 0.0, 0.0, 0.0, 0.0, 1.666403357603459E9, 0.0, 2022-10-21 18:49:17.603
203.0, -104195.62956042643, -143268.15524913731, -28213.53414220025, -116714.5957606549, 25144.036131386296, -69965.29638353543, 8878.247008114697, -129143.81970689533, 0.084, 0.9460000000000001, 0.08600000000000001, 192.0, 0.0, 0.0, 0.0, 0.0, 0.0, 0.0, 0.0, 0.0, 0.0, 1.6664033576034727E9, 0.0, 2022-10-21 18:49:17.603
204.0, -104190.06397605706, -143262.88023744588, -28222.00545334881, -116706.68324311773, 25146.740692465388, -69960.37899975527, 8878.51522904816, -129137.11418355873, 0.084, 0.9460000000000001, 0.08600000000000001, 192.0, 0.0, 0.0, 0.0, 0.0, 0.0, 0.0, 0.0, 0.0, 0.0, 1.6664033576034863E9, 0.0, 2022-10-21 18:49:17.603
205.0, -104173.00959503766, -143243.97066163667, -28206.068659552177, -116682.90098701727, 25165.35969559666, -69938.25077274452, 8900.822270014558, -129125.51362818643, 0.084, 0.9460000000000001, 0.08600000000000001, 192.0, 0.0, 0.0, 0.0, 0.0, 0.0, 0.0, 0.0, 0.0, 0.0, 1.6664033576035001E9, 0.0, 2022-10-21 18:49:17.603
206.0, -104174.14953400487, -143244.48475175916, -28207.2085985194, -116684.1973881957, 25163.660963018057, -69936.52968842146, 8908.779491040646, -129122.2279217515, 0.084, 0.9460000000000001, 0.08600000000000001, 192.0, 0.0, 0.0, 0.0, 0.0, 0.0, 0.0, 0.0, 0.0, 0.0, 1.6664033576035137E9, 0.0, 2022-10-21 18:49:17.603
207.0, -104172.36139444845, -143243.81419942548, -28218.451525980418, -116698.9942430251, 25157.871861204134, -69961.78715965596, 8886.204229140787, -129132.33091024529, 0.084, 0.9460000000000001, 0.08600000000000001, 192.0, 0.0, 0.0, 0.0, 0.0, 0.0, 0.0, 0.0, 0.0, 0.0, 1.6664033576035275E9, 0.0, 2022-10-21 18:49:17.603
208.0, -104174.59656889399, -143244.64121397035, -28221.804287648712, -116695.39561216779, 25160.55407053877, -69966.19045331365, 8883.365557594963, -129136.80125913637, 0.084, 0.9460000000000001, 0.08600000000000001, 192.0, 0.0, 0.0, 0.0, 0.0, 0.0, 0.0, 0.0, 0.0, 0.0, 1.6664033576035411E9, 0.0, 2022-10-21 18:49:17.603
209.0, -104174.21658923825, -143242.69661220274, -28225.134697572554, -116673.17797817923, 25168.868919476143, -69944.01752281399, 8915.395607399418, -129136.37657599172, 0.084, 0.9460000000000001, 0.08600000000000001, 192.0, 0.0, 0.0, 0.0, 0.0, 0.0, 0.0, 0.0, 0.0, 0.0, 1.6664033576035547E9, 0.0, 2022-10-21 18:49:17.603
210.0, -104188.14172603391, -143257.6499292433, -28246.54766876074, -116696.08851624592, 25155.189651869496, -69951.10302580631, 8919.217755701275, -129151.50870698795, 0.084, 0.9460000000000001, 0.08600000000000001, 192.0, 0.0, 0.0, 0.0, 0.0, 0.0, 0.0, 0.0, 0.0, 0.0, 1.6664033576035683E9, 0.0, 2022-10-21 18:49:17.603
211.0, -104191.69565340229, -143259.6168827554, -28260.182232878476, -116715.24396124411, 25151.12163437863, -69968.55973822591, 8903.884459004934, -129152.3357215328, 0.084, 0.9480000000000001, 0.08600000000000001, 192.0, 2.0, 160.0, 29.0, 160.0, 2.0, 176.0, 0.0, 0.0, 0.0, 1.666403357603582E9, 0.0, 2022-10-21 18:49:17.603
212.0, -104198.2894180166, -143269.4740020602, -28279.941174976968, -116730.82312712946, 25140.683369718, -69996.5217705395, 8873.307272590075, -129159.71179720305, 0.084, 0.9480000000000001, 0.08600000000000001, 192.0, 0.0, 0.0, 0.0, 0.0, 0.0, 0.0, 0.0, 0.0, 0.0, 1.6664033576036088E9, 0.0, 2022-10-21 18:49:17.603
213.0, -104190.84628711299, -143256.24176934265, -28279.40473311004, -116703.95633029418, 25153.22269835743, -69981.54610175444, 8894.921409478357, -129150.86050639875, 0.084, 0.9480000000000001, 0.08600000000000001, 192.0, 0.0, 0.0, 0.0, 0.0, 0.0, 0.0, 0.0, 0.0, 0.0, 1.6664033576036224E9, 0.0, 2022-10-21 18:49:17.603
214.0, -104189.81810686804, -143254.49833327514, -28283.204529667444, -116698.83778081392, 25153.110939635153, -69961.67540093367, 8923.62104935897, -129153.8332884113, 0.084, 0.9480000000000001, 0.08600000000000001, 192.0, 0.0, 0.0, 0.0, 0.0, 0.0, 0.0, 0.0, 0.0, 0.0, 1.6664033576036365E9, 0.0, 2022-10-21 18:49:17.603
215.0, -104180.11744977445, -143246.38465003786, -28281.125817433098, -116698.36839418035, 25165.35969559666, -69974.77352318449, 8917.831947545046, -129140.5787039493, 0.084, 0.9480000000000001, 0.08600000000000001, 192.0, 0.0, 0.0, 0.0, 0.0, 0.0, 0.0, 0.0, 0.0, 0.0, 1.66640335760365E9, 0.0, 2022-10-21 18:49:17.603
216.0, -104191.18156327982, -143257.53817052106, -28300.862407787135, -116706.63853962881, 25161.045808916788, -69993.63839550476, 8889.266418131163, -129144.11027957324, 0.084, 0.9480000000000001, 0.08600000000000001, 192.0, 0.0, 0.0, 0.0, 0.0, 0.0, 0.0, 0.0, 0.0, 0.0, 1.666403357603664E9, 0.0, 2022-10-21 18:49:17.603
217.0, -104186.64415915539, -143251.74906870714, -28303.812838055237, -116694.68035634523, 25167.55016655328, -69986.99992740154, 8892.976807710744, -129134.09669805727, 0.084, 0.9480000000000001, 0.08600000000000001, 192.0, 0.0, 0.0, 0.0, 0.0, 0.0, 0.0, 0.0, 0.0, 0.0, 1.6664033576036775E9, 0.0, 2022-10-21 18:49:17.603
218.0, -104185.48186844372, -143249.87152217288, -28310.31719569173, -116681.44812362769, 25168.6901055205, -69975.19820632914, 8915.015627743678, -129133.09086955678, 0.084, 0.9480000000000001, 0.08600000000000001, 192.0, 0.0, 0.0, 0.0, 0.0, 0.0, 0.0, 0.0, 0.0, 0.0, 1.666403357603691E9, 0.0, 2022-10-21 18:49:17.603
219.0, -104191.80741212457, -143254.49833327514, -28329.003254056366, -116694.00980401157, 25165.002067685375, -69976.02522087398, 8918.323685923062, -129128.95579683255, 0.084, 0.9480000000000001, 0.08600000000000001, 192.0, 0.0, 0.0, 0.0, 0.0, 0.0, 0.0, 0.0, 0.0, 0.0, 1.6664033576037052E9, 0.0, 2022-10-21 18:49:17.603
220.0, -104191.62859816893, -143255.19123735325, -28335.66407390405, -116701.25176921509, 25168.84656773169, -69987.29050007946, 8905.247915416709, -129129.82751486631, 0.084, 0.9480000000000001, 0.08600000000000001, 192.0, 0.0, 0.0, 0.0, 0.0, 0.0, 0.0, 0.0, 0.0, 0.0, 1.66640335760372E9, 0.0, 2022-10-21 18:49:17.603
221.0, -104193.03675806962, -143257.33700482096, -28339.97796058392, -116689.74062082061, 25169.494768320892, -69985.05532563393, 8909.941781752323, -129137.02477658092, 0.082, 0.9520000000000001, 0.08600000000000001, 192.0, 2.0, 144.0, 29.0, 192.0, 2.0, 176.0, 0.0, 0.0, 0.0, 1.666403357603734E9, 0.0, 2022-10-21 18:49:17.603
222.0, -104195.78602263762, -143259.5051240331, -28351.578515956226, -116690.12060047635, 25163.12452115113, -69987.40225880174, 8924.492767392727, -129140.93633186059, 0.082, 0.9520000000000001, 0.08600000000000001, 192.0, 0.0, 0.0, 0.0, 0.0, 0.0, 0.0, 0.0, 0.0, 0.0, 1.6664033576037488E9, 0.0, 2022-10-21 18:49:17.603
223.0, -104196.97066509374, -143261.069746145, -28362.441463761505, -116688.08659173091, 25165.5385095523, -69992.9678431711, 8932.71820935228, -129139.37170974872, 0.082, 0.9520000000000001, 0.08600000000000001, 192.0, 0.0, 0.0, 0.0, 0.0, 0.0, 0.0, 0.0, 0.0, 0.0, 1.6664033576037624E9, 0.0, 2022-10-21 18:49:17.603
224.0, -104209.1970693108, -143272.9161707063, -28384.726152983447, -116708.4937344186, 25157.7377507374, -70023.38856737477, 8903.973865982756, -129150.92756163211, 0.082, 0.9520000000000001, 0.08600000000000001, 192.0, 0.0, 0.0, 0.0, 0.0, 0.0, 0.0, 0.0, 0.0, 0.0, 1.6664033576037765E9, 0.0, 2022-10-21 18:49:17.603
225.0, -104200.68105467333, -143260.98033916717, -28385.173187872555, -116695.75324007908, 25166.946669452987, -70029.11061395533, 8896.195458912309, -129140.1763725491, 0.082, 0.9520000000000001, 0.08600000000000001, 192.0, 0.0, 0.0, 0.0, 0.0, 0.0, 0.0, 0.0, 0.0, 0.0, 1.6664033576037917E9, 0.0, 2022-10-21 18:49:17.603
226.0, -104197.66356917185, -143261.62853975638, -28387.587176273726, -116685.33732716291, 25168.42188458704, -70007.54118055597, 8919.821252801568, -129136.89066611418, 0.082, 0.9520000000000001, 0.08600000000000001, 192.0, 0.0, 0.0, 0.0, 0.0, 0.0, 0.0, 0.0, 0.0, 0.0, 1.6664033576038053E9, 0.0, 2022-10-21 18:49:17.603
227.0, -104202.2456767852, -143266.14359213633, -28404.798019504313, -116699.48598140312, 25162.45396881747, -70012.23504689158, 8920.67061909087, -129146.61367495224, 0.082, 0.9520000000000001, 0.08600000000000001, 192.0, 0.0, 0.0, 0.0, 0.0, 0.0, 0.0, 0.0, 0.0, 0.0, 1.6664033576038191E9, 0.0, 2022-10-21 18:49:17.603
228.0, -104189.77340337913, -143257.04643214305, -28396.57257754476, -116701.22941747063, 25174.83683524571, -70022.74036678557, 8910.232354430242, -129130.31925324432, 0.082, 0.9520000000000001, 0.08600000000000001, 192.0, 0.0, 0.0, 0.0, 0.0, 0.0, 0.0, 0.0, 0.0, 0.0, 1.6664033576038456E9, 0.0, 2022-10-21 18:49:17.603
229.0, -104185.30305448807, -143253.49250477465, -28394.739734499424, -116690.43352489872, 25180.894157993098, -70025.82490752041, 8906.723130550758, -129120.70800312854, 0.082, 0.9520000000000001, 0.08600000000000001, 192.0, 0.0, 0.0, 0.0, 0.0, 0.0, 0.0, 0.0, 0.0, 0.0, 1.6664033576038597E9, 0.0, 2022-10-21 18:49:17.603
230.0, -104189.25931325667, -143257.47111528768, -28400.215911890977, -116679.70468756017, 25175.21681490145, -70008.65876777873, 8930.997125029222, -129136.89066611418, 0.082, 0.9520000000000001, 0.08600000000000001, 192.0, 0.0, 0.0, 0.0, 0.0, 0.0, 0.0, 0.0, 0.0, 0.0, 1.6664033576038735E9, 0.0, 2022-10-21 18:49:17.603
231.0, -104198.66939767235, -143265.94242643626, -28416.219760920976, -116697.9437110357, 25163.236279873407, -70011.96682595812, 8937.277965221163, -129152.49218374399, 0.084, 0.9520000000000001, 0.08600000000000001, 192.0, 2.0, 160.0, 29.0, 192.0, 2.0, 176.0, 0.0, 0.0, 0.0, 1.6664033576038876E9, 0.0, 2022-10-21 18:49:17.603
232.0, -104202.02215934065, -143268.6693392598, -28430.68133958356, -116716.4956589336, 25160.934050194508, -70038.45364313766, 8912.66869457587, -129150.4358232541, 0.084, 0.9520000000000001, 0.08600000000000001, 192.0, 0.0, 0.0, 0.0, 0.0, 0.0, 0.0, 0.0, 0.0, 0.0, 1.6664033576039023E9, 0.0, 2022-10-21 18:49:17.603
233.0, -104184.43133645432, -143254.051298386, -28422.724118557468, -116697.38491742432, 25175.999125957387, -70039.32536117142, 8907.460738117783, -129131.32508174481, 0.084, 0.9520000000000001, 0.08600000000000001, 192.0, 0.0, 0.0, 0.0, 0.0, 0.0, 0.0, 0.0, 0.0, 0.0, 1.6664033576039164E9, 0.0, 2022-10-21 18:49:17.603
234.0, -104195.65191217088, -143267.19412412573, -28443.95827579001, -116698.88248430283, 25161.381085083616, -70035.79378554747, 8917.09433997802, -129141.94216036108, 0.084, 0.9520000000000001, 0.08600000000000001, 192.0, 0.0, 0.0, 0.0, 0.0, 0.0, 0.0, 0.0, 0.0, 0.0, 1.66640335760393E9, 0.0, 2022-10-21 18:49:17.603
235.0, -104196.21070578227, -143265.6742055028, -28455.089444528752, -116697.83195231343, 25164.55503279627, -70035.43615763618, 8930.795959329123, -129144.93729411809, 0.084, 0.9520000000000001, 0.08600000000000001, 192.0, 0.0, 0.0, 0.0, 0.0, 0.0, 0.0, 0.0, 0.0, 0.0, 1.666403357603944E9, 0.0, 2022-10-21 18:49:17.603
236.0, -104178.59753115148, -143246.74227794915, -28443.421833923083, -116687.3936876528, 25186.437390618015, -70037.22429719262, 8931.064180262587, -129132.08504105629, 0.084, 0.9520000000000001, 0.08600000000000001, 192.0, 0.0, 0.0, 0.0, 0.0, 0.0, 0.0, 0.0, 0.0, 0.0, 1.666403357603958E9, 0.0, 2022-10-21 18:49:17.603
237.0, -104194.57902843703, -143261.67324324528, -28464.186604522063, -116707.040871029, 25172.668716033546, -70046.030884508, 8914.43448238784, -129148.96060812005, 0.084, 0.9520000000000001, 0.08600000000000001, 192.0, 0.0, 0.0, 0.0, 0.0, 0.0, 0.0, 0.0, 0.0, 0.0, 1.666403357603972E9, 0.0, 2022-10-21 18:49:17.603
238.0, -104198.57999069453, -143263.32727233498, -28472.836729626266, -116697.98841452462, 25172.065218933254, -70039.99591350507, 8921.229412702252, -129147.99948310846, 0.084, 0.9520000000000001, 0.08600000000000001, 192.0, 0.0, 0.0, 0.0, 0.0, 0.0, 0.0, 0.0, 0.0, 0.0, 1.666403357603986E9, 0.0, 2022-10-21 18:49:17.603
239.0, -104190.80158362408, -143259.8627519444, -28477.709409917523, -116690.43352489872, 25175.194463156997, -70025.48963135357, 8944.855206591512, -129146.05488134085, 0.084, 0.9520000000000001, 0.08600000000000001, 192.0, 0.0, 0.0, 0.0, 0.0, 0.0, 0.0, 0.0, 0.0, 0.0, 1.6664033576040013E9, 0.0, 2022-10-21 18:49:17.604
240.0, -104191.62859816893, -143263.08140314597, -28488.505302489437, -116697.40726916878, 25175.283870134816, -70044.35450367385, 8935.24395647573, -129143.21620979503, 0.084, 0.9520000000000001, 0.088, 192.0, 2.0, 160.0, 29.0, 192.0, 2.0, 192.0, 0.0, 0.0, 0.0, 1.666403357604015E9, 0.0, 2022-10-21 18:49:17.604
241.0, -104193.68495865882, -143261.13680137836, -28499.45765727254, -116701.07295525944, 25171.32761136623, -70056.51385265755, 8922.570517369571, -129149.29588428688, 0.084, 0.9520000000000001, 0.088, 192.0, 0.0, 0.0, 0.0, 0.0, 0.0, 0.0, 0.0, 0.0, 0.0, 1.666403357604031E9, 0.0, 2022-10-21 18:49:17.604
242.0, -104194.06493831455, -143261.85205720091, -28504.59855849726, -116700.40240292579, 25164.376218840625, -70059.82191083692, 8926.727941838259, -129149.65351219816, 0.084, 0.9520000000000001, 0.088, 192.0, 0.0, 0.0, 0.0, 0.0, 0.0, 0.0, 0.0, 0.0, 0.0, 1.6664033580821507E9, 0.0, 2022-10-21 18:49:18.082
243.0, -104209.21942105526, -143273.13968815087, -28520.624759271715, -116713.58993215441, 25149.48995703339, -70057.9890677916, 8939.982526300255, -129163.60100073827, 0.084, 0.9520000000000001, 0.088, 192.0, 0.0, 0.0, 0.0, 0.0, 0.0, 0.0, 0.0, 0.0, 0.0, 1.6664033580824497E9, 0.0, 2022-10-21 18:49:18.082
244.0, -104219.72474094926, -143286.01429295712, -28540.629570559213, -116730.39844398481, 25143.611448241645, -70071.98125982062, 8930.594793629027, -129168.07134962933, 0.084, 0.9520000000000001, 0.088, 192.0, 0.0, 0.0, 0.0, 0.0, 0.0, 0.0, 0.0, 0.0, 0.0, 1.6664033580824945E9, 0.0, 2022-10-21 18:49:18.082
245.0, -104187.38176672242, -143253.9618914082, -28522.50230580596, -116703.95633029418, 25180.089495192708, -70068.69555338568, 8926.325610438063, -129130.98980557798, 0.084, 0.9520000000000001, 0.088, 192.0, 0.0, 0.0, 0.0, 0.0, 0.0, 0.0, 0.0, 0.0, 0.0, 1.666403358082539E9, 0.0, 2022-10-21 18:49:18.082
246.0, -104187.04649055559, -143246.71992620468, -28523.55283779536, -116690.96996676565, 25183.241091160908, -70044.91329728524, 8944.452875191317, -129129.33577648828, 0.084, 0.9520000000000001, 0.088, 192.0, 0.0, 0.0, 0.0, 0.0, 0.0, 0.0, 0.0, 0.0, 0.0, 1.6664033580825813E9, 0.0, 2022-10-21 18:49:18.082
247.0, -104188.05231905608, -143250.2067983397, -28523.97752094001, -116680.4422951272, 25185.7444865399, -70029.44589012217, 8975.119468583998, -129135.9295411026, 0.084, 0.9520000000000001, 0.088, 192.0, 0.0, 0.0, 0.0, 0.0, 0.0, 0.0, 0.0, 0.0, 0.0, 1.6664033580826228E9, 0.0, 2022-10-21 18:49:18.082
248.0, -104184.5430951766, -143248.99980413914, -28530.75009950997, -116687.43839114171, 25183.822236516746, -70046.09793974138, 8970.850285393035, -129143.03739583939, 0.084, 0.9520000000000001, 0.088, 192.0, 0.0, 0.0, 0.0, 0.0, 0.0, 0.0, 0.0, 0.0, 0.0, 1.666403358082662E9, 0.0, 2022-10-21 18:49:18.082
249.0, -104200.52459246214, -143267.14942063682, -28558.08628297881, -116721.25658050258, 25162.11869265064, -70080.40786748027, 8937.322668710074, -129153.00627386646, 0.084, 0.9520000000000001, 0.088, 192.0, 0.0, 0.0, 0.0, 0.0, 0.0, 0.0, 0.0, 0.0, 0.0, 1.666403358082678E9, 0.0, 2022-10-21 18:49:18.082
250.0, -104200.41283373986, -143265.04835665802, -28566.378780171726, -116717.16621126726, 25163.728018251422, -70087.85099838389, 8930.639497117936, -129153.36390177775, 0.084, 0.9500000000000001, 0.076, 192.0, 2.0, 160.0, 29.0, 176.0, 2.0, 96.0, 0.0, 0.0, 0.0, 1.666403358082694E9, 0.0, 2022-10-21 18:49:18.082
251.0, -104194.95900809277, -143257.29230133205, -28563.89773653719, -116692.42283015524, 25175.39562885709, -70069.12023653033, 8956.701631152824, -129154.45913725605, 0.084, 0.9500000000000001, 0.076, 192.0, 0.0, 0.0, 0.0, 0.0, 0.0, 0.0, 0.0, 0.0, 0.0, 1.6664033580827117E9, 0.0, 2022-10-21 18:49:18.082
252.0, -104215.38850252492, -143279.19701089824, -28597.201835775595, -116716.36154846687, 25153.69208499099, -70084.20766403768, 8951.896006094934, -129178.82253871234, 0.084, 0.9500000000000001, 0.076, 192.0, 0.0, 0.0, 0.0, 0.0, 0.0, 0.0, 0.0, 0.0, 0.0, 1.6664033580827277E9, 0.0, 2022-10-21 18:49:18.082
253.0, -104199.92109536185, -143264.44485955773, -28589.021097304954, -116713.38876645431, 25171.75229451088, -70086.71105941666, 8949.325555482574, -129151.24048605449, 0.084, 0.9500000000000001, 0.076, 192.0, 0.0, 0.0, 0.0, 0.0, 0.0, 0.0, 0.0, 0.0, 0.0, 1.6664033580827434E9, 0.0, 2022-10-21 18:49:18.082
254.0, -104191.58389468002, -143253.24663558564, -28579.186329744618, -116698.65896685827, 25185.87859700663, -70082.97831809263, 8947.537415926148, -129138.4776399705, 0.084, 0.9500000000000001, 0.076, 192.0, 0.0, 0.0, 0.0, 0.0, 0.0, 0.0, 0.0, 0.0, 0.0, 1.6664033580827591E9, 0.0, 2022-10-21 18:49:18.082
255.0, -104199.02702558364, -143262.09792638992, -28585.288355980916, -116687.43839114171, 25185.40921037307, -70059.91131781475, 8973.644253449947, -129136.91301785863, 0.084, 0.9500000000000001, 0.076, 192.0, 0.0, 0.0, 0.0, 0.0, 0.0, 0.0, 0.0, 0.0, 0.0, 1.666403358082775E9, 0.0, 2022-10-21 18:49:18.082
0.0, -104207.11835707646, -143267.5070485481, -28599.86169336578, -116698.23428371362, 25176.557919568768, -70061.40888469326, 8982.9202273989, -129146.32310227431, 0.084, 0.9500000000000001, 0.076, 192.0, 0.0, 0.0, 0.0, 0.0, 0.0, 0.0, 0.0, 0.0, 0.0, 1.6664033580827909E9, 0.0, 2022-10-21 18:49:18.082
1.0, -104220.19412758281, -143278.7723277536, -28622.593417476826, -116718.23909500112, 25168.667753776044, -70099.049222356, 8949.258500249207, -129155.10733784526, 0.084, 0.9500000000000001, 0.076, 192.0, 0.0, 0.0, 0.0, 0.0, 0.0, 0.0, 0.0, 0.0, 0.0, 1.6664033580828063E9, 0.0, 2022-10-21 18:49:18.082
2.0, -104202.13391806293, -143264.1542868798, -28617.94425463012, -116706.07974601744, 25181.721172537946, -70104.36893753636, 8938.328497210563, -129138.96937834853, 0.084, 0.9500000000000001, 0.076, 192.0, 0.0, 0.0, 0.0, 0.0, 0.0, 0.0, 0.0, 0.0, 0.0, 1.6664033580828383E9, 0.0, 2022-10-21 18:49:18.082
3.0, -104192.81324062507, -143255.14653386435, -28608.333004514338, -116688.82419929793, 25189.7454487974, -70085.10173381589, 8961.77547714418, -129127.63704390968, 0.084, 0.9500000000000001, 0.076, 192.0, 0.0, 0.0, 0.0, 0.0, 0.0, 0.0, 0.0, 0.0, 0.0, 1.6664033580828545E9, 0.0, 2022-10-21 18:49:18.082
4.0, -104201.30690351808, -143263.99782466862, -28621.0064436205, -116692.33342317742, 25182.995221971898, -70071.22130050913, 8987.882314667979, -129141.49512547198, 0.076, 0.9540000000000001, 0.076, 192.0, 2.0, 96.0, 29.0, 208.0, 2.0, 96.0, 0.0, 0.0, 0.0, 1.6664033580828705E9, 0.0, 2022-10-21 18:49:18.082
5.0, -104193.77436563664, -143256.308824576, -28627.466097768083, -116695.82029531244, 25189.276062163837, -70089.1921030512, 8979.142782585954, -129135.7283754025, 0.076, 0.9540000000000001, 0.076, 192.0, 0.0, 0.0, 0.0, 0.0, 0.0, 0.0, 0.0, 0.0, 0.0, 1.6664033580828912E9, 0.0, 2022-10-21 18:49:18.082
6.0, -104201.26220002916, -143264.60132176892, -28646.263914854997, -116717.5014874341, 25174.009820700863, -70126.22894361365, 8939.379029199961, -129144.1773348066, 0.076, 0.9540000000000001, 0.076, 192.0, 0.0, 0.0, 0.0, 0.0, 0.0, 0.0, 0.0, 0.0, 0.0, 1.6664033580829144E9, 0.0, 2022-10-21 18:49:18.082
7.0, -104203.72089191925, -143267.1717723813, -28651.941257946644, -116708.38197569633, 25171.215852643953, -70113.86842892987, 8950.711363638802, -129147.01600635244, 0.076, 0.9540000000000001, 0.076, 192.0, 0.0, 0.0, 0.0, 0.0, 0.0, 0.0, 0.0, 0.0, 0.0, 1.66640335808293E9, 0.0, 2022-10-21 18:49:18.082
8.0, -104211.58870596752, -143275.4642695742, -28664.90526973072, -116706.9961675401, 25165.002067685375, -70093.37187926435, 8983.702538454836, -129158.97418963602, 0.076, 0.9540000000000001, 0.076, 192.0, 0.0, 0.0, 0.0, 0.0, 0.0, 0.0, 0.0, 0.0, 0.0, 1.6664033580829456E9, 0.0, 2022-10-21 18:49:18.082
9.0, -104211.63340945642, -143276.0230631856, -28679.232737926573, -116721.12247003586, 25167.17018689754, -70107.81110618247, 8980.997977375744, -129160.15883209216, 0.076, 0.9540000000000001, 0.076, 192.0, 0.0, 0.0, 0.0, 0.0, 0.0, 0.0, 0.0, 0.0, 0.0, 1.666403358082961E9, 0.0, 2022-10-21 18:49:18.082
