%OpenBCI Raw EEG Data
%Number of channels = 8
%Sample Rate = 250 Hz
%Board = OpenBCI_GUI$BoardCytonSerial
Sample Index, EXG Channel 0, EXG Channel 1, EXG Channel 2, EXG Channel 3, EXG Channel 4, EXG Channel 5, EXG Channel 6, EXG Channel 7, Accel Channel 0, Accel Channel 1, Accel Channel 2, Other, Other, Other, Other, Other, Other, Other, Analog Channel 0, Analog Channel 1, Analog Channel 2, Timestamp, Other, Timestamp (Formatted)
84.0, -81546.33868293032, -113866.5811856486, 46704.32766727539, 42439.74893566954, 61418.92807709314, 100044.64239414244, 61427.6005539418, 63042.29057339318, 0.0, 0.0, 0.0, 192.0, 0.0, 0.0, 0.0, 0.0, 0.0, 0.0, 0.0, 0.0, 0.0, 1.666556422942165E9, 0.0, 2022-10-23 13:20:22.942
85.0, -81576.73705538953, -113894.67732842891, 47534.650270301136, 42577.07805360294, 61529.27863946899, 100468.63263471516, 62044.75457009728, 63771.940919392226, 0.0, 0.0, 0.0, 192.0, 0.0, 0.0, 0.0, 0.0, 0.0, 0.0, 0.0, 0.0, 0.0, 1.6665564229421835E9, 0.0, 2022-10-23 13:20:22.942
86.0, -81587.71176191709, -113902.45573549936, 49535.51137870686, 42570.327826777444, 61545.729523388094, 101177.29469267068, 63251.61466021713, 64846.366923614376, 0.0, 0.0, 0.0, 192.0, 0.0, 0.0, 0.0, 0.0, 0.0, 0.0, 0.0, 0.0, 0.0, 1.6665564229421916E9, 0.0, 2022-10-23 13:20:22.942
87.0, -81530.37953738924, -113850.48792964077, 48154.37473706898, 42311.941660874094, 61337.970058676015, 100502.13789965367, 62257.81139824527, 63694.067441709936, 0.0, 0.0, 0.0, 192.0, 0.0, 0.0, 0.0, 0.0, 0.0, 0.0, 0.0, 0.0, 0.0, 1.6665564229421997E9, 0.0, 2022-10-23 13:20:22.942
88.0, -81541.30954042787, -113859.69684835635, 46740.80571422645, 42432.23874953255, 61410.50146943349, 100049.69388838935, 61433.65787668918, 63020.09529114906, 0.05, 0.9500000000000001, 0.114, 192.0, 1.0, 144.0, 29.0, 176.0, 3.0, 144.0, 0.0, 0.0, 0.0, 1.6665564229422076E9, 0.0, 2022-10-23 13:20:22.942
89.0, -81574.34541873282, -113888.84352312608, 47224.25159505029, 42556.22387602614, 61517.36515967431, 100348.24613907888, 61845.354657811484, 63565.74607679201, 0.05, 0.9500000000000001, 0.114, 192.0, 0.0, 0.0, 0.0, 0.0, 0.0, 0.0, 0.0, 0.0, 0.0, 1.6665564229422176E9, 0.0, 2022-10-23 13:20:22.942
90.0, -81600.5640149789, -113915.86678217254, 49316.352524322574, 42609.1081034074, 61574.31740454643, 101127.53970951316, 63142.471092041866, 64778.2388065146, 0.05, 0.9500000000000001, 0.114, 192.0, 0.0, 0.0, 0.0, 0.0, 0.0, 0.0, 0.0, 0.0, 0.0, 1.666556422942226E9, 0.0, 2022-10-23 13:20:22.942
91.0, -81534.6487205802, -113857.48402565529, 48596.6710563506, 42332.482914028515, 61379.276082429424, 100698.3191607379, 62555.782503578965, 63993.51376217768, 0.05, 0.9500000000000001, 0.114, 192.0, 0.0, 0.0, 0.0, 0.0, 0.0, 0.0, 0.0, 0.0, 0.0, 1.6665564229422345E9, 0.0, 2022-10-23 13:20:22.942
92.0, -81534.60401709127, -113857.68519135538, 46824.580052444944, 42393.167900224675, 61387.032137755414, 100064.82601938558, 61471.09704865183, 63020.36351208252, 0.05, 0.9500000000000001, 0.114, 192.0, 0.0, 0.0, 0.0, 0.0, 0.0, 0.0, 0.0, 0.0, 0.0, 1.6665564229422424E9, 0.0, 2022-10-23 13:20:22.942
93.0, -81573.29488674342, -113892.21863653883, 46987.63602824641, 42508.681715569706, 61484.0610604359, 100238.99081218134, 61677.1577807853, 63386.12745834917, 0.05, 0.9500000000000001, 0.114, 192.0, 0.0, 0.0, 0.0, 0.0, 0.0, 0.0, 0.0, 0.0, 0.0, 1.6665564229422503E9, 0.0, 2022-10-23 13:20:22.942
94.0, -81607.94009064915, -113921.56647700864, 48976.89658127983, 42617.62411804487, 61577.46900051463, 101014.52928954712, 62945.105188501504, 64626.55986864089, 0.05, 0.9500000000000001, 0.114, 192.0, 0.0, 0.0, 0.0, 0.0, 0.0, 0.0, 0.0, 0.0, 0.0, 1.6665564229422581E9, 0.0, 2022-10-23 13:20:22.942
95.0, -81552.28424695543, -113871.31975547312, 48977.50007838012, 42358.14271666321, 61391.77070757994, 100846.1088950764, 62805.630303100384, 64271.12242831259, 0.05, 0.9500000000000001, 0.114, 192.0, 0.0, 0.0, 0.0, 0.0, 0.0, 0.0, 0.0, 0.0, 0.0, 1.6665564229422662E9, 0.0, 2022-10-23 13:20:22.942
96.0, -81538.18029620413, -113858.44515066686, 46938.48454218919, 42367.016359211964, 61365.52975958941, 100074.66078694593, 61521.07554925389, 63049.59959383006, 0.05, 0.9500000000000001, 0.114, 192.0, 0.0, 0.0, 0.0, 0.0, 0.0, 0.0, 0.0, 0.0, 0.0, 1.666556422942274E9, 0.0, 2022-10-23 13:20:22.942
97.0, -81571.57380242036, -113889.53642720419, 46817.49454945261, 42495.65064855226, 61473.533388797456, 100155.48469489631, 61554.3796484923, 63250.85470090565, 0.05, 0.9500000000000001, 0.114, 192.0, 0.0, 0.0, 0.0, 0.0, 0.0, 0.0, 0.0, 0.0, 0.0, 1.666556422942282E9, 0.0, 2022-10-23 13:20:22.942
98.0, -81609.81763718338, -113929.3448840791, 48569.84896300423, 42636.041955476045, 61586.25323608557, 100879.59180827044, 62705.181563518236, 64416.52052599437, 0.052000000000000005, 0.9520000000000001, 0.114, 192.0, 1.0, 160.0, 29.0, 192.0, 3.0, 144.0, 0.0, 0.0, 0.0, 1.66655642294229E9, 0.0, 2022-10-23 13:20:22.942
99.0, -81566.6564186402, -113891.883360372, 49292.883192644505, 42424.79561862894, 61445.92898439515, 100999.41951029534, 63027.873698219504, 64528.212193037536, 0.052000000000000005, 0.9520000000000001, 0.114, 192.0, 0.0, 0.0, 0.0, 0.0, 0.0, 0.0, 0.0, 0.0, 0.0, 1.6665564229422987E9, 0.0, 2022-10-23 13:20:22.942
100.0, -81533.55348510189, -113858.4227989224, 47178.899905550476, 42351.995986938, 61361.037058953894, 100157.20577921937, 61662.31622246698, 63161.3583161066, 0.052000000000000005, 0.9520000000000001, 0.114, 192.0, 0.0, 0.0, 0.0, 0.0, 0.0, 0.0, 0.0, 0.0, 0.0, 1.6665564229424095E9, 0.0, 2022-10-23 13:20:22.942
101.0, -81553.93827604513, -113874.40429620795, 46739.26344385904, 42498.109340442345, 61476.21559813209, 100111.4294065749, 61489.71605178309, 63168.5108743323, 0.052000000000000005, 0.9520000000000001, 0.114, 192.0, 0.0, 0.0, 0.0, 0.0, 0.0, 0.0, 0.0, 0.0, 0.0, 1.666556422942418E9, 0.0, 2022-10-23 13:20:22.942
102.0, -81595.9595556211, -113913.07281411563, 48166.10940290802, 42630.38696412885, 61590.1871431097, 100736.58534724539, 62461.74871465549, 64193.98655819733, 0.052000000000000005, 0.9520000000000001, 0.114, 192.0, 0.0, 0.0, 0.0, 0.0, 0.0, 0.0, 0.0, 0.0, 0.0, 1.6665564229424262E9, 0.0, 2022-10-23 13:20:22.942
103.0, -81581.63208742524, -113902.45573549936, 49538.93119560852, 42466.48162203808, 61487.54793257093, 101133.23940434927, 63217.684712133974, 64744.91235553174, 0.052000000000000005, 0.9520000000000001, 0.114, 192.0, 0.0, 0.0, 0.0, 0.0, 0.0, 0.0, 0.0, 0.0, 0.0, 1.666556422942434E9, 0.0, 2022-10-23 13:20:22.942
104.0, -81533.62054033525, -113856.4781971548, 47494.394778537135, 42310.66761144014, 61325.117805614216, 100247.99856519683, 61843.81238744407, 63311.025596979336, 0.052000000000000005, 0.9520000000000001, 0.114, 192.0, 0.0, 0.0, 0.0, 0.0, 0.0, 0.0, 0.0, 0.0, 0.0, 1.666556422942442E9, 0.0, 2022-10-23 13:20:22.942
105.0, -81560.66615112616, -113881.55685443364, 46702.98656260807, 42459.28436032347, 61435.08838833433, 100061.69677516184, 61439.201109314105, 63090.54798967219, 0.052000000000000005, 0.9520000000000001, 0.114, 192.0, 0.0, 0.0, 0.0, 0.0, 0.0, 0.0, 0.0, 0.0, 0.0, 1.66655642294245E9, 0.0, 2022-10-23 13:20:22.942
106.0, -81591.84683464133, -113907.37311927952, 47765.65554924674, 42596.81464395698, 61548.188215278176, 100567.7849731189, 62199.383938239094, 63939.42254059584, 0.052000000000000005, 0.9520000000000001, 0.114, 192.0, 0.0, 0.0, 0.0, 0.0, 0.0, 0.0, 0.0, 0.0, 0.0, 1.6665564229424603E9, 0.0, 2022-10-23 13:20:22.942
107.0, -81591.48920673004, -113909.00479662477, 49577.264437349375, 42538.83421883991, 61529.34569470235, 101169.53863734468, 63262.499959766865, 64843.52825206856, 0.052000000000000005, 0.9520000000000001, 0.114, 192.0, 0.0, 0.0, 0.0, 0.0, 0.0, 0.0, 0.0, 0.0, 0.0, 1.6665564229424684E9, 0.0, 2022-10-23 13:20:22.942
108.0, -81534.0452234799, -113856.34408668806, 47880.54351574701, 42321.105876100766, 61348.00599193645, 100393.35195938969, 62085.32298628366, 63544.89189921521, 0.044, 0.9500000000000001, 0.11800000000000001, 192.0, 1.0, 96.0, 29.0, 176.0, 3.0, 176.0, 0.0, 0.0, 0.0, 1.6665564229424765E9, 0.0, 2022-10-23 13:20:22.942
109.0, -81552.68657835563, -113874.44899969686, 46721.31499306142, 42453.986996887565, 61434.61900170076, 100056.80174312613, 61436.58595521283, 63055.567509599634, 0.044, 0.9500000000000001, 0.11800000000000001, 192.0, 0.0, 0.0, 0.0, 0.0, 0.0, 0.0, 0.0, 0.0, 0.0, 1.666556422942485E9, 0.0, 2022-10-23 13:20:22.942
110.0, -81590.84100614084, -113908.71422394684, 47406.84299550569, 42570.596047710904, 61523.4224824217, 100417.62595386815, 61961.4719702568, 63700.974130746625, 0.044, 0.9500000000000001, 0.11800000000000001, 192.0, 0.0, 0.0, 0.0, 0.0, 0.0, 0.0, 0.0, 0.0, 0.0, 1.6665564229424932E9, 0.0, 2022-10-23 13:20:22.942
111.0, -81609.8623406723, -113923.80165145418, 49467.8749999851, 42586.957524652185, 61555.60899443734, 101159.77092501771, 63217.1706220115, 64845.2046329027, 0.044, 0.9500000000000001, 0.11800000000000001, 192.0, 0.0, 0.0, 0.0, 0.0, 0.0, 0.0, 0.0, 0.0, 0.0, 1.6665564229425013E9, 0.0, 2022-10-23 13:20:22.942
112.0, -81542.62829335073, -113860.45680766784, 48309.58525056663, 42321.48585575651, 61347.5813087918, 100556.2291212355, 62355.421466281594, 63812.419928600786, 0.044, 0.9500000000000001, 0.11800000000000001, 192.0, 0.0, 0.0, 0.0, 0.0, 0.0, 0.0, 0.0, 0.0, 0.0, 1.6665564229425092E9, 0.0, 2022-10-23 13:20:22.942
113.0, -81547.85860155328, -113863.51899665821, 46759.1341446798, 42428.03662157495, 61408.981550810524, 100038.09333301704, 61432.92026912216, 63028.32073310861, 0.044, 0.9500000000000001, 0.11800000000000001, 192.0, 0.0, 0.0, 0.0, 0.0, 0.0, 0.0, 0.0, 0.0, 0.0, 1.6665564229425173E9, 0.0, 2022-10-23 13:20:22.942
114.0, -81582.86143337029, -113898.8347528976, 47132.20711138334, 42536.33082346092, 61505.65284557973, 100296.43479543147, 61772.75619182065, 63510.38080577622, 0.044, 0.9500000000000001, 0.11800000000000001, 192.0, 0.0, 0.0, 0.0, 0.0, 0.0, 0.0, 0.0, 0.0, 0.0, 1.666556422942526E9, 0.0, 2022-10-23 13:20:22.942
115.0, -81605.52610224797, -113924.42750029893, 49203.655028778914, 42623.14499892533, 61578.877160415315, 101072.86734257548, 63065.17875971541, 64744.018285753526, 0.044, 0.9500000000000001, 0.11800000000000001, 192.0, 0.0, 0.0, 0.0, 0.0, 0.0, 0.0, 0.0, 0.0, 0.0, 1.6665564229425633E9, 0.0, 2022-10-23 13:20:22.942
116.0, -81547.47862189754, -113869.95629906135, 48735.18481674014, 42349.11261190326, 61378.96315800705, 100722.16847207172, 62627.77747246951, 64098.410498906436, 0.044, 0.9500000000000001, 0.11800000000000001, 192.0, 0.0, 0.0, 0.0, 0.0, 0.0, 0.0, 0.0, 0.0, 0.0, 1.6665564229425716E9, 0.0, 2022-10-23 13:20:22.942
117.0, -81542.31536892836, -113862.1778919909, 46837.856988651394, 42399.78401658345, 61379.81252429635, 100022.29064968713, 61448.991173385526, 63019.357683582035, 0.044, 0.9500000000000001, 0.11800000000000001, 192.0, 0.0, 0.0, 0.0, 0.0, 0.0, 0.0, 0.0, 0.0, 0.0, 1.6665564229425795E9, 0.0, 2022-10-23 13:20:22.942
118.0, -81577.74288389002, -113896.01843309624, 46914.29995468855, 42529.04415476849, 61495.326339641375, 100180.87627659754, 61609.65551253028, 63345.80491135179, 0.05, 0.9500000000000001, 0.114, 192.0, 1.0, 144.0, 29.0, 176.0, 3.0, 144.0, 0.0, 0.0, 0.0, 1.6665564229425876E9, 0.0, 2022-10-23 13:20:22.942
119.0, -81616.76902970899, -113936.47509056033, 48851.883274541295, 42639.327661910975, 61594.679843745216, 100961.57800693251, 62864.68361195131, 64581.63286228572, 0.05, 0.9500000000000001, 0.114, 192.0, 0.0, 0.0, 0.0, 0.0, 0.0, 0.0, 0.0, 0.0, 0.0, 1.6665564229425962E9, 0.0, 2022-10-23 13:20:22.942
120.0, -81568.46690994107, -113891.39162199399, 49131.1459697659, 42386.66354258818, 61421.31971374986, 100900.66950329179, 62901.273417624645, 64397.16391529607, 0.05, 0.9500000000000001, 0.114, 192.0, 0.0, 0.0, 0.0, 0.0, 0.0, 0.0, 0.0, 0.0, 0.0, 1.6665564229426043E9, 0.0, 2022-10-23 13:20:22.942
121.0, -81540.01313924947, -113863.58605189157, 47041.92841552835, 42366.07758594485, 61368.01080322395, 100092.89981042146, 61571.85871265635, 63105.18838229041, 0.05, 0.9500000000000001, 0.114, 192.0, 0.0, 0.0, 0.0, 0.0, 0.0, 0.0, 0.0, 0.0, 0.0, 1.6665564229426122E9, 0.0, 2022-10-23 13:20:22.942
122.0, -81568.26574424097, -113891.61513943854, 46819.43915122023, 42503.071427711424, 61483.14463891323, 100139.01145923274, 61544.477825698596, 63247.52429098181, 0.05, 0.9500000000000001, 0.114, 192.0, 0.0, 0.0, 0.0, 0.0, 0.0, 0.0, 0.0, 0.0, 0.0, 1.66655642294262E9, 0.0, 2022-10-23 13:20:22.942
123.0, -81598.01591611099, -113922.41584329795, 48455.54214185979, 42640.177028200276, 61590.72358497663, 100828.11574078987, 62631.39845507127, 64357.981307265916, 0.05, 0.9500000000000001, 0.114, 192.0, 0.0, 0.0, 0.0, 0.0, 0.0, 0.0, 0.0, 0.0, 0.0, 1.666556422942628E9, 0.0, 2022-10-23 13:20:22.942
124.0, -81561.38140694874, -113891.21280803834, 49429.184130332964, 42451.483601508575, 61467.25254860551, 101049.68858357532, 63116.945399873905, 64633.22068848857, 0.05, 0.9500000000000001, 0.114, 192.0, 0.0, 0.0, 0.0, 0.0, 0.0, 0.0, 0.0, 0.0, 0.0, 1.666556422942636E9, 0.0, 2022-10-23 13:20:22.942
125.0, -81533.10645021277, -113862.06613326861, 47300.26987794279, 42337.55676001987, 61346.217852380025, 100168.13578225802, 61719.044949894545, 63212.94614230945, 0.05, 0.9500000000000001, 0.114, 192.0, 0.0, 0.0, 0.0, 0.0, 0.0, 0.0, 0.0, 0.0, 0.0, 1.666556422942644E9, 0.0, 2022-10-23 13:20:22.942
126.0, -81564.06361628338, -113887.63652892549, 46717.80576918194, 42476.33874134287, 61445.79487392842, 100058.61223442701, 61450.60049898631, 63123.85208891059, 0.05, 0.9500000000000001, 0.114, 192.0, 0.0, 0.0, 0.0, 0.0, 0.0, 0.0, 0.0, 0.0, 0.0, 1.666556422942652E9, 0.0, 2022-10-23 13:20:22.942
127.0, -81605.34728829232, -113930.75304397977, 47996.191441558774, 42619.07698143447, 61566.494293987074, 100634.5496338069, 62337.54007071735, 64081.73609754278, 0.05, 0.9500000000000001, 0.11, 192.0, 1.0, 144.0, 29.0, 176.0, 3.0, 112.0, 0.0, 0.0, 0.0, 1.666556422942661E9, 0.0, 2022-10-23 13:20:22.942
128.0, -81590.86335788529, -113919.13013686302, 49569.441326790016, 42510.08987547039, 61510.05613923742, 101127.96439265781, 63237.689523421475, 64793.43799274421, 0.05, 0.9500000000000001, 0.11, 192.0, 0.0, 0.0, 0.0, 0.0, 0.0, 0.0, 0.0, 0.0, 0.0, 1.6665564229426694E9, 0.0, 2022-10-23 13:20:22.942
129.0, -81529.95485424458, -113859.71920010081, 47637.8929779402, 42332.907597173165, 61346.95545994705, 100279.93920802345, 61931.073597797586, 63401.72897597897, 0.05, 0.9500000000000001, 0.11, 192.0, 0.0, 0.0, 0.0, 0.0, 0.0, 0.0, 0.0, 0.0, 0.0, 1.6665564229426775E9, 0.0, 2022-10-23 13:20:22.942
130.0, -81557.17927899114, -113886.54129344718, 46684.38991122126, 42459.84315393486, 61432.003847599495, 100016.18862345084, 61413.049568301394, 63061.42366664692, 0.05, 0.9500000000000001, 0.11, 192.0, 0.0, 0.0, 0.0, 0.0, 0.0, 0.0, 0.0, 0.0, 0.0, 1.6665564229426856E9, 0.0, 2022-10-23 13:20:22.942
131.0, -81598.1053230888, -113924.96394216585, 47583.734701124995, 42586.51048976308, 61538.889889584774, 100458.21672179899, 62069.47559946485, 63824.53457409556, 0.05, 0.9500000000000001, 0.11, 192.0, 0.0, 0.0, 0.0, 0.0, 0.0, 0.0, 0.0, 0.0, 0.0, 1.6665564229427204E9, 0.0, 2022-10-23 13:20:22.942
132.0, -81599.53583473395, -113928.89784918999, 49542.596881699195, 42557.22970452663, 61540.40980820773, 101145.06347716611, 63246.71962818142, 64854.39119987383, 0.05, 0.9500000000000001, 0.11, 192.0, 0.0, 0.0, 0.0, 0.0, 0.0, 0.0, 0.0, 0.0, 0.0, 1.6665564229427288E9, 0.0, 2022-10-23 13:20:22.942
133.0, -81529.75368854449, -113862.53551990219, 48016.97856390221, 42315.160312075655, 61334.41613130762, 100411.83685205423, 62164.425809910994, 63630.61083920132, 0.05, 0.9500000000000001, 0.11, 192.0, 0.0, 0.0, 0.0, 0.0, 0.0, 0.0, 0.0, 0.0, 0.0, 1.6665564229427366E9, 0.0, 2022-10-23 13:20:22.942
134.0, -81545.46696489656, -113875.20895900833, 46729.07104838742, 42450.522476497, 61424.516013206965, 100025.03991425513, 61432.003847599495, 63054.53932935469, 0.05, 0.9500000000000001, 0.11, 192.0, 0.0, 0.0, 0.0, 0.0, 0.0, 0.0, 0.0, 0.0, 0.0, 1.6665564229427447E9, 0.0, 2022-10-23 13:20:22.942
135.0, -81590.63984044074, -113917.16318335095, 47317.726590362385, 42568.67379768775, 61519.55563063093, 100366.50751429886, 61907.47015565279, 63652.247327834055, 0.05, 0.9500000000000001, 0.11, 192.0, 0.0, 0.0, 0.0, 0.0, 0.0, 0.0, 0.0, 0.0, 0.0, 1.6665564229427528E9, 0.0, 2022-10-23 13:20:22.942
136.0, -81608.11890460478, -113933.63641901451, 49409.9616301014, 42605.5094725501, 61559.27468052801, 101131.65243049293, 63193.567179866695, 64836.73332175414, 0.05, 0.9500000000000001, 0.11, 192.0, 0.0, 0.0, 0.0, 0.0, 0.0, 0.0, 0.0, 0.0, 0.0, 1.6665564229427607E9, 0.0, 2022-10-23 13:20:22.942
137.0, -81547.79154631992, -113875.99127006427, 48491.97548532194, 42332.25939658396, 61348.587137292285, 100609.51568001696, 62474.80213341739, 63927.44200556779, 0.048, 0.9460000000000001, 0.11, 192.0, 1.0, 128.0, 29.0, 144.0, 3.0, 112.0, 0.0, 0.0, 0.0, 1.6665564229427688E9, 0.0, 2022-10-23 13:20:22.942
138.0, -81556.3522644463, -113878.49466544327, 46818.05334306399, 42413.932670823655, 61380.818352796836, 100026.22455671127, 61462.178702614154, 63033.551041311155, 0.048, 0.9460000000000001, 0.11, 192.0, 0.0, 0.0, 0.0, 0.0, 0.0, 0.0, 0.0, 0.0, 0.0, 1.6665564229427776E9, 0.0, 2022-10-23 13:20:22.942
139.0, -81585.25307002701, -113904.75796517826, 47065.487154184244, 42526.83133206741, 61486.27388313698, 100237.13561739154, 61720.3189993285, 63445.76191255593, 0.048, 0.9460000000000001, 0.11, 192.0, 0.0, 0.0, 0.0, 0.0, 0.0, 0.0, 0.0, 0.0, 0.0, 1.6665564229427853E9, 0.0, 2022-10-23 13:20:22.942
140.0, -81612.67866047367, -113934.75400623727, 49115.41034166937, 42630.47637110667, 61583.280454073014, 101037.3951241249, 63022.62103827251, 64704.165125389714, 0.048, 0.9460000000000001, 0.11, 192.0, 0.0, 0.0, 0.0, 0.0, 0.0, 0.0, 0.0, 0.0, 0.0, 1.6665564229427931E9, 0.0, 2022-10-23 13:20:22.942
141.0, -81551.12195624375, -113877.57824392061, 48927.2980603335, 42368.648036557206, 61393.2906262029, 100795.25867644057, 62760.92681418978, 64231.00104701532, 0.048, 0.9460000000000001, 0.11, 192.0, 0.0, 0.0, 0.0, 0.0, 0.0, 0.0, 0.0, 0.0, 0.0, 1.6665564229428024E9, 0.0, 2022-10-23 13:20:22.942
142.0, -81541.57776136133, -113864.43541818087, 46944.407754469845, 42391.73738857954, 61379.52195161843, 100053.60544366902, 61519.26505795301, 63067.70450683886, 0.048, 0.9460000000000001, 0.11, 192.0, 0.0, 0.0, 0.0, 0.0, 0.0, 0.0, 0.0, 0.0, 0.0, 1.6665564229428103E9, 0.0, 2022-10-23 13:20:22.942
143.0, -81581.40856998069, -113899.90763663145, 46890.785919521564, 42496.4776630971, 61469.28655735095, 100151.66254659445, 61590.343605320886, 63307.4940213554, 0.048, 0.9460000000000001, 0.11, 192.0, 0.0, 0.0, 0.0, 0.0, 0.0, 0.0, 0.0, 0.0, 0.0, 1.6665564229428184E9, 0.0, 2022-10-23 13:20:22.942
144.0, -81605.79432318143, -113923.62283749854, 48707.26748791546, 42640.75817355611, 61584.33098606241, 100891.23706713166, 62774.7178405187, 64498.52907640089, 0.048, 0.9460000000000001, 0.11, 192.0, 0.0, 0.0, 0.0, 0.0, 0.0, 0.0, 0.0, 0.0, 0.0, 1.6665564229428265E9, 0.0, 2022-10-23 13:20:22.942
145.0, -81559.43680518113, -113881.40039222247, 49258.90854107244, 42422.35927848331, 61438.083522091336, 100941.66260262283, 62987.86407564451, 64496.56212288882, 0.048, 0.9460000000000001, 0.11, 192.0, 0.0, 0.0, 0.0, 0.0, 0.0, 0.0, 0.0, 0.0, 0.0, 1.6665564229428344E9, 0.0, 2022-10-23 13:20:22.942
146.0, -81534.000519991, -113855.0700372541, 47099.886488900964, 42359.617931797264, 61348.96711694803, 100078.21471431431, 61592.087041388404, 63126.64605696751, 0.048, 0.9460000000000001, 0.11, 192.0, 0.0, 0.0, 0.0, 0.0, 0.0, 0.0, 0.0, 0.0, 0.0, 1.666556422942851E9, 0.0, 2022-10-23 13:20:22.942
147.0, -81565.62823839525, -113883.25558701225, 46759.9388074802, 42499.226927665106, 61469.890054451236, 100088.31770280811, 61493.247627407036, 63208.27462771829, 0.048, 0.9520000000000001, 0.11, 192.0, 1.0, 128.0, 29.0, 192.0, 3.0, 112.0, 0.0, 0.0, 0.0, 1.6665564229428587E9, 0.0, 2022-10-23 13:20:22.942
148.0, -81604.14029409175, -113922.08056713112, 48276.9964071508, 42641.20520844522, 61589.158962864756, 100748.05179215096, 62516.3093228709, 64278.02911734929, 0.048, 0.9520000000000001, 0.11, 192.0, 0.0, 0.0, 0.0, 0.0, 0.0, 0.0, 0.0, 0.0, 0.0, 1.6665564229428682E9, 0.0, 2022-10-23 13:20:22.942
149.0, -81584.76133164899, -113908.04367161318, 49507.79521558228, 42468.85090695035, 61483.63637729125, 101085.49607819272, 63173.919996490484, 64731.25543966955, 0.048, 0.9520000000000001, 0.11, 192.0, 0.0, 0.0, 0.0, 0.0, 0.0, 0.0, 0.0, 0.0, 0.0, 1.666556422942876E9, 0.0, 2022-10-23 13:20:22.942
150.0, -81534.67107232465, -113859.20510997834, 47405.21131816046, 42332.28174832842, 61338.81942496532, 100191.649817425, 61770.565720864026, 63284.22585537742, 0.048, 0.9520000000000001, 0.11, 192.0, 0.0, 0.0, 0.0, 0.0, 0.0, 0.0, 0.0, 0.0, 0.0, 1.666556422942884E9, 0.0, 2022-10-23 13:20:22.942
151.0, -81567.59519190731, -113883.85908411254, 46698.404454994736, 42478.90919195524, 61450.28757456393, 100042.87660633048, 61422.59376318381, 63120.83460340913, 0.048, 0.9520000000000001, 0.11, 192.0, 0.0, 0.0, 0.0, 0.0, 0.0, 0.0, 0.0, 0.0, 0.0, 1.666556422942892E9, 0.0, 2022-10-23 13:20:22.942
152.0, -81603.7156109471, -113917.36434905104, 47852.536779944516, 42613.01965868707, 61564.10265733036, 100584.05704308237, 62237.11368287965, 64019.19591655683, 0.048, 0.9520000000000001, 0.11, 192.0, 0.0, 0.0, 0.0, 0.0, 0.0, 0.0, 0.0, 0.0, 0.0, 1.6665564229429E9, 0.0, 2022-10-23 13:20:22.942
153.0, -81596.85362539931, -113916.5373345062, 49592.73184451245, 42529.80411407997, 61522.61781962131, 101153.1771604034, 63251.033514861294, 64862.19195868874, 0.048, 0.9520000000000001, 0.11, 192.0, 0.0, 0.0, 0.0, 0.0, 0.0, 0.0, 0.0, 0.0, 0.0, 1.666556422942908E9, 0.0, 2022-10-23 13:20:22.942
154.0, -81546.45044165259, -113869.55396766115, 47793.70698853815, 42312.65691669666, 61330.683389983584, 100339.41720001903, 62013.707997048856, 63514.85115466728, 0.048, 0.9520000000000001, 0.11, 192.0, 0.0, 0.0, 0.0, 0.0, 0.0, 0.0, 0.0, 0.0, 0.0, 1.666556422942916E9, 0.0, 2022-10-23 13:20:22.942
155.0, -81561.2025929931, -113883.16618003443, 46689.19553627915, 42455.28339806598, 61418.81631837086, 100012.83586178254, 61394.05058551438, 63067.793913816684, 0.048, 0.9520000000000001, 0.11, 192.0, 0.0, 0.0, 0.0, 0.0, 0.0, 0.0, 0.0, 0.0, 0.0, 1.6665564229429235E9, 0.0, 2022-10-23 13:20:22.942
156.0, -81590.72924741855, -113910.99410188128, 47474.2558567829, 42592.09842587691, 61543.13672103128, 100426.03020978335, 61991.132735148996, 63778.42292528426, 0.046, 0.9500000000000001, 0.108, 192.0, 1.0, 112.0, 29.0, 176.0, 3.0, 96.0, 0.0, 0.0, 0.0, 1.6665564229429317E9, 0.0, 2022-10-23 13:20:22.942
157.0, -81600.54166323444, -113918.2360670848, 49514.14311100759, 42591.159652609786, 61563.81208465244, 101159.81562850662, 63233.062712319224, 64889.50579041312, 0.046, 0.9500000000000001, 0.108, 192.0, 0.0, 0.0, 0.0, 0.0, 0.0, 0.0, 0.0, 0.0, 0.0, 1.6665564229429405E9, 0.0, 2022-10-23 13:20:22.942
158.0, -81539.47669738253, -113860.99324953476, 48187.41061537393, 42333.71225997356, 61344.49676805697, 100491.99020767095, 62264.695735537505, 63762.73200067664, 0.046, 0.9500000000000001, 0.108, 192.0, 0.0, 0.0, 0.0, 0.0, 0.0, 0.0, 0.0, 0.0, 0.0, 1.6665564229429483E9, 0.0, 2022-10-23 13:20:22.942
159.0, -81554.63118012324, -113875.14190377497, 46727.17115010872, 42441.44766824814, 61412.60253341228, 100016.27803042866, 61406.50050717599, 63050.56071884164, 0.046, 0.9500000000000001, 0.108, 192.0, 0.0, 0.0, 0.0, 0.0, 0.0, 0.0, 0.0, 0.0, 0.0, 1.6665564229429562E9, 0.0, 2022-10-23 13:20:22.942
160.0, -81600.72047719009, -113915.91148566145, 47171.412071157945, 42544.93624507621, 61502.41184263371, 100296.81477508722, 61788.69298561728, 63571.13284720574, 0.046, 0.9500000000000001, 0.108, 192.0, 0.0, 0.0, 0.0, 0.0, 0.0, 0.0, 0.0, 0.0, 0.0, 1.6665564229429643E9, 0.0, 2022-10-23 13:20:22.942
161.0, -81623.09457338984, -113937.21269812736, 49287.25055304177, 42616.64064128884, 61575.41264002474, 101097.65542717642, 63111.558629460174, 64817.22024884466, 0.046, 0.9500000000000001, 0.108, 192.0, 0.0, 0.0, 0.0, 0.0, 0.0, 0.0, 0.0, 0.0, 0.0, 1.6665564229429722E9, 0.0, 2022-10-23 13:20:22.942
162.0, -81552.48541265553, -113871.38681070648, 48634.02082133542, 42338.69669898709, 61367.34025089029, 100672.12291623627, 62555.62604136778, 64060.9713269438, 0.046, 0.9500000000000001, 0.108, 192.0, 0.0, 0.0, 0.0, 0.0, 0.0, 0.0, 0.0, 0.0, 0.0, 1.6665564229429877E9, 0.0, 2022-10-23 13:20:22.942
163.0, -81563.28130522744, -113879.88047359949, 46826.12232281236, 42396.72182759307, 61381.26538768595, 100022.53651887615, 61446.64424021772, 63057.109779967046, 0.046, 0.9500000000000001, 0.108, 192.0, 0.0, 0.0, 0.0, 0.0, 0.0, 0.0, 0.0, 0.0, 0.0, 1.6665564229429953E9, 0.0, 2022-10-23 13:20:22.942
164.0, -81600.31814578989, -113917.05142462868, 46983.769176455644, 42517.57770986292, 61480.0600981784, 100211.16289033448, 61659.94693755471, 63419.56566805431, 0.046, 0.9500000000000001, 0.108, 192.0, 0.0, 0.0, 0.0, 0.0, 0.0, 0.0, 0.0, 0.0, 0.0, 1.6665564229430032E9, 0.0, 2022-10-23 13:20:22.943
165.0, -81623.72042223459, -113942.75593075228, 48942.18432214073, 42636.757211298616, 61572.797485923475, 100975.21257105024, 62908.94006597282, 64643.8601188493, 0.046, 0.9500000000000001, 0.108, 192.0, 0.0, 0.0, 0.0, 0.0, 0.0, 0.0, 0.0, 0.0, 0.0, 1.6665564229430108E9, 0.0, 2022-10-23 13:20:22.943
166.0, -81570.54562217541, -113893.44798248386, 49029.26671853861, 42379.48863261803, 61397.33629194931, 100836.4976449606, 62818.7284253512, 64341.15044369107, 0.046, 0.9560000000000001, 0.106, 192.0, 1.0, 112.0, 29.0, 224.0, 3.0, 80.0, 0.0, 0.0, 0.0, 1.6665564229430187E9, 0.0, 2022-10-23 13:20:22.943
167.0, -81552.93244754463, -113869.3304502166, 46960.411603499844, 42375.062987215875, 61359.651250797666, 100047.32460347709, 61509.251476437035, 63089.22923674932, 0.046, 0.9560000000000001, 0.106, 192.0, 0.0, 0.0, 0.0, 0.0, 0.0, 0.0, 0.0, 0.0, 0.0, 1.6665564229430273E9, 0.0, 2022-10-23 13:20:22.943
168.0, -81584.78368339344, -113902.14281107698, 46801.513052167065, 42505.172491690224, 61467.69958349462, 100116.6820665219, 61522.28254345448, 63275.62043376213, 0.046, 0.9560000000000001, 0.106, 192.0, 0.0, 0.0, 0.0, 0.0, 0.0, 0.0, 0.0, 0.0, 0.0, 1.6665564229430351E9, 0.0, 2022-10-23 13:20:22.943
169.0, -81615.49498027503, -113934.15050913699, 48514.66250594408, 42641.3169671675, 61573.356279534855, 100831.11087454688, 62655.471283849634, 64426.89173542163, 0.046, 0.9560000000000001, 0.106, 192.0, 0.0, 0.0, 0.0, 0.0, 0.0, 0.0, 0.0, 0.0, 0.0, 1.6665564229430428E9, 0.0, 2022-10-23 13:20:22.943
170.0, -81584.13548280424, -113904.19917156687, 49350.707155550386, 42436.84320889035, 61439.93871688113, 101004.7392254757, 63056.03689623319, 64613.72996732354, 0.046, 0.9560000000000001, 0.106, 192.0, 0.0, 0.0, 0.0, 0.0, 0.0, 0.0, 0.0, 0.0, 0.0, 1.6665564229430516E9, 0.0, 2022-10-23 13:20:22.943
171.0, -81559.12388075875, -113877.08650554258, 47197.29539123719, 42344.95518743458, 61323.03909337987, 100125.77922651521, 61648.97223102716, 63201.189124725955, 0.046, 0.9560000000000001, 0.106, 192.0, 0.0, 0.0, 0.0, 0.0, 0.0, 0.0, 0.0, 0.0, 0.0, 1.6665564229430597E9, 0.0, 2022-10-23 13:20:22.943
172.0, -81587.24237528353, -113898.05244184166, 46700.147891062246, 42493.52723282901, 61441.61509771527, 100061.00387108373, 61439.31286803638, 63173.294147645734, 0.046, 0.9560000000000001, 0.106, 192.0, 0.0, 0.0, 0.0, 0.0, 0.0, 0.0, 0.0, 0.0, 0.0, 1.6665564229430673E9, 0.0, 2022-10-23 13:20:22.943
173.0, -81623.74277397904, -113937.74913999428, 48058.23988416671, 42629.49289435064, 61555.29607001496, 100658.62246258528, 62367.49140828746, 64165.577490994634, 0.046, 0.9560000000000001, 0.106, 192.0, 0.0, 0.0, 0.0, 0.0, 0.0, 0.0, 0.0, 0.0, 0.0, 1.666556422943075E9, 0.0, 2022-10-23 13:20:22.943
174.0, -81602.84389291334, -113920.65005548598, 49485.55522984925, 42499.13752068729, 61485.491572081046, 101084.49024969224, 63164.04052544124, 64773.88021634582, 0.046, 0.9560000000000001, 0.106, 192.0, 0.0, 0.0, 0.0, 0.0, 0.0, 0.0, 0.0, 0.0, 0.0, 1.6665564229430828E9, 0.0, 2022-10-23 13:20:22.943
175.0, -81553.04420626692, -113870.04570603916, 47509.59396476674, 42331.36532680575, 61337.545375531365, 100243.9081959615, 61843.7453322107, 63380.80774316881, 0.046, 0.9560000000000001, 0.106, 192.0, 0.0, 0.0, 0.0, 0.0, 0.0, 0.0, 0.0, 0.0, 0.0, 1.6665564229430912E9, 0.0, 2022-10-23 13:20:22.943
176.0, -81583.50963395949, -113899.0806220866, 46678.958437318615, 42462.41360454722, 61433.032027844434, 100048.2186732553, 61415.7988328694, 63124.366179033066, 0.046, 0.9500000000000001, 0.114, 192.0, 1.0, 112.0, 29.0, 176.0, 3.0, 144.0, 0.0, 0.0, 0.0, 1.6665564229430993E9, 0.0, 2022-10-23 13:20:22.943
177.0, -81616.70197447563, -113927.06500614465, 47676.33797840333, 42600.81560621448, 61536.922936072704, 100526.74717029896, 62132.79809150674, 63935.51098531616, 0.046, 0.9500000000000001, 0.114, 192.0, 0.0, 0.0, 0.0, 0.0, 0.0, 0.0, 0.0, 0.0, 0.0, 1.6665564229431148E9, 0.0, 2022-10-23 13:20:22.943
178.0, -81616.72432622008, -113933.7928812257, 49553.30336729329, 42554.65925391427, 61526.372912689796, 101167.9293117439, 63246.786683414786, 64895.69722362724, 0.046, 0.9500000000000001, 0.114, 192.0, 0.0, 0.0, 0.0, 0.0, 0.0, 0.0, 0.0, 0.0, 0.0, 1.6665564229431226E9, 0.0, 2022-10-23 13:20:22.943
179.0, -81549.75849983198, -113872.03501129568, 47924.19647266823, 42323.9892511355, 61331.15277661715, 100412.64151485462, 62108.032358650256, 63623.68179842017, 0.046, 0.9500000000000001, 0.114, 192.0, 0.0, 0.0, 0.0, 0.0, 0.0, 0.0, 0.0, 0.0, 0.0, 1.6665564229431305E9, 0.0, 2022-10-23 13:20:22.943
180.0, -81567.68459888514, -113882.67444165642, 46680.45600419713, 42453.651720720736, 61413.27308574595, 100026.24690845572, 61394.67643435913, 63073.58301563061, 0.046, 0.9500000000000001, 0.114, 192.0, 0.0, 0.0, 0.0, 0.0, 0.0, 0.0, 0.0, 0.0, 0.0, 1.6665564229431381E9, 0.0, 2022-10-23 13:20:22.943
181.0, -81611.20344533962, -113922.61700899804, 47315.424360683486, 42567.98089360963, 61511.777223560486, 100369.90497945607, 61887.82297227657, 63692.94985448717, 0.046, 0.9500000000000001, 0.114, 192.0, 0.0, 0.0, 0.0, 0.0, 0.0, 0.0, 0.0, 0.0, 0.0, 1.666556422943146E9, 0.0, 2022-10-23 13:20:22.943
182.0, -81631.34236709385, -113948.79090175522, 49403.07729280917, 42595.630001500846, 61549.75283739005, 101132.32298282659, 63168.890853988036, 64866.52819711307, 0.046, 0.9500000000000001, 0.114, 192.0, 0.0, 0.0, 0.0, 0.0, 0.0, 0.0, 0.0, 0.0, 0.0, 1.6665564229431539E9, 0.0, 2022-10-23 13:20:22.943
183.0, -81569.2045175081, -113892.21863653883, 48332.83106480016, 42315.003849864464, 61328.89525042716, 100557.90550206965, 62359.51183551692, 63873.3284322415, 0.046, 0.9500000000000001, 0.114, 192.0, 0.0, 0.0, 0.0, 0.0, 0.0, 0.0, 0.0, 0.0, 0.0, 1.6665564229431615E9, 0.0, 2022-10-23 13:20:22.943
184.0, -81568.53396517444, -113889.44702022638, 46706.361676020824, 42412.52451092297, 61368.52489334642, 99991.82522199456, 61373.10700095976, 63025.504413307244, 0.046, 0.9500000000000001, 0.114, 192.0, 0.0, 0.0, 0.0, 0.0, 0.0, 0.0, 0.0, 0.0, 0.0, 1.6665564229431696E9, 0.0, 2022-10-23 13:20:22.943
185.0, -81608.09655286033, -113924.76277646575, 47037.99450850421, 42534.9897187936, 61475.902673709716, 100240.39897208202, 61689.00420534661, 63489.59368343279, 0.046, 0.9500000000000001, 0.114, 192.0, 0.0, 0.0, 0.0, 0.0, 0.0, 0.0, 0.0, 0.0, 0.0, 1.6665564229431772E9, 0.0, 2022-10-23 13:20:22.943
186.0, -81648.21793415761, -113965.44295137441, 49122.160568494866, 42610.33744935244, 61549.574023434405, 101040.01027822618, 63001.47628801779, 64744.28650668699, 0.048, 0.9500000000000001, 0.112, 192.0, 1.0, 128.0, 29.0, 176.0, 3.0, 128.0, 0.0, 0.0, 0.0, 1.666556422943185E9, 0.0, 2022-10-23 13:20:22.943
187.0, -81580.89447985822, -113904.2885785447, 48769.62885494577, 42343.390565322705, 61353.14689316117, 100745.30252758296, 62642.77549299902, 64174.674650987945, 0.048, 0.9500000000000001, 0.112, 192.0, 0.0, 0.0, 0.0, 0.0, 0.0, 0.0, 0.0, 0.0, 0.0, 1.6665564229431932E9, 0.0, 2022-10-23 13:20:22.943
188.0, -81568.9586483191, -113887.94945334786, 46847.736459700645, 42396.2077374706, 61362.489922343484, 100042.09429527454, 61449.25939431899, 63070.43141966241, 0.048, 0.9500000000000001, 0.112, 192.0, 0.0, 0.0, 0.0, 0.0, 0.0, 0.0, 0.0, 0.0, 0.0, 1.6665564229432013E9, 0.0, 2022-10-23 13:20:22.943
189.0, -81597.32301203288, -113912.89400015998, 46868.79180297754, 42520.25991919755, 61469.44301956213, 100172.67318638244, 61570.65171845576, 63356.48904520143, 0.048, 0.9500000000000001, 0.112, 192.0, 0.0, 0.0, 0.0, 0.0, 0.0, 0.0, 0.0, 0.0, 0.0, 1.666556422943209E9, 0.0, 2022-10-23 13:20:22.943
190.0, -81639.74662300905, -113955.42936985844, 48751.702755892606, 42647.374289914886, 61578.63129122631, 100931.82783506249, 62791.101669204436, 64573.295661603894, 0.048, 0.9500000000000001, 0.112, 192.0, 0.0, 0.0, 0.0, 0.0, 0.0, 0.0, 0.0, 0.0, 0.0, 1.666556422943218E9, 0.0, 2022-10-23 13:20:22.943
191.0, -81596.65245969921, -113913.05046237117, 49156.85047588951, 42399.1581677387, 61413.22838225703, 100930.55378562854, 62915.84675500951, 64472.10931445472, 0.048, 0.9500000000000001, 0.112, 192.0, 0.0, 0.0, 0.0, 0.0, 0.0, 0.0, 0.0, 0.0, 0.0, 1.6665564229432263E9, 0.0, 2022-10-23 13:20:22.943
192.0, -81572.91490708767, -113889.53642720419, 47045.012956263185, 42361.11549867577, 61343.848567467765, 100097.54897326816, 61560.906357873246, 63145.66739149897, 0.048, 0.9500000000000001, 0.112, 192.0, 0.0, 0.0, 0.0, 0.0, 0.0, 0.0, 0.0, 0.0, 0.0, 1.6665564229432433E9, 0.0, 2022-10-23 13:20:22.943
193.0, -81608.07420111587, -113918.79486069619, 46772.16521169725, 42494.22013690712, 61452.83567343184, 100114.89392696548, 61496.51098209751, 63251.882881150595, 0.048, 0.9500000000000001, 0.112, 192.0, 0.0, 0.0, 0.0, 0.0, 0.0, 0.0, 0.0, 0.0, 0.0, 1.666556422943251E9, 0.0, 2022-10-23 13:20:22.943
194.0, -81632.5717130389, -113943.09120691911, 48361.15072502503, 42640.19937994473, 61568.461247499145, 100785.31215015796, 62556.72127684609, 64348.34770540568, 0.048, 0.9500000000000001, 0.112, 192.0, 0.0, 0.0, 0.0, 0.0, 0.0, 0.0, 0.0, 0.0, 0.0, 1.6665564229432588E9, 0.0, 2022-10-23 13:20:22.943
195.0, -81597.32301203288, -113911.59759898158, 49428.67004021049, 42465.319331326406, 61457.59659500082, 101046.17935969585, 63103.86962936755, 64692.58692176187, 0.05, 0.9480000000000001, 0.106, 192.0, 1.0, 144.0, 29.0, 160.0, 3.0, 80.0, 0.0, 0.0, 0.0, 1.6665564229432664E9, 0.0, 2022-10-23 13:20:22.943
196.0, -81558.40862493619, -113873.39846770746, 47325.10266603264, 42350.02903342593, 61338.37239007621, 100176.40592770648, 61719.00024640564, 63279.86726520864, 0.05, 0.9480000000000001, 0.106, 192.0, 0.0, 0.0, 0.0, 0.0, 0.0, 0.0, 0.0, 0.0, 0.0, 1.6665564229432745E9, 0.0, 2022-10-23 13:20:22.943
197.0, -81592.71855267508, -113903.19334306638, 46727.260557086534, 42487.469910081614, 61446.3536675398, 100071.95622586683, 61444.07378960536, 63183.4641913729, 0.05, 0.9480000000000001, 0.106, 192.0, 0.0, 0.0, 0.0, 0.0, 0.0, 0.0, 0.0, 0.0, 0.0, 1.6665564229432826E9, 0.0, 2022-10-23 13:20:22.943
198.0, -81628.14606763674, -113938.62085802805, 47941.22850194317, 42619.2110919012, 61548.23291876709, 100612.62257249626, 62280.14079095612, 64096.309434927636, 0.05, 0.9480000000000001, 0.106, 192.0, 0.0, 0.0, 0.0, 0.0, 0.0, 0.0, 0.0, 0.0, 0.0, 1.6665564229432905E9, 0.0, 2022-10-23 13:20:22.943
199.0, -81622.513428034, -113937.30210510518, 49555.605596972186, 42514.247299939074, 61490.364252372296, 101117.28025880817, 63200.9656072814, 64838.40970258829, 0.05, 0.9480000000000001, 0.106, 192.0, 0.0, 0.0, 0.0, 0.0, 0.0, 0.0, 0.0, 0.0, 0.0, 1.6665564229432983E9, 0.0, 2022-10-23 13:20:22.943
200.0, -81564.08596802784, -113876.48300844229, 47665.72089978706, 42320.256509811465, 61316.60179097674, 100281.39207141305, 61912.49929815523, 63457.09424699477, 0.05, 0.9480000000000001, 0.106, 192.0, 0.0, 0.0, 0.0, 0.0, 0.0, 0.0, 0.0, 0.0, 0.0, 1.6665564229433062E9, 0.0, 2022-10-23 13:20:22.943
201.0, -81584.96249734909, -113893.69385167288, 46668.58722789136, 42452.89176140926, 61411.35083572279, 100006.9573529908, 61370.20127418057, 63090.90561758347, 0.05, 0.9480000000000001, 0.106, 192.0, 0.0, 0.0, 0.0, 0.0, 0.0, 0.0, 0.0, 0.0, 0.0, 1.666556422943314E9, 0.0, 2022-10-23 13:20:22.943
202.0, -81620.23355009957, -113926.79678521119, 47534.873787745695, 42585.90699266279, 61522.528412643485, 100444.06806755878, 62012.21043017035, 63843.53355688257, 0.05, 0.9480000000000001, 0.106, 192.0, 0.0, 0.0, 0.0, 0.0, 0.0, 0.0, 0.0, 0.0, 0.0, 1.666556422943322E9, 0.0, 2022-10-23 13:20:22.943
203.0, -81633.35402409484, -113946.60043079859, 49513.83018658521, 42557.14029754881, 61527.84812782385, 101139.90022419694, 63203.82663057168, 64895.74192711615, 0.05, 0.9480000000000001, 0.106, 192.0, 0.0, 0.0, 0.0, 0.0, 0.0, 0.0, 0.0, 0.0, 0.0, 1.6665564229433303E9, 0.0, 2022-10-23 13:20:22.943
204.0, -81563.72834011655, -113884.30611900165, 48052.540189330604, 42311.22640505152, 61316.37827353219, 100428.89123307362, 62156.312126673714, 63697.97899698961, 0.05, 0.9480000000000001, 0.106, 192.0, 0.0, 0.0, 0.0, 0.0, 0.0, 0.0, 0.0, 0.0, 0.0, 1.666556422943338E9, 0.0, 2022-10-23 13:20:22.943
205.0, -81579.84394786882, -113896.57722670761, 46643.21799793458, 42438.78781065796, 61385.86984704374, 99963.72907921423, 61323.016741635416, 63027.113738908025, 0.046, 0.9560000000000001, 0.116, 192.0, 1.0, 112.0, 29.0, 224.0, 3.0, 160.0, 0.0, 0.0, 0.0, 1.6665564229433458E9, 0.0, 2022-10-23 13:20:22.943
0.0, 0.0, 0.0, 0.0, 0.0, 0.0, 0.0, 0.0, 0.0, 0.048, 0.9560000000000001, 0.112, 192.0, 1.0, 128.0, 29.0, 224.0, 3.0, 128.0, 0.0, 0.0, 0.0, 1.666556423059412E9, 0.0, 2022-10-23 13:20:23.059
1.0, -81610.28702381696, -114072.28428987077, 46731.14976062176, 42609.97982144116, 61411.082614789324, 100989.76355669065, 61667.792399858525, 63327.72235008745, 0.048, 0.9560000000000001, 0.112, 192.0, 0.0, 0.0, 0.0, 0.0, 0.0, 0.0, 0.0, 0.0, 0.0, 1.6665564235398283E9, 0.0, 2022-10-23 13:20:23.539
2.0, -81662.18777444218, -114120.98874103889, 48376.68518742147, 42742.54801780558, 61516.89577304075, 101674.71041377907, 62753.72955247517, 64448.41646533209, 0.048, 0.9560000000000001, 0.112, 192.0, 0.0, 0.0, 0.0, 0.0, 0.0, 0.0, 0.0, 0.0, 0.0, 1.6665564235400133E9, 0.0, 2022-10-23 13:20:23.540
3.0, -81640.8195067429, -114102.97323500791, 49309.19996609688, 42547.126716032835, 61391.68130060212, 101897.49025076513, 63223.362055225625, 64698.934817187175, 0.048, 0.9560000000000001, 0.112, 192.0, 0.0, 0.0, 0.0, 0.0, 0.0, 0.0, 0.0, 0.0, 0.0, 1.6665564235400229E9, 0.0, 2022-10-23 13:20:23.540
4.0, -81590.59513695183, -114048.23381283687, 47213.32159201164, 42470.10260463984, 61308.37634901719, 101056.34940342301, 61864.84537897651, 63323.67668434104, 0.048, 0.9560000000000001, 0.112, 192.0, 0.0, 0.0, 0.0, 0.0, 0.0, 0.0, 0.0, 0.0, 0.0, 1.6665564235400312E9, 0.0, 2022-10-23 13:20:23.540
5.0, -81626.20146586913, -114093.69726105897, 46672.878762826775, 42598.491024791125, 61403.84064958581, 100954.51485568463, 61614.37173061034, 63258.297831809265, 0.048, 0.9560000000000001, 0.112, 192.0, 0.0, 0.0, 0.0, 0.0, 0.0, 0.0, 0.0, 0.0, 0.0, 1.6665564235400395E9, 0.0, 2022-10-23 13:20:23.540
6.0, -81684.76303634203, -114152.05766583177, 47954.326624193985, 42684.54524094406, 61466.49258929403, 101499.65155120511, 62478.333709041326, 64186.99046218282, 0.048, 0.9560000000000001, 0.112, 192.0, 0.0, 0.0, 0.0, 0.0, 0.0, 0.0, 0.0, 0.0, 0.0, 1.6665564235400543E9, 0.0, 2022-10-23 13:20:23.540
7.0, -81628.23547461456, -114093.85372327015, 49471.94301747597, 42604.2577748606, 61430.461577232076, 101985.71258613022, 63344.79908285131, 64869.590386103446, 0.058, 0.9560000000000001, 0.10400000000000001, 192.0, 1.0, 208.0, 29.0, 224.0, 3.0, 64.0, 0.0, 0.0, 0.0, 1.6665564235400624E9, 0.0, 2022-10-23 13:20:23.540
8.0, -81572.57963092085, -114046.24450758036, 47517.28296485937, 42449.650758463235, 61296.46286922251, 101146.20341613334, 62032.863442047055, 63478.14959027166, 0.058, 0.9560000000000001, 0.10400000000000001, 192.0, 0.0, 0.0, 0.0, 0.0, 0.0, 0.0, 0.0, 0.0, 0.0, 1.6665564235400715E9, 0.0, 2022-10-23 13:20:23.540
9.0, -81597.23360505505, -114063.00831592183, 46630.90218673971, 42590.66791423177, 61397.2915884604, 100919.8696517789, 61563.54386371897, 63182.257197172316, 0.058, 0.9560000000000001, 0.10400000000000001, 192.0, 0.0, 0.0, 0.0, 0.0, 0.0, 0.0, 0.0, 0.0, 0.0, 1.6665564235400796E9, 0.0, 2022-10-23 13:20:23.540
10.0, -81652.75533828203, -114116.80896482576, 47589.121471538725, 42703.991258620175, 61483.18934240215, 101383.19896259296, 62257.52082556735, 63970.670279344355, 0.058, 0.9560000000000001, 0.10400000000000001, 192.0, 0.0, 0.0, 0.0, 0.0, 0.0, 0.0, 0.0, 0.0, 0.0, 1.6665564235400877E9, 0.0, 2022-10-23 13:20:23.540
11.0, -81646.72036727911, -114116.42898517002, 49502.72136959092, 42673.659941394326, 61482.85406623532, 102045.74937173717, 63400.79020271185, 64967.62513728442, 0.058, 0.9560000000000001, 0.10400000000000001, 192.0, 0.0, 0.0, 0.0, 0.0, 0.0, 0.0, 0.0, 0.0, 0.0, 1.6665564235400956E9, 0.0, 2022-10-23 13:20:23.540
12.0, -81586.34830550532, -114057.666248997, 47945.07300198949, 42424.147418039734, 61292.93129359857, 101312.32158092519, 62305.53237265735, 63725.18106999172, 0.058, 0.9560000000000001, 0.10400000000000001, 192.0, 0.0, 0.0, 0.0, 0.0, 0.0, 0.0, 0.0, 0.0, 0.0, 1.6665564235401037E9, 0.0, 2022-10-23 13:20:23.540
13.0, -81607.69422146013, -114079.19097890747, 46654.95266377362, 42548.512524189064, 61368.14491369068, 100901.1612416698, 61554.98314559259, 63129.37296979105, 0.058, 0.9560000000000001, 0.10400000000000001, 192.0, 0.0, 0.0, 0.0, 0.0, 0.0, 0.0, 0.0, 0.0, 0.0, 1.6665564235401115E9, 0.0, 2022-10-23 13:20:23.540
14.0, -81628.2131228701, -114097.80998203874, 47260.260255367786, 42685.05933106653, 61479.12132491128, 101243.03117311373, 62035.031561259224, 63749.969154592654, 0.058, 0.9560000000000001, 0.10400000000000001, 192.0, 0.0, 0.0, 0.0, 0.0, 0.0, 0.0, 0.0, 0.0, 0.0, 1.6665564235401196E9, 0.0, 2022-10-23 13:20:23.540
15.0, -81656.71159705063, -114131.40465395506, 49330.09884716259, 42708.193386577776, 61498.5673425874, 101991.88166759988, 63302.80015501978, 64920.328846016986, 0.058, 0.9560000000000001, 0.10400000000000001, 192.0, 0.0, 0.0, 0.0, 0.0, 0.0, 0.0, 0.0, 0.0, 0.0, 1.6665564235401275E9, 0.0, 2022-10-23 13:20:23.540
16.0, -81605.28023305896, -114084.75656327684, 48334.30627993421, 42416.07843829137, 61274.3122904673, 101439.16773070906, 62537.409369636705, 63966.17757870884, 0.058, 0.9560000000000001, 0.10400000000000001, 192.0, 0.0, 0.0, 0.0, 0.0, 0.0, 0.0, 0.0, 0.0, 0.0, 1.6665564235401351E9, 0.0, 2022-10-23 13:20:23.540
17.0, -81595.3560585208, -114074.4747608274, 46687.630914167275, 42521.01987850903, 61332.47152954001, 100871.12049712188, 61543.74021813157, 63102.79674563369, 0.054, 0.9540000000000001, 0.108, 192.0, 1.0, 176.0, 29.0, 208.0, 3.0, 96.0, 0.0, 0.0, 0.0, 1.6665564235401433E9, 0.0, 2022-10-23 13:20:23.540
18.0, -81624.74860247954, -114092.80319128075, 46966.7371471807, 42626.475408849175, 61424.359550995774, 101084.15497352541, 61816.69972141978, 63524.28359082742, 0.054, 0.9540000000000001, 0.108, 192.0, 0.0, 0.0, 0.0, 0.0, 0.0, 0.0, 0.0, 0.0, 0.0, 1.6665564235401623E9, 0.0, 2022-10-23 13:20:23.540
19.0, -81657.8738877623, -114129.437700443, 49036.55338723104, 42729.584006021505, 61505.07170022389, 101893.08695710743, 63129.44002502442, 64781.971547838635, 0.054, 0.9540000000000001, 0.108, 192.0, 0.0, 0.0, 0.0, 0.0, 0.0, 0.0, 0.0, 0.0, 0.0, 1.6665564235401704E9, 0.0, 2022-10-23 13:20:23.540
20.0, -81582.10147405881, -114069.75854274734, 48793.299352323935, 42484.832404235895, 61343.64740176767, 101650.54817802289, 62846.48929196469, 64296.75987920283, 0.054, 0.9540000000000001, 0.108, 192.0, 0.0, 0.0, 0.0, 0.0, 0.0, 0.0, 0.0, 0.0, 0.0, 1.6665564235401783E9, 0.0, 2022-10-23 13:20:23.540
21.0, -81590.99746835203, -114098.21231343894, 46822.05430532149, 42495.31537238543, 61317.13823284367, 100903.73169228218, 61606.81684098445, 63137.10667337259, 0.054, 0.9540000000000001, 0.108, 192.0, 0.0, 0.0, 0.0, 0.0, 0.0, 0.0, 0.0, 0.0, 0.0, 1.666556423540186E9, 0.0, 2022-10-23 13:20:23.540
22.0, -81608.43182902716, -114074.45240908295, 46793.73464509662, 42623.323812880975, 61417.63167591473, 101002.30288533008, 61685.74085065614, 63382.819400169785, 0.054, 0.9540000000000001, 0.108, 192.0, 0.0, 0.0, 0.0, 0.0, 0.0, 0.0, 0.0, 0.0, 0.0, 1.6665564235401938E9, 0.0, 2022-10-23 13:20:23.540
23.0, -81648.84378300236, -114111.39984266757, 48648.97413837602, 42749.90174173138, 61520.33794168686, 101759.42352526469, 62893.96439718776, 64597.25673165998, 0.054, 0.9540000000000001, 0.108, 192.0, 0.0, 0.0, 0.0, 0.0, 0.0, 0.0, 0.0, 0.0, 0.0, 1.6665564235402017E9, 0.0, 2022-10-23 13:20:23.540
24.0, -81611.94105290664, -114095.7759732933, 49135.236339001225, 42510.17928244821, 61361.19352116508, 101791.14065064678, 63070.96786152934, 64551.68152471561, 0.054, 0.9540000000000001, 0.108, 192.0, 0.0, 0.0, 0.0, 0.0, 0.0, 0.0, 0.0, 0.0, 0.0, 1.6665564235402093E9, 0.0, 2022-10-23 13:20:23.540
25.0, -81579.66513391318, -114053.86645243962, 47005.67388602184, 42455.93159865518, 61292.46190696501, 100948.79280910407, 61701.275313052574, 63193.991863011346, 0.054, 0.9540000000000001, 0.108, 192.0, 0.0, 0.0, 0.0, 0.0, 0.0, 0.0, 0.0, 0.0, 0.0, 1.6665564235402172E9, 0.0, 2022-10-23 13:20:23.540
26.0, -81597.8147504109, -114068.35038284665, 46679.49487918555, 42603.22959461565, 61411.32848397833, 100945.21652999122, 61596.46798330164, 63272.89352093858, 0.054, 0.9540000000000001, 0.108, 192.0, 0.0, 0.0, 0.0, 0.0, 0.0, 0.0, 0.0, 0.0, 0.0, 1.666556423540225E9, 0.0, 2022-10-23 13:20:23.540
27.0, -81647.56973356841, -114107.5329908768, 48198.810005046136, 42738.21177938125, 61512.69364508315, 101592.97008430601, 62610.588980983375, 64336.74715003338, 0.05, 0.9480000000000001, 0.10400000000000001, 192.0, 1.0, 144.0, 29.0, 160.0, 3.0, 64.0, 0.0, 0.0, 0.0, 1.666556423540233E9, 0.0, 2022-10-23 13:20:23.540
28.0, -81633.51048630601, -114120.16172649404, 49372.857734305595, 42559.911913861266, 61397.33629194931, 101917.33859984143, 63241.310506023234, 64762.52553016252, 0.05, 0.9480000000000001, 0.10400000000000001, 192.0, 0.0, 0.0, 0.0, 0.0, 0.0, 0.0, 0.0, 0.0, 0.0, 1.6665564235402431E9, 0.0, 2022-10-23 13:20:23.540
29.0, -81566.03056979545, -114048.70319947043, 47284.84717426863, 42426.69551690764, 61267.09267700824, 101044.03359222814, 61860.21856787427, 63323.38611166312, 0.05, 0.9480000000000001, 0.10400000000000001, 192.0, 0.0, 0.0, 0.0, 0.0, 0.0, 0.0, 0.0, 0.0, 0.0, 1.6665564235402508E9, 0.0, 2022-10-23 13:20:23.540
30.0, -81588.69523867313, -114053.06178963922, 46626.94592797112, 42578.59797222591, 61387.50152438898, 100908.9172969958, 61541.527395430494, 63184.201798939925, 0.05, 0.9480000000000001, 0.10400000000000001, 192.0, 0.0, 0.0, 0.0, 0.0, 0.0, 0.0, 0.0, 0.0, 0.0, 1.666556423540259E9, 0.0, 2022-10-23 13:20:23.540
31.0, -81647.27916089048, -114101.8332960407, 47791.22594490361, 42712.48492151319, 61491.54889482843, 101439.43595164252, 62354.21447208101, 64100.48921114078, 0.05, 0.9480000000000001, 0.10400000000000001, 192.0, 0.0, 0.0, 0.0, 0.0, 0.0, 0.0, 0.0, 0.0, 0.0, 1.6665564235402665E9, 0.0, 2022-10-23 13:20:23.540
32.0, -81624.18980886815, -114087.19290342247, 49477.06156695623, 42620.88747273535, 61444.40906577219, 101992.99925482264, 63332.885603056624, 64909.30943600052, 0.05, 0.9480000000000001, 0.10400000000000001, 192.0, 0.0, 0.0, 0.0, 0.0, 0.0, 0.0, 0.0, 0.0, 0.0, 1.6665564235402744E9, 0.0, 2022-10-23 13:20:23.540
33.0, -81550.25023820999, -114018.79656538923, 47673.54401034642, 42436.798505401435, 61292.260741264916, 101204.1391377615, 62110.42399530697, 63583.96274852309, 0.05, 0.9480000000000001, 0.10400000000000001, 192.0, 0.0, 0.0, 0.0, 0.0, 0.0, 0.0, 0.0, 0.0, 0.0, 1.66655642354029E9, 0.0, 2022-10-23 13:20:23.540
34.0, -81583.53198570394, -114049.88784192657, 46625.47071283707, 42572.02655935605, 61381.444201641585, 100897.51790732359, 61527.065816767914, 63182.2124936834, 0.05, 0.9480000000000001, 0.10400000000000001, 192.0, 0.0, 0.0, 0.0, 0.0, 0.0, 0.0, 0.0, 0.0, 0.0, 1.666556423540298E9, 0.0, 2022-10-23 13:20:23.540
35.0, -81625.55326527993, -114097.0276709828, 47446.71850761396, 42687.272153767604, 61469.666537006684, 101306.95716225592, 62135.547356074734, 63896.06015635254, 0.05, 0.9480000000000001, 0.10400000000000001, 192.0, 0.0, 0.0, 0.0, 0.0, 0.0, 0.0, 0.0, 0.0, 0.0, 1.6665564235403056E9, 0.0, 2022-10-23 13:20:23.540
36.0, -81656.89041100627, -114139.51833719235, 49451.781743977284, 42659.89126680986, 61453.64033623223, 102010.4336154978, 63341.33456246073, 64956.15869237885, 0.05, 0.9500000000000001, 0.11, 192.0, 1.0, 144.0, 29.0, 176.0, 3.0, 112.0, 0.0, 0.0, 0.0, 1.6665564235403135E9, 0.0, 2022-10-23 13:20:23.540
37.0, -81556.66518886868, -114015.51085895431, 48119.99775409672, 42429.86946462029, 61274.133476511655, 101368.31270078573, 62390.53605682088, 63834.54815561154, 0.05, 0.9500000000000001, 0.11, 192.0, 0.0, 0.0, 0.0, 0.0, 0.0, 0.0, 0.0, 0.0, 0.0, 1.6665564235403216E9, 0.0, 2022-10-23 13:20:23.540
38.0, -81566.9022878292, -114021.59053344614, 46696.012818338015, 42549.85362885638, 61354.82327399532, 100902.25647714813, 61553.7314479031, 63153.088170658135, 0.05, 0.9500000000000001, 0.11, 192.0, 0.0, 0.0, 0.0, 0.0, 0.0, 0.0, 0.0, 0.0, 0.0, 1.6665564235403297E9, 0.0, 2022-10-23 13:20:23.540
39.0, -81628.12371589229, -114088.42224936752, 47170.09331823508, 42646.56962711449, 61438.19528081361, 101185.27426544121, 61947.39037124996, 63671.69334551017, 0.05, 0.9500000000000001, 0.11, 192.0, 0.0, 0.0, 0.0, 0.0, 0.0, 0.0, 0.0, 0.0, 0.0, 1.666556423540337E9, 0.0, 2022-10-23 13:20:23.540
40.0, -81663.70769306514, -114155.29866877779, 49248.64909036745, 42699.96794461822, 61487.39147035974, 101954.97893750417, 63232.25804951883, 64882.286176954054, 0.05, 0.9500000000000001, 0.11, 192.0, 0.0, 0.0, 0.0, 0.0, 0.0, 0.0, 0.0, 0.0, 0.0, 1.6665564235403452E9, 0.0, 2022-10-23 13:20:23.540
41.0, -81590.0586950849, -114054.49230128435, 48561.04237568884, 42425.53322619596, 61279.855523092214, 101530.85458646472, 62665.14958919878, 64107.0829757551, 0.05, 0.9500000000000001, 0.11, 192.0, 0.0, 0.0, 0.0, 0.0, 0.0, 0.0, 0.0, 0.0, 0.0, 1.6665564235403528E9, 0.0, 2022-10-23 13:20:23.540
42.0, -81562.16371800468, -114021.74699565733, 46777.954313511174, 42512.928547016214, 61321.63093347919, 100891.32647410948, 61569.914110888734, 63127.093091856616, 0.05, 0.9500000000000001, 0.11, 192.0, 0.0, 0.0, 0.0, 0.0, 0.0, 0.0, 0.0, 0.0, 0.0, 1.6665564235403607E9, 0.0, 2022-10-23 13:20:23.540
43.0, -81606.37546853727, -114074.38535384958, 46946.10648704845, 42632.30921415201, 61432.51793772196, 101070.16278149639, 61780.31108144654, 63509.50908774246, 0.05, 0.9500000000000001, 0.11, 192.0, 0.0, 0.0, 0.0, 0.0, 0.0, 0.0, 0.0, 0.0, 0.0, 1.6665564235403683E9, 0.0, 2022-10-23 13:20:23.540
44.0, -81661.36075989733, -114128.40952019805, 48903.51580423305, 42724.688973985794, 61493.82877276287, 101822.83542428439, 63018.77653822619, 64718.067910440914, 0.05, 0.9500000000000001, 0.11, 192.0, 0.0, 0.0, 0.0, 0.0, 0.0, 0.0, 0.0, 0.0, 0.0, 1.666556423540376E9, 0.0, 2022-10-23 13:20:23.540
45.0, -81615.07029713038, -114067.925699702, 48922.268917831054, 42469.856735450834, 61315.93123864308, 101666.84259973081, 62891.282187853125, 64382.00943255537, 0.05, 0.9500000000000001, 0.11, 192.0, 0.0, 0.0, 0.0, 0.0, 0.0, 0.0, 0.0, 0.0, 0.0, 1.6665564235403836E9, 0.0, 2022-10-23 13:20:23.540
46.0, -81560.21911623706, -114027.46904223789, 46897.11146320242, 42487.916944970726, 61311.63970370766, 100905.54218358305, 61618.35034112339, 63173.33885113464, 0.05, 0.9560000000000001, 0.106, 192.0, 1.0, 144.0, 29.0, 224.0, 3.0, 80.0, 0.0, 0.0, 0.0, 1.6665564235403917E9, 0.0, 2022-10-23 13:20:23.540
47.0, -81589.14227356223, -114066.85281596814, 46775.00388324307, 42617.46765583368, 61425.58889694082, 100984.33208278801, 61646.08885599242, 63380.226597812965, 0.05, 0.9560000000000001, 0.106, 192.0, 0.0, 0.0, 0.0, 0.0, 0.0, 0.0, 0.0, 0.0, 0.0, 1.6665564235404E9, 0.0, 2022-10-23 13:20:23.540
48.0, -81635.7233090071, -114116.78661308129, 48536.27664283236, 42763.625712826935, 61540.32040122991, 101726.67821963766, 62809.16187872433, 64557.090646873796, 0.05, 0.9560000000000001, 0.106, 192.0, 0.0, 0.0, 0.0, 0.0, 0.0, 0.0, 0.0, 0.0, 0.0, 1.666556423540415E9, 0.0, 2022-10-23 13:20:23.540
49.0, -81595.98190736555, -114061.84602521015, 49296.12419559052, 42536.6884513722, 61380.6395388412, 101864.18615152671, 63157.156188149005, 64676.09133435385, 0.05, 0.9560000000000001, 0.106, 192.0, 0.0, 0.0, 0.0, 0.0, 0.0, 0.0, 0.0, 0.0, 0.0, 1.666556423540424E9, 0.0, 2022-10-23 13:20:23.540
50.0, -81569.56214541938, -114041.170661589, 47142.08658243258, 42444.10752583832, 61280.34726147023, 100985.89670489987, 61756.372363134906, 63283.108268154654, 0.05, 0.9560000000000001, 0.106, 192.0, 0.0, 0.0, 0.0, 0.0, 0.0, 0.0, 0.0, 0.0, 0.0, 1.666556423540432E9, 0.0, 2022-10-23 13:20:23.540
51.0, -81604.90025340322, -114082.07435394221, 46698.09153057236, 42575.13345183533, 61392.86594305825, 100938.80157933255, 61578.251311570566, 63294.038271193305, 0.05, 0.9560000000000001, 0.106, 192.0, 0.0, 0.0, 0.0, 0.0, 0.0, 0.0, 0.0, 0.0, 0.0, 1.66655642354044E9, 0.0, 2022-10-23 13:20:23.540
52.0, -81634.0692799174, -114109.49994438887, 48109.179509780355, 42729.62870951041, 61506.725729313584, 101563.59989209175, 62538.57166034838, 64317.14467014607, 0.05, 0.9560000000000001, 0.106, 192.0, 0.0, 0.0, 0.0, 0.0, 0.0, 0.0, 0.0, 0.0, 0.0, 1.666556423540448E9, 0.0, 2022-10-23 13:20:23.540
53.0, -81602.44156151314, -114073.3795253491, 49504.7330265919, 42616.260661633096, 61433.36730401126, 101983.87974308488, 63315.2947801703, 64891.69626136974, 0.05, 0.9560000000000001, 0.106, 192.0, 0.0, 0.0, 0.0, 0.0, 0.0, 0.0, 0.0, 0.0, 0.0, 1.6665564235404556E9, 0.0, 2022-10-23 13:20:23.540
54.0, -81555.23467722353, -114018.39423398903, 47479.575571963265, 42443.660490949216, 61281.88953183765, 101113.2122413173, 61961.71783944582, 63453.6744300931, 0.05, 0.9560000000000001, 0.106, 192.0, 0.0, 0.0, 0.0, 0.0, 0.0, 0.0, 0.0, 0.0, 0.0, 1.6665564235404637E9, 0.0, 2022-10-23 13:20:23.540
55.0, -81582.66026767019, -114057.12980713008, 46682.98175132057, 42586.64460022982, 61398.87856231673, 100925.45758789273, 61557.57594794941, 63242.33868626818, 0.05, 0.9560000000000001, 0.106, 192.0, 0.0, 0.0, 0.0, 0.0, 0.0, 0.0, 0.0, 0.0, 0.0, 1.6665564235404713E9, 0.0, 2022-10-23 13:20:23.540
56.0, -81635.99152994055, -114123.82741258472, 47719.67801090217, 42718.8328169385, 61499.953150743626, 101410.62455303963, 62293.12715448465, 64065.30756536813, 0.046, 0.9540000000000001, 0.106, 192.0, 1.0, 112.0, 29.0, 208.0, 3.0, 80.0, 0.0, 0.0, 0.0, 1.66655642354048E9, 0.0, 2022-10-23 13:20:23.540
57.0, -81649.96137022512, -114125.01205504085, 49543.17802705503, 42644.93794976926, 61452.52274900946, 102013.24993529916, 63358.768923135875, 64975.3364891215, 0.046, 0.9540000000000001, 0.106, 192.0, 0.0, 0.0, 0.0, 0.0, 0.0, 0.0, 0.0, 0.0, 0.0, 1.6665564235404885E9, 0.0, 2022-10-23 13:20:23.540
58.0, -81562.74486336051, -114032.27466729579, 47875.96140813368, 42428.64011867525, 61276.592168401745, 101249.0437923722, 62205.754185408856, 63698.716604556634, 0.046, 0.9540000000000001, 0.106, 192.0, 0.0, 0.0, 0.0, 0.0, 0.0, 0.0, 0.0, 0.0, 0.0, 1.6665564235404963E9, 0.0, 2022-10-23 13:20:23.540
59.0, -81574.41247396618, -114035.89564989755, 46687.47445195609, 42580.85549841589, 61381.8912365307, 100890.32064560898, 61533.771340104504, 63201.323235192685, 0.046, 0.9540000000000001, 0.106, 192.0, 0.0, 0.0, 0.0, 0.0, 0.0, 0.0, 0.0, 0.0, 0.0, 1.6665564235405045E9, 0.0, 2022-10-23 13:20:23.540
60.0, -81624.59214026835, -114084.95772897694, 47356.21629431442, 42689.14970030185, 61472.16993238568, 101241.42184751295, 62044.91103230847, 63822.8134897725, 0.046, 0.9540000000000001, 0.106, 192.0, 0.0, 0.0, 0.0, 0.0, 0.0, 0.0, 0.0, 0.0, 0.0, 1.666556423540512E9, 0.0, 2022-10-23 13:20:23.540
61.0, -81651.45893710363, -114120.76522359434, 49411.61565919109, 42699.05152309556, 61489.00079596053, 101982.04690003955, 63298.86624799565, 64958.505625546655, 0.046, 0.9540000000000001, 0.106, 192.0, 0.0, 0.0, 0.0, 0.0, 0.0, 0.0, 0.0, 0.0, 0.0, 1.66655642354052E9, 0.0, 2022-10-23 13:20:23.540
62.0, -81596.8089219104, -114078.76629576282, 48288.060520656174, 42436.82085714589, 61292.8195348763, 101401.43798606849, 62467.11313332476, 63956.36516289296, 0.046, 0.9540000000000001, 0.106, 192.0, 0.0, 0.0, 0.0, 0.0, 0.0, 0.0, 0.0, 0.0, 0.0, 1.6665564235405276E9, 0.0, 2022-10-23 13:20:23.540
63.0, -81595.80309340991, -114067.50101655735, 46741.945653193674, 42536.80021009448, 61349.995297192974, 100884.28567460606, 61548.05410481145, 63159.70428701691, 0.046, 0.9540000000000001, 0.106, 192.0, 0.0, 0.0, 0.0, 0.0, 0.0, 0.0, 0.0, 0.0, 0.0, 1.6665564235405352E9, 0.0, 2022-10-23 13:20:23.540
64.0, -81614.53385526346, -114077.20167365095, 47087.615381195, 42645.94377826974, 61435.08838833433, 101118.75547394222, 61860.01740217417, 63609.13081277977, 0.046, 0.9540000000000001, 0.106, 192.0, 0.0, 0.0, 0.0, 0.0, 0.0, 0.0, 0.0, 0.0, 0.0, 1.6665564235405507E9, 0.0, 2022-10-23 13:20:23.540
65.0, -81652.50946909303, -114121.83810732819, 49139.50552219219, 42720.5315495171, 61499.953150743626, 101891.00824487308, 63142.73931297533, 64843.707066024195, 0.046, 0.9540000000000001, 0.106, 192.0, 0.0, 0.0, 0.0, 0.0, 0.0, 0.0, 0.0, 0.0, 0.0, 1.6665564235405583E9, 0.0, 2022-10-23 13:20:23.540
66.0, -81608.38712553825, -114083.99660396537, 48717.370476409254, 42455.86454342181, 61315.95359038754, 101572.98762476297, 62747.29225007204, 64245.23910823335, 0.058, 0.9540000000000001, 0.10400000000000001, 192.0, 1.0, 208.0, 29.0, 208.0, 3.0, 64.0, 0.0, 0.0, 0.0, 1.6665564235405662E9, 0.0, 2022-10-23 13:20:23.540
67.0, -81604.63203246976, -114072.28428987077, 46844.026070121065, 42503.67492481171, 61323.75434920244, 100889.94066595324, 61591.84117219939, 63165.58279580865, 0.058, 0.9540000000000001, 0.10400000000000001, 192.0, 0.0, 0.0, 0.0, 0.0, 0.0, 0.0, 0.0, 0.0, 0.0, 1.6665564235405743E9, 0.0, 2022-10-23 13:20:23.540
68.0, -81629.33071009288, -114101.09568847367, 46907.43796914077, 42621.89330123583, 61424.49366146251, 101034.48939734572, 61738.17804314829, 63469.96885180102, 0.058, 0.9540000000000001, 0.10400000000000001, 192.0, 0.0, 0.0, 0.0, 0.0, 0.0, 0.0, 0.0, 0.0, 0.0, 1.6665564235405824E9, 0.0, 2022-10-23 13:20:23.540
69.0, -81668.2227454451, -114145.6427151731, 48803.24587860655, 42720.50919777265, 61494.58873207435, 101786.98322617808, 62955.386990950945, 64676.761886687505, 0.058, 0.9540000000000001, 0.10400000000000001, 192.0, 0.0, 0.0, 0.0, 0.0, 0.0, 0.0, 0.0, 0.0, 0.0, 1.66655642354059E9, 0.0, 2022-10-23 13:20:23.540
70.0, -81594.19376780913, -114060.70608624294, 49116.90790854787, 42492.521404328516, 61334.37142781871, 101745.27487102448, 63017.63659925898, 64514.68938764208, 0.058, 0.9540000000000001, 0.10400000000000001, 192.0, 0.0, 0.0, 0.0, 0.0, 0.0, 0.0, 0.0, 0.0, 0.0, 1.6665564235405989E9, 0.0, 2022-10-23 13:20:23.540
71.0, -81563.79539534991, -114031.9170393845, 47009.89836572389, 42487.93929671518, 61309.69510194005, 100926.57517511549, 61673.53679818354, 63219.785776112774, 0.058, 0.9540000000000001, 0.10400000000000001, 192.0, 0.0, 0.0, 0.0, 0.0, 0.0, 0.0, 0.0, 0.0, 0.0, 1.6665564235406065E9, 0.0, 2022-10-23 13:20:23.540
72.0, -81582.48145371454, -114053.84410069515, 46785.576258370435, 42621.60272855792, 61427.242926030514, 100973.69265242729, 61642.78079781304, 63359.97591733646, 0.058, 0.9540000000000001, 0.10400000000000001, 192.0, 0.0, 0.0, 0.0, 0.0, 0.0, 0.0, 0.0, 0.0, 0.0, 1.666556423540614E9, 0.0, 2022-10-23 13:20:23.540
73.0, -81619.764163466, -114083.46016209843, 48398.522841754304, 42758.104831946475, 61537.280563983986, 101652.00104141248, 62715.105738056394, 64463.90622423962, 0.058, 0.9540000000000001, 0.10400000000000001, 192.0, 0.0, 0.0, 0.0, 0.0, 0.0, 0.0, 0.0, 0.0, 0.0, 1.6665564235406218E9, 0.0, 2022-10-23 13:20:23.540
74.0, -81607.44835227112, -114090.8809412576, 49399.0092753183, 42561.744756906606, 61401.158440251165, 101889.30951229448, 63223.04913080325, 64758.39045743829, 0.058, 0.9540000000000001, 0.10400000000000001, 192.0, 0.0, 0.0, 0.0, 0.0, 0.0, 0.0, 0.0, 0.0, 0.0, 1.6665564235406294E9, 0.0, 2022-10-23 13:20:23.540
75.0, -81574.9042123442, -114041.3718272891, 47276.68878754244, 42451.125973597285, 61289.310310996814, 101016.6974087593, 61832.301239049586, 63332.282105956336, 0.058, 0.9500000000000001, 0.106, 192.0, 1.0, 208.0, 29.0, 176.0, 3.0, 80.0, 0.0, 0.0, 0.0, 1.6665564235406375E9, 0.0, 2022-10-23 13:20:23.540
76.0, -81633.018747928, -114107.46593564343, 46682.95939957612, 42572.831222156434, 61381.935940019604, 100894.8133462445, 61546.713000144126, 63237.7789303993, 0.058, 0.9500000000000001, 0.106, 192.0, 0.0, 0.0, 0.0, 0.0, 0.0, 0.0, 0.0, 0.0, 0.0, 1.6665564235406456E9, 0.0, 2022-10-23 13:20:23.540
77.0, -81644.39578585576, -114136.16557552405, 47945.27416768958, 42708.34984878896, 61488.55376107142, 101454.5010274054, 62416.48643213349, 64180.41904931296, 0.058, 0.9500000000000001, 0.106, 192.0, 0.0, 0.0, 0.0, 0.0, 0.0, 0.0, 0.0, 0.0, 0.0, 1.6665564235406535E9, 0.0, 2022-10-23 13:20:23.540
78.0, -81597.0100876105, -114068.68565901347, 49521.16155876655, 42631.68336530726, 61455.204958344104, 101954.66601308179, 63316.39001564861, 64893.17147650379, 0.058, 0.9500000000000001, 0.106, 192.0, 0.0, 0.0, 0.0, 0.0, 0.0, 0.0, 0.0, 0.0, 0.0, 1.6665564235406616E9, 0.0, 2022-10-23 13:20:23.540
79.0, -81565.8070523509, -114035.00158011932, 47614.7365706845, 42442.14057232626, 61302.36372975871, 101124.74574145625, 62030.337694923604, 63523.90361117168, 0.058, 0.9500000000000001, 0.106, 192.0, 0.0, 0.0, 0.0, 0.0, 0.0, 0.0, 0.0, 0.0, 0.0, 1.6665564235406768E9, 0.0, 2022-10-23 13:20:23.540
80.0, -81615.65144248623, -114092.49026685838, 46676.90207682873, 42560.15778305028, 61379.5890068518, 100869.01943314308, 61525.188270233666, 63193.70129033343, 0.058, 0.9500000000000001, 0.106, 192.0, 0.0, 0.0, 0.0, 0.0, 0.0, 0.0, 0.0, 0.0, 0.0, 1.6665564235406845E9, 0.0, 2022-10-23 13:20:23.540
81.0, -81645.37926261178, -114128.32011322024, 47570.01073002943, 42685.193441533265, 61464.4585805486, 101297.27885690676, 62169.99139428037, 63932.80642423707, 0.058, 0.9500000000000001, 0.106, 192.0, 0.0, 0.0, 0.0, 0.0, 0.0, 0.0, 0.0, 0.0, 0.0, 1.666556423540692E9, 0.0, 2022-10-23 13:20:23.540
82.0, -81659.43850987418, -114129.59416265419, 49491.94782876347, 42654.32568244048, 61458.1553886122, 101954.77777180407, 63312.38905339111, 64940.95950614924, 0.058, 0.9500000000000001, 0.106, 192.0, 0.0, 0.0, 0.0, 0.0, 0.0, 0.0, 0.0, 0.0, 0.0, 1.6665564235407E9, 0.0, 2022-10-23 13:20:23.540
83.0, -81577.54171818992, -114047.58561224767, 48020.44308429278, 42427.76840064149, 61296.46286922251, 101270.34500483812, 62280.14079095612, 63763.49195998812, 0.058, 0.9500000000000001, 0.106, 192.0, 0.0, 0.0, 0.0, 0.0, 0.0, 0.0, 0.0, 0.0, 0.0, 1.6665564235407076E9, 0.0, 2022-10-23 13:20:23.540
84.0, -81597.4124190107, -114079.57095856321, 46697.71155091662, 42540.75646886307, 61364.72509678902, 100848.9028631333, 61512.51483112751, 63141.44291179692, 0.058, 0.9500000000000001, 0.106, 192.0, 0.0, 0.0, 0.0, 0.0, 0.0, 0.0, 0.0, 0.0, 0.0, 1.6665564235407155E9, 0.0, 2022-10-23 13:20:23.540
85.0, -81636.4162130852, -114127.56015390875, 47268.39629034952, 42651.50936263912, 61442.39740877121, 101170.879742012, 61968.043383126664, 63720.978942034126, 0.052000000000000005, 0.9520000000000001, 0.112, 192.0, 1.0, 160.0, 29.0, 192.0, 3.0, 128.0, 0.0, 0.0, 0.0, 1.666556423540723E9, 0.0, 2022-10-23 13:20:23.540
86.0, -81667.19456520016, -114156.30449727828, 49344.91805373646, 42687.94270610127, 61467.654880005706, 101927.24042263514, 63240.259974033834, 64902.581560919476, 0.052000000000000005, 0.9520000000000001, 0.112, 192.0, 0.0, 0.0, 0.0, 0.0, 0.0, 0.0, 0.0, 0.0, 0.0, 1.6665564235407312E9, 0.0, 2022-10-23 13:20:23.540
87.0, -81602.0615818574, -114082.14140917557, 48465.712185586955, 42424.19212152864, 61271.51832241039, 101432.52926260582, 62553.055590755415, 64024.13565208145, 0.052000000000000005, 0.9520000000000001, 0.112, 192.0, 0.0, 0.0, 0.0, 0.0, 0.0, 0.0, 0.0, 0.0, 0.0, 1.6665564235407388E9, 0.0, 2022-10-23 13:20:23.540
88.0, -81569.6068489083, -114046.28921106926, 46795.008694530574, 42548.42311721124, 61356.4325995961, 100860.2575493166, 61548.16586353372, 63144.88508044304, 0.052000000000000005, 0.9520000000000001, 0.112, 192.0, 0.0, 0.0, 0.0, 0.0, 0.0, 0.0, 0.0, 0.0, 0.0, 1.6665564235407465E9, 0.0, 2022-10-23 13:20:23.540
89.0, -81602.0615818574, -114082.45433359794, 47021.67773505184, 42655.84560106345, 61453.90855716569, 101051.92375802086, 61789.005910039654, 63551.1503876627, 0.052000000000000005, 0.9520000000000001, 0.112, 192.0, 0.0, 0.0, 0.0, 0.0, 0.0, 0.0, 0.0, 0.0, 0.0, 1.6665564235407543E9, 0.0, 2022-10-23 13:20:23.540
90.0, -81654.18584992718, -114135.58443016821, 49042.16367508932, 42730.50042754417, 61509.13971771476, 101825.11530221884, 63063.77059981473, 64777.90353034777, 0.052000000000000005, 0.9520000000000001, 0.112, 192.0, 0.0, 0.0, 0.0, 0.0, 0.0, 0.0, 0.0, 0.0, 0.0, 1.6665564235407617E9, 0.0, 2022-10-23 13:20:23.540
91.0, -81629.64363451525, -114112.07039500122, 48880.67232139973, 42435.03271758946, 61288.99738657444, 101584.83404932429, 62819.30957070704, 64305.05237639575, 0.052000000000000005, 0.9520000000000001, 0.112, 192.0, 0.0, 0.0, 0.0, 0.0, 0.0, 0.0, 0.0, 0.0, 0.0, 1.6665564235407696E9, 0.0, 2022-10-23 13:20:23.540
92.0, -81614.69031747464, -114084.80126676576, 46885.08622468546, 42447.773211928994, 61261.4600374055, 100827.8475198564, 61563.65562244125, 63113.458527738876, 0.052000000000000005, 0.9520000000000001, 0.112, 192.0, 0.0, 0.0, 0.0, 0.0, 0.0, 0.0, 0.0, 0.0, 0.0, 1.6665564235407784E9, 0.0, 2022-10-23 13:20:23.540
93.0, -81584.09077931533, -114072.55251080425, 46864.47791629767, 42626.49776059363, 61432.272068532955, 100968.37293724692, 61672.620376660874, 63412.59192378425, 0.052000000000000005, 0.9520000000000001, 0.112, 192.0, 0.0, 0.0, 0.0, 0.0, 0.0, 0.0, 0.0, 0.0, 0.0, 1.666556423540786E9, 0.0, 2022-10-23 13:20:23.540
94.0, -81632.48230606107, -114123.69330211799, 48664.84387693929, 42737.16124739185, 61525.322380700396, 101698.24680069051, 62841.72837039571, 64581.58815879681, 0.052000000000000005, 0.9520000000000001, 0.112, 192.0, 0.0, 0.0, 0.0, 0.0, 0.0, 0.0, 0.0, 0.0, 0.0, 1.6665564235407937E9, 0.0, 2022-10-23 13:20:23.540
95.0, -81599.06644810039, -114079.99564170786, 49239.88720654097, 42486.46408158113, 61350.37527684871, 101758.6188624643, 63069.44794290638, 64570.30052784688, 0.046, 0.9480000000000001, 0.108, 192.0, 1.0, 112.0, 29.0, 160.0, 3.0, 96.0, 0.0, 0.0, 0.0, 1.6665564235408099E9, 0.0, 2022-10-23 13:20:23.540
96.0, -81567.3046192294, -114045.77512094678, 47102.971029635795, 42446.40975551722, 61273.2617584779, 100905.78805277206, 61695.150935071826, 63215.62835164409, 0.046, 0.9480000000000001, 0.108, 192.0, 0.0, 0.0, 0.0, 0.0, 0.0, 0.0, 0.0, 0.0, 0.0, 1.6665564235408192E9, 0.0, 2022-10-23 13:20:23.540
97.0, -81604.47557025857, -114086.16472317753, 46725.517121019024, 42584.655294973294, 61377.2867771729, 100874.22738960116, 61556.45836072664, 63266.52327376882, 0.046, 0.9480000000000001, 0.108, 192.0, 0.0, 0.0, 0.0, 0.0, 0.0, 0.0, 0.0, 0.0, 0.0, 1.666556423540828E9, 0.0, 2022-10-23 13:20:23.540
98.0, -81627.3190530919, -114114.26086595785, 48199.771130057714, 42716.150607603864, 61489.29136863844, 101507.16173734209, 62546.685343585654, 64320.430376581004, 0.046, 0.9480000000000001, 0.108, 192.0, 0.0, 0.0, 0.0, 0.0, 0.0, 0.0, 0.0, 0.0, 0.0, 1.666556423540836E9, 0.0, 2022-10-23 13:20:23.540
99.0, -81593.54556721993, -114096.08889771569, 49439.4212292935, 42595.92057417877, 61421.2973620054, 101865.03551781601, 63222.82561335869, 64809.3971382853, 0.046, 0.9480000000000001, 0.108, 192.0, 0.0, 0.0, 0.0, 0.0, 0.0, 0.0, 0.0, 0.0, 0.0, 1.666556423540844E9, 0.0, 2022-10-23 13:20:23.540
100.0, -81579.88865135773, -114067.74688574635, 47373.80711720075, 42434.20570304462, 61271.78654334385, 100995.0385683821, 61856.73169573924, 63387.37915603867, 0.046, 0.9480000000000001, 0.108, 192.0, 0.0, 0.0, 0.0, 0.0, 0.0, 0.0, 0.0, 0.0, 0.0, 1.6665564235408516E9, 0.0, 2022-10-23 13:20:23.540
101.0, -81600.2063870676, -114070.56320554772, 46670.19655349214, 42553.206390524676, 61342.95449768955, 100831.2449850136, 61505.049348479435, 63193.433069399965, 0.046, 0.9480000000000001, 0.108, 192.0, 0.0, 0.0, 0.0, 0.0, 0.0, 0.0, 0.0, 0.0, 0.0, 1.6665564235408597E9, 0.0, 2022-10-23 13:20:23.540
102.0, -81616.74667796453, -114089.13750519008, 47783.02285468851, 42721.403267550864, 61480.104801667316, 101342.29527023975, 62284.052346235796, 64075.321146884104, 0.046, 0.9480000000000001, 0.108, 192.0, 0.0, 0.0, 0.0, 0.0, 0.0, 0.0, 0.0, 0.0, 0.0, 1.6665564235408676E9, 0.0, 2022-10-23 13:20:23.540
103.0, -81635.14216365125, -114112.69624384597, 49521.94386982249, 42628.10708619441, 61449.3040978079, 101915.21518411818, 63298.82154450674, 64933.337561289976, 0.046, 0.9480000000000001, 0.108, 192.0, 0.0, 0.0, 0.0, 0.0, 0.0, 0.0, 0.0, 0.0, 0.0, 1.6665564235408757E9, 0.0, 2022-10-23 13:20:23.540
104.0, -81596.13836957674, -114077.46989458441, 47751.506895006525, 42372.78310928144, 61242.952792996504, 101115.69328495185, 62085.9041316395, 63595.3621381953, 0.052000000000000005, 0.9480000000000001, 0.108, 192.0, 1.0, 160.0, 29.0, 160.0, 3.0, 96.0, 0.0, 0.0, 0.0, 1.6665564235408835E9, 0.0, 2022-10-23 13:20:23.540
105.0, -81596.11601783229, -114065.95874618994, 46677.88555358476, 42526.96544253414, 61329.0740643828, 100806.27808645704, 61485.268054636486, 63146.0026676658, 0.052000000000000005, 0.9480000000000001, 0.108, 192.0, 0.0, 0.0, 0.0, 0.0, 0.0, 0.0, 0.0, 0.0, 0.0, 1.666556423540892E9, 0.0, 2022-10-23 13:20:23.540
106.0, -81612.32103256238, -114093.54079884778, 47438.91774879906, 42695.45289223825, 61454.89203392173, 101197.8359458251, 62051.86242483407, 63841.410141159315, 0.052000000000000005, 0.9480000000000001, 0.108, 192.0, 0.0, 0.0, 0.0, 0.0, 0.0, 0.0, 0.0, 0.0, 0.0, 1.6665564235408998E9, 0.0, 2022-10-23 13:20:23.540
107.0, -81616.70197447563, -114098.43583088349, 49447.35609857513, 42705.82410166551, 61495.52750534147, 101913.09176839492, 63268.04319239178, 64949.8778521869, 0.052000000000000005, 0.9480000000000001, 0.108, 192.0, 0.0, 0.0, 0.0, 0.0, 0.0, 0.0, 0.0, 0.0, 0.0, 1.6665564235409076E9, 0.0, 2022-10-23 13:20:23.540
108.0, -81563.39306394971, -114046.06569362471, 48162.6672342619, 42430.04827857593, 61300.352072757734, 101277.51991480828, 62340.66931494109, 63863.6724786368, 0.052000000000000005, 0.9480000000000001, 0.108, 192.0, 0.0, 0.0, 0.0, 0.0, 0.0, 0.0, 0.0, 0.0, 0.0, 1.6665564235409155E9, 0.0, 2022-10-23 13:20:23.540
109.0, -81572.19965126511, -114049.79843494874, 46704.88646088677, 42539.080088028924, 61358.66777404163, 100803.28295270001, 61482.89876972423, 63141.24174609682, 0.052000000000000005, 0.9480000000000001, 0.108, 192.0, 0.0, 0.0, 0.0, 0.0, 0.0, 0.0, 0.0, 0.0, 0.0, 1.666556423540923E9, 0.0, 2022-10-23 13:20:23.540
110.0, -81596.49599748803, -114068.66330726902, 47147.003966212746, 42657.924313297786, 61448.700600707605, 101081.91979907987, 61858.095152151014, 63650.45918827763, 0.052000000000000005, 0.9480000000000001, 0.108, 192.0, 0.0, 0.0, 0.0, 0.0, 0.0, 0.0, 0.0, 0.0, 0.0, 1.6665564235409384E9, 0.0, 2022-10-23 13:20:23.540
111.0, -81634.56101829541, -114117.70303460397, 49226.16323544541, 42724.688973985794, 61503.75294730103, 101858.70997413517, 63149.60129852311, 64889.2152177352, 0.052000000000000005, 0.9480000000000001, 0.108, 192.0, 0.0, 0.0, 0.0, 0.0, 0.0, 0.0, 0.0, 0.0, 0.0, 1.666556423540947E9, 0.0, 2022-10-23 13:20:23.540
112.0, -81574.81480536638, -114060.48256879838, 48619.44748395056, 42445.538037483464, 61307.72814842799, 101471.6001119137, 62640.89794646478, 64176.17221786645, 0.052000000000000005, 0.9480000000000001, 0.108, 192.0, 0.0, 0.0, 0.0, 0.0, 0.0, 0.0, 0.0, 0.0, 0.0, 1.6665564235409548E9, 0.0, 2022-10-23 13:20:23.540
113.0, -81557.69336911361, -114039.98601913286, 46781.41883390175, 42512.21329119364, 61325.386026547676, 100797.7397200751, 61504.065871723404, 63140.52649027426, 0.052000000000000005, 0.9480000000000001, 0.108, 192.0, 0.0, 0.0, 0.0, 0.0, 0.0, 0.0, 0.0, 0.0, 0.0, 1.6665564235409636E9, 0.0, 2022-10-23 13:20:23.540
114.0, -81604.1179423473, -114090.05392671275, 46924.827626326995, 42623.97201347018, 61422.549059694895, 100968.328233758, 61697.27435079508, 63490.04071832189, 0.048, 0.9500000000000001, 0.114, 192.0, 1.0, 128.0, 29.0, 176.0, 3.0, 144.0, 0.0, 0.0, 0.0, 1.6665564235409715E9, 0.0, 2022-10-23 13:20:23.540
115.0, -81644.08286143337, -114115.46786015843, 48894.41864423975, 42728.35466007646, 61501.18249668867, 101741.65388842272, 62954.358810706, 64717.55382031844, 0.048, 0.9500000000000001, 0.114, 192.0, 0.0, 0.0, 0.0, 0.0, 0.0, 0.0, 0.0, 0.0, 0.0, 1.6665564235409796E9, 0.0, 2022-10-23 13:20:23.540
116.0, -81592.18211080815, -114076.21819689492, 49020.169558545305, 42450.075441607885, 61306.65526469413, 101625.2907067884, 62898.01006293417, 64432.83729944674, 0.048, 0.9500000000000001, 0.114, 192.0, 0.0, 0.0, 0.0, 0.0, 0.0, 0.0, 0.0, 0.0, 0.0, 1.6665564235409882E9, 0.0, 2022-10-23 13:20:23.540
117.0, -81558.38627319173, -114048.83730993717, 46955.15894355285, 42447.25912180652, 61262.331755439256, 100830.86500535787, 61590.76828846554, 63177.295109903236, 0.048, 0.9500000000000001, 0.114, 192.0, 0.0, 0.0, 0.0, 0.0, 0.0, 0.0, 0.0, 0.0, 0.0, 1.666556423540996E9, 0.0, 2022-10-23 13:20:23.540
118.0, -81620.34530882184, -114097.2288366829, 46799.613153888364, 42597.7534172241, 61399.347948950286, 100896.42267184528, 61600.91598044825, 63370.101257574715, 0.048, 0.9500000000000001, 0.114, 192.0, 0.0, 0.0, 0.0, 0.0, 0.0, 0.0, 0.0, 0.0, 0.0, 1.6665564235410037E9, 0.0, 2022-10-23 13:20:23.541
119.0, -81657.18098368419, -114129.95179056548, 48504.581869194735, 42722.74437221818, 61500.444889121645, 101604.10125304476, 62724.269953283074, 64512.58832366328, 0.048, 0.9500000000000001, 0.114, 192.0, 0.0, 0.0, 0.0, 0.0, 0.0, 0.0, 0.0, 0.0, 0.0, 1.6665564235410113E9, 0.0, 2022-10-23 13:20:23.541
120.0, -81594.4619887426, -114090.36685113513, 49357.90441726499, 42536.39787869428, 61383.411155153655, 101791.20770588014, 63144.86272869859, 64716.10095692885, 0.048, 0.9500000000000001, 0.114, 192.0, 0.0, 0.0, 0.0, 0.0, 0.0, 0.0, 0.0, 0.0, 0.0, 1.666556423541019E9, 0.0, 2022-10-23 13:20:23.541
121.0, -81557.22398248005, -114046.33391455817, 47223.692801438905, 42415.407885957706, 61260.6106711162, 100919.31085816752, 61755.321831145506, 63313.28312316932, 0.048, 0.9500000000000001, 0.114, 192.0, 0.0, 0.0, 0.0, 0.0, 0.0, 0.0, 0.0, 0.0, 0.0, 1.6665564240206962E9, 0.0, 2022-10-23 13:20:24.020
122.0, -81557.87218306925, -114046.28921106926, 46754.55203706647, 42607.23055687315, 61402.96893155205, 100867.70068022021, 61562.023945096014, 63299.4920968404, 0.048, 0.9500000000000001, 0.114, 192.0, 0.0, 0.0, 0.0, 0.0, 0.0, 0.0, 0.0, 0.0, 0.0, 1.6665564240207343E9, 0.0, 2022-10-23 13:20:24.020
123.0, -81609.03532612746, -114108.56117112175, 48119.304850018605, 42743.64325328389, 61520.159127731225, 101466.950949067, 62490.04602313591, 64292.42364077851, 0.048, 0.9500000000000001, 0.114, 192.0, 0.0, 0.0, 0.0, 0.0, 0.0, 0.0, 0.0, 0.0, 0.0, 1.666556424020782E9, 0.0, 2022-10-23 13:20:24.020
124.0, -81609.70587846111, -114111.77982232331, 49563.71928020946, 42583.78357693954, 61413.42954795713, 101894.36100654138, 63290.394936847086, 64894.08789802646, 0.048, 0.964, 0.108, 192.0, 1.0, 128.0, 30.0, 32.0, 3.0, 96.0, 0.0, 0.0, 0.0, 1.6665564240208E9, 0.0, 2022-10-23 13:20:24.020
125.0, -81558.76625284748, -114054.60406000663, 47576.93977081058, 42396.43125491515, 61252.117008223184, 101036.32224039105, 61954.81115040912, 63480.87650309521, 0.048, 0.964, 0.108, 192.0, 0.0, 0.0, 0.0, 0.0, 0.0, 0.0, 0.0, 0.0, 0.0, 1.6665564240208097E9, 0.0, 2022-10-23 13:20:24.020
126.0, -81577.87699435676, -114071.77019974831, 46760.609359813854, 42571.154841322284, 61381.71242257505, 100841.43738048524, 61532.98902904857, 63234.962610597926, 0.048, 0.964, 0.108, 192.0, 0.0, 0.0, 0.0, 0.0, 0.0, 0.0, 0.0, 0.0, 0.0, 1.6665564240209498E9, 0.0, 2022-10-23 13:20:24.020
127.0, -81618.46776228759, -114110.2822554448, 47765.72260448011, 42706.159377832344, 61483.591673802344, 101314.24383094834, 62248.17779638503, 64046.77796921468, 0.048, 0.964, 0.108, 192.0, 0.0, 0.0, 0.0, 0.0, 0.0, 0.0, 0.0, 0.0, 0.0, 1.6665564240209584E9, 0.0, 2022-10-23 13:20:24.020
128.0, -81636.3715095963, -114122.84393582869, 49619.88921402564, 42637.58422584346, 61441.704504693094, 101922.4571493217, 63332.63973386762, 64973.97303270973, 0.048, 0.964, 0.108, 192.0, 0.0, 0.0, 0.0, 0.0, 0.0, 0.0, 0.0, 0.0, 0.0, 1.6665564240209663E9, 0.0, 2022-10-23 13:20:24.020
129.0, -81587.04120958343, -114081.15793241953, 48020.35367731496, 42390.82096705687, 61246.48436862044, 101173.0255094797, 62218.65114195957, 63725.67280836974, 0.048, 0.964, 0.108, 192.0, 0.0, 0.0, 0.0, 0.0, 0.0, 0.0, 0.0, 0.0, 0.0, 1.6665564240209749E9, 0.0, 2022-10-23 13:20:24.020
130.0, -81609.6611749722, -114117.92655204852, 46823.90950011129, 42483.24543037957, 61299.94974135754, 100802.88062129983, 61537.1241017728, 63191.30965367671, 0.048, 0.964, 0.108, 192.0, 0.0, 0.0, 0.0, 0.0, 0.0, 0.0, 0.0, 0.0, 0.0, 1.6665564240209825E9, 0.0, 2022-10-23 13:20:24.020
131.0, -81608.02949762697, -114101.09568847367, 47476.89336262862, 42648.827153304475, 61428.33816150882, 101149.66793652391, 62038.16080548296, 63809.603608799414, 0.048, 0.964, 0.108, 192.0, 0.0, 0.0, 0.0, 0.0, 0.0, 0.0, 0.0, 0.0, 0.0, 1.6665564240209908E9, 0.0, 2022-10-23 13:20:24.020
132.0, -81622.9157594342, -114104.26963618632, 49584.17112638606, 42724.890139685886, 61519.89090679776, 101927.5086435686, 63334.83020482424, 64996.79416379859, 0.048, 0.964, 0.108, 192.0, 0.0, 0.0, 0.0, 0.0, 0.0, 0.0, 0.0, 0.0, 0.0, 1.6665564240209985E9, 0.0, 2022-10-23 13:20:24.020
133.0, -81565.73999711752, -114055.49812978484, 48552.43695407355, 42422.471037205585, 61298.60863669022, 101372.85010491016, 62558.151788491225, 64026.4155300159, 0.048, 0.962, 0.10400000000000001, 192.0, 1.0, 128.0, 30.0, 16.0, 3.0, 64.0, 0.0, 0.0, 0.0, 1.6665564240210063E9, 0.0, 2022-10-23 13:20:24.021
134.0, -81564.42124419466, -114064.95291768944, 46962.11033607845, 42520.37167791983, 61342.35100058925, 100823.75715062108, 61602.41354732675, 63195.243560700845, 0.048, 0.962, 0.10400000000000001, 192.0, 0.0, 0.0, 0.0, 0.0, 0.0, 0.0, 0.0, 0.0, 0.0, 1.666556424021021E9, 0.0, 2022-10-23 13:20:24.021
135.0, -81593.23264279755, -114071.63608928157, 47319.38061945208, 42653.20809521772, 61445.481949506044, 101077.87413333346, 61933.800510621135, 63676.297804867965, 0.048, 0.962, 0.10400000000000001, 192.0, 0.0, 0.0, 0.0, 0.0, 0.0, 0.0, 0.0, 0.0, 0.0, 1.6665564240210288E9, 0.0, 2022-10-23 13:20:24.021
136.0, -81641.35594860982, -114129.59416265419, 49397.22113576188, 42731.75212523367, 61501.629531577775, 101864.85670386038, 63235.20847978693, 64924.01688385211, 0.048, 0.962, 0.10400000000000001, 192.0, 0.0, 0.0, 0.0, 0.0, 0.0, 0.0, 0.0, 0.0, 0.0, 1.666556424021037E9, 0.0, 2022-10-23 13:20:24.021
137.0, -81547.18804921962, -114046.69154246946, 49057.80989620804, 42462.9723981586, 61315.886535154175, 101562.3258426578, 62881.96151041526, 64348.8394437837, 0.048, 0.962, 0.10400000000000001, 192.0, 0.0, 0.0, 0.0, 0.0, 0.0, 0.0, 0.0, 0.0, 0.0, 1.6665564240210447E9, 0.0, 2022-10-23 13:20:24.021
138.0, -81540.57193286085, -114033.3699027741, 47121.925308933896, 42511.69920107117, 61330.638686494676, 100834.24011877063, 61672.08393479395, 63224.34553198166, 0.048, 0.962, 0.10400000000000001, 192.0, 0.0, 0.0, 0.0, 0.0, 0.0, 0.0, 0.0, 0.0, 0.0, 1.6665564240210526E9, 0.0, 2022-10-23 13:20:24.021
139.0, -81580.33568624684, -114074.96649920542, 47171.76969906923, 42625.80485651551, 61428.78519639793, 100968.66350992484, 61806.55202943707, 63510.35845403177, 0.048, 0.962, 0.10400000000000001, 192.0, 0.0, 0.0, 0.0, 0.0, 0.0, 0.0, 0.0, 0.0, 0.0, 1.6665564240210605E9, 0.0, 2022-10-23 13:20:24.021
140.0, -81607.35894529331, -114090.9256447465, 49071.28799811459, 42750.70640453177, 61518.952133530634, 101728.62282140528, 63029.61713428702, 64713.35169236085, 0.048, 0.962, 0.10400000000000001, 192.0, 0.0, 0.0, 0.0, 0.0, 0.0, 0.0, 0.0, 0.0, 0.0, 1.666556424021068E9, 0.0, 2022-10-23 13:20:24.021
141.0, -81568.77983436345, -114059.0744088977, 49478.02269196781, 42519.70112558617, 61368.90487300216, 101727.52758592696, 63156.82091198217, 64625.06230176238, 0.048, 0.962, 0.10400000000000001, 192.0, 0.0, 0.0, 0.0, 0.0, 0.0, 0.0, 0.0, 0.0, 0.0, 1.6665564240210865E9, 0.0, 2022-10-23 13:20:24.021
142.0, -81548.48445039803, -114045.66336222451, 47410.55338508527, 42477.36692158782, 61311.66205545212, 100924.80938730352, 61847.56748051256, 63334.00319027939, 0.048, 0.962, 0.10400000000000001, 192.0, 0.0, 0.0, 0.0, 0.0, 0.0, 0.0, 0.0, 0.0, 0.0, 1.6665564240210943E9, 0.0, 2022-10-23 13:20:24.021
143.0, -81582.10147405881, -114069.13269390259, 47151.74253603727, 42600.055646903, 61405.51703041996, 100936.78992233158, 61785.49668616017, 63436.24006941797, 0.05, 0.9560000000000001, 0.10400000000000001, 192.0, 1.0, 144.0, 29.0, 224.0, 3.0, 64.0, 0.0, 0.0, 0.0, 1.6665564240211031E9, 0.0, 2022-10-23 13:20:24.021
144.0, -81620.76999196649, -114103.2861594303, 48741.5550639099, 42722.096171628975, 61506.301046168934, 101597.50748843045, 62835.693399392774, 64519.29384699987, 0.05, 0.9560000000000001, 0.10400000000000001, 192.0, 0.0, 0.0, 0.0, 0.0, 0.0, 0.0, 0.0, 0.0, 0.0, 1.6665564240211115E9, 0.0, 2022-10-23 13:20:24.021
145.0, -81575.19478502212, -114063.79062697776, 49840.679745755166, 42543.550436919984, 61389.64729185669, 101876.36785225486, 63404.74646148044, 64864.94122325674, 0.05, 0.9560000000000001, 0.10400000000000001, 192.0, 0.0, 0.0, 0.0, 0.0, 0.0, 0.0, 0.0, 0.0, 0.0, 1.6665564240211196E9, 0.0, 2022-10-23 13:20:24.021
146.0, -81538.73908981551, -114028.20664980491, 47734.13958956475, 42440.151267069734, 61276.50276142392, 100995.95498990477, 62014.78088078272, 63432.306162393834, 0.05, 0.9560000000000001, 0.10400000000000001, 192.0, 0.0, 0.0, 0.0, 0.0, 0.0, 0.0, 0.0, 0.0, 0.0, 1.6665564240211272E9, 0.0, 2022-10-23 13:20:24.021
147.0, -81586.75063690552, -114074.83238873868, 47145.886378989984, 42575.42402451325, 61388.88733254521, 100887.34786359643, 61741.21788039421, 63344.083827028735, 0.05, 0.9560000000000001, 0.10400000000000001, 192.0, 0.0, 0.0, 0.0, 0.0, 0.0, 0.0, 0.0, 0.0, 0.0, 1.666556424021135E9, 0.0, 2022-10-23 13:20:24.021
148.0, -81615.67379423068, -114098.10055471666, 48376.75224265483, 42711.85907266844, 61484.19517090263, 101431.92576550553, 62584.39273648176, 64245.30616346672, 0.05, 0.9560000000000001, 0.10400000000000001, 192.0, 0.0, 0.0, 0.0, 0.0, 0.0, 0.0, 0.0, 0.0, 0.0, 1.6665564240211427E9, 0.0, 2022-10-23 13:20:24.021
149.0, -81607.04602087093, -114090.54566509077, 50015.35862867339, 42610.315097607985, 61435.624830201254, 101958.59992010593, 63526.47406178404, 65005.0419575026, 0.05, 0.9560000000000001, 0.10400000000000001, 192.0, 0.0, 0.0, 0.0, 0.0, 0.0, 0.0, 0.0, 0.0, 0.0, 1.6665564240211508E9, 0.0, 2022-10-23 13:20:24.021
150.0, -81549.82555506534, -114040.20953657741, 48163.15897263992, 42418.22420575908, 61273.574682900275, 101146.24811962225, 62277.23506417693, 63657.008249403036, 0.05, 0.9560000000000001, 0.10400000000000001, 192.0, 0.0, 0.0, 0.0, 0.0, 0.0, 0.0, 0.0, 0.0, 0.0, 1.6665564240211587E9, 0.0, 2022-10-23 13:20:24.021
151.0, -81549.75849983198, -114051.43011229398, 47184.71135910885, 42573.99351286811, 61380.99716675248, 100875.83671520195, 61745.10708392943, 63291.19959964748, 0.05, 0.9560000000000001, 0.10400000000000001, 192.0, 0.0, 0.0, 0.0, 0.0, 0.0, 0.0, 0.0, 0.0, 0.0, 1.6665564240211663E9, 0.0, 2022-10-23 13:20:24.021
152.0, -81582.21323278108, -114079.01216495183, 48075.16015471937, 42709.02040112262, 61490.69952853913, 101324.1680054865, 62400.951969737056, 64040.13950111145, 0.05, 0.9560000000000001, 0.10400000000000001, 192.0, 0.0, 0.0, 0.0, 0.0, 0.0, 0.0, 0.0, 0.0, 0.0, 1.6665564240211742E9, 0.0, 2022-10-23 13:20:24.021
153.0, -81599.87111090079, -114089.45042961245, 50015.738608329135, 42684.0758543105, 61478.339013855344, 101984.05855704052, 63551.61977429626, 65048.94078361282, 0.048, 0.9560000000000001, 0.11, 192.0, 1.0, 128.0, 29.0, 224.0, 3.0, 112.0, 0.0, 0.0, 0.0, 1.666556424021182E9, 0.0, 2022-10-23 13:20:24.021
154.0, -81545.77988931893, -114038.51080399881, 48580.287227664856, 42429.55654019792, 61283.096526038236, 101291.82503125966, 62533.698980057125, 63878.469333466215, 0.048, 0.9560000000000001, 0.11, 192.0, 0.0, 0.0, 0.0, 0.0, 0.0, 0.0, 0.0, 0.0, 0.0, 1.6665564240211904E9, 0.0, 2022-10-23 13:20:24.021
155.0, -81562.00725579349, -114051.76538846082, 47218.75306591429, 42526.786628578506, 61345.0779134128, 100855.89895914782, 61743.65422053984, 63228.525308194796, 0.048, 0.9560000000000001, 0.11, 192.0, 0.0, 0.0, 0.0, 0.0, 0.0, 0.0, 0.0, 0.0, 0.0, 1.666556424021198E9, 0.0, 2022-10-23 13:20:24.021
156.0, -81578.83811936833, -114074.20653989394, 47708.099807274324, 42670.6201041484, 61448.36532454078, 101140.8166457196, 62141.44821661094, 63767.582329223434, 0.048, 0.9560000000000001, 0.11, 192.0, 0.0, 0.0, 0.0, 0.0, 0.0, 0.0, 0.0, 0.0, 0.0, 1.666556424021207E9, 0.0, 2022-10-23 13:20:24.021
157.0, -81605.72726794807, -114104.09082223069, 49778.00545430249, 42730.70159324427, 61511.129022971276, 101907.7049979812, 63416.01174068591, 64965.85934947245, 0.048, 0.9560000000000001, 0.11, 192.0, 0.0, 0.0, 0.0, 0.0, 0.0, 0.0, 0.0, 0.0, 0.0, 1.666556424021222E9, 0.0, 2022-10-23 13:20:24.021
158.0, -81551.16665973267, -114056.3698478186, 48984.093842994436, 42455.663377721714, 61310.03037810688, 101454.59043438321, 62789.6711575593, 64138.17425229243, 0.048, 0.9560000000000001, 0.11, 192.0, 0.0, 0.0, 0.0, 0.0, 0.0, 0.0, 0.0, 0.0, 0.0, 1.6665564240212297E9, 0.0, 2022-10-23 13:20:24.021
159.0, -81554.96645629007, -114054.4699495399, 47243.474095281854, 42513.24147143859, 61322.77087244641, 100838.10697056139, 61732.47834831219, 63193.32131067769, 0.048, 0.9560000000000001, 0.11, 192.0, 0.0, 0.0, 0.0, 0.0, 0.0, 0.0, 0.0, 0.0, 0.0, 1.6665564240212374E9, 0.0, 2022-10-23 13:20:24.021
160.0, -81595.37841026526, -114079.90623473004, 47432.949833029495, 42619.72518202367, 61408.780385110425, 101016.92092620385, 61950.9219468739, 63566.34957389231, 0.048, 0.9560000000000001, 0.11, 192.0, 0.0, 0.0, 0.0, 0.0, 0.0, 0.0, 0.0, 0.0, 0.0, 1.6665564240212452E9, 0.0, 2022-10-23 13:20:24.021
161.0, -81618.75833496552, -114115.17728748052, 49449.23364510938, 42729.47224729923, 61501.830697277874, 101810.27374390051, 63234.94025885347, 64812.86165867587, 0.048, 0.9560000000000001, 0.11, 192.0, 0.0, 0.0, 0.0, 0.0, 0.0, 0.0, 0.0, 0.0, 0.0, 1.666556424021253E9, 0.0, 2022-10-23 13:20:24.021
162.0, -81563.84009883882, -114065.66817351201, 49333.16103615297, 42474.01415991952, 61318.23346832198, 101598.1333372752, 63021.86107896103, 64399.46614497497, 0.048, 0.9560000000000001, 0.11, 192.0, 0.0, 0.0, 0.0, 0.0, 0.0, 0.0, 0.0, 0.0, 0.0, 1.6665564240212607E9, 0.0, 2022-10-23 13:20:24.021
163.0, -81557.2016307356, -114045.46219652442, 47289.18341269295, 42485.659418780735, 61295.03235757737, 100823.86890934336, 61736.74753150315, 63193.05308974422, 0.05, 0.9500000000000001, 0.10400000000000001, 192.0, 1.0, 144.0, 29.0, 176.0, 3.0, 64.0, 0.0, 0.0, 0.0, 1.6665564240212686E9, 0.0, 2022-10-23 13:20:24.021
164.0, -81604.07323885837, -114085.33770863268, 47210.48292046582, 42615.701868021715, 61411.663760145166, 100926.28460243758, 61798.863029344444, 63427.902868736135, 0.05, 0.9500000000000001, 0.10400000000000001, 192.0, 0.0, 0.0, 0.0, 0.0, 0.0, 0.0, 0.0, 0.0, 0.0, 1.6665564240212767E9, 0.0, 2022-10-23 13:20:24.021
165.0, -81626.7602594805, -114123.67095037353, 48972.49328762213, 42738.681166014816, 61496.60038907533, 101647.35187856578, 62946.82627282456, 64579.308280862366, 0.05, 0.9500000000000001, 0.10400000000000001, 192.0, 0.0, 0.0, 0.0, 0.0, 0.0, 0.0, 0.0, 0.0, 0.0, 1.6665564240212843E9, 0.0, 2022-10-23 13:20:24.021
166.0, -81570.99265706452, -114071.05494392574, 49609.51800459838, 42522.20452096516, 61348.318916358825, 101737.9658505876, 63218.869354590104, 64632.32661871036, 0.05, 0.9500000000000001, 0.10400000000000001, 192.0, 0.0, 0.0, 0.0, 0.0, 0.0, 0.0, 0.0, 0.0, 0.0, 1.6665564240212922E9, 0.0, 2022-10-23 13:20:24.021
167.0, -81521.1929704181, -114027.58080096016, 47454.452211195494, 42471.93544768518, 61287.43276446257, 100882.54223853853, 61834.37995128393, 63261.248262077366, 0.05, 0.9500000000000001, 0.10400000000000001, 192.0, 0.0, 0.0, 0.0, 0.0, 0.0, 0.0, 0.0, 0.0, 0.0, 1.6665564240213E9, 0.0, 2022-10-23 13:20:24.021
168.0, -81558.9450668031, -114064.3270688447, 47018.5484908281, 42602.38022832635, 61394.810544825865, 100831.96024083618, 61659.29873696551, 63280.671928009026, 0.05, 0.9500000000000001, 0.10400000000000001, 192.0, 0.0, 0.0, 0.0, 0.0, 0.0, 0.0, 0.0, 0.0, 0.0, 1.6665564240213077E9, 0.0, 2022-10-23 13:20:24.021
169.0, -81608.43182902716, -114109.4328891555, 48471.523639145336, 42741.92216896083, 61505.65284557973, 101471.84598110271, 62643.7366180106, 64322.35262660416, 0.05, 0.9500000000000001, 0.10400000000000001, 192.0, 0.0, 0.0, 0.0, 0.0, 0.0, 0.0, 0.0, 0.0, 0.0, 1.666556424021315E9, 0.0, 2022-10-23 13:20:24.021
170.0, -81599.17820682266, -114106.46010714295, 49773.490401922514, 42568.09265233191, 61393.80471632537, 101855.46897118914, 63360.69117315903, 64838.36499909938, 0.05, 0.9500000000000001, 0.10400000000000001, 192.0, 0.0, 0.0, 0.0, 0.0, 0.0, 0.0, 0.0, 0.0, 0.0, 1.666556424021323E9, 0.0, 2022-10-23 13:20:24.021
171.0, -81536.01217699196, -114046.98211514737, 47712.72661837657, 42417.19602551413, 61263.583453128755, 100998.45838528377, 62003.20267715486, 63426.852336746735, 0.05, 0.9500000000000001, 0.10400000000000001, 192.0, 0.0, 0.0, 0.0, 0.0, 0.0, 0.0, 0.0, 0.0, 0.0, 1.6665564240213308E9, 0.0, 2022-10-23 13:20:24.021
172.0, -81552.1501364887, -114051.54187101626, 46911.59539360945, 42590.13147236484, 61377.15266670617, 100797.9408857752, 61584.822724440426, 63200.9656072814, 0.05, 0.9540000000000001, 0.108, 192.0, 1.0, 144.0, 29.0, 208.0, 3.0, 96.0, 0.0, 0.0, 0.0, 1.6665564240213459E9, 0.0, 2022-10-23 13:20:24.021
173.0, -81595.17724456516, -114086.05296445524, 47978.06417680552, 42724.37604956342, 61491.638301806255, 101302.17388894247, 62343.217413809, 64055.53985304116, 0.05, 0.9540000000000001, 0.108, 192.0, 0.0, 0.0, 0.0, 0.0, 0.0, 0.0, 0.0, 0.0, 0.0, 1.6665564240213544E9, 0.0, 2022-10-23 13:20:24.021
174.0, -81592.87501488627, -114088.95869123444, 49748.29998592138, 42655.64443536335, 61458.46831303457, 101902.0053031451, 63385.188685082045, 64936.332695046985, 0.05, 0.9540000000000001, 0.108, 192.0, 0.0, 0.0, 0.0, 0.0, 0.0, 0.0, 0.0, 0.0, 0.0, 1.6665564240213625E9, 0.0, 2022-10-23 13:20:24.021
175.0, -81539.18612470462, -114040.58951623316, 48007.724941697714, 42430.60707218732, 61278.02268004688, 101127.89733742444, 62202.06614757373, 63633.2706967915, 0.05, 0.9540000000000001, 0.108, 192.0, 0.0, 0.0, 0.0, 0.0, 0.0, 0.0, 0.0, 0.0, 0.0, 1.6665564240213704E9, 0.0, 2022-10-23 13:20:24.021
176.0, -81551.97132253305, -114049.57491750419, 46863.9638261752, 42570.730158177634, 61368.234320668504, 100793.98462700662, 61568.036564354494, 63169.33788887715, 0.05, 0.9540000000000001, 0.108, 192.0, 0.0, 0.0, 0.0, 0.0, 0.0, 0.0, 0.0, 0.0, 0.0, 1.6665564240213785E9, 0.0, 2022-10-23 13:20:24.021
177.0, -81595.62427945426, -114093.85372327015, 47570.390709685176, 42688.38974099037, 61457.32837406736, 101161.96139597433, 62105.975998160364, 63829.16138519781, 0.05, 0.9540000000000001, 0.108, 192.0, 0.0, 0.0, 0.0, 0.0, 0.0, 0.0, 0.0, 0.0, 0.0, 1.6665564240213866E9, 0.0, 2022-10-23 13:20:24.021
178.0, -81616.47845703107, -114114.28321770231, 49587.09920490971, 42695.83287189399, 61476.75203999902, 101885.75558492608, 63329.66695185506, 64943.01586663913, 0.05, 0.9540000000000001, 0.108, 192.0, 0.0, 0.0, 0.0, 0.0, 0.0, 0.0, 0.0, 0.0, 0.0, 1.6665564240213945E9, 0.0, 2022-10-23 13:20:24.021
179.0, -81549.87025855426, -114049.88784192657, 48326.57257635267, 42433.28928152195, 61277.352127713224, 101254.16234185247, 62414.20655419905, 63870.95914732923, 0.05, 0.9540000000000001, 0.108, 192.0, 0.0, 0.0, 0.0, 0.0, 0.0, 0.0, 0.0, 0.0, 0.0, 1.6665564240214024E9, 0.0, 2022-10-23 13:20:24.021
180.0, -81552.64187486672, -114054.04526639525, 46799.25552597708, 42547.77491662204, 61349.2800413704, 100754.35498408736, 61515.822889306895, 63121.97454237635, 0.05, 0.9540000000000001, 0.108, 192.0, 0.0, 0.0, 0.0, 0.0, 0.0, 0.0, 0.0, 0.0, 0.0, 1.66655642402141E9, 0.0, 2022-10-23 13:20:24.021
181.0, -81599.3123172894, -114098.70405181695, 47172.306140936154, 42648.78244981557, 61432.29442027741, 101009.05311215558, 61853.11071313748, 63605.28631273346, 0.05, 0.9540000000000001, 0.108, 192.0, 0.0, 0.0, 0.0, 0.0, 0.0, 0.0, 0.0, 0.0, 0.0, 1.666556424021418E9, 0.0, 2022-10-23 13:20:24.021
182.0, -81627.65432925873, -114128.49892717588, 49235.23804369427, 42718.6316512384, 61494.38756637425, 101795.45453732664, 63148.126083389056, 64834.67696126425, 0.05, 0.9480000000000001, 0.1, 192.0, 1.0, 144.0, 29.0, 160.0, 3.0, 32.0, 0.0, 0.0, 0.0, 1.666556424021426E9, 0.0, 2022-10-23 13:20:24.021
183.0, -81546.22692420804, -114052.48064428338, 48694.28112438692, 42466.9733604161, 61316.04299736536, 101450.61182387017, 62694.45272617969, 64176.95452892239, 0.05, 0.9480000000000001, 0.1, 192.0, 0.0, 0.0, 0.0, 0.0, 0.0, 0.0, 0.0, 0.0, 0.0, 1.6665564240214343E9, 0.0, 2022-10-23 13:20:24.021
184.0, -81545.77988931893, -114054.0676181397, 46816.823997118954, 42511.90036677127, 61311.21502056301, 100767.94484471618, 61543.40494196474, 63126.82487092315, 0.05, 0.9480000000000001, 0.1, 192.0, 0.0, 0.0, 0.0, 0.0, 0.0, 0.0, 0.0, 0.0, 0.0, 1.6665564240214422E9, 0.0, 2022-10-23 13:20:24.021
185.0, -81575.79828212241, -114081.56026381973, 46875.02793968057, 42625.983670471156, 61407.10400427628, 100902.39058761485, 61681.65048142082, 63432.97671472749, 0.05, 0.9480000000000001, 0.1, 192.0, 0.0, 0.0, 0.0, 0.0, 0.0, 0.0, 0.0, 0.0, 0.0, 1.66655642402145E9, 0.0, 2022-10-23 13:20:24.021
186.0, -81608.38712553825, -114112.49507814588, 48781.497631251535, 42755.66849180085, 61514.41472940621, 101664.56272179636, 62906.50372582719, 64653.73958989854, 0.05, 0.9480000000000001, 0.1, 192.0, 0.0, 0.0, 0.0, 0.0, 0.0, 0.0, 0.0, 0.0, 0.0, 1.666556424021458E9, 0.0, 2022-10-23 13:20:24.021
187.0, -81563.32600871635, -114071.0772956702, 48961.49622935012, 42503.71962830063, 61347.04486692487, 101583.15766849014, 62896.55719954458, 64433.86547969169, 0.05, 0.9480000000000001, 0.1, 192.0, 0.0, 0.0, 0.0, 0.0, 0.0, 0.0, 0.0, 0.0, 0.0, 1.6665564240214725E9, 0.0, 2022-10-23 13:20:24.021
188.0, -81550.80903182138, -114060.3708100761, 46854.866666181886, 42475.75759598704, 61292.864238365204, 100778.89719949928, 61573.31157604594, 63160.91128121749, 0.05, 0.9480000000000001, 0.1, 192.0, 0.0, 0.0, 0.0, 0.0, 0.0, 0.0, 0.0, 0.0, 0.0, 1.6665564240214806E9, 0.0, 2022-10-23 13:20:24.021
189.0, -81578.54754669042, -114091.10445870215, 46629.38226811675, 42604.83892021643, 61395.212876226055, 100820.27027848606, 61541.66150589723, 63310.176230690035, 0.05, 0.9480000000000001, 0.1, 192.0, 0.0, 0.0, 0.0, 0.0, 0.0, 0.0, 0.0, 0.0, 0.0, 1.666556424021489E9, 0.0, 2022-10-23 13:20:24.021
190.0, -81617.35017506483, -114125.6379038856, 48267.83219192412, 42739.39642183738, 61498.768508287496, 101512.95083915602, 62630.370274826324, 64430.7585872124, 0.05, 0.9480000000000001, 0.1, 192.0, 0.0, 0.0, 0.0, 0.0, 0.0, 0.0, 0.0, 0.0, 0.0, 1.6665564240214963E9, 0.0, 2022-10-23 13:20:24.021
191.0, -81583.53198570394, -114095.91008376004, 49151.28489152013, 42547.1937712662, 61377.64440508419, 101718.27396372247, 63074.298271453175, 64670.83867440685, 0.05, 0.9480000000000001, 0.1, 192.0, 0.0, 0.0, 0.0, 0.0, 0.0, 0.0, 0.0, 0.0, 0.0, 1.6665564240215044E9, 0.0, 2022-10-23 13:20:24.021
192.0, -81530.15601994468, -114043.7187604569, 47005.18214764383, 42461.98892140257, 61292.05957556482, 100862.82799992895, 61695.24034204964, 63281.43188732051, 0.05, 0.962, 0.106, 192.0, 1.0, 144.0, 30.0, 16.0, 3.0, 80.0, 0.0, 0.0, 0.0, 1.6665564240215125E9, 0.0, 2022-10-23 13:20:24.021
193.0, -81564.98003780605, -114075.86056898363, 46459.799582934334, 42599.116873635874, 61393.91647504765, 100779.14306868828, 61458.22244384557, 63225.12784303759, 0.05, 0.962, 0.106, 192.0, 0.0, 0.0, 0.0, 0.0, 0.0, 0.0, 0.0, 0.0, 0.0, 1.6665564240215209E9, 0.0, 2022-10-23 13:20:24.021
194.0, -81610.15291335022, -114118.91002880456, 47764.00152015704, 42735.70838400226, 61494.54402858544, 101367.23981705187, 62360.33885006176, 64195.88645647603, 0.05, 0.962, 0.106, 192.0, 0.0, 0.0, 0.0, 0.0, 0.0, 0.0, 0.0, 0.0, 0.0, 1.6665564240215287E9, 0.0, 2022-10-23 13:20:24.021
195.0, -81586.23654678304, -114095.75362154885, 49252.91827355841, 42620.55219656852, 61425.38773124072, 101835.62062211284, 63212.49910742034, 64863.5107116116, 0.05, 0.962, 0.106, 192.0, 0.0, 0.0, 0.0, 0.0, 0.0, 0.0, 0.0, 0.0, 0.0, 1.6665564240215366E9, 0.0, 2022-10-23 13:20:24.021
196.0, -81527.71967979905, -114040.43305402197, 47266.31757811518, 42442.98993861556, 61273.865255578196, 100984.53324848811, 61893.0085769902, 63467.80073258886, 0.05, 0.962, 0.106, 192.0, 0.0, 0.0, 0.0, 0.0, 0.0, 0.0, 0.0, 0.0, 0.0, 1.6665564240215447E9, 0.0, 2022-10-23 13:20:24.021
197.0, -81565.2035552506, -114075.56999630571, 46353.382927582614, 42571.937152378225, 61367.20614042356, 100751.60571951936, 61416.22351601405, 63174.59054882414, 0.05, 0.962, 0.106, 192.0, 0.0, 0.0, 0.0, 0.0, 0.0, 0.0, 0.0, 0.0, 0.0, 1.6665564240215528E9, 0.0, 2022-10-23 13:20:24.021
198.0, -81598.97704112256, -114105.09665073117, 47281.60617132261, 42711.16616859033, 61467.05138290541, 101209.2353354973, 62095.53773349974, 63958.577985594035, 0.05, 0.962, 0.106, 192.0, 0.0, 0.0, 0.0, 0.0, 0.0, 0.0, 0.0, 0.0, 0.0, 1.6665564240215611E9, 0.0, 2022-10-23 13:20:24.021
199.0, -81603.1121138468, -114111.37749092311, 49174.46365052029, 42676.99035131816, 61466.1573131272, 101872.61275918636, 63234.403816986545, 64950.90603243185, 0.05, 0.962, 0.106, 192.0, 0.0, 0.0, 0.0, 0.0, 0.0, 0.0, 0.0, 0.0, 0.0, 1.6665564240215693E9, 0.0, 2022-10-23 13:20:24.021
200.0, -81542.65064509519, -114047.25033608083, 47608.65689619266, 42431.478790221074, 61271.54067415484, 101153.22186389231, 62155.93214701798, 63728.64559038229, 0.05, 0.962, 0.106, 192.0, 0.0, 0.0, 0.0, 0.0, 0.0, 0.0, 0.0, 0.0, 0.0, 1.6665564240215771E9, 0.0, 2022-10-23 13:20:24.021
201.0, -81555.01115977898, -114060.01318216482, 46330.02535462682, 42558.68256791623, 61354.51034957294, 100763.47449582512, 61432.92026912216, 63162.69942077392, 0.048, 0.964, 0.112, 192.0, 1.0, 128.0, 30.0, 32.0, 3.0, 128.0, 0.0, 0.0, 0.0, 1.6665564240215852E9, 0.0, 2022-10-23 13:20:24.021
202.0, -81582.74967464802, -114088.69047030098, 46920.4243326693, 42683.584115932485, 61460.167045613176, 101101.47757547827, 61908.87831555347, 63768.297585046006, 0.048, 0.964, 0.112, 192.0, 0.0, 0.0, 0.0, 0.0, 0.0, 0.0, 0.0, 0.0, 0.0, 1.6665564240215936E9, 0.0, 2022-10-23 13:20:24.021
203.0, -81606.7107447041, -114122.03927302829, 48997.281372223064, 42719.95040416127, 61504.69172056815, 101872.70216616419, 63193.3660141666, 64950.6825149873, 0.048, 0.964, 0.112, 192.0, 0.0, 0.0, 0.0, 0.0, 0.0, 0.0, 0.0, 0.0, 0.0, 1.6665564240216088E9, 0.0, 2022-10-23 13:20:24.021
204.0, -81555.18997373462, -114066.80811247924, 48003.679275951305, 42433.82572338888, 61290.94198834205, 101340.66359289452, 62449.41055171616, 64016.31254152209, 0.048, 0.964, 0.112, 192.0, 0.0, 0.0, 0.0, 0.0, 0.0, 0.0, 0.0, 0.0, 0.0, 1.6665564240216165E9, 0.0, 2022-10-23 13:20:24.021
205.0, -81564.01891279446, -114063.94708918895, 46356.758040995366, 42525.020840766534, 61336.11486388623, 100780.46182161116, 61470.40414457371, 63158.72081026087, 0.048, 0.964, 0.112, 192.0, 0.0, 0.0, 0.0, 0.0, 0.0, 0.0, 0.0, 0.0, 0.0, 1.666556424021624E9, 0.0, 2022-10-23 13:20:24.021
206.0, -81589.99163985153, -114100.31337741774, 46622.92261396917, 42643.64154859085, 61429.20987954258, 100992.55752474756, 61739.541499560066, 63577.167818208676, 0.048, 0.964, 0.112, 192.0, 0.0, 0.0, 0.0, 0.0, 0.0, 0.0, 0.0, 0.0, 0.0, 1.666556424021632E9, 0.0, 2022-10-23 13:20:24.021
207.0, -81604.18499758065, -114112.07039500122, 48665.00033915047, 42745.81137249606, 61512.4701276386, 101787.98905467858, 63031.517032565724, 64818.337836067425, 0.048, 0.964, 0.112, 192.0, 0.0, 0.0, 0.0, 0.0, 0.0, 0.0, 0.0, 0.0, 0.0, 1.66655642402164E9, 0.0, 2022-10-23 13:20:24.021
208.0, -81552.93244754463, -114063.90238570004, 48380.14970781204, 42471.756633729536, 61320.28982881187, 101518.20349910302, 62719.41962473627, 64294.368242546116, 0.048, 0.964, 0.112, 192.0, 0.0, 0.0, 0.0, 0.0, 0.0, 0.0, 0.0, 0.0, 0.0, 1.6665564240216477E9, 0.0, 2022-10-23 13:20:24.021
209.0, -81551.83721206633, -114057.88976644157, 46441.02411759188, 42494.73422702959, 61310.835040907274, 100808.40150218029, 61521.03084576498, 63172.55654007871, 0.048, 0.964, 0.112, 192.0, 0.0, 0.0, 0.0, 0.0, 0.0, 0.0, 0.0, 0.0, 0.0, 1.6665564240216556E9, 0.0, 2022-10-23 13:20:24.021
210.0, -81574.34541873282, -114077.84987424016, 46420.21464350398, 42621.17804541327, 61406.29934147589, 100920.87548027938, 61608.73909100761, 63428.953400725535, 0.048, 0.964, 0.112, 192.0, 0.0, 0.0, 0.0, 0.0, 0.0, 0.0, 0.0, 0.0, 0.0, 1.6665564240216632E9, 0.0, 2022-10-23 13:20:24.021
211.0, -81602.73213419106, -114103.75554606385, 48269.12859310253, 42771.13589896392, 61525.41178767822, 101680.90184699319, 62809.541858380064, 64630.38201694275, 0.042, 0.96, 0.112, 192.0, 1.0, 80.0, 30.0, 0.0, 3.0, 128.0, 0.0, 0.0, 0.0, 1.666556424021671E9, 0.0, 2022-10-23 13:20:24.021
212.0, -81557.62631388025, -114064.1706066335, 48755.72606989456, 42535.70497461617, 61366.28971890089, 101719.57036490088, 62991.596816968544, 64589.63478680072, 0.042, 0.96, 0.112, 192.0, 0.0, 0.0, 0.0, 0.0, 0.0, 0.0, 0.0, 0.0, 0.0, 1.6665564240216792E9, 0.0, 2022-10-23 13:20:24.021
213.0, -81531.8994560122, -114035.1133388416, 46603.92363118215, 42476.60696227634, 61292.48425870947, 100866.0019476416, 61612.33772186491, 63237.64481993256, 0.042, 0.96, 0.112, 192.0, 0.0, 0.0, 0.0, 0.0, 0.0, 0.0, 0.0, 0.0, 0.0, 1.6665564240216868E9, 0.0, 2022-10-23 13:20:24.021
214.0, -81562.38723544923, -114062.04719091025, 46289.30047622925, 42610.78448424154, 61401.62782688473, 100871.99221515564, 61521.343770187355, 63324.39194016361, 0.042, 0.96, 0.112, 192.0, 0.0, 0.0, 0.0, 0.0, 0.0, 0.0, 0.0, 0.0, 0.0, 1.6665564240216947E9, 0.0, 2022-10-23 13:20:24.021
215.0, -81612.11986686228, -114114.86436305814, 47819.23268070611, 42742.70448001677, 61501.65188332223, 101523.72437998348, 62538.68341907066, 64383.50699943388, 0.042, 0.96, 0.112, 192.0, 0.0, 0.0, 0.0, 0.0, 0.0, 0.0, 0.0, 0.0, 0.0, 1.6665564240217023E9, 0.0, 2022-10-23 13:20:24.021
216.0, -81590.7068956741, -114099.7769355508, 48964.04432821803, 42564.8963528748, 61385.73573657701, 101827.59634585338, 63143.83454845364, 64782.753858894575, 0.042, 0.96, 0.112, 192.0, 0.0, 0.0, 0.0, 0.0, 0.0, 0.0, 0.0, 0.0, 0.0, 1.66655642402171E9, 0.0, 2022-10-23 13:20:24.021
217.0, -81537.30857817037, -114048.07735062568, 46850.35161380191, 42439.324252524886, 61266.28801420784, 100947.51875967011, 61757.06526721302, 63361.45113247051, 0.042, 0.96, 0.112, 192.0, 0.0, 0.0, 0.0, 0.0, 0.0, 0.0, 0.0, 0.0, 0.0, 1.666556424021718E9, 0.0, 2022-10-23 13:20:24.021
218.0, -81563.12484301625, -114070.0714671697, 46178.547582453204, 42582.95656239469, 61377.19737019508, 100808.80383358047, 61432.67439993315, 63222.155061025034, 0.042, 0.96, 0.112, 192.0, 0.0, 0.0, 0.0, 0.0, 0.0, 0.0, 0.0, 0.0, 0.0, 1.6665564240217328E9, 0.0, 2022-10-23 13:20:24.021
219.0, -81598.21708181109, -114100.9839297514, 47339.184265039476, 42731.70742174476, 61492.17474367318, 101340.95416557243, 62240.019409658846, 64116.49306017078, 0.042, 0.96, 0.112, 192.0, 0.0, 0.0, 0.0, 0.0, 0.0, 0.0, 0.0, 0.0, 0.0, 1.666556424021741E9, 0.0, 2022-10-23 13:20:24.021
220.0, -81588.44936948412, -114094.23370292589, 49015.676857909784, 42650.01179576061, 61452.38863854273, 101893.44458501872, 63211.15800275302, 64920.1723838058, 0.042, 0.96, 0.112, 192.0, 0.0, 0.0, 0.0, 0.0, 0.0, 0.0, 0.0, 0.0, 0.0, 1.6665564240217495E9, 0.0, 2022-10-23 13:20:24.021
221.0, -81542.98592126202, -114052.81592045022, 47180.93391429591, 42425.93555759616, 61264.65633686261, 101085.51842993718, 61970.0773918721, 63576.027879241454, 0.046, 0.9520000000000001, 0.098, 192.0, 1.0, 112.0, 29.0, 192.0, 3.0, 16.0, 0.0, 0.0, 0.0, 1.6665564240217571E9, 0.0, 2022-10-23 13:20:24.021
222.0, -81560.91202031518, -114068.03745842427, 46133.12883772002, 42557.14029754881, 61348.81065473684, 100786.76501354754, 61393.491791903, 63173.3612028791, 0.046, 0.9520000000000001, 0.098, 192.0, 0.0, 0.0, 0.0, 0.0, 0.0, 0.0, 0.0, 0.0, 0.0, 1.6665564240217657E9, 0.0, 2022-10-23 13:20:24.021
223.0, -81590.93041311865, -114100.26867392883, 46945.63710041489, 42688.99323809067, 61451.33810655333, 101199.95936154836, 62001.0345579427, 63888.661728937834, 0.046, 0.9520000000000001, 0.098, 192.0, 0.0, 0.0, 0.0, 0.0, 0.0, 0.0, 0.0, 0.0, 0.0, 1.6665564240217736E9, 0.0, 2022-10-23 13:20:24.021
224.0, -81593.4114567532, -114108.87409554412, 48929.890862690314, 42682.91356359882, 61460.88230143575, 101905.49217528012, 63197.43403165747, 64954.012924911134, 0.046, 0.9520000000000001, 0.098, 192.0, 0.0, 0.0, 0.0, 0.0, 0.0, 0.0, 0.0, 0.0, 0.0, 1.6665564240217812E9, 0.0, 2022-10-23 13:20:24.021
225.0, -81532.68176706812, -114043.76346394581, 47545.2226454285, 42423.40981047271, 61265.86333106319, 101239.67841144543, 62213.443185501485, 63812.39757685633, 0.046, 0.9520000000000001, 0.098, 192.0, 0.0, 0.0, 0.0, 0.0, 0.0, 0.0, 0.0, 0.0, 0.0, 1.6665564240217898E9, 0.0, 2022-10-23 13:20:24.021
226.0, -81550.22788646554, -114060.52727228729, 46113.90633748846, 42537.47076242814, 61332.918564429114, 100779.36658613285, 61384.12641097623, 63130.82583318065, 0.046, 0.9520000000000001, 0.098, 192.0, 0.0, 0.0, 0.0, 0.0, 0.0, 0.0, 0.0, 0.0, 0.0, 1.6665564240217984E9, 0.0, 2022-10-23 13:20:24.021
227.0, -81580.15687229119, -114087.68464180049, 46608.79631147341, 42661.34413019945, 61432.71910342206, 101088.84883986102, 61803.44513695779, 63683.04803169347, 0.046, 0.9520000000000001, 0.098, 192.0, 0.0, 0.0, 0.0, 0.0, 0.0, 0.0, 0.0, 0.0, 0.0, 1.666556424021806E9, 0.0, 2022-10-23 13:20:24.021
228.0, -81607.35894529331, -114110.25990370035, 48686.413310338656, 42714.72009595872, 61479.948339456125, 101863.44854395969, 63088.491629182296, 64889.32697645748, 0.046, 0.9520000000000001, 0.098, 192.0, 0.0, 0.0, 0.0, 0.0, 0.0, 0.0, 0.0, 0.0, 0.0, 1.666556424021814E9, 0.0, 2022-10-23 13:20:24.021
229.0, -81547.38921491972, -114055.74399897385, 47954.05840326052, 42436.82085714589, 61283.63296790516, 101426.1366636916, 62501.15484013019, 64104.5795803761, 0.046, 0.9520000000000001, 0.098, 192.0, 0.0, 0.0, 0.0, 0.0, 0.0, 0.0, 0.0, 0.0, 0.0, 1.666556424021822E9, 0.0, 2022-10-23 13:20:24.021
230.0, -81549.80320332089, -114061.8683769546, 46168.15402128149, 42506.1336167018, 61309.96332287352, 100794.3869584068, 61417.47521370354, 63132.479862270346, 0.046, 0.9520000000000001, 0.098, 192.0, 0.0, 0.0, 0.0, 0.0, 0.0, 0.0, 0.0, 0.0, 0.0, 1.6665564240218296E9, 0.0, 2022-10-23 13:20:24.021
231.0, -81573.94308733262, -114086.14237143307, 46325.91263364704, 42631.146923440334, 61406.3440449648, 100971.52453321511, 61621.21136441367, 63497.41679399214, 0.04, 0.9520000000000001, 0.1, 192.0, 1.0, 64.0, 29.0, 192.0, 3.0, 32.0, 0.0, 0.0, 0.0, 1.6665564240218377E9, 0.0, 2022-10-23 13:20:24.021
232.0, -81606.62133772628, -114115.91489504754, 48307.23831739883, 42746.012538196155, 61496.2651129085, 101752.15920831672, 62884.710774983265, 64735.72578856061, 0.04, 0.9520000000000001, 0.1, 192.0, 0.0, 0.0, 0.0, 0.0, 0.0, 0.0, 0.0, 0.0, 0.0, 1.6665564240218458E9, 0.0, 2022-10-23 13:20:24.021
233.0, -81558.63214238074, -114068.86447296912, 48315.553166336205, 42485.279439125, 61315.595962476254, 101595.11585177373, 62758.64693625533, 64392.80532512729, 0.04, 0.9520000000000001, 0.1, 192.0, 0.0, 0.0, 0.0, 0.0, 0.0, 0.0, 0.0, 0.0, 0.0, 1.6665564240218537E9, 0.0, 2022-10-23 13:20:24.021
234.0, -81548.97618877604, -114061.44369380995, 46279.59981913565, 42484.407721091244, 61289.35501448572, 100831.13322629133, 61488.95609247161, 63181.5642930942, 0.04, 0.9520000000000001, 0.1, 192.0, 0.0, 0.0, 0.0, 0.0, 0.0, 0.0, 0.0, 0.0, 0.0, 1.6665564240218685E9, 0.0, 2022-10-23 13:20:24.021
235.0, -81584.6048694378, -114091.70795580244, 46130.60309059657, 42608.772827240566, 61386.11571623274, 100892.9134479658, 61501.003682733026, 63366.0555918283, 0.04, 0.9520000000000001, 0.1, 192.0, 0.0, 0.0, 0.0, 0.0, 0.0, 0.0, 0.0, 0.0, 0.0, 1.6665564240218763E9, 0.0, 2022-10-23 13:20:24.021
236.0, -81634.09163166185, -114136.52320343534, 47850.368660732354, 42741.184561393806, 61487.6149878043, 101602.93896233308, 62627.97863816961, 64511.783660862886, 0.04, 0.9520000000000001, 0.1, 192.0, 0.0, 0.0, 0.0, 0.0, 0.0, 0.0, 0.0, 0.0, 0.0, 1.6665564240218842E9, 0.0, 2022-10-23 13:20:24.021
237.0, -81581.34151474733, -114090.4786098574, 48586.52336436789, 42531.21227398065, 61353.683335028094, 101740.24572852203, 62972.28490975916, 64643.12251128227, 0.04, 0.9520000000000001, 0.1, 192.0, 0.0, 0.0, 0.0, 0.0, 0.0, 0.0, 0.0, 0.0, 0.0, 1.666556424021892E9, 0.0, 2022-10-23 13:20:24.021
238.0, -81535.07340372485, -114043.65170522353, 46427.72482964097, 42461.69834872465, 61277.75445911342, 100875.52379077957, 61584.66626222924, 63261.449427777465, 0.04, 0.9520000000000001, 0.1, 192.0, 0.0, 0.0, 0.0, 0.0, 0.0, 0.0, 0.0, 0.0, 0.0, 1.6665564240219E9, 0.0, 2022-10-23 13:20:24.021
239.0, -81574.30071524391, -114080.19680740796, 45982.43337660234, 42603.29664984902, 61395.05641401487, 100833.65897341479, 61413.2954374904, 63272.3347273272, 0.04, 0.9520000000000001, 0.1, 192.0, 0.0, 0.0, 0.0, 0.0, 0.0, 0.0, 0.0, 0.0, 0.0, 1.6665564240219088E9, 0.0, 2022-10-23 13:20:24.021
240.0, -81613.25980582951, -114118.86532531564, 47373.00245440036, 42735.6860322578, 61491.57124657289, 101439.32419292023, 62355.19794883704, 64270.787152145764, 0.042, 0.9560000000000001, 0.1, 192.0, 1.0, 80.0, 29.0, 224.0, 3.0, 32.0, 0.0, 0.0, 0.0, 1.666556424021917E9, 0.0, 2022-10-23 13:20:24.021
241.0, -81583.24141302603, -114093.07141221422, 48726.15471198019, 42604.48129230515, 61412.6472369012, 101839.6886396037, 63104.24960902329, 64830.02779841755, 0.042, 0.9560000000000001, 0.1, 192.0, 0.0, 0.0, 0.0, 0.0, 0.0, 0.0, 0.0, 0.0, 0.0, 1.6665564244987392E9, 0.0, 2022-10-23 13:20:24.498
242.0, -81536.63802583671, -114046.62448723608, 46701.53369921848, 42448.73433694057, 61283.65531964962, 100991.66345496936, 61769.76105806364, 63434.78720602837, 0.042, 0.9560000000000001, 0.1, 192.0, 0.0, 0.0, 0.0, 0.0, 0.0, 0.0, 0.0, 0.0, 0.0, 1.666556424498794E9, 0.0, 2022-10-23 13:20:24.498
243.0, -81571.0597122979, -114079.66036554103, 45889.98656153519, 42577.256867558586, 61370.44714336958, 100794.29755142899, 61354.21977689502, 63198.28339794677, 0.042, 0.9560000000000001, 0.1, 192.0, 0.0, 0.0, 0.0, 0.0, 0.0, 0.0, 0.0, 0.0, 0.0, 1.6665564244988353E9, 0.0, 2022-10-23 13:20:24.498
244.0, -81602.9109481467, -114116.94307529248, 46905.15809120633, 42716.374125048416, 61477.53435105495, 101272.46842056137, 62077.07519257966, 64019.21826830129, 0.042, 0.9560000000000001, 0.1, 192.0, 0.0, 0.0, 0.0, 0.0, 0.0, 0.0, 0.0, 0.0, 0.0, 1.6665564244988444E9, 0.0, 2022-10-23 13:20:24.498
245.0, -81600.89929114572, -114111.95863627896, 48715.850557786296, 42650.12355448289, 61446.39837102871, 101882.96161686917, 63147.701400244405, 64932.71171244523, 0.042, 0.9560000000000001, 0.1, 192.0, 0.0, 0.0, 0.0, 0.0, 0.0, 0.0, 0.0, 0.0, 0.0, 1.6665564244988525E9, 0.0, 2022-10-23 13:20:24.498
246.0, -81541.64481659471, -114049.55256575973, 47028.89734851091, 42426.49435120754, 61262.21999671698, 101119.5154332537, 61993.926703205914, 63653.297859823455, 0.042, 0.9560000000000001, 0.1, 192.0, 0.0, 0.0, 0.0, 0.0, 0.0, 0.0, 0.0, 0.0, 0.0, 1.6665564244988606E9, 0.0, 2022-10-23 13:20:24.498
247.0, -81561.89549707121, -114069.35621134714, 45856.92833148579, 42558.21318128266, 61345.435541324085, 100772.52695232951, 61339.646439510165, 63157.73733350484, 0.042, 0.9560000000000001, 0.1, 192.0, 0.0, 0.0, 0.0, 0.0, 0.0, 0.0, 0.0, 0.0, 0.0, 1.6665564244988687E9, 0.0, 2022-10-23 13:20:24.498
248.0, -81599.64759345622, -114103.80024955276, 46562.21527602855, 42684.67935141079, 61450.33227805285, 101154.6747272819, 61885.207818175295, 63817.69494029224, 0.042, 0.9560000000000001, 0.1, 192.0, 0.0, 0.0, 0.0, 0.0, 0.0, 0.0, 0.0, 0.0, 0.0, 1.6665564244988768E9, 0.0, 2022-10-23 13:20:24.498
249.0, -81615.18205585267, -114121.03344452781, 48610.3726757017, 42703.32070628652, 61474.51686555349, 101893.53399199653, 63133.3515803041, 64951.82245395452, 0.042, 0.9560000000000001, 0.1, 192.0, 0.0, 0.0, 0.0, 0.0, 0.0, 0.0, 0.0, 0.0, 0.0, 1.6665564244989345E9, 0.0, 2022-10-23 13:20:24.498
250.0, -81553.15596498919, -114063.70121999994, 47437.062554009266, 42433.021060588486, 61270.04310727634, 101285.18656315644, 62264.829846004235, 63917.36136881845, 0.046, 0.9580000000000001, 0.098, 192.0, 1.0, 112.0, 29.0, 240.0, 3.0, 16.0, 0.0, 0.0, 0.0, 1.6665564244989424E9, 0.0, 2022-10-23 13:20:24.498
251.0, -81561.78373834894, -114068.30567935774, 45875.74850031716, 42537.247244983584, 61330.01283764993, 100762.46866732463, 61337.411265064635, 63131.697551214405, 0.046, 0.9580000000000001, 0.098, 192.0, 0.0, 0.0, 0.0, 0.0, 0.0, 0.0, 0.0, 0.0, 0.0, 1.666556424498952E9, 0.0, 2022-10-23 13:20:24.498
252.0, -81591.89153813024, -114098.14525820556, 46232.929376712964, 42654.95153128523, 61426.192394041114, 101011.2882866011, 61664.70785912369, 63604.705167377615, 0.046, 0.9580000000000001, 0.098, 192.0, 0.0, 0.0, 0.0, 0.0, 0.0, 0.0, 0.0, 0.0, 0.0, 1.6665564244989595E9, 0.0, 2022-10-23 13:20:24.498
253.0, -81619.74181172154, -114131.11408127715, 48312.49097734583, 42732.80265722307, 61491.86181925081, 101800.61779029582, 62968.17218877938, 64845.78577825854, 0.046, 0.9580000000000001, 0.098, 192.0, 0.0, 0.0, 0.0, 0.0, 0.0, 0.0, 0.0, 0.0, 0.0, 1.6665564244989676E9, 0.0, 2022-10-23 13:20:24.498
254.0, -81567.1034535293, -114084.44363885447, 47862.32684401594, 42453.584665487375, 61286.94102608455, 101461.0500885308, 62549.792236064946, 64219.04286373173, 0.046, 0.9580000000000001, 0.098, 192.0, 0.0, 0.0, 0.0, 0.0, 0.0, 0.0, 0.0, 0.0, 0.0, 1.6665564244989755E9, 0.0, 2022-10-23 13:20:24.498
255.0, -81540.5495811164, -114057.53213853028, 45971.92805670835, 42515.76721856204, 61304.330683270775, 100770.60470230636, 61383.99230050949, 63152.797597980214, 0.046, 0.9580000000000001, 0.098, 192.0, 0.0, 0.0, 0.0, 0.0, 0.0, 0.0, 0.0, 0.0, 0.0, 1.6665564244989836E9, 0.0, 2022-10-23 13:20:24.498
0.0, -81576.3570757338, -114089.78570577929, 46043.3195284986, 42635.79608628703, 61414.524783435445, 100914.50523310962, 61535.13479651628, 63467.57721514431, 0.046, 0.9580000000000001, 0.098, 192.0, 0.0, 0.0, 0.0, 0.0, 0.0, 0.0, 0.0, 0.0, 0.0, 1.6665564244989915E9, 0.0, 2022-10-23 13:20:24.498
1.0, -81620.90410243323, -114127.24722948638, 47988.9271246108, 42754.193276666796, 61511.30783692692, 101697.26332393449, 62793.538009350064, 64702.04170966646, 0.046, 0.9580000000000001, 0.098, 192.0, 0.0, 0.0, 0.0, 0.0, 0.0, 0.0, 0.0, 0.0, 0.0, 1.666556424498999E9, 0.0, 2022-10-23 13:20:24.498
2.0, -81591.04217184093, -114095.9771389934, 48289.98277067933, 42497.88582299779, 61329.364637060724, 101648.00007915498, 62847.91980360983, 64527.60869593724, 0.046, 0.9580000000000001, 0.098, 192.0, 0.0, 0.0, 0.0, 0.0, 0.0, 0.0, 0.0, 0.0, 0.0, 1.6665564244990072E9, 0.0, 2022-10-23 13:20:24.499
3.0, -81564.64476163921, -114072.66426952652, 46203.76035019879, 42470.23671510658, 61276.68157537957, 100835.06713331546, 61522.88604055477, 63233.71091290843, 0.046, 0.9580000000000001, 0.098, 192.0, 0.0, 0.0, 0.0, 0.0, 0.0, 0.0, 0.0, 0.0, 0.0, 1.666556424499015E9, 0.0, 2022-10-23 13:20:24.499
4.0, -81584.40370373771, -114095.91008376004, 45963.25557985969, 42605.33065859445, 61378.47141962903, 100855.11664809188, 61469.957109684605, 63354.87971960065, 0.04, 0.9540000000000001, 0.1, 192.0, 1.0, 64.0, 29.0, 208.0, 3.0, 32.0, 0.0, 0.0, 0.0, 1.666556424499023E9, 0.0, 2022-10-23 13:20:24.499
5.0, -81625.84383795784, -114140.07713080372, 47599.89501236618, 42745.520799818136, 61488.66551979369, 101541.65047903663, 62550.976878521076, 64466.29786089634, 0.04, 0.9540000000000001, 0.1, 192.0, 0.0, 0.0, 0.0, 0.0, 0.0, 0.0, 0.0, 0.0, 0.0, 1.6665564244990315E9, 0.0, 2022-10-23 13:20:24.499
6.0, -81579.91100310218, -114090.09863020167, 48583.55058235533, 42563.555248207485, 61372.27998641491, 101771.00172889254, 63044.95043098336, 64750.61205036784, 0.04, 0.9540000000000001, 0.1, 192.0, 0.0, 0.0, 0.0, 0.0, 0.0, 0.0, 0.0, 0.0, 0.0, 1.666556424499044E9, 0.0, 2022-10-23 13:20:24.499
7.0, -81548.10447074228, -114059.16381587552, 46483.04539716785, 42453.87523816529, 61274.44640093403, 100916.74040755516, 61679.95174884221, 63357.204301024, 0.04, 0.9540000000000001, 0.1, 192.0, 0.0, 0.0, 0.0, 0.0, 0.0, 0.0, 0.0, 0.0, 0.0, 1.6665564244990518E9, 0.0, 2022-10-23 13:20:24.499
8.0, -81580.08981705783, -114089.69629880147, 45936.47819000223, 42589.79619619801, 61371.743544547986, 100826.43935995572, 61436.20597555709, 63286.95276820097, 0.04, 0.9540000000000001, 0.1, 192.0, 0.0, 0.0, 0.0, 0.0, 0.0, 0.0, 0.0, 0.0, 0.0, 1.6665564244990597E9, 0.0, 2022-10-23 13:20:24.499
9.0, -81609.39295403873, -114119.06649101574, 47210.37116174355, 42739.53053230412, 61482.474086579576, 101390.37387256311, 62304.727709856954, 64223.535564367245, 0.04, 0.9540000000000001, 0.1, 192.0, 0.0, 0.0, 0.0, 0.0, 0.0, 0.0, 0.0, 0.0, 0.0, 1.6665564244990757E9, 0.0, 2022-10-23 13:20:24.499
10.0, -81592.31622127489, -114107.5329908768, 48765.53848571044, 42633.40444963032, 61429.5004522205, 101871.4504684747, 63181.65370007202, 64918.96538960522, 0.04, 0.9540000000000001, 0.1, 192.0, 0.0, 0.0, 0.0, 0.0, 0.0, 0.0, 0.0, 0.0, 0.0, 1.6665564244990833E9, 0.0, 2022-10-23 13:20:24.499
11.0, -81536.39215664771, -114054.69346698445, 46838.54989272951, 42444.487505494064, 61269.2607962204, 101028.00739145368, 61881.89975999591, 63532.75490197598, 0.04, 0.9540000000000001, 0.1, 192.0, 0.0, 0.0, 0.0, 0.0, 0.0, 0.0, 0.0, 0.0, 0.0, 1.6665564244990911E9, 0.0, 2022-10-23 13:20:24.499
12.0, -81563.77304360546, -114074.96649920542, 45916.49573045918, 42589.818547942465, 61373.03994572639, 100786.31797865844, 61389.31201568986, 63215.85186908864, 0.04, 0.9540000000000001, 0.1, 192.0, 0.0, 0.0, 0.0, 0.0, 0.0, 0.0, 0.0, 0.0, 0.0, 1.6665564244990993E9, 0.0, 2022-10-23 13:20:24.499
13.0, -81599.20055856711, -114104.40374665306, 46842.774372431566, 42715.256537825655, 61474.40510683121, 101236.01272535477, 62058.85852084858, 63983.29901496161, 0.042, 0.9540000000000001, 0.10400000000000001, 192.0, 1.0, 80.0, 29.0, 208.0, 3.0, 64.0, 0.0, 0.0, 0.0, 1.666556424499107E9, 0.0, 2022-10-23 13:20:24.499
14.0, -81605.34728829232, -114115.35610143616, 48786.83969817635, 42687.89800261235, 61472.86283646379, 101908.1073293814, 63217.72941562288, 64998.492896377196, 0.042, 0.9540000000000001, 0.10400000000000001, 192.0, 0.0, 0.0, 0.0, 0.0, 0.0, 0.0, 0.0, 0.0, 0.0, 1.6665564244991157E9, 0.0, 2022-10-23 13:20:24.499
15.0, -81558.92271505865, -114073.15600790454, 47307.55654663522, 42429.55654019792, 61273.149999755624, 101208.385969208, 62178.73092636239, 63807.167268653786, 0.042, 0.9540000000000001, 0.10400000000000001, 192.0, 0.0, 0.0, 0.0, 0.0, 0.0, 0.0, 0.0, 0.0, 0.0, 1.666556424499123E9, 0.0, 2022-10-23 13:20:24.499
16.0, -81578.03345656794, -114087.43877261148, 45985.16028942589, 42542.790477608505, 61330.214003350025, 100780.37241463333, 61407.81926009885, 63188.87331353108, 0.042, 0.9540000000000001, 0.10400000000000001, 192.0, 0.0, 0.0, 0.0, 0.0, 0.0, 0.0, 0.0, 0.0, 0.0, 1.6665564244991312E9, 0.0, 2022-10-23 13:20:24.499
