%OpenBCI Raw EEG Data
%Number of channels = 8
%Sample Rate = 250 Hz
%Board = OpenBCI_GUI$BoardCytonSerial
Sample Index, EXG Channel 0, EXG Channel 1, EXG Channel 2, EXG Channel 3, EXG Channel 4, EXG Channel 5, EXG Channel 6, EXG Channel 7, Accel Channel 0, Accel Channel 1, Accel Channel 2, Other, Other, Other, Other, Other, Other, Other, Analog Channel 0, Analog Channel 1, Analog Channel 2, Timestamp, Other, Timestamp (Formatted)
52.0, -108842.75839838486, -140816.16888239013, -66228.129414097, -116217.49296396888, 21287.712012256627, -60276.86569414922, -1795.716797794914, -131821.44693391884, 0.066, 0.9580000000000001, 0.036000000000000004, 192.0, 2.0, 16.0, 29.0, 240.0, 1.0, 32.0, 0.0, 0.0, 0.0, 1.666403332667546E9, 0.0, 2022-10-21 18:48:52.667
53.0, -108843.89833735209, -140817.13000740172, -66232.9350391549, -116212.55322844426, 21285.20861687763, -60296.55758101435, -1811.6982950804586, -131825.76082059872, 0.066, 0.9580000000000001, 0.036000000000000004, 192.0, 0.0, 0.0, 0.0, 0.0, 0.0, 0.0, 0.0, 0.0, 0.0, 1.6664033326675696E9, 0.0, 2022-10-21 18:48:52.667
54.0, -108828.11800576664, -140797.61693449222, -66211.70088192236, -116177.46098964942, 21306.800402021458, -60279.14557208367, -1781.366977854607, -131806.82889304505, 0.066, 0.9580000000000001, 0.036000000000000004, 192.0, 0.0, 0.0, 0.0, 0.0, 0.0, 0.0, 0.0, 0.0, 0.0, 1.6664033326675818E9, 0.0, 2022-10-21 18:48:52.667
55.0, -108845.15003504159, -140813.5984317778, -66228.30822805264, -116197.21993174791, 21294.50694257104, -60269.10963882323, -1773.5438672952496, -131823.23507347525, 0.066, 0.9580000000000001, 0.036000000000000004, 192.0, 0.0, 0.0, 0.0, 0.0, 0.0, 0.0, 0.0, 0.0, 0.0, 1.666403332667596E9, 0.0, 2022-10-21 18:48:52.667
56.0, -108842.4901774514, -140810.0445044094, -66231.39276878748, -116212.32971099971, 21293.16583790372, -60282.2301128185, -1789.7935855142578, -131825.85022757653, 0.066, 0.9580000000000001, 0.036000000000000004, 192.0, 0.0, 0.0, 0.0, 0.0, 0.0, 0.0, 0.0, 0.0, 0.0, 1.6664033326676135E9, 0.0, 2022-10-21 18:48:52.667
57.0, -108832.11896802414, -140800.36619906023, -66220.9321523824, -116200.39387946056, 21304.98991072058, -60300.55854327185, -1802.265858920319, -131810.04754424663, 0.066, 0.9580000000000001, 0.036000000000000004, 192.0, 0.0, 0.0, 0.0, 0.0, 0.0, 0.0, 0.0, 0.0, 0.0, 1.666403332667632E9, 0.0, 2022-10-21 18:48:52.667
58.0, -108834.04121804729, -140804.85889969574, -66224.32961753961, -116189.3744694441, 21300.296044384962, -60305.475927052015, -1797.7731582848023, -131812.12625648096, 0.066, 0.9580000000000001, 0.036000000000000004, 192.0, 0.0, 0.0, 0.0, 0.0, 0.0, 0.0, 0.0, 0.0, 0.0, 1.666403332667644E9, 0.0, 2022-10-21 18:48:52.667
59.0, -108848.65925892106, -140823.72377201603, -66246.14492012799, -116201.93614982798, 21283.889863954766, -60278.430316261096, -1778.327140608685, -131829.89589332294, 0.066, 0.9580000000000001, 0.036000000000000004, 192.0, 0.0, 0.0, 0.0, 0.0, 0.0, 0.0, 0.0, 0.0, 0.0, 1.666403332667656E9, 0.0, 2022-10-21 18:48:52.667
60.0, -108831.58252615722, -140803.31662932833, -66234.00792288875, -116210.04983306526, 21298.910236228734, -60274.07172609231, -1780.428204587484, -131819.27881470666, 0.066, 0.9580000000000001, 0.036000000000000004, 192.0, 0.0, 0.0, 0.0, 0.0, 0.0, 0.0, 0.0, 0.0, 0.0, 1.6664033326676676E9, 0.0, 2022-10-21 18:48:52.667
61.0, -108807.71086307894, -140784.13883258568, -66218.20523955885, -116197.75637361484, 21322.178402206708, -60300.111508382746, -1795.3591698836292, -131804.59371859953, 0.066, 0.9580000000000001, 0.036000000000000004, 192.0, 0.0, 0.0, 0.0, 0.0, 0.0, 0.0, 0.0, 0.0, 0.0, 1.6664033326676793E9, 0.0, 2022-10-21 18:48:52.667
62.0, -108806.0791857337, -140789.4361960216, -66225.06722510663, -116182.40072517404, 21317.462184126638, -60289.29326406637, -1778.1259749085875, -131801.0174394867, 0.056, 0.962, 0.04, 192.0, 1.0, 192.0, 30.0, 16.0, 1.0, 64.0, 0.0, 0.0, 0.0, 1.666403332667691E9, 0.0, 2022-10-21 18:48:52.667
63.0, -108809.94603752447, -140795.3370565578, -66232.28683856569, -116175.78460881527, 21313.97531199161, -60251.63057465918, -1745.0230413702777, -131793.9095847499, 0.056, 0.962, 0.04, 192.0, 0.0, 0.0, 0.0, 0.0, 0.0, 0.0, 0.0, 0.0, 0.0, 1.666403332667704E9, 0.0, 2022-10-21 18:48:52.667
64.0, -108815.04223526029, -140793.7724344459, -66235.39373104498, -116190.11207701113, 21316.411652137238, -60250.602394414236, -1752.5779309961715, -131791.07091320408, 0.056, 0.962, 0.04, 192.0, 0.0, 0.0, 0.0, 0.0, 0.0, 0.0, 0.0, 0.0, 0.0, 1.6664033326677155E9, 0.0, 2022-10-21 18:48:52.667
65.0, -108834.24238374739, -140800.50030952698, -66245.29555383867, -116202.04790855026, 21312.74596604657, -60280.7772494289, -1781.9034197215344, -131799.9669074973, 0.056, 0.962, 0.04, 192.0, 0.0, 0.0, 0.0, 0.0, 0.0, 0.0, 0.0, 0.0, 0.0, 1.6664033326677272E9, 0.0, 2022-10-21 18:48:52.667
66.0, -108830.77786335682, -140792.8336611788, -66237.69596072388, -116177.41628616051, 21323.586562107394, -60272.39534525816, -1770.3922713270513, -131802.5597098541, 0.056, 0.962, 0.04, 192.0, 0.0, 0.0, 0.0, 0.0, 0.0, 0.0, 0.0, 0.0, 0.0, 1.666403332667739E9, 0.0, 2022-10-21 18:48:52.667
67.0, -108841.8866803511, -140805.37298981822, -66253.07396090913, -116188.65921362153, 21308.566189833426, -60249.77537986939, -1753.0696693741882, -131817.93771003935, 0.056, 0.962, 0.04, 192.0, 0.0, 0.0, 0.0, 0.0, 0.0, 0.0, 0.0, 0.0, 0.0, 1.6664033326677504E9, 0.0, 2022-10-21 18:48:52.667
68.0, -108845.48531120841, -140813.95605968905, -66265.09919942608, -116196.59408290316, 21304.632282809293, -60260.61597593022, -1766.1454398805429, -131819.14470423994, 0.056, 0.962, 0.04, 192.0, 0.0, 0.0, 0.0, 0.0, 0.0, 0.0, 0.0, 0.0, 0.0, 1.6664033326678967E9, 0.0, 2022-10-21 18:48:52.667
69.0, -108840.70203789498, -140817.97937369102, -66272.25175765179, -116204.5289521848, 21300.40780310724, -60297.719871726025, -1798.7789867852912, -131826.45372467683, 0.056, 0.962, 0.04, 192.0, 0.0, 0.0, 0.0, 0.0, 0.0, 0.0, 0.0, 0.0, 0.0, 1.6664033326679168E9, 0.0, 2022-10-21 18:48:52.667
70.0, -108853.75545665687, -140833.6926500431, -66285.03695548022, -116217.76118490234, 21285.432134322185, -60324.51961332794, -1817.6662108500257, -131848.00080633175, 0.056, 0.962, 0.04, 192.0, 0.0, 0.0, 0.0, 0.0, 0.0, 0.0, 0.0, 0.0, 0.0, 1.6664033326679368E9, 0.0, 2022-10-21 18:48:52.667
71.0, -108858.15875031457, -140838.27475765644, -66286.53452235872, -116216.93417035749, 21279.888901697268, -60304.715967740536, -1792.296980893252, -131850.39244298846, 0.064, 0.96, 0.036000000000000004, 192.0, 2.0, 0.0, 30.0, 0.0, 1.0, 32.0, 0.0, 0.0, 0.0, 1.6664033326679547E9, 0.0, 2022-10-21 18:48:52.667
72.0, -108837.17046227104, -140818.96285044705, -66267.46848433834, -116204.7301178849, 21302.30770138594, -60283.37005178572, -1772.4039283280288, -131833.67333813588, 0.064, 0.96, 0.036000000000000004, 192.0, 0.0, 0.0, 0.0, 0.0, 0.0, 0.0, 0.0, 0.0, 0.0, 1.6664033326679757E9, 0.0, 2022-10-21 18:48:52.667
73.0, -108819.64669461807, -140801.10380662727, -66255.80087373267, -116200.3268242272, 21318.155088204752, -60305.92296194112, -1792.5652018267158, -131824.26325372022, 0.064, 0.96, 0.036000000000000004, 192.0, 0.0, 0.0, 0.0, 0.0, 0.0, 0.0, 0.0, 0.0, 0.0, 1.666403332667992E9, 0.0, 2022-10-21 18:48:52.667
74.0, -108832.09661627968, -140810.87151895423, -66261.52292031323, -116190.73792585588, 21311.918951501724, -60299.55271477136, -1787.2901901352634, -131821.58104438556, 0.064, 0.96, 0.036000000000000004, 192.0, 0.0, 0.0, 0.0, 0.0, 0.0, 0.0, 0.0, 0.0, 0.0, 1.666403332668012E9, 0.0, 2022-10-21 18:48:52.668
75.0, -108841.35023848418, -140820.37101034774, -66269.1448651725, -116201.95850157244, 21304.341710131375, -60303.374863073215, -1786.7313965238807, -131830.32057646758, 0.064, 0.96, 0.036000000000000004, 192.0, 0.0, 0.0, 0.0, 0.0, 0.0, 0.0, 0.0, 0.0, 0.0, 1.6664033326680298E9, 0.0, 2022-10-21 18:48:52.668
76.0, -108824.02763653132, -140800.65677173814, -66252.13518764201, -116182.31131819623, 21327.766338320536, -60282.83360991879, -1763.7090997349144, -131811.23218670275, 0.064, 0.96, 0.036000000000000004, 192.0, 0.0, 0.0, 0.0, 0.0, 0.0, 0.0, 0.0, 0.0, 0.0, 1.6664033326680493E9, 0.0, 2022-10-21 18:48:52.668
77.0, -108814.37168292662, -140793.66067572363, -66247.35191432857, -116174.57761461468, 21338.45047217017, -60294.81414494684, -1774.8626202181126, -131799.87750051948, 0.064, 0.96, 0.036000000000000004, 192.0, 0.0, 0.0, 0.0, 0.0, 0.0, 0.0, 0.0, 0.0, 0.0, 1.6664033326680667E9, 0.0, 2022-10-21 18:48:52.668
78.0, -108821.97127604143, -140800.8802891827, -66259.15363540097, -116187.9216060545, 21326.514640631038, -60310.28155210991, -1791.5817250706823, -131817.22245421677, 0.064, 0.96, 0.036000000000000004, 192.0, 0.0, 0.0, 0.0, 0.0, 0.0, 0.0, 0.0, 0.0, 0.0, 1.6664033326680853E9, 0.0, 2022-10-21 18:48:52.668
79.0, -108821.6359998746, -140806.6470392522, -66267.893167483, -116186.91577755402, 21320.16674520573, -60300.245618849476, -1781.2552191323305, -131831.97460555728, 0.064, 0.96, 0.036000000000000004, 192.0, 0.0, 0.0, 0.0, 0.0, 0.0, 0.0, 0.0, 0.0, 0.0, 1.6664033326681056E9, 0.0, 2022-10-21 18:48:52.668
80.0, -108825.21227898746, -140817.6888010131, -66276.40918212046, -116190.20148398895, 21314.46705036963, -60277.871522649715, -1766.30190209173, -131834.70151838084, 0.064, 0.96, 0.036000000000000004, 192.0, 0.0, 0.0, 0.0, 0.0, 0.0, 0.0, 0.0, 0.0, 0.0, 1.666403332668125E9, 0.0, 2022-10-21 18:48:52.668
81.0, -108834.86823259214, -140821.57800454833, -66283.60644383507, -116203.2325510064, 21312.321282901918, -60303.15134562866, -1792.654608804537, -131831.57227415708, 0.056, 0.962, 0.032, 192.0, 1.0, 192.0, 30.0, 16.0, 1.0, 0.0, 0.0, 0.0, 0.0, 1.6664033326681428E9, 0.0, 2022-10-21 18:48:52.668
82.0, -108829.21324124494, -140814.58190853382, -66280.5442548447, -116202.89727483956, 21316.277541670508, -60319.57987780331, -1806.7138560669252, -131828.55478865563, 0.056, 0.962, 0.032, 192.0, 0.0, 0.0, 0.0, 0.0, 0.0, 0.0, 0.0, 0.0, 0.0, 1.6664033326681635E9, 0.0, 2022-10-21 18:48:52.668
83.0, -108827.58156389972, -140818.0911324133, -66282.62296707905, -116191.60964388963, 21314.31058815844, -60306.48175555251, -1789.748882025347, -131831.46051543482, 0.056, 0.962, 0.032, 192.0, 0.0, 0.0, 0.0, 0.0, 0.0, 0.0, 0.0, 0.0, 0.0, 1.666403332668244E9, 0.0, 2022-10-21 18:48:52.668
84.0, -108835.15880527005, -140825.489559828, -66291.96599626137, -116195.20827474694, 21305.079317698397, -60282.207761074045, -1771.979245183378, -131842.12229754, 0.056, 0.962, 0.032, 192.0, 0.0, 0.0, 0.0, 0.0, 0.0, 0.0, 0.0, 0.0, 0.0, 1.666403332668264E9, 0.0, 2022-10-21 18:48:52.668
85.0, -108858.06934333676, -140840.15230419068, -66309.69092961441, -116216.93417035749, 21293.590521048372, -60290.83553443379, -1786.105547679132, -131857.83557389208, 0.056, 0.962, 0.032, 192.0, 0.0, 0.0, 0.0, 0.0, 0.0, 0.0, 0.0, 0.0, 0.0, 1.666403332668285E9, 0.0, 2022-10-21 18:48:52.668
86.0, -108845.57471818624, -140822.69559177107, -66292.65890033948, -116200.14801027156, 21314.26588466953, -60298.837458948794, -1793.0345884602773, -131844.4245272189, 0.056, 0.962, 0.032, 192.0, 0.0, 0.0, 0.0, 0.0, 0.0, 0.0, 0.0, 0.0, 0.0, 1.6664033326683033E9, 0.0, 2022-10-21 18:48:52.668
87.0, -108834.9352878255, -140819.65575452516, -66287.98738574832, -116180.27730945079, 21316.724576559613, -60275.59164471527, -1771.3086928497187, -131835.14855326994, 0.056, 0.962, 0.032, 192.0, 0.0, 0.0, 0.0, 0.0, 0.0, 0.0, 0.0, 0.0, 0.0, 1.6664033326683235E9, 0.0, 2022-10-21 18:48:52.668
88.0, -108816.94213353898, -140805.41769330713, -66275.98449897581, -116149.85658524712, 21335.85766981336, -60243.807464099824, -1734.0036313538112, -131814.87552104896, 0.056, 0.962, 0.032, 192.0, 0.0, 0.0, 0.0, 0.0, 0.0, 0.0, 0.0, 0.0, 0.0, 1.6664033326683445E9, 0.0, 2022-10-21 18:48:52.668
89.0, -108814.39403467107, -140810.20096662056, -66284.5005136133, -116182.40072517404, 21327.900448787266, -60223.5120801344, -1723.8559393711018, -131817.60243387253, 0.056, 0.962, 0.032, 192.0, 0.0, 0.0, 0.0, 0.0, 0.0, 0.0, 0.0, 0.0, 0.0, 1.6664033326683648E9, 0.0, 2022-10-21 18:48:52.668
90.0, -108803.86636303263, -140797.59458274778, -66274.86691175305, -116187.58632988768, 21338.49517565908, -60248.54603392435, -1751.1250676065765, -131813.04267800364, 0.056, 0.962, 0.032, 192.0, 0.0, 0.0, 0.0, 0.0, 0.0, 0.0, 0.0, 0.0, 0.0, 1.6664033326683843E9, 0.0, 2022-10-21 18:48:52.668
91.0, -108816.49509864987, -140808.52458578642, -66284.47816186883, -116182.2219112184, 21327.45341389816, -60247.11552227921, -1750.4545152729172, -131827.21368398832, 0.052000000000000005, 0.9580000000000001, 0.028, 192.0, 1.0, 160.0, 29.0, 240.0, 0.0, 224.0, 0.0, 0.0, 0.0, 1.6664033326684031E9, 0.0, 2022-10-21 18:48:52.668
92.0, -108842.98191582941, -140834.07262969884, -66308.9980255363, -116200.14801027156, 21301.50303858555, -60229.43529241506, -1737.401096511018, -131844.98332083027, 0.052000000000000005, 0.9580000000000001, 0.028, 192.0, 0.0, 0.0, 0.0, 0.0, 0.0, 0.0, 0.0, 0.0, 0.0, 1.666403332668424E9, 0.0, 2022-10-21 18:48:52.668
93.0, -108864.64075620662, -140854.74799332, -66328.3546362346, -116208.19463827547, 21288.226102379096, -60219.73463532146, -1737.4234482554732, -131851.13005055548, 0.052000000000000005, 0.9580000000000001, 0.028, 192.0, 0.0, 0.0, 0.0, 0.0, 0.0, 0.0, 0.0, 0.0, 0.0, 1.6664033326684444E9, 0.0, 2022-10-21 18:48:52.668
94.0, -108843.63011641862, -140832.26213839796, -66309.04272902521, -116192.23549273438, 21310.287274156486, -60222.550955122824, -1746.0065181263112, -131834.20978000283, 0.052000000000000005, 0.9580000000000001, 0.028, 192.0, 0.0, 0.0, 0.0, 0.0, 0.0, 0.0, 0.0, 0.0, 0.0, 1.6664033326684644E9, 0.0, 2022-10-21 18:48:52.668
95.0, -108837.0363518043, -140826.18246390612, -66301.4431359104, -116180.03144026178, 21315.94226550368, -60224.182632468066, -1743.659584958504, -131834.61211140302, 0.052000000000000005, 0.9580000000000001, 0.028, 192.0, 0.0, 0.0, 0.0, 0.0, 0.0, 0.0, 0.0, 0.0, 0.0, 1.6664033326684868E9, 0.0, 2022-10-21 18:48:52.668
96.0, -108826.84395633268, -140822.22620513753, -66300.72788008784, -116172.02951574678, 21316.143431203775, -60195.237123398445, -1711.8307008541467, -131824.17384674237, 0.052000000000000005, 0.9580000000000001, 0.028, 192.0, 0.0, 0.0, 0.0, 0.0, 0.0, 0.0, 0.0, 0.0, 0.0, 1.6664033326685076E9, 0.0, 2022-10-21 18:48:52.668
97.0, -108829.14618601158, -140823.25438538246, -66302.8959993, -116172.05186749123, 21316.70222481516, -60162.648279982604, -1690.2165639658647, -131820.4187536739, 0.052000000000000005, 0.9580000000000001, 0.028, 192.0, 0.0, 0.0, 0.0, 0.0, 0.0, 0.0, 0.0, 0.0, 0.0, 1.6664033326685386E9, 0.0, 2022-10-21 18:48:52.668
98.0, -108843.85363386317, -140838.65473731217, -66317.26817098477, -116184.7700100863, 21308.32032064442, -60176.7522307339, -1715.9881253228339, -131842.63638766247, 0.052000000000000005, 0.9580000000000001, 0.028, 192.0, 0.0, 0.0, 0.0, 0.0, 0.0, 0.0, 0.0, 0.0, 0.0, 1.6664033326685925E9, 0.0, 2022-10-21 18:48:52.668
99.0, -108843.45130246299, -140836.01723146645, -66317.11170877358, -116180.14319898406, 21308.946169489165, -60193.78426000885, -1731.0084975968002, -131848.6266551765, 0.052000000000000005, 0.9580000000000001, 0.028, 192.0, 0.0, 0.0, 0.0, 0.0, 0.0, 0.0, 0.0, 0.0, 0.0, 1.6664033326686163E9, 0.0, 2022-10-21 18:48:52.668
100.0, -108854.80598864627, -140845.0920397153, -66325.6053716666, -116171.98481225787, 21297.569131561417, -60176.61812026717, -1710.7801688647473, -131849.9230563549, 0.048, 0.9580000000000001, 0.022, 192.0, 1.0, 128.0, 29.0, 240.0, 0.0, 176.0, 0.0, 0.0, 0.0, 1.6664033326686404E9, 0.0, 2022-10-21 18:48:52.668
101.0, -108853.75545665687, -140842.90156875868, -66324.13015653256, -116169.72728606788, 21304.632282809293, -60127.39957897658, -1671.7316713013258, -131843.9104370964, 0.048, 0.9580000000000001, 0.022, 192.0, 0.0, 0.0, 0.0, 0.0, 0.0, 0.0, 0.0, 0.0, 0.0, 1.6664033326686673E9, 0.0, 2022-10-21 18:48:52.668
102.0, -108853.91191886806, -140845.62848158224, -66327.37115947857, -116180.72434433989, 21302.777088019502, -60122.70571264097, -1683.399281906996, -131847.84434412056, 0.048, 0.9580000000000001, 0.022, 192.0, 0.0, 0.0, 0.0, 0.0, 0.0, 0.0, 0.0, 0.0, 0.0, 1.666403332668746E9, 0.0, 2022-10-21 18:48:52.668
103.0, -108849.0392385768, -140847.37191764975, -66331.03684556924, -116185.1723414865, 21298.373794361807, -60150.198358320995, -1714.7140758888813, -131851.5770854446, 0.048, 0.9580000000000001, 0.022, 192.0, 0.0, 0.0, 0.0, 0.0, 0.0, 0.0, 0.0, 0.0, 0.0, 1.6664033326687856E9, 0.0, 2022-10-21 18:48:52.668
104.0, -108845.26179376386, -140843.50506585898, -66328.30993274569, -116164.74284705435, 21301.32422462991, -60126.68432315402, -1687.6684650979598, -131849.83364937708, 0.048, 0.9580000000000001, 0.022, 192.0, 0.0, 0.0, 0.0, 0.0, 0.0, 0.0, 0.0, 0.0, 0.0, 1.66640333266881E9, 0.0, 2022-10-21 18:48:52.668
105.0, -108848.68161066552, -140842.83451352533, -66324.37602572156, -116155.01983821629, 21304.74404153157, -60084.216008688934, -1648.37409834553, -131850.0571668216, 0.048, 0.9580000000000001, 0.022, 192.0, 0.0, 0.0, 0.0, 0.0, 0.0, 0.0, 0.0, 0.0, 0.0, 1.6664033326688373E9, 0.0, 2022-10-21 18:48:52.668
106.0, -108851.3414682557, -140843.92974900364, -66327.39351122302, -116176.45516114893, 21303.55939907544, -60086.384127901096, -1657.9182932279462, -131851.8676581225, 0.048, 0.9580000000000001, 0.022, 192.0, 0.0, 0.0, 0.0, 0.0, 0.0, 0.0, 0.0, 0.0, 0.0, 1.6664033326688612E9, 0.0, 2022-10-21 18:48:52.668
107.0, -108849.06159032126, -140843.2368449255, -66330.38864498003, -116177.50569313833, 21300.944244974165, -60123.912706841555, -1688.8084040651804, -131846.90557085344, 0.048, 0.9580000000000001, 0.022, 192.0, 0.0, 0.0, 0.0, 0.0, 0.0, 0.0, 0.0, 0.0, 0.0, 1.6664033326688836E9, 0.0, 2022-10-21 18:48:52.668
108.0, -108835.42702620353, -140838.25240591198, -66329.06989205717, -116158.4173033735, 21300.631320551794, -60093.290816937784, -1659.1029356840772, -131842.25640800674, 0.048, 0.9580000000000001, 0.022, 192.0, 0.0, 0.0, 0.0, 0.0, 0.0, 0.0, 0.0, 0.0, 0.0, 1.6664033326689072E9, 0.0, 2022-10-21 18:48:52.668
109.0, -108830.12966276762, -140833.22326340954, -66328.39933972352, -116145.00625670032, 21303.55939907544, -60052.2753658623, -1623.2060340888543, -131836.89198933746, 0.048, 0.9580000000000001, 0.022, 192.0, 0.0, 0.0, 0.0, 0.0, 0.0, 0.0, 0.0, 0.0, 0.0, 1.6664033326689315E9, 0.0, 2022-10-21 18:48:52.668
110.0, -108845.59706993069, -140839.30293790138, -66339.5081567178, -116164.60873658762, 21295.758640260538, -60042.194729112955, -1621.4178945324297, -131840.8705998505, 0.032, 0.9560000000000001, 0.016, 192.0, 1.0, 0.0, 29.0, 224.0, 0.0, 128.0, 0.0, 0.0, 0.0, 1.6664033326689548E9, 0.0, 2022-10-21 18:48:52.668
111.0, -108867.61353821917, -140844.33208040384, -66347.33126727716, -116186.17816998699, 21285.812113977925, -60059.673793277005, -1644.3284325991194, -131845.83268711957, 0.032, 0.9560000000000001, 0.016, 192.0, 0.0, 0.0, 0.0, 0.0, 0.0, 0.0, 0.0, 0.0, 0.0, 1.6664033326689794E9, 0.0, 2022-10-21 18:48:52.668
112.0, -108875.28018656734, -140854.0997927308, -66358.4624360159, -116177.90802453853, 21281.900558698246, -60050.01783967231, -1639.5451592856837, -131864.4293385064, 0.032, 0.9560000000000001, 0.016, 192.0, 0.0, 0.0, 0.0, 0.0, 0.0, 0.0, 0.0, 0.0, 0.0, 1.6664033326690023E9, 0.0, 2022-10-21 18:48:52.669
113.0, -108857.04116309181, -140841.67222281365, -66347.912412633, -116153.58932657115, 21297.770297261515, -60010.23173454186, -1601.0331035891895, -131843.23988476276, 0.032, 0.9560000000000001, 0.016, 192.0, 0.0, 0.0, 0.0, 0.0, 0.0, 0.0, 0.0, 0.0, 0.0, 1.666403332669106E9, 0.0, 2022-10-21 18:48:52.669
114.0, -108858.67284043704, -140843.68387981463, -66354.81910166968, -116164.85460577662, 21294.819866993414, -59991.92565583297, -1594.9981325862566, -131834.7685736142, 0.032, 0.9560000000000001, 0.016, 192.0, 0.0, 0.0, 0.0, 0.0, 0.0, 0.0, 0.0, 0.0, 0.0, 1.6664033326691296E9, 0.0, 2022-10-21 18:48:52.669
115.0, -108859.72337242644, -140836.48661810003, -66356.04844761472, -116159.19961442944, 21301.570093818915, -59992.50680118881, -1607.8950891369689, -131847.8219923761, 0.032, 0.9560000000000001, 0.016, 192.0, 0.0, 0.0, 0.0, 0.0, 0.0, 0.0, 0.0, 0.0, 0.0, 1.6664033326691532E9, 0.0, 2022-10-21 18:48:52.669
116.0, -108877.38125054614, -140850.32234791786, -66370.73354372187, -116162.10534120863, 21285.87916921129, -59984.929559818454, -1610.5549467271503, -131861.18833556038, 0.032, 0.9560000000000001, 0.016, 192.0, 0.0, 0.0, 0.0, 0.0, 0.0, 0.0, 0.0, 0.0, 0.0, 1.6664033326691856E9, 0.0, 2022-10-21 18:48:52.669
117.0, -108863.45611375048, -140851.90932177418, -66371.3593925666, -116163.62525983159, 21279.955956930633, -59958.934481016935, -1585.543344681662, -131845.4750592083, 0.032, 0.9560000000000001, 0.016, 192.0, 0.0, 0.0, 0.0, 0.0, 0.0, 0.0, 0.0, 0.0, 0.0, 1.6664033326692097E9, 0.0, 2022-10-21 18:48:52.669
118.0, -108848.88277636562, -140843.6391763257, -66367.35843030912, -116145.05096018923, 21286.92970120069, -59934.57107956065, -1568.1760392398883, -131841.20587601734, 0.032, 0.9560000000000001, 0.016, 192.0, 0.0, 0.0, 0.0, 0.0, 0.0, 0.0, 0.0, 0.0, 0.0, 1.6664033326692345E9, 0.0, 2022-10-21 18:48:52.669
119.0, -108855.29772702428, -140832.95504247607, -66365.05620063022, -116147.55435556822, 21292.45058208115, -59934.36991386055, -1574.6580451319273, -131839.77536437218, 0.032, 0.9560000000000001, 0.016, 192.0, 0.0, 0.0, 0.0, 0.0, 0.0, 0.0, 0.0, 0.0, 0.0, 1.6664033326692586E9, 0.0, 2022-10-21 18:48:52.669
120.0, -108884.6008640052, -140850.23294094, -66385.39628808455, -116166.68744882196, 21271.12701787079, -59932.71588477086, -1578.9719318118016, -131855.60039944656, 0.03, 0.962, 0.002, 192.0, 0.0, 240.0, 30.0, 16.0, 0.0, 16.0, 0.0, 0.0, 0.0, 1.6664033326692803E9, 0.0, 2022-10-21 18:48:52.669
121.0, -108888.11008788468, -140846.5896065938, -66386.4244683295, -116161.25597491933, 21266.947241657646, -59883.05030859117, -1541.0186697266902, -131856.5615244581, 0.03, 0.962, 0.002, 192.0, 0.0, 0.0, 0.0, 0.0, 0.0, 0.0, 0.0, 0.0, 0.0, 1.6664033326693063E9, 0.0, 2022-10-21 18:48:52.669
122.0, -108870.04987836479, -140831.43512385312, -66374.60039551264, -116143.91102122201, 21284.515712799515, -59835.195223712355, -1500.7408262182269, -131835.2156085033, 0.03, 0.962, 0.002, 192.0, 0.0, 0.0, 0.0, 0.0, 0.0, 0.0, 0.0, 0.0, 0.0, 1.6664033326693313E9, 0.0, 2022-10-21 18:48:52.669
123.0, -108869.55813998678, -140840.39817337968, -66390.4701340759, -116151.08593119217, 21276.491436540062, -59846.68402036239, -1521.0809136725563, -131842.74814638475, 0.03, 0.962, 0.002, 192.0, 0.0, 0.0, 0.0, 0.0, 0.0, 0.0, 0.0, 0.0, 0.0, 1.6664033326693552E9, 0.0, 2022-10-21 18:48:52.669
124.0, -108869.78165743133, -140837.13481868923, -66406.45163136144, -116163.80407378724, 21260.2193665766, -59859.78214261319, -1539.699916803827, -131854.19223954587, 0.03, 0.962, 0.002, 192.0, 0.0, 0.0, 0.0, 0.0, 0.0, 0.0, 0.0, 0.0, 0.0, 1.66640333266938E9, 0.0, 2022-10-21 18:48:52.669
125.0, -108866.51830274085, -140827.36710636225, -66412.88893376457, -116149.38719861355, 21258.319468297897, -59814.34104613555, -1503.8924221864252, -131854.9745506018, 0.03, 0.962, 0.002, 192.0, 0.0, 0.0, 0.0, 0.0, 0.0, 0.0, 0.0, 0.0, 0.0, 1.6664033326694057E9, 0.0, 2022-10-21 18:48:52.669
126.0, -108873.53675049983, -140834.89964424368, -66419.03566348978, -116150.79535851424, 21258.610040975815, -59786.826048711075, -1486.5921719780174, -131854.39340524597, 0.03, 0.962, 0.002, 192.0, 0.0, 0.0, 0.0, 0.0, 0.0, 0.0, 0.0, 0.0, 0.0, 1.6664033326694307E9, 0.0, 2022-10-21 18:48:52.669
127.0, -108874.9449104005, -140846.00846123797, -66413.20185818695, -116157.09855045064, 21266.455503279627, -59772.342118304034, -1481.2277533087438, -131838.03192830467, 0.03, 0.962, 0.002, 192.0, 0.0, 0.0, 0.0, 0.0, 0.0, 0.0, 0.0, 0.0, 0.0, 1.6664033326694565E9, 0.0, 2022-10-21 18:48:52.669
128.0, -108872.93325339953, -140835.52549308844, -66403.68001504899, -116135.0150269288, 21283.465180810115, -59766.17303683437, -1475.9080381283807, -131823.63740487545, 0.03, 0.962, 0.002, 192.0, 0.0, 0.0, 0.0, 0.0, 0.0, 0.0, 0.0, 0.0, 0.0, 1.6664033326695132E9, 0.0, 2022-10-21 18:48:52.669
129.0, -108871.56979698775, -140826.51774007294, -66413.44772737595, -116128.39891057002, 21276.603195262338, -59721.40249269039, -1444.548540657585, -131839.4177364609, 0.028, 0.9520000000000001, -0.004, 192.0, 0.0, 224.0, 29.0, 192.0, 255.0, 224.0, 0.0, 0.0, 0.0, 1.6664033326695373E9, 0.0, 2022-10-21 18:48:52.669
130.0, -108869.11110509768, -140817.15235914616, -66413.44772737595, -116129.3153320927, 21279.866549952814, -59698.804879046074, -1421.5932991019845, -131831.66168113492, 0.028, 0.9520000000000001, -0.004, 192.0, 0.0, 0.0, 0.0, 0.0, 0.0, 0.0, 0.0, 0.0, 0.0, 1.6664033326695623E9, 0.0, 2022-10-21 18:48:52.669
131.0, -108889.56295127427, -140835.27962389943, -66433.31842819673, -116146.30265787872, 21266.36609630181, -59678.21892240273, -1414.9995344876688, -131837.09315503755, 0.028, 0.9520000000000001, -0.004, 192.0, 0.0, 0.0, 0.0, 0.0, 0.0, 0.0, 0.0, 0.0, 0.0, 1.6664033326695867E9, 0.0, 2022-10-21 18:48:52.669
132.0, -108873.6485092221, -140822.67324002663, -66428.42339616102, -116136.4678903184, 21268.981250403078, -59665.65724201885, -1408.249307662166, -131812.37212567, 0.028, 0.9520000000000001, -0.004, 192.0, 0.0, 0.0, 0.0, 0.0, 0.0, 0.0, 0.0, 0.0, 0.0, 1.6664033326696112E9, 0.0, 2022-10-21 18:48:52.669
133.0, -108885.80785820578, -140827.54592031788, -66436.71589335393, -116125.29201809074, 21260.59934623234, -59627.636924700375, -1375.9063334353368, -131830.52174216768, 0.028, 0.9520000000000001, -0.004, 192.0, 0.0, 0.0, 0.0, 0.0, 0.0, 0.0, 0.0, 0.0, 0.0, 1.6664033326696365E9, 0.0, 2022-10-21 18:48:52.669
134.0, -108890.56877977477, -140831.3904203642, -66440.6274486336, -116122.0063116558, 21258.140654342253, -59568.47185712717, -1325.972536322181, -131848.7160621543, 0.028, 0.9520000000000001, -0.004, 192.0, 0.0, 0.0, 0.0, 0.0, 0.0, 0.0, 0.0, 0.0, 0.0, 1.666403332669661E9, 0.0, 2022-10-21 18:48:52.669
135.0, -108891.82047746427, -140834.7431820325, -66448.04822779277, -116134.23271587286, 21252.73153218407, -59522.40491180479, -1293.0260649950583, -131844.2233615188, 0.028, 0.9520000000000001, -0.004, 192.0, 0.0, 0.0, 0.0, 0.0, 0.0, 0.0, 0.0, 0.0, 0.0, 1.6664033326696851E9, 0.0, 2022-10-21 18:48:52.669
136.0, -108875.16842784506, -140824.37197260524, -66447.57884115921, -116160.87599526359, 21249.31171528241, -59530.71976074216, -1306.772387835072, -131834.96973931429, 0.028, 0.9520000000000001, -0.004, 192.0, 0.0, 0.0, 0.0, 0.0, 0.0, 0.0, 0.0, 0.0, 0.0, 1.6664033326697116E9, 0.0, 2022-10-21 18:48:52.669
137.0, -108852.90609036757, -140810.67035325413, -66430.88208805109, -116132.04224491624, 21267.327221313386, -59495.225190547135, -1274.518820586064, -131817.64713736143, 0.028, 0.9520000000000001, -0.004, 192.0, 0.0, 0.0, 0.0, 0.0, 0.0, 0.0, 0.0, 0.0, 0.0, 1.6664033326697364E9, 0.0, 2022-10-21 18:48:52.669
138.0, -108848.21222403196, -140815.56538528984, -66434.01133227484, -116122.43099480045, 21270.1211893703, -59445.939594023184, -1233.9951078885924, -131804.34784941052, 0.028, 0.9520000000000001, -0.004, 192.0, 0.0, 0.0, 0.0, 0.0, 0.0, 0.0, 0.0, 0.0, 0.0, 1.6664033326697662E9, 0.0, 2022-10-21 18:48:52.669
139.0, -108864.52899748433, -140833.08915294282, -66454.79845461827, -116135.8643932181, 21264.019163134, -59430.44983511566, -1237.0349451345141, -131812.30507043662, 0.026000000000000002, 0.93, 0.0, 192.0, 0.0, 208.0, 29.0, 16.0, 0.0, 0.0, 0.0, 0.0, 0.0, 1.6664033326697903E9, 0.0, 2022-10-21 18:48:52.669
140.0, -108893.49685829841, -140850.9929002515, -66477.32901302923, -116129.62825651506, 21243.746130913038, -59434.94253575117, -1257.777363989039, -131832.95808231333, 0.026000000000000002, 0.93, 0.0, 192.0, 0.0, 0.0, 0.0, 0.0, 0.0, 0.0, 0.0, 0.0, 0.0, 1.6664033326698184E9, 0.0, 2022-10-21 18:48:52.669
141.0, -108913.456966097, -140861.52057188997, -66487.63316722312, -116119.7040819769, 21231.117395295787, -59376.60448272282, -1202.5014999510647, -131837.20491375984, 0.026000000000000002, 0.93, 0.0, 192.0, 0.0, 0.0, 0.0, 0.0, 0.0, 0.0, 0.0, 0.0, 0.0, 1.6664033326698427E9, 0.0, 2022-10-21 18:48:52.669
142.0, -108914.99923646441, -140861.9005515457, -66487.16378058956, -116112.61857898458, 21231.944409840635, -59274.792286728894, -1110.591126750842, -131828.73360261126, 0.026000000000000002, 0.93, 0.0, 192.0, 0.0, 0.0, 0.0, 0.0, 0.0, 0.0, 0.0, 0.0, 0.0, 1.666403332669868E9, 0.0, 2022-10-21 18:48:52.669
143.0, -108911.06532944029, -140859.93359803362, -66487.02967012282, -116105.57777948116, 21237.57704944337, -59194.258951456424, -1053.3483092008007, -131829.71707936728, 0.026000000000000002, 0.93, 0.0, 192.0, 0.0, 0.0, 0.0, 0.0, 0.0, 0.0, 0.0, 0.0, 0.0, 1.6664033326699247E9, 0.0, 2022-10-21 18:48:52.669
144.0, -108899.80005023481, -140847.10369671628, -66481.55349273128, -116115.23373308584, 21248.30588678192, -59134.646848994125, -1014.5903843152981, -131817.37891642796, 0.026000000000000002, 0.93, 0.0, 192.0, 0.0, 0.0, 0.0, 0.0, 0.0, 0.0, 0.0, 0.0, 0.0, 1.66640333266995E9, 0.0, 2022-10-21 18:48:52.669
145.0, -108880.44343953651, -140830.04931569687, -66465.95197510147, -116097.77702066625, 21260.264070065507, -59063.27772894833, -957.6381394431758, -131796.8153115291, 0.026000000000000002, 0.93, 0.0, 192.0, 0.0, 0.0, 0.0, 0.0, 0.0, 0.0, 0.0, 0.0, 0.0, 1.6664033326699715E9, 0.0, 2022-10-21 18:48:52.669
146.0, -108876.93421565703, -140833.13385643173, -66466.19784429048, -116073.10069478759, 21262.052209621932, -58970.38387899207, -887.8559932537072, -131795.2059859283, 0.026000000000000002, 0.93, 0.0, 192.0, 0.0, 0.0, 0.0, 0.0, 0.0, 0.0, 0.0, 0.0, 0.0, 1.6664033326699908E9, 0.0, 2022-10-21 18:48:52.669
147.0, -108904.42686133705, -140854.3903654087, -66490.8965219136, -116100.63804395653, 21238.091139565844, -58927.222660448875, -873.0367866798385, -131811.29924193613, 0.026000000000000002, 0.93, 0.0, 192.0, 0.0, 0.0, 0.0, 0.0, 0.0, 0.0, 0.0, 0.0, 0.0, 1.6664033326700125E9, 0.0, 2022-10-21 18:48:52.670
148.0, -108909.07602418376, -140853.36218516377, -66495.70214697148, -116105.86835215907, 21239.43224423316, -58901.94283746992, -879.3846821051458, -131825.31378570962, 0.026000000000000002, 0.93, 0.0, 192.0, 0.0, 0.0, 0.0, 0.0, 0.0, 0.0, 0.0, 0.0, 0.0, 1.6664033326700366E9, 0.0, 2022-10-21 18:48:52.670
149.0, -108911.1547364181, -140851.7975630519, -66492.72936495893, -116100.36982302307, 21244.97547685808, -58888.26356986327, -883.7879757628413, -131821.78221008566, 0.06, 0.928, -0.004, 192.0, 1.0, 224.0, 29.0, 0.0, 255.0, 224.0, 0.0, 0.0, 0.0, 1.666403332670061E9, 0.0, 2022-10-21 18:48:52.670
150.0, -108933.05944598431, -140873.7022726181, -66509.67198725605, -116107.14240159302, 21224.881258592755, -58826.10336853306, -838.5480449852997, -131813.53441638165, 0.06, 0.928, -0.004, 192.0, 0.0, 0.0, 0.0, 0.0, 0.0, 0.0, 0.0, 0.0, 0.0, 1.666403332670088E9, 0.0, 2022-10-21 18:48:52.670
151.0, -108955.61235613971, -140898.28919151894, -66533.14131893413, -116126.2084396134, 21200.16022922519, -58762.870283469, -800.9971143003839, -131840.64708240595, 0.06, 0.928, -0.004, 192.0, 0.0, 0.0, 0.0, 0.0, 0.0, 0.0, 0.0, 0.0, 0.0, 1.666403332670113E9, 0.0, 2022-10-21 18:48:52.670
152.0, -108905.4997450709, -140847.95306300558, -66489.08603061271, -116095.27362528726, 21239.25343027752, -58681.17465748485, -740.4462385709571, -131814.98727977125, 0.06, 0.928, -0.004, 192.0, 0.0, 0.0, 0.0, 0.0, 0.0, 0.0, 0.0, 0.0, 0.0, 1.6664033326701384E9, 0.0, 2022-10-21 18:48:52.670
153.0, -108912.6075998077, -140849.87531302875, -66496.35034756068, -116106.58360798164, 21228.14461328323, -58648.18348266882, -728.5551105207337, -131828.01834678868, 0.06, 0.928, -0.004, 192.0, 0.0, 0.0, 0.0, 0.0, 0.0, 0.0, 0.0, 0.0, 0.0, 1.666403332670164E9, 0.0, 2022-10-21 18:48:52.670
154.0, -108913.211096908, -140839.72762104604, -66488.81780967925, -116087.07053507215, 21232.793776129936, -58581.88820861438, -678.643665152033, -131819.2117594733, 0.06, 0.928, -0.004, 192.0, 0.0, 0.0, 0.0, 0.0, 0.0, 0.0, 0.0, 0.0, 0.0, 1.6664033326701894E9, 0.0, 2022-10-21 18:48:52.670
155.0, -108907.89138172763, -140835.34667913278, -66478.20073106299, -116069.90439533048, 21249.78110191597, -58514.408292103806, -625.4241616039469, -131798.7152098078, 0.06, 0.928, -0.004, 192.0, 0.0, 0.0, 0.0, 0.0, 0.0, 0.0, 0.0, 0.0, 0.0, 1.6664033326702123E9, 0.0, 2022-10-21 18:48:52.670
156.0, -108933.43942564004, -140852.4457636411, -66496.66327198307, -116088.7469159063, 21236.638276176247, -58481.193599843216, -619.8809289790307, -131805.2642709332, 0.06, 0.928, -0.004, 192.0, 0.0, 0.0, 0.0, 0.0, 0.0, 0.0, 0.0, 0.0, 0.0, 1.6664033326702359E9, 0.0, 2022-10-21 18:48:52.670
157.0, -108914.14987017511, -140848.31069091687, -66494.24928358188, -116067.4457034404, 21242.06975007889, -58437.56299466646, -594.712864722355, -131794.0660469611, 0.06, 0.928, -0.004, 192.0, 0.0, 0.0, 0.0, 0.0, 0.0, 0.0, 0.0, 0.0, 0.0, 1.6664033326702569E9, 0.0, 2022-10-21 18:48:52.670
158.0, -108920.54246908933, -140857.47490614356, -66499.65840574008, -116046.3903601635, 21233.374921485774, -58341.83047316438, -516.2135381953166, -131797.97760224078, 0.06, 0.928, -0.004, 192.0, 0.0, 0.0, 0.0, 0.0, 0.0, 0.0, 0.0, 0.0, 0.0, 1.6664033326703024E9, 0.0, 2022-10-21 18:48:52.670
159.0, -108939.3626379207, -140868.27079871547, -66511.7954029793, -116054.97343003434, 21219.71800562358, -58236.28553584642, -440.93286286984244, -131823.63740487545, 0.082, 0.932, 0.0, 192.0, 2.0, 144.0, 29.0, 32.0, 0.0, 0.0, 0.0, 0.0, 0.0, 1.666403332670326E9, 0.0, 2022-10-21 18:48:52.670
160.0, -108952.84073982725, -140869.2989789604, -66512.68947275751, -116067.62451739605, 21215.20295324361, -58152.10886622773, -383.8912110198988, -131820.75402984073, 0.082, 0.932, 0.0, 192.0, 0.0, 0.0, 0.0, 0.0, 0.0, 0.0, 0.0, 0.0, 0.0, 1.6664033326703465E9, 0.0, 2022-10-21 18:48:52.670
161.0, -108956.23820498446, -140862.45934515708, -66508.75556573339, -116067.98214530732, 21220.38855795724, -58106.28779009436, -364.31108287704984, -131805.48778837774, 0.082, 0.932, 0.0, 192.0, 0.0, 0.0, 0.0, 0.0, 0.0, 0.0, 0.0, 0.0, 0.0, 1.6664033326703649E9, 0.0, 2022-10-21 18:48:52.670
162.0, -108944.39178042315, -140859.1959904666, -66501.29008308532, -116040.06481648266, 21227.809337116403, -58030.068341501756, -307.9176316163101, -131790.33330563706, 0.082, 0.932, 0.0, 192.0, 0.0, 0.0, 0.0, 0.0, 0.0, 0.0, 0.0, 0.0, 0.0, 1.666403332670385E9, 0.0, 2022-10-21 18:48:52.670
163.0, -108963.23430099897, -140875.57981915234, -66513.42708032455, -116011.96867370233, 21216.81227884439, -57846.33700207913, -158.38446121030586, -131805.93482326684, 0.082, 0.932, 0.0, 192.0, 0.0, 0.0, 0.0, 0.0, 0.0, 0.0, 0.0, 0.0, 0.0, 1.6664033326704075E9, 0.0, 2022-10-21 18:48:52.670
164.0, -108961.62497539818, -140868.0919847598, -66503.90523718658, -115996.72478398381, 21228.14461328323, -57651.228624728756, -0.5811453558379837, -131797.68702956283, 0.082, 0.932, 0.0, 192.0, 0.0, 0.0, 0.0, 0.0, 0.0, 0.0, 0.0, 0.0, 0.0, 1.6664033326704307E9, 0.0, 2022-10-21 18:48:52.670
165.0, -108945.88934730165, -140870.32715920534, -66506.2968738433, -115998.66938575142, 21224.411871959197, -57521.58850688798, 78.43227129367249, -131805.80071280012, 0.082, 0.932, 0.0, 192.0, 0.0, 0.0, 0.0, 0.0, 0.0, 0.0, 0.0, 0.0, 0.0, 1.6664033326704605E9, 0.0, 2022-10-21 18:48:52.670
166.0, -108941.44135015504, -140869.32133070487, -66509.15789713358, -115991.69564148136, 21216.72287186657, -57417.22821202615, 134.71396383213568, -131810.360468669, 0.082, 0.932, 0.0, 192.0, 0.0, 0.0, 0.0, 0.0, 0.0, 0.0, 0.0, 0.0, 0.0, 1.666403332670482E9, 0.0, 2022-10-21 18:48:52.670
167.0, -108963.65898414362, -140876.3621302083, -66517.07041467076, -116014.3826621035, 21199.53438038044, -57319.28286782299, 183.01608360005423, -131815.74723908273, 0.082, 0.932, 0.0, 192.0, 0.0, 0.0, 0.0, 0.0, 0.0, 0.0, 0.0, 0.0, 0.0, 1.6664033326705008E9, 0.0, 2022-10-21 18:48:52.670
168.0, -108960.6191468977, -140863.9569120356, -66514.34350184721, -116041.24945893878, 21202.887142048734, -57289.84562037535, 167.1239932923309, -131807.99118375673, 0.09, 0.964, -0.01, 192.0, 2.0, 208.0, 30.0, 32.0, 255.0, 176.0, 0.0, 0.0, 0.0, 1.666403332670524E9, 0.0, 2022-10-21 18:48:52.670
169.0, -108954.42771368357, -140849.741202562, -66505.49221104292, -116051.71007534386, 21213.414813687185, -57322.21094634664, 99.55466980393766, -131791.92027949338, 0.09, 0.964, -0.01, 192.0, 0.0, 0.0, 0.0, 0.0, 0.0, 0.0, 0.0, 0.0, 0.0, 1.6664033326705515E9, 0.0, 2022-10-21 18:48:52.670
170.0, -108947.74454209144, -140844.77911529294, -66510.85662971219, -116040.46714788284, 21217.929866067156, -57344.45093207967, 52.95128261462243, -131785.32651487907, 0.09, 0.964, -0.01, 192.0, 0.0, 0.0, 0.0, 0.0, 0.0, 0.0, 0.0, 0.0, 0.0, 1.6664033326705728E9, 0.0, 2022-10-21 18:48:52.670
171.0, -108946.29167870185, -140837.11246694476, -66523.39595835161, -116033.64986582397, 21216.14172651073, -57335.7337517421, 36.67921265115889, -131784.27598288967, 0.09, 0.964, -0.01, 192.0, 0.0, 0.0, 0.0, 0.0, 0.0, 0.0, 0.0, 0.0, 0.0, 1.6664033326705902E9, 0.0, 2022-10-21 18:48:52.670
172.0, -108912.09350968523, -140827.85884474026, -66535.04121721283, -116036.08620596961, 21216.901685822213, -57360.25361540957, -3.6656860906703583, -131768.92033444886, 0.09, 0.964, -0.01, 192.0, 0.0, 0.0, 0.0, 0.0, 0.0, 0.0, 0.0, 0.0, 0.0, 1.6664033326706083E9, 0.0, 2022-10-21 18:48:52.670
173.0, -108923.42584412407, -140839.52645534594, -66559.44932215802, -116048.9384590314, 21209.503258407505, -57400.84438334041, -64.12715484227596, -131798.1117127075, 0.09, 0.964, -0.01, 192.0, 0.0, 0.0, 0.0, 0.0, 0.0, 0.0, 0.0, 0.0, 0.0, 1.6664033326707103E9, 0.0, 2022-10-21 18:48:52.670
0.0, 0.0, 0.0, 0.0, 0.0, 0.0, 0.0, 0.0, 0.0, 0.09, 0.964, -0.01, 192.0, 0.0, 0.0, 0.0, 0.0, 0.0, 0.0, 0.0, 0.0, 0.0, 1.6664033327736156E9, 0.0, 2022-10-21 18:48:52.773
1.0, -104868.43942027562, -141932.59381444383, -32949.265295179524, -114339.67820878961, 22512.207628751712, -72299.15378083632, 1822.0248010188104, -131203.26473751842, 0.066, 0.962, 0.002, 192.0, 2.0, 16.0, 30.0, 16.0, 0.0, 16.0, 0.0, 0.0, 0.0, 1.6664033327896433E9, 0.0, 2022-10-21 18:48:52.789
2.0, -104859.18579807114, -141923.18373002813, -32941.48688810907, -114339.65585704516, 22522.22121026769, -72307.71449896271, 1821.331896940696, -131195.55338568133, 0.066, 0.962, 0.002, 192.0, 0.0, 0.0, 0.0, 0.0, 0.0, 0.0, 0.0, 0.0, 0.0, 1.6664033332686071E9, 0.0, 2022-10-21 18:48:53.268
3.0, -104861.28686204992, -141927.09528530782, -32947.723024812105, -114340.48287159001, 22518.577875921474, -72315.80583045553, 1814.6934288374698, -131196.00042057043, 0.066, 0.962, 0.002, 192.0, 0.0, 0.0, 0.0, 0.0, 0.0, 0.0, 0.0, 0.0, 0.0, 1.6664033332687192E9, 0.0, 2022-10-21 18:48:53.268
4.0, -104862.06917310586, -141927.92229985265, -32951.8804492808, -114337.0407029439, 22512.96758806319, -72310.59787399744, 1834.4300191915058, -131194.70401939203, 0.066, 0.962, 0.002, 192.0, 0.0, 0.0, 0.0, 0.0, 0.0, 0.0, 0.0, 0.0, 0.0, 1.6664033332687426E9, 0.0, 2022-10-21 18:48:53.268
5.0, -104862.94089113962, -141930.53745395393, -32951.031082991496, -114334.5820110538, 22519.047262555036, -72299.6678709588, 1863.6437491945924, -131188.6690483891, 0.066, 0.962, 0.002, 192.0, 0.0, 0.0, 0.0, 0.0, 0.0, 0.0, 0.0, 0.0, 0.0, 1.6664033332687652E9, 0.0, 2022-10-21 18:48:53.268
6.0, -104866.76303944147, -141933.64434643323, -32957.177812716705, -114346.36138038176, 22518.957855577213, -72313.74946996564, 1853.4737054674276, -131195.28516474785, 0.066, 0.962, 0.002, 192.0, 0.0, 0.0, 0.0, 0.0, 0.0, 0.0, 0.0, 0.0, 0.0, 1.6664033332687948E9, 0.0, 2022-10-21 18:48:53.268
7.0, -104856.07890559184, -141924.65894516217, -32953.75799581504, -114347.81424377135, 22524.612846924407, -72337.66583653282, 1817.5097486388386, -131189.9207460786, 0.066, 0.962, 0.002, 192.0, 0.0, 0.0, 0.0, 0.0, 0.0, 0.0, 0.0, 0.0, 0.0, 1.6664033332688105E9, 0.0, 2022-10-21 18:48:53.268
8.0, -104872.52978951095, -141940.90866338118, -32965.93969654318, -114341.39929311268, 22516.27564624258, -72319.8738479464, 1822.136559741087, -131196.93919383755, 0.052000000000000005, 0.968, 0.016, 192.0, 1.0, 160.0, 30.0, 64.0, 0.0, 128.0, 0.0, 0.0, 0.0, 1.6664033332688258E9, 0.0, 2022-10-21 18:48:53.268
9.0, -104895.75325200001, -141964.02036714798, -32992.87354861183, -114373.80932257288, 22487.039564495037, -72332.077900419, 1830.138484256087, -131222.59899647225, 0.052000000000000005, 0.968, 0.016, 192.0, 0.0, 0.0, 0.0, 0.0, 0.0, 0.0, 0.0, 0.0, 0.0, 1.6664033332688427E9, 0.0, 2022-10-21 18:48:53.268
10.0, -104844.32188800834, -141914.95828806856, -32945.55490559994, -114337.86771748874, 22537.129823819378, -72317.79513571205, 1851.3279379997182, -131169.3571411797, 0.052000000000000005, 0.968, 0.016, 192.0, 0.0, 0.0, 0.0, 0.0, 0.0, 0.0, 0.0, 0.0, 0.0, 1.666403333268859E9, 0.0, 2022-10-21 18:48:53.268
11.0, -104850.75919041148, -141920.0991892933, -32952.90862952574, -114341.30988613486, 22537.621562197397, -72325.70765324922, 1827.299812710263, -131180.84593782973, 0.052000000000000005, 0.968, 0.016, 192.0, 0.0, 0.0, 0.0, 0.0, 0.0, 0.0, 0.0, 0.0, 0.0, 1.6664033332688742E9, 0.0, 2022-10-21 18:48:53.268
12.0, -104854.06724859086, -141922.11084629426, -32961.26818195202, -114337.42068259964, 22533.441785984254, -72322.55605728104, 1823.5000161528608, -131190.03250480085, 0.052000000000000005, 0.968, 0.016, 192.0, 0.0, 0.0, 0.0, 0.0, 0.0, 0.0, 0.0, 0.0, 0.0, 1.66640333326889E9, 0.0, 2022-10-21 18:48:53.268
13.0, -104848.38990549922, -141916.61231715826, -32958.80949006194, -114333.7326447645, 22536.03458834107, -72325.9758741827, 1836.4193244480282, -131180.3541994517, 0.052000000000000005, 0.968, 0.016, 192.0, 0.0, 0.0, 0.0, 0.0, 0.0, 0.0, 0.0, 0.0, 0.0, 1.6664033332689056E9, 0.0, 2022-10-21 18:48:53.268
14.0, -104861.68919345012, -141931.38682024323, -32974.925097814215, -114355.41383688616, 22516.543867176042, -72358.27414492061, 1816.9062515385451, -131194.3240397363, 0.052000000000000005, 0.968, 0.016, 192.0, 0.0, 0.0, 0.0, 0.0, 0.0, 0.0, 0.0, 0.0, 0.0, 1.666403333268921E9, 0.0, 2022-10-21 18:48:53.268
15.0, -104869.06526912037, -141938.36056451328, -32983.038781051495, -114362.9910782565, 22514.487506686153, -72375.37322942892, 1790.4194343590063, -131195.59808917023, 0.052000000000000005, 0.968, 0.016, 192.0, 0.0, 0.0, 0.0, 0.0, 0.0, 0.0, 0.0, 0.0, 0.0, 1.666403333269062E9, 0.0, 2022-10-21 18:48:53.269
16.0, -104870.45107727661, -141938.56173021338, -32982.32352522892, -114348.12716819372, 22521.59536142294, -72363.41504614532, 1795.3144663947187, -131181.98587679694, 0.052000000000000005, 0.968, 0.016, 192.0, 0.0, 0.0, 0.0, 0.0, 0.0, 0.0, 0.0, 0.0, 0.0, 1.6664033332690778E9, 0.0, 2022-10-21 18:48:53.269
17.0, -104877.71539422458, -141944.28377679395, -32988.984345076606, -114344.97557222552, 22517.68380614326, -72350.96512448373, 1814.4028561595508, -131187.7749786109, 0.048, 0.968, 0.016, 192.0, 1.0, 128.0, 30.0, 64.0, 0.0, 128.0, 0.0, 0.0, 0.0, 1.6664033332690935E9, 0.0, 2022-10-21 18:48:53.269
18.0, -104873.87089417827, -141939.63461394724, -32987.084446797904, -114355.21267118606, 22519.40489046632, -72359.81641528802, 1817.6662108500257, -131193.3182112358, 0.048, 0.968, 0.016, 192.0, 0.0, 0.0, 0.0, 0.0, 0.0, 0.0, 0.0, 0.0, 0.0, 1.66640333326911E9, 0.0, 2022-10-21 18:48:53.269
19.0, -104851.5415014674, -141917.68520089213, -32966.610248876845, -114348.10481644927, 22540.41553025431, -72375.86496780693, 1791.1570419260315, -131174.27452495988, 0.048, 0.968, 0.016, 192.0, 0.0, 0.0, 0.0, 0.0, 0.0, 0.0, 0.0, 0.0, 0.0, 1.6664033332691257E9, 0.0, 2022-10-21 18:48:53.269
20.0, -104857.97880387054, -141924.34602073982, -32973.941621058184, -114343.56741232485, 22531.161908049813, -72364.085598479, 1790.7994140147466, -131184.55632740931, 0.048, 0.968, 0.016, 192.0, 0.0, 0.0, 0.0, 0.0, 0.0, 0.0, 0.0, 0.0, 0.0, 1.6664033332691464E9, 0.0, 2022-10-21 18:48:53.269
21.0, -104870.62989123225, -141936.7512389125, -32984.156368274256, -114341.82397625734, 22520.902457344826, -72347.18767967078, 1823.0976847526654, -131196.11217929272, 0.048, 0.968, 0.016, 192.0, 0.0, 0.0, 0.0, 0.0, 0.0, 0.0, 0.0, 0.0, 0.0, 1.666403333269162E9, 0.0, 2022-10-21 18:48:53.269
22.0, -104873.84854243381, -141940.75220117, -32987.75499913156, -114349.66943856115, 22519.449593955233, -72359.01175248764, 1832.8877488240898, -131202.97416484047, 0.048, 0.968, 0.016, 192.0, 0.0, 0.0, 0.0, 0.0, 0.0, 0.0, 0.0, 0.0, 0.0, 1.6664033332691774E9, 0.0, 2022-10-21 18:48:53.269
23.0, -104861.13039983874, -141926.62589867425, -32974.76863560303, -114338.31475237785, 22538.51563197561, -72360.62107808841, 1828.9091383110451, -131192.58060366876, 0.048, 0.968, 0.016, 192.0, 0.0, 0.0, 0.0, 0.0, 0.0, 0.0, 0.0, 0.0, 0.0, 1.6664033332691927E9, 0.0, 2022-10-21 18:48:53.269
24.0, -104854.91661488016, -141921.93203233863, -32967.81724307743, -114329.01642668444, 22546.22698381269, -72355.03314197459, 1828.5962138886707, -131186.70209487702, 0.048, 0.968, 0.016, 192.0, 0.0, 0.0, 0.0, 0.0, 0.0, 0.0, 0.0, 0.0, 0.0, 1.6664033332692084E9, 0.0, 2022-10-21 18:48:53.269
25.0, -104878.22948434704, -141946.63070996176, -32993.320583500936, -114345.489662348, 22518.153192776823, -72347.38884537088, 1846.0976297971763, -131195.06164730332, 0.048, 0.968, 0.016, 192.0, 0.0, 0.0, 0.0, 0.0, 0.0, 0.0, 0.0, 0.0, 0.0, 1.6664033332692237E9, 0.0, 2022-10-21 18:48:53.269
26.0, -104870.62989123225, -141936.79594240143, -32989.07375205443, -114345.13203443671, 22527.429166725775, -72354.78727278559, 1856.8711706246343, -131169.37949292417, 0.048, 0.968, 0.016, 192.0, 0.0, 0.0, 0.0, 0.0, 0.0, 0.0, 0.0, 0.0, 0.0, 1.6664033332692392E9, 0.0, 2022-10-21 18:48:53.269
27.0, -104871.52396101046, -141938.06999183536, -32993.030010823015, -114355.12326420823, 22524.992826580146, -72363.4821013787, 1853.429001978517, -131176.44264417203, 0.04, 0.972, 0.018000000000000002, 192.0, 1.0, 64.0, 30.0, 96.0, 0.0, 144.0, 0.0, 0.0, 0.0, 1.6664033332692547E9, 0.0, 2022-10-21 18:48:53.269
28.0, -104854.17900731314, -141921.999087572, -32973.91926931373, -114347.1436914377, 22539.342646520454, -72377.38488642989, 1838.8556645936567, -131172.48638540346, 0.04, 0.972, 0.018000000000000002, 192.0, 0.0, 0.0, 0.0, 0.0, 0.0, 0.0, 0.0, 0.0, 0.0, 1.6664033332692757E9, 0.0, 2022-10-21 18:48:53.269
29.0, -104859.4540190046, -141928.86107311977, -32977.96493506014, -114341.26518264595, 22536.571030207997, -72366.32077292452, 1847.014051319844, -131187.3726472107, 0.04, 0.972, 0.018000000000000002, 192.0, 0.0, 0.0, 0.0, 0.0, 0.0, 0.0, 0.0, 0.0, 0.0, 1.666403333269291E9, 0.0, 2022-10-21 18:48:53.269
30.0, -104863.8573126623, -141934.20314004458, -32981.34004847289, -114349.46827286105, 22537.532155219575, -72355.65899081934, 1860.6709671820365, -131188.15495826662, 0.04, 0.972, 0.018000000000000002, 192.0, 0.0, 0.0, 0.0, 0.0, 0.0, 0.0, 0.0, 0.0, 0.0, 1.666403333269348E9, 0.0, 2022-10-21 18:48:53.269
31.0, -104849.86512063327, -141920.85914860477, -32966.20791747665, -114350.45174961707, 22553.71481820522, -72372.57926137201, 1830.8090365897463, -131166.67493184507, 0.04, 0.972, 0.018000000000000002, 192.0, 0.0, 0.0, 0.0, 0.0, 0.0, 0.0, 0.0, 0.0, 0.0, 1.6664033332693636E9, 0.0, 2022-10-21 18:48:53.269
32.0, -104856.63769920323, -141927.38585798573, -32973.56164140244, -114350.98819148401, 22552.329010048987, -72386.6832121233, 1791.6040768151377, -131162.18223120956, 0.04, 0.972, 0.018000000000000002, 192.0, 0.0, 0.0, 0.0, 0.0, 0.0, 0.0, 0.0, 0.0, 0.0, 1.666403333269379E9, 0.0, 2022-10-21 18:48:53.269
33.0, -104865.89132140772, -141941.37805001475, -32985.899804341774, -114345.80258677037, 22540.974323865692, -72380.44707542028, 1789.1006814361433, -131177.6049348837, 0.04, 0.972, 0.018000000000000002, 192.0, 0.0, 0.0, 0.0, 0.0, 0.0, 0.0, 0.0, 0.0, 0.0, 1.6664033332693949E9, 0.0, 2022-10-21 18:48:53.269
34.0, -104863.52203649546, -141940.61809070327, -32984.37988571881, -114349.42356937213, 22544.304733789533, -72380.82705507602, 1791.9170012375118, -131185.89743207663, 0.04, 0.972, 0.018000000000000002, 192.0, 0.0, 0.0, 0.0, 0.0, 0.0, 0.0, 0.0, 0.0, 0.0, 1.6664033332694104E9, 0.0, 2022-10-21 18:48:53.269
35.0, -104850.26745203345, -141924.502482951, -32969.895955311775, -114338.04653144439, 22564.331896821488, -72363.14682521186, 1798.8236902742017, -131175.59327788273, 0.04, 0.972, 0.018000000000000002, 192.0, 0.0, 0.0, 0.0, 0.0, 0.0, 0.0, 0.0, 0.0, 0.0, 1.666403333269426E9, 0.0, 2022-10-21 18:48:53.269
36.0, -104845.97591709804, -141918.22164275905, -32968.487795411085, -114341.71221753505, 22565.60594625544, -72374.56856662853, 1773.7450329953472, -131164.1491847216, 0.04, 0.972, 0.018000000000000002, 192.0, 0.0, 0.0, 0.0, 0.0, 0.0, 0.0, 0.0, 0.0, 0.0, 1.6664033332694414E9, 0.0, 2022-10-21 18:48:53.269
37.0, -104849.8427688888, -141924.14485503972, -32974.94744955867, -114340.95225822357, 22556.620544984406, -72386.12441851193, 1756.623596742582, -131163.2104114545, 0.036000000000000004, 0.98, 0.026000000000000002, 192.0, 1.0, 32.0, 30.0, 160.0, 0.0, 208.0, 0.0, 0.0, 0.0, 1.6664033332694576E9, 0.0, 2022-10-21 18:48:53.269
38.0, -104865.57839698535, -141942.11565758177, -32990.97365033313, -114346.85311875977, 22544.952934378736, -72382.79400858808, 1766.6148265141044, -131178.0072662839, 0.036000000000000004, 0.98, 0.026000000000000002, 192.0, 0.0, 0.0, 0.0, 0.0, 0.0, 0.0, 0.0, 0.0, 0.0, 1.6664033332694745E9, 0.0, 2022-10-21 18:48:53.269
39.0, -104865.91367315217, -141944.68610819415, -32996.29336551349, -114369.6966015931, 22543.433015755774, -72393.88047383791, 1754.7460502083363, -131191.95475482402, 0.036000000000000004, 0.98, 0.026000000000000002, 192.0, 0.0, 0.0, 0.0, 0.0, 0.0, 0.0, 0.0, 0.0, 0.0, 1.66640333326949E9, 0.0, 2022-10-21 18:48:53.269
40.0, -104855.4530567471, -141935.27602377845, -32990.59367067739, -114366.25443294698, 22554.854757172438, -72400.07190705203, 1732.4390092419399, -131186.54563266583, 0.036000000000000004, 0.98, 0.026000000000000002, 192.0, 0.0, 0.0, 0.0, 0.0, 0.0, 0.0, 0.0, 0.0, 0.0, 1.6664033332695055E9, 0.0, 2022-10-21 18:48:53.269
41.0, -104847.27231827645, -141929.19634928662, -32984.782217119006, -114348.46244436056, 22565.091856132967, -72384.69390686679, 1737.6022622111157, -131162.31634167628, 0.036000000000000004, 0.98, 0.026000000000000002, 192.0, 0.0, 0.0, 0.0, 0.0, 0.0, 0.0, 0.0, 0.0, 0.0, 1.666403333269521E9, 0.0, 2022-10-21 18:48:53.269
42.0, -104852.39086775671, -141936.57242495686, -32991.353629988866, -114336.90659247716, 22564.264841588123, -72366.90191828036, 1760.1551723665207, -131163.18805971005, 0.036000000000000004, 0.98, 0.026000000000000002, 192.0, 0.0, 0.0, 0.0, 0.0, 0.0, 0.0, 0.0, 0.0, 0.0, 1.6664033332695365E9, 0.0, 2022-10-21 18:48:53.269
43.0, -104856.3024230364, -141941.4451052481, -32996.89686261379, -114348.37303738273, 22560.28623107508, -72380.06709576453, 1765.5419427802497, -131164.84208879975, 0.036000000000000004, 0.98, 0.026000000000000002, 192.0, 0.0, 0.0, 0.0, 0.0, 0.0, 0.0, 0.0, 0.0, 0.0, 1.6664033332695515E9, 0.0, 2022-10-21 18:48:53.269
44.0, -104852.88260613474, -141937.31003252388, -32996.09219981339, -114361.38175265572, 22564.1754346103, -72413.81822989204, 1724.5711951936717, -131159.83529804175, 0.036000000000000004, 0.98, 0.026000000000000002, 192.0, 0.0, 0.0, 0.0, 0.0, 0.0, 0.0, 0.0, 0.0, 0.0, 1.6664033332695673E9, 0.0, 2022-10-21 18:48:53.269
45.0, -104866.11483885227, -141948.3070907959, -33011.984290121116, -114365.91915678015, 22551.41258852632, -72413.75117465868, 1712.5906601656272, -131169.4018446686, 0.036000000000000004, 0.98, 0.026000000000000002, 192.0, 0.0, 0.0, 0.0, 0.0, 0.0, 0.0, 0.0, 0.0, 0.0, 1.6664033332696187E9, 0.0, 2022-10-21 18:48:53.269
46.0, -104846.04297233142, -141928.03405857494, -32992.42651372272, -114327.13888015019, 22576.446542316266, -72371.0816944935, 1772.783907983769, -131142.95973097798, 0.036000000000000004, 0.972, 0.036000000000000004, 192.0, 1.0, 32.0, 30.0, 96.0, 1.0, 32.0, 0.0, 0.0, 0.0, 1.6664033332696345E9, 0.0, 2022-10-21 18:48:53.269
47.0, -104849.64160318872, -141934.29254702243, -32996.91921435824, -114331.07278717433, 22574.2784231041, -72371.72989508271, 1799.1142629521207, -131150.91695200407, 0.036000000000000004, 0.972, 0.036000000000000004, 192.0, 0.0, 0.0, 0.0, 0.0, 0.0, 0.0, 0.0, 0.0, 0.0, 1.6664033332696517E9, 0.0, 2022-10-21 18:48:53.269
48.0, -104853.17317881265, -141940.72984942555, -33003.22240629463, -114348.08246470481, 22571.75267598065, -72411.62775893543, 1769.1182218930987, -131156.2590189289, 0.036000000000000004, 0.972, 0.036000000000000004, 192.0, 0.0, 0.0, 0.0, 0.0, 0.0, 0.0, 0.0, 0.0, 0.0, 1.6664033332696671E9, 0.0, 2022-10-21 18:48:53.269
49.0, -104852.5920334568, -141943.5461692269, -33010.84435115389, -114350.69761880608, 22571.663269002827, -72417.10393632698, 1757.8752944320793, -131158.5612486078, 0.036000000000000004, 0.972, 0.036000000000000004, 192.0, 0.0, 0.0, 0.0, 0.0, 0.0, 0.0, 0.0, 0.0, 0.0, 1.666403333269684E9, 0.0, 2022-10-21 18:48:53.269
50.0, -104856.41418175866, -141945.8036954169, -33011.0902203429, -114346.9872292265, 22572.42322831431, -72393.6346046489, 1787.5360593242717, -131156.61664684018, 0.036000000000000004, 0.972, 0.036000000000000004, 192.0, 0.0, 0.0, 0.0, 0.0, 0.0, 0.0, 0.0, 0.0, 0.0, 1.6664033332696996E9, 0.0, 2022-10-21 18:48:53.269
51.0, -104857.10708583679, -141944.01555586047, -33005.72580167363, -114347.03193271541, 22578.078219661504, -72400.69775589678, 1801.751768797847, -131146.6030653242, 0.036000000000000004, 0.972, 0.036000000000000004, 192.0, 0.0, 0.0, 0.0, 0.0, 0.0, 0.0, 0.0, 0.0, 0.0, 1.6664033332697153E9, 0.0, 2022-10-21 18:48:53.269
52.0, -104854.46957999106, -141939.63461394724, -33004.11647607285, -114338.24769714448, 22589.2317401447, -72412.65593918037, 1786.5525825682382, -131143.13854493364, 0.036000000000000004, 0.972, 0.036000000000000004, 192.0, 0.0, 0.0, 0.0, 0.0, 0.0, 0.0, 0.0, 0.0, 0.0, 1.6664033332697308E9, 0.0, 2022-10-21 18:48:53.269
53.0, -104871.18868484363, -141959.259445579, -33024.143639104805, -114361.82878754483, 22567.37173406741, -72433.93479990182, 1758.009404898811, -131167.68076034557, 0.036000000000000004, 0.972, 0.036000000000000004, 192.0, 0.0, 0.0, 0.0, 0.0, 0.0, 0.0, 0.0, 0.0, 0.0, 1.6664033332697463E9, 0.0, 2022-10-21 18:48:53.269
54.0, -104884.37621407225, -141975.509163798, -33032.54789502, -114364.28747943492, 22564.153082865847, -72428.16804983235, 1766.748936980836, -131176.80027208332, 0.036000000000000004, 0.972, 0.036000000000000004, 192.0, 0.0, 0.0, 0.0, 0.0, 0.0, 0.0, 0.0, 0.0, 0.0, 1.666403333269762E9, 0.0, 2022-10-21 18:48:53.269
55.0, -104887.59486527383, -141979.37601558876, -33034.850124698896, -114363.75103756798, 22568.198748612256, -72418.02035784964, 1783.8703732336014, -131175.6156296272, 0.036000000000000004, 0.972, 0.036000000000000004, 192.0, 0.0, 0.0, 0.0, 0.0, 0.0, 0.0, 0.0, 0.0, 0.0, 1.6664033332697773E9, 0.0, 2022-10-21 18:48:53.269
56.0, -104876.73191746854, -141967.753108472, -33029.91038917427, -114366.36619166925, 22575.954803938246, -72419.00383460568, 1782.9539517109338, -131159.67883583056, 0.036000000000000004, 0.962, 0.048, 192.0, 1.0, 32.0, 30.0, 16.0, 1.0, 128.0, 0.0, 0.0, 0.0, 1.6664033332697928E9, 0.0, 2022-10-21 18:48:53.269
57.0, -104879.83880994783, -141969.518896284, -33036.370043321855, -114373.20582547259, 22570.679792246796, -72437.80165169259, 1756.10950662011, -131169.67006560208, 0.036000000000000004, 0.962, 0.048, 192.0, 0.0, 0.0, 0.0, 0.0, 0.0, 0.0, 0.0, 0.0, 0.0, 1.6664033332698092E9, 0.0, 2022-10-21 18:48:53.269
58.0, -104863.2985190509, -141951.7939629309, -33016.72285994564, -114346.16021468166, 22588.42707734431, -72425.59759922, 1767.5983032701379, -131149.3076264033, 0.036000000000000004, 0.962, 0.048, 192.0, 0.0, 0.0, 0.0, 0.0, 0.0, 0.0, 0.0, 0.0, 0.0, 1.6664033332698245E9, 0.0, 2022-10-21 18:48:53.269
59.0, -104857.1517893257, -141948.41884951817, -33014.845313411395, -114337.35362736626, 22592.919777979827, -72406.01747107714, 1792.431091359984, -131150.38051013715, 0.036000000000000004, 0.962, 0.048, 192.0, 0.0, 0.0, 0.0, 0.0, 0.0, 0.0, 0.0, 0.0, 0.0, 1.66640333326984E9, 0.0, 2022-10-21 18:48:53.269
60.0, -104862.8514841618, -141955.9513873996, -33026.669386228255, -114359.10187472128, 22584.873149975916, -72417.50626772718, 1780.137631909565, -131159.18709745255, 0.036000000000000004, 0.962, 0.048, 192.0, 0.0, 0.0, 0.0, 0.0, 0.0, 0.0, 0.0, 0.0, 0.0, 1.6664033332698908E9, 0.0, 2022-10-21 18:48:53.269
61.0, -104860.25868180499, -141951.3916315307, -33025.3953367943, -114359.03481948792, 22587.734173266195, -72434.38183479093, 1756.7130037204033, -131156.0578532288, 0.036000000000000004, 0.962, 0.048, 192.0, 0.0, 0.0, 0.0, 0.0, 0.0, 0.0, 0.0, 0.0, 0.0, 1.6664033332699068E9, 0.0, 2022-10-21 18:48:53.269
62.0, -104860.1022195938, -141951.32457629737, -33028.16695310676, -114346.76371178195, 22591.444562845776, -72428.5480294881, 1760.4457450444395, -131150.44756537053, 0.036000000000000004, 0.962, 0.048, 192.0, 0.0, 0.0, 0.0, 0.0, 0.0, 0.0, 0.0, 0.0, 0.0, 1.6664033332699225E9, 0.0, 2022-10-21 18:48:53.269
63.0, -104881.35872857079, -141974.03394866394, -33047.85883997189, -114350.04941821688, 22580.98394644069, -72418.31093052756, 1774.6614545180148, -131164.77503356637, 0.036000000000000004, 0.962, 0.048, 192.0, 0.0, 0.0, 0.0, 0.0, 0.0, 0.0, 0.0, 0.0, 0.0, 1.6664033332699375E9, 0.0, 2022-10-21 18:48:53.269
64.0, -104881.47048729307, -141976.7608614875, -33050.8986772178, -114370.21069171558, 22578.12292315041, -72430.850259167, 1777.9248092084897, -131159.18709745255, 0.036000000000000004, 0.962, 0.048, 192.0, 0.0, 0.0, 0.0, 0.0, 0.0, 0.0, 0.0, 0.0, 0.0, 1.666403333269963E9, 0.0, 2022-10-21 18:48:53.269
65.0, -104870.29461506542, -141965.92026542668, -33042.87440095835, -114370.81418881586, 22591.46691459023, -72455.07955015654, 1744.7771721812694, -131142.95973097798, 0.036000000000000004, 0.962, 0.048, 192.0, 0.0, 0.0, 0.0, 0.0, 0.0, 0.0, 0.0, 0.0, 0.0, 1.6664033332699769E9, 0.0, 2022-10-21 18:48:53.269
66.0, -104878.87768493625, -141971.99993991852, -33048.037653927524, -114361.22529044453, 22591.75748726815, -72449.69277974282, 1736.8646546440907, -131151.18517293755, 0.03, 0.962, 0.062, 192.0, 0.0, 240.0, 30.0, 16.0, 1.0, 240.0, 0.0, 0.0, 0.0, 1.66640333326999E9, 0.0, 2022-10-21 18:48:53.269
67.0, -104894.0098159325, -141986.34975985883, -33062.58863956793, -114364.35453466828, 22581.65449877435, -72456.10773040149, 1743.0784396026659, -131165.4008824111, 0.03, 0.962, 0.062, 192.0, 0.0, 0.0, 0.0, 0.0, 0.0, 0.0, 0.0, 0.0, 0.0, 1.6664033332700045E9, 0.0, 2022-10-21 18:48:53.270
68.0, -104881.26932159298, -141977.7219864991, -33057.87242148786, -114361.24764218899, 22593.81384775804, -72461.98623919324, 1750.9015501620233, -131151.22987642646, 0.03, 0.962, 0.062, 192.0, 0.0, 0.0, 0.0, 0.0, 0.0, 0.0, 0.0, 0.0, 0.0, 1.666403333270018E9, 0.0, 2022-10-21 18:48:53.270
69.0, -104872.23921683303, -141968.8706956948, -33051.88215397384, -114362.94637476759, 22603.447449618274, -72476.17959692236, 1733.981279609356, -131140.76926002136, 0.03, 0.962, 0.062, 192.0, 0.0, 0.0, 0.0, 0.0, 0.0, 0.0, 0.0, 0.0, 0.0, 1.6664033332700317E9, 0.0, 2022-10-21 18:48:53.270
70.0, -104881.22461810407, -141977.94550394363, -33060.711093033686, -114358.99011599901, 22600.273501905624, -72475.53139633316, 1721.1066748030992, -131147.49713510243, 0.03, 0.962, 0.062, 192.0, 0.0, 0.0, 0.0, 0.0, 0.0, 0.0, 0.0, 0.0, 0.0, 1.6664033332700465E9, 0.0, 2022-10-21 18:48:53.270
71.0, -104887.39369957373, -141983.44403307964, -33067.751892537104, -114356.97845899803, 22593.411516357843, -72472.20098640931, 1735.657660443504, -131153.19682993853, 0.03, 0.962, 0.062, 192.0, 0.0, 0.0, 0.0, 0.0, 0.0, 0.0, 0.0, 0.0, 0.0, 1.66640333327006E9, 0.0, 2022-10-21 18:48:53.270
72.0, -104889.6065222748, -141987.69086452614, -33073.51864260658, -114366.88028179173, 22590.03640294509, -72480.53818709114, 1748.465210016395, -131153.77797529436, 0.03, 0.962, 0.062, 192.0, 0.0, 0.0, 0.0, 0.0, 0.0, 0.0, 0.0, 0.0, 0.0, 1.6664033332700737E9, 0.0, 2022-10-21 18:48:53.270
73.0, -104881.00110065952, -141982.34879760133, -33069.092997204425, -114376.46918016305, 22596.361946625944, -72498.82191405557, 1728.6392126845376, -131151.9004287601, 0.03, 0.962, 0.062, 192.0, 0.0, 0.0, 0.0, 0.0, 0.0, 0.0, 0.0, 0.0, 0.0, 1.666403333270088E9, 0.0, 2022-10-21 18:48:53.270
74.0, -104878.4530017916, -141979.75599524452, -33064.3544273799, -114370.32245043784, 22604.453278118763, -72495.67031808739, 1727.4769219728616, -131143.33971063374, 0.03, 0.962, 0.062, 192.0, 0.0, 0.0, 0.0, 0.0, 0.0, 0.0, 0.0, 0.0, 0.0, 1.6664033332701015E9, 0.0, 2022-10-21 18:48:53.270
75.0, -104879.74940297002, -141978.92898069965, -33067.72954079265, -114356.15144445318, 22605.45910661925, -72480.38172487995, 1757.0482798872329, -131146.42425136856, 0.034, 0.9540000000000001, 0.062, 192.0, 1.0, 16.0, 29.0, 208.0, 1.0, 240.0, 0.0, 0.0, 0.0, 1.666403333270115E9, 0.0, 2022-10-21 18:48:53.270
76.0, -104884.64443500573, -141984.3604546023, -33071.59639258342, -114359.05717123237, 22602.553379840065, -72484.44974237082, 1773.8344399731684, -131146.4018996241, 0.034, 0.9540000000000001, 0.062, 192.0, 0.0, 0.0, 0.0, 0.0, 0.0, 0.0, 0.0, 0.0, 0.0, 1.666403333270162E9, 0.0, 2022-10-21 18:48:53.270
77.0, -104888.13130714075, -141986.59562904784, -33070.568212338476, -114379.5984243868, 22601.167571683833, -72502.77817282417, 1759.7975444552358, -131151.29693165983, 0.034, 0.9540000000000001, 0.062, 192.0, 0.0, 0.0, 0.0, 0.0, 0.0, 0.0, 0.0, 0.0, 0.0, 1.6664033332701771E9, 0.0, 2022-10-21 18:48:53.270
78.0, -104899.10601366831, -141993.43526285116, -33083.06283748899, -114382.41474418817, 22593.32210938002, -72511.13772525046, 1745.91711114849, -131159.947056764, 0.034, 0.9540000000000001, 0.062, 192.0, 0.0, 0.0, 0.0, 0.0, 0.0, 0.0, 0.0, 0.0, 0.0, 1.6664033332701907E9, 0.0, 2022-10-21 18:48:53.270
79.0, -104903.15167941472, -142002.06303621092, -33089.27662244756, -114372.51292139446, 22585.27548137611, -72511.13772525046, 1757.9423496654451, -131160.3046846753, 0.034, 0.9540000000000001, 0.062, 192.0, 0.0, 0.0, 0.0, 0.0, 0.0, 0.0, 0.0, 0.0, 0.0, 1.6664033332702045E9, 0.0, 2022-10-21 18:48:53.270
80.0, -104902.10114742532, -142002.53242284447, -33085.29801193452, -114369.78600857093, 22588.47178083322, -72513.32819620708, 1775.041434173755, -131154.78380379485, 0.034, 0.9540000000000001, 0.062, 192.0, 0.0, 0.0, 0.0, 0.0, 0.0, 0.0, 0.0, 0.0, 0.0, 1.6664033332702188E9, 0.0, 2022-10-21 18:48:53.270
81.0, -104901.22942939156, -141996.40804486373, -33090.2600992036, -114385.61104364527, 22588.42707734431, -72536.95399009633, 1761.6974427339367, -131158.67300733007, 0.034, 0.9540000000000001, 0.062, 192.0, 0.0, 0.0, 0.0, 0.0, 0.0, 0.0, 0.0, 0.0, 0.0, 1.666403333270233E9, 0.0, 2022-10-21 18:48:53.270
82.0, -104888.86891470778, -141983.6675505242, -33080.04535198752, -114375.12807549574, 22605.32499615252, -72536.5740104406, 1752.242654829342, -131139.18228616504, 0.034, 0.9540000000000001, 0.062, 192.0, 0.0, 0.0, 0.0, 0.0, 0.0, 0.0, 0.0, 0.0, 0.0, 1.666403333270246E9, 0.0, 2022-10-21 18:48:53.270
83.0, -104888.1089553963, -141981.45472782312, -33073.4068838843, -114363.66163059017, 22611.04704273308, -72519.02789104318, 1768.3806143260736, -131131.6050447947, 0.034, 0.9540000000000001, 0.062, 192.0, 0.0, 0.0, 0.0, 0.0, 0.0, 0.0, 0.0, 0.0, 0.0, 1.6664033332702599E9, 0.0, 2022-10-21 18:48:53.270
84.0, -104894.4568508216, -141983.04170167944, -33079.66537233179, -114365.98621201352, 22601.882827506404, -72517.37386195349, 1787.8042802577354, -131151.9004287601, 0.034, 0.9540000000000001, 0.062, 192.0, 0.0, 0.0, 0.0, 0.0, 0.0, 0.0, 0.0, 0.0, 0.0, 1.6664033332702732E9, 0.0, 2022-10-21 18:48:53.270
85.0, -104894.6580165217, -141981.90176271222, -33079.77713105406, -114372.02118301645, 22603.60391182946, -72523.90057133444, 1789.9947512143556, -131151.67691131556, 0.034, 0.9480000000000001, 0.064, 192.0, 1.0, 16.0, 29.0, 160.0, 2.0, 0.0, 0.0, 0.0, 0.0, 1.666403333270287E9, 0.0, 2022-10-21 18:48:53.270
86.0, -104892.13226939825, -141983.15346040172, -33080.60414559891, -114376.73740109651, 22603.961539740747, -72536.90928660742, 1773.9685504399004, -131150.22404792596, 0.034, 0.9480000000000001, 0.064, 192.0, 0.0, 0.0, 0.0, 0.0, 0.0, 0.0, 0.0, 0.0, 0.0, 1.666403333270301E9, 0.0, 2022-10-21 18:48:53.270
87.0, -104903.24108639253, -141993.01057970652, -33094.484578905656, -114386.1474855122, 22586.594234298973, -72543.41364424392, 1776.851925474635, -131165.02090275538, 0.034, 0.9480000000000001, 0.064, 192.0, 0.0, 0.0, 0.0, 0.0, 0.0, 0.0, 0.0, 0.0, 0.0, 1.6664033332703147E9, 0.0, 2022-10-21 18:48:53.270
88.0, -104908.02435970597, -141992.40708260622, -33098.21732022969, -114380.4030871872, 22585.74486800967, -72549.56037396913, 1797.5943443291599, -131166.7643388229, 0.034, 0.9480000000000001, 0.064, 192.0, 0.0, 0.0, 0.0, 0.0, 0.0, 0.0, 0.0, 0.0, 0.0, 1.6664033332703285E9, 0.0, 2022-10-21 18:48:53.270
89.0, -104903.82223174837, -141988.18260290415, -33092.383514926856, -114379.37490694225, 22598.03832746009, -72543.95008611084, 1816.4145131605285, -131164.37270216618, 0.034, 0.9480000000000001, 0.064, 192.0, 0.0, 0.0, 0.0, 0.0, 0.0, 0.0, 0.0, 0.0, 0.0, 1.666403333270342E9, 0.0, 2022-10-21 18:48:53.270
90.0, -104891.68523450915, -141977.1631928877, -33082.77226481107, -114384.42640118915, 22609.2365514322, -72552.44374900387, 1808.300829923252, -131155.6555218286, 0.034, 0.9480000000000001, 0.064, 192.0, 0.0, 0.0, 0.0, 0.0, 0.0, 0.0, 0.0, 0.0, 0.0, 1.6664033332703557E9, 0.0, 2022-10-21 18:48:53.270
91.0, -104895.19445838864, -141979.48777431104, -33087.5108346356, -114379.1960929866, 22606.777859542115, -72558.65753396244, 1803.6963705654587, -131153.24153342744, 0.034, 0.9480000000000001, 0.064, 192.0, 0.0, 0.0, 0.0, 0.0, 0.0, 0.0, 0.0, 0.0, 0.0, 1.666403333270401E9, 0.0, 2022-10-21 18:48:53.270
92.0, -104905.11863292678, -141989.79192850494, -33097.4126574293, -114377.72087785255, 22599.04415596058, -72558.2775543067, 1819.5661091287268, -131159.88000153066, 0.034, 0.9480000000000001, 0.064, 192.0, 0.0, 0.0, 0.0, 0.0, 0.0, 0.0, 0.0, 0.0, 0.0, 1.6664033332704163E9, 0.0, 2022-10-21 18:48:53.270
93.0, -104896.98259794505, -141982.28174236795, -33092.584680626955, -114372.95995628358, 22603.358042640455, -72552.89078389297, 1843.4154204625395, -131160.12587071967, 0.034, 0.9480000000000001, 0.064, 192.0, 0.0, 0.0, 0.0, 0.0, 0.0, 0.0, 0.0, 0.0, 0.0, 1.6664033332704296E9, 0.0, 2022-10-21 18:48:53.270
94.0, -104896.80378398941, -141983.2205156351, -33096.987974284646, -114385.02989828943, 22600.3852606279, -72579.39995281697, 1824.4164376755284, -131161.62343759817, 0.034, 0.9480000000000001, 0.064, 192.0, 0.0, 0.0, 0.0, 0.0, 0.0, 0.0, 0.0, 0.0, 0.0, 1.6664033332704432E9, 0.0, 2022-10-21 18:48:53.270
95.0, -104906.012702705, -141988.09319592634, -33103.24646273213, -114386.84038959032, 22599.93822573879, -72587.64774652098, 1813.8664142926234, -131165.5573446223, 0.038, 0.9500000000000001, 0.058, 192.0, 1.0, 48.0, 29.0, 176.0, 1.0, 208.0, 0.0, 0.0, 0.0, 1.6664033332704568E9, 0.0, 2022-10-21 18:48:53.270
96.0, -104914.52871734247, -141993.79289076244, -33106.420410444785, -114380.62660463175, 22600.98875772819, -72573.94612716987, 1829.5126354113384, -131164.93149577756, 0.038, 0.9500000000000001, 0.058, 192.0, 0.0, 0.0, 0.0, 0.0, 0.0, 0.0, 0.0, 0.0, 0.0, 1.666403333270471E9, 0.0, 2022-10-21 18:48:53.270
97.0, -104901.07296718037, -141981.27591386746, -33093.32228819398, -114373.63050861724, 22614.556266612562, -72566.10066486606, 1850.2774060103186, -131155.2084869395, 0.038, 0.9500000000000001, 0.058, 192.0, 0.0, 0.0, 0.0, 0.0, 0.0, 0.0, 0.0, 0.0, 0.0, 1.6664033332704856E9, 0.0, 2022-10-21 18:48:53.270
98.0, -104905.87859223827, -141983.3099226129, -33101.14539875334, -114389.12026752476, 22606.688452564296, -72592.56513030114, 1828.8420830776793, -131163.43392889906, 0.038, 0.9500000000000001, 0.058, 192.0, 0.0, 0.0, 0.0, 0.0, 0.0, 0.0, 0.0, 0.0, 0.0, 1.6664033332704992E9, 0.0, 2022-10-21 18:48:53.270
99.0, -104925.32460991439, -142002.28655365546, -33126.67109092129, -114409.52741021245, 22582.056830174548, -72609.32893864262, 1808.9713822569113, -131189.83133910075, 0.038, 0.9500000000000001, 0.058, 192.0, 0.0, 0.0, 0.0, 0.0, 0.0, 0.0, 0.0, 0.0, 0.0, 1.6664033332705123E9, 0.0, 2022-10-21 18:48:53.270
100.0, -104915.78041503197, -141996.58685881936, -33124.97235834269, -114400.40789847469, 22585.051963931557, -72608.14429618648, 1830.6972778674697, -131179.72835060698, 0.038, 0.9500000000000001, 0.058, 192.0, 0.0, 0.0, 0.0, 0.0, 0.0, 0.0, 0.0, 0.0, 0.0, 1.6664033332705257E9, 0.0, 2022-10-21 18:48:53.270
101.0, -104900.40241484671, -141981.007692934, -33110.71194538021, -114380.87247382075, 22607.42606013132, -72589.30177561066, 1864.3813567616173, -131157.1083852182, 0.038, 0.9500000000000001, 0.058, 192.0, 0.0, 0.0, 0.0, 0.0, 0.0, 0.0, 0.0, 0.0, 0.0, 1.6664033332705395E9, 0.0, 2022-10-21 18:48:53.270
102.0, -104899.68715902415, -141982.97464644606, -33109.54965466853, -114394.66350014968, 22608.52129560963, -72605.6409008075, 1847.7740106313242, -131159.54472536384, 0.038, 0.9500000000000001, 0.058, 192.0, 0.0, 0.0, 0.0, 0.0, 0.0, 0.0, 0.0, 0.0, 0.0, 1.666403333270554E9, 0.0, 2022-10-21 18:48:53.270
103.0, -104888.06425190739, -141965.5626375154, -33097.27854696257, -114375.97744178504, 22618.46782189224, -72607.38433687501, 1835.301737225263, -131158.4494898855, 0.038, 0.9500000000000001, 0.058, 192.0, 0.0, 0.0, 0.0, 0.0, 0.0, 0.0, 0.0, 0.0, 0.0, 1.6664033332705677E9, 0.0, 2022-10-21 18:48:53.270
104.0, -104895.7085485111, -141972.6704922522, -33103.201759243224, -114374.70339235109, 22609.683586321305, -72603.38337461751, 1841.9178535840338, -131163.43392889906, 0.038, 0.9500000000000001, 0.058, 192.0, 0.0, 0.0, 0.0, 0.0, 0.0, 0.0, 0.0, 0.0, 0.0, 1.6664033332705808E9, 0.0, 2022-10-21 18:48:53.270
105.0, -104906.68325503866, -141984.7180825136, -33112.365974469896, -114390.75194486999, 22597.971272226725, -72610.24536016528, 1851.46204846645, -131172.93342029257, 0.048, 0.9580000000000001, 0.056, 192.0, 1.0, 128.0, 29.0, 240.0, 1.0, 192.0, 0.0, 0.0, 0.0, 1.6664033332705944E9, 0.0, 2022-10-21 18:48:53.270
106.0, -104892.73576649855, -141969.02715790598, -33099.916052808294, -114382.7053168661, 22617.461993391753, -72607.85372350857, 1854.7701066458353, -131156.84016428475, 0.048, 0.9580000000000001, 0.056, 192.0, 0.0, 0.0, 0.0, 0.0, 0.0, 0.0, 0.0, 0.0, 0.0, 1.6664033332706969E9, 0.0, 2022-10-21 18:48:53.270
107.0, -104888.3101210964, -141966.18848636013, -33101.681840620266, -114387.8015146019, 22621.99939751618, -72614.53689510071, 1835.8605308366457, -131149.08410895875, 0.048, 0.9580000000000001, 0.056, 192.0, 0.0, 0.0, 0.0, 0.0, 0.0, 0.0, 0.0, 0.0, 0.0, 1.6664033332707107E9, 0.0, 2022-10-21 18:48:53.270
108.0, -104897.04965317842, -141974.79390797543, -33113.30474773702, -114392.89771233771, 22611.449374133277, -72615.18509568991, 1839.9061965830563, -131154.67204507257, 0.048, 0.9580000000000001, 0.056, 192.0, 0.0, 0.0, 0.0, 0.0, 0.0, 0.0, 0.0, 0.0, 0.0, 1.6664033332707248E9, 0.0, 2022-10-21 18:48:53.270
109.0, -104898.74838575702, -141975.19623937563, -33116.769268127595, -114386.1027820233, 22611.762298555648, -72619.05194748068, 1855.8653421241454, -131163.18805971005, 0.048, 0.9580000000000001, 0.056, 192.0, 0.0, 0.0, 0.0, 0.0, 0.0, 0.0, 0.0, 0.0, 0.0, 1.6664033332707384E9, 0.0, 2022-10-21 18:48:53.270
110.0, -104909.23135390657, -141988.9202104712, -33129.88974212286, -114401.9501688421, 22602.262807162144, -72635.9945697778, 1847.3716792311288, -131173.42515867058, 0.048, 0.9580000000000001, 0.056, 192.0, 0.0, 0.0, 0.0, 0.0, 0.0, 0.0, 0.0, 0.0, 0.0, 1.6664033332707522E9, 0.0, 2022-10-21 18:48:53.270
111.0, -104927.62683959329, -142004.38761763426, -33146.11710859741, -114420.56917197337, 22591.08693493449, -72662.32492474615, 1818.0238387613106, -131183.52814716438, 0.048, 0.9580000000000001, 0.056, 192.0, 0.0, 0.0, 0.0, 0.0, 0.0, 0.0, 0.0, 0.0, 0.0, 1.6664033332707665E9, 0.0, 2022-10-21 18:48:53.270
112.0, -104915.62395282078, -141992.69765528414, -33136.93054162628, -114405.01235783249, 22603.00041472917, -72647.34925596109, 1828.104475510654, -131169.58065862427, 0.048, 0.9580000000000001, 0.056, 192.0, 0.0, 0.0, 0.0, 0.0, 0.0, 0.0, 0.0, 0.0, 0.0, 1.66640333327078E9, 0.0, 2022-10-21 18:48:53.270
113.0, -104911.95826673011, -141990.08250118286, -33138.092832337956, -114383.75584885548, 22608.878923520915, -72629.80313656369, 1851.9314351000114, -131162.13752772065, 0.048, 0.9580000000000001, 0.056, 192.0, 0.0, 0.0, 0.0, 0.0, 0.0, 0.0, 0.0, 0.0, 0.0, 1.666403333270796E9, 0.0, 2022-10-21 18:48:53.270
114.0, -104903.19638290362, -141979.6665882667, -33125.2182275317, -114380.17956974264, 22617.81962130304, -72639.19086923491, 1856.491190968894, -131148.9052950031, 0.048, 0.96, 0.052000000000000005, 192.0, 1.0, 128.0, 30.0, 0.0, 1.0, 160.0, 0.0, 0.0, 0.0, 1.66640333327081E9, 0.0, 2022-10-21 18:48:53.270
115.0, -104897.11670841179, -141972.6034370188, -33122.290149008055, -114381.85595057678, 22623.206391716765, -72652.89248858602, 1837.4028012040617, -131143.18324842255, 0.048, 0.96, 0.052000000000000005, 192.0, 0.0, 0.0, 0.0, 0.0, 0.0, 0.0, 0.0, 0.0, 0.0, 1.666403333270825E9, 0.0, 2022-10-21 18:48:53.270
116.0, -104906.92912422767, -141987.35558835932, -33137.824611404496, -114398.95503508509, 22612.05287123357, -72670.93034636145, 1809.753693312847, -131156.01314973988, 0.048, 0.96, 0.052000000000000005, 192.0, 0.0, 0.0, 0.0, 0.0, 0.0, 0.0, 0.0, 0.0, 0.0, 1.6664033332708385E9, 0.0, 2022-10-21 18:48:53.270
117.0, -104904.78335675996, -141983.19816389063, -33134.29303578055, -114386.92979656813, 22619.160725970356, -72650.56790716267, 1827.6797923660033, -131157.197792196, 0.048, 0.96, 0.052000000000000005, 192.0, 0.0, 0.0, 0.0, 0.0, 0.0, 0.0, 0.0, 0.0, 0.0, 1.6664033332708523E9, 0.0, 2022-10-21 18:48:53.270
118.0, -104903.01756894798, -141978.4595940661, -33134.85182939194, -114383.88995932222, 22621.932342282813, -72638.5426686457, 1853.6078159341594, -131159.72353931947, 0.048, 0.96, 0.052000000000000005, 192.0, 0.0, 0.0, 0.0, 0.0, 0.0, 0.0, 0.0, 0.0, 0.0, 1.6664033332708666E9, 0.0, 2022-10-21 18:48:53.270
119.0, -104916.29450515444, -141990.10485292732, -33145.37950103039, -114395.78108737244, 22618.601932358975, -72657.38518922153, 1838.0286500488103, -131159.12004221918, 0.048, 0.96, 0.052000000000000005, 192.0, 0.0, 0.0, 0.0, 0.0, 0.0, 0.0, 0.0, 0.0, 0.0, 1.6664033332708802E9, 0.0, 2022-10-21 18:48:53.270
120.0, -104914.75223478703, -141992.36237911732, -33142.20555331773, -114402.62072117576, 22620.367720170943, -72677.27824178676, 1809.4407688904726, -131159.18709745255, 0.048, 0.96, 0.052000000000000005, 192.0, 0.0, 0.0, 0.0, 0.0, 0.0, 0.0, 0.0, 0.0, 0.0, 1.6664033332708943E9, 0.0, 2022-10-21 18:48:53.270
121.0, -104909.03018820647, -141985.79096624744, -33133.488372980166, -114389.05321229139, 22625.642731862394, -72671.82441613966, 1815.5204433823162, -131160.93053352006, 0.048, 0.96, 0.052000000000000005, 192.0, 0.0, 0.0, 0.0, 0.0, 0.0, 0.0, 0.0, 0.0, 0.0, 1.666403333270923E9, 0.0, 2022-10-21 18:48:53.270
122.0, -104917.30033365493, -141992.25062039503, -33136.1705823148, -114386.41570644567, 22623.161688227858, -72656.46876769885, 1842.163722773042, -131160.72936781996, 0.048, 0.96, 0.052000000000000005, 192.0, 0.0, 0.0, 0.0, 0.0, 0.0, 0.0, 0.0, 0.0, 0.0, 1.66640333374747E9, 0.0, 2022-10-21 18:48:53.747
123.0, -104927.24685993754, -142003.82882402287, -33157.27062908061, -114412.27667478046, 22608.85657177646, -72685.32486979067, 1814.8051875597464, -131169.3571411797, 0.048, 0.96, 0.052000000000000005, 192.0, 0.0, 0.0, 0.0, 0.0, 0.0, 0.0, 0.0, 0.0, 0.0, 1.6664033337475848E9, 0.0, 2022-10-21 18:48:53.747
124.0, -104922.73180755756, -142000.20784142113, -33155.326027313, -114410.46618347958, 22614.489211379198, -72687.98472738084, 1802.1764519424978, -131154.8061555393, 0.036000000000000004, 0.9520000000000001, 0.048, 192.0, 1.0, 32.0, 29.0, 192.0, 1.0, 128.0, 0.0, 0.0, 0.0, 1.666403333747619E9, 0.0, 2022-10-21 18:48:53.747
125.0, -104935.7181710861, -142010.9143270152, -33164.06555939502, -114415.1600498152, 22601.100516450468, -72686.77773318026, 1806.8926700225677, -131154.13560320565, 0.036000000000000004, 0.9520000000000001, 0.048, 192.0, 0.0, 0.0, 0.0, 0.0, 0.0, 0.0, 0.0, 0.0, 0.0, 1.666403333747662E9, 0.0, 2022-10-21 18:48:53.747
126.0, -104926.6657145817, -142000.81133852142, -33159.01406514813, -114415.49532598202, 22603.268635662633, -72691.53865474924, 1821.3095451962406, -131155.58846659525, 0.036000000000000004, 0.9520000000000001, 0.048, 192.0, 0.0, 0.0, 0.0, 0.0, 0.0, 0.0, 0.0, 0.0, 0.0, 1.666403333747687E9, 0.0, 2022-10-21 18:48:53.747
127.0, -104914.21579292009, -141985.00865519152, -33149.2240010767, -114397.7480408845, 22623.161688227858, -72683.26850930077, 1830.943147056478, -131143.8538007562, 0.036000000000000004, 0.9520000000000001, 0.048, 192.0, 0.0, 0.0, 0.0, 0.0, 0.0, 0.0, 0.0, 0.0, 0.0, 1.666403333747712E9, 0.0, 2022-10-21 18:48:53.747
128.0, -104902.48112708106, -141971.79877421842, -33133.24250379115, -114387.30977622388, 22636.930362812327, -72684.47550350137, 1820.303716695752, -131130.44275408302, 0.036000000000000004, 0.9520000000000001, 0.048, 192.0, 0.0, 0.0, 0.0, 0.0, 0.0, 0.0, 0.0, 0.0, 0.0, 1.666403333747736E9, 0.0, 2022-10-21 18:48:53.747
129.0, -104911.69004579664, -141984.1145854133, -33143.99369287416, -114398.28448275143, 22618.266656192143, -72686.5542157357, 1819.3425916841736, -131139.0034722094, 0.036000000000000004, 0.9520000000000001, 0.048, 192.0, 0.0, 0.0, 0.0, 0.0, 0.0, 0.0, 0.0, 0.0, 0.0, 1.6664033337477603E9, 0.0, 2022-10-21 18:48:53.747
130.0, -104926.03986573695, -141997.68209429766, -33159.50580352614, -114408.76745090098, 22604.967368241236, -72681.99445986682, 1847.6622519090477, -131147.34067289124, 0.036000000000000004, 0.9520000000000001, 0.048, 192.0, 0.0, 0.0, 0.0, 0.0, 0.0, 0.0, 0.0, 0.0, 0.0, 1.6664033337477875E9, 0.0, 2022-10-21 18:48:53.747
131.0, -104912.00297021902, -141982.32644585686, -33148.709910954225, -114416.76937541597, 22616.702034080274, -72707.45309680142, 1834.2735569803187, -131140.27752164335, 0.036000000000000004, 0.9520000000000001, 0.048, 192.0, 0.0, 0.0, 0.0, 0.0, 0.0, 0.0, 0.0, 0.0, 0.0, 1.666403333747812E9, 0.0, 2022-10-21 18:48:53.747
132.0, -104913.85816500882, -141982.6170185348, -33153.671998223304, -114427.00647437651, 22614.355100912464, -72724.61923654309, 1803.8304810321906, -131152.12394620467, 0.036000000000000004, 0.9520000000000001, 0.048, 192.0, 0.0, 0.0, 0.0, 0.0, 0.0, 0.0, 0.0, 0.0, 0.0, 1.6664033337478368E9, 0.0, 2022-10-21 18:48:53.747
133.0, -104912.31589464139, -141982.4605563236, -33154.297847068054, -114414.62360794826, 22613.125754967423, -72717.71254750641, 1811.720646824914, -131150.53697234835, 0.036000000000000004, 0.9520000000000001, 0.048, 192.0, 0.0, 0.0, 0.0, 0.0, 0.0, 0.0, 0.0, 0.0, 0.0, 1.6664033337478611E9, 0.0, 2022-10-21 18:48:53.747
134.0, -104910.68421729616, -141983.1087569128, -33149.51457375462, -114396.38458447273, 22616.81379280255, -72711.31994859218, 1833.0889145241874, -131149.59819908123, 0.038, 0.9560000000000001, 0.05, 192.0, 1.0, 48.0, 29.0, 224.0, 1.0, 144.0, 0.0, 0.0, 0.0, 1.666403333747893E9, 0.0, 2022-10-21 18:48:53.747
135.0, -104921.63657207925, -141995.98336171906, -33162.23271634969, -114419.51863998397, 22607.291949664588, -72724.28396037627, 1824.9752312869111, -131167.32313243428, 0.038, 0.9560000000000001, 0.05, 192.0, 0.0, 0.0, 0.0, 0.0, 0.0, 0.0, 0.0, 0.0, 0.0, 1.6664033337479196E9, 0.0, 2022-10-21 18:48:53.747
136.0, -104922.30712441291, -141993.90464948473, -33161.025722149105, -114425.55361098691, 22613.95276951227, -72736.64447506005, 1808.9043270235452, -131159.38826315265, 0.038, 0.9560000000000001, 0.05, 192.0, 0.0, 0.0, 0.0, 0.0, 0.0, 0.0, 0.0, 0.0, 0.0, 1.666403333748022E9, 0.0, 2022-10-21 18:48:53.748
137.0, -104936.34401993085, -142009.3720566478, -33177.56601304603, -114431.27565756747, 22602.32986239551, -72756.8728037921, 1782.6186755441042, -131178.14137675063, 0.038, 0.9560000000000001, 0.05, 192.0, 0.0, 0.0, 0.0, 0.0, 0.0, 0.0, 0.0, 0.0, 0.0, 1.666403333748047E9, 0.0, 2022-10-21 18:48:53.748
138.0, -104908.69491203963, -141981.63354177875, -33154.65547497934, -114396.02695656144, 22625.66508360685, -72731.25770464631, 1814.0899317371766, -131163.32217017678, 0.038, 0.9560000000000001, 0.05, 192.0, 0.0, 0.0, 0.0, 0.0, 0.0, 0.0, 0.0, 0.0, 0.0, 1.6664033337480721E9, 0.0, 2022-10-21 18:48:53.748
139.0, -104913.56759233089, -141983.9134197132, -33161.293943082565, -114406.1075933108, 22619.42894690382, -72733.53758258076, 1827.523330154816, -131165.87026904468, 0.038, 0.9560000000000001, 0.05, 192.0, 0.0, 0.0, 0.0, 0.0, 0.0, 0.0, 0.0, 0.0, 0.0, 1.6664033337480965E9, 0.0, 2022-10-21 18:48:53.748
140.0, -104910.39364461823, -141979.15249814422, -33159.28228608159, -114414.98123585955, 22627.274409207632, -72757.96803927042, 1799.8295187746905, -131159.12004221918, 0.038, 0.9560000000000001, 0.05, 192.0, 0.0, 0.0, 0.0, 0.0, 0.0, 0.0, 0.0, 0.0, 0.0, 1.6664033337481208E9, 0.0, 2022-10-21 18:48:53.748
141.0, -104918.99906623353, -141988.83080349336, -33171.933373443295, -114415.2047533041, 22621.351196926975, -72756.4704723919, 1789.9947512143556, -131159.54472536384, 0.038, 0.9560000000000001, 0.05, 192.0, 0.0, 0.0, 0.0, 0.0, 0.0, 0.0, 0.0, 0.0, 0.0, 1.666403333748145E9, 0.0, 2022-10-21 18:48:53.748
142.0, -104925.25755468101, -141997.97266697558, -33182.39398984837, -114420.56917197337, 22608.364833398442, -72755.84462354716, 1802.1764519424978, -131169.53595513536, 0.038, 0.9560000000000001, 0.05, 192.0, 0.0, 0.0, 0.0, 0.0, 0.0, 0.0, 0.0, 0.0, 0.0, 1.6664033337481697E9, 0.0, 2022-10-21 18:48:53.748
143.0, -104915.19926967613, -141987.64616103724, -33165.80899546254, -114413.7518899145, 22622.111156238458, -72750.83783278917, 1825.1540452425536, -131158.5612486078, 0.038, 0.9560000000000001, 0.046, 192.0, 1.0, 48.0, 29.0, 224.0, 1.0, 112.0, 0.0, 0.0, 0.0, 1.666403333748194E9, 0.0, 2022-10-21 18:48:53.748
144.0, -104916.60742957682, -141985.67920752516, -33167.91005944134, -114417.59638996082, 22623.675778350327, -72763.51127189533, 1815.6992573379587, -131152.68273981605, 0.038, 0.9560000000000001, 0.046, 192.0, 0.0, 0.0, 0.0, 0.0, 0.0, 0.0, 0.0, 0.0, 0.0, 1.6664033337482202E9, 0.0, 2022-10-21 18:48:53.748
145.0, -104919.24493542254, -141985.94742845863, -33173.18507113279, -114429.33105579986, 22616.679682335816, -72785.48303669489, 1784.7420912673583, -131154.51558286138, 0.038, 0.9560000000000001, 0.046, 192.0, 0.0, 0.0, 0.0, 0.0, 0.0, 0.0, 0.0, 0.0, 0.0, 1.666403333748245E9, 0.0, 2022-10-21 18:48:53.748
146.0, -104922.8659180243, -141990.10485292732, -33172.7827397326, -114416.47880273806, 22620.121850981934, -72754.5705741132, 1816.4368649049838, -131154.82850728376, 0.038, 0.9560000000000001, 0.046, 192.0, 0.0, 0.0, 0.0, 0.0, 0.0, 0.0, 0.0, 0.0, 0.0, 1.666403333748269E9, 0.0, 2022-10-21 18:48:53.748
147.0, -104924.87757502528, -141993.01057970652, -33176.671943267815, -114425.79948017592, 22618.19960095878, -72764.45004516245, 1823.008277774844, -131148.34650139173, 0.038, 0.9560000000000001, 0.046, 192.0, 0.0, 0.0, 0.0, 0.0, 0.0, 0.0, 0.0, 0.0, 0.0, 1.666403333748299E9, 0.0, 2022-10-21 18:48:53.748
148.0, -104939.78618857697, -142006.13105370177, -33193.16753067583, -114441.87038443929, 22608.208371187255, -72795.69778391097, 1791.2240971593974, -131166.1608417226, 0.038, 0.9560000000000001, 0.046, 192.0, 0.0, 0.0, 0.0, 0.0, 0.0, 0.0, 0.0, 0.0, 0.0, 1.6664033337483113E9, 0.0, 2022-10-21 18:48:53.748
149.0, -104926.4645488816, -141993.97170471807, -33181.634030536894, -114430.31453255589, 22624.81571731755, -72797.35181300066, 1781.8587162326237, -131150.89460025963, 0.038, 0.9560000000000001, 0.046, 192.0, 0.0, 0.0, 0.0, 0.0, 0.0, 0.0, 0.0, 0.0, 0.0, 1.666403333748325E9, 0.0, 2022-10-21 18:48:53.748
150.0, -104912.96409523059, -141982.23703887904, -33167.55243153005, -114408.32041601186, 22638.62909539093, -72774.50833016734, 1804.8363095326795, -131139.27169314286, 0.038, 0.9560000000000001, 0.046, 192.0, 0.0, 0.0, 0.0, 0.0, 0.0, 0.0, 0.0, 0.0, 0.0, 1.666403333748338E9, 0.0, 2022-10-21 18:48:53.748
151.0, -104913.36642663079, -141983.1087569128, -33168.96059143074, -114403.2465700205, 22640.66310413636, -72765.4782254074, 1827.5456818992714, -131142.80326876682, 0.038, 0.9560000000000001, 0.046, 192.0, 0.0, 0.0, 0.0, 0.0, 0.0, 0.0, 0.0, 0.0, 0.0, 1.666403333748363E9, 0.0, 2022-10-21 18:48:53.748
152.0, -104931.04665649495, -141998.15148093124, -33185.836158494494, -114431.18625058964, 22624.905124295372, -72775.80473134575, 1828.104475510654, -131156.61664684018, 0.038, 0.9560000000000001, 0.046, 192.0, 0.0, 0.0, 0.0, 0.0, 0.0, 0.0, 0.0, 0.0, 0.0, 1.6664033337483764E9, 0.0, 2022-10-21 18:48:53.748
153.0, -104939.69678159915, -142006.15340544624, -33196.609699321954, -114454.76734099, 22612.768127056137, -72811.00872886286, 1800.0977397081542, -131163.99272251045, 0.042, 0.9580000000000001, 0.054, 192.0, 1.0, 80.0, 29.0, 240.0, 1.0, 176.0, 0.0, 0.0, 0.0, 1.6664033337483888E9, 0.0, 2022-10-21 18:48:53.748
154.0, -104949.4197904372, -142016.14463521776, -33206.533873860106, -114452.10748339981, 22604.006243229658, -72835.37213031914, 1780.562315054216, -131174.14041449313, 0.042, 0.9580000000000001, 0.054, 192.0, 0.0, 0.0, 0.0, 0.0, 0.0, 0.0, 0.0, 0.0, 0.0, 1.6664033337484028E9, 0.0, 2022-10-21 18:48:53.748
155.0, -104932.7230373291, -141999.15730943173, -33183.9809637047, -114424.54778248642, 22625.82154581804, -72809.06412709525, 1819.5661091287268, -131146.44660311303, 0.042, 0.9580000000000001, 0.054, 192.0, 0.0, 0.0, 0.0, 0.0, 0.0, 0.0, 0.0, 0.0, 0.0, 1.6664033337484157E9, 0.0, 2022-10-21 18:48:53.748
156.0, -104922.95532500213, -141990.52953607196, -33180.89642296987, -114419.63039870626, 22637.042121534603, -72798.60351069015, 1838.2521674933635, -131143.25030365592, 0.042, 0.9580000000000001, 0.054, 192.0, 0.0, 0.0, 0.0, 0.0, 0.0, 0.0, 0.0, 0.0, 0.0, 1.6664033337484295E9, 0.0, 2022-10-21 18:48:53.748
157.0, -104922.59769709084, -141991.22244015007, -33182.03636193709, -114429.46516626659, 22636.840955834505, -72817.37897603262, 1818.9626120284333, -131140.79161176583, 0.042, 0.9580000000000001, 0.054, 192.0, 0.0, 0.0, 0.0, 0.0, 0.0, 0.0, 0.0, 0.0, 0.0, 1.6664033337484422E9, 0.0, 2022-10-21 18:48:53.748
158.0, -104931.40428440622, -141998.28559139796, -33183.77979800461, -114424.41367201968, 22637.086825023514, -72813.46742075293, 1819.7896265732797, -131144.16672517857, 0.042, 0.9580000000000001, 0.054, 192.0, 0.0, 0.0, 0.0, 0.0, 0.0, 0.0, 0.0, 0.0, 0.0, 1.6664033337484548E9, 0.0, 2022-10-21 18:48:53.748
159.0, -104942.46839791161, -142007.82978628037, -33191.04411495258, -114424.70424469761, 22629.75545284217, -72802.82799039221, 1847.8857693536008, -131150.8051932818, 0.042, 0.9580000000000001, 0.054, 192.0, 0.0, 0.0, 0.0, 0.0, 0.0, 0.0, 0.0, 0.0, 0.0, 1.6664033337484672E9, 0.0, 2022-10-21 18:48:53.748
160.0, -104943.92126130119, -142008.41093163623, -33192.1840539198, -114440.21635534959, 22632.05768252107, -72818.87654291112, 1844.6000629186706, -131152.07924271576, 0.042, 0.9580000000000001, 0.054, 192.0, 0.0, 0.0, 0.0, 0.0, 0.0, 0.0, 0.0, 0.0, 0.0, 1.6664033337484796E9, 0.0, 2022-10-21 18:48:53.748
161.0, -104941.68608685567, -142006.2204606796, -33189.971231218726, -114438.71878847109, 22638.986723302212, -72835.5956477637, 1820.1025509956542, -131145.79840252383, 0.042, 0.9580000000000001, 0.054, 192.0, 0.0, 0.0, 0.0, 0.0, 0.0, 0.0, 0.0, 0.0, 0.0, 1.6664033337484925E9, 0.0, 2022-10-21 18:48:53.748
162.0, -104936.45577865312, -142001.25837341053, -33190.6864870413, -114432.12502385677, 22637.91383956836, -72843.12818564512, 1813.329972425696, -131147.38537638015, 0.042, 0.9580000000000001, 0.054, 192.0, 0.0, 0.0, 0.0, 0.0, 0.0, 0.0, 0.0, 0.0, 0.0, 1.6664033337485049E9, 0.0, 2022-10-21 18:48:53.748
163.0, -104933.2147757071, -142002.24185016655, -33187.020800950624, -114417.37287251627, 22642.76416811516, -72819.52474350033, 1853.585464189704, -131138.44467859803, 0.05, 0.9560000000000001, 0.058, 192.0, 1.0, 144.0, 29.0, 224.0, 1.0, 208.0, 0.0, 0.0, 0.0, 1.6664033337485173E9, 0.0, 2022-10-21 18:48:53.748
164.0, -104959.34396497536, -142028.99688827957, -33211.27244368463, -114451.0122479215, 22617.596103858486, -72836.26620009735, 1853.0490223227766, -131167.8595743012, 0.05, 0.9560000000000001, 0.058, 192.0, 0.0, 0.0, 0.0, 0.0, 0.0, 0.0, 0.0, 0.0, 0.0, 1.6664033337485306E9, 0.0, 2022-10-21 18:48:53.748
165.0, -104942.20017697813, -142010.33318165937, -33196.117960943935, -114453.73916074506, 22632.90704881037, -72857.88033698563, 1837.5369116707936, -131150.62637932616, 0.05, 0.9560000000000001, 0.058, 192.0, 0.0, 0.0, 0.0, 0.0, 0.0, 0.0, 0.0, 0.0, 0.0, 1.666403333748543E9, 0.0, 2022-10-21 18:48:53.748
166.0, -104916.98740923255, -141986.30505636992, -33168.580611774996, -114414.3553870148, 22666.434665493332, -72837.42849080903, 1848.5786734317153, -131126.53119880334, 0.05, 0.9560000000000001, 0.058, 192.0, 0.0, 0.0, 0.0, 0.0, 0.0, 0.0, 0.0, 0.0, 0.0, 1.6664033337485669E9, 0.0, 2022-10-21 18:48:53.748
167.0, -104930.24199369455, -141999.58199257636, -33183.19865264877, -114417.19405856062, 22652.554232186587, -72826.34202555919, 1866.4153655070504, -131140.27752164335, 0.05, 0.9560000000000001, 0.058, 192.0, 0.0, 0.0, 0.0, 0.0, 0.0, 0.0, 0.0, 0.0, 0.0, 1.6664033337485795E9, 0.0, 2022-10-21 18:48:53.748
168.0, -104931.96307801761, -142002.10773969983, -33188.13838817339, -114421.5079452405, 22648.329752484533, -72835.30507508578, 1876.6301127231256, -131147.94416999153, 0.05, 0.9560000000000001, 0.058, 192.0, 0.0, 0.0, 0.0, 0.0, 0.0, 0.0, 0.0, 0.0, 0.0, 1.666403333748593E9, 0.0, 2022-10-21 18:48:53.748
169.0, -104941.97665953358, -142011.04843748195, -33197.861397011446, -114449.93936418765, 22637.19858374579, -72866.97749697894, 1850.4338682215057, -131158.94122826355, 0.05, 0.9560000000000001, 0.058, 192.0, 0.0, 0.0, 0.0, 0.0, 0.0, 0.0, 0.0, 0.0, 0.0, 1.6664033337486055E9, 0.0, 2022-10-21 18:48:53.748
170.0, -104943.42952292318, -142013.35066716085, -33197.88374875591, -114449.87230895429, 22640.506641925174, -72874.1524069491, 1832.239548234886, -131156.84016428475, 0.05, 0.9560000000000001, 0.058, 192.0, 0.0, 0.0, 0.0, 0.0, 0.0, 0.0, 0.0, 0.0, 0.0, 1.6664033337486186E9, 0.0, 2022-10-21 18:48:53.748
171.0, -104952.99606955005, -142025.0182777665, -33209.08197272801, -114437.57884950386, 22633.91287731086, -72858.46148234147, 1855.7312316574137, -131167.14431847862, 0.05, 0.9560000000000001, 0.058, 192.0, 0.0, 0.0, 0.0, 0.0, 0.0, 0.0, 0.0, 0.0, 0.0, 1.6664033337486312E9, 0.0, 2022-10-21 18:48:53.748
172.0, -104943.16130198972, -142017.64220209626, -33194.95567023226, -114427.11823309878, 22646.318095483555, -72850.21368863746, 1893.32686583124, -131143.18324842255, 0.05, 0.9560000000000001, 0.058, 192.0, 0.0, 0.0, 0.0, 0.0, 0.0, 0.0, 0.0, 0.0, 0.0, 1.6664033337486439E9, 0.0, 2022-10-21 18:48:53.748
173.0, -104942.08841825587, -142018.1115887298, -33194.2851178986, -114434.74017795804, 22654.118854298456, -72858.46148234147, 1896.746682732902, -131136.88005648614, 0.05, 0.9540000000000001, 0.058, 192.0, 1.0, 144.0, 29.0, 208.0, 1.0, 208.0, 0.0, 0.0, 0.0, 1.6664033337486565E9, 0.0, 2022-10-21 18:48:53.748
174.0, -104944.21183397912, -142019.54210037497, -33201.012992979646, -114444.64200075174, 22650.92255484135, -72873.12422670415, 1874.2161243219525, -131144.23378041195, 0.05, 0.9540000000000001, 0.058, 192.0, 0.0, 0.0, 0.0, 0.0, 0.0, 0.0, 0.0, 0.0, 0.0, 1.66640333374867E9, 0.0, 2022-10-21 18:48:53.748
175.0, -104933.32653442938, -142010.69080957066, -33194.59804232098, -114427.98995113253, 22656.018752577158, -72865.88226150064, 1884.5649820047597, -131138.48938208693, 0.05, 0.9540000000000001, 0.058, 192.0, 0.0, 0.0, 0.0, 0.0, 0.0, 0.0, 0.0, 0.0, 0.0, 1.6664033337486827E9, 0.0, 2022-10-21 18:48:53.748
176.0, -104945.24001422407, -142023.18543472118, -33205.59510059298, -114436.77418670348, 22640.81956634755, -72864.9434882335, 1903.7427787474132, -131152.28040841586, 0.05, 0.9540000000000001, 0.058, 192.0, 0.0, 0.0, 0.0, 0.0, 0.0, 0.0, 0.0, 0.0, 0.0, 1.6664033337487316E9, 0.0, 2022-10-21 18:48:53.748
177.0, -104944.7706275905, -142022.40312366525, -33206.4891703712, -114450.00641942101, 22638.830261091025, -72886.8034943108, 1898.646581011603, -131152.7050915605, 0.05, 0.9540000000000001, 0.058, 192.0, 0.0, 0.0, 0.0, 0.0, 0.0, 0.0, 0.0, 0.0, 0.0, 1.666403333748746E9, 0.0, 2022-10-21 18:48:53.748
178.0, -104935.3158396859, -142010.89197527076, -33199.18014993431, -114433.93551515765, 22653.917688598358, -72896.92883454905, 1887.9847989064217, -131134.26490238486, 0.05, 0.9540000000000001, 0.058, 192.0, 0.0, 0.0, 0.0, 0.0, 0.0, 0.0, 0.0, 0.0, 0.0, 1.6664033337487595E9, 0.0, 2022-10-21 18:48:53.748
179.0, -104941.35081068883, -142017.08340848488, -33207.69616457178, -114433.46612852409, 22651.10136879699, -72880.94733726351, 1901.4852525574272, -131141.59627456623, 0.05, 0.9540000000000001, 0.058, 192.0, 0.0, 0.0, 0.0, 0.0, 0.0, 0.0, 0.0, 0.0, 0.0, 1.6664033337487724E9, 0.0, 2022-10-21 18:48:53.748
180.0, -104943.38481943427, -142019.49739688606, -33209.48430412821, -114429.08518661084, 22653.470653709253, -72871.2466801699, 1923.3229068902622, -131145.64194031263, 0.05, 0.9540000000000001, 0.058, 192.0, 0.0, 0.0, 0.0, 0.0, 0.0, 0.0, 0.0, 0.0, 0.0, 1.666403333748785E9, 0.0, 2022-10-21 18:48:53.748
181.0, -104943.96596479011, -142016.7704840625, -33211.1383332179, -114435.25426808052, 22653.671819409352, -72885.77531406586, 1914.8962992306115, -131139.07052744276, 0.05, 0.9540000000000001, 0.058, 192.0, 0.0, 0.0, 0.0, 0.0, 0.0, 0.0, 0.0, 0.0, 0.0, 1.6664033337487977E9, 0.0, 2022-10-21 18:48:53.748
182.0, -104969.44695346916, -142042.11736227482, -33239.36858646495, -114471.97818422058, 22625.396862673388, -72926.56724769679, 1880.072281369243, -131164.32799867727, 0.052000000000000005, 0.9540000000000001, 0.06, 192.0, 1.0, 160.0, 29.0, 208.0, 1.0, 224.0, 0.0, 0.0, 0.0, 1.6664033337488225E9, 0.0, 2022-10-21 18:48:53.748
183.0, -104956.05825854043, -142028.79572257947, -33228.81856308205, -114456.60018403533, 22639.411406446863, -72918.54297143733, 1894.6232670096479, -131153.77797529436, 0.052000000000000005, 0.9540000000000001, 0.06, 192.0, 0.0, 0.0, 0.0, 0.0, 0.0, 0.0, 0.0, 0.0, 0.0, 1.6664033337488372E9, 0.0, 2022-10-21 18:48:53.748
184.0, -104941.50727290002, -142013.3730189053, -33213.99935650818, -114429.28635231094, 22655.884642110424, -72898.58286363875, 1924.9992877244101, -131141.68568154404, 0.052000000000000005, 0.9540000000000001, 0.06, 192.0, 0.0, 0.0, 0.0, 0.0, 0.0, 0.0, 0.0, 0.0, 0.0, 1.66640333374885E9, 0.0, 2022-10-21 18:48:53.748
185.0, -104951.69966837164, -142022.8725102988, -33226.71749910325, -114448.64296300925, 22644.10527278248, -72906.27186373137, 1924.686363302036, -131154.53793460585, 0.052000000000000005, 0.9540000000000001, 0.06, 192.0, 0.0, 0.0, 0.0, 0.0, 0.0, 0.0, 0.0, 0.0, 0.0, 1.6664033337488625E9, 0.0, 2022-10-21 18:48:53.748
186.0, -104953.55486316144, -142024.68300159968, -33228.63974912641, -114465.87615798428, 22643.881755337927, -72924.48853546244, 1912.1470346626086, -131156.0578532288, 0.052000000000000005, 0.9540000000000001, 0.06, 192.0, 0.0, 0.0, 0.0, 0.0, 0.0, 0.0, 0.0, 0.0, 0.0, 1.6664033337488756E9, 0.0, 2022-10-21 18:48:53.748
187.0, -104943.18365373417, -142016.59167010686, -33217.91091178786, -114447.88300369776, 22659.662086923374, -72924.89086686264, 1910.0459706838096, -131138.48938208693, 0.052000000000000005, 0.9540000000000001, 0.06, 192.0, 0.0, 0.0, 0.0, 0.0, 0.0, 0.0, 0.0, 0.0, 0.0, 1.666403333748888E9, 0.0, 2022-10-21 18:48:53.748
188.0, -104959.7239446311, -142031.63439412529, -33238.273350986645, -114442.58564026185, 22644.015865804657, -72917.24657025893, 1925.133398191142, -131156.77310905137, 0.052000000000000005, 0.9540000000000001, 0.06, 192.0, 0.0, 0.0, 0.0, 0.0, 0.0, 0.0, 0.0, 0.0, 0.0, 1.6664033337489004E9, 0.0, 2022-10-21 18:48:53.748
189.0, -104952.50433117204, -142023.45365565465, -33232.685414872816, -114452.12983514427, 22644.082921038025, -72919.39233772663, 1943.8641600446892, -131159.43296664156, 0.052000000000000005, 0.9540000000000001, 0.06, 192.0, 0.0, 0.0, 0.0, 0.0, 0.0, 0.0, 0.0, 0.0, 0.0, 1.666403333748913E9, 0.0, 2022-10-21 18:48:53.748
190.0, -104942.49074965606, -142012.90363227174, -33221.80011532308, -114452.4651113111, 22649.67085715185, -72929.18240179807, 1936.0634012297871, -131150.73813804844, 0.052000000000000005, 0.9540000000000001, 0.06, 192.0, 0.0, 0.0, 0.0, 0.0, 0.0, 0.0, 0.0, 0.0, 0.0, 1.6664033337489257E9, 0.0, 2022-10-21 18:48:53.748
191.0, -104945.41882817971, -142016.92694627368, -33225.063470013556, -114454.34265784535, 22644.73112162723, -72939.79948041434, 1923.6358313126364, -131148.83823976974, 0.052000000000000005, 0.9540000000000001, 0.06, 192.0, 0.0, 0.0, 0.0, 0.0, 0.0, 0.0, 0.0, 0.0, 0.0, 1.666403333748938E9, 0.0, 2022-10-21 18:48:53.748
192.0, -104944.65886886822, -142014.82588229488, -33223.05181301258, -114441.87038443929, 22645.468729194254, -72932.33399776625, 1938.6115000976922, -131143.58557982274, 0.05, 0.9540000000000001, 0.058, 192.0, 1.0, 144.0, 29.0, 208.0, 1.0, 208.0, 0.0, 0.0, 0.0, 1.6664033337489505E9, 0.0, 2022-10-21 18:48:53.748
193.0, -104944.10007525684, -142017.32927767388, -33225.555208391575, -114441.46805303909, 22643.568830915552, -72919.52644819337, 1969.456907446016, -131144.30083564532, 0.05, 0.9540000000000001, 0.058, 192.0, 0.0, 0.0, 0.0, 0.0, 0.0, 0.0, 0.0, 0.0, 0.0, 1.6664033337489636E9, 0.0, 2022-10-21 18:48:53.748
194.0, -104942.58015663388, -142018.89389978576, -33232.93128406182, -114470.27945164198, 22639.701979124784, -72961.05598939133, 1937.069229730276, -131150.93930374854, 0.05, 0.9540000000000001, 0.058, 192.0, 0.0, 0.0, 0.0, 0.0, 0.0, 0.0, 0.0, 0.0, 0.0, 1.6664033337489765E9, 0.0, 2022-10-21 18:48:53.748
195.0, -104943.25070896753, -142018.40216140775, -33233.26656022866, -114458.27656486948, 22647.525089684143, -72968.1191406392, 1916.1256451756533, -131148.16768743607, 0.05, 0.9540000000000001, 0.058, 192.0, 0.0, 0.0, 0.0, 0.0, 0.0, 0.0, 0.0, 0.0, 0.0, 1.6664033337489889E9, 0.0, 2022-10-21 18:48:53.748
196.0, -104945.37412469079, -142020.99496376456, -33231.94780730579, -114443.63617225125, 22652.733046142228, -72953.81402418781, 1933.8505785287118, -131151.74396654894, 0.05, 0.9540000000000001, 0.058, 192.0, 0.0, 0.0, 0.0, 0.0, 0.0, 0.0, 0.0, 0.0, 0.0, 1.6664033337490015E9, 0.0, 2022-10-21 18:48:53.749
197.0, -104950.53737765997, -142028.03576326798, -33238.4968684312, -114446.89952694172, 22653.62711592044, -72955.66921897761, 1947.2392734574407, -131153.86738227218, 0.05, 0.9540000000000001, 0.058, 192.0, 0.0, 0.0, 0.0, 0.0, 0.0, 0.0, 0.0, 0.0, 0.0, 1.6664033337490258E9, 0.0, 2022-10-21 18:48:53.749
198.0, -104962.96494757711, -142040.19511225168, -33253.11490930497, -114467.32902137388, 22645.871060594447, -72970.220204618, 1935.0799244737536, -131158.8965247746, 0.05, 0.9540000000000001, 0.058, 192.0, 0.0, 0.0, 0.0, 0.0, 0.0, 0.0, 0.0, 0.0, 0.0, 1.6664033337490396E9, 0.0, 2022-10-21 18:48:53.749
199.0, -104965.51304644502, -142042.5867489084, -33254.92540060585, -114469.78771326396, 22647.703903639784, -72972.85771046374, 1923.4346656125388, -131159.7458910639, 0.05, 0.9540000000000001, 0.058, 192.0, 0.0, 0.0, 0.0, 0.0, 0.0, 0.0, 0.0, 0.0, 0.0, 1.666403333749052E9, 0.0, 2022-10-21 18:48:53.749
200.0, -104956.03590679598, -142034.76363834902, -33249.20335402529, -114454.81204447891, 22652.062493808568, -72960.47484403549, 1942.6795175885582, -131149.9558269925, 0.05, 0.9540000000000001, 0.058, 192.0, 0.0, 0.0, 0.0, 0.0, 0.0, 0.0, 0.0, 0.0, 0.0, 1.6664033337490644E9, 0.0, 2022-10-21 18:48:53.749
201.0, -104956.66175564073, -142034.29425171547, -33247.92930459134, -114444.15026237372, 22657.605726433485, -72956.87621317818, 1968.0487475453315, -131144.63611181214, 0.05, 0.9540000000000001, 0.058, 192.0, 0.0, 0.0, 0.0, 0.0, 0.0, 0.0, 0.0, 0.0, 0.0, 1.666403333749077E9, 0.0, 2022-10-21 18:48:53.749
202.0, -104958.20402600814, -142034.85304532683, -33247.03523481313, -114452.263945611, 22659.48327296773, -72966.24159410495, 1968.3840237121613, -131143.87615250066, 0.044, 0.9520000000000001, 0.058, 192.0, 1.0, 96.0, 29.0, 192.0, 1.0, 208.0, 0.0, 0.0, 0.0, 1.6664033337490897E9, 0.0, 2022-10-21 18:48:53.749
203.0, -104944.23418572357, -142024.34772543286, -33235.412327696366, -114455.1696723902, 22667.48519748273, -72983.49714082446, 1949.5415031363373, -131130.71097501647, 0.044, 0.9520000000000001, 0.058, 192.0, 0.0, 0.0, 0.0, 0.0, 0.0, 0.0, 0.0, 0.0, 0.0, 1.6664033337491033E9, 0.0, 2022-10-21 18:48:53.749
204.0, -104949.95623230413, -142030.40504818023, -33244.53183943413, -114453.22507062258, 22659.751493901193, -72994.56125432983, 1940.1537704651084, -131139.15993442058, 0.044, 0.9520000000000001, 0.058, 192.0, 0.0, 0.0, 0.0, 0.0, 0.0, 0.0, 0.0, 0.0, 0.0, 1.6664033337491157E9, 0.0, 2022-10-21 18:48:53.749
205.0, -104958.80752310844, -142039.8821878293, -33257.02646458465, -114454.65558226772, 22648.374455973444, -72994.78477177439, 1954.2130177274964, -131159.5000218749, 0.044, 0.9520000000000001, 0.058, 192.0, 0.0, 0.0, 0.0, 0.0, 0.0, 0.0, 0.0, 0.0, 0.0, 1.666403333749128E9, 0.0, 2022-10-21 18:48:53.749
206.0, -104963.50138944405, -142041.06683028542, -33259.84278438601, -114464.87032948379, 22649.33558098502, -73011.74974581596, 1951.1061252482089, -131164.93149577756, 0.044, 0.9520000000000001, 0.058, 192.0, 0.0, 0.0, 0.0, 0.0, 0.0, 0.0, 0.0, 0.0, 0.0, 1.6664033337491405E9, 0.0, 2022-10-21 18:48:53.749
207.0, -104959.36631671981, -142036.64118488328, -33257.13822330692, -114475.8226842669, 22658.857424122984, -73022.12095524323, 1931.8612732721895, -131156.03550148435, 0.044, 0.9520000000000001, 0.058, 192.0, 0.0, 0.0, 0.0, 0.0, 0.0, 0.0, 0.0, 0.0, 0.0, 1.6664033337491531E9, 0.0, 2022-10-21 18:48:53.749
208.0, -104962.6743748992, -142037.267033728, -33255.90887736188, -114465.36206786182, 22663.23836603622, -73018.85760055276, 1922.741761534424, -131152.7050915605, 0.044, 0.9520000000000001, 0.058, 192.0, 0.0, 0.0, 0.0, 0.0, 0.0, 0.0, 0.0, 0.0, 0.0, 1.6664033337491655E9, 0.0, 2022-10-21 18:48:53.749
209.0, -104954.04660153945, -142029.93566154668, -33246.163516779365, -114439.72461697158, 22672.73785742973, -72988.19100716007, 1956.649357873125, -131140.59044606573, 0.044, 0.9520000000000001, 0.058, 192.0, 0.0, 0.0, 0.0, 0.0, 0.0, 0.0, 0.0, 0.0, 0.0, 1.6664033337491784E9, 0.0, 2022-10-21 18:48:53.749
210.0, -104961.1768080207, -142036.3729639498, -33253.159612793876, -114453.38153283377, 22662.836034636028, -72988.74980077146, 1980.67748316258, -131144.39024262314, 0.044, 0.9520000000000001, 0.058, 192.0, 0.0, 0.0, 0.0, 0.0, 0.0, 0.0, 0.0, 0.0, 0.0, 1.6664033337491908E9, 0.0, 2022-10-21 18:48:53.749
211.0, -104959.67924114219, -142032.5284639035, -33256.98176109573, -114473.54280633245, 22658.92447935635, -73030.61461813624, 1944.3782501671615, -131145.30666414578, 0.048, 0.9560000000000001, 0.054, 192.0, 1.0, 128.0, 29.0, 224.0, 1.0, 176.0, 0.0, 0.0, 0.0, 1.6664033337492037E9, 0.0, 2022-10-21 18:48:53.749
212.0, -104959.43337195319, -142036.64118488328, -33253.941923849816, -114461.18229164867, 22660.042066579113, -73043.42216770914, 1929.290822659829, -131146.08897520174, 0.048, 0.9560000000000001, 0.054, 192.0, 0.0, 0.0, 0.0, 0.0, 0.0, 0.0, 0.0, 0.0, 0.0, 1.6664033337492285E9, 0.0, 2022-10-21 18:48:53.749
213.0, -104973.33615700438, -142052.91325484673, -33274.19260432632, -114468.267794641, 22642.89827858189, -73040.56114441885, 1949.2509304584182, -131168.7536440794, 0.048, 0.9560000000000001, 0.054, 192.0, 0.0, 0.0, 0.0, 0.0, 0.0, 0.0, 0.0, 0.0, 0.0, 1.6664033337492416E9, 0.0, 2022-10-21 18:48:53.749
214.0, -104969.13402904678, -142047.4370774552, -33274.416121770875, -114468.53601557447, 22644.798176860593, -73034.74969086048, 1978.2187912724962, -131175.705036605, 0.048, 0.9560000000000001, 0.054, 192.0, 0.0, 0.0, 0.0, 0.0, 0.0, 0.0, 0.0, 0.0, 0.0, 1.6664033337492545E9, 0.0, 2022-10-21 18:48:53.749
215.0, -104975.39251749427, -142050.1863420232, -33278.52884275065, -114483.13170470377, 22641.735987870215, -73063.67284818564, 1953.520113649382, -131166.94315277852, 0.048, 0.9560000000000001, 0.054, 192.0, 0.0, 0.0, 0.0, 0.0, 0.0, 0.0, 0.0, 0.0, 0.0, 1.6664033337492676E9, 0.0, 2022-10-21 18:48:53.749
216.0, -104971.34685174786, -142046.4759524436, -33276.69599970532, -114475.2191871666, 22649.71556064076, -73068.5455284769, 1942.09837223272, -131156.1025567177, 0.048, 0.9560000000000001, 0.054, 192.0, 0.0, 0.0, 0.0, 0.0, 0.0, 0.0, 0.0, 0.0, 0.0, 1.6664033337492807E9, 0.0, 2022-10-21 18:48:53.749
217.0, -104967.61411042382, -142039.770429107, -33271.130415335945, -114455.88492821276, 22656.644601421907, -73058.80016789438, 1961.9020178201222, -131145.30666414578, 0.048, 0.9560000000000001, 0.054, 192.0, 0.0, 0.0, 0.0, 0.0, 0.0, 0.0, 0.0, 0.0, 0.0, 1.6664033337492936E9, 0.0, 2022-10-21 18:48:53.749
218.0, -104953.10782827233, -142026.60525162282, -33254.545420950104, -114438.02588439298, 22674.90597664189, -73045.92556308814, 1984.969018097999, -131132.67792852854, 0.048, 0.9560000000000001, 0.054, 192.0, 0.0, 0.0, 0.0, 0.0, 0.0, 0.0, 0.0, 0.0, 0.0, 1.6664033337493076E9, 0.0, 2022-10-21 18:48:53.749
219.0, -104965.33423248939, -142039.2339872401, -33266.59301121152, -114465.33971611736, 22661.561985202075, -73055.13448180372, 1971.647378402636, -131149.24057116994, 0.048, 0.9560000000000001, 0.054, 192.0, 0.0, 0.0, 0.0, 0.0, 0.0, 0.0, 0.0, 0.0, 0.0, 1.6664033337493205E9, 0.0, 2022-10-21 18:48:53.749
220.0, -104982.05333734195, -142057.49536246006, -33287.38013355495, -114496.45334439914, 22642.33948497051, -73077.5532814924, 1949.8767793031668, -131169.24538245742, 0.048, 0.9560000000000001, 0.054, 192.0, 0.0, 0.0, 0.0, 0.0, 0.0, 0.0, 0.0, 0.0, 0.0, 1.666403333749334E9, 0.0, 2022-10-21 18:48:53.749
221.0, -104965.04365981146, -142036.26120522752, -33265.00603735519, -114469.49714058604, 22661.00319159069, -73068.7913976659, 1971.5132679359042, -131151.34163514874, 0.054, 0.9520000000000001, 0.054, 192.0, 1.0, 176.0, 29.0, 192.0, 1.0, 176.0, 0.0, 0.0, 0.0, 1.6664033337493467E9, 0.0, 2022-10-21 18:48:53.749
222.0, -104953.84543583935, -142020.77144632, -33245.35885397898, -114447.54772753094, 22678.549310988106, -73047.78075787792, 2006.4713962640044, -131137.3047396308, 0.054, 0.9520000000000001, 0.054, 192.0, 0.0, 0.0, 0.0, 0.0, 0.0, 0.0, 0.0, 0.0, 0.0, 1.6664033337493603E9, 0.0, 2022-10-21 18:48:53.749
223.0, -104961.31091848743, -142028.84042606837, -33256.82529888455, -114463.99861145004, 22666.278203282145, -73064.18693830812, 1993.2391635464626, -131144.23378041195, 0.054, 0.9520000000000001, 0.054, 192.0, 0.0, 0.0, 0.0, 0.0, 0.0, 0.0, 0.0, 0.0, 0.0, 1.6664033337493732E9, 0.0, 2022-10-21 18:48:53.749
224.0, -104968.01644182402, -142035.21067323812, -33267.86706064547, -114474.66039355521, 22660.980839846237, -73075.20634832459, 1975.2460092599404, -131151.14046944864, 0.054, 0.9520000000000001, 0.054, 192.0, 0.0, 0.0, 0.0, 0.0, 0.0, 0.0, 0.0, 0.0, 0.0, 1.666403333749386E9, 0.0, 2022-10-21 18:48:53.749
225.0, -104962.78613362148, -142031.276766214, -33260.33452276403, -114456.64488752423, 22673.9001481414, -73072.0994558453, 1977.0788523052756, -131140.29987338782, 0.054, 0.9520000000000001, 0.054, 192.0, 0.0, 0.0, 0.0, 0.0, 0.0, 0.0, 0.0, 0.0, 0.0, 1.6664033337493997E9, 0.0, 2022-10-21 18:48:53.749
226.0, -104966.09419180086, -142040.19511225168, -33260.17806055285, -114453.53799504496, 22667.552252716097, -73069.32783953284, 1995.7872624143677, -131142.62445481116, 0.054, 0.9520000000000001, 0.054, 192.0, 0.0, 0.0, 0.0, 0.0, 0.0, 0.0, 0.0, 0.0, 0.0, 1.6664033337494123E9, 0.0, 2022-10-21 18:48:53.749
227.0, -104984.10969783184, -142056.42247872622, -33281.94865965231, -114487.71381231712, 22647.033351306123, -73090.58434850983, 1991.227506545485, -131161.86930678718, 0.054, 0.9520000000000001, 0.054, 192.0, 0.0, 0.0, 0.0, 0.0, 0.0, 0.0, 0.0, 0.0, 0.0, 1.666403333749436E9, 0.0, 2022-10-21 18:48:53.749
228.0, -104964.39545922226, -142038.2281587396, -33267.77765366765, -114485.50098961605, 22661.2490607797, -73101.78257248194, 1977.101204049731, -131147.16185893558, 0.054, 0.9520000000000001, 0.054, 192.0, 0.0, 0.0, 0.0, 0.0, 0.0, 0.0, 0.0, 0.0, 0.0, 1.666403333749449E9, 0.0, 2022-10-21 18:48:53.749
229.0, -104960.8191801094, -142035.74711510507, -33268.269392045666, -114473.63221331028, 22663.417179991866, -73094.69706948962, 1977.6376459166584, -131151.8557252712, 0.054, 0.9520000000000001, 0.054, 192.0, 0.0, 0.0, 0.0, 0.0, 0.0, 0.0, 0.0, 0.0, 0.0, 1.6664033337494617E9, 0.0, 2022-10-21 18:48:53.749
230.0, -104962.49556094356, -142034.7859900935, -33268.09057809002, -114458.83535848086, 22667.082866082535, -73080.97309839405, 2004.7503119409457, -131147.94416999153, 0.054, 0.9520000000000001, 0.054, 192.0, 0.0, 0.0, 0.0, 0.0, 0.0, 0.0, 0.0, 0.0, 0.0, 1.6664033337494743E9, 0.0, 2022-10-21 18:48:53.749
231.0, -104951.54320616045, -142027.58872837888, -33260.44628148631, -114457.29308811345, 22675.86710165347, -73080.36960129376, 2013.288678322873, -131135.98598670794, 0.05, 0.9560000000000001, 0.046, 192.0, 1.0, 144.0, 29.0, 224.0, 1.0, 112.0, 0.0, 0.0, 0.0, 1.6664033337494867E9, 0.0, 2022-10-21 18:48:53.749
232.0, -104946.37995319128, -142019.34093467487, -33258.3005140186, -114465.76439926201, 22676.045915609113, -73100.08383990334, 1989.5958292002476, -131131.11330641666, 0.05, 0.9560000000000001, 0.046, 192.0, 0.0, 0.0, 0.0, 0.0, 0.0, 0.0, 0.0, 0.0, 0.0, 1.6664033337495003E9, 0.0, 2022-10-21 18:48:53.749
233.0, -104952.88431082778, -142022.40312366525, -33270.571621724564, -114470.14534117524, 22667.44049399382, -73112.66787203168, 1973.3014074923287, -131137.81882975326, 0.05, 0.9560000000000001, 0.046, 192.0, 0.0, 0.0, 0.0, 0.0, 0.0, 0.0, 0.0, 0.0, 0.0, 1.666403333749513E9, 0.0, 2022-10-21 18:48:53.749
234.0, -104955.20889225113, -142026.13586498928, -33271.264525802675, -114454.47676831207, 22672.514339985173, -73092.12661887726, 2000.5258322388927, -131134.19784715152, 0.05, 0.9560000000000001, 0.046, 192.0, 0.0, 0.0, 0.0, 0.0, 0.0, 0.0, 0.0, 0.0, 0.0, 1.6664033337495253E9, 0.0, 2022-10-21 18:48:53.749
235.0, -104950.82795033789, -142024.9735742776, -33272.046836858615, -114464.98208820607, 22670.748552173205, -73089.13148512023, 2020.1059603817416, -131137.90823673108, 0.05, 0.9560000000000001, 0.046, 192.0, 0.0, 0.0, 0.0, 0.0, 0.0, 0.0, 0.0, 0.0, 0.0, 1.666403333749538E9, 0.0, 2022-10-21 18:48:53.749
236.0, -104947.83281658088, -142020.88320504228, -33273.38794152593, -114470.97235572009, 22676.2023778203, -73114.23249414355, 1995.876669392189, -131133.16966690656, 0.05, 0.9560000000000001, 0.046, 192.0, 0.0, 0.0, 0.0, 0.0, 0.0, 0.0, 0.0, 0.0, 0.0, 1.6664033337495503E9, 0.0, 2022-10-21 18:48:53.749
237.0, -104959.20985450863, -142032.39435343677, -33285.41318004289, -114470.72648653109, 22670.122703328456, -73121.00507271351, 1975.6930441490465, -131131.49328607242, 0.05, 0.9560000000000001, 0.046, 192.0, 0.0, 0.0, 0.0, 0.0, 0.0, 0.0, 0.0, 0.0, 0.0, 1.6664033337495627E9, 0.0, 2022-10-21 18:48:53.749
238.0, -104964.55192143345, -142034.24954822654, -33295.13618888095, -114473.14047493225, 22661.2490607797, -73121.83208725836, 1983.940837853055, -131138.98112046494, 0.05, 0.9560000000000001, 0.046, 192.0, 0.0, 0.0, 0.0, 0.0, 0.0, 0.0, 0.0, 0.0, 0.0, 1.6664033337495756E9, 0.0, 2022-10-21 18:48:53.749
239.0, -104961.53443593199, -142030.89678655827, -33292.54338652413, -114470.12298943079, 22667.038162593624, -73115.1042121773, 2003.2527450624402, -131136.94711171952, 0.05, 0.9560000000000001, 0.046, 192.0, 0.0, 0.0, 0.0, 0.0, 0.0, 0.0, 0.0, 0.0, 0.0, 1.666403333749588E9, 0.0, 2022-10-21 18:48:53.749
240.0, -104975.28075877199, -142042.85496984184, -33309.79893324363, -114492.38532690828, 22658.253927022688, -73134.48317462007, 1982.5773814412812, -131148.63707406964, 0.052000000000000005, 0.96, 0.046, 192.0, 1.0, 160.0, 30.0, 0.0, 1.0, 112.0, 0.0, 0.0, 0.0, 1.6664033337496004E9, 0.0, 2022-10-21 18:48:53.749
241.0, -104957.35465971884, -142027.0746382564, -33294.35387782501, -114485.61274833832, 22671.463807995773, -73143.66974159119, 1966.0817940332645, -131125.19009413602, 0.052000000000000005, 0.96, 0.046, 192.0, 0.0, 0.0, 0.0, 0.0, 0.0, 0.0, 0.0, 0.0, 0.0, 1.666403333749616E9, 0.0, 2022-10-21 18:48:53.749
242.0, -104944.65886886822, -142015.20586195064, -33279.98170614025, -114462.16576840471, 22684.181950590846, -73124.33548263735, 1991.0486925898426, -131122.64199526812, 0.052000000000000005, 0.96, 0.046, 192.0, 0.0, 0.0, 0.0, 0.0, 0.0, 0.0, 0.0, 0.0, 0.0, 1.6664033342268708E9, 0.0, 2022-10-21 18:48:54.226
243.0, -104949.50919741503, -142017.95512651865, -33284.11677886448, -114463.59628004984, 22682.550273245608, -73131.89037226324, 1998.1788990710854, -131113.18720736352, 0.052000000000000005, 0.96, 0.046, 192.0, 0.0, 0.0, 0.0, 0.0, 0.0, 0.0, 0.0, 0.0, 0.0, 1.6664033342269228E9, 0.0, 2022-10-21 18:48:54.226
244.0, -104965.26717725601, -142032.34964994786, -33306.60263378652, -114484.53986460446, 22669.2509852947, -73151.09052075035, 1978.3976052281387, -131129.63809128263, 0.052000000000000005, 0.96, 0.046, 192.0, 0.0, 0.0, 0.0, 0.0, 0.0, 0.0, 0.0, 0.0, 0.0, 1.6664033342269795E9, 0.0, 2022-10-21 18:48:54.226
245.0, -104956.1700172627, -142023.65482135472, -33308.54723555413, -114478.28137615699, 22676.939985387326, -73162.37815170028, 1958.258683473907, -131128.6099110377, 0.052000000000000005, 0.96, 0.046, 192.0, 0.0, 0.0, 0.0, 0.0, 0.0, 0.0, 0.0, 0.0, 0.0, 1.6664033342270148E9, 0.0, 2022-10-21 18:48:54.227
246.0, -104945.06120026842, -142015.6081933508, -33292.74455222423, -114456.10844565732, 22691.1556948609, -73142.99918925753, 1987.4053582436275, -131115.57884402023, 0.052000000000000005, 0.96, 0.046, 192.0, 0.0, 0.0, 0.0, 0.0, 0.0, 0.0, 0.0, 0.0, 0.0, 1.66640333422703E9, 0.0, 2022-10-21 18:48:54.227
247.0, -104955.43240969568, -142027.34285918987, -33296.58905227054, -114467.97722196308, 22683.734915701738, -73145.2120119586, 2004.9514776410435, -131128.4981523154, 0.052000000000000005, 0.96, 0.046, 192.0, 0.0, 0.0, 0.0, 0.0, 0.0, 0.0, 0.0, 0.0, 0.0, 1.6664033342270443E9, 0.0, 2022-10-21 18:48:54.227
248.0, -104957.80169460794, -142027.58872837888, -33304.03218317416, -114486.61857683881, 22682.416162778874, -73172.48114019408, 1978.48701220596, -131129.72749826044, 0.052000000000000005, 0.96, 0.046, 192.0, 0.0, 0.0, 0.0, 0.0, 0.0, 0.0, 0.0, 0.0, 0.0, 1.666403334227059E9, 0.0, 2022-10-21 18:48:54.227
249.0, -104958.04756379695, -142027.3652109343, -33301.327622095065, -114482.14822794775, 22687.847636681516, -73178.024372819, 1965.0312620438651, -131117.67990799903, 0.052000000000000005, 0.96, 0.046, 192.0, 0.0, 0.0, 0.0, 0.0, 0.0, 0.0, 0.0, 0.0, 0.0, 1.6664033342270727E9, 0.0, 2022-10-21 18:48:54.227
250.0, -104961.10975278734, -142030.60621388032, -33308.68134602086, -114471.57585282039, 22683.57845349055, -73180.66187866472, 1970.2839219908622, -131115.1988643645, 0.048, 0.96, 0.046, 192.0, 1.0, 128.0, 30.0, 0.0, 1.0, 112.0, 0.0, 0.0, 0.0, 1.6664033342270868E9, 0.0, 2022-10-21 18:48:54.227
251.0, -104960.05922079794, -142031.20971098062, -33309.88834022145, -114456.55548054642, 22688.629947737452, -73167.27318373599, 1999.385893271672, -131118.3057568438, 0.048, 0.96, 0.046, 192.0, 0.0, 0.0, 0.0, 0.0, 0.0, 0.0, 0.0, 0.0, 0.0, 1.666403334227104E9, 0.0, 2022-10-21 18:48:54.227
252.0, -104968.3293662464, -142039.74807736254, -33322.718241538794, -114478.34843139035, 22681.52209300066, -73180.30425075344, 1998.0224368598983, -131127.26880637035, 0.048, 0.96, 0.046, 192.0, 0.0, 0.0, 0.0, 0.0, 0.0, 0.0, 0.0, 0.0, 0.0, 1.666403334227118E9, 0.0, 2022-10-21 18:48:54.227
253.0, -104959.67924114219, -142032.75198134803, -33318.00202345872, -114488.63023383978, 22684.517226757675, -73211.5743412464, 1961.834962586756, -131122.17260863454, 0.048, 0.96, 0.046, 192.0, 0.0, 0.0, 0.0, 0.0, 0.0, 0.0, 0.0, 0.0, 0.0, 1.666403334227132E9, 0.0, 2022-10-21 18:48:54.227
254.0, -104962.56261617692, -142035.9706325496, -33320.08073569307, -114483.35522214834, 22681.52209300066, -73205.11468709883, 1963.421936443083, -131115.3553265757, 0.048, 0.96, 0.046, 192.0, 0.0, 0.0, 0.0, 0.0, 0.0, 0.0, 0.0, 0.0, 0.0, 1.6664033342271461E9, 0.0, 2022-10-21 18:48:54.227
255.0, -104969.35754649134, -142043.6372808978, -33325.57926482907, -114467.84311149635, 22681.455037767297, -73181.73476239858, 2007.2984108088508, -131122.66434701256, 0.048, 0.96, 0.046, 192.0, 0.0, 0.0, 0.0, 0.0, 0.0, 0.0, 0.0, 0.0, 0.0, 1.66640333422716E9, 0.0, 2022-10-21 18:48:54.227
0.0, -104973.31380525992, -142049.96282457863, -33334.542314355655, -114486.90914951672, 22672.29082254062, -73215.68706222619, 1995.519041480904, -131131.35917560567, 0.048, 0.96, 0.046, 192.0, 0.0, 0.0, 0.0, 0.0, 0.0, 0.0, 0.0, 0.0, 0.0, 1.6664033342271743E9, 0.0, 2022-10-21 18:48:54.227
1.0, -104976.24188378357, -142055.10372580335, -33336.576323101086, -114502.10833574634, 22670.077999839545, -73241.05629218296, 1958.8845323186556, -131130.01807093836, 0.048, 0.96, 0.046, 192.0, 0.0, 0.0, 0.0, 0.0, 0.0, 0.0, 0.0, 0.0, 0.0, 1.666403334227247E9, 0.0, 2022-10-21 18:48:54.227
2.0, -104968.15055229075, -142046.5877111659, -33334.65407307793, -114494.44168739817, 22677.543482487617, -73231.95913218966, 1954.2353694719518, -131113.701297486, 0.048, 0.96, 0.046, 192.0, 0.0, 0.0, 0.0, 0.0, 0.0, 0.0, 0.0, 0.0, 0.0, 1.6664033342272615E9, 0.0, 2022-10-21 18:48:54.227
3.0, -104961.93676733217, -142039.34574596238, -33328.73086079727, -114466.01026845102, 22691.40156404991, -73207.88630341129, 1986.8465646322447, -131101.40783803558, 0.048, 0.96, 0.046, 192.0, 0.0, 0.0, 0.0, 0.0, 0.0, 0.0, 0.0, 0.0, 0.0, 1.666403334227276E9, 0.0, 2022-10-21 18:48:54.227
4.0, -104957.3770114633, -142038.00464129503, -33328.373232885984, -114473.65456505473, 22690.77571520516, -73214.6812337257, 1994.4908612359598, -131107.08518112722, 0.052000000000000005, 0.962, 0.05, 192.0, 1.0, 160.0, 30.0, 16.0, 1.0, 144.0, 0.0, 0.0, 0.0, 1.6664033342272904E9, 0.0, 2022-10-21 18:48:54.227
5.0, -104963.90372084425, -142045.023089054, -33336.97865450128, -114497.74974557754, 22680.15863658889, -73238.39643459278, 1970.1051080352197, -131119.1551231331, 0.052000000000000005, 0.962, 0.05, 192.0, 0.0, 0.0, 0.0, 0.0, 0.0, 0.0, 0.0, 0.0, 0.0, 1.6664033342273111E9, 0.0, 2022-10-21 18:48:54.227
6.0, -104974.34198550487, -142050.6780804012, -33342.94657027085, -114503.18121948019, 22670.88266263994, -73254.13206268931, 1955.3753084391724, -131126.46414356996, 0.052000000000000005, 0.962, 0.05, 192.0, 0.0, 0.0, 0.0, 0.0, 0.0, 0.0, 0.0, 0.0, 0.0, 1.6664033342273314E9, 0.0, 2022-10-21 18:48:54.227
7.0, -104982.16509606423, -142057.76358339353, -33348.310988940124, -114499.62729211179, 22667.97693586075, -73238.01645493704, 1980.1186895511973, -131124.63130052463, 0.052000000000000005, 0.962, 0.05, 192.0, 0.0, 0.0, 0.0, 0.0, 0.0, 0.0, 0.0, 0.0, 0.0, 1.6664033342273457E9, 0.0, 2022-10-21 18:48:54.227
8.0, -104970.69865115866, -142045.64893789875, -33338.386814401965, -114484.78573379347, 22683.44434302382, -73223.15254487426, 2002.3810270286833, -131120.47387605594, 0.052000000000000005, 0.962, 0.05, 192.0, 0.0, 0.0, 0.0, 0.0, 0.0, 0.0, 0.0, 0.0, 0.0, 1.6664033342273595E9, 0.0, 2022-10-21 18:48:54.227
9.0, -104967.01061332352, -142042.74321111958, -33337.828020790585, -114482.41644888121, 22690.887473927436, -73223.95720767466, 2001.554012483837, -131103.62066073666, 0.052000000000000005, 0.962, 0.05, 192.0, 0.0, 0.0, 0.0, 0.0, 0.0, 0.0, 0.0, 0.0, 0.0, 1.6664033342273736E9, 0.0, 2022-10-21 18:48:54.227
10.0, -104964.82014236691, -142039.94924306264, -33334.609369589016, -114475.88973950026, 22699.291729842633, -73226.79587922047, 1999.8552799052336, -131100.55847174628, 0.052000000000000005, 0.962, 0.05, 192.0, 0.0, 0.0, 0.0, 0.0, 0.0, 0.0, 0.0, 0.0, 0.0, 1.6664033342273877E9, 0.0, 2022-10-21 18:48:54.227
11.0, -104979.03585184048, -142056.46718221513, -33354.256552965235, -114483.15405644824, 22682.97495639026, -73234.61898977983, 2003.811538673823, -131121.12207664514, 0.052000000000000005, 0.962, 0.05, 192.0, 0.0, 0.0, 0.0, 0.0, 0.0, 0.0, 0.0, 0.0, 0.0, 1.6664033342274017E9, 0.0, 2022-10-21 18:48:54.227
