%OpenBCI Raw EEG Data
%Number of channels = 8
%Sample Rate = 250 Hz
%Board = OpenBCI_GUI$BoardCytonSerial
Sample Index, EXG Channel 0, EXG Channel 1, EXG Channel 2, EXG Channel 3, EXG Channel 4, EXG Channel 5, EXG Channel 6, EXG Channel 7, Accel Channel 0, Accel Channel 1, Accel Channel 2, Other, Other, Other, Other, Other, Other, Other, Analog Channel 0, Analog Channel 1, Analog Channel 2, Timestamp, Other, Timestamp (Formatted)
62.0, -87663.74291941439, -120594.00923180691, 47123.13230313448, 54915.84449003274, 62795.46025937322, 111630.33385638402, 65726.0645301419, 73378.18424441628, 0.0, 0.0, 0.0, 192.0, 0.0, 0.0, 0.0, 0.0, 0.0, 0.0, 0.0, 0.0, 0.0, 1.6665567339455652E9, 0.0, 2022-10-23 13:25:33.945
63.0, -87623.91211079503, -120554.82662377675, 47245.642214494015, 54630.68093427193, 62605.64924545876, 111569.89473937688, 65667.63707013572, 73111.68439527565, 0.0, 0.0, 0.0, 192.0, 0.0, 0.0, 0.0, 0.0, 0.0, 0.0, 0.0, 0.0, 0.0, 1.6665567339455824E9, 0.0, 2022-10-23 13:25:33.945
64.0, -87607.75179955385, -120532.92191421056, 45168.98634064035, 54616.2417073538, 62547.534709874955, 110700.61304576554, 64388.31262449177, 71874.29182222985, 0.0, 0.0, 0.0, 192.0, 0.0, 0.0, 0.0, 0.0, 0.0, 0.0, 0.0, 0.0, 0.0, 1.6665567339455905E9, 0.0, 2022-10-23 13:25:33.945
65.0, -87636.3843842011, -120556.97239124446, 45001.080036292085, 54773.15095343006, 62672.83858929141, 110714.76170000574, 64391.17364778205, 72043.51687950098, 0.0, 0.0, 0.0, 192.0, 0.0, 0.0, 0.0, 0.0, 0.0, 0.0, 0.0, 0.0, 0.0, 1.6665567339455984E9, 0.0, 2022-10-23 13:25:33.945
66.0, -87668.41443400555, -120589.04714453784, 46744.3819933393, 54934.128216997175, 62809.8771345469, 111489.9649012047, 65513.34297816074, 73193.26826253752, 0.0, 0.0, 0.0, 192.0, 0.0, 0.0, 0.0, 0.0, 0.0, 0.0, 0.0, 0.0, 0.0, 1.6665567339456065E9, 0.0, 2022-10-23 13:25:33.945
67.0, -87618.97237527042, -120543.11430968218, 47551.34702340925, 54699.83723161665, 62650.26332739155, 111705.50277298722, 65870.79207549001, 73356.72656973917, 0.0, 0.0, 0.0, 192.0, 0.0, 0.0, 0.0, 0.0, 0.0, 0.0, 0.0, 0.0, 0.0, 1.666556733945614E9, 0.0, 2022-10-23 13:25:33.945
68.0, -87583.05312193074, -120501.96474813996, 45405.57955569978, 54599.544954245684, 62544.249003440025, 110780.83345661563, 64515.829326609295, 71990.40913467517, 0.0, 0.0, 0.0, 192.0, 0.0, 0.0, 0.0, 0.0, 0.0, 0.0, 0.0, 0.0, 0.0, 1.6665567339456215E9, 0.0, 2022-10-23 13:25:33.945
69.0, -87602.49913960685, -120515.86753319115, 44946.251207143214, 54760.052831179244, 62671.698650324186, 110687.24670258127, 64343.40796988106, 71984.10594273877, 0.026000000000000002, 0.962, 0.07200000000000001, 192.0, 0.0, 208.0, 30.0, 16.0, 2.0, 64.0, 0.0, 0.0, 0.0, 1.6665567339456291E9, 0.0, 2022-10-23 13:25:33.945
70.0, -87635.02092778933, -120544.00837946039, 46328.304270303764, 54919.75604531242, 62796.37668089589, 111321.70096894515, 65260.74591407132, 72961.48067253598, 0.026000000000000002, 0.962, 0.07200000000000001, 192.0, 0.0, 0.0, 0.0, 0.0, 0.0, 0.0, 0.0, 0.0, 0.0, 1.6665567339456387E9, 0.0, 2022-10-23 13:25:33.945
71.0, -87625.8343608182, -120540.85678349219, 47754.63613923027, 54776.481363353894, 62713.54111594452, 111821.95536159938, 66024.57207734253, 73546.44817667583, 0.026000000000000002, 0.962, 0.07200000000000001, 192.0, 0.0, 0.0, 0.0, 0.0, 0.0, 0.0, 0.0, 0.0, 0.0, 1.6665567339456465E9, 0.0, 2022-10-23 13:25:33.945
72.0, -87566.15520312253, -120482.183454297, 45731.46798985815, 54572.52169519922, 62527.64165730974, 110903.96921681991, 64702.28757885547, 72144.56911618343, 0.026000000000000002, 0.962, 0.07200000000000001, 192.0, 0.0, 0.0, 0.0, 0.0, 0.0, 0.0, 0.0, 0.0, 0.0, 1.6665567339456544E9, 0.0, 2022-10-23 13:25:33.945
73.0, -87590.60801155663, -120499.05902136076, 44901.21244206577, 54725.42997901797, 62638.26044061905, 110644.28664973816, 64291.30605355574, 71896.84473238525, 0.026000000000000002, 0.962, 0.07200000000000001, 192.0, 0.0, 0.0, 0.0, 0.0, 0.0, 0.0, 0.0, 0.0, 0.0, 1.6665567339456625E9, 0.0, 2022-10-23 13:25:33.945
74.0, -87622.12397123862, -120533.7489287554, 45906.63861115439, 54879.34409133722, 62759.89863394483, 111130.14651896317, 64993.35199515248, 72696.97012865188, 0.026000000000000002, 0.962, 0.07200000000000001, 192.0, 0.0, 0.0, 0.0, 0.0, 0.0, 0.0, 0.0, 0.0, 0.0, 1.6665567339456701E9, 0.0, 2022-10-23 13:25:33.945
75.0, -87613.00445950085, -120526.3505013407, 47795.51747983903, 54837.25575652788, 62757.35053507693, 111868.11171389959, 66084.72062167176, 73649.17679419242, 0.026000000000000002, 0.962, 0.07200000000000001, 192.0, 0.0, 0.0, 0.0, 0.0, 0.0, 0.0, 0.0, 0.0, 0.0, 1.666556733945678E9, 0.0, 2022-10-23 13:25:33.945
76.0, -87539.62368245408, -120451.78508183779, 46153.35716645207, 54568.05134630816, 62538.102273714816, 111092.77440223389, 64972.22959664221, 72399.4907616962, 0.026000000000000002, 0.962, 0.07200000000000001, 192.0, 0.0, 0.0, 0.0, 0.0, 0.0, 0.0, 0.0, 0.0, 0.0, 1.6665567339456859E9, 0.0, 2022-10-23 13:25:33.945
77.0, -87555.76164195081, -120466.22430875592, 44913.483549771736, 54713.49414747884, 62630.39262657078, 110641.02329504768, 64286.00869011983, 71863.85355756922, 0.026000000000000002, 0.962, 0.07200000000000001, 192.0, 0.0, 0.0, 0.0, 0.0, 0.0, 0.0, 0.0, 0.0, 0.0, 1.6665567339456937E9, 0.0, 2022-10-23 13:25:33.945
78.0, -87589.93745922297, -120496.77914342632, 45570.24485710202, 54860.70273646149, 62754.04247689754, 110994.56083709728, 64788.67707117523, 72488.22718718376, 0.026000000000000002, 0.962, 0.07200000000000001, 192.0, 0.0, 0.0, 0.0, 0.0, 0.0, 0.0, 0.0, 0.0, 0.0, 1.6665567339457934E9, 0.0, 2022-10-23 13:25:33.945
79.0, -87604.10846520764, -120511.82186744474, 47675.91329525868, 54903.34986488222, 62809.72067233571, 111853.06898988117, 66045.13568224141, 73654.72002681733, 0.028, 0.9580000000000001, 0.07, 192.0, 0.0, 224.0, 29.0, 240.0, 2.0, 48.0, 0.0, 0.0, 0.0, 1.666556733945802E9, 0.0, 2022-10-23 13:25:33.945
80.0, -87540.18247606546, -120451.78508183779, 46616.86529122177, 54592.19123031989, 62574.71443113261, 111308.78166064998, 65270.06659150918, 72697.12659086306, 0.028, 0.9580000000000001, 0.07, 192.0, 0.0, 0.0, 0.0, 0.0, 0.0, 0.0, 0.0, 0.0, 0.0, 1.6665567339458108E9, 0.0, 2022-10-23 13:25:33.945
81.0, -87549.10082210312, -120454.9813812949, 44991.11115826502, 54685.73328086535, 62596.93206512119, 110667.0183738492, 64313.56839103322, 71857.59506912173, 0.028, 0.9580000000000001, 0.07, 192.0, 0.0, 0.0, 0.0, 0.0, 0.0, 0.0, 0.0, 0.0, 0.0, 1.6665567339458199E9, 0.0, 2022-10-23 13:25:33.945
82.0, -87578.69453176195, -120479.23302402892, 45312.32807783224, 54826.50456744487, 62712.28941825502, 110874.35315541664, 64608.23143818753, 72296.62803371287, 0.028, 0.9580000000000001, 0.07, 192.0, 0.0, 0.0, 0.0, 0.0, 0.0, 0.0, 0.0, 0.0, 0.0, 1.6665567339458277E9, 0.0, 2022-10-23 13:25:33.945
83.0, -87605.94130825298, -120509.11730636566, 47414.15201594258, 54935.603432131225, 62817.588486383975, 111754.40838985544, 65894.70844205719, 73542.98365628524, 0.028, 0.9580000000000001, 0.07, 192.0, 0.0, 0.0, 0.0, 0.0, 0.0, 0.0, 0.0, 0.0, 0.0, 1.666556733945836E9, 0.0, 2022-10-23 13:25:33.945
84.0, -87554.93462740596, -120464.65968664405, 47015.68746753782, 54613.246573596785, 62580.43647771317, 111457.17489208876, 65501.764774532894, 72948.18138458507, 0.028, 0.9580000000000001, 0.07, 192.0, 0.0, 0.0, 0.0, 0.0, 0.0, 0.0, 0.0, 0.0, 0.0, 1.666556733945846E9, 0.0, 2022-10-23 13:25:33.945
85.0, -87542.10472608861, -120449.34874169216, 45068.96228420285, 54651.93744324893, 62568.54534966295, 110656.24483302174, 64322.37497834861, 71848.09557772822, 0.028, 0.9580000000000001, 0.07, 192.0, 0.0, 0.0, 0.0, 0.0, 0.0, 0.0, 0.0, 0.0, 0.0, 1.666556733945854E9, 0.0, 2022-10-23 13:25:33.945
86.0, -87576.7722817388, -120482.80930314175, 45110.29065970072, 54796.2850089413, 62698.02900529254, 110763.39909594049, 64459.8158550043, 72143.76445338303, 0.028, 0.9580000000000001, 0.07, 192.0, 0.0, 0.0, 0.0, 0.0, 0.0, 0.0, 0.0, 0.0, 0.0, 1.666556733945862E9, 0.0, 2022-10-23 13:25:33.945
87.0, -87614.680840335, -120522.21542861646, 47032.51833111267, 54939.9173188111, 62816.6273613724, 111598.10264087947, 65673.64968939421, 73355.69838949424, 0.028, 0.9580000000000001, 0.07, 192.0, 0.0, 0.0, 0.0, 0.0, 0.0, 0.0, 0.0, 0.0, 0.0, 1.66655673394587E9, 0.0, 2022-10-23 13:25:33.945
88.0, -87566.57988626718, -120478.20484378397, 47389.20746913046, 54663.8509230436, 62622.21188810014, 111621.95195221329, 65749.15388216423, 73223.89015244128, 0.026000000000000002, 0.9560000000000001, 0.07200000000000001, 192.0, 0.0, 208.0, 29.0, 224.0, 2.0, 64.0, 0.0, 0.0, 0.0, 1.6665567339458776E9, 0.0, 2022-10-23 13:25:33.945
89.0, -87540.04836559873, -120448.90170680305, 45256.739289371886, 54612.821890452135, 62542.10323597232, 110718.65090354097, 64421.79553768582, 71919.66586347412, 0.026000000000000002, 0.9560000000000001, 0.07200000000000001, 192.0, 0.0, 0.0, 0.0, 0.0, 0.0, 0.0, 0.0, 0.0, 0.0, 1.666556733945886E9, 0.0, 2022-10-23 13:25:33.945
90.0, -87568.70330199043, -120474.69561990448, 44996.27441123419, 54775.430831364494, 62682.02515626254, 110707.25151386876, 64373.80634234028, 72040.83467016634, 0.026000000000000002, 0.9560000000000001, 0.07200000000000001, 192.0, 0.0, 0.0, 0.0, 0.0, 0.0, 0.0, 0.0, 0.0, 0.0, 1.666556733945894E9, 0.0, 2022-10-23 13:25:33.945
91.0, -87603.84024427418, -120510.19019009951, 46610.47269230756, 54938.93384205507, 62816.135622994385, 111432.29740051001, 65423.66777940605, 73130.63867457374, 0.026000000000000002, 0.9560000000000001, 0.07200000000000001, 192.0, 0.0, 0.0, 0.0, 0.0, 0.0, 0.0, 0.0, 0.0, 0.0, 1.6665567339459016E9, 0.0, 2022-10-23 13:25:33.945
92.0, -87573.10659564813, -120482.56343395275, 47679.19900169361, 54746.88765369507, 62691.52464765604, 111777.11776222203, 65958.79089341055, 73471.36866705044, 0.026000000000000002, 0.9560000000000001, 0.07200000000000001, 192.0, 0.0, 0.0, 0.0, 0.0, 0.0, 0.0, 0.0, 0.0, 0.0, 1.6665567339459097E9, 0.0, 2022-10-23 13:25:33.945
93.0, -87530.0571358272, -120439.40221540956, 45539.62296719825, 54597.51094550025, 62534.23542192405, 110831.03547466225, 64585.09738267629, 72059.85600469781, 0.026000000000000002, 0.9560000000000001, 0.07200000000000001, 192.0, 0.0, 0.0, 0.0, 0.0, 0.0, 0.0, 0.0, 0.0, 0.0, 1.6665567339459412E9, 0.0, 2022-10-23 13:25:33.945
94.0, -87563.20477285443, -120474.51680594884, 44917.61862249597, 54753.481418309384, 62646.4858825786, 110652.6685539089, 64300.33615831568, 71945.16920389762, 0.026000000000000002, 0.9560000000000001, 0.07200000000000001, 192.0, 0.0, 0.0, 0.0, 0.0, 0.0, 0.0, 0.0, 0.0, 0.0, 1.6665567339459496E9, 0.0, 2022-10-23 13:25:33.945
95.0, -87607.34946815365, -120516.18045761353, 46168.824573615144, 54906.70262655051, 62768.57111079349, 111237.39018885973, 65143.91334580343, 72864.65291555559, 0.026000000000000002, 0.9560000000000001, 0.07200000000000001, 192.0, 0.0, 0.0, 0.0, 0.0, 0.0, 0.0, 0.0, 0.0, 0.0, 1.6665567339459577E9, 0.0, 2022-10-23 13:25:33.945
96.0, -87595.16776742552, -120503.61877722965, 47796.79152927298, 54801.35885493265, 62718.682017169245, 111843.86007116557, 66047.48261540922, 73605.38972680447, 0.026000000000000002, 0.9560000000000001, 0.07200000000000001, 192.0, 0.0, 0.0, 0.0, 0.0, 0.0, 0.0, 0.0, 0.0, 0.0, 1.6665567339459655E9, 0.0, 2022-10-23 13:25:33.945
97.0, -87544.5187144898, -120455.29430571728, 45876.821384051014, 54568.34191898608, 62509.89437221222, 110958.66393550205, 64775.37778322432, 72234.46783238267, 0.026000000000000002, 0.9560000000000001, 0.07200000000000001, 192.0, 0.0, 0.0, 0.0, 0.0, 0.0, 0.0, 0.0, 0.0, 0.0, 1.6665567339459736E9, 0.0, 2022-10-23 13:25:33.945
98.0, -87567.78688046777, -120473.53332919281, 44879.37478773294, 54721.69723769394, 62607.99617862656, 110612.77069005618, 64249.88827108005, 71867.98863029345, 0.024, 0.96, 0.07200000000000001, 192.0, 0.0, 192.0, 30.0, 0.0, 2.0, 64.0, 0.0, 0.0, 0.0, 1.6665567339459815E9, 0.0, 2022-10-23 13:25:33.945
99.0, -87608.66822107651, -120508.73732670992, 45748.5000191331, 54872.415050556076, 62741.36903779138, 111044.3158202548, 64873.23372044966, 72601.50582808326, 0.024, 0.96, 0.07200000000000001, 192.0, 0.0, 0.0, 0.0, 0.0, 0.0, 0.0, 0.0, 0.0, 0.0, 1.66655673394599E9, 0.0, 2022-10-23 13:25:33.945
100.0, -87614.12204672361, -120518.57209427025, 47761.11814512231, 54860.322756805755, 62771.40978233931, 111849.85033867961, 66057.20562424728, 73660.19620420889, 0.024, 0.96, 0.07200000000000001, 192.0, 0.0, 0.0, 0.0, 0.0, 0.0, 0.0, 0.0, 0.0, 0.0, 1.666556733945998E9, 0.0, 2022-10-23 13:25:33.945
101.0, -87548.13969709155, -120456.05426502875, 46307.45009272696, 54565.10091604006, 62527.3063811429, 111144.3845801812, 65047.62203068996, 72493.14457096394, 0.024, 0.96, 0.07200000000000001, 192.0, 0.0, 0.0, 0.0, 0.0, 0.0, 0.0, 0.0, 0.0, 0.0, 1.666556733946006E9, 0.0, 2022-10-23 13:25:33.946
102.0, -87557.52742976278, -120460.90459357556, 44914.33291606104, 54702.58649618465, 62593.31108251942, 110614.04473949013, 64251.98933505885, 71841.34535090272, 0.024, 0.96, 0.07200000000000001, 192.0, 0.0, 0.0, 0.0, 0.0, 0.0, 0.0, 0.0, 0.0, 0.0, 1.666556733946014E9, 0.0, 2022-10-23 13:25:33.946
103.0, -87593.55844182473, -120492.39820151309, 45427.3725065437, 54843.78246590882, 62709.89778159831, 110895.83318183818, 64661.22742429107, 72387.86785457944, 0.024, 0.96, 0.07200000000000001, 192.0, 0.0, 0.0, 0.0, 0.0, 0.0, 0.0, 0.0, 0.0, 0.0, 1.6665567339460218E9, 0.0, 2022-10-23 13:25:33.946
104.0, -87613.76441881234, -120513.27473083434, 47541.37814538219, 54917.073835977775, 62792.24160817166, 111765.00311672725, 65939.568393179, 73599.1759418459, 0.024, 0.96, 0.07200000000000001, 192.0, 0.0, 0.0, 0.0, 0.0, 0.0, 0.0, 0.0, 0.0, 0.0, 1.66655673394603E9, 0.0, 2022-10-23 13:25:33.946
105.0, -87558.33209256317, -120466.47017794492, 46712.3742952793, 54586.22331455032, 62555.022544267486, 111311.15094556224, 65300.82259187968, 72767.33342019719, 0.024, 0.96, 0.07200000000000001, 192.0, 0.0, 0.0, 0.0, 0.0, 0.0, 0.0, 0.0, 0.0, 0.0, 1.6665567339460387E9, 0.0, 2022-10-23 13:25:33.946
106.0, -87571.36315958061, -120478.3836577396, 44974.637922601454, 54654.44083862792, 62568.299480473936, 110620.34793142653, 64271.502407968335, 71837.12087120068, 0.024, 0.96, 0.07200000000000001, 192.0, 0.0, 0.0, 0.0, 0.0, 0.0, 0.0, 0.0, 0.0, 0.0, 1.6665567339460468E9, 0.0, 2022-10-23 13:25:33.946
107.0, -87595.45834010343, -120499.17078008305, 45206.738437025364, 54795.74856707437, 62689.937673799715, 110805.93446563894, 64522.423091223616, 72231.49505037011, 0.024, 0.96, 0.07200000000000001, 192.0, 0.0, 0.0, 0.0, 0.0, 0.0, 0.0, 0.0, 0.0, 0.0, 1.6665567339460547E9, 0.0, 2022-10-23 13:25:33.946
108.0, -87622.05691600525, -120524.47295480645, 47269.82680199466, 54940.16318800011, 62816.78382358359, 111687.39785997843, 65803.66978689072, 73485.80789396858, 0.03, 0.96, 0.074, 192.0, 0.0, 240.0, 30.0, 0.0, 2.0, 80.0, 0.0, 0.0, 0.0, 1.6665567339460626E9, 0.0, 2022-10-23 13:25:33.946
109.0, -87567.18338336748, -120475.29911700478, 47166.1817629554, 54642.84028325562, 62602.85527740184, 111523.04548299855, 65597.72081347952, 73071.92064188965, 0.03, 0.96, 0.074, 192.0, 0.0, 0.0, 0.0, 0.0, 0.0, 0.0, 0.0, 0.0, 0.0, 1.6665567339460795E9, 0.0, 2022-10-23 13:25:33.946
110.0, -87545.12221159009, -120451.89684056006, 45137.336270491636, 54643.600242567096, 62561.6163088818, 110681.01056587823, 64354.96382176445, 71887.32288924728, 0.03, 0.96, 0.074, 192.0, 0.0, 0.0, 0.0, 0.0, 0.0, 0.0, 0.0, 0.0, 0.0, 1.6665567339460871E9, 0.0, 2022-10-23 13:25:33.946
111.0, -87576.88404046107, -120480.90940486305, 45033.020679118716, 54791.81466005024, 62692.41871743426, 110721.71309253134, 64395.576941439744, 72093.94241499215, 0.03, 0.96, 0.074, 192.0, 0.0, 0.0, 0.0, 0.0, 0.0, 0.0, 0.0, 0.0, 0.0, 1.6665567339460952E9, 0.0, 2022-10-23 13:25:33.946
112.0, -87622.45924740545, -120525.47878330694, 46818.65684016429, 54939.2691182219, 62816.24738171666, 111500.80549726552, 65531.403187680626, 73251.42750161022, 0.03, 0.96, 0.074, 192.0, 0.0, 0.0, 0.0, 0.0, 0.0, 0.0, 0.0, 0.0, 0.0, 1.666556733946103E9, 0.0, 2022-10-23 13:25:33.946
113.0, -87579.36508409561, -120485.9832508544, 47448.81957159276, 54703.569972940684, 62658.198196673184, 111656.03836250764, 65787.73299309409, 73308.11152554888, 0.03, 0.96, 0.074, 192.0, 0.0, 0.0, 0.0, 0.0, 0.0, 0.0, 0.0, 0.0, 0.0, 1.6665567339461107E9, 0.0, 2022-10-23 13:25:33.946
114.0, -87549.50315350332, -120457.84240458519, 45319.793560480306, 54617.22518410983, 62556.073076256886, 110755.08424700312, 64458.81002650381, 71972.50538736646, 0.03, 0.96, 0.074, 192.0, 0.0, 0.0, 0.0, 0.0, 0.0, 0.0, 0.0, 0.0, 0.0, 1.666556733946119E9, 0.0, 2022-10-23 13:25:33.946
115.0, -87582.11434866361, -120487.54787296629, 44916.03164863964, 54759.06935442321, 62662.668545564244, 110665.74432441525, 64312.02612066581, 71992.39843993168, 0.03, 0.96, 0.074, 192.0, 0.0, 0.0, 0.0, 0.0, 0.0, 0.0, 0.0, 0.0, 0.0, 1.666556733946127E9, 0.0, 2022-10-23 13:25:33.946
116.0, -87620.73816308238, -120523.0424431613, 46368.000968456385, 54924.695780837035, 62795.19203843976, 111315.2189630531, 65264.36689667308, 73003.18902768959, 0.03, 0.96, 0.074, 192.0, 0.0, 0.0, 0.0, 0.0, 0.0, 0.0, 0.0, 0.0, 0.0, 1.6665567339461348E9, 0.0, 2022-10-23 13:25:33.946
117.0, -87598.83345351618, -120504.49049526341, 47675.75683304749, 54758.33174685619, 62702.74522337261, 111781.47635239082, 65963.64122195735, 73514.73105129374, 0.03, 0.96, 0.074, 192.0, 0.0, 0.0, 0.0, 0.0, 0.0, 0.0, 0.0, 0.0, 0.0, 1.6665567339461427E9, 0.0, 2022-10-23 13:25:33.946
118.0, -87552.78885993826, -120462.17864300951, 45593.80359575792, 54575.650939422965, 62523.59599156332, 110855.24241390734, 64617.73092958104, 72106.72761282058, 0.032, 0.9580000000000001, 0.078, 192.0, 1.0, 0.0, 29.0, 240.0, 2.0, 112.0, 0.0, 0.0, 0.0, 1.6665567339461503E9, 0.0, 2022-10-23 13:25:33.946
119.0, -87581.89083121906, -120490.1406753231, 44851.09983099697, 54739.444522791455, 62639.534490053, 110629.24392571974, 64260.99708807434, 71916.76013669492, 0.032, 0.9580000000000001, 0.078, 192.0, 0.0, 0.0, 0.0, 0.0, 0.0, 0.0, 0.0, 0.0, 0.0, 1.666556733946159E9, 0.0, 2022-10-23 13:25:33.946
120.0, -87614.05499149025, -120522.48364954993, 45963.99318742671, 54897.73957702394, 62761.97734617917, 111157.14742626518, 65027.639571146916, 72769.61329813162, 0.032, 0.9580000000000001, 0.078, 192.0, 0.0, 0.0, 0.0, 0.0, 0.0, 0.0, 0.0, 0.0, 0.0, 1.6665567339461668E9, 0.0, 2022-10-23 13:25:33.946
121.0, -87609.04820073226, -120518.86266694817, 47750.612825228316, 54832.58424193672, 62742.91130815879, 111839.97086763036, 66043.32519094052, 73638.00092196476, 0.032, 0.9580000000000001, 0.078, 192.0, 0.0, 0.0, 0.0, 0.0, 0.0, 0.0, 0.0, 0.0, 0.0, 1.6665567339461749E9, 0.0, 2022-10-23 13:25:33.946
122.0, -87556.18632509546, -120467.25248900086, 45988.71421679428, 54579.85306738056, 62532.00024747852, 111022.27700022186, 64863.488359867144, 72338.49285107767, 0.032, 0.9580000000000001, 0.078, 192.0, 0.0, 0.0, 0.0, 0.0, 0.0, 0.0, 0.0, 0.0, 0.0, 1.6665567339461827E9, 0.0, 2022-10-23 13:25:33.946
123.0, -87581.89083121906, -120489.55952996726, 44858.520610156134, 54719.12678708158, 62617.652132231255, 110619.99030351524, 64249.77651235778, 71877.44341819805, 0.032, 0.9580000000000001, 0.078, 192.0, 0.0, 0.0, 0.0, 0.0, 0.0, 0.0, 0.0, 0.0, 0.0, 1.6665567339461904E9, 0.0, 2022-10-23 13:25:33.946
124.0, -87610.14343621056, -120518.3932803146, 45607.63932557575, 54859.92042540556, 62738.75388369011, 111003.68034883504, 64804.99384462761, 72546.36407451202, 0.032, 0.9580000000000001, 0.078, 192.0, 0.0, 0.0, 0.0, 0.0, 0.0, 0.0, 0.0, 0.0, 0.0, 1.6665567339462197E9, 0.0, 2022-10-23 13:25:33.946
125.0, -87616.51368338034, -120527.02105367435, 47641.692774497606, 54883.63562627264, 62784.396145867846, 111808.25374224827, 66000.81217298654, 73644.61703832353, 0.032, 0.9580000000000001, 0.078, 192.0, 0.0, 0.0, 0.0, 0.0, 0.0, 0.0, 0.0, 0.0, 0.0, 1.6665567339462278E9, 0.0, 2022-10-23 13:25:33.946
126.0, -87552.3194733047, -120465.35259072216, 46377.50045984989, 54580.47891622531, 62555.447227412136, 111174.44767647359, 65101.199162149336, 72582.28332785169, 0.032, 0.9580000000000001, 0.078, 192.0, 0.0, 0.0, 0.0, 0.0, 0.0, 0.0, 0.0, 0.0, 0.0, 1.6665567339462368E9, 0.0, 2022-10-23 13:25:33.946
127.0, -87560.34374956414, -120468.8841663461, 44869.69648238379, 54701.625371173075, 62620.33434156589, 110603.78528878515, 64237.08072150716, 71849.12375797317, 0.026000000000000002, 0.9580000000000001, 0.084, 192.0, 0.0, 208.0, 29.0, 240.0, 2.0, 160.0, 0.0, 0.0, 0.0, 1.6665567339462445E9, 0.0, 2022-10-23 13:25:33.946
128.0, -87603.48261636289, -120507.84325693171, 45291.02686536633, 54827.33158198972, 62729.52261323007, 110859.01985872029, 64597.86022876028, 72347.41119711533, 0.026000000000000002, 0.9580000000000001, 0.084, 192.0, 0.0, 0.0, 0.0, 0.0, 0.0, 0.0, 0.0, 0.0, 0.0, 1.6665567339462528E9, 0.0, 2022-10-23 13:25:33.946
129.0, -87632.71869811043, -120534.37477760015, 47416.56600434375, 54922.10297848022, 62821.8800213194, 111744.19364263937, 65894.32846240145, 73585.87665389499, 0.026000000000000002, 0.9580000000000001, 0.084, 192.0, 0.0, 0.0, 0.0, 0.0, 0.0, 0.0, 0.0, 0.0, 0.0, 1.6665567339462605E9, 0.0, 2022-10-23 13:25:33.946
130.0, -87570.8714212026, -120476.43905597199, 46852.16210510279, 54604.171765347935, 62591.500591218544, 111397.02634775953, 65414.168288012545, 72900.88509331764, 0.026000000000000002, 0.9580000000000001, 0.084, 192.0, 0.0, 0.0, 0.0, 0.0, 0.0, 0.0, 0.0, 0.0, 0.0, 1.6665567339462683E9, 0.0, 2022-10-23 13:25:33.946
131.0, -87569.64207525755, -120471.07463730272, 44991.6699518764, 54654.01615548327, 62587.589035938865, 110646.03008580567, 64299.24092283737, 71872.36957220669, 0.026000000000000002, 0.9580000000000001, 0.084, 192.0, 0.0, 0.0, 0.0, 0.0, 0.0, 0.0, 0.0, 0.0, 0.0, 1.6665567339462764E9, 0.0, 2022-10-23 13:25:33.946
132.0, -87609.91991876601, -120510.97250115544, 45100.50059562929, 54785.24324718038, 62693.96098780167, 110775.37963096853, 64472.57870108828, 72194.25704410757, 0.026000000000000002, 0.9580000000000001, 0.084, 192.0, 0.0, 0.0, 0.0, 0.0, 0.0, 0.0, 0.0, 0.0, 0.0, 1.6665567339462843E9, 0.0, 2022-10-23 13:25:33.946
133.0, -87640.29593948078, -120539.98506545843, 47068.0576047966, 54933.6141268747, 62813.76633808212, 111615.06761492105, 65701.92464613017, 73414.01409077813, 0.026000000000000002, 0.9580000000000001, 0.084, 192.0, 0.0, 0.0, 0.0, 0.0, 0.0, 0.0, 0.0, 0.0, 0.0, 1.666556733946292E9, 0.0, 2022-10-23 13:25:33.946
134.0, -87588.99868595586, -120493.42638175802, 47225.12331308405, 54659.78290555274, 62628.000989914064, 111557.80244562656, 65657.77995083094, 73164.94860231264, 0.026000000000000002, 0.9580000000000001, 0.084, 192.0, 0.0, 0.0, 0.0, 0.0, 0.0, 0.0, 0.0, 0.0, 0.0, 1.6665567339463E9, 0.0, 2022-10-23 13:25:33.946
135.0, -87565.6187612556, -120469.17473902402, 45131.21189251088, 54632.647887784, 62562.37626819328, 110679.87062691101, 64366.27380445884, 71910.16637208061, 0.026000000000000002, 0.9580000000000001, 0.084, 192.0, 0.0, 0.0, 0.0, 0.0, 0.0, 0.0, 0.0, 0.0, 0.0, 1.666556733946308E9, 0.0, 2022-10-23 13:25:33.946
136.0, -87597.46999710442, -120496.37681202612, 44930.76144823569, 54780.88465701159, 62690.228246477636, 110677.25547280973, 64348.50416761687, 72057.39731280772, 0.026000000000000002, 0.9580000000000001, 0.084, 192.0, 0.0, 0.0, 0.0, 0.0, 0.0, 0.0, 0.0, 0.0, 0.0, 1.6665567339463155E9, 0.0, 2022-10-23 13:25:33.946
137.0, -87648.5884366737, -120544.96950447197, 46641.47456186707, 54931.84833906274, 62826.01509404363, 111440.83576689193, 65451.96508788647, 73187.76973340151, 0.03, 0.9560000000000001, 0.08600000000000001, 192.0, 0.0, 240.0, 29.0, 224.0, 2.0, 176.0, 0.0, 0.0, 0.0, 1.6665567339463236E9, 0.0, 2022-10-23 13:25:33.946
138.0, -87610.52341586631, -120511.28542557782, 47542.920415749606, 54709.33672301015, 62680.52758938404, 111719.36085454952, 65881.61031980638, 73412.36006168844, 0.03, 0.9560000000000001, 0.08600000000000001, 192.0, 0.0, 0.0, 0.0, 0.0, 0.0, 0.0, 0.0, 0.0, 0.0, 1.6665567339463332E9, 0.0, 2022-10-23 13:25:33.946
139.0, -87570.69260724695, -120475.25441351587, 45373.6612646176, 54587.8326401511, 62542.28204992796, 110767.51181692026, 64497.83617232277, 72007.9999575615, 0.03, 0.9560000000000001, 0.08600000000000001, 192.0, 0.0, 0.0, 0.0, 0.0, 0.0, 0.0, 0.0, 0.0, 0.0, 1.6665567339463415E9, 0.0, 2022-10-23 13:25:33.946
140.0, -87600.93451749498, -120500.690698706, 44852.530342642116, 54747.2229298619, 62669.4411241342, 110634.02719903317, 64278.498503982846, 71963.00589597296, 0.03, 0.9560000000000001, 0.08600000000000001, 192.0, 0.0, 0.0, 0.0, 0.0, 0.0, 0.0, 0.0, 0.0, 0.0, 1.6665567339463756E9, 0.0, 2022-10-23 13:25:33.946
141.0, -87629.47769516442, -120527.98217868594, 46180.04514933171, 54921.477129635474, 62813.16284098183, 111241.1005784393, 65160.92302333391, 72923.10272730622, 0.03, 0.9560000000000001, 0.08600000000000001, 192.0, 0.0, 0.0, 0.0, 0.0, 0.0, 0.0, 0.0, 0.0, 0.0, 1.666556733946384E9, 0.0, 2022-10-23 13:25:33.946
142.0, -87611.01515424433, -120515.82282970224, 47693.548821633914, 54796.15089847457, 62757.84227345494, 111804.23042824632, 65997.68292876279, 73584.04381084965, 0.03, 0.9560000000000001, 0.08600000000000001, 192.0, 0.0, 0.0, 0.0, 0.0, 0.0, 0.0, 0.0, 0.0, 0.0, 1.666556733946392E9, 0.0, 2022-10-23 13:25:33.946
143.0, -87560.09788037513, -120468.66064890155, 45716.112341417356, 54583.02701509321, 62563.896186816244, 110917.44731872647, 64706.78027949099, 72203.98005294563, 0.03, 0.9560000000000001, 0.08600000000000001, 192.0, 0.0, 0.0, 0.0, 0.0, 0.0, 0.0, 0.0, 0.0, 0.0, 1.6665567339464E9, 0.0, 2022-10-23 13:25:33.946
144.0, -87590.04921794526, -120497.15912308206, 44838.40404014636, 54734.14715935555, 62661.618013574844, 110628.79689083064, 64258.87367235109, 71916.53661925037, 0.03, 0.9560000000000001, 0.08600000000000001, 192.0, 0.0, 0.0, 0.0, 0.0, 0.0, 0.0, 0.0, 0.0, 0.0, 1.666556733946408E9, 0.0, 2022-10-23 13:25:33.946
145.0, -87620.06761074872, -120526.46226006297, 45814.83999667645, 54892.84454498823, 62789.2688261591, 111103.23501863898, 64944.91576491783, 72699.67468973096, 0.03, 0.9560000000000001, 0.08600000000000001, 192.0, 0.0, 0.0, 0.0, 0.0, 0.0, 0.0, 0.0, 0.0, 0.0, 1.666556733946416E9, 0.0, 2022-10-23 13:25:33.946
146.0, -87625.70025035147, -120535.04532993381, 47719.94623183564, 54861.708564961984, 62795.25909367313, 111846.20700433338, 66044.66629560785, 73664.33127693311, 0.03, 0.9560000000000001, 0.08600000000000001, 192.0, 0.0, 0.0, 0.0, 0.0, 0.0, 0.0, 0.0, 0.0, 0.0, 1.666556733946424E9, 0.0, 2022-10-23 13:25:33.946
147.0, -87567.00456941183, -120479.76946589584, 46101.523471060216, 54578.60136969106, 62559.492893158545, 111069.97562288948, 64936.01977062462, 72415.82988689303, 0.024, 0.96, 0.08600000000000001, 192.0, 0.0, 192.0, 30.0, 0.0, 2.0, 176.0, 0.0, 0.0, 0.0, 1.666556733946432E9, 0.0, 2022-10-23 13:25:33.946
148.0, -87580.59443004066, -120491.81705615725, 44816.499330580154, 54713.69531317894, 62638.79688248598, 110589.63663454494, 64213.49963110682, 71846.955638761, 0.024, 0.96, 0.08600000000000001, 192.0, 0.0, 0.0, 0.0, 0.0, 0.0, 0.0, 0.0, 0.0, 0.0, 1.6665567339464417E9, 0.0, 2022-10-23 13:25:33.946
149.0, -87616.62544210261, -120526.10463215169, 45442.39287881766, 54856.947643393, 62764.36898283589, 110926.8797548866, 64694.55387527393, 72456.30889610159, 0.024, 0.96, 0.08600000000000001, 192.0, 0.0, 0.0, 0.0, 0.0, 0.0, 0.0, 0.0, 0.0, 0.0, 1.6665567339464495E9, 0.0, 2022-10-23 13:25:33.946
150.0, -87646.46502095045, -120554.11136795419, 47549.067145474815, 54902.63460905965, 62822.63998063088, 111784.85146580357, 65956.04162884255, 73630.84836373906, 0.024, 0.96, 0.08600000000000001, 192.0, 0.0, 0.0, 0.0, 0.0, 0.0, 0.0, 0.0, 0.0, 0.0, 1.6665567339464576E9, 0.0, 2022-10-23 13:25:33.946
151.0, -87578.33690385066, -120492.0405736018, 46531.43692391359, 54590.738366930294, 62584.25862601503, 111252.79054078944, 65203.81602094365, 72696.59014899614, 0.024, 0.96, 0.08600000000000001, 192.0, 0.0, 0.0, 0.0, 0.0, 0.0, 0.0, 0.0, 0.0, 0.0, 1.6665567339464655E9, 0.0, 2022-10-23 13:25:33.946
152.0, -87574.2688863598, -120484.97742235393, 44904.74401768971, 54693.82461235817, 62626.36931256882, 110622.06901574958, 64254.939765326955, 71860.210223223, 0.024, 0.96, 0.08600000000000001, 192.0, 0.0, 0.0, 0.0, 0.0, 0.0, 0.0, 0.0, 0.0, 0.0, 1.666556733946474E9, 0.0, 2022-10-23 13:25:33.946
153.0, -87605.69543906396, -120511.79951570029, 45214.53919584027, 54826.057532555766, 62741.972534891676, 110831.0131229178, 64548.50757700296, 72293.25292030012, 0.024, 0.96, 0.08600000000000001, 192.0, 0.0, 0.0, 0.0, 0.0, 0.0, 0.0, 0.0, 0.0, 0.0, 1.6665567339464817E9, 0.0, 2022-10-23 13:25:33.946
154.0, -87634.46213417794, -120545.57300157227, 47294.03374123976, 54942.666583379105, 62842.80125412956, 111699.35604326201, 65822.15467955526, 73531.74072882422, 0.024, 0.96, 0.08600000000000001, 192.0, 0.0, 0.0, 0.0, 0.0, 0.0, 0.0, 0.0, 0.0, 0.0, 1.6665567339464896E9, 0.0, 2022-10-23 13:25:33.946
155.0, -87584.05895043122, -120506.12217260864, 46992.62046725994, 54626.679972014426, 62621.02724564401, 111459.4100665343, 65499.23902740944, 73001.71381255554, 0.024, 0.96, 0.08600000000000001, 192.0, 0.0, 0.0, 0.0, 0.0, 0.0, 0.0, 0.0, 0.0, 0.0, 1.6665567339465055E9, 0.0, 2022-10-23 13:25:33.946
156.0, -87573.28540960376, -120490.29713753429, 45036.373440787014, 54649.07641995865, 62590.606521440335, 110659.03880107866, 64314.46246081144, 71883.41133396761, 0.022, 0.9580000000000001, 0.092, 192.0, 0.0, 176.0, 29.0, 240.0, 2.0, 224.0, 0.0, 0.0, 0.0, 1.6665567339465137E9, 0.0, 2022-10-23 13:25:33.946
157.0, -87599.43695061648, -120511.12896336663, 45036.038164620186, 54799.45895665395, 62718.45849972469, 110742.96960150835, 64421.57202024127, 72148.23480227409, 0.022, 0.9580000000000001, 0.092, 192.0, 0.0, 0.0, 0.0, 0.0, 0.0, 0.0, 0.0, 0.0, 0.0, 1.666556733946522E9, 0.0, 2022-10-23 13:25:33.946
158.0, -87641.90526508156, -120554.33488539874, 46913.6741058438, 54943.00185954593, 62838.55442268305, 111550.49342518968, 65605.58862752779, 73335.98415088466, 0.022, 0.9580000000000001, 0.092, 192.0, 0.0, 0.0, 0.0, 0.0, 0.0, 0.0, 0.0, 0.0, 0.0, 1.6665567339465299E9, 0.0, 2022-10-23 13:25:33.946
159.0, -87608.71292456544, -120524.6517687621, 47358.78674492678, 54667.695423089914, 62656.27594665003, 111624.79062375911, 65746.0693414294, 73263.65390582728, 0.022, 0.9580000000000001, 0.092, 192.0, 0.0, 0.0, 0.0, 0.0, 0.0, 0.0, 0.0, 0.0, 0.0, 1.6665567339465375E9, 0.0, 2022-10-23 13:25:33.946
160.0, -87565.28348508877, -120481.11057056315, 45232.554701871246, 54615.25823059776, 62571.22755899758, 110727.56924957864, 64425.170651098575, 71953.86403249073, 0.022, 0.9580000000000001, 0.092, 192.0, 0.0, 0.0, 0.0, 0.0, 0.0, 0.0, 0.0, 0.0, 0.0, 1.6665567339465454E9, 0.0, 2022-10-23 13:25:33.946
161.0, -87589.46807258941, -120501.27184406185, 44940.01507044018, 54777.86717151012, 62702.18642976123, 110697.81907770861, 64355.612022353656, 72049.08246387035, 0.022, 0.9580000000000001, 0.092, 192.0, 0.0, 0.0, 0.0, 0.0, 0.0, 0.0, 0.0, 0.0, 0.0, 1.6665567339465532E9, 0.0, 2022-10-23 13:25:33.946
162.0, -87632.62929113262, -120543.38253061564, 46522.652688342656, 54934.262327463905, 62829.904297578854, 111407.39755718679, 65385.75922080985, 73119.57456106837, 0.022, 0.9580000000000001, 0.092, 192.0, 0.0, 0.0, 0.0, 0.0, 0.0, 0.0, 0.0, 0.0, 0.0, 1.6665567339465609E9, 0.0, 2022-10-23 13:25:33.946
163.0, -87605.13664545259, -120518.01330065887, 47631.45567553707, 54746.32886008369, 62714.45753746719, 111770.881625519, 65948.57614619448, 73488.13247539193, 0.022, 0.9580000000000001, 0.092, 192.0, 0.0, 0.0, 0.0, 0.0, 0.0, 0.0, 0.0, 0.0, 0.0, 1.6665567339465685E9, 0.0, 2022-10-23 13:25:33.946
164.0, -87559.29321757474, -120471.81224486974, 45508.30817321637, 54593.71114894285, 62565.32669846138, 110837.47277706538, 64590.707670534575, 72087.68392654466, 0.022, 0.9580000000000001, 0.092, 192.0, 0.0, 0.0, 0.0, 0.0, 0.0, 0.0, 0.0, 0.0, 0.0, 1.6665567339465764E9, 0.0, 2022-10-23 13:25:33.946
165.0, -87585.78003475428, -120495.66155620356, 44890.751825660685, 54756.78947648877, 62691.81522033396, 110673.5227314857, 64320.47508006991, 71981.51314038195, 0.022, 0.9580000000000001, 0.092, 192.0, 0.0, 0.0, 0.0, 0.0, 0.0, 0.0, 0.0, 0.0, 0.0, 1.6665567339465845E9, 0.0, 2022-10-23 13:25:33.946
166.0, -87622.21337821643, -120530.97731244295, 46115.94034623389, 54915.330399910265, 62818.70607360674, 111250.39890413271, 65153.39048545247, 72886.1552937216, 0.026000000000000002, 0.9540000000000001, 0.08600000000000001, 192.0, 0.0, 208.0, 29.0, 208.0, 2.0, 176.0, 0.0, 0.0, 0.0, 1.666556733946592E9, 0.0, 2022-10-23 13:25:33.946
167.0, -87600.59924132815, -120511.15131511108, 47752.73624095157, 54823.48708194341, 62769.17460789378, 111850.81146369118, 66063.41940920585, 73633.9329044739, 0.026000000000000002, 0.9540000000000001, 0.08600000000000001, 192.0, 0.0, 0.0, 0.0, 0.0, 0.0, 0.0, 0.0, 0.0, 0.0, 1.6665567339466002E9, 0.0, 2022-10-23 13:25:33.946
168.0, -87546.35155753512, -120457.37301795161, 45847.965281959216, 54591.163050074945, 62565.97489905058, 110969.16925539605, 64799.383556769324, 72271.92935608976, 0.026000000000000002, 0.9540000000000001, 0.08600000000000001, 192.0, 0.0, 0.0, 0.0, 0.0, 0.0, 0.0, 0.0, 0.0, 0.0, 1.666556733946608E9, 0.0, 2022-10-23 13:25:33.946
169.0, -87587.47876733288, -120493.78400966931, 44846.20479896126, 54731.196729087445, 62661.416847874745, 110634.5636409001, 64278.498503982846, 71904.31021503333, 0.026000000000000002, 0.9540000000000001, 0.08600000000000001, 192.0, 0.0, 0.0, 0.0, 0.0, 0.0, 0.0, 0.0, 0.0, 0.0, 1.666556733946617E9, 0.0, 2022-10-23 13:25:33.946
170.0, -87621.45341890496, -120525.83641121822, 45677.08619559839, 54873.51028603438, 62764.23487236916, 111043.04177082084, 64875.06656349499, 72606.6914327969, 0.026000000000000002, 0.9540000000000001, 0.08600000000000001, 192.0, 0.0, 0.0, 0.0, 0.0, 0.0, 0.0, 0.0, 0.0, 0.0, 1.6665567339466245E9, 0.0, 2022-10-23 13:25:33.946
171.0, -87615.50785487985, -120521.9919111719, 47683.89286802922, 54893.82802174426, 62815.39801542736, 111846.54228050022, 66057.9432318143, 73674.07663751562, 0.026000000000000002, 0.9540000000000001, 0.08600000000000001, 192.0, 0.0, 0.0, 0.0, 0.0, 0.0, 0.0, 0.0, 0.0, 0.0, 1.6665567339466403E9, 0.0, 2022-10-23 13:25:33.946
172.0, -87554.59935123913, -120464.70439013296, 46279.219839479905, 54597.55564898916, 62587.29846326095, 111170.58082468282, 65086.223493364276, 72543.95008611084, 0.026000000000000002, 0.9540000000000001, 0.08600000000000001, 192.0, 0.0, 0.0, 0.0, 0.0, 0.0, 0.0, 0.0, 0.0, 0.0, 1.6665567339466481E9, 0.0, 2022-10-23 13:25:33.946
173.0, -87572.3689880811, -120476.90844260556, 44885.00742733567, 54715.57285971318, 62643.378990099314, 110653.78614113167, 64302.191353105474, 71888.84280787026, 0.026000000000000002, 0.9540000000000001, 0.08600000000000001, 192.0, 0.0, 0.0, 0.0, 0.0, 0.0, 0.0, 0.0, 0.0, 0.0, 1.6665567339466562E9, 0.0, 2022-10-23 13:25:33.946
174.0, -87607.03654373129, -120507.35151855368, 45381.48437517695, 54851.06913460125, 62751.71789547419, 110930.18781306599, 64704.85802946783, 72418.37798576093, 0.026000000000000002, 0.9540000000000001, 0.08600000000000001, 192.0, 0.0, 0.0, 0.0, 0.0, 0.0, 0.0, 0.0, 0.0, 0.0, 1.666556733946664E9, 0.0, 2022-10-23 13:25:33.946
175.0, -87630.72939285391, -120531.69256826551, 47486.75048193341, 54928.115597738695, 62829.92664932331, 111786.81841931563, 65972.24664357265, 73617.25850311024, 0.026000000000000002, 0.9540000000000001, 0.08600000000000001, 192.0, 0.0, 0.0, 0.0, 0.0, 0.0, 0.0, 0.0, 0.0, 0.0, 1.666556733946672E9, 0.0, 2022-10-23 13:25:33.946
176.0, -87562.40011005403, -120470.67230590252, 46695.81165263792, 54618.90156494398, 62601.648283201255, 111338.53183251999, 65351.71751400441, 72807.47715323891, 0.022, 0.9520000000000001, 0.084, 192.0, 0.0, 176.0, 29.0, 192.0, 2.0, 160.0, 0.0, 0.0, 0.0, 1.66655673394668E9, 0.0, 2022-10-23 13:25:33.946
177.0, -87568.47978454588, -120472.48279720341, 44930.113247646485, 54692.10352803511, 62619.82025144342, 110635.74828335622, 64306.34877757416, 71865.30642095882, 0.022, 0.9520000000000001, 0.084, 192.0, 0.0, 0.0, 0.0, 0.0, 0.0, 0.0, 0.0, 0.0, 0.0, 1.6665567339466884E9, 0.0, 2022-10-23 13:25:33.946
178.0, -87603.95200299645, -120503.3952597851, 45145.159381050995, 54823.554137176776, 62738.19509007873, 110814.33872155413, 64550.787454937396, 72254.22677448115, 0.022, 0.9520000000000001, 0.084, 192.0, 0.0, 0.0, 0.0, 0.0, 0.0, 0.0, 0.0, 0.0, 0.0, 1.6665567339466963E9, 0.0, 2022-10-23 13:25:33.946
179.0, -87626.59432012968, -120528.16099264157, 47159.36448089653, 54951.9202055836, 62843.740027396685, 111661.42513292136, 65797.41129844324, 73477.78361770912, 0.022, 0.9520000000000001, 0.084, 192.0, 0.0, 0.0, 0.0, 0.0, 0.0, 0.0, 0.0, 0.0, 0.0, 1.666556733946704E9, 0.0, 2022-10-23 13:25:33.946
180.0, -87579.56624979571, -120486.11736132114, 47094.49971848723, 54650.439876370416, 62630.05735040395, 111508.18157293578, 65614.10464216527, 73087.41040079718, 0.022, 0.9520000000000001, 0.084, 192.0, 0.0, 0.0, 0.0, 0.0, 0.0, 0.0, 0.0, 0.0, 0.0, 1.666556733946712E9, 0.0, 2022-10-23 13:25:33.946
181.0, -87566.4681275449, -120470.38173322461, 45055.73005148531, 54650.88691125953, 62591.32177726291, 110665.36434475951, 64368.8442550712, 71892.39673523864, 0.022, 0.9520000000000001, 0.084, 192.0, 0.0, 0.0, 0.0, 0.0, 0.0, 0.0, 0.0, 0.0, 0.0, 1.6665567339467196E9, 0.0, 2022-10-23 13:25:33.946
182.0, -87594.92189823651, -120497.40499227107, 45004.656315404936, 54802.31997994423, 62731.71308418669, 110752.55849987967, 64462.54276782784, 72139.85289810335, 0.022, 0.9520000000000001, 0.084, 192.0, 0.0, 0.0, 0.0, 0.0, 0.0, 0.0, 0.0, 0.0, 0.0, 1.6665567339467275E9, 0.0, 2022-10-23 13:25:33.946
183.0, -87621.34166018268, -120522.12602163864, 46798.11558700986, 54962.78315338888, 62853.01600134564, 111539.71988436222, 65606.72856649502, 73300.69074638972, 0.022, 0.9520000000000001, 0.084, 192.0, 0.0, 0.0, 0.0, 0.0, 0.0, 0.0, 0.0, 0.0, 0.0, 1.666556733946736E9, 0.0, 2022-10-23 13:25:33.946
0.0, 0.0, 0.0, 0.0, 0.0, 0.0, 0.0, 0.0, 0.0, 0.038, 0.9480000000000001, 0.106, 192.0, 1.0, 48.0, 29.0, 160.0, 3.0, 80.0, 0.0, 0.0, 0.0, 1.666556734021885E9, 0.0, 2022-10-23 13:25:34.021
1.0, -78485.1778727982, -114689.93004440427, 4343.033354643983, 69108.66577728579, 66533.58835382323, -187500.02235174447, 47012.17824365834, 83596.84301577127, 0.038, 0.9480000000000001, 0.106, 192.0, 0.0, 0.0, 0.0, 0.0, 0.0, 0.0, 0.0, 0.0, 0.0, 1.666556734500509E9, 0.0, 2022-10-23 13:25:34.500
2.0, -78483.79206464197, -114690.98057639367, 6349.705916608085, 69084.97292816317, 67016.09546137994, -187500.02235174447, 48170.98208319928, 84666.79867110237, 0.038, 0.9480000000000001, 0.106, 192.0, 0.0, 0.0, 0.0, 0.0, 0.0, 0.0, 0.0, 0.0, 0.0, 1.666556734500576E9, 0.0, 2022-10-23 13:25:34.500
3.0, -78403.19167413613, -114617.93507551374, 4908.666599829984, 69070.26548031157, 66617.85443041974, -187500.02235174447, 47148.72505053581, 83476.00948524589, 0.038, 0.9480000000000001, 0.106, 192.0, 0.0, 0.0, 0.0, 0.0, 0.0, 0.0, 0.0, 0.0, 0.0, 1.6665567345006013E9, 0.0, 2022-10-23 13:25:34.500
4.0, -78413.45112484111, -114625.33350292845, 3591.120671167454, 69110.23039939767, 66304.88530455653, -187500.02235174447, 46403.07085550676, 82822.28801516152, 0.038, 0.9480000000000001, 0.106, 192.0, 0.0, 0.0, 0.0, 0.0, 0.0, 0.0, 0.0, 0.0, 0.0, 1.66655673450061E9, 0.0, 2022-10-23 13:25:34.500
5.0, -78447.22461071308, -114649.51809042909, 4145.980375525996, 69136.2701816881, 66474.78091416133, -187500.02235174447, 46868.43417506626, 83406.18263556751, 0.038, 0.9480000000000001, 0.106, 192.0, 0.0, 0.0, 0.0, 0.0, 0.0, 0.0, 0.0, 0.0, 0.0, 1.666556734500618E9, 0.0, 2022-10-23 13:25:34.500
6.0, -78481.08750356287, -114684.09623910145, 6240.741162388464, 69102.07201267147, 66969.91675733528, -187500.02235174447, 48129.96663212379, 84628.19720842806, 0.038, 0.9480000000000001, 0.106, 192.0, 0.0, 0.0, 0.0, 0.0, 0.0, 0.0, 0.0, 0.0, 0.0, 1.666556734500631E9, 0.0, 2022-10-23 13:25:34.500
7.0, -78401.96232819109, -114609.37435738735, 5333.43915145864, 69064.16345407527, 66691.30226269987, -187500.02235174447, 47439.54359764381, 83756.70269211564, 0.044, 0.9420000000000001, 0.116, 192.0, 1.0, 96.0, 29.0, 112.0, 3.0, 160.0, 0.0, 0.0, 0.0, 1.6665567345006397E9, 0.0, 2022-10-23 13:25:34.500
8.0, -78405.53860730394, -114615.76695630157, 3637.6122996344925, 69100.19446613723, 66294.40233640699, -187500.02235174447, 46457.45264976653, 82827.78654429753, 0.044, 0.9420000000000001, 0.116, 192.0, 0.0, 0.0, 0.0, 0.0, 0.0, 0.0, 0.0, 0.0, 0.0, 1.6665567345006485E9, 0.0, 2022-10-23 13:25:34.500
9.0, -78444.65416010072, -114653.02731430857, 3881.0227967527867, 69113.27023664358, 66389.86663697561, -187500.02235174447, 46727.282908830995, 83219.29970017669, 0.044, 0.9420000000000001, 0.116, 192.0, 0.0, 0.0, 0.0, 0.0, 0.0, 0.0, 0.0, 0.0, 0.0, 1.6665567345006564E9, 0.0, 2022-10-23 13:25:34.500
10.0, -78494.52090198052, -114702.40231781034, 5952.18014147045, 69106.52000981808, 66913.50095433008, -187500.02235174447, 48015.436293534796, 84507.7436575584, 0.044, 0.9420000000000001, 0.116, 192.0, 0.0, 0.0, 0.0, 0.0, 0.0, 0.0, 0.0, 0.0, 0.0, 1.6665567345006647E9, 0.0, 2022-10-23 13:25:34.500
11.0, -78429.23145642655, -114643.21489849269, 5798.064863451107, 69051.73588415813, 66834.30872372493, -187500.02235174447, 47786.10739542334, 84083.97693443023, 0.044, 0.9420000000000001, 0.116, 192.0, 0.0, 0.0, 0.0, 0.0, 0.0, 0.0, 0.0, 0.0, 0.0, 1.6665567345006728E9, 0.0, 2022-10-23 13:25:34.500
12.0, -78399.4589328121, -114613.53178185604, 3808.2008133173963, 69100.93207370426, 66339.99989509581, -187500.02235174447, 46581.48247974902, 82890.05850435002, 0.044, 0.9420000000000001, 0.116, 192.0, 0.0, 0.0, 0.0, 0.0, 0.0, 0.0, 0.0, 0.0, 0.0, 1.666556734500681E9, 0.0, 2022-10-23 13:25:34.500
13.0, -78435.89227627424, -114648.28874448405, 3764.681966862913, 69119.17109717979, 66372.47697978938, -187500.02235174447, 46679.09254778535, 83116.50402742672, 0.044, 0.9420000000000001, 0.116, 192.0, 0.0, 0.0, 0.0, 0.0, 0.0, 0.0, 0.0, 0.0, 0.0, 1.6665567345006893E9, 0.0, 2022-10-23 13:25:34.500
14.0, -78486.04959083196, -114700.97180616521, 5594.909858096821, 69117.60647506792, 66831.47005217911, -187500.02235174447, 47843.32786122893, 84315.33984128712, 0.044, 0.9420000000000001, 0.116, 192.0, 0.0, 0.0, 0.0, 0.0, 0.0, 0.0, 0.0, 0.0, 0.0, 1.666556734500697E9, 0.0, 2022-10-23 13:25:34.500
15.0, -78442.016654255, -114661.85625336842, 6174.0659086782825, 69048.15960504528, 66937.23850694162, -187500.02235174447, 48070.55569536158, 84365.92183898948, 0.044, 0.9420000000000001, 0.116, 192.0, 0.0, 0.0, 0.0, 0.0, 0.0, 0.0, 0.0, 0.0, 0.0, 1.6665567345007048E9, 0.0, 2022-10-23 13:25:34.500
16.0, -78397.08964789983, -114613.3529679004, 4052.1030488137067, 69082.38012580635, 66410.98903548587, -187500.02235174447, 46751.959234709655, 83001.05726731507, 0.044, 0.9420000000000001, 0.116, 192.0, 0.0, 0.0, 0.0, 0.0, 0.0, 0.0, 0.0, 0.0, 0.0, 1.6665567345007129E9, 0.0, 2022-10-23 13:25:34.500
17.0, -78424.24701741303, -114638.36456994589, 3701.203012609841, 69112.80085001003, 66369.79477045474, -187500.02235174447, 46661.23350396556, 83036.44007878783, 0.042, 0.9480000000000001, 0.12, 192.0, 1.0, 80.0, 29.0, 160.0, 3.0, 192.0, 0.0, 0.0, 0.0, 1.6665567345007207E9, 0.0, 2022-10-23 13:25:34.500
18.0, -78473.95729708164, -114690.04180312656, 5212.7620831444365, 69118.88052450187, 66758.24573734352, -187500.02235174447, 47658.47893458354, 84089.85544322198, 0.042, 0.9480000000000001, 0.12, 192.0, 0.0, 0.0, 0.0, 0.0, 0.0, 0.0, 0.0, 0.0, 0.0, 1.6665567345007384E9, 0.0, 2022-10-23 13:25:34.500
19.0, -78456.54528815094, -114677.12249483139, 6426.953545445627, 69044.71743639917, 67001.1197925949, -187500.02235174447, 48283.67957874294, 84559.42089073907, 0.042, 0.9480000000000001, 0.12, 192.0, 0.0, 0.0, 0.0, 0.0, 0.0, 0.0, 0.0, 0.0, 0.0, 1.6665567345007465E9, 0.0, 2022-10-23 13:25:34.500
20.0, -78402.36465959129, -114621.86898253787, 4343.949776166651, 69060.34130577341, 66452.9879633174, -187500.02235174447, 46942.06082130204, 83125.40002171994, 0.042, 0.9480000000000001, 0.12, 192.0, 0.0, 0.0, 0.0, 0.0, 0.0, 0.0, 0.0, 0.0, 0.0, 1.6665567345007544E9, 0.0, 2022-10-23 13:25:34.500
21.0, -78424.98462498005, -114641.85144208092, 3637.0311542786544, 69095.56765503499, 66313.24485698281, -187500.02235174447, 46619.21222438959, 82929.08465016898, 0.042, 0.9480000000000001, 0.12, 192.0, 0.0, 0.0, 0.0, 0.0, 0.0, 0.0, 0.0, 0.0, 0.0, 1.6665567345007622E9, 0.0, 2022-10-23 13:25:34.500
22.0, -78468.27995398999, -114685.1244193464, 4787.475441393309, 69108.93399821926, 66621.63187523269, -187500.02235174447, 47412.09565545269, 83809.60927124135, 0.042, 0.9480000000000001, 0.12, 192.0, 0.0, 0.0, 0.0, 0.0, 0.0, 0.0, 0.0, 0.0, 0.0, 1.66655673450077E9, 0.0, 2022-10-23 13:25:34.500
23.0, -78465.84361384435, -114684.05153561254, 6494.0311305560035, 69052.8981748698, 66993.810772158, -187500.02235174447, 48369.018539073295, 84655.55574364135, 0.042, 0.9480000000000001, 0.12, 192.0, 0.0, 0.0, 0.0, 0.0, 0.0, 0.0, 0.0, 0.0, 0.0, 1.6665567345007777E9, 0.0, 2022-10-23 13:25:34.500
24.0, -78395.86030195479, -114612.92828475575, 4687.6972541448185, 69047.31023875598, 66504.64284475362, -187500.02235174447, 47165.600617599564, 83319.5696258032, 0.042, 0.9480000000000001, 0.12, 192.0, 0.0, 0.0, 0.0, 0.0, 0.0, 0.0, 0.0, 0.0, 0.0, 1.6665567345007856E9, 0.0, 2022-10-23 13:25:34.500
25.0, -78416.78153476496, -114632.68722685424, 3625.721171584269, 69092.77368697806, 66286.24394968081, -187500.02235174447, 46615.054799920894, 82881.14015831235, 0.042, 0.9480000000000001, 0.12, 192.0, 0.0, 0.0, 0.0, 0.0, 0.0, 0.0, 0.0, 0.0, 0.0, 1.6665567345007935E9, 0.0, 2022-10-23 13:25:34.500
26.0, -78466.2235935001, -114685.25852981312, 4445.963137860673, 69103.30135861652, 66536.35997013569, -187500.02235174447, 47227.87257765205, 83592.55148083586, 0.042, 0.9480000000000001, 0.12, 192.0, 0.0, 0.0, 0.0, 0.0, 0.0, 0.0, 0.0, 0.0, 0.0, 1.6665567345008016E9, 0.0, 2022-10-23 13:25:34.500
27.0, -78476.84067211636, -114699.13896311987, 6466.963168020627, 69080.99431765013, 67004.1149263519, -187500.02235174447, 48411.35274307165, 84704.88604365422, 0.046, 0.9500000000000001, 0.126, 192.0, 1.0, 112.0, 29.0, 176.0, 3.0, 240.0, 0.0, 0.0, 0.0, 1.6665567345008097E9, 0.0, 2022-10-23 13:25:34.500
28.0, -78403.9069299587, -114626.2052209622, 5154.334623138264, 69045.58915443292, 66634.59588701677, -187500.02235174447, 47483.57653422076, 83603.32502166332, 0.046, 0.9500000000000001, 0.126, 192.0, 0.0, 0.0, 0.0, 0.0, 0.0, 0.0, 0.0, 0.0, 0.0, 1.6665567345008192E9, 0.0, 2022-10-23 13:25:34.500
29.0, -78407.55026430491, -114625.02057850607, 3693.6034194950366, 69103.36841384988, 66294.62585385154, -187500.02235174447, 46658.43953590865, 82860.44244294673, 0.046, 0.9500000000000001, 0.126, 192.0, 0.0, 0.0, 0.0, 0.0, 0.0, 0.0, 0.0, 0.0, 0.0, 1.6665567345008273E9, 0.0, 2022-10-23 13:25:34.500
30.0, -78451.87377355978, -114669.00881159412, 4146.159189481639, 69117.94175123474, 66434.63718111959, -187500.02235174447, 47046.24230220822, 83368.05055952676, 0.046, 0.9500000000000001, 0.126, 192.0, 0.0, 0.0, 0.0, 0.0, 0.0, 0.0, 0.0, 0.0, 0.0, 1.666556734500835E9, 0.0, 2022-10-23 13:25:34.500
31.0, -78502.54517823996, -114722.07185293101, 6274.112316860237, 69075.18286409174, 66958.02562928505, -187500.02235174447, 48338.79898056972, 84625.4255921156, 0.046, 0.9500000000000001, 0.126, 192.0, 0.0, 0.0, 0.0, 0.0, 0.0, 0.0, 0.0, 0.0, 0.0, 1.6665567345008428E9, 0.0, 2022-10-23 13:25:34.500
32.0, -78418.83789525484, -114639.23628797964, 5623.989477633176, 69035.12853802783, 66753.48481577454, -187500.02235174447, 47803.31823865393, 83897.33986822843, 0.046, 0.9500000000000001, 0.126, 192.0, 0.0, 0.0, 0.0, 0.0, 0.0, 0.0, 0.0, 0.0, 0.0, 1.666556734500851E9, 0.0, 2022-10-23 13:25:34.500
33.0, -78414.12167717477, -114630.04972100852, 3796.8461271341002, 69082.22366359517, 66293.53061837323, -187500.02235174447, 46711.99431562356, 82847.6572451183, 0.046, 0.9500000000000001, 0.126, 192.0, 0.0, 0.0, 0.0, 0.0, 0.0, 0.0, 0.0, 0.0, 0.0, 1.6665567345008671E9, 0.0, 2022-10-23 13:25:34.500
34.0, -78455.67357011719, -114672.62979419588, 3907.4649104434147, 69076.12163735887, 66328.80167112371, -187500.02235174447, 46884.43802409626, 83152.24446681076, 0.046, 0.9500000000000001, 0.126, 192.0, 0.0, 0.0, 0.0, 0.0, 0.0, 0.0, 0.0, 0.0, 0.0, 1.6665567345008752E9, 0.0, 2022-10-23 13:25:34.500
35.0, -78488.73180016658, -114710.24778011415, 5905.174422880938, 69086.09051538593, 66828.56432539992, -187500.02235174447, 48134.77225718168, 84421.91295885002, 0.046, 0.9500000000000001, 0.126, 192.0, 0.0, 0.0, 0.0, 0.0, 0.0, 0.0, 0.0, 0.0, 0.0, 1.666556734500883E9, 0.0, 2022-10-23 13:25:34.500
36.0, -78429.45497387112, -114653.47434919767, 5980.119822039584, 69035.79909036148, 66801.69752856463, -187500.02235174447, 48043.93476771531, 84148.4617171838, 0.046, 0.9500000000000001, 0.126, 192.0, 0.0, 0.0, 0.0, 0.0, 0.0, 0.0, 0.0, 0.0, 0.0, 1.6665567345008907E9, 0.0, 2022-10-23 13:25:34.500
37.0, -78409.02547943896, -114628.14982272981, 3943.808846927744, 69065.5492622315, 66308.68510111394, -187500.02235174447, 46800.887203322316, 82898.99920213214, 0.054, 0.9500000000000001, 0.132, 192.0, 1.0, 176.0, 29.0, 176.0, 4.0, 32.0, 0.0, 0.0, 0.0, 1.6665567345008986E9, 0.0, 2022-10-23 13:25:34.500
38.0, -78451.13616599276, -114666.86304412641, 3774.3155687231506, 69068.16441633277, 66289.66376658247, -187500.02235174447, 46804.97757255764, 83038.36232881098, 0.054, 0.9500000000000001, 0.132, 192.0, 0.0, 0.0, 0.0, 0.0, 0.0, 0.0, 0.0, 0.0, 0.0, 1.666556734500907E9, 0.0, 2022-10-23 13:25:34.500
39.0, -78503.34984104036, -114718.6743877738, 5522.087874661431, 69079.16147460479, 66741.88426040224, -187500.02235174447, 47927.39277212534, 84202.5752905101, 0.054, 0.9500000000000001, 0.132, 192.0, 0.0, 0.0, 0.0, 0.0, 0.0, 0.0, 0.0, 0.0, 0.0, 1.6665567345009148E9, 0.0, 2022-10-23 13:25:34.500
40.0, -78463.63079114328, -114683.11276234541, 6339.0664862473595, 69020.82342157644, 66905.90136121528, -187500.02235174447, 48300.10811091759, 84404.07626677469, 0.054, 0.9500000000000001, 0.132, 192.0, 0.0, 0.0, 0.0, 0.0, 0.0, 0.0, 0.0, 0.0, 0.0, 1.666556734500923E9, 0.0, 2022-10-23 13:25:34.500
41.0, -78415.14985741972, -114633.15661348781, 4204.407835532169, 69051.22179403565, 66360.51879650578, -187500.02235174447, 46948.252254516156, 82995.22346201223, 0.054, 0.9500000000000001, 0.132, 192.0, 0.0, 0.0, 0.0, 0.0, 0.0, 0.0, 0.0, 0.0, 0.0, 1.6665567345009303E9, 0.0, 2022-10-23 13:25:34.500
42.0, -78442.08370948836, -114658.0117533221, 3730.0591147016426, 69079.76497170508, 66279.6501850665, -187500.02235174447, 46770.22060992964, 82950.40821437933, 0.054, 0.9500000000000001, 0.132, 192.0, 0.0, 0.0, 0.0, 0.0, 0.0, 0.0, 0.0, 0.0, 0.0, 1.6665567345009382E9, 0.0, 2022-10-23 13:25:34.500
43.0, -78492.30807927944, -114704.41397481132, 5120.315268077286, 69083.63182349585, 66637.45691030704, -187500.02235174447, 47691.13483323275, 83947.43012755277, 0.054, 0.9500000000000001, 0.132, 192.0, 0.0, 0.0, 0.0, 0.0, 0.0, 0.0, 0.0, 0.0, 0.0, 1.666556734500946E9, 0.0, 2022-10-23 13:25:34.500
44.0, -78466.00007605554, -114680.3634977774, 6522.417846014243, 69037.11784328436, 66935.49507087411, -187500.02235174447, 48438.48776084039, 84564.67355068607, 0.054, 0.9500000000000001, 0.132, 192.0, 0.0, 0.0, 0.0, 0.0, 0.0, 0.0, 0.0, 0.0, 0.0, 1.6665567345009537E9, 0.0, 2022-10-23 13:25:34.500
45.0, -78399.72715374555, -114617.19746794671, 4549.675232133297, 69048.0925498119, 66445.20955624695, -187500.02235174447, 47161.398489641964, 83179.62535376851, 0.054, 0.9500000000000001, 0.132, 192.0, 0.0, 0.0, 0.0, 0.0, 0.0, 0.0, 0.0, 0.0, 0.0, 1.6665567345009613E9, 0.0, 2022-10-23 13:25:34.500
46.0, -78426.43748836964, -114638.76690134608, 3734.685925803891, 69086.87282644188, 66285.3945833915, -187500.02235174447, 46762.375147625826, 82899.04390562105, 0.06, 0.9540000000000001, 0.136, 192.0, 1.0, 224.0, 29.0, 208.0, 4.0, 64.0, 0.0, 0.0, 0.0, 1.6665567345009692E9, 0.0, 2022-10-23 13:25:34.500
47.0, -78478.74057039506, -114687.44900076975, 4774.243208675767, 69098.47338181417, 66574.91672932109, -187500.02235174447, 47488.42686276756, 83715.24020615104, 0.06, 0.9540000000000001, 0.136, 192.0, 0.0, 0.0, 0.0, 0.0, 0.0, 0.0, 0.0, 0.0, 0.0, 1.6665567345009775E9, 0.0, 2022-10-23 13:25:34.500
48.0, -78492.5763002129, -114703.02816665509, 6607.421530177776, 69045.05271256599, 66984.44539123123, -187500.02235174447, 48524.94430839352, 84655.734557597, 0.06, 0.9540000000000001, 0.136, 192.0, 0.0, 0.0, 0.0, 0.0, 0.0, 0.0, 0.0, 0.0, 0.0, 1.6665567345009854E9, 0.0, 2022-10-23 13:25:34.500
49.0, -78417.67560454317, -114634.85534606641, 4915.886213289048, 69032.20045950418, 66507.57092327725, -187500.02235174447, 47365.201695585456, 83358.28284719978, 0.06, 0.9540000000000001, 0.136, 192.0, 0.0, 0.0, 0.0, 0.0, 0.0, 0.0, 0.0, 0.0, 0.0, 1.6665567345010016E9, 0.0, 2022-10-23 13:25:34.501
50.0, -78443.80479381142, -114659.77754113407, 3702.0300271546876, 69066.800959921, 66237.8300711906, -187500.02235174447, 46701.421940496206, 82802.5961282964, 0.06, 0.9540000000000001, 0.136, 192.0, 0.0, 0.0, 0.0, 0.0, 0.0, 0.0, 0.0, 0.0, 0.0, 1.6665567345010097E9, 0.0, 2022-10-23 13:25:34.501
51.0, -78472.99617207005, -114682.44221001175, 4394.084738979905, 69091.29847184401, 66455.35724822966, -187500.02235174447, 47228.90075789699, 83440.60432202868, 0.06, 0.9540000000000001, 0.136, 192.0, 0.0, 0.0, 0.0, 0.0, 0.0, 0.0, 0.0, 0.0, 0.0, 1.666556734501018E9, 0.0, 2022-10-23 13:25:34.501
52.0, -78493.76094266903, -114703.49755328866, 6450.735801546073, 69067.73973318812, 66934.53394586252, -187500.02235174447, 48436.47610383941, 84599.29640284735, 0.06, 0.9540000000000001, 0.136, 192.0, 0.0, 0.0, 0.0, 0.0, 0.0, 0.0, 0.0, 0.0, 0.0, 1.666556734501026E9, 0.0, 2022-10-23 13:25:34.501
53.0, -78421.52010458948, -114641.38205544735, 5318.351723951308, 69032.91571532676, 66602.07409883429, -187500.02235174447, 47600.40910248865, 83595.09957970376, 0.06, 0.9540000000000001, 0.136, 192.0, 0.0, 0.0, 0.0, 0.0, 0.0, 0.0, 0.0, 0.0, 0.0, 1.666556734501034E9, 0.0, 2022-10-23 13:25:34.501
54.0, -78433.32182566189, -114654.3684189759, 3741.4361526293937, 69066.91271864327, 66243.50741428226, -187500.02235174447, 46691.833042124876, 82762.51945048803, 0.06, 0.9540000000000001, 0.136, 192.0, 0.0, 0.0, 0.0, 0.0, 0.0, 0.0, 0.0, 0.0, 0.0, 1.666556734501042E9, 0.0, 2022-10-23 13:25:34.501
55.0, -78462.11087252032, -114684.49857050164, 4121.371104880704, 69084.3023758295, 66399.43318360248, -187500.02235174447, 47042.73307832874, 83234.9459212954, 0.06, 0.9540000000000001, 0.136, 192.0, 0.0, 0.0, 0.0, 0.0, 0.0, 0.0, 0.0, 0.0, 0.0, 1.66655673450105E9, 0.0, 2022-10-23 13:25:34.501
56.0, -78489.75998041153, -114711.5218295481, 6205.425406149078, 69082.4024775508, 66905.72254725963, -187500.02235174447, 48309.62995405555, 84493.5950033182, 0.06, 0.9500000000000001, 0.126, 192.0, 1.0, 224.0, 29.0, 176.0, 3.0, 240.0, 0.0, 0.0, 0.0, 1.6665567345010583E9, 0.0, 2022-10-23 13:25:34.501
57.0, -78425.23049416907, -114648.82518635096, 5769.655796248412, 69026.72428211264, 66744.4547110146, -187500.02235174447, 47890.44533854072, 83891.41665594777, 0.06, 0.9500000000000001, 0.126, 192.0, 0.0, 0.0, 0.0, 0.0, 0.0, 0.0, 0.0, 0.0, 0.0, 1.6665567345010667E9, 0.0, 2022-10-23 13:25:34.501
58.0, -78415.48513358655, -114638.02929377907, 3883.4814886428703, 69069.7066867002, 66304.25945571178, -187500.02235174447, 46754.70849927765, 82781.76430246406, 0.06, 0.9500000000000001, 0.126, 192.0, 0.0, 0.0, 0.0, 0.0, 0.0, 0.0, 0.0, 0.0, 0.0, 1.6665567345010748E9, 0.0, 2022-10-23 13:25:34.501
59.0, -78453.75132009403, -114675.89314888635, 3921.2559367723393, 69074.40055303581, 66347.97946786636, -187500.02235174447, 46884.013340951606, 83044.352596325, 0.06, 0.9500000000000001, 0.126, 192.0, 0.0, 0.0, 0.0, 0.0, 0.0, 0.0, 0.0, 0.0, 0.0, 1.666556734501083E9, 0.0, 2022-10-23 13:25:34.501
60.0, -78501.60640497284, -114720.35076860795, 5821.131863728984, 69074.95934664719, 66811.04055774696, -187500.02235174447, 48064.207799936274, 84263.39438717299, 0.06, 0.9500000000000001, 0.126, 192.0, 0.0, 0.0, 0.0, 0.0, 0.0, 0.0, 0.0, 0.0, 0.0, 1.6665567345010908E9, 0.0, 2022-10-23 13:25:34.501
61.0, -78446.2187822126, -114666.88539587086, 6125.920251121552, 69029.048863536, 66828.76549110001, -187500.02235174447, 48098.76359686418, 84130.44621115283, 0.06, 0.9500000000000001, 0.126, 192.0, 0.0, 0.0, 0.0, 0.0, 0.0, 0.0, 0.0, 0.0, 0.0, 1.6665567345010998E9, 0.0, 2022-10-23 13:25:34.501
62.0, -78415.97687196457, -114633.31307569898, 4020.4753304094475, 69068.58909947742, 66306.98636853533, -187500.02235174447, 46786.44797640419, 82809.90514873328, 0.06, 0.9500000000000001, 0.126, 192.0, 0.0, 0.0, 0.0, 0.0, 0.0, 0.0, 0.0, 0.0, 0.0, 1.6665567345011077E9, 0.0, 2022-10-23 13:25:34.501
63.0, -78461.44032018665, -114674.03795409655, 3798.3213422681506, 69076.43456178124, 66317.22346749586, -187500.02235174447, 46767.963083739654, 82930.40340309184, 0.06, 0.9500000000000001, 0.126, 192.0, 0.0, 0.0, 0.0, 0.0, 0.0, 0.0, 0.0, 0.0, 0.0, 1.666556734501116E9, 0.0, 2022-10-23 13:25:34.501
64.0, -78512.71522196713, -114722.8765157314, 5435.519568386027, 69077.1051141149, 66743.44888251412, -187500.02235174447, 47822.965422030145, 84044.95078861127, 0.06, 0.9500000000000001, 0.126, 192.0, 0.0, 0.0, 0.0, 0.0, 0.0, 0.0, 0.0, 0.0, 0.0, 1.6665567345011325E9, 0.0, 2022-10-23 13:25:34.501
65.0, -78468.41406445671, -114681.6151954669, 6440.297536885445, 69025.47258442314, 66938.55725986448, -187500.02235174447, 48304.71257027538, 84371.68858905895, 0.06, 0.9500000000000001, 0.126, 192.0, 0.0, 0.0, 0.0, 0.0, 0.0, 0.0, 0.0, 0.0, 0.0, 1.6665567345011404E9, 0.0, 2022-10-23 13:25:34.501
66.0, -78405.82917998185, -114620.304360426, 4321.486272989067, 69062.30825928549, 66396.66156729002, -187500.02235174447, 46945.12301029242, 82948.9777027342, 0.054, 0.9500000000000001, 0.136, 192.0, 1.0, 176.0, 29.0, 176.0, 4.0, 64.0, 0.0, 0.0, 0.0, 1.6665567345011482E9, 0.0, 2022-10-23 13:25:34.501
67.0, -78445.65998860121, -114658.59289867795, 3755.0707167471314, 69074.98169839164, 66307.14283074651, -187500.02235174447, 46702.65128644124, 82840.61644561487, 0.054, 0.9500000000000001, 0.136, 192.0, 0.0, 0.0, 0.0, 0.0, 0.0, 0.0, 0.0, 0.0, 0.0, 1.6665567345011568E9, 0.0, 2022-10-23 13:25:34.501
68.0, -78495.99611711457, -114706.17976262329, 5023.956897730458, 69087.81159970899, 66638.35098008526, -187500.02235174447, 47550.20708444203, 83774.18175627968, 0.054, 0.9500000000000001, 0.136, 192.0, 0.0, 0.0, 0.0, 0.0, 0.0, 0.0, 0.0, 0.0, 0.0, 1.6665567345011644E9, 0.0, 2022-10-23 13:25:34.501
69.0, -78486.04959083196, -114703.2740358441, 6592.512916626087, 69041.72230264214, 66982.72430690817, -187500.02235174447, 48403.283763323285, 84510.2470529374, 0.054, 0.9500000000000001, 0.136, 192.0, 0.0, 0.0, 0.0, 0.0, 0.0, 0.0, 0.0, 0.0, 0.0, 1.6665567345011723E9, 0.0, 2022-10-23 13:25:34.501
70.0, -78411.32770911786, -114628.93213378575, 4666.798373079107, 69045.52209919954, 66469.0365158363, -187500.02235174447, 47123.26641360121, 83120.12501002848, 0.054, 0.9500000000000001, 0.136, 192.0, 0.0, 0.0, 0.0, 0.0, 0.0, 0.0, 0.0, 0.0, 0.0, 1.6665567345011816E9, 0.0, 2022-10-23 13:25:34.501
71.0, -78430.68431981615, -114642.74551185913, 3725.789931510679, 69081.91073917279, 66280.41014437797, -187500.02235174447, 46639.37349788827, 82764.26288655555, 0.054, 0.9500000000000001, 0.136, 192.0, 0.0, 0.0, 0.0, 0.0, 0.0, 0.0, 0.0, 0.0, 0.0, 1.6665567345011892E9, 0.0, 2022-10-23 13:25:34.501
72.0, -78473.66672440371, -114686.37611703589, 4618.429198077822, 69096.48407655765, 66517.56215304877, -187500.02235174447, 47267.323406615666, 83504.32914547077, 0.054, 0.9500000000000001, 0.136, 192.0, 0.0, 0.0, 0.0, 0.0, 0.0, 0.0, 0.0, 0.0, 0.0, 1.666556734501197E9, 0.0, 2022-10-23 13:25:34.501
73.0, -78493.58212871339, -114709.73368999168, 6558.739430754117, 69051.11003531338, 66964.79820785501, -187500.02235174447, 48382.36253051311, 84546.5015824439, 0.054, 0.9500000000000001, 0.136, 192.0, 0.0, 0.0, 0.0, 0.0, 0.0, 0.0, 0.0, 0.0, 0.0, 1.6665567345012047E9, 0.0, 2022-10-23 13:25:34.501
74.0, -78422.01184296749, -114643.21489849269, 5062.804229593781, 69018.25297096408, 66558.28703144635, -187500.02235174447, 47340.95005285145, 83347.73282381688, 0.054, 0.9500000000000001, 0.136, 192.0, 0.0, 0.0, 0.0, 0.0, 0.0, 0.0, 0.0, 0.0, 0.0, 1.6665567345012126E9, 0.0, 2022-10-23 13:25:34.501
75.0, -78442.4636891441, -114661.47627371267, 3735.5799955821035, 69062.44236975221, 66261.50056856878, -187500.02235174447, 46595.564078755866, 82700.8733392803, 0.056, 0.9520000000000001, 0.13, 192.0, 1.0, 192.0, 29.0, 192.0, 4.0, 16.0, 0.0, 0.0, 0.0, 1.6665567345012205E9, 0.0, 2022-10-23 13:25:34.501
76.0, -78475.54427093796, -114689.326547304, 4287.601028394822, 69081.17313160577, 66423.26014319183, -187500.02235174447, 47031.087819467524, 83260.98570358583, 0.056, 0.9520000000000001, 0.13, 192.0, 0.0, 0.0, 0.0, 0.0, 0.0, 0.0, 0.0, 0.0, 0.0, 1.6665567345012288E9, 0.0, 2022-10-23 13:25:34.501
77.0, -78505.2273875746, -114719.90373371885, 6392.576562473365, 69058.91079412829, 66932.20936443917, -187500.02235174447, 48288.70872124538, 84486.6436107926, 0.056, 0.9520000000000001, 0.13, 192.0, 0.0, 0.0, 0.0, 0.0, 0.0, 0.0, 0.0, 0.0, 0.0, 1.6665567345012367E9, 0.0, 2022-10-23 13:25:34.501
78.0, -78432.24894192803, -114653.20612826421, 5488.224981811641, 69011.92742728323, 66656.2323756495, -187500.02235174447, 47588.85325060526, 83612.17631246762, 0.056, 0.9520000000000001, 0.13, 192.0, 0.0, 0.0, 0.0, 0.0, 0.0, 0.0, 0.0, 0.0, 0.0, 1.6665567345012443E9, 0.0, 2022-10-23 13:25:34.501
79.0, -78418.39086036573, -114634.47536641067, 3826.953926915399, 69057.99437260561, 66291.22838869433, -187500.02235174447, 46623.950794214106, 82705.76837131601, 0.056, 0.9520000000000001, 0.13, 192.0, 0.0, 0.0, 0.0, 0.0, 0.0, 0.0, 0.0, 0.0, 0.0, 1.666556734501252E9, 0.0, 2022-10-23 13:25:34.501
80.0, -78448.27514270248, -114657.1176835439, 4071.9513978900195, 69070.71251520068, 66389.79958174223, -187500.02235174447, 46881.0182071946, 83092.07357073708, 0.056, 0.9520000000000001, 0.13, 192.0, 0.0, 0.0, 0.0, 0.0, 0.0, 0.0, 0.0, 0.0, 0.0, 1.6665567345012677E9, 0.0, 2022-10-23 13:25:34.501
81.0, -78501.04761136146, -114718.29440811806, 6110.184623025015, 69066.26451805407, 66886.81297145045, -187500.02235174447, 48128.29025128964, 84350.32032135967, 0.056, 0.9520000000000001, 0.13, 192.0, 0.0, 0.0, 0.0, 0.0, 0.0, 0.0, 0.0, 0.0, 0.0, 1.6665567345012753E9, 0.0, 2022-10-23 13:25:34.501
82.0, -78443.96125602261, -114669.32173601649, 5898.312437333159, 69014.90020929578, 66768.97457468207, -187500.02235174447, 47842.254977495075, 83887.05806577898, 0.056, 0.9520000000000001, 0.13, 192.0, 0.0, 0.0, 0.0, 0.0, 0.0, 0.0, 0.0, 0.0, 0.0, 1.6665567345012834E9, 0.0, 2022-10-23 13:25:34.501
83.0, -78423.42000286818, -114651.19447126324, 3920.58538443868, 69054.46279698168, 66298.76092657578, -187500.02235174447, 46643.97795724606, 82708.62939460628, 0.056, 0.9520000000000001, 0.13, 192.0, 0.0, 0.0, 0.0, 0.0, 0.0, 0.0, 0.0, 0.0, 0.0, 1.6665567345012913E9, 0.0, 2022-10-23 13:25:34.501
84.0, -78461.68618937567, -114688.9689193927, 3864.6389680670463, 69069.90785240028, 66326.74531063382, -187500.02235174447, 46723.3266500624, 82925.79894373404, 0.056, 0.9520000000000001, 0.13, 192.0, 0.0, 0.0, 0.0, 0.0, 0.0, 0.0, 0.0, 0.0, 0.0, 1.6665567345012991E9, 0.0, 2022-10-23 13:25:34.501
85.0, -78502.05343986195, -114727.078643689, 5696.118556990452, 69084.97292816317, 66793.0697552049, -187500.02235174447, 47883.56100124848, 84132.30140594262, 0.046, 0.9480000000000001, 0.134, 192.0, 1.0, 112.0, 29.0, 160.0, 4.0, 48.0, 0.0, 0.0, 0.0, 1.666556734501307E9, 0.0, 2022-10-23 13:25:34.501
86.0, -78448.99039852506, -114680.45290475524, 6230.012325049916, 69029.13827051381, 66864.9306136287, -187500.02235174447, 48065.16892494785, 84153.22263875278, 0.046, 0.9480000000000001, 0.134, 192.0, 0.0, 0.0, 0.0, 0.0, 0.0, 0.0, 0.0, 0.0, 0.0, 1.6665567345013156E9, 0.0, 2022-10-23 13:25:34.501
87.0, -78412.13237191825, -114645.33831421594, 4089.698682987533, 69054.61925919286, 66330.76862463578, -187500.02235174447, 46723.01372564003, 82781.00434315257, 0.046, 0.9480000000000001, 0.134, 192.0, 0.0, 0.0, 0.0, 0.0, 0.0, 0.0, 0.0, 0.0, 0.0, 1.6665567345013275E9, 0.0, 2022-10-23 13:25:34.501
88.0, -78451.69495960414, -114683.7162594457, 3711.3507045925508, 69072.43359952373, 66277.48206585432, -187500.02235174447, 46601.75551196999, 82803.2443288856, 0.046, 0.9480000000000001, 0.134, 192.0, 0.0, 0.0, 0.0, 0.0, 0.0, 0.0, 0.0, 0.0, 0.0, 1.666556734501336E9, 0.0, 2022-10-23 13:25:34.501
89.0, -78499.46063750514, -114729.53733557908, 5222.172167560121, 69081.3519455614, 66676.34894565928, -187500.02235174447, 47594.06120706334, 83867.16501321376, 0.046, 0.9480000000000001, 0.134, 192.0, 0.0, 0.0, 0.0, 0.0, 0.0, 0.0, 0.0, 0.0, 0.0, 1.6665567345013442E9, 0.0, 2022-10-23 13:25:34.501
90.0, -78471.4762534471, -114701.97763466569, 6435.827187994384, 69030.5464304145, 66941.26182094358, -187500.02235174447, 48222.838130335585, 84350.47678357086, 0.046, 0.9480000000000001, 0.134, 192.0, 0.0, 0.0, 0.0, 0.0, 0.0, 0.0, 0.0, 0.0, 0.0, 1.666556734501352E9, 0.0, 2022-10-23 13:25:34.501
91.0, -78399.23541536754, -114626.76401457358, 4359.327776351903, 69052.00410509159, 66413.98416924289, -187500.02235174447, 46886.874364241885, 82932.01272869263, 0.046, 0.9480000000000001, 0.134, 192.0, 0.0, 0.0, 0.0, 0.0, 0.0, 0.0, 0.0, 0.0, 0.0, 1.66655673450136E9, 0.0, 2022-10-23 13:25:34.501
92.0, -78431.3101686609, -114657.74353238865, 3630.951479786811, 69080.41317229428, 66266.46265583785, -187500.02235174447, 46543.01512754144, 82728.09776402685, 0.046, 0.9480000000000001, 0.134, 192.0, 0.0, 0.0, 0.0, 0.0, 0.0, 0.0, 0.0, 0.0, 0.0, 1.6665567345013688E9, 0.0, 2022-10-23 13:25:34.501
93.0, -78490.58699495638, -114714.31579760503, 4787.877772793505, 69079.2061780937, 66594.87683711968, -187500.02235174447, 47344.19105579747, 83622.8827980617, 0.046, 0.9480000000000001, 0.134, 192.0, 0.0, 0.0, 0.0, 0.0, 0.0, 0.0, 0.0, 0.0, 0.0, 1.6665567345013769E9, 0.0, 2022-10-23 13:25:34.501
94.0, -78505.71912595262, -114728.28563788958, 6522.037866358503, 69021.29280821, 67007.53474325356, -187500.02235174447, 48324.002125740306, 84490.06342769426, 0.046, 0.9480000000000001, 0.134, 192.0, 0.0, 0.0, 0.0, 0.0, 0.0, 0.0, 0.0, 0.0, 0.0, 1.6665567345013847E9, 0.0, 2022-10-23 13:25:34.501
95.0, -78407.72907826056, -114642.58904964794, 4728.802112198128, 69022.07511926594, 66542.88667951664, -187500.02235174447, 47125.121608391004, 83157.09479535757, 0.046, 0.9460000000000001, 0.132, 192.0, 1.0, 112.0, 29.0, 144.0, 4.0, 32.0, 0.0, 0.0, 0.0, 1.6665567345014005E9, 0.0, 2022-10-23 13:25:34.501
96.0, -78421.49775284503, -114654.56958467599, 3638.3275554570623, 69065.66102095378, 66303.18657197793, -187500.02235174447, 46542.18811299659, 82692.93846999865, 0.046, 0.9460000000000001, 0.132, 192.0, 0.0, 0.0, 0.0, 0.0, 0.0, 0.0, 0.0, 0.0, 0.0, 1.6665567345014095E9, 0.0, 2022-10-23 13:25:34.501
97.0, -78470.89510809125, -114694.35568980643, 4415.274192723536, 69081.26253858359, 66520.6019902947, -187500.02235174447, 47115.89033793096, 83384.72496089041, 0.046, 0.9460000000000001, 0.132, 192.0, 0.0, 0.0, 0.0, 0.0, 0.0, 0.0, 0.0, 0.0, 0.0, 1.6665567345014176E9, 0.0, 2022-10-23 13:25:34.501
98.0, -78508.82601843191, -114730.36435012393, 6404.959428901605, 69021.24810472109, 66972.17428352527, -187500.02235174447, 48272.72722395983, 84480.00514268938, 0.046, 0.9460000000000001, 0.132, 192.0, 0.0, 0.0, 0.0, 0.0, 0.0, 0.0, 0.0, 0.0, 0.0, 1.6665567345014255E9, 0.0, 2022-10-23 13:25:34.501
99.0, -78420.00018596652, -114645.42772119376, 5071.677872142538, 69005.51247662456, 66594.1168778082, -187500.02235174447, 47325.66145964402, 83374.28669622978, 0.046, 0.9460000000000001, 0.132, 192.0, 0.0, 0.0, 0.0, 0.0, 0.0, 0.0, 0.0, 0.0, 0.0, 1.6665567345014338E9, 0.0, 2022-10-23 13:25:34.501
100.0, -78433.32182566189, -114656.84946261042, 3619.3509244145066, 69053.21109929218, 66265.85915873757, -187500.02235174447, 46502.75963577743, 82643.47405951907, 0.046, 0.9460000000000001, 0.132, 192.0, 0.0, 0.0, 0.0, 0.0, 0.0, 0.0, 0.0, 0.0, 0.0, 1.6665567345014417E9, 0.0, 2022-10-23 13:25:34.501
101.0, -78478.2264802726, -114698.40135555284, 4084.513078273902, 69061.99533486311, 66424.7800618148, -187500.02235174447, 46899.05606497003, 83166.88485942899, 0.046, 0.9460000000000001, 0.132, 192.0, 0.0, 0.0, 0.0, 0.0, 0.0, 0.0, 0.0, 0.0, 0.0, 1.6665567345014496E9, 0.0, 2022-10-23 13:25:34.501
102.0, -78495.79495141447, -114718.56262905154, 6204.12900497067, 69054.46279698168, 66951.52127164857, -187500.02235174447, 48189.60108633055, 84436.10631657914, 0.046, 0.9460000000000001, 0.132, 192.0, 0.0, 0.0, 0.0, 0.0, 0.0, 0.0, 0.0, 0.0, 0.0, 1.6665567345014577E9, 0.0, 2022-10-23 13:25:34.501
103.0, -78423.33059589037, -114648.73577937315, 5497.232734827129, 69005.98186325812, 66708.98249256403, -187500.02235174447, 47605.77352115793, 83676.19170858762, 0.046, 0.9460000000000001, 0.132, 192.0, 0.0, 0.0, 0.0, 0.0, 0.0, 0.0, 0.0, 0.0, 0.0, 1.666556734501465E9, 0.0, 2022-10-23 13:25:34.501
104.0, -78414.4122498527, -114639.057474024, 3707.796777224157, 69049.92539285724, 66289.61906309356, -187500.02235174447, 46548.737174122, 82667.88216446426, 0.054, 0.9440000000000001, 0.13, 192.0, 1.0, 176.0, 29.0, 128.0, 4.0, 16.0, 0.0, 0.0, 0.0, 1.6665567345014737E9, 0.0, 2022-10-23 13:25:34.501
105.0, -78459.9204015637, -114679.69294544375, 3845.6176335355804, 69060.07308483995, 66354.90850864751, -187500.02235174447, 46743.48792356109, 82999.35853473647, 0.054, 0.9440000000000001, 0.13, 192.0, 0.0, 0.0, 0.0, 0.0, 0.0, 0.0, 0.0, 0.0, 0.0, 1.6665567345014825E9, 0.0, 2022-10-23 13:25:34.501
106.0, -78506.14380909727, -114725.35755936595, 5839.929680815898, 69058.70962842819, 66854.24647977906, -187500.02235174447, 47985.37319724241, 84262.32150343913, 0.054, 0.9440000000000001, 0.13, 192.0, 0.0, 0.0, 0.0, 0.0, 0.0, 0.0, 0.0, 0.0, 0.0, 1.66655673450149E9, 0.0, 2022-10-23 13:25:34.501
107.0, -78444.81062231191, -114669.1652738053, 5911.3882078395145, 68998.11404920985, 66828.6760841222, -187500.02235174447, 47887.494908272616, 83983.99758148166, 0.054, 0.9440000000000001, 0.13, 192.0, 0.0, 0.0, 0.0, 0.0, 0.0, 0.0, 0.0, 0.0, 0.0, 1.6665567345014982E9, 0.0, 2022-10-23 13:25:34.501
108.0, -78411.9088544737, -114636.41996817828, 3920.8759571165992, 69043.42103522074, 66380.1212763931, -187500.02235174447, 46681.23831525306, 82770.05198836947, 0.054, 0.9440000000000001, 0.13, 192.0, 0.0, 0.0, 0.0, 0.0, 0.0, 0.0, 0.0, 0.0, 0.0, 1.666556734501506E9, 0.0, 2022-10-23 13:25:34.501
109.0, -78445.83880255686, -114668.45001798273, 3775.813135601656, 69064.4987302421, 66384.9716049399, -187500.02235174447, 46706.093455087364, 82923.87669371089, 0.054, 0.9440000000000001, 0.13, 192.0, 0.0, 0.0, 0.0, 0.0, 0.0, 0.0, 0.0, 0.0, 0.0, 1.666556734501514E9, 0.0, 2022-10-23 13:25:34.501
110.0, -78506.61319573084, -114728.48680358968, 5492.762385936068, 69056.4968057271, 66805.56438035541, -187500.02235174447, 47800.658381063746, 84065.55909699907, 0.054, 0.9440000000000001, 0.13, 192.0, 0.0, 0.0, 0.0, 0.0, 0.0, 0.0, 0.0, 0.0, 0.0, 1.6665567345015218E9, 0.0, 2022-10-23 13:25:34.501
111.0, -78465.44128244415, -114691.96405314971, 6249.391287492667, 68997.95758699866, 66923.11220444586, -187500.02235174447, 48122.83642564254, 84225.77640125471, 0.054, 0.9440000000000001, 0.13, 192.0, 0.0, 0.0, 0.0, 0.0, 0.0, 0.0, 0.0, 0.0, 0.0, 1.6665567345015373E9, 0.0, 2022-10-23 13:25:34.501
112.0, -78405.02451718146, -114626.47344189567, 4108.898831474642, 69031.08287228142, 66379.7636484818, -187500.02235174447, 46765.05735696046, 82824.41143088478, 0.054, 0.9440000000000001, 0.13, 192.0, 0.0, 0.0, 0.0, 0.0, 0.0, 0.0, 0.0, 0.0, 0.0, 1.666556734501546E9, 0.0, 2022-10-23 13:25:34.501
113.0, -78442.57544786637, -114666.75128540413, 3639.534549657649, 69048.91956435675, 66303.4994964003, -187500.02235174447, 46583.6953024501, 82782.3901513088, 0.054, 0.9440000000000001, 0.13, 192.0, 0.0, 0.0, 0.0, 0.0, 0.0, 0.0, 0.0, 0.0, 0.0, 1.666556734501555E9, 0.0, 2022-10-23 13:25:34.501
114.0, -78492.17396881271, -114712.95234119325, 5040.8324647942145, 69058.3520005169, 66674.27023342493, -187500.02235174447, 47515.74069449195, 83790.8785093878, 0.048, 0.9500000000000001, 0.128, 192.0, 1.0, 128.0, 29.0, 176.0, 4.0, 0.0, 0.0, 0.0, 0.0, 1.6665567345015628E9, 0.0, 2022-10-23 13:25:34.501
115.0, -78475.43251221569, -114697.10495437443, 6457.977766749593, 69006.18302895821, 66996.1130018369, -187500.02235174447, 48280.95266591939, 84421.22005477191, 0.048, 0.9500000000000001, 0.128, 192.0, 0.0, 0.0, 0.0, 0.0, 0.0, 0.0, 0.0, 0.0, 0.0, 1.6665567345015712E9, 0.0, 2022-10-23 13:25:34.501
116.0, -78420.73779353354, -114648.9592968177, 4459.709460700687, 69013.64851160628, 66484.74979218839, -187500.02235174447, 46977.130708352415, 83011.78610465361, 0.048, 0.9500000000000001, 0.128, 192.0, 0.0, 0.0, 0.0, 0.0, 0.0, 0.0, 0.0, 0.0, 0.0, 1.666556734501579E9, 0.0, 2022-10-23 13:25:34.501
117.0, -78439.513258876, -114663.86791036939, 3621.563747115582, 69053.7475411591, 66304.12534524505, -187500.02235174447, 46559.6895289051, 82723.91798781372, 0.048, 0.9500000000000001, 0.128, 192.0, 0.0, 0.0, 0.0, 0.0, 0.0, 0.0, 0.0, 0.0, 0.0, 1.666556734501587E9, 0.0, 2022-10-23 13:25:34.501
118.0, -78482.20509078563, -114701.95528292123, 4653.834361295028, 69067.06918085447, 66591.05468881782, -187500.02235174447, 47285.80829928021, 83549.79259369285, 0.048, 0.9500000000000001, 0.128, 192.0, 0.0, 0.0, 0.0, 0.0, 0.0, 0.0, 0.0, 0.0, 0.0, 1.6665567345015948E9, 0.0, 2022-10-23 13:25:34.501
119.0, -78485.91548036522, -114707.83379171298, 6465.107973230836, 69024.15383150028, 66992.3132052795, -187500.02235174447, 48313.653268057504, 84486.8894799816, 0.048, 0.9500000000000001, 0.128, 192.0, 0.0, 0.0, 0.0, 0.0, 0.0, 0.0, 0.0, 0.0, 0.0, 1.666556734501603E9, 0.0, 2022-10-23 13:25:34.501
120.0, -78412.57940680736, -114632.64252336533, 4803.702807867862, 69008.66407259274, 66554.4648831445, -187500.02235174447, 47186.1865742429, 83217.51156062026, 0.048, 0.9500000000000001, 0.128, 192.0, 0.0, 0.0, 0.0, 0.0, 0.0, 0.0, 0.0, 0.0, 0.0, 1.6665567345016105E9, 0.0, 2022-10-23 13:25:34.501
121.0, -78429.09734595983, -114645.65123863831, 3615.014685990177, 69050.77475914654, 66310.18266799244, -187500.02235174447, 46545.563226409344, 82684.33304838337, 0.048, 0.9500000000000001, 0.128, 192.0, 0.0, 0.0, 0.0, 0.0, 0.0, 0.0, 0.0, 0.0, 0.0, 1.6665567349798648E9, 0.0, 2022-10-23 13:25:34.979
122.0, -78466.40240745574, -114685.88437865787, 4288.092766772838, 69075.71930595867, 66515.7516617479, -187500.02235174447, 47064.4589739393, 83319.68138452547, 0.048, 0.9500000000000001, 0.128, 192.0, 0.0, 0.0, 0.0, 0.0, 0.0, 0.0, 0.0, 0.0, 0.0, 1.666556734979961E9, 0.0, 2022-10-23 13:25:34.979
123.0, -78487.43539898818, -114714.51696330513, 6325.5660325963545, 69052.0935120694, 66987.57463545498, -187500.02235174447, 48271.60963673707, 84478.95461069998, 0.048, 0.9500000000000001, 0.128, 192.0, 0.0, 0.0, 0.0, 0.0, 0.0, 0.0, 0.0, 0.0, 0.0, 1.6665567349799707E9, 0.0, 2022-10-23 13:25:34.979
124.0, -78412.53470331845, -114640.89031706934, 5189.31510321082, 69006.67476733623, 66663.49669259747, -187500.02235174447, 47441.24233022241, 83477.93173526904, 0.052000000000000005, 0.9580000000000001, 0.132, 192.0, 1.0, 160.0, 29.0, 240.0, 4.0, 32.0, 0.0, 0.0, 0.0, 1.6665567349799793E9, 0.0, 2022-10-23 13:25:34.979
125.0, -78418.72613653257, -114645.94181131624, 3573.641607003404, 69049.88068936834, 66271.87177799604, -187500.02235174447, 46503.76546427792, 82620.94350110812, 0.052000000000000005, 0.9580000000000001, 0.132, 192.0, 0.0, 0.0, 0.0, 0.0, 0.0, 0.0, 0.0, 0.0, 0.0, 1.6665567349799898E9, 0.0, 2022-10-23 13:25:34.979
126.0, -78453.43839567166, -114677.92715763178, 3914.550413435747, 69072.70182045721, 66399.81316325822, -187500.02235174447, 46836.91821538427, 83083.24463167723, 0.052000000000000005, 0.9580000000000001, 0.132, 192.0, 0.0, 0.0, 0.0, 0.0, 0.0, 0.0, 0.0, 0.0, 0.0, 1.6665567349801028E9, 0.0, 2022-10-23 13:25:34.980
127.0, -78495.86200664783, -114721.64716978636, 6002.76213917281, 69055.73684641563, 66922.37459687884, -187500.02235174447, 48127.28442278915, 84368.08995820164, 0.052000000000000005, 0.9580000000000001, 0.132, 192.0, 0.0, 0.0, 0.0, 0.0, 0.0, 0.0, 0.0, 0.0, 0.0, 1.6665567349801116E9, 0.0, 2022-10-23 13:25:34.980
128.0, -78431.24311342754, -114661.9680120907, 5535.275403890062, 68994.783639286, 66743.29242030293, -187500.02235174447, 47693.61587686728, 83751.15945949072, 0.052000000000000005, 0.9580000000000001, 0.132, 192.0, 0.0, 0.0, 0.0, 0.0, 0.0, 0.0, 0.0, 0.0, 0.0, 1.6665567349801195E9, 0.0, 2022-10-23 13:25:34.980
129.0, -78416.02157545347, -114642.14201475884, 3651.0680497965873, 69036.22377350614, 66307.00872027979, -187500.02235174447, 46572.05004358888, 82662.8083184729, 0.052000000000000005, 0.9580000000000001, 0.132, 192.0, 0.0, 0.0, 0.0, 0.0, 0.0, 0.0, 0.0, 0.0, 0.0, 1.6665567349801283E9, 0.0, 2022-10-23 13:25:34.980
130.0, -78452.45491891562, -114674.2167680522, 3683.5227827456933, 69050.77475914654, 66350.32640103417, -187500.02235174447, 46708.23922255507, 82937.80183050655, 0.052000000000000005, 0.9580000000000001, 0.132, 192.0, 0.0, 0.0, 0.0, 0.0, 0.0, 0.0, 0.0, 0.0, 0.0, 1.6665567349801364E9, 0.0, 2022-10-23 13:25:34.980
131.0, -78488.19535829966, -114708.41493706882, 5583.219895746696, 69065.2586895536, 66821.67998810769, -187500.02235174447, 47908.01380968259, 84173.87565062949, 0.052000000000000005, 0.9580000000000001, 0.132, 192.0, 0.0, 0.0, 0.0, 0.0, 0.0, 0.0, 0.0, 0.0, 0.0, 1.6665567349801445E9, 0.0, 2022-10-23 13:25:34.980
132.0, -78435.1099652183, -114659.79989287852, 5884.700224959877, 69001.98090100061, 66853.82179663441, -187500.02235174447, 47957.455868417725, 84045.59898920047, 0.052000000000000005, 0.9580000000000001, 0.132, 192.0, 0.0, 0.0, 0.0, 0.0, 0.0, 0.0, 0.0, 0.0, 0.0, 1.6665567349801524E9, 0.0, 2022-10-23 13:25:34.980
133.0, -78396.32968858835, -114620.19260170372, 3779.4788216923266, 69039.75534913008, 66332.71322640339, -187500.02235174447, 46652.695137583636, 82727.00252854855, 0.052000000000000005, 0.9580000000000001, 0.132, 192.0, 0.0, 0.0, 0.0, 0.0, 0.0, 0.0, 0.0, 0.0, 0.0, 1.6665567349801602E9, 0.0, 2022-10-23 13:25:34.980
134.0, -78418.21204641009, -114637.87283156787, 3514.9459260637673, 69065.43750350922, 66305.399394679, -187500.02235174447, 46607.589317272825, 82828.47944837564, 0.064, 0.962, 0.136, 192.0, 2.0, 0.0, 30.0, 16.0, 4.0, 64.0, 0.0, 0.0, 0.0, 1.6665567349801729E9, 0.0, 2022-10-23 13:25:34.980
135.0, -78468.01173305651, -114693.01458513911, 5143.82930324427, 69077.32863155945, 66730.82014689686, -187500.02235174447, 47671.5547050899, 83953.33098808897, 0.064, 0.962, 0.136, 192.0, 0.0, 0.0, 0.0, 0.0, 0.0, 0.0, 0.0, 0.0, 0.0, 1.666556734980182E9, 0.0, 2022-10-23 13:25:34.980
136.0, -78443.8718490448, -114674.59674770794, 6143.935757152529, 69008.66407259274, 66932.45523362819, -187500.02235174447, 48161.8178679726, 84285.43320720592, 0.064, 0.962, 0.136, 192.0, 0.0, 0.0, 0.0, 0.0, 0.0, 0.0, 0.0, 0.0, 0.0, 1.66655673498019E9, 0.0, 2022-10-23 13:25:34.980
137.0, -78388.23835709553, -114620.2596569371, 4024.4762926669473, 69028.02068329105, 66391.58772129867, -187500.02235174447, 46804.61994464636, 82862.74467262563, 0.064, 0.962, 0.136, 192.0, 0.0, 0.0, 0.0, 0.0, 0.0, 0.0, 0.0, 0.0, 0.0, 1.6665567349801977E9, 0.0, 2022-10-23 13:25:34.980
138.0, -78436.9651600081, -114664.96314584771, 3432.646802979327, 69040.49295669711, 66277.72793504334, -187500.02235174447, 46545.518522920436, 82739.1842292767, 0.064, 0.962, 0.136, 192.0, 0.0, 0.0, 0.0, 0.0, 0.0, 0.0, 0.0, 0.0, 0.0, 1.666556734980206E9, 0.0, 2022-10-23 13:25:34.980
139.0, -78491.10108507884, -114716.79684123956, 4691.251181513212, 69042.52696544254, 66594.45215397503, -187500.02235174447, 47388.335751096696, 83669.57559222885, 0.064, 0.962, 0.136, 192.0, 0.0, 0.0, 0.0, 0.0, 0.0, 0.0, 0.0, 0.0, 0.0, 1.666556734980214E9, 0.0, 2022-10-23 13:25:34.980
140.0, -78479.0758465619, -114711.36536733693, 6253.61576719472, 68998.3375666544, 66938.02081799756, -187500.02235174447, 48244.96635734634, 84403.78569409678, 0.064, 0.962, 0.136, 192.0, 0.0, 0.0, 0.0, 0.0, 0.0, 0.0, 0.0, 0.0, 0.0, 1.6665567349802225E9, 0.0, 2022-10-23 13:25:34.980
141.0, -78407.37145034927, -114641.22559323617, 4353.091639648872, 69004.0372614905, 66448.56231791525, -187500.02235174447, 46985.46790903425, 83027.40997402788, 0.064, 0.962, 0.136, 192.0, 0.0, 0.0, 0.0, 0.0, 0.0, 0.0, 0.0, 0.0, 0.0, 1.6665567349802427E9, 0.0, 2022-10-23 13:25:34.980
142.0, -78437.68041583066, -114667.01950633759, 3447.845989208936, 69040.69412239721, 66284.36640314656, -187500.02235174447, 46528.71001109004, 82689.38454263027, 0.064, 0.962, 0.136, 192.0, 0.0, 0.0, 0.0, 0.0, 0.0, 0.0, 0.0, 0.0, 0.0, 1.6665567349802506E9, 0.0, 2022-10-23 13:25:34.980
143.0, -78486.96601235462, -114716.17099239481, 4383.087680707894, 69045.65620966628, 66555.29189768934, -187500.02235174447, 47198.81530986015, 83453.05424369029, 0.08, 0.9520000000000001, 0.132, 192.0, 2.0, 128.0, 29.0, 192.0, 4.0, 32.0, 0.0, 0.0, 0.0, 1.6665567349802587E9, 0.0, 2022-10-23 13:25:34.980
144.0, -78484.95435535364, -114718.0261871846, 6318.324067392835, 69019.2364477201, 66997.31999603749, -187500.02235174447, 48312.75919827929, 84485.34720961419, 0.08, 0.9520000000000001, 0.132, 192.0, 0.0, 0.0, 0.0, 0.0, 0.0, 0.0, 0.0, 0.0, 0.0, 1.6665567349802673E9, 0.0, 2022-10-23 13:25:34.980
145.0, -78395.59208102133, -114634.29655245502, 4806.809700347149, 69005.49012488009, 66574.1120665207, -187500.02235174447, 47248.3020720842, 83274.5532124702, 0.08, 0.9520000000000001, 0.132, 192.0, 0.0, 0.0, 0.0, 0.0, 0.0, 0.0, 0.0, 0.0, 0.0, 1.6665567349802752E9, 0.0, 2022-10-23 13:25:34.980
146.0, -78411.19359865112, -114648.66872413979, 3507.12281550441, 69051.93704985823, 66293.68708058442, -187500.02235174447, 46517.7800080514, 82643.96579789708, 0.08, 0.9520000000000001, 0.132, 192.0, 0.0, 0.0, 0.0, 0.0, 0.0, 0.0, 0.0, 0.0, 0.0, 1.6665567349802833E9, 0.0, 2022-10-23 13:25:34.980
147.0, -78451.11381424831, -114685.05736411302, 4076.578208992268, 69071.71834370117, 66462.39804773308, -187500.02235174447, 46961.395080255876, 83209.19671168289, 0.08, 0.9520000000000001, 0.132, 192.0, 0.0, 0.0, 0.0, 0.0, 0.0, 0.0, 0.0, 0.0, 0.0, 1.666556734980292E9, 0.0, 2022-10-23 13:25:34.980
148.0, -78482.69682916366, -114715.54514355006, 6169.170876642571, 69048.51723295657, 66952.90707980479, -187500.02235174447, 48205.53788012718, 84421.24240651637, 0.08, 0.9520000000000001, 0.132, 192.0, 0.0, 0.0, 0.0, 0.0, 0.0, 0.0, 0.0, 0.0, 0.0, 1.6665567349803E9, 0.0, 2022-10-23 13:25:34.980
149.0, -78412.86997948527, -114649.4063317068, 5272.396537351196, 69008.57466561493, 66688.50829464296, -187500.02235174447, 47506.01768565389, 83546.19396283555, 0.08, 0.9520000000000001, 0.132, 192.0, 0.0, 0.0, 0.0, 0.0, 0.0, 0.0, 0.0, 0.0, 0.0, 1.6665567349803078E9, 0.0, 2022-10-23 13:25:34.980
150.0, -78413.4064213522, -114649.1157590289, 3597.2003456592975, 69054.84277663741, 66293.37415616204, -187500.02235174447, 46508.86166201373, 82613.63448067123, 0.08, 0.9520000000000001, 0.132, 192.0, 0.0, 0.0, 0.0, 0.0, 0.0, 0.0, 0.0, 0.0, 0.0, 1.6665567349803157E9, 0.0, 2022-10-23 13:25:34.980
151.0, -78459.20514574113, -114693.26045432812, 3890.3434741906494, 69059.13431157284, 66422.09785248016, -187500.02235174447, 46796.52861315353, 83026.56060773857, 0.08, 0.9520000000000001, 0.132, 192.0, 0.0, 0.0, 0.0, 0.0, 0.0, 0.0, 0.0, 0.0, 0.0, 1.6665567349803236E9, 0.0, 2022-10-23 13:25:34.980
152.0, -78493.35861126884, -114730.05142570156, 5978.845772605631, 69060.76598891806, 66949.8001873255, -187500.02235174447, 48082.13389898943, 84310.51186448478, 0.08, 0.9520000000000001, 0.132, 192.0, 0.0, 0.0, 0.0, 0.0, 0.0, 0.0, 0.0, 0.0, 0.0, 1.666556734980333E9, 0.0, 2022-10-23 13:25:34.980
153.0, -78428.58325583735, -114668.315907516, 5788.408909846415, 69003.05378473447, 66844.45641570764, -187500.02235174447, 47803.251183420565, 83843.02512920203, 0.07, 0.9440000000000001, 0.124, 192.0, 2.0, 48.0, 29.0, 128.0, 3.0, 224.0, 0.0, 0.0, 0.0, 1.6665567349803407E9, 0.0, 2022-10-23 13:25:34.980
154.0, -78395.92735718815, -114634.69888385522, 3806.2562115497844, 69057.7485034166, 66346.8618806436, -187500.02235174447, 46576.52039247995, 82639.98718738403, 0.07, 0.9440000000000001, 0.124, 192.0, 0.0, 0.0, 0.0, 0.0, 0.0, 0.0, 0.0, 0.0, 0.0, 1.6665567349803495E9, 0.0, 2022-10-23 13:25:34.980
155.0, -78442.262523444, -114681.14580883335, 3779.2329525033183, 69071.53952974553, 66383.74225899485, -187500.02235174447, 46664.89919005623, 82869.49489945114, 0.07, 0.9440000000000001, 0.124, 192.0, 0.0, 0.0, 0.0, 0.0, 0.0, 0.0, 0.0, 0.0, 0.0, 1.6665567349803607E9, 0.0, 2022-10-23 13:25:34.980
156.0, -78494.11857058032, -114733.56064958104, 5626.44816952326, 69076.12163735887, 66847.47390120912, -187500.02235174447, 47825.51352089805, 84069.22478308974, 0.07, 0.9440000000000001, 0.124, 192.0, 0.0, 0.0, 0.0, 0.0, 0.0, 0.0, 0.0, 0.0, 0.0, 1.6665567349803703E9, 0.0, 2022-10-23 13:25:34.980
157.0, -78445.70469209012, -114685.7726199356, 6156.698603236509, 69014.1402499843, 66913.59036130791, -187500.02235174447, 47994.6268194469, 84065.4920417657, 0.07, 0.9440000000000001, 0.124, 192.0, 0.0, 0.0, 0.0, 0.0, 0.0, 0.0, 0.0, 0.0, 0.0, 1.6665567349803874E9, 0.0, 2022-10-23 13:25:34.980
158.0, -78415.95452022011, -114659.0175818226, 4062.4295547520587, 69038.25778225157, 66400.5731225697, -187500.02235174447, 46670.509477914515, 82708.11530448381, 0.07, 0.9440000000000001, 0.124, 192.0, 0.0, 0.0, 0.0, 0.0, 0.0, 0.0, 0.0, 0.0, 0.0, 1.6665567349803953E9, 0.0, 2022-10-23 13:25:34.980
159.0, -78434.99820649603, -114677.39071576485, 3749.1922079553856, 69074.46760826917, 66380.5236077933, -187500.02235174447, 46585.997532129, 82758.92081963073, 0.07, 0.9440000000000001, 0.124, 192.0, 0.0, 0.0, 0.0, 0.0, 0.0, 0.0, 0.0, 0.0, 0.0, 1.6665567349804032E9, 0.0, 2022-10-23 13:25:34.980
160.0, -78492.93392812418, -114730.72197803522, 5310.014523269478, 69081.39664905032, 66802.01045298702, -187500.02235174447, 47602.666628678635, 83836.54312331, 0.07, 0.9440000000000001, 0.124, 192.0, 0.0, 0.0, 0.0, 0.0, 0.0, 0.0, 0.0, 0.0, 0.0, 1.6665567349804113E9, 0.0, 2022-10-23 13:25:34.980
161.0, -78475.83484361587, -114715.20986738324, 6505.274058017023, 69016.30836919646, 67038.06722617951, -187500.02235174447, 48194.607877088536, 84277.90066932449, 0.07, 0.9440000000000001, 0.124, 192.0, 0.0, 0.0, 0.0, 0.0, 0.0, 0.0, 0.0, 0.0, 0.0, 1.6665567349804187E9, 0.0, 2022-10-23 13:25:34.980
162.0, -78417.11681093178, -114659.44226496725, 4443.727963415142, 69025.83021233442, 66508.46499305547, -187500.02235174447, 46844.450753265715, 82845.3550154394, 0.07, 0.9440000000000001, 0.124, 192.0, 0.0, 0.0, 0.0, 0.0, 0.0, 0.0, 0.0, 0.0, 0.0, 1.6665567349804268E9, 0.0, 2022-10-23 13:25:34.980
163.0, -78435.42288964069, -114677.7706954206, 3761.820943572634, 69063.62701220835, 66375.20389261293, -187500.02235174447, 46511.92385100411, 82652.14653636773, 0.054, 0.9440000000000001, 0.128, 192.0, 1.0, 176.0, 29.0, 128.0, 4.0, 0.0, 0.0, 0.0, 0.0, 1.6665567349804347E9, 0.0, 2022-10-23 13:25:34.980
164.0, -78486.38486699878, -114725.51402157712, 4932.113579763602, 69079.40734379379, 66683.14387597369, -187500.02235174447, 47297.47590988588, 83534.21342780751, 0.054, 0.9440000000000001, 0.128, 192.0, 0.0, 0.0, 0.0, 0.0, 0.0, 0.0, 0.0, 0.0, 0.0, 1.6665567349804432E9, 0.0, 2022-10-23 13:25:34.980
165.0, -78484.82024488691, -114725.02228319911, 6627.605155420918, 69027.52894491302, 67047.18673791728, -187500.02235174447, 48230.035392050195, 84362.63613255456, 0.054, 0.9440000000000001, 0.128, 192.0, 0.0, 0.0, 0.0, 0.0, 0.0, 0.0, 0.0, 0.0, 0.0, 1.666556734980451E9, 0.0, 2022-10-23 13:25:34.980
166.0, -78395.7038397436, -114639.61626763539, 4832.871834382037, 69040.47060495266, 66571.65337463062, -187500.02235174447, 47018.77200827265, 83027.90171240589, 0.054, 0.9440000000000001, 0.128, 192.0, 0.0, 0.0, 0.0, 0.0, 0.0, 0.0, 0.0, 0.0, 0.0, 1.666556734980459E9, 0.0, 2022-10-23 13:25:34.980
167.0, -78424.91756974669, -114667.39948599333, 3795.303856766684, 69082.31307057299, 66361.30110756173, -187500.02235174447, 46466.54980975984, 82595.08253277333, 0.054, 0.9440000000000001, 0.128, 192.0, 0.0, 0.0, 0.0, 0.0, 0.0, 0.0, 0.0, 0.0, 0.0, 1.6665567349804668E9, 0.0, 2022-10-23 13:25:34.980
168.0, -78475.49956744905, -114712.59471328196, 4625.7158667702515, 69095.6570620128, 66609.76309892692, -187500.02235174447, 47070.739814131244, 83307.11970414159, 0.054, 0.9440000000000001, 0.128, 192.0, 0.0, 0.0, 0.0, 0.0, 0.0, 0.0, 0.0, 0.0, 0.0, 1.6665567349804747E9, 0.0, 2022-10-23 13:25:34.980
169.0, -78500.86879740583, -114739.43915837278, 6618.105664027413, 69048.74075040112, 67052.75232228664, -187500.02235174447, 48218.881871567, 84387.40186541103, 0.054, 0.9440000000000001, 0.128, 192.0, 0.0, 0.0, 0.0, 0.0, 0.0, 0.0, 0.0, 0.0, 0.0, 1.6665567349804826E9, 0.0, 2022-10-23 13:25:34.980
170.0, -78443.40246241122, -114682.64337571185, 5261.2430168679975, 69005.75834581356, 66652.52198606991, -187500.02235174447, 47237.617938234565, 83249.72042438036, 0.054, 0.9440000000000001, 0.128, 192.0, 0.0, 0.0, 0.0, 0.0, 0.0, 0.0, 0.0, 0.0, 0.0, 1.6665567349804907E9, 0.0, 2022-10-23 13:25:34.980
171.0, -78440.18381120966, -114677.6142332094, 3844.947081201921, 69049.43365447923, 66344.09026433114, -187500.02235174447, 46431.457570965, 82534.75517448845, 0.054, 0.9440000000000001, 0.128, 192.0, 0.0, 0.0, 0.0, 0.0, 0.0, 0.0, 0.0, 0.0, 0.0, 1.6665567349804983E9, 0.0, 2022-10-23 13:25:34.980
172.0, -78466.00007605554, -114707.18559112378, 4322.939136378663, 69080.03319263854, 66502.2959115858, -187500.02235174447, 46828.08927632443, 83058.83652673203, 0.046, 0.9460000000000001, 0.136, 192.0, 1.0, 112.0, 29.0, 144.0, 4.0, 64.0, 0.0, 0.0, 0.0, 1.666556734980514E9, 0.0, 2022-10-23 13:25:34.980
173.0, -78502.7239921956, -114745.831757287, 6445.237272410068, 69066.62214596536, 67023.06920565, -187500.02235174447, 48110.96764933677, 84318.96082388888, 0.046, 0.9460000000000001, 0.136, 192.0, 0.0, 0.0, 0.0, 0.0, 0.0, 0.0, 0.0, 0.0, 0.0, 1.6665567349805224E9, 0.0, 2022-10-23 13:25:34.980
174.0, -78442.37428216627, -114689.23714032616, 5749.47217100527, 69001.01977598903, 66792.73447903806, -187500.02235174447, 47529.82229349879, 83553.61474199471, 0.046, 0.9460000000000001, 0.136, 192.0, 0.0, 0.0, 0.0, 0.0, 0.0, 0.0, 0.0, 0.0, 0.0, 1.6665567349805305E9, 0.0, 2022-10-23 13:25:34.980
175.0, -78426.81746802539, -114673.99325060764, 3970.295664107283, 69046.5949829334, 66367.35843030912, -187500.02235174447, 46462.168867846594, 82536.11863090022, 0.046, 0.9460000000000001, 0.136, 192.0, 0.0, 0.0, 0.0, 0.0, 0.0, 0.0, 0.0, 0.0, 0.0, 1.666556734980538E9, 0.0, 2022-10-23 13:25:34.980
176.0, -78459.18279399668, -114699.96597766472, 4120.588793824768, 69073.35002104641, 66431.77615782931, -187500.02235174447, 46657.4113556637, 82875.14989079832, 0.046, 0.9460000000000001, 0.136, 192.0, 0.0, 0.0, 0.0, 0.0, 0.0, 0.0, 0.0, 0.0, 0.0, 1.6665567349805458E9, 0.0, 2022-10-23 13:25:34.980
177.0, -78505.67442246371, -114744.66946657533, 6148.339050810225, 69070.64545996732, 66951.07423675945, -187500.02235174447, 47926.074019202475, 84161.55983943462, 0.046, 0.9460000000000001, 0.136, 192.0, 0.0, 0.0, 0.0, 0.0, 0.0, 0.0, 0.0, 0.0, 0.0, 1.6665567349805546E9, 0.0, 2022-10-23 13:25:34.980
178.0, -78441.79313681045, -114686.48787575816, 6177.306911624302, 69007.18885745869, 66893.69730874269, -187500.02235174447, 47790.242468147575, 83844.20977165816, 0.046, 0.9460000000000001, 0.136, 192.0, 0.0, 0.0, 0.0, 0.0, 0.0, 0.0, 0.0, 0.0, 0.0, 1.6665567349805624E9, 0.0, 2022-10-23 13:25:34.980
179.0, -78429.05264247092, -114664.73962840316, 4137.084381232784, 69034.72620662763, 66384.43516307297, -187500.02235174447, 46527.77123782292, 82588.77934083693, 0.046, 0.9460000000000001, 0.136, 192.0, 0.0, 0.0, 0.0, 0.0, 0.0, 0.0, 0.0, 0.0, 0.0, 1.6665567349805703E9, 0.0, 2022-10-23 13:25:34.980
180.0, -78475.7230848936, -114704.23516085568, 4018.5307286418356, 69044.24804976559, 66400.86369524762, -187500.02235174447, 46568.04908133139, 82766.3863022788, 0.046, 0.9460000000000001, 0.136, 192.0, 0.0, 0.0, 0.0, 0.0, 0.0, 0.0, 0.0, 0.0, 0.0, 1.6665567349805784E9, 0.0, 2022-10-23 13:25:34.980
181.0, -78514.77158245702, -114743.70834156375, 5784.318540611093, 69062.24120405212, 66858.00157284756, -187500.02235174447, 47699.717903103585, 83944.03266239556, 0.046, 0.9460000000000001, 0.136, 192.0, 0.0, 0.0, 0.0, 0.0, 0.0, 0.0, 0.0, 0.0, 0.0, 1.666556734980586E9, 0.0, 2022-10-23 13:25:34.980
182.0, -78479.14290179526, -114715.2769226166, 6519.757988424062, 68988.2345781606, 66958.2044432407, -187500.02235174447, 47998.717188682225, 84076.846727949, 0.048, 0.9440000000000001, 0.132, 192.0, 1.0, 128.0, 29.0, 128.0, 4.0, 32.0, 0.0, 0.0, 0.0, 1.6665567349805937E9, 0.0, 2022-10-23 13:25:34.980
183.0, -78409.4054590947, -114646.23238399415, 4388.854430777363, 69036.31318048396, 66412.26308491983, -187500.02235174447, 46641.921596756176, 82680.64501054824, 0.048, 0.9440000000000001, 0.132, 192.0, 0.0, 0.0, 0.0, 0.0, 0.0, 0.0, 0.0, 0.0, 0.0, 1.6665567349806023E9, 0.0, 2022-10-23 13:25:34.980
184.0, -78444.94473277865, -114679.38002102138, 3949.5085417638475, 69063.8505296529, 66350.16993882298, -187500.02235174447, 46481.34666458925, 82664.48469930705, 0.048, 0.9440000000000001, 0.132, 192.0, 0.0, 0.0, 0.0, 0.0, 0.0, 0.0, 0.0, 0.0, 0.0, 1.66655673498061E9, 0.0, 2022-10-23 13:25:34.980
185.0, -78503.43924801819, -114736.66754206033, 5385.094032894854, 69071.8524541679, 66736.13986207722, -187500.02235174447, 47434.402696419085, 83691.92733668415, 0.048, 0.9440000000000001, 0.132, 192.0, 0.0, 0.0, 0.0, 0.0, 0.0, 0.0, 0.0, 0.0, 0.0, 1.6665567349806175E9, 0.0, 2022-10-23 13:25:34.980
186.0, -78484.61907918681, -114719.6802162743, 6774.165543814367, 69022.05276752148, 67033.23924937716, -187500.02235174447, 48173.261961133714, 84290.41764621946, 0.048, 0.9440000000000001, 0.132, 192.0, 0.0, 0.0, 0.0, 0.0, 0.0, 0.0, 0.0, 0.0, 0.0, 1.6665567349806254E9, 0.0, 2022-10-23 13:25:34.980
187.0, -78421.78832552294, -114660.17987253427, 4756.406516600432, 69024.06442452245, 66499.14431561761, -187500.02235174447, 46847.40118353381, 82867.2597250056, 0.048, 0.9440000000000001, 0.132, 192.0, 0.0, 0.0, 0.0, 0.0, 0.0, 0.0, 0.0, 0.0, 0.0, 1.6665567349806333E9, 0.0, 2022-10-23 13:25:34.980
188.0, -78455.13712825027, -114692.34403280546, 3957.868094190132, 69052.76406440308, 66338.99406659533, -187500.02235174447, 46453.58579797576, 82603.73265787752, 0.048, 0.9440000000000001, 0.132, 192.0, 0.0, 0.0, 0.0, 0.0, 0.0, 0.0, 0.0, 0.0, 0.0, 1.6665567349806488E9, 0.0, 2022-10-23 13:25:34.980
189.0, -78513.2293120896, -114749.5868503555, 5038.150255459578, 69054.64161093731, 66648.81159649034, -187500.02235174447, 47209.18651928741, 83452.71896752345, 0.048, 0.9440000000000001, 0.132, 192.0, 0.0, 0.0, 0.0, 0.0, 0.0, 0.0, 0.0, 0.0, 0.0, 1.6665567349806566E9, 0.0, 2022-10-23 13:25:34.980
190.0, -78511.44117253317, -114748.08928347699, 6846.115809216, 69016.8895145523, 67039.94477271376, -187500.02235174447, 48227.88962458249, 84375.7119030609, 0.048, 0.9440000000000001, 0.132, 192.0, 0.0, 0.0, 0.0, 0.0, 0.0, 0.0, 0.0, 0.0, 0.0, 1.6665567349806647E9, 0.0, 2022-10-23 13:25:34.980
191.0, -78429.92436050468, -114663.93496560276, 5152.25591090392, 69010.87689529383, 66564.70198210502, -187500.02235174447, 47065.353043717514, 83078.21548917479, 0.048, 0.9440000000000001, 0.132, 192.0, 0.0, 0.0, 0.0, 0.0, 0.0, 0.0, 0.0, 0.0, 0.0, 1.6665567349806728E9, 0.0, 2022-10-23 13:25:34.980
192.0, -78449.14686073623, -114682.8668931564, 3949.5308935083026, 69042.92929684273, 66283.67349906845, -187500.02235174447, 46397.795843815315, 82525.45684879505, 0.042, 0.9500000000000001, 0.13, 192.0, 1.0, 80.0, 29.0, 176.0, 4.0, 16.0, 0.0, 0.0, 0.0, 1.6665567349806807E9, 0.0, 2022-10-23 13:25:34.980
193.0, -78504.06509686293, -114736.57813508251, 4633.941308729805, 69045.85737536638, 66477.91015838506, -187500.02235174447, 46915.05991400003, 83165.76727220623, 0.042, 0.9500000000000001, 0.13, 192.0, 0.0, 0.0, 0.0, 0.0, 0.0, 0.0, 0.0, 0.0, 0.0, 1.6665567349806893E9, 0.0, 2022-10-23 13:25:34.980
194.0, -78532.11653615434, -114762.12617899492, 6715.872194274926, 69012.2403517056, 66977.60575742791, -187500.02235174447, 48152.34072832355, 84350.4097283375, 0.042, 0.9500000000000001, 0.13, 192.0, 0.0, 0.0, 0.0, 0.0, 0.0, 0.0, 0.0, 0.0, 0.0, 1.6665567349806972E9, 0.0, 2022-10-23 13:25:34.980
195.0, -78444.3188839339, -114681.30227104454, 5606.242192535662, 68987.8322467604, 66679.29937592738, -187500.02235174447, 47342.60408194114, 83366.41888218152, 0.042, 0.9500000000000001, 0.13, 192.0, 0.0, 0.0, 0.0, 0.0, 0.0, 0.0, 0.0, 0.0, 0.0, 1.6665567349807053E9, 0.0, 2022-10-23 13:25:34.980
196.0, -78444.43064265617, -114676.98838436465, 4050.739592401933, 69039.10714854088, 66317.96107506288, -187500.02235174447, 46437.53724545685, 82540.14194490218, 0.042, 0.9500000000000001, 0.13, 192.0, 0.0, 0.0, 0.0, 0.0, 0.0, 0.0, 0.0, 0.0, 0.0, 1.666556734980713E9, 0.0, 2022-10-23 13:25:34.980
197.0, -78485.1778727982, -114712.84058247098, 4422.650268393787, 69061.14596857381, 66450.26105049385, -187500.02235174447, 46772.724005308635, 83006.30992726206, 0.042, 0.9500000000000001, 0.13, 192.0, 0.0, 0.0, 0.0, 0.0, 0.0, 0.0, 0.0, 0.0, 0.0, 1.666556734980721E9, 0.0, 2022-10-23 13:25:34.980
198.0, -78523.28759709449, -114755.8900422919, 6513.723017421129, 69046.52792770004, 66957.53389090704, -187500.02235174447, 48047.443991594795, 84271.93275355492, 0.042, 0.9500000000000001, 0.13, 192.0, 0.0, 0.0, 0.0, 0.0, 0.0, 0.0, 0.0, 0.0, 0.0, 1.66655673498073E9, 0.0, 2022-10-23 13:25:34.980
199.0, -78458.75811085202, -114690.84646592695, 6030.277136597292, 68984.70300253665, 66768.01344967048, -187500.02235174447, 47593.99415182998, 83638.59607441378, 0.042, 0.9500000000000001, 0.13, 192.0, 0.0, 0.0, 0.0, 0.0, 0.0, 0.0, 0.0, 0.0, 0.0, 1.666556734980738E9, 0.0, 2022-10-23 13:25:34.980
200.0, -78448.94569503615, -114677.94950937624, 4150.338965694781, 69021.15869774326, 66314.67536862796, -187500.02235174447, 46458.43612652256, 82543.11472691473, 0.042, 0.9500000000000001, 0.13, 192.0, 0.0, 0.0, 0.0, 0.0, 0.0, 0.0, 0.0, 0.0, 0.0, 1.6665567349807458E9, 0.0, 2022-10-23 13:25:34.980
201.0, -78499.0806578494, -114719.12142266291, 4197.836422662309, 69026.9925030461, 66353.90268014702, -187500.02235174447, 46593.17244209915, 82817.19181742572, 0.042, 0.9500000000000001, 0.13, 192.0, 0.0, 0.0, 0.0, 0.0, 0.0, 0.0, 0.0, 0.0, 0.0, 1.6665567349807537E9, 0.0, 2022-10-23 13:25:34.980
202.0, -78530.99894893158, -114755.0853794915, 6107.748282879386, 69039.66594215226, 66822.30583695244, -187500.02235174447, 47789.0801774359, 84050.78459391411, 0.054, 0.9520000000000001, 0.14, 192.0, 1.0, 176.0, 29.0, 192.0, 4.0, 96.0, 0.0, 0.0, 0.0, 1.6665567349807615E9, 0.0, 2022-10-23 13:25:34.980
203.0, -78461.55207890894, -114698.02137589711, 6400.198507332624, 68988.01106071605, 66853.24065127858, -187500.02235174447, 47826.586404631904, 83913.72369691417, 0.054, 0.9520000000000001, 0.14, 192.0, 0.0, 0.0, 0.0, 0.0, 0.0, 0.0, 0.0, 0.0, 0.0, 1.666556734980778E9, 0.0, 2022-10-23 13:25:34.980
204.0, -78434.14884020673, -114670.14875056133, 4324.906089890729, 69018.81176457545, 66350.37110452307, -187500.02235174447, 46537.941281550084, 82612.04750681491, 0.054, 0.9520000000000001, 0.14, 192.0, 0.0, 0.0, 0.0, 0.0, 0.0, 0.0, 0.0, 0.0, 0.0, 1.6665567349807858E9, 0.0, 2022-10-23 13:25:34.980
205.0, -78474.58314592639, -114706.00094866764, 4085.138927118651, 69032.55808741547, 66329.82985136865, -187500.02235174447, 46500.971496221006, 82713.47972315308, 0.054, 0.9520000000000001, 0.14, 192.0, 0.0, 0.0, 0.0, 0.0, 0.0, 0.0, 0.0, 0.0, 0.0, 1.6665567349807937E9, 0.0, 2022-10-23 13:25:34.980
206.0, -78532.8317919769, -114759.7345423382, 5712.502385676192, 69036.58140141742, 66738.50914698948, -187500.02235174447, 47547.726040807494, 83820.91925393573, 0.054, 0.9520000000000001, 0.14, 192.0, 0.0, 0.0, 0.0, 0.0, 0.0, 0.0, 0.0, 0.0, 0.0, 1.6665567349808016E9, 0.0, 2022-10-23 13:25:34.980
207.0, -78499.39358227178, -114733.40418736986, 6682.232818869689, 68978.24334838908, 66923.4474806127, -187500.02235174447, 48007.70258995326, 84126.06526923958, 0.054, 0.9520000000000001, 0.14, 192.0, 0.0, 0.0, 0.0, 0.0, 0.0, 0.0, 0.0, 0.0, 0.0, 1.6665567349808092E9, 0.0, 2022-10-23 13:25:34.980
208.0, -78447.98457002456, -114685.23617806866, 4594.937514655294, 68998.56108409895, 66412.93363725349, -187500.02235174447, 46670.33066395887, 82725.25909248104, 0.054, 0.9520000000000001, 0.14, 192.0, 0.0, 0.0, 0.0, 0.0, 0.0, 0.0, 0.0, 0.0, 0.0, 1.6665567349808173E9, 0.0, 2022-10-23 13:25:34.980
209.0, -78487.10012282136, -114719.076719174, 4047.073906311263, 69016.19661047419, 66331.61799092508, -187500.02235174447, 46439.101867568716, 82627.91724537816, 0.054, 0.9520000000000001, 0.14, 192.0, 0.0, 0.0, 0.0, 0.0, 0.0, 0.0, 0.0, 0.0, 0.0, 1.6665567349808247E9, 0.0, 2022-10-23 13:25:34.980
210.0, -78509.11659110982, -114737.42750137181, 5307.377017423752, 69050.46183472418, 66648.90100346816, -187500.02235174447, 47278.87925849906, 83559.8285269533, 0.054, 0.9520000000000001, 0.14, 192.0, 0.0, 0.0, 0.0, 0.0, 0.0, 0.0, 0.0, 0.0, 0.0, 1.6665567349808328E9, 0.0, 2022-10-23 13:25:34.980
211.0, -78499.0806578494, -114734.92410599282, 6842.83010278107, 69003.79139230149, 66980.04209757353, -187500.02235174447, 48116.73439940625, 84279.06296003616, 0.06, 0.9540000000000001, 0.138, 192.0, 1.0, 224.0, 29.0, 208.0, 4.0, 80.0, 0.0, 0.0, 0.0, 1.6665567349808404E9, 0.0, 2022-10-23 13:25:34.980
212.0, -78437.45689838611, -114671.53455871757, 4923.508158148308, 69004.84192429089, 66486.71674570045, -187500.02235174447, 46846.887093411344, 82895.7134956972, 0.06, 0.9540000000000001, 0.138, 192.0, 0.0, 0.0, 0.0, 0.0, 0.0, 0.0, 0.0, 0.0, 0.0, 1.6665567349808488E9, 0.0, 2022-10-23 13:25:34.980
213.0, -78469.88927959076, -114699.49659103116, 3980.8009840012774, 69035.8437938504, 66289.77552530474, -187500.02235174447, 46356.22159912844, 82532.96703493202, 0.06, 0.9540000000000001, 0.138, 192.0, 0.0, 0.0, 0.0, 0.0, 0.0, 0.0, 0.0, 0.0, 0.0, 1.6665567349808567E9, 0.0, 2022-10-23 13:25:34.980
214.0, -78513.4304777897, -114744.1330247084, 4915.617992355585, 69045.38798873282, 66560.45515065851, -187500.02235174447, 47025.41047637588, 83309.89132045404, 0.06, 0.9540000000000001, 0.138, 192.0, 0.0, 0.0, 0.0, 0.0, 0.0, 0.0, 0.0, 0.0, 0.0, 1.6665567349808643E9, 0.0, 2022-10-23 13:25:34.980
215.0, -78523.64522500578, -114753.3866469129, 6842.874806269981, 69004.66311033526, 67009.09936536543, -187500.02235174447, 48140.87428341798, 84338.67506249847, 0.06, 0.9540000000000001, 0.138, 192.0, 0.0, 0.0, 0.0, 0.0, 0.0, 0.0, 0.0, 0.0, 0.0, 1.6665567349808722E9, 0.0, 2022-10-23 13:25:34.980
216.0, -78452.96900903809, -114683.17981757878, 5305.0300842559445, 68978.39981060027, 66579.38707821215, -187500.02235174447, 47065.39774720642, 83110.35729770151, 0.06, 0.9540000000000001, 0.138, 192.0, 0.0, 0.0, 0.0, 0.0, 0.0, 0.0, 0.0, 0.0, 0.0, 1.66655673498088E9, 0.0, 2022-10-23 13:25:34.980
217.0, -78450.19739272563, -114680.5646634775, 3972.799059486277, 69041.16350903077, 66271.78237101821, -187500.02235174447, 46315.20614805295, 82473.17611851408, 0.06, 0.9540000000000001, 0.138, 192.0, 0.0, 0.0, 0.0, 0.0, 0.0, 0.0, 0.0, 0.0, 0.0, 1.666556734980888E9, 0.0, 2022-10-23 13:25:34.980
218.0, -78501.47229450611, -114731.03490245758, 4558.2135985152245, 69047.01966607805, 66463.89561461158, -187500.02235174447, 46784.190450214206, 83069.34184662603, 0.06, 0.9540000000000001, 0.138, 192.0, 0.0, 0.0, 0.0, 0.0, 0.0, 0.0, 0.0, 0.0, 0.0, 1.666556734980903E9, 0.0, 2022-10-23 13:25:34.980
219.0, -78540.76666125855, -114765.34483019648, 6659.724612203195, 69015.3919476738, 66975.70585914921, -187500.02235174447, 48048.44982009528, 84296.65378292248, 0.06, 0.9540000000000001, 0.138, 192.0, 0.0, 0.0, 0.0, 0.0, 0.0, 0.0, 0.0, 0.0, 0.0, 1.666556734980911E9, 0.0, 2022-10-23 13:25:34.980
220.0, -78479.0758465619, -114703.43049805528, 5712.502385676192, 68970.26377561853, 66685.58021611931, -187500.02235174447, 47318.55360490723, 83390.24584177087, 0.06, 0.9540000000000001, 0.138, 192.0, 0.0, 0.0, 0.0, 0.0, 0.0, 0.0, 0.0, 0.0, 0.0, 1.66655673498092E9, 0.0, 2022-10-23 13:25:34.980
221.0, -78448.67747410267, -114684.61032922391, 4036.680345139545, 69036.51434618406, 66299.43147890944, -187500.02235174447, 46332.99813663938, 82475.94773482654, 0.056, 0.9520000000000001, 0.14, 192.0, 1.0, 192.0, 29.0, 192.0, 4.0, 96.0, 0.0, 0.0, 0.0, 1.666556734980928E9, 0.0, 2022-10-23 13:25:34.980
222.0, -78480.66282041822, -114712.48295455969, 4299.425101211679, 69054.3957417483, 66413.85005877615, -187500.02235174447, 46608.148110884205, 82891.13138808387, 0.056, 0.9520000000000001, 0.14, 192.0, 0.0, 0.0, 0.0, 0.0, 0.0, 0.0, 0.0, 0.0, 0.0, 1.6665567349809363E9, 0.0, 2022-10-23 13:25:34.980
223.0, -78546.30989388346, -114776.25248149068, 6342.3968961712, 69025.76315710106, 66916.18316366473, -187500.02235174447, 47867.981835363134, 84159.12349928898, 0.056, 0.9520000000000001, 0.14, 192.0, 0.0, 0.0, 0.0, 0.0, 0.0, 0.0, 0.0, 0.0, 0.0, 1.666556734980944E9, 0.0, 2022-10-23 13:25:34.980
224.0, -78472.81735811441, -114705.53156203408, 6129.898861634596, 68971.85074947486, 66817.83548806138, -187500.02235174447, 47591.356645984255, 83695.3024500969, 0.056, 0.9520000000000001, 0.14, 192.0, 0.0, 0.0, 0.0, 0.0, 0.0, 0.0, 0.0, 0.0, 0.0, 1.6665567349809527E9, 0.0, 2022-10-23 13:25:34.980
225.0, -78439.58031410936, -114669.74641916114, 4153.82583782981, 69028.33360771342, 66334.76958689328, -187500.02235174447, 46384.27303841985, 82513.31985155582, 0.056, 0.9520000000000001, 0.14, 192.0, 0.0, 0.0, 0.0, 0.0, 0.0, 0.0, 0.0, 0.0, 0.0, 1.6665567349809608E9, 0.0, 2022-10-23 13:25:34.980
226.0, -78499.01360261603, -114717.15446915085, 4141.375916168203, 69048.45017772319, 66396.10277367863, -187500.02235174447, 46500.39035086517, 82769.51554650255, 0.056, 0.9520000000000001, 0.14, 192.0, 0.0, 0.0, 0.0, 0.0, 0.0, 0.0, 0.0, 0.0, 0.0, 1.6665567349809687E9, 0.0, 2022-10-23 13:25:34.980
227.0, -78539.00087344658, -114763.46728366225, 5967.267568977782, 69046.72909340014, 66848.59148843188, -187500.02235174447, 47656.154353160186, 83966.22794463969, 0.056, 0.9520000000000001, 0.14, 192.0, 0.0, 0.0, 0.0, 0.0, 0.0, 0.0, 0.0, 0.0, 0.0, 1.6665567349809763E9, 0.0, 2022-10-23 13:25:34.980
228.0, -78490.29642227846, -114724.17291690981, 6476.708528603141, 68982.1772554132, 66919.42416661074, -187500.02235174447, 47828.28513721051, 83967.54669756255, 0.056, 0.9520000000000001, 0.14, 192.0, 0.0, 0.0, 0.0, 0.0, 0.0, 0.0, 0.0, 0.0, 0.0, 1.666556734980984E9, 0.0, 2022-10-23 13:25:34.980
229.0, -78446.50935489051, -114681.45873325571, 4349.828284958397, 69016.4424796632, 66389.24078813086, -187500.02235174447, 46491.20378389404, 82602.05627704338, 0.056, 0.9520000000000001, 0.14, 192.0, 0.0, 0.0, 0.0, 0.0, 0.0, 0.0, 0.0, 0.0, 0.0, 1.666556734980992E9, 0.0, 2022-10-23 13:25:34.980
230.0, -78484.9767070981, -114716.43921332828, 3997.453033620481, 69033.87684033833, 66342.63740094154, -187500.02235174447, 46387.33522741023, 82639.003710628, 0.056, 0.9520000000000001, 0.14, 192.0, 0.0, 0.0, 0.0, 0.0, 0.0, 0.0, 0.0, 0.0, 0.0, 1.666556734981E9, 0.0, 2022-10-23 13:25:34.981
231.0, -78531.7365564986, -114757.81229231505, 5535.610680056891, 69046.10324455539, 66753.1048361188, -187500.02235174447, 47402.68557103701, 83721.34223238734, 0.058, 0.9480000000000001, 0.14, 192.0, 1.0, 208.0, 29.0, 160.0, 4.0, 96.0, 0.0, 0.0, 0.0, 1.666556734981008E9, 0.0, 2022-10-23 13:25:34.981
232.0, -78500.5782247279, -114726.1845739108, 6709.323133149521, 69002.09265972288, 66988.87103663338, -187500.02235174447, 48001.10882533894, 84178.01072335371, 0.058, 0.9480000000000001, 0.14, 192.0, 0.0, 0.0, 0.0, 0.0, 0.0, 0.0, 0.0, 0.0, 0.0, 1.6665567349810164E9, 0.0, 2022-10-23 13:25:34.981
233.0, -78447.76105258001, -114682.0175268671, 4641.764419289162, 69008.14998247028, 66465.25907102336, -187500.02235174447, 46663.7145476001, 82759.85959289785, 0.058, 0.9480000000000001, 0.14, 192.0, 0.0, 0.0, 0.0, 0.0, 0.0, 0.0, 0.0, 0.0, 0.0, 1.6665567349810243E9, 0.0, 2022-10-23 13:25:34.981
234.0, -78481.26631751852, -114708.61610276892, 3960.706765735956, 69029.16062225826, 66338.6587904285, -187500.02235174447, 46349.136096136106, 82579.3916081657, 0.058, 0.9480000000000001, 0.14, 192.0, 0.0, 0.0, 0.0, 0.0, 0.0, 0.0, 0.0, 0.0, 0.0, 1.6665567349810393E9, 0.0, 2022-10-23 13:25:34.981
235.0, -78528.07087040793, -114757.23114695921, 5124.718561734982, 69041.67759915323, 66646.5317185559, -187500.02235174447, 47147.18278016839, 83467.42641537506, 0.058, 0.9480000000000001, 0.14, 192.0, 0.0, 0.0, 0.0, 0.0, 0.0, 0.0, 0.0, 0.0, 0.0, 1.6665567349810474E9, 0.0, 2022-10-23 13:25:34.981
236.0, -78507.55196899796, -114755.17478646932, 6800.048863893612, 68999.47750562162, 67007.37828104237, -187500.02235174447, 48081.686864100324, 84292.25048926478, 0.058, 0.9480000000000001, 0.14, 192.0, 0.0, 0.0, 0.0, 0.0, 0.0, 0.0, 0.0, 0.0, 0.0, 1.6665567349810553E9, 0.0, 2022-10-23 13:25:34.981
237.0, -78455.49475616154, -114697.14965786335, 5008.891821967581, 68976.32109836592, 66543.9595632505, -187500.02235174447, 46879.52064031609, 82961.51703137363, 0.058, 0.9480000000000001, 0.14, 192.0, 0.0, 0.0, 0.0, 0.0, 0.0, 0.0, 0.0, 0.0, 0.0, 1.666556734981063E9, 0.0, 2022-10-23 13:25:34.981
238.0, -78487.23423328808, -114717.84737322896, 3985.6066090591685, 69012.59797961688, 66345.34196202064, -187500.02235174447, 46342.16235186605, 82539.04670942387, 0.058, 0.9480000000000001, 0.14, 192.0, 0.0, 0.0, 0.0, 0.0, 0.0, 0.0, 0.0, 0.0, 0.0, 1.6665567349810708E9, 0.0, 2022-10-23 13:25:34.981
239.0, -78529.54608554198, -114756.9852777702, 4791.275237950711, 69032.33456997092, 66569.44055192954, -187500.02235174447, 46932.71779211972, 83237.91870330795, 0.058, 0.9480000000000001, 0.14, 192.0, 0.0, 0.0, 0.0, 0.0, 0.0, 0.0, 0.0, 0.0, 0.0, 1.6665567349810796E9, 0.0, 2022-10-23 13:25:34.981
240.0, -78526.30508259597, -114764.89779530738, 6782.748613685205, 69006.94298826969, 67021.03519690457, -187500.02235174447, 48098.18245150834, 84335.38935606353, 0.056, 0.9480000000000001, 0.136, 192.0, 1.0, 192.0, 29.0, 160.0, 4.0, 64.0, 0.0, 0.0, 0.0, 1.6665567349810874E9, 0.0, 2022-10-23 13:25:34.981
241.0, -78453.66191311622, -114691.98640489417, 5423.4272746357055, 68984.34537462538, 66629.90202068115, -187500.02235174447, 47129.03316367068, 83205.39691512549, 0.056, 0.9480000000000001, 0.136, 192.0, 0.0, 0.0, 0.0, 0.0, 0.0, 0.0, 0.0, 0.0, 0.0, 1.6665567354595013E9, 0.0, 2022-10-23 13:25:35.459
242.0, -78460.05451203043, -114695.60738749593, 3981.583295057213, 69031.82047984845, 66299.38677542053, -187500.02235174447, 46306.980706093396, 82480.90982209562, 0.056, 0.9480000000000001, 0.136, 192.0, 0.0, 0.0, 0.0, 0.0, 0.0, 0.0, 0.0, 0.0, 0.0, 1.666556735459587E9, 0.0, 2022-10-23 13:25:35.459
243.0, -78510.54710275496, -114743.10484446345, 4452.31103328598, 69040.35884623037, 66452.71974238392, -187500.02235174447, 46705.668771942714, 83007.02518308464, 0.056, 0.9480000000000001, 0.136, 192.0, 0.0, 0.0, 0.0, 0.0, 0.0, 0.0, 0.0, 0.0, 0.0, 1.6665567354595964E9, 0.0, 2022-10-23 13:25:35.459
244.0, -78548.92504798473, -114783.22622576074, 6544.188445113712, 69016.286017452, 66948.41437916928, -187500.02235174447, 47970.956322068734, 84248.59753234357, 0.056, 0.9480000000000001, 0.136, 192.0, 0.0, 0.0, 0.0, 0.0, 0.0, 0.0, 0.0, 0.0, 0.0, 1.6665567354596045E9, 0.0, 2022-10-23 13:25:35.459
245.0, -78462.0661690314, -114697.70845147473, 5838.275651726205, 68984.59124381439, 66724.49460321601, -187500.02235174447, 47396.40473084507, 83496.0142965334, 0.056, 0.9480000000000001, 0.136, 192.0, 0.0, 0.0, 0.0, 0.0, 0.0, 0.0, 0.0, 0.0, 0.0, 1.6665567354596128E9, 0.0, 2022-10-23 13:25:35.459
246.0, -78467.67645688969, -114703.22933235519, 4067.4139937655923, 69013.60380811738, 66310.0485575257, -187500.02235174447, 46343.190532110995, 82498.14301707066, 0.056, 0.9480000000000001, 0.136, 192.0, 0.0, 0.0, 0.0, 0.0, 0.0, 0.0, 0.0, 0.0, 0.0, 1.6665567354596207E9, 0.0, 2022-10-23 13:25:35.459
247.0, -78505.6297189748, -114741.74138805168, 4238.091914426317, 69020.97988378763, 66395.20870390043, -187500.02235174447, 46563.01993882894, 82850.96530329768, 0.056, 0.9480000000000001, 0.136, 192.0, 0.0, 0.0, 0.0, 0.0, 0.0, 0.0, 0.0, 0.0, 0.0, 1.6665567354596288E9, 0.0, 2022-10-23 13:25:35.459
248.0, -78544.63351304931, -114784.23205426123, 6242.439894967067, 69017.60477037488, 66894.92665468772, -187500.02235174447, 47815.49993938207, 84114.68823131183, 0.056, 0.9480000000000001, 0.136, 192.0, 0.0, 0.0, 0.0, 0.0, 0.0, 0.0, 0.0, 0.0, 0.0, 1.6665567354596367E9, 0.0, 2022-10-23 13:25:35.459
249.0, -78481.31102100742, -114722.94357096477, 6242.082267055782, 68958.5291097795, 66819.35540668434, -187500.02235174447, 47660.93762647363, 83775.41110222472, 0.056, 0.9480000000000001, 0.136, 192.0, 0.0, 0.0, 0.0, 0.0, 0.0, 0.0, 0.0, 0.0, 0.0, 1.666556735459697E9, 0.0, 2022-10-23 13:25:35.459
250.0, -78457.97579979608, -114693.81924793951, 4228.637126521722, 69003.54552311248, 66339.32934276215, -187500.02235174447, 46427.367201729685, 82543.96409320403, 0.054, 0.9440000000000001, 0.136, 192.0, 1.0, 176.0, 29.0, 128.0, 4.0, 64.0, 0.0, 0.0, 0.0, 1.666556735459705E9, 0.0, 2022-10-23 13:25:35.459
251.0, -78512.22348358911, -114733.49359434767, 4108.094168674251, 69021.89630531029, 66359.17769183847, -187500.02235174447, 46470.26019933942, 82724.18620874718, 0.054, 0.9440000000000001, 0.136, 192.0, 0.0, 0.0, 0.0, 0.0, 0.0, 0.0, 0.0, 0.0, 0.0, 1.6665567354597147E9, 0.0, 2022-10-23 13:25:35.459
252.0, -78537.74917575708, -114764.51781565163, 5867.981120107308, 69034.9944275611, 66811.50994438052, -187500.02235174447, 47603.9853816015, 83904.73829564314, 0.054, 0.9440000000000001, 0.136, 192.0, 0.0, 0.0, 0.0, 0.0, 0.0, 0.0, 0.0, 0.0, 0.0, 1.6665567354597228E9, 0.0, 2022-10-23 13:25:35.459
253.0, -78481.04280007396, -114721.93774246429, 6626.688733898251, 68978.84684548937, 66945.95568727919, -187500.02235174447, 47937.272243174586, 84068.2413063337, 0.054, 0.9440000000000001, 0.136, 192.0, 0.0, 0.0, 0.0, 0.0, 0.0, 0.0, 0.0, 0.0, 0.0, 1.6665567354597309E9, 0.0, 2022-10-23 13:25:35.459
254.0, -78438.77565130898, -114677.88245414288, 4477.41204230929, 69004.43959289069, 66385.75391599583, -187500.02235174447, 46563.28815976241, 82650.24663808903, 0.054, 0.9440000000000001, 0.136, 192.0, 0.0, 0.0, 0.0, 0.0, 0.0, 0.0, 0.0, 0.0, 0.0, 1.6665567354597387E9, 0.0, 2022-10-23 13:25:35.459
255.0, -78478.11472155032, -114713.1758586378, 4017.0108100188745, 69027.55129665749, 66308.97567379185, -187500.02235174447, 46386.97759949894, 82617.07664931734, 0.054, 0.9440000000000001, 0.136, 192.0, 0.0, 0.0, 0.0, 0.0, 0.0, 0.0, 0.0, 0.0, 0.0, 1.6665567354597492E9, 0.0, 2022-10-23 13:25:35.459
0.0, -78529.59078903089, -114764.36135344046, 5443.745010345579, 69036.00025606158, 66691.52578014444, -187500.02235174447, 47339.76541039532, 83644.45223146108, 0.054, 0.9440000000000001, 0.136, 192.0, 0.0, 0.0, 0.0, 0.0, 0.0, 0.0, 0.0, 0.0, 0.0, 1.666556735459757E9, 0.0, 2022-10-23 13:25:35.459
1.0, -78515.50919002405, -114755.06302774705, 6831.54247183114, 68975.56113905444, 66993.74371692464, -187500.02235174447, 48083.005617023184, 84243.07665146311, 0.054, 0.9440000000000001, 0.136, 192.0, 0.0, 0.0, 0.0, 0.0, 0.0, 0.0, 0.0, 0.0, 0.0, 1.6665567354597647E9, 0.0, 2022-10-23 13:25:35.459
2.0, -78454.28776196096, -114694.19922759525, 4808.843709092583, 68982.80310425795, 66458.19591977548, -187500.02235174447, 46750.23815038659, 82812.96733772366, 0.054, 0.9440000000000001, 0.136, 192.0, 0.0, 0.0, 0.0, 0.0, 0.0, 0.0, 0.0, 0.0, 0.0, 1.6665567354597728E9, 0.0, 2022-10-23 13:25:35.459
3.0, -78487.54715771046, -114718.49557381816, 4004.8291092907325, 69012.59797961688, 66294.84937129609, -187500.02235174447, 46352.93589269351, 82546.40043334967, 0.054, 0.9440000000000001, 0.136, 192.0, 0.0, 0.0, 0.0, 0.0, 0.0, 0.0, 0.0, 0.0, 0.0, 1.6665567354597807E9, 0.0, 2022-10-23 13:25:35.459
4.0, -78542.82302174844, -114771.11158026596, 5083.636055426127, 69020.46579366515, 66606.56679946982, -187500.02235174447, 47115.398599552944, 83399.56651920873, 0.06, 0.9460000000000001, 0.136, 192.0, 1.0, 224.0, 29.0, 144.0, 4.0, 64.0, 0.0, 0.0, 0.0, 1.6665567354597888E9, 0.0, 2022-10-23 13:25:35.459
5.0, -78547.7404055286, -114779.91816758135, 6931.857100946558, 68975.1811593987, 67037.68724652377, -187500.02235174447, 48174.58071405658, 84350.63324578205, 0.06, 0.9460000000000001, 0.136, 192.0, 0.0, 0.0, 0.0, 0.0, 0.0, 0.0, 0.0, 0.0, 0.0, 1.6665567354597971E9, 0.0, 2022-10-23 13:25:35.459
6.0, -78472.14680578075, -114710.51600104762, 5224.250879794465, 68966.30751684995, 66554.17431046657, -187500.02235174447, 46995.63795276141, 83034.11549736447, 0.06, 0.9460000000000001, 0.136, 192.0, 0.0, 0.0, 0.0, 0.0, 0.0, 0.0, 0.0, 0.0, 0.0, 1.6665567354598095E9, 0.0, 2022-10-23 13:25:35.459
7.0, -78484.52967220898, -114723.14473666486, 4064.552970475313, 69013.38029067282, 66313.33426396064, -187500.02235174447, 46364.8940759771, 82515.04093587887, 0.06, 0.9460000000000001, 0.136, 192.0, 0.0, 0.0, 0.0, 0.0, 0.0, 0.0, 0.0, 0.0, 0.0, 1.6665567354598176E9, 0.0, 2022-10-23 13:25:35.459
8.0, -78523.82403896142, -114759.30985919356, 4765.727194038295, 69027.50659316857, 66519.3502926052, -187500.02235174447, 46894.58571607897, 83155.84309766807, 0.06, 0.9460000000000001, 0.136, 192.0, 0.0, 0.0, 0.0, 0.0, 0.0, 0.0, 0.0, 0.0, 0.0, 1.6665567354598255E9, 0.0, 2022-10-23 13:25:35.459
9.0, -78547.91921948425, -114776.23012974623, 6809.816576220582, 68995.23067417511, 66985.56297845399, -187500.02235174447, 48101.356399221, 84307.4943789833, 0.06, 0.9460000000000001, 0.136, 192.0, 0.0, 0.0, 0.0, 0.0, 0.0, 0.0, 0.0, 0.0, 0.0, 1.6665567354598417E9, 0.0, 2022-10-23 13:25:35.459
10.0, -78484.52967220898, -114709.46546905822, 5669.050594455075, 68963.91588019322, 66657.97581171701, -187500.02235174447, 47262.8083542357, 83299.94479417143, 0.06, 0.9460000000000001, 0.136, 192.0, 0.0, 0.0, 0.0, 0.0, 0.0, 0.0, 0.0, 0.0, 0.0, 1.66655673545985E9, 0.0, 2022-10-23 13:25:35.459
11.0, -78474.51609069301, -114706.93972193477, 4140.414791156625, 69015.34724418489, 66313.87070582756, -187500.02235174447, 46379.400358128594, 82495.84078739176, 0.06, 0.9460000000000001, 0.136, 192.0, 0.0, 0.0, 0.0, 0.0, 0.0, 0.0, 0.0, 0.0, 0.0, 1.6665567354598584E9, 0.0, 2022-10-23 13:25:35.459
12.0, -78505.58501548589, -114741.47316711822, 4512.437225870755, 69024.93614255621, 66440.91802131153, -187500.02235174447, 46717.22462382611, 82960.60060985097, 0.06, 0.9460000000000001, 0.136, 192.0, 0.0, 0.0, 0.0, 0.0, 0.0, 0.0, 0.0, 0.0, 0.0, 1.6665567354598663E9, 0.0, 2022-10-23 13:25:35.459
13.0, -78542.33128337041, -114778.6888216363, 6599.2184399626785, 69015.36959592934, 66943.80991981148, -187500.02235174447, 47993.956267113244, 84223.89885472046, 0.06, 0.9460000000000001, 0.136, 192.0, 0.0, 0.0, 0.0, 0.0, 0.0, 0.0, 0.0, 0.0, 0.0, 1.6665567354598744E9, 0.0, 2022-10-23 13:25:35.459
14.0, -78481.91451810772, -114720.9766174527, 6114.856137616174, 68957.79150221247, 66757.61988849877, -187500.02235174447, 47540.50642734843, 83585.80125401035, 0.062, 0.9460000000000001, 0.134, 192.0, 1.0, 240.0, 29.0, 144.0, 4.0, 48.0, 0.0, 0.0, 0.0, 1.6665567354598825E9, 0.0, 2022-10-23 13:25:35.459
15.0, -78466.76003536703, -114704.21280911122, 4261.829467037853, 69007.23356094761, 66329.04754031272, -187500.02235174447, 46427.6577744076, 82511.71052595503, 0.062, 0.9460000000000001, 0.134, 192.0, 0.0, 0.0, 0.0, 0.0, 0.0, 0.0, 0.0, 0.0, 0.0, 1.666556735459891E9, 0.0, 2022-10-23 13:25:35.459
16.0, -78500.01943111653, -114736.57813508251, 4346.05084014545, 69030.23350599212, 66401.24367490337, -187500.02235174447, 46594.513546766466, 82812.74382027911, 0.062, 0.9460000000000001, 0.134, 192.0, 0.0, 0.0, 0.0, 0.0, 0.0, 0.0, 0.0, 0.0, 0.0, 1.666556735459899E9, 0.0, 2022-10-23 13:25:35.459
