%OpenBCI Raw EEG Data
%Number of channels = 8
%Sample Rate = 250 Hz
%Board = OpenBCI_GUI$BoardCytonSerial
Sample Index, EXG Channel 0, EXG Channel 1, EXG Channel 2, EXG Channel 3, EXG Channel 4, EXG Channel 5, EXG Channel 6, EXG Channel 7, Accel Channel 0, Accel Channel 1, Accel Channel 2, Other, Other, Other, Other, Other, Other, Other, Analog Channel 0, Analog Channel 1, Analog Channel 2, Timestamp, Other, Timestamp (Formatted)
71.0, -80427.96914910903, -121890.5668724259, 18357.91240428834, 82425.81277201329, 54174.79475436149, 40905.10051311261, 30038.84464965399, 88805.60413665822, 0.0, 0.0, 0.0, 192.0, 0.0, 0.0, 0.0, 0.0, 0.0, 0.0, 0.0, 0.0, 0.0, 1.6665570435385296E9, 0.0, 2022-10-23 13:30:43.538
72.0, -80425.95749210805, -121894.83605561688, 18248.388856457335, 82429.92549299306, 54176.69465264019, 40911.157835859995, 30101.273071917665, 88861.99758791896, 0.0, 0.0, 0.0, 192.0, 0.0, 0.0, 0.0, 0.0, 0.0, 0.0, 0.0, 0.0, 0.0, 1.6665570435385575E9, 0.0, 2022-10-23 13:30:43.538
73.0, -80429.42201249863, -121899.5746254414, 18526.489260970266, 82423.7564115234, 54172.58193166041, 40917.14810337402, 30359.793348287745, 89071.16521253172, 0.0, 0.0, 0.0, 192.0, 0.0, 0.0, 0.0, 0.0, 0.0, 0.0, 0.0, 0.0, 0.0, 1.6665570435385778E9, 0.0, 2022-10-23 13:30:43.538
74.0, -80419.92252110512, -121888.68932589167, 18642.763035626776, 82423.5999493122, 54172.24665549358, 40911.873091682566, 30432.123593345117, 89118.84148345489, 0.0, 0.0, 0.0, 192.0, 0.0, 0.0, 0.0, 0.0, 0.0, 0.0, 0.0, 0.0, 0.0, 1.666557043538597E9, 0.0, 2022-10-23 13:30:43.538
75.0, -80416.59211118128, -121887.25881424652, 18530.736092416777, 82422.19178941153, 54170.25735023706, 40906.77689394676, 30369.359894914618, 89067.76774737451, 0.018000000000000002, 0.9480000000000001, 0.108, 192.0, 0.0, 144.0, 29.0, 160.0, 3.0, 96.0, 0.0, 0.0, 0.0, 1.6665570435386157E9, 0.0, 2022-10-23 13:30:43.538
76.0, -80419.8778176162, -121885.62713690128, 18483.953891271816, 82424.04698420131, 54173.72187062763, 40913.77298996127, 30442.003064394365, 89124.29530910199, 0.018000000000000002, 0.9480000000000001, 0.108, 192.0, 0.0, 0.0, 0.0, 0.0, 0.0, 0.0, 0.0, 0.0, 0.0, 1.666557043538638E9, 0.0, 2022-10-23 13:30:43.538
77.0, -80419.05080307137, -121880.32977346538, 18807.3389300512, 82435.53578085135, 54175.30884448396, 40923.831274966156, 30708.07823039034, 89330.333689491, 0.018000000000000002, 0.9480000000000001, 0.108, 192.0, 0.0, 0.0, 0.0, 0.0, 0.0, 0.0, 0.0, 0.0, 0.0, 1.6665570435386589E9, 0.0, 2022-10-23 13:30:43.538
78.0, -80401.99642205196, -121860.4590726446, 19043.663924177163, 82439.55909485329, 54176.024100306524, 40924.457123810906, 30824.083784113383, 89399.33352462454, 0.018000000000000002, 0.9480000000000001, 0.108, 192.0, 0.0, 0.0, 0.0, 0.0, 0.0, 0.0, 0.0, 0.0, 0.0, 1.6665570435386732E9, 0.0, 2022-10-23 13:30:43.538
79.0, -80395.15678824864, -121852.97123825208, 18997.172295710123, 82440.25199893142, 54182.77432713203, 40927.76518199029, 30748.758405299, 89328.76906737914, 0.018000000000000002, 0.9480000000000001, 0.108, 192.0, 0.0, 0.0, 0.0, 0.0, 0.0, 0.0, 0.0, 0.0, 0.0, 1.6665570435386877E9, 0.0, 2022-10-23 13:30:43.538
80.0, -80385.25496545494, -121842.55532533591, 18957.766170235416, 82449.41621415809, 54189.30103651298, 40936.750583261324, 30773.971173044585, 89345.13054432042, 0.018000000000000002, 0.9480000000000001, 0.108, 192.0, 0.0, 0.0, 0.0, 0.0, 0.0, 0.0, 0.0, 0.0, 0.0, 1.666557043538702E9, 0.0, 2022-10-23 13:30:43.538
81.0, -80390.1276457462, -121849.99845623953, 19255.044371491, 82454.62417061618, 54190.19510629119, 40944.88661824306, 30995.767533274597, 89512.0310201682, 0.018000000000000002, 0.9480000000000001, 0.108, 192.0, 0.0, 0.0, 0.0, 0.0, 0.0, 0.0, 0.0, 0.0, 0.0, 1.666557043538716E9, 0.0, 2022-10-23 13:30:43.538
82.0, -80396.98963129397, -121861.48725288955, 19613.07461417611, 82440.78844079834, 54178.39338521879, 40925.977042433864, 31165.439625434832, 89613.79851267321, 0.018000000000000002, 0.9480000000000001, 0.108, 192.0, 0.0, 0.0, 0.0, 0.0, 0.0, 0.0, 0.0, 0.0, 0.0, 1.66655704353873E9, 0.0, 2022-10-23 13:30:43.538
83.0, -80382.3715904202, -121839.38137762326, 19630.710140551346, 82457.19462122854, 54199.4934319846, 40936.48236232786, 31078.312525548045, 89523.07278192912, 0.018000000000000002, 0.9480000000000001, 0.108, 192.0, 0.0, 0.0, 0.0, 0.0, 0.0, 0.0, 0.0, 0.0, 0.0, 1.666557043538746E9, 0.0, 2022-10-23 13:30:43.538
84.0, -80381.74574157545, -121834.15106942071, 19617.008521200245, 82467.34231321125, 54213.17269959125, 40947.948807233435, 31070.556470222054, 89507.85124395505, 0.018000000000000002, 0.9480000000000001, 0.108, 192.0, 0.0, 0.0, 0.0, 0.0, 0.0, 0.0, 0.0, 0.0, 0.0, 1.6665570435387733E9, 0.0, 2022-10-23 13:30:43.538
85.0, -80393.34629694776, -121850.06551147289, 19856.038076405297, 82467.85640333372, 54214.40204553629, 40961.292798673254, 31224.716451730306, 89619.29704180922, 0.024, 0.9540000000000001, 0.106, 192.0, 0.0, 192.0, 29.0, 208.0, 3.0, 80.0, 0.0, 0.0, 0.0, 1.6665570435388043E9, 0.0, 2022-10-23 13:30:43.538
86.0, -80379.08588398527, -121835.3133601324, 20241.315095581424, 82471.11975802419, 54215.56433624797, 40960.8681155286, 31385.40314261951, 89716.41537146752, 0.024, 0.9540000000000001, 0.106, 192.0, 0.0, 0.0, 0.0, 0.0, 0.0, 0.0, 0.0, 0.0, 0.0, 1.666557043538826E9, 0.0, 2022-10-23 13:30:43.538
87.0, -80369.6757995696, -121819.17540063565, 20323.25659075458, 82489.40348498864, 54234.831539968436, 40972.71454008991, 31310.502446949777, 89636.5078850398, 0.024, 0.9540000000000001, 0.106, 192.0, 0.0, 0.0, 0.0, 0.0, 0.0, 0.0, 0.0, 0.0, 0.0, 1.666557043539003E9, 0.0, 2022-10-23 13:30:43.539
88.0, -80374.34731416075, -121824.36100534929, 20297.77560207553, 82490.99045884496, 54240.39712433781, 40978.973028537395, 31244.22952463979, 89573.67713137592, 0.024, 0.9540000000000001, 0.106, 192.0, 0.0, 0.0, 0.0, 0.0, 0.0, 0.0, 0.0, 0.0, 0.0, 1.6665570435390177E9, 0.0, 2022-10-23 13:30:43.539
89.0, -80370.54751760335, -121826.752642006, 20457.85879586444, 82483.50262445243, 54229.75769397709, 40971.10521448913, 31326.841572146604, 89629.57884425865, 0.024, 0.9540000000000001, 0.106, 192.0, 0.0, 0.0, 0.0, 0.0, 0.0, 0.0, 0.0, 0.0, 0.0, 1.666557043539032E9, 0.0, 2022-10-23 13:30:43.539
90.0, -80378.08005548478, -121833.63697929824, 20890.61092026364, 82474.74074062596, 54217.62069673785, 40962.07510972919, 31510.19293191349, 89754.41333704154, 0.024, 0.9540000000000001, 0.106, 192.0, 0.0, 0.0, 0.0, 0.0, 0.0, 0.0, 0.0, 0.0, 0.0, 1.666557043539046E9, 0.0, 2022-10-23 13:30:43.539
91.0, -80380.27052644141, -121829.14427866273, 21024.96725618449, 82469.19750800103, 54213.55267924699, 40951.97212123539, 31443.808250881226, 89671.44366162345, 0.024, 0.9540000000000001, 0.106, 192.0, 0.0, 0.0, 0.0, 0.0, 0.0, 0.0, 0.0, 0.0, 0.0, 1.6665570435390604E9, 0.0, 2022-10-23 13:30:43.539
92.0, -80373.49794787145, -121819.44362156912, 20957.80026409629, 82476.68534239357, 54215.54198450351, 40952.03917646875, 31303.059316046158, 89549.02315724173, 0.024, 0.9540000000000001, 0.106, 192.0, 0.0, 0.0, 0.0, 0.0, 0.0, 0.0, 0.0, 0.0, 0.0, 1.666557043539075E9, 0.0, 2022-10-23 13:30:43.539
93.0, -80388.29480270085, -121836.83327875535, 21008.78459319885, 82465.04008353235, 54200.00752210707, 40941.86913274159, 31301.070010789637, 89545.17865719541, 0.024, 0.9540000000000001, 0.106, 192.0, 0.0, 0.0, 0.0, 0.0, 0.0, 0.0, 0.0, 0.0, 0.0, 1.6665570435390925E9, 0.0, 2022-10-23 13:30:43.539
94.0, -80381.14224447517, -121831.22299089706, 21392.206417585185, 82472.59497315824, 54206.869507654854, 40960.13050796158, 31459.834451655683, 89667.68856855495, 0.024, 0.9540000000000001, 0.106, 192.0, 0.0, 0.0, 0.0, 0.0, 0.0, 0.0, 0.0, 0.0, 0.0, 1.666557043539107E9, 0.0, 2022-10-23 13:30:43.539
95.0, -80372.33565715977, -121818.59425527982, 21519.812526680533, 82475.23247900397, 54210.33402804542, 40956.80009803773, 31384.39731411902, 89590.44093971742, 0.02, 0.962, 0.10400000000000001, 192.0, 0.0, 160.0, 30.0, 16.0, 3.0, 64.0, 0.0, 0.0, 0.0, 1.6665570435391214E9, 0.0, 2022-10-23 13:30:43.539
96.0, -80382.32688693129, -121824.36100534929, 21428.28213313605, 82461.4191009306, 54194.37488250434, 40940.751545518826, 31208.623195722485, 89444.52875191317, 0.02, 0.962, 0.10400000000000001, 192.0, 0.0, 0.0, 0.0, 0.0, 0.0, 0.0, 0.0, 0.0, 0.0, 1.666557043539137E9, 0.0, 2022-10-23 13:30:43.539
97.0, -80376.6718955841, -121821.25411287, 21380.51645523506, 82463.87779282067, 54194.17371680424, 40947.54647583324, 31147.468822892766, 89401.03225720314, 0.02, 0.962, 0.10400000000000001, 192.0, 0.0, 0.0, 0.0, 0.0, 0.0, 0.0, 0.0, 0.0, 0.0, 1.6665570435391507E9, 0.0, 2022-10-23 13:30:43.539
98.0, -80381.79044506437, -121826.1491449057, 21686.780057761676, 82459.60860962971, 54188.71989115714, 40955.570752092695, 31276.706609333352, 89504.61024100904, 0.02, 0.962, 0.10400000000000001, 192.0, 0.0, 0.0, 0.0, 0.0, 0.0, 0.0, 0.0, 0.0, 0.0, 1.6665570435391653E9, 0.0, 2022-10-23 13:30:43.539
99.0, -80385.85846255523, -121831.46886008607, 21811.860419733577, 82444.6105891002, 54173.878332838816, 40932.660214026, 31213.585282991564, 89434.87279830847, 0.02, 0.962, 0.10400000000000001, 192.0, 0.0, 0.0, 0.0, 0.0, 0.0, 0.0, 0.0, 0.0, 0.0, 1.6665570435391793E9, 0.0, 2022-10-23 13:30:43.539
100.0, -80382.7739218204, -121830.68654903014, 21679.739258258254, 82444.2082577, 54171.084364781906, 40925.73117324486, 31008.217454936203, 89269.93927597276, 0.02, 0.962, 0.10400000000000001, 192.0, 0.0, 0.0, 0.0, 0.0, 0.0, 0.0, 0.0, 0.0, 0.0, 1.6665570435391936E9, 0.0, 2022-10-23 13:30:43.539
101.0, -80374.21320369402, -121828.38431935124, 21555.441207342294, 82466.67176087758, 54185.03185332201, 40943.120830431086, 30915.591825913412, 89206.95206009771, 0.02, 0.962, 0.10400000000000001, 192.0, 0.0, 0.0, 0.0, 0.0, 0.0, 0.0, 0.0, 0.0, 0.0, 1.666557043539208E9, 0.0, 2022-10-23 13:30:43.539
102.0, -80382.10336948674, -121837.88381074475, 21752.605945182557, 82463.43075793156, 54178.19221951869, 40948.708766544914, 31005.021155479095, 89286.74778780315, 0.02, 0.962, 0.10400000000000001, 192.0, 0.0, 0.0, 0.0, 0.0, 0.0, 0.0, 0.0, 0.0, 0.0, 1.666557043539222E9, 0.0, 2022-10-23 13:30:43.539
103.0, -80390.08294225729, -121837.79440376692, 21899.367499276104, 82455.07120550529, 54170.88319908181, 40935.78945824975, 30992.437123350755, 89266.072424182, 0.02, 0.962, 0.10400000000000001, 192.0, 0.0, 0.0, 0.0, 0.0, 0.0, 0.0, 0.0, 0.0, 0.0, 1.6665570435392976E9, 0.0, 2022-10-23 13:30:43.539
104.0, -80387.13251198918, -121837.43677585565, 21719.81593606662, 82452.36664442619, 54162.613053633344, 40920.2102923644, 30765.18693747365, 89081.6258289368, 0.006, 0.966, 0.096, 192.0, 0.0, 48.0, 30.0, 48.0, 3.0, 0.0, 0.0, 0.0, 0.0, 1.666557043539312E9, 0.0, 2022-10-23 13:30:43.539
105.0, -80380.20347120803, -121830.08305192985, 21483.356831473928, 82466.7164643665, 54171.44199269319, 40937.39878385053, 30610.646976309657, 88969.53183049343, 0.006, 0.966, 0.096, 192.0, 0.0, 0.0, 0.0, 0.0, 0.0, 0.0, 0.0, 0.0, 0.0, 1.6665570435393271E9, 0.0, 2022-10-23 13:30:43.539
106.0, -80395.33560220429, -121846.95861899361, 21538.11860538943, 82463.43075793156, 54164.66941412323, 40940.036289696254, 30646.67798837161, 89010.7037437801, 0.006, 0.966, 0.096, 192.0, 0.0, 0.0, 0.0, 0.0, 0.0, 0.0, 0.0, 0.0, 0.0, 1.6665570435393417E9, 0.0, 2022-10-23 13:30:43.539
107.0, -80400.94589006256, -121849.99845623953, 21683.896682726943, 82461.39674918614, 54165.071745523426, 40934.7612780048, 30674.461206729557, 89031.66968007918, 0.006, 0.966, 0.096, 192.0, 0.0, 0.0, 0.0, 0.0, 0.0, 0.0, 0.0, 0.0, 0.0, 1.666557043539356E9, 0.0, 2022-10-23 13:30:43.539
108.0, -80398.48719817249, -121842.80119452492, 21458.59109861745, 82458.62513287367, 54163.283605967, 40928.927472701966, 30434.828154424213, 88842.88684640966, 0.006, 0.966, 0.096, 192.0, 0.0, 0.0, 0.0, 0.0, 0.0, 0.0, 0.0, 0.0, 0.0, 1.6665570435393703E9, 0.0, 2022-10-23 13:30:43.539
109.0, -80383.89150904317, -121831.46886008607, 21145.13023437622, 82461.82143233079, 54170.21264674815, 40941.355042619114, 30245.508878887762, 88708.30699304426, 0.006, 0.966, 0.096, 192.0, 0.0, 0.0, 0.0, 0.0, 0.0, 0.0, 0.0, 0.0, 0.0, 1.6665570435393844E9, 0.0, 2022-10-23 13:30:43.539
110.0, -80398.39779119466, -121848.2103166831, 21059.523053112396, 82451.74079558144, 54162.680108866705, 40943.23258915336, 30230.712024058346, 88715.16897859205, 0.006, 0.966, 0.096, 192.0, 0.0, 0.0, 0.0, 0.0, 0.0, 0.0, 0.0, 0.0, 0.0, 1.666557043539399E9, 0.0, 2022-10-23 13:30:43.539
111.0, -80391.8710818137, -121842.37651138027, 21163.52572006294, 82460.90501080811, 54166.07757402391, 40947.85940025561, 30275.102588546586, 88757.97256922396, 0.006, 0.966, 0.096, 192.0, 0.0, 0.0, 0.0, 0.0, 0.0, 0.0, 0.0, 0.0, 0.0, 1.6665570435394132E9, 0.0, 2022-10-23 13:30:43.539
112.0, -80388.31715444532, -121837.72734853356, 20915.734281031404, 82462.33552245326, 54168.24569323608, 40943.50081008683, 30051.0934056155, 88586.46763401838, 0.006, 0.966, 0.096, 192.0, 0.0, 0.0, 0.0, 0.0, 0.0, 0.0, 0.0, 0.0, 0.0, 1.6665570435394273E9, 0.0, 2022-10-23 13:30:43.539
113.0, -80404.94685232006, -121845.52810734847, 20535.531107846633, 82441.61545534318, 54148.30793718195, 40927.72047850138, 29829.94524597469, 88432.39705948795, 0.006, 0.966, 0.096, 192.0, 0.0, 0.0, 0.0, 0.0, 0.0, 0.0, 0.0, 0.0, 0.0, 1.6665570435394416E9, 0.0, 2022-10-23 13:30:43.539
114.0, -80400.76707610692, -121835.22395315456, 20330.185631535725, 82454.64652236064, 54156.533379141496, 40947.166496177495, 29780.927870384203, 88419.56715817061, 0.002, 0.96, 0.08600000000000001, 192.0, 0.0, 16.0, 30.0, 0.0, 2.0, 176.0, 0.0, 0.0, 0.0, 1.6665570435394576E9, 0.0, 2022-10-23 13:30:43.539
115.0, -80389.34533469025, -121820.29298785843, 20433.76361534162, 82464.72715910997, 54169.542094414486, 40970.948752277945, 29876.146301763813, 88522.13931347601, 0.002, 0.96, 0.08600000000000001, 192.0, 0.0, 0.0, 0.0, 0.0, 0.0, 0.0, 0.0, 0.0, 0.0, 1.6665570435394726E9, 0.0, 2022-10-23 13:30:43.539
116.0, -80382.32688693129, -121811.32993833184, 20271.24408140708, 82458.7145398515, 54169.5867979034, 40961.89629577354, 29741.544096653954, 88431.27947226519, 0.002, 0.96, 0.08600000000000001, 192.0, 0.0, 0.0, 0.0, 0.0, 0.0, 0.0, 0.0, 0.0, 0.0, 1.666557043539487E9, 0.0, 2022-10-23 13:30:43.539
117.0, -80382.66216309812, -121813.74392673302, 19924.412062694082, 82447.69512983503, 54157.82978031991, 40950.72042354589, 29543.75350996894, 88301.25937476866, 0.002, 0.96, 0.08600000000000001, 192.0, 0.0, 0.0, 0.0, 0.0, 0.0, 0.0, 0.0, 0.0, 0.0, 1.6665570435395012E9, 0.0, 2022-10-23 13:30:43.539
118.0, -80397.43666618309, -121823.37752859325, 19687.7964958902, 82445.92934202307, 54151.8842162948, 40949.826353767676, 29493.2609192444, 88292.11751128644, 0.002, 0.96, 0.08600000000000001, 192.0, 0.0, 0.0, 0.0, 0.0, 0.0, 0.0, 0.0, 0.0, 0.0, 1.6665570435395594E9, 0.0, 2022-10-23 13:30:43.539
119.0, -80413.06053555734, -121837.6602933002, 19830.557087726247, 82438.91089426409, 54138.09318996587, 40948.10526944462, 29634.76981339095, 88429.31251875313, 0.002, 0.96, 0.08600000000000001, 192.0, 0.0, 0.0, 0.0, 0.0, 0.0, 0.0, 0.0, 0.0, 0.0, 1.666557043539574E9, 0.0, 2022-10-23 13:30:43.539
120.0, -80400.94589006256, -121821.03059542544, 19761.892528759545, 82429.8584377597, 54130.8288730179, 40939.45514434041, 29565.85938523524, 88388.69939907783, 0.002, 0.96, 0.08600000000000001, 192.0, 0.0, 0.0, 0.0, 0.0, 0.0, 0.0, 0.0, 0.0, 0.0, 1.6665570435395885E9, 0.0, 2022-10-23 13:30:43.539
121.0, -80394.44153242606, -121817.14139189023, 19508.781374547645, 82429.4114028706, 54128.57134682791, 40937.75641176181, 29416.996767162895, 88295.55967993256, 0.002, 0.96, 0.08600000000000001, 192.0, 0.0, 0.0, 0.0, 0.0, 0.0, 0.0, 0.0, 0.0, 0.0, 1.6665570435396025E9, 0.0, 2022-10-23 13:30:43.539
122.0, -80414.04401231337, -121835.33571187685, 19331.375578805873, 82424.89635049061, 54119.92122172371, 40937.465839083896, 29406.647909480085, 88315.18451156432, 0.002, 0.96, 0.08600000000000001, 192.0, 0.0, 0.0, 0.0, 0.0, 0.0, 0.0, 0.0, 0.0, 0.0, 1.6665570435396173E9, 0.0, 2022-10-23 13:30:43.539
123.0, -80418.02262282642, -121839.44843285662, 19531.513098658696, 82427.60091156971, 54119.340076367866, 40948.0158624668, 29589.775751802415, 88486.77885374772, 0.002, 0.96, 0.08600000000000001, 192.0, 0.0, 0.0, 0.0, 0.0, 0.0, 0.0, 0.0, 0.0, 0.0, 1.6665570435396318E9, 0.0, 2022-10-23 13:30:43.539
124.0, -80399.4259714396, -121822.23758962603, 19659.32037345414, 82431.82539127176, 54124.70449503714, 40944.28312114276, 29648.71730193106, 88543.26171198627, 0.008, 0.9460000000000001, 0.082, 192.0, 0.0, 64.0, 29.0, 144.0, 2.0, 144.0, 0.0, 0.0, 0.0, 1.666557043539646E9, 0.0, 2022-10-23 13:30:43.539
125.0, -80397.68253537209, -121817.23079886804, 19545.572345921082, 82437.21216168549, 54130.09126545087, 40949.58048457867, 29557.745701997963, 88489.79633924918, 0.008, 0.9460000000000001, 0.082, 192.0, 0.0, 0.0, 0.0, 0.0, 0.0, 0.0, 0.0, 0.0, 0.0, 1.6665570435396616E9, 0.0, 2022-10-23 13:30:43.539
126.0, -80410.55714017834, -121828.2055053956, 19461.194510602298, 82433.30060640581, 54129.7783410285, 40959.86228702811, 29583.494911610476, 88526.52025538924, 0.008, 0.9460000000000001, 0.082, 192.0, 0.0, 0.0, 0.0, 0.0, 0.0, 0.0, 0.0, 0.0, 0.0, 1.6665570435396764E9, 0.0, 2022-10-23 13:30:43.539
127.0, -80427.07507933081, -121845.90808700421, 19716.071452626165, 82417.02853644235, 54114.601506543346, 40951.72625204638, 29789.3321262994, 88704.2389755534, 0.008, 0.9460000000000001, 0.082, 192.0, 0.0, 0.0, 0.0, 0.0, 0.0, 0.0, 0.0, 0.0, 0.0, 1.6665570435396905E9, 0.0, 2022-10-23 13:30:43.539
128.0, -80428.0362043424, -121840.92364799067, 20017.350616139247, 82415.32980386374, 54105.571401783396, 40932.05671692571, 29941.83807871796, 88820.82567463227, 0.008, 0.9460000000000001, 0.082, 192.0, 0.0, 0.0, 0.0, 0.0, 0.0, 0.0, 0.0, 0.0, 0.0, 1.6665570435397053E9, 0.0, 2022-10-23 13:30:43.539
129.0, -80433.44532650057, -121844.54463059243, 20009.303988135336, 82414.43573408553, 54101.74925348154, 40920.90319644251, 29866.713865603673, 88757.45847910148, 0.008, 0.9460000000000001, 0.082, 192.0, 0.0, 0.0, 0.0, 0.0, 0.0, 0.0, 0.0, 0.0, 0.0, 1.6665570435397193E9, 0.0, 2022-10-23 13:30:43.539
130.0, -80422.89530311768, -121838.88963924524, 19983.241854100448, 82431.57952208276, 54122.4246171027, 40950.876885757076, 29883.589432667428, 88777.59740085571, 0.008, 0.9460000000000001, 0.082, 192.0, 0.0, 0.0, 0.0, 0.0, 0.0, 0.0, 0.0, 0.0, 0.0, 1.666557043539734E9, 0.0, 2022-10-23 13:30:43.539
131.0, -80406.24325349847, -121820.4494500696, 20223.925438395196, 82447.13633622364, 54137.735562054586, 40978.50364190384, 30066.18083312283, 88933.65728064267, 0.008, 0.9460000000000001, 0.082, 192.0, 0.0, 0.0, 0.0, 0.0, 0.0, 0.0, 0.0, 0.0, 0.0, 1.66655704353975E9, 0.0, 2022-10-23 13:30:43.539
132.0, -80402.95754706355, -121812.33576683233, 20608.062518604103, 82437.68154831906, 54133.75695154154, 40980.247077971355, 30267.480643687326, 89083.45867198214, 0.008, 0.9460000000000001, 0.082, 192.0, 0.0, 0.0, 0.0, 0.0, 0.0, 0.0, 0.0, 0.0, 0.0, 1.6665570435397646E9, 0.0, 2022-10-23 13:30:43.539
133.0, -80400.14122726217, -121807.30662432988, 20666.221757676813, 82441.70486232101, 54136.21564343163, 40973.89918254605, 30214.12702967251, 89027.62401433277, 0.008, 0.9460000000000001, 0.082, 192.0, 0.0, 0.0, 0.0, 0.0, 0.0, 0.0, 0.0, 0.0, 0.0, 1.6665570435397804E9, 0.0, 2022-10-23 13:30:43.539
134.0, -80411.89824484567, -121819.62243552477, 20655.604679060543, 82446.5104873789, 54129.688934050675, 40972.51337438982, 30209.388459847985, 89022.8183892749, 0.016, 0.9440000000000001, 0.08600000000000001, 192.0, 0.0, 128.0, 29.0, 128.0, 2.0, 176.0, 0.0, 0.0, 0.0, 1.6665570435398116E9, 0.0, 2022-10-23 13:30:43.539
135.0, -80410.17716052261, -121818.54955179091, 20838.754873127327, 82446.62224610118, 54128.23607066108, 40975.86613605811, 30348.706883037914, 89133.03484118401, 0.016, 0.9440000000000001, 0.08600000000000001, 192.0, 0.0, 0.0, 0.0, 0.0, 0.0, 0.0, 0.0, 0.0, 0.0, 1.6665570435398288E9, 0.0, 2022-10-23 13:30:43.539
136.0, -80407.1820267656, -121821.72349950355, 21274.077448138887, 82432.76416453888, 54117.32841936689, 40963.34915916314, 30582.14850212914, 89299.93531703179, 0.016, 0.9440000000000001, 0.08600000000000001, 192.0, 0.0, 0.0, 0.0, 0.0, 0.0, 0.0, 0.0, 0.0, 0.0, 1.666557043539843E9, 0.0, 2022-10-23 13:30:43.539
137.0, -80407.24908199896, -121816.91787444567, 21407.271493348064, 82432.4065366276, 54115.80850074393, 40952.262693913304, 30564.42356877608, 89260.28332236806, 0.016, 0.9440000000000001, 0.08600000000000001, 192.0, 0.0, 0.0, 0.0, 0.0, 0.0, 0.0, 0.0, 0.0, 0.0, 1.666557043539858E9, 0.0, 2022-10-23 13:30:43.539
138.0, -80410.64654715617, -121810.23470285353, 21388.384269283328, 82437.41332738558, 54131.09709395136, 40977.74368259236, 30514.89210306312, 89215.9598131132, 0.016, 0.9440000000000001, 0.08600000000000001, 192.0, 0.0, 0.0, 0.0, 0.0, 0.0, 0.0, 0.0, 0.0, 0.0, 1.6665570435398726E9, 0.0, 2022-10-23 13:30:43.539
139.0, -80405.57270116481, -121807.21721735207, 21504.456878239736, 82452.25488570391, 54148.68791683768, 41003.89522360507, 30603.181493661585, 89286.74778780315, 0.016, 0.9440000000000001, 0.08600000000000001, 192.0, 0.0, 0.0, 0.0, 0.0, 0.0, 0.0, 0.0, 0.0, 0.0, 1.6665570435398867E9, 0.0, 2022-10-23 13:30:43.539
140.0, -80401.5270354184, -121798.14240910321, 21966.802712297766, 82449.6620833471, 54146.09511448087, 41003.47054046042, 30852.112871660338, 89471.8202318931, 0.016, 0.9440000000000001, 0.08600000000000001, 192.0, 0.0, 0.0, 0.0, 0.0, 0.0, 0.0, 0.0, 0.0, 0.0, 1.6665570435399013E9, 0.0, 2022-10-23 13:30:43.539
141.0, -80412.79231462388, -121808.02188015246, 22150.154072064648, 82428.76320228139, 54127.163186927224, 40973.16157497902, 30844.088595400885, 89433.55404538561, 0.016, 0.9440000000000001, 0.08600000000000001, 192.0, 0.0, 0.0, 0.0, 0.0, 0.0, 0.0, 0.0, 0.0, 0.0, 1.666557043539915E9, 0.0, 2022-10-23 13:30:43.539
142.0, -80417.93321584859, -121823.71280476009, 22123.443737440557, 82429.79138252632, 54128.19136717217, 40973.519202890304, 30747.55141109841, 89343.00712859716, 0.016, 0.9440000000000001, 0.08600000000000001, 192.0, 0.0, 0.0, 0.0, 0.0, 0.0, 0.0, 0.0, 0.0, 0.0, 1.6665570435399299E9, 0.0, 2022-10-23 13:30:43.539
143.0, -80420.9283496056, -121824.8080402384, 22157.15016807916, 82439.13441170864, 54138.71903881062, 40984.69507511796, 30772.00421953252, 89354.25005605818, 0.026000000000000002, 0.96, 0.096, 192.0, 0.0, 208.0, 30.0, 0.0, 3.0, 0.0, 0.0, 0.0, 0.0, 1.6665570435399451E9, 0.0, 2022-10-23 13:30:43.539
144.0, -80422.11299206174, -121825.14331640523, 22525.663378913807, 82432.27242616087, 54126.49263459357, 40974.435624412974, 30951.309913552992, 89487.15352858944, 0.026000000000000002, 0.96, 0.096, 192.0, 0.0, 0.0, 0.0, 0.0, 0.0, 0.0, 0.0, 0.0, 0.0, 1.6665570435399587E9, 0.0, 2022-10-23 13:30:43.539
145.0, -80420.32485250532, -121824.8080402384, 22697.79416296413, 82423.44348710102, 54110.98052394158, 40943.83608625366, 30919.861009104374, 89439.74547859973, 0.026000000000000002, 0.96, 0.096, 192.0, 0.0, 0.0, 0.0, 0.0, 0.0, 0.0, 0.0, 0.0, 0.0, 1.666557043539972E9, 0.0, 2022-10-23 13:30:43.539
146.0, -80411.25004425646, -121816.96257793458, 22646.854537350482, 82432.98768198343, 54115.8755559773, 40940.63978679655, 30775.111112011808, 89320.92360507532, 0.026000000000000002, 0.96, 0.096, 192.0, 0.0, 0.0, 0.0, 0.0, 0.0, 0.0, 0.0, 0.0, 0.0, 1.6665570435399852E9, 0.0, 2022-10-23 13:30:43.539
147.0, -80422.8282478843, -121826.86440072829, 22609.102440965467, 82436.34044365173, 54120.70353277964, 40953.179115435974, 30736.062614448383, 89289.74292156016, 0.026000000000000002, 0.96, 0.096, 192.0, 0.0, 0.0, 0.0, 0.0, 0.0, 0.0, 0.0, 0.0, 0.0, 1.6665570435399983E9, 0.0, 2022-10-23 13:30:43.539
148.0, -80438.65328295866, -121841.99653172452, 22889.683889112937, 82427.33269063625, 54115.987314699574, 40952.73208054687, 30862.19350840968, 89390.50458556469, 0.026000000000000002, 0.96, 0.096, 192.0, 0.0, 0.0, 0.0, 0.0, 0.0, 0.0, 0.0, 0.0, 0.0, 1.6665570435400116E9, 0.0, 2022-10-23 13:30:43.540
149.0, -80417.30736700384, -121825.2997786164, 23096.90691195809, 82441.63780708764, 54141.87063477882, 40981.11879600511, 30875.78336903851, 89396.76307401218, 0.026000000000000002, 0.96, 0.096, 192.0, 0.0, 0.0, 0.0, 0.0, 0.0, 0.0, 0.0, 0.0, 0.0, 1.666557043540037E9, 0.0, 2022-10-23 13:30:43.540
150.0, -80406.62323315421, -121815.80028722291, 22991.51843685132, 82449.68443509155, 54150.25253894956, 40989.38894145357, 30678.350410264782, 89247.00638616162, 0.026000000000000002, 0.96, 0.096, 192.0, 0.0, 0.0, 0.0, 0.0, 0.0, 0.0, 0.0, 0.0, 0.0, 1.6665570435400503E9, 0.0, 2022-10-23 13:30:43.540
151.0, -80412.94877683507, -121820.94118844763, 22842.164080400955, 82444.58823735574, 54144.03875399098, 40980.89527856056, 30551.727777925465, 89161.86859153135, 0.026000000000000002, 0.96, 0.096, 192.0, 0.0, 0.0, 0.0, 0.0, 0.0, 0.0, 0.0, 0.0, 0.0, 1.6665570435400631E9, 0.0, 2022-10-23 13:30:43.540
152.0, -80419.8331141273, -121829.14427866273, 23011.903227794555, 82444.14120246664, 54142.340021412376, 40977.162537236516, 30630.361214919238, 89243.5642175155, 0.026000000000000002, 0.96, 0.096, 192.0, 0.0, 0.0, 0.0, 0.0, 0.0, 0.0, 0.0, 0.0, 0.0, 1.6665570435400763E9, 0.0, 2022-10-23 13:30:43.540
153.0, -80413.73108789099, -121819.53302854694, 23228.469279822028, 82441.63780708764, 54141.490655123074, 40958.47647887188, 30669.946154349585, 89275.70602604223, 0.036000000000000004, 0.97, 0.10400000000000001, 192.0, 1.0, 32.0, 30.0, 80.0, 3.0, 64.0, 0.0, 0.0, 0.0, 1.6665570435400891E9, 0.0, 2022-10-23 13:30:43.540
154.0, -80410.69125064508, -121815.30854884489, 23064.89921389809, 82443.82827804427, 54143.50231212405, 40944.640749054044, 30429.530790988305, 89092.44407325317, 0.036000000000000004, 0.97, 0.10400000000000001, 192.0, 0.0, 0.0, 0.0, 0.0, 0.0, 0.0, 0.0, 0.0, 0.0, 1.6665570435401034E9, 0.0, 2022-10-23 13:30:43.540
155.0, -80408.63489015518, -121816.09085990083, 22829.624751761527, 82450.3549874252, 54155.32638494091, 40967.95361852093, 30255.209535981365, 88978.40547304219, 0.036000000000000004, 0.97, 0.10400000000000001, 192.0, 0.0, 0.0, 0.0, 0.0, 0.0, 0.0, 0.0, 0.0, 0.0, 1.6665570435401165E9, 0.0, 2022-10-23 13:30:43.540
156.0, -80404.6339278977, -121812.33576683233, 22841.113548411555, 82467.78934810036, 54167.19516124668, 40999.804854369744, 30259.858698828066, 89015.64347930474, 0.036000000000000004, 0.97, 0.10400000000000001, 192.0, 0.0, 0.0, 0.0, 0.0, 0.0, 0.0, 0.0, 0.0, 0.0, 1.66655704354013E9, 0.0, 2022-10-23 13:30:43.540
157.0, -80397.9284045611, -121810.72644123156, 23049.252992779377, 82464.50364166542, 54166.47990542411, 40995.80389211224, 30329.998472928823, 89095.9309453882, 0.036000000000000004, 0.97, 0.10400000000000001, 192.0, 0.0, 0.0, 0.0, 0.0, 0.0, 0.0, 0.0, 0.0, 0.0, 1.6665570435401447E9, 0.0, 2022-10-23 13:30:43.540
0.0, 0.0, 0.0, 0.0, 0.0, 0.0, 0.0, 0.0, 0.0, 0.026000000000000002, 0.9560000000000001, 0.12, 192.0, 0.0, 208.0, 29.0, 224.0, 3.0, 192.0, 0.0, 0.0, 0.0, 1.6665570436353376E9, 0.0, 2022-10-23 13:30:43.635
1.0, -78787.82049272305, -117007.04598510814, 54339.23653831918, 82900.40736203283, 50926.88511930527, 42668.80961284752, 30928.01939583056, 85202.34646825153, 0.026000000000000002, 0.9560000000000001, 0.12, 192.0, 0.0, 0.0, 0.0, 0.0, 0.0, 0.0, 0.0, 0.0, 0.0, 1.6665570436513557E9, 0.0, 2022-10-23 13:30:43.651
2.0, -78788.0440101676, -117005.79428741864, 54146.78801855898, 82891.46666425069, 50915.35161916633, 42647.15077247033, 30753.295809423427, 85051.58395190048, 0.026000000000000002, 0.9560000000000001, 0.12, 192.0, 0.0, 0.0, 0.0, 0.0, 0.0, 0.0, 0.0, 0.0, 0.0, 1.666557043969896E9, 0.0, 2022-10-23 13:30:43.969
3.0, -78797.07411492756, -117011.58338923258, 53902.10347200674, 82880.53666121206, 50911.37300865329, 42640.177028200276, 30656.043369298386, 84975.83388994145, 0.026000000000000002, 0.9560000000000001, 0.12, 192.0, 0.0, 0.0, 0.0, 0.0, 0.0, 0.0, 0.0, 0.0, 0.0, 1.666557043970024E9, 0.0, 2022-10-23 13:30:43.970
4.0, -78798.79519925061, -117016.27725556819, 53937.70980092404, 82889.07502759398, 50922.101845991834, 42656.11382199691, 30758.548469370424, 85067.40898697484, 0.026000000000000002, 0.9560000000000001, 0.12, 192.0, 0.0, 0.0, 0.0, 0.0, 0.0, 0.0, 0.0, 0.0, 0.0, 1.6665570439700537E9, 0.0, 2022-10-23 13:30:43.970
5.0, -78794.10133291499, -117009.34821478704, 54180.7403183866, 82897.32282129799, 50926.19221522716, 42665.14392675686, 30909.400392699292, 85187.30374423311, 0.026000000000000002, 0.9560000000000001, 0.12, 192.0, 0.0, 0.0, 0.0, 0.0, 0.0, 0.0, 0.0, 0.0, 0.0, 1.6665570439700775E9, 0.0, 2022-10-23 13:30:43.970
6.0, -78782.88075719844, -116999.20052280433, 54040.46077018509, 82904.20715859022, 50927.55567163893, 42653.67748185128, 30766.84096656334, 85066.58197243, 0.026000000000000002, 0.9560000000000001, 0.12, 192.0, 0.0, 0.0, 0.0, 0.0, 0.0, 0.0, 0.0, 0.0, 0.0, 1.6665570439701035E9, 0.0, 2022-10-23 13:30:43.970
7.0, -78797.87877772794, -117016.72429045729, 53761.15337147157, 82880.67077167878, 50913.54112786545, 42633.78442928605, 30623.789802049378, 84950.93404661823, 0.022, 0.9540000000000001, 0.136, 192.0, 0.0, 176.0, 29.0, 208.0, 4.0, 64.0, 0.0, 0.0, 0.0, 1.6665570439702134E9, 0.0, 2022-10-23 13:30:43.970
8.0, -78797.02941143863, -117015.89727591244, 53721.99311518588, 82889.41030376081, 50928.472093161596, 42664.45102267874, 30695.963584895562, 85015.28471890507, 0.022, 0.9540000000000001, 0.136, 192.0, 0.0, 0.0, 0.0, 0.0, 0.0, 0.0, 0.0, 0.0, 0.0, 1.6665570439702432E9, 0.0, 2022-10-23 13:30:43.970
9.0, -78790.36859159096, -117009.79524967614, 53987.93417071512, 82896.69697245324, 50933.54593915295, 42683.18178453229, 30882.868872030842, 85166.91895328986, 0.022, 0.9540000000000001, 0.136, 192.0, 0.0, 0.0, 0.0, 0.0, 0.0, 0.0, 0.0, 0.0, 0.0, 1.6665570439702697E9, 0.0, 2022-10-23 13:30:43.970
10.0, -78781.4949490422, -116999.51344722671, 53913.92754482359, 82896.18288233077, 50927.95800303912, 42663.98163604518, 30787.024591806483, 85077.1319958129, 0.022, 0.9540000000000001, 0.136, 192.0, 0.0, 0.0, 0.0, 0.0, 0.0, 0.0, 0.0, 0.0, 0.0, 1.666557043970296E9, 0.0, 2022-10-23 13:30:43.970
11.0, -78779.7962164636, -116996.00422334722, 53655.34021322015, 82900.5191207551, 50930.41669492921, 42659.89126680986, 30637.60318012276, 84960.99233162313, 0.022, 0.9540000000000001, 0.136, 192.0, 0.0, 0.0, 0.0, 0.0, 0.0, 0.0, 0.0, 0.0, 0.0, 1.666557043970323E9, 0.0, 2022-10-23 13:30:43.970
12.0, -78796.29180387162, -117015.7184619568, 53521.050932532664, 82892.09251309544, 50926.50513964953, 42662.34995869994, 30644.64397962618, 84972.63759048434, 0.022, 0.9540000000000001, 0.136, 192.0, 0.0, 0.0, 0.0, 0.0, 0.0, 0.0, 0.0, 0.0, 0.0, 1.6665570439703496E9, 0.0, 2022-10-23 13:30:43.970
13.0, -78788.82632122355, -117013.43858402235, 53787.30491248428, 82894.70766719672, 50934.976450798094, 42683.986447332674, 30852.045816426973, 85147.94232224731, 0.022, 0.9540000000000001, 0.136, 192.0, 0.0, 0.0, 0.0, 0.0, 0.0, 0.0, 0.0, 0.0, 0.0, 1.6665570439703765E9, 0.0, 2022-10-23 13:30:43.970
14.0, -78786.59114677801, -117016.90310441294, 53813.38939826362, 82891.80194041753, 50922.817101814406, 42666.663845379815, 30831.05752838344, 85119.30973760007, 0.022, 0.9540000000000001, 0.136, 192.0, 0.0, 0.0, 0.0, 0.0, 0.0, 0.0, 0.0, 0.0, 0.0, 1.6665570439704041E9, 0.0, 2022-10-23 13:30:43.970
15.0, -78789.094542157, -117017.32778755759, 53566.492029010304, 82898.2615945651, 50922.392418669755, 42662.84169707796, 30666.079302558817, 84983.94757317872, 0.022, 0.9540000000000001, 0.136, 192.0, 0.0, 0.0, 0.0, 0.0, 0.0, 0.0, 0.0, 0.0, 0.0, 1.66655704397043E9, 0.0, 2022-10-23 13:30:43.970
16.0, -78793.9001672149, -117018.28891256916, 53369.349642914494, 82904.65419347933, 50927.26509896101, 42676.31979898451, 30629.243627696473, 84957.77368042155, 0.022, 0.9540000000000001, 0.136, 192.0, 0.0, 0.0, 0.0, 0.0, 0.0, 0.0, 0.0, 0.0, 0.0, 1.666557043970456E9, 0.0, 2022-10-23 13:30:43.970
17.0, -78800.11395217347, -117024.18977310536, 53580.551276272694, 82898.57451898749, 50924.89581404875, 42679.85137460844, 30811.00801360703, 85114.59351952, 0.022, 0.9440000000000001, 0.13, 192.0, 0.0, 176.0, 29.0, 128.0, 4.0, 16.0, 0.0, 0.0, 0.0, 1.666557043970482E9, 0.0, 2022-10-23 13:30:43.970
18.0, -78795.95652770478, -117019.78647944766, 53663.610358668615, 82894.84177766345, 50915.70924707762, 42670.374234959396, 30830.6775487277, 85124.18241789132, 0.022, 0.9440000000000001, 0.13, 192.0, 0.0, 0.0, 0.0, 0.0, 0.0, 0.0, 0.0, 0.0, 0.0, 1.6665570439705105E9, 0.0, 2022-10-23 13:30:43.970
19.0, -78785.33944908851, -117009.88465665397, 53423.597326707524, 82897.3675247869, 50920.82779655788, 42672.452947193735, 30654.657561142158, 84981.08654988844, 0.022, 0.9440000000000001, 0.13, 192.0, 0.0, 0.0, 0.0, 0.0, 0.0, 0.0, 0.0, 0.0, 0.0, 1.666557043970536E9, 0.0, 2022-10-23 13:30:43.970
20.0, -78791.1509026469, -117017.99833989124, 53187.36173955938, 82887.19748105973, 50920.13489247977, 42673.39172046086, 30587.95995568752, 84933.07500279845, 0.022, 0.9440000000000001, 0.13, 192.0, 0.0, 0.0, 0.0, 0.0, 0.0, 0.0, 0.0, 0.0, 0.0, 1.666557043970574E9, 0.0, 2022-10-23 13:30:43.970
21.0, -78797.02941143863, -117023.22864809379, 53319.61701150144, 82887.84568164893, 50922.392418669755, 42683.31589499902, 30734.497992336514, 85064.88323985139, 0.022, 0.9440000000000001, 0.13, 192.0, 0.0, 0.0, 0.0, 0.0, 0.0, 0.0, 0.0, 0.0, 0.0, 1.666557043970599E9, 0.0, 2022-10-23 13:30:43.970
22.0, -78805.7465917762, -117029.19656386336, 53465.618606283504, 82873.3617512419, 50907.66261907371, 42668.65315063634, 30808.214045550114, 85117.07456315453, 0.022, 0.9440000000000001, 0.13, 192.0, 0.0, 0.0, 0.0, 0.0, 0.0, 0.0, 0.0, 0.0, 0.0, 1.66655704397066E9, 0.0, 2022-10-23 13:30:43.970
23.0, -78786.45703631127, -117012.1198310995, 53262.55300790704, 82896.27228930859, 50924.24761345954, 42680.65603740884, 30647.840279083288, 84987.50150054712, 0.022, 0.9440000000000001, 0.13, 192.0, 0.0, 0.0, 0.0, 0.0, 0.0, 0.0, 0.0, 0.0, 0.0, 1.6665570439706864E9, 0.0, 2022-10-23 13:30:43.970
24.0, -78793.74370500371, -117022.31222657111, 53011.632324651764, 82893.4112660183, 50920.157244224225, 42675.49278443966, 30561.00375187442, 84918.27814796903, 0.022, 0.9440000000000001, 0.13, 192.0, 0.0, 0.0, 0.0, 0.0, 0.0, 0.0, 0.0, 0.0, 0.0, 1.6665570439707124E9, 0.0, 2022-10-23 13:30:43.970
25.0, -78798.88460622843, -117031.18586911987, 53059.107429874835, 82887.89038513784, 50916.98329651157, 42678.24204900766, 30664.760549635954, 85012.20017817023, 0.022, 0.9440000000000001, 0.13, 192.0, 0.0, 0.0, 0.0, 0.0, 0.0, 0.0, 0.0, 0.0, 0.0, 1.666557043970738E9, 0.0, 2022-10-23 13:30:43.970
26.0, -78793.94487070381, -117027.14020337346, 53271.73957487817, 82884.69408568073, 50911.73063656457, 42675.20221176174, 30798.021650078495, 85121.34374634549, 0.022, 0.9440000000000001, 0.13, 192.0, 0.0, 0.0, 0.0, 0.0, 0.0, 0.0, 0.0, 0.0, 0.0, 1.6665570439707656E9, 0.0, 2022-10-23 13:30:43.970
27.0, -78789.54157704611, -117018.80300269164, 53100.36875013933, 82890.43848400575, 50915.262212188514, 42669.72603437019, 30648.26496222794, 84994.87757621738, 0.024, 0.9440000000000001, 0.134, 192.0, 0.0, 192.0, 29.0, 128.0, 4.0, 48.0, 0.0, 0.0, 0.0, 1.6665570439707916E9, 0.0, 2022-10-23 13:30:43.970
28.0, -78785.40650432187, -117015.22672357879, 52845.13418020418, 82895.75819918612, 50920.64898260224, 42675.0233978061, 30545.84926913372, 84914.92538630073, 0.024, 0.9440000000000001, 0.134, 192.0, 0.0, 0.0, 0.0, 0.0, 0.0, 0.0, 0.0, 0.0, 0.0, 1.666557043970818E9, 0.0, 2022-10-23 13:30:43.970
29.0, -78778.7456844742, -117010.04111886515, 52825.12936891668, 82911.38206856037, 50938.1727502552, 42706.04761911007, 30626.20379045055, 84991.81538722699, 0.024, 0.9440000000000001, 0.134, 192.0, 0.0, 0.0, 0.0, 0.0, 0.0, 0.0, 0.0, 0.0, 0.0, 1.6665570439708424E9, 0.0, 2022-10-23 13:30:43.970
30.0, -78783.84188221, -117013.10330785553, 53088.70113953366, 82913.61724300591, 50940.38557295628, 42713.53545350259, 30814.249016553047, 85145.72949954623, 0.024, 0.9440000000000001, 0.134, 192.0, 0.0, 0.0, 0.0, 0.0, 0.0, 0.0, 0.0, 0.0, 0.0, 1.6665570439708674E9, 0.0, 2022-10-23 13:30:43.970
31.0, -78777.80691120708, -117008.61060722002, 52969.409879375686, 82899.4685887657, 50926.54984313844, 42693.441235237275, 30691.381477282226, 85032.76378306911, 0.024, 0.9440000000000001, 0.134, 192.0, 0.0, 0.0, 0.0, 0.0, 0.0, 0.0, 0.0, 0.0, 0.0, 1.6665570439708955E9, 0.0, 2022-10-23 13:30:43.970
32.0, -78781.65141125339, -117012.70097645534, 52704.161727924555, 82896.7640276866, 50926.14751173824, 42695.40818874934, 30556.980437872466, 84921.49679917059, 0.024, 0.9440000000000001, 0.134, 192.0, 0.0, 0.0, 0.0, 0.0, 0.0, 0.0, 0.0, 0.0, 0.0, 1.6665570439709344E9, 0.0, 2022-10-23 13:30:43.970
33.0, -78781.76316997566, -117014.2655985672, 52633.26199451232, 82902.35196380044, 50932.22718623009, 42705.15354933185, 30611.71986004351, 84970.44711952771, 0.024, 0.9440000000000001, 0.134, 192.0, 0.0, 0.0, 0.0, 0.0, 0.0, 0.0, 0.0, 0.0, 0.0, 1.6665570439709592E9, 0.0, 2022-10-23 13:30:43.970
34.0, -78777.15871061788, -117006.6660054524, 52901.170003553634, 82908.565748759, 50934.73058160908, 42714.69774421427, 30809.845722895352, 85135.6488627969, 0.024, 0.9440000000000001, 0.134, 192.0, 0.0, 0.0, 0.0, 0.0, 0.0, 0.0, 0.0, 0.0, 0.0, 1.6665570439709835E9, 0.0, 2022-10-23 13:30:43.970
35.0, -78767.05572212407, -116996.92064486988, 52842.20610168053, 82907.11288536941, 50927.24274721656, 42694.8270433935, 30725.73610851003, 85059.58587641548, 0.024, 0.9440000000000001, 0.134, 192.0, 0.0, 0.0, 0.0, 0.0, 0.0, 0.0, 0.0, 0.0, 0.0, 1.6665570439710085E9, 0.0, 2022-10-23 13:30:43.971
36.0, -78776.93519317331, -117009.07999385358, 52603.422415664485, 82897.568690487, 50927.53331989447, 42697.68806668378, 30590.128074899683, 84954.44327049772, 0.024, 0.9440000000000001, 0.134, 192.0, 0.0, 0.0, 0.0, 0.0, 0.0, 0.0, 0.0, 0.0, 0.0, 1.6665570439710338E9, 0.0, 2022-10-23 13:30:43.971
37.0, -78783.50660604317, -117015.15966834543, 52473.17880072341, 82909.59392900395, 50938.75389561104, 42715.234186081194, 30611.652804810146, 84975.74448296362, 0.024, 0.9520000000000001, 0.134, 192.0, 0.0, 192.0, 29.0, 192.0, 4.0, 48.0, 0.0, 0.0, 0.0, 1.6665570439710627E9, 0.0, 2022-10-23 13:30:43.971
38.0, -78792.91669045886, -117026.71552022881, 52701.09953893418, 82902.30726031151, 50927.60037512784, 42704.773569676116, 30798.222815778594, 85127.80340049308, 0.024, 0.9520000000000001, 0.134, 192.0, 0.0, 0.0, 0.0, 0.0, 0.0, 0.0, 0.0, 0.0, 0.0, 1.6665570439712377E9, 0.0, 2022-10-23 13:30:43.971
39.0, -78797.72231551676, -117030.40355806395, 52700.49604183389, 82890.46083575021, 50908.08730221836, 42681.52775544259, 30757.766158314487, 85079.27776328061, 0.024, 0.9520000000000001, 0.134, 192.0, 0.0, 0.0, 0.0, 0.0, 0.0, 0.0, 0.0, 0.0, 0.0, 1.6665570439712667E9, 0.0, 2022-10-23 13:30:43.971
40.0, -78795.62125153796, -117026.93903767336, 52459.208960438846, 82889.85733864992, 50914.614011599304, 42684.32172349951, 30600.231063393483, 84954.46562224218, 0.024, 0.9520000000000001, 0.134, 192.0, 0.0, 0.0, 0.0, 0.0, 0.0, 0.0, 0.0, 0.0, 0.0, 1.666557043971301E9, 0.0, 2022-10-23 13:30:43.971
41.0, -78779.81856820805, -117013.63974972245, 52292.956685180274, 82908.23047259217, 50937.36808745481, 42714.16130234734, 30596.207749391528, 84964.0545206135, 0.024, 0.9520000000000001, 0.134, 192.0, 0.0, 0.0, 0.0, 0.0, 0.0, 0.0, 0.0, 0.0, 0.0, 1.6665570439713297E9, 0.0, 2022-10-23 13:30:43.971
42.0, -78771.25785008167, -117006.15191532993, 52467.00971925375, 82923.02732742159, 50950.779134127995, 42733.31674734554, 30761.454196149614, 85110.8384264515, 0.024, 0.9520000000000001, 0.134, 192.0, 0.0, 0.0, 0.0, 0.0, 0.0, 0.0, 0.0, 0.0, 0.0, 1.6665570439713547E9, 0.0, 2022-10-23 13:30:43.971
43.0, -78781.67376299785, -117017.05956662413, 52587.01623523429, 82906.84466443595, 50934.8199885869, 42709.936822645286, 30818.831124166387, 85144.47780185674, 0.024, 0.9520000000000001, 0.134, 192.0, 0.0, 0.0, 0.0, 0.0, 0.0, 0.0, 0.0, 0.0, 0.0, 1.66655704397138E9, 0.0, 2022-10-23 13:30:43.971
44.0, -78803.04203069712, -117037.48906105627, 52379.368529244486, 82871.57361168547, 50901.7170550486, 42680.14194728636, 30659.843165855786, 84999.817311742, 0.024, 0.9520000000000001, 0.134, 192.0, 0.0, 0.0, 0.0, 0.0, 0.0, 0.0, 0.0, 0.0, 0.0, 1.6665570439714048E9, 0.0, 2022-10-23 13:30:43.971
45.0, -78790.25683286868, -117022.93807541586, 52158.399183559326, 82889.09737933843, 50920.98425876907, 42703.18659581979, 30600.00754594893, 84953.21392455268, 0.024, 0.9520000000000001, 0.134, 192.0, 0.0, 0.0, 0.0, 0.0, 0.0, 0.0, 0.0, 0.0, 0.0, 1.6665570439714427E9, 0.0, 2022-10-23 13:30:43.971
46.0, -78793.34137360351, -117027.63194175148, 52259.56317896405, 82893.70183869623, 50930.75197109604, 42717.9834506492, 30724.37265209826, 85063.72094913971, 0.026000000000000002, 0.9520000000000001, 0.136, 192.0, 0.0, 208.0, 29.0, 192.0, 4.0, 64.0, 0.0, 0.0, 0.0, 1.6665570439714668E9, 0.0, 2022-10-23 13:30:43.971
47.0, -78802.88556848593, -117038.51724130122, 52429.838768224574, 82872.24416401914, 50908.333171407365, 42697.44219749477, 30814.360775275323, 85130.61972029445, 0.026000000000000002, 0.9520000000000001, 0.136, 192.0, 0.0, 0.0, 0.0, 0.0, 0.0, 0.0, 0.0, 0.0, 0.0, 1.6665570439714928E9, 0.0, 2022-10-23 13:30:43.971
48.0, -78792.08967591402, -117030.71648248631, 52241.4806176997, 82875.55222219852, 50904.82394752788, 42692.524813714605, 30655.43987219809, 84996.1069221624, 0.026000000000000002, 0.9520000000000001, 0.136, 192.0, 0.0, 0.0, 0.0, 0.0, 0.0, 0.0, 0.0, 0.0, 0.0, 1.666557043971516E9, 0.0, 2022-10-23 13:30:43.971
50.0, -78784.78065547714, -117023.7203864718, 52042.751257747565, 82902.17314984479, 50930.59550888485, 42732.869712456435, 30682.93251787812, 85036.45182090424, 0.026000000000000002, 0.9520000000000001, 0.136, 192.0, 0.0, 0.0, 0.0, 0.0, 0.0, 0.0, 0.0, 0.0, 0.0, 1.6665570439715416E9, 0.0, 2022-10-23 13:30:43.971
51.0, -78786.68055375582, -117027.45312779584, 52292.822574713544, 82900.49676901064, 50921.40894191372, 42729.18167462131, 30849.318903603424, 85166.2484009562, 0.026000000000000002, 0.9520000000000001, 0.136, 192.0, 0.0, 0.0, 0.0, 0.0, 0.0, 0.0, 0.0, 0.0, 0.0, 1.6665570439715655E9, 0.0, 2022-10-23 13:30:43.971
52.0, -78775.9964199062, -117021.97695040429, 52145.97161364217, 82900.22854807718, 50921.341886680355, 42715.658869225845, 30707.295919334403, 85042.03975701806, 0.026000000000000002, 0.9520000000000001, 0.136, 192.0, 0.0, 0.0, 0.0, 0.0, 0.0, 0.0, 0.0, 0.0, 0.0, 1.666557043971594E9, 0.0, 2022-10-23 13:30:43.971
53.0, -78784.57948977704, -117029.35302607455, 51892.27931407444, 82894.19357707424, 50916.98329651157, 42715.54711050357, 30589.43517082157, 84950.62112219587, 0.026000000000000002, 0.9520000000000001, 0.136, 192.0, 0.0, 0.0, 0.0, 0.0, 0.0, 0.0, 0.0, 0.0, 0.0, 1.6665570439716184E9, 0.0, 2022-10-23 13:30:43.971
54.0, -78784.33362058802, -117027.9225144294, 51858.37171773574, 82900.40736203283, 50923.33119193688, 42731.819180467035, 30656.199831509573, 85014.74827703813, 0.026000000000000002, 0.9520000000000001, 0.136, 192.0, 0.0, 0.0, 0.0, 0.0, 0.0, 0.0, 0.0, 0.0, 0.0, 1.6665570439716733E9, 0.0, 2022-10-23 13:30:43.971
55.0, -78775.57173676154, -117017.84187768005, 52113.06984580396, 82910.46564703771, 50926.19221522716, 42743.8891224729, 30833.739737718075, 85164.97435152225, 0.026000000000000002, 0.9520000000000001, 0.136, 192.0, 0.0, 0.0, 0.0, 0.0, 0.0, 0.0, 0.0, 0.0, 0.0, 1.6665570439717016E9, 0.0, 2022-10-23 13:30:43.971
56.0, -78770.27437332564, -117016.00903463473, 52020.69008597018, 82904.5647865015, 50922.235956458564, 42737.474171814225, 30728.731242267044, 85071.14172829887, 0.03, 0.9460000000000001, 0.134, 192.0, 0.0, 240.0, 29.0, 144.0, 4.0, 48.0, 0.0, 0.0, 0.0, 1.6665570439717257E9, 0.0, 2022-10-23 13:30:43.971
57.0, -78777.51633852915, -117021.64167423746, 51772.764536471914, 82896.74167594215, 50921.25247970253, 42735.08253515751, 30600.543987815858, 84966.22263982566, 0.03, 0.9460000000000001, 0.134, 192.0, 0.0, 0.0, 0.0, 0.0, 0.0, 0.0, 0.0, 0.0, 0.0, 1.6665570439717538E9, 0.0, 2022-10-23 13:30:43.971
58.0, -78776.62226875094, -117020.14410735895, 51658.23419788292, 82905.72707721319, 50925.544014637955, 42744.35850910646, 30621.95695900404, 84989.3566953369, 0.03, 0.9460000000000001, 0.134, 192.0, 0.0, 0.0, 0.0, 0.0, 0.0, 0.0, 0.0, 0.0, 0.0, 1.6665570439717922E9, 0.0, 2022-10-23 13:30:43.971
59.0, -78786.25587061117, -117033.48809879877, 51892.30166581889, 82893.67948695178, 50912.89292727625, 42740.58106429352, 30796.367620988804, 85131.75965926168, 0.03, 0.9460000000000001, 0.134, 192.0, 0.0, 0.0, 0.0, 0.0, 0.0, 0.0, 0.0, 0.0, 0.0, 1.6665570439718175E9, 0.0, 2022-10-23 13:30:43.971
60.0, -78783.350143832, -117029.621247008, 51880.7458139355, 82890.32672528348, 50910.76951155299, 42728.399363565375, 30750.211268688592, 85079.34481851397, 0.03, 0.9460000000000001, 0.134, 192.0, 0.0, 0.0, 0.0, 0.0, 0.0, 0.0, 0.0, 0.0, 0.0, 1.6665570439718416E9, 0.0, 2022-10-23 13:30:43.971
61.0, -78774.85648093898, -117020.92641841489, 51632.395581292585, 82898.90979515431, 50925.09697974884, 42737.74239274769, 30598.15235115914, 84957.5054594881, 0.03, 0.9460000000000001, 0.134, 192.0, 0.0, 0.0, 0.0, 0.0, 0.0, 0.0, 0.0, 0.0, 0.0, 1.666557043971867E9, 0.0, 2022-10-23 13:30:43.971
62.0, -78778.589222263, -117025.9779126618, 51464.06459379967, 82896.22758581968, 50919.598450612844, 42733.27204385663, 30587.356458587226, 84952.78924140803, 0.03, 0.9460000000000001, 0.134, 192.0, 0.0, 0.0, 0.0, 0.0, 0.0, 0.0, 0.0, 0.0, 0.0, 1.6665570439718916E9, 0.0, 2022-10-23 13:30:43.971
63.0, -78781.65141125339, -117029.35302607455, 51679.781279537834, 82899.96032714371, 50923.48765414806, 42753.768593522145, 30769.6125828758, 85109.22910085072, 0.03, 0.9460000000000001, 0.134, 192.0, 0.0, 0.0, 0.0, 0.0, 0.0, 0.0, 0.0, 0.0, 0.0, 1.6665570439719107E9, 0.0, 2022-10-23 13:30:43.971
64.0, -78765.06641686754, -117015.20437183433, 51740.66743143409, 82901.70376321123, 50922.54888088094, 42761.50229710368, 30779.201481247128, 85108.62560375042, 0.03, 0.9460000000000001, 0.134, 192.0, 0.0, 0.0, 0.0, 0.0, 0.0, 0.0, 0.0, 0.0, 0.0, 1.6665570439719424E9, 0.0, 2022-10-23 13:30:43.971
65.0, -78755.36575977395, -117005.54841822963, 51495.26762905927, 82903.38014404538, 50923.442950659155, 42751.44401209879, 30606.78012451889, 84970.51417476109, 0.03, 0.9460000000000001, 0.134, 192.0, 0.0, 0.0, 0.0, 0.0, 0.0, 0.0, 0.0, 0.0, 0.0, 1.6665570439719577E9, 0.0, 2022-10-23 13:30:43.971
66.0, -78765.96048664577, -117015.74081370125, 51266.22930362574, 82905.79413244655, 50922.34771518084, 42752.852171999475, 30549.492603479935, 84928.13526727383, 0.026000000000000002, 0.9400000000000001, 0.14, 192.0, 0.0, 208.0, 29.0, 96.0, 4.0, 96.0, 0.0, 0.0, 0.0, 1.6665570439719775E9, 0.0, 2022-10-23 13:30:43.971
67.0, -78785.83118746652, -117037.06437791162, 51442.11518074456, 82897.50163525363, 50917.36327616731, 42756.71902379025, 30726.630178288244, 85078.71896966922, 0.026000000000000002, 0.9400000000000001, 0.14, 192.0, 0.0, 0.0, 0.0, 0.0, 0.0, 0.0, 0.0, 0.0, 0.0, 1.6665570439719973E9, 0.0, 2022-10-23 13:30:43.971
68.0, -78791.03914392462, -117043.54638380367, 51593.90587734054, 82884.42586474727, 50895.905601490216, 42738.07766891452, 30802.112019313816, 85126.46229582577, 0.026000000000000002, 0.9400000000000001, 0.14, 192.0, 0.0, 0.0, 0.0, 0.0, 0.0, 0.0, 0.0, 0.0, 0.0, 1.666557043972012E9, 0.0, 2022-10-23 13:30:43.972
69.0, -78784.55713803257, -117033.48809879877, 51371.32720605459, 82891.13138808387, 50900.085377703355, 42739.19525613728, 30624.25918868294, 84974.09045387393, 0.026000000000000002, 0.9400000000000001, 0.14, 192.0, 0.0, 0.0, 0.0, 0.0, 0.0, 0.0, 0.0, 0.0, 0.0, 1.6665570439720268E9, 0.0, 2022-10-23 13:30:43.972
70.0, -78775.92936467283, -117025.86615393951, 51144.5240550666, 82901.63670797786, 50914.99399125505, 42757.389576123904, 30563.931830398065, 84926.43653469521, 0.026000000000000002, 0.9400000000000001, 0.14, 192.0, 0.0, 0.0, 0.0, 0.0, 0.0, 0.0, 0.0, 0.0, 0.0, 1.6665570439720592E9, 0.0, 2022-10-23 13:30:43.972
71.0, -78784.02069616565, -117033.06341565412, 51221.8387391375, 82897.50163525363, 50913.27290693199, 42764.69859656079, 30681.50200623298, 85031.64619584635, 0.026000000000000002, 0.9400000000000001, 0.14, 192.0, 0.0, 0.0, 0.0, 0.0, 0.0, 0.0, 0.0, 0.0, 0.0, 1.6665570439720762E9, 0.0, 2022-10-23 13:30:43.972
72.0, -78771.28020182613, -117021.14993585944, 51441.690497599906, 82913.25961509462, 50925.85693906033, 42772.924038520345, 30816.886522398774, 85142.93553148932, 0.026000000000000002, 0.9400000000000001, 0.14, 192.0, 0.0, 0.0, 0.0, 0.0, 0.0, 0.0, 0.0, 0.0, 0.0, 1.6665570439720924E9, 0.0, 2022-10-23 13:30:43.972
73.0, -78773.56007976057, -117029.28597084117, 51281.80846951109, 82905.88353942437, 50919.08436049037, 42755.869657500945, 30670.482596216512, 85021.23028293018, 0.026000000000000002, 0.9400000000000001, 0.14, 192.0, 0.0, 0.0, 0.0, 0.0, 0.0, 0.0, 0.0, 0.0, 0.0, 1.6665570439721088E9, 0.0, 2022-10-23 13:30:43.972
74.0, -78786.61349852246, -117047.50264257225, 51014.92864071472, 82890.10320783893, 50901.761758537505, 42745.54315156259, 30550.274914535872, 84925.9447963172, 0.026000000000000002, 0.9400000000000001, 0.14, 192.0, 0.0, 0.0, 0.0, 0.0, 0.0, 0.0, 0.0, 0.0, 0.0, 1.6665570439721236E9, 0.0, 2022-10-23 13:30:43.972
75.0, -78790.92738520235, -117047.99438095027, 51005.07152140993, 82897.50163525363, 50905.58390683936, 42758.28364590212, 30622.247531681962, 84991.4577593157, 0.028, 0.9440000000000001, 0.136, 192.0, 0.0, 224.0, 29.0, 128.0, 4.0, 64.0, 0.0, 0.0, 0.0, 1.666557043972139E9, 0.0, 2022-10-23 13:30:43.972
76.0, -78792.73787650322, -117045.44628208237, 51273.0018821957, 82899.42388527679, 50903.92987774967, 42767.6937303178, 30804.682469926178, 85137.1911331643, 0.028, 0.9440000000000001, 0.136, 192.0, 0.0, 0.0, 0.0, 0.0, 0.0, 0.0, 0.0, 0.0, 0.0, 1.666557043972155E9, 0.0, 2022-10-23 13:30:43.972
77.0, -78783.32779208754, -117037.33259884508, 51163.94772099826, 82900.34030679945, 50895.346807878836, 42758.14953543538, 30687.06759060235, 85032.78613481356, 0.028, 0.9440000000000001, 0.136, 192.0, 0.0, 0.0, 0.0, 0.0, 0.0, 0.0, 0.0, 0.0, 0.0, 1.6665570439721704E9, 0.0, 2022-10-23 13:30:43.972
78.0, -78778.20924260726, -117030.76118597522, 50892.08345318836, 82908.7222109702, 50902.58877308235, 42759.37888138043, 30546.38571100065, 84919.6416043808, 0.028, 0.9440000000000001, 0.136, 192.0, 0.0, 0.0, 0.0, 0.0, 0.0, 0.0, 0.0, 0.0, 0.0, 1.6665570439721851E9, 0.0, 2022-10-23 13:30:43.972
79.0, -78793.16255964787, -117046.98855244978, 50836.6511269392, 82903.313088812, 50904.39926438323, 42771.47117513075, 30607.093048941264, 84978.44904404272, 0.028, 0.9440000000000001, 0.136, 192.0, 0.0, 0.0, 0.0, 0.0, 0.0, 0.0, 0.0, 0.0, 0.0, 1.6665570439722006E9, 0.0, 2022-10-23 13:30:43.972
80.0, -78784.51243454366, -117040.9759331913, 51123.42400830078, 82905.68237372427, 50904.846299272336, 42780.545983379605, 30812.32676652989, 85147.71880480276, 0.028, 0.9440000000000001, 0.136, 192.0, 0.0, 0.0, 0.0, 0.0, 0.0, 0.0, 0.0, 0.0, 0.0, 1.6665570444397504E9, 0.0, 2022-10-23 13:30:44.439
81.0, -78766.09459711249, -117023.2733515827, 51062.22493198216, 82911.8738069384, 50910.858918530816, 42775.6956548328, 30722.360995097282, 85065.91142009634, 0.028, 0.9440000000000001, 0.136, 192.0, 0.0, 0.0, 0.0, 0.0, 0.0, 0.0, 0.0, 0.0, 0.0, 1.6665570444398372E9, 0.0, 2022-10-23 13:30:44.439
82.0, -78756.95273363027, -117013.4162322779, 50821.38488547622, 82921.08272565398, 50920.447816902146, 42785.95510553779, 30586.127112642185, 84956.0972995874, 0.028, 0.9440000000000001, 0.136, 192.0, 0.0, 0.0, 0.0, 0.0, 0.0, 0.0, 0.0, 0.0, 0.0, 1.6665570444398985E9, 0.0, 2022-10-23 13:30:44.439
83.0, -78754.11406208445, -117011.9186653994, 50671.60584588121, 82933.75616476014, 50938.99976480005, 42808.172739526366, 30582.193205618052, 84961.79699442351, 0.028, 0.9440000000000001, 0.136, 192.0, 0.0, 0.0, 0.0, 0.0, 0.0, 0.0, 0.0, 0.0, 0.0, 1.6665570444399817E9, 0.0, 2022-10-23 13:30:44.439
84.0, -78763.79236743359, -117023.76508996071, 50940.40792470073, 82922.33442334348, 50928.85207281734, 42799.88024233344, 30789.796208118943, 85138.75575527619, 0.028, 0.9440000000000001, 0.136, 192.0, 0.0, 0.0, 0.0, 0.0, 0.0, 0.0, 0.0, 0.0, 0.0, 1.666557044440008E9, 0.0, 2022-10-23 13:30:44.440
85.0, -78764.46291976726, -117026.6708167399, 50958.02109933151, 82906.44233303575, 50915.664543588704, 42781.104776990986, 30754.18987920164, 85104.64699323739, 0.028, 0.9500000000000001, 0.14200000000000002, 192.0, 0.0, 224.0, 29.0, 176.0, 4.0, 112.0, 0.0, 0.0, 0.0, 1.666557044440094E9, 0.0, 2022-10-23 13:30:44.440
86.0, -78772.55425126008, -117032.7728429762, 50711.973096367496, 82909.92920517077, 50911.70828482012, 42769.638332085415, 30582.997868418443, 84966.42380552576, 0.028, 0.9500000000000001, 0.14200000000000002, 192.0, 0.0, 0.0, 0.0, 0.0, 0.0, 0.0, 0.0, 0.0, 0.0, 1.666557044440114E9, 0.0, 2022-10-23 13:30:44.440
87.0, -78778.36570481845, -117035.56681103312, 50538.63531811659, 82913.90781568382, 50913.161148209714, 42776.92500077785, 30564.691789709545, 84957.68427344374, 0.028, 0.9500000000000001, 0.14200000000000002, 192.0, 0.0, 0.0, 0.0, 0.0, 0.0, 0.0, 0.0, 0.0, 0.0, 1.6665570444401307E9, 0.0, 2022-10-23 13:30:44.440
88.0, -78784.13245488792, -117043.3228663591, 50752.96619569853, 82908.61045224791, 50915.55278486643, 42798.13680626593, 30747.014969231484, 85116.00167942067, 0.028, 0.9500000000000001, 0.14200000000000002, 192.0, 0.0, 0.0, 0.0, 0.0, 0.0, 0.0, 0.0, 0.0, 0.0, 1.6665570444401467E9, 0.0, 2022-10-23 13:30:44.440
89.0, -78777.06930364005, -117036.28206685568, 50852.6549759692, 82904.3189173125, 50909.45075863013, 42791.6995038628, 30772.85358582182, 85128.22808363773, 0.028, 0.9500000000000001, 0.14200000000000002, 192.0, 0.0, 0.0, 0.0, 0.0, 0.0, 0.0, 0.0, 0.0, 0.0, 1.6665570444401627E9, 0.0, 2022-10-23 13:30:44.440
90.0, -78779.10331238549, -117032.59402902056, 50623.594298791206, 82897.23341432017, 50900.375950381276, 42772.47700363124, 30595.00075519094, 84977.93495392025, 0.028, 0.9500000000000001, 0.14200000000000002, 192.0, 0.0, 0.0, 0.0, 0.0, 0.0, 0.0, 0.0, 0.0, 0.0, 1.666557044440184E9, 0.0, 2022-10-23 13:30:44.440
91.0, -78786.85936771147, -117045.11100591553, 50369.410260845456, 82891.84664390644, 50892.821060755385, 42769.75009080769, 30505.012632013877, 84904.62123210685, 0.028, 0.9500000000000001, 0.14200000000000002, 192.0, 0.0, 0.0, 0.0, 0.0, 0.0, 0.0, 0.0, 0.0, 0.0, 1.6665570444402E9, 0.0, 2022-10-23 13:30:44.440
92.0, -78788.2451758677, -117052.44237809688, 50505.77825376728, 82896.65226896433, 50897.716092791095, 42790.49250966222, 30653.987008808497, 85035.40128891484, 0.028, 0.9500000000000001, 0.14200000000000002, 192.0, 0.0, 0.0, 0.0, 0.0, 0.0, 0.0, 0.0, 0.0, 0.0, 1.666557044440216E9, 0.0, 2022-10-23 13:30:44.440
93.0, -78778.65627749638, -117042.92053495892, 50700.32783750628, 82900.00503063263, 50905.85212777283, 42799.29909697761, 30767.355056685814, 85126.08231617002, 0.028, 0.9500000000000001, 0.14200000000000002, 192.0, 0.0, 0.0, 0.0, 0.0, 0.0, 0.0, 0.0, 0.0, 0.0, 1.6665570444402316E9, 0.0, 2022-10-23 13:30:44.440
94.0, -78776.57756526204, -117040.70771225783, 50527.258280188835, 82895.82525441948, 50899.07954920287, 42785.150442737395, 30617.330147901794, 84999.07970417496, 0.028, 0.9500000000000001, 0.14200000000000002, 192.0, 0.0, 0.0, 0.0, 0.0, 0.0, 0.0, 0.0, 0.0, 0.0, 1.6665570444402475E9, 0.0, 2022-10-23 13:30:44.440
95.0, -78774.7894257056, -117039.97010469082, 50297.30353323264, 82893.97005962969, 50897.38081662427, 42779.47309964575, 30537.310902751793, 84932.40445046479, 0.036000000000000004, 0.9520000000000001, 0.138, 192.0, 1.0, 32.0, 29.0, 192.0, 4.0, 80.0, 0.0, 0.0, 0.0, 1.6665570444402635E9, 0.0, 2022-10-23 13:30:44.440
96.0, -78785.6970769998, -117050.65423854045, 50377.07690919363, 82893.70183869623, 50900.018322469994, 42789.82195732855, 30659.485537944503, 85036.11654473741, 0.036000000000000004, 0.9520000000000001, 0.138, 192.0, 0.0, 0.0, 0.0, 0.0, 0.0, 0.0, 0.0, 0.0, 0.0, 1.666557044440281E9, 0.0, 2022-10-23 13:30:44.440
97.0, -78781.33848683101, -117047.23442163879, 50613.75953123088, 82897.90396665383, 50900.97944748157, 42796.08044577604, 30799.653327423734, 85145.30481640158, 0.036000000000000004, 0.9520000000000001, 0.138, 192.0, 0.0, 0.0, 0.0, 0.0, 0.0, 0.0, 0.0, 0.0, 0.0, 1.6665570444402962E9, 0.0, 2022-10-23 13:30:44.440
98.0, -78761.46778601024, -117023.6756829829, 50467.80263993772, 82917.03705990757, 50911.618877842295, 42797.77917835464, 30657.96561932154, 85022.07964921948, 0.036000000000000004, 0.9520000000000001, 0.138, 192.0, 0.0, 0.0, 0.0, 0.0, 0.0, 0.0, 0.0, 0.0, 0.0, 1.666557044440312E9, 0.0, 2022-10-23 13:30:44.440
99.0, -78769.64852448089, -117035.00801742173, 50222.00050616271, 82911.94086217176, 50905.1145202058, 42794.98521029773, 30548.039740090342, 84931.06334579746, 0.036000000000000004, 0.9520000000000001, 0.138, 192.0, 0.0, 0.0, 0.0, 0.0, 0.0, 0.0, 0.0, 0.0, 0.0, 1.6665570444403274E9, 0.0, 2022-10-23 13:30:44.440
100.0, -78783.77482697665, -117055.34810487606, 50210.53406125714, 82906.6658504803, 50902.49936610453, 42803.30005923511, 30619.006528735943, 84994.94463145074, 0.036000000000000004, 0.9520000000000001, 0.138, 192.0, 0.0, 0.0, 0.0, 0.0, 0.0, 0.0, 0.0, 0.0, 0.0, 1.6665570444403431E9, 0.0, 2022-10-23 13:30:44.440
101.0, -78776.53286177313, -117044.79808149315, 50472.7647272068, 82912.36554531641, 50909.47311037459, 42812.93366109535, 30790.690277897156, 85134.46422034076, 0.036000000000000004, 0.9520000000000001, 0.138, 192.0, 0.0, 0.0, 0.0, 0.0, 0.0, 0.0, 0.0, 0.0, 0.0, 1.6665570444403803E9, 0.0, 2022-10-23 13:30:44.440
102.0, -78777.85161469599, -117042.98759019228, 50375.57934231512, 82908.58810050346, 50907.79672954044, 42804.93173658034, 30676.45051198608, 85031.98147201318, 0.036000000000000004, 0.9520000000000001, 0.138, 192.0, 0.0, 0.0, 0.0, 0.0, 0.0, 0.0, 0.0, 0.0, 0.0, 1.6665570444404027E9, 0.0, 2022-10-23 13:30:44.440
103.0, -78773.58243150503, -117038.89722095696, 50145.35637442546, 82915.89712094035, 50915.4186743997, 42817.09108556403, 30561.115510596697, 84942.1498110473, 0.036000000000000004, 0.9520000000000001, 0.138, 192.0, 0.0, 0.0, 0.0, 0.0, 0.0, 0.0, 0.0, 0.0, 0.0, 1.666557044440425E9, 0.0, 2022-10-23 13:30:44.440
104.0, -78776.4434547953, -117043.88165997049, 50029.41787593578, 82919.47340005319, 50910.07660747488, 42818.54394895362, 30568.201013589027, 84955.42674725375, 0.026000000000000002, 0.9480000000000001, 0.136, 192.0, 0.0, 208.0, 29.0, 160.0, 4.0, 64.0, 0.0, 0.0, 0.0, 1.6665570444404483E9, 0.0, 2022-10-23 13:30:44.440
105.0, -78784.75830373267, -117049.46959608431, 50281.00911152472, 82916.18769361827, 50905.71801730609, 42819.14744605392, 30747.216134931583, 85104.44582753729, 0.026000000000000002, 0.9480000000000001, 0.136, 192.0, 0.0, 0.0, 0.0, 0.0, 0.0, 0.0, 0.0, 0.0, 0.0, 1.6665570444404736E9, 0.0, 2022-10-23 13:30:44.440
106.0, -78767.65921922437, -117034.24805811026, 50250.23075940976, 82919.67456575329, 50907.68497081816, 42814.028896573654, 30681.569061466347, 85038.15055348285, 0.026000000000000002, 0.9480000000000001, 0.136, 192.0, 0.0, 0.0, 0.0, 0.0, 0.0, 0.0, 0.0, 0.0, 0.0, 1.6665570444404929E9, 0.0, 2022-10-23 13:30:44.440
107.0, -78764.93230640082, -117037.46670931182, 50008.98838150363, 82917.99818491915, 50913.33996216535, 42818.007507086695, 30534.360472483695, 84918.12168575784, 0.026000000000000002, 0.9480000000000001, 0.136, 192.0, 0.0, 0.0, 0.0, 0.0, 0.0, 0.0, 0.0, 0.0, 0.0, 1.6665570444405086E9, 0.0, 2022-10-23 13:30:44.440
108.0, -78783.28308859862, -117053.51526183073, 49834.533016029956, 82906.50938826911, 50907.95319175163, 42819.10274256501, 30510.17588498305, 84904.77769431802, 0.026000000000000002, 0.9480000000000001, 0.136, 192.0, 0.0, 0.0, 0.0, 0.0, 0.0, 0.0, 0.0, 0.0, 0.0, 1.6665570444405243E9, 0.0, 2022-10-23 13:30:44.440
109.0, -78797.90112947239, -117065.3840381365, 50065.98532986466, 82903.17897834528, 50903.08051146037, 42822.634318188946, 30694.73423895052, 85061.21755376073, 0.026000000000000002, 0.9480000000000001, 0.136, 192.0, 0.0, 0.0, 0.0, 0.0, 0.0, 0.0, 0.0, 0.0, 0.0, 1.66655704444054E9, 0.0, 2022-10-23 13:30:44.440
110.0, -78786.36762933346, -117055.2810496427, 50096.137833134875, 82909.01278364811, 50896.68791254615, 42806.94339358132, 30674.237689285004, 85032.09323073545, 0.026000000000000002, 0.9480000000000001, 0.136, 192.0, 0.0, 0.0, 0.0, 0.0, 0.0, 0.0, 0.0, 0.0, 0.0, 1.666557044440558E9, 0.0, 2022-10-23 13:30:44.440
111.0, -78785.4512078108, -117054.61049730904, 49847.51937955849, 82902.35196380044, 50895.39151136774, 42796.348666709506, 30500.27406218935, 84889.69026681069, 0.026000000000000002, 0.9480000000000001, 0.136, 192.0, 0.0, 0.0, 0.0, 0.0, 0.0, 0.0, 0.0, 0.0, 0.0, 1.6665570444405775E9, 0.0, 2022-10-23 13:30:44.440
112.0, -78788.66985901236, -117055.4822153428, 49628.62874610767, 82904.20715859022, 50899.459528858606, 42805.356419724994, 30448.30625633076, 84853.77101347102, 0.026000000000000002, 0.9480000000000001, 0.136, 192.0, 0.0, 0.0, 0.0, 0.0, 0.0, 0.0, 0.0, 0.0, 0.0, 1.6665570444405935E9, 0.0, 2022-10-23 13:30:44.440
113.0, -78785.96529793326, -117053.44820659736, 49794.56809694387, 82911.94086217176, 50910.52364236399, 42819.37096349847, 30609.23881640897, 84994.31878260599, 0.026000000000000002, 0.9480000000000001, 0.136, 192.0, 0.0, 0.0, 0.0, 0.0, 0.0, 0.0, 0.0, 0.0, 0.0, 1.666557044440609E9, 0.0, 2022-10-23 13:30:44.440
114.0, -78777.44928329579, -117048.5755263061, 49937.105171335366, 82904.98946964616, 50907.707322562615, 42820.041515832134, 30685.12298883474, 85051.53924841157, 0.024, 0.9480000000000001, 0.136, 192.0, 0.0, 192.0, 29.0, 160.0, 4.0, 64.0, 0.0, 0.0, 0.0, 1.6665570444406247E9, 0.0, 2022-10-23 13:30:44.440
115.0, -78766.89925991288, -117040.93122970239, 49714.638258771694, 82909.63863249286, 50904.22045042759, 42822.276690277664, 30514.623882129657, 84911.77379033253, 0.024, 0.9480000000000001, 0.136, 192.0, 0.0, 0.0, 0.0, 0.0, 0.0, 0.0, 0.0, 0.0, 0.0, 1.6665570444406457E9, 0.0, 2022-10-23 13:30:44.440
116.0, -78767.68157096882, -117042.0264651807, 49455.000395178846, 82906.59879524694, 50900.64417131474, 42822.500207722216, 30426.93798863149, 84845.07618487791, 0.024, 0.9480000000000001, 0.136, 192.0, 0.0, 0.0, 0.0, 0.0, 0.0, 0.0, 0.0, 0.0, 0.0, 1.666557044440686E9, 0.0, 2022-10-23 13:30:44.440
117.0, -78785.0935798995, -117057.5832793216, 49545.27909103383, 82899.20036783224, 50893.715130533594, 42816.197015785816, 30552.33127502576, 84956.54433447652, 0.024, 0.9480000000000001, 0.136, 192.0, 0.0, 0.0, 0.0, 0.0, 0.0, 0.0, 0.0, 0.0, 0.0, 1.6665570444407015E9, 0.0, 2022-10-23 13:30:44.440
118.0, -78791.26266136917, -117062.25479391275, 49743.449657374586, 82892.7630654291, 50886.02613044097, 42813.04541981762, 30671.913107861652, 85049.21466698822, 0.024, 0.9480000000000001, 0.136, 192.0, 0.0, 0.0, 0.0, 0.0, 0.0, 0.0, 0.0, 0.0, 0.0, 1.6665570444407172E9, 0.0, 2022-10-23 13:30:44.440
119.0, -78777.44928329579, -117049.46959608431, 49567.63083548914, 82898.4627602652, 50893.1116334333, 42820.77912339916, 30523.162248511584, 84925.9894998061, 0.024, 0.9480000000000001, 0.136, 192.0, 0.0, 0.0, 0.0, 0.0, 0.0, 0.0, 0.0, 0.0, 0.0, 1.666557044440733E9, 0.0, 2022-10-23 13:30:44.440
120.0, -78782.61253626496, -117057.5832793216, 49316.91131793396, 82891.01962936159, 50892.86576424429, 42818.90157686491, 30426.91563688703, 84851.96052217013, 0.024, 0.9480000000000001, 0.136, 192.0, 0.0, 0.0, 0.0, 0.0, 0.0, 0.0, 0.0, 0.0, 0.0, 1.6665570444407485E9, 0.0, 2022-10-23 13:30:44.440
121.0, -78793.4978358147, -117070.54729110567, 49343.33107988013, 82890.52789098358, 50887.97073220858, 42824.802437401115, 30522.067013033273, 84936.42776446675, 0.024, 0.9480000000000001, 0.136, 192.0, 0.0, 0.0, 0.0, 0.0, 0.0, 0.0, 0.0, 0.0, 0.0, 1.6665570444407644E9, 0.0, 2022-10-23 13:30:44.440
122.0, -78783.43955080981, -117060.84663401206, 49570.64832099061, 82896.42875151978, 50888.73069152006, 42831.9102921379, 30669.566174693846, 85054.91436182433, 0.024, 0.9480000000000001, 0.136, 192.0, 0.0, 0.0, 0.0, 0.0, 0.0, 0.0, 0.0, 0.0, 0.0, 1.6665570444407802E9, 0.0, 2022-10-23 13:30:44.440
123.0, -78789.34041134601, -117066.21105268135, 49419.327011028174, 82890.28202179457, 50880.81817398288, 42816.889919863934, 30527.14085902463, 84930.50455218609, 0.024, 0.9480000000000001, 0.136, 192.0, 0.0, 0.0, 0.0, 0.0, 0.0, 0.0, 0.0, 0.0, 0.0, 1.6665570444407961E9, 0.0, 2022-10-23 13:30:44.440
124.0, -78793.11785615896, -117067.39569513747, 49162.37135676997, 82890.84081540594, 50880.19232513814, 42819.214501287286, 30409.101296556153, 84837.45424001865, 0.028, 0.9460000000000001, 0.134, 192.0, 0.0, 224.0, 29.0, 144.0, 4.0, 48.0, 0.0, 0.0, 0.0, 1.666557044440812E9, 0.0, 2022-10-23 13:30:44.440
125.0, -78778.63392575191, -117053.89524148646, 49111.76700732315, 82906.44233303575, 50893.871592744785, 42832.44673400483, 30468.42282634054, 84894.63000233531, 0.028, 0.9460000000000001, 0.134, 192.0, 0.0, 0.0, 0.0, 0.0, 0.0, 0.0, 0.0, 0.0, 0.0, 1.666557044440829E9, 0.0, 2022-10-23 13:30:44.440
126.0, -78785.40650432187, -117063.66295381343, 49358.75378355429, 82897.7698561871, 50887.099014174826, 42835.17364682837, 30641.11240400224, 85039.37989942789, 0.028, 0.9460000000000001, 0.134, 192.0, 0.0, 0.0, 0.0, 0.0, 0.0, 0.0, 0.0, 0.0, 0.0, 1.6665570444408448E9, 0.0, 2022-10-23 13:30:44.440
127.0, -78772.42014079334, -117050.74364551828, 49267.44690745437, 82907.82814119199, 50893.78218576696, 42844.784896944155, 30539.14374579713, 84952.78924140803, 0.028, 0.9460000000000001, 0.134, 192.0, 0.0, 0.0, 0.0, 0.0, 0.0, 0.0, 0.0, 0.0, 0.0, 1.6665570444408605E9, 0.0, 2022-10-23 13:30:44.440
128.0, -78766.47457676823, -117040.61830528002, 49001.79642460304, 82917.81937096351, 50905.09216846135, 42846.48362952276, 30398.327755728693, 84843.39980404376, 0.028, 0.9460000000000001, 0.134, 192.0, 0.0, 0.0, 0.0, 0.0, 0.0, 0.0, 0.0, 0.0, 0.0, 1.6665570444408784E9, 0.0, 2022-10-23 13:30:44.440
129.0, -78785.80883572207, -117059.34906713356, 48863.01444328004, 82899.17801608778, 50889.200078153626, 42835.62068171748, 30403.535712186782, 84850.44060354718, 0.028, 0.9460000000000001, 0.134, 192.0, 0.0, 0.0, 0.0, 0.0, 0.0, 0.0, 0.0, 0.0, 0.0, 1.6665570444408991E9, 0.0, 2022-10-23 13:30:44.440
130.0, -78783.95364093229, -117059.46082585584, 49121.19944348329, 82901.79317018905, 50895.123290434276, 42847.35534755651, 30603.62852855069, 85021.54320735254, 0.028, 0.9460000000000001, 0.134, 192.0, 0.0, 0.0, 0.0, 0.0, 0.0, 0.0, 0.0, 0.0, 0.0, 1.666557044440915E9, 0.0, 2022-10-23 13:30:44.440
131.0, -78776.91284142886, -117060.26548865622, 49120.43948417181, 82898.0157253761, 50885.623799040775, 42834.860722405996, 30565.22823157647, 84980.41599755478, 0.028, 0.9460000000000001, 0.134, 192.0, 0.0, 0.0, 0.0, 0.0, 0.0, 0.0, 0.0, 0.0, 0.0, 1.6665570444409308E9, 0.0, 2022-10-23 13:30:44.440
132.0, -78781.0479141531, -117065.51814860322, 48860.93573104569, 82903.35779230091, 50884.863839729296, 42840.158085841904, 30400.004136562842, 84845.00912964453, 0.028, 0.9460000000000001, 0.134, 192.0, 0.0, 0.0, 0.0, 0.0, 0.0, 0.0, 0.0, 0.0, 0.0, 1.6665570444409623E9, 0.0, 2022-10-23 13:30:44.440
133.0, -78779.21507110776, -117064.3335061471, 48671.169420620135, 82909.83979819296, 50895.346807878836, 42856.63132150547, 30372.980877516376, 84831.59808297135, 0.028, 0.9460000000000001, 0.134, 192.0, 0.0, 0.0, 0.0, 0.0, 0.0, 0.0, 0.0, 0.0, 0.0, 1.6665570444409792E9, 0.0, 2022-10-23 13:30:44.440
134.0, -78783.05957115407, -117065.1828724364, 48880.04647255498, 82909.59392900395, 50900.82298527038, 42867.9189524554, 30555.974609371977, 84994.11761690589, 0.024, 0.9480000000000001, 0.136, 192.0, 0.0, 192.0, 29.0, 160.0, 4.0, 64.0, 0.0, 0.0, 0.0, 1.6665570444409952E9, 0.0, 2022-10-23 13:30:44.440
135.0, -78786.01000142217, -117066.12164570352, 48969.29698816502, 82904.05069637904, 50888.86480198679, 42850.68575748036, 30588.138769643163, 85011.17199792528, 0.024, 0.9480000000000001, 0.136, 192.0, 0.0, 0.0, 0.0, 0.0, 0.0, 0.0, 0.0, 0.0, 0.0, 1.6665570444410117E9, 0.0, 2022-10-23 13:30:44.441
136.0, -78791.26266136917, -117073.09538997358, 48736.03418302944, 82899.69210621025, 50876.392528580735, 42835.911254395396, 30417.550255960257, 84865.6844932657, 0.024, 0.9480000000000001, 0.136, 192.0, 0.0, 0.0, 0.0, 0.0, 0.0, 0.0, 0.0, 0.0, 0.0, 1.6665570444410276E9, 0.0, 2022-10-23 13:30:44.441
137.0, -78789.6533357684, -117072.31307891764, 48491.23787775492, 82905.45885627971, 50880.01351118249, 42847.15418185642, 30344.504755080314, 84808.19580652664, 0.024, 0.9480000000000001, 0.136, 192.0, 0.0, 0.0, 0.0, 0.0, 0.0, 0.0, 0.0, 0.0, 0.0, 1.6665570444410431E9, 0.0, 2022-10-23 13:30:44.441
138.0, -78793.94487070381, -117079.64445109898, 48623.76137063043, 82898.6192224764, 50876.37017683627, 42851.37866155847, 30486.32657364924, 84932.4491539537, 0.024, 0.9480000000000001, 0.136, 192.0, 0.0, 0.0, 0.0, 0.0, 0.0, 0.0, 0.0, 0.0, 0.0, 1.6665570444410584E9, 0.0, 2022-10-23 13:30:44.441
139.0, -78784.11010314347, -117065.60755558105, 48753.98263382705, 82907.0681818805, 50880.41584258269, 42852.18332435886, 30551.571315714278, 84979.90190743232, 0.024, 0.9480000000000001, 0.136, 192.0, 0.0, 0.0, 0.0, 0.0, 0.0, 0.0, 0.0, 0.0, 0.0, 1.666557044441074E9, 0.0, 2022-10-23 13:30:44.441
140.0, -78783.01486766516, -117059.9302124894, 48547.25134935992, 82902.0166876336, 50874.33616809084, 42843.28733006565, 30395.06440103822, 84847.91485642373, 0.024, 0.9480000000000001, 0.136, 192.0, 0.0, 0.0, 0.0, 0.0, 0.0, 0.0, 0.0, 0.0, 0.0, 1.66655704444109E9, 0.0, 2022-10-23 13:30:44.441
141.0, -78781.27143159765, -117059.97491597831, 48325.14206470753, 82908.05165863654, 50879.052386170915, 42849.50111502423, 30341.062586434196, 84807.1676262817, 0.024, 0.9480000000000001, 0.136, 192.0, 0.0, 0.0, 0.0, 0.0, 0.0, 0.0, 0.0, 0.0, 0.0, 1.6665570444411056E9, 0.0, 2022-10-23 13:30:44.441
142.0, -78782.21020486476, -117062.38890437948, 48419.66759200902, 82915.33832732897, 50889.93768572065, 42869.99766468974, 30483.867881759154, 84931.4433254532, 0.024, 0.9480000000000001, 0.136, 192.0, 0.0, 0.0, 0.0, 0.0, 0.0, 0.0, 0.0, 0.0, 0.0, 1.6665570444411216E9, 0.0, 2022-10-23 13:30:44.441
143.0, -78788.55810029007, -117069.8320352831, 48621.257975251436, 82907.49286502515, 50884.39445309573, 42863.448603564335, 30605.9754617185, 85025.09713472094, 0.018000000000000002, 0.9500000000000001, 0.138, 192.0, 0.0, 144.0, 29.0, 176.0, 4.0, 80.0, 0.0, 0.0, 0.0, 1.6665570444411373E9, 0.0, 2022-10-23 13:30:44.441
144.0, -78788.82632122355, -117072.44718938437, 48425.43434207849, 82901.68141146678, 50871.989234923036, 42842.125039353974, 30434.87285791312, 84878.82731900542, 0.018000000000000002, 0.9500000000000001, 0.138, 192.0, 0.0, 0.0, 0.0, 0.0, 0.0, 0.0, 0.0, 0.0, 0.0, 1.666557044441154E9, 0.0, 2022-10-23 13:30:44.441
145.0, -78779.7962164636, -117065.49579685877, 48152.00545215672, 82906.8223126915, 50876.77250823647, 42847.020071389685, 30319.85078094611, 84790.47087317359, 0.018000000000000002, 0.9500000000000001, 0.138, 192.0, 0.0, 0.0, 0.0, 0.0, 0.0, 0.0, 0.0, 0.0, 0.0, 1.66655704444117E9, 0.0, 2022-10-23 13:30:44.441
146.0, -78779.88562344141, -117065.56285209213, 48135.19694032633, 82913.63959475036, 50887.702511275114, 42866.44373732135, 30397.813665606223, 84866.04212117697, 0.018000000000000002, 0.9500000000000001, 0.138, 192.0, 0.0, 0.0, 0.0, 0.0, 0.0, 0.0, 0.0, 0.0, 0.0, 1.6665570444411857E9, 0.0, 2022-10-23 13:30:44.441
147.0, -78776.97989666223, -117063.97587823581, 48376.86400137711, 82915.49478954016, 50889.08831943135, 42875.473842081294, 30565.22823157647, 85006.67929728977, 0.018000000000000002, 0.9500000000000001, 0.138, 192.0, 0.0, 0.0, 0.0, 0.0, 0.0, 0.0, 0.0, 0.0, 0.0, 1.6665570444412172E9, 0.0, 2022-10-23 13:30:44.441
148.0, -78766.78750119061, -117054.99047696478, 48267.876895413036, 82920.03219366458, 50892.485784588556, 42867.31545535511, 30458.945686691488, 84913.31606069996, 0.018000000000000002, 0.9500000000000001, 0.138, 192.0, 0.0, 0.0, 0.0, 0.0, 0.0, 0.0, 0.0, 0.0, 0.0, 1.666557044441233E9, 0.0, 2022-10-23 13:30:44.441
149.0, -78771.72723671523, -117060.31019214515, 48014.36340980094, 82914.71247848422, 50889.84827874283, 42862.621589019494, 30342.00135970132, 84819.66225143222, 0.018000000000000002, 0.9500000000000001, 0.138, 192.0, 0.0, 0.0, 0.0, 0.0, 0.0, 0.0, 0.0, 0.0, 0.0, 1.6665570444412515E9, 0.0, 2022-10-23 13:30:44.441
150.0, -78782.76899847615, -117072.53659636219, 47950.63858635886, 82914.8242372065, 50890.63058979876, 42869.55062980064, 30398.327755728693, 84870.3336561124, 0.018000000000000002, 0.9500000000000001, 0.138, 192.0, 0.0, 0.0, 0.0, 0.0, 0.0, 0.0, 0.0, 0.0, 0.0, 1.6665570444412675E9, 0.0, 2022-10-23 13:30:44.441
151.0, -78786.5464432891, -117073.40831439594, 48206.96839177232, 82906.19646384675, 50880.32643560487, 42867.717786755304, 30581.72381898449, 85019.79977128503, 0.018000000000000002, 0.9500000000000001, 0.138, 192.0, 0.0, 0.0, 0.0, 0.0, 0.0, 0.0, 0.0, 0.0, 0.0, 1.6665570444412832E9, 0.0, 2022-10-23 13:30:44.441
152.0, -78763.99353313369, -117049.73781701778, 48128.29025128964, 82917.08176339648, 50885.489688574045, 42869.86355422301, 30488.002954483385, 84938.97586333465, 0.018000000000000002, 0.9500000000000001, 0.138, 192.0, 0.0, 0.0, 0.0, 0.0, 0.0, 0.0, 0.0, 0.0, 0.0, 1.6665570444412987E9, 0.0, 2022-10-23 13:30:44.441
153.0, -78761.4901377547, -117047.54734606115, 47855.97894859064, 82917.14881862985, 50888.060139186404, 42876.92670547089, 30333.86532471959, 84817.44942873114, 0.018000000000000002, 0.9500000000000001, 0.14200000000000002, 192.0, 0.0, 144.0, 29.0, 176.0, 4.0, 112.0, 0.0, 0.0, 0.0, 1.666557044441314E9, 0.0, 2022-10-23 13:30:44.441
154.0, -78776.55521351758, -117066.72514280381, 47685.63630409674, 82901.4131905333, 50878.40418558171, 42871.89756296844, 30320.923664679965, 84812.33087925088, 0.018000000000000002, 0.9500000000000001, 0.14200000000000002, 192.0, 0.0, 0.0, 0.0, 0.0, 0.0, 0.0, 0.0, 0.0, 0.0, 1.6665570444413311E9, 0.0, 2022-10-23 13:30:44.441
155.0, -78779.25977459666, -117073.31890741813, 47929.918519248786, 82909.50452202612, 50881.82400248337, 42880.123004928, 30518.93776880953, 84980.68421848826, 0.018000000000000002, 0.9500000000000001, 0.14200000000000002, 192.0, 0.0, 0.0, 0.0, 0.0, 0.0, 0.0, 0.0, 0.0, 0.0, 1.666557044441347E9, 0.0, 2022-10-23 13:30:44.441
156.0, -78785.83118746652, -117077.00694525325, 47945.58709211196, 82906.26351908011, 50875.67727275816, 42862.84510646405, 30491.735695807423, 84948.78827915053, 0.018000000000000002, 0.9500000000000001, 0.14200000000000002, 192.0, 0.0, 0.0, 0.0, 0.0, 0.0, 0.0, 0.0, 0.0, 0.0, 1.6665570444413621E9, 0.0, 2022-10-23 13:30:44.441
157.0, -78774.83412919453, -117064.51232010273, 47699.717903103585, 82912.36554531641, 50880.080566415854, 42857.74890872824, 30332.56892354118, 84819.70695492113, 0.018000000000000002, 0.9500000000000001, 0.14200000000000002, 192.0, 0.0, 0.0, 0.0, 0.0, 0.0, 0.0, 0.0, 0.0, 0.0, 1.666557044441378E9, 0.0, 2022-10-23 13:30:44.441
158.0, -78773.7388937162, -117062.70182880186, 47507.247031598934, 82912.85728369442, 50886.13788916325, 42867.44956582184, 30305.679774961445, 84803.70310589112, 0.018000000000000002, 0.9500000000000001, 0.14200000000000002, 192.0, 0.0, 0.0, 0.0, 0.0, 0.0, 0.0, 0.0, 0.0, 0.0, 1.6665570444413936E9, 0.0, 2022-10-23 13:30:44.441
159.0, -78778.9915536632, -117069.49675911627, 47707.51866191848, 82914.13133312837, 50891.54701132143, 42885.420368363906, 30487.89119576111, 84961.23820081213, 0.018000000000000002, 0.9500000000000001, 0.14200000000000002, 192.0, 0.0, 0.0, 0.0, 0.0, 0.0, 0.0, 0.0, 0.0, 0.0, 1.666557044441409E9, 0.0, 2022-10-23 13:30:44.441
160.0, -78768.19566109129, -117060.86898575652, 47797.21621241763, 82928.9728914467, 50895.324456134374, 42890.04717946615, 30521.08353627724, 84979.38781730983, 0.018000000000000002, 0.9500000000000001, 0.14200000000000002, 192.0, 0.0, 0.0, 0.0, 0.0, 0.0, 0.0, 0.0, 0.0, 0.0, 1.6665570444414246E9, 0.0, 2022-10-23 13:30:44.441
161.0, -78771.72723671523, -117065.89812825897, 47562.209971214535, 82945.55788583255, 50894.005703211515, 42879.608914805525, 30351.90318249502, 84838.7729929415, 0.018000000000000002, 0.9500000000000001, 0.14200000000000002, 192.0, 0.0, 0.0, 0.0, 0.0, 0.0, 0.0, 0.0, 0.0, 0.0, 1.66655704444144E9, 0.0, 2022-10-23 13:30:44.441
162.0, -78784.78065547714, -117079.30917493215, 47304.80728206722, 82935.79017350556, 50884.75208100702, 42869.595333289544, 30269.42524545494, 84773.93058227666, 0.018000000000000002, 0.9500000000000001, 0.14200000000000002, 192.0, 0.0, 0.0, 0.0, 0.0, 0.0, 0.0, 0.0, 0.0, 0.0, 1.6665570444414554E9, 0.0, 2022-10-23 13:30:44.441
163.0, -78789.16159739037, -117085.74647733528, 47438.940100543514, 82939.96994971871, 50889.89298223174, 42884.61570556351, 30427.720299687422, 84911.77379033253, 0.016, 0.9480000000000001, 0.138, 192.0, 0.0, 128.0, 29.0, 160.0, 4.0, 80.0, 0.0, 0.0, 0.0, 1.6665570444415517E9, 0.0, 2022-10-23 13:30:44.441
164.0, -78787.73108574522, -117085.79118082419, 47614.66951545114, 82934.09144092696, 50877.9571506926, 42870.69056876786, 30526.917341580076, 84980.30423883251, 0.016, 0.9480000000000001, 0.138, 192.0, 0.0, 0.0, 0.0, 0.0, 0.0, 0.0, 0.0, 0.0, 0.0, 1.666557044441569E9, 0.0, 2022-10-23 13:30:44.441
165.0, -78778.2986495851, -117076.9845935088, 47397.701132023474, 82938.24886539565, 50881.64518852773, 42866.48844081026, 30350.62913306107, 84833.58738822787, 0.016, 0.9480000000000001, 0.138, 192.0, 0.0, 0.0, 0.0, 0.0, 0.0, 0.0, 0.0, 0.0, 0.0, 1.6665570444415853E9, 0.0, 2022-10-23 13:30:44.441
166.0, -78777.31517282905, -117076.06817198613, 47143.49474233326, 82938.13710667338, 50884.88619147375, 42878.625438049494, 30264.306695974672, 84767.49327987352, 0.016, 0.9480000000000001, 0.138, 192.0, 0.0, 0.0, 0.0, 0.0, 0.0, 0.0, 0.0, 0.0, 0.0, 1.6665570444416013E9, 0.0, 2022-10-23 13:30:44.441
167.0, -78784.78065547714, -117085.634718613, 47189.89696382248, 82936.68424328379, 50880.97463619407, 42883.43106310738, 30374.43374090597, 84865.30451360995, 0.016, 0.9480000000000001, 0.138, 192.0, 0.0, 0.0, 0.0, 0.0, 0.0, 0.0, 0.0, 0.0, 0.0, 1.6665570444416168E9, 0.0, 2022-10-23 13:30:44.441
168.0, -78785.40650432187, -117083.84657905658, 47427.406600404574, 82935.5219525721, 50874.93966519114, 42878.58073456058, 30529.979530570454, 84991.74833199363, 0.016, 0.9480000000000001, 0.138, 192.0, 0.0, 0.0, 0.0, 0.0, 0.0, 0.0, 0.0, 0.0, 0.0, 1.6665570444416325E9, 0.0, 2022-10-23 13:30:44.441
169.0, -78770.9896291482, -117067.12747420401, 47276.01823520878, 82944.59676082096, 50878.3594820928, 42877.06081593762, 30390.012906791322, 84876.01099920405, 0.016, 0.9480000000000001, 0.138, 192.0, 0.0, 0.0, 0.0, 0.0, 0.0, 0.0, 0.0, 0.0, 0.0, 1.6665570444416556E9, 0.0, 2022-10-23 13:30:44.441
170.0, -78774.56590826105, -117073.45301788487, 47021.811845518576, 82941.24399915266, 50877.845391970324, 42876.3679118595, 30281.539890949716, 84789.86737607329, 0.016, 0.9480000000000001, 0.138, 192.0, 0.0, 0.0, 0.0, 0.0, 0.0, 0.0, 0.0, 0.0, 0.0, 1.6665570444416804E9, 0.0, 2022-10-23 13:30:44.441
171.0, -78777.13635887341, -117079.42093365443, 46990.94408642579, 82941.75808927514, 50876.48193555856, 42881.24059215076, 30348.39395861554, 84851.22291460312, 0.016, 0.9480000000000001, 0.138, 192.0, 0.0, 0.0, 0.0, 0.0, 0.0, 0.0, 0.0, 0.0, 0.0, 1.6665570444417052E9, 0.0, 2022-10-23 13:30:44.441
172.0, -78781.4502455533, -117081.90197728897, 47232.32057479866, 82939.25469389615, 50872.70449074561, 42881.46410959531, 30514.64623387411, 84986.02628541307, 0.006, 0.9500000000000001, 0.14200000000000002, 192.0, 0.0, 48.0, 29.0, 176.0, 4.0, 112.0, 0.0, 0.0, 0.0, 1.6665570444417264E9, 0.0, 2022-10-23 13:30:44.441
173.0, -78783.88658569891, -117082.6842883449, 47130.79895148265, 82931.4762868257, 50867.83181045435, 42872.00932169072, 30409.235407022883, 84894.36178140185, 0.006, 0.9500000000000001, 0.14200000000000002, 192.0, 0.0, 0.0, 0.0, 0.0, 0.0, 0.0, 0.0, 0.0, 0.0, 1.6665570444417436E9, 0.0, 2022-10-23 13:30:44.441
174.0, -78782.7913502206, -117081.05261099967, 46868.769451233085, 82930.89514146985, 50865.7083947311, 42873.90921996942, 30274.499091446294, 84786.49226266054, 0.006, 0.9500000000000001, 0.14200000000000002, 192.0, 0.0, 0.0, 0.0, 0.0, 0.0, 0.0, 0.0, 0.0, 0.0, 1.6665570444417596E9, 0.0, 2022-10-23 13:30:44.441
175.0, -78771.66018148187, -117073.98945975179, 46770.22060992964, 82943.00978696464, 50884.37210135128, 42893.668162067916, 30313.23466458734, 84827.53006548049, 0.006, 0.9500000000000001, 0.14200000000000002, 192.0, 0.0, 0.0, 0.0, 0.0, 0.0, 0.0, 0.0, 0.0, 0.0, 1.6665570444417756E9, 0.0, 2022-10-23 13:30:44.441
176.0, -78771.72723671523, -117075.84465454158, 47036.92162477036, 82940.9310747303, 50885.24381938503, 42907.705057585845, 30515.629710630146, 84994.810520984, 0.006, 0.9500000000000001, 0.14200000000000002, 192.0, 0.0, 0.0, 0.0, 0.0, 0.0, 0.0, 0.0, 0.0, 0.0, 1.6665570444417918E9, 0.0, 2022-10-23 13:30:44.441
177.0, -78768.48623376922, -117071.66487832843, 47000.30946735257, 82939.9252462298, 50880.41584258269, 42895.97039174681, 30451.323741832228, 84928.15761901828, 0.006, 0.9500000000000001, 0.14200000000000002, 192.0, 0.0, 0.0, 0.0, 0.0, 0.0, 0.0, 0.0, 0.0, 0.0, 1.6665570444418075E9, 0.0, 2022-10-23 13:30:44.441
178.0, -78771.57077450404, -117076.53755861969, 46761.48107784761, 82938.40532760684, 50878.426537326166, 42882.335827629075, 30311.602987242102, 84814.25312927403, 0.006, 0.9500000000000001, 0.14200000000000002, 192.0, 0.0, 0.0, 0.0, 0.0, 0.0, 0.0, 0.0, 0.0, 0.0, 1.666557044441844E9, 0.0, 2022-10-23 13:30:44.441
179.0, -78770.341428559, -117076.40344815297, 46600.861442191774, 82941.35575787495, 50879.007682682, 42890.74008354427, 30302.37171678206, 84810.34157399436, 0.006, 0.9500000000000001, 0.14200000000000002, 192.0, 0.0, 0.0, 0.0, 0.0, 0.0, 0.0, 0.0, 0.0, 0.0, 1.6665570444418595E9, 0.0, 2022-10-23 13:30:44.441
180.0, -78776.8904896844, -117082.46077090035, 46822.83661637743, 82941.71338578622, 50876.86191521429, 42903.994668006264, 30482.61618406966, 84963.96511363568, 0.006, 0.9500000000000001, 0.14200000000000002, 192.0, 0.0, 0.0, 0.0, 0.0, 0.0, 0.0, 0.0, 0.0, 0.0, 1.6665570444418752E9, 0.0, 2022-10-23 13:30:44.441
181.0, -78782.72429498725, -117085.880587802, 46884.72859677418, 82932.1244874149, 50864.32258657487, 42895.9256882579, 30491.065143473763, 84964.6580177138, 0.006, 0.9500000000000001, 0.14200000000000002, 192.0, 0.0, 0.0, 0.0, 0.0, 0.0, 0.0, 0.0, 0.0, 0.0, 1.666557044441891E9, 0.0, 2022-10-23 13:30:44.441
182.0, -78782.83605370951, -117082.30430868916, 46645.38611714675, 82932.50446707064, 50861.23804584004, 42884.79451951916, 30325.036385659743, 84829.65348120374, 0.008, 0.9460000000000001, 0.148, 192.0, 0.0, 64.0, 29.0, 144.0, 4.0, 160.0, 0.0, 0.0, 0.0, 1.6665570444419065E9, 0.0, 2022-10-23 13:30:44.441
183.0, -78793.76605674817, -117099.96218680886, 46453.54109448685, 82921.30624309853, 50848.96693813407, 42875.80911824812, 30295.57678646765, 84805.40183846973, 0.008, 0.9460000000000001, 0.148, 192.0, 0.0, 0.0, 0.0, 0.0, 0.0, 0.0, 0.0, 0.0, 0.0, 1.6665570444419234E9, 0.0, 2022-10-23 13:30:44.441
184.0, -78790.5027020577, -117101.50445717627, 46634.4561141081, 82932.03508043708, 50857.77352544946, 42894.361066146026, 30462.946648948986, 84948.31889251697, 0.008, 0.9460000000000001, 0.148, 192.0, 0.0, 0.0, 0.0, 0.0, 0.0, 0.0, 0.0, 0.0, 0.0, 1.666557044441939E9, 0.0, 2022-10-23 13:30:44.441
185.0, -78767.16748084634, -117073.87770102952, 46751.44514458718, 82951.92813300231, 50881.82400248337, 42911.9295372879, 30513.84157107372, 84986.33920983544, 0.008, 0.9460000000000001, 0.148, 192.0, 0.0, 0.0, 0.0, 0.0, 0.0, 0.0, 0.0, 0.0, 0.0, 1.6665570444419587E9, 0.0, 2022-10-23 13:30:44.441
186.0, -78779.86327169696, -117087.3334511916, 46537.985985039, 82935.20902814974, 50869.955226177604, 42889.041350965665, 30350.942057483444, 84849.52418202451, 0.008, 0.9460000000000001, 0.148, 192.0, 0.0, 0.0, 0.0, 0.0, 0.0, 0.0, 0.0, 0.0, 0.0, 1.666557044441982E9, 0.0, 2022-10-23 13:30:44.441
187.0, -78793.22961488123, -117102.80085835468, 46317.530729476304, 82929.97871994719, 50860.58984525083, 42886.381493375484, 30290.27942303174, 84801.04324830095, 0.008, 0.9460000000000001, 0.148, 192.0, 0.0, 0.0, 0.0, 0.0, 0.0, 0.0, 0.0, 0.0, 0.0, 1.6665570444420075E9, 0.0, 2022-10-23 13:30:44.442
188.0, -78801.85738824098, -117110.26634100275, 46435.547940200326, 82928.01176643513, 50860.522790017465, 42890.13658644397, 30431.385985778095, 84924.53663641652, 0.008, 0.9460000000000001, 0.148, 192.0, 0.0, 0.0, 0.0, 0.0, 0.0, 0.0, 0.0, 0.0, 0.0, 1.6665570444420323E9, 0.0, 2022-10-23 13:30:44.442
189.0, -78782.56783277605, -117087.7357825918, 46626.58830005983, 82940.34992937445, 50865.909560431195, 42897.982048747785, 30539.367263241682, 85008.13216067936, 0.008, 0.9460000000000001, 0.148, 192.0, 0.0, 0.0, 0.0, 0.0, 0.0, 0.0, 0.0, 0.0, 0.0, 1.6665570444420576E9, 0.0, 2022-10-23 13:30:44.442
190.0, -78778.07513214054, -117084.11479999004, 46438.00663209041, 82936.21485665023, 50870.84929595581, 42896.26096442473, 30379.6193456196, 84873.86523173633, 0.008, 0.9460000000000001, 0.148, 192.0, 0.0, 0.0, 0.0, 0.0, 0.0, 0.0, 0.0, 0.0, 0.0, 1.6665570444420807E9, 0.0, 2022-10-23 13:30:44.442
191.0, -78781.4949490422, -117089.21099772585, 46199.53587049674, 82930.31399611403, 50871.58690352284, 42896.931516758385, 30295.174455067452, 84806.94410883715, 0.008, 0.9460000000000001, 0.148, 192.0, 0.0, 0.0, 0.0, 0.0, 0.0, 0.0, 0.0, 0.0, 0.0, 1.6665570444421053E9, 0.0, 2022-10-23 13:30:44.442
192.0, -78783.73012348774, -117093.94956755037, 46228.70489701091, 82934.13614441588, 50873.665615757185, 42910.00728726474, 30394.483255682382, 84898.16157795925, 0.014, 0.9460000000000001, 0.146, 192.0, 0.0, 112.0, 29.0, 144.0, 4.0, 144.0, 0.0, 0.0, 0.0, 1.666557044442136E9, 0.0, 2022-10-23 13:30:44.442
193.0, -78784.95946943277, -117094.62011988404, 46462.70530971352, 82930.09047866947, 50861.03688013994, 42900.798368549156, 30541.24480977593, 85013.45187585973, 0.014, 0.9460000000000001, 0.146, 192.0, 0.0, 0.0, 0.0, 0.0, 0.0, 0.0, 0.0, 0.0, 0.0, 1.666557044442161E9, 0.0, 2022-10-23 13:30:44.442
194.0, -78783.05957115407, -117091.51322740475, 46334.07102037323, 82928.5258565576, 50858.44407778312, 42893.35523764554, 30413.079907069197, 84900.21793844915, 0.014, 0.9460000000000001, 0.146, 192.0, 0.0, 0.0, 0.0, 0.0, 0.0, 0.0, 0.0, 0.0, 0.0, 1.6665570444422164E9, 0.0, 2022-10-23 13:30:44.442
195.0, -78779.25977459666, -117089.32275644813, 46083.21739235132, 82935.43254559429, 50866.177781364655, 42906.00632500724, 30297.43198125744, 84809.67102166069, 0.014, 0.9460000000000001, 0.146, 192.0, 0.0, 0.0, 0.0, 0.0, 0.0, 0.0, 0.0, 0.0, 0.0, 1.6665570444422426E9, 0.0, 2022-10-23 13:30:44.442
196.0, -78793.76605674817, -117106.24302700079, 46017.34680144153, 82927.40826933483, 50858.73465046104, 42901.80419704964, 30337.03927243224, 84849.99356865807, 0.014, 0.9460000000000001, 0.146, 192.0, 0.0, 0.0, 0.0, 0.0, 0.0, 0.0, 0.0, 0.0, 0.0, 1.6665570444422662E9, 0.0, 2022-10-23 13:30:44.442
197.0, -78793.47548407025, -117107.20415201237, 46289.099310529156, 82928.39174609087, 50863.69673773012, 42911.50485414325, 30526.85028634671, 85011.35081188093, 0.014, 0.9460000000000001, 0.146, 192.0, 0.0, 0.0, 0.0, 0.0, 0.0, 0.0, 0.0, 0.0, 0.0, 1.6665570444422884E9, 0.0, 2022-10-23 13:30:44.442
198.0, -78778.11983562945, -117090.70856460436, 46226.939109198946, 82929.95636820274, 50866.043670897925, 42909.71671458682, 30443.210058594952, 84936.38306097782, 0.014, 0.9460000000000001, 0.146, 192.0, 0.0, 0.0, 0.0, 0.0, 0.0, 0.0, 0.0, 0.0, 0.0, 1.6665570444423122E9, 0.0, 2022-10-23 13:30:44.442
199.0, -78770.72140821474, -117081.61140461105, 45982.09810043551, 82933.3761851044, 50873.77737447946, 42912.39892392146, 30311.893559920023, 84829.96640562611, 0.014, 0.9460000000000001, 0.146, 192.0, 0.0, 0.0, 0.0, 0.0, 0.0, 0.0, 0.0, 0.0, 0.0, 1.6665570444423363E9, 0.0, 2022-10-23 13:30:44.442
200.0, -78763.70296045578, -117073.25185218477, 45869.132383958386, 82957.35960690494, 50895.056235200915, 42940.02568006822, 30339.207391644406, 84860.92357169671, 0.014, 0.9460000000000001, 0.146, 192.0, 0.0, 0.0, 0.0, 0.0, 0.0, 0.0, 0.0, 0.0, 0.0, 1.6665570449190023E9, 0.0, 2022-10-23 13:30:44.919
201.0, -78777.85161469599, -117088.85336981456, 46113.30284038816, 82945.9825689772, 50887.16606940819, 42937.72345038932, 30522.67051013357, 85019.84447477394, 0.014, 0.9460000000000001, 0.146, 192.0, 0.0, 0.0, 0.0, 0.0, 0.0, 0.0, 0.0, 0.0, 0.0, 1.666557044919221E9, 0.0, 2022-10-23 13:30:44.919
202.0, -78786.1441118889, -117098.26345423025, 46112.498177587775, 82926.96123444573, 50863.92025517467, 42907.9285750304, 30475.910660733065, 84970.22360208316, 0.02, 0.9500000000000001, 0.14, 192.0, 0.0, 160.0, 29.0, 176.0, 4.0, 96.0, 0.0, 0.0, 0.0, 1.6665570449192436E9, 0.0, 2022-10-23 13:30:44.919
203.0, -78781.8972804424, -117094.57541639512, 45893.540488903585, 82930.31399611403, 50870.42461281116, 42902.40769414994, 30336.256961376308, 84855.2238768606, 0.02, 0.9500000000000001, 0.14, 192.0, 0.0, 0.0, 0.0, 0.0, 0.0, 0.0, 0.0, 0.0, 0.0, 1.666557044919268E9, 0.0, 2022-10-23 13:30:44.919
204.0, -78773.60478324948, -117089.54627389269, 45733.43494337022, 82938.33827237348, 50877.97950243706, 42919.35031644706, 30321.974196669365, 84846.99843490106, 0.02, 0.9500000000000001, 0.14, 192.0, 0.0, 0.0, 0.0, 0.0, 0.0, 0.0, 0.0, 0.0, 0.0, 1.666557044919289E9, 0.0, 2022-10-23 13:30:44.919
205.0, -78783.21603336526, -117101.79502985418, 45961.51214379217, 82934.94080721626, 50877.91244720369, 42930.861464841546, 30506.756068081388, 85002.63363154336, 0.02, 0.9500000000000001, 0.14, 192.0, 0.0, 0.0, 0.0, 0.0, 0.0, 0.0, 0.0, 0.0, 0.0, 1.66655704491931E9, 0.0, 2022-10-23 13:30:44.919
206.0, -78788.0440101676, -117102.86791358805, 46065.91714214291, 82927.38591759038, 50868.12238313227, 42914.92467104491, 30536.975626584965, 85016.24584391664, 0.02, 0.9500000000000001, 0.14, 192.0, 0.0, 0.0, 0.0, 0.0, 0.0, 0.0, 0.0, 0.0, 0.0, 1.6665570449193304E9, 0.0, 2022-10-23 13:30:44.919
207.0, -78777.20341410679, -117091.5355791492, 45840.611558033415, 82935.65606303884, 50872.749194234515, 42914.209415222336, 30364.420159389992, 84872.2335543911, 0.02, 0.9500000000000001, 0.14, 192.0, 0.0, 0.0, 0.0, 0.0, 0.0, 0.0, 0.0, 0.0, 0.0, 1.666557044919351E9, 0.0, 2022-10-23 13:30:44.919
208.0, -78769.76028320317, -117084.96416627934, 45634.08143926638, 82943.61328406492, 50887.54604906393, 42935.89060734399, 30316.319205322172, 84838.01303363002, 0.02, 0.9500000000000001, 0.14, 192.0, 0.0, 0.0, 0.0, 0.0, 0.0, 0.0, 0.0, 0.0, 0.0, 1.6665570449193773E9, 0.0, 2022-10-23 13:30:44.919
209.0, -78772.33073381553, -117089.09923900358, 45812.91774665329, 82939.8805427409, 50885.84731648533, 42942.50672370276, 30486.214814926963, 84985.57925052397, 0.02, 0.9500000000000001, 0.14, 192.0, 0.0, 0.0, 0.0, 0.0, 0.0, 0.0, 0.0, 0.0, 0.0, 1.6665570449194772E9, 0.0, 2022-10-23 13:30:44.919
210.0, -78782.9478124318, -117100.16335250896, 45970.67635901885, 82927.87765596839, 50869.86581919978, 42924.759438605244, 30556.108719838707, 85033.25552144714, 0.02, 0.9500000000000001, 0.14, 192.0, 0.0, 0.0, 0.0, 0.0, 0.0, 0.0, 0.0, 0.0, 0.0, 1.6665570449195025E9, 0.0, 2022-10-23 13:30:44.919
211.0, -78782.65723975387, -117099.64926238648, 45785.06747306198, 82934.69493802726, 50873.956188435106, 42914.36587743353, 30396.271395238808, 84900.15088321577, 0.022, 0.9480000000000001, 0.14400000000000002, 192.0, 0.0, 176.0, 29.0, 160.0, 4.0, 128.0, 0.0, 0.0, 0.0, 1.6665570449195237E9, 0.0, 2022-10-23 13:30:44.919
212.0, -78786.345277589, -117101.14682926498, 45559.96305465258, 82930.29164436957, 50876.30312160291, 42917.89745305746, 30318.57673151216, 84840.67289122021, 0.022, 0.9480000000000001, 0.14400000000000002, 192.0, 0.0, 0.0, 0.0, 0.0, 0.0, 0.0, 0.0, 0.0, 0.0, 1.666557044919546E9, 0.0, 2022-10-23 13:30:44.919
213.0, -78790.81562648006, -117104.32077697763, 45645.771401616505, 82931.4762868257, 50876.43723206964, 42926.4805229283, 30436.012796880343, 84942.68625291422, 0.022, 0.9480000000000001, 0.14400000000000002, 192.0, 0.0, 0.0, 0.0, 0.0, 0.0, 0.0, 0.0, 0.0, 0.0, 1.6665570449195745E9, 0.0, 2022-10-23 13:30:44.919
214.0, -78783.08192289852, -117096.02827978472, 45874.74267181667, 82942.0263102086, 50880.16997339368, 42932.806066609155, 30569.184490345062, 85049.57229489951, 0.022, 0.9480000000000001, 0.14400000000000002, 192.0, 0.0, 0.0, 0.0, 0.0, 0.0, 0.0, 0.0, 0.0, 0.0, 1.6665570449195957E9, 0.0, 2022-10-23 13:30:44.919
215.0, -78776.82343445104, -117092.72022160534, 45725.053039199476, 82939.81348750752, 50884.95324670711, 42927.48635142879, 30424.121668830117, 84928.35878471838, 0.022, 0.9480000000000001, 0.14400000000000002, 192.0, 0.0, 0.0, 0.0, 0.0, 0.0, 0.0, 0.0, 0.0, 0.0, 1.666557044919616E9, 0.0, 2022-10-23 13:30:44.919
216.0, -78770.65435298138, -117086.79700932468, 45495.72414108803, 82941.46751659721, 50890.45177584312, 42939.802162623666, 30332.300702607718, 84859.96244668514, 0.022, 0.9480000000000001, 0.14400000000000002, 192.0, 0.0, 0.0, 0.0, 0.0, 0.0, 0.0, 0.0, 0.0, 0.0, 1.6665570449196367E9, 0.0, 2022-10-23 13:30:44.919
217.0, -78774.16357686085, -117091.4908756603, 45504.4413214256, 82942.24982765316, 50894.22922065607, 42949.74868890628, 30414.622177436613, 84936.78539237802, 0.022, 0.9480000000000001, 0.14400000000000002, 192.0, 0.0, 0.0, 0.0, 0.0, 0.0, 0.0, 0.0, 0.0, 0.0, 1.6665570449196568E9, 0.0, 2022-10-23 13:30:44.919
218.0, -78783.46190255426, -117097.30232921867, 45774.11511827888, 82940.68520554129, 50889.42359559818, 42949.94985460638, 30584.58484227477, 85076.8861266239, 0.022, 0.9480000000000001, 0.14400000000000002, 192.0, 0.0, 0.0, 0.0, 0.0, 0.0, 0.0, 0.0, 0.0, 0.0, 1.6665570449196775E9, 0.0, 2022-10-23 13:30:44.919
219.0, -78785.47355955525, -117097.12351526303, 45690.25137308257, 82931.78921124808, 50878.67240651517, 42935.15299977696, 30477.050599700287, 84981.57828826646, 0.022, 0.9480000000000001, 0.14400000000000002, 192.0, 0.0, 0.0, 0.0, 0.0, 0.0, 0.0, 0.0, 0.0, 0.0, 1.6665570449196975E9, 0.0, 2022-10-23 13:30:44.919
220.0, -78786.23351886672, -117102.66674788795, 45461.838896493784, 82922.98262393268, 50866.177781364655, 42923.35127870456, 30356.95467674192, 84879.87785099482, 0.022, 0.9480000000000001, 0.14400000000000002, 192.0, 0.0, 0.0, 0.0, 0.0, 0.0, 0.0, 0.0, 0.0, 0.0, 1.6665570449197187E9, 0.0, 2022-10-23 13:30:44.919
221.0, -78786.52409154465, -117107.42766945693, 45385.865317090196, 82930.80573449204, 50873.15152563471, 42930.74970611927, 30385.54255790026, 84906.54348213, 0.024, 0.9400000000000001, 0.14200000000000002, 192.0, 0.0, 192.0, 29.0, 96.0, 4.0, 112.0, 0.0, 0.0, 0.0, 1.666557044919748E9, 0.0, 2022-10-23 13:30:44.919
222.0, -78801.76798126317, -117120.8387161301, 45668.771346661015, 82920.90391169833, 50861.34980456231, 42925.8323223391, 30577.320525326795, 85060.45759444924, 0.024, 0.9400000000000001, 0.14200000000000002, 192.0, 0.0, 0.0, 0.0, 0.0, 0.0, 0.0, 0.0, 0.0, 0.0, 1.6665570449197698E9, 0.0, 2022-10-23 13:30:44.919
223.0, -78791.88851021392, -117107.40531771247, 45629.29816595295, 82922.80380997703, 50857.25943532699, 42915.751685589756, 30496.18369295403, 84980.39364581033, 0.024, 0.9400000000000001, 0.14200000000000002, 192.0, 0.0, 0.0, 0.0, 0.0, 0.0, 0.0, 0.0, 0.0, 0.0, 1.66655704491979E9, 0.0, 2022-10-23 13:30:44.919
224.0, -78786.345277589, -117101.72797462082, 45395.07423580578, 82927.4753245682, 50864.724917975065, 42922.6807263709, 30354.317170896196, 84868.81373748944, 0.024, 0.9400000000000001, 0.14200000000000002, 192.0, 0.0, 0.0, 0.0, 0.0, 0.0, 0.0, 0.0, 0.0, 0.0, 1.6665570449198103E9, 0.0, 2022-10-23 13:30:44.919
225.0, -78784.95946943277, -117101.92914032092, 45262.886019097095, 82932.19154264827, 50873.55385703491, 42942.26085451375, 30358.00520873132, 84876.63684804879, 0.024, 0.9400000000000001, 0.14200000000000002, 192.0, 0.0, 0.0, 0.0, 0.0, 0.0, 0.0, 0.0, 0.0, 0.0, 1.6665570449198513E9, 0.0, 2022-10-23 13:30:44.919
226.0, -78789.74274274621, -117108.43349795742, 45504.8883563147, 82932.03508043708, 50879.56647629339, 42952.810877896656, 30536.550943440314, 85024.314823665, 0.024, 0.9400000000000001, 0.14200000000000002, 192.0, 0.0, 0.0, 0.0, 0.0, 0.0, 0.0, 0.0, 0.0, 0.0, 1.6665570449198716E9, 0.0, 2022-10-23 13:30:44.919
227.0, -78789.13924564591, -117106.73476537882, 45547.60253996879, 82927.78824899058, 50869.23997035503, 42931.97905206431, 30516.456725174994, 84998.90089021932, 0.024, 0.9400000000000001, 0.14200000000000002, 192.0, 0.0, 0.0, 0.0, 0.0, 0.0, 0.0, 0.0, 0.0, 0.0, 1.666557044919892E9, 0.0, 2022-10-23 13:30:44.919
228.0, -78776.97989666223, -117094.79893383967, 45322.83339772623, 82933.75616476014, 50876.43723206964, 42935.22005501033, 30358.80987153171, 84872.81469974693, 0.024, 0.9400000000000001, 0.14200000000000002, 192.0, 0.0, 0.0, 0.0, 0.0, 0.0, 0.0, 0.0, 0.0, 0.0, 1.6665570449199126E9, 0.0, 2022-10-23 13:30:44.919
229.0, -78766.40752153487, -117086.84171281359, 45126.36156396408, 82955.45970862624, 50895.4138631122, 42960.29871228919, 30315.42513554396, 84843.51156276603, 0.024, 0.9400000000000001, 0.14200000000000002, 192.0, 0.0, 0.0, 0.0, 0.0, 0.0, 0.0, 0.0, 0.0, 0.0, 1.666557044919933E9, 0.0, 2022-10-23 13:30:44.919
230.0, -78778.7456844742, -117105.14779152248, 45343.66522355857, 82940.23817065217, 50882.8074792394, 42963.27149430174, 30498.195349955007, 84998.47620707467, 0.024, 0.9400000000000001, 0.14200000000000002, 192.0, 0.0, 0.0, 0.0, 0.0, 0.0, 0.0, 0.0, 0.0, 0.0, 1.666557044919953E9, 0.0, 2022-10-23 13:30:44.919
231.0, -78780.6902862418, -117104.47723918883, 45482.69307407059, 82921.90974019883, 50859.80753419489, 42940.003328323764, 30549.090272079742, 85028.04756498904, 0.022, 0.9400000000000001, 0.148, 192.0, 0.0, 176.0, 29.0, 96.0, 4.0, 160.0, 0.0, 0.0, 0.0, 1.6665570449199736E9, 0.0, 2022-10-23 13:30:44.919
232.0, -78769.87204192544, -117093.68134661691, 45260.62849290711, 82926.82712397899, 50865.127249375255, 42936.62821491101, 30367.839976291656, 84881.73304578461, 0.022, 0.9400000000000001, 0.148, 192.0, 0.0, 0.0, 0.0, 0.0, 0.0, 0.0, 0.0, 0.0, 0.0, 1.6665570449199953E9, 0.0, 2022-10-23 13:30:44.919
233.0, -78780.31030658606, -117110.15458228048, 45051.70673748336, 82922.49088555467, 50859.85223768381, 42930.2356159968, 30308.04905987371, 84835.53198999548, 0.022, 0.9400000000000001, 0.148, 192.0, 0.0, 0.0, 0.0, 0.0, 0.0, 0.0, 0.0, 0.0, 0.0, 1.6665570449200156E9, 0.0, 2022-10-23 13:30:44.920
234.0, -78786.01000142217, -117115.89898060549, 45197.4177595875, 82932.41506009283, 50867.988272665534, 42941.612653924545, 30454.564744778247, 84964.83683166944, 0.022, 0.9400000000000001, 0.148, 192.0, 0.0, 0.0, 0.0, 0.0, 0.0, 0.0, 0.0, 0.0, 0.0, 1.66655704492004E9, 0.0, 2022-10-23 13:30:44.920
235.0, -78777.2481175957, -117101.32564322063, 45378.42218618658, 82936.68424328379, 50873.06211865689, 42948.00525283876, 30542.720024909977, 85035.06601274801, 0.022, 0.9400000000000001, 0.148, 192.0, 0.0, 0.0, 0.0, 0.0, 0.0, 0.0, 0.0, 0.0, 0.0, 1.6665570449200604E9, 0.0, 2022-10-23 13:30:44.920
236.0, -78770.27437332564, -117094.66482337295, 45203.251564890335, 82932.70563277074, 50875.72197624707, 42947.424107482926, 30390.147017258052, 84909.42685716473, 0.022, 0.9400000000000001, 0.148, 192.0, 0.0, 0.0, 0.0, 0.0, 0.0, 0.0, 0.0, 0.0, 0.0, 1.6665570449200807E9, 0.0, 2022-10-23 13:30:44.920
237.0, -78771.43666403732, -117098.01758504125, 44966.77010855319, 82931.43158333679, 50871.58690352284, 42949.68163367291, 30299.84596965861, 84839.26473131952, 0.022, 0.9400000000000001, 0.148, 192.0, 0.0, 0.0, 0.0, 0.0, 0.0, 0.0, 0.0, 0.0, 0.0, 1.6665570449201007E9, 0.0, 2022-10-23 13:30:44.920
238.0, -78769.53676575862, -117095.2906722177, 45023.05180109165, 82941.91455148632, 50882.85218272832, 42970.35699729407, 30405.703831398947, 84934.3490522324, 0.022, 0.9400000000000001, 0.148, 192.0, 0.0, 0.0, 0.0, 0.0, 0.0, 0.0, 0.0, 0.0, 0.0, 1.6665570449201207E9, 0.0, 2022-10-23 13:30:44.920
239.0, -78772.17427160434, -117096.52001816274, 45276.11825181464, 82935.03021419409, 50878.85122047082, 42973.75446245128, 30559.774405929376, 85056.85896359193, 0.022, 0.9400000000000001, 0.148, 192.0, 0.0, 0.0, 0.0, 0.0, 0.0, 0.0, 0.0, 0.0, 0.0, 1.6665570449201412E9, 0.0, 2022-10-23 13:30:44.920
240.0, -78776.08582688401, -117096.47531467382, 45132.441238455925, 82925.28485361158, 50864.03201389695, 42948.27347377223, 30412.364651246626, 84928.71641262966, 0.018000000000000002, 0.9460000000000001, 0.146, 192.0, 0.0, 144.0, 29.0, 144.0, 4.0, 144.0, 0.0, 0.0, 0.0, 1.6665570449201803E9, 0.0, 2022-10-23 13:30:44.920
241.0, -78787.01582992266, -117104.9913293113, 44893.67990418433, 82921.46270530972, 50852.87849341375, 42939.668052156936, 30300.069487103166, 84836.0237283735, 0.018000000000000002, 0.9460000000000001, 0.146, 192.0, 0.0, 0.0, 0.0, 0.0, 0.0, 0.0, 0.0, 0.0, 0.0, 1.666557044920202E9, 0.0, 2022-10-23 13:30:44.920
242.0, -78785.13828338841, -117103.89609383298, 44877.58664817651, 82931.16336240333, 50865.26135984199, 42954.10727907506, 30369.248136192342, 84898.22863319262, 0.018000000000000002, 0.9460000000000001, 0.146, 192.0, 0.0, 0.0, 0.0, 0.0, 0.0, 0.0, 0.0, 0.0, 0.0, 1.6665570449202223E9, 0.0, 2022-10-23 13:30:44.920
243.0, -78783.95364093229, -117103.11378277706, 45192.25450661832, 82931.16336240333, 50870.648130255715, 42960.74574717829, 30582.796702718344, 85070.27001026511, 0.018000000000000002, 0.9460000000000001, 0.146, 192.0, 0.0, 0.0, 0.0, 0.0, 0.0, 0.0, 0.0, 0.0, 0.0, 1.6665570449202423E9, 0.0, 2022-10-23 13:30:44.920
244.0, -78774.83412919453, -117096.16239025145, 45135.74929663531, 82935.6784147833, 50864.702566230604, 42952.7885261522, 30492.875634774642, 84982.96409642269, 0.018000000000000002, 0.9460000000000001, 0.146, 192.0, 0.0, 0.0, 0.0, 0.0, 0.0, 0.0, 0.0, 0.0, 0.0, 1.6665570449202623E9, 0.0, 2022-10-23 13:30:44.920
245.0, -78765.28993431211, -117086.55114013566, 44851.30099669707, 82946.98839747767, 50868.74823197702, 42957.88472388801, 30320.074298390664, 84841.36579529832, 0.018000000000000002, 0.9460000000000001, 0.146, 192.0, 0.0, 0.0, 0.0, 0.0, 0.0, 0.0, 0.0, 0.0, 0.0, 1.6665570449202828E9, 0.0, 2022-10-23 13:30:44.920
246.0, -78781.092617642, -117101.57151240963, 44739.542274420535, 82931.38687984788, 50861.64037724023, 42953.19085755239, 30329.372624084073, 84853.99453091557, 0.018000000000000002, 0.9460000000000001, 0.146, 192.0, 0.0, 0.0, 0.0, 0.0, 0.0, 0.0, 0.0, 0.0, 0.0, 1.666557044920303E9, 0.0, 2022-10-23 13:30:44.920
247.0, -78790.16742589086, -117110.37809972503, 45031.09842909556, 82932.325653115, 50861.48391502904, 42967.67478795943, 30538.13791729664, 85030.23803594566, 0.018000000000000002, 0.9460000000000001, 0.146, 192.0, 0.0, 0.0, 0.0, 0.0, 0.0, 0.0, 0.0, 0.0, 0.0, 1.6665570449203234E9, 0.0, 2022-10-23 13:30:44.920
248.0, -78788.42398982335, -117108.41114621297, 45033.780638430195, 82930.11283041393, 50858.354670805296, 42960.54458147819, 30492.07097197425, 84983.29937258952, 0.018000000000000002, 0.9460000000000001, 0.146, 192.0, 0.0, 0.0, 0.0, 0.0, 0.0, 0.0, 0.0, 0.0, 0.0, 1.6665570449203436E9, 0.0, 2022-10-23 13:30:44.920
249.0, -78791.28501311362, -117111.58509392562, 44811.44783633326, 82926.73771700118, 50854.77839169245, 42953.30261627467, 30345.979970214365, 84863.00228393105, 0.018000000000000002, 0.9460000000000001, 0.146, 192.0, 0.0, 0.0, 0.0, 0.0, 0.0, 0.0, 0.0, 0.0, 0.0, 1.6665570449203637E9, 0.0, 2022-10-23 13:30:44.920
250.0, -78798.86225448397, -117120.03405332973, 44641.70868893966, 82927.7211937572, 50852.92319690266, 42950.30748251766, 30316.743888466823, 84839.71176620862, 0.02, 0.9460000000000001, 0.14, 192.0, 0.0, 160.0, 29.0, 144.0, 4.0, 96.0, 0.0, 0.0, 0.0, 1.666557044920384E9, 0.0, 2022-10-23 13:30:44.920
251.0, -78805.65718479839, -117125.91256212146, 44863.61680789194, 82926.49184781217, 50849.97276663456, 42952.095622074085, 30484.381971881627, 84982.76293072259, 0.02, 0.9460000000000001, 0.14, 192.0, 0.0, 0.0, 0.0, 0.0, 0.0, 0.0, 0.0, 0.0, 0.0, 1.6665570449204054E9, 0.0, 2022-10-23 13:30:44.920
252.0, -78799.08577192853, -117116.43542247242, 44928.19099762333, 82926.29068211207, 50848.363441033776, 42944.92071210393, 30480.492768346405, 84973.7104742182, 0.02, 0.9460000000000001, 0.14, 192.0, 0.0, 0.0, 0.0, 0.0, 0.0, 0.0, 0.0, 0.0, 0.0, 1.6665570449204276E9, 0.0, 2022-10-23 13:30:44.920
253.0, -78798.50462657269, -117116.6365881725, 44708.428646138746, 82924.27902511109, 50849.03399336743, 42947.96054934985, 30319.649615246013, 84845.59027500037, 0.02, 0.9460000000000001, 0.14, 192.0, 0.0, 0.0, 0.0, 0.0, 0.0, 0.0, 0.0, 0.0, 0.0, 1.6665570449204483E9, 0.0, 2022-10-23 13:30:44.920
254.0, -78776.46580653975, -117093.70369836137, 44530.55346376341, 82957.53842086058, 50885.73555776305, 42992.41816907146, 30296.80613241269, 84839.30943480843, 0.02, 0.9460000000000001, 0.14, 192.0, 0.0, 0.0, 0.0, 0.0, 0.0, 0.0, 0.0, 0.0, 0.0, 1.6665570449204679E9, 0.0, 2022-10-23 13:30:44.920
255.0, -78779.37153331895, -117095.44713442888, 44732.836751083945, 82958.58895284998, 50895.65973230121, 43011.01482045827, 30478.995201467897, 84998.5656140525, 0.02, 0.9460000000000001, 0.14, 192.0, 0.0, 0.0, 0.0, 0.0, 0.0, 0.0, 0.0, 0.0, 0.0, 1.6665570449204817E9, 0.0, 2022-10-23 13:30:44.920
0.0, -78791.08384741352, -117109.17110552444, 44903.73818918922, 82932.86209498193, 50866.37894706475, 42976.10139561909, 30556.466347749993, 85047.00184428715, 0.02, 0.9460000000000001, 0.14, 192.0, 0.0, 0.0, 0.0, 0.0, 0.0, 0.0, 0.0, 0.0, 0.0, 1.6665570449205103E9, 0.0, 2022-10-23 13:30:44.920
1.0, -78791.48617881372, -117110.15458228048, 44708.495701372114, 82924.9719291892, 50850.531560245945, 42950.843924384586, 30387.129531756585, 84903.01190650606, 0.02, 0.9460000000000001, 0.14, 192.0, 0.0, 0.0, 0.0, 0.0, 0.0, 0.0, 0.0, 0.0, 0.0, 1.6665570449205236E9, 0.0, 2022-10-23 13:30:44.920
2.0, -78783.48425429872, -117102.15265776547, 44507.66527744118, 82937.578313062, 50857.43824928263, 42963.986750124306, 30329.171458383975, 84862.91287695324, 0.02, 0.9460000000000001, 0.14, 192.0, 0.0, 0.0, 0.0, 0.0, 0.0, 0.0, 0.0, 0.0, 0.0, 1.6665570449205377E9, 0.0, 2022-10-23 13:30:44.920
3.0, -78790.5027020577, -117110.13223053602, 44598.41335992973, 82940.70755728574, 50858.68994697213, 42971.541639750205, 30437.331549803206, 84960.34413103393, 0.02, 0.9460000000000001, 0.14, 192.0, 0.0, 0.0, 0.0, 0.0, 0.0, 0.0, 0.0, 0.0, 0.0, 1.6665570449205508E9, 0.0, 2022-10-23 13:30:44.920
4.0, -78795.19656839331, -117114.13319279352, 44827.74225804118, 82923.58612103297, 50840.47327524106, 42960.92456113393, 30562.680132708567, 85055.78607985808, 0.02, 0.9460000000000001, 0.14200000000000002, 192.0, 0.0, 160.0, 29.0, 144.0, 4.0, 112.0, 0.0, 0.0, 0.0, 1.6665570449205644E9, 0.0, 2022-10-23 13:30:44.920
5.0, -78775.52703327264, -117096.96705305185, 44670.76595673156, 82935.94663571675, 50850.5539119904, 42970.915790905456, 30412.409354735537, 84929.87870334134, 0.02, 0.9460000000000001, 0.14200000000000002, 192.0, 0.0, 0.0, 0.0, 0.0, 0.0, 0.0, 0.0, 0.0, 0.0, 1.6665570449205797E9, 0.0, 2022-10-23 13:30:44.920
6.0, -78786.3005741001, -117110.15458228048, 44443.672233065634, 82928.74937400215, 50845.25654855449, 42967.0936426036, 30319.33669082364, 84852.09463263687, 0.02, 0.9460000000000001, 0.14200000000000002, 192.0, 0.0, 0.0, 0.0, 0.0, 0.0, 0.0, 0.0, 0.0, 0.0, 1.666557044920593E9, 0.0, 2022-10-23 13:30:44.920
7.0, -78804.20432140879, -117126.98544585532, 44475.23289623653, 82916.79119071856, 50833.030144337434, 42957.191819809894, 30402.21695926392, 84922.56968290445, 0.02, 0.9460000000000001, 0.14200000000000002, 192.0, 0.0, 0.0, 0.0, 0.0, 0.0, 0.0, 0.0, 0.0, 0.0, 1.6665570449206064E9, 0.0, 2022-10-23 13:30:44.920
8.0, -78805.67953654284, -117127.7007016779, 44735.00487029611, 82912.41024880532, 50824.71529540006, 42951.98386335181, 30554.611152960202, 85042.55384714055, 0.02, 0.9460000000000001, 0.14200000000000002, 192.0, 0.0, 0.0, 0.0, 0.0, 0.0, 0.0, 0.0, 0.0, 0.0, 1.66655704492062E9, 0.0, 2022-10-23 13:30:44.920
9.0, -78790.70386775778, -117115.58605618312, 44618.172302028215, 82914.64542325085, 50826.481083212035, 42942.21615102484, 30419.338395516683, 84927.97880506264, 0.02, 0.9460000000000001, 0.14200000000000002, 192.0, 0.0, 0.0, 0.0, 0.0, 0.0, 0.0, 0.0, 0.0, 0.0, 1.6665570449206336E9, 0.0, 2022-10-23 13:30:44.920
10.0, -78779.90797518588, -117106.39948921198, 44402.41091280114, 82927.5200280571, 50844.42953400964, 42964.053805357675, 30321.013071657788, 84853.86042044884, 0.02, 0.9460000000000001, 0.14200000000000002, 192.0, 0.0, 0.0, 0.0, 0.0, 0.0, 0.0, 0.0, 0.0, 0.0, 1.666557044920647E9, 0.0, 2022-10-23 13:30:44.920
11.0, -78782.67959149834, -117108.56760842414, 44377.265200288915, 82938.69590028476, 50860.74630746202, 42987.63489575803, 30386.458979422925, 84913.38311593332, 0.02, 0.9460000000000001, 0.14200000000000002, 192.0, 0.0, 0.0, 0.0, 0.0, 0.0, 0.0, 0.0, 0.0, 0.0, 1.6665570449206605E9, 0.0, 2022-10-23 13:30:44.920
12.0, -78787.3511060895, -117114.13319279352, 44649.30828205446, 82930.24694088065, 50851.33622304633, 42981.08583463262, 30559.550888484824, 85052.38861470087, 0.02, 0.9460000000000001, 0.14200000000000002, 192.0, 0.0, 0.0, 0.0, 0.0, 0.0, 0.0, 0.0, 0.0, 0.0, 1.666557044920674E9, 0.0, 2022-10-23 13:30:44.920
13.0, -78783.73012348774, -117111.3392247366, 44589.89734529226, 82921.86503670992, 50843.803685164894, 42957.147116320986, 30462.991352437897, 84961.28290430104, 0.02, 0.9460000000000001, 0.14200000000000002, 192.0, 0.0, 0.0, 0.0, 0.0, 0.0, 0.0, 0.0, 0.0, 0.0, 1.6665570449206877E9, 0.0, 2022-10-23 13:30:44.920
14.0, -78777.47163504025, -117101.77267810973, 44366.0222728279, 82933.64440603786, 50855.895978915214, 42967.183049581414, 30332.90419970801, 84855.64856000525, 0.018000000000000002, 0.9560000000000001, 0.14, 192.0, 0.0, 144.0, 29.0, 224.0, 4.0, 96.0, 0.0, 0.0, 0.0, 1.6665570449207015E9, 0.0, 2022-10-23 13:30:44.920
15.0, -78785.2947455996, -117107.87470434603, 44256.677538952536, 82934.76199326063, 50860.031051639446, 42974.08973861811, 30346.15878417001, 84870.84774623487, 0.018000000000000002, 0.9560000000000001, 0.14, 192.0, 0.0, 0.0, 0.0, 0.0, 0.0, 0.0, 0.0, 0.0, 0.0, 1.6665570449207287E9, 0.0, 2022-10-23 13:30:44.920
16.0, -78793.85546372598, -117119.27409401824, 44572.70885380612, 82927.36356584592, 50852.29734805791, 42978.02364564224, 30577.119359626697, 85057.66362639233, 0.018000000000000002, 0.9560000000000001, 0.14, 192.0, 0.0, 0.0, 0.0, 0.0, 0.0, 0.0, 0.0, 0.0, 0.0, 1.6665570449207428E9, 0.0, 2022-10-23 13:30:44.920
17.0, -78783.05957115407, -117112.81443987065, 44586.96926676861, 82927.072993168, 50843.26724329797, 42966.93718039241, 30528.48196369195, 85002.49952107662, 0.018000000000000002, 0.9560000000000001, 0.14, 192.0, 0.0, 0.0, 0.0, 0.0, 0.0, 0.0, 0.0, 0.0, 0.0, 1.6665570449207563E9, 0.0, 2022-10-23 13:30:44.920
18.0, -78771.8389954375, -117099.5375036642, 44357.21568551251, 82937.08657468398, 50853.884321914236, 42968.9935408823, 30367.974086758386, 84873.26173463605, 0.018000000000000002, 0.9560000000000001, 0.14, 192.0, 0.0, 0.0, 0.0, 0.0, 0.0, 0.0, 0.0, 0.0, 0.0, 1.6665570449207704E9, 0.0, 2022-10-23 13:30:44.920
19.0, -78768.46388202475, -117093.7931053392, 44168.924590221, 82951.63756032438, 50866.71422323158, 42988.528965536236, 30326.712766493893, 84843.66802497722, 0.018000000000000002, 0.9560000000000001, 0.14, 192.0, 0.0, 0.0, 0.0, 0.0, 0.0, 0.0, 0.0, 0.0, 0.0, 1.6665570449207845E9, 0.0, 2022-10-23 13:30:44.920
20.0, -78784.87006245495, -117107.51707643474, 44387.59170622727, 82938.45003109575, 50859.11463011678, 42988.05957890268, 30503.492713390915, 84992.1059599049, 0.018000000000000002, 0.9560000000000001, 0.14, 192.0, 0.0, 0.0, 0.0, 0.0, 0.0, 0.0, 0.0, 0.0, 0.0, 1.6665570449207988E9, 0.0, 2022-10-23 13:30:44.920
21.0, -78789.76509449066, -117112.50151544828, 44504.938364617636, 82926.62595827889, 50842.70844968659, 42963.629122213024, 30541.110699309196, 85009.56267232451, 0.018000000000000002, 0.9560000000000001, 0.14, 192.0, 0.0, 0.0, 0.0, 0.0, 0.0, 0.0, 0.0, 0.0, 0.0, 1.666557044920814E9, 0.0, 2022-10-23 13:30:44.920
22.0, -78792.4473038253, -117118.0447480732, 44295.547222560315, 82914.93599592877, 50830.28087976943, 42947.71468016085, 30373.9196507835, 84865.66214152124, 0.018000000000000002, 0.9560000000000001, 0.14, 192.0, 0.0, 0.0, 0.0, 0.0, 0.0, 0.0, 0.0, 0.0, 0.0, 1.6665570449208276E9, 0.0, 2022-10-23 13:30:44.920
23.0, -78783.95364093229, -117108.29938749068, 44085.91021131399, 82928.45880132423, 50845.65887995469, 42967.38421528151, 30315.201618099407, 84819.25992003203, 0.02, 0.9540000000000001, 0.15, 192.0, 0.0, 160.0, 29.0, 208.0, 4.0, 176.0, 0.0, 0.0, 0.0, 1.6665570449208412E9, 0.0, 2022-10-23 13:30:44.920
24.0, -78782.70194324279, -117104.25372174427, 44266.71347221297, 82941.75808927514, 50863.54027551893, 43004.532814566235, 30486.03600097132, 84972.23525908415, 0.02, 0.9540000000000001, 0.15, 192.0, 0.0, 0.0, 0.0, 0.0, 0.0, 0.0, 0.0, 0.0, 0.0, 1.6665570449208555E9, 0.0, 2022-10-23 13:30:44.920
25.0, -78772.62130649344, -117094.95539605086, 44451.96473025856, 82947.0778044555, 50870.78224072245, 43009.360791368585, 30576.38175205967, 85043.64908261885, 0.02, 0.9540000000000001, 0.15, 192.0, 0.0, 0.0, 0.0, 0.0, 0.0, 0.0, 0.0, 0.0, 0.0, 1.6665570449208694E9, 0.0, 2022-10-23 13:30:44.920
26.0, -78762.02657962163, -117084.45007615688, 44259.247989564894, 82947.30132190006, 50870.29050234443, 42996.10620690659, 30409.347165745163, 84904.12949372882, 0.02, 0.9540000000000001, 0.15, 192.0, 0.0, 0.0, 0.0, 0.0, 0.0, 0.0, 0.0, 0.0, 0.0, 1.6665570449208827E9, 0.0, 2022-10-23 13:30:44.920
27.0, -78767.70392271328, -117090.77561983772, 44034.45649557788, 82947.16721143332, 50870.62577851126, 43000.30833486418, 30329.730251995356, 84843.93624591068, 0.02, 0.9540000000000001, 0.15, 192.0, 0.0, 0.0, 0.0, 0.0, 0.0, 0.0, 0.0, 0.0, 0.0, 1.6665570449208963E9, 0.0, 2022-10-23 13:30:44.920
28.0, -78770.43083553683, -117094.95539605086, 44119.169607063486, 82946.96604573322, 50877.04072916994, 43012.646497803515, 30446.02637839632, 84944.87672387085, 0.02, 0.9540000000000001, 0.15, 192.0, 0.0, 0.0, 0.0, 0.0, 0.0, 0.0, 0.0, 0.0, 0.0, 1.6665570449209104E9, 0.0, 2022-10-23 13:30:44.920
29.0, -78777.5386902736, -117100.20805599786, 44356.90276109013, 82936.3713188614, 50855.96303414858, 42998.6990092634, 30579.555699772325, 85044.2749314636, 0.02, 0.9540000000000001, 0.15, 192.0, 0.0, 0.0, 0.0, 0.0, 0.0, 0.0, 0.0, 0.0, 0.0, 1.666557044920924E9, 0.0, 2022-10-23 13:30:44.920
30.0, -78787.46286481177, -117112.94855033739, 44206.43081741701, 82925.57542628949, 50843.736629931525, 42982.449291044395, 30424.59105546368, 84907.16933097475, 0.02, 0.9540000000000001, 0.15, 192.0, 0.0, 0.0, 0.0, 0.0, 0.0, 0.0, 0.0, 0.0, 0.0, 1.666557044920938E9, 0.0, 2022-10-23 13:30:44.920
31.0, -78769.98380064772, -117099.6939658754, 43958.70643361884, 82942.31688288652, 50859.71812721707, 43001.69414302041, 30310.28423431924, 84812.66615541771, 0.02, 0.9540000000000001, 0.15, 192.0, 0.0, 0.0, 0.0, 0.0, 0.0, 0.0, 0.0, 0.0, 0.0, 1.666557044920964E9, 0.0, 2022-10-23 13:30:44.920
32.0, -78769.87204192544, -117097.1458670075, 43958.48291617429, 82950.45291786826, 50873.44209831263, 43017.51917809477, 30387.285993967773, 84883.1859091742, 0.02, 0.9540000000000001, 0.15, 192.0, 0.0, 0.0, 0.0, 0.0, 0.0, 0.0, 0.0, 0.0, 0.0, 1.6665570449209776E9, 0.0, 2022-10-23 13:30:44.920
33.0, -78776.10817862848, -117099.67161413093, 44231.442419462495, 82947.94952248926, 50869.35172907731, 43017.58623332813, 30562.52367049738, 85025.81239054352, 0.02, 0.9460000000000001, 0.148, 192.0, 0.0, 160.0, 29.0, 144.0, 4.0, 160.0, 0.0, 0.0, 0.0, 1.666557044920991E9, 0.0, 2022-10-23 13:30:44.920
34.0, -78772.4424925378, -117100.74449786478, 44153.16661038001, 82938.85236249595, 50856.63358648224, 42994.27336386125, 30461.06910241474, 84937.41124122277, 0.02, 0.9460000000000001, 0.148, 192.0, 0.0, 0.0, 0.0, 0.0, 0.0, 0.0, 0.0, 0.0, 0.0, 1.6665570449210055E9, 0.0, 2022-10-23 13:30:44.921
35.0, -78767.34629480199, -117098.35286120807, 43942.50141888874, 82942.65215905335, 50859.047574883414, 42996.30737260668, 30356.64175231955, 84854.93330418269, 0.02, 0.9460000000000001, 0.148, 192.0, 0.0, 0.0, 0.0, 0.0, 0.0, 0.0, 0.0, 0.0, 0.0, 1.6665570449210188E9, 0.0, 2022-10-23 13:30:44.921
36.0, -78784.08775139901, -117115.96603583885, 43843.796115374105, 82930.85043798095, 50844.13896133172, 42988.90894519198, 30360.888583766056, 84859.5824670294, 0.02, 0.9460000000000001, 0.148, 192.0, 0.0, 0.0, 0.0, 0.0, 0.0, 0.0, 0.0, 0.0, 0.0, 1.6665570449210324E9, 0.0, 2022-10-23 13:30:44.921
37.0, -78778.52216702965, -117112.61327417057, 44109.29013601424, 82941.04283345256, 50855.49364751502, 43020.13433219604, 30540.887181864644, 85014.56946308249, 0.02, 0.9460000000000001, 0.148, 192.0, 0.0, 0.0, 0.0, 0.0, 0.0, 0.0, 0.0, 0.0, 0.0, 1.6665570449210465E9, 0.0, 2022-10-23 13:30:44.921
38.0, -78763.39003603341, -117097.41408794095, 44102.3610952331, 82950.29645565707, 50859.963996406084, 43025.27523342076, 30489.813445784268, 84968.92720090476, 0.02, 0.9460000000000001, 0.148, 192.0, 0.0, 0.0, 0.0, 0.0, 0.0, 0.0, 0.0, 0.0, 0.0, 1.66655704492106E9, 0.0, 2022-10-23 13:30:44.921
39.0, -78765.71461745676, -117100.49862867578, 43865.99139761822, 82952.28576091358, 50859.36049930579, 43018.14502693952, 30340.503792822816, 84849.70299598014, 0.02, 0.9460000000000001, 0.148, 192.0, 0.0, 0.0, 0.0, 0.0, 0.0, 0.0, 0.0, 0.0, 0.0, 1.6665570449210737E9, 0.0, 2022-10-23 13:30:44.921
40.0, -78771.88369892642, -117110.57926542513, 43741.6262914689, 82947.61424632242, 50856.745345204516, 43016.58040482765, 30347.276371392774, 84859.94009494068, 0.02, 0.9460000000000001, 0.148, 192.0, 0.0, 0.0, 0.0, 0.0, 0.0, 0.0, 0.0, 0.0, 0.0, 1.6665570449210873E9, 0.0, 2022-10-23 13:30:44.921
41.0, -78788.2004723788, -117127.20896329987, 44007.25442257577, 82933.8232199935, 50848.63166196724, 43011.663021047476, 30541.267161520384, 85019.88917826286, 0.02, 0.9460000000000001, 0.148, 192.0, 0.0, 0.0, 0.0, 0.0, 0.0, 0.0, 0.0, 0.0, 0.0, 1.6665570449211009E9, 0.0, 2022-10-23 13:30:44.921
42.0, -78784.2442136102, -117123.00683534228, 44066.37478666005, 82926.93888270127, 50837.00875485048, 42998.63195403003, 30530.448917204016, 84999.28086987506, 0.02, 0.9460000000000001, 0.148, 192.0, 0.0, 0.0, 0.0, 0.0, 0.0, 0.0, 0.0, 0.0, 0.0, 1.6665570449211173E9, 0.0, 2022-10-23 13:30:44.921
43.0, -78767.61451573545, -117105.46071594486, 43827.81461808856, 82941.73573753069, 50852.18558933563, 43010.03134370224, 30354.51833659629, 84858.91191469574, 0.02, 0.9420000000000001, 0.148, 192.0, 0.0, 160.0, 29.0, 112.0, 4.0, 160.0, 0.0, 0.0, 0.0, 1.6665570449211311E9, 0.0, 2022-10-23 13:30:44.921
44.0, -78772.17427160434, -117107.9417595794, 43654.54389507102, 82941.6239788084, 50859.09227837232, 43019.68729730693, 30327.226856616362, 84840.60583598683, 0.02, 0.9420000000000001, 0.148, 192.0, 0.0, 0.0, 0.0, 0.0, 0.0, 0.0, 0.0, 0.0, 0.0, 1.6665570449211457E9, 0.0, 2022-10-23 13:30:44.921
45.0, -78782.56783277605, -117118.78235564023, 43874.485060511244, 82937.89123748436, 50857.505304515995, 43028.85151253361, 30508.32069019326, 84996.62101228489, 0.02, 0.9420000000000001, 0.148, 192.0, 0.0, 0.0, 0.0, 0.0, 0.0, 0.0, 0.0, 0.0, 0.0, 1.666557044921159E9, 0.0, 2022-10-23 13:30:44.921
46.0, -78781.2937833421, -117115.2954835052, 44034.076515922134, 82934.6725862828, 50853.392583536224, 43024.738791553835, 30575.845310192744, 85043.89495180786, 0.02, 0.9420000000000001, 0.148, 192.0, 0.0, 0.0, 0.0, 0.0, 0.0, 0.0, 0.0, 0.0, 0.0, 1.6665570449211853E9, 0.0, 2022-10-23 13:30:44.921
47.0, -78779.72916123024, -117113.55204743768, 43819.36565868445, 82935.2760833831, 50848.67636545615, 43004.75633201079, 30392.985688803878, 84891.09842671138, 0.02, 0.9420000000000001, 0.148, 192.0, 0.0, 0.0, 0.0, 0.0, 0.0, 0.0, 0.0, 0.0, 0.0, 1.6665570449211988E9, 0.0, 2022-10-23 13:30:44.921
48.0, -78782.59018452051, -117115.92133234994, 43582.57127792493, 82938.07005144001, 50850.933891646135, 43005.31512562217, 30306.19386508392, 84823.0150131005, 0.02, 0.9420000000000001, 0.148, 192.0, 0.0, 0.0, 0.0, 0.0, 0.0, 0.0, 0.0, 0.0, 0.0, 1.6665570449212127E9, 0.0, 2022-10-23 13:30:44.921
