%OpenBCI Raw EEG Data
%Number of channels = 8
%Sample Rate = 250 Hz
%Board = OpenBCI_GUI$BoardCytonSerial
Sample Index, EXG Channel 0, EXG Channel 1, EXG Channel 2, EXG Channel 3, EXG Channel 4, EXG Channel 5, EXG Channel 6, EXG Channel 7, Accel Channel 0, Accel Channel 1, Accel Channel 2, Other, Other, Other, Other, Other, Other, Other, Analog Channel 0, Analog Channel 1, Analog Channel 2, Timestamp, Other, Timestamp (Formatted)
49.0, -77936.3978429315, -109614.25121000424, 51205.29844824057, 32689.672135075587, 61979.30866233214, 82078.26549747771, 55570.28121593967, 54186.08238531141, 0.0, 0.0, 0.0, 192.0, 0.0, 0.0, 0.0, 0.0, 0.0, 0.0, 0.0, 0.0, 0.0, 1.6665561983087492E9, 0.0, 2022-10-23 13:16:38.308
50.0, -77904.92658673842, -109583.91989277839, 51937.56394834089, 32504.77850494129, 61835.34107629551, 82207.34682170712, 55903.23280134593, 54301.529145423076, 0.046, 0.9400000000000001, 0.14200000000000002, 192.0, 1.0, 112.0, 29.0, 96.0, 4.0, 112.0, 0.0, 0.0, 0.0, 1.6665561983087661E9, 0.0, 2022-10-23 13:16:38.308
51.0, -77867.53211826469, -109543.01620042518, 49797.0044370895, 32461.684341631455, 61743.74362751766, 81318.3955929751, 54494.67056926138, 52888.720081892025, 0.046, 0.9400000000000001, 0.14200000000000002, 192.0, 0.0, 0.0, 0.0, 0.0, 0.0, 0.0, 0.0, 0.0, 0.0, 1.6665561983087769E9, 0.0, 2022-10-23 13:16:38.308
52.0, -77897.08112443461, -109569.19009318235, 49355.13280095253, 32571.72197958493, 61859.7491812407, 81273.15566219756, 54317.37653224189, 52892.40811972715, 0.046, 0.9400000000000001, 0.14200000000000002, 192.0, 0.0, 0.0, 0.0, 0.0, 0.0, 0.0, 0.0, 0.0, 0.0, 1.6665561983087852E9, 0.0, 2022-10-23 13:16:38.308
53.0, -77931.36870042906, -109604.03646278816, 50765.05848944885, 32683.301887905825, 61975.262996585734, 81910.04626870707, 55287.75516602459, 53922.73413213899, 0.046, 0.9400000000000001, 0.14200000000000002, 192.0, 0.0, 0.0, 0.0, 0.0, 0.0, 0.0, 0.0, 0.0, 0.0, 1.6665561983087933E9, 0.0, 2022-10-23 13:16:38.308
54.0, -77903.16079892646, -109576.49911361923, 52112.376941725845, 32557.282752666804, 61890.751050800216, 82310.0754392237, 56034.48224478749, 54485.64046450144, 0.046, 0.9400000000000001, 0.14200000000000002, 192.0, 0.0, 0.0, 0.0, 0.0, 0.0, 0.0, 0.0, 0.0, 0.0, 1.6665561983088012E9, 0.0, 2022-10-23 13:16:38.308
55.0, -77856.1774320814, -109528.88989792943, 50097.031902913084, 32445.076995501164, 61748.41514210882, 81428.85791407322, 54670.936426035936, 53060.426182797695, 0.046, 0.9400000000000001, 0.14200000000000002, 192.0, 0.0, 0.0, 0.0, 0.0, 0.0, 0.0, 0.0, 0.0, 0.0, 1.6665561983088093E9, 0.0, 2022-10-23 13:16:38.308
56.0, -77883.80418822815, -109558.32714537706, 49279.69566341587, 32553.617066576135, 61836.30220130709, 81213.67767020199, 54237.46904581416, 52807.58324951926, 0.046, 0.9400000000000001, 0.14200000000000002, 192.0, 0.0, 0.0, 0.0, 0.0, 0.0, 0.0, 0.0, 0.0, 0.0, 1.6665561983088171E9, 0.0, 2022-10-23 13:16:38.308
57.0, -77927.56890387165, -109599.85668657502, 50331.501702249254, 32652.657646257598, 61944.52934795968, 81730.40529851978, 55000.55760151835, 53667.14193429255, 0.046, 0.9400000000000001, 0.14200000000000002, 192.0, 0.0, 0.0, 0.0, 0.0, 0.0, 0.0, 0.0, 0.0, 0.0, 1.6665561983088253E9, 0.0, 2022-10-23 13:16:38.308
58.0, -77917.0859357221, -109588.68081434738, 52138.86375890538, 32583.099017512683, 61916.90259181293, 82356.5894194352, 56080.504486620965, 54594.158183831954, 0.046, 0.9400000000000001, 0.14200000000000002, 192.0, 0.0, 0.0, 0.0, 0.0, 0.0, 0.0, 0.0, 0.0, 0.0, 1.666556198308833E9, 0.0, 2022-10-23 13:16:38.308
59.0, -77860.3348565501, -109534.07550264306, 50429.89408134152, 32424.826315024653, 61736.725179758694, 81545.26579919647, 54878.24885585891, 53268.65503414334, 0.046, 0.9400000000000001, 0.14200000000000002, 192.0, 0.0, 0.0, 0.0, 0.0, 0.0, 0.0, 0.0, 0.0, 0.0, 1.6665561983088408E9, 0.0, 2022-10-23 13:16:38.308
60.0, -77881.18903412689, -109557.2095581543, 49259.19911375036, 32545.34692112767, 61830.80367217108, 81189.73895189035, 54212.032760624024, 52766.63485367714, 0.048, 0.9420000000000001, 0.146, 192.0, 1.0, 128.0, 29.0, 112.0, 4.0, 144.0, 0.0, 0.0, 0.0, 1.6665561983088489E9, 0.0, 2022-10-23 13:16:38.308
61.0, -77916.638900833, -109593.44173591635, 49970.47632580714, 32640.16302110708, 61938.67319091239, 81592.45033174162, 54773.53093308579, 53448.51952177519, 0.048, 0.9420000000000001, 0.146, 192.0, 0.0, 0.0, 0.0, 0.0, 0.0, 0.0, 0.0, 0.0, 0.0, 1.6665561983088574E9, 0.0, 2022-10-23 13:16:38.308
62.0, -77927.77006957175, -109606.6739686339, 52045.277004871015, 32643.22521009746, 61970.45737152784, 82375.25312605538, 56061.81842825633, 54624.06481791315, 0.048, 0.9420000000000001, 0.146, 192.0, 0.0, 0.0, 0.0, 0.0, 0.0, 0.0, 0.0, 0.0, 0.0, 1.6665561983088653E9, 0.0, 2022-10-23 13:16:38.308
63.0, -77866.83921418658, -109550.01229643969, 50887.52369731948, 32425.6533295695, 61757.26643291312, 81756.55683953248, 55186.45706015314, 53567.98959588881, 0.048, 0.9420000000000001, 0.146, 192.0, 0.0, 0.0, 0.0, 0.0, 0.0, 0.0, 0.0, 0.0, 0.0, 1.666556198308873E9, 0.0, 2022-10-23 13:16:38.308
64.0, -77881.72547599381, -109562.81984601259, 49339.710097278374, 32512.422801545003, 61799.22065725573, 81212.29186204575, 54248.555511064, 52760.018737318365, 0.048, 0.9420000000000001, 0.146, 192.0, 0.0, 0.0, 0.0, 0.0, 0.0, 0.0, 0.0, 0.0, 0.0, 1.6665561983088808E9, 0.0, 2022-10-23 13:16:38.308
65.0, -77907.18411292841, -109585.48451489027, 49710.302020347364, 32616.581930706732, 61903.06686199509, 81476.26596406293, 54592.638265208996, 53248.35965017792, 0.048, 0.9420000000000001, 0.146, 192.0, 0.0, 0.0, 0.0, 0.0, 0.0, 0.0, 0.0, 0.0, 0.0, 1.6665561983089836E9, 0.0, 2022-10-23 13:16:38.308
66.0, -77931.7486800848, -109612.23955300327, 51786.44380407856, 32682.296059405337, 61982.90729318945, 82286.4719970789, 55908.73133048193, 54511.657895047414, 0.048, 0.9420000000000001, 0.146, 192.0, 0.0, 0.0, 0.0, 0.0, 0.0, 0.0, 0.0, 0.0, 0.0, 1.666556198308996E9, 0.0, 2022-10-23 13:16:38.308
67.0, -77877.14336838048, -109559.17651166637, 51317.12422575048, 32447.37922518006, 61780.24402621318, 81926.47480088173, 55466.435011200316, 53858.7634395079, 0.048, 0.9420000000000001, 0.146, 192.0, 0.0, 0.0, 0.0, 0.0, 0.0, 0.0, 0.0, 0.0, 0.0, 1.6665561983090043E9, 0.0, 2022-10-23 13:16:38.309
68.0, -77877.8809759475, -109557.92481397688, 49449.9712526764, 32492.350935024137, 61776.39952616686, 81223.4677342734, 54296.924686065286, 52773.31802526928, 0.048, 0.9420000000000001, 0.146, 192.0, 0.0, 0.0, 0.0, 0.0, 0.0, 0.0, 0.0, 0.0, 0.0, 1.666556198309012E9, 0.0, 2022-10-23 13:16:38.309
69.0, -77911.140371697, -109587.3173579356, 49510.94681155048, 32585.803578591775, 61876.20006515981, 81368.48585229943, 54444.89323435941, 53084.58841855388, 0.052000000000000005, 0.9500000000000001, 0.14, 192.0, 1.0, 160.0, 29.0, 176.0, 4.0, 96.0, 0.0, 0.0, 0.0, 1.6665561983090198E9, 0.0, 2022-10-23 13:16:38.309
70.0, -77949.40655820449, -109622.58841068608, 51451.50291341578, 32682.161948938603, 61985.611854268536, 82173.5956875796, 55716.93101131094, 54346.2773378226, 0.052000000000000005, 0.9500000000000001, 0.14, 192.0, 0.0, 0.0, 0.0, 0.0, 0.0, 0.0, 0.0, 0.0, 0.0, 1.6665561983090284E9, 0.0, 2022-10-23 13:16:38.309
71.0, -77893.1919208994, -109566.99962222572, 51713.30889622079, 32472.212013269906, 61809.368349238444, 82101.53366345569, 55738.83572087714, 54149.42552440471, 0.052000000000000005, 0.9500000000000001, 0.14, 192.0, 0.0, 0.0, 0.0, 0.0, 0.0, 0.0, 0.0, 0.0, 0.0, 1.6665561983090384E9, 0.0, 2022-10-23 13:16:38.309
72.0, -77870.95193516636, -109542.03272366915, 49629.94749903053, 32477.710542405912, 61765.49187487267, 81269.82525227372, 54392.09841395598, 52839.590947579265, 0.052000000000000005, 0.9500000000000001, 0.14, 192.0, 0.0, 0.0, 0.0, 0.0, 0.0, 0.0, 0.0, 0.0, 0.0, 1.666556198309046E9, 0.0, 2022-10-23 13:16:38.309
73.0, -77909.79926702968, -109579.67306133188, 49431.709877456415, 32584.328363457724, 61879.105791939, 81330.68905242551, 54378.776774260616, 52994.82381282137, 0.052000000000000005, 0.9500000000000001, 0.14, 192.0, 0.0, 0.0, 0.0, 0.0, 0.0, 0.0, 0.0, 0.0, 0.0, 1.666556198309054E9, 0.0, 2022-10-23 13:16:38.309
74.0, -77945.47265118035, -109614.78765187117, 51063.119001760366, 32695.483588633968, 61987.66821475843, 82033.71847077829, 55471.68767114731, 54116.27788737749, 0.052000000000000005, 0.9500000000000001, 0.14, 192.0, 0.0, 0.0, 0.0, 0.0, 0.0, 0.0, 0.0, 0.0, 0.0, 1.666556198309062E9, 0.0, 2022-10-23 13:16:38.309
75.0, -77912.2356071753, -109582.91406427791, 52004.75329217354, 32534.171048900018, 61861.0008789302, 82243.7578134248, 55937.72154304046, 54378.10622192696, 0.052000000000000005, 0.9500000000000001, 0.14, 192.0, 0.0, 0.0, 0.0, 0.0, 0.0, 0.0, 0.0, 0.0, 0.0, 1.66655619830907E9, 0.0, 2022-10-23 13:16:38.309
76.0, -77873.81295845663, -109545.69840975982, 49878.61065609582, 32467.451091700925, 61756.48412185718, 81340.21089556348, 54521.13503469647, 52942.65484126268, 0.052000000000000005, 0.9500000000000001, 0.14, 192.0, 0.0, 0.0, 0.0, 0.0, 0.0, 0.0, 0.0, 0.0, 0.0, 1.6665561983090777E9, 0.0, 2022-10-23 13:16:38.309
77.0, -77907.76525828424, -109579.91893052089, 49343.554597324684, 32568.793901061286, 61865.851207477004, 81261.46569984742, 54284.51946789258, 52885.926113835114, 0.052000000000000005, 0.9500000000000001, 0.14, 192.0, 0.0, 0.0, 0.0, 0.0, 0.0, 0.0, 0.0, 0.0, 0.0, 1.6665561983090856E9, 0.0, 2022-10-23 13:16:38.309
78.0, -77953.11694778406, -109619.81679437362, 50625.09186566972, 32668.03564644285, 61964.712973202826, 81846.09792782045, 55175.817629792415, 53850.269776614885, 0.052000000000000005, 0.9500000000000001, 0.14, 192.0, 0.0, 0.0, 0.0, 0.0, 0.0, 0.0, 0.0, 0.0, 0.0, 1.6665561983090935E9, 0.0, 2022-10-23 13:16:38.309
79.0, -77945.94203781392, -109612.32895998108, 52187.72467228469, 32559.652037579068, 61905.279684696165, 82351.26970425484, 56077.30818716386, 54566.30791024064, 0.054, 0.9520000000000001, 0.14, 192.0, 1.0, 176.0, 29.0, 192.0, 4.0, 96.0, 0.0, 0.0, 0.0, 1.666556198309101E9, 0.0, 2022-10-23 13:16:38.309
80.0, -77887.5369295522, -109552.42628484087, 50249.60491056501, 32427.866152270577, 61731.29370585606, 81470.34275178227, 54743.0208019043, 53139.81957910294, 0.054, 0.9520000000000001, 0.14, 192.0, 0.0, 0.0, 0.0, 0.0, 0.0, 0.0, 0.0, 0.0, 0.0, 1.6665561983091097E9, 0.0, 2022-10-23 13:16:38.309
81.0, -77906.46885710584, -109572.20757868381, 49315.57021326664, 32552.410072375547, 61839.90083216439, 81211.28603354527, 54232.551662034, 52806.577421018774, 0.054, 0.9520000000000001, 0.14, 192.0, 0.0, 0.0, 0.0, 0.0, 0.0, 0.0, 0.0, 0.0, 0.0, 1.6665561983091512E9, 0.0, 2022-10-23 13:16:38.309
82.0, -77944.37741570204, -109614.16180302642, 50257.13744844645, 32660.12312890567, 61958.83446441108, 81696.05066729196, 54932.89887105214, 53610.41320686498, 0.054, 0.9520000000000001, 0.14, 192.0, 0.0, 0.0, 0.0, 0.0, 0.0, 0.0, 0.0, 0.0, 0.0, 1.6665561983091593E9, 0.0, 2022-10-23 13:16:38.309
83.0, -77946.56788665865, -109621.53787869668, 52191.68093105328, 32622.08045984274, 61951.570147463106, 82389.4464837845, 56104.93494331062, 54638.414637853464, 0.054, 0.9520000000000001, 0.14, 192.0, 0.0, 0.0, 0.0, 0.0, 0.0, 0.0, 0.0, 0.0, 0.0, 1.666556198309167E9, 0.0, 2022-10-23 13:16:38.309
84.0, -77882.26191786074, -109555.44377034233, 50671.98582553695, 32433.18586745094, 61750.60561306544, 81647.77089926851, 55019.82480523882, 53397.445785694814, 0.054, 0.9520000000000001, 0.14, 192.0, 0.0, 0.0, 0.0, 0.0, 0.0, 0.0, 0.0, 0.0, 0.0, 1.6665561983091748E9, 0.0, 2022-10-23 13:16:38.309
85.0, -77902.04321170368, -109568.45248561531, 49334.23391988682, 32534.90865646704, 61812.162317295355, 81193.78461763676, 54224.66149624127, 52757.157714028086, 0.054, 0.9520000000000001, 0.14, 192.0, 0.0, 0.0, 0.0, 0.0, 0.0, 0.0, 0.0, 0.0, 0.0, 1.666556198309183E9, 0.0, 2022-10-23 13:16:38.309
86.0, -77941.65050287849, -109613.06656754811, 49899.71070286164, 32627.578988978745, 61916.56731564609, 81525.8868367537, 54684.01219654229, 53350.685936294314, 0.054, 0.9520000000000001, 0.14, 192.0, 0.0, 0.0, 0.0, 0.0, 0.0, 0.0, 0.0, 0.0, 0.0, 1.6665561983091908E9, 0.0, 2022-10-23 13:16:38.309
87.0, -77960.91770659896, -109635.91005038144, 52004.61918170681, 32657.306809104302, 61972.75960120674, 82332.9859772904, 56003.34626476125, 54578.579017946606, 0.054, 0.9520000000000001, 0.14, 192.0, 0.0, 0.0, 0.0, 0.0, 0.0, 0.0, 0.0, 0.0, 0.0, 1.6665561983091989E9, 0.0, 2022-10-23 13:16:38.309
88.0, -77897.19288315688, -109569.50301760471, 51052.01018476608, 32440.919571032475, 61763.52492136061, 81787.55870909199, 55253.959328408164, 53641.795056080235, 0.054, 0.9520000000000001, 0.14, 192.0, 0.0, 0.0, 0.0, 0.0, 0.0, 0.0, 0.0, 0.0, 0.0, 1.6665561983092067E9, 0.0, 2022-10-23 13:16:38.309
89.0, -77909.21812167384, -109577.90727351992, 49389.554487413705, 32526.213827873926, 61810.01654982765, 81196.17625429347, 54237.37963883635, 52746.49593192291, 0.056, 0.9420000000000001, 0.14400000000000002, 192.0, 1.0, 192.0, 29.0, 112.0, 4.0, 128.0, 0.0, 0.0, 0.0, 1.6665561983092148E9, 0.0, 2022-10-23 13:16:38.309
90.0, -77939.84001157762, -109609.80321285763, 49678.897819387654, 32613.095058571707, 61905.43614690735, 81441.21842875701, 54536.53538662617, 53194.00020766261, 0.056, 0.9420000000000001, 0.14400000000000002, 192.0, 0.0, 0.0, 0.0, 0.0, 0.0, 0.0, 0.0, 0.0, 0.0, 1.6665561983092232E9, 0.0, 2022-10-23 13:16:38.309
91.0, -77977.65916319599, -109646.34831504207, 51718.583907912245, 32682.31841114979, 61984.896598445965, 82249.34574953864, 55839.41857092602, 54456.0020513537, 0.056, 0.9420000000000001, 0.14400000000000002, 192.0, 0.0, 0.0, 0.0, 0.0, 0.0, 0.0, 0.0, 0.0, 0.0, 1.666556198309231E9, 0.0, 2022-10-23 13:16:38.309
92.0, -77943.46099417938, -109610.09378553556, 51485.589323710126, 32446.485155401846, 61780.489895402185, 81977.48148172874, 55541.156892914405, 53941.219024803526, 0.056, 0.9420000000000001, 0.14400000000000002, 192.0, 0.0, 0.0, 0.0, 0.0, 0.0, 0.0, 0.0, 0.0, 0.0, 1.6665561983092399E9, 0.0, 2022-10-23 13:16:38.309
93.0, -77925.55724687067, -109585.79743931264, 49535.33256475122, 32502.185702584473, 61781.1827994803, 81234.48714428987, 54309.73223563817, 52784.18097307456, 0.056, 0.9420000000000001, 0.14400000000000002, 192.0, 0.0, 0.0, 0.0, 0.0, 0.0, 0.0, 0.0, 0.0, 0.0, 1.6665561983092475E9, 0.0, 2022-10-23 13:16:38.309
94.0, -77974.37345676107, -109627.23757353278, 49489.01975023982, 32599.88517759862, 61884.98430073074, 81335.56173271677, 54385.057614452555, 53030.38543824977, 0.056, 0.9420000000000001, 0.14400000000000002, 192.0, 0.0, 0.0, 0.0, 0.0, 0.0, 0.0, 0.0, 0.0, 0.0, 1.6665561983092556E9, 0.0, 2022-10-23 13:16:38.309
95.0, -77996.38992504955, -109655.91486166893, 51310.48575764725, 32695.08125723377, 61992.36208109404, 82096.70568665334, 55586.26271322522, 54237.31258360298, 0.056, 0.9420000000000001, 0.14400000000000002, 192.0, 0.0, 0.0, 0.0, 0.0, 0.0, 0.0, 0.0, 0.0, 0.0, 1.6665561983092632E9, 0.0, 2022-10-23 13:16:38.309
96.0, -77958.23549726434, -109615.48055594928, 51842.99371755049, 32503.079772362686, 61846.628707245436, 82156.16132690446, 55798.96191346192, 54232.12697888935, 0.056, 0.9420000000000001, 0.14400000000000002, 192.0, 0.0, 0.0, 0.0, 0.0, 0.0, 0.0, 0.0, 0.0, 0.0, 1.6665561983092792E9, 0.0, 2022-10-23 13:16:38.309
97.0, -77941.06935752266, -109601.04132903116, 49725.45650308806, 32472.346123736635, 61764.79897079456, 81298.94957529898, 54423.100283515494, 52869.65404387165, 0.056, 0.9420000000000001, 0.14400000000000002, 192.0, 0.0, 0.0, 0.0, 0.0, 0.0, 0.0, 0.0, 0.0, 0.0, 1.6665561983092873E9, 0.0, 2022-10-23 13:16:38.309
98.0, -77986.06341911119, -109628.95865785584, 49390.02387404727, 32576.50525289837, 61869.628652289946, 81299.06133402126, 54320.058741576526, 52944.89001570822, 0.056, 0.9420000000000001, 0.14400000000000002, 192.0, 0.0, 0.0, 0.0, 0.0, 0.0, 0.0, 0.0, 0.0, 0.0, 1.6665561983092947E9, 0.0, 2022-10-23 13:16:38.309
99.0, -78037.02539646928, -109669.77294323122, 50912.177671453675, 32691.974364754486, 61980.35919432154, 81973.43581598233, 55354.60923369041, 54030.84952006931, 0.058, 0.9460000000000001, 0.136, 192.0, 1.0, 208.0, 29.0, 144.0, 4.0, 64.0, 0.0, 0.0, 0.0, 1.6665561983093026E9, 0.0, 2022-10-23 13:16:38.309
100.0, -78026.1177451751, -109658.12768437002, 52094.38378743932, 32549.21377291844, 61875.574216315064, 82304.35339264314, 55990.58341867726, 54465.59094972503, 0.058, 0.9460000000000001, 0.136, 192.0, 0.0, 0.0, 0.0, 0.0, 0.0, 0.0, 0.0, 0.0, 0.0, 1.666556198309311E9, 0.0, 2022-10-23 13:16:38.309
101.0, -77999.58622450665, -109631.48440497929, 50008.675457081255, 32448.42975716946, 61738.066284426015, 81401.99111723795, 54592.079471597615, 53015.94621133163, 0.058, 0.9460000000000001, 0.136, 192.0, 0.0, 0.0, 0.0, 0.0, 0.0, 0.0, 0.0, 0.0, 0.0, 1.6665561983093188E9, 0.0, 2022-10-23 13:16:38.309
102.0, -78045.76492855132, -109677.46194332385, 49337.7431437663, 32572.39253191859, 61856.50817829469, 81266.89717375007, 54269.096764218426, 52869.83285782729, 0.058, 0.9460000000000001, 0.136, 192.0, 0.0, 0.0, 0.0, 0.0, 0.0, 0.0, 0.0, 0.0, 0.0, 1.666556198309327E9, 0.0, 2022-10-23 13:16:38.309
103.0, -78092.79299888528, -109731.12848176104, 50492.74718674984, 32674.227079656972, 61957.38160102149, 81812.23503497065, 55090.56807643987, 53770.83167682072, 0.058, 0.9460000000000001, 0.136, 192.0, 0.0, 0.0, 0.0, 0.0, 0.0, 0.0, 0.0, 0.0, 0.0, 1.6665561983093345E9, 0.0, 2022-10-23 13:16:38.309
104.0, -78075.13512076558, -109733.38600795103, 52165.68585225176, 32579.567441888747, 61901.32342592758, 82359.36103574766, 56065.260596902444, 54575.98621558979, 0.058, 0.9460000000000001, 0.136, 192.0, 0.0, 0.0, 0.0, 0.0, 0.0, 0.0, 0.0, 0.0, 0.0, 1.6665561983093421E9, 0.0, 2022-10-23 13:16:38.309
105.0, -77996.38992504955, -109675.65145202297, 50345.493894278276, 32431.330672661148, 61725.1693278753, 81520.5894733178, 54806.58916313519, 53204.14789964532, 0.058, 0.9460000000000001, 0.136, 192.0, 0.0, 0.0, 0.0, 0.0, 0.0, 0.0, 0.0, 0.0, 0.0, 1.66655619830935E9, 0.0, 2022-10-23 13:16:38.309
106.0, -78015.50066655883, -109693.86812375404, 49302.36033229355, 32560.233182934906, 61833.687047205814, 81227.60280699765, 54232.81988296746, 52795.42390053558, 0.058, 0.9460000000000001, 0.136, 192.0, 0.0, 0.0, 0.0, 0.0, 0.0, 0.0, 0.0, 0.0, 0.0, 1.666556198309358E9, 0.0, 2022-10-23 13:16:38.309
107.0, -78067.6249346286, -109748.2052145249, 50107.20194664025, 32660.346646350226, 61942.67415316989, 81659.773786041, 54848.789256666816, 53523.55432791166, 0.058, 0.9460000000000001, 0.136, 192.0, 0.0, 0.0, 0.0, 0.0, 0.0, 0.0, 0.0, 0.0, 0.0, 1.6665561983093655E9, 0.0, 2022-10-23 13:16:38.309
108.0, -78068.76487359582, -109754.30724076119, 52117.22727027265, 32644.611018253687, 61964.60121448055, 82401.13644613462, 56084.52780062292, 54631.57500405014, 0.056, 0.9440000000000001, 0.14200000000000002, 192.0, 1.0, 192.0, 29.0, 128.0, 4.0, 112.0, 0.0, 0.0, 0.0, 1.6665561983093736E9, 0.0, 2022-10-23 13:16:38.309
109.0, -78014.42778282498, -109702.7417663028, 50760.38697485769, 32429.18490519344, 61754.897148000855, 81710.95928084366, 55091.015111328976, 53470.60304529704, 0.056, 0.9440000000000001, 0.14200000000000002, 192.0, 0.0, 0.0, 0.0, 0.0, 0.0, 0.0, 0.0, 0.0, 0.0, 1.666556198309382E9, 0.0, 2022-10-23 13:16:38.309
110.0, -78011.92438744598, -109706.34039716011, 49327.77426573924, 32533.90282796655, 61821.37123601094, 81229.14507736506, 54239.32424060396, 52763.170333286565, 0.056, 0.9440000000000001, 0.14200000000000002, 192.0, 0.0, 0.0, 0.0, 0.0, 0.0, 0.0, 0.0, 0.0, 0.0, 1.6665561983093898E9, 0.0, 2022-10-23 13:16:38.309
111.0, -78018.45109682693, -109727.08281601463, 49804.49227148203, 32636.4526315275, 61931.54298443115, 81540.81780204986, 54655.267853172765, 53315.30312482156, 0.056, 0.9440000000000001, 0.14200000000000002, 192.0, 0.0, 0.0, 0.0, 0.0, 0.0, 0.0, 0.0, 0.0, 0.0, 1.6665561983093977E9, 0.0, 2022-10-23 13:16:38.309
112.0, -78037.40537612503, -109743.5560516782, 51916.32979110835, 32679.23387041496, 61993.09968866107, 82366.60300095117, 55994.33851174576, 54571.582921932095, 0.056, 0.9440000000000001, 0.14200000000000002, 192.0, 0.0, 0.0, 0.0, 0.0, 0.0, 0.0, 0.0, 0.0, 0.0, 1.6665561983094265E9, 0.0, 2022-10-23 13:16:38.309
113.0, -77961.7000176549, -109668.5883007751, 51221.65992518186, 32467.451091700925, 61793.16333450835, 81928.59821660498, 55411.04738844006, 53781.44875543699, 0.056, 0.9440000000000001, 0.14200000000000002, 192.0, 0.0, 0.0, 0.0, 0.0, 0.0, 0.0, 0.0, 0.0, 0.0, 1.6665561983094351E9, 0.0, 2022-10-23 13:16:38.309
114.0, -77961.58825893262, -109670.37644033151, 49445.99264216336, 32529.141906397574, 61815.20215454128, 81280.24116518989, 54313.59908742894, 52778.92831312756, 0.056, 0.9440000000000001, 0.14200000000000002, 192.0, 0.0, 0.0, 0.0, 0.0, 0.0, 0.0, 0.0, 0.0, 0.0, 1.6665561983094432E9, 0.0, 2022-10-23 13:16:38.309
115.0, -77998.1110093726, -109700.77481279074, 49595.9057922251, 32620.06880284176, 61907.91719054189, 81461.29029527787, 54520.17390968489, 53142.41238145976, 0.056, 0.9440000000000001, 0.14200000000000002, 192.0, 0.0, 0.0, 0.0, 0.0, 0.0, 0.0, 0.0, 0.0, 0.0, 1.666556198309451E9, 0.0, 2022-10-23 13:16:38.309
116.0, -78025.00015795234, -109722.00897002328, 51555.706746066426, 32698.32226017979, 61991.132735148996, 82253.48082226286, 55786.44493656694, 54390.71260579975, 0.056, 0.9440000000000001, 0.14200000000000002, 192.0, 0.0, 0.0, 0.0, 0.0, 0.0, 0.0, 0.0, 0.0, 0.0, 1.6665561983094587E9, 0.0, 2022-10-23 13:16:38.309
117.0, -77947.66312213698, -109645.78952143068, 51563.68631883697, 32495.033144358775, 61814.15162255188, 82089.59783191656, 55648.06528664414, 54040.281956229446, 0.056, 0.9440000000000001, 0.14200000000000002, 192.0, 0.0, 0.0, 0.0, 0.0, 0.0, 0.0, 0.0, 0.0, 0.0, 1.6665561983094668E9, 0.0, 2022-10-23 13:16:38.309
118.0, -77959.44249146491, -109638.50285273825, 49526.8389018582, 32507.43836253147, 61780.780468080105, 81294.50157815237, 54345.427971533296, 52790.12653709967, 0.06, 0.9480000000000001, 0.14400000000000002, 192.0, 1.0, 224.0, 29.0, 160.0, 4.0, 128.0, 0.0, 0.0, 0.0, 1.6665561983094745E9, 0.0, 2022-10-23 13:16:38.309
119.0, -77995.02646863776, -109675.00325143377, 49397.332894484156, 32591.100942027682, 61880.96098672879, 81378.43237858205, 54375.89339922588, 52991.89573429772, 0.06, 0.9480000000000001, 0.14400000000000002, 192.0, 0.0, 0.0, 0.0, 0.0, 0.0, 0.0, 0.0, 0.0, 0.0, 1.6665561983094828E9, 0.0, 2022-10-23 13:16:38.309
120.0, -78016.28297761477, -109703.56878084765, 51125.50272053513, 32700.42332415859, 61985.611854268536, 82124.84653292257, 55530.83038697606, 54166.591664146385, 0.06, 0.9480000000000001, 0.14400000000000002, 192.0, 0.0, 0.0, 0.0, 0.0, 0.0, 0.0, 0.0, 0.0, 0.0, 1.6665561983094904E9, 0.0, 2022-10-23 13:16:38.309
121.0, -77971.57948870416, -109656.13837911349, 51892.12285186325, 32531.06415642073, 61852.015477659166, 82288.66246803552, 55898.65069373258, 54314.64961941834, 0.06, 0.9480000000000001, 0.14400000000000002, 192.0, 0.0, 0.0, 0.0, 0.0, 0.0, 0.0, 0.0, 0.0, 0.0, 1.6665561983094983E9, 0.0, 2022-10-23 13:16:38.309
122.0, -77957.22966876384, -109626.83524213258, 49748.72466906603, 32475.00598132682, 61751.79025552157, 81396.62669856867, 54486.713348235295, 52896.498488962476, 0.06, 0.9480000000000001, 0.14400000000000002, 192.0, 0.0, 0.0, 0.0, 0.0, 0.0, 0.0, 0.0, 0.0, 0.0, 1.666556198309506E9, 0.0, 2022-10-23 13:16:38.309
123.0, -77989.84086392414, -109654.23848083479, 49331.1940826409, 32582.897851812584, 61866.67822202185, 81375.52665180287, 54337.8283784185, 52921.95712589707, 0.06, 0.9480000000000001, 0.14400000000000002, 192.0, 0.0, 0.0, 0.0, 0.0, 0.0, 0.0, 0.0, 0.0, 0.0, 1.6665561983095136E9, 0.0, 2022-10-23 13:16:38.309
124.0, -78028.28586438726, -109683.87689398252, 50760.543437068874, 32699.909234036117, 61975.08418263009, 82033.18202891137, 55332.123378768374, 53968.06346989435, 0.06, 0.9480000000000001, 0.14400000000000002, 192.0, 0.0, 0.0, 0.0, 0.0, 0.0, 0.0, 0.0, 0.0, 0.0, 1.6665561983095217E9, 0.0, 2022-10-23 13:16:38.309
125.0, -78020.0604224277, -109670.24232986479, 52116.75788363909, 32569.12917722812, 61877.92114948287, 82434.3064349063, 56085.01953900094, 54525.583031843074, 0.06, 0.9480000000000001, 0.14400000000000002, 192.0, 0.0, 0.0, 0.0, 0.0, 0.0, 0.0, 0.0, 0.0, 0.0, 1.6665561983095293E9, 0.0, 2022-10-23 13:16:38.309
126.0, -77981.12368358657, -109631.75262591275, 50122.87051950342, 32443.5570768782, 61732.07601691199, 81559.45915692559, 54737.67873497948, 53096.36778788183, 0.06, 0.9480000000000001, 0.14400000000000002, 192.0, 0.0, 0.0, 0.0, 0.0, 0.0, 0.0, 0.0, 0.0, 0.0, 1.6665561983095372E9, 0.0, 2022-10-23 13:16:38.309
127.0, -77993.35008780361, -109641.45328300635, 49315.1902336109, 32560.21083119045, 61830.91543089336, 81350.98443639094, 54312.61561067291, 52846.296470915855, 0.06, 0.9480000000000001, 0.14400000000000002, 192.0, 0.0, 0.0, 0.0, 0.0, 0.0, 0.0, 0.0, 0.0, 0.0, 1.666556198309553E9, 0.0, 2022-10-23 13:16:38.309
128.0, -78028.95641672092, -109673.97507118882, 50346.05268788966, 32674.651762801623, 61945.31165901562, 81856.80441341453, 55060.05794525838, 53690.23128631488, 0.064, 0.9460000000000001, 0.14400000000000002, 192.0, 2.0, 0.0, 29.0, 144.0, 4.0, 128.0, 0.0, 0.0, 0.0, 1.6665561983095605E9, 0.0, 2022-10-23 13:16:38.309
129.0, -78028.64349229855, -109674.4891613113, 52173.39720408883, 32611.619843437657, 61923.49635642724, 82499.93115662708, 56157.17097010267, 54624.444797568896, 0.064, 0.9460000000000001, 0.14400000000000002, 192.0, 0.0, 0.0, 0.0, 0.0, 0.0, 0.0, 0.0, 0.0, 0.0, 1.666556198309569E9, 0.0, 2022-10-23 13:16:38.309
130.0, -77977.45799749589, -109622.54370719717, 50477.346834820135, 32432.202390694907, 61728.23151686568, 81690.88741432279, 54958.670432409104, 53290.000950098154, 0.064, 0.9460000000000001, 0.14400000000000002, 192.0, 0.0, 0.0, 0.0, 0.0, 0.0, 0.0, 0.0, 0.0, 0.0, 1.6665561983095765E9, 0.0, 2022-10-23 13:16:38.309
131.0, -77991.11491335809, -109633.51841372471, 49290.80448041016, 32544.38579611609, 61818.26434353166, 81318.8426278642, 54275.22114219918, 52769.182952545045, 0.064, 0.9460000000000001, 0.14400000000000002, 192.0, 0.0, 0.0, 0.0, 0.0, 0.0, 0.0, 0.0, 0.0, 0.0, 1.6665561983095844E9, 0.0, 2022-10-23 13:16:38.309
132.0, -78028.59878880964, -109674.46680956685, 50004.89801226831, 32639.201896095503, 61918.10958601351, 81723.65507169427, 54840.85438738518, 53448.05013514163, 0.064, 0.9460000000000001, 0.14400000000000002, 192.0, 0.0, 0.0, 0.0, 0.0, 0.0, 0.0, 0.0, 0.0, 0.0, 1.6665561983095922E9, 0.0, 2022-10-23 13:16:38.309
133.0, -78048.17891695249, -109681.14998115897, 52066.287644659, 32644.812183953785, 61942.67415316989, 82497.33835427026, 56118.614210917265, 54614.31945733065, 0.064, 0.9460000000000001, 0.14400000000000002, 192.0, 0.0, 0.0, 0.0, 0.0, 0.0, 0.0, 0.0, 0.0, 0.0, 1.6665561983096E9, 0.0, 2022-10-23 13:16:38.309
134.0, -77988.67857321246, -109622.2754862637, 50907.12617720678, 32437.835030297643, 61734.557060546525, 81875.31165782352, 55239.60950846786, 53558.71362193985, 0.064, 0.9460000000000001, 0.14400000000000002, 192.0, 0.0, 0.0, 0.0, 0.0, 0.0, 0.0, 0.0, 0.0, 0.0, 1.6665561983096075E9, 0.0, 2022-10-23 13:16:38.309
135.0, -78004.28009084227, -109631.50675672374, 49333.45160883089, 32531.421784332015, 61796.09141303199, 81323.46943896645, 54279.915008534794, 52741.198568487, 0.064, 0.9460000000000001, 0.14400000000000002, 192.0, 0.0, 0.0, 0.0, 0.0, 0.0, 0.0, 0.0, 0.0, 0.0, 1.6665561983096163E9, 0.0, 2022-10-23 13:16:38.309
136.0, -78055.0185507558, -109666.46488505184, 49703.59649701077, 32612.469209726958, 61891.44395487833, 81599.73700043405, 54626.83643422562, 53234.233347682166, 0.064, 0.9460000000000001, 0.14400000000000002, 192.0, 0.0, 0.0, 0.0, 0.0, 0.0, 0.0, 0.0, 0.0, 0.0, 1.6665561983096244E9, 0.0, 2022-10-23 13:16:38.309
137.0, -78055.15266122254, -109675.07030666713, 51802.604115319744, 32690.85677753172, 61978.682813487394, 82446.06345248979, 55970.73506960095, 54522.990229486255, 0.054, 0.9440000000000001, 0.14400000000000002, 192.0, 1.0, 176.0, 29.0, 128.0, 4.0, 128.0, 0.0, 0.0, 0.0, 1.6665561983096323E9, 0.0, 2022-10-23 13:16:38.309
138.0, -77983.89529989903, -109625.69530316535, 51332.01048755771, 32469.842728357642, 61786.94954954977, 82095.47634070831, 55527.119997396476, 53869.358166379716, 0.054, 0.9440000000000001, 0.14400000000000002, 192.0, 0.0, 0.0, 0.0, 0.0, 0.0, 0.0, 0.0, 0.0, 0.0, 1.666556198309641E9, 0.0, 2022-10-23 13:16:38.309
139.0, -77985.23640456634, -109617.22399201679, 49451.35706083263, 32518.39071731457, 61795.2867502316, 81387.93186997555, 54346.23263433369, 52778.16835381608, 0.054, 0.9440000000000001, 0.14400000000000002, 192.0, 0.0, 0.0, 0.0, 0.0, 0.0, 0.0, 0.0, 0.0, 0.0, 1.6665561983096488E9, 0.0, 2022-10-23 13:16:38.309
140.0, -78035.59488482415, -109665.32494608461, 49538.23829153041, 32617.699517929497, 61897.4118706479, 81560.04030228143, 54521.69382830785, 53111.41051190025, 0.054, 0.9440000000000001, 0.14400000000000002, 192.0, 0.0, 0.0, 0.0, 0.0, 0.0, 0.0, 0.0, 0.0, 0.0, 1.6665561983096576E9, 0.0, 2022-10-23 13:16:38.309
141.0, -78072.51996666432, -109701.53477210221, 51489.27736154525, 32709.408725429625, 61997.39122359648, 82380.438730769, 55809.266067655815, 54378.86618123844, 0.054, 0.9440000000000001, 0.14400000000000002, 192.0, 0.0, 0.0, 0.0, 0.0, 0.0, 0.0, 0.0, 0.0, 0.0, 1.6665561983096652E9, 0.0, 2022-10-23 13:16:38.309
142.0, -78027.07887018667, -109655.46782677983, 51787.89666746815, 32487.366496010603, 61811.20119228378, 82333.92475055752, 55863.781972382305, 54201.281571541025, 0.054, 0.9440000000000001, 0.14400000000000002, 192.0, 0.0, 0.0, 0.0, 0.0, 0.0, 0.0, 0.0, 0.0, 0.0, 1.666556198309673E9, 0.0, 2022-10-23 13:16:38.309
143.0, -77998.24511983932, -109628.5786782001, 49689.403139281654, 32482.225594785883, 61750.98559272118, 81478.79171118638, 54497.97862744077, 52863.73083159099, 0.054, 0.9440000000000001, 0.14400000000000002, 192.0, 0.0, 0.0, 0.0, 0.0, 0.0, 0.0, 0.0, 0.0, 0.0, 1.6665561983096883E9, 0.0, 2022-10-23 13:16:38.309
144.0, -78031.10218418862, -109656.85363493607, 49450.373584076595, 32592.754971117378, 61863.884253964934, 81507.491351067, 54450.436466984334, 52990.15229823021, 0.054, 0.9440000000000001, 0.14400000000000002, 192.0, 0.0, 0.0, 0.0, 0.0, 0.0, 0.0, 0.0, 0.0, 0.0, 1.6665561983096964E9, 0.0, 2022-10-23 13:16:38.309
145.0, -78071.33532420818, -109692.4376121089, 51076.194772266725, 32704.42428641609, 61972.42432503991, 82213.31473747668, 55541.20159640331, 54120.256497890536, 0.054, 0.9440000000000001, 0.14400000000000002, 192.0, 0.0, 0.0, 0.0, 0.0, 0.0, 0.0, 0.0, 0.0, 0.0, 1.6665561983097043E9, 0.0, 2022-10-23 13:16:38.309
146.0, -78031.23629465536, -109659.15586461495, 52043.734734503596, 32538.976673957906, 61845.779340956135, 82448.67860659107, 56031.04007614137, 54404.570687362044, 0.054, 0.9440000000000001, 0.14400000000000002, 192.0, 0.0, 0.0, 0.0, 0.0, 0.0, 0.0, 0.0, 0.0, 0.0, 1.666556198309712E9, 0.0, 2022-10-23 13:16:38.309
147.0, -77983.82824466565, -109619.95090484034, 49892.1781649802, 32465.014751555296, 61731.561926789516, 81522.0423367074, 54588.34673027357, 52942.52073079595, 0.06, 0.9480000000000001, 0.14200000000000002, 192.0, 1.0, 224.0, 29.0, 160.0, 4.0, 112.0, 0.0, 0.0, 0.0, 1.66655619830972E9, 0.0, 2022-10-23 13:16:38.309
148.0, -78026.7659457643, -109656.00426864675, 49321.06874240265, 32568.168052216537, 61839.654962975386, 81420.1183819912, 54326.11606432391, 52861.115677489724, 0.06, 0.9480000000000001, 0.14200000000000002, 192.0, 0.0, 0.0, 0.0, 0.0, 0.0, 0.0, 0.0, 0.0, 0.0, 1.6665561983097284E9, 0.0, 2022-10-23 13:16:38.309
149.0, -78058.25955370184, -109686.82732425063, 50628.578737804746, 32677.825710514277, 61944.8199206376, 82036.110107435, 55248.997241139085, 53856.12593366217, 0.06, 0.9480000000000001, 0.14200000000000002, 192.0, 0.0, 0.0, 0.0, 0.0, 0.0, 0.0, 0.0, 0.0, 0.0, 1.666556198309736E9, 0.0, 2022-10-23 13:16:38.309
150.0, -78040.82519302669, -109681.32879511462, 52184.70718678322, 32580.372104689137, 61884.33610014154, 82548.65795953965, 56149.77254268796, 54580.18834354739, 0.06, 0.9480000000000001, 0.14200000000000002, 192.0, 0.0, 0.0, 0.0, 0.0, 0.0, 0.0, 0.0, 0.0, 0.0, 1.666556198309744E9, 0.0, 2022-10-23 13:16:38.309
151.0, -78011.92438744598, -109642.8837946515, 50260.75843104821, 32440.673701843465, 61719.44728129474, 81680.35974268433, 54828.225651767934, 53165.009995104076, 0.06, 0.9480000000000001, 0.14200000000000002, 192.0, 0.0, 0.0, 0.0, 0.0, 0.0, 0.0, 0.0, 0.0, 0.0, 1.6665561983097515E9, 0.0, 2022-10-23 13:16:38.309
152.0, -78023.70375677393, -109652.27152732272, 49316.86661444505, 32562.28954342479, 61815.53743070811, 81412.20586445402, 54306.625343158885, 52820.10022641424, 0.06, 0.9480000000000001, 0.14200000000000002, 192.0, 0.0, 0.0, 0.0, 0.0, 0.0, 0.0, 0.0, 0.0, 0.0, 1.6665561983097596E9, 0.0, 2022-10-23 13:16:38.309
153.0, -78040.8698965156, -109678.75834450226, 50227.074352154064, 32674.18237616806, 61926.13386227297, 81874.1717188563, 54978.876409396704, 53603.01477945028, 0.06, 0.9480000000000001, 0.14200000000000002, 192.0, 0.0, 0.0, 0.0, 0.0, 0.0, 0.0, 0.0, 0.0, 0.0, 1.6665561983097672E9, 0.0, 2022-10-23 13:16:38.309
154.0, -78058.7736438243, -109691.70000454188, 52160.053212649014, 32626.439050011522, 61914.77917608967, 82574.07189298533, 56152.164179344676, 54634.27956512923, 0.06, 0.9480000000000001, 0.14200000000000002, 192.0, 0.0, 0.0, 0.0, 0.0, 0.0, 0.0, 0.0, 0.0, 0.0, 1.666556198309775E9, 0.0, 2022-10-23 13:16:38.309
155.0, -77983.82824466565, -109630.34446601206, 50625.58360404773, 32431.50948661679, 61717.077996382475, 81823.23209324267, 55050.55845386487, 53381.28547445363, 0.06, 0.9480000000000001, 0.14200000000000002, 192.0, 0.0, 0.0, 0.0, 0.0, 0.0, 0.0, 0.0, 0.0, 0.0, 1.6665561983097827E9, 0.0, 2022-10-23 13:16:38.309
156.0, -77997.6639744835, -109644.89545165247, 49335.06093443167, 32541.52477282581, 61807.267285259644, 81413.79283831034, 54301.238572745155, 52786.01381611989, 0.06, 0.9480000000000001, 0.14200000000000002, 192.0, 0.0, 0.0, 0.0, 0.0, 0.0, 0.0, 0.0, 0.0, 0.0, 1.6665561983097937E9, 0.0, 2022-10-23 13:16:38.309
157.0, -78026.65418704202, -109666.01785016274, 49915.04399955797, 32639.067785628773, 61905.25733295171, 81761.54127854602, 54778.94005524398, 53393.6012856485, 0.058, 0.9480000000000001, 0.148, 192.0, 1.0, 208.0, 29.0, 160.0, 4.0, 160.0, 0.0, 0.0, 0.0, 1.6665561983098013E9, 0.0, 2022-10-23 13:16:38.309
158.0, -78059.24303045786, -109692.97405397583, 51985.4190332197, 32662.023027184372, 61942.42828398089, 82545.93104671611, 56068.25573065945, 54597.6897594559, 0.058, 0.9480000000000001, 0.148, 192.0, 0.0, 0.0, 0.0, 0.0, 0.0, 0.0, 0.0, 0.0, 0.0, 1.6665561983098187E9, 0.0, 2022-10-23 13:16:38.309
159.0, -77981.57071847568, -109622.87898336399, 51056.480533657144, 32449.90497230351, 61740.279107127084, 82018.47458105977, 55339.03006780506, 53677.24492278635, 0.058, 0.9480000000000001, 0.148, 192.0, 0.0, 0.0, 0.0, 0.0, 0.0, 0.0, 0.0, 0.0, 0.0, 1.6665561983098269E9, 0.0, 2022-10-23 13:16:38.309
160.0, -77988.58916623464, -109629.96448635633, 49403.54667944273, 32528.76192674183, 61778.120610489925, 81430.51194316291, 54329.80410215904, 52783.868048652184, 0.058, 0.9480000000000001, 0.148, 192.0, 0.0, 0.0, 0.0, 0.0, 0.0, 0.0, 0.0, 0.0, 0.0, 1.6665561983098347E9, 0.0, 2022-10-23 13:16:38.309
161.0, -78023.65905328501, -109659.55819601515, 49661.12818254569, 32619.867637141662, 61869.069858678566, 81653.78351852698, 54603.34475080309, 53209.08763516994, 0.058, 0.9480000000000001, 0.148, 192.0, 0.0, 0.0, 0.0, 0.0, 0.0, 0.0, 0.0, 0.0, 0.0, 1.6665561983098423E9, 0.0, 2022-10-23 13:16:38.309
162.0, -78056.6725798455, -109685.08388818312, 51692.11944247716, 32696.55647236782, 61952.061885841125, 82465.10713876571, 55904.462147290964, 54477.705595219806, 0.058, 0.9480000000000001, 0.148, 192.0, 0.0, 0.0, 0.0, 0.0, 0.0, 0.0, 0.0, 0.0, 0.0, 1.6665561983098502E9, 0.0, 2022-10-23 13:16:38.309
163.0, -77976.34041027313, -109615.18998327137, 51474.86048637158, 32495.390772270057, 61783.75325009266, 82220.3108334912, 55628.10517884555, 53991.8457259948, 0.058, 0.9480000000000001, 0.148, 192.0, 0.0, 0.0, 0.0, 0.0, 0.0, 0.0, 0.0, 0.0, 0.0, 1.666556198309858E9, 0.0, 2022-10-23 13:16:38.309
164.0, -77973.34527651612, -109617.31339899462, 49519.440474443494, 32507.036031131272, 61758.94281374727, 81466.69941743606, 54387.67276855383, 52819.83200548077, 0.058, 0.9480000000000001, 0.148, 192.0, 0.0, 0.0, 0.0, 0.0, 0.0, 0.0, 0.0, 0.0, 0.0, 1.6665561983098657E9, 0.0, 2022-10-23 13:16:38.309
165.0, -78018.27228287129, -109651.62332673352, 49477.24038091188, 32592.73261937292, 61845.73463746723, 81568.01987505196, 54469.32369104907, 53066.282339844984, 0.058, 0.9480000000000001, 0.148, 192.0, 0.0, 0.0, 0.0, 0.0, 0.0, 0.0, 0.0, 0.0, 0.0, 1.6665561983098736E9, 0.0, 2022-10-23 13:16:38.309
166.0, -78057.65605660154, -109694.04693770969, 51311.17866172537, 32697.74111482395, 61953.872377142005, 82341.77021286133, 55683.80572602818, 54283.066604502994, 0.054, 0.9500000000000001, 0.146, 192.0, 1.0, 176.0, 29.0, 176.0, 4.0, 144.0, 0.0, 0.0, 0.0, 1.6665561983098814E9, 0.0, 2022-10-23 13:16:38.309
167.0, -78006.71643098789, -109644.15784408545, 51828.733304588, 32513.38392655658, 61809.52481144963, 82395.77202746535, 55882.4903824914, 54263.03944147104, 0.054, 0.9500000000000001, 0.146, 192.0, 0.0, 0.0, 0.0, 0.0, 0.0, 0.0, 0.0, 0.0, 0.0, 1.6665561983098898E9, 0.0, 2022-10-23 13:16:38.309
168.0, -77973.72525617186, -109612.88775359247, 49690.096043359765, 32498.028278115784, 61748.16927291981, 81519.78481051742, 54483.919380178384, 52884.09327078978, 0.054, 0.9500000000000001, 0.146, 192.0, 0.0, 0.0, 0.0, 0.0, 0.0, 0.0, 0.0, 0.0, 0.0, 1.666556198309898E9, 0.0, 2022-10-23 13:16:38.309
169.0, -78007.99048042184, -109646.46007376433, 49358.77613529875, 32598.5440729313, 61852.59662301501, 81521.0365082069, 54385.77287027513, 52962.413783361175, 0.054, 0.9500000000000001, 0.146, 192.0, 0.0, 0.0, 0.0, 0.0, 0.0, 0.0, 0.0, 0.0, 0.0, 1.6665561983099053E9, 0.0, 2022-10-23 13:16:38.309
170.0, -78046.9719227519, -109689.53188532972, 50872.14569713423, 32703.351402682234, 61951.19016780736, 82194.13694073402, 55417.551746076555, 54042.11479927478, 0.054, 0.9500000000000001, 0.146, 192.0, 0.0, 0.0, 0.0, 0.0, 0.0, 0.0, 0.0, 0.0, 0.0, 1.6665561983099134E9, 0.0, 2022-10-23 13:16:38.309
0.0, 0.0, 0.0, 0.0, 0.0, 0.0, 0.0, 0.0, 0.0, 0.062, 0.9500000000000001, 0.14400000000000002, 192.0, 1.0, 240.0, 29.0, 176.0, 4.0, 128.0, 0.0, 0.0, 0.0, 1.6665561983875961E9, 0.0, 2022-10-23 13:16:38.387
1.0, -77604.5191412591, -109605.31051222212, 49668.45955472703, 32805.65533705417, 61902.30690268361, 81915.23187342071, 54685.398004698516, 53355.20098867429, 0.062, 0.9500000000000001, 0.14400000000000002, 192.0, 0.0, 0.0, 0.0, 0.0, 0.0, 0.0, 0.0, 0.0, 0.0, 1.6665561988732889E9, 0.0, 2022-10-23 13:16:38.873
2.0, -77664.24300244368, -109664.45322805086, 51704.36819843867, 32835.4502124131, 61951.92777537439, 82715.17845573169, 55984.45904069651, 54613.9394776749, 0.062, 0.9500000000000001, 0.14400000000000002, 192.0, 0.0, 0.0, 0.0, 0.0, 0.0, 0.0, 0.0, 0.0, 0.0, 1.6665561988733256E9, 0.0, 2022-10-23 13:16:38.873
3.0, -77612.54341751855, -109617.06752980562, 51406.41944484943, 32602.813256122263, 61747.94575547526, 82419.01784169888, 55646.94769942138, 54062.07490707337, 0.062, 0.9500000000000001, 0.14400000000000002, 192.0, 0.0, 0.0, 0.0, 0.0, 0.0, 0.0, 0.0, 0.0, 0.0, 1.6665561988733993E9, 0.0, 2022-10-23 13:16:38.873
4.0, -77597.36658303339, -109597.80032608514, 49497.69222708848, 32647.85202119971, 61753.868967755916, 81693.16729225723, 54443.95446109229, 52930.20491960108, 0.062, 0.9500000000000001, 0.14400000000000002, 192.0, 0.0, 0.0, 0.0, 0.0, 0.0, 0.0, 0.0, 0.0, 0.0, 1.6665561988734076E9, 0.0, 2022-10-23 13:16:38.873
5.0, -77618.8689611994, -109620.53205019618, 49525.49779719088, 32760.86244116574, 61871.640309290924, 81838.87831436138, 54580.747137158774, 53225.51616734459, 0.062, 0.9500000000000001, 0.14400000000000002, 192.0, 0.0, 0.0, 0.0, 0.0, 0.0, 0.0, 0.0, 0.0, 0.0, 1.6665561988734164E9, 0.0, 2022-10-23 13:16:38.873
6.0, -77654.1847174388, -109659.60289950405, 51375.01524388972, 32859.32187549137, 61970.65853722794, 82603.88912008872, 55794.938599459965, 54442.05456281359, 0.062, 0.9500000000000001, 0.14400000000000002, 192.0, 0.0, 0.0, 0.0, 0.0, 0.0, 0.0, 0.0, 0.0, 0.0, 1.666556198873429E9, 0.0, 2022-10-23 13:16:38.873
7.0, -77617.48315304317, -109623.14720429745, 51822.56422311834, 32651.07067240127, 61806.28380850361, 82617.25546327299, 55940.35904888619, 54368.02558517762, 0.068, 0.9460000000000001, 0.148, 192.0, 2.0, 32.0, 29.0, 144.0, 4.0, 160.0, 0.0, 0.0, 0.0, 1.6665561988734372E9, 0.0, 2022-10-23 13:16:38.873
8.0, -77574.23252752215, -109581.03651774366, 49703.75295922196, 32637.74903270591, 61744.70475252924, 81752.98056041963, 54554.99792754626, 53004.993856548535, 0.068, 0.9460000000000001, 0.148, 192.0, 0.0, 0.0, 0.0, 0.0, 0.0, 0.0, 0.0, 0.0, 0.0, 1.6665561988734462E9, 0.0, 2022-10-23 13:16:38.873
9.0, -77593.09739984243, -109598.58263714107, 49383.69833036642, 32749.507754982445, 61860.10680915199, 81749.94072317371, 54455.756182164696, 53089.148174422764, 0.068, 0.9460000000000001, 0.148, 192.0, 0.0, 0.0, 0.0, 0.0, 0.0, 0.0, 0.0, 0.0, 0.0, 1.6665561988734543E9, 0.0, 2022-10-23 13:16:38.873
10.0, -77648.9767609807, -109645.90128015296, 50953.640157418275, 32862.719340648575, 61977.74404022027, 82448.29862693533, 55528.438750319336, 54206.668341954755, 0.068, 0.9460000000000001, 0.148, 192.0, 0.0, 0.0, 0.0, 0.0, 0.0, 0.0, 0.0, 0.0, 0.0, 1.666556198873462E9, 0.0, 2022-10-23 13:16:38.873
11.0, -77617.1702286208, -109612.06073904762, 52061.772592279034, 32725.09965003725, 61868.53341681164, 82744.99568283507, 56115.12733878224, 54590.69366344139, 0.068, 0.9460000000000001, 0.148, 192.0, 0.0, 0.0, 0.0, 0.0, 0.0, 0.0, 0.0, 0.0, 0.0, 1.6665561988734703E9, 0.0, 2022-10-23 13:16:38.873
12.0, -77577.78645489055, -109571.7605437947, 49978.25473287758, 32630.060032613284, 61745.55411881854, 81847.52843946558, 54717.65157194753, 53147.57563442894, 0.068, 0.9460000000000001, 0.148, 192.0, 0.0, 0.0, 0.0, 0.0, 0.0, 0.0, 0.0, 0.0, 0.0, 1.6665561988734784E9, 0.0, 2022-10-23 13:16:38.873
13.0, -77618.69014724376, -109612.68658789237, 49335.55267280968, 32723.199751758548, 61839.40909378637, 81707.7406296421, 54400.70383557127, 53008.30191472792, 0.068, 0.9460000000000001, 0.148, 192.0, 0.0, 0.0, 0.0, 0.0, 0.0, 0.0, 0.0, 0.0, 0.0, 1.6665561988734863E9, 0.0, 2022-10-23 13:16:38.873
14.0, -77657.80570004055, -109660.31815532663, 50545.47495191991, 32824.74372681901, 61942.29417351415, 82278.82770047519, 55258.7426017216, 53945.01882136093, 0.068, 0.9460000000000001, 0.148, 192.0, 0.0, 0.0, 0.0, 0.0, 0.0, 0.0, 0.0, 0.0, 0.0, 1.6665561988734941E9, 0.0, 2022-10-23 13:16:38.873
15.0, -77630.53657180507, -109637.13939632647, 52195.41367237731, 32749.77597591591, 61902.79864106163, 82828.77002105355, 56226.1708052362, 54739.73509546937, 0.068, 0.9460000000000001, 0.148, 192.0, 0.0, 0.0, 0.0, 0.0, 0.0, 0.0, 0.0, 0.0, 0.0, 1.666556198873502E9, 0.0, 2022-10-23 13:16:38.873
16.0, -77576.3112397565, -109582.84700904453, 50330.8311499156, 32610.65871842608, 61744.83886299597, 81973.18994679331, 54934.217623975, 53345.589738558505, 0.068, 0.9460000000000001, 0.148, 192.0, 0.0, 0.0, 0.0, 0.0, 0.0, 0.0, 0.0, 0.0, 0.0, 1.66655619887351E9, 0.0, 2022-10-23 13:16:38.873
17.0, -77602.17220809129, -109602.2706749762, 49336.73731526582, 32729.748812883954, 61849.13210262443, 81693.52492016852, 54388.499783098676, 52968.001719475, 0.064, 0.9460000000000001, 0.152, 192.0, 2.0, 0.0, 29.0, 144.0, 4.0, 192.0, 0.0, 0.0, 0.0, 1.666556198873518E9, 0.0, 2022-10-23 13:16:38.873
18.0, -77646.58512432399, -109644.04608536317, 50176.112374795965, 32820.54159886141, 61931.23006000878, 82121.11379159855, 55017.388465093194, 53706.57041151171, 0.064, 0.9460000000000001, 0.152, 192.0, 0.0, 0.0, 0.0, 0.0, 0.0, 0.0, 0.0, 0.0, 0.0, 1.6665561988735514E9, 0.0, 2022-10-23 13:16:38.873
19.0, -77669.24979320167, -109668.92357694192, 52143.51292175209, 32785.605822277765, 61918.556620902615, 82824.56789309597, 56211.06102598441, 54775.0284999643, 0.064, 0.9460000000000001, 0.152, 192.0, 0.0, 0.0, 0.0, 0.0, 0.0, 0.0, 0.0, 0.0, 0.0, 1.6665561988735597E9, 0.0, 2022-10-23 13:16:38.873
20.0, -77593.90206264282, -109599.3202447081, 50735.241262345466, 32593.134950773117, 61730.62315352239, 82113.93888162839, 55182.74667057356, 53593.202363634395, 0.064, 0.9460000000000001, 0.152, 192.0, 0.0, 0.0, 0.0, 0.0, 0.0, 0.0, 0.0, 0.0, 0.0, 1.666556198873568E9, 0.0, 2022-10-23 13:16:38.873
21.0, -77595.51138824361, -109598.22500922979, 49362.218303944865, 32706.972385283996, 61818.19728829829, 81662.7242163091, 54372.25006487967, 52931.05428589038, 0.064, 0.9460000000000001, 0.152, 192.0, 0.0, 0.0, 0.0, 0.0, 0.0, 0.0, 0.0, 0.0, 0.0, 1.666556198873576E9, 0.0, 2022-10-23 13:16:38.873
22.0, -77618.84660945495, -109618.16276528392, 49890.524135890504, 32816.67474707064, 61933.040551309656, 82002.87306342997, 54821.76599762035, 53518.815758087134, 0.064, 0.9460000000000001, 0.152, 192.0, 0.0, 0.0, 0.0, 0.0, 0.0, 0.0, 0.0, 0.0, 0.0, 1.6665561988735843E9, 0.0, 2022-10-23 13:16:38.873
23.0, -77642.76297602213, -109653.8808529235, 51982.44625120715, 32838.199476981106, 61973.63131924049, 82806.97707020964, 56138.50726348249, 54755.13544739908, 0.064, 0.9460000000000001, 0.152, 192.0, 0.0, 0.0, 0.0, 0.0, 0.0, 0.0, 0.0, 0.0, 0.0, 1.6665561988735924E9, 0.0, 2022-10-23 13:16:38.873
24.0, -77591.42101900828, -109598.29206446315, 51173.55897111404, 32599.25932875387, 61748.45984559773, 82301.64883156406, 55471.68767114731, 53891.48639339047, 0.064, 0.9460000000000001, 0.152, 192.0, 0.0, 0.0, 0.0, 0.0, 0.0, 0.0, 0.0, 0.0, 0.0, 1.6665561988736005E9, 0.0, 2022-10-23 13:16:38.873
25.0, -77602.73100170268, -109604.55055291064, 49426.39016227605, 32670.51669007739, 61768.28584292959, 81650.56486732542, 54384.364710374444, 52914.69280894909, 0.064, 0.9460000000000001, 0.152, 192.0, 0.0, 0.0, 0.0, 0.0, 0.0, 0.0, 0.0, 0.0, 0.0, 1.6665561988736084E9, 0.0, 2022-10-23 13:16:38.873
26.0, -77633.86698172892, -109633.29489628016, 49632.89792929863, 32771.65833373765, 61874.34487037002, 81858.68195994878, 54631.150320905486, 53316.37600855542, 0.064, 0.9460000000000001, 0.152, 192.0, 0.0, 0.0, 0.0, 0.0, 0.0, 0.0, 0.0, 0.0, 0.0, 1.6665561988736176E9, 0.0, 2022-10-23 13:16:38.873
27.0, -77652.329522649, -109651.44451277787, 51661.45284908448, 32872.50940472, 61982.37085132252, 82693.9219467547, 55952.96543275898, 54605.37875954852, 0.064, 0.9520000000000001, 0.14400000000000002, 192.0, 2.0, 0.0, 29.0, 192.0, 4.0, 128.0, 0.0, 0.0, 0.0, 1.6665561988736267E9, 0.0, 2022-10-23 13:16:38.873
28.0, -77592.35979227541, -109601.28719822016, 51592.00597906184, 32659.340817849738, 61801.58994216799, 82495.1255315692, 55765.25548282331, 54200.990998863104, 0.064, 0.9520000000000001, 0.14400000000000002, 192.0, 0.0, 0.0, 0.0, 0.0, 0.0, 0.0, 0.0, 0.0, 0.0, 1.6665561988736365E9, 0.0, 2022-10-23 13:16:38.873
29.0, -77577.562937446, -109585.12688697898, 49589.513193310886, 32684.687696062054, 61789.22942748421, 81715.22846403462, 54488.16621162489, 52980.87632428126, 0.064, 0.9520000000000001, 0.14400000000000002, 192.0, 0.0, 0.0, 0.0, 0.0, 0.0, 0.0, 0.0, 0.0, 0.0, 1.6665561988736444E9, 0.0, 2022-10-23 13:16:38.873
30.0, -77619.60656876642, -109625.11415780953, 49474.64757855506, 32766.651542979664, 61875.06012619259, 81787.33519164743, 54517.87168000599, 53180.186829589235, 0.064, 0.9520000000000001, 0.14400000000000002, 192.0, 0.0, 0.0, 0.0, 0.0, 0.0, 0.0, 0.0, 0.0, 0.0, 1.6665561988736522E9, 0.0, 2022-10-23 13:16:38.873
31.0, -77658.8785837744, -109663.76032397275, 51244.92809115983, 32862.004084826, 61975.486514030286, 82538.5326193014, 55692.3440924101, 54371.490105568184, 0.064, 0.9520000000000001, 0.14400000000000002, 192.0, 0.0, 0.0, 0.0, 0.0, 0.0, 0.0, 0.0, 0.0, 0.0, 1.66655619887366E9, 0.0, 2022-10-23 13:16:38.873
32.0, -77614.33155707497, -109616.77695712769, 51921.09071267733, 32690.342687409247, 61849.46737879126, 82657.510955037, 55995.67961641307, 54460.38299326694, 0.064, 0.9520000000000001, 0.14400000000000002, 192.0, 0.0, 0.0, 0.0, 0.0, 0.0, 0.0, 0.0, 0.0, 0.0, 1.666556198873668E9, 0.0, 2022-10-23 13:16:38.873
33.0, -77592.49390274214, -109588.52435213618, 49803.57584995936, 32647.98613166644, 61766.81062779554, 81781.97077297817, 54604.75291070377, 53067.80225846795, 0.064, 0.9520000000000001, 0.14400000000000002, 192.0, 0.0, 0.0, 0.0, 0.0, 0.0, 0.0, 0.0, 0.0, 0.0, 1.6665561988736756E9, 0.0, 2022-10-23 13:16:38.873
34.0, -77620.29947284455, -109617.35810248353, 49399.67982765196, 32749.664217193633, 61871.99793720221, 81746.83383069442, 54451.50935071819, 53090.623389556815, 0.064, 0.9520000000000001, 0.14400000000000002, 192.0, 0.0, 0.0, 0.0, 0.0, 0.0, 0.0, 0.0, 0.0, 0.0, 1.6665561988737123E9, 0.0, 2022-10-23 13:16:38.873
35.0, -77666.25465944466, -109661.94983267187, 50850.12922884575, 32848.79420385292, 61972.89371167347, 82394.34151582021, 55447.65954585786, 54139.32253591091, 0.064, 0.9520000000000001, 0.14400000000000002, 192.0, 0.0, 0.0, 0.0, 0.0, 0.0, 0.0, 0.0, 0.0, 0.0, 1.6665561988737204E9, 0.0, 2022-10-23 13:16:38.873
36.0, -77645.86986850141, -109638.05581784915, 52154.17470385727, 32717.23183598898, 61877.96585297178, 82777.58452625091, 56170.78318247595, 54660.0511264862, 0.064, 0.9520000000000001, 0.14400000000000002, 192.0, 0.0, 0.0, 0.0, 0.0, 0.0, 0.0, 0.0, 0.0, 0.0, 1.6665561988737285E9, 0.0, 2022-10-23 13:16:38.873
37.0, -77589.23054805167, -109585.03748000116, 50136.66154583234, 32622.438087754024, 61750.89618574336, 81898.95980345724, 54810.21014573696, 53228.9136325018, 0.06, 0.9460000000000001, 0.14200000000000002, 192.0, 1.0, 224.0, 29.0, 144.0, 4.0, 112.0, 0.0, 0.0, 0.0, 1.6665561988737361E9, 0.0, 2022-10-23 13:16:38.873
38.0, -77611.98462390716, -109610.36200646902, 49371.29311219372, 32741.259961278436, 61846.71811422326, 81707.80768487546, 54412.23733571021, 53007.072568782874, 0.06, 0.9460000000000001, 0.14200000000000002, 192.0, 0.0, 0.0, 0.0, 0.0, 0.0, 0.0, 0.0, 0.0, 0.0, 1.6665561988737447E9, 0.0, 2022-10-23 13:16:38.873
39.0, -77661.71725532023, -109657.4794837808, 50444.17684604846, 32839.2500089705, 61951.346630018554, 82220.53435093575, 55181.56202811743, 53867.90530299012, 0.06, 0.9460000000000001, 0.14200000000000002, 192.0, 0.0, 0.0, 0.0, 0.0, 0.0, 0.0, 0.0, 0.0, 0.0, 1.6665561988737528E9, 0.0, 2022-10-23 13:16:38.873
40.0, -77647.36743537991, -109644.04608536317, 52224.180367491295, 32783.080075154314, 61939.1202258015, 82840.3035211925, 56244.029849055994, 54771.47457259591, 0.06, 0.9460000000000001, 0.14200000000000002, 192.0, 0.0, 0.0, 0.0, 0.0, 0.0, 0.0, 0.0, 0.0, 0.0, 1.6665561988737607E9, 0.0, 2022-10-23 13:16:38.873
41.0, -77594.46085625421, -109592.92764579388, 50498.871564730594, 32609.96581434796, 61750.784427021084, 82030.56687481009, 55033.50407284547, 53435.9131379024, 0.06, 0.9460000000000001, 0.14200000000000002, 192.0, 0.0, 0.0, 0.0, 0.0, 0.0, 0.0, 0.0, 0.0, 0.0, 1.6665561988737688E9, 0.0, 2022-10-23 13:16:38.873
42.0, -77604.98852789265, -109602.24832323175, 49365.928693524445, 32723.646786647656, 61829.52962273713, 81676.24702170456, 54386.84575400898, 52951.930815211635, 0.06, 0.9460000000000001, 0.14200000000000002, 192.0, 0.0, 0.0, 0.0, 0.0, 0.0, 0.0, 0.0, 0.0, 0.0, 1.666556198873777E9, 0.0, 2022-10-23 13:16:38.873
43.0, -77624.34513859096, -109628.51162296673, 50088.53824002007, 32827.135363475725, 61940.528385702186, 82066.15085198294, 54948.16511251511, 53638.95638453441, 0.06, 0.9460000000000001, 0.14200000000000002, 192.0, 0.0, 0.0, 0.0, 0.0, 0.0, 0.0, 0.0, 0.0, 0.0, 1.6665561988737848E9, 0.0, 2022-10-23 13:16:38.873
44.0, -77634.62694104039, -109646.19185283087, 52132.18058731325, 32824.408450652176, 61963.237758068775, 82827.83124778644, 56211.306895173424, 54792.23934319489, 0.06, 0.9460000000000001, 0.14200000000000002, 192.0, 0.0, 0.0, 0.0, 0.0, 0.0, 0.0, 0.0, 0.0, 0.0, 1.666556198873793E9, 0.0, 2022-10-23 13:16:38.873
45.0, -77590.45989399671, -109590.49130564825, 50887.97073220858, 32606.098962557193, 61748.90688048684, 82169.43826311092, 55278.3450816089, 53687.39261476906, 0.06, 0.9460000000000001, 0.14200000000000002, 192.0, 0.0, 0.0, 0.0, 0.0, 0.0, 0.0, 0.0, 0.0, 0.0, 1.6665561988738005E9, 0.0, 2022-10-23 13:16:38.873
46.0, -77611.64934774034, -109604.68466337737, 49386.06761527868, 32694.65657408912, 61803.95922708026, 81646.63096030128, 54371.780678246105, 52915.5421752384, 0.06, 0.9440000000000001, 0.14400000000000002, 192.0, 1.0, 224.0, 29.0, 128.0, 4.0, 128.0, 0.0, 0.0, 0.0, 1.6665561988738084E9, 0.0, 2022-10-23 13:16:38.873
47.0, -77637.35385386394, -109630.99266660126, 49801.05010283591, 32794.211243893056, 61908.47598415327, 81930.1851904613, 54743.19961585994, 53432.87330065648, 0.06, 0.9440000000000001, 0.14400000000000002, 192.0, 0.0, 0.0, 0.0, 0.0, 0.0, 0.0, 0.0, 0.0, 0.0, 1.666556198873817E9, 0.0, 2022-10-23 13:16:38.873
48.0, -77658.61036284093, -109656.92069016943, 51897.82254669935, 32854.00216031101, 61980.73917397728, 82753.91402887274, 56074.67068131813, 54701.9606473399, 0.06, 0.9440000000000001, 0.14400000000000002, 192.0, 0.0, 0.0, 0.0, 0.0, 0.0, 0.0, 0.0, 0.0, 0.0, 1.666556198873825E9, 0.0, 2022-10-23 13:16:38.873
49.0, -77592.06921959748, -109595.34163419505, 51338.134865538465, 32630.97645413595, 61781.51807564713, 82360.94800960398, 55573.119887485496, 53996.20431616358, 0.06, 0.9440000000000001, 0.14400000000000002, 192.0, 0.0, 0.0, 0.0, 0.0, 0.0, 0.0, 0.0, 0.0, 0.0, 1.6665561988738427E9, 0.0, 2022-10-23 13:16:38.873
50.0, -77588.42588525127, -109588.07731724708, 49508.55517489376, 32692.71197232151, 61798.37129096643, 81676.6270013603, 54428.978792307236, 52946.678155264635, 0.06, 0.9440000000000001, 0.14400000000000002, 192.0, 0.0, 0.0, 0.0, 0.0, 0.0, 0.0, 0.0, 0.0, 0.0, 1.6665561988738508E9, 0.0, 2022-10-23 13:16:38.873
51.0, -77618.77955422158, -109618.74391063977, 49635.222510721986, 32791.14905490268, 61903.02215850618, 81860.4700995052, 54626.63526852552, 53301.44504325927, 0.06, 0.9440000000000001, 0.14400000000000002, 192.0, 0.0, 0.0, 0.0, 0.0, 0.0, 0.0, 0.0, 0.0, 0.0, 1.6665561988738587E9, 0.0, 2022-10-23 13:16:38.873
52.0, -77647.74741503566, -109648.69524820987, 51573.16345848602, 32881.5618612244, 61991.51271480474, 82653.3088270794, 55885.15024008158, 54550.30406121064, 0.06, 0.9440000000000001, 0.14400000000000002, 192.0, 0.0, 0.0, 0.0, 0.0, 0.0, 0.0, 0.0, 0.0, 0.0, 1.6665561988738668E9, 0.0, 2022-10-23 13:16:38.873
53.0, -77609.74944946164, -109612.08309079208, 51737.38172499916, 32662.961800451496, 61811.13413705041, 82544.65699728216, 55842.72662910541, 54291.56026739601, 0.06, 0.9440000000000001, 0.14400000000000002, 192.0, 0.0, 0.0, 0.0, 0.0, 0.0, 0.0, 0.0, 0.0, 0.0, 1.6665561988738747E9, 0.0, 2022-10-23 13:16:38.873
54.0, -77597.25482431112, -109591.7653550822, 49655.562598176315, 32661.732454506455, 61763.23434868269, 81707.31594649745, 54492.860077960504, 52984.05027199391, 0.06, 0.9440000000000001, 0.14400000000000002, 192.0, 0.0, 0.0, 0.0, 0.0, 0.0, 0.0, 0.0, 0.0, 0.0, 1.6665561988738823E9, 0.0, 2022-10-23 13:16:38.873
55.0, -77647.076862702, -109635.46301549234, 49464.499886572354, 32745.506792724944, 61859.81623647407, 81754.20990636467, 54477.79500219763, 53138.70199188018, 0.06, 0.9440000000000001, 0.14400000000000002, 192.0, 0.0, 0.0, 0.0, 0.0, 0.0, 0.0, 0.0, 0.0, 0.0, 1.6665561988738923E9, 0.0, 2022-10-23 13:16:38.873
56.0, -77678.8833950619, -109668.40948681945, 51160.93023549679, 32856.52790743446, 61976.55939776414, 82491.19162454506, 55619.49975723026, 54306.424177458786, 0.064, 0.9460000000000001, 0.14200000000000002, 192.0, 2.0, 0.0, 29.0, 144.0, 4.0, 112.0, 0.0, 0.0, 0.0, 1.6665561988739E9, 0.0, 2022-10-23 13:16:38.873
57.0, -77637.19739165275, -109631.50675672374, 52047.020440938526, 32686.52053910739, 61848.88623343543, 82687.55169958493, 56054.352945608254, 54529.136959211464, 0.064, 0.9460000000000001, 0.14200000000000002, 192.0, 0.0, 0.0, 0.0, 0.0, 0.0, 0.0, 0.0, 0.0, 0.0, 1.6665561988739083E9, 0.0, 2022-10-23 13:16:38.873
58.0, -77591.62218470838, -109586.44563990184, 49933.75240966707, 32645.12510837616, 61758.45107536925, 81793.99601149512, 54649.2999374032, 53106.761349053544, 0.064, 0.9460000000000001, 0.14200000000000002, 192.0, 0.0, 0.0, 0.0, 0.0, 0.0, 0.0, 0.0, 0.0, 0.0, 1.666556198873916E9, 0.0, 2022-10-23 13:16:38.873
59.0, -77620.25476935563, -109612.41836695891, 49450.530046287786, 32757.554382986356, 61868.645175533915, 81735.61325497786, 54448.69303091682, 53083.33672086438, 0.064, 0.9460000000000001, 0.14200000000000002, 192.0, 0.0, 0.0, 0.0, 0.0, 0.0, 0.0, 0.0, 0.0, 0.0, 1.666556198873924E9, 0.0, 2022-10-23 13:16:38.873
60.0, -77658.96799075222, -109653.67968722341, 50807.41504519166, 32852.795166110416, 61968.55747324914, 82357.32702700222, 55395.892905699366, 54091.42274754319, 0.064, 0.9460000000000001, 0.14200000000000002, 192.0, 0.0, 0.0, 0.0, 0.0, 0.0, 0.0, 0.0, 0.0, 0.0, 1.6665561988739316E9, 0.0, 2022-10-23 13:16:38.873
61.0, -77630.62597878289, -109627.61755318852, 52276.37169079443, 32752.63699920619, 61897.25540843671, 82816.96829998116, 56228.96477329311, 54739.04219139126, 0.064, 0.9460000000000001, 0.14200000000000002, 192.0, 0.0, 0.0, 0.0, 0.0, 0.0, 0.0, 0.0, 0.0, 0.0, 1.6665561988739395E9, 0.0, 2022-10-23 13:16:38.873
62.0, -77577.67469616827, -109571.9617094948, 50302.95852457983, 32640.27477982936, 61755.70181080125, 81934.45437365228, 54878.137097136634, 53306.60829622845, 0.064, 0.9460000000000001, 0.14200000000000002, 192.0, 0.0, 0.0, 0.0, 0.0, 0.0, 0.0, 0.0, 0.0, 0.0, 1.6665561988739479E9, 0.0, 2022-10-23 13:16:38.873
63.0, -77616.1196966314, -109607.63509364547, 49439.77885720478, 32743.58454270179, 61852.68602999283, 81705.99719357457, 54417.512347401665, 53014.06866479739, 0.064, 0.9460000000000001, 0.14200000000000002, 192.0, 0.0, 0.0, 0.0, 0.0, 0.0, 0.0, 0.0, 0.0, 0.0, 1.666556198873956E9, 0.0, 2022-10-23 13:16:38.873
64.0, -77648.30620864705, -109645.56600398612, 50422.674467882454, 32838.378290936744, 61946.42924623838, 82192.66172559997, 55136.590318273345, 53828.096846115215, 0.064, 0.9460000000000001, 0.14200000000000002, 192.0, 0.0, 0.0, 0.0, 0.0, 0.0, 0.0, 0.0, 0.0, 0.0, 1.6665561988739643E9, 0.0, 2022-10-23 13:16:38.873
65.0, -77647.5238975911, -109646.21420457533, 52278.96449315125, 32790.702020013574, 61929.330161730075, 82836.43666940174, 56244.78980836747, 54792.03817749479, 0.064, 0.9460000000000001, 0.14200000000000002, 192.0, 0.0, 0.0, 0.0, 0.0, 0.0, 0.0, 0.0, 0.0, 0.0, 1.6665561988739817E9, 0.0, 2022-10-23 13:16:38.873
66.0, -77605.23439708167, -109600.03550053066, 50671.96347379249, 32594.02902055133, 61725.817528464504, 82051.95749425382, 55097.452413732106, 53499.28033343319, 0.06, 0.9560000000000001, 0.14400000000000002, 192.0, 1.0, 224.0, 29.0, 224.0, 4.0, 128.0, 0.0, 0.0, 0.0, 1.6665561988739908E9, 0.0, 2022-10-23 13:16:38.873
67.0, -77615.0244611531, -109611.77016636971, 49415.147234815035, 32710.19103648556, 61811.82704112853, 81644.79811725595, 54364.89634095387, 52926.203957343576, 0.06, 0.9560000000000001, 0.14400000000000002, 192.0, 0.0, 0.0, 0.0, 0.0, 0.0, 0.0, 0.0, 0.0, 0.0, 1.666556198873999E9, 0.0, 2022-10-23 13:16:38.873
68.0, -77641.2207056547, -109639.86630915002, 50042.00190806412, 32814.283110413926, 61920.54592615914, 82009.355069322, 54871.6550912446, 53563.899226653484, 0.06, 0.9560000000000001, 0.14400000000000002, 192.0, 0.0, 0.0, 0.0, 0.0, 0.0, 0.0, 0.0, 0.0, 0.0, 1.6665561988740072E9, 0.0, 2022-10-23 13:16:38.874
69.0, -77663.46069138774, -109659.40173380397, 52093.10973800537, 32831.628064111246, 61956.59928996555, 82778.14331986228, 56145.90569089719, 54745.18892111647, 0.06, 0.9560000000000001, 0.14400000000000002, 192.0, 0.0, 0.0, 0.0, 0.0, 0.0, 0.0, 0.0, 0.0, 0.0, 1.666556198874015E9, 0.0, 2022-10-23 13:16:38.874
70.0, -77605.14499010384, -109604.32703546609, 51059.49801915861, 32617.36424176267, 61755.65710731234, 82207.48093217384, 55351.703506911224, 53766.00370001837, 0.06, 0.9560000000000001, 0.14400000000000002, 192.0, 0.0, 0.0, 0.0, 0.0, 0.0, 0.0, 0.0, 0.0, 0.0, 1.6665561988740242E9, 0.0, 2022-10-23 13:16:38.874
71.0, -77612.83399019646, -109611.14431752496, 49464.45518308344, 32700.60213811423, 61802.148735779374, 81648.30734113543, 54386.82340226453, 52920.10193110728, 0.06, 0.9560000000000001, 0.14400000000000002, 192.0, 0.0, 0.0, 0.0, 0.0, 0.0, 0.0, 0.0, 0.0, 0.0, 1.666556198874032E9, 0.0, 2022-10-23 13:16:38.874
72.0, -77642.49475508866, -109638.0781695936, 49779.12304152525, 32802.190816663606, 61901.14461197193, 81894.28828886608, 54700.82070837268, 53381.35252968699, 0.06, 0.9560000000000001, 0.14400000000000002, 192.0, 0.0, 0.0, 0.0, 0.0, 0.0, 0.0, 0.0, 0.0, 0.0, 1.66655619887404E9, 0.0, 2022-10-23 13:16:38.874
73.0, -77675.59768862698, -109671.7398967433, 51839.77506634892, 32859.18776502464, 61974.65949948544, 82712.09391499686, 56022.054674870335, 54653.27854791624, 0.06, 0.9560000000000001, 0.14400000000000002, 192.0, 0.0, 0.0, 0.0, 0.0, 0.0, 0.0, 0.0, 0.0, 0.0, 1.666556198874048E9, 0.0, 2022-10-23 13:16:38.874
74.0, -77612.29754832954, -109612.03838730317, 51478.21324803987, 32636.586741994233, 61779.148790734864, 82389.37942855114, 55641.560929007646, 54063.10308731831, 0.06, 0.9560000000000001, 0.14400000000000002, 192.0, 0.0, 0.0, 0.0, 0.0, 0.0, 0.0, 0.0, 0.0, 0.0, 1.666556198874056E9, 0.0, 2022-10-23 13:16:38.874
75.0, -77602.48513251367, -109603.05298603214, 49540.0934863202, 32679.345629137235, 61782.61331112544, 81643.50171607753, 54414.83013806703, 52919.90076540718, 0.058, 0.9560000000000001, 0.14200000000000002, 192.0, 1.0, 208.0, 29.0, 224.0, 4.0, 112.0, 0.0, 0.0, 0.0, 1.6665561988740635E9, 0.0, 2022-10-23 13:16:38.874
76.0, -77626.82618222549, -109624.8235851316, 49545.01087010037, 32781.426046064626, 61895.64608283593, 81770.63843853932, 54528.95814525583, 53208.081806669456, 0.058, 0.9560000000000001, 0.14200000000000002, 192.0, 0.0, 0.0, 0.0, 0.0, 0.0, 0.0, 0.0, 0.0, 0.0, 1.666556198874072E9, 0.0, 2022-10-23 13:16:38.874
77.0, -77668.9815722682, -109662.79919896118, 51414.7342937868, 32878.56672746739, 61997.07829917411, 82549.66378804014, 55760.5616164877, 54446.32374600456, 0.058, 0.9560000000000001, 0.14200000000000002, 192.0, 0.0, 0.0, 0.0, 0.0, 0.0, 0.0, 0.0, 0.0, 0.0, 1.6665561988740804E9, 0.0, 2022-10-23 13:16:38.874
78.0, -77620.63474901137, -109615.05587280463, 51810.85190902375, 32677.60219306972, 61832.54710823859, 82539.24787512397, 55877.215370799946, 54350.01007914664, 0.058, 0.9560000000000001, 0.14200000000000002, 192.0, 0.0, 0.0, 0.0, 0.0, 0.0, 0.0, 0.0, 0.0, 0.0, 1.6665561988740883E9, 0.0, 2022-10-23 13:16:38.874
79.0, -77597.00895512212, -109590.17838122588, 49729.233947901004, 32657.776195737864, 61776.913616289334, 81704.5890336739, 54530.88039527898, 53023.791673635445, 0.058, 0.9560000000000001, 0.14200000000000002, 192.0, 0.0, 0.0, 0.0, 0.0, 0.0, 0.0, 0.0, 0.0, 0.0, 1.6665561988740969E9, 0.0, 2022-10-23 13:16:38.874
80.0, -77619.89714144435, -109612.01603555871, 49451.66998525501, 32764.43872027859, 61881.609187318, 81726.20317056218, 54464.898045646914, 53130.43184643172, 0.058, 0.9560000000000001, 0.14200000000000002, 192.0, 0.0, 0.0, 0.0, 0.0, 0.0, 0.0, 0.0, 0.0, 0.0, 1.6665561988741171E9, 0.0, 2022-10-23 13:16:38.874
81.0, -77647.0321592131, -109643.71080919633, 50990.207611347156, 32881.807730413406, 61982.192037366876, 82389.31237331776, 55501.08021510604, 54214.714969958666, 0.058, 0.9560000000000001, 0.14200000000000002, 192.0, 0.0, 0.0, 0.0, 0.0, 0.0, 0.0, 0.0, 0.0, 0.0, 1.6665561988741248E9, 0.0, 2022-10-23 13:16:38.874
82.0, -77627.69790025926, -109634.21131780284, 52078.625807598335, 32712.962652798018, 61867.28171912214, 82684.84713850584, 56085.53362912341, 54589.15139307397, 0.058, 0.9560000000000001, 0.14200000000000002, 192.0, 0.0, 0.0, 0.0, 0.0, 0.0, 0.0, 0.0, 0.0, 0.0, 1.6665561988741329E9, 0.0, 2022-10-23 13:16:38.874
83.0, -77583.28498402656, -109594.53697139466, 49994.86207900788, 32622.326329031748, 61740.05558968253, 81796.16413070729, 54700.217211272386, 53154.97406184365, 0.058, 0.9560000000000001, 0.14200000000000002, 192.0, 0.0, 0.0, 0.0, 0.0, 0.0, 0.0, 0.0, 0.0, 0.0, 1.6665561988741405E9, 0.0, 2022-10-23 13:16:38.874
84.0, -77603.02157438059, -109611.47959369178, 49374.02002501727, 32742.690472923576, 61851.56844277006, 81673.78832981447, 54409.42101590884, 53039.92963313218, 0.058, 0.9560000000000001, 0.14200000000000002, 192.0, 0.0, 0.0, 0.0, 0.0, 0.0, 0.0, 0.0, 0.0, 0.0, 1.6665561988741486E9, 0.0, 2022-10-23 13:16:38.874
85.0, -77640.01371145413, -109640.1792335724, 50586.825679162226, 32862.78639588194, 61964.31064180263, 82243.66840644699, 55268.1973896262, 53979.08287991081, 0.054, 0.9420000000000001, 0.14400000000000002, 192.0, 1.0, 176.0, 29.0, 112.0, 4.0, 128.0, 0.0, 0.0, 0.0, 1.6665561988741567E9, 0.0, 2022-10-23 13:16:38.874
86.0, -77626.71442350322, -109631.14912881245, 52226.28143147009, 32776.57571751782, 61921.46234768181, 82799.08690441691, 56232.96573555061, 54766.55718881574, 0.054, 0.9420000000000001, 0.14400000000000002, 192.0, 0.0, 0.0, 0.0, 0.0, 0.0, 0.0, 0.0, 0.0, 0.0, 1.6665561988741653E9, 0.0, 2022-10-23 13:16:38.874
87.0, -77577.00414383461, -109582.46702938879, 50351.73003098131, 32626.550808733802, 61744.99532520716, 81943.0374435231, 54938.129179254676, 53363.56054110057, 0.054, 0.9420000000000001, 0.14400000000000002, 192.0, 0.0, 0.0, 0.0, 0.0, 0.0, 0.0, 0.0, 0.0, 0.0, 1.6665561988741732E9, 0.0, 2022-10-23 13:16:38.874
88.0, -77610.95644366223, -109610.42906170238, 49352.227074173345, 32731.6263594182, 61829.17199482585, 81652.21889641511, 54382.66597779584, 52974.997815489514, 0.054, 0.9420000000000001, 0.14400000000000002, 192.0, 0.0, 0.0, 0.0, 0.0, 0.0, 0.0, 0.0, 0.0, 0.0, 1.6665561988741813E9, 0.0, 2022-10-23 13:16:38.874
89.0, -77639.25375214264, -109635.28420153669, 50207.360113544484, 32839.384119437236, 61932.325295487084, 82097.42094247592, 55027.20088090908, 53729.4809495784, 0.054, 0.9420000000000001, 0.14400000000000002, 192.0, 0.0, 0.0, 0.0, 0.0, 0.0, 0.0, 0.0, 0.0, 0.0, 1.666556198874189E9, 0.0, 2022-10-23 13:16:38.874
90.0, -77632.72704276169, -109629.09276832256, 52161.57313127198, 32826.17423846415, 61946.54100496066, 82805.92653822024, 56220.9181452892, 54791.74760481687, 0.054, 0.9420000000000001, 0.14400000000000002, 192.0, 0.0, 0.0, 0.0, 0.0, 0.0, 0.0, 0.0, 0.0, 0.0, 1.6665561988741972E9, 0.0, 2022-10-23 13:16:38.874
91.0, -77567.01291406309, -109569.68183156036, 50722.25489881694, 32642.912285675084, 61765.76009580614, 82094.85049186356, 55182.83607755138, 53599.79612824871, 0.054, 0.9420000000000001, 0.14400000000000002, 192.0, 0.0, 0.0, 0.0, 0.0, 0.0, 0.0, 0.0, 0.0, 0.0, 1.6665561988742049E9, 0.0, 2022-10-23 13:16:38.874
92.0, -77596.56192023301, -109606.6739686339, 49374.89174305103, 32718.461181934024, 61820.63362844392, 81652.33065513738, 54392.05371046707, 52950.947338455604, 0.054, 0.9420000000000001, 0.14400000000000002, 192.0, 0.0, 0.0, 0.0, 0.0, 0.0, 0.0, 0.0, 0.0, 0.0, 1.6665561988742146E9, 0.0, 2022-10-23 13:16:38.874
93.0, -77623.9204554463, -109633.94309686936, 49914.97694432461, 32816.384174392726, 61919.00365579172, 81984.00819110968, 54843.91657637556, 53531.10921753755, 0.054, 0.9420000000000001, 0.14400000000000002, 192.0, 0.0, 0.0, 0.0, 0.0, 0.0, 0.0, 0.0, 0.0, 0.0, 1.6665561988742225E9, 0.0, 2022-10-23 13:16:38.874
94.0, -77649.1779266808, -109656.74187621378, 52002.74163517256, 32846.156698007195, 61966.4787610148, 82778.54565126248, 56150.68896421063, 54754.91192995453, 0.054, 0.9420000000000001, 0.14400000000000002, 192.0, 0.0, 0.0, 0.0, 0.0, 0.0, 0.0, 0.0, 0.0, 0.0, 1.66655619887423E9, 0.0, 2022-10-23 13:16:38.874
95.0, -77584.44727473822, -109594.2687504612, 51173.96130251423, 32617.40894525158, 61754.38305787839, 82280.03469467578, 55478.661415417366, 53885.18320145407, 0.06, 0.9480000000000001, 0.14, 192.0, 1.0, 224.0, 29.0, 160.0, 4.0, 96.0, 0.0, 0.0, 0.0, 1.666556198874238E9, 0.0, 2022-10-23 13:16:38.874
96.0, -77590.4151905078, -109593.91112254991, 49463.29289237176, 32702.971423026494, 61799.10889853346, 81664.2217831876, 54426.028362039135, 52941.80547497338, 0.06, 0.9480000000000001, 0.14, 192.0, 0.0, 0.0, 0.0, 0.0, 0.0, 0.0, 0.0, 0.0, 0.0, 1.6665561988742585E9, 0.0, 2022-10-23 13:16:38.874
97.0, -77630.82714448299, -109630.00918984524, 49683.30111304535, 32789.15974964616, 61896.09311772503, 81876.20572760174, 54678.87129531757, 53343.64513679089, 0.06, 0.9480000000000001, 0.14, 192.0, 0.0, 0.0, 0.0, 0.0, 0.0, 0.0, 0.0, 0.0, 0.0, 1.6665561988742676E9, 0.0, 2022-10-23 13:16:38.874
98.0, -77659.21385994123, -109659.96052741534, 51711.43134968655, 32867.21204128409, 61981.25326409975, 82699.44282763515, 55993.64560766764, 54620.041503911205, 0.06, 0.9480000000000001, 0.14, 192.0, 0.0, 0.0, 0.0, 0.0, 0.0, 0.0, 0.0, 0.0, 0.0, 1.666556198874276E9, 0.0, 2022-10-23 13:16:38.874
99.0, -77592.82917890897, -109598.78380284116, 51588.74262437137, 32655.116338147684, 61788.111840261445, 82474.53957492586, 55770.30697707021, 54178.86277185235, 0.06, 0.9480000000000001, 0.14, 192.0, 0.0, 0.0, 0.0, 0.0, 0.0, 0.0, 0.0, 0.0, 0.0, 1.6665561988742838E9, 0.0, 2022-10-23 13:16:38.874
100.0, -77562.94489657223, -109574.77802929617, 49591.77071950087, 32693.27076593289, 61779.171142479325, 81701.90682433925, 54498.537421052155, 52970.86274276528, 0.06, 0.9480000000000001, 0.14, 192.0, 0.0, 0.0, 0.0, 0.0, 0.0, 0.0, 0.0, 0.0, 0.0, 1.666556198874292E9, 0.0, 2022-10-23 13:16:38.874
101.0, -77603.89329241434, -109616.06170130512, 49523.933175079015, 32776.53101402891, 61875.082477937045, 81805.77538082306, 54568.856009108546, 53208.14886190282, 0.06, 0.9480000000000001, 0.14, 192.0, 0.0, 0.0, 0.0, 0.0, 0.0, 0.0, 0.0, 0.0, 0.0, 1.6665561988743005E9, 0.0, 2022-10-23 13:16:38.874
102.0, -77647.63565631339, -109651.82449243362, 51313.167966981884, 32879.147872823225, 61971.351441306055, 82557.15162243266, 55752.80556116171, 54407.69993158578, 0.06, 0.9480000000000001, 0.14, 192.0, 0.0, 0.0, 0.0, 0.0, 0.0, 0.0, 0.0, 0.0, 0.0, 1.666556198874309E9, 0.0, 2022-10-23 13:16:38.874
103.0, -77603.4686092697, -109610.09378553556, 51925.78457901294, 32691.460274632012, 61821.30418077757, 82634.71217569259, 56007.74955841894, 54444.93793784833, 0.06, 0.9480000000000001, 0.14, 192.0, 0.0, 0.0, 0.0, 0.0, 0.0, 0.0, 0.0, 0.0, 0.0, 1.6665561988743176E9, 0.0, 2022-10-23 13:16:38.874
104.0, -77570.14215828684, -109583.20463695582, 49807.42035000567, 32646.488564787935, 61747.16344441932, 81763.30706635799, 54621.02498066724, 53057.74397346306, 0.058, 0.9460000000000001, 0.146, 192.0, 1.0, 208.0, 29.0, 144.0, 4.0, 144.0, 0.0, 0.0, 0.0, 1.6665561988743255E9, 0.0, 2022-10-23 13:16:38.874
105.0, -77596.98660337766, -109611.61370415852, 49433.16274084601, 32749.641865449175, 61857.42459981735, 81747.01264465007, 54489.88729594795, 53101.665151317735, 0.058, 0.9460000000000001, 0.146, 192.0, 0.0, 0.0, 0.0, 0.0, 0.0, 0.0, 0.0, 0.0, 0.0, 1.6665561988743346E9, 0.0, 2022-10-23 13:16:38.874
106.0, -77635.58806605198, -109648.56113774313, 50904.712188805606, 32865.53566044995, 61968.22219708231, 82404.69037350302, 55498.62152321596, 54162.478943166614, 0.058, 0.9460000000000001, 0.146, 192.0, 0.0, 0.0, 0.0, 0.0, 0.0, 0.0, 0.0, 0.0, 0.0, 1.666556198874343E9, 0.0, 2022-10-23 13:16:38.874
107.0, -77606.39668779334, -109621.13554729648, 52174.38068084487, 32739.583580444287, 61874.72485002576, 82775.08113087191, 56198.70051130063, 54662.889798032025, 0.058, 0.9460000000000001, 0.146, 192.0, 0.0, 0.0, 0.0, 0.0, 0.0, 0.0, 0.0, 0.0, 0.0, 1.6665561988743508E9, 0.0, 2022-10-23 13:16:38.874
108.0, -77564.50951868409, -109582.93641602236, 50130.69363006278, 32629.210666323983, 61734.69117101326, 81880.54196602607, 54819.17319526353, 53217.87187074088, 0.058, 0.9460000000000001, 0.146, 192.0, 0.0, 0.0, 0.0, 0.0, 0.0, 0.0, 0.0, 0.0, 0.0, 1.666556198874359E9, 0.0, 2022-10-23 13:16:38.874
109.0, -77594.90789114332, -109612.95480882583, 49383.608923388594, 32727.066603549316, 61816.58796269751, 81691.11093176734, 54431.05750454158, 53003.228068736564, 0.058, 0.9460000000000001, 0.146, 192.0, 0.0, 0.0, 0.0, 0.0, 0.0, 0.0, 0.0, 0.0, 0.0, 1.666556198874367E9, 0.0, 2022-10-23 13:16:38.874
110.0, -77624.45689731323, -109639.84395740557, 50495.29528561774, 32845.01675903997, 61928.59255416305, 82226.34580449412, 55228.97007810713, 53892.15694572413, 0.058, 0.9460000000000001, 0.146, 192.0, 0.0, 0.0, 0.0, 0.0, 0.0, 0.0, 0.0, 0.0, 0.0, 1.6665561988743756E9, 0.0, 2022-10-23 13:16:38.874
111.0, -77618.57838852149, -109635.5747742146, 52245.39217297938, 32782.09659839828, 61901.25637069421, 82824.45613437369, 56265.17459931071, 54766.89246498257, 0.058, 0.9460000000000001, 0.146, 192.0, 0.0, 0.0, 0.0, 0.0, 0.0, 0.0, 0.0, 0.0, 0.0, 1.6665561988743963E9, 0.0, 2022-10-23 13:16:38.874
112.0, -77558.78747210353, -109573.99571824023, 50477.70446273142, 32633.301035559303, 61740.860252482926, 82000.63788898443, 55029.23488965451, 53416.42241673737, 0.058, 0.9460000000000001, 0.146, 192.0, 0.0, 0.0, 0.0, 0.0, 0.0, 0.0, 0.0, 0.0, 0.0, 1.6665561988744047E9, 0.0, 2022-10-23 13:16:38.874
113.0, -77593.99146962064, -109603.61177964351, 49390.046225791724, 32735.649673420154, 61830.758968682174, 81678.83982406138, 54420.440425925306, 52967.33116714134, 0.058, 0.9460000000000001, 0.146, 192.0, 0.0, 0.0, 0.0, 0.0, 0.0, 0.0, 0.0, 0.0, 0.0, 1.666556198874414E9, 0.0, 2022-10-23 13:16:38.874
114.0, -77625.84270546946, -109637.09469283756, 50148.82089481603, 32829.5493518769, 61919.20482149182, 82086.7815121152, 55005.76555797643, 53663.14097203505, 0.056, 0.9440000000000001, 0.146, 192.0, 1.0, 192.0, 29.0, 128.0, 4.0, 144.0, 0.0, 0.0, 0.0, 1.666556198874422E9, 0.0, 2022-10-23 13:16:38.874
115.0, -77622.93697869027, -109633.38430325799, 52185.6683117948, 32845.19557299562, 61955.63816495397, 82848.05957651848, 56262.5817969539, 54804.13047124511, 0.056, 0.9440000000000001, 0.146, 192.0, 0.0, 0.0, 0.0, 0.0, 0.0, 0.0, 0.0, 0.0, 0.0, 1.6665561988744304E9, 0.0, 2022-10-23 13:16:38.874
116.0, -77570.56684143149, -109583.49520963374, 50911.55182260893, 32632.18344833654, 61752.05847645504, 82182.29051617271, 55313.392616914825, 53684.10690833413, 0.056, 0.9440000000000001, 0.146, 192.0, 0.0, 0.0, 0.0, 0.0, 0.0, 0.0, 0.0, 0.0, 0.0, 1.666556198874438E9, 0.0, 2022-10-23 13:16:38.874
117.0, -77582.94970785972, -109599.63316913047, 49431.12873210058, 32727.20071401605, 61816.11857606394, 81672.89426003626, 54425.2460509832, 52933.244756847, 0.056, 0.9440000000000001, 0.146, 192.0, 0.0, 0.0, 0.0, 0.0, 0.0, 0.0, 0.0, 0.0, 0.0, 1.666556198874446E9, 0.0, 2022-10-23 13:16:38.874
118.0, -77612.27519658509, -109626.90229736594, 49865.847810011845, 32816.160656948174, 61909.83944056505, 81967.13262404593, 54814.54638416128, 53461.12590564798, 0.056, 0.9440000000000001, 0.146, 192.0, 0.0, 0.0, 0.0, 0.0, 0.0, 0.0, 0.0, 0.0, 0.0, 1.6665561988744535E9, 0.0, 2022-10-23 13:16:38.874
119.0, -77631.45299332774, -109649.0305243767, 51961.99440503054, 32869.424863985165, 61977.65463324245, 82787.91103218927, 56145.816283919376, 54723.66419120601, 0.056, 0.9440000000000001, 0.146, 192.0, 0.0, 0.0, 0.0, 0.0, 0.0, 0.0, 0.0, 0.0, 0.0, 1.666556198874462E9, 0.0, 2022-10-23 13:16:38.874
120.0, -77563.83896635043, -109588.68081434738, 51380.871400937016, 32646.086233387738, 61780.355784935455, 82397.96249842197, 55638.0293533837, 54003.848612767295, 0.056, 0.9440000000000001, 0.146, 192.0, 0.0, 0.0, 0.0, 0.0, 0.0, 0.0, 0.0, 0.0, 0.0, 1.6665561988744695E9, 0.0, 2022-10-23 13:16:38.874
121.0, -77556.84287033592, -109582.71289857781, 49548.63185270213, 32710.392202185656, 61788.62593038392, 81707.56181568645, 54488.4120808139, 52951.23791113352, 0.056, 0.9440000000000001, 0.146, 192.0, 0.0, 0.0, 0.0, 0.0, 0.0, 0.0, 0.0, 0.0, 0.0, 1.6665561993526604E9, 0.0, 2022-10-23 13:16:39.352
122.0, -77601.50165575763, -109622.83427987508, 49676.26031354193, 32807.979918477526, 61894.9084752689, 81884.29705909456, 54679.11716450658, 53300.908601392344, 0.056, 0.9440000000000001, 0.146, 192.0, 0.0, 0.0, 0.0, 0.0, 0.0, 0.0, 0.0, 0.0, 0.0, 1.6665561993527477E9, 0.0, 2022-10-23 13:16:39.352
123.0, -77636.81741199702, -109653.92555641242, 51612.83780489419, 32890.50255900652, 61973.98894715178, 82665.267010363, 55928.98201095844, 54535.03781974767, 0.056, 0.9440000000000001, 0.146, 192.0, 0.0, 0.0, 0.0, 0.0, 0.0, 0.0, 0.0, 0.0, 0.0, 1.6665561993527565E9, 0.0, 2022-10-23 13:16:39.352
124.0, -77590.14696957433, -109606.31634072261, 51719.61208815719, 32676.99869596943, 61798.393642710886, 82528.89901744116, 55850.19211175348, 54241.69352551622, 0.054, 0.9480000000000001, 0.148, 192.0, 1.0, 176.0, 29.0, 160.0, 4.0, 160.0, 0.0, 0.0, 0.0, 1.6665561993527648E9, 0.0, 2022-10-23 13:16:39.352
125.0, -77573.94195484424, -109589.91016029242, 49682.85407815625, 32679.32327739278, 61767.05649698454, 81728.97478687463, 54545.94547104186, 52978.752908558, 0.054, 0.9480000000000001, 0.148, 192.0, 0.0, 0.0, 0.0, 0.0, 0.0, 0.0, 0.0, 0.0, 0.0, 1.666556199352774E9, 0.0, 2022-10-23 13:16:39.352
126.0, -77597.18776907776, -109616.77695712769, 49519.61928839914, 32788.31038335686, 61872.53437906914, 81795.13595046234, 54553.813285090124, 53157.34334675591, 0.054, 0.9480000000000001, 0.148, 192.0, 0.0, 0.0, 0.0, 0.0, 0.0, 0.0, 0.0, 0.0, 0.0, 1.6665561993527815E9, 0.0, 2022-10-23 13:16:39.352
127.0, -77633.21878113972, -109651.19864358887, 51219.98354434771, 32898.88446317726, 61978.548703020664, 82527.31204358484, 55693.573438355146, 54323.25504103363, 0.054, 0.9480000000000001, 0.148, 192.0, 0.0, 0.0, 0.0, 0.0, 0.0, 0.0, 0.0, 0.0, 0.0, 1.666556199352831E9, 0.0, 2022-10-23 13:16:39.352
128.0, -77596.07018185499, -109619.14624203996, 52046.618109538336, 32716.024841788396, 61844.05825663308, 82695.263051422, 56087.791155313396, 54508.0145607012, 0.054, 0.9480000000000001, 0.148, 192.0, 0.0, 0.0, 0.0, 0.0, 0.0, 0.0, 0.0, 0.0, 0.0, 1.6665561993528388E9, 0.0, 2022-10-23 13:16:39.352
129.0, -77558.47454768117, -109583.53991312264, 49948.75043019658, 32663.23002138496, 61763.48021787169, 81827.90360783382, 54708.755577654316, 53107.87893627631, 0.054, 0.9480000000000001, 0.148, 192.0, 0.0, 0.0, 0.0, 0.0, 0.0, 0.0, 0.0, 0.0, 0.0, 1.6665561993528469E9, 0.0, 2022-10-23 13:16:39.352
130.0, -77599.40059177883, -109614.18415477088, 49475.72046228892, 32762.15884234415, 61857.178730628344, 81770.45962458369, 54517.31288639461, 53085.527191821006, 0.054, 0.9480000000000001, 0.148, 192.0, 0.0, 0.0, 0.0, 0.0, 0.0, 0.0, 0.0, 0.0, 0.0, 1.6665561993528545E9, 0.0, 2022-10-23 13:16:39.352
131.0, -77642.13712717738, -109652.36093430054, 50785.86796353674, 32862.36171273729, 61929.79954836363, 82346.06174779675, 55413.640190796876, 54049.40146796721, 0.054, 0.9480000000000001, 0.148, 192.0, 0.0, 0.0, 0.0, 0.0, 0.0, 0.0, 0.0, 0.0, 0.0, 1.6665561993528621E9, 0.0, 2022-10-23 13:16:39.352
132.0, -77619.4277548108, -109634.9265736254, 52210.94813477375, 32751.452356750055, 61857.536358539626, 82785.11706413234, 56215.66548534221, 54670.42233591346, 0.054, 0.9480000000000001, 0.148, 192.0, 0.0, 0.0, 0.0, 0.0, 0.0, 0.0, 0.0, 0.0, 0.0, 1.66655619935287E9, 0.0, 2022-10-23 13:16:39.352
133.0, -77567.32583848547, -109585.70803233482, 50252.26476815519, 32633.63631172613, 61721.79421446255, 81927.8382572935, 54887.86010597469, 53262.329490462485, 0.054, 0.9480000000000001, 0.148, 192.0, 0.0, 0.0, 0.0, 0.0, 0.0, 0.0, 0.0, 0.0, 0.0, 1.6665561993528776E9, 0.0, 2022-10-23 13:16:39.352
134.0, -77596.78543767756, -109609.60204715753, 49416.44363599344, 32742.5787142013, 61823.986390112215, 81716.43545823521, 54448.38010649444, 52995.6061238773, 0.056, 0.9400000000000001, 0.14200000000000002, 192.0, 1.0, 192.0, 29.0, 96.0, 4.0, 112.0, 0.0, 0.0, 0.0, 1.6665561993528907E9, 0.0, 2022-10-23 13:16:39.352
135.0, -77627.65319677033, -109638.2346318048, 50408.5481653867, 32848.68244513064, 61927.519670429196, 82203.14469374952, 55171.23552217907, 53817.27860179885, 0.056, 0.9400000000000001, 0.14200000000000002, 192.0, 0.0, 0.0, 0.0, 0.0, 0.0, 0.0, 0.0, 0.0, 0.0, 1.6665561993528993E9, 0.0, 2022-10-23 13:16:39.352
136.0, -77617.72902223219, -109632.55728871314, 52265.73226043371, 32809.522188844945, 61918.31075171361, 82853.35693995439, 56284.508858264555, 54781.82343027872, 0.056, 0.9400000000000001, 0.14200000000000002, 192.0, 0.0, 0.0, 0.0, 0.0, 0.0, 0.0, 0.0, 0.0, 0.0, 1.666556199352907E9, 0.0, 2022-10-23 13:16:39.352
137.0, -77552.32781795596, -109573.95101475132, 50631.417409350564, 32632.60813148119, 61725.92928718678, 82064.42976765988, 55122.66518147769, 53481.60010356905, 0.056, 0.9400000000000001, 0.14200000000000002, 192.0, 0.0, 0.0, 0.0, 0.0, 0.0, 0.0, 0.0, 0.0, 0.0, 1.6665561993529143E9, 0.0, 2022-10-23 13:16:39.352
138.0, -77575.35011474493, -109592.97234928279, 49401.646781164025, 32736.946074598563, 61804.87564860292, 81669.54149836797, 54409.93510603131, 52925.10872186527, 0.056, 0.9400000000000001, 0.14200000000000002, 192.0, 0.0, 0.0, 0.0, 0.0, 0.0, 0.0, 0.0, 0.0, 0.0, 1.666556199352922E9, 0.0, 2022-10-23 13:16:39.352
139.0, -77613.66100474131, -109626.9246491104, 50053.02131808059, 32838.57945663684, 61908.25246670872, 82039.64168305894, 54929.70257159502, 53571.72233721284, 0.056, 0.9400000000000001, 0.14200000000000002, 192.0, 0.0, 0.0, 0.0, 0.0, 0.0, 0.0, 0.0, 0.0, 0.0, 1.6665561993529296E9, 0.0, 2022-10-23 13:16:39.352
140.0, -77640.70661553224, -109653.83614943459, 52115.819110371966, 32845.173221251156, 61945.04343808215, 82812.20737841217, 56208.69174107215, 54754.12961889859, 0.056, 0.9400000000000001, 0.14200000000000002, 192.0, 0.0, 0.0, 0.0, 0.0, 0.0, 0.0, 0.0, 0.0, 0.0, 1.6665561993529372E9, 0.0, 2022-10-23 13:16:39.352
141.0, -77574.34428624444, -109588.54670388064, 51046.80222830799, 32625.254407555392, 61737.6192495369, 82222.23308351435, 55385.38758580537, 53750.9386242555, 0.056, 0.9400000000000001, 0.14200000000000002, 192.0, 0.0, 0.0, 0.0, 0.0, 0.0, 0.0, 0.0, 0.0, 0.0, 1.6665561993529449E9, 0.0, 2022-10-23 13:16:39.352
142.0, -77580.49101596964, -109591.25126495973, 49460.54362780376, 32716.583635399777, 61789.20707573975, 81661.94190525316, 54419.747521847195, 52915.5421752384, 0.056, 0.9400000000000001, 0.14200000000000002, 192.0, 0.0, 0.0, 0.0, 0.0, 0.0, 0.0, 0.0, 0.0, 0.0, 1.6665561993529613E9, 0.0, 2022-10-23 13:16:39.352
143.0, -77611.42583029579, -109622.54370719717, 49782.76637587147, 32806.05766845437, 61884.55961758609, 81903.0278209481, 54734.41538028901, 53376.837477307025, 0.056, 0.9380000000000001, 0.14400000000000002, 192.0, 1.0, 192.0, 29.0, 80.0, 4.0, 128.0, 0.0, 0.0, 0.0, 1.6665561993529687E9, 0.0, 2022-10-23 13:16:39.352
144.0, -77641.66774054382, -109657.97122215883, 51852.604967666266, 32876.7115326776, 61968.624528482505, 82723.96269130263, 56060.656137544654, 54651.28924265972, 0.056, 0.9380000000000001, 0.14400000000000002, 192.0, 0.0, 0.0, 0.0, 0.0, 0.0, 0.0, 0.0, 0.0, 0.0, 1.6665561993529773E9, 0.0, 2022-10-23 13:16:39.352
145.0, -77584.2684607826, -109607.59039015656, 51475.66514917197, 32647.583800266246, 61766.721220817715, 82398.16366412207, 55672.18281891142, 54050.67551740116, 0.056, 0.9380000000000001, 0.14400000000000002, 192.0, 0.0, 0.0, 0.0, 0.0, 0.0, 0.0, 0.0, 0.0, 0.0, 1.6665561993529847E9, 0.0, 2022-10-23 13:16:39.352
146.0, -77569.71747514218, -109588.79257306964, 49574.31400708127, 32698.970460768996, 61774.18670346579, 81678.05751300545, 54476.520952763676, 52935.502283036985, 0.056, 0.9380000000000001, 0.14400000000000002, 192.0, 0.0, 0.0, 0.0, 0.0, 0.0, 0.0, 0.0, 0.0, 0.0, 1.6665561993529968E9, 0.0, 2022-10-23 13:16:39.352
147.0, -77590.70576318572, -109608.90914307942, 49595.07877768025, 32806.080020198824, 61884.71607979728, 81812.6597181153, 54603.65767522546, 53229.85240576892, 0.056, 0.9380000000000001, 0.14400000000000002, 192.0, 0.0, 0.0, 0.0, 0.0, 0.0, 0.0, 0.0, 0.0, 0.0, 1.666556199353005E9, 0.0, 2022-10-23 13:16:39.353
148.0, -77623.40636532383, -109643.82256791861, 51470.01015782478, 32903.42186730169, 61985.99183392428, 82592.4450269276, 55834.72470459041, 54463.73575493524, 0.056, 0.9380000000000001, 0.14400000000000002, 192.0, 0.0, 0.0, 0.0, 0.0, 0.0, 0.0, 0.0, 0.0, 0.0, 1.6665561993530128E9, 0.0, 2022-10-23 13:16:39.353
149.0, -77579.95457410271, -109607.29981747865, 51845.608871651755, 32693.494283377444, 61814.71041616326, 82577.20113720908, 55937.11804594017, 54346.16557910032, 0.056, 0.9380000000000001, 0.14400000000000002, 192.0, 0.0, 0.0, 0.0, 0.0, 0.0, 0.0, 0.0, 0.0, 0.0, 1.6665561993530207E9, 0.0, 2022-10-23 13:16:39.353
150.0, -77556.75346335811, -109580.07539273208, 49751.31747142285, 32685.022972228882, 61761.64737482636, 81733.46748751015, 54578.26609352423, 53013.73338863056, 0.056, 0.9380000000000001, 0.14400000000000002, 192.0, 0.0, 0.0, 0.0, 0.0, 0.0, 0.0, 0.0, 0.0, 0.0, 1.6665561993530283E9, 0.0, 2022-10-23 13:16:39.353
151.0, -77588.24707129563, -109610.36200646902, 49463.49405807186, 32788.91388045715, 61863.86190222048, 81742.25172308109, 54498.604476285516, 53111.119939222335, 0.056, 0.9380000000000001, 0.14400000000000002, 192.0, 0.0, 0.0, 0.0, 0.0, 0.0, 0.0, 0.0, 0.0, 0.0, 1.666556199353036E9, 0.0, 2022-10-23 13:16:39.353
152.0, -77628.52491480409, -109646.2812598087, 51043.33770791742, 32903.55597776842, 61973.78778145168, 82434.12762095066, 55569.18598046136, 54222.56043226248, 0.056, 0.9380000000000001, 0.14400000000000002, 192.0, 0.0, 0.0, 0.0, 0.0, 0.0, 0.0, 0.0, 0.0, 0.0, 1.6665561993530436E9, 0.0, 2022-10-23 13:16:39.353
153.0, -77613.95157741924, -109632.26671603521, 52095.14374675081, 32739.784746144385, 61851.724904981245, 82702.8179410479, 56117.80954811687, 54565.12326778451, 0.06, 0.9420000000000001, 0.14, 192.0, 1.0, 224.0, 29.0, 112.0, 4.0, 96.0, 0.0, 0.0, 0.0, 1.6665561993530529E9, 0.0, 2022-10-23 13:16:39.353
154.0, -77583.24028053765, -109603.94705581035, 49994.57150632996, 32637.480811772446, 61724.856403452926, 81799.47218888668, 54710.83428988866, 53120.50767189356, 0.06, 0.9420000000000001, 0.14, 192.0, 0.0, 0.0, 0.0, 0.0, 0.0, 0.0, 0.0, 0.0, 0.0, 1.6665561993530612E9, 0.0, 2022-10-23 13:16:39.353
155.0, -77613.88452218586, -109636.87117539301, 49380.50203090931, 32739.203600788547, 61819.38193075442, 81673.4754053921, 54413.91371654436, 53003.27277222548, 0.06, 0.9420000000000001, 0.14, 192.0, 0.0, 0.0, 0.0, 0.0, 0.0, 0.0, 0.0, 0.0, 0.0, 1.666556199353069E9, 0.0, 2022-10-23 13:16:39.353
156.0, -77641.06424344353, -109661.2792803382, 50616.598202776695, 32854.404491711204, 61922.98226630477, 82251.916200151, 55282.1001746774, 53949.42211501862, 0.06, 0.9420000000000001, 0.14, 192.0, 0.0, 0.0, 0.0, 0.0, 0.0, 0.0, 0.0, 0.0, 0.0, 1.666556199353078E9, 0.0, 2022-10-23 13:16:39.353
157.0, -77614.53272277507, -109633.33959976908, 52217.96658253272, 32783.28124085441, 61882.59266407403, 82782.36779956434, 56213.98910450806, 54705.40281598602, 0.06, 0.9420000000000001, 0.14, 192.0, 0.0, 0.0, 0.0, 0.0, 0.0, 0.0, 0.0, 0.0, 0.0, 1.6665561993530858E9, 0.0, 2022-10-23 13:16:39.353
158.0, -77561.78260586054, -109572.09581996153, 50327.612498714036, 32643.627541497655, 61727.76213023211, 81927.16770495984, 54913.83283303176, 53307.25649681765, 0.06, 0.9420000000000001, 0.14, 192.0, 0.0, 0.0, 0.0, 0.0, 0.0, 0.0, 0.0, 0.0, 0.0, 1.6665561993531013E9, 0.0, 2022-10-23 13:16:39.353
159.0, -77589.23054805167, -109595.27457896169, 49363.11237372308, 32761.756510943953, 61833.24001231671, 81664.53470760999, 54392.14311744489, 52953.249568134495, 0.06, 0.9420000000000001, 0.14, 192.0, 0.0, 0.0, 0.0, 0.0, 0.0, 0.0, 0.0, 0.0, 0.0, 1.6665561993531091E9, 0.0, 2022-10-23 13:16:39.353
160.0, -77629.66485377132, -109636.80412015965, 50233.26578536818, 32856.25968650099, 61923.742225616246, 82113.46949499482, 55047.00452649648, 53714.77350172681, 0.06, 0.9420000000000001, 0.14, 192.0, 0.0, 0.0, 0.0, 0.0, 0.0, 0.0, 0.0, 0.0, 0.0, 1.666556199353117E9, 0.0, 2022-10-23 13:16:39.353
161.0, -77636.95152246374, -109648.87406216552, 52187.7693757736, 32820.20632269458, 61917.930772057865, 82820.20930292718, 56238.93365132018, 54769.79819176176, 0.06, 0.9420000000000001, 0.14, 192.0, 0.0, 0.0, 0.0, 0.0, 0.0, 0.0, 0.0, 0.0, 0.0, 1.6665561993531246E9, 0.0, 2022-10-23 13:16:39.353
162.0, -77566.52117568508, -109586.53504687967, 50737.43173330209, 32635.64796872711, 61724.007037163625, 82099.94668959937, 55189.76511833252, 53561.75345918578, 0.06, 0.9420000000000001, 0.14, 192.0, 0.0, 0.0, 0.0, 0.0, 0.0, 0.0, 0.0, 0.0, 0.0, 1.6665561993531325E9, 0.0, 2022-10-23 13:16:39.353
163.0, -77583.061466582, -109601.04132903116, 49381.15023149851, 32739.561228699833, 61800.80763111206, 81647.70384403513, 54386.62223656443, 52909.17192806863, 0.056, 0.9400000000000001, 0.146, 192.0, 1.0, 192.0, 29.0, 96.0, 4.0, 144.0, 0.0, 0.0, 0.0, 1.66655619935314E9, 0.0, 2022-10-23 13:16:39.353
164.0, -77614.59977800844, -109632.04319859066, 49925.974002596624, 32832.388023422725, 61904.40796666241, 81984.03054285415, 54843.29072753081, 53500.06264448913, 0.056, 0.9400000000000001, 0.146, 192.0, 0.0, 0.0, 0.0, 0.0, 0.0, 0.0, 0.0, 0.0, 0.0, 1.6665561993531487E9, 0.0, 2022-10-23 13:16:39.353
165.0, -77631.76591775012, -109649.07522786561, 52019.17016734722, 32870.22952678556, 61959.50501674474, 82788.33571533392, 56158.02033639197, 54729.90032790903, 0.056, 0.9400000000000001, 0.146, 192.0, 0.0, 0.0, 0.0, 0.0, 0.0, 0.0, 0.0, 0.0, 0.0, 1.6665561993531563E9, 0.0, 2022-10-23 13:16:39.353
166.0, -77575.73009440066, -109596.79449758465, 51184.064291008035, 32652.79175672433, 61759.83688352548, 82294.85390124965, 55488.18325855533, 53858.22699764097, 0.056, 0.9400000000000001, 0.146, 192.0, 0.0, 0.0, 0.0, 0.0, 0.0, 0.0, 0.0, 0.0, 0.0, 1.666556199353164E9, 0.0, 2022-10-23 13:16:39.353
167.0, -77593.38797252036, -109611.43489020287, 49473.373529121105, 32710.682774863577, 61777.338299433985, 81667.28397217799, 54430.521062674656, 52909.57425946883, 0.056, 0.9400000000000001, 0.146, 192.0, 0.0, 0.0, 0.0, 0.0, 0.0, 0.0, 0.0, 0.0, 0.0, 1.6665561993531718E9, 0.0, 2022-10-23 13:16:39.353
168.0, -77619.85243795544, -109632.06555033513, 49713.76654073793, 32803.19664516409, 61879.99986171721, 81890.62260277542, 54698.049092060224, 53330.65877326236, 0.056, 0.9400000000000001, 0.146, 192.0, 0.0, 0.0, 0.0, 0.0, 0.0, 0.0, 0.0, 0.0, 0.0, 1.6665561993531797E9, 0.0, 2022-10-23 13:16:39.353
169.0, -77640.39369110986, -109651.06453312213, 51747.23884430395, 32885.94280313764, 61968.915101160426, 82711.04338300746, 56011.012913109415, 54605.825794437624, 0.056, 0.9400000000000001, 0.146, 192.0, 0.0, 0.0, 0.0, 0.0, 0.0, 0.0, 0.0, 0.0, 0.0, 1.6665561993531873E9, 0.0, 2022-10-23 13:16:39.353
170.0, -77583.08381832646, -109599.58846564156, 51614.983572361896, 32665.442844086036, 61778.187665723286, 82481.87094710719, 55780.812296964206, 54155.840475063385, 0.056, 0.9400000000000001, 0.146, 192.0, 0.0, 0.0, 0.0, 0.0, 0.0, 0.0, 0.0, 0.0, 0.0, 1.666556199353195E9, 0.0, 2022-10-23 13:16:39.353
171.0, -77565.42594020677, -109582.10940147752, 49636.31774620029, 32697.495245634946, 61763.97195624971, 81714.69202216768, 54523.10198820853, 52957.63051004774, 0.056, 0.9400000000000001, 0.146, 192.0, 0.0, 0.0, 0.0, 0.0, 0.0, 0.0, 0.0, 0.0, 0.0, 1.6665561993532028E9, 0.0, 2022-10-23 13:16:39.353
172.0, -77586.12365557237, -109605.60108490004, 49548.00600385738, 32798.50277882848, 61866.18648364383, 81801.86382554339, 54573.37106148852, 53181.81850693447, 0.06, 0.9400000000000001, 0.146, 192.0, 1.0, 224.0, 29.0, 96.0, 4.0, 144.0, 0.0, 0.0, 0.0, 1.6665561993532107E9, 0.0, 2022-10-23 13:16:39.353
173.0, -77634.64929278484, -109655.93721341339, 51349.64601393295, 32900.49378877805, 61972.13375236199, 82567.47812837102, 55768.921168913985, 54388.61154182095, 0.06, 0.9400000000000001, 0.146, 192.0, 0.0, 0.0, 0.0, 0.0, 0.0, 0.0, 0.0, 0.0, 0.0, 1.6665561993532264E9, 0.0, 2022-10-23 13:16:39.353
174.0, -77608.43069653878, -109630.59033520108, 51966.95649229962, 32703.194940471047, 61809.793032383095, 82655.54400152493, 56030.23541334098, 54423.21204223777, 0.06, 0.9400000000000001, 0.146, 192.0, 0.0, 0.0, 0.0, 0.0, 0.0, 0.0, 0.0, 0.0, 0.0, 1.6665561993532343E9, 0.0, 2022-10-23 13:16:39.353
175.0, -77558.56395465898, -109583.83048580057, 49835.13651313025, 32680.686733804556, 61739.60855479343, 81775.17584266375, 54631.01621043876, 53030.7654179055, 0.06, 0.9400000000000001, 0.146, 192.0, 0.0, 0.0, 0.0, 0.0, 0.0, 0.0, 0.0, 0.0, 0.0, 1.666556199353242E9, 0.0, 2022-10-23 13:16:39.353
176.0, -77600.83110342397, -109620.1744222849, 49458.777839991795, 32781.20252862007, 61849.40032355789, 81755.30514184298, 54499.47619431927, 53075.804182982945, 0.06, 0.9400000000000001, 0.146, 192.0, 0.0, 0.0, 0.0, 0.0, 0.0, 0.0, 0.0, 0.0, 0.0, 1.6665561993532495E9, 0.0, 2022-10-23 13:16:39.353
177.0, -77645.2216679122, -109656.09367562458, 50907.30499116242, 32889.96611713959, 61951.88307188548, 82391.97223090795, 55483.39998524189, 54118.84833798985, 0.06, 0.9400000000000001, 0.146, 192.0, 0.0, 0.0, 0.0, 0.0, 0.0, 0.0, 0.0, 0.0, 0.0, 1.6665561993532584E9, 0.0, 2022-10-23 13:16:39.353
178.0, -77609.4141732948, -109619.86149786253, 52167.92102669729, 32766.3833220462, 61877.67528029386, 82765.24636331158, 56176.840505223336, 54621.40496032297, 0.06, 0.9400000000000001, 0.146, 192.0, 0.0, 0.0, 0.0, 0.0, 0.0, 0.0, 0.0, 0.0, 0.0, 1.666556199353268E9, 0.0, 2022-10-23 13:16:39.353
179.0, -77553.17718424526, -109568.47483735977, 50131.073609718514, 32679.94912623753, 61761.625023081906, 81891.09198940897, 54809.31607595874, 53197.800004220015, 0.06, 0.9400000000000001, 0.146, 192.0, 0.0, 0.0, 0.0, 0.0, 0.0, 0.0, 0.0, 0.0, 0.0, 1.6665561993532755E9, 0.0, 2022-10-23 13:16:39.353
180.0, -77597.52304524458, -109616.88871584997, 49429.80997917771, 32768.752606958464, 61852.32840208154, 81737.6919672122, 54462.70757469029, 53020.55067068943, 0.06, 0.9400000000000001, 0.146, 192.0, 0.0, 0.0, 0.0, 0.0, 0.0, 0.0, 0.0, 0.0, 0.0, 1.6665561993532836E9, 0.0, 2022-10-23 13:16:39.353
181.0, -77636.79506025257, -109655.37841980201, 50569.61483593164, 32863.83692787134, 61939.79077813516, 82284.21447088891, 55278.45684033118, 53914.84396634626, 0.06, 0.9400000000000001, 0.146, 192.0, 0.0, 0.0, 0.0, 0.0, 0.0, 0.0, 0.0, 0.0, 0.0, 1.6665561993532913E9, 0.0, 2022-10-23 13:16:39.353
182.0, -77619.31599608851, -109640.46980625032, 52296.39885382639, 32806.996441721494, 61907.60426611952, 82862.63291390335, 56292.71194847965, 54764.21025564793, 0.06, 0.9400000000000001, 0.148, 192.0, 1.0, 224.0, 29.0, 96.0, 4.0, 160.0, 0.0, 0.0, 0.0, 1.6665561993532991E9, 0.0, 2022-10-23 13:16:39.353
183.0, -77578.14408280184, -109601.13073600898, 50525.96187901043, 32635.87148617166, 61725.99634242015, 82030.63393004346, 55050.826674798336, 53401.82672760806, 0.06, 0.9400000000000001, 0.148, 192.0, 0.0, 0.0, 0.0, 0.0, 0.0, 0.0, 0.0, 0.0, 0.0, 1.6665561993533075E9, 0.0, 2022-10-23 13:16:39.353
184.0, -77588.04590559553, -109605.57873315559, 49439.55533976023, 32756.10151959676, 61823.51700347865, 81707.80768487546, 54437.852434855995, 52956.959957714076, 0.06, 0.9400000000000001, 0.148, 192.0, 0.0, 0.0, 0.0, 0.0, 0.0, 0.0, 0.0, 0.0, 0.0, 1.666556199353315E9, 0.0, 2022-10-23 13:16:39.353
185.0, -77625.99916768065, -109639.48632949429, 50194.73137792723, 32860.93120109215, 61927.00558030672, 82111.79311416068, 55017.388465093194, 53657.933015576964, 0.06, 0.9400000000000001, 0.148, 192.0, 0.0, 0.0, 0.0, 0.0, 0.0, 0.0, 0.0, 0.0, 0.0, 1.6665561993533227E9, 0.0, 2022-10-23 13:16:39.353
186.0, -77643.41117661133, -109660.45226579336, 52204.26496318162, 32841.060500271386, 61929.464272196805, 82840.83996305942, 56247.36025897983, 54772.25688365184, 0.06, 0.9400000000000001, 0.148, 192.0, 0.0, 0.0, 0.0, 0.0, 0.0, 0.0, 0.0, 0.0, 0.0, 1.6665561993533309E9, 0.0, 2022-10-23 13:16:39.353
187.0, -77576.28888801204, -109597.17447724039, 50941.99489855706, 32647.159117121595, 61737.55219430354, 82189.3536674206, 55314.510204137594, 53666.24786451434, 0.06, 0.9400000000000001, 0.148, 192.0, 0.0, 0.0, 0.0, 0.0, 0.0, 0.0, 0.0, 0.0, 0.0, 1.6665561993533385E9, 0.0, 2022-10-23 13:16:39.353
188.0, -77584.38021950486, -109603.05298603214, 49457.28027311328, 32749.5301067269, 61805.300331747574, 81678.30338219446, 54421.93799280382, 52918.33614329531, 0.06, 0.9400000000000001, 0.148, 192.0, 0.0, 0.0, 0.0, 0.0, 0.0, 0.0, 0.0, 0.0, 0.0, 1.666556199353346E9, 0.0, 2022-10-23 13:16:39.353
189.0, -77614.6668332418, -109631.95379161285, 49905.25393548655, 32848.92831431965, 61922.17760350437, 81988.32207778956, 54824.716427888445, 53464.90335046093, 0.06, 0.9400000000000001, 0.148, 192.0, 0.0, 0.0, 0.0, 0.0, 0.0, 0.0, 0.0, 0.0, 0.0, 1.6665561993533616E9, 0.0, 2022-10-23 13:16:39.353
190.0, -77659.95146750826, -109678.31130961316, 51992.638646678766, 32872.06236983089, 61958.0745050996, 82795.01888692605, 56144.4528275076, 54712.175394555976, 0.06, 0.9400000000000001, 0.148, 192.0, 0.0, 0.0, 0.0, 0.0, 0.0, 0.0, 0.0, 0.0, 0.0, 1.6665561993533697E9, 0.0, 2022-10-23 13:16:39.353
191.0, -77596.53956848856, -109615.68172164938, 51394.349502843565, 32653.439957313534, 61760.41802888132, 82391.9945826524, 55622.629001454, 53981.51922005644, 0.06, 0.9400000000000001, 0.148, 192.0, 0.0, 0.0, 0.0, 0.0, 0.0, 0.0, 0.0, 0.0, 0.0, 1.6665561993533778E9, 0.0, 2022-10-23 13:16:39.353
192.0, -77584.5143299716, -109600.54959065314, 49574.55987627028, 32722.953882569538, 61780.40048842436, 81707.20418777516, 54482.35475806651, 52938.27389934944, 0.058, 0.9500000000000001, 0.146, 192.0, 1.0, 208.0, 29.0, 176.0, 4.0, 144.0, 0.0, 0.0, 0.0, 1.6665561993533857E9, 0.0, 2022-10-23 13:16:39.353
193.0, -77606.4190395378, -109624.26479152023, 49690.36426429323, 32828.2976541874, 61895.19904794682, 81876.51865202411, 54664.76734456627, 53286.447022729764, 0.058, 0.9500000000000001, 0.146, 192.0, 0.0, 0.0, 0.0, 0.0, 0.0, 0.0, 0.0, 0.0, 0.0, 1.6665561993533945E9, 0.0, 2022-10-23 13:16:39.353
194.0, -77635.34219686297, -109653.85850117904, 51666.48199158692, 32929.93103622568, 62009.103537691066, 82696.78297004497, 55957.90516828361, 54563.49159043928, 0.058, 0.9500000000000001, 0.146, 192.0, 0.0, 0.0, 0.0, 0.0, 0.0, 0.0, 0.0, 0.0, 0.0, 1.6665561993534021E9, 0.0, 2022-10-23 13:16:39.353
195.0, -77593.52208298708, -109619.1238902955, 51794.46808033802, 32708.157027740126, 61825.461605246266, 82577.93874477611, 55900.215315844456, 54279.37856666787, 0.058, 0.9500000000000001, 0.146, 192.0, 0.0, 0.0, 0.0, 0.0, 0.0, 0.0, 0.0, 0.0, 0.0, 1.66655619935341E9, 0.0, 2022-10-23 13:16:39.353
196.0, -77599.95938539022, -109624.68947466488, 49727.69167753359, 32678.384504125657, 61759.90393875885, 81742.38583354781, 54560.474104937806, 52978.23881843553, 0.058, 0.9500000000000001, 0.146, 192.0, 0.0, 0.0, 0.0, 0.0, 0.0, 0.0, 0.0, 0.0, 0.0, 1.666556199353418E9, 0.0, 2022-10-23 13:16:39.353
197.0, -77597.70185920023, -109616.32992223858, 49581.82419321826, 32811.80206677938, 61896.87542878097, 81826.60720665542, 54584.54693371617, 53178.10811735489, 0.058, 0.9500000000000001, 0.146, 192.0, 0.0, 0.0, 0.0, 0.0, 0.0, 0.0, 0.0, 0.0, 0.0, 1.6665561993534255E9, 0.0, 2022-10-23 13:16:39.353
198.0, -77648.88735400289, -109668.36478333054, 51284.043643956626, 32898.303317821425, 61986.26005485774, 82551.85425899675, 55721.69193287992, 54341.24819532016, 0.058, 0.9500000000000001, 0.146, 192.0, 0.0, 0.0, 0.0, 0.0, 0.0, 0.0, 0.0, 0.0, 0.0, 1.6665561993534343E9, 0.0, 2022-10-23 13:16:39.353
199.0, -77621.52881878958, -109643.37553302951, 52101.11166252037, 32725.23376050398, 61837.62095422995, 82710.52929288498, 56108.53357416792, 54510.04856944663, 0.058, 0.9500000000000001, 0.146, 192.0, 0.0, 0.0, 0.0, 0.0, 0.0, 0.0, 0.0, 0.0, 0.0, 1.666556199353442E9, 0.0, 2022-10-23 13:16:39.353
200.0, -77578.56876594649, -109596.97331154029, 49989.00592196059, 32688.71101006401, 61762.29557541556, 81832.23984625815, 54717.003371358325, 53106.82840428691, 0.058, 0.9500000000000001, 0.146, 192.0, 0.0, 0.0, 0.0, 0.0, 0.0, 0.0, 0.0, 0.0, 0.0, 1.66655619935345E9, 0.0, 2022-10-23 13:16:39.353
201.0, -77609.32476631699, -109621.78374788568, 49526.794198369294, 32774.34054307229, 61861.49261730822, 81778.86388049887, 54531.97563075729, 53099.49703210557, 0.058, 0.9500000000000001, 0.146, 192.0, 0.0, 0.0, 0.0, 0.0, 0.0, 0.0, 0.0, 0.0, 0.0, 1.6665561993534577E9, 0.0, 2022-10-23 13:16:39.353
202.0, -77636.86211548593, -109645.07426560811, 50867.720051732074, 32901.387858556256, 61963.39422027996, 82380.25991681337, 55458.63425238541, 54092.13800336576, 0.066, 0.9540000000000001, 0.138, 192.0, 2.0, 16.0, 29.0, 208.0, 4.0, 80.0, 0.0, 0.0, 0.0, 1.6665561993534653E9, 0.0, 2022-10-23 13:16:39.353
203.0, -77627.92141770381, -109642.66027720695, 52268.32506279052, 32790.65731652467, 61889.81227753309, 82801.83616898491, 56241.61586065482, 54697.37853972657, 0.066, 0.9540000000000001, 0.138, 192.0, 0.0, 0.0, 0.0, 0.0, 0.0, 0.0, 0.0, 0.0, 0.0, 1.666556199353474E9, 0.0, 2022-10-23 13:16:39.353
204.0, -77591.77864691957, -109613.49125069276, 50295.090710531564, 32650.243657856427, 61736.9710489477, 81930.07343173903, 54900.89117299214, 53276.81342086953, 0.066, 0.9540000000000001, 0.138, 192.0, 0.0, 0.0, 0.0, 0.0, 0.0, 0.0, 0.0, 0.0, 0.0, 1.6665561993534896E9, 0.0, 2022-10-23 13:16:39.353
205.0, -77616.87965594289, -109637.07234109311, 49468.210276151935, 32762.24824932197, 61841.33134380953, 81726.96312987365, 54470.06129861609, 53015.186252020154, 0.066, 0.9540000000000001, 0.138, 192.0, 0.0, 0.0, 0.0, 0.0, 0.0, 0.0, 0.0, 0.0, 0.0, 1.6665561993534975E9, 0.0, 2022-10-23 13:16:39.353
206.0, -77654.07295871651, -109685.28505388321, 50445.02621233776, 32863.36754123778, 61932.30294374263, 82199.88133905904, 55177.15873445973, 53817.45741575449, 0.066, 0.9540000000000001, 0.138, 192.0, 0.0, 0.0, 0.0, 0.0, 0.0, 0.0, 0.0, 0.0, 0.0, 1.6665561993535051E9, 0.0, 2022-10-23 13:16:39.353
207.0, -77655.36935989492, -109681.93229221491, 52299.99748468369, 32816.11595345926, 61911.44876616583, 82847.23256197365, 56288.979207155615, 54778.381261632596, 0.066, 0.9540000000000001, 0.138, 192.0, 0.0, 0.0, 0.0, 0.0, 0.0, 0.0, 0.0, 0.0, 0.0, 1.666556199353513E9, 0.0, 2022-10-23 13:16:39.353
208.0, -77587.73298117316, -109610.2725994912, 50681.53002041936, 32652.523535790868, 61735.98757219167, 82080.9253550679, 55146.55919630041, 53501.8284323011, 0.066, 0.9540000000000001, 0.138, 192.0, 0.0, 0.0, 0.0, 0.0, 0.0, 0.0, 0.0, 0.0, 0.0, 1.6665561993535209E9, 0.0, 2022-10-23 13:16:39.353
209.0, -77627.69790025926, -109653.85850117904, 49448.11605788661, 32728.56417042782, 61797.678386888314, 81680.94088804018, 54426.05071378359, 52938.229195860535, 0.066, 0.9540000000000001, 0.138, 192.0, 0.0, 0.0, 0.0, 0.0, 0.0, 0.0, 0.0, 0.0, 0.0, 1.6665561993535285E9, 0.0, 2022-10-23 13:16:39.353
210.0, -77664.66768558833, -109691.16356267495, 50110.62176354191, 32835.11493624627, 61905.79377481864, 82062.55222112563, 54955.474132952, 53591.525982800245, 0.066, 0.9540000000000001, 0.138, 192.0, 0.0, 0.0, 0.0, 0.0, 0.0, 0.0, 0.0, 0.0, 0.0, 1.6665561993535361E9, 0.0, 2022-10-23 13:16:39.353
211.0, -77661.06905473102, -109680.12180091403, 52203.415596892315, 32865.3568464943, 61963.46127551333, 82862.78937611454, 56265.08519233289, 54795.927381030015, 0.066, 0.9480000000000001, 0.14200000000000002, 192.0, 2.0, 16.0, 29.0, 160.0, 4.0, 112.0, 0.0, 0.0, 0.0, 1.666556199353544E9, 0.0, 2022-10-23 13:16:39.353
212.0, -77593.49973124263, -109616.62049491651, 51128.65431650333, 32652.12120439067, 61759.4792556142, 82275.00555217333, 55443.52447313362, 53793.40693872058, 0.066, 0.9480000000000001, 0.14200000000000002, 192.0, 0.0, 0.0, 0.0, 0.0, 0.0, 0.0, 0.0, 0.0, 0.0, 1.6665561993535523E9, 0.0, 2022-10-23 13:16:39.353
213.0, -77595.73490568816, -109617.89454435046, 49515.28304997481, 32744.657426435642, 61795.599674653975, 81693.56962365743, 54453.02926934115, 52934.652916747684, 0.066, 0.9480000000000001, 0.14200000000000002, 192.0, 0.0, 0.0, 0.0, 0.0, 0.0, 0.0, 0.0, 0.0, 0.0, 1.66655619935356E9, 0.0, 2022-10-23 13:16:39.353
214.0, -77651.05547321505, -109670.46584730934, 49831.51553052849, 32826.46481114207, 61884.87254200847, 81931.839219551, 54758.13058115609, 53389.421509435364, 0.066, 0.9480000000000001, 0.14200000000000002, 192.0, 0.0, 0.0, 0.0, 0.0, 0.0, 0.0, 0.0, 0.0, 0.0, 1.6665561993535676E9, 0.0, 2022-10-23 13:16:39.353
215.0, -77685.49951142067, -109710.67663558444, 51925.89633773522, 32879.99723911253, 61959.41560976692, 82767.30272380146, 56097.87179206274, 54671.49521964732, 0.066, 0.9480000000000001, 0.14200000000000002, 192.0, 0.0, 0.0, 0.0, 0.0, 0.0, 0.0, 0.0, 0.0, 0.0, 1.6665561993535757E9, 0.0, 2022-10-23 13:16:39.353
216.0, -77624.41219382432, -109651.71273371133, 51510.131539122056, 32645.706253731998, 61742.402522850345, 82417.83319924274, 55676.25083640228, 54041.42189519667, 0.066, 0.9480000000000001, 0.14200000000000002, 192.0, 0.0, 0.0, 0.0, 0.0, 0.0, 0.0, 0.0, 0.0, 0.0, 1.666556199353583E9, 0.0, 2022-10-23 13:16:39.353
217.0, -77616.1196966314, -109643.9343266409, 49588.14973689911, 32693.583690355266, 61748.66101129783, 81682.0808270074, 54457.52196997666, 52913.195242070586, 0.066, 0.9480000000000001, 0.14200000000000002, 192.0, 0.0, 0.0, 0.0, 0.0, 0.0, 0.0, 0.0, 0.0, 0.0, 1.666556199353591E9, 0.0, 2022-10-23 13:16:39.353
218.0, -77644.79698476756, -109671.82930372111, 49644.69965037104, 32788.31038335686, 61859.65977426288, 81841.82874462947, 54610.09497762859, 53230.34414414694, 0.066, 0.9480000000000001, 0.14200000000000002, 192.0, 0.0, 0.0, 0.0, 0.0, 0.0, 0.0, 0.0, 0.0, 0.0, 1.6665561993535988E9, 0.0, 2022-10-23 13:16:39.353
219.0, -77675.24006071569, -109701.15479244648, 51563.75337407034, 32884.668753703685, 61953.53710097517, 82644.30107406391, 55873.77320215383, 54485.55105752362, 0.066, 0.9480000000000001, 0.14200000000000002, 192.0, 0.0, 0.0, 0.0, 0.0, 0.0, 0.0, 0.0, 0.0, 0.0, 1.6665561993536067E9, 0.0, 2022-10-23 13:16:39.353
220.0, -77613.21396985221, -109639.5310329832, 51918.877889976255, 32701.719725337, 61795.55497116506, 82619.46828597407, 55962.97901427496, 54353.876930937404, 0.066, 0.9480000000000001, 0.14200000000000002, 192.0, 0.0, 0.0, 0.0, 0.0, 0.0, 0.0, 0.0, 0.0, 0.0, 1.6665561993536315E9, 0.0, 2022-10-23 13:16:39.353
221.0, -77582.32385901497, -109606.60691340052, 49811.443664007624, 32703.57492012679, 61750.583261320986, 81767.77741524905, 54591.297160541675, 53009.21833625059, 0.066, 0.9400000000000001, 0.146, 192.0, 2.0, 16.0, 29.0, 96.0, 4.0, 144.0, 0.0, 0.0, 0.0, 1.6665561993536391E9, 0.0, 2022-10-23 13:16:39.353
222.0, -77614.1750948638, -109632.53493696869, 49533.34325949469, 32809.92452024514, 61865.44887607681, 81785.07766545746, 54516.82114801659, 53118.89834629278, 0.066, 0.9400000000000001, 0.146, 192.0, 0.0, 0.0, 0.0, 0.0, 0.0, 0.0, 0.0, 0.0, 0.0, 1.6665561993536477E9, 0.0, 2022-10-23 13:16:39.353
223.0, -77662.34310416497, -109676.70198401237, 51137.79617998555, 32917.05643141943, 61974.637147740985, 82489.89522336665, 55603.33944598907, 54250.32129887597, 0.066, 0.9400000000000001, 0.146, 192.0, 0.0, 0.0, 0.0, 0.0, 0.0, 0.0, 0.0, 0.0, 0.0, 1.666556199353655E9, 0.0, 2022-10-23 13:16:39.353
224.0, -77647.59095282447, -109669.8847019535, 52166.87049470789, 32745.43973749158, 61839.25263157519, 82742.82756362291, 56132.91932736866, 54572.924026599416, 0.066, 0.9400000000000001, 0.146, 192.0, 0.0, 0.0, 0.0, 0.0, 0.0, 0.0, 0.0, 0.0, 0.0, 1.6665561993536627E9, 0.0, 2022-10-23 13:16:39.353
225.0, -77616.63378675387, -109645.40954177493, 50064.64422519734, 32655.764538736887, 61713.92640041428, 81840.19706728424, 54728.78274068627, 53130.409494687265, 0.066, 0.9400000000000001, 0.146, 192.0, 0.0, 0.0, 0.0, 0.0, 0.0, 0.0, 0.0, 0.0, 0.0, 1.6665561993536713E9, 0.0, 2022-10-23 13:16:39.353
226.0, -77640.10311843194, -109666.59899551857, 49467.07033718471, 32756.459147508045, 61816.766776653145, 81721.21873154864, 54447.44133322732, 53026.47388297009, 0.066, 0.9400000000000001, 0.146, 192.0, 0.0, 0.0, 0.0, 0.0, 0.0, 0.0, 0.0, 0.0, 0.0, 1.6665561993536792E9, 0.0, 2022-10-23 13:16:39.353
227.0, -77672.40138916987, -109696.68444355541, 50699.41141598361, 32873.29171577594, 61932.369998976, 82291.38938085907, 55310.41983490227, 53972.936150185604, 0.066, 0.9400000000000001, 0.146, 192.0, 0.0, 0.0, 0.0, 0.0, 0.0, 0.0, 0.0, 0.0, 0.0, 1.6665561993536868E9, 0.0, 2022-10-23 13:16:39.353
228.0, -77649.46849935871, -109678.46777182435, 52299.37163583894, 32784.37647633273, 61881.609187318, 82819.49404710461, 56239.47009318711, 54725.07235110669, 0.066, 0.9400000000000001, 0.146, 192.0, 0.0, 0.0, 0.0, 0.0, 0.0, 0.0, 0.0, 0.0, 0.0, 1.6665561993536944E9, 0.0, 2022-10-23 13:16:39.353
229.0, -77595.80196092153, -109623.21425953083, 50396.70174082539, 32642.84523044172, 61719.469633039196, 81958.63896115292, 54929.61316461721, 53320.22050860173, 0.066, 0.9400000000000001, 0.146, 192.0, 0.0, 0.0, 0.0, 0.0, 0.0, 0.0, 0.0, 0.0, 0.0, 1.666556199353702E9, 0.0, 2022-10-23 13:16:39.353
230.0, -77626.20033338075, -109647.91293715393, 49428.04419136575, 32753.5310689844, 61812.67640741783, 81686.9311555542, 54398.87099252594, 52964.38073687324, 0.066, 0.9400000000000001, 0.146, 192.0, 0.0, 0.0, 0.0, 0.0, 0.0, 0.0, 0.0, 0.0, 0.0, 1.6665561993537097E9, 0.0, 2022-10-23 13:16:39.353
231.0, -77661.20316519776, -109678.84775148008, 50294.08488203107, 32854.94093357813, 61910.800565576625, 82125.09240211158, 55039.784913037416, 53718.752112239854, 0.058, 0.9440000000000001, 0.146, 192.0, 1.0, 208.0, 29.0, 128.0, 4.0, 144.0, 0.0, 0.0, 0.0, 1.6665561993537173E9, 0.0, 2022-10-23 13:16:39.353
232.0, -77666.96991526723, -109698.60669357858, 52250.35426024846, 32817.702927315586, 61912.18637373285, 82829.10529722039, 56226.684895358674, 54770.11111618413, 0.058, 0.9440000000000001, 0.146, 192.0, 0.0, 0.0, 0.0, 0.0, 0.0, 0.0, 0.0, 0.0, 0.0, 1.6665561993537257E9, 0.0, 2022-10-23 13:16:39.353
233.0, -77604.83206568148, -109641.0285998617, 50784.81743154734, 32628.763631434875, 61718.910839427816, 82106.96513735833, 55168.598016333344, 53561.55229348568, 0.058, 0.9440000000000001, 0.146, 192.0, 0.0, 0.0, 0.0, 0.0, 0.0, 0.0, 0.0, 0.0, 0.0, 1.6665561993537333E9, 0.0, 2022-10-23 13:16:39.353
234.0, -77616.58908326496, -109645.8789284085, 49450.999432921344, 32749.306589282347, 61805.81442187005, 81673.60951585884, 54386.532829586606, 52934.04941964739, 0.058, 0.9440000000000001, 0.146, 192.0, 0.0, 0.0, 0.0, 0.0, 0.0, 0.0, 0.0, 0.0, 0.0, 1.6665561993537412E9, 0.0, 2022-10-23 13:16:39.353
235.0, -77649.22263016971, -109677.19372239038, 50021.32654444296, 32841.08285201584, 61909.906495798416, 82020.3074241051, 54859.29457656081, 53536.96537458484, 0.058, 0.9440000000000001, 0.146, 192.0, 0.0, 0.0, 0.0, 0.0, 0.0, 0.0, 0.0, 0.0, 0.0, 1.6665561993537562E9, 0.0, 2022-10-23 13:16:39.353
236.0, -77664.53357512159, -109690.18008591892, 52096.46249967367, 32860.417110969676, 61942.9200223589, 82800.4950643176, 56152.07477236686, 54744.31720308271, 0.058, 0.9440000000000001, 0.146, 192.0, 0.0, 0.0, 0.0, 0.0, 0.0, 0.0, 0.0, 0.0, 0.0, 1.666556199353764E9, 0.0, 2022-10-23 13:16:39.353
237.0, -77612.87869368539, -109638.45814924935, 51221.749332159685, 32631.758765191888, 61737.06045592552, 82286.4719970789, 55453.918034305345, 53852.23673012695, 0.058, 0.9440000000000001, 0.146, 192.0, 0.0, 0.0, 0.0, 0.0, 0.0, 0.0, 0.0, 0.0, 0.0, 1.6665561993537717E9, 0.0, 2022-10-23 13:16:39.353
238.0, -77612.61047275191, -109639.64279170547, 49535.399619984586, 32711.75565859743, 61772.91265403184, 81676.76111182703, 54415.9924287787, 52926.9415649106, 0.058, 0.9440000000000001, 0.146, 192.0, 0.0, 0.0, 0.0, 0.0, 0.0, 0.0, 0.0, 0.0, 0.0, 1.6665561993537793E9, 0.0, 2022-10-23 13:16:39.353
239.0, -77636.30332187454, -109655.04314363518, 49770.070585020854, 32815.4454011256, 61882.48090535175, 81890.04145741957, 54674.89268480452, 53340.962927456254, 0.058, 0.9440000000000001, 0.146, 192.0, 0.0, 0.0, 0.0, 0.0, 0.0, 0.0, 0.0, 0.0, 0.0, 1.666556199353788E9, 0.0, 2022-10-23 13:16:39.353
240.0, -77664.46651988823, -109684.34628061608, 51781.079385409284, 32888.35679153881, 61960.06381035612, 82687.015257718, 55964.253063708915, 54598.159146089456, 0.058, 0.9460000000000001, 0.146, 192.0, 1.0, 208.0, 29.0, 144.0, 4.0, 144.0, 0.0, 0.0, 0.0, 1.6665561993537955E9, 0.0, 2022-10-23 13:16:39.353
241.0, -77629.66485377132, -109660.5863762601, 51604.008865834345, 32654.13286139165, 61752.72902878869, 82429.8584377597, 55699.51900238026, 54116.18848039967, 0.058, 0.9460000000000001, 0.146, 192.0, 0.0, 0.0, 0.0, 0.0, 0.0, 0.0, 0.0, 0.0, 0.0, 1.6665561998321643E9, 0.0, 2022-10-23 13:16:39.832
242.0, -77628.16728689281, -109651.42216103342, 49612.848414522225, 32678.205690170016, 61733.52888030159, 81655.14697493875, 54432.13038827544, 52915.85509966077, 0.058, 0.9460000000000001, 0.146, 192.0, 0.0, 0.0, 0.0, 0.0, 0.0, 0.0, 0.0, 0.0, 0.0, 1.6665561998321977E9, 0.0, 2022-10-23 13:16:39.832
243.0, -77651.2342871707, -109674.01977467774, 49573.17406811405, 32773.044141893886, 61838.40326528589, 81775.13113917485, 54523.12433995299, 53173.50365799709, 0.058, 0.9460000000000001, 0.146, 192.0, 0.0, 0.0, 0.0, 0.0, 0.0, 0.0, 0.0, 0.0, 0.0, 1.6665561998322153E9, 0.0, 2022-10-23 13:16:39.832
244.0, -77670.83676705799, -109699.50076335679, 51399.870383724025, 32887.37331478278, 61948.03857183917, 82549.90965722915, 55737.98635458784, 54393.52892560112, 0.058, 0.9460000000000001, 0.146, 192.0, 0.0, 0.0, 0.0, 0.0, 0.0, 0.0, 0.0, 0.0, 0.0, 1.66655619983223E9, 0.0, 2022-10-23 13:16:39.832
245.0, -77617.50550478762, -109644.26960280772, 51971.89622782424, 32708.00056552894, 61804.92035209184, 82612.18161728163, 55967.44936316602, 54410.20332696478, 0.058, 0.9460000000000001, 0.146, 192.0, 0.0, 0.0, 0.0, 0.0, 0.0, 0.0, 0.0, 0.0, 0.0, 1.66655619983225E9, 0.0, 2022-10-23 13:16:39.832
246.0, -77593.65619345382, -109614.2735617487, 49852.01208019401, 32683.8159780283, 61738.625078037396, 81745.26920858255, 54582.065890081634, 53036.62157495279, 0.058, 0.9460000000000001, 0.146, 192.0, 0.0, 0.0, 0.0, 0.0, 0.0, 0.0, 0.0, 0.0, 0.0, 1.6665561998322668E9, 0.0, 2022-10-23 13:16:39.832
247.0, -77631.98943519467, -109654.86432967953, 49477.1286221896, 32784.37647633273, 61844.326477566545, 81720.61523444834, 54447.75425764969, 53080.25218012955, 0.058, 0.9460000000000001, 0.146, 192.0, 0.0, 0.0, 0.0, 0.0, 0.0, 0.0, 0.0, 0.0, 0.0, 1.666556199832275E9, 0.0, 2022-10-23 13:16:39.832
248.0, -77682.99611604169, -109709.2014204504, 50967.14061106928, 32883.12648333627, 61940.34957174654, 82383.9926581374, 55464.98214781072, 54147.033887747995, 0.058, 0.9460000000000001, 0.146, 192.0, 0.0, 0.0, 0.0, 0.0, 0.0, 0.0, 0.0, 0.0, 0.0, 1.666556199832283E9, 0.0, 2022-10-23 13:16:39.832
249.0, -77651.61426682642, -109676.47846656782, 52181.28736988156, 32749.507754982445, 61844.90762292238, 82726.15316225924, 56123.084559808325, 54610.251439839776, 0.058, 0.9460000000000001, 0.146, 192.0, 0.0, 0.0, 0.0, 0.0, 0.0, 0.0, 0.0, 0.0, 0.0, 1.6665561998322911E9, 0.0, 2022-10-23 13:16:39.832
250.0, -77609.30241457254, -109626.0752828211, 50133.197025441776, 32665.88987897514, 61737.93217395928, 81848.53426796607, 54752.34147934216, 53185.774765703056, 0.062, 0.9500000000000001, 0.14200000000000002, 192.0, 1.0, 240.0, 29.0, 176.0, 4.0, 112.0, 0.0, 0.0, 0.0, 1.6665561998322997E9, 0.0, 2022-10-23 13:16:39.832
251.0, -77641.6230370549, -109655.80310294667, 49435.82259843619, 32774.362894816746, 61835.67635246234, 81697.21295800364, 54408.705760086275, 53016.6167636653, 0.062, 0.9500000000000001, 0.14200000000000002, 192.0, 0.0, 0.0, 0.0, 0.0, 0.0, 0.0, 0.0, 0.0, 0.0, 1.6665561998323624E9, 0.0, 2022-10-23 13:16:39.832
252.0, -77684.82895908701, -109701.8476965246, 50553.476876434914, 32873.11290182029, 61923.518708171694, 82222.88128410355, 55200.40454869325, 53895.353245181235, 0.062, 0.9500000000000001, 0.14200000000000002, 192.0, 0.0, 0.0, 0.0, 0.0, 0.0, 0.0, 0.0, 0.0, 0.0, 1.6665561998323703E9, 0.0, 2022-10-23 13:16:39.832
253.0, -77674.74832233768, -109693.01875746474, 52259.36201326395, 32803.509569586466, 61887.308882154095, 82794.5942037814, 56199.39341537874, 54736.38233380108, 0.062, 0.9500000000000001, 0.14200000000000002, 192.0, 0.0, 0.0, 0.0, 0.0, 0.0, 0.0, 0.0, 0.0, 0.0, 1.6665561998323784E9, 0.0, 2022-10-23 13:16:39.832
254.0, -77610.59881575094, -109626.74583515475, 50480.69959648843, 32642.241733341427, 61716.1168713709, 81975.31336251656, 54961.21853127701, 53384.70529135529, 0.062, 0.9500000000000001, 0.14200000000000002, 192.0, 0.0, 0.0, 0.0, 0.0, 0.0, 0.0, 0.0, 0.0, 0.0, 1.6665561998323865E9, 0.0, 2022-10-23 13:16:39.832
255.0, -77634.73869976267, -109648.60584123206, 49392.10258628161, 32745.19386830257, 61792.381023452406, 81645.82629750088, 54342.87987266539, 52937.29042259341, 0.062, 0.9500000000000001, 0.14200000000000002, 192.0, 0.0, 0.0, 0.0, 0.0, 0.0, 0.0, 0.0, 0.0, 0.0, 1.6665561998323944E9, 0.0, 2022-10-23 13:16:39.832
0.0, -77673.87660430392, -109691.54354233069, 50169.339796226006, 32842.06632877187, 61891.60041708952, 82062.12753798098, 54940.006725788924, 53647.33828870515, 0.062, 0.9500000000000001, 0.14200000000000002, 192.0, 0.0, 0.0, 0.0, 0.0, 0.0, 0.0, 0.0, 0.0, 0.0, 1.6665561998324025E9, 0.0, 2022-10-23 13:16:39.832
1.0, -77686.81826434354, -109710.18489720642, 52180.72857627017, 32833.66207285668, 61913.192202233346, 82802.7972939965, 56175.45469706711, 54761.63980503557, 0.062, 0.9500000000000001, 0.14200000000000002, 192.0, 0.0, 0.0, 0.0, 0.0, 0.0, 0.0, 0.0, 0.0, 0.0, 1.6665561998324103E9, 0.0, 2022-10-23 13:16:39.832
2.0, -77615.69501348675, -109634.09955908055, 50892.41872935519, 32631.199971580503, 61722.8670981964, 82147.42179482244, 55230.40058975227, 53644.879596815066, 0.062, 0.9500000000000001, 0.14200000000000002, 192.0, 0.0, 0.0, 0.0, 0.0, 0.0, 0.0, 0.0, 0.0, 0.0, 1.666556199832418E9, 0.0, 2022-10-23 13:16:39.832
3.0, -77620.90296994484, -109635.26184979224, 49445.88088344108, 32728.675929150097, 61782.47920065871, 81656.06339646142, 54368.42791657781, 52920.124282851735, 0.062, 0.9500000000000001, 0.14200000000000002, 192.0, 0.0, 0.0, 0.0, 0.0, 0.0, 0.0, 0.0, 0.0, 0.0, 1.666556199832426E9, 0.0, 2022-10-23 13:16:39.832
4.0, -77649.64731331436, -109662.17335011643, 49918.21794727063, 32846.156698007195, 61900.83168754956, 81976.72152241725, 54789.08774722669, 53476.90623723343, 0.06, 0.96, 0.148, 192.0, 1.0, 224.0, 30.0, 0.0, 4.0, 160.0, 0.0, 0.0, 0.0, 1.6665561998324337E9, 0.0, 2022-10-23 13:16:39.832
5.0, -77680.62683112941, -109692.77288827574, 52024.33342031639, 32899.82323644438, 61975.15123786345, 82803.60195679689, 56126.3479144988, 54741.29971758124, 0.06, 0.96, 0.148, 192.0, 0.0, 0.0, 0.0, 0.0, 0.0, 0.0, 0.0, 0.0, 0.0, 1.666556199832442E9, 0.0, 2022-10-23 13:16:39.832
6.0, -77624.59100777996, -109643.59905047406, 51348.99781334375, 32657.485623059947, 61751.052647954544, 82352.27553275533, 55543.83910224904, 53952.52900749791, 0.06, 0.96, 0.148, 192.0, 0.0, 0.0, 0.0, 0.0, 0.0, 0.0, 0.0, 0.0, 0.0, 1.66655619983245E9, 0.0, 2022-10-23 13:16:39.832
7.0, -77622.55699903452, -109644.06843710762, 49549.90590213608, 32719.176437756592, 61766.721220817715, 81681.34321944037, 54419.188728235815, 52929.064980633855, 0.06, 0.96, 0.148, 192.0, 0.0, 0.0, 0.0, 0.0, 0.0, 0.0, 0.0, 0.0, 0.0, 1.6665561998324575E9, 0.0, 2022-10-23 13:16:39.832
8.0, -77652.79890928256, -109669.66118450895, 49679.00957810993, 32805.20830216507, 61864.308937109585, 81849.83066914447, 54605.66933222644, 53279.808554626536, 0.06, 0.96, 0.148, 192.0, 0.0, 0.0, 0.0, 0.0, 0.0, 0.0, 0.0, 0.0, 0.0, 1.6665561998324654E9, 0.0, 2022-10-23 13:16:39.832
9.0, -77682.2361567302, -109697.35499588908, 51640.39750580758, 32889.02734387247, 61954.297060286655, 82642.53528625194, 55877.2377225444, 54533.763770313715, 0.06, 0.96, 0.148, 192.0, 0.0, 0.0, 0.0, 0.0, 0.0, 0.0, 0.0, 0.0, 0.0, 1.6665561998324733E9, 0.0, 2022-10-23 13:16:39.832
10.0, -77642.29358938856, -109658.9323471704, 51713.688875876534, 32671.366056366693, 61773.40439240985, 82496.48898798096, 55780.99111091985, 54222.02399039555, 0.06, 0.96, 0.148, 192.0, 0.0, 0.0, 0.0, 0.0, 0.0, 0.0, 0.0, 0.0, 0.0, 1.666556199832489E9, 0.0, 2022-10-23 13:16:39.832
