%OpenBCI Raw EEG Data
%Number of channels = 8
%Sample Rate = 250 Hz
%Board = OpenBCI_GUI$BoardCytonSerial
Sample Index, EXG Channel 0, EXG Channel 1, EXG Channel 2, EXG Channel 3, EXG Channel 4, EXG Channel 5, EXG Channel 6, EXG Channel 7, Accel Channel 0, Accel Channel 1, Accel Channel 2, Other, Other, Other, Other, Other, Other, Other, Analog Channel 0, Analog Channel 1, Analog Channel 2, Timestamp, Other, Timestamp (Formatted)
83.0, -105645.9895546424, -146642.73222002177, -67563.98142146843, -126627.01328122774, 32341.58841867309, -78935.31965438362, 21382.595167469404, -123217.76875469313, 0.0, 0.0, 0.0, 192.0, 0.0, 0.0, 0.0, 0.0, 0.0, 0.0, 0.0, 0.0, 0.0, 1.6664034473044536E9, 0.0, 2022-10-21 18:50:47.304
84.0, -105620.24034502987, -146620.78280696666, -67546.45765381547, -126611.99290895379, 32362.73316892781, -78926.26719787922, 21365.89841436129, -123205.89997838736, 0.0, 0.0, 0.0, 192.0, 0.0, 0.0, 0.0, 0.0, 0.0, 0.0, 0.0, 0.0, 0.0, 1.666403447304479E9, 0.0, 2022-10-21 18:50:47.304
85.0, -105628.39873175607, -146632.7186385058, -67558.3487818657, -126608.32722286311, 32352.45136647837, -78922.10977341054, 21373.140379564808, -123218.61812098243, 0.0, 0.0, 0.0, 192.0, 0.0, 0.0, 0.0, 0.0, 0.0, 0.0, 0.0, 0.0, 0.0, 1.6664034473044925E9, 0.0, 2022-10-21 18:50:47.304
86.0, -105626.38707475508, -146631.57869953857, -67566.61892731416, -126612.61875779853, 32345.03058731921, -78930.5810845591, 21395.067440875464, -123227.62587399792, 0.0, 0.0, 0.0, 192.0, 0.0, 0.0, 0.0, 0.0, 0.0, 0.0, 0.0, 0.0, 0.0, 1.666403447304506E9, 0.0, 2022-10-21 18:50:47.304
87.0, -105615.90410660555, -146623.21914711228, -67556.33712486472, -126604.41566758344, 32360.25212529327, -78924.25554087825, 21396.162676353775, -123219.66865297183, 0.0, 0.0, 0.0, 192.0, 0.0, 0.0, 0.0, 0.0, 0.0, 0.0, 0.0, 0.0, 0.0, 1.6664034473045192E9, 0.0, 2022-10-21 18:50:47.304
88.0, -105610.74085363638, -146617.92178367637, -67553.27493587435, -126601.3311268486, 32365.79535791819, -78918.64525301996, 21380.80702791298, -123212.29257730157, 0.0, 0.0, 0.0, 192.0, 0.0, 0.0, 0.0, 0.0, 0.0, 0.0, 0.0, 0.0, 0.0, 1.6664034473045387E9, 0.0, 2022-10-21 18:50:47.304
89.0, -105616.9769903394, -146625.0966936465, -67566.41776161407, -126615.99387121128, 32351.490241466792, -78925.75310775675, 21371.37459175284, -123223.28963557359, 0.056, 0.9520000000000001, 0.04, 192.0, 1.0, 192.0, 29.0, 192.0, 1.0, 64.0, 0.0, 0.0, 0.0, 1.6664034473045588E9, 0.0, 2022-10-21 18:50:47.304
90.0, -105614.29478100476, -146621.6098215115, -67569.16702618207, -126615.01039445525, 32351.40083448897, -78922.80267748865, 21388.786600683525, -123221.94853090627, 0.056, 0.9520000000000001, 0.04, 192.0, 0.0, 0.0, 0.0, 0.0, 0.0, 0.0, 0.0, 0.0, 0.0, 1.6664034473045833E9, 0.0, 2022-10-21 18:50:47.304
91.0, -105617.8263566287, -146624.4037895684, -67571.40220062759, -126621.76062128076, 32350.998503088776, -78929.23997989178, 21382.66222270277, -123216.04767037007, 0.056, 0.9520000000000001, 0.04, 192.0, 0.0, 0.0, 0.0, 0.0, 0.0, 0.0, 0.0, 0.0, 0.0, 1.666403447304605E9, 0.0, 2022-10-21 18:50:47.304
92.0, -105621.89437411957, -146627.8012547256, -67581.16991295456, -126634.1881911979, 32341.78958437319, -78943.8356690211, 21360.6904579032, -123223.58020825151, 0.056, 0.9520000000000001, 0.04, 192.0, 0.0, 0.0, 0.0, 0.0, 0.0, 0.0, 0.0, 0.0, 0.0, 1.6664034473046265E9, 0.0, 2022-10-21 18:50:47.304
93.0, -105623.59310669817, -146629.79055998212, -67586.57903511275, -126637.9432842664, 32334.704081380856, -78950.6305993355, 21350.006324053567, -123234.24199035669, 0.056, 0.9520000000000001, 0.04, 192.0, 0.0, 0.0, 0.0, 0.0, 0.0, 0.0, 0.0, 0.0, 0.0, 1.6664034473046477E9, 0.0, 2022-10-21 18:50:47.304
94.0, -105624.17425205401, -146630.32700184907, -67584.9026542786, -126628.04146147269, 32334.97230231432, -78946.51787835573, 21368.26769927355, -123234.35374907897, 0.056, 0.9520000000000001, 0.04, 192.0, 0.0, 0.0, 0.0, 0.0, 0.0, 0.0, 0.0, 0.0, 0.0, 1.666403447304669E9, 0.0, 2022-10-21 18:50:47.304
95.0, -105619.2345165294, -146625.6554872579, -67583.33803216672, -126631.19305744089, 32334.949950569866, -78949.28949466819, 21376.627251699836, -123233.8396589565, 0.056, 0.9520000000000001, 0.04, 192.0, 0.0, 0.0, 0.0, 0.0, 0.0, 0.0, 0.0, 0.0, 0.0, 1.6664034473046844E9, 0.0, 2022-10-21 18:50:47.304
96.0, -105631.19269981298, -146638.19481589732, -67600.59357888623, -126658.48453742082, 32317.403831172447, -78974.8375385806, 21344.954829806666, -123250.2458393867, 0.056, 0.9520000000000001, 0.04, 192.0, 0.0, 0.0, 0.0, 0.0, 0.0, 0.0, 0.0, 0.0, 0.0, 1.6664034473046997E9, 0.0, 2022-10-21 18:50:47.304
97.0, -105603.61064715513, -146610.61276323948, -67573.1456366951, -126625.78393528271, 32348.763328643243, -78946.67434056693, 21354.454321200174, -123221.97088265073, 0.056, 0.9520000000000001, 0.04, 192.0, 0.0, 0.0, 0.0, 0.0, 0.0, 0.0, 0.0, 0.0, 0.0, 1.666403447304715E9, 0.0, 2022-10-21 18:50:47.304
98.0, -105605.26467624483, -146612.42325454036, -67574.17381694005, -126615.72565027782, 32352.093738567084, -78923.69674726686, 21393.23459783013, -123218.32754830451, 0.05, 0.9540000000000001, 0.04, 192.0, 1.0, 144.0, 29.0, 208.0, 1.0, 64.0, 0.0, 0.0, 0.0, 1.6664034473047302E9, 0.0, 2022-10-21 18:50:47.304
99.0, -105617.04404557277, -146623.5544232791, -67588.03189850235, -126630.88013301852, 32338.6826918939, -78943.38863413199, 21388.42897277224, -123234.17493512333, 0.05, 0.9540000000000001, 0.04, 192.0, 0.0, 0.0, 0.0, 0.0, 0.0, 0.0, 0.0, 0.0, 0.0, 1.6664034473048923E9, 0.0, 2022-10-21 18:50:47.304
100.0, -105616.5299554503, -146621.4533593003, -67592.2563782044, -126639.0385197447, 32337.11806978203, -78954.54215461519, 21367.8430161289, -123245.17199339534, 0.05, 0.9540000000000001, 0.04, 192.0, 0.0, 0.0, 0.0, 0.0, 0.0, 0.0, 0.0, 0.0, 0.0, 1.6664034473049076E9, 0.0, 2022-10-21 18:50:47.304
101.0, -105614.6747606605, -146616.26775458668, -67587.02607000186, -126631.46127837435, 32340.91786633943, -78955.59268660459, 21357.60591716837, -123235.35957757945, 0.05, 0.9540000000000001, 0.04, 192.0, 0.0, 0.0, 0.0, 0.0, 0.0, 0.0, 0.0, 0.0, 0.0, 1.6664034473049245E9, 0.0, 2022-10-21 18:50:47.304
102.0, -105607.2763332458, -146606.4553387708, -67577.39246814161, -126612.21642639834, 32347.9363140984, -78941.08640445309, 21383.265719803065, -123225.32364431903, 0.05, 0.9540000000000001, 0.04, 192.0, 0.0, 0.0, 0.0, 0.0, 0.0, 0.0, 0.0, 0.0, 0.0, 1.66640344730494E9, 0.0, 2022-10-21 18:50:47.304
103.0, -105612.17136528151, -146610.27748707266, -67581.08050597674, -126628.35438589507, 32342.706005895856, -78947.18843068939, 21393.592225741413, -123232.6326647559, 0.05, 0.9540000000000001, 0.04, 192.0, 0.0, 0.0, 0.0, 0.0, 0.0, 0.0, 0.0, 0.0, 0.0, 1.6664034473049555E9, 0.0, 2022-10-21 18:50:47.304
104.0, -105605.55524892274, -146604.55544049208, -67575.62668032965, -126631.8412580301, 32348.249238520773, -78958.56546861715, 21372.536882464516, -123228.60935075395, 0.05, 0.9540000000000001, 0.04, 192.0, 0.0, 0.0, 0.0, 0.0, 0.0, 0.0, 0.0, 0.0, 0.0, 1.6664034473049705E9, 0.0, 2022-10-21 18:50:47.304
105.0, -105606.00228381185, -146605.60597248148, -67577.951261753, -126625.51571434924, 32347.01989257573, -78953.67043658144, 21355.99659156759, -123226.12830711942, 0.05, 0.9540000000000001, 0.04, 192.0, 0.0, 0.0, 0.0, 0.0, 0.0, 0.0, 0.0, 0.0, 0.0, 1.666403447304989E9, 0.0, 2022-10-21 18:50:47.304
106.0, -105614.60770542714, -146610.43394928385, -67588.12130548016, -126627.57207483913, 32338.481526193802, -78955.01154124875, 21358.499986946583, -123225.61421699694, 0.05, 0.9540000000000001, 0.04, 192.0, 0.0, 0.0, 0.0, 0.0, 0.0, 0.0, 0.0, 0.0, 0.0, 1.6664034473050044E9, 0.0, 2022-10-21 18:50:47.305
107.0, -105634.32194403672, -146626.57190878058, -67610.8083261023, -126647.08514774861, 32320.175447484908, -78972.42355017943, 21361.249251514586, -123247.16129865186, 0.05, 0.9540000000000001, 0.04, 192.0, 0.0, 0.0, 0.0, 0.0, 0.0, 0.0, 0.0, 0.0, 0.0, 1.6664034473050196E9, 0.0, 2022-10-21 18:50:47.305
108.0, -105618.49690896236, -146608.44464402733, -67597.10670675119, -126647.48747914881, 32333.832363347097, -78977.25152698178, 21364.60201318288, -123241.97569393822, 0.046, 0.9560000000000001, 0.046, 192.0, 1.0, 112.0, 29.0, 224.0, 1.0, 112.0, 0.0, 0.0, 0.0, 1.6664034473050349E9, 0.0, 2022-10-21 18:50:47.305
109.0, -105593.90999006153, -146585.51175421616, -67572.92211925055, -126627.79559228368, 32357.189936302893, -78966.05330300967, 21349.581640908917, -123218.95339714926, 0.046, 0.9560000000000001, 0.046, 192.0, 0.0, 0.0, 0.0, 0.0, 0.0, 0.0, 0.0, 0.0, 0.0, 1.6664034473050604E9, 0.0, 2022-10-21 18:50:47.305
110.0, -105599.54262966427, -146593.26780954216, -67579.29236642031, -126617.84906600107, 32353.434843234405, -78952.84342203659, 21359.125835791332, -123223.35669080696, 0.046, 0.9560000000000001, 0.046, 192.0, 0.0, 0.0, 0.0, 0.0, 0.0, 0.0, 0.0, 0.0, 0.0, 1.6664034473050764E9, 0.0, 2022-10-21 18:50:47.305
111.0, -105623.21312704243, -146616.91595517588, -67606.74030861144, -126636.91510402145, 32331.239560990285, -78969.38371293352, 21369.072362073945, -123245.61902828445, 0.046, 0.9560000000000001, 0.046, 192.0, 0.0, 0.0, 0.0, 0.0, 0.0, 0.0, 0.0, 0.0, 0.0, 1.6664034473050928E9, 0.0, 2022-10-21 18:50:47.305
112.0, -105614.36183623814, -146598.09578634452, -67596.45850616199, -126633.60704584207, 32342.25897100675, -78970.99303853429, 21368.401809740284, -123233.52673453413, 0.046, 0.9560000000000001, 0.046, 192.0, 0.0, 0.0, 0.0, 0.0, 0.0, 0.0, 0.0, 0.0, 0.0, 1.6664034473051083E9, 0.0, 2022-10-21 18:50:47.305
113.0, -105599.4755744309, -146582.851896626, -67594.53625613883, -126643.55357212467, 32346.12582279752, -78976.11158801457, 21340.059797770955, -123226.73180421971, 0.046, 0.9560000000000001, 0.046, 192.0, 0.0, 0.0, 0.0, 0.0, 0.0, 0.0, 0.0, 0.0, 0.0, 1.666403447305124E9, 0.0, 2022-10-21 18:50:47.305
114.0, -105598.51444941932, -146585.1988297938, -67594.84918056121, -126633.47293537534, 32350.752633899767, -78961.87352679652, 21335.924725046723, -123218.59576923797, 0.046, 0.9560000000000001, 0.046, 192.0, 0.0, 0.0, 0.0, 0.0, 0.0, 0.0, 0.0, 0.0, 0.0, 1.66640344730519E9, 0.0, 2022-10-21 18:50:47.305
115.0, -105594.6252458841, -146586.58463795003, -67602.18055274255, -126616.86558924505, 32352.943104856386, -78944.50622135475, 21368.31240276246, -123222.61908323993, 0.046, 0.9560000000000001, 0.046, 192.0, 0.0, 0.0, 0.0, 0.0, 0.0, 0.0, 0.0, 0.0, 0.0, 1.666403447305206E9, 0.0, 2022-10-21 18:50:47.305
116.0, -105560.89646350103, -146595.92766713235, -67615.79276511584, -126643.4418134024, 32342.59424717358, -78965.31569544265, 21367.798312639992, -123239.31583634805, 0.046, 0.9560000000000001, 0.046, 192.0, 0.0, 0.0, 0.0, 0.0, 0.0, 0.0, 0.0, 0.0, 0.0, 1.666403447305222E9, 0.0, 2022-10-21 18:50:47.305
117.0, -105573.27932992928, -146614.03258014115, -67627.57213444378, -126663.33486596763, 32333.474735435815, -78993.07656205614, 21333.242515712085, -123252.74923476568, 0.046, 0.9560000000000001, 0.046, 192.0, 0.0, 0.0, 0.0, 0.0, 0.0, 0.0, 0.0, 0.0, 0.0, 1.666403447305238E9, 0.0, 2022-10-21 18:50:47.305
118.0, -105596.63690288507, -146583.2095245373, -67610.51775342438, -126640.31256917866, 32347.086947809097, -78976.6927333704, 21330.31443718844, -123237.0359584136, 0.046, 0.9560000000000001, 0.04, 192.0, 1.0, 112.0, 29.0, 224.0, 1.0, 64.0, 0.0, 0.0, 0.0, 1.6664034473052547E9, 0.0, 2022-10-21 18:50:47.305
119.0, -105634.94779288147, -146575.81109712258, -67615.56924767129, -126635.05990923166, 32343.175392529418, -78969.54017514469, 21344.194870495186, -123244.21086838376, 0.046, 0.9560000000000001, 0.04, 192.0, 0.0, 0.0, 0.0, 0.0, 0.0, 0.0, 0.0, 0.0, 0.0, 1.6664034473052716E9, 0.0, 2022-10-21 18:50:47.305
120.0, -105661.94870018348, -146603.16963233586, -67631.05900657881, -126648.38154892702, 32334.838191847586, -78978.01148629325, 21352.71088513266, -123252.74923476568, 0.046, 0.9560000000000001, 0.04, 192.0, 0.0, 0.0, 0.0, 0.0, 0.0, 0.0, 0.0, 0.0, 0.0, 1.6664034473052874E9, 0.0, 2022-10-21 18:50:47.305
121.0, -105655.98078441391, -146601.49325150173, -67624.24172451995, -126648.33684543811, 32345.49997395277, -78982.28066948423, 21333.711902345647, -123241.8862869604, 0.046, 0.9560000000000001, 0.04, 192.0, 0.0, 0.0, 0.0, 0.0, 0.0, 0.0, 0.0, 0.0, 0.0, 1.666403447305303E9, 0.0, 2022-10-21 18:50:47.305
122.0, -105624.82245264322, -146586.91991411685, -67616.95505582751, -126636.80334529918, 32357.681674680913, -78968.08731175511, 21325.419405152727, -123231.22450485523, 0.046, 0.9560000000000001, 0.04, 192.0, 0.0, 0.0, 0.0, 0.0, 0.0, 0.0, 0.0, 0.0, 0.0, 1.6664034473053193E9, 0.0, 2022-10-21 18:50:47.305
123.0, -105660.1382088826, -146587.92574261734, -67633.40593974662, -126645.78874657021, 32339.889686094488, -78974.07757926913, 21322.536030117994, -123246.4907463182, 0.046, 0.9560000000000001, 0.04, 192.0, 0.0, 0.0, 0.0, 0.0, 0.0, 0.0, 0.0, 0.0, 0.0, 1.666403447305335E9, 0.0, 2022-10-21 18:50:47.305
124.0, -105696.05746222228, -146607.57292599356, -67648.78393993186, -126657.94809555389, 32329.6302353895, -78976.24569848129, 21335.500041902073, -123256.21375515626, 0.046, 0.9560000000000001, 0.04, 192.0, 0.0, 0.0, 0.0, 0.0, 0.0, 0.0, 0.0, 0.0, 0.0, 1.6664034473053508E9, 0.0, 2022-10-21 18:50:47.305
125.0, -105659.71352573796, -146590.76441416316, -67633.16007055761, -126651.6449036175, 32347.578686187113, -78965.78508207621, 21340.216259982142, -123232.47620254473, 0.046, 0.9560000000000001, 0.04, 192.0, 0.0, 0.0, 0.0, 0.0, 0.0, 0.0, 0.0, 0.0, 0.0, 1.6664034473053668E9, 0.0, 2022-10-21 18:50:47.305
126.0, -105650.2363860889, -146589.06568158456, -67644.35829452971, -126658.93157230993, 32340.202610516862, -78970.25543096727, 21319.1832684497, -123235.67250200183, 0.046, 0.9560000000000001, 0.04, 192.0, 0.0, 0.0, 0.0, 0.0, 0.0, 0.0, 0.0, 0.0, 0.0, 1.6664034473053844E9, 0.0, 2022-10-21 18:50:47.305
127.0, -105658.12655188162, -146594.11717583146, -67636.69164618154, -126629.82960102912, 32352.160793800453, -78952.55284935866, 21339.903335559768, -123228.3858333094, 0.046, 0.9560000000000001, 0.04, 192.0, 0.0, 0.0, 0.0, 0.0, 0.0, 0.0, 0.0, 0.0, 0.0, 1.6664034473054004E9, 0.0, 2022-10-21 18:50:47.305
128.0, -105699.52198261286, -146641.0111356987, -67647.33107654228, -126642.95007502439, 32337.810973860145, -78954.16217495945, 21355.92953633422, -123236.45481305776, 0.048, 0.962, 0.036000000000000004, 192.0, 1.0, 128.0, 30.0, 16.0, 1.0, 32.0, 0.0, 0.0, 0.0, 1.666403447305416E9, 0.0, 2022-10-21 18:50:47.305
129.0, -105719.97382878946, -146650.73414453675, -67660.58566100427, -126672.40967421648, 32324.511685909238, -78981.386599706, 21335.23182096861, -123248.90473471937, 0.048, 0.962, 0.036000000000000004, 192.0, 0.0, 0.0, 0.0, 0.0, 0.0, 0.0, 0.0, 0.0, 0.0, 1.6664034473054535E9, 0.0, 2022-10-21 18:50:47.305
130.0, -105680.07596493674, -146599.97333287876, -67644.470053252, -126656.80815658667, 32340.604941917056, -78970.09896875608, 21322.334864417895, -123233.57143802303, 0.048, 0.962, 0.036000000000000004, 192.0, 0.0, 0.0, 0.0, 0.0, 0.0, 0.0, 0.0, 0.0, 0.0, 1.66640344730547E9, 0.0, 2022-10-21 18:50:47.305
131.0, -105659.80293271577, -146622.43683605635, -67652.85195742274, -126649.9461710389, 32331.373671457015, -78966.7909105767, 21332.70607384516, -123239.2934846036, 0.048, 0.962, 0.036000000000000004, 192.0, 0.0, 0.0, 0.0, 0.0, 0.0, 0.0, 0.0, 0.0, 0.0, 1.6664034473054857E9, 0.0, 2022-10-21 18:50:47.305
132.0, -105672.02933693283, -146612.5573650071, -67660.00451564843, -126660.54089791072, 32320.421316673914, -78976.75978860377, 21345.290105973498, -123244.85906897296, 0.048, 0.962, 0.036000000000000004, 192.0, 0.0, 0.0, 0.0, 0.0, 0.0, 0.0, 0.0, 0.0, 0.0, 1.6664034473055017E9, 0.0, 2022-10-21 18:50:47.305
133.0, -105683.51813358285, -146627.1530541364, -67659.24455633695, -126668.20754625888, 32319.124915495508, -78988.896785843, 21340.015094282044, -123238.9358566923, 0.048, 0.962, 0.036000000000000004, 192.0, 0.0, 0.0, 0.0, 0.0, 0.0, 0.0, 0.0, 0.0, 0.0, 1.6664034473055177E9, 0.0, 2022-10-21 18:50:47.305
134.0, -105682.66876729355, -146654.15396143842, -67674.08611465528, -126685.5524999562, 32302.383458898483, -78998.03864932522, 21314.757623047546, -123253.59860105498, 0.048, 0.962, 0.036000000000000004, 192.0, 0.0, 0.0, 0.0, 0.0, 0.0, 0.0, 0.0, 0.0, 0.0, 1.6664034473055334E9, 0.0, 2022-10-21 18:50:47.305
135.0, -105614.54065019378, -146605.56126899258, -67664.11723662821, -126676.2541742628, 32300.05887747513, -78977.89972757098, 21337.958733792155, -123248.77062425265, 0.048, 0.962, 0.036000000000000004, 192.0, 0.0, 0.0, 0.0, 0.0, 0.0, 0.0, 0.0, 0.0, 0.0, 1.6664034473055491E9, 0.0, 2022-10-21 18:50:47.305
136.0, -105597.10628951863, -146578.31449250158, -67652.78490218936, -126665.52533692424, 32307.05497348964, -78962.54407913018, 21373.162731309265, -123237.59475202499, 0.048, 0.962, 0.036000000000000004, 192.0, 0.0, 0.0, 0.0, 0.0, 0.0, 0.0, 0.0, 0.0, 0.0, 1.6664034473055649E9, 0.0, 2022-10-21 18:50:47.305
137.0, -105697.46562212297, -146642.55340606612, -67657.47876852498, -126683.96552609987, 32299.745953052756, -78988.0921230426, 21348.12877751932, -123244.12146140594, 0.052000000000000005, 0.964, 0.038, 192.0, 1.0, 160.0, 30.0, 32.0, 1.0, 48.0, 0.0, 0.0, 0.0, 1.6664034473055809E9, 0.0, 2022-10-21 18:50:47.305
138.0, -105715.45877640949, -146670.35897616853, -67622.34182624125, -126658.88686882102, 32328.959683055844, -78966.29917219868, 21338.56223089245, -123214.97478663622, 0.052000000000000005, 0.964, 0.038, 192.0, 0.0, 0.0, 0.0, 0.0, 0.0, 0.0, 0.0, 0.0, 0.0, 1.666403447305598E9, 0.0, 2022-10-21 18:50:47.305
139.0, -105754.97666060647, -146694.6776741359, -67614.29519823733, -126655.42234843044, 32328.467944677825, -78949.51301211274, 21341.065626271444, -123214.41599302483, 0.052000000000000005, 0.964, 0.038, 192.0, 0.0, 0.0, 0.0, 0.0, 0.0, 0.0, 0.0, 0.0, 0.0, 1.6664034473056135E9, 0.0, 2022-10-21 18:50:47.305
140.0, -105768.41005902411, -146708.15577604243, -67606.69560512253, -126654.7964995857, 32322.321214952615, -78939.2312096633, 21369.452341729684, -123219.44513552728, 0.052000000000000005, 0.964, 0.038, 192.0, 0.0, 0.0, 0.0, 0.0, 0.0, 0.0, 0.0, 0.0, 0.0, 1.6664034473056295E9, 0.0, 2022-10-21 18:50:47.305
141.0, -105755.80367515131, -146706.4793952083, -67600.30300620831, -126662.91018282298, 32317.560293383634, -78949.5353638572, 21375.643774943805, -123220.09333611648, 0.052000000000000005, 0.964, 0.038, 192.0, 0.0, 0.0, 0.0, 0.0, 0.0, 0.0, 0.0, 0.0, 0.0, 1.6664034473056452E9, 0.0, 2022-10-21 18:50:47.305
142.0, -105773.19333233754, -146705.76413938572, -67600.72768935296, -126675.0024765733, 32308.26196769023, -78972.71412285735, 21337.64580936978, -123227.49176353119, 0.052000000000000005, 0.964, 0.038, 192.0, 0.0, 0.0, 0.0, 0.0, 0.0, 0.0, 0.0, 0.0, 0.0, 1.6664034473056607E9, 0.0, 2022-10-21 18:50:47.305
143.0, -105784.99505340995, -146707.7757963867, -67600.61593063068, -126680.74687489831, 32298.270737918705, -78970.54600364518, 21327.900448787266, -123233.4820310452, 0.052000000000000005, 0.964, 0.038, 192.0, 0.0, 0.0, 0.0, 0.0, 0.0, 0.0, 0.0, 0.0, 0.0, 1.6664034473056767E9, 0.0, 2022-10-21 18:50:47.305
144.0, -105767.69480320154, -146665.68746157736, -67572.40802912808, -126657.81398508717, 32312.173522969908, -78951.882297025, 21364.98199283862, -123207.44224875477, 0.052000000000000005, 0.964, 0.038, 192.0, 0.0, 0.0, 0.0, 0.0, 0.0, 0.0, 0.0, 0.0, 0.0, 1.6664034473057396E9, 0.0, 2022-10-21 18:50:47.305
145.0, -105771.3157858033, -146654.33277539405, -67560.69571503351, -126659.02097928774, 32308.619595601514, -78961.91823028545, 21375.219091799154, -123203.86596964193, 0.052000000000000005, 0.964, 0.038, 192.0, 0.0, 0.0, 0.0, 0.0, 0.0, 0.0, 0.0, 0.0, 0.0, 1.6664034473057556E9, 0.0, 2022-10-21 18:50:47.305
146.0, -105787.69961448904, -146662.51351386472, -67550.5927265397, -126670.5991829156, 32309.647775846457, -78965.78508207621, 21354.789597367002, -123204.8270946535, 0.052000000000000005, 0.964, 0.038, 192.0, 0.0, 0.0, 0.0, 0.0, 0.0, 0.0, 0.0, 0.0, 0.0, 1.6664034473057716E9, 0.0, 2022-10-21 18:50:47.305
147.0, -105790.04654765685, -146653.5728160826, -67533.18071760902, -126665.12300552404, 32314.341642182073, -78951.4799656248, 21348.195832752685, -123208.11280108844, 0.066, 0.966, 0.04, 192.0, 2.0, 16.0, 30.0, 48.0, 1.0, 64.0, 0.0, 0.0, 0.0, 1.666403447305789E9, 0.0, 2022-10-21 18:50:47.305
148.0, -105793.55577153632, -146648.29780439113, -67523.07772911522, -126653.0977670071, 32309.021927001708, -78943.09806145407, 21374.88381563232, -123214.41599302483, 0.066, 0.966, 0.04, 192.0, 0.0, 0.0, 0.0, 0.0, 0.0, 0.0, 0.0, 0.0, 0.0, 1.6664034473058078E9, 0.0, 2022-10-21 18:50:47.305
149.0, -105800.12718440618, -146651.9634904818, -67511.65598769856, -126660.31738046616, 32300.081229219584, -78960.93475352941, 21387.132571593833, -123220.56272275004, 0.066, 0.966, 0.04, 192.0, 0.0, 0.0, 0.0, 0.0, 0.0, 0.0, 0.0, 0.0, 0.0, 1.6664034473058238E9, 0.0, 2022-10-21 18:50:47.305
150.0, -105797.98141693848, -146641.3240601211, -67493.19344677847, -126670.08509279313, 32305.512703122226, -78970.21072747836, 21369.295879518497, -123209.8338854115, 0.066, 0.966, 0.04, 192.0, 0.0, 0.0, 0.0, 0.0, 0.0, 0.0, 0.0, 0.0, 0.0, 1.6664034473058395E9, 0.0, 2022-10-21 18:50:47.305
151.0, -105794.98628318147, -146633.18802513936, -67478.03896403778, -126669.81687185966, 32310.184217713384, -78966.34387568758, 21356.42127471224, -123194.29942301505, 0.066, 0.966, 0.04, 192.0, 0.0, 0.0, 0.0, 0.0, 0.0, 0.0, 0.0, 0.0, 0.0, 1.666403447305857E9, 0.0, 2022-10-21 18:50:47.305
152.0, -105793.53341979187, -146628.02477217017, -67453.18382420347, -126646.81692681515, 32321.985938785787, -78948.30601791215, 21378.884777889823, -123193.65122242585, 0.066, 0.966, 0.04, 192.0, 0.0, 0.0, 0.0, 0.0, 0.0, 0.0, 0.0, 0.0, 0.0, 1.6664034473058739E9, 0.0, 2022-10-21 18:50:47.305
153.0, -105805.06691993082, -146638.1054089195, -67452.98265850337, -126654.05889201867, 32310.25127294675, -78956.84438429409, 21399.47073453316, -123207.10697258795, 0.066, 0.966, 0.04, 192.0, 0.0, 0.0, 0.0, 0.0, 0.0, 0.0, 0.0, 0.0, 0.0, 1.6664034473058898E9, 0.0, 2022-10-21 18:50:47.305
154.0, -105811.90655373414, -146642.97808921078, -67450.00987649082, -126668.56517417017, 32305.512703122226, -78979.01731479375, 21384.204493070185, -123210.34797553396, 0.066, 0.966, 0.04, 192.0, 0.0, 0.0, 0.0, 0.0, 0.0, 0.0, 0.0, 0.0, 0.0, 1.666403447305906E9, 0.0, 2022-10-21 18:50:47.305
155.0, -105815.43812935808, -146642.57575781058, -67442.164414187, -126667.35817996958, 32312.486447392283, -78966.85796581006, 21374.03444934302, -123206.2352545542, 0.066, 0.966, 0.04, 192.0, 0.0, 0.0, 0.0, 0.0, 0.0, 0.0, 0.0, 0.0, 0.0, 1.6664034473059223E9, 0.0, 2022-10-21 18:50:47.305
156.0, -105808.50908857693, -146634.2162053843, -67425.42295758998, -126647.48747914881, 32322.187104485885, -78949.91534351294, 21389.367746039363, -123198.322737017, 0.066, 0.966, 0.04, 192.0, 0.0, 0.0, 0.0, 0.0, 0.0, 0.0, 0.0, 0.0, 0.0, 1.6664034473059387E9, 0.0, 2022-10-21 18:50:47.305
157.0, -105811.23600140048, -146637.68072577487, -67418.98565518686, -126651.66725536196, 32317.35912768354, -78947.56841034513, 21416.033377174543, -123199.66384168433, 0.074, 0.96, 0.036000000000000004, 192.0, 2.0, 80.0, 30.0, 0.0, 1.0, 32.0, 0.0, 0.0, 0.0, 1.6664034473059547E9, 0.0, 2022-10-21 18:50:47.305
158.0, -105814.20878341304, -146635.4679030738, -67416.4152045745, -126674.06370330616, 32310.787714813676, -78971.97651529033, 21401.840019445423, -123198.56860620603, 0.074, 0.96, 0.036000000000000004, 192.0, 0.0, 0.0, 0.0, 0.0, 0.0, 0.0, 0.0, 0.0, 0.0, 1.6664034473059723E9, 0.0, 2022-10-21 18:50:47.305
159.0, -105804.57518155279, -146624.1579203794, -67404.6134835021, -126666.10648228008, 32319.571950384612, -78970.54600364518, 21380.270586046052, -123197.36161200544, 0.074, 0.96, 0.036000000000000004, 192.0, 0.0, 0.0, 0.0, 0.0, 0.0, 0.0, 0.0, 0.0, 0.0, 1.666403447306004E9, 0.0, 2022-10-21 18:50:47.306
160.0, -105810.45369034454, -146635.44555132932, -67410.13436438255, -126664.9441915684, 32309.893645035467, -78969.51782340024, 21383.869216903357, -123210.4373825118, 0.074, 0.96, 0.036000000000000004, 192.0, 0.0, 0.0, 0.0, 0.0, 0.0, 0.0, 0.0, 0.0, 0.0, 1.6664034473060212E9, 0.0, 2022-10-21 18:50:47.306
161.0, -105787.23022785549, -146620.69339998884, -67402.62417824558, -126657.70222636488, 32308.06080199013, -78961.96293377435, 21415.899266707813, -123204.76003942014, 0.074, 0.96, 0.036000000000000004, 192.0, 0.0, 0.0, 0.0, 0.0, 0.0, 0.0, 0.0, 0.0, 0.0, 1.6664034473060367E9, 0.0, 2022-10-21 18:50:47.306
162.0, -105758.39647750813, -146595.25711479867, -67391.33654729564, -126658.19396474291, 32316.01802301622, -78965.65097160947, 21417.57564754196, -123193.24889102567, 0.074, 0.96, 0.036000000000000004, 192.0, 0.0, 0.0, 0.0, 0.0, 0.0, 0.0, 0.0, 0.0, 0.0, 1.6664034473060527E9, 0.0, 2022-10-21 18:50:47.306
163.0, -105760.87752114267, -146590.09386182952, -67387.91673039398, -126661.94905781139, 32316.68857534988, -78973.38467519102, 21392.541693752017, -123191.88543461388, 0.074, 0.96, 0.036000000000000004, 192.0, 0.0, 0.0, 0.0, 0.0, 0.0, 0.0, 0.0, 0.0, 0.0, 1.6664034473060684E9, 0.0, 2022-10-21 18:50:47.306
164.0, -105760.09521008673, -146597.46993749976, -67391.53771299573, -126663.11134852307, 32308.23961594577, -78971.41772167894, 21394.687461219724, -123197.94275736128, 0.074, 0.96, 0.036000000000000004, 192.0, 0.0, 0.0, 0.0, 0.0, 0.0, 0.0, 0.0, 0.0, 0.0, 1.6664034473060842E9, 0.0, 2022-10-21 18:50:47.306
165.0, -105784.52566677639, -146605.11423410347, -67398.98084389935, -126664.85478459059, 32299.924767008397, -78976.55862290367, 21416.972150441667, -123207.62106271042, 0.074, 0.96, 0.036000000000000004, 192.0, 0.0, 0.0, 0.0, 0.0, 0.0, 0.0, 0.0, 0.0, 0.0, 1.6664034473061E9, 0.0, 2022-10-21 18:50:47.306
166.0, -105736.51411968638, -146543.66928859585, -67407.58626551465, -126676.65650566299, 32293.24159541626, -78983.97940206283, 21427.835098246946, -123207.64341445487, 0.07200000000000001, 0.962, 0.036000000000000004, 192.0, 2.0, 64.0, 30.0, 16.0, 1.0, 32.0, 0.0, 0.0, 0.0, 1.6664034473061159E9, 0.0, 2022-10-21 18:50:47.306
167.0, -105706.58513386073, -146515.26022139314, -67400.88074217805, -126681.3056685097, 32299.701249563845, -78993.9482800899, 21407.204438114695, -123189.98553633518, 0.07200000000000001, 0.962, 0.036000000000000004, 192.0, 0.0, 0.0, 0.0, 0.0, 0.0, 0.0, 0.0, 0.0, 0.0, 1.6664034473061326E9, 0.0, 2022-10-21 18:50:47.306
168.0, -105830.4808533765, -146620.33577207755, -67408.72620448186, -126693.39796226002, 32283.496234833747, -79010.6003297091, 21375.04027784351, -123209.1856848223, 0.07200000000000001, 0.962, 0.036000000000000004, 192.0, 0.0, 0.0, 0.0, 0.0, 0.0, 0.0, 0.0, 0.0, 0.0, 1.6664034473061483E9, 0.0, 2022-10-21 18:50:47.306
169.0, -105841.70142909307, -146653.95279573833, -67399.85256193312, -126672.27556374975, 32295.387362883972, -78990.26024225476, 21405.505705536092, -123204.9835568647, 0.07200000000000001, 0.962, 0.036000000000000004, 192.0, 0.0, 0.0, 0.0, 0.0, 0.0, 0.0, 0.0, 0.0, 0.0, 1.6664034473061657E9, 0.0, 2022-10-21 18:50:47.306
170.0, -105830.63731558768, -146631.44458907182, -67402.93710266794, -126663.69249387892, 32302.763438554222, -78982.4371316954, 21435.635857061847, -123203.79891440856, 0.07200000000000001, 0.962, 0.036000000000000004, 192.0, 0.0, 0.0, 0.0, 0.0, 0.0, 0.0, 0.0, 0.0, 0.0, 1.6664034473061817E9, 0.0, 2022-10-21 18:50:47.306
171.0, -105819.46144336004, -146638.44068508633, -67421.17612614347, -126683.07145632166, 32292.459284360324, -79003.60423369458, 21408.00910091509, -123217.94756864877, 0.07200000000000001, 0.962, 0.036000000000000004, 192.0, 0.0, 0.0, 0.0, 0.0, 0.0, 0.0, 0.0, 0.0, 0.0, 1.6664034473061976E9, 0.0, 2022-10-21 18:50:47.306
172.0, -105718.40920667759, -146592.68666418633, -67419.96913194288, -126671.80617711619, 32301.355278653537, -78990.1931870214, 21404.27635959105, -123202.14488531886, 0.07200000000000001, 0.962, 0.036000000000000004, 192.0, 0.0, 0.0, 0.0, 0.0, 0.0, 0.0, 0.0, 0.0, 0.0, 1.6664034473062131E9, 0.0, 2022-10-21 18:50:47.306
173.0, -105732.20023300652, -146611.88681267345, -67414.02356791777, -126660.76441535527, 32301.221168186807, -78983.42060845144, 21420.391967343327, -123193.49476021467, 0.07200000000000001, 0.962, 0.036000000000000004, 192.0, 0.0, 0.0, 0.0, 0.0, 0.0, 0.0, 0.0, 0.0, 0.0, 1.666403447306229E9, 0.0, 2022-10-21 18:50:47.306
174.0, -105831.24081268797, -146660.61361558601, -67400.27724507777, -126654.14829899649, 32305.15507521094, -78993.05421031167, 21419.453194076206, -123192.69009741428, 0.07200000000000001, 0.962, 0.036000000000000004, 192.0, 0.0, 0.0, 0.0, 0.0, 0.0, 0.0, 0.0, 0.0, 0.0, 1.66640344730626E9, 0.0, 2022-10-21 18:50:47.306
175.0, -105871.02691781842, -146670.80601105763, -67397.46092527639, -126666.53116542473, 32303.9257292659, -78995.95993709087, 21408.00910091509, -123198.21097829474, 0.07200000000000001, 0.962, 0.036000000000000004, 192.0, 0.0, 0.0, 0.0, 0.0, 0.0, 0.0, 0.0, 0.0, 0.0, 1.6664034473062763E9, 0.0, 2022-10-21 18:50:47.306
176.0, -105864.5896154153, -146687.39100544347, -67392.94587289642, -126673.77313062825, 32304.5739298551, -79001.10083831559, 21399.984824655632, -123195.19349279327, 0.068, 0.964, 0.032, 192.0, 2.0, 32.0, 30.0, 32.0, 1.0, 0.0, 0.0, 0.0, 0.0, 1.6664034473062923E9, 0.0, 2022-10-21 18:50:47.306
177.0, -105876.32428125433, -146684.97701704229, -67388.90020715001, -126666.7993863582, 32305.892682777965, -78994.66353591246, 21417.86622021988, -123199.21680679523, 0.068, 0.964, 0.032, 192.0, 0.0, 0.0, 0.0, 0.0, 0.0, 0.0, 0.0, 0.0, 0.0, 1.6664034473063087E9, 0.0, 2022-10-21 18:50:47.306
178.0, -105894.38449077422, -146676.28218844917, -67378.46194248939, -126666.8440898471, 32310.74301132477, -78988.78502712071, 21439.212136174698, -123197.71923991673, 0.068, 0.964, 0.032, 192.0, 0.0, 0.0, 0.0, 0.0, 0.0, 0.0, 0.0, 0.0, 0.0, 1.6664034473063245E9, 0.0, 2022-10-21 18:50:47.306
179.0, -105885.22027554754, -146674.31523493712, -67370.12474180755, -126675.74008414031, 32313.96166252633, -78995.1999777794, 21427.47747033566, -123197.78629515009, 0.068, 0.964, 0.032, 192.0, 0.0, 0.0, 0.0, 0.0, 0.0, 0.0, 0.0, 0.0, 0.0, 1.6664034473063405E9, 0.0, 2022-10-21 18:50:47.306
180.0, -105879.45352547808, -146670.31427267962, -67372.2034540419, -126682.53501445473, 32309.804238057644, -79006.84523664061, 21410.758365483092, -123201.85431264095, 0.068, 0.964, 0.032, 192.0, 0.0, 0.0, 0.0, 0.0, 0.0, 0.0, 0.0, 0.0, 0.0, 1.6664034473063524E9, 0.0, 2022-10-21 18:50:47.306
181.0, -105882.96274935755, -146671.36480466902, -67367.50958770628, -126674.8460143621, 32309.804238057644, -79004.90063487299, 21424.281170878552, -123192.66774566982, 0.068, 0.964, 0.032, 192.0, 0.0, 0.0, 0.0, 0.0, 0.0, 0.0, 0.0, 0.0, 0.0, 1.666403447306364E9, 0.0, 2022-10-21 18:50:47.306
182.0, -105889.35534827178, -146674.24817970375, -67366.9507940949, -126672.58848817211, 32305.44564788886, -79013.01431811028, 21447.459929878703, -123196.02050733812, 0.068, 0.964, 0.032, 192.0, 0.0, 0.0, 0.0, 0.0, 0.0, 0.0, 0.0, 0.0, 0.0, 1.666403447306376E9, 0.0, 2022-10-21 18:50:47.306
183.0, -105904.04044437892, -146689.7155868668, -67370.70588716339, -126693.59912796011, 32294.15801693893, -79041.95982717989, 21431.8584122489, -123210.59384472297, 0.068, 0.964, 0.032, 192.0, 0.0, 0.0, 0.0, 0.0, 0.0, 0.0, 0.0, 0.0, 0.0, 1.6664034473063889E9, 0.0, 2022-10-21 18:50:47.306
184.0, -105932.49421507052, -146717.49880522475, -67373.61161394259, -126718.96835791688, 32282.82568250009, -79069.89950774903, 21384.539769237017, -123222.61908323993, 0.068, 0.964, 0.032, 192.0, 0.0, 0.0, 0.0, 0.0, 0.0, 0.0, 0.0, 0.0, 0.0, 1.6664034473064013E9, 0.0, 2022-10-21 18:50:47.306
185.0, -105960.8585787843, -146742.24218633678, -67378.01490760027, -126725.98680567586, 32268.453510815325, -79074.70513280692, 21374.056801087478, -123236.20894386875, 0.068, 0.964, 0.032, 192.0, 0.0, 0.0, 0.0, 0.0, 0.0, 0.0, 0.0, 0.0, 0.0, 1.6664034473064132E9, 0.0, 2022-10-21 18:50:47.306
186.0, -105946.82168326637, -146725.4336745064, -67348.17532875245, -126694.69436343842, 32289.285336647674, -79056.37670235356, 21407.58441777044, -123206.74934467666, 0.076, 0.97, 0.026000000000000002, 192.0, 2.0, 96.0, 30.0, 80.0, 0.0, 208.0, 0.0, 0.0, 0.0, 1.6664034473064249E9, 0.0, 2022-10-21 18:50:47.306
187.0, -105973.10733474582, -146744.25384333776, -67348.06357003016, -126708.15011360051, 32281.663391788414, -79072.17938568347, 21391.826437929445, -123209.3868505224, 0.076, 0.97, 0.026000000000000002, 192.0, 0.0, 0.0, 0.0, 0.0, 0.0, 0.0, 0.0, 0.0, 0.0, 1.6664034473064373E9, 0.0, 2022-10-21 18:50:47.306
188.0, -105981.31042496092, -146753.55216903117, -67328.23757269832, -126706.56313974419, 32294.560348339124, -79066.74791178083, 21377.409562755773, -123201.92136787431, 0.076, 0.97, 0.026000000000000002, 192.0, 0.0, 0.0, 0.0, 0.0, 0.0, 0.0, 0.0, 0.0, 0.0, 1.6664034473064492E9, 0.0, 2022-10-21 18:50:47.306
189.0, -105994.83323035637, -146768.46078258287, -67311.56317133465, -126686.53597671223, 32312.59820611456, -79033.91319917598, 21378.16952206725, -123198.21097829474, 0.076, 0.97, 0.026000000000000002, 192.0, 0.0, 0.0, 0.0, 0.0, 0.0, 0.0, 0.0, 0.0, 0.0, 1.6664034473064716E9, 0.0, 2022-10-21 18:50:47.306
190.0, -106017.87787888979, -146791.52778286074, -67311.18319167891, -126682.31149701017, 32305.847979289054, -79024.81603918267, 21402.890551434823, -123203.66480394184, 0.076, 0.97, 0.026000000000000002, 192.0, 0.0, 0.0, 0.0, 0.0, 0.0, 0.0, 0.0, 0.0, 0.0, 1.6664034473064845E9, 0.0, 2022-10-21 18:50:47.306
191.0, -106041.72719022361, -146809.96797203636, -67321.66615982846, -126700.28229955224, 32289.77707502569, -79044.08324290314, 21402.979958412645, -123215.46652501423, 0.076, 0.97, 0.026000000000000002, 192.0, 0.0, 0.0, 0.0, 0.0, 0.0, 0.0, 0.0, 0.0, 0.0, 1.6664034473064961E9, 0.0, 2022-10-21 18:50:47.306
192.0, -106053.70772525165, -146819.04278028524, -67316.21233418136, -126711.16759910199, 32288.413618613915, -79064.3115716352, 21381.745801180103, -123210.01269936714, 0.076, 0.97, 0.026000000000000002, 192.0, 0.0, 0.0, 0.0, 0.0, 0.0, 0.0, 0.0, 0.0, 0.0, 1.666403447306508E9, 0.0, 2022-10-21 18:50:47.306
193.0, -106054.93707119669, -146815.95823955038, -67300.56611306264, -126687.2512325348, 32306.45147638935, -79053.02394068526, 21381.075248846442, -123189.65026016836, 0.076, 0.97, 0.026000000000000002, 192.0, 0.0, 0.0, 0.0, 0.0, 0.0, 0.0, 0.0, 0.0, 0.0, 1.66640344730652E9, 0.0, 2022-10-21 18:50:47.306
194.0, -106067.56580681395, -146827.98347806736, -67303.87417124203, -126679.09284580861, 32303.322232165607, -79052.59925754061, 21396.006214142588, -123192.75715264764, 0.076, 0.97, 0.026000000000000002, 192.0, 0.0, 0.0, 0.0, 0.0, 0.0, 0.0, 0.0, 0.0, 0.0, 1.666403447306532E9, 0.0, 2022-10-21 18:50:47.306
195.0, -106083.74846979958, -146839.38286773956, -67307.27163639924, -126700.05878210769, 32295.11914195051, -79062.07639718967, 21398.28609207703, -123195.59582419347, 0.076, 0.97, 0.026000000000000002, 192.0, 0.0, 0.0, 0.0, 0.0, 0.0, 0.0, 0.0, 0.0, 0.0, 1.6664034473065436E9, 0.0, 2022-10-21 18:50:47.306
196.0, -106095.70665308317, -146845.8201701427, -67304.72353753133, -126707.47956126685, 32301.73525830928, -79060.7129407779, 21389.412449528274, -123192.578338692, 0.066, 0.9580000000000001, 0.022, 192.0, 2.0, 16.0, 29.0, 240.0, 0.0, 176.0, 0.0, 0.0, 0.0, 1.6664034473065553E9, 0.0, 2022-10-21 18:50:47.306
197.0, -106109.74354860111, -146855.69964119192, -67308.32216838864, -126714.6097677481, 32302.070534476108, -79067.97725772587, 21366.211338783665, -123196.02050733812, 0.066, 0.9580000000000001, 0.022, 192.0, 0.0, 0.0, 0.0, 0.0, 0.0, 0.0, 0.0, 0.0, 0.0, 1.666403447306568E9, 0.0, 2022-10-21 18:50:47.306
198.0, -106122.81931910745, -146865.57911224116, -67313.21720042435, -126716.3085003267, 32294.985031483775, -79072.46995836138, 21355.951888078678, -123205.36353652044, 0.066, 0.9580000000000001, 0.022, 192.0, 0.0, 0.0, 0.0, 0.0, 0.0, 0.0, 0.0, 0.0, 0.0, 1.66640344730658E9, 0.0, 2022-10-21 18:50:47.306
199.0, -106125.27801099754, -146867.41195528652, -67312.5913515796, -126723.57281727467, 32290.62644131499, -79090.48546439236, 21344.753664106567, -123204.11183883094, 0.066, 0.9580000000000001, 0.022, 192.0, 0.0, 0.0, 0.0, 0.0, 0.0, 0.0, 0.0, 0.0, 0.0, 1.6664034473065915E9, 0.0, 2022-10-21 18:50:47.306
200.0, -106131.46944421166, -146869.7141849654, -67311.71963354584, -126728.42314582148, 32291.63226981548, -79100.3202319527, 21322.424271395717, -123204.42476325331, 0.066, 0.9580000000000001, 0.022, 192.0, 0.0, 0.0, 0.0, 0.0, 0.0, 0.0, 0.0, 0.0, 0.0, 1.6664034473066034E9, 0.0, 2022-10-21 18:50:47.306
201.0, -106127.26731625406, -146860.75113543883, -67297.0345374387, -126707.81483743369, 32312.486447392283, -79077.43204563047, 21314.623512580816, -123195.1264375599, 0.066, 0.9580000000000001, 0.022, 192.0, 0.0, 0.0, 0.0, 0.0, 0.0, 0.0, 0.0, 0.0, 0.0, 1.6664034473066156E9, 0.0, 2022-10-21 18:50:47.306
202.0, -106130.03893256652, -146867.47901051986, -67298.88973222849, -126703.2550815648, 32307.703174078844, -79066.23382165836, 21331.208506966654, -123193.2265392812, 0.066, 0.9580000000000001, 0.022, 192.0, 0.0, 0.0, 0.0, 0.0, 0.0, 0.0, 0.0, 0.0, 0.0, 1.6664034473066278E9, 0.0, 2022-10-21 18:50:47.306
203.0, -106135.04572332451, -146870.45179253243, -67301.4825345853, -126702.74099144233, 32296.370839640003, -79071.62059207208, 21359.03642881351, -123203.55304521955, 0.066, 0.9580000000000001, 0.022, 192.0, 0.0, 0.0, 0.0, 0.0, 0.0, 0.0, 0.0, 0.0, 0.0, 1.6664034473066397E9, 0.0, 2022-10-21 18:50:47.306
204.0, -106138.71140941518, -146873.4692780339, -67302.46601134134, -126715.79441020422, 32292.369877382505, -79082.97527825538, 21372.17925455323, -123213.56662673553, 0.066, 0.9580000000000001, 0.022, 192.0, 0.0, 0.0, 0.0, 0.0, 0.0, 0.0, 0.0, 0.0, 0.0, 1.6664034473066835E9, 0.0, 2022-10-21 18:50:47.306
0.0, 0.0, 0.0, 0.0, 0.0, 0.0, 0.0, 0.0, 0.0, 0.068, 0.9560000000000001, 0.026000000000000002, 192.0, 2.0, 32.0, 29.0, 224.0, 0.0, 208.0, 0.0, 0.0, 0.0, 1.6664034473793013E9, 0.0, 2022-10-21 18:50:47.379
1.0, -103090.55931455604, -146673.64468260345, -64820.05892039048, -127062.0452835614, 32683.57010883929, -78015.67948051447, 21824.04212046172, -123116.62711103287, 0.068, 0.9560000000000001, 0.026000000000000002, 192.0, 0.0, 0.0, 0.0, 0.0, 0.0, 0.0, 0.0, 0.0, 0.0, 1.6664034478586702E9, 0.0, 2022-10-21 18:50:47.858
2.0, -103090.08992792248, -146673.53292388117, -64817.86844943386, -127061.71000739456, 32678.83153901476, -78030.58809406616, 21802.204466128882, -123113.11788715338, 0.068, 0.9560000000000001, 0.026000000000000002, 192.0, 0.0, 0.0, 0.0, 0.0, 0.0, 0.0, 0.0, 0.0, 0.0, 1.6664034478587344E9, 0.0, 2022-10-21 18:50:47.858
3.0, -103105.55733508556, -146689.04503453316, -64828.93256293924, -127072.01416158846, 32668.437977843045, -78023.167314907, 21814.94496046841, -123124.67373903678, 0.068, 0.9560000000000001, 0.026000000000000002, 192.0, 0.0, 0.0, 0.0, 0.0, 0.0, 0.0, 0.0, 0.0, 0.0, 1.6664034478587763E9, 0.0, 2022-10-21 18:50:47.858
4.0, -103117.13553871341, -146696.59992415906, -64832.62060077437, -127075.29986802339, 32667.588611553743, -78004.70477398692, 21838.347236913116, -123128.09355593844, 0.068, 0.9560000000000001, 0.026000000000000002, 192.0, 0.0, 0.0, 0.0, 0.0, 0.0, 0.0, 0.0, 0.0, 0.0, 1.6664034478588147E9, 0.0, 2022-10-21 18:50:47.858
5.0, -103104.84207926299, -146684.86525832, -64819.656588990285, -127078.9432023696, 32677.535137836356, -78009.68921300044, 21830.971161242862, -123118.50465756711, 0.068, 0.9560000000000001, 0.026000000000000002, 192.0, 0.0, 0.0, 0.0, 0.0, 0.0, 0.0, 0.0, 0.0, 0.0, 1.6664034478588383E9, 0.0, 2022-10-21 18:50:47.858
6.0, -103097.66716929284, -146678.13738323897, -64817.10849012238, -127076.08217907933, 32683.033666972362, -78000.32383207367, 21816.107251180085, -123118.14702965583, 0.068, 0.9560000000000001, 0.026000000000000002, 192.0, 0.0, 0.0, 0.0, 0.0, 0.0, 0.0, 0.0, 0.0, 0.0, 1.666403447858861E9, 0.0, 2022-10-21 18:50:47.858
7.0, -103101.84694550598, -146680.52901989568, -64821.95881866918, -127072.55060345538, 32676.082274446762, -77992.14309360304, 21830.18885018693, -123123.1091169249, 0.06, 0.9520000000000001, 0.032, 192.0, 1.0, 224.0, 29.0, 192.0, 1.0, 0.0, 0.0, 0.0, 0.0, 1.6664034478588777E9, 0.0, 2022-10-21 18:50:47.858
8.0, -103091.83336399, -146669.37549941248, -64810.82764993044, -127060.77123412745, 32685.872338518184, -77981.81658766468, 21851.71358009739, -123108.28991035104, 0.06, 0.9520000000000001, 0.032, 192.0, 0.0, 0.0, 0.0, 0.0, 0.0, 0.0, 0.0, 0.0, 0.0, 1.6664034478588943E9, 0.0, 2022-10-21 18:50:47.858
9.0, -103088.70411976626, -146671.61067385803, -64815.320350565955, -127072.70706566657, 32687.32520190778, -77986.82337842266, 21845.36568467208, -123107.1052678949, 0.06, 0.9520000000000001, 0.032, 192.0, 0.0, 0.0, 0.0, 0.0, 0.0, 0.0, 0.0, 0.0, 0.0, 1.6664034478589098E9, 0.0, 2022-10-21 18:50:47.858
10.0, -103089.86641047793, -146671.14128722445, -64821.35532156889, -127083.68177219413, 32683.972440239486, -77995.54055876024, 21820.488193093326, -123113.92254995377, 0.06, 0.9520000000000001, 0.032, 192.0, 0.0, 0.0, 0.0, 0.0, 0.0, 0.0, 0.0, 0.0, 0.0, 1.666403447858925E9, 0.0, 2022-10-21 18:50:47.858
11.0, -103100.59524781648, -146671.78948781366, -64823.94812392571, -127075.05399883438, 32682.251355916425, -77985.14699758853, 21825.494983851313, -123123.44439309173, 0.06, 0.9520000000000001, 0.032, 192.0, 0.0, 0.0, 0.0, 0.0, 0.0, 0.0, 0.0, 0.0, 0.0, 1.6664034478589408E9, 0.0, 2022-10-21 18:50:47.858
12.0, -103115.86148927946, -146686.9216188099, -64826.160946626784, -127080.15019657019, 32673.534175578854, -77985.37051503308, 21840.448300891912, -123118.48230582266, 0.06, 0.9520000000000001, 0.032, 192.0, 0.0, 0.0, 0.0, 0.0, 0.0, 0.0, 0.0, 0.0, 0.0, 1.6664034478589566E9, 0.0, 2022-10-21 18:50:47.858
13.0, -103099.99175071619, -146674.18112447037, -64814.18041159873, -127077.08800757982, 32684.084198961762, -77976.94390737342, 21852.98762953134, -123113.34140459793, 0.06, 0.9520000000000001, 0.032, 192.0, 0.0, 0.0, 0.0, 0.0, 0.0, 0.0, 0.0, 0.0, 0.0, 1.6664034478589723E9, 0.0, 2022-10-21 18:50:47.858
14.0, -103106.16083218585, -146680.30550245114, -64828.753748983596, -127091.1472548422, 32672.84127150074, -77991.7631139473, 21826.344350140615, -123122.95265471372, 0.06, 0.9520000000000001, 0.032, 192.0, 0.0, 0.0, 0.0, 0.0, 0.0, 0.0, 0.0, 0.0, 0.0, 1.6664034478589876E9, 0.0, 2022-10-21 18:50:47.858
15.0, -103089.17350639982, -146659.7642492967, -64808.21249582917, -127070.27072552094, 32692.22023394349, -77976.83214865114, 21828.221896674862, -123100.24328234713, 0.06, 0.9520000000000001, 0.032, 192.0, 0.0, 0.0, 0.0, 0.0, 0.0, 0.0, 0.0, 0.0, 0.0, 1.666403447859072E9, 0.0, 2022-10-21 18:50:47.859
16.0, -103094.87320123593, -146663.45228713183, -64808.10073710689, -127058.87133584874, 32692.957841510517, -77959.53189844274, 21854.61930687658, -123100.98088991415, 0.06, 0.9520000000000001, 0.032, 192.0, 0.0, 0.0, 0.0, 0.0, 0.0, 0.0, 0.0, 0.0, 0.0, 1.6664034478590875E9, 0.0, 2022-10-21 18:50:47.859
17.0, -103092.70508202376, -146662.89349352045, -64812.48167902013, -127069.77898714293, 32688.50984436391, -77977.27918354025, 21850.864213808087, -123099.23745384664, 0.06, 0.96, 0.038, 192.0, 1.0, 224.0, 30.0, 0.0, 1.0, 48.0, 0.0, 0.0, 0.0, 1.6664034478591032E9, 0.0, 2022-10-21 18:50:47.859
18.0, -103105.26676240764, -146675.29871169315, -64831.16773738477, -127100.84791193581, 32671.053131944318, -77988.07507611216, 21828.13248969704, -123121.87977097987, 0.06, 0.96, 0.038, 192.0, 0.0, 0.0, 0.0, 0.0, 0.0, 0.0, 0.0, 0.0, 0.0, 1.6664034478591194E9, 0.0, 2022-10-21 18:50:47.859
19.0, -103107.54664034209, -146674.94108378186, -64828.86550770587, -127102.56899625887, 32671.164890666594, -77983.31415454319, 21826.45610886289, -123126.8642099934, 0.06, 0.96, 0.038, 192.0, 0.0, 0.0, 0.0, 0.0, 0.0, 0.0, 0.0, 0.0, 0.0, 1.666403447859135E9, 0.0, 2022-10-21 18:50:47.859
20.0, -103101.0869861945, -146666.20155169984, -64817.24260058911, -127081.42424600414, 32687.168739696594, -77951.64173265001, 21862.442417435937, -123109.4074975738, 0.06, 0.96, 0.038, 192.0, 0.0, 0.0, 0.0, 0.0, 0.0, 0.0, 0.0, 0.0, 0.0, 1.6664034478591502E9, 0.0, 2022-10-21 18:50:47.859
21.0, -103095.94608496978, -146660.59126384155, -64814.40392904329, -127078.71968492505, 32689.33685890876, -77951.52997392774, 21872.768923374286, -123103.61839575987, 0.06, 0.96, 0.038, 192.0, 0.0, 0.0, 0.0, 0.0, 0.0, 0.0, 0.0, 0.0, 0.0, 1.6664034478591661E9, 0.0, 2022-10-21 18:50:47.859
22.0, -103096.52723032562, -146662.33469990906, -64816.862620933374, -127096.84694967831, 32683.033666972362, -77974.10523582759, 21841.007094503297, -123110.77095398557, 0.06, 0.96, 0.038, 192.0, 0.0, 0.0, 0.0, 0.0, 0.0, 0.0, 0.0, 0.0, 0.0, 1.666403447859182E9, 0.0, 2022-10-21 18:50:47.859
23.0, -103098.1365559264, -146665.08396447706, -64824.19399311471, -127103.23954859252, 32675.18820466855, -77986.66691621148, 21809.826410988142, -123119.93516921224, 0.06, 0.96, 0.038, 192.0, 0.0, 0.0, 0.0, 0.0, 0.0, 0.0, 0.0, 0.0, 0.0, 1.6664034478591971E9, 0.0, 2022-10-21 18:50:47.859
24.0, -103114.00629448966, -146679.72435709529, -64837.53798455453, -127111.53204578544, 32662.47006207348, -77985.19170107743, 21810.765184255266, -123128.65234954983, 0.06, 0.96, 0.038, 192.0, 0.0, 0.0, 0.0, 0.0, 0.0, 0.0, 0.0, 0.0, 0.0, 1.6664034478592129E9, 0.0, 2022-10-21 18:50:47.859
25.0, -103097.22013440373, -146664.94985401034, -64820.19303085721, -127089.91790889716, 32683.70421930602, -77955.82150886316, 21843.197565459915, -123114.6601575208, 0.06, 0.96, 0.038, 192.0, 0.0, 0.0, 0.0, 0.0, 0.0, 0.0, 0.0, 0.0, 0.0, 1.6664034478592281E9, 0.0, 2022-10-21 18:50:47.859
26.0, -103096.66134079234, -146663.9663772543, -64819.388368056825, -127094.9470513996, 32684.017143728393, -77954.7039216404, 21843.912821282487, -123115.64363427683, 0.06, 0.96, 0.038, 192.0, 0.0, 0.0, 0.0, 0.0, 0.0, 0.0, 0.0, 0.0, 0.0, 1.6664034478592434E9, 0.0, 2022-10-21 18:50:47.859
27.0, -103096.79545125908, -146664.50281912123, -64817.75669071158, -127099.28328982393, 32684.888861762152, -77961.72236939936, 21825.137355940027, -123109.67571850726, 0.058, 0.9520000000000001, 0.038, 192.0, 1.0, 208.0, 29.0, 192.0, 1.0, 48.0, 0.0, 0.0, 0.0, 1.6664034478592587E9, 0.0, 2022-10-21 18:50:47.859
28.0, -103101.15404142786, -146669.30844417913, -64821.42237680226, -127096.46697002256, 32678.697428548032, -77965.94684910141, 21830.255905420294, -123119.91281746779, 0.058, 0.9520000000000001, 0.038, 192.0, 0.0, 0.0, 0.0, 0.0, 0.0, 0.0, 0.0, 0.0, 0.0, 1.6664034478592803E9, 0.0, 2022-10-21 18:50:47.859
29.0, -103097.7789280151, -146664.03343248766, -64813.66632147627, -127092.8012839319, 32689.38156239767, -77960.4036164765, 21853.591126631633, -123118.59406454493, 0.058, 0.9520000000000001, 0.038, 192.0, 0.0, 0.0, 0.0, 0.0, 0.0, 0.0, 0.0, 0.0, 0.0, 1.6664034478592956E9, 0.0, 2022-10-21 18:50:47.859
30.0, -103101.15404142786, -146665.84392378855, -64813.375748798346, -127094.0976851103, 32696.645879345644, -77962.14705254401, 21847.84672830662, -123106.8593987059, 0.058, 0.9520000000000001, 0.038, 192.0, 0.0, 0.0, 0.0, 0.0, 0.0, 0.0, 0.0, 0.0, 0.0, 1.6664034478593266E9, 0.0, 2022-10-21 18:50:47.859
31.0, -103100.99757921668, -146664.83809528805, -64813.241638331616, -127095.05881012187, 32699.484550891466, -77963.89048861152, 21828.825393775154, -123108.37931732886, 0.058, 0.9520000000000001, 0.038, 192.0, 0.0, 0.0, 0.0, 0.0, 0.0, 0.0, 0.0, 0.0, 0.0, 1.666403447859342E9, 0.0, 2022-10-21 18:50:47.859
32.0, -103103.45627110676, -146667.25208368924, -64814.8509639324, -127088.1521210852, 32702.971423026494, -77943.93038081293, 21833.02752173275, -123106.59117777244, 0.058, 0.9520000000000001, 0.038, 192.0, 0.0, 0.0, 0.0, 0.0, 0.0, 0.0, 0.0, 0.0, 0.0, 1.6664034478593564E9, 0.0, 2022-10-21 18:50:47.859
33.0, -103104.79737577408, -146667.83322904506, -64816.3485308109, -127088.86737690776, 32700.959766025517, -77937.82835457663, 21852.093559753128, -123114.57075054297, 0.058, 0.9520000000000001, 0.038, 192.0, 0.0, 0.0, 0.0, 0.0, 0.0, 0.0, 0.0, 0.0, 0.0, 1.6664034478593717E9, 0.0, 2022-10-21 18:50:47.859
34.0, -103102.22692516171, -146662.28999642015, -64815.16388835477, -127085.73813268401, 32705.474818405488, -77938.38714818802, 21851.244193463826, -123116.24713137712, 0.058, 0.9520000000000001, 0.038, 192.0, 0.0, 0.0, 0.0, 0.0, 0.0, 0.0, 0.0, 0.0, 0.0, 1.6664034478593867E9, 0.0, 2022-10-21 18:50:47.859
35.0, -103102.94218098429, -146665.97803425527, -64819.097795378904, -127097.09281886731, 32702.52438813739, -77949.13833727103, 21832.938114754932, -123109.89923595182, 0.058, 0.9520000000000001, 0.038, 192.0, 0.0, 0.0, 0.0, 0.0, 0.0, 0.0, 0.0, 0.0, 0.0, 1.6664034478594017E9, 0.0, 2022-10-21 18:50:47.859
36.0, -103120.48830038171, -146684.5746856421, -64836.64391477632, -127107.44167655012, 32687.571071096787, -77954.88273559604, 21822.74571928331, -123118.79523024503, 0.058, 0.9520000000000001, 0.038, 192.0, 0.0, 0.0, 0.0, 0.0, 0.0, 0.0, 0.0, 0.0, 0.0, 1.666403447859419E9, 0.0, 2022-10-21 18:50:47.859
37.0, -103123.95282077228, -146684.10529900854, -64835.526327553554, -127104.60300500429, 32688.174568197082, -77940.44350867791, 21853.099388253617, -123114.4589918207, 0.062, 0.9500000000000001, 0.04, 192.0, 1.0, 240.0, 29.0, 176.0, 1.0, 64.0, 0.0, 0.0, 0.0, 1.6664034478594348E9, 0.0, 2022-10-21 18:50:47.859
38.0, -103118.43193989182, -146676.41629891592, -64829.871336206365, -127109.60979576228, 32692.913138021606, -77948.22191574835, 21849.411350418493, -123114.34723309842, 0.062, 0.9500000000000001, 0.04, 192.0, 0.0, 0.0, 0.0, 0.0, 0.0, 0.0, 0.0, 0.0, 0.0, 1.6664034478594508E9, 0.0, 2022-10-21 18:50:47.859
39.0, -103102.36103562845, -146662.44645863134, -64818.047263389504, -127107.79930446141, 32703.865492804707, -77957.34142748611, 21827.216068174374, -123107.12761963936, 0.062, 0.9500000000000001, 0.04, 192.0, 0.0, 0.0, 0.0, 0.0, 0.0, 0.0, 0.0, 0.0, 0.0, 1.6664034478594658E9, 0.0, 2022-10-21 18:50:47.859
40.0, -103102.47279435073, -146662.55821735362, -64813.15223135379, -127091.5942897313, 32711.66625161961, -77945.91968606945, 21825.718501295865, -123103.59604401542, 0.062, 0.9500000000000001, 0.04, 192.0, 0.0, 0.0, 0.0, 0.0, 0.0, 0.0, 0.0, 0.0, 0.0, 1.666403447859481E9, 0.0, 2022-10-21 18:50:47.859
41.0, -103108.53011709811, -146664.23459818776, -64815.96855115516, -127089.56028098587, 32710.258091718926, -77934.07326150815, 21842.7058270819, -123102.74667772611, 0.062, 0.9500000000000001, 0.04, 192.0, 0.0, 0.0, 0.0, 0.0, 0.0, 0.0, 0.0, 0.0, 0.0, 1.6664034478594964E9, 0.0, 2022-10-21 18:50:47.859
42.0, -103128.06554175205, -146686.18401124288, -64837.09094966543, -127120.49509531201, 32685.335896651257, -77948.33367447063, 21841.297667181214, -123124.02553844757, 0.062, 0.9500000000000001, 0.04, 192.0, 0.0, 0.0, 0.0, 0.0, 0.0, 0.0, 0.0, 0.0, 0.0, 1.6664034478595111E9, 0.0, 2022-10-21 18:50:47.859
43.0, -103117.02377999113, -146675.72339483778, -64831.03362691804, -127122.12677265726, 32693.89661477764, -77952.35698847259, 21836.89437352352, -123110.14510514082, 0.062, 0.9500000000000001, 0.04, 192.0, 0.0, 0.0, 0.0, 0.0, 0.0, 0.0, 0.0, 0.0, 0.0, 1.6664034478595264E9, 0.0, 2022-10-21 18:50:47.859
44.0, -103104.05976820705, -146662.0217754867, -64814.8509639324, -127105.13944687122, 32711.196864986046, -77939.66119762197, 21837.162594456982, -123082.92068039427, 0.062, 0.9500000000000001, 0.04, 192.0, 0.0, 0.0, 0.0, 0.0, 0.0, 0.0, 0.0, 0.0, 0.0, 1.6664034478595417E9, 0.0, 2022-10-21 18:50:47.859
45.0, -103112.10639621096, -146672.03535700266, -64826.89855419381, -127103.32895557034, 32699.953937525028, -77930.9440172844, 21852.026504519763, -123092.01784038758, 0.062, 0.9500000000000001, 0.04, 192.0, 0.0, 0.0, 0.0, 0.0, 0.0, 0.0, 0.0, 0.0, 0.0, 1.6664034478595705E9, 0.0, 2022-10-21 18:50:47.859
46.0, -103125.18216671732, -146680.97605478478, -64835.056940919996, -127121.79149649043, 32687.727533307974, -77946.88081108104, 21853.79229233173, -123117.76705000008, 0.062, 0.9580000000000001, 0.046, 192.0, 1.0, 240.0, 29.0, 240.0, 1.0, 112.0, 0.0, 0.0, 0.0, 1.6664034478595858E9, 0.0, 2022-10-21 18:50:47.859
47.0, -103136.6933151118, -146689.3132554666, -64834.006408930596, -127125.99362444802, 32690.633260087165, -77942.90220056799, 21848.450225406912, -123123.17617215827, 0.062, 0.9580000000000001, 0.046, 192.0, 0.0, 0.0, 0.0, 0.0, 0.0, 0.0, 0.0, 0.0, 0.0, 1.6664034478596017E9, 0.0, 2022-10-21 18:50:47.859
48.0, -103133.67582961034, -146683.68061586388, -64826.652685004796, -127122.79732499091, 32698.277556690882, -77936.1966772314, 21834.815661289176, -123113.92254995377, 0.062, 0.9580000000000001, 0.046, 192.0, 0.0, 0.0, 0.0, 0.0, 0.0, 0.0, 0.0, 0.0, 0.0, 1.6664034478596168E9, 0.0, 2022-10-21 18:50:47.859
49.0, -103116.46498637975, -146665.73216506626, -64812.191106342216, -127104.84887419331, 32709.833408574275, -77918.27057817824, 21858.75437960081, -123101.04794514751, 0.062, 0.9580000000000001, 0.046, 192.0, 0.0, 0.0, 0.0, 0.0, 0.0, 0.0, 0.0, 0.0, 0.0, 1.6664034478596363E9, 0.0, 2022-10-21 18:50:47.859
50.0, -103123.50578588317, -146675.99161577126, -64817.421414544755, -127105.09474338232, 32707.84410331775, -77918.7399648118, 21876.4122577205, -123102.47845679265, 0.062, 0.9580000000000001, 0.046, 192.0, 0.0, 0.0, 0.0, 0.0, 0.0, 0.0, 0.0, 0.0, 0.0, 1.6664034478596523E9, 0.0, 2022-10-21 18:50:47.859
51.0, -103127.6408586074, -146681.35603444054, -64822.22703960264, -127108.82748470634, 32709.565187640812, -77926.45131664889, 21863.60470814761, -123111.19563713022, 0.062, 0.9580000000000001, 0.046, 192.0, 0.0, 0.0, 0.0, 0.0, 0.0, 0.0, 0.0, 0.0, 0.0, 1.6664034478596673E9, 0.0, 2022-10-21 18:50:47.859
52.0, -103110.29590491009, -146664.03343248766, -64805.97732138364, -127090.253185064, 32727.71480413852, -77919.27640667873, 21855.558080143703, -123092.3531165544, 0.062, 0.9580000000000001, 0.046, 192.0, 0.0, 0.0, 0.0, 0.0, 0.0, 0.0, 0.0, 0.0, 0.0, 1.6664034478596823E9, 0.0, 2022-10-21 18:50:47.859
53.0, -103116.01795149065, -146670.42603140188, -64808.57012374046, -127091.88486240922, 32724.652615148145, -77910.11219145205, 21858.95554530091, -123093.2024828437, 0.062, 0.9580000000000001, 0.046, 192.0, 0.0, 0.0, 0.0, 0.0, 0.0, 0.0, 0.0, 0.0, 0.0, 1.666403447859697E9, 0.0, 2022-10-21 18:50:47.859
54.0, -103135.41926567785, -146691.3696159565, -64825.1998216152, -127105.89940618271, 32709.632242874177, -77913.39789788699, 21871.919557084984, -123103.9089684378, 0.062, 0.9580000000000001, 0.046, 192.0, 0.0, 0.0, 0.0, 0.0, 0.0, 0.0, 0.0, 0.0, 0.0, 1.6664034478597121E9, 0.0, 2022-10-21 18:50:47.859
55.0, -103147.57861466154, -146703.03722656218, -64839.01319968858, -127123.31141511339, 32699.931585780574, -77926.98775851581, 21869.125589028074, -123117.65529127781, 0.062, 0.9580000000000001, 0.046, 192.0, 0.0, 0.0, 0.0, 0.0, 0.0, 0.0, 0.0, 0.0, 0.0, 1.6664034478597271E9, 0.0, 2022-10-21 18:50:47.859
56.0, -103134.01110577716, -146686.42988043188, -64827.278533849545, -127120.96448194559, 32710.347498696745, -77933.13448824102, 21859.223766234372, -123113.27434936457, 0.062, 0.9580000000000001, 0.048, 192.0, 1.0, 240.0, 29.0, 240.0, 1.0, 128.0, 0.0, 0.0, 0.0, 1.6664034478597424E9, 0.0, 2022-10-21 18:50:47.859
57.0, -103125.83036730652, -146680.3725576845, -64818.91898142326, -127108.08987713933, 32716.65069063314, -77929.8487818061, 21853.144091742528, -123110.18980862973, 0.062, 0.9580000000000001, 0.048, 192.0, 0.0, 0.0, 0.0, 0.0, 0.0, 0.0, 0.0, 0.0, 0.0, 1.6664034478597581E9, 0.0, 2022-10-21 18:50:47.859
58.0, -103151.37841121893, -146704.7359591408, -64843.19297590172, -127123.04319417992, 32696.444713645546, -77934.2967789527, 21863.492949425334, -123130.7087100397, 0.062, 0.9580000000000001, 0.048, 192.0, 0.0, 0.0, 0.0, 0.0, 0.0, 0.0, 0.0, 0.0, 0.0, 1.6664034478597732E9, 0.0, 2022-10-21 18:50:47.859
59.0, -103150.84196935201, -146700.75734862773, -64841.896574723316, -127126.61947329277, 32703.53021663788, -77933.53681964122, 21866.108103526607, -123125.36664311489, 0.062, 0.9580000000000001, 0.048, 192.0, 0.0, 0.0, 0.0, 0.0, 0.0, 0.0, 0.0, 0.0, 0.0, 1.666403447859788E9, 0.0, 2022-10-21 18:50:47.859
60.0, -103130.12190224194, -146677.17625822738, -64822.11528088037, -127108.38044981724, 32721.85864709123, -77916.21421768835, 21867.203339004915, -123107.64170976183, 0.062, 0.9580000000000001, 0.048, 192.0, 0.0, 0.0, 0.0, 0.0, 0.0, 0.0, 0.0, 0.0, 0.0, 1.6664034478598168E9, 0.0, 2022-10-21 18:50:47.859
61.0, -103127.39498941839, -146679.23261871727, -64820.64006574632, -127105.63118524924, 32722.305681980335, -77915.29779616569, 21864.387019203547, -123100.8020759585, 0.062, 0.9580000000000001, 0.048, 192.0, 0.0, 0.0, 0.0, 0.0, 0.0, 0.0, 0.0, 0.0, 0.0, 1.6664034478598323E9, 0.0, 2022-10-21 18:50:47.859
62.0, -103132.31237319855, -146685.7146246093, -64824.57397277046, -127103.03838289242, 32718.058850533827, -77907.9887757288, 21890.04682183824, -123098.9021776798, 0.062, 0.9580000000000001, 0.048, 192.0, 0.0, 0.0, 0.0, 0.0, 0.0, 0.0, 0.0, 0.0, 0.0, 1.666403447859848E9, 0.0, 2022-10-21 18:50:47.859
63.0, -103134.16756798835, -146683.59120888606, -64828.12790013885, -127114.750696987, 32713.096763264748, -77919.11994446754, 21890.20328404943, -123105.07125914947, 0.062, 0.9580000000000001, 0.048, 192.0, 0.0, 0.0, 0.0, 0.0, 0.0, 0.0, 0.0, 0.0, 0.0, 1.6664034478598635E9, 0.0, 2022-10-21 18:50:47.859
64.0, -103131.01597202015, -146679.92552279538, -64832.3523798409, -127125.99362444802, 32710.638071374666, -77922.80798230266, 21870.533748928756, -123113.49786680912, 0.062, 0.9580000000000001, 0.048, 192.0, 0.0, 0.0, 0.0, 0.0, 0.0, 0.0, 0.0, 0.0, 0.0, 1.666403447859879E9, 0.0, 2022-10-21 18:50:47.859
65.0, -103132.62529762094, -146683.68061586388, -64836.97919094315, -127126.08303142585, 32704.55839688282, -77912.86145602005, 21875.3617257311, -123122.50561982462, 0.062, 0.9580000000000001, 0.048, 192.0, 0.0, 0.0, 0.0, 0.0, 0.0, 0.0, 0.0, 0.0, 0.0, 1.666403447859894E9, 0.0, 2022-10-21 18:50:47.859
66.0, -103135.17339648884, -146688.1733164994, -64834.967533942174, -127121.23270287905, 32699.216329958002, -77913.06262172015, 21899.769830676298, -123113.65432902031, 0.058, 0.9540000000000001, 0.044, 192.0, 1.0, 208.0, 29.0, 208.0, 1.0, 96.0, 0.0, 0.0, 0.0, 1.6664034478599093E9, 0.0, 2022-10-21 18:50:47.859
67.0, -103137.07329476754, -146690.3190839671, -64840.153138655805, -127123.7584500025, 32693.315469421803, -77926.71953758235, 21906.922388901996, -123114.4589918207, 0.058, 0.9540000000000001, 0.044, 192.0, 0.0, 0.0, 0.0, 0.0, 0.0, 0.0, 0.0, 0.0, 0.0, 1.6664034478599253E9, 0.0, 2022-10-21 18:50:47.859
68.0, -103129.51840514164, -146682.7641943412, -64837.068597920974, -127131.1568774172, 32698.098742735237, -77941.24817147829, 21875.495836197835, -123111.7097272527, 0.058, 0.9540000000000001, 0.044, 192.0, 0.0, 0.0, 0.0, 0.0, 0.0, 0.0, 0.0, 0.0, 0.0, 1.6664034478599403E9, 0.0, 2022-10-21 18:50:47.859
69.0, -103143.28707972611, -146695.45998519182, -64849.02678120456, -127143.04800546743, 32688.778065297374, -77934.98968303081, 21861.727161613366, -123127.3112448825, 0.058, 0.9540000000000001, 0.044, 192.0, 0.0, 0.0, 0.0, 0.0, 0.0, 0.0, 0.0, 0.0, 0.0, 1.6664034478599553E9, 0.0, 2022-10-21 18:50:47.859
70.0, -103152.31718448606, -146706.30058125267, -64857.475740608665, -127146.71369155809, 32677.311620391803, -77928.5970841166, 21884.458885724413, -123138.53182059906, 0.058, 0.9540000000000001, 0.044, 192.0, 0.0, 0.0, 0.0, 0.0, 0.0, 0.0, 0.0, 0.0, 0.0, 1.6664034478599713E9, 0.0, 2022-10-21 18:50:47.859
71.0, -103138.48145466823, -146690.40849094494, -64840.46606307818, -127136.00720596401, 32694.745981066942, -77918.56115085616, 21910.006929636827, -123115.06248892099, 0.058, 0.9540000000000001, 0.044, 192.0, 0.0, 0.0, 0.0, 0.0, 0.0, 0.0, 0.0, 0.0, 0.0, 1.6664034478599863E9, 0.0, 2022-10-21 18:50:47.859
72.0, -103134.16756798835, -146686.63104613198, -64841.538946812034, -127142.73508104504, 32697.94228052405, -77918.22587468933, 21902.34028128866, -123109.58631152945, 0.058, 0.9540000000000001, 0.044, 192.0, 0.0, 0.0, 0.0, 0.0, 0.0, 0.0, 0.0, 0.0, 0.0, 1.666403447860001E9, 0.0, 2022-10-21 18:50:47.860
73.0, -103134.21227147726, -146687.25689497674, -64845.2046329027, -127141.50573510001, 32702.591443370755, -77926.40661315997, 21875.674650153476, -123116.11302091039, 0.058, 0.9540000000000001, 0.044, 192.0, 0.0, 0.0, 0.0, 0.0, 0.0, 0.0, 0.0, 0.0, 0.0, 1.6664034478600163E9, 0.0, 2022-10-21 18:50:47.860
74.0, -103140.82838783604, -146692.19663050136, -64846.34457186992, -127126.82063899287, 32700.80330381433, -77917.55532235568, 21889.353917760127, -123115.46482032118, 0.058, 0.9540000000000001, 0.044, 192.0, 0.0, 0.0, 0.0, 0.0, 0.0, 0.0, 0.0, 0.0, 0.0, 1.6664034478600314E9, 0.0, 2022-10-21 18:50:47.860
75.0, -103150.41728620736, -146701.5173079392, -64860.09089470994, -127137.92945598716, 32691.79555079884, -77921.98096775782, 21905.134249345574, -123111.66502376378, 0.058, 0.96, 0.048, 192.0, 1.0, 208.0, 30.0, 0.0, 1.0, 128.0, 0.0, 0.0, 0.0, 1.66640344786006E9, 0.0, 2022-10-21 18:50:47.860
76.0, -103134.74871334419, -146689.38031069998, -64854.190034173735, -127141.52808684447, 32700.155103225126, -77923.67970033642, 21897.735821930866, -123101.87495969236, 0.058, 0.96, 0.048, 192.0, 0.0, 0.0, 0.0, 0.0, 0.0, 0.0, 0.0, 0.0, 0.0, 1.6664034478600762E9, 0.0, 2022-10-21 18:50:47.860
77.0, -103120.17537595933, -146678.67382510589, -64832.68765600773, -127131.7603745175, 32715.33193771028, -77924.35025267009, 21888.795124148743, -123094.63299448884, 0.058, 0.96, 0.048, 192.0, 0.0, 0.0, 0.0, 0.0, 0.0, 0.0, 0.0, 0.0, 0.0, 1.6664034478600917E9, 0.0, 2022-10-21 18:50:47.860
78.0, -103125.96447777325, -146682.09364200756, -64826.4515193047, -127112.78374347494, 32725.032594803884, -77900.61270005855, 21901.446211510447, -123100.69031723624, 0.058, 0.96, 0.048, 192.0, 0.0, 0.0, 0.0, 0.0, 0.0, 0.0, 0.0, 0.0, 0.0, 1.6664034478601067E9, 0.0, 2022-10-21 18:50:47.860
79.0, -103129.87603305293, -146691.30256072315, -64838.342647354926, -127121.41151683469, 32715.220178988002, -77898.86926399103, 21923.507383287833, -123112.313224353, 0.058, 0.96, 0.048, 192.0, 0.0, 0.0, 0.0, 0.0, 0.0, 0.0, 0.0, 0.0, 0.0, 1.6664034478601215E9, 0.0, 2022-10-21 18:50:47.860
80.0, -103140.15783550237, -146693.13540376848, -64847.21628990368, -127131.9615402176, 32714.66138537662, -77905.75360128327, 21920.065214641716, -123115.75539299911, 0.058, 0.96, 0.048, 192.0, 0.0, 0.0, 0.0, 0.0, 0.0, 0.0, 0.0, 0.0, 0.0, 1.6664034478601365E9, 0.0, 2022-10-21 18:50:47.860
81.0, -103135.12869299993, -146687.54746765466, -64844.51172882459, -127127.5582465599, 32721.36690871321, -77906.96059548386, 21915.460755283922, -123102.12082888137, 0.058, 0.96, 0.048, 192.0, 0.0, 0.0, 0.0, 0.0, 0.0, 0.0, 0.0, 0.0, 0.0, 1.6664034478601513E9, 0.0, 2022-10-21 18:50:47.860
82.0, -103139.35317270199, -146684.23940947527, -64846.724551525665, -127140.23168566606, 32715.80132434384, -77923.25501719177, 21898.696946942444, -123115.35306159891, 0.058, 0.96, 0.048, 192.0, 0.0, 0.0, 0.0, 0.0, 0.0, 0.0, 0.0, 0.0, 0.0, 1.6664034478601663E9, 0.0, 2022-10-21 18:50:47.860
83.0, -103144.13644601541, -146681.0654617626, -64840.39900784481, -127129.63695879425, 32725.725498882, -77902.69141229289, 21918.299426829748, -123114.50369530961, 0.058, 0.96, 0.048, 192.0, 0.0, 0.0, 0.0, 0.0, 0.0, 0.0, 0.0, 0.0, 0.0, 1.666403447860181E9, 0.0, 2022-10-21 18:50:47.860
84.0, -103142.9965070482, -146682.04893851865, -64837.917964210275, -127132.72149952907, 32731.805173373843, -77896.43292384541, 21927.687159500976, -123100.8020759585, 0.058, 0.96, 0.048, 192.0, 0.0, 0.0, 0.0, 0.0, 0.0, 0.0, 0.0, 0.0, 0.0, 1.666403447860196E9, 0.0, 2022-10-21 18:50:47.860
85.0, -103140.38135294693, -146677.10920299403, -64834.09581590841, -127135.24724665252, 32733.839182119274, -77898.26576689075, 21910.47631627039, -123102.67962249275, 0.058, 0.9460000000000001, 0.044, 192.0, 1.0, 208.0, 29.0, 144.0, 1.0, 96.0, 0.0, 0.0, 0.0, 1.666403447860211E9, 0.0, 2022-10-21 18:50:47.860
86.0, -103133.56407088805, -146671.99065351376, -64825.42333905976, -127124.6525197807, 32739.695339166563, -77882.46308356084, 21925.29552284426, -123086.72047695167, 0.058, 0.9460000000000001, 0.044, 192.0, 0.0, 0.0, 0.0, 0.0, 0.0, 0.0, 0.0, 0.0, 0.0, 1.6664034478602269E9, 0.0, 2022-10-21 18:50:47.860
87.0, -103140.2472424802, -146679.1655634839, -64827.23383036064, -127126.01597619247, 32732.922760596608, -77881.77017948273, 21945.747369020864, -123092.10724736539, 0.058, 0.9460000000000001, 0.044, 192.0, 0.0, 0.0, 0.0, 0.0, 0.0, 0.0, 0.0, 0.0, 0.0, 1.666403447860242E9, 0.0, 2022-10-21 18:50:47.860
88.0, -103138.72732385724, -146679.90317105094, -64828.26201060558, -127127.40178434871, 32735.448507720055, -77883.91594695044, 21961.840625028686, -123095.81763694498, 0.058, 0.9460000000000001, 0.044, 192.0, 0.0, 0.0, 0.0, 0.0, 0.0, 0.0, 0.0, 0.0, 0.0, 1.6664034478602567E9, 0.0, 2022-10-21 18:50:47.860
89.0, -103136.02276277814, -146677.98092102777, -64829.82663271745, -127139.44937461012, 32733.928589097097, -77899.80803725816, 21940.047674184763, -123099.19275035773, 0.058, 0.9460000000000001, 0.044, 192.0, 0.0, 0.0, 0.0, 0.0, 0.0, 0.0, 0.0, 0.0, 0.0, 1.6664034478602717E9, 0.0, 2022-10-21 18:50:47.860
90.0, -103154.9993938207, -146698.38806371548, -64855.75465628561, -127170.89827905873, 32705.94420503905, -77928.03829050521, 21904.173124333993, -123121.79036400204, 0.058, 0.9460000000000001, 0.044, 192.0, 0.0, 0.0, 0.0, 0.0, 0.0, 0.0, 0.0, 0.0, 0.0, 1.6664034478602993E9, 0.0, 2022-10-21 18:50:47.860
91.0, -103143.4435419373, -146691.99546480126, -64847.193938159224, -127151.98870324955, 32709.587539385266, -77915.36485139905, 21924.513211788322, -123119.06345117849, 0.058, 0.9460000000000001, 0.044, 192.0, 0.0, 0.0, 0.0, 0.0, 0.0, 0.0, 0.0, 0.0, 0.0, 1.6664034478603146E9, 0.0, 2022-10-21 18:50:47.860
92.0, -103142.23654773671, -146691.1237467675, -64843.5059003241, -127150.22291543758, 32712.850894075742, -77905.53008383872, 21954.039866213785, -123115.35306159891, 0.058, 0.9460000000000001, 0.044, 192.0, 0.0, 0.0, 0.0, 0.0, 0.0, 0.0, 0.0, 0.0, 0.0, 1.6664034478603332E9, 0.0, 2022-10-21 18:50:47.860
93.0, -103128.64668710789, -146670.02370000168, -64830.09485365092, -127141.79630777793, 32731.04521406236, -77899.56216806915, 21947.35669462165, -123104.06543064899, 0.058, 0.9460000000000001, 0.044, 192.0, 0.0, 0.0, 0.0, 0.0, 0.0, 0.0, 0.0, 0.0, 0.0, 1.6664034478603485E9, 0.0, 2022-10-21 18:50:47.860
94.0, -103119.16954745883, -146662.51351386472, -64812.034644131025, -127125.59129304782, 32743.67394967961, -77886.2852318627, 21945.702665531953, -123084.48530250613, 0.058, 0.9460000000000001, 0.044, 192.0, 0.0, 0.0, 0.0, 0.0, 0.0, 0.0, 0.0, 0.0, 0.0, 1.6664034478603635E9, 0.0, 2022-10-21 18:50:47.860
95.0, -103127.28323069612, -146668.39202265645, -64822.71877798066, -127140.56696183288, 32728.832391361284, -77884.47474056181, 21961.326534906213, -123086.51931125157, 0.056, 0.9500000000000001, 0.04, 192.0, 1.0, 192.0, 29.0, 176.0, 1.0, 64.0, 0.0, 0.0, 0.0, 1.6664034478603785E9, 0.0, 2022-10-21 18:50:47.860
96.0, -103121.49412888219, -146665.64275808845, -64815.476812777146, -127140.45520311061, 32729.56999892831, -77884.25122311726, 21978.11269499215, -123086.49695950712, 0.056, 0.9500000000000001, 0.04, 192.0, 0.0, 0.0, 0.0, 0.0, 0.0, 0.0, 0.0, 0.0, 0.0, 1.6664034478603947E9, 0.0, 2022-10-21 18:50:47.860
97.0, -103122.16468121586, -146666.60388310003, -64816.28147557753, -127152.16751720519, 32725.390222715167, -77897.639918046, 21967.272098931327, -123089.46974151967, 0.056, 0.9500000000000001, 0.04, 192.0, 0.0, 0.0, 0.0, 0.0, 0.0, 0.0, 0.0, 0.0, 0.0, 1.6664034478604107E9, 0.0, 2022-10-21 18:50:47.860
98.0, -103120.30948642606, -146660.3230429081, -64807.92192315125, -127149.84293578184, 32731.067565806818, -77901.28325239221, 21944.339209120182, -123080.97607862666, 0.056, 0.9500000000000001, 0.04, 192.0, 0.0, 0.0, 0.0, 0.0, 0.0, 0.0, 0.0, 0.0, 0.0, 1.6664034478604276E9, 0.0, 2022-10-21 18:50:47.860
99.0, -103124.08693123901, -146665.24042668825, -64813.88983892082, -127140.85753451081, 32730.821696617808, -77890.06267667565, 21955.872709259118, -123084.5523577395, 0.056, 0.9500000000000001, 0.04, 192.0, 0.0, 0.0, 0.0, 0.0, 0.0, 0.0, 0.0, 0.0, 0.0, 1.66640344786045E9, 0.0, 2022-10-21 18:50:47.860
100.0, -103136.62625987844, -146680.3725576845, -64833.33585659693, -127152.12281371628, 32716.91891156661, -77899.18218841341, 21971.049543744273, -123101.91966318127, 0.056, 0.9500000000000001, 0.04, 192.0, 0.0, 0.0, 0.0, 0.0, 0.0, 0.0, 0.0, 0.0, 0.0, 1.6664034478604665E9, 0.0, 2022-10-21 18:50:47.860
101.0, -103134.346381944, -146672.66120584743, -64828.41847281677, -127167.97020053508, 32714.102591765237, -77918.85172353408, 21961.43829362849, -123109.38514582935, 0.056, 0.9500000000000001, 0.04, 192.0, 0.0, 0.0, 0.0, 0.0, 0.0, 0.0, 0.0, 0.0, 0.0, 1.6664034478604825E9, 0.0, 2022-10-21 18:50:47.860
102.0, -103126.3891609179, -146662.62527258697, -64818.71781572316, -127164.12570048877, 32725.367870970713, -77914.9848717433, 21943.109863175137, -123100.84677944741, 0.056, 0.9500000000000001, 0.04, 192.0, 0.0, 0.0, 0.0, 0.0, 0.0, 0.0, 0.0, 0.0, 0.0, 1.6664034478604977E9, 0.0, 2022-10-21 18:50:47.860
103.0, -103137.1403500009, -146676.79627857165, -64834.8557752199, -127162.82929931037, 32717.455353433535, -77900.03155470271, 21953.4810726024, -123107.23937836164, 0.056, 0.9500000000000001, 0.04, 192.0, 0.0, 0.0, 0.0, 0.0, 0.0, 0.0, 0.0, 0.0, 0.0, 1.6664034478605132E9, 0.0, 2022-10-21 18:50:47.860
104.0, -103129.63016386393, -146666.4697726333, -64826.160946626784, -127156.32494167388, 32724.496152936958, -77886.03936267369, 21982.046602016282, -123105.45123880521, 0.052000000000000005, 0.966, 0.04, 192.0, 1.0, 160.0, 30.0, 48.0, 1.0, 64.0, 0.0, 0.0, 0.0, 1.6664034478605285E9, 0.0, 2022-10-21 18:50:47.860
105.0, -103120.84592829298, -146655.2715486612, -64816.549696511, -127156.30258992942, 32731.872228607208, -77890.77793249821, 21979.498503148377, -123094.72240146667, 0.052000000000000005, 0.966, 0.04, 192.0, 0.0, 0.0, 0.0, 0.0, 0.0, 0.0, 0.0, 0.0, 0.0, 1.666403447860561E9, 0.0, 2022-10-21 18:50:47.860
106.0, -103120.44359689279, -146658.6690138184, -64819.85775469038, -127166.49498540105, 32726.28429249338, -77901.52912158122, 21953.749293535864, -123089.46974151967, 0.052000000000000005, 0.966, 0.04, 192.0, 0.0, 0.0, 0.0, 0.0, 0.0, 0.0, 0.0, 0.0, 0.0, 1.666403447860576E9, 0.0, 2022-10-21 18:50:47.860
107.0, -103118.92367826983, -146660.99359524174, -64823.21051635868, -127158.7612818195, 32725.70314713754, -77902.46789484833, 21940.874688729607, -123091.48139852064, 0.052000000000000005, 0.966, 0.04, 192.0, 0.0, 0.0, 0.0, 0.0, 0.0, 0.0, 0.0, 0.0, 0.0, 1.666403447860592E9, 0.0, 2022-10-21 18:50:47.860
108.0, -103112.17345144432, -146647.6719555464, -64819.85775469038, -127138.19767692062, 32737.884847865684, -77880.65259225995, 21967.808540798254, -123075.00816285708, 0.052000000000000005, 0.966, 0.04, 192.0, 0.0, 0.0, 0.0, 0.0, 0.0, 0.0, 0.0, 0.0, 0.0, 1.666403447860607E9, 0.0, 2022-10-21 18:50:47.860
109.0, -103122.45525389377, -146654.75745853872, -64830.430129817745, -127154.06741548389, 32726.19488551556, -77888.87803421951, 21974.424657157026, -123096.57759625645, 0.052000000000000005, 0.966, 0.04, 192.0, 0.0, 0.0, 0.0, 0.0, 0.0, 0.0, 0.0, 0.0, 0.0, 1.666403447860622E9, 0.0, 2022-10-21 18:50:47.860
110.0, -103133.5864226325, -146669.62136860148, -64826.60798151589, -127173.96046804912, 32719.422306945602, -77909.21812167384, 21951.849395257163, -123096.89052067883, 0.052000000000000005, 0.966, 0.04, 192.0, 0.0, 0.0, 0.0, 0.0, 0.0, 0.0, 0.0, 0.0, 0.0, 1.666403447860637E9, 0.0, 2022-10-21 18:50:47.860
111.0, -103136.11216975596, -146667.5203046227, -64826.29505709351, -127167.72433134608, 32720.226969745992, -77906.98294722832, 21941.925220719007, -123089.69325896422, 0.052000000000000005, 0.966, 0.04, 192.0, 0.0, 0.0, 0.0, 0.0, 0.0, 0.0, 0.0, 0.0, 0.0, 1.6664034478606513E9, 0.0, 2022-10-21 18:50:47.860
112.0, -103152.33953623052, -146681.31133095163, -64843.46119683519, -127179.39194195175, 32699.931585780574, -77908.8381420181, 21954.933935991998, -123109.09457315142, 0.052000000000000005, 0.966, 0.04, 192.0, 0.0, 0.0, 0.0, 0.0, 0.0, 0.0, 0.0, 0.0, 0.0, 1.6664034478606627E9, 0.0, 2022-10-21 18:50:47.860
113.0, -103150.32787922953, -146684.99936878675, -64839.81786248897, -127189.83020661239, 32698.5681293688, -77932.24041846281, 21945.166223665026, -123108.84870396242, 0.052000000000000005, 0.966, 0.04, 192.0, 0.0, 0.0, 0.0, 0.0, 0.0, 0.0, 0.0, 0.0, 0.0, 1.6664034478606777E9, 0.0, 2022-10-21 18:50:47.860
114.0, -103123.61754460544, -146651.9187869929, -64805.50793475008, -127161.95758127661, 32739.024786832906, -77895.36004011155, 21957.81731102673, -123077.6009652139, 0.056, 0.978, 0.028, 192.0, 1.0, 192.0, 30.0, 144.0, 0.0, 224.0, 0.0, 0.0, 0.0, 1.6664034478606887E9, 0.0, 2022-10-21 18:50:47.860
115.0, -103147.06452453906, -146680.32785419558, -64837.80620548799, -127183.10233153134, 32714.706088865532, -77903.78664777121, 21938.751273006354, -123105.29477659402, 0.056, 0.978, 0.028, 192.0, 0.0, 0.0, 0.0, 0.0, 0.0, 0.0, 0.0, 0.0, 0.0, 1.6664034478607004E9, 0.0, 2022-10-21 18:50:47.860
116.0, -103146.23750999421, -146678.87499080598, -64836.018065931574, -127176.68738087267, 32712.80619058683, -77894.9353569669, 21965.595718097178, -123107.01586091709, 0.056, 0.978, 0.028, 192.0, 0.0, 0.0, 0.0, 0.0, 0.0, 0.0, 0.0, 0.0, 0.0, 1.6664034478607113E9, 0.0, 2022-10-21 18:50:47.860
117.0, -103124.95864927277, -146657.55142659563, -64812.25816157558, -127161.73406383206, 32733.615664674722, -77889.59329004209, 21987.723945107933, -123093.82833168845, 0.056, 0.978, 0.028, 192.0, 0.0, 0.0, 0.0, 0.0, 0.0, 0.0, 0.0, 0.0, 0.0, 1.6664034478607223E9, 0.0, 2022-10-21 18:50:47.860
118.0, -103121.62823934892, -146657.64083357344, -64810.26885631906, -127169.17719473568, 32739.96356010003, -77903.22785415982, 21951.737636534886, -123079.9031948928, 0.056, 0.978, 0.028, 192.0, 0.0, 0.0, 0.0, 0.0, 0.0, 0.0, 0.0, 0.0, 0.0, 1.6664034478607335E9, 0.0, 2022-10-21 18:50:47.860
119.0, -103124.10928298347, -146657.618481829, -64812.43697553122, -127162.44931965462, 32744.344502013268, -77896.87995873451, 21934.750310748856, -123065.21809878566, 0.056, 0.978, 0.028, 192.0, 0.0, 0.0, 0.0, 0.0, 0.0, 0.0, 0.0, 0.0, 0.0, 1.6664034478607447E9, 0.0, 2022-10-21 18:50:47.860
120.0, -103129.27253595264, -146662.93819700935, -64820.95299016869, -127163.58925862185, 32736.834315876284, -77893.97423195532, 21947.33434287719, -123077.01981985806, 0.056, 0.978, 0.028, 192.0, 0.0, 0.0, 0.0, 0.0, 0.0, 0.0, 0.0, 0.0, 0.0, 1.6664034478608217E9, 0.0, 2022-10-21 18:50:47.860
121.0, -103133.16173948786, -146671.63302560247, -64828.53023153904, -127175.88271807227, 32727.58069367179, -77907.40763037297, 21957.72790404891, -123088.84389267492, 0.056, 0.978, 0.028, 192.0, 0.0, 0.0, 0.0, 0.0, 0.0, 0.0, 0.0, 0.0, 0.0, 1.6664034483388145E9, 0.0, 2022-10-21 18:50:48.338
122.0, -103126.97030627374, -146661.73120280876, -64827.88203094984, -127181.29184023045, 32731.536952440376, -77917.0859357221, 21936.136118905084, -123081.8030931715, 0.056, 0.978, 0.028, 192.0, 0.0, 0.0, 0.0, 0.0, 0.0, 0.0, 0.0, 0.0, 0.0, 1.666403448339016E9, 0.0, 2022-10-21 18:50:48.339
123.0, -103133.7875883326, -146666.35801391103, -64834.56520254198, -127186.41038971073, 32727.357176227237, -77916.25892117726, 21921.42867105349, -123088.17334034127, 0.056, 0.978, 0.028, 192.0, 0.0, 0.0, 0.0, 0.0, 0.0, 0.0, 0.0, 0.0, 0.0, 1.666403448339051E9, 0.0, 2022-10-21 18:50:48.339
124.0, -103131.6418208649, -146667.27443543368, -64834.16287114178, -127180.08484602987, 32727.915969838617, -77909.21812167384, 21933.38685433708, -123084.21708157267, 0.052000000000000005, 0.974, 0.028, 192.0, 1.0, 160.0, 30.0, 112.0, 0.0, 224.0, 0.0, 0.0, 0.0, 1.6664034483390827E9, 0.0, 2022-10-21 18:50:48.339
125.0, -103126.50091964018, -146660.68067081936, -64825.08806289292, -127172.57465989288, 32734.19681003056, -77907.29587165068, 21948.58604056669, -123078.76325592557, 0.052000000000000005, 0.974, 0.028, 192.0, 0.0, 0.0, 0.0, 0.0, 0.0, 0.0, 0.0, 0.0, 0.0, 1.6664034483391168E9, 0.0, 2022-10-21 18:50:48.339
126.0, -103137.52032965665, -146670.89541803545, -64835.43692057573, -127185.7174856326, 32726.127830282192, -77917.19769444439, 21924.49086004387, -123092.5989857434, 0.052000000000000005, 0.974, 0.028, 192.0, 0.0, 0.0, 0.0, 0.0, 0.0, 0.0, 0.0, 0.0, 0.0, 1.6664034483391476E9, 0.0, 2022-10-21 18:50:48.339
127.0, -103140.82838783604, -146675.87985704897, -64837.64974327681, -127192.89239560276, 32723.445620947557, -77916.8400665331, 21917.248894840348, -123086.72047695167, 0.052000000000000005, 0.974, 0.028, 192.0, 0.0, 0.0, 0.0, 0.0, 0.0, 0.0, 0.0, 0.0, 0.0, 1.6664034483391783E9, 0.0, 2022-10-21 18:50:48.339
128.0, -103125.27157369514, -146659.09369696304, -64820.81887970196, -127174.18398549367, 32735.224990275503, -77903.36196462656, 21929.832926968687, -123068.05677033149, 0.052000000000000005, 0.974, 0.028, 192.0, 0.0, 0.0, 0.0, 0.0, 0.0, 0.0, 0.0, 0.0, 0.0, 1.6664034483392096E9, 0.0, 2022-10-21 18:50:48.339
129.0, -103139.28611746861, -146673.0188337587, -64833.33585659693, -127186.3209827329, 32722.082164535783, -77909.50869435177, 21936.069063671715, -123080.77491292656, 0.052000000000000005, 0.974, 0.028, 192.0, 0.0, 0.0, 0.0, 0.0, 0.0, 0.0, 0.0, 0.0, 0.0, 1.6664034483392403E9, 0.0, 2022-10-21 18:50:48.339
130.0, -103141.32012621405, -146672.48239189177, -64837.58268804344, -127189.6737444012, 32725.70314713754, -77916.97417699984, 21930.30231360225, -123088.91094790828, 0.052000000000000005, 0.974, 0.028, 192.0, 0.0, 0.0, 0.0, 0.0, 0.0, 0.0, 0.0, 0.0, 0.0, 1.6664034483392727E9, 0.0, 2022-10-21 18:50:48.339
131.0, -103135.46396916675, -146666.82740054457, -64825.02100765956, -127183.92934607618, 32739.29300776637, -77912.57088334214, 21915.974845406396, -123077.46685474717, 0.052000000000000005, 0.974, 0.028, 192.0, 0.0, 0.0, 0.0, 0.0, 0.0, 0.0, 0.0, 0.0, 0.0, 1.6664034483393047E9, 0.0, 2022-10-21 18:50:48.339
132.0, -103134.94987904429, -146667.81087730062, -64822.674074491755, -127171.01003778102, 32747.831374148296, -77895.31533662265, 21916.645397740056, -123077.33274428043, 0.052000000000000005, 0.974, 0.028, 192.0, 0.0, 0.0, 0.0, 0.0, 0.0, 0.0, 0.0, 0.0, 0.0, 1.6664034483393347E9, 0.0, 2022-10-21 18:50:48.339
133.0, -103138.16853024585, -146669.08492673456, -64826.89855419381, -127164.39392142225, 32746.736138669985, -77875.39993231297, 21945.09916843166, -123074.67288669026, 0.052000000000000005, 0.974, 0.028, 192.0, 0.0, 0.0, 0.0, 0.0, 0.0, 0.0, 0.0, 0.0, 0.0, 1.6664034483393652E9, 0.0, 2022-10-21 18:50:48.339
134.0, -103143.82352159305, -146673.0188337587, -64835.392217086825, -127181.40359895273, 32740.120022311217, -77890.8896912205, 21939.086549173182, -123065.95570635269, 0.054, 0.964, 0.036000000000000004, 192.0, 1.0, 176.0, 30.0, 32.0, 1.0, 32.0, 0.0, 0.0, 0.0, 1.6664034483394058E9, 0.0, 2022-10-21 18:50:48.339
135.0, -103154.77587637614, -146684.12765075298, -64845.0034672026, -127194.70288690364, 32730.62053091771, -77912.41442113095, 21912.8232494382, -123081.08783734892, 0.054, 0.964, 0.036000000000000004, 192.0, 0.0, 0.0, 0.0, 0.0, 0.0, 0.0, 0.0, 0.0, 0.0, 1.6664034483394392E9, 0.0, 2022-10-21 18:50:48.339
136.0, -103157.63689966642, -146688.19566824386, -64854.52531034056, -127197.20628228263, 32721.076336035294, -77919.16464795645, 21902.54144698876, -123094.23066308865, 0.054, 0.964, 0.036000000000000004, 192.0, 0.0, 0.0, 0.0, 0.0, 0.0, 0.0, 0.0, 0.0, 0.0, 1.6664034483396463E9, 0.0, 2022-10-21 18:50:48.339
137.0, -103142.32595471454, -146670.11310697952, -64837.068597920974, -127171.25590697002, 32738.354234499246, -77894.26480463325, 21931.464604313926, -123078.42797975875, 0.054, 0.964, 0.036000000000000004, 192.0, 0.0, 0.0, 0.0, 0.0, 0.0, 0.0, 0.0, 0.0, 0.0, 1.6664034483396611E9, 0.0, 2022-10-21 18:50:48.339
138.0, -103145.1422745159, -146673.59997911454, -64837.202708387704, -127180.64363964125, 32737.10253680975, -77894.7341912668, 21951.42471211251, -123070.8507383884, 0.054, 0.964, 0.036000000000000004, 192.0, 0.0, 0.0, 0.0, 0.0, 0.0, 0.0, 0.0, 0.0, 0.0, 1.666403448339676E9, 0.0, 2022-10-21 18:50:48.339
139.0, -103136.22392847824, -146668.72729882327, -64828.329065838945, -127188.44439845615, 32746.28910378088, -77901.46206634786, 21933.029226425795, -123067.27445927555, 0.054, 0.964, 0.036000000000000004, 192.0, 0.0, 0.0, 0.0, 0.0, 0.0, 0.0, 0.0, 0.0, 0.0, 1.6664034483396902E9, 0.0, 2022-10-21 18:50:48.339
140.0, -103133.25114646569, -146666.53682786666, -64833.26880136357, -127182.61059315332, 32742.690472923576, -77901.50676983676, 21921.160450120027, -123078.4503315032, 0.054, 0.964, 0.036000000000000004, 192.0, 0.0, 0.0, 0.0, 0.0, 0.0, 0.0, 0.0, 0.0, 0.0, 1.6664034483397048E9, 0.0, 2022-10-21 18:50:48.339
141.0, -103135.55337614458, -146666.55917961113, -64834.632257775345, -127186.87977634429, 32733.883885608186, -77911.386240886, 21927.24012461187, -123085.82640717346, 0.054, 0.964, 0.036000000000000004, 192.0, 0.0, 0.0, 0.0, 0.0, 0.0, 0.0, 0.0, 0.0, 0.0, 1.6664034483397193E9, 0.0, 2022-10-21 18:50:48.339
142.0, -103149.03147805113, -146679.366729184, -64842.589478801434, -127197.83213112738, 32732.29691175186, -77906.35709838357, 21939.555935806744, -123091.86137817639, 0.054, 0.964, 0.036000000000000004, 192.0, 0.0, 0.0, 0.0, 0.0, 0.0, 0.0, 0.0, 0.0, 0.0, 1.666403448339734E9, 0.0, 2022-10-21 18:50:48.339
143.0, -103156.67577465484, -146685.40170018695, -64853.6088888179, -127214.3277185354, 32730.128792539694, -77909.84397051859, 21928.737691490376, -123088.73213395264, 0.05, 0.9540000000000001, 0.034, 192.0, 1.0, 144.0, 29.0, 208.0, 1.0, 16.0, 0.0, 0.0, 0.0, 1.6664034483397481E9, 0.0, 2022-10-21 18:50:48.339
144.0, -103150.75256237418, -146678.96439778383, -64852.1560254283, -127212.18195106769, 32735.046176319862, -77911.7885722862, 21911.884476171075, -123082.00425887159, 0.05, 0.9540000000000001, 0.034, 192.0, 0.0, 0.0, 0.0, 0.0, 0.0, 0.0, 0.0, 0.0, 0.0, 1.6664034483397644E9, 0.0, 2022-10-21 18:50:48.339
145.0, -103146.57278616105, -146676.43865066036, -64841.98598170114, -127197.96624159411, 32737.57192344331, -77904.68071754942, 21924.826136210697, -123077.3550960249, 0.05, 0.9540000000000001, 0.034, 192.0, 0.0, 0.0, 0.0, 0.0, 0.0, 0.0, 0.0, 0.0, 0.0, 1.666403448339779E9, 0.0, 2022-10-21 18:50:48.339
146.0, -103143.71176287076, -146676.70687159384, -64836.91213570978, -127189.15965427872, 32748.166650315125, -77891.20261564286, 21946.23910739888, -123075.67871519075, 0.05, 0.9540000000000001, 0.034, 192.0, 0.0, 0.0, 0.0, 0.0, 0.0, 0.0, 0.0, 0.0, 0.0, 1.666403448339794E9, 0.0, 2022-10-21 18:50:48.339
147.0, -103150.21612050726, -146679.83611581757, -64840.577821800456, -127200.35787825083, 32749.39599626017, -77896.23175814531, 21931.844583969665, -123069.57668895445, 0.05, 0.9540000000000001, 0.034, 192.0, 0.0, 0.0, 0.0, 0.0, 0.0, 0.0, 0.0, 0.0, 0.0, 1.6664034483398085E9, 0.0, 2022-10-21 18:50:48.339
148.0, -103150.26082399617, -146678.11503149453, -64845.45050209171, -127200.91667186221, 32747.652560192655, -77894.98006045581, 21914.18670584997, -123071.34247676641, 0.05, 0.9540000000000001, 0.034, 192.0, 0.0, 0.0, 0.0, 0.0, 0.0, 0.0, 0.0, 0.0, 0.0, 1.666403448339823E9, 0.0, 2022-10-21 18:50:48.339
149.0, -103157.03340256613, -146686.42988043188, -64863.17543544477, -127205.49877947556, 32733.056871063338, -77891.9402232099, 21921.00398790884, -123086.42990427374, 0.05, 0.9540000000000001, 0.034, 192.0, 0.0, 0.0, 0.0, 0.0, 0.0, 0.0, 0.0, 0.0, 0.0, 1.6664034483398376E9, 0.0, 2022-10-21 18:50:48.339
150.0, -103159.00035607819, -146685.80403158715, -64866.52819711307, -127203.28595677447, 32730.397013473157, -77897.50580757926, 21946.552031821255, -123094.52123576657, 0.05, 0.9540000000000001, 0.034, 192.0, 0.0, 0.0, 0.0, 0.0, 0.0, 0.0, 0.0, 0.0, 0.0, 1.666403448339852E9, 0.0, 2022-10-21 18:50:48.339
151.0, -103149.92554782935, -146680.23844721777, -64849.04913294902, -127205.49877947556, 32741.751699656452, -77906.80413327267, 21936.985485194386, -123080.77491292656, 0.05, 0.9540000000000001, 0.034, 192.0, 0.0, 0.0, 0.0, 0.0, 0.0, 0.0, 0.0, 0.0, 0.0, 1.6664034483399124E9, 0.0, 2022-10-21 18:50:48.339
152.0, -103147.91389082836, -146681.84777281855, -64846.59044105893, -127209.94677662216, 32745.149164813658, -77902.2890808927, 21915.304293072735, -123074.0023343566, 0.05, 0.9540000000000001, 0.034, 192.0, 0.0, 0.0, 0.0, 0.0, 0.0, 0.0, 0.0, 0.0, 0.0, 1.6664034483399267E9, 0.0, 2022-10-21 18:50:48.339
153.0, -103149.83614085152, -146676.72922333828, -64854.12297894037, -127206.77282890951, 32737.124888554205, -77905.50773209427, 21905.71539470141, -123082.04896236051, 0.052000000000000005, 0.9540000000000001, 0.04, 192.0, 1.0, 160.0, 29.0, 208.0, 1.0, 64.0, 0.0, 0.0, 0.0, 1.6664034483399415E9, 0.0, 2022-10-21 18:50:48.339
154.0, -103151.8477978525, -146675.79045007116, -64863.73422905615, -127207.44338124317, 32729.90527509514, -77900.389182614, 21926.614275767122, -123086.49695950712, 0.052000000000000005, 0.9540000000000001, 0.04, 192.0, 0.0, 0.0, 0.0, 0.0, 0.0, 0.0, 0.0, 0.0, 0.0, 1.6664034483399577E9, 0.0, 2022-10-21 18:50:48.339
155.0, -103155.58053917653, -146677.91386579443, -64857.52044409758, -127215.78058192499, 32730.553475684344, -77905.12775243852, 21925.630799011087, -123078.69620069221, 0.052000000000000005, 0.9540000000000001, 0.04, 192.0, 0.0, 0.0, 0.0, 0.0, 0.0, 0.0, 0.0, 0.0, 0.0, 1.6664034483399737E9, 0.0, 2022-10-21 18:50:48.339
156.0, -103159.60385317849, -146680.14904023995, -64851.28430739455, -127220.29563430496, 32733.749775141452, -77903.38431637101, 21915.550162261745, -123079.81378791497, 0.052000000000000005, 0.9540000000000001, 0.04, 192.0, 0.0, 0.0, 0.0, 0.0, 0.0, 0.0, 0.0, 0.0, 0.0, 1.6664034483399951E9, 0.0, 2022-10-21 18:50:48.339
157.0, -103147.13157977242, -146666.76034531122, -64848.87031899337, -127212.69604119017, 32737.61662693222, -77906.87118850603, 21900.306272543225, -123091.07906712044, 0.052000000000000005, 0.9540000000000001, 0.04, 192.0, 0.0, 0.0, 0.0, 0.0, 0.0, 0.0, 0.0, 0.0, 0.0, 1.6664034483400102E9, 0.0, 2022-10-21 18:50:48.340
158.0, -103149.92554782935, -146670.02370000168, -64849.45146434921, -127206.66107018723, 32734.085051308284, -77898.64574654648, 21920.534601275278, -123080.28317454853, 0.052000000000000005, 0.9540000000000001, 0.04, 192.0, 0.0, 0.0, 0.0, 0.0, 0.0, 0.0, 0.0, 0.0, 0.0, 1.6664034483400269E9, 0.0, 2022-10-21 18:50:48.340
159.0, -103159.08976305602, -146678.58441812807, -64853.295964395526, -127213.18777956818, 32734.845010619763, -77901.64088030349, 21931.28579035828, -123075.87988089085, 0.052000000000000005, 0.9540000000000001, 0.04, 192.0, 0.0, 0.0, 0.0, 0.0, 0.0, 0.0, 0.0, 0.0, 0.0, 1.6664034483400416E9, 0.0, 2022-10-21 18:50:48.340
160.0, -103155.11115254297, -146684.68644436437, -64838.186185143735, -127213.29953829045, 32747.96548461503, -77899.91979598043, 21919.260551841326, -123069.50963372109, 0.052000000000000005, 0.9540000000000001, 0.04, 192.0, 0.0, 0.0, 0.0, 0.0, 0.0, 0.0, 0.0, 0.0, 0.0, 1.666403448340056E9, 0.0, 2022-10-21 18:50:48.340
161.0, -103154.55235893159, -146677.53388613867, -64845.89753698082, -127213.74657317957, 32742.846935134763, -77893.61660404404, 21910.364557548113, -123069.1520058098, 0.052000000000000005, 0.9540000000000001, 0.04, 192.0, 0.0, 0.0, 0.0, 0.0, 0.0, 0.0, 0.0, 0.0, 0.0, 1.6664034483400705E9, 0.0, 2022-10-21 18:50:48.340
162.0, -103158.08393455553, -146676.77392682718, -64858.43686562024, -127204.96233760862, 32743.316321768325, -77878.90915619244, 21931.621066525113, -123065.70983716368, 0.052000000000000005, 0.9540000000000001, 0.04, 192.0, 0.0, 0.0, 0.0, 0.0, 0.0, 0.0, 0.0, 0.0, 0.0, 1.6664034483400853E9, 0.0, 2022-10-21 18:50:48.340
163.0, -103159.38033573393, -146677.53388613867, -64880.78861007555, -127209.00800335503, 32740.991740344973, -77883.15598763895, 21938.259534628338, -123084.77587518406, 0.05, 0.9580000000000001, 0.034, 192.0, 1.0, 144.0, 29.0, 240.0, 1.0, 16.0, 0.0, 0.0, 0.0, 1.6664034483400996E9, 0.0, 2022-10-21 18:50:48.340
164.0, -103157.88276885543, -146682.6747873634, -64847.618621303875, -127223.87191341781, 32744.836240391287, -77891.18026389841, 21930.43642406898, -123066.2462790306, 0.05, 0.9580000000000001, 0.034, 192.0, 0.0, 0.0, 0.0, 0.0, 0.0, 0.0, 0.0, 0.0, 0.0, 1.6664034483401153E9, 0.0, 2022-10-21 18:50:48.340
165.0, -103157.74865838871, -146681.24427571826, -64840.86839447837, -127222.26258781704, 32746.400862503157, -77891.7837609987, 21918.58999950767, -123075.63401170183, 0.05, 0.9580000000000001, 0.034, 192.0, 0.0, 0.0, 0.0, 0.0, 0.0, 0.0, 0.0, 0.0, 0.0, 1.66640344834013E9, 0.0, 2022-10-21 18:50:48.340
166.0, -103146.57278616105, -146665.24042668825, -64829.938391439726, -127193.65235491424, 32759.275467309413, -77869.70023747686, 21945.657962043046, -123060.32306674994, 0.05, 0.9580000000000001, 0.034, 192.0, 0.0, 0.0, 0.0, 0.0, 0.0, 0.0, 0.0, 0.0, 0.0, 1.6664034483402088E9, 0.0, 2022-10-21 18:50:48.340
167.0, -103153.39006821992, -146668.79435405665, -64836.42039733176, -127199.88849161727, 32750.558286971846, -77877.90332769195, 21962.242956428883, -123064.92752610774, 0.05, 0.9580000000000001, 0.034, 192.0, 0.0, 0.0, 0.0, 0.0, 0.0, 0.0, 0.0, 0.0, 0.0, 1.6664034483402233E9, 0.0, 2022-10-21 18:50:48.340
168.0, -103162.04019332412, -146679.34437743956, -64842.76829275707, -127215.66882320272, 32748.457222993045, -77894.4883220778, 21949.457758600445, -123056.97030508165, 0.05, 0.9580000000000001, 0.034, 192.0, 0.0, 0.0, 0.0, 0.0, 0.0, 0.0, 0.0, 0.0, 0.0, 1.6664034483402383E9, 0.0, 2022-10-21 18:50:48.340
169.0, -103149.85849259597, -146666.22390344428, -64837.068597920974, -127206.77282890951, 32760.035426620892, -77891.42613308741, 21927.798918223252, -123046.8449648434, 0.05, 0.9580000000000001, 0.034, 192.0, 0.0, 0.0, 0.0, 0.0, 0.0, 0.0, 0.0, 0.0, 0.0, 1.6664034483402529E9, 0.0, 2022-10-21 18:50:48.340
170.0, -103153.52417868665, -146671.92359828038, -64846.41162710329, -127207.44338124317, 32751.944095128074, -77884.20651962835, 21937.521927061312, -123052.09762479039, 0.05, 0.9580000000000001, 0.034, 192.0, 0.0, 0.0, 0.0, 0.0, 0.0, 0.0, 0.0, 0.0, 0.0, 1.6664034483402674E9, 0.0, 2022-10-21 18:50:48.340
171.0, -103153.99356532021, -146678.83028731708, -64837.67209502126, -127207.10810507633, 32755.229801563004, -77882.127807394, 21953.30225864676, -123049.28130498902, 0.05, 0.9580000000000001, 0.034, 192.0, 0.0, 0.0, 0.0, 0.0, 0.0, 0.0, 0.0, 0.0, 0.0, 1.666403448340282E9, 0.0, 2022-10-21 18:50:48.340
172.0, -103157.10045779949, -146679.21026697283, -64842.70123752371, -127217.76988718152, 32752.324074783814, -77889.25801387525, 21940.09237767367, -123070.51546222156, 0.054, 0.964, 0.03, 192.0, 1.0, 176.0, 30.0, 32.0, 0.0, 240.0, 0.0, 0.0, 0.0, 1.666403448340297E9, 0.0, 2022-10-21 18:50:48.340
173.0, -103154.57471067605, -146679.83611581757, -64847.64097304833, -127219.40156452675, 32752.704054439553, -77891.42613308741, 21922.278037342792, -123099.41626780228, 0.054, 0.964, 0.03, 192.0, 0.0, 0.0, 0.0, 0.0, 0.0, 0.0, 0.0, 0.0, 0.0, 1.6664034483403125E9, 0.0, 2022-10-21 18:50:48.340
174.0, -103153.77004787566, -146674.20347621484, -64836.3533420984, -127206.25873878703, 32761.085958610292, -77866.63804848648, 21948.38487486659, -123055.04805505849, 0.054, 0.964, 0.03, 192.0, 0.0, 0.0, 0.0, 0.0, 0.0, 0.0, 0.0, 0.0, 0.0, 1.6664034483403275E9, 0.0, 2022-10-21 18:50:48.340
175.0, -103153.63593740892, -146678.94204603936, -64844.131749168846, -127195.08286655937, 32760.460109765547, -77860.53602225018, 21983.11948575014, -123025.4319936552, 0.054, 0.964, 0.03, 192.0, 0.0, 0.0, 0.0, 0.0, 0.0, 0.0, 0.0, 0.0, 0.0, 1.666403448340342E9, 0.0, 2022-10-21 18:50:48.340
176.0, -103153.39006821992, -146670.85071454654, -64840.153138655805, -127220.92148314971, 32744.836240391287, -77890.26384237575, 21970.669564088534, -123043.6933688752, 0.054, 0.964, 0.03, 192.0, 0.0, 0.0, 0.0, 0.0, 0.0, 0.0, 0.0, 0.0, 0.0, 1.6664034483403575E9, 0.0, 2022-10-21 18:50:48.340
177.0, -103157.23456826623, -146673.15294422544, -64836.10747290939, -127240.97099792612, 32739.203600788547, -77911.9897379863, 21932.67159851451, -123045.3921014538, 0.054, 0.964, 0.03, 192.0, 0.0, 0.0, 0.0, 0.0, 0.0, 0.0, 0.0, 0.0, 0.0, 1.666403448340376E9, 0.0, 2022-10-21 18:50:48.340
178.0, -103162.12960030194, -146681.28897920717, -64839.527289811056, -127240.52396303702, 32731.24637976246, -77913.64376707599, 21926.703682744945, -123057.68556090422, 0.054, 0.964, 0.03, 192.0, 0.0, 0.0, 0.0, 0.0, 0.0, 0.0, 0.0, 0.0, 0.0, 1.6664034483403904E9, 0.0, 2022-10-21 18:50:48.340
179.0, -103159.80501887859, -146675.74574658225, -64832.732359496644, -127228.4763727756, 32738.91302811063, -77897.19288315688, 21957.549090093267, -123041.48054617412, 0.054, 0.964, 0.03, 192.0, 0.0, 0.0, 0.0, 0.0, 0.0, 0.0, 0.0, 0.0, 0.0, 1.6664034483404052E9, 0.0, 2022-10-21 18:50:48.340
180.0, -103152.58540541952, -146667.07326973358, -64829.89368795082, -127218.84277091538, 32754.15691782915, -77874.50586253474, 21967.49561637588, -123050.75652012308, 0.054, 0.964, 0.03, 192.0, 0.0, 0.0, 0.0, 0.0, 0.0, 0.0, 0.0, 0.0, 0.0, 1.6664034483404195E9, 0.0, 2022-10-21 18:50:48.340
181.0, -103158.64272816692, -146671.09658373555, -64835.57103104246, -127228.81164894244, 32748.747795670963, -77880.20555737085, 21947.35669462165, -123048.25312474408, 0.054, 0.964, 0.03, 192.0, 0.0, 0.0, 0.0, 0.0, 0.0, 0.0, 0.0, 0.0, 0.0, 1.6664034483404548E9, 0.0, 2022-10-21 18:50:48.340
182.0, -103153.63593740892, -146670.2695691907, -64820.148327368304, -127227.1799715972, 32752.078205594804, -77887.51457780774, 21939.399473595557, -123033.1433454923, 0.052000000000000005, 0.962, 0.038, 192.0, 1.0, 160.0, 30.0, 16.0, 1.0, 48.0, 0.0, 0.0, 0.0, 1.6664034483404691E9, 0.0, 2022-10-21 18:50:48.340
183.0, -103171.18205680634, -146688.73211011078, -64841.673057278764, -127238.89228569178, 32734.487382708478, -77894.98006045581, 21950.955325478953, -123045.52621192053, 0.052000000000000005, 0.962, 0.038, 192.0, 0.0, 0.0, 0.0, 0.0, 0.0, 0.0, 0.0, 0.0, 0.0, 1.6664034483404844E9, 0.0, 2022-10-21 18:50:48.340
184.0, -103164.096553814, -146678.60676987254, -64833.35820834139, -127229.61631174282, 32747.160821814636, -77889.0344964307, 21973.39647691208, -123045.90619157627, 0.052000000000000005, 0.962, 0.038, 192.0, 0.0, 0.0, 0.0, 0.0, 0.0, 0.0, 0.0, 0.0, 0.0, 1.666403448340499E9, 0.0, 2022-10-21 18:50:48.340
185.0, -103158.93330084483, -146669.80018255714, -64832.7547112411, -127235.42776530121, 32746.780842158896, -77902.62435705953, 21950.284773145293, -123046.71085437667, 0.052000000000000005, 0.962, 0.038, 192.0, 0.0, 0.0, 0.0, 0.0, 0.0, 0.0, 0.0, 0.0, 0.0, 1.6664034483405137E9, 0.0, 2022-10-21 18:50:48.340
186.0, -103165.88469337043, -146686.876915321, -64840.64487703382, -127243.02735841602, 32741.170554300614, -77907.56409258414, 21925.4743367999, -123051.58353466792, 0.052000000000000005, 0.962, 0.038, 192.0, 0.0, 0.0, 0.0, 0.0, 0.0, 0.0, 0.0, 0.0, 0.0, 1.666403448340528E9, 0.0, 2022-10-21 18:50:48.340
187.0, -103164.61064393648, -146681.40073792945, -64830.38542632883, -127224.60952098484, 32750.133603827195, -77885.4358655734, 21954.28573540279, -123035.15500249327, 0.052000000000000005, 0.962, 0.038, 192.0, 0.0, 0.0, 0.0, 0.0, 0.0, 0.0, 0.0, 0.0, 0.0, 1.6664034483405423E9, 0.0, 2022-10-21 18:50:48.340
188.0, -103155.93816708782, -146666.93915926685, -64816.57204825545, -127219.73684069359, 32758.67197020912, -77876.65163000247, 21976.10103799117, -123037.27841821652, 0.052000000000000005, 0.962, 0.038, 192.0, 0.0, 0.0, 0.0, 0.0, 0.0, 0.0, 0.0, 0.0, 0.0, 1.6664034483405569E9, 0.0, 2022-10-21 18:50:48.340
189.0, -103162.28606251313, -146670.53779012416, -64837.02389443206, -127234.55604726746, 32752.480536995, -77889.57093829762, 21952.6317063131, -123073.57765121195, 0.052000000000000005, 0.962, 0.038, 192.0, 0.0, 0.0, 0.0, 0.0, 0.0, 0.0, 0.0, 0.0, 0.0, 1.6664034483405712E9, 0.0, 2022-10-21 18:50:48.340
190.0, -103158.17334153336, -146663.9216737654, -64828.97726642815, -127231.9855966551, 32756.883830652696, -77892.29785112117, 21940.6288195406, -123024.11324073235, 0.052000000000000005, 0.962, 0.038, 192.0, 0.0, 0.0, 0.0, 0.0, 0.0, 0.0, 0.0, 0.0, 0.0, 1.6664034483405857E9, 0.0, 2022-10-21 18:50:48.340
191.0, -103166.71170791528, -146676.41629891592, -64816.236772088625, -127223.26841631751, 32759.6330952207, -77878.26095560324, 21971.004840255362, -123010.23280742561, 0.052000000000000005, 0.962, 0.038, 192.0, 0.0, 0.0, 0.0, 0.0, 0.0, 0.0, 0.0, 0.0, 0.0, 1.6664034483406003E9, 0.0, 2022-10-21 18:50:48.340
192.0, -103180.92741738886, -146690.4755461783, -64828.59728677241, -127234.31017807845, 32751.921743383617, -77878.99856317027, 21993.468343432945, -123042.2405054856, 0.054, 0.96, 0.042, 192.0, 1.0, 176.0, 30.0, 0.0, 1.0, 80.0, 0.0, 0.0, 0.0, 1.6664034483406143E9, 0.0, 2022-10-21 18:50:48.340
193.0, -103176.9041033869, -146686.5192874097, -64829.75957748409, -127238.55700952496, 32756.302685296858, -77884.34063009509, 21982.87361656113, -123028.40477566778, 0.054, 0.96, 0.042, 192.0, 0.0, 0.0, 0.0, 0.0, 0.0, 0.0, 0.0, 0.0, 0.0, 1.6664034483406293E9, 0.0, 2022-10-21 18:50:48.340
194.0, -103164.72240265875, -146672.79531631415, -64824.57397277046, -127234.533695523, 32762.807042933353, -77883.31244985014, 21962.35471515116, -123046.95672356567, 0.054, 0.96, 0.042, 192.0, 0.0, 0.0, 0.0, 0.0, 0.0, 0.0, 0.0, 0.0, 0.0, 1.6664034483406436E9, 0.0, 2022-10-21 18:50:48.340
195.0, -103173.32782427405, -146680.93135129588, -64829.580763528444, -127238.15467812476, 32750.714749183033, -77883.22304287233, 21959.49369186088, -123066.0451133305, 0.054, 0.96, 0.042, 192.0, 0.0, 0.0, 0.0, 0.0, 0.0, 0.0, 0.0, 0.0, 0.0, 1.666403448340658E9, 0.0, 2022-10-21 18:50:48.340
196.0, -103179.34044353252, -146680.50666815124, -64831.88299320734, -127238.60171301386, 32749.038368348884, -77878.70799049234, 21987.187503241006, -123016.78186855101, 0.054, 0.96, 0.042, 192.0, 0.0, 0.0, 0.0, 0.0, 0.0, 0.0, 0.0, 0.0, 0.0, 1.6664034483406858E9, 0.0, 2022-10-21 18:50:48.340
197.0, -103173.26076904069, -146677.15390648294, -64819.298961079, -127244.14494563878, 32751.139432327684, -77882.64189751649, 21990.786134098307, -123016.33483366191, 0.054, 0.96, 0.042, 192.0, 0.0, 0.0, 0.0, 0.0, 0.0, 0.0, 0.0, 0.0, 0.0, 1.6664034483407004E9, 0.0, 2022-10-21 18:50:48.340
198.0, -103167.73988816023, -146669.39785115694, -64813.88983892082, -127245.68721600619, 32753.15108932866, -77888.5874615416, 21973.35177342317, -123023.8897232878, 0.054, 0.96, 0.042, 192.0, 0.0, 0.0, 0.0, 0.0, 0.0, 0.0, 0.0, 0.0, 0.0, 1.6664034483407166E9, 0.0, 2022-10-21 18:50:48.340
199.0, -103161.70491715729, -146666.55917961113, -64809.799469685495, -127234.44428854517, 32757.24145856398, -77878.3280108366, 21981.152532238073, -123026.10254598888, 0.054, 0.96, 0.042, 192.0, 0.0, 0.0, 0.0, 0.0, 0.0, 0.0, 0.0, 0.0, 0.0, 1.6664034483407311E9, 0.0, 2022-10-21 18:50:48.340
200.0, -103163.51540845817, -146674.58345587057, -64810.93940865272, -127219.33450929339, 32761.91297315514, -77867.86739443152, 21998.586892913212, -123022.36980466484, 0.054, 0.96, 0.042, 192.0, 0.0, 0.0, 0.0, 0.0, 0.0, 0.0, 0.0, 0.0, 0.0, 1.6664034483407457E9, 0.0, 2022-10-21 18:50:48.340
201.0, -103165.30354801459, -146668.95081626784, -64813.711024965174, -127235.94185542368, 32754.425138762614, -77882.64189751649, 21996.083497534215, -123040.43001418472, 0.054, 0.96, 0.042, 192.0, 0.0, 0.0, 0.0, 0.0, 0.0, 0.0, 0.0, 0.0, 0.0, 1.66640344834076E9, 0.0, 2022-10-21 18:50:48.340
202.0, -103159.93912934532, -146665.35218541053, -64810.69353946371, -127252.19157364269, 32754.067510851328, -77903.11609543754, 21961.460645372947, -123054.31044749147, 0.054, 0.9580000000000001, 0.032, 192.0, 1.0, 176.0, 29.0, 240.0, 1.0, 0.0, 0.0, 0.0, 0.0, 1.6664034483407743E9, 0.0, 2022-10-21 18:50:48.340
203.0, -103161.63786192393, -146673.53292388117, -64815.2979988215, -127243.1838206272, 32759.521336498423, -77890.30854586465, 21952.00585746835, -123031.15404023576, 0.054, 0.9580000000000001, 0.032, 192.0, 0.0, 0.0, 0.0, 0.0, 0.0, 0.0, 0.0, 0.0, 0.0, 1.6664034483407896E9, 0.0, 2022-10-21 18:50:48.340
204.0, -103168.96923410526, -146672.61650235852, -64819.656588990285, -127241.77566072652, 32756.57090623032, -77863.50880426273, 21993.60245389968, -123024.35910992135, 0.054, 0.9580000000000001, 0.032, 192.0, 0.0, 0.0, 0.0, 0.0, 0.0, 0.0, 0.0, 0.0, 0.0, 1.666403448340804E9, 0.0, 2022-10-21 18:50:48.340
205.0, -103162.73309740223, -146664.1675429544, -64807.720757451156, -127234.71250947863, 32767.612667991245, -77865.90044091946, 22002.431392959523, -123033.97036003714, 0.054, 0.9580000000000001, 0.032, 192.0, 0.0, 0.0, 0.0, 0.0, 0.0, 0.0, 0.0, 0.0, 0.0, 1.6664034483408191E9, 0.0, 2022-10-21 18:50:48.340
206.0, -103167.87399862695, -146672.1694674694, -64809.08421386292, -127241.35097758187, 32768.73025521401, -77868.13561536498, 21987.276910218825, -123030.05880475746, 0.054, 0.9580000000000001, 0.032, 192.0, 0.0, 0.0, 0.0, 0.0, 0.0, 0.0, 0.0, 0.0, 0.0, 1.6664034483408337E9, 0.0, 2022-10-21 18:50:48.340
207.0, -103174.46776324126, -146680.03728151767, -64821.84705994691, -127246.58128578441, 32759.409577776147, -77877.76921722523, 21975.92222403553, -123034.75267109307, 0.054, 0.9580000000000001, 0.032, 192.0, 0.0, 0.0, 0.0, 0.0, 0.0, 0.0, 0.0, 0.0, 0.0, 1.6664034483408477E9, 0.0, 2022-10-21 18:50:48.340
208.0, -103181.26269355568, -146683.27828446368, -64836.62156303186, -127256.75132951156, 32743.71865316852, -77889.39212434199, 21978.850302559174, -123045.16858400925, 0.054, 0.9580000000000001, 0.032, 192.0, 0.0, 0.0, 0.0, 0.0, 0.0, 0.0, 0.0, 0.0, 0.0, 1.6664034483408625E9, 0.0, 2022-10-21 18:50:48.340
209.0, -103164.63299568093, -146668.14615346745, -64821.66824599126, -127246.17895438422, 32762.203545833057, -77872.56126076714, 22001.626730159132, -123040.96645605165, 0.054, 0.9580000000000001, 0.032, 192.0, 0.0, 0.0, 0.0, 0.0, 0.0, 0.0, 0.0, 0.0, 0.0, 1.6664034483408763E9, 0.0, 2022-10-21 18:50:48.340
210.0, -103164.76710614767, -146667.49795287824, -64824.68573149273, -127258.45006209018, 32761.600048732766, -77871.66719098893, 21989.86971257564, -123073.48824423412, 0.054, 0.9580000000000001, 0.032, 192.0, 0.0, 0.0, 0.0, 0.0, 0.0, 0.0, 0.0, 0.0, 0.0, 1.666403448340891E9, 0.0, 2022-10-21 18:50:48.340
211.0, -103158.26274851117, -146664.14519120994, -64796.90251313478, -127252.6386085318, 32768.059702880346, -77872.98594391179, 21987.500427663377, -123021.34162441989, 0.052000000000000005, 0.96, 0.032, 192.0, 1.0, 160.0, 30.0, 0.0, 1.0, 0.0, 0.0, 0.0, 0.0, 1.666403448340918E9, 0.0, 2022-10-21 18:50:48.340
212.0, -103176.99351036471, -146684.75349959775, -64818.98603665663, -127262.36161736985, 32750.357121271747, -77885.59232778459, 21982.67245086103, -123035.8926100603, 0.052000000000000005, 0.96, 0.032, 192.0, 0.0, 0.0, 0.0, 0.0, 0.0, 0.0, 0.0, 0.0, 0.0, 1.666403448340933E9, 0.0, 2022-10-21 18:50:48.340
213.0, -103169.103344572, -146672.43768840286, -64823.45638554769, -127253.77854749901, 32757.643789964175, -77879.9820399263, 21995.859980089663, -123035.043243771, 0.052000000000000005, 0.96, 0.032, 192.0, 0.0, 0.0, 0.0, 0.0, 0.0, 0.0, 0.0, 0.0, 0.0, 1.6664034483409474E9, 0.0, 2022-10-21 18:50:48.340
214.0, -103168.87982712744, -146670.44838314634, -64824.3504553259, -127258.91944872374, 32756.503850996956, -77873.20946135634, 21999.436259202514, -123032.65160711428, 0.052000000000000005, 0.96, 0.032, 192.0, 0.0, 0.0, 0.0, 0.0, 0.0, 0.0, 0.0, 0.0, 0.0, 1.6664034483409622E9, 0.0, 2022-10-21 18:50:48.340
215.0, -103159.08976305602, -146662.24529293124, -64805.820859172454, -127252.75036725408, 32763.52229875592, -77871.44367354437, 21999.033927802317, -123029.00827276806, 0.052000000000000005, 0.96, 0.032, 192.0, 0.0, 0.0, 0.0, 0.0, 0.0, 0.0, 0.0, 0.0, 0.0, 1.666403448340978E9, 0.0, 2022-10-21 18:50:48.340
216.0, -103154.66411765387, -146656.3220806506, -64800.81406841446, -127238.17702986921, 32767.85853718025, -77862.0335891287, 22019.172849556548, -123016.93833076219, 0.052000000000000005, 0.96, 0.032, 192.0, 0.0, 0.0, 0.0, 0.0, 0.0, 0.0, 0.0, 0.0, 0.0, 1.6664034483409927E9, 0.0, 2022-10-21 18:50:48.340
217.0, -103157.70395489979, -146655.49506610574, -64803.652739960286, -127244.83784971689, 32761.24242082148, -77874.28234509019, 22024.000826358893, -123035.4455751712, 0.052000000000000005, 0.96, 0.032, 192.0, 0.0, 0.0, 0.0, 0.0, 0.0, 0.0, 0.0, 0.0, 0.0, 1.6664034483410156E9, 0.0, 2022-10-21 18:50:48.341
218.0, -103157.23456826623, -146652.20935967081, -64809.665359218765, -127244.65903576124, 32768.17146160263, -77875.22111835732, 22016.892971622106, -123032.02575826953, 0.052000000000000005, 0.96, 0.032, 192.0, 0.0, 0.0, 0.0, 0.0, 0.0, 0.0, 0.0, 0.0, 0.0, 1.6664034483410296E9, 0.0, 2022-10-21 18:50:48.341
219.0, -103156.80988512158, -146653.79633352713, -64813.95689415418, -127248.2353148741, 32770.18311860361, -77880.78670272669, 21986.516950907346, -123029.50001114608, 0.052000000000000005, 0.96, 0.032, 192.0, 0.0, 0.0, 0.0, 0.0, 0.0, 0.0, 0.0, 0.0, 0.0, 1.6664034483410437E9, 0.0, 2022-10-21 18:50:48.341
220.0, -103163.15778054688, -146654.95862423882, -64818.896629678806, -127255.90196322226, 32762.136490599692, -77882.37367658303, 21977.95623278096, -123037.47958391662, 0.052000000000000005, 0.96, 0.032, 192.0, 0.0, 0.0, 0.0, 0.0, 0.0, 0.0, 0.0, 0.0, 0.0, 1.6664034483410587E9, 0.0, 2022-10-21 18:50:48.341
221.0, -103162.97896659124, -146653.39400212694, -64804.97149288315, -127256.14783241128, 32760.214240576537, -77881.881938205, 21996.709346378964, -123034.2385809706, 0.05, 0.96, 0.03, 192.0, 1.0, 144.0, 30.0, 0.0, 0.0, 240.0, 0.0, 0.0, 0.0, 1.6664034483410726E9, 0.0, 2022-10-21 18:50:48.341
222.0, -103174.08778358554, -146670.2695691907, -64822.383501813834, -127267.1895941722, 32753.91104864014, -77884.72060975083, 21995.81527660075, -123041.27938047402, 0.05, 0.96, 0.03, 192.0, 0.0, 0.0, 0.0, 0.0, 0.0, 0.0, 0.0, 0.0, 0.0, 1.666403448341087E9, 0.0, 2022-10-21 18:50:48.341
223.0, -103187.52118200317, -146683.94883679735, -64845.11522592488, -127287.01559150405, 32742.913990368128, -77906.82648501713, 21965.327497163715, -123044.3415694644, 0.05, 0.96, 0.03, 192.0, 0.0, 0.0, 0.0, 0.0, 0.0, 0.0, 0.0, 0.0, 0.0, 1.666403448341101E9, 0.0, 2022-10-21 18:50:48.341
224.0, -103171.83025739554, -146661.50768536422, -64819.58953375692, -127265.64732380478, 32761.376531288213, -77889.70504876436, 21966.936822764495, -123024.85084829938, 0.05, 0.96, 0.03, 192.0, 0.0, 0.0, 0.0, 0.0, 0.0, 0.0, 0.0, 0.0, 0.0, 1.6664034483411148E9, 0.0, 2022-10-21 18:50:48.341
225.0, -103171.91966437336, -146662.35705165353, -64812.61578948687, -127259.74646326859, 32762.09178711078, -77875.60109801307, 21995.03296554482, -123031.62342686934, 0.05, 0.96, 0.03, 192.0, 0.0, 0.0, 0.0, 0.0, 0.0, 0.0, 0.0, 0.0, 0.0, 1.6664034483411295E9, 0.0, 2022-10-21 18:50:48.341
226.0, -103172.34434751801, -146664.81574354362, -64817.73433896713, -127266.11671043835, 32764.90810691215, -77873.50003403427, 22004.35364298268, -123034.14917399279, 0.05, 0.96, 0.03, 192.0, 0.0, 0.0, 0.0, 0.0, 0.0, 0.0, 0.0, 0.0, 0.0, 1.6664034483411565E9, 0.0, 2022-10-21 18:50:48.341
227.0, -103168.14221956042, -146659.20545568533, -64823.45638554769, -127275.43738787621, 32765.24338307898, -77886.24052837379, 21975.25167170187, -123037.3454734499, 0.05, 0.96, 0.03, 192.0, 0.0, 0.0, 0.0, 0.0, 0.0, 0.0, 0.0, 0.0, 0.0, 1.6664034483411703E9, 0.0, 2022-10-21 18:50:48.341
228.0, -103174.02072835216, -146659.98776674125, -64829.2007838727, -127284.60160310288, 32756.414444019134, -77895.36004011155, 21950.038903956283, -123042.86635433036, 0.05, 0.96, 0.03, 192.0, 0.0, 0.0, 0.0, 0.0, 0.0, 0.0, 0.0, 0.0, 0.0, 1.6664034483411844E9, 0.0, 2022-10-21 18:50:48.341
229.0, -103166.68935617083, -146648.3201561356, -64824.17164137026, -127265.82613776042, 32767.947944158073, -77871.04134214418, 21984.460590417457, -123024.1355924768, 0.05, 0.96, 0.03, 192.0, 0.0, 0.0, 0.0, 0.0, 0.0, 0.0, 0.0, 0.0, 0.0, 1.6664034483411982E9, 0.0, 2022-10-21 18:50:48.341
230.0, -103181.5085627447, -146666.84975228904, -64839.527289811056, -127266.72020753864, 32762.53882199989, -77872.44950204487, 22000.755012125377, -123040.45236592917, 0.05, 0.96, 0.03, 192.0, 0.0, 0.0, 0.0, 0.0, 0.0, 0.0, 0.0, 0.0, 0.0, 1.666403448341212E9, 0.0, 2022-10-21 18:50:48.341
231.0, -103178.91576038787, -146662.08883072005, -64832.77706298555, -127278.92426001123, 32760.61657197673, -77887.9839644413, 21980.549035137778, -123047.82844159943, 0.054, 0.96, 0.034, 192.0, 1.0, 176.0, 30.0, 0.0, 1.0, 16.0, 0.0, 0.0, 0.0, 1.666403448341226E9, 0.0, 2022-10-21 18:50:48.341
232.0, -103155.73700138772, -146637.43485658587, -64796.522533479045, -127246.89421020678, 32790.32204035784, -77859.79841468316, 21990.853189331676, -123010.27751091452, 0.054, 0.96, 0.034, 192.0, 0.0, 0.0, 0.0, 0.0, 0.0, 0.0, 0.0, 0.0, 0.0, 1.666403448341241E9, 0.0, 2022-10-21 18:50:48.341
233.0, -103173.08195508504, -146652.34347013754, -64817.95785641168, -127258.785338257, 32775.50283378397, -77861.36303679502, 22002.65491040408, -123025.23082795512, 0.054, 0.96, 0.034, 192.0, 0.0, 0.0, 0.0, 0.0, 0.0, 0.0, 0.0, 0.0, 0.0, 1.6664034483412547E9, 0.0, 2022-10-21 18:50:48.341
234.0, -103182.46968775627, -146663.25112143173, -64838.186185143735, -127277.22552743263, 32761.19771733257, -77882.57484228311, 21995.859980089663, -123048.85662184437, 0.054, 0.96, 0.034, 192.0, 0.0, 0.0, 0.0, 0.0, 0.0, 0.0, 0.0, 0.0, 0.0, 1.6664034483412688E9, 0.0, 2022-10-21 18:50:48.341
235.0, -103172.92549287385, -146655.42801087236, -64826.96560942717, -127271.36937038534, 32772.954734916064, -77881.30079284916, 21993.289529477304, -123022.79448780949, 0.054, 0.96, 0.034, 192.0, 0.0, 0.0, 0.0, 0.0, 0.0, 0.0, 0.0, 0.0, 0.0, 1.6664034483412828E9, 0.0, 2022-10-21 18:50:48.341
236.0, -103174.24424579671, -146653.28224340465, -64819.83540294593, -127265.06617844895, 32780.75549373096, -77869.27555433221, 21992.68603237701, -123017.96651100714, 0.054, 0.96, 0.034, 192.0, 0.0, 0.0, 0.0, 0.0, 0.0, 0.0, 0.0, 0.0, 0.0, 1.666403448341297E9, 0.0, 2022-10-21 18:50:48.341
237.0, -103177.08291734254, -146659.98776674125, -64822.60701925839, -127263.92623948172, 32777.9391739296, -77865.05107463016, 21995.658814389564, -123026.25900820005, 0.054, 0.96, 0.034, 192.0, 0.0, 0.0, 0.0, 0.0, 0.0, 0.0, 0.0, 0.0, 0.0, 1.6664034483413112E9, 0.0, 2022-10-21 18:50:48.341
238.0, -103180.61449296647, -146660.50185686373, -64827.23383036064, -127275.59385008739, 32768.93142091411, -77870.48254853279, 22007.281721506326, -123030.48348790211, 0.054, 0.96, 0.034, 192.0, 0.0, 0.0, 0.0, 0.0, 0.0, 0.0, 0.0, 0.0, 0.0, 1.666403448341325E9, 0.0, 2022-10-21 18:50:48.341
239.0, -103172.67962368485, -146652.7681532822, -64825.02100765956, -127276.28675416551, 32777.04510415138, -77875.22111835732, 21998.050451046285, -123030.05880475746, 0.054, 0.96, 0.034, 192.0, 0.0, 0.0, 0.0, 0.0, 0.0, 0.0, 0.0, 0.0, 0.0, 1.6664034483413389E9, 0.0, 2022-10-21 18:50:48.341
240.0, -103166.30937651508, -146644.02862120018, -64813.711024965174, -127269.73769304011, 32784.287069354905, -77866.19101359737, 21995.63646264511, -123027.287188445, 0.05, 0.96, 0.038, 192.0, 1.0, 144.0, 30.0, 0.0, 1.0, 48.0, 0.0, 0.0, 0.0, 1.6664034483413537E9, 0.0, 2022-10-21 18:50:48.341
241.0, -103173.66310044088, -146652.45522885982, -64820.997693657606, -127266.60844881636, 32776.240441350994, -77862.54767925116, 22005.4935819499, -123036.71962460515, 0.05, 0.96, 0.038, 192.0, 0.0, 0.0, 0.0, 0.0, 0.0, 0.0, 0.0, 0.0, 0.0, 1.6664034488183541E9, 0.0, 2022-10-21 18:50:48.818
242.0, -103192.12564136097, -146668.48142963427, -64844.757598013595, -127282.74640831309, 32758.82843242031, -77872.96359216733, 22017.563523955767, -123051.71764513466, 0.05, 0.96, 0.038, 192.0, 0.0, 0.0, 0.0, 0.0, 0.0, 0.0, 0.0, 0.0, 0.0, 1.6664034488185112E9, 0.0, 2022-10-21 18:50:48.818
243.0, -103192.01388263868, -146668.10144997854, -64834.341685097424, -127293.4975973961, 32764.125795856216, -77883.55831903915, 22003.772497626844, -123038.77598509502, 0.05, 0.96, 0.038, 192.0, 0.0, 0.0, 0.0, 0.0, 0.0, 0.0, 0.0, 0.0, 0.0, 1.666403448818544E9, 0.0, 2022-10-21 18:50:48.818
244.0, -103178.46872549877, -146656.45619111732, -64826.518574538066, -127284.19927170269, 32772.77592096042, -77881.36784808253, 21992.998956799383, -123031.66813035824, 0.05, 0.96, 0.038, 192.0, 0.0, 0.0, 0.0, 0.0, 0.0, 0.0, 0.0, 0.0, 0.0, 1.6664034488185737E9, 0.0, 2022-10-21 18:50:48.818
245.0, -103175.71946093076, -146654.31042364961, -64818.80722270098, -127267.1895941722, 32782.7895024764, -77870.81782469962, 22000.330328980726, -123022.36980466484, 0.05, 0.96, 0.038, 192.0, 0.0, 0.0, 0.0, 0.0, 0.0, 0.0, 0.0, 0.0, 0.0, 1.6664034488185964E9, 0.0, 2022-10-21 18:50:48.818
246.0, -103195.92543791837, -146656.63500507295, -64835.16869964227, -127268.35188488387, 32773.55823201635, -77860.11133910553, 22031.533364240335, -123031.13168849131, 0.05, 0.96, 0.038, 192.0, 0.0, 0.0, 0.0, 0.0, 0.0, 0.0, 0.0, 0.0, 0.0, 1.6664034488186212E9, 0.0, 2022-10-21 18:50:48.818
247.0, -103165.9517486038, -146641.94990896582, -64818.31548432297, -127267.16724242775, 32785.20349087757, -77869.65553398796, 22029.521707239357, -123005.82951376791, 0.05, 0.96, 0.038, 192.0, 0.0, 0.0, 0.0, 0.0, 0.0, 0.0, 0.0, 0.0, 0.0, 1.666403448818646E9, 0.0, 2022-10-21 18:50:48.818
248.0, -103152.92068158636, -146636.1608071519, -64811.341740052914, -127261.57930631391, 32794.85944448226, -77866.45923453083, 22004.755974382875, -123007.2823771575, 0.05, 0.96, 0.038, 192.0, 0.0, 0.0, 0.0, 0.0, 0.0, 0.0, 0.0, 0.0, 0.0, 1.666403448818668E9, 0.0, 2022-10-21 18:50:48.818
249.0, -103165.77293464815, -146644.90033923392, -64815.78973719952, -127271.25761166307, 32782.76715073194, -77873.07535088962, 21995.122372522637, -123031.51166814705, 0.05, 0.96, 0.038, 192.0, 0.0, 0.0, 0.0, 0.0, 0.0, 0.0, 0.0, 0.0, 0.0, 1.6664034488186908E9, 0.0, 2022-10-21 18:50:48.818
250.0, -103175.22772255275, -146654.84686551653, -64828.37376932785, -127276.89025126581, 32773.781749460904, -77868.22502234281, 22020.245733290405, -123033.36686293685, 0.054, 0.962, 0.036000000000000004, 192.0, 1.0, 176.0, 30.0, 16.0, 1.0, 32.0, 0.0, 0.0, 0.0, 1.666403448818714E9, 0.0, 2022-10-21 18:50:48.818
251.0, -103179.4074987659, -146655.49506610574, -64837.694446765716, -127285.71919032565, 32769.57962150331, -77885.2346998733, 22018.12231756715, -123033.09864200339, 0.054, 0.962, 0.036000000000000004, 192.0, 0.0, 0.0, 0.0, 0.0, 0.0, 0.0, 0.0, 0.0, 0.0, 1.66640344881874E9, 0.0, 2022-10-21 18:50:48.818
252.0, -103171.85260914, -146649.95183348082, -64822.69642623621, -127283.97575425814, 32783.59416527679, -77897.19288315688, 21982.895968305587, -123020.89458953078, 0.054, 0.962, 0.036000000000000004, 192.0, 0.0, 0.0, 0.0, 0.0, 0.0, 0.0, 0.0, 0.0, 0.0, 1.6664034488187633E9, 0.0, 2022-10-21 18:50:48.818
253.0, -103176.18884756434, -146652.5222840932, -64822.942295425215, -127277.89607976629, 32787.52807230092, -77875.33287707959, 21982.136008994104, -123023.26387444304, 0.054, 0.962, 0.036000000000000004, 192.0, 0.0, 0.0, 0.0, 0.0, 0.0, 0.0, 0.0, 0.0, 0.0, 1.6664034488187857E9, 0.0, 2022-10-21 18:50:48.818
254.0, -103193.5561530061, -146668.34731916754, -64843.304734624, -127284.91452752525, 32772.954734916064, -77868.76146420973, 22000.39738421409, -123040.80999384046, 0.054, 0.962, 0.036000000000000004, 192.0, 0.0, 0.0, 0.0, 0.0, 0.0, 0.0, 0.0, 0.0, 0.0, 1.6664034488188083E9, 0.0, 2022-10-21 18:50:48.818
255.0, -103188.86228667048, -146660.50185686373, -64835.79454848702, -127284.31103042497, 32783.59416527679, -77860.44661527236, 22022.92794262504, -123020.3357959194, 0.054, 0.962, 0.036000000000000004, 192.0, 0.0, 0.0, 0.0, 0.0, 0.0, 0.0, 0.0, 0.0, 0.0, 1.6664034488188329E9, 0.0, 2022-10-21 18:50:48.818
0.0, -103174.75833591919, -146646.0626299456, -64812.25816157558, -127275.70560880967, 32803.576624819834, -77857.65264721545, 22015.484811721424, -122999.57102532042, 0.054, 0.962, 0.036000000000000004, 192.0, 0.0, 0.0, 0.0, 0.0, 0.0, 0.0, 0.0, 0.0, 0.0, 1.6664034488189383E9, 0.0, 2022-10-21 18:50:48.818
1.0, -103193.51144951719, -146662.2229411868, -64835.36986534236, -127287.86495779335, 32786.27637461142, -77872.11422587803, 21984.77351483983, -123023.33092967642, 0.054, 0.962, 0.036000000000000004, 192.0, 0.0, 0.0, 0.0, 0.0, 0.0, 0.0, 0.0, 0.0, 0.0, 1.666403448818961E9, 0.0, 2022-10-21 18:50:48.818
2.0, -103204.03912115564, -146663.117010965, -64834.87812696435, -127274.61037333136, 32787.86334846775, -77856.51270824822, 22007.438183717513, -123020.00051975258, 0.054, 0.962, 0.036000000000000004, 192.0, 0.0, 0.0, 0.0, 0.0, 0.0, 0.0, 0.0, 0.0, 0.0, 1.6664034488189845E9, 0.0, 2022-10-21 18:50:48.818
3.0, -103188.63876922593, -146662.871141776, -64831.57006878497, -127277.65021057728, 32787.572775789835, -77848.30961803313, 22037.613038732175, -123016.93833076219, 0.054, 0.962, 0.036000000000000004, 192.0, 0.0, 0.0, 0.0, 0.0, 0.0, 0.0, 0.0, 0.0, 0.0, 1.6664034488190067E9, 0.0, 2022-10-21 18:50:48.819
4.0, -103183.67668195686, -146663.65345283193, -64833.06763566347, -127287.77555081554, 32786.49989205598, -77868.26972583172, 22022.279742035837, -123018.65941508526, 0.052000000000000005, 0.9580000000000001, 0.04, 192.0, 1.0, 160.0, 29.0, 240.0, 1.0, 64.0, 0.0, 0.0, 0.0, 1.6664034488190308E9, 0.0, 2022-10-21 18:50:48.819
5.0, -103184.2578273127, -146658.33373765156, -64830.564240284475, -127286.50150138159, 32787.52807230092, -77874.86349044603, 21994.071840533237, -123012.17740919322, 0.052000000000000005, 0.9580000000000001, 0.04, 192.0, 0.0, 0.0, 0.0, 0.0, 0.0, 0.0, 0.0, 0.0, 0.0, 1.666403448819056E9, 0.0, 2022-10-21 18:50:48.819
6.0, -103209.04591191364, -146669.84488604605, -64847.64097304833, -127297.72207709815, 32773.1335488717, -77879.132673637, 21986.516950907346, -123036.47375541614, 0.052000000000000005, 0.9580000000000001, 0.04, 192.0, 0.0, 0.0, 0.0, 0.0, 0.0, 0.0, 0.0, 0.0, 0.0, 1.6664034488190856E9, 0.0, 2022-10-21 18:50:48.819
7.0, -103187.40942328089, -146661.39592664194, -64834.52049905306, -127282.07585597943, 32788.64565952369, -77864.80520544115, 22007.5946459287, -123024.04618549898, 0.052000000000000005, 0.9580000000000001, 0.04, 192.0, 0.0, 0.0, 0.0, 0.0, 0.0, 0.0, 0.0, 0.0, 0.0, 1.6664034488191085E9, 0.0, 2022-10-21 18:50:48.819
8.0, -103181.82148716706, -146652.74580153773, -64830.2513158621, -127282.61229784637, 32797.005211949974, -77855.7303971923, 22012.914361109062, -123018.86058078535, 0.052000000000000005, 0.9580000000000001, 0.04, 192.0, 0.0, 0.0, 0.0, 0.0, 0.0, 0.0, 0.0, 0.0, 0.0, 1.6664034488191316E9, 0.0, 2022-10-21 18:50:48.819
9.0, -103187.56588549208, -146658.37844114046, -64836.867432220875, -127289.98837351661, 32794.23359563752, -77856.73622569279, 22003.146648782094, -123024.29205468799, 0.052000000000000005, 0.9580000000000001, 0.04, 192.0, 0.0, 0.0, 0.0, 0.0, 0.0, 0.0, 0.0, 0.0, 0.0, 1.6664034488191535E9, 0.0, 2022-10-21 18:50:48.819
10.0, -103201.71453973229, -146673.46586864782, -64851.9101562393, -127298.23616722062, 32782.40952282066, -77869.05203688766, 22000.084459791717, -123031.01992976904, 0.052000000000000005, 0.9580000000000001, 0.04, 192.0, 0.0, 0.0, 0.0, 0.0, 0.0, 0.0, 0.0, 0.0, 0.0, 1.6664034488191755E9, 0.0, 2022-10-21 18:50:48.819
11.0, -103204.79908046713, -146677.19860997185, -64839.32612411096, -127291.15066422829, 32793.11600841475, -77858.54671699366, 22018.50229722289, -123028.7400518346, 0.052000000000000005, 0.9580000000000001, 0.04, 192.0, 0.0, 0.0, 0.0, 0.0, 0.0, 0.0, 0.0, 0.0, 0.0, 1.6664034488191984E9, 0.0, 2022-10-21 18:50:48.819
12.0, -103194.78549895114, -146659.56308359661, -64831.54771704051, -127287.37321941534, 32808.91869174465, -77850.03070235619, 22036.674265465055, -123021.16281046424, 0.052000000000000005, 0.9580000000000001, 0.04, 192.0, 0.0, 0.0, 0.0, 0.0, 0.0, 0.0, 0.0, 0.0, 0.0, 1.6664034488192215E9, 0.0, 2022-10-21 18:50:48.819
13.0, -103189.30932155959, -146655.7632870392, -64827.703216994196, -127292.78234157353, 32810.68447955662, -77872.62831600051, 21995.97173881194, -123024.06853724344, 0.052000000000000005, 0.9580000000000001, 0.04, 192.0, 0.0, 0.0, 0.0, 0.0, 0.0, 0.0, 0.0, 0.0, 0.0, 1.6664034488192437E9, 0.0, 2022-10-21 18:50:48.819
