%OpenBCI Raw EEG Data
%Number of channels = 8
%Sample Rate = 250 Hz
%Board = OpenBCI_GUI$BoardCytonSerial
Sample Index, EXG Channel 0, EXG Channel 1, EXG Channel 2, EXG Channel 3, EXG Channel 4, EXG Channel 5, EXG Channel 6, EXG Channel 7, Accel Channel 0, Accel Channel 1, Accel Channel 2, Other, Other, Other, Other, Other, Other, Other, Analog Channel 0, Analog Channel 1, Analog Channel 2, Timestamp, Other, Timestamp (Formatted)
233.0, -86555.09639443117, -119054.13050104745, 45794.745778411125, 51387.711034740336, 61270.19956948752, 103890.39413814475, 65749.42210309769, 69745.82460472877, 0.0, 0.0, 0.0, 192.0, 0.0, 0.0, 0.0, 0.0, 0.0, 0.0, 0.0, 0.0, 0.0, 1.666556559845812E9, 0.0, 2022-10-23 13:22:39.845
234.0, -86529.16837086302, -119025.67673035583, 43622.37973479983, 51276.93578921983, 61160.67602165652, 103013.75872060761, 64334.489623843394, 68372.91340505045, 0.0, 0.0, 0.0, 192.0, 0.0, 0.0, 0.0, 0.0, 0.0, 0.0, 0.0, 0.0, 0.0, 1.6665565598458288E9, 0.0, 2022-10-23 13:22:39.845
235.0, -86557.59978981016, -119049.347227734, 43219.35543052619, 51442.40575342247, 61284.86231385021, 102995.02795875407, 64185.76111623778, 68430.53620225623, 0.042, 0.9540000000000001, 0.112, 192.0, 1.0, 80.0, 29.0, 208.0, 3.0, 128.0, 0.0, 0.0, 0.0, 1.666556559845837E9, 0.0, 2022-10-23 13:22:39.845
236.0, -86594.03313327231, -119088.44042878634, 44660.52885777102, 51605.99817109087, 61402.141917007204, 103616.71937903398, 65158.3302209771, 69442.80200514817, 0.042, 0.9540000000000001, 0.112, 192.0, 0.0, 0.0, 0.0, 0.0, 0.0, 0.0, 0.0, 0.0, 0.0, 1.6665565598458476E9, 0.0, 2022-10-23 13:22:39.845
237.0, -86575.2800196743, -119077.7562949367, 46011.602403116514, 51444.395058678994, 61311.08091009628, 104000.85645924289, 65904.07382298396, 69950.14190079474, 0.042, 0.9540000000000001, 0.112, 192.0, 0.0, 0.0, 0.0, 0.0, 0.0, 0.0, 0.0, 0.0, 0.0, 1.666556559845856E9, 0.0, 2022-10-23 13:22:39.845
238.0, -86521.34526030366, -119024.38032917742, 43971.46927970282, 51247.252672583185, 61151.75767561885, 103135.62043137795, 64546.98765837999, 68552.88965140458, 0.042, 0.9540000000000001, 0.112, 192.0, 0.0, 0.0, 0.0, 0.0, 0.0, 0.0, 0.0, 0.0, 0.0, 1.666556559845864E9, 0.0, 2022-10-23 13:22:39.845
239.0, -86537.59497852265, -119038.26076248418, 43193.47211044694, 51416.231860665306, 61261.79531357233, 102953.27490011154, 64146.55615646317, 68360.21761419984, 0.042, 0.9540000000000001, 0.112, 192.0, 0.0, 0.0, 0.0, 0.0, 0.0, 0.0, 0.0, 0.0, 0.0, 1.6665565598458724E9, 0.0, 2022-10-23 13:22:39.845
240.0, -86579.90683077656, -119079.0526961151, 44246.127515569635, 51574.10223175314, 61371.72119280353, 103438.24069955834, 64887.69529911224, 69184.59465320047, 0.042, 0.9540000000000001, 0.112, 192.0, 0.0, 0.0, 0.0, 0.0, 0.0, 0.0, 0.0, 0.0, 0.0, 1.6665565598458803E9, 0.0, 2022-10-23 13:22:39.845
241.0, -86584.69010409, -119088.39572529742, 46046.359365744516, 51507.62814374306, 61346.3296111023, 104031.36659042438, 65944.2175560257, 70035.50321286956, 0.042, 0.9540000000000001, 0.112, 192.0, 0.0, 0.0, 0.0, 0.0, 0.0, 0.0, 0.0, 0.0, 0.0, 1.6665565598458881E9, 0.0, 2022-10-23 13:22:39.845
242.0, -86525.27916732778, -119032.18108799233, 44311.81929252378, 51231.15941657536, 61139.19599523497, 103241.5677000961, 64745.91818403223, 68727.34501687826, 0.042, 0.9540000000000001, 0.112, 192.0, 0.0, 0.0, 0.0, 0.0, 0.0, 0.0, 0.0, 0.0, 0.0, 1.6665565598458965E9, 0.0, 2022-10-23 13:22:39.845
243.0, -86548.23440888339, -119049.101358545, 43192.98037206893, 51387.68868299588, 61246.663182576085, 102934.9464696582, 64128.138319032, 68307.8698286855, 0.042, 0.9540000000000001, 0.112, 192.0, 0.0, 0.0, 0.0, 0.0, 0.0, 0.0, 0.0, 0.0, 0.0, 1.666556559845904E9, 0.0, 2022-10-23 13:22:39.845
244.0, -86581.96319126645, -119082.47251301676, 43947.61996836901, 51529.912832965, 61348.14010240318, 103338.97660243233, 64705.5732852904, 68992.4367061182, 0.044, 0.9580000000000001, 0.108, 192.0, 1.0, 96.0, 29.0, 240.0, 3.0, 96.0, 0.0, 0.0, 0.0, 1.6665565598459122E9, 0.0, 2022-10-23 13:22:39.845
245.0, -86592.2896972048, -119096.28589109016, 45968.77646074015, 51556.82433328919, 61363.49575084398, 104039.97201203967, 65921.79875633703, 70050.90356479926, 0.044, 0.9580000000000001, 0.108, 192.0, 0.0, 0.0, 0.0, 0.0, 0.0, 0.0, 0.0, 0.0, 0.0, 1.6665565598459213E9, 0.0, 2022-10-23 13:22:39.845
246.0, -86524.85448418313, -119033.90217231539, 44766.252609044626, 51241.62003298045, 61154.953975075965, 103426.34957150812, 65039.06131256358, 68993.86721776334, 0.044, 0.9580000000000001, 0.108, 192.0, 0.0, 0.0, 0.0, 0.0, 0.0, 0.0, 0.0, 0.0, 0.0, 1.6665565598459291E9, 0.0, 2022-10-23 13:22:39.845
247.0, -86529.32483307419, -119030.99644553619, 43256.07934666626, 51364.10759259553, 61223.9985136984, 102939.81914994946, 64150.57947046513, 68278.25376728222, 0.044, 0.9580000000000001, 0.108, 192.0, 0.0, 0.0, 0.0, 0.0, 0.0, 0.0, 0.0, 0.0, 0.0, 1.6665565598459373E9, 0.0, 2022-10-23 13:22:39.845
248.0, -86562.00308346786, -119059.96430635027, 43664.132793442346, 51508.633972243544, 61328.4258637936, 103212.97981893776, 64511.18016376259, 68785.57131118434, 0.044, 0.9580000000000001, 0.108, 192.0, 0.0, 0.0, 0.0, 0.0, 0.0, 0.0, 0.0, 0.0, 0.0, 1.6665565598459451E9, 0.0, 2022-10-23 13:22:39.845
249.0, -86592.64732511608, -119091.07793463206, 45720.18035890822, 51604.41119723454, 61394.788193081404, 103968.9381681607, 65783.93319653669, 69963.48589223456, 0.044, 0.9580000000000001, 0.108, 192.0, 0.0, 0.0, 0.0, 0.0, 0.0, 0.0, 0.0, 0.0, 0.0, 1.666556559846045E9, 0.0, 2022-10-23 13:22:39.846
250.0, -86549.55316180625, -119054.354018492, 45218.987192986875, 51274.030062440645, 61185.2405888129, 103617.0099517119, 65337.188880108464, 69291.9500818193, 0.044, 0.9580000000000001, 0.108, 192.0, 0.0, 0.0, 0.0, 0.0, 0.0, 0.0, 0.0, 0.0, 0.0, 1.6665565598460534E9, 0.0, 2022-10-23 13:22:39.846
251.0, -86544.25579837034, -119047.71555038876, 43357.735080449, 51315.78312108316, 61180.63612945511, 102947.08346689743, 64187.45984881638, 68273.15756954641, 0.044, 0.9580000000000001, 0.108, 192.0, 0.0, 0.0, 0.0, 0.0, 0.0, 0.0, 0.0, 0.0, 0.0, 1.6665565598460612E9, 0.0, 2022-10-23 13:22:39.846
252.0, -86571.52492660582, -119070.46962624427, 43453.065270550884, 51462.7458408768, 61292.12663079818, 103105.9373147413, 64350.426417640025, 68610.33363465471, 0.044, 0.9580000000000001, 0.108, 192.0, 0.0, 0.0, 0.0, 0.0, 0.0, 0.0, 0.0, 0.0, 0.0, 1.666556559846069E9, 0.0, 2022-10-23 13:22:39.846
253.0, -86600.13515950862, -119097.17996086837, 45389.64276190314, 51621.063246853744, 61405.74054786451, 103871.08223093537, 65592.28933957689, 69810.89053283818, 0.044, 0.9580000000000001, 0.108, 192.0, 0.0, 0.0, 0.0, 0.0, 0.0, 0.0, 0.0, 0.0, 0.0, 1.6665565598460774E9, 0.0, 2022-10-23 13:22:39.846
254.0, -86547.72031876091, -119051.35888473499, 45604.77830228547, 51332.59163291355, 61225.272563132356, 103782.45756417008, 65590.99293839847, 69564.79782638524, 0.04, 0.9580000000000001, 0.108, 192.0, 1.0, 64.0, 29.0, 240.0, 3.0, 96.0, 0.0, 0.0, 0.0, 1.6665565598460853E9, 0.0, 2022-10-23 13:22:39.846
255.0, -86524.76507720532, -119028.69421585731, 43486.86110816731, 51290.7044638043, 61163.49234145789, 102960.2039408927, 64238.42182617448, 68299.6220349815, 0.04, 0.9580000000000001, 0.108, 192.0, 0.0, 0.0, 0.0, 0.0, 0.0, 0.0, 0.0, 0.0, 0.0, 1.6665565598460965E9, 0.0, 2022-10-23 13:22:39.846
1.0, -86591.95442103797, -119093.40251605542, 44994.75449261123, 51624.63952596659, 61410.47911768903, 103743.87845324022, 65357.14898790706, 69616.20683863245, 0.04, 0.9580000000000001, 0.108, 192.0, 0.0, 0.0, 0.0, 0.0, 0.0, 0.0, 0.0, 0.0, 0.0, 1.6665565598461046E9, 0.0, 2022-10-23 13:22:39.846
2.0, -86567.94864749297, -119073.93414663484, 45931.7396201777, 51401.09972966906, 61277.88856958015, 103950.1850545627, 65825.10510982336, 69833.80107090487, 0.04, 0.9580000000000001, 0.108, 192.0, 0.0, 0.0, 0.0, 0.0, 0.0, 0.0, 0.0, 0.0, 0.0, 1.6665565598461125E9, 0.0, 2022-10-23 13:22:39.846
3.0, -86527.33552781768, -119032.80693683708, 43788.72141703623, 51256.39453606541, 61147.108512772145, 103072.0744218915, 64424.0083603869, 68441.39915006151, 0.04, 0.9580000000000001, 0.108, 192.0, 0.0, 0.0, 0.0, 0.0, 0.0, 0.0, 0.0, 0.0, 0.0, 1.666556559846121E9, 0.0, 2022-10-23 13:22:39.846
4.0, -86557.93506597698, -119061.41716973987, 43250.37965183016, 51423.80910203566, 61263.426990917564, 102987.69658657273, 64180.73197373533, 68407.35744325609, 0.04, 0.9580000000000001, 0.108, 192.0, 0.0, 0.0, 0.0, 0.0, 0.0, 0.0, 0.0, 0.0, 0.0, 1.666556559846129E9, 0.0, 2022-10-23 13:22:39.846
5.0, -86593.47433966093, -119094.20717885581, 44574.04995847344, 51595.49285119687, 61384.796963309884, 103573.87108491315, 65085.41883056389, 69363.56507105411, 0.04, 0.9580000000000001, 0.108, 192.0, 0.0, 0.0, 0.0, 0.0, 0.0, 0.0, 0.0, 0.0, 0.0, 1.6665565598461368E9, 0.0, 2022-10-23 13:22:39.846
6.0, -86575.36942665213, -119079.49973100421, 46091.84516571107, 51477.92267536196, 61323.843756180264, 104037.84859631641, 65943.09996880293, 69991.82790420389, 0.04, 0.9580000000000001, 0.108, 192.0, 0.0, 0.0, 0.0, 0.0, 0.0, 0.0, 0.0, 0.0, 0.0, 1.666556559846145E9, 0.0, 2022-10-23 13:22:39.846
7.0, -86523.17810334898, -119031.21996298076, 44108.127845302566, 51251.81242845207, 61145.163911004536, 103175.18301906384, 64606.75622305349, 68597.14610542609, 0.04, 0.9580000000000001, 0.108, 192.0, 0.0, 0.0, 0.0, 0.0, 0.0, 0.0, 0.0, 0.0, 0.0, 1.6665565598461528E9, 0.0, 2022-10-23 13:22:39.846
8.0, -86546.3792140936, -119054.599887681, 43218.68487819253, 51415.22603216482, 61252.117008223184, 102953.72193500066, 64135.00030457978, 68337.1282621775, 0.038, 0.9540000000000001, 0.11, 192.0, 1.0, 48.0, 29.0, 208.0, 3.0, 112.0, 0.0, 0.0, 0.0, 1.666556559846161E9, 0.0, 2022-10-23 13:22:39.846
9.0, -86572.19547893948, -119079.74560019323, 44168.11992742061, 51586.68626388148, 61380.59483535228, 103415.21840276939, 64817.73433896713, 69124.64727457134, 0.038, 0.9540000000000001, 0.11, 192.0, 0.0, 0.0, 0.0, 0.0, 0.0, 0.0, 0.0, 0.0, 0.0, 1.666556559846201E9, 0.0, 2022-10-23 13:22:39.846
10.0, -86580.0856447322, -119091.83789394355, 46087.37481682, 51559.01480424581, 61385.62397785473, 104073.25375953362, 65965.7199341917, 70078.19504477919, 0.038, 0.9540000000000001, 0.11, 192.0, 0.0, 0.0, 0.0, 0.0, 0.0, 0.0, 0.0, 0.0, 0.0, 1.6665565598462093E9, 0.0, 2022-10-23 13:22:39.846
11.0, -86522.68636497097, -119036.38321594993, 44487.83928010932, 51256.88627444342, 61160.20663502296, 103314.94847714287, 64840.10843516689, 68819.25539007847, 0.038, 0.9540000000000001, 0.11, 192.0, 0.0, 0.0, 0.0, 0.0, 0.0, 0.0, 0.0, 0.0, 0.0, 1.666556559846218E9, 0.0, 2022-10-23 13:22:39.846
12.0, -86544.65812977054, -119055.38219873694, 43210.12416006615, 51389.78974697468, 61233.58741206973, 102921.06603635145, 64103.52904838671, 68275.1692265474, 0.038, 0.9540000000000001, 0.11, 192.0, 0.0, 0.0, 0.0, 0.0, 0.0, 0.0, 0.0, 0.0, 0.0, 1.666556559846226E9, 0.0, 2022-10-23 13:22:39.846
13.0, -86575.92822026351, -119085.1100188625, 43809.93322252431, 51540.61931855909, 61343.71445700103, 103256.40925841442, 64576.223740127534, 68883.47195189858, 0.038, 0.9540000000000001, 0.11, 192.0, 0.0, 0.0, 0.0, 0.0, 0.0, 0.0, 0.0, 0.0, 0.0, 1.6665565598462336E9, 0.0, 2022-10-23 13:22:39.846
14.0, -86601.81154034277, -119108.04290867364, 45905.16339602035, 51592.43066220649, 61395.61520762625, 104020.16836645227, 65866.58994753241, 70033.82683203541, 0.038, 0.9540000000000001, 0.11, 192.0, 0.0, 0.0, 0.0, 0.0, 0.0, 0.0, 0.0, 0.0, 0.0, 1.6665565598462417E9, 0.0, 2022-10-23 13:22:39.846
15.0, -86538.15377213404, -119048.60962016699, 44909.99667763671, 51269.40325133839, 61172.76831540684, 103479.50201982284, 65111.257447154225, 69087.2528060976, 0.038, 0.9540000000000001, 0.11, 192.0, 0.0, 0.0, 0.0, 0.0, 0.0, 0.0, 0.0, 0.0, 0.0, 1.6665565598462508E9, 0.0, 2022-10-23 13:22:39.846
16.0, -86539.51722854582, -119046.32974223254, 43291.70802732802, 51366.11924959651, 61222.38918809762, 102940.75792321657, 64144.36568550655, 68277.04677308163, 0.038, 0.9540000000000001, 0.11, 192.0, 0.0, 0.0, 0.0, 0.0, 0.0, 0.0, 0.0, 0.0, 0.0, 1.6665565598462586E9, 0.0, 2022-10-23 13:22:39.846
17.0, -86565.89228700308, -119067.89917563192, 43618.55758649798, 51508.38810305454, 61331.398645806155, 103191.32097856057, 64458.20652940351, 68740.51019436243, 0.038, 0.9540000000000001, 0.11, 192.0, 0.0, 0.0, 0.0, 0.0, 0.0, 0.0, 0.0, 0.0, 0.0, 1.6665565598462665E9, 0.0, 2022-10-23 13:22:39.846
18.0, -86585.9418017795, -119093.80484745561, 45683.00940787905, 51630.920366158534, 61415.95529508058, 103976.13542987531, 65759.18981542466, 69954.50049096352, 0.038, 0.9520000000000001, 0.10400000000000001, 192.0, 1.0, 48.0, 29.0, 192.0, 3.0, 64.0, 0.0, 0.0, 0.0, 1.6665565598462749E9, 0.0, 2022-10-23 13:22:39.846
19.0, -86517.45605676842, -119032.42695718133, 45366.39694766962, 51322.64510663094, 61216.801251983794, 103674.49863845094, 65414.12358452363, 69387.10145796555, 0.038, 0.9520000000000001, 0.10400000000000001, 192.0, 0.0, 0.0, 0.0, 0.0, 0.0, 0.0, 0.0, 0.0, 0.0, 1.6665565598462832E9, 0.0, 2022-10-23 13:22:39.846
20.0, -86513.45509451094, -119026.50374490068, 43407.69122930661, 51337.46431320481, 61195.92472266254, 102951.75498148859, 64192.73486050784, 68286.92624413088, 0.038, 0.9520000000000001, 0.10400000000000001, 192.0, 0.0, 0.0, 0.0, 0.0, 0.0, 0.0, 0.0, 0.0, 0.0, 1.6665565598462913E9, 0.0, 2022-10-23 13:22:39.846
21.0, -86549.62021703961, -119056.18686153732, 43389.519261064444, 51486.43868999943, 61299.81563089081, 103063.2231310872, 64281.359527273125, 68565.51838702183, 0.038, 0.9520000000000001, 0.10400000000000001, 192.0, 0.0, 0.0, 0.0, 0.0, 0.0, 0.0, 0.0, 0.0, 0.0, 1.6665565598463E9, 0.0, 2022-10-23 13:22:39.846
22.0, -86587.6405343581, -119091.14498986542, 45262.126059785616, 51654.56851179225, 61418.861021859775, 103819.4049977547, 65497.38383261965, 69754.3182676218, 0.038, 0.9520000000000001, 0.10400000000000001, 192.0, 0.0, 0.0, 0.0, 0.0, 0.0, 0.0, 0.0, 0.0, 0.0, 1.6665565598463087E9, 0.0, 2022-10-23 13:22:39.846
23.0, -86537.93025468949, -119053.59405918051, 45720.359172863864, 51384.134755627485, 61250.88766227814, 103831.2067188271, 65654.6954100961, 69659.07748449773, 0.038, 0.9520000000000001, 0.10400000000000001, 192.0, 0.0, 0.0, 0.0, 0.0, 0.0, 0.0, 0.0, 0.0, 0.0, 1.6665565598463168E9, 0.0, 2022-10-23 13:22:39.846
24.0, -86512.7174869439, -119028.60480887948, 43607.091141592406, 51301.96974300978, 61168.923815360526, 103007.43317692676, 64303.08542288368, 68360.01644849974, 0.038, 0.9520000000000001, 0.10400000000000001, 192.0, 0.0, 0.0, 0.0, 0.0, 0.0, 0.0, 0.0, 0.0, 0.0, 1.6665565598463247E9, 0.0, 2022-10-23 13:22:39.846
25.0, -86548.9273129615, -119053.48230045824, 43287.595306348245, 51450.05005002619, 61270.5124939099, 103000.54883963453, 64195.595883798116, 68456.91126071349, 0.038, 0.9520000000000001, 0.10400000000000001, 192.0, 0.0, 0.0, 0.0, 0.0, 0.0, 0.0, 0.0, 0.0, 0.0, 1.6665565598463411E9, 0.0, 2022-10-23 13:22:39.846
26.0, -86590.30039194827, -119088.61924274197, 44846.18244721681, 51635.390715049594, 61407.1934112541, 103664.32859472377, 65234.840242247614, 69522.37421540907, 0.038, 0.9520000000000001, 0.10400000000000001, 192.0, 0.0, 0.0, 0.0, 0.0, 0.0, 0.0, 0.0, 0.0, 0.0, 1.6665565598463492E9, 0.0, 2022-10-23 13:22:39.846
27.0, -86567.76983353733, -119071.49780648922, 45975.392577098915, 51451.65937562697, 61306.454098994036, 103958.52225524453, 65830.22365930364, 69879.0410016824, 0.038, 0.9500000000000001, 0.10400000000000001, 192.0, 1.0, 48.0, 29.0, 176.0, 3.0, 64.0, 0.0, 0.0, 0.0, 1.666556559846357E9, 0.0, 2022-10-23 13:22:39.846
28.0, -86529.95068191894, -119036.09264327202, 43856.044871335616, 51269.60441703849, 61156.60800416565, 103077.50589579415, 64432.09969187972, 68470.05408645321, 0.038, 0.9500000000000001, 0.10400000000000001, 192.0, 0.0, 0.0, 0.0, 0.0, 0.0, 0.0, 0.0, 0.0, 0.0, 1.6665565598463657E9, 0.0, 2022-10-23 13:22:39.846
29.0, -86563.76887127983, -119062.31123951808, 43209.18538679903, 51438.36008767606, 61275.49693292343, 102957.36526934688, 64122.08099628461, 68371.8405213166, 0.038, 0.9500000000000001, 0.10400000000000001, 192.0, 0.0, 0.0, 0.0, 0.0, 0.0, 0.0, 0.0, 0.0, 0.0, 1.6665565598463736E9, 0.0, 2022-10-23 13:22:39.846
30.0, -86595.93303155102, -119097.80580971311, 44415.59844202977, 51608.6803804255, 61396.21870472655, 103509.8333370487, 64963.95945119375, 69280.59539563602, 0.038, 0.9500000000000001, 0.10400000000000001, 192.0, 0.0, 0.0, 0.0, 0.0, 0.0, 0.0, 0.0, 0.0, 0.0, 1.6665565598463814E9, 0.0, 2022-10-23 13:22:39.846
31.0, -86575.25766792985, -119082.13723684994, 46076.71303471483, 51517.328800836665, 61352.81161699434, 104034.69700034821, 65921.86581157039, 70022.11451794082, 0.038, 0.9500000000000001, 0.10400000000000001, 192.0, 0.0, 0.0, 0.0, 0.0, 0.0, 0.0, 0.0, 0.0, 0.0, 1.6665565598463893E9, 0.0, 2022-10-23 13:22:39.846
32.0, -86526.86614118412, -119032.60577113698, 44233.387021230104, 51269.11267866048, 61169.6390711831, 103227.70961853382, 64674.79493317544, 68684.3626122907, 0.038, 0.9500000000000001, 0.10400000000000001, 192.0, 0.0, 0.0, 0.0, 0.0, 0.0, 0.0, 0.0, 0.0, 0.0, 1.666556559846397E9, 0.0, 2022-10-23 13:22:39.846
33.0, -86538.84667621215, -119045.01098930968, 43226.910320152085, 51433.4427038959, 61270.5124939099, 102959.26516762558, 64123.46680444084, 68336.45770984385, 0.038, 0.9500000000000001, 0.10400000000000001, 192.0, 0.0, 0.0, 0.0, 0.0, 0.0, 0.0, 0.0, 0.0, 0.0, 1.6665565598464048E9, 0.0, 2022-10-23 13:22:39.846
34.0, -86568.84271727118, -119074.29177454613, 44046.63819630602, 51583.8252405912, 61374.1351812047, 103364.18937017792, 64721.219506409114, 69046.63968642232, 0.038, 0.9500000000000001, 0.10400000000000001, 192.0, 0.0, 0.0, 0.0, 0.0, 0.0, 0.0, 0.0, 0.0, 0.0, 1.666556559846413E9, 0.0, 2022-10-23 13:22:39.846
35.0, -86586.70176109097, -119092.0614113881, 46050.606197191024, 51582.03710103477, 61396.17400123763, 104067.9116926088, 65930.9629715637, 70080.05023956898, 0.038, 0.9500000000000001, 0.10400000000000001, 192.0, 0.0, 0.0, 0.0, 0.0, 0.0, 0.0, 0.0, 0.0, 0.0, 1.6665565598464203E9, 0.0, 2022-10-23 13:22:39.846
36.0, -86524.63096673858, -119032.87399207044, 44634.891406880786, 51272.644254284416, 61179.47383874343, 103378.29332092921, 64918.875982627396, 68914.80909762491, 0.038, 0.9500000000000001, 0.10400000000000001, 192.0, 0.0, 0.0, 0.0, 0.0, 0.0, 0.0, 0.0, 0.0, 0.0, 1.6665565598464284E9, 0.0, 2022-10-23 13:22:39.846
37.0, -86551.34130136267, -119054.06344581407, 43266.80818400481, 51392.047273164666, 61249.054819232806, 102953.07373441146, 64130.0382173107, 68303.55594200564, 0.038, 0.9540000000000001, 0.11, 192.0, 1.0, 48.0, 29.0, 208.0, 3.0, 112.0, 0.0, 0.0, 0.0, 1.666556559846436E9, 0.0, 2022-10-23 13:22:39.846
38.0, -86580.59973485467, -119081.71255370529, 43758.83713469948, 51530.85160623212, 61338.50650054294, 103245.5239588647, 64533.330742517806, 68845.25046888, 0.038, 0.9540000000000001, 0.11, 192.0, 0.0, 0.0, 0.0, 0.0, 0.0, 0.0, 0.0, 0.0, 0.0, 1.6665565598464444E9, 0.0, 2022-10-23 13:22:39.846
39.0, -86590.70272334847, -119094.29658583362, 45867.05367172405, 51633.69198247099, 61427.13116730824, 104033.53470963654, 65843.18767108771, 70035.92789601421, 0.038, 0.9540000000000001, 0.11, 192.0, 0.0, 0.0, 0.0, 0.0, 0.0, 0.0, 0.0, 0.0, 0.0, 1.6665565598464525E9, 0.0, 2022-10-23 13:22:39.846
40.0, -86531.29178658627, -119043.91575383136, 45098.91362177296, 51304.76371106669, 61213.314379848765, 103578.6990617155, 65230.369893356554, 69212.02024364713, 0.038, 0.9540000000000001, 0.11, 192.0, 0.0, 0.0, 0.0, 0.0, 0.0, 0.0, 0.0, 0.0, 0.0, 1.6665565598464828E9, 0.0, 2022-10-23 13:22:39.846
41.0, -86537.21499886693, -119047.6484951554, 43359.72438570552, 51370.58959848757, 61229.89937423461, 102972.4526968542, 64175.12168587705, 68299.1750000924, 0.038, 0.9540000000000001, 0.11, 192.0, 0.0, 0.0, 0.0, 0.0, 0.0, 0.0, 0.0, 0.0, 0.0, 1.666556559846491E9, 0.0, 2022-10-23 13:22:39.846
42.0, -86567.6804265595, -119074.55999547959, 43566.187449239194, 51513.10432113461, 61336.003105163945, 103168.58925444953, 64409.05504334629, 68696.61136825221, 0.038, 0.9540000000000001, 0.11, 192.0, 0.0, 0.0, 0.0, 0.0, 0.0, 0.0, 0.0, 0.0, 0.0, 1.6665565598465E9, 0.0, 2022-10-23 13:22:39.846
43.0, -86603.4879211769, -119110.72511800828, 45581.89011596324, 51644.8902064431, 61432.67439993315, 103947.70401092817, 65688.96063434609, 69907.29360667392, 0.038, 0.9540000000000001, 0.11, 192.0, 0.0, 0.0, 0.0, 0.0, 0.0, 0.0, 0.0, 0.0, 0.0, 1.6665565598465075E9, 0.0, 2022-10-23 13:22:39.846
44.0, -86551.29659787376, -119066.66982968687, 45531.24106302751, 51329.28357473417, 61220.26577237437, 103746.18068291912, 65513.83471653876, 69490.72414526036, 0.038, 0.9540000000000001, 0.11, 192.0, 0.0, 0.0, 0.0, 0.0, 0.0, 0.0, 0.0, 0.0, 0.0, 1.6665565598465157E9, 0.0, 2022-10-23 13:22:39.846
45.0, -86526.26264408382, -119043.46871894225, 43504.094303142345, 51324.500301420725, 61185.75467893537, 102981.75102254761, 64238.935916296956, 68315.00003516675, 0.038, 0.9540000000000001, 0.11, 192.0, 0.0, 0.0, 0.0, 0.0, 0.0, 0.0, 0.0, 0.0, 0.0, 1.6665565598465233E9, 0.0, 2022-10-23 13:22:39.846
46.0, -86549.37434785061, -119065.73105641974, 43412.027467730935, 51486.03635859923, 61310.209192062524, 103072.81202945854, 64285.04756510825, 68552.55437523776, 0.038, 0.9540000000000001, 0.11, 192.0, 0.0, 0.0, 0.0, 0.0, 0.0, 0.0, 0.0, 0.0, 0.0, 1.6665565598465312E9, 0.0, 2022-10-23 13:22:39.846
47.0, -86590.52390939282, -119099.41513531389, 45190.19814612844, 51656.35665134867, 61434.507242978485, 103801.52360219046, 65448.23234656243, 69699.91412161758, 0.036000000000000004, 0.9500000000000001, 0.106, 192.0, 1.0, 32.0, 29.0, 176.0, 3.0, 80.0, 0.0, 0.0, 0.0, 1.6665565598465393E9, 0.0, 2022-10-23 13:22:39.846
48.0, -86565.26643815833, -119077.1527978364, 45869.1770874473, 51403.96075295934, 61271.898302066125, 103895.89266728076, 65746.13639666277, 69736.52627903537, 0.036000000000000004, 0.9500000000000001, 0.106, 192.0, 0.0, 0.0, 0.0, 0.0, 0.0, 0.0, 0.0, 0.0, 0.0, 1.6665565598465476E9, 0.0, 2022-10-23 13:22:39.846
49.0, -86541.10420240214, -119053.9516870918, 43705.17059626229, 51289.34100739253, 61154.50694018685, 103022.00651431162, 64344.10087395917, 68367.01254451425, 0.036000000000000004, 0.9500000000000001, 0.106, 192.0, 0.0, 0.0, 0.0, 0.0, 0.0, 0.0, 0.0, 0.0, 0.0, 1.6665565598465555E9, 0.0, 2022-10-23 13:22:39.846
50.0, -86565.64641781407, -119074.8505681575, 43296.51365238591, 51457.42612569644, 61276.54746491283, 102994.17859246477, 64186.632834271535, 68421.01435911827, 0.036000000000000004, 0.9500000000000001, 0.106, 192.0, 0.0, 0.0, 0.0, 0.0, 0.0, 0.0, 0.0, 0.0, 0.0, 1.666556559846563E9, 0.0, 2022-10-23 13:22:39.846
51.0, -86601.18569149802, -119101.69501324833, 44767.83958290095, 51627.142921345585, 61404.600608897286, 103641.41805665709, 65185.10761083456, 69453.97787737583, 0.036000000000000004, 0.9500000000000001, 0.106, 192.0, 0.0, 0.0, 0.0, 0.0, 0.0, 0.0, 0.0, 0.0, 0.0, 1.6665565598465712E9, 0.0, 2022-10-23 13:22:39.846
52.0, -86582.45492964446, -119088.88746367545, 46100.78586349319, 51461.00240480929, 61302.587247203264, 104013.1499186933, 65915.36145393389, 69939.03308380044, 0.036000000000000004, 0.9500000000000001, 0.106, 192.0, 0.0, 0.0, 0.0, 0.0, 0.0, 0.0, 0.0, 0.0, 0.0, 1.666556559846579E9, 0.0, 2022-10-23 13:22:39.846
53.0, -86528.00608015133, -119038.43957643982, 44087.02779853676, 51271.41490833937, 61155.088085542695, 103169.77389690565, 64584.04685068689, 68557.67292471802, 0.036000000000000004, 0.9500000000000001, 0.106, 192.0, 0.0, 0.0, 0.0, 0.0, 0.0, 0.0, 0.0, 0.0, 0.0, 1.6665565598465867E9, 0.0, 2022-10-23 13:22:39.846
54.0, -86548.01089143884, -119054.64459116991, 43327.157894034135, 51433.889738785, 61260.94594728303, 102994.04448199803, 64193.60657854159, 68370.25354746026, 0.036000000000000004, 0.9500000000000001, 0.106, 192.0, 0.0, 0.0, 0.0, 0.0, 0.0, 0.0, 0.0, 0.0, 0.0, 1.6665565598465965E9, 0.0, 2022-10-23 13:22:39.846
55.0, -86571.41316788354, -119077.93510889234, 44387.748168438455, 51606.06522632423, 61381.71242257505, 103482.69831927995, 64936.958543891735, 69202.09606910897, 0.036000000000000004, 0.9500000000000001, 0.106, 192.0, 0.0, 0.0, 0.0, 0.0, 0.0, 0.0, 0.0, 0.0, 0.0, 1.6665565598466043E9, 0.0, 2022-10-23 13:22:39.846
56.0, -86569.08858646019, -119080.63966997144, 46169.964512582366, 51541.848664504134, 61359.60654730875, 104063.88837860685, 65981.09793437696, 70044.51096588504, 0.032, 0.9560000000000001, 0.10200000000000001, 192.0, 1.0, 0.0, 29.0, 224.0, 3.0, 48.0, 0.0, 0.0, 0.0, 1.666556559846625E9, 0.0, 2022-10-23 13:22:39.846
57.0, -86515.4667515119, -119022.9945210212, 44420.71699151004, 51271.63842578392, 61158.91023384455, 103273.128363267, 64775.2883762465, 68734.69874080404, 0.032, 0.9560000000000001, 0.10200000000000001, 192.0, 0.0, 0.0, 0.0, 0.0, 0.0, 0.0, 0.0, 0.0, 0.0, 1.666556559846634E9, 0.0, 2022-10-23 13:22:39.846
58.0, -86546.80389723825, -119046.97794282174, 43327.582577178786, 51424.07732296912, 61266.06449676329, 102982.80155453701, 64176.84277020011, 68332.5238028197, 0.032, 0.9560000000000001, 0.10200000000000001, 192.0, 0.0, 0.0, 0.0, 0.0, 0.0, 0.0, 0.0, 0.0, 0.0, 1.666556559846642E9, 0.0, 2022-10-23 13:22:39.846
59.0, -86574.14008070709, -119071.92248963387, 44116.73326691786, 51574.14693524205, 61380.66189058565, 103409.38459746655, 64779.803428626474, 69038.05661655148, 0.032, 0.9560000000000001, 0.10200000000000001, 192.0, 0.0, 0.0, 0.0, 0.0, 0.0, 0.0, 0.0, 0.0, 0.0, 1.6665565598466501E9, 0.0, 2022-10-23 13:22:39.846
60.0, -86573.08954871769, -119077.93510889234, 46158.766288610255, 51606.22168853542, 61407.90866707667, 104126.98735320418, 66015.00553071566, 70109.1969143387, 0.032, 0.9560000000000001, 0.10200000000000001, 192.0, 0.0, 0.0, 0.0, 0.0, 0.0, 0.0, 0.0, 0.0, 0.0, 1.666556559846658E9, 0.0, 2022-10-23 13:22:39.846
61.0, -86519.33360330267, -119030.37059669144, 44928.05688715659, 51290.14567019292, 61190.940283649004, 103493.40480487405, 65110.36337737601, 69030.68054088122, 0.032, 0.9560000000000001, 0.10200000000000001, 192.0, 0.0, 0.0, 0.0, 0.0, 0.0, 0.0, 0.0, 0.0, 0.0, 1.666556559846666E9, 0.0, 2022-10-23 13:22:39.846
62.0, -86539.18195237899, -119047.2014602663, 43407.95945024007, 51390.50500279725, 61234.570888825765, 102983.51681035958, 64202.94960772391, 68297.67743321389, 0.032, 0.9560000000000001, 0.10200000000000001, 192.0, 0.0, 0.0, 0.0, 0.0, 0.0, 0.0, 0.0, 0.0, 0.0, 1.6665565598466735E9, 0.0, 2022-10-23 13:22:39.846
63.0, -86572.7319208064, -119083.52304500616, 43805.261707933154, 51531.14217891004, 61334.23731735198, 103241.5229966072, 64547.81467292484, 68792.03096533191, 0.032, 0.9560000000000001, 0.10200000000000001, 192.0, 0.0, 0.0, 0.0, 0.0, 0.0, 0.0, 0.0, 0.0, 0.0, 1.6665565598466816E9, 0.0, 2022-10-23 13:22:39.846
64.0, -86604.27023223284, -119114.39080409895, 45918.95442234927, 51632.93202315951, 61412.60253341228, 104037.71448584969, 65872.55786330198, 70003.33905259837, 0.032, 0.9560000000000001, 0.10200000000000001, 192.0, 0.0, 0.0, 0.0, 0.0, 0.0, 0.0, 0.0, 0.0, 0.0, 1.6665565598466904E9, 0.0, 2022-10-23 13:22:39.846
65.0, -86540.34424309066, -119045.81565211006, 45368.095680248225, 51311.17866172537, 61200.12685062014, 103647.22951021547, 65384.97690975391, 69293.0006138087, 0.032, 0.9560000000000001, 0.10200000000000001, 192.0, 0.0, 0.0, 0.0, 0.0, 0.0, 0.0, 0.0, 0.0, 0.0, 1.6665565598466983E9, 0.0, 2022-10-23 13:22:39.846
66.0, -86540.74657449085, -119042.28407648613, 43509.99516367855, 51360.28544429367, 61210.00632166938, 102973.48087709915, 64235.58315462866, 68282.25472953972, 0.034, 0.9540000000000001, 0.11, 192.0, 1.0, 16.0, 29.0, 208.0, 3.0, 112.0, 0.0, 0.0, 0.0, 1.6665565598467064E9, 0.0, 2022-10-23 13:22:39.846
67.0, -86573.22365918443, -119077.39866702541, 43627.29711858, 51506.197632097916, 61324.31314281382, 103143.15296925939, 64415.55940098279, 68639.32384721325, 0.034, 0.9540000000000001, 0.11, 192.0, 0.0, 0.0, 0.0, 0.0, 0.0, 0.0, 0.0, 0.0, 0.0, 1.6665565598467147E9, 0.0, 2022-10-23 13:22:39.846
68.0, -86601.09628452019, -119106.54534179514, 45605.5159098525, 51653.07094491374, 61431.78033015494, 103929.55439443045, 65688.31243375689, 69857.24805083848, 0.034, 0.9540000000000001, 0.11, 192.0, 0.0, 0.0, 0.0, 0.0, 0.0, 0.0, 0.0, 0.0, 0.0, 1.6665565598467228E9, 0.0, 2022-10-23 13:22:39.846
69.0, -86545.88747571559, -119055.18103303685, 45782.027635816055, 51372.08716536608, 61244.18213894155, 103813.75000640751, 65652.28142169493, 69579.7734951703, 0.034, 0.9540000000000001, 0.11, 192.0, 0.0, 0.0, 0.0, 0.0, 0.0, 0.0, 0.0, 0.0, 0.0, 1.6665565598467314E9, 0.0, 2022-10-23 13:22:39.846
70.0, -86532.56583602022, -119040.0489020406, 43714.89360510035, 51338.44778996084, 61203.524315777344, 103029.7178661487, 64345.665496071044, 68353.60149784107, 0.034, 0.9540000000000001, 0.11, 192.0, 0.0, 0.0, 0.0, 0.0, 0.0, 0.0, 0.0, 0.0, 0.0, 1.6665565598467393E9, 0.0, 2022-10-23 13:22:39.846
71.0, -86561.71251078993, -119066.08868433103, 43537.66662331422, 51489.79145166773, 61311.23737230747, 103091.60984654544, 64339.11643494564, 68541.66907568801, 0.034, 0.9540000000000001, 0.11, 192.0, 0.0, 0.0, 0.0, 0.0, 0.0, 0.0, 0.0, 0.0, 0.0, 1.6665565598467553E9, 0.0, 2022-10-23 13:22:39.846
72.0, -86581.5832116107, -119088.6639462309, 45214.98623072937, 51659.68706127251, 61424.40425448469, 103784.35746244878, 65441.68328543703, 69649.22036519294, 0.034, 0.9540000000000001, 0.11, 192.0, 0.0, 0.0, 0.0, 0.0, 0.0, 0.0, 0.0, 0.0, 0.0, 1.666556559846763E9, 0.0, 2022-10-23 13:22:39.846
73.0, -86542.80293498075, -119053.57170743606, 46115.985049722796, 51444.61857612355, 61292.663072665106, 103969.7428309611, 65879.59866280541, 69840.55129773037, 0.034, 0.9540000000000001, 0.11, 192.0, 0.0, 0.0, 0.0, 0.0, 0.0, 0.0, 0.0, 0.0, 0.0, 1.6665565598467708E9, 0.0, 2022-10-23 13:22:39.846
74.0, -86523.89335917156, -119032.33755020352, 43956.47125917331, 51299.82397554207, 61169.72847816092, 103083.96554994173, 64463.883872495164, 68440.79565296121, 0.034, 0.9540000000000001, 0.11, 192.0, 0.0, 0.0, 0.0, 0.0, 0.0, 0.0, 0.0, 0.0, 0.0, 1.6665565598467789E9, 0.0, 2022-10-23 13:22:39.846
75.0, -86564.26060965784, -119070.29081228863, 43453.46760195108, 51465.919788589454, 61295.65820642212, 103023.95111607923, 64248.94949781293, 68438.26990583776, 0.034, 0.9540000000000001, 0.11, 192.0, 0.0, 0.0, 0.0, 0.0, 0.0, 0.0, 0.0, 0.0, 0.0, 1.6665565598467867E9, 0.0, 2022-10-23 13:22:39.846
76.0, -86604.80667409977, -119110.03221393016, 44799.668467005315, 51635.681287727515, 61414.41302471317, 103619.73686453544, 65169.79666588267, 69409.45320242086, 0.032, 0.9540000000000001, 0.116, 192.0, 1.0, 0.0, 29.0, 208.0, 3.0, 160.0, 0.0, 0.0, 0.0, 1.6665565598467948E9, 0.0, 2022-10-23 13:22:39.846
77.0, -86590.50155764837, -119098.27519634667, 46305.12551130361, 51504.09656811912, 61338.37239007621, 104067.4646577197, 66015.51962083812, 70022.15922142974, 0.032, 0.9540000000000001, 0.116, 192.0, 0.0, 0.0, 0.0, 0.0, 0.0, 0.0, 0.0, 0.0, 0.0, 1.6665565598468032E9, 0.0, 2022-10-23 13:22:39.846
78.0, -86538.8690279566, -119045.1450997764, 44322.36931590668, 51279.081556687546, 61154.99867856487, 103199.97110366478, 64675.21961632009, 68622.38122491613, 0.032, 0.9540000000000001, 0.116, 192.0, 0.0, 0.0, 0.0, 0.0, 0.0, 0.0, 0.0, 0.0, 0.0, 1.666556559846811E9, 0.0, 2022-10-23 13:22:39.846
79.0, -86564.41707186903, -119065.61929769747, 43435.519151153465, 51444.685631356915, 61263.248176961926, 102973.2573596546, 64198.52396232176, 68356.35076240907, 0.032, 0.9540000000000001, 0.116, 192.0, 0.0, 0.0, 0.0, 0.0, 0.0, 0.0, 0.0, 0.0, 0.0, 1.6665565598468187E9, 0.0, 2022-10-23 13:22:39.846
80.0, -86598.03409552982, -119098.94574868033, 44413.65384026216, 51607.45103448046, 61382.5394371199, 103449.39422004155, 64901.93336033027, 69156.90084182034, 0.032, 0.9540000000000001, 0.116, 192.0, 0.0, 0.0, 0.0, 0.0, 0.0, 0.0, 0.0, 0.0, 0.0, 1.6665565598468266E9, 0.0, 2022-10-23 13:22:39.846
81.0, -86599.46460717494, -119103.59491152703, 46320.324697533215, 51570.41419391802, 61370.268329413935, 104094.71143421072, 66032.35048441296, 70098.57983572243, 0.032, 0.9540000000000001, 0.116, 192.0, 0.0, 0.0, 0.0, 0.0, 0.0, 0.0, 0.0, 0.0, 0.0, 1.6665565598468344E9, 0.0, 2022-10-23 13:22:39.846
82.0, -86538.80197272325, -119042.50759393068, 44741.352765721414, 51278.61217005398, 61162.95589959096, 103351.02419269375, 64921.89346812886, 68858.97443997556, 0.032, 0.9540000000000001, 0.116, 192.0, 0.0, 0.0, 0.0, 0.0, 0.0, 0.0, 0.0, 0.0, 0.0, 1.6665565598468423E9, 0.0, 2022-10-23 13:22:39.846
83.0, -86548.9273129615, -119050.68833240132, 43461.737747399544, 51416.723599043326, 61244.428008130555, 102955.04068792352, 64180.553159779694, 68317.59283752357, 0.032, 0.9540000000000001, 0.116, 192.0, 0.0, 0.0, 0.0, 0.0, 0.0, 0.0, 0.0, 0.0, 0.0, 1.66655655984685E9, 0.0, 2022-10-23 13:22:39.846
84.0, -86582.3878744111, -119083.36658279499, 44081.685731611935, 51562.30051068074, 61352.87867222771, 103304.5325642267, 64666.74830517153, 68935.1715368237, 0.032, 0.9540000000000001, 0.116, 192.0, 0.0, 0.0, 0.0, 0.0, 0.0, 0.0, 0.0, 0.0, 0.0, 1.6665565598468575E9, 0.0, 2022-10-23 13:22:39.846
85.0, -86605.90190957808, -119108.98168194077, 46164.86831484656, 51620.303287542265, 61400.733757106515, 104058.23338725965, 65941.98238158016, 70071.28835574251, 0.04, 0.9540000000000001, 0.106, 192.0, 1.0, 64.0, 29.0, 208.0, 3.0, 80.0, 0.0, 0.0, 0.0, 1.6665565598468668E9, 0.0, 2022-10-23 13:22:39.846
86.0, -86543.36172859214, -119055.67277141486, 45162.57138998168, 51291.73264404925, 61177.529236975824, 103512.3814359166, 65177.4856659753, 69119.84164951344, 0.04, 0.9540000000000001, 0.106, 192.0, 0.0, 0.0, 0.0, 0.0, 0.0, 0.0, 0.0, 0.0, 0.0, 1.6665565598468752E9, 0.0, 2022-10-23 13:22:39.846
87.0, -86545.23927512638, -119053.21407952477, 43543.34396640587, 51398.70809301235, 61232.626287058156, 102970.59750206441, 64203.88838099103, 68312.56369502112, 0.04, 0.9540000000000001, 0.106, 192.0, 0.0, 0.0, 0.0, 0.0, 0.0, 0.0, 0.0, 0.0, 0.0, 1.6665565598468924E9, 0.0, 2022-10-23 13:22:39.846
88.0, -86576.44231038599, -119080.9525943938, 43850.97102534426, 51546.22960641737, 61347.91658495863, 103210.5658305366, 64496.22684672199, 68765.65590687466, 0.04, 0.9540000000000001, 0.106, 192.0, 0.0, 0.0, 0.0, 0.0, 0.0, 0.0, 0.0, 0.0, 0.0, 1.6665565598469005E9, 0.0, 2022-10-23 13:22:39.846
89.0, -86610.12638928014, -119114.8154872436, 45892.57936389201, 51659.97763395043, 61427.1982225416, 103981.96923517814, 65773.53963536497, 69963.77646491247, 0.04, 0.9540000000000001, 0.106, 192.0, 0.0, 0.0, 0.0, 0.0, 0.0, 0.0, 0.0, 0.0, 0.0, 1.666556559846908E9, 0.0, 2022-10-23 13:22:39.846
90.0, -86553.44236534147, -119061.39481799542, 45573.21763911458, 51338.984231827766, 61215.52720254984, 103682.00882458793, 65425.52297419584, 69394.52223712471, 0.04, 0.9540000000000001, 0.106, 192.0, 0.0, 0.0, 0.0, 0.0, 0.0, 0.0, 0.0, 0.0, 0.0, 1.666556559846916E9, 0.0, 2022-10-23 13:22:39.846
91.0, -86561.08666194518, -119064.81463489708, 43619.384601042824, 51349.06486857711, 61194.807135439776, 102961.67915602674, 64203.687215290935, 68296.2692733132, 0.04, 0.9540000000000001, 0.106, 192.0, 0.0, 0.0, 0.0, 0.0, 0.0, 0.0, 0.0, 0.0, 0.0, 1.6665565598469236E9, 0.0, 2022-10-23 13:22:39.846
92.0, -86585.3383046792, -119089.13333286445, 43645.64790077781, 51502.01785588478, 61317.38410203268, 103104.0821199515, 64326.55475456176, 68602.66698630655, 0.04, 0.9540000000000001, 0.106, 192.0, 0.0, 0.0, 0.0, 0.0, 0.0, 0.0, 0.0, 0.0, 0.0, 1.6665565598469317E9, 0.0, 2022-10-23 13:22:39.846
93.0, -86593.76491233885, -119099.03515565816, 45500.66387661265, 51668.71716603246, 61435.133091823234, 103848.35050682432, 65524.85412655523, 69776.98293649948, 0.04, 0.9540000000000001, 0.106, 192.0, 0.0, 0.0, 0.0, 0.0, 0.0, 0.0, 0.0, 0.0, 0.0, 1.6665565598469393E9, 0.0, 2022-10-23 13:22:39.846
94.0, -86554.5823043087, -119062.57946045155, 45947.89993141889, 51409.54868907317, 61274.15582825612, 103860.8674837193, 65677.38243071824, 69683.44088595401, 0.04, 0.9540000000000001, 0.106, 192.0, 0.0, 0.0, 0.0, 0.0, 0.0, 0.0, 0.0, 0.0, 0.0, 1.6665565598469472E9, 0.0, 2022-10-23 13:22:39.846
95.0, -86538.3772895786, -119047.69319864431, 43818.96332728426, 51331.7646183687, 61189.53212374832, 103026.40980796932, 64310.863829954134, 68376.6908498634, 0.038, 0.9560000000000001, 0.108, 192.0, 1.0, 48.0, 29.0, 224.0, 3.0, 96.0, 0.0, 0.0, 0.0, 1.6665565598469548E9, 0.0, 2022-10-23 13:22:39.846
96.0, -86578.8339470427, -119081.84666417202, 43514.174939891695, 51485.85754464359, 61300.285017524366, 103033.78588363956, 64216.47241311937, 68484.98505174936, 0.038, 0.9560000000000001, 0.108, 192.0, 0.0, 0.0, 0.0, 0.0, 0.0, 0.0, 0.0, 0.0, 0.0, 1.6665565598469634E9, 0.0, 2022-10-23 13:22:39.846
97.0, -86629.30418602278, -119124.73966178176, 45067.73293825781, 51652.93683444701, 61413.742472379505, 103690.10015608075, 65249.34652439911, 69540.43442492896, 0.038, 0.9560000000000001, 0.108, 192.0, 0.0, 0.0, 0.0, 0.0, 0.0, 0.0, 0.0, 0.0, 0.0, 1.6665565598469713E9, 0.0, 2022-10-23 13:22:39.846
98.0, -86596.71534260694, -119100.46566730329, 46194.88670765003, 51462.11999203205, 61300.19561054654, 103981.27633110003, 65844.46172052166, 69890.66390879916, 0.038, 0.9560000000000001, 0.108, 192.0, 0.0, 0.0, 0.0, 0.0, 0.0, 0.0, 0.0, 0.0, 0.0, 1.6665565598469791E9, 0.0, 2022-10-23 13:22:39.846
99.0, -86539.38311807909, -119046.88853584391, 44093.26393523979, 51299.131071463955, 61167.5380072043, 103117.04613173558, 64463.34743062824, 68501.30182520174, 0.038, 0.9560000000000001, 0.108, 192.0, 0.0, 0.0, 0.0, 0.0, 0.0, 0.0, 0.0, 0.0, 0.0, 1.6665565598469868E9, 0.0, 2022-10-23 13:22:39.846
100.0, -86568.5297928488, -119069.32968727704, 43480.066177852896, 51465.6962711449, 61286.00225281742, 103021.33596197797, 64177.066287644666, 68421.79667017421, 0.038, 0.9560000000000001, 0.108, 192.0, 0.0, 0.0, 0.0, 0.0, 0.0, 0.0, 0.0, 0.0, 0.0, 1.6665565598469946E9, 0.0, 2022-10-23 13:22:39.846
101.0, -86601.1409880091, -119099.34808008053, 44653.66687222324, 51630.04864812478, 61400.68905361761, 103545.73023864393, 64980.320928135036, 69302.50010520221, 0.038, 0.9560000000000001, 0.108, 192.0, 0.0, 0.0, 0.0, 0.0, 0.0, 0.0, 0.0, 0.0, 0.0, 1.6665565598470032E9, 0.0, 2022-10-23 13:22:39.847
0.0, 0.0, 0.0, 0.0, 0.0, 0.0, 0.0, 0.0, 0.0, 0.01, 0.962, 0.05, 192.0, 0.0, 80.0, 30.0, 16.0, 1.0, 144.0, 0.0, 0.0, 0.0, 1.6665565599336343E9, 0.0, 2022-10-23 13:22:39.933
1.0, -86789.02975190041, -119645.73647329051, 44944.172494908875, 52043.62297578132, 64515.15877427564, 115479.23719635454, 64586.729060021535, 71183.51115983858, 0.01, 0.962, 0.05, 192.0, 0.0, 0.0, 0.0, 0.0, 0.0, 0.0, 0.0, 0.0, 0.0, 1.6665565604161022E9, 0.0, 2022-10-23 13:22:40.416
2.0, -86809.03456318792, -119668.1999764681, 47065.59891290652, 52105.78317711153, 64613.72996732354, 116336.04661655982, 65822.82523188893, 72375.64145036238, 0.01, 0.962, 0.05, 192.0, 0.0, 0.0, 0.0, 0.0, 0.0, 0.0, 0.0, 0.0, 0.0, 1.6665565604161308E9, 0.0, 2022-10-23 13:22:40.416
3.0, -86763.54876322136, -119632.28072312841, 46208.76714095678, 51791.20472564754, 64357.06488574325, 115873.20904412378, 65188.8850556475, 71546.48113804832, 0.01, 0.962, 0.05, 192.0, 0.0, 0.0, 0.0, 0.0, 0.0, 0.0, 0.0, 0.0, 0.0, 1.6665565604161458E9, 0.0, 2022-10-23 13:22:40.416
4.0, -86777.11627210573, -119645.13297619022, 44463.677044353135, 51864.898427116685, 64349.2864786728, 115199.8403906632, 64192.84661923011, 70629.72433921389, 0.01, 0.962, 0.05, 192.0, 0.0, 0.0, 0.0, 0.0, 0.0, 0.0, 0.0, 0.0, 0.0, 1.6665565604161675E9, 0.0, 2022-10-23 13:22:40.416
5.0, -86827.83238027482, -119690.81994185687, 44674.63280852232, 51994.09151006836, 64467.303689396824, 115366.71851476653, 64413.704206193, 70998.86339889329, 0.01, 0.962, 0.05, 192.0, 0.0, 0.0, 0.0, 0.0, 0.0, 0.0, 0.0, 0.0, 0.0, 1.6665565604161856E9, 0.0, 2022-10-23 13:22:40.416
6.0, -86862.008197547, -119727.05211961892, 46706.8757661433, 52116.087331305425, 64590.23828390102, 116202.67375739501, 65620.36313061275, 72207.64573903629, 0.01, 0.962, 0.05, 192.0, 0.0, 0.0, 0.0, 0.0, 0.0, 0.0, 0.0, 0.0, 0.0, 1.6665565604161985E9, 0.0, 2022-10-23 13:22:40.416
7.0, -86810.0403916884, -119673.18441548162, 46563.10934580676, 51828.0851039988, 64376.66736563056, 116020.23881915079, 65400.891351806094, 71788.14819909909, 0.004, 0.9580000000000001, 0.026000000000000002, 192.0, 0.0, 32.0, 29.0, 240.0, 0.0, 208.0, 0.0, 0.0, 0.0, 1.666556560416207E9, 0.0, 2022-10-23 13:22:40.416
8.0, -86794.57298452532, -119651.92790650463, 44509.274603041966, 51835.23766222449, 64311.690844498975, 115182.51778871033, 64189.96324419537, 70614.30163553973, 0.004, 0.9580000000000001, 0.026000000000000002, 192.0, 0.0, 0.0, 0.0, 0.0, 0.0, 0.0, 0.0, 0.0, 0.0, 1.666556560416216E9, 0.0, 2022-10-23 13:22:40.416
9.0, -86831.81099078787, -119694.28446224744, 44440.386526630704, 51976.970073815595, 64451.90333746712, 115251.96465873298, 64261.13119854107, 70843.18349876208, 0.004, 0.9580000000000001, 0.026000000000000002, 192.0, 0.0, 0.0, 0.0, 0.0, 0.0, 0.0, 0.0, 0.0, 0.0, 1.6665565604162235E9, 0.0, 2022-10-23 13:22:40.416
10.0, -86869.69719763962, -119730.00254988701, 46261.24903693784, 52121.78702614153, 64598.21785667156, 116036.64499958098, 65381.22181668542, 72001.24973073599, 0.004, 0.9580000000000001, 0.026000000000000002, 192.0, 0.0, 0.0, 0.0, 0.0, 0.0, 0.0, 0.0, 0.0, 0.0, 1.6665565604162316E9, 0.0, 2022-10-23 13:22:40.416
11.0, -86839.56704611387, -119700.8558751173, 46875.25145712512, 51874.57673246584, 64430.78093895686, 116176.23164370438, 65617.85973523375, 72044.8579841683, 0.004, 0.9580000000000001, 0.026000000000000002, 192.0, 0.0, 0.0, 0.0, 0.0, 0.0, 0.0, 0.0, 0.0, 0.0, 1.6665565604162395E9, 0.0, 2022-10-23 13:22:40.416
12.0, -86814.15311266818, -119671.8433108143, 44724.47719865766, 51795.09392918276, 64298.59272224817, 115280.66429861358, 64318.128146902105, 70719.08661354621, 0.004, 0.9580000000000001, 0.026000000000000002, 192.0, 0.0, 0.0, 0.0, 0.0, 0.0, 0.0, 0.0, 0.0, 0.0, 1.6665565604162476E9, 0.0, 2022-10-23 13:22:40.416
13.0, -86842.62923510424, -119704.29804376341, 44329.11954273219, 51947.04108798994, 64422.39903478611, 115210.9939111464, 64187.750421494304, 70749.21676507196, 0.004, 0.9580000000000001, 0.026000000000000002, 192.0, 0.0, 0.0, 0.0, 0.0, 0.0, 0.0, 0.0, 0.0, 0.0, 1.6665565604162557E9, 0.0, 2022-10-23 13:22:40.416
14.0, -86888.4056077487, -119750.65556176372, 45821.74668571314, 52103.21272649917, 64573.094495903795, 115879.8028087381, 65138.14659573395, 71771.60790820216, 0.004, 0.9580000000000001, 0.026000000000000002, 192.0, 0.0, 0.0, 0.0, 0.0, 0.0, 0.0, 0.0, 0.0, 0.0, 1.6665565604162633E9, 0.0, 2022-10-23 13:22:40.416
15.0, -86873.42993896364, -119738.18328835766, 47095.4161400099, 51931.3054598934, 64474.23273017797, 116306.27409294536, 65785.05078375945, 72251.4551581687, 0.004, 0.9580000000000001, 0.026000000000000002, 192.0, 0.0, 0.0, 0.0, 0.0, 0.0, 0.0, 0.0, 0.0, 0.0, 1.6665565604162712E9, 0.0, 2022-10-23 13:22:40.416
16.0, -86838.33770016882, -119702.66636641817, 45000.40948395842, 51757.09596360874, 64267.7696666443, 115386.87978826521, 64476.31144241231, 70855.74517914596, 0.004, 0.9580000000000001, 0.026000000000000002, 192.0, 0.0, 0.0, 0.0, 0.0, 0.0, 0.0, 0.0, 0.0, 0.0, 1.6665565604163315E9, 0.0, 2022-10-23 13:22:40.416
17.0, -86872.96055233009, -119739.05500639141, 44265.43942277902, 51906.427968314645, 64372.509941161865, 115173.0853525502, 64135.26852551324, 70666.00122046485, 0.004, 0.9580000000000001, 0.026000000000000002, 192.0, 0.0, 0.0, 30.0, 0.0, 0.0, 144.0, 0.0, 0.0, 0.0, 1.6665565604163396E9, 0.0, 2022-10-23 13:22:40.416
18.0, -86917.23935809605, -119778.55053884395, 45384.99359905644, 52051.267272385034, 64504.20641949254, 115698.28429201654, 64876.005336762115, 71504.83983812807, 0.004, 0.9580000000000001, 0.026000000000000002, 192.0, 0.0, 0.0, 0.0, 0.0, 0.0, 0.0, 0.0, 0.0, 0.0, 1.666556560416348E9, 0.0, 2022-10-23 13:22:40.416
19.0, -86895.1111310853, -119762.05495143593, 47134.71050676233, 51992.52688795649, 64495.60099787724, 116342.37216024067, 65829.70956918116, 72337.41996734381, 0.004, 0.9580000000000001, 0.026000000000000002, 192.0, 0.0, 0.0, 0.0, 0.0, 0.0, 0.0, 0.0, 0.0, 0.0, 1.6665565604163556E9, 0.0, 2022-10-23 13:22:40.416
20.0, -86853.89451430971, -119721.93357013864, 45325.42620008304, 51760.78400144387, 64271.010669590316, 115509.14383043574, 64658.433456234154, 71038.58244879037, 0.004, 0.9580000000000001, 0.026000000000000002, 192.0, 0.0, 0.0, 0.0, 0.0, 0.0, 0.0, 0.0, 0.0, 0.0, 1.6665565604163637E9, 0.0, 2022-10-23 13:22:40.416
21.0, -86885.32106701388, -119749.49327105204, 44246.59690220319, 51913.33465735134, 64381.31652847726, 115161.95418381145, 64111.30745545715, 70624.20345833343, 0.004, 0.9580000000000001, 0.026000000000000002, 192.0, 0.0, 0.0, 0.0, 0.0, 0.0, 0.0, 0.0, 0.0, 0.0, 1.6665565604163713E9, 0.0, 2022-10-23 13:22:40.416
22.0, -86926.0682971559, -119791.64866109475, 45043.57070250162, 52050.57436830692, 64514.91290508663, 115581.89875863776, 64686.52959901448, 71309.35148112196, 0.004, 0.9580000000000001, 0.026000000000000002, 192.0, 0.0, 0.0, 0.0, 0.0, 0.0, 0.0, 0.0, 0.0, 0.0, 1.6665565604163792E9, 0.0, 2022-10-23 13:22:40.416
23.0, -86937.46768682811, -119803.49508565606, 47080.999264836224, 52063.27015915754, 64556.6883154736, 116372.88229142217, 65844.66288622176, 72385.45386617826, 0.004, 0.9580000000000001, 0.026000000000000002, 192.0, 0.0, 0.0, 0.0, 0.0, 0.0, 0.0, 0.0, 0.0, 0.0, 1.666556560416387E9, 0.0, 2022-10-23 13:22:40.416
24.0, -86876.67094190967, -119745.84993670582, 45786.16270854029, 51770.86463819321, 64307.33225433019, 115729.59908599843, 64955.59989876746, 71319.65563531585, 0.004, 0.9580000000000001, 0.026000000000000002, 192.0, 0.0, 0.0, 0.0, 0.0, 0.0, 0.0, 0.0, 0.0, 0.0, 1.6665565604163947E9, 0.0, 2022-10-23 13:22:40.416
25.0, -86884.44934898011, -119753.85186122083, 44305.87372849867, 51894.2462675865, 64364.8432928137, 115190.29619578079, 64143.60572619507, 70611.48531573836, 0.004, 0.9580000000000001, 0.026000000000000002, 192.0, 0.0, 0.0, 0.0, 0.0, 0.0, 0.0, 0.0, 0.0, 0.0, 1.6665565604164023E9, 0.0, 2022-10-23 13:22:40.416
26.0, -86921.37443082029, -119787.08890522587, 44740.83867559894, 52038.549129789964, 64498.28320721188, 115454.49381524252, 64503.28999796987, 71107.80580136845, 0.004, 0.9580000000000001, 0.026000000000000002, 192.0, 0.0, 0.0, 0.0, 0.0, 0.0, 0.0, 0.0, 0.0, 0.0, 1.6665565604164116E9, 0.0, 2022-10-23 13:22:40.416
27.0, -86958.90300976075, -119820.52711493101, 46843.08729685394, 52117.428435972746, 64591.69114729061, 116302.74251732141, 65736.43573956916, 72305.59108323944, -0.01, 0.968, 0.02, 192.0, 255.0, 176.0, 30.0, 64.0, 0.0, 160.0, 0.0, 0.0, 0.0, 1.6665565604164193E9, 0.0, 2022-10-23 13:22:40.416
28.0, -86911.78553244895, -119780.96452724512, 46217.59608001663, 51797.999655961954, 64338.02119946733, 115919.92419003538, 65229.34171311161, 71597.51017063978, -0.01, 0.968, 0.02, 192.0, 0.0, 0.0, 0.0, 0.0, 0.0, 0.0, 0.0, 0.0, 0.0, 1.6665565604164276E9, 0.0, 2022-10-23 13:22:40.416
29.0, -86902.80013117792, -119766.771169516, 44372.01254034192, 51855.73421189001, 64323.35845510465, 115191.52554172583, 64162.4929502598, 70598.45424872093, -0.01, 0.968, 0.02, 192.0, 0.0, 0.0, 0.0, 0.0, 0.0, 0.0, 0.0, 0.0, 0.0, 1.6665565604164357E9, 0.0, 2022-10-23 13:22:40.416
30.0, -86941.82627699689, -119805.05970776794, 44504.31251577289, 51998.94183861517, 64460.97814571598, 115339.11411036421, 64348.16889145004, 70934.24450567299, -0.01, 0.968, 0.02, 192.0, 0.0, 0.0, 0.0, 0.0, 0.0, 0.0, 0.0, 0.0, 0.0, 1.666556560416443E9, 0.0, 2022-10-23 13:22:40.416
31.0, -86976.62794311381, -119841.82832739691, 46477.30099884284, 52130.906537879295, 64589.92535947864, 116165.30164066574, 65537.01347553892, 72137.26009574653, -0.01, 0.968, 0.02, 192.0, 0.0, 0.0, 0.0, 0.0, 0.0, 0.0, 0.0, 0.0, 0.0, 1.6665565604164593E9, 0.0, 2022-10-23 13:22:40.416
32.0, -86936.32774786088, -119801.81870482191, 46607.14228238372, 51854.05783105586, 64392.93943559402, 116099.4086980115, 65481.53644580084, 71883.18781652306, -0.01, 0.968, 0.02, 192.0, 0.0, 0.0, 0.0, 0.0, 0.0, 0.0, 0.0, 0.0, 0.0, 1.6665565604164672E9, 0.0, 2022-10-23 13:22:40.416
33.0, -86919.60864300831, -119781.94800400115, 44527.647736984225, 51834.05301976836, 64309.25450435335, 115247.11433018617, 64243.406265188016, 70656.47937732689, -0.01, 0.968, 0.02, 192.0, 0.0, 0.0, 0.0, 0.0, 0.0, 0.0, 0.0, 0.0, 0.0, 1.6665565604164748E9, 0.0, 2022-10-23 13:22:40.416
34.0, -86967.55313486495, -119828.61844642383, 44359.18263902458, 51965.95066379913, 64425.52827900986, 115271.23186245345, 64249.17301525748, 70815.37792865967, -0.01, 0.968, 0.02, 192.0, 0.0, 0.0, 0.0, 0.0, 0.0, 0.0, 0.0, 0.0, 0.0, 1.6665565604164832E9, 0.0, 2022-10-23 13:22:40.416
35.0, -86989.39078919779, -119847.21509781065, 46061.33503452958, 52115.88616560533, 64556.665963729145, 116005.41961257692, 65303.281283769764, 71920.49287801897, -0.01, 0.968, 0.02, 192.0, 0.0, 0.0, 0.0, 0.0, 0.0, 0.0, 0.0, 0.0, 0.0, 1.666556560416491E9, 0.0, 2022-10-23 13:22:40.416
36.0, -86953.18096318019, -119809.77592584801, 46884.818003752, 51898.98483741103, 64418.95686614, 116222.79032740479, 65662.94320380011, 72101.36319415132, -0.012, 0.962, 0.026000000000000002, 192.0, 255.0, 160.0, 30.0, 16.0, 0.0, 208.0, 0.0, 0.0, 0.0, 1.666556560416499E9, 0.0, 2022-10-23 13:22:40.416
37.0, -86919.3180703304, -119781.61272783432, 44729.43928592674, 51797.35145537275, 64282.45476275143, 115304.73712739196, 64347.006600738365, 70743.74058768041, -0.012, 0.962, 0.026000000000000002, 192.0, 0.0, 0.0, 0.0, 0.0, 0.0, 0.0, 0.0, 0.0, 0.0, 1.6665565604165072E9, 0.0, 2022-10-23 13:22:40.416
38.0, -86953.71740504711, -119809.86533282582, 44262.91367565557, 51959.7145270961, 64418.867459162175, 115221.18630661802, 64186.74459299381, 70736.5433259658, -0.012, 0.962, 0.026000000000000002, 192.0, 0.0, 0.0, 0.0, 0.0, 0.0, 0.0, 0.0, 0.0, 0.0, 1.6665565604165149E9, 0.0, 2022-10-23 13:22:40.416
39.0, -86999.5384811805, -119854.90409790327, 45666.31265477093, 52106.14080502281, 64549.89338515919, 115870.72800048924, 65101.48973482725, 71713.11339296262, -0.012, 0.962, 0.026000000000000002, 192.0, 0.0, 0.0, 0.0, 0.0, 0.0, 0.0, 0.0, 0.0, 0.0, 1.6665565604165227E9, 0.0, 2022-10-23 13:22:40.416
40.0, -86989.2343269866, -119848.15387107777, 47101.115834846, 51965.034242276466, 64457.49127358095, 116354.53150922437, 65843.70176121018, 72293.7670104226, -0.012, 0.962, 0.026000000000000002, 192.0, 0.0, 0.0, 0.0, 0.0, 0.0, 0.0, 0.0, 0.0, 0.0, 1.6665565604165304E9, 0.0, 2022-10-23 13:22:40.416
41.0, -86954.3209021474, -119812.34637646037, 45078.193554662896, 51776.541981284856, 64257.82314036169, 115448.61530645077, 64562.52212077643, 70913.1891623961, -0.012, 0.962, 0.026000000000000002, 192.0, 0.0, 0.0, 0.0, 0.0, 0.0, 0.0, 0.0, 0.0, 0.0, 1.6665565604165382E9, 0.0, 2022-10-23 13:22:40.416
42.0, -86993.14588226627, -119839.36963550684, 44243.13238181262, 51929.159692425696, 64379.90836857657, 115202.76846918685, 64166.60567123958, 70662.55905181874, -0.012, 0.962, 0.026000000000000002, 192.0, 0.0, 0.0, 0.0, 0.0, 0.0, 0.0, 0.0, 0.0, 0.0, 1.666556560416546E9, 0.0, 2022-10-23 13:22:40.416
43.0, -87023.61130995885, -119870.68442948871, 45277.213487292946, 52075.898894774786, 64522.758367390445, 115710.80126891153, 64875.62535710637, 71467.75829407672, -0.012, 0.962, 0.026000000000000002, 192.0, 0.0, 0.0, 0.0, 0.0, 0.0, 0.0, 0.0, 0.0, 0.0, 1.6665565604165535E9, 0.0, 2022-10-23 13:22:40.416
44.0, -87027.56756872745, -119874.3501155794, 47153.86595176053, 52033.184711120695, 64516.321064987314, 116414.70240529806, 65920.23413422515, 72393.70165988227, -0.012, 0.962, 0.026000000000000002, 192.0, 0.0, 0.0, 0.0, 0.0, 0.0, 0.0, 0.0, 0.0, 0.0, 1.6665565604165616E9, 0.0, 2022-10-23 13:22:40.416
45.0, -86965.40736739725, -119812.99457704957, 45500.350952190274, 51783.58278078828, 64280.10782958363, 115636.12409068634, 64830.94421994022, 71155.3926653138, -0.012, 0.962, 0.026000000000000002, 192.0, 0.0, 0.0, 0.0, 0.0, 0.0, 0.0, 0.0, 0.0, 0.0, 1.6665565604165692E9, 0.0, 2022-10-23 13:22:40.416
46.0, -86974.75039657956, -119819.85656259736, 44252.43070750603, 51924.398770856715, 64358.58480436621, 115194.7888964163, 64164.325793305135, 70618.30259779723, -0.004, 0.96, 0.028, 192.0, 255.0, 224.0, 30.0, 0.0, 0.0, 224.0, 0.0, 0.0, 0.0, 1.6665565604165769E9, 0.0, 2022-10-23 13:22:40.416
47.0, -87017.039897089, -119855.03820837001, 44930.09089590203, 52063.42662136872, 64496.20449497754, 115565.09024680738, 64674.392601775246, 71245.24667802414, -0.004, 0.96, 0.028, 192.0, 0.0, 0.0, 0.0, 0.0, 0.0, 0.0, 0.0, 0.0, 0.0, 1.6665565604165945E9, 0.0, 2022-10-23 13:22:40.416
48.0, -87033.58018798592, -119869.00804865458, 47023.912909497376, 52094.294380461506, 64549.22283282553, 116390.80839047533, 65881.74443027312, 72379.77652308662, -0.004, 0.96, 0.028, 192.0, 0.0, 0.0, 0.0, 0.0, 0.0, 0.0, 0.0, 0.0, 0.0, 1.6665565604166021E9, 0.0, 2022-10-23 13:22:40.416
49.0, -86969.78830931048, -119808.94891130316, 45927.783361409114, 51796.99382746146, 64299.30797807074, 115812.41229920535, 65095.5665225466, 71411.56600851608, -0.004, 0.96, 0.028, 192.0, 0.0, 0.0, 0.0, 0.0, 0.0, 0.0, 0.0, 0.0, 0.0, 1.6665565604166102E9, 0.0, 2022-10-23 13:22:40.416
50.0, -86990.35191420936, -119827.27734175652, 44305.65021105411, 51885.97612213804, 64321.123280659114, 115193.60425396018, 64180.12847663504, 70590.20645501692, -0.004, 0.96, 0.028, 192.0, 0.0, 0.0, 0.0, 0.0, 0.0, 0.0, 0.0, 0.0, 0.0, 1.666556560416618E9, 0.0, 2022-10-23 13:22:40.416
51.0, -87024.8406559039, -119852.42305426873, 44629.61639518933, 52019.617202236324, 64446.02482867537, 115410.86321006576, 64475.640890078656, 71026.75837597351, -0.004, 0.96, 0.028, 192.0, 0.0, 0.0, 0.0, 0.0, 0.0, 0.0, 0.0, 0.0, 0.0, 1.666556560416626E9, 0.0, 2022-10-23 13:22:40.416
52.0, -87055.73076674114, -119883.82725522843, 46725.49476927457, 52130.638316945835, 64568.64649875719, 116273.72995301842, 65721.63888473975, 72256.88663207134, -0.004, 0.96, 0.028, 192.0, 0.0, 0.0, 0.0, 0.0, 0.0, 0.0, 0.0, 0.0, 0.0, 1.6665565604166336E9, 0.0, 2022-10-23 13:22:40.416
53.0, -86998.17502476872, -119832.99938833708, 46401.46152990598, 51831.907252300654, 64347.7889117943, 116036.86851702553, 65407.01572978684, 71728.8266693147, -0.004, 0.96, 0.028, 192.0, 0.0, 0.0, 0.0, 0.0, 0.0, 0.0, 0.0, 0.0, 0.0, 1.6665565604166417E9, 0.0, 2022-10-23 13:22:40.416
54.0, -86986.10508276285, -119821.13061203131, 44483.05600679589, 51868.9440928631, 64309.23215260889, 115276.79744682282, 64288.80265817674, 70652.32195285821, -0.004, 0.96, 0.028, 192.0, 0.0, 0.0, 0.0, 0.0, 0.0, 0.0, 0.0, 0.0, 0.0, 1.666556560416649E9, 0.0, 2022-10-23 13:22:40.416
55.0, -87016.77167615553, -119850.52315599003, 44513.320268788375, 52001.73580667208, 64423.89660166462, 115376.8885584937, 64412.31839803677, 70920.989921211, -0.004, 0.96, 0.028, 192.0, 0.0, 0.0, 0.0, 0.0, 0.0, 0.0, 0.0, 0.0, 0.0, 1.6665565604166567E9, 0.0, 2022-10-23 13:22:40.416
56.0, -87056.91540919726, -119893.28204313303, 46379.57917208424, 52131.957069868695, 64543.32197228933, 116147.62141080158, 65539.13689126217, 72071.83653972585, -0.004, 0.9500000000000001, 0.026000000000000002, 192.0, 255.0, 224.0, 29.0, 176.0, 0.0, 208.0, 0.0, 0.0, 0.0, 1.6665565604166648E9, 0.0, 2022-10-23 13:22:40.416
57.0, -87016.14582731079, -119854.32295254743, 46754.820257999934, 51869.25701728547, 64359.858853800164, 116180.14319898406, 65626.71102603806, 71962.96119248404, -0.004, 0.9500000000000001, 0.026000000000000002, 192.0, 0.0, 0.0, 0.0, 0.0, 0.0, 0.0, 0.0, 0.0, 0.0, 1.6665565604166727E9, 0.0, 2022-10-23 13:22:40.416
58.0, -87000.9913445701, -119836.12863256081, 44621.21213927414, 51815.56812710383, 64255.40915196051, 115285.78284809386, 64334.3331616322, 70667.6328978101, -0.004, 0.9500000000000001, 0.026000000000000002, 192.0, 0.0, 0.0, 0.0, 0.0, 0.0, 0.0, 0.0, 0.0, 0.0, 1.6665565604166808E9, 0.0, 2022-10-23 13:22:40.416
59.0, -87033.51313275256, -119866.95168816469, 44353.46059244402, 51955.49004739404, 64376.89088307511, 115267.14149321814, 64280.867788895106, 70764.37124781267, -0.004, 0.9500000000000001, 0.026000000000000002, 192.0, 0.0, 0.0, 0.0, 0.0, 0.0, 0.0, 0.0, 0.0, 0.0, 1.6665565604166887E9, 0.0, 2022-10-23 13:22:40.416
60.0, -87060.4022813323, -119891.78447625453, 45970.56460029657, 52114.25448826009, 64520.41143422264, 115980.45271402034, 65300.19674303493, 71836.56207758929, -0.004, 0.9500000000000001, 0.026000000000000002, 192.0, 0.0, 0.0, 0.0, 0.0, 0.0, 0.0, 0.0, 0.0, 0.0, 1.6665565604166963E9, 0.0, 2022-10-23 13:22:40.416
61.0, -87026.4946849936, -119860.04499912799, 47024.516406597664, 51925.98574471304, 64404.4505839885, 116301.02143299836, 65806.62021715882, 72169.58071822891, -0.004, 0.9500000000000001, 0.026000000000000002, 192.0, 0.0, 0.0, 0.0, 0.0, 0.0, 0.0, 0.0, 0.0, 0.0, 1.666556560416704E9, 0.0, 2022-10-23 13:22:40.416
62.0, -86988.94375430868, -119821.37648122032, 44918.22211959626, 51801.73239728599, 64260.95238458543, 115402.52600938393, 64511.96247481853, 70810.2593791794, -0.004, 0.9500000000000001, 0.026000000000000002, 192.0, 0.0, 0.0, 0.0, 0.0, 0.0, 0.0, 0.0, 0.0, 0.0, 1.6665565604167187E9, 0.0, 2022-10-23 13:22:40.416
63.0, -87019.72210642364, -119848.15387107777, 44332.33819393375, 51958.015794517494, 64388.2008657695, 115260.99476349293, 64269.44604747845, 70717.41023271206, -0.004, 0.9500000000000001, 0.026000000000000002, 192.0, 0.0, 0.0, 0.0, 0.0, 0.0, 0.0, 0.0, 0.0, 0.0, 1.6665565604167268E9, 0.0, 2022-10-23 13:22:40.416
64.0, -87060.67050226576, -119888.45406633068, 45597.1116539373, 52107.68307539023, 64519.38325397769, 115845.090549599, 65097.84640048104, 71623.5052494413, -0.004, 0.9500000000000001, 0.026000000000000002, 192.0, 0.0, 0.0, 0.0, 0.0, 0.0, 0.0, 0.0, 0.0, 0.0, 1.6665565604167347E9, 0.0, 2022-10-23 13:22:40.416
65.0, -87047.28180733703, -119876.40647606927, 47229.638365464016, 52009.78243467599, 64471.12583769868, 116435.10954798575, 65976.71699246371, 72351.21099367274, -0.004, 0.9500000000000001, 0.026000000000000002, 192.0, 0.0, 0.0, 0.0, 0.0, 0.0, 0.0, 0.0, 0.0, 0.0, 1.6665565604167428E9, 0.0, 2022-10-23 13:22:40.416
66.0, -86991.89418457678, -119822.20349576516, 45330.38828735212, 51796.613847805726, 64252.57048041469, 115574.70149692315, 64759.84332082789, 71010.39689903223, -0.014, 0.9540000000000001, 0.028, 192.0, 255.0, 144.0, 29.0, 208.0, 0.0, 224.0, 0.0, 0.0, 0.0, 1.6665565604167511E9, 0.0, 2022-10-23 13:22:40.416
67.0, -87015.3858679993, -119839.54844946247, 44357.282740745875, 51939.53090185296, 64340.52459484633, 115253.66339131158, 64266.540320699256, 70652.09843541366, -0.014, 0.9540000000000001, 0.028, 192.0, 0.0, 0.0, 0.0, 0.0, 0.0, 0.0, 0.0, 0.0, 0.0, 1.6665565604167595E9, 0.0, 2022-10-23 13:22:40.416
68.0, -87046.85712419238, -119869.41038005476, 45236.868588551115, 52081.21860995515, 64467.86248300821, 115681.4087249528, 64870.93149077076, 71364.8955660934, -0.014, 0.9540000000000001, 0.028, 192.0, 0.0, 0.0, 0.0, 0.0, 0.0, 0.0, 0.0, 0.0, 0.0, 1.6665565604167683E9, 0.0, 2022-10-23 13:22:40.416
69.0, -87045.27015033604, -119873.83602545691, 47216.20496704638, 52062.040813212494, 64493.611692620725, 116442.37386493372, 65984.94243442327, 72379.17302598633, -0.014, 0.9540000000000001, 0.028, 192.0, 0.0, 0.0, 0.0, 0.0, 0.0, 0.0, 0.0, 0.0, 0.0, 1.666556560416776E9, 0.0, 2022-10-23 13:22:40.416
70.0, -86974.19160296817, -119802.51160890004, 45737.570016094454, 51778.084251652275, 64238.75710234131, 115722.89356266185, 64985.14890493738, 71215.74237534314, -0.014, 0.9540000000000001, 0.028, 192.0, 0.0, 0.0, 0.0, 0.0, 0.0, 0.0, 0.0, 0.0, 0.0, 1.666556560416784E9, 0.0, 2022-10-23 13:22:40.416
71.0, -86964.69211157467, -119788.51941687101, 44379.098043334256, 51920.777788254956, 64324.61015279414, 115233.79269049081, 64245.32851521117, 70598.23073127636, -0.014, 0.9540000000000001, 0.028, 192.0, 0.0, 0.0, 0.0, 0.0, 0.0, 0.0, 0.0, 0.0, 0.0, 1.6665565604167917E9, 0.0, 2022-10-23 13:22:40.416
72.0, -86987.42383568571, -119809.30653921445, 44937.1540471499, 52055.82702825392, 64456.59720380273, 115552.10388327885, 64679.55585474442, 71159.7959589715, -0.014, 0.9540000000000001, 0.028, 192.0, 0.0, 0.0, 0.0, 0.0, 0.0, 0.0, 0.0, 0.0, 0.0, 1.6665565604167993E9, 0.0, 2022-10-23 13:22:40.416
73.0, -86982.03706527199, -119805.14911474576, 47051.74083134423, 52118.85894761788, 64536.21411755254, 116400.30788186884, 65911.89693354332, 72340.16923191182, -0.014, 0.9540000000000001, 0.028, 192.0, 0.0, 0.0, 0.0, 0.0, 0.0, 0.0, 0.0, 0.0, 0.0, 1.6665565604168072E9, 0.0, 2022-10-23 13:22:40.416
74.0, -86908.92450915868, -119734.8081749449, 46191.66805644847, 51806.51567059942, 64280.68897493947, 115920.68414934685, 65264.076323995156, 71495.36269847903, -0.014, 0.9540000000000001, 0.028, 192.0, 0.0, 0.0, 0.0, 0.0, 0.0, 0.0, 0.0, 0.0, 0.0, 1.6665565604168148E9, 0.0, 2022-10-23 13:22:40.416
75.0, -86883.13059605725, -119708.36606125427, 44441.101782453276, 51894.02275014195, 64291.216646577916, 115232.0939579122, 64255.29739323824, 70569.17346348446, -0.006, 0.9560000000000001, 0.032, 192.0, 255.0, 208.0, 29.0, 224.0, 1.0, 0.0, 0.0, 0.0, 0.0, 1.6665565604168224E9, 0.0, 2022-10-23 13:22:40.416
76.0, -86887.46683448159, -119713.39520375672, 44698.25860241158, 52033.76585647653, 64437.709979738, 115436.85828886728, 64519.31619874432, 70974.47764569255, -0.006, 0.9560000000000001, 0.032, 192.0, 0.0, 0.0, 0.0, 0.0, 0.0, 0.0, 0.0, 0.0, 0.0, 1.6665565604168308E9, 0.0, 2022-10-23 13:22:40.416
77.0, -86892.3618665173, -119716.99383461403, 46774.802717542974, 52148.743229954634, 64560.39870505318, 116307.99517726841, 65766.23061492809, 72210.73027977113, -0.006, 0.9560000000000001, 0.032, 192.0, 0.0, 0.0, 0.0, 0.0, 0.0, 0.0, 0.0, 0.0, 0.0, 1.6665565604168384E9, 0.0, 2022-10-23 13:22:40.416
78.0, -86818.17642667014, -119643.07661570032, 46657.54546613043, 51862.73030790452, 64343.49737685888, 116131.84107921614, 65555.8783478592, 71797.91591142605, -0.006, 0.9560000000000001, 0.032, 192.0, 0.0, 0.0, 0.0, 0.0, 0.0, 0.0, 0.0, 0.0, 0.0, 1.6665565604168534E9, 0.0, 2022-10-23 13:22:40.416
79.0, -86786.77222571042, -119609.2807780839, 44661.378224060325, 51878.398880767694, 64300.00088214885, 115329.65932245963, 64380.93654882152, 70651.15966214653, -0.006, 0.9560000000000001, 0.032, 192.0, 0.0, 0.0, 0.0, 0.0, 0.0, 0.0, 0.0, 0.0, 0.0, 1.6665565604168613E9, 0.0, 2022-10-23 13:22:40.416
80.0, -86796.15995838166, -119616.96977817653, 44618.01583981703, 52017.15851034624, 64428.54576451132, 115410.01384377645, 64465.53790158486, 70882.0308306254, -0.006, 0.9560000000000001, 0.032, 192.0, 0.0, 0.0, 0.0, 0.0, 0.0, 0.0, 0.0, 0.0, 0.0, 1.6665565604168687E9, 0.0, 2022-10-23 13:22:40.416
81.0, -86806.6876300201, -119626.91630445914, 46457.85498116672, 52168.32335809748, 64570.92637669163, 116205.75829812985, 65601.00651991446, 72045.9085161577, -0.006, 0.9560000000000001, 0.032, 192.0, 0.0, 0.0, 0.0, 0.0, 0.0, 0.0, 0.0, 0.0, 0.0, 1.6665565604168768E9, 0.0, 2022-10-23 13:22:40.416
82.0, -86739.90061758764, -119563.43735020606, 47083.8602881265, 51939.44149487514, 64413.99477887092, 116346.6636951761, 65842.38300828732, 72090.7684672795, -0.006, 0.9560000000000001, 0.032, 192.0, 0.0, 0.0, 0.0, 0.0, 0.0, 0.0, 0.0, 0.0, 0.0, 1.6665565604168844E9, 0.0, 2022-10-23 13:22:40.416
83.0, -86687.41872160659, -119511.24602690293, 44922.44659929832, 51855.957729334565, 64280.39840226155, 115428.29757074089, 64519.45030921105, 70742.53359347983, -0.006, 0.9560000000000001, 0.032, 192.0, 0.0, 0.0, 0.0, 0.0, 0.0, 0.0, 0.0, 0.0, 0.0, 1.6665565604168923E9, 0.0, 2022-10-23 13:22:40.416
84.0, -86698.66164906761, -119521.03609097435, 44518.61763222428, 52007.05552185244, 64406.46224098948, 115345.1267296227, 64374.09691501819, 70757.84453843172, -0.006, 0.9560000000000001, 0.032, 192.0, 0.0, 0.0, 0.0, 0.0, 0.0, 0.0, 0.0, 0.0, 0.0, 1.6665565604168997E9, 0.0, 2022-10-23 13:22:40.416
85.0, -86707.75880906092, -119529.39564340064, 46019.3137549536, 52170.200904631725, 64566.61249001176, 116019.25534239475, 65331.6232957391, 71782.42615251853, -0.006, 0.9560000000000001, 0.032, 192.0, 0.0, 0.0, 30.0, 32.0, 0.0, 224.0, 0.0, 0.0, 0.0, 1.6665565604169075E9, 0.0, 2022-10-23 13:22:40.416
86.0, -86665.46930855147, -119491.3082708488, 47303.86850880009, 52013.8281004224, 64479.88772152516, 116452.99094354999, 65987.04349840207, 72270.49884444462, -0.006, 0.9560000000000001, 0.032, 192.0, 0.0, 0.0, 0.0, 0.0, 0.0, 0.0, 0.0, 0.0, 0.0, 1.666556560416916E9, 0.0, 2022-10-23 13:22:40.416
87.0, -86610.5957759137, -119436.7923661223, 45246.301024711254, 51830.47674065551, 64274.654003936535, 115554.026133302, 64701.54997128844, 70893.54197901988, -0.006, 0.9560000000000001, 0.032, 192.0, 0.0, 0.0, 0.0, 0.0, 0.0, 0.0, 0.0, 0.0, 0.0, 1.6665565604169235E9, 0.0, 2022-10-23 13:22:40.416
88.0, -86594.99425828388, -119417.0334240238, 44481.647846895205, 51987.65420766523, 64374.94628130749, 115306.34645299274, 64329.57224006322, 70676.01480198084, -0.006, 0.9560000000000001, 0.032, 192.0, 0.0, 0.0, 0.0, 0.0, 0.0, 0.0, 0.0, 0.0, 0.0, 1.6665565604169314E9, 0.0, 2022-10-23 13:22:40.416
89.0, -86606.52775842283, -119427.9857788069, 45607.30404940892, 52157.259244592104, 64538.65045769817, 115833.78056690462, 65079.76383921669, 71528.0856523616, -0.006, 0.9560000000000001, 0.032, 192.0, 0.0, 0.0, 0.0, 0.0, 0.0, 0.0, 0.0, 0.0, 0.0, 1.6665565604169393E9, 0.0, 2022-10-23 13:22:40.416
90.0, -86590.90388904857, -119412.7865925773, 47381.339655082185, 52077.50822037557, 64517.14807953216, 116493.06762135836, 66054.27754572363, 72375.32852594001, -0.006, 0.9560000000000001, 0.032, 192.0, 0.0, 0.0, 0.0, 0.0, 0.0, 0.0, 0.0, 0.0, 0.0, 1.666556560416948E9, 0.0, 2022-10-23 13:22:40.416
91.0, -86520.4735422699, -119343.85381267713, 45603.414845873696, 51836.71287735854, 64283.23707380737, 115675.01612603858, 64898.245322495146, 71082.01188826704, -0.006, 0.9560000000000001, 0.032, 192.0, 0.0, 0.0, 0.0, 0.0, 0.0, 0.0, 0.0, 0.0, 0.0, 1.6665565604169557E9, 0.0, 2022-10-23 13:22:40.416
92.0, -86530.44242029697, -119350.38052205808, 44485.067663796865, 51974.69019588116, 64363.301022446285, 115288.35329870622, 64308.405138064045, 70629.27730432479, -0.006, 0.9560000000000001, 0.032, 192.0, 0.0, 0.0, 0.0, 0.0, 0.0, 0.0, 0.0, 0.0, 0.0, 1.6665565604169636E9, 0.0, 2022-10-23 13:22:40.416
93.0, -86554.55995256425, -119373.82750199169, 45252.13483001409, 52116.6014214279, 64496.31625369981, 115680.13467551884, 64854.39119987383, 71295.31458560402, -0.006, 0.9560000000000001, 0.032, 192.0, 0.0, 0.0, 0.0, 0.0, 0.0, 0.0, 0.0, 0.0, 0.0, 1.6665565604169784E9, 0.0, 2022-10-23 13:22:40.416
94.0, -86547.45209782745, -119369.33480135618, 47303.48852914436, 52135.7568664261, 64549.111074103246, 116482.07056308635, 66024.01328373114, 72383.86689232194, -0.006, 0.9560000000000001, 0.032, 192.0, 0.0, 0.0, 0.0, 0.0, 0.0, 0.0, 0.0, 0.0, 0.0, 1.6665565604169862E9, 0.0, 2022-10-23 13:22:40.416
95.0, -86469.5115649118, -119298.72564062187, 46009.83661530455, 51853.61079616676, 64304.918265929016, 115834.76404366066, 65127.14953746195, 71314.91706549133, 0.004, 0.96, 0.022, 192.0, 0.0, 32.0, 30.0, 0.0, 0.0, 176.0, 0.0, 0.0, 0.0, 1.6665565604169948E9, 0.0, 2022-10-23 13:22:40.416
96.0, -86473.02078879128, -119299.82087610017, 44526.55250150592, 51962.083812008364, 64354.82971129772, 115287.34747020573, 64307.48871654138, 70599.52713245478, 0.004, 0.96, 0.022, 192.0, 0.0, 0.0, 0.0, 0.0, 0.0, 0.0, 0.0, 0.0, 0.0, 1.666556560417003E9, 0.0, 2022-10-23 13:22:40.417
97.0, -86496.28895476926, -119322.32908276666, 44972.559210367115, 52087.7453193361, 64471.57287258779, 115555.5237001805, 64676.001927376026, 71096.60757739635, 0.004, 0.96, 0.022, 192.0, 0.0, 0.0, 0.0, 0.0, 0.0, 0.0, 0.0, 0.0, 0.0, 1.6665565604170108E9, 0.0, 2022-10-23 13:22:40.417
98.0, -86520.71941145891, -119343.7197022104, 47087.8165468951, 52166.13288714086, 64561.80686495386, 116411.64021630767, 65916.32257894547, 72302.99828088263, 0.004, 0.96, 0.022, 192.0, 0.0, 0.0, 0.0, 0.0, 0.0, 0.0, 0.0, 0.0, 0.0, 1.6665565604170187E9, 0.0, 2022-10-23 13:22:40.417
99.0, -86459.63209386256, -119285.53811139324, 46473.076519140785, 51861.188037537104, 64321.01152193684, 116033.18047919041, 65410.100270521674, 71599.54417938521, 0.004, 0.96, 0.022, 192.0, 0.0, 0.0, 0.0, 0.0, 0.0, 0.0, 0.0, 0.0, 0.0, 1.6665565604170263E9, 0.0, 2022-10-23 13:22:40.417
100.0, -86444.23174193285, -119268.5507856072, 44643.11684884034, 51929.89729999272, 64324.47604232741, 115316.49414497546, 64349.62175483963, 70610.3230250267, 0.004, 0.96, 0.022, 192.0, 0.0, 0.0, 0.0, 0.0, 0.0, 0.0, 0.0, 0.0, 0.0, 1.6665565604170341E9, 0.0, 2022-10-23 13:22:40.417
101.0, -86476.48530918185, -119297.63040514356, 44801.568365284016, 52060.31972888944, 64453.15503515662, 115483.39462082322, 64554.25197532797, 70957.08798850632, 0.004, 0.96, 0.022, 192.0, 0.0, 0.0, 0.0, 0.0, 0.0, 0.0, 0.0, 0.0, 0.0, 1.666556560417042E9, 0.0, 2022-10-23 13:22:40.417
102.0, -86509.3647252756, -119330.12984158157, 46792.773520085044, 52194.7207682992, 64584.40447859818, 116322.07677627527, 65755.09944618934, 72162.33875302538, 0.004, 0.96, 0.022, 192.0, 0.0, 0.0, 0.0, 0.0, 0.0, 0.0, 0.0, 0.0, 0.0, 1.6665565604170496E9, 0.0, 2022-10-23 13:22:40.417
103.0, -86462.51546889728, -119288.89087306154, 46914.14349247736, 51918.386151598235, 64381.58474941072, 116244.76209220436, 65682.2998144984, 71886.13824679116, 0.004, 0.96, 0.022, 192.0, 0.0, 0.0, 0.0, 0.0, 0.0, 0.0, 0.0, 0.0, 0.0, 1.6665565604170575E9, 0.0, 2022-10-23 13:22:40.417
104.0, -86422.37173585556, -119248.05423594169, 44826.60231907396, 51921.18011965515, 64318.01638817983, 115387.41623013213, 64430.333904067746, 70653.55129880326, -0.002, 0.962, 0.026000000000000002, 192.0, 255.0, 240.0, 30.0, 16.0, 0.0, 208.0, 0.0, 0.0, 0.0, 1.6665565604170654E9, 0.0, 2022-10-23 13:22:40.417
105.0, -86465.9576375434, -119287.66152711649, 44660.30534032647, 52051.9378247187, 64441.53212803986, 115413.07603276682, 64434.96071517, 70814.72972807047, -0.002, 0.962, 0.026000000000000002, 192.0, 0.0, 0.0, 0.0, 0.0, 0.0, 0.0, 0.0, 0.0, 0.0, 1.6665565604170735E9, 0.0, 2022-10-23 13:22:40.417
106.0, -86505.49787348484, -119322.8655246336, 46381.79199478531, 52193.22320142069, 64566.00899291146, 116163.31233540921, 65506.05630946831, 71925.34320656577, -0.002, 0.962, 0.026000000000000002, 192.0, 0.0, 0.0, 0.0, 0.0, 0.0, 0.0, 0.0, 0.0, 0.0, 1.666556560417081E9, 0.0, 2022-10-23 13:22:40.417
107.0, -86463.56600088668, -119286.2086637269, 47199.57526917163, 51980.21107676162, 64418.576886484254, 116368.30018380884, 65854.36354331535, 72090.61200506831, -0.002, 0.962, 0.026000000000000002, 192.0, 0.0, 0.0, 0.0, 0.0, 0.0, 0.0, 0.0, 0.0, 0.0, 1.6665565604170892E9, 0.0, 2022-10-23 13:22:40.417
108.0, -86427.69145103592, -119251.71992203235, 45039.457981521846, 51881.975159880545, 64290.501390755344, 115444.23436453752, 64524.25593426895, 70723.71342464846, -0.002, 0.962, 0.026000000000000002, 192.0, 0.0, 0.0, 0.0, 0.0, 0.0, 0.0, 0.0, 0.0, 0.0, 1.6665565604171035E9, 0.0, 2022-10-23 13:22:40.417
109.0, -86454.155916471, -119276.26213744428, 44561.44357460065, 52036.87274895582, 64425.28240982085, 115351.51932853692, 64347.45363562747, 70706.10025001768, -0.002, 0.962, 0.026000000000000002, 192.0, 0.0, 0.0, 0.0, 0.0, 0.0, 0.0, 0.0, 0.0, 0.0, 1.6665565604171119E9, 0.0, 2022-10-23 13:22:40.417
110.0, -86496.28895476926, -119317.83638213115, 45939.56273073706, 52181.443832092744, 64558.409399796656, 115978.10578085254, 65237.075416693144, 71671.42738955349, -0.002, 0.962, 0.026000000000000002, 192.0, 0.0, 0.0, 0.0, 0.0, 0.0, 0.0, 0.0, 0.0, 0.0, 1.6665565604171195E9, 0.0, 2022-10-23 13:22:40.417
111.0, -86484.0178470633, -119308.47100120438, 47404.49606233789, 52039.398496079266, 64482.39111690416, 116489.06665910086, 66006.333053867, 72285.02747834056, -0.002, 0.962, 0.026000000000000002, 192.0, 0.0, 0.0, 0.0, 0.0, 0.0, 0.0, 0.0, 0.0, 0.0, 1.6665565604171286E9, 0.0, 2022-10-23 13:22:40.417
112.0, -86424.96453821237, -119249.32828537564, 45377.86339257519, 51852.89554034419, 64275.413963248015, 115575.90849112374, 64714.96101796163, 70899.06285990034, -0.002, 0.962, 0.026000000000000002, 192.0, 0.0, 0.0, 0.0, 0.0, 0.0, 0.0, 0.0, 0.0, 0.0, 1.6665565604171364E9, 0.0, 2022-10-23 13:22:40.417
113.0, -86444.47761112185, -119262.78403553773, 44506.63709719624, 52013.51517600002, 64382.7470401224, 115297.87514184418, 64283.795867418754, 70622.59413273264, -0.002, 0.962, 0.026000000000000002, 192.0, 0.0, 0.0, 0.0, 0.0, 0.0, 0.0, 0.0, 0.0, 0.0, 1.6665565604171443E9, 0.0, 2022-10-23 13:22:40.417
114.0, -86480.37451271707, -119295.5069894203, 45534.21384504007, 52162.511904539104, 64521.68548365659, 115802.04108977808, 64986.177085182324, 71426.76519474569, 0.002, 0.96, 0.028, 192.0, 0.0, 16.0, 30.0, 0.0, 0.0, 224.0, 0.0, 0.0, 0.0, 1.666556560417152E9, 0.0, 2022-10-23 13:22:40.417
115.0, -86475.92651557046, -119297.67510863247, 47424.43381839202, 52113.20395627069, 64520.34437898927, 116517.96746468157, 66040.50887113916, 72365.87373803541, 0.002, 0.96, 0.028, 192.0, 0.0, 0.0, 0.0, 0.0, 0.0, 0.0, 0.0, 0.0, 0.0, 1.6665565604171605E9, 0.0, 2022-10-23 13:22:40.417
116.0, -86426.90913997998, -119254.80446276719, 45779.47953694815, 51844.78185710691, 64271.90473936853, 115738.04804540254, 64950.97308766522, 71121.86504863085, 0.002, 0.96, 0.028, 192.0, 0.0, 0.0, 0.0, 0.0, 0.0, 0.0, 0.0, 0.0, 0.0, 1.6665565604171684E9, 0.0, 2022-10-23 13:22:40.417
117.0, -86449.64086409102, -119271.90354727549, 44541.975205180075, 51972.43266969117, 64342.13392044711, 115300.78086862336, 64287.26038780933, 70584.30559448071, 0.002, 0.96, 0.028, 192.0, 0.0, 0.0, 0.0, 0.0, 0.0, 0.0, 0.0, 0.0, 0.0, 1.6665565604171762E9, 0.0, 2022-10-23 13:22:40.417
118.0, -86465.60000963212, -119284.88991080404, 45184.587858270155, 52122.77050289756, 64476.892587768154, 115640.6391430663, 64762.16790225124, 71187.802694774, 0.002, 0.96, 0.028, 192.0, 0.0, 0.0, 0.0, 0.0, 0.0, 0.0, 0.0, 0.0, 0.0, 1.666556560417184E9, 0.0, 2022-10-23 13:22:40.417
119.0, -86481.60385866211, -119301.13962902303, 47295.97834300737, 52166.24464586314, 64553.78258869441, 116486.65267069968, 65989.77041122562, 72344.5725255695, 0.002, 0.96, 0.028, 192.0, 0.0, 0.0, 0.0, 0.0, 0.0, 0.0, 0.0, 0.0, 0.0, 1.6665565604171917E9, 0.0, 2022-10-23 13:22:40.417
120.0, -86417.9013869645, -119242.62276203904, 46216.88082419406, 51867.93826436261, 64301.92313217201, 115922.18171622536, 65217.13766063901, 71385.05683959209, 0.002, 0.96, 0.028, 192.0, 0.0, 0.0, 0.0, 0.0, 0.0, 0.0, 0.0, 0.0, 0.0, 1.6665565604171996E9, 0.0, 2022-10-23 13:22:40.417
121.0, -86420.22596838785, -119242.06396842767, 44604.73890361058, 51968.789335344954, 64339.094083201184, 115309.69921466104, 64307.779289219296, 70572.43681817495, 0.002, 0.96, 0.028, 192.0, 0.0, 0.0, 0.0, 0.0, 0.0, 0.0, 0.0, 0.0, 0.0, 1.6665565608955712E9, 0.0, 2022-10-23 13:22:40.895
122.0, -86451.160782714, -119274.76457056578, 44942.697279774824, 52094.47319441714, 64462.006325960916, 115536.74823483804, 64612.0535864894, 71015.5154485125, 0.002, 0.96, 0.028, 192.0, 0.0, 0.0, 0.0, 0.0, 0.0, 0.0, 0.0, 0.0, 0.0, 1.6665565608956513E9, 0.0, 2022-10-23 13:22:40.895
123.0, -86481.84972785112, -119305.52057093628, 47016.559185571576, 52183.3660821159, 64552.6873532161, 116380.5712915148, 65839.23141231912, 72219.2462944086, 0.002, 0.96, 0.028, 192.0, 0.0, 0.0, 0.0, 0.0, 0.0, 0.0, 0.0, 0.0, 0.0, 1.6665565608956609E9, 0.0, 2022-10-23 13:22:40.895
124.0, -86428.42905860294, -119255.92204998995, 46633.249119907516, 51886.8478401718, 64324.766615005334, 116094.02192759776, 65470.785256717834, 71651.22141256588, 0.002, 0.96, 0.028, 192.0, 0.0, 16.0, 30.0, 0.0, 0.0, 224.0, 0.0, 0.0, 0.0, 1.6665565608958044E9, 0.0, 2022-10-23 13:22:40.895
125.0, -86410.16768338296, -119237.50421255878, 44701.231384424136, 51933.67474480567, 64305.72292872941, 115326.48537474698, 64341.753940791365, 70573.53205365325, 0.002, 0.96, 0.028, 192.0, 0.0, 0.0, 0.0, 0.0, 0.0, 0.0, 0.0, 0.0, 0.0, 1.6665565608958144E9, 0.0, 2022-10-23 13:22:40.895
126.0, -86434.95576798389, -119263.14166344902, 44716.34116367593, 52068.902798760275, 64428.434005789044, 115417.94871305808, 64454.60789854621, 70837.8637835817, 0.002, 0.96, 0.028, 192.0, 0.0, 0.0, 0.0, 0.0, 0.0, 0.0, 0.0, 0.0, 0.0, 1.6665565608958228E9, 0.0, 2022-10-23 13:22:40.895
127.0, -86473.53487891375, -119301.58666391215, 46639.99934673302, 52208.511794628124, 64571.01578366945, 116243.82331893723, 65637.88689826571, 72035.29143754143, 0.002, 0.96, 0.028, 192.0, 0.0, 0.0, 0.0, 0.0, 0.0, 0.0, 0.0, 0.0, 0.0, 1.6665565608958316E9, 0.0, 2022-10-23 13:22:40.895
128.0, -86423.84695098961, -119258.6042593246, 47034.90996776938, 51955.37828867177, 64393.431173972036, 116292.70658406099, 65742.71657976111, 71939.96124743954, 0.002, 0.96, 0.028, 192.0, 0.0, 0.0, 0.0, 0.0, 0.0, 0.0, 0.0, 0.0, 0.0, 1.6665565608958397E9, 0.0, 2022-10-23 13:22:40.895
129.0, -86398.29890707719, -119231.55864853367, 44907.98502063573, 51910.51833754997, 64292.58010298969, 115406.68343385261, 64455.70313402452, 70650.60086853516, 0.002, 0.96, 0.028, 192.0, 0.0, 0.0, 0.0, 0.0, 0.0, 0.0, 0.0, 0.0, 0.0, 1.6665565608958478E9, 0.0, 2022-10-23 13:22:40.895
130.0, -86436.76625928478, -119265.08626521663, 44636.32191852593, 52054.66473754225, 64416.31936029427, 115388.22089293253, 64399.019110085865, 70749.52968949435, 0.002, 0.96, 0.028, 192.0, 0.0, 0.0, 0.0, 0.0, 0.0, 0.0, 0.0, 0.0, 0.0, 1.666556560895856E9, 0.0, 2022-10-23 13:22:40.895
131.0, -86475.63594289255, -119302.68189939046, 46237.10915292611, 52201.180422446785, 64548.52992874741, 116088.5457502062, 65405.87579081963, 71809.15883888709, 0.002, 0.96, 0.028, 192.0, 0.0, 0.0, 0.0, 0.0, 0.0, 0.0, 0.0, 0.0, 0.0, 1.6665565608958645E9, 0.0, 2022-10-23 13:22:40.895
132.0, -86456.54755312772, -119287.28154746075, 47287.037645225246, 52008.24016430857, 64425.34946505421, 116404.93469297109, 65906.28664568505, 72134.37672071179, 0.002, 0.96, 0.028, 192.0, 0.0, 0.0, 0.0, 0.0, 0.0, 0.0, 0.0, 0.0, 0.0, 1.6665565608958788E9, 0.0, 2022-10-23 13:22:40.895
133.0, -86404.82561645814, -119236.58779103612, 45167.377015039565, 51882.82452616985, 64272.64234693556, 115493.43055408366, 64593.52399033595, 70760.25852683288, 0.002, 0.96, 0.028, 192.0, 0.0, 0.0, 0.0, 0.0, 0.0, 0.0, 0.0, 0.0, 0.0, 1.6665565608958864E9, 0.0, 2022-10-23 13:22:40.895
134.0, -86427.13265742453, -119255.4526633564, 44574.74286255155, 52041.74542924708, 64402.930665365544, 115349.35120932476, 64345.26316467085, 70664.88363324209, 0.004, 0.9580000000000001, 0.032, 192.0, 0.0, 32.0, 29.0, 240.0, 1.0, 0.0, 0.0, 0.0, 0.0, 1.666556560895896E9, 0.0, 2022-10-23 13:22:40.895
135.0, -86464.28125670925, -119292.91418706349, 45815.89052866585, 52186.22710540618, 64530.380312249705, 115915.94557952233, 65154.28455523069, 71559.80277774368, 0.004, 0.9580000000000001, 0.032, 192.0, 0.0, 0.0, 0.0, 0.0, 0.0, 0.0, 0.0, 0.0, 0.0, 1.6665565608959043E9, 0.0, 2022-10-23 13:22:40.895
136.0, -86456.90518103901, -119288.26502421679, 47442.53873140082, 52080.83863029941, 64492.09177399776, 116503.81881044136, 66030.29412392309, 72290.39189700985, 0.004, 0.9580000000000001, 0.032, 192.0, 0.0, 0.0, 0.0, 0.0, 0.0, 0.0, 0.0, 0.0, 0.0, 1.6665565608959126E9, 0.0, 2022-10-23 13:22:40.895
137.0, -86402.50103503479, -119235.22433462433, 45540.74055442102, 51866.59715969529, 64274.56459695871, 115646.0482652245, 64809.84417317441, 70951.79062507041, 0.004, 0.9580000000000001, 0.032, 192.0, 0.0, 0.0, 0.0, 0.0, 0.0, 0.0, 0.0, 0.0, 0.0, 1.6665565608959205E9, 0.0, 2022-10-23 13:22:40.895
138.0, -86433.39114587202, -119264.23689892732, 44552.07819367388, 52008.62014396431, 64367.52550214833, 115316.20357229753, 64299.464440281925, 70588.77594337177, 0.004, 0.9580000000000001, 0.032, 192.0, 0.0, 0.0, 0.0, 0.0, 0.0, 0.0, 0.0, 0.0, 0.0, 1.6665565608959284E9, 0.0, 2022-10-23 13:22:40.895
139.0, -86466.94111429944, -119293.54003590824, 45433.47453278, 52152.11834336738, 64497.54559964486, 115748.79923448554, 64910.337616245466, 71310.73728927819, 0.004, 0.9580000000000001, 0.032, 192.0, 0.0, 0.0, 0.0, 0.0, 0.0, 0.0, 0.0, 0.0, 0.0, 1.6665565608959503E9, 0.0, 2022-10-23 13:22:40.895
140.0, -86466.91876255498, -119289.94140505094, 47399.802196002274, 52146.79862818702, 64534.00129485146, 116500.51075226198, 66020.66052206284, 72326.6240747719, 0.004, 0.9580000000000001, 0.032, 192.0, 0.0, 0.0, 0.0, 0.0, 0.0, 0.0, 0.0, 0.0, 0.0, 1.666556560895958E9, 0.0, 2022-10-23 13:22:40.895
141.0, -86413.9451281959, -119237.66067476997, 45923.98356485171, 51871.93922662011, 64292.51304775632, 115787.35599367095, 65026.87961183544, 71174.79397950102, 0.004, 0.9580000000000001, 0.032, 192.0, 0.0, 0.0, 0.0, 0.0, 0.0, 0.0, 0.0, 0.0, 0.0, 1.6665565608959665E9, 0.0, 2022-10-23 13:22:40.895
142.0, -86434.28521565023, -119257.30785814619, 44584.64468534526, 51998.226582792595, 64358.38363866611, 115315.06363333031, 64305.8793909406, 70568.99464952883, 0.004, 0.9580000000000001, 0.032, 192.0, 0.0, 0.0, 0.0, 0.0, 0.0, 0.0, 0.0, 0.0, 0.0, 1.6665565608959744E9, 0.0, 2022-10-23 13:22:40.895
143.0, -86470.24917247883, -119292.04246902972, 45135.74929663531, 52124.44688373171, 64473.0704394663, 115623.4953550691, 64733.08828271488, 71121.6862346752, 0.004, 0.9580000000000001, 0.032, 192.0, 0.0, 0.0, 30.0, 0.0, 0.0, 240.0, 0.0, 0.0, 0.0, 1.6665565608959825E9, 0.0, 2022-10-23 13:22:40.895
144.0, -86492.01977157829, -119312.51666695079, 47254.69467099842, 52184.595428060944, 64555.50367301747, 116472.66047867066, 65966.90457664784, 72304.38408903887, 0.004, 0.9580000000000001, 0.032, 192.0, 0.0, 0.0, 0.0, 0.0, 0.0, 0.0, 0.0, 0.0, 0.0, 1.6665565608959906E9, 0.0, 2022-10-23 13:22:40.895
145.0, -86423.60108180059, -119246.80253825219, 46416.124274268666, 51896.570849009855, 64329.12520517412, 116015.45554583735, 65338.84290919816, 71483.85155008454, 0.004, 0.9580000000000001, 0.032, 192.0, 0.0, 0.0, 0.0, 0.0, 0.0, 0.0, 0.0, 0.0, 0.0, 1.6665565608959987E9, 0.0, 2022-10-23 13:22:40.895
146.0, -86426.01507020177, -119246.95900046338, 44681.53949755902, 51963.201399231126, 64332.880298242606, 115341.46104353202, 64342.111568702654, 70570.8051408297, 0.004, 0.9580000000000001, 0.032, 192.0, 0.0, 0.0, 0.0, 0.0, 0.0, 0.0, 0.0, 0.0, 0.0, 1.6665565608960063E9, 0.0, 2022-10-23 13:22:40.896
147.0, -86453.5077158818, -119274.71986707687, 44902.82176766655, 52093.31090370547, 64449.08701766575, 115513.12244094879, 64572.178074381125, 70949.89072679171, 0.004, 0.9580000000000001, 0.032, 192.0, 0.0, 0.0, 0.0, 0.0, 0.0, 0.0, 0.0, 0.0, 0.0, 1.6665565608960145E9, 0.0, 2022-10-23 13:22:40.896
148.0, -86486.47653895337, -119308.15807678201, 46939.84799860096, 52212.17748071879, 64567.081876645316, 116353.10099757923, 65787.1741994827, 72163.4339885037, 0.004, 0.9580000000000001, 0.032, 192.0, 0.0, 0.0, 0.0, 0.0, 0.0, 0.0, 0.0, 0.0, 0.0, 1.6665565608960223E9, 0.0, 2022-10-23 13:22:40.896
149.0, -86449.57380885766, -119275.16690196597, 46822.56839544397, 51916.19568064162, 64352.371019407634, 116187.58632988768, 65581.56050223834, 71749.72555038042, 0.004, 0.9580000000000001, 0.032, 192.0, 0.0, 0.0, 0.0, 0.0, 0.0, 0.0, 0.0, 0.0, 0.0, 1.6665565608960304E9, 0.0, 2022-10-23 13:22:40.896
150.0, -86423.77989575623, -119248.32245687515, 44838.046412235075, 51934.30059365041, 64306.594646763166, 115394.32291916883, 64412.161935825585, 70609.9206936265, 0.004, 0.9580000000000001, 0.032, 192.0, 0.0, 0.0, 0.0, 0.0, 0.0, 0.0, 0.0, 0.0, 0.0, 1.666556560896038E9, 0.0, 2022-10-23 13:22:40.896
151.0, -86444.72348031086, -119268.88606177403, 44786.168013354305, 52078.35758666487, 64445.19781413053, 115468.82128343837, 64488.53784662937, 70839.38370220468, 0.004, 0.9580000000000001, 0.032, 192.0, 0.0, 0.0, 0.0, 0.0, 0.0, 0.0, 0.0, 0.0, 0.0, 1.666556560896046E9, 0.0, 2022-10-23 13:22:40.896
152.0, -86482.43087320696, -119308.82862911567, 46605.24238410502, 52216.31255344302, 64577.45308607258, 116246.68434222751, 65607.26500836194, 71984.79884681688, 0.004, 0.9580000000000001, 0.032, 192.0, 0.0, 0.0, 0.0, 0.0, 0.0, 0.0, 0.0, 0.0, 0.0, 1.6665565608960538E9, 0.0, 2022-10-23 13:22:40.896
153.0, -86434.50873309479, -119264.92980300545, 47210.03588557671, 51982.73682388507, 64414.531220737845, 116376.90560542412, 65833.97875237212, 72018.72879490005, -0.004, 0.96, 0.028, 192.0, 255.0, 224.0, 30.0, 0.0, 0.0, 224.0, 0.0, 0.0, 0.0, 1.6665565608960617E9, 0.0, 2022-10-23 13:22:40.896
154.0, -86404.95972692486, -119232.7432909898, 45088.22948792332, 51911.948849195105, 64308.271027597315, 115493.22938838357, 64546.451216513065, 70706.74845060689, -0.004, 0.96, 0.028, 192.0, 0.0, 0.0, 0.0, 0.0, 0.0, 0.0, 0.0, 0.0, 0.0, 1.6665565608960712E9, 0.0, 2022-10-23 13:22:40.896
155.0, -86439.51552385278, -119263.81221578267, 44738.33528021995, 52056.83285675441, 64430.44566279002, 115448.72706517305, 64447.58945078724, 70757.17398609806, -0.004, 0.96, 0.028, 192.0, 0.0, 0.0, 0.0, 0.0, 0.0, 0.0, 0.0, 0.0, 0.0, 1.6665565608960867E9, 0.0, 2022-10-23 13:22:40.896
156.0, -86466.78465208824, -119290.27668121776, 46206.017876388774, 52214.85969005343, 64556.75537070697, 116087.83049438364, 65374.00220322636, 71753.74886438237, -0.004, 0.96, 0.028, 192.0, 0.0, 0.0, 0.0, 0.0, 0.0, 0.0, 0.0, 0.0, 0.0, 1.6665565608960946E9, 0.0, 2022-10-23 13:22:40.896
157.0, -86448.03153849025, -119277.46913164487, 47462.38708047713, 52053.97183346413, 64470.49998885393, 116501.27071157345, 66006.9365509673, 72222.1520211878, -0.004, 0.96, 0.028, 192.0, 0.0, 0.0, 0.0, 0.0, 0.0, 0.0, 0.0, 0.0, 0.0, 1.666556560896103E9, 0.0, 2022-10-23 13:22:40.896
158.0, -86408.06661940416, -119240.56640154916, 45376.16465999659, 51884.27738955944, 64282.0747830957, 115582.74812492706, 64694.68798574067, 70829.90656255562, -0.004, 0.96, 0.028, 192.0, 0.0, 0.0, 0.0, 0.0, 0.0, 0.0, 0.0, 0.0, 0.0, 1.6665565608961108E9, 0.0, 2022-10-23 13:22:40.896
159.0, -86431.11126793758, -119262.78403553773, 44652.41517453375, 52041.09722865787, 64402.438926987525, 115372.82054100282, 64359.45652239997, 70650.01972317931, -0.004, 0.96, 0.028, 192.0, 0.0, 0.0, 0.0, 0.0, 0.0, 0.0, 0.0, 0.0, 0.0, 1.6665565608961186E9, 0.0, 2022-10-23 13:22:40.896
160.0, -86469.86919282308, -119300.08909703363, 45802.68064769276, 52185.17657341678, 64540.81857691033, 115919.4100999129, 65127.261296184224, 71511.07597483111, -0.004, 0.96, 0.028, 192.0, 0.0, 0.0, 0.0, 0.0, 0.0, 0.0, 0.0, 0.0, 0.0, 1.666556560896127E9, 0.0, 2022-10-23 13:22:40.896
161.0, -86462.40371017501, -119296.33400396515, 47562.679357848094, 52101.826918342944, 64510.800184106854, 116568.8623868063, 66090.48737174123, 72341.55504006804, -0.004, 0.96, 0.028, 192.0, 0.0, 0.0, 0.0, 0.0, 0.0, 0.0, 0.0, 0.0, 0.0, 1.666556560896135E9, 0.0, 2022-10-23 13:22:40.896
162.0, -86402.25516584578, -119240.58875329362, 45773.53397292304, 51869.97227310804, 64286.9251116425, 115744.75356873914, 64926.31911353101, 71044.8632889823, -0.004, 0.96, 0.028, 192.0, 0.0, 0.0, 0.0, 0.0, 0.0, 0.0, 0.0, 0.0, 0.0, 1.6665565608961432E9, 0.0, 2022-10-23 13:22:40.896
163.0, -86427.95967196938, -119262.8510907711, 44680.667779525254, 52009.53656548698, 64374.92392956304, 115376.17330267112, 64354.49443513089, 70610.6135977046, -0.004, 0.96, 0.028, 192.0, 0.0, 0.0, 29.0, 240.0, 0.0, 224.0, 0.0, 0.0, 0.0, 1.666556560896151E9, 0.0, 2022-10-23 13:22:40.896
164.0, -86467.8575358221, -119300.7596493673, 45462.37533836071, 52140.763657184085, 64495.57864613279, 115772.78265628609, 64906.02372956559, 71277.58965225097, -0.004, 0.96, 0.028, 192.0, 0.0, 0.0, 0.0, 0.0, 0.0, 0.0, 0.0, 0.0, 0.0, 1.6665565608961596E9, 0.0, 2022-10-23 13:22:40.896
165.0, -86478.18404176045, -119311.48848670584, 47511.225642111975, 52156.32047132498, 64540.863280399244, 116570.29289845144, 66070.95194708729, 72356.64246757537, -0.004, 0.96, 0.028, 192.0, 0.0, 0.0, 0.0, 0.0, 0.0, 0.0, 0.0, 0.0, 0.0, 1.6665565608961675E9, 0.0, 2022-10-23 13:22:40.896
166.0, -86417.99079394231, -119256.65965755697, 46221.35117308512, 51870.53106671942, 64296.89398966957, 115929.04370177315, 65178.26797703123, 71284.98807966568, -0.004, 0.96, 0.028, 192.0, 0.0, 0.0, 0.0, 0.0, 0.0, 0.0, 0.0, 0.0, 0.0, 1.6665565608961751E9, 0.0, 2022-10-23 13:22:40.896
167.0, -86423.26580563377, -119259.2524599138, 44742.336242477446, 51984.301445996934, 64343.25150766987, 115379.57076782832, 64354.82971129772, 70567.89941405051, -0.004, 0.96, 0.028, 192.0, 0.0, 0.0, 0.0, 0.0, 0.0, 0.0, 0.0, 0.0, 0.0, 1.6665565608961835E9, 0.0, 2022-10-23 13:22:40.896
168.0, -86450.04319549122, -119282.2524049583, 45191.628657773574, 52123.21753778667, 64472.73516329947, 115647.3446664029, 64722.91823898772, 71069.96429800562, -0.004, 0.96, 0.028, 192.0, 0.0, 0.0, 0.0, 0.0, 0.0, 0.0, 0.0, 0.0, 0.0, 1.6665565608961914E9, 0.0, 2022-10-23 13:22:40.896
169.0, -86474.67481788098, -119304.96177732489, 47324.45446544343, 52201.6721608248, 64571.753391236474, 116515.53112453595, 65981.14263786587, 72287.15089406382, -0.004, 0.96, 0.028, 192.0, 0.0, 0.0, 0.0, 0.0, 0.0, 0.0, 0.0, 0.0, 0.0, 1.6665565608961992E9, 0.0, 2022-10-23 13:22:40.896
170.0, -86424.78572425673, -119258.02311396875, 46649.52118987098, 51887.96542739456, 64313.83661196669, 116093.61959619756, 65425.81354687376, 71540.2897048342, -0.004, 0.96, 0.028, 192.0, 0.0, 0.0, 0.0, 0.0, 0.0, 0.0, 0.0, 0.0, 0.0, 1.6665565608962145E9, 0.0, 2022-10-23 13:22:40.896
171.0, -86424.78572425673, -119253.8433377556, 44786.5703447545, 51955.08771599385, 64308.38278631959, 115345.976095912, 64333.528498831816, 70530.32613162114, -0.004, 0.96, 0.028, 192.0, 0.0, 0.0, 0.0, 0.0, 0.0, 0.0, 0.0, 0.0, 0.0, 1.6665565608962224E9, 0.0, 2022-10-23 13:22:40.896
172.0, -86448.74679431281, -119276.53035837774, 44935.12003840447, 52096.238982229115, 64453.065628178796, 115504.60642631131, 64532.883707628695, 70886.56823474982, 0.004, 0.96, 0.03, 192.0, 0.0, 32.0, 30.0, 0.0, 0.0, 240.0, 0.0, 0.0, 0.0, 1.6665565608962302E9, 0.0, 2022-10-23 13:22:40.896
173.0, -86482.63203890706, -119311.35437623912, 46945.43593471479, 52224.06860876902, 64585.76793500995, 116357.97367787048, 65753.31130663292, 72116.31651119191, 0.004, 0.96, 0.03, 192.0, 0.0, 0.0, 0.0, 0.0, 0.0, 0.0, 0.0, 0.0, 0.0, 1.6665565608962383E9, 0.0, 2022-10-23 13:22:40.896
174.0, -86439.02378547475, -119271.99295425332, 47056.8593808245, 51939.55325359741, 64374.92392956304, 116279.02731645433, 65680.31050924188, 71842.08295846975, 0.004, 0.96, 0.03, 192.0, 0.0, 0.0, 0.0, 0.0, 0.0, 0.0, 0.0, 0.0, 0.0, 1.6665565608962462E9, 0.0, 2022-10-23 13:22:40.896
175.0, -86415.64386077451, -119247.87542198604, 44973.72150107879, 51924.57758481236, 64294.703518712944, 115417.56873340235, 64430.49036627894, 70610.6135977046, 0.004, 0.96, 0.03, 192.0, 0.0, 0.0, 0.0, 0.0, 0.0, 0.0, 0.0, 0.0, 0.0, 1.6665565608962548E9, 0.0, 2022-10-23 13:22:40.896
176.0, -86442.17538144295, -119272.12706472004, 44810.68787702178, 52072.9931679956, 64428.90339242261, 115442.55798370339, 64438.46993904948, 70776.66470726309, 0.004, 0.96, 0.03, 192.0, 0.0, 0.0, 0.0, 0.0, 0.0, 0.0, 0.0, 0.0, 0.0, 1.6665565608962626E9, 0.0, 2022-10-23 13:22:40.896
177.0, -86476.79823360423, -119304.02300405777, 46536.287252460395, 52223.06278026853, 64574.837931971306, 116190.13442875558, 65511.59954209323, 71895.86125562922, 0.004, 0.96, 0.03, 192.0, 0.0, 0.0, 0.0, 0.0, 0.0, 0.0, 0.0, 0.0, 0.0, 1.6665565608962705E9, 0.0, 2022-10-23 13:22:40.896
178.0, -86444.38820414404, -119277.42442815595, 47384.625361517115, 52002.80869040593, 64436.32417158177, 116431.82384155081, 65893.85907576789, 72087.92979573367, 0.004, 0.96, 0.03, 192.0, 0.0, 0.0, 0.0, 0.0, 0.0, 0.0, 0.0, 0.0, 0.0, 1.666556560896279E9, 0.0, 2022-10-23 13:22:40.896
179.0, -86406.68081124793, -119239.38175909303, 45230.96772801492, 51904.617477013766, 64290.85901866663, 115508.517981591, 64566.88071094522, 70720.98651182491, 0.004, 0.96, 0.03, 192.0, 0.0, 0.0, 0.0, 0.0, 0.0, 0.0, 0.0, 0.0, 0.0, 1.666556560896287E9, 0.0, 2022-10-23 13:22:40.896
180.0, -86442.01891923176, -119266.24855592831, 44760.97759735317, 52058.285720144006, 64425.64003773213, 115414.93122755662, 64393.207656527484, 70706.07789827322, 0.004, 0.96, 0.03, 192.0, 0.0, 0.0, 0.0, 0.0, 0.0, 0.0, 0.0, 0.0, 0.0, 1.6665565608962948E9, 0.0, 2022-10-23 13:22:40.896
181.0, -86477.3123237267, -119296.17754175396, 46135.475770887824, 52216.960754032225, 64567.4395045566, 116036.37677864752, 65277.66618462398, 71669.77336046379, 0.004, 0.96, 0.03, 192.0, 0.0, 0.0, 0.0, 0.0, 0.0, 0.0, 0.0, 0.0, 0.0, 1.6665565608963025E9, 0.0, 2022-10-23 13:22:40.896
182.0, -86464.32596019817, -119285.53811139324, 47588.65208490516, 52083.163211722764, 64503.40175669215, 116547.1141394513, 66042.49817639567, 72277.67375441478, 0.002, 0.9580000000000001, 0.028, 192.0, 0.0, 16.0, 29.0, 240.0, 0.0, 224.0, 0.0, 0.0, 0.0, 1.66655656089631E9, 0.0, 2022-10-23 13:22:40.896
183.0, -86423.57873005614, -119248.63538129753, 45568.322607078866, 51883.562133736865, 64291.574274489205, 115642.0920064559, 64756.82583532642, 70894.99484240948, 0.002, 0.9580000000000001, 0.028, 192.0, 0.0, 0.0, 0.0, 0.0, 0.0, 0.0, 0.0, 0.0, 0.0, 1.6665565608963184E9, 0.0, 2022-10-23 13:22:40.896
184.0, -86448.27740767926, -119272.30587867569, 44716.94466077622, 52031.39657156427, 64394.481705961436, 115372.50761658045, 64336.32246688873, 70626.28217056778, 0.002, 0.9580000000000001, 0.028, 192.0, 0.0, 0.0, 0.0, 0.0, 0.0, 0.0, 0.0, 0.0, 0.0, 1.666556560896326E9, 0.0, 2022-10-23 13:22:40.896
185.0, -86483.63786740755, -119304.40298371352, 45749.796420311504, 52184.684835038766, 64535.94589661907, 115875.04188716912, 65040.02243757516, 71430.2073633918, 0.002, 0.9580000000000001, 0.028, 192.0, 0.0, 0.0, 0.0, 0.0, 0.0, 0.0, 0.0, 0.0, 0.0, 1.666556560896334E9, 0.0, 2022-10-23 13:22:40.896
186.0, -86483.50375694082, -119308.60511167112, 47650.43230657963, 52136.6062327154, 64540.863280399244, 116605.42984073519, 66104.85954342599, 72372.91453753883, 0.002, 0.9580000000000001, 0.028, 192.0, 0.0, 0.0, 0.0, 0.0, 0.0, 0.0, 0.0, 0.0, 0.0, 1.6665565608963492E9, 0.0, 2022-10-23 13:22:40.896
187.0, -86417.52140730876, -119246.82488999664, 45974.09617592051, 51881.90810464718, 64296.71517571392, 115809.21599974824, 64989.10516370597, 71113.9301793492, 0.002, 0.9580000000000001, 0.028, 192.0, 0.0, 0.0, 0.0, 0.0, 0.0, 0.0, 0.0, 0.0, 0.0, 1.6665565608963568E9, 0.0, 2022-10-23 13:22:40.896
188.0, -86445.23757043334, -119270.96477400837, 44750.9640158372, 52012.24112656607, 64373.783990595824, 115379.99545097297, 64332.96970522043, 70589.20062651642, 0.002, 0.9580000000000001, 0.028, 192.0, 0.0, 0.0, 0.0, 0.0, 0.0, 0.0, 0.0, 0.0, 0.0, 1.6665565608963652E9, 0.0, 2022-10-23 13:22:40.896
189.0, -86484.84486160814, -119309.34271923814, 45439.330689827286, 52142.75296244061, 64498.14909674515, 115751.01205718661, 64843.21532764618, 71213.79777357553, 0.002, 0.9580000000000001, 0.028, 192.0, 0.0, 0.0, 0.0, 0.0, 0.0, 0.0, 0.0, 0.0, 0.0, 1.6665565608963733E9, 0.0, 2022-10-23 13:22:40.896
190.0, -86494.90314661303, -119321.14444031054, 47571.46359341903, 52182.98610246016, 64569.518216790944, 116611.50951522704, 66084.07242108256, 72372.48985439418, 0.002, 0.9580000000000001, 0.028, 192.0, 0.0, 0.0, 0.0, 0.0, 0.0, 0.0, 0.0, 0.0, 0.0, 1.666556560896381E9, 0.0, 2022-10-23 13:22:40.896
191.0, -86428.85374174759, -119259.87830875855, 46465.85690568172, 51885.08205235983, 64312.80843172174, 116034.81215653566, 65289.75847837431, 71392.27645305115, 0.002, 0.9580000000000001, 0.028, 192.0, 0.0, 0.0, 0.0, 0.0, 0.0, 0.0, 0.0, 0.0, 0.0, 1.6665565608963888E9, 0.0, 2022-10-23 13:22:40.896
192.0, -86431.22302665985, -119259.31951514716, 44848.21645596224, 51985.709605897624, 64351.409894396056, 115413.25484672247, 64370.140656249605, 70573.88968156454, 0.002, 0.9580000000000001, 0.028, 192.0, 0.0, 0.0, 30.0, 0.0, 0.0, 224.0, 0.0, 0.0, 0.0, 1.6665565608963966E9, 0.0, 2022-10-23 13:22:40.896
193.0, -86461.59904737462, -119289.71788760638, 45173.34493080914, 52117.38373248384, 64472.355183643725, 115623.56241030246, 64660.86979637978, 71007.13354434175, 0.002, 0.9580000000000001, 0.028, 192.0, 0.0, 0.0, 0.0, 0.0, 0.0, 0.0, 0.0, 0.0, 0.0, 1.6665565608964047E9, 0.0, 2022-10-23 13:22:40.896
194.0, -86494.99255359084, -119324.3183880232, 47256.01342392128, 52217.34073368797, 64579.040059928906, 116471.5428914479, 65892.33915714493, 72220.34152988691, 0.002, 0.9580000000000001, 0.028, 192.0, 0.0, 0.0, 0.0, 0.0, 0.0, 0.0, 0.0, 0.0, 0.0, 1.6665565608964124E9, 0.0, 2022-10-23 13:22:40.896
195.0, -86443.650596577, -119278.4526084009, 46864.18734361975, 51915.32396260786, 64354.561490364256, 116185.7758385868, 65519.60146660823, 71646.81811890818, 0.002, 0.9580000000000001, 0.028, 192.0, 0.0, 0.0, 0.0, 0.0, 0.0, 0.0, 0.0, 0.0, 0.0, 1.6665565608964205E9, 0.0, 2022-10-23 13:22:40.896
196.0, -86437.52621859625, -119269.10957921858, 44939.053945428604, 51950.058573491406, 64321.92794345951, 115418.23928573601, 64392.00066232689, 70569.06170476219, 0.002, 0.9580000000000001, 0.028, 192.0, 0.0, 0.0, 0.0, 0.0, 0.0, 0.0, 0.0, 0.0, 0.0, 1.6665565608964293E9, 0.0, 2022-10-23 13:22:40.896
197.0, -86472.909030069, -119302.8607133461, 44981.27639070468, 52089.68992110371, 64450.87515722217, 115530.84737430184, 64523.875954613206, 70851.2748302549, 0.002, 0.9580000000000001, 0.028, 192.0, 0.0, 0.0, 0.0, 0.0, 0.0, 0.0, 0.0, 0.0, 0.0, 1.6665565608964372E9, 0.0, 2022-10-23 13:22:40.896
198.0, -86507.10719908563, -119335.60601897312, 46922.21247222573, 52221.788730834574, 64587.08668793282, 116363.40515177313, 65711.7594136905, 72056.19031860713, 0.002, 0.9580000000000001, 0.028, 192.0, 0.0, 0.0, 0.0, 0.0, 0.0, 0.0, 0.0, 0.0, 0.0, 1.6665565608964453E9, 0.0, 2022-10-23 13:22:40.896
199.0, -86455.63113160506, -119289.2037974839, 47256.16988613247, 51958.08284975086, 64395.55458969529, 116368.34488729775, 65764.4201236272, 71914.5249622494, 0.002, 0.9580000000000001, 0.028, 192.0, 0.0, 0.0, 0.0, 0.0, 0.0, 0.0, 0.0, 0.0, 0.0, 1.666556560896453E9, 0.0, 2022-10-23 13:22:40.896
200.0, -86431.82652376014, -119266.49442511731, 45116.79501733721, 51916.86623297528, 64292.267178567316, 115471.0564578839, 64465.202625418024, 70620.15779258702, 0.002, 0.9580000000000001, 0.028, 192.0, 0.0, 0.0, 0.0, 0.0, 0.0, 0.0, 0.0, 0.0, 0.0, 1.6665565608964608E9, 0.0, 2022-10-23 13:22:40.896
201.0, -86454.62530310456, -119287.1027335051, 44856.35249094397, 52075.38480465231, 64428.47870927796, 115462.02635312395, 64416.94520913902, 70736.31980852125, 0.002, 0.9560000000000001, 0.028, 192.0, 0.0, 16.0, 29.0, 224.0, 0.0, 224.0, 0.0, 0.0, 0.0, 1.666556560896476E9, 0.0, 2022-10-23 13:22:40.896
202.0, -86500.15580656003, -119330.8674491486, 46481.190202378064, 52220.29116395607, 64568.02064991244, 116181.86428330712, 65440.72216042545, 71815.70790001248, 0.002, 0.9560000000000001, 0.028, 192.0, 0.0, 0.0, 0.0, 0.0, 0.0, 0.0, 0.0, 0.0, 0.0, 1.6665565608964844E9, 0.0, 2022-10-23 13:22:40.896
203.0, -86464.30360845372, -119300.80435285621, 47544.06035471682, 52026.881519184295, 64449.39994208812, 116516.87222920326, 65956.15338756483, 72148.50302320755, 0.002, 0.9560000000000001, 0.028, 192.0, 0.0, 0.0, 0.0, 0.0, 0.0, 0.0, 0.0, 0.0, 0.0, 1.6665565608964925E9, 0.0, 2022-10-23 13:22:40.896
204.0, -86417.99079394231, -119255.20679416739, 45398.024666073885, 51890.53587800692, 64278.43144874948, 115580.84822664836, 64615.83103130234, 70751.27312556186, 0.002, 0.9560000000000001, 0.028, 192.0, 0.0, 0.0, 0.0, 0.0, 0.0, 0.0, 0.0, 0.0, 0.0, 1.6665565608965003E9, 0.0, 2022-10-23 13:22:40.896
205.0, -86434.86636100608, -119269.17663445196, 44767.213734056204, 52051.982528207605, 64396.89569436261, 115399.41911690464, 64329.192260407486, 70635.33462707218, 0.002, 0.9560000000000001, 0.028, 192.0, 0.0, 0.0, 0.0, 0.0, 0.0, 0.0, 0.0, 0.0, 0.0, 1.666556560896508E9, 0.0, 2022-10-23 13:22:40.896
206.0, -86470.33857945664, -119302.19016101243, 46046.58288318907, 52215.10555924244, 64558.31999281883, 115999.49640029627, 65174.311718262645, 71572.58797557211, 0.002, 0.9560000000000001, 0.028, 192.0, 0.0, 0.0, 0.0, 0.0, 0.0, 0.0, 0.0, 0.0, 0.0, 1.666556560896516E9, 0.0, 2022-10-23 13:22:40.896
207.0, -86461.15201248552, -119295.5069894203, 47659.23889389502, 52101.6481043873, 64505.59222764877, 116581.80404684592, 66042.18525197331, 72295.44339125675, 0.002, 0.9560000000000001, 0.028, 192.0, 0.0, 0.0, 0.0, 0.0, 0.0, 0.0, 0.0, 0.0, 0.0, 1.666556560896524E9, 0.0, 2022-10-23 13:22:40.896
208.0, -86427.95967196938, -119264.70628556088, 45715.21827163915, 51868.00531959598, 64270.34011725666, 115690.08120180145, 64787.26891127454, 70926.19787766908, 0.002, 0.9560000000000001, 0.028, 192.0, 0.0, 0.0, 0.0, 0.0, 0.0, 0.0, 0.0, 0.0, 0.0, 1.6665565608965318E9, 0.0, 2022-10-23 13:22:40.896
209.0, -86460.36970142958, -119294.72467836436, 44750.22640827017, 52010.028303864994, 64370.85591207218, 115375.92743348211, 64299.889123426576, 70583.38917295804, 0.002, 0.9560000000000001, 0.028, 192.0, 0.0, 0.0, 0.0, 0.0, 0.0, 0.0, 0.0, 0.0, 0.0, 1.6665565608965397E9, 0.0, 2022-10-23 13:22:40.896
210.0, -86484.6660476525, -119314.84124837414, 45661.88700936878, 52163.80830571751, 64513.97413181951, 115829.75725290267, 64938.8807939149, 71328.6857400758, 0.002, 0.9560000000000001, 0.028, 192.0, 0.0, 0.0, 0.0, 0.0, 0.0, 0.0, 0.0, 0.0, 0.0, 1.6665565608965473E9, 0.0, 2022-10-23 13:22:40.896
211.0, -86487.59412617613, -119318.663396676, 47654.5003240705, 52150.196093344224, 64544.506614745456, 116603.84286687885, 66071.2425197652, 72355.94956349726, -0.002, 0.9580000000000001, 0.028, 192.0, 255.0, 240.0, 29.0, 240.0, 0.0, 224.0, 0.0, 0.0, 0.0, 1.6665565608965552E9, 0.0, 2022-10-23 13:22:40.896
212.0, -86427.40087835799, -119261.97937273735, 46145.46700065935, 51877.147183078196, 64286.880408153585, 115870.52683478914, 65048.337286512535, 71174.68222077873, -0.002, 0.9580000000000001, 0.028, 192.0, 0.0, 0.0, 0.0, 0.0, 0.0, 0.0, 0.0, 0.0, 0.0, 1.6665565608965635E9, 0.0, 2022-10-23 13:22:40.896
213.0, -86446.26575067827, -119275.83745429963, 44802.06010366203, 52015.03509462298, 64368.62073762665, 115393.74177381299, 64320.296266114274, 70570.1569402405, -0.002, 0.9580000000000001, 0.028, 192.0, 0.0, 0.0, 0.0, 0.0, 0.0, 0.0, 0.0, 0.0, 0.0, 1.6665565608965716E9, 0.0, 2022-10-23 13:22:40.896
214.0, -86480.35216097262, -119310.50500994982, 45372.90130530611, 52149.570244499475, 64500.98776829097, 115718.28910330405, 64764.358373207855, 71140.37229303984, -0.002, 0.9580000000000001, 0.028, 192.0, 0.0, 0.0, 0.0, 0.0, 0.0, 0.0, 0.0, 0.0, 0.0, 1.6665565608965795E9, 0.0, 2022-10-23 13:22:40.896
215.0, -86497.69711466994, -119330.91215263751, 47464.5551996893, 52208.66825683931, 64571.14989413618, 116542.42027311567, 65972.8724924174, 72299.71257444771, -0.002, 0.9580000000000001, 0.028, 192.0, 0.0, 0.0, 0.0, 0.0, 0.0, 0.0, 0.0, 0.0, 0.0, 1.6665565608965883E9, 0.0, 2022-10-23 13:22:40.896
216.0, -86432.92175923845, -119270.24951818581, 46551.173514267626, 51904.84099445832, 64321.771481248325, 116032.66638906795, 65284.2599492383, 71428.82155523558, -0.002, 0.9580000000000001, 0.028, 192.0, 0.0, 0.0, 0.0, 0.0, 0.0, 0.0, 0.0, 0.0, 0.0, 1.6665565608966036E9, 0.0, 2022-10-23 13:22:40.896
217.0, -86444.96934949986, -119276.5527101222, 44841.26506343664, 51984.659073908224, 64342.35743789166, 115378.5872910723, 64310.75207123186, 70539.71386429237, -0.002, 0.9580000000000001, 0.028, 192.0, 0.0, 0.0, 0.0, 0.0, 0.0, 0.0, 0.0, 0.0, 0.0, 1.6665565608966117E9, 0.0, 2022-10-23 13:22:40.896
218.0, -86477.82641384916, -119306.28053024776, 45101.05938924067, 52110.857023102886, 64464.75559052892, 115579.7306394256, 64576.0449261719, 70943.31931392185, -0.002, 0.9580000000000001, 0.028, 192.0, 0.0, 0.0, 0.0, 0.0, 0.0, 0.0, 0.0, 0.0, 0.0, 1.66655656089662E9, 0.0, 2022-10-23 13:22:40.896
219.0, -86508.1130275861, -119335.7177776954, 47179.12342299503, 52225.655582625346, 64586.438487343614, 116452.94624006108, 65829.17312731424, 72185.87513993682, -0.002, 0.9580000000000001, 0.028, 192.0, 0.0, 0.0, 0.0, 0.0, 0.0, 0.0, 0.0, 0.0, 0.0, 1.666556560896628E9, 0.0, 2022-10-23 13:22:40.896
220.0, -86444.9022942665, -119278.98905026783, 47012.290002380614, 51933.22770991656, 64358.7412665774, 116252.00405740787, 65584.04154587288, 71740.69544562047, -0.002, 0.9580000000000001, 0.028, 192.0, 0.0, 0.0, 0.0, 0.0, 0.0, 0.0, 0.0, 0.0, 0.0, 1.666556560896636E9, 0.0, 2022-10-23 13:22:40.896
221.0, -86430.19484641492, -119260.59356458111, 44987.84780357454, 51950.88558803625, 64311.15440263205, 115428.27521899644, 64380.82479009924, 70580.34933571212, -0.002, 0.9580000000000001, 0.028, 192.0, 255.0, 240.0, 29.0, 240.0, 0.0, 224.0, 0.0, 0.0, 0.0, 1.6665565608966436E9, 0.0, 2022-10-23 13:22:40.896
222.0, -86472.37258820208, -119300.80435285621, 44920.99373590872, 52086.13599373532, 64433.03846514684, 115489.11666740378, 64442.649715262625, 70804.26911166539, -0.002, 0.9580000000000001, 0.028, 192.0, 0.0, 0.0, 0.0, 0.0, 0.0, 0.0, 0.0, 0.0, 0.0, 1.666556560896652E9, 0.0, 2022-10-23 13:22:40.896
223.0, -86511.91282414351, -119340.59045798666, 46729.58513850989, 52221.40875117883, 64562.65623124316, 116259.5365952893, 65552.39147572416, 71949.9301254666, -0.002, 0.9580000000000001, 0.028, 192.0, 0.0, 0.0, 0.0, 0.0, 0.0, 0.0, 0.0, 0.0, 0.0, 1.6665565608966608E9, 0.0, 2022-10-23 13:22:40.896
224.0, -86472.48434692435, -119305.36410872509, 47299.21934595339, 51981.373367473294, 64401.097822320204, 116366.62380297469, 65753.89245198875, 71964.19053842909, -0.002, 0.9580000000000001, 0.028, 192.0, 0.0, 0.0, 0.0, 0.0, 0.0, 0.0, 0.0, 0.0, 0.0, 1.666556560896669E9, 0.0, 2022-10-23 13:22:40.896
225.0, -86440.2978349087, -119272.12706472004, 45163.17488708197, 51919.168462654176, 64300.06793738222, 115479.28189984345, 64459.32411662628, 70652.12078715811, -0.002, 0.9580000000000001, 0.028, 192.0, 0.0, 0.0, 0.0, 0.0, 0.0, 0.0, 0.0, 0.0, 0.0, 1.6665565608966765E9, 0.0, 2022-10-23 13:22:40.896
226.0, -86471.32205621268, -119298.14449526602, 44793.20881285773, 52067.67345281523, 64424.76831969838, 115424.43071895013, 64343.74324604789, 70698.76887783634, -0.002, 0.9580000000000001, 0.028, 192.0, 0.0, 0.0, 0.0, 0.0, 0.0, 0.0, 0.0, 0.0, 0.0, 1.6665565608966846E9, 0.0, 2022-10-23 13:22:40.896
227.0, -86492.01977157829, -119318.68574842045, 46316.07786608671, 52234.439818196275, 64579.33063260683, 116114.94316040793, 65319.84392641115, 71743.31059972175, -0.002, 0.9580000000000001, 0.028, 192.0, 0.0, 0.0, 0.0, 0.0, 0.0, 0.0, 0.0, 0.0, 0.0, 1.6665565608966925E9, 0.0, 2022-10-23 13:22:40.896
228.0, -86469.93624805645, -119303.64302440203, 47567.70850035054, 52063.29251090199, 64475.03739297836, 116527.44460433062, 65948.26322177211, 72207.46692508065, -0.002, 0.9580000000000001, 0.028, 192.0, 0.0, 0.0, 0.0, 0.0, 0.0, 0.0, 0.0, 0.0, 0.0, 1.6665565608967004E9, 0.0, 2022-10-23 13:22:40.896
229.0, -86425.79155275722, -119261.17470993695, 45483.520088615434, 51902.18113686814, 64286.34396628666, 115613.92880844222, 64639.63563914724, 70822.08345199627, -0.002, 0.9580000000000001, 0.028, 192.0, 0.0, 0.0, 0.0, 0.0, 0.0, 0.0, 0.0, 0.0, 0.0, 1.6665565608967085E9, 0.0, 2022-10-23 13:22:40.896
230.0, -86452.2560181923, -119286.67805036045, 44774.29923704854, 52057.97279572163, 64401.544857209316, 115416.16057350166, 64315.7812137343, 70653.10426391414, -0.002, 0.9580000000000001, 0.028, 192.0, 0.0, 0.0, 0.0, 0.0, 0.0, 0.0, 0.0, 0.0, 0.0, 1.666556560896716E9, 0.0, 2022-10-23 13:22:40.896
231.0, -86489.40461747702, -119322.2620275333, 45903.50936693065, 52198.00647473413, 64531.60965819474, 115941.76184436821, 65063.24590006422, 71497.06143105763, 0.002, 0.9560000000000001, 0.026000000000000002, 192.0, 0.0, 16.0, 29.0, 224.0, 0.0, 208.0, 0.0, 0.0, 0.0, 1.6665565608967237E9, 0.0, 2022-10-23 13:22:40.896
232.0, -86477.64759989353, -119312.74018439534, 47648.30889085637, 52119.84242437392, 64516.56693417632, 116583.99451780255, 66016.12311793842, 72322.08667064746, 0.002, 0.9560000000000001, 0.026000000000000002, 192.0, 0.0, 0.0, 0.0, 0.0, 0.0, 0.0, 0.0, 0.0, 0.0, 1.6665565608967395E9, 0.0, 2022-10-23 13:22:40.896
233.0, -86422.10351492208, -119265.04156172772, 45851.89918898335, 51880.499944746494, 64288.10975409863, 115758.54459506806, 64847.97624921516, 71021.48336428206, 0.002, 0.9560000000000001, 0.026000000000000002, 192.0, 0.0, 0.0, 0.0, 0.0, 0.0, 0.0, 0.0, 0.0, 0.0, 1.666556560896747E9, 0.0, 2022-10-23 13:22:40.896
234.0, -86448.14329721252, -119287.59447188312, 44759.52473396358, 52023.21583309363, 64368.71014460447, 115388.17618944362, 64276.66566093751, 70585.19966425892, 0.002, 0.9560000000000001, 0.026000000000000002, 192.0, 0.0, 0.0, 0.0, 0.0, 0.0, 0.0, 0.0, 0.0, 0.0, 1.666556560896755E9, 0.0, 2022-10-23 13:22:40.896
235.0, -86485.82833836417, -119316.160001297, 45551.02235687046, 52162.89188419484, 64495.086907754776, 115797.23546472019, 64843.32708636846, 71263.32923928848, 0.002, 0.9560000000000001, 0.026000000000000002, 192.0, 0.0, 0.0, 0.0, 0.0, 0.0, 0.0, 0.0, 0.0, 0.0, 1.6665565608967628E9, 0.0, 2022-10-23 13:22:40.896
236.0, -86499.26173678182, -119331.13567008206, 47599.69384666608, 52167.339881341446, 64536.325876274816, 116599.64073892125, 66013.88794349288, 72346.2712581481, 0.002, 0.9560000000000001, 0.026000000000000002, 192.0, 0.0, 0.0, 0.0, 0.0, 0.0, 0.0, 0.0, 0.0, 0.0, 1.6665565608967707E9, 0.0, 2022-10-23 13:22:40.896
237.0, -86437.52621859625, -119276.59741361112, 46307.22657528241, 51874.777898165936, 64284.57817847469, 115960.93964111086, 65121.181621692376, 71276.20384409474, 0.002, 0.9560000000000001, 0.026000000000000002, 192.0, 0.0, 0.0, 0.0, 0.0, 0.0, 0.0, 0.0, 0.0, 0.0, 1.6665565608967783E9, 0.0, 2022-10-23 13:22:40.896
238.0, -86431.82652376014, -119270.33892516363, 44834.11250521094, 52006.541431729966, 64345.97842049342, 115419.11100376977, 64303.9794926619, 70569.28522220674, 0.002, 0.9560000000000001, 0.026000000000000002, 192.0, 0.0, 0.0, 0.0, 0.0, 0.0, 0.0, 0.0, 0.0, 0.0, 1.6665565608967862E9, 0.0, 2022-10-23 13:22:40.896
239.0, -86464.7059398539, -119300.13380052256, 45263.511867941845, 52140.22721531716, 64475.909111012115, 115674.2561667271, 64655.68419166615, 71058.85548101133, 0.002, 0.9560000000000001, 0.026000000000000002, 192.0, 0.0, 0.0, 0.0, 0.0, 0.0, 0.0, 0.0, 0.0, 0.0, 1.6665565608967946E9, 0.0, 2022-10-23 13:22:40.896
240.0, -86493.91966985699, -119327.6711496915, 47400.360989613655, 52220.29116395607, 64581.29758611889, 116551.20450868661, 65919.51887840258, 72283.64167018434, 0.002, 0.9560000000000001, 0.026000000000000002, 192.0, 0.0, 0.0, 29.0, 224.0, 0.0, 192.0, 0.0, 0.0, 0.0, 1.6665565608968024E9, 0.0, 2022-10-23 13:22:40.896
241.0, -86434.86636100608, -119275.63628859953, 46746.90774046275, 51910.71950325007, 64326.48769932839, 116149.92364048048, 65385.021613242825, 71554.14778639648, 0.002, 0.9560000000000001, 0.026000000000000002, 192.0, 0.0, 0.0, 0.0, 0.0, 0.0, 0.0, 0.0, 0.0, 0.0, 1.6665565613748507E9, 0.0, 2022-10-23 13:22:41.374
242.0, -86434.68754705043, -119274.71986707687, 44897.36794201946, 51972.45502143563, 64312.16023113254, 115413.97010254505, 64305.477059540404, 70548.43104462994, 0.002, 0.9560000000000001, 0.026000000000000002, 192.0, 0.0, 0.0, 0.0, 0.0, 0.0, 0.0, 0.0, 0.0, 0.0, 1.6665565613749368E9, 0.0, 2022-10-23 13:22:41.374
243.0, -86459.49798339582, -119298.18919875493, 45039.4803332663, 52109.02418005755, 64444.23668911895, 115563.12329329531, 64496.405660677636, 70888.37872605071, 0.002, 0.9560000000000001, 0.026000000000000002, 192.0, 0.0, 0.0, 0.0, 0.0, 0.0, 0.0, 0.0, 0.0, 0.0, 1.6665565613749452E9, 0.0, 2022-10-23 13:22:41.374
244.0, -86491.416274478, -119328.27464679178, 47045.39293591892, 52242.91112934484, 64584.337423364814, 116413.67422505311, 65716.22976258157, 72112.49436289005, 0.002, 0.9560000000000001, 0.026000000000000002, 192.0, 0.0, 0.0, 0.0, 0.0, 0.0, 0.0, 0.0, 0.0, 0.0, 1.6665565613749535E9, 0.0, 2022-10-23 13:22:41.374
245.0, -86445.2599221778, -119284.7558003373, 47172.21673395833, 51959.40160267372, 64381.24947324389, 116352.81042490131, 65660.81978807686, 71850.21899345148, 0.002, 0.9560000000000001, 0.026000000000000002, 192.0, 0.0, 0.0, 0.0, 0.0, 0.0, 0.0, 0.0, 0.0, 0.0, 1.6665565613749626E9, 0.0, 2022-10-23 13:22:41.374
246.0, -86425.97036671286, -119260.79473028121, 45074.907848227966, 51937.6086518298, 64294.94938790195, 115482.47819930056, 64399.913179864074, 70611.95470237192, 0.002, 0.9560000000000001, 0.026000000000000002, 192.0, 0.0, 0.0, 0.0, 0.0, 0.0, 0.0, 0.0, 0.0, 0.0, 1.6665565613749704E9, 0.0, 2022-10-23 13:22:41.374
247.0, -86458.67096885097, -119293.07064927467, 44918.13271261844, 52076.12241221934, 64421.77318594136, 115513.34595839334, 64415.11236609369, 70782.38675384365, 0.002, 0.9560000000000001, 0.026000000000000002, 192.0, 0.0, 0.0, 0.0, 0.0, 0.0, 0.0, 0.0, 0.0, 0.0, 1.666556561375046E9, 0.0, 2022-10-23 13:22:41.375
248.0, -86496.49012046935, -119331.0686148487, 46638.702945554614, 52220.402922678346, 64554.36373405025, 116255.17800512053, 65482.69873651252, 71893.42491548359, 0.002, 0.9560000000000001, 0.026000000000000002, 192.0, 0.0, 0.0, 0.0, 0.0, 0.0, 0.0, 0.0, 0.0, 0.0, 1.6665565613750608E9, 0.0, 2022-10-23 13:22:41.375
249.0, -86460.41440491848, -119301.38549821205, 47463.839943866726, 52010.72120794311, 64420.052101618305, 116480.9976793525, 65844.8417001774, 72074.22817638257, 0.002, 0.9560000000000001, 0.026000000000000002, 192.0, 0.0, 0.0, 0.0, 0.0, 0.0, 0.0, 0.0, 0.0, 0.0, 1.66655656137507E9, 0.0, 2022-10-23 13:22:41.375
250.0, -86418.08020092013, -119259.14070119151, 45300.52635675983, 51913.58052654035, 64282.09713484015, 115556.50717693653, 64510.174335262105, 70707.01667154035, 0.002, 0.9560000000000001, 0.026000000000000002, 192.0, 0.0, 0.0, 30.0, 16.0, 0.0, 224.0, 0.0, 0.0, 0.0, 1.6665565613750782E9, 0.0, 2022-10-23 13:22:41.375
251.0, -86455.04998624921, -119292.26598647429, 44798.3720658269, 52064.432449869215, 64409.300912535306, 115439.13816680171, 64309.70153924246, 70673.10907520165, 0.002, 0.9560000000000001, 0.026000000000000002, 192.0, 0.0, 0.0, 0.0, 0.0, 0.0, 0.0, 0.0, 0.0, 0.0, 1.6665565613750868E9, 0.0, 2022-10-23 13:22:41.375
252.0, -86493.18206228997, -119325.92771362397, 46186.97419011286, 52226.37083844791, 64564.62318475523, 116077.05695355618, 65213.51667803725, 71654.52947074527, 0.002, 0.9560000000000001, 0.026000000000000002, 192.0, 0.0, 0.0, 0.0, 0.0, 0.0, 0.0, 0.0, 0.0, 0.0, 1.666556561375095E9, 0.0, 2022-10-23 13:22:41.375
253.0, -86472.43964343544, -119306.32523373667, 47656.087297926824, 52095.36726419536, 64507.782698605384, 116606.99446284705, 65997.90644620734, 72279.41719048229, 0.002, 0.9560000000000001, 0.026000000000000002, 192.0, 0.0, 0.0, 0.0, 0.0, 0.0, 0.0, 0.0, 0.0, 0.0, 1.6665565613751028E9, 0.0, 2022-10-23 13:22:41.375
254.0, -86424.60691030108, -119258.98423898032, 45640.742259114064, 51899.52127927796, 64294.97173964641, 115712.94703637924, 64719.16314591923, 70898.77228722243, 0.002, 0.9560000000000001, 0.026000000000000002, 192.0, 0.0, 0.0, 0.0, 0.0, 0.0, 0.0, 0.0, 0.0, 0.0, 1.6665565613751104E9, 0.0, 2022-10-23 13:22:41.375
255.0, -86457.37456767257, -119289.51672190629, 44790.9736384122, 52044.76291474854, 64391.039537315315, 115446.15661456069, 64302.191353105474, 70629.34435955815, 0.002, 0.9560000000000001, 0.026000000000000002, 192.0, 0.0, 0.0, 0.0, 0.0, 0.0, 0.0, 0.0, 0.0, 0.0, 1.6665565613751192E9, 0.0, 2022-10-23 13:22:41.375
0.0, -86493.11500705661, -119321.77028915529, 45793.82935688846, 52186.495326339646, 64517.796280121365, 115920.52768713566, 64981.95260548027, 71410.29195908213, 0.002, 0.9560000000000001, 0.026000000000000002, 192.0, 0.0, 0.0, 0.0, 0.0, 0.0, 0.0, 0.0, 0.0, 0.0, 1.6665565613751273E9, 0.0, 2022-10-23 13:22:41.375
1.0, -86486.25302150882, -119316.38351874155, 47681.83650753934, 52153.4594480347, 64537.376408264216, 116641.50555628605, 66040.97825777272, 72354.78727278559, 0.002, 0.9560000000000001, 0.026000000000000002, 192.0, 0.0, 0.0, 0.0, 0.0, 0.0, 0.0, 0.0, 0.0, 0.0, 1.6665565613751347E9, 0.0, 2022-10-23 13:22:41.375
2.0, -86427.02089870226, -119258.11252094657, 46022.085371266054, 51897.71078797708, 64298.927998415, 115860.80382595108, 64944.28991607308, 71114.3325107494, 0.002, 0.9560000000000001, 0.026000000000000002, 192.0, 0.0, 0.0, 0.0, 0.0, 0.0, 0.0, 0.0, 0.0, 0.0, 1.666556561375143E9, 0.0, 2022-10-23 13:22:41.375
3.0, -86454.17826821546, -119282.52062589178, 44781.071815618496, 52027.14974011776, 64368.397220182094, 115417.92636131363, 64276.308033026224, 70577.68947812195, 0.002, 0.9560000000000001, 0.026000000000000002, 192.0, 0.0, 0.0, 0.0, 0.0, 0.0, 0.0, 0.0, 0.0, 0.0, 1.666556561375151E9, 0.0, 2022-10-23 13:22:41.375
4.0, -86490.23163202187, -119317.38934724205, 45458.687300525584, 52168.27865460857, 64508.38619570568, 115785.45609539225, 64783.20089378368, 71201.86194203638, 0.002, 0.962, 0.03, 192.0, 0.0, 16.0, 30.0, 16.0, 0.0, 240.0, 0.0, 0.0, 0.0, 1.6665565613751645E9, 0.0, 2022-10-23 13:22:41.375
5.0, -86500.84871063814, -119329.90632413702, 47576.738605110484, 52207.93064927228, 64579.75531575148, 116635.8729166833, 66016.34663538297, 72358.52001410961, 0.002, 0.962, 0.03, 192.0, 0.0, 0.0, 0.0, 0.0, 0.0, 0.0, 0.0, 0.0, 0.0, 1.6665565613751729E9, 0.0, 2022-10-23 13:22:41.375
6.0, -86435.67102380646, -119271.25534668629, 46493.72953101749, 51916.68741901963, 64334.37786512112, 116077.63809891202, 65244.71971329686, 71396.79150543112, 0.002, 0.962, 0.03, 192.0, 0.0, 0.0, 0.0, 0.0, 0.0, 0.0, 0.0, 0.0, 0.0, 1.6665565613751807E9, 0.0, 2022-10-23 13:22:41.375
7.0, -86438.53204709674, -119268.88606177403, 44890.058921582575, 52019.66190572523, 64368.75484809338, 115472.06228638439, 64341.57512683572, 70585.44553344793, 0.002, 0.962, 0.03, 192.0, 0.0, 0.0, 0.0, 0.0, 0.0, 0.0, 0.0, 0.0, 0.0, 1.6665565613751972E9, 0.0, 2022-10-23 13:22:41.375
8.0, -86467.52225965528, -119295.32817546466, 45210.56058532722, 52143.46821826318, 64480.82649479229, 115680.31348947449, 64631.6560663767, 71014.59902698983, 0.002, 0.962, 0.03, 192.0, 0.0, 0.0, 0.0, 0.0, 0.0, 0.0, 0.0, 0.0, 0.0, 1.666556561375205E9, 0.0, 2022-10-23 13:22:41.375
9.0, -86503.84384439515, -119332.18620207146, 47299.64402909804, 52236.04914379706, 64580.73879250751, 116532.51845032198, 65873.22841563563, 72234.15490796028, 0.002, 0.962, 0.03, 192.0, 0.0, 0.0, 0.0, 0.0, 0.0, 0.0, 0.0, 0.0, 0.0, 1.666556561375213E9, 0.0, 2022-10-23 13:22:41.375
10.0, -86448.2550559348, -119282.56532938068, 46889.55657357652, 51926.075151690864, 64337.17183317803, 116228.9817606189, 65485.604463291704, 71644.47118574037, 0.002, 0.962, 0.03, 192.0, 0.0, 0.0, 0.0, 0.0, 0.0, 0.0, 0.0, 0.0, 0.0, 1.666556561375221E9, 0.0, 2022-10-23 13:22:41.375
11.0, -86430.97715747084, -119263.81221578267, 44963.05971897361, 51973.43849819166, 64322.77730974881, 115464.1497688472, 64359.61298461116, 70574.13555075355, 0.002, 0.962, 0.03, 192.0, 0.0, 0.0, 0.0, 0.0, 0.0, 0.0, 0.0, 0.0, 0.0, 1.6665565613752291E9, 0.0, 2022-10-23 13:22:41.375
12.0, -86460.45910840739, -119290.4107916845, 45002.331733981584, 52109.04653180201, 64447.07536066477, 115573.80742714494, 64490.08011699678, 70857.39920823566, 0.002, 0.962, 0.03, 192.0, 0.0, 0.0, 0.0, 0.0, 0.0, 0.0, 0.0, 0.0, 0.0, 1.6665565613752372E9, 0.0, 2022-10-23 13:22:41.375
13.0, -86489.89635585503, -119321.92675136648, 46946.68763240429, 52254.1317050614, 64591.624092057245, 116412.42252736361, 65689.34061400183, 72070.67424901418, 0.002, 0.962, 0.032, 192.0, 0.0, 16.0, 30.0, 16.0, 1.0, 0.0, 0.0, 0.0, 0.0, 1.666556561375245E9, 0.0, 2022-10-23 13:22:41.375
14.0, -86442.9576924989, -119277.87146304507, 47303.84615705564, 51985.12846054178, 64392.89473210511, 116433.94725727406, 65767.34820215085, 71941.32470385131, 0.002, 0.962, 0.032, 192.0, 0.0, 0.0, 0.0, 0.0, 0.0, 0.0, 0.0, 0.0, 0.0, 1.6665565613752537E9, 0.0, 2022-10-23 13:22:41.375
15.0, -86421.72353526636, -119257.48667210182, 45166.50529700581, 51945.2082449446, 64298.43626003698, 115540.45862441763, 64475.32796565628, 70644.7223597434, 0.002, 0.962, 0.032, 192.0, 0.0, 0.0, 0.0, 0.0, 0.0, 0.0, 0.0, 0.0, 0.0, 1.6665565613752615E9, 0.0, 2022-10-23 13:22:41.375
16.0, -86452.23366644785, -119285.6498701155, 44902.55354673309, 52086.940656535706, 64422.68960746403, 115525.72882482158, 64425.304761565305, 70750.44611101701, 0.002, 0.962, 0.032, 192.0, 0.0, 0.0, 0.0, 0.0, 0.0, 0.0, 0.0, 0.0, 0.0, 1.6665565613752697E9, 0.0, 2022-10-23 13:22:41.375
