%OpenBCI Raw EEG Data
%Number of channels = 8
%Sample Rate = 250 Hz
%Board = OpenBCI_GUI$BoardCytonSerial
Sample Index, EXG Channel 0, EXG Channel 1, EXG Channel 2, EXG Channel 3, EXG Channel 4, EXG Channel 5, EXG Channel 6, EXG Channel 7, Accel Channel 0, Accel Channel 1, Accel Channel 2, Other, Other, Other, Other, Other, Other, Other, Analog Channel 0, Analog Channel 1, Analog Channel 2, Timestamp, Other, Timestamp (Formatted)
83.0, -85187.21433725528, -117582.96103274358, 46929.521492662614, 48497.20579352448, 60699.64894052136, 102392.71550091691, 63265.13746561259, 67865.46175068161, 0.0, 0.0, 0.0, 192.0, 0.0, 0.0, 0.0, 0.0, 0.0, 0.0, 0.0, 0.0, 0.0, 1.66655651328002E9, 0.0, 2022-10-23 13:21:53.280
84.0, -85213.27647129017, -117608.64318712274, 46223.072257408174, 48651.34342328828, 60807.96549415177, 102246.82566485711, 62917.79135677712, 67696.99665272197, 0.0, 0.0, 0.0, 192.0, 0.0, 0.0, 0.0, 0.0, 0.0, 0.0, 0.0, 0.0, 0.0, 1.6665565132800367E9, 0.0, 2022-10-23 13:21:53.280
85.0, -85249.35218684105, -117645.34475151835, 47347.38735525458, 48806.06219840792, 60909.66593142342, 102761.09460128481, 63704.63981683729, 68564.89253817708, 0.0, 0.0, 0.0, 192.0, 0.0, 0.0, 0.0, 0.0, 0.0, 0.0, 0.0, 0.0, 0.0, 1.666556513280045E9, 0.0, 2022-10-23 13:21:53.280
86.0, -85245.30652109462, -117644.56244046241, 49077.36767260643, 48731.83205507184, 60871.75737282722, 103317.27305856622, 64705.75209924604, 69399.68549009389, 0.0, 0.0, 0.0, 192.0, 0.0, 0.0, 0.0, 0.0, 0.0, 0.0, 0.0, 0.0, 0.0, 1.666556513280053E9, 0.0, 2022-10-23 13:21:53.280
87.0, -85190.76826462368, -117593.48870438203, 47285.02598822427, 48477.02216828134, 60684.29329208056, 102513.57138318675, 63474.46155243654, 68064.2134623782, 0.0, 0.0, 0.0, 192.0, 0.0, 0.0, 0.0, 0.0, 0.0, 0.0, 0.0, 0.0, 0.0, 1.6665565132800608E9, 0.0, 2022-10-23 13:21:53.280
88.0, -85202.88291011845, -117602.29529169743, 46212.92456542547, 48641.15102781666, 60791.51461023267, 102220.31649593312, 62886.655376750874, 67647.30872479781, 0.046, 0.9460000000000001, 0.108, 192.0, 1.0, 112.0, 29.0, 144.0, 3.0, 96.0, 0.0, 0.0, 0.0, 1.666556513280068E9, 0.0, 2022-10-23 13:21:53.280
89.0, -85239.74093672525, -117636.85108862534, 46994.69917949429, 48788.694892966145, 60895.517277183215, 102624.63720138517, 63474.2827384809, 68346.94067799338, 0.046, 0.9460000000000001, 0.108, 192.0, 0.0, 0.0, 0.0, 0.0, 0.0, 0.0, 0.0, 0.0, 0.0, 1.666556513280078E9, 0.0, 2022-10-23 13:21:53.280
90.0, -85254.00134968774, -117653.771359178, 49046.6787274693, 48800.45191054964, 60916.99730360476, 103353.95227121738, 64720.28073314199, 69460.23636582332, 0.046, 0.9460000000000001, 0.108, 192.0, 0.0, 0.0, 0.0, 0.0, 0.0, 0.0, 0.0, 0.0, 0.0, 1.666556513280086E9, 0.0, 2022-10-23 13:21:53.280
91.0, -85194.05397105862, -117593.17577995967, 47735.52539772099, 48492.891906844605, 60700.92298995531, 102689.88194345021, 63760.56388146447, 68343.16323318044, 0.046, 0.9460000000000001, 0.108, 192.0, 0.0, 0.0, 0.0, 0.0, 0.0, 0.0, 0.0, 0.0, 0.0, 1.666556513280094E9, 0.0, 2022-10-23 13:21:53.280
92.0, -85216.5621777251, -117610.23016097906, 46253.33651940066, 48601.0743500083, 60757.60701389397, 102195.90839098793, 62880.46394353676, 67612.462355192, 0.046, 0.9460000000000001, 0.108, 192.0, 0.0, 0.0, 0.0, 0.0, 0.0, 0.0, 0.0, 0.0, 0.0, 1.666556513280102E9, 0.0, 2022-10-23 13:21:53.280
93.0, -85253.26374212072, -117647.71403643061, 46700.90785037373, 48737.9564330526, 60855.462951119305, 102479.37321417013, 63267.104419124655, 68130.10640503245, 0.046, 0.9460000000000001, 0.108, 192.0, 0.0, 0.0, 0.0, 0.0, 0.0, 0.0, 0.0, 0.0, 0.0, 1.66655651328011E9, 0.0, 2022-10-23 13:21:53.280
94.0, -85280.35405640055, -117675.65371699975, 48804.09524489585, 48824.055352694435, 60915.18681230388, 103259.87377880499, 64576.022574427436, 69358.53592855168, 0.046, 0.9460000000000001, 0.108, 192.0, 0.0, 0.0, 0.0, 0.0, 0.0, 0.0, 0.0, 0.0, 0.0, 1.6665565132801175E9, 0.0, 2022-10-23 13:21:53.280
95.0, -85213.72350617927, -117613.73938485855, 48148.69739397734, 48503.039598827316, 60704.454565579246, 102827.70279976164, 64015.82080314408, 68605.7962305303, 0.046, 0.9460000000000001, 0.108, 192.0, 0.0, 0.0, 0.0, 0.0, 0.0, 0.0, 0.0, 0.0, 0.0, 1.6665565132801256E9, 0.0, 2022-10-23 13:21:53.280
96.0, -85205.02867758616, -117606.96680628859, 46336.99909889688, 48574.65458806212, 60741.67022009733, 102186.65476878342, 62903.68740602582, 67605.64507313313, 0.046, 0.9460000000000001, 0.108, 192.0, 0.0, 0.0, 0.0, 0.0, 0.0, 0.0, 0.0, 0.0, 0.0, 1.6665565132801335E9, 0.0, 2022-10-23 13:21:53.280
97.0, -85226.32989005207, -117629.98910307755, 46484.67707451309, 48725.43945615763, 60858.8157127876, 102372.33070997367, 63106.48478346882, 67965.30699316347, 0.046, 0.9460000000000001, 0.108, 192.0, 0.0, 0.0, 0.0, 0.0, 0.0, 0.0, 0.0, 0.0, 0.0, 1.666556513280141E9, 0.0, 2022-10-23 13:21:53.280
98.0, -85263.50084108124, -117665.66248722823, 48452.23408368041, 48854.744297831574, 60950.36845807653, 103142.41536169236, 64364.910348047066, 69196.59753997297, 0.044, 0.9480000000000001, 0.116, 192.0, 1.0, 96.0, 29.0, 160.0, 3.0, 160.0, 0.0, 0.0, 0.0, 1.6665565132801487E9, 0.0, 2022-10-23 13:21:53.280
99.0, -85218.12679983697, -117623.08241404087, 48521.569194980766, 48554.58272154126, 60750.230938223714, 102982.51098185909, 64254.939765326955, 68877.92871927365, 0.044, 0.9480000000000001, 0.116, 192.0, 0.0, 0.0, 0.0, 0.0, 0.0, 0.0, 0.0, 0.0, 0.0, 1.6665565132802649E9, 0.0, 2022-10-23 13:21:53.280
100.0, -85196.26679375969, -117596.79676256143, 46460.13485910116, 48543.49625629142, 60723.833528022, 102201.74219629077, 62952.48126417176, 67640.24557354994, 0.044, 0.9480000000000001, 0.116, 192.0, 0.0, 0.0, 0.0, 0.0, 0.0, 0.0, 0.0, 0.0, 0.0, 1.666556513280273E9, 0.0, 2022-10-23 13:21:53.280
101.0, -85234.13064886698, -117628.89386759924, 46305.55019444826, 48695.085787187316, 60838.72149452228, 102276.77700242723, 62966.49580794523, 67829.14016594175, 0.044, 0.9480000000000001, 0.116, 192.0, 0.0, 0.0, 0.0, 0.0, 0.0, 0.0, 0.0, 0.0, 0.0, 1.6665565132802813E9, 0.0, 2022-10-23 13:21:53.280
102.0, -85271.1227859405, -117660.7227517036, 48035.70932575576, 48861.874504312815, 60953.45299881137, 103001.35350243491, 64112.536801402195, 68989.7321450391, 0.044, 0.9480000000000001, 0.116, 192.0, 0.0, 0.0, 0.0, 0.0, 0.0, 0.0, 0.0, 0.0, 0.0, 1.6665565132802892E9, 0.0, 2022-10-23 13:21:53.280
103.0, -85240.29973033664, -117633.47597521258, 48865.00374853656, 48627.91879509912, 60810.290075575125, 103160.22970202324, 64505.63693113768, 69168.8813768484, 0.044, 0.9480000000000001, 0.116, 192.0, 0.0, 0.0, 0.0, 0.0, 0.0, 0.0, 0.0, 0.0, 0.0, 1.666556513280297E9, 0.0, 2022-10-23 13:21:53.280
104.0, -85203.44170372984, -117597.69083233963, 46740.20221712616, 48509.186328552525, 60708.61199004793, 102308.15885164248, 63126.15431858949, 67783.65436597519, 0.044, 0.9480000000000001, 0.116, 192.0, 0.0, 0.0, 0.0, 0.0, 0.0, 0.0, 0.0, 0.0, 0.0, 1.666556513280305E9, 0.0, 2022-10-23 13:21:53.280
105.0, -85235.5164570232, -117630.34673098884, 46255.57169384619, 48665.357967061755, 60813.79929945461, 102253.4417812159, 62924.206307435794, 67758.91098486316, 0.044, 0.9480000000000001, 0.116, 192.0, 0.0, 0.0, 0.0, 0.0, 0.0, 0.0, 0.0, 0.0, 0.0, 1.6665565132803147E9, 0.0, 2022-10-23 13:21:53.280
106.0, -85265.35603587104, -117659.82868192538, 47614.02131486194, 48835.0747627109, 60929.11194909954, 102849.67456456121, 63851.37901918638, 68744.91348802013, 0.044, 0.9480000000000001, 0.116, 192.0, 0.0, 0.0, 0.0, 0.0, 0.0, 0.0, 0.0, 0.0, 0.0, 1.6665565132803226E9, 0.0, 2022-10-23 13:21:53.280
107.0, -85239.58447451406, -117637.74515840354, 49055.28414908459, 48699.10910118927, 60854.412419129905, 103273.75421211174, 64655.4606742216, 69356.41251282842, 0.044, 0.9480000000000001, 0.116, 192.0, 0.0, 0.0, 0.0, 0.0, 0.0, 0.0, 0.0, 0.0, 0.0, 1.6665565132803304E9, 0.0, 2022-10-23 13:21:53.280
108.0, -85193.42812221387, -117592.505227626, 47021.655383307385, 48485.18055500753, 60685.500286281145, 102385.83116362467, 63281.87892220962, 67922.16812636473, 0.046, 0.9560000000000001, 0.12, 192.0, 1.0, 112.0, 29.0, 224.0, 3.0, 192.0, 0.0, 0.0, 0.0, 1.6665565132803383E9, 0.0, 2022-10-23 13:21:53.280
109.0, -85235.67291923439, -117627.41865246519, 46179.866335376064, 48644.77201041842, 60790.55348522109, 102185.44777458285, 62846.466940220234, 67663.78196046138, 0.046, 0.9560000000000001, 0.12, 192.0, 0.0, 0.0, 0.0, 0.0, 0.0, 0.0, 0.0, 0.0, 0.0, 1.6665565132803469E9, 0.0, 2022-10-23 13:21:53.280
110.0, -85266.54067832718, -117655.85007141234, 47189.9863708003, 48796.36154131431, 60895.24905624975, 102670.8829606632, 63573.457428629095, 68478.2124731794, 0.046, 0.9560000000000001, 0.12, 192.0, 0.0, 0.0, 0.0, 0.0, 0.0, 0.0, 0.0, 0.0, 0.0, 1.6665565132803545E9, 0.0, 2022-10-23 13:21:53.280
111.0, -85257.30940786713, -117653.03375161097, 49032.664183695815, 48760.35288099681, 60885.928378811885, 103282.11376453802, 64656.153578299716, 69409.67671986541, 0.046, 0.9560000000000001, 0.12, 192.0, 0.0, 0.0, 0.0, 0.0, 0.0, 0.0, 0.0, 0.0, 0.0, 1.6665565132803624E9, 0.0, 2022-10-23 13:21:53.280
112.0, -85191.68468614634, -117593.06402123738, 47396.650600034074, 48495.88704060162, 60703.22521963421, 102529.70934268348, 63517.80158493538, 68152.16757680984, 0.046, 0.9560000000000001, 0.12, 192.0, 0.0, 0.0, 0.0, 0.0, 0.0, 0.0, 0.0, 0.0, 0.0, 1.66655651328037E9, 0.0, 2022-10-23 13:21:53.280
113.0, -85216.04808760263, -117617.47212618258, 46187.66709419097, 48629.81869337782, 60783.17740955084, 102175.09891690004, 62836.07337904852, 67632.71303566851, 0.046, 0.9560000000000001, 0.12, 192.0, 0.0, 0.0, 0.0, 0.0, 0.0, 0.0, 0.0, 0.0, 0.0, 1.666556513280378E9, 0.0, 2022-10-23 13:21:53.280
114.0, -85251.60971303102, -117646.32822827437, 46839.91334914129, 48769.539447967945, 60880.85453282053, 102534.73848518592, 63346.56487066327, 68261.84758685203, 0.046, 0.9560000000000001, 0.12, 192.0, 0.0, 0.0, 0.0, 0.0, 0.0, 0.0, 0.0, 0.0, 0.0, 1.6665565132804172E9, 0.0, 2022-10-23 13:21:53.280
115.0, -85267.39004461648, -117662.24267032657, 48918.20090034019, 48806.91156469722, 60917.91372512743, 103286.5841134291, 64620.346083682314, 69425.0323683062, 0.046, 0.9560000000000001, 0.12, 192.0, 0.0, 0.0, 0.0, 0.0, 0.0, 0.0, 0.0, 0.0, 0.0, 1.6665565132804255E9, 0.0, 2022-10-23 13:21:53.280
116.0, -85203.64286942994, -117603.50228589801, 47845.36186997436, 48491.282581243824, 60703.046405678564, 102716.30170539638, 63812.53168732306, 68440.66154249449, 0.046, 0.9560000000000001, 0.12, 192.0, 0.0, 0.0, 0.0, 0.0, 0.0, 0.0, 0.0, 0.0, 0.0, 1.6665565132804337E9, 0.0, 2022-10-23 13:21:53.280
117.0, -85208.33673576555, -117603.07760275336, 46270.30149344224, 48601.18610873057, 60764.848979097485, 102196.84716425504, 62878.80991444706, 67631.93072461257, 0.046, 0.9560000000000001, 0.12, 192.0, 0.0, 0.0, 0.0, 0.0, 0.0, 0.0, 0.0, 0.0, 0.0, 1.6665565132804415E9, 0.0, 2022-10-23 13:21:53.280
118.0, -85239.0703843916, -117630.43613796665, 46609.73508474053, 48738.425819686156, 60858.70395406532, 102448.79602775528, 63204.38542418306, 68089.94032024626, 0.05, 0.9580000000000001, 0.114, 192.0, 1.0, 144.0, 29.0, 240.0, 3.0, 144.0, 0.0, 0.0, 0.0, 1.6665565132804496E9, 0.0, 2022-10-23 13:21:53.280
119.0, -85261.04214919117, -117653.25726905552, 48679.707787002066, 48852.57617861941, 60939.99724864928, 103235.93506049337, 64507.98386430548, 69329.83628867105, 0.05, 0.9580000000000001, 0.114, 192.0, 0.0, 0.0, 0.0, 0.0, 0.0, 0.0, 0.0, 0.0, 0.0, 1.6665565132804582E9, 0.0, 2022-10-23 13:21:53.280
120.0, -85200.69243916184, -117600.28363469645, 48306.83598599863, 48543.63036675815, 60749.046295767585, 102921.64718170729, 64135.46969121334, 68749.80852005584, 0.05, 0.9580000000000001, 0.114, 192.0, 0.0, 0.0, 0.0, 0.0, 0.0, 0.0, 0.0, 0.0, 0.0, 1.6665565132804663E9, 0.0, 2022-10-23 13:21:53.280
121.0, -85188.57779366706, -117587.07375372337, 46387.75991055488, 48580.33193115377, 60755.349487703985, 102225.45739715784, 62950.60371763751, 67654.7742074459, 0.05, 0.9580000000000001, 0.114, 192.0, 0.0, 0.0, 0.0, 0.0, 0.0, 0.0, 0.0, 0.0, 0.0, 1.6665565132804744E9, 0.0, 2022-10-23 13:21:53.280
122.0, -85228.31919530859, -117623.68591114116, 46418.29239348083, 48711.849595528794, 60855.28413716366, 102361.62422437957, 63084.06598378015, 67944.34105686439, 0.05, 0.9580000000000001, 0.114, 192.0, 0.0, 0.0, 0.0, 0.0, 0.0, 0.0, 0.0, 0.0, 0.0, 1.6665565132804823E9, 0.0, 2022-10-23 13:21:53.280
123.0, -85274.56495458663, -117663.76258894952, 48292.17324163595, 48841.959100003136, 60933.93992590188, 103099.12003268243, 64293.07184136771, 69136.04666424355, 0.05, 0.9580000000000001, 0.114, 192.0, 0.0, 0.0, 0.0, 0.0, 0.0, 0.0, 0.0, 0.0, 0.0, 1.6665565132804904E9, 0.0, 2022-10-23 13:21:53.280
124.0, -85222.86536966151, -117615.37106220378, 48651.522237243924, 48582.99178874395, 60770.12399078894, 103063.80427644304, 64378.29904297579, 69006.80887780296, 0.05, 0.9580000000000001, 0.114, 192.0, 0.0, 0.0, 0.0, 0.0, 0.0, 0.0, 0.0, 0.0, 0.0, 1.6665565132804985E9, 0.0, 2022-10-23 13:21:53.280
125.0, -85200.24540427273, -117594.06984973788, 46556.98496782601, 48534.60026199821, 60721.39718787637, 102259.63321443001, 63046.5821083286, 67710.2288854395, 0.05, 0.9580000000000001, 0.114, 192.0, 0.0, 0.0, 0.0, 0.0, 0.0, 0.0, 0.0, 0.0, 0.0, 1.6665565132805061E9, 0.0, 2022-10-23 13:21:53.280
126.0, -85224.42999177337, -117614.78991684795, 46295.15663327654, 48694.19171740911, 60832.15008165242, 102297.67588349294, 62992.513238491214, 67826.94969498512, 0.05, 0.9580000000000001, 0.114, 192.0, 0.0, 0.0, 0.0, 0.0, 0.0, 0.0, 0.0, 0.0, 0.0, 1.6665565132805152E9, 0.0, 2022-10-23 13:21:53.280
127.0, -85261.89151548047, -117645.25534454052, 47883.985684393134, 48863.640292124786, 60946.188681863394, 102972.6538625543, 64053.48349255127, 68920.93347560566, 0.052000000000000005, 0.9540000000000001, 0.116, 192.0, 1.0, 160.0, 29.0, 208.0, 3.0, 160.0, 0.0, 0.0, 0.0, 1.6665565132805235E9, 0.0, 2022-10-23 13:21:53.280
128.0, -85230.93434940987, -117619.50613492801, 48939.23389187264, 48670.96825492004, 60825.824537971566, 103226.07794118857, 64593.61339731377, 69256.96960174675, 0.052000000000000005, 0.9540000000000001, 0.116, 192.0, 0.0, 0.0, 0.0, 0.0, 0.0, 0.0, 0.0, 0.0, 0.0, 1.666556513280532E9, 0.0, 2022-10-23 13:21:53.280
129.0, -85188.39897971142, -117579.22829141955, 46822.07665706595, 48519.73635193543, 60704.454565579246, 102354.67283185397, 63201.99378752635, 67843.64644809323, 0.052000000000000005, 0.9540000000000001, 0.116, 192.0, 0.0, 0.0, 0.0, 0.0, 0.0, 0.0, 0.0, 0.0, 0.0, 1.66655651328054E9, 0.0, 2022-10-23 13:21:53.280
130.0, -85217.83622715906, -117607.8608760668, 46211.00231540231, 48673.58340902131, 60808.27841857415, 102245.7304293788, 62918.88659225543, 67735.82163284083, 0.052000000000000005, 0.9540000000000001, 0.116, 192.0, 0.0, 0.0, 0.0, 0.0, 0.0, 0.0, 0.0, 0.0, 0.0, 1.6665565132805564E9, 0.0, 2022-10-23 13:21:53.280
131.0, -85257.06353867812, -117644.54008871796, 47454.29574898431, 48840.528588358, 60928.26258281024, 102813.88942168826, 63790.06818414548, 68672.11385632919, 0.052000000000000005, 0.9540000000000001, 0.116, 192.0, 0.0, 0.0, 0.0, 0.0, 0.0, 0.0, 0.0, 0.0, 0.0, 1.6665565132805643E9, 0.0, 2022-10-23 13:21:53.280
132.0, -85245.75355598374, -117633.69949265714, 49081.748614519674, 48737.28588071893, 60875.89244555145, 103327.84543369358, 64727.34388438987, 69423.02071130523, 0.052000000000000005, 0.9540000000000001, 0.116, 192.0, 0.0, 0.0, 0.0, 0.0, 0.0, 0.0, 0.0, 0.0, 0.0, 1.6665565132805724E9, 0.0, 2022-10-23 13:21:53.280
133.0, -85194.90333734792, -117587.96782350157, 47164.30421642116, 48497.719883646954, 60690.93176018379, 102471.50540012187, 63417.30814186432, 68027.22132530466, 0.052000000000000005, 0.9540000000000001, 0.116, 192.0, 0.0, 0.0, 0.0, 0.0, 0.0, 0.0, 0.0, 0.0, 0.0, 1.6665565132805803E9, 0.0, 2022-10-23 13:21:53.280
134.0, -85224.54175049564, -117612.75590810251, 46217.14904512752, 48651.790458177384, 60793.81683991157, 102235.60508914055, 62917.992522477216, 67695.92376898811, 0.052000000000000005, 0.9540000000000001, 0.116, 192.0, 0.0, 0.0, 0.0, 0.0, 0.0, 0.0, 0.0, 0.0, 0.0, 1.666556513280588E9, 0.0, 2022-10-23 13:21:53.280
135.0, -85250.53682929717, -117637.6110479368, 47094.65618069842, 48802.105939639325, 60893.79619286015, 102675.84504793228, 63568.24947217101, 68444.08135939615, 0.052000000000000005, 0.9540000000000001, 0.116, 192.0, 0.0, 0.0, 0.0, 0.0, 0.0, 0.0, 0.0, 0.0, 0.0, 1.6665565132805958E9, 0.0, 2022-10-23 13:21:53.280
136.0, -85250.11214615252, -117641.5226032165, 49052.3784223054, 48797.54618377044, 60905.73202439929, 103351.02419269375, 64738.34094266188, 69476.3966770645, 0.052000000000000005, 0.9540000000000001, 0.116, 192.0, 0.0, 0.0, 0.0, 0.0, 0.0, 0.0, 0.0, 0.0, 0.0, 1.6665565132806036E9, 0.0, 2022-10-23 13:21:53.280
137.0, -85188.22016575577, -117586.51496011198, 47608.23221304801, 48505.475938972944, 60709.19313540377, 102657.1813413121, 63710.80889830696, 68300.6725669709, 0.044, 0.9560000000000001, 0.114, 192.0, 1.0, 96.0, 29.0, 224.0, 3.0, 144.0, 0.0, 0.0, 0.0, 1.6665565132806115E9, 0.0, 2022-10-23 13:21:53.280
138.0, -85205.363953753, -117599.88130329625, 46243.367641373596, 48629.975155589, 60778.37178449295, 102226.03854251368, 62918.327798644044, 67660.65271623763, 0.044, 0.9560000000000001, 0.114, 192.0, 0.0, 0.0, 0.0, 0.0, 0.0, 0.0, 0.0, 0.0, 0.0, 1.66655651328062E9, 0.0, 2022-10-23 13:21:53.280
139.0, -85246.69232925086, -117641.18732704966, 46789.46546190566, 48773.47335499208, 60882.53091365468, 102552.5081220279, 63368.38017325165, 68236.0536737506, 0.044, 0.9560000000000001, 0.114, 192.0, 0.0, 0.0, 0.0, 0.0, 0.0, 0.0, 0.0, 0.0, 0.0, 1.6665565132806275E9, 0.0, 2022-10-23 13:21:53.280
140.0, -85262.74088176977, -117658.17465283569, 48887.891934858795, 48849.581044862396, 60937.13622535899, 103322.88334642451, 64662.65793593621, 69440.11979581355, 0.044, 0.9560000000000001, 0.114, 192.0, 0.0, 0.0, 0.0, 0.0, 0.0, 0.0, 0.0, 0.0, 0.0, 1.6665565132806356E9, 0.0, 2022-10-23 13:21:53.280
141.0, -85202.92761360736, -117599.61308236279, 48058.12812544443, 48532.253328830404, 60726.09105421198, 102836.1294074213, 64000.50985819219, 68591.06643093425, 0.044, 0.9560000000000001, 0.114, 192.0, 0.0, 0.0, 0.0, 0.0, 0.0, 0.0, 0.0, 0.0, 0.0, 1.6665565132806437E9, 0.0, 2022-10-23 13:21:53.280
142.0, -85205.38630549745, -117596.68500383914, 46338.094334375186, 48611.892594324665, 60754.67893537032, 102240.25425198725, 62960.19261600883, 67669.95104193104, 0.044, 0.9560000000000001, 0.114, 192.0, 0.0, 0.0, 0.0, 0.0, 0.0, 0.0, 0.0, 0.0, 0.0, 1.6665565132806513E9, 0.0, 2022-10-23 13:21:53.280
143.0, -85239.3162535806, -117631.44196646714, 46550.72647937852, 48741.66682263218, 60848.98094522726, 102439.36359159513, 63201.14442123705, 68060.90540419881, 0.044, 0.9560000000000001, 0.114, 192.0, 0.0, 0.0, 0.0, 0.0, 0.0, 0.0, 0.0, 0.0, 0.0, 1.6665565132806592E9, 0.0, 2022-10-23 13:21:53.280
144.0, -85259.43282359038, -117653.86076615582, 48579.8178410313, 48882.61692316734, 60945.11579812954, 103226.90495573342, 64489.5213233854, 69305.91992210387, 0.044, 0.9560000000000001, 0.114, 192.0, 0.0, 0.0, 0.0, 0.0, 0.0, 0.0, 0.0, 0.0, 0.0, 1.666556513280669E9, 0.0, 2022-10-23 13:21:53.280
145.0, -85209.4096194994, -117607.81617257789, 48493.674217900545, 48581.71773931, 60752.24259522469, 103021.00068581113, 64289.6743762105, 68888.88107405676, 0.044, 0.9560000000000001, 0.114, 192.0, 0.0, 0.0, 0.0, 0.0, 0.0, 0.0, 0.0, 0.0, 0.0, 1.6665565132807033E9, 0.0, 2022-10-23 13:21:53.280
146.0, -85199.28427926115, -117597.19909396162, 46475.64696975314, 48577.24739041894, 60726.15810944535, 102262.98597609831, 63019.69295974886, 67686.46898108351, 0.044, 0.9560000000000001, 0.114, 192.0, 0.0, 0.0, 0.0, 0.0, 0.0, 0.0, 0.0, 0.0, 0.0, 1.6665565132807114E9, 0.0, 2022-10-23 13:21:53.280
147.0, -85231.64960523244, -117629.63147516627, 46403.4061316736, 48714.934136263626, 60825.399854826916, 102364.95463430342, 63083.86481808005, 67910.58992273688, 0.046, 0.9580000000000001, 0.112, 192.0, 1.0, 112.0, 29.0, 240.0, 3.0, 128.0, 0.0, 0.0, 0.0, 1.6665565132807207E9, 0.0, 2022-10-23 13:21:53.280
148.0, -85256.46004157783, -117654.44191151166, 48197.20067944535, 48875.173792263726, 60938.03029513721, 103095.78962275859, 64255.02917230478, 69085.46466654119, 0.046, 0.9580000000000001, 0.112, 192.0, 0.0, 0.0, 0.0, 0.0, 0.0, 0.0, 0.0, 0.0, 0.0, 1.6665565132807293E9, 0.0, 2022-10-23 13:21:53.280
149.0, -85213.83526490156, -117617.18155350466, 48830.17973067519, 48632.83617887928, 60788.966511364764, 103171.6961469288, 64516.611637665235, 69132.73860606416, 0.046, 0.9580000000000001, 0.112, 192.0, 0.0, 0.0, 0.0, 0.0, 0.0, 0.0, 0.0, 0.0, 0.0, 1.666556513280737E9, 0.0, 2022-10-23 13:21:53.280
150.0, -85190.03065705666, -117593.06402123738, 46678.4666989406, 48539.115314378185, 60700.744175999665, 102312.2939243667, 63125.483766255835, 67757.65928717366, 0.046, 0.9580000000000001, 0.112, 192.0, 0.0, 0.0, 0.0, 0.0, 0.0, 0.0, 0.0, 0.0, 0.0, 1.666556513280745E9, 0.0, 2022-10-23 13:21:53.280
151.0, -85217.65741320341, -117617.31566397139, 46298.35293273365, 48700.606668067776, 60815.58743901103, 102302.66032250648, 62998.07882286058, 67805.84964821931, 0.046, 0.9580000000000001, 0.112, 192.0, 0.0, 0.0, 0.0, 0.0, 0.0, 0.0, 0.0, 0.0, 0.0, 1.666556513280753E9, 0.0, 2022-10-23 13:21:53.280
152.0, -85250.91680895291, -117649.09984458683, 47758.92767416569, 48868.66943462723, 60927.63673396549, 102930.92315565624, 63983.43312542834, 68838.25437286549, 0.046, 0.9580000000000001, 0.112, 192.0, 0.0, 0.0, 0.0, 0.0, 0.0, 0.0, 0.0, 0.0, 0.0, 1.6665565132807608E9, 0.0, 2022-10-23 13:21:53.280
153.0, -85220.74195393824, -117624.98231231957, 49057.74284097467, 48705.0993687033, 60835.68165727636, 103288.12638379651, 64685.926101914185, 69342.64383824395, 0.046, 0.9580000000000001, 0.112, 192.0, 0.0, 0.0, 0.0, 0.0, 0.0, 0.0, 0.0, 0.0, 0.0, 1.6665565132807684E9, 0.0, 2022-10-23 13:21:53.280
154.0, -85181.87227033047, -117586.85023627881, 46989.714740480755, 48517.009439111884, 60686.886094437374, 102412.18387033748, 63306.71171029946, 67916.35667280635, 0.046, 0.9580000000000001, 0.112, 192.0, 0.0, 0.0, 0.0, 0.0, 0.0, 0.0, 0.0, 0.0, 0.0, 1.6665565132807765E9, 0.0, 2022-10-23 13:21:53.280
155.0, -85215.6681079469, -117615.52752441497, 46222.69227775244, 48670.43181305311, 60784.33970026251, 102233.01228678373, 62914.08096719754, 67707.39021389368, 0.046, 0.9580000000000001, 0.112, 192.0, 0.0, 0.0, 0.0, 0.0, 0.0, 0.0, 0.0, 0.0, 0.0, 1.6665565132807844E9, 0.0, 2022-10-23 13:21:53.280
156.0, -85262.53971606967, -117661.86269067082, 47328.74600037885, 48825.5752713174, 60895.0702422941, 102750.67868836864, 63699.431860379205, 68572.76035222535, 0.046, 0.9560000000000001, 0.11, 192.0, 1.0, 112.0, 29.0, 224.0, 3.0, 112.0, 0.0, 0.0, 0.0, 1.6665565132807922E9, 0.0, 2022-10-23 13:21:53.280
157.0, -85249.95568394133, -117648.49634748655, 49106.58140260952, 48763.88445662075, 60868.248148947736, 103334.640364008, 64741.13491071879, 69442.2879150257, 0.046, 0.9560000000000001, 0.11, 192.0, 0.0, 0.0, 0.0, 0.0, 0.0, 0.0, 0.0, 0.0, 0.0, 1.6665565132808008E9, 0.0, 2022-10-23 13:21:53.280
158.0, -85190.29887799012, -117585.50913161148, 47348.348480266155, 48506.682933173535, 60680.56055075653, 102536.72779044246, 63528.70923622957, 68118.68466361579, 0.046, 0.9560000000000001, 0.11, 192.0, 0.0, 0.0, 0.0, 0.0, 0.0, 0.0, 0.0, 0.0, 0.0, 1.6665565132808087E9, 0.0, 2022-10-23 13:21:53.280
159.0, -85209.72254392177, -117600.93183528565, 46231.32005111218, 48659.39005129219, 60770.88395010042, 102224.16099597943, 62909.61061830648, 67663.71490522801, 0.046, 0.9560000000000001, 0.11, 192.0, 0.0, 0.0, 0.0, 0.0, 0.0, 0.0, 0.0, 0.0, 0.0, 1.6665565132808163E9, 0.0, 2022-10-23 13:21:53.280
160.0, -85242.870180949, -117635.53233570246, 46960.36690001094, 48806.33041934138, 60874.66309960641, 102609.97445702249, 63464.246805220464, 68332.21087839734, 0.046, 0.9560000000000001, 0.11, 192.0, 0.0, 0.0, 0.0, 0.0, 0.0, 0.0, 0.0, 0.0, 0.0, 1.666556513280824E9, 0.0, 2022-10-23 13:21:53.280
161.0, -85259.36576835702, -117655.40303652323, 49009.08309329547, 48819.24972763655, 60900.255847007735, 103338.52956754323, 64708.14373590276, 69455.02840936523, 0.046, 0.9560000000000001, 0.11, 192.0, 0.0, 0.0, 0.0, 0.0, 0.0, 0.0, 0.0, 0.0, 0.0, 1.66655651328084E9, 0.0, 2022-10-23 13:21:53.280
162.0, -85193.94221233633, -117591.67821308115, 47792.4329391042, 48509.92393611955, 60691.512905539625, 102728.23753693551, 63818.52195483708, 68401.05425131969, 0.046, 0.9560000000000001, 0.11, 192.0, 0.0, 0.0, 0.0, 0.0, 0.0, 0.0, 0.0, 0.0, 0.0, 1.6665565132808478E9, 0.0, 2022-10-23 13:21:53.280
163.0, -85200.33481125055, -117598.51784688448, 46258.70093806994, 48620.36390547323, 60739.055065996065, 102212.8733650295, 62902.90509496989, 67634.23295429147, 0.046, 0.9560000000000001, 0.11, 192.0, 0.0, 0.0, 0.0, 0.0, 0.0, 0.0, 0.0, 0.0, 0.0, 1.6665565132808557E9, 0.0, 2022-10-23 13:21:53.280
164.0, -85231.7166604658, -117632.9618850901, 46651.93517827215, 48762.811572886894, 60841.537814323645, 102475.95339726847, 63252.7322474399, 68127.26773348663, 0.046, 0.9560000000000001, 0.11, 192.0, 0.0, 0.0, 0.0, 0.0, 0.0, 0.0, 0.0, 0.0, 0.0, 1.6665565132808635E9, 0.0, 2022-10-23 13:21:53.280
165.0, -85266.40656786044, -117663.49436801605, 48767.32662526687, 48861.69569035718, 60920.50652748425, 103281.3314534821, 64580.60468204078, 69382.07231546311, 0.046, 0.9560000000000001, 0.11, 192.0, 0.0, 0.0, 0.0, 0.0, 0.0, 0.0, 0.0, 0.0, 0.0, 1.6665565132808716E9, 0.0, 2022-10-23 13:21:53.280
166.0, -85212.87413988997, -117610.05134702341, 48212.82454881961, 48539.02590740036, 60704.54397255707, 102899.45189946317, 64091.347347658564, 68687.44715302553, 0.048, 0.9500000000000001, 0.114, 192.0, 1.0, 128.0, 29.0, 176.0, 3.0, 144.0, 0.0, 0.0, 0.0, 1.6665565132808795E9, 0.0, 2022-10-23 13:21:53.280
167.0, -85211.15305556692, -117601.73649808604, 46367.46452658946, 48590.59138185876, 60717.97737097471, 102241.01421129874, 62958.09155203004, 67654.26011732341, 0.048, 0.9500000000000001, 0.114, 192.0, 0.0, 0.0, 0.0, 0.0, 0.0, 0.0, 0.0, 0.0, 0.0, 1.6665565132808883E9, 0.0, 2022-10-23 13:21:53.280
168.0, -85235.40469830093, -117622.83654485186, 46488.0745396703, 48741.37624995426, 60832.2618403747, 102420.69988497495, 63148.908394444996, 68001.38270871433, 0.048, 0.9500000000000001, 0.114, 192.0, 0.0, 0.0, 0.0, 0.0, 0.0, 0.0, 0.0, 0.0, 0.0, 1.6665565132808962E9, 0.0, 2022-10-23 13:21:53.280
169.0, -85256.39298634446, -117647.35640851932, 48429.36824910263, 48884.62858016832, 60935.12456835802, 103186.58240873605, 64393.85585711669, 69226.79474673209, 0.048, 0.9500000000000001, 0.114, 192.0, 0.0, 0.0, 0.0, 0.0, 0.0, 0.0, 0.0, 0.0, 0.0, 1.6665565132809055E9, 0.0, 2022-10-23 13:21:53.280
170.0, -85215.37753526897, -117611.32539645737, 48612.943126314065, 48591.53015512588, 60754.07543827003, 103083.54086679708, 64367.011412025866, 68982.08784843539, 0.048, 0.9500000000000001, 0.114, 192.0, 0.0, 0.0, 0.0, 0.0, 0.0, 0.0, 0.0, 0.0, 0.0, 1.6665565132809136E9, 0.0, 2022-10-23 13:21:53.280
171.0, -85195.55153793712, -117589.93477701364, 46532.19688322507, 48558.65073903212, 60702.66642602282, 102282.56610424115, 63048.14673044047, 67710.4300511396, 0.048, 0.9500000000000001, 0.114, 192.0, 0.0, 0.0, 0.0, 0.0, 0.0, 0.0, 0.0, 0.0, 0.0, 1.6665565132809217E9, 0.0, 2022-10-23 13:21:53.280
172.0, -85226.26283481871, -117619.03674829446, 46329.3324505487, 48713.70479031859, 60815.36392156648, 102330.89057575352, 63027.69488426387, 67861.79606459095, 0.048, 0.9500000000000001, 0.114, 192.0, 0.0, 0.0, 0.0, 0.0, 0.0, 0.0, 0.0, 0.0, 0.0, 1.6665565132809293E9, 0.0, 2022-10-23 13:21:53.280
173.0, -85262.15973641393, -117650.44094925416, 48011.569441744025, 48874.749109119075, 60929.73779794429, 103035.50696796263, 64145.28210702922, 68997.86818002083, 0.048, 0.9500000000000001, 0.114, 192.0, 0.0, 0.0, 0.0, 0.0, 0.0, 0.0, 0.0, 0.0, 0.0, 1.666556513280938E9, 0.0, 2022-10-23 13:21:53.280
174.0, -85225.23465457377, -117613.29234996943, 48920.9948683971, 48664.2850833279, 60806.19970633981, 103232.44818835834, 64592.98754846902, 69236.13777591441, 0.048, 0.9500000000000001, 0.114, 192.0, 0.0, 0.0, 0.0, 0.0, 0.0, 0.0, 0.0, 0.0, 0.0, 1.6665565132809458E9, 0.0, 2022-10-23 13:21:53.280
175.0, -85190.07536054557, -117578.22246291906, 46777.395519899794, 48532.968584652976, 60695.13388814138, 102360.79720983472, 63193.70129033343, 67826.12268044027, 0.048, 0.9500000000000001, 0.114, 192.0, 0.0, 0.0, 0.0, 0.0, 0.0, 0.0, 0.0, 0.0, 0.0, 1.6665565132809536E9, 0.0, 2022-10-23 13:21:53.280
176.0, -85224.65350921793, -117614.14171625875, 46227.6096615326, 48681.093595158294, 60792.00634861069, 102265.98110985532, 62942.870014055974, 67756.45229297309, 0.044, 0.9480000000000001, 0.10400000000000001, 192.0, 1.0, 96.0, 29.0, 160.0, 3.0, 64.0, 0.0, 0.0, 0.0, 1.6665565132809696E9, 0.0, 2022-10-23 13:21:53.280
177.0, -85271.9274487409, -117660.67804821469, 47548.59775884125, 48845.177751204705, 60902.87100110901, 102848.82519827191, 63848.16036798482, 68725.06513894381, 0.044, 0.9480000000000001, 0.10400000000000001, 192.0, 0.0, 0.0, 0.0, 0.0, 0.0, 0.0, 0.0, 0.0, 0.0, 1.666556513280978E9, 0.0, 2022-10-23 13:21:53.280
178.0, -85254.85071597704, -117649.39041726476, 49082.70973953125, 48728.68045910364, 60843.504767835715, 103325.07381738113, 64722.00181746505, 69403.15001048446, 0.044, 0.9480000000000001, 0.10400000000000001, 192.0, 0.0, 0.0, 0.0, 0.0, 0.0, 0.0, 0.0, 0.0, 0.0, 1.666556513280986E9, 0.0, 2022-10-23 13:21:53.280
179.0, -85200.04423857263, -117596.81911430588, 47130.575434038095, 48515.26600304437, 60681.49932402365, 102487.66571136305, 63411.94372319505, 68014.14555479832, 0.044, 0.9480000000000001, 0.10400000000000001, 192.0, 0.0, 0.0, 0.0, 0.0, 0.0, 0.0, 0.0, 0.0, 0.0, 1.6665565132809937E9, 0.0, 2022-10-23 13:21:53.280
180.0, -85212.13653232295, -117606.8103440774, 46221.7088009964, 48675.48330730001, 60780.18227579383, 102255.00640332776, 62926.106205714495, 67707.43491738259, 0.044, 0.9480000000000001, 0.10400000000000001, 192.0, 0.0, 0.0, 0.0, 0.0, 0.0, 0.0, 0.0, 0.0, 0.0, 1.6665565132810016E9, 0.0, 2022-10-23 13:21:53.281
181.0, -85254.71660551032, -117645.14358581825, 47158.24689367377, 48828.99508821906, 60884.69903286685, 102706.15401341367, 63602.62645514327, 68481.3640691476, 0.044, 0.9480000000000001, 0.10400000000000001, 192.0, 0.0, 0.0, 0.0, 0.0, 0.0, 0.0, 0.0, 0.0, 0.0, 1.6665565132810097E9, 0.0, 2022-10-23 13:21:53.281
182.0, -85259.27636137919, -117652.43025451068, 49087.80593726706, 48793.589925001856, 60879.513428153216, 103370.0455272252, 64756.24468997058, 69477.69307824291, 0.044, 0.9480000000000001, 0.10400000000000001, 192.0, 0.0, 0.0, 0.0, 0.0, 0.0, 0.0, 0.0, 0.0, 0.0, 1.6665565132810173E9, 0.0, 2022-10-23 13:21:53.281
183.0, -85196.49031120424, -117594.02514624897, 47513.39376132414, 48505.6994564175, 60673.81032393102, 102626.53709966387, 63647.01701963151, 68233.7514440717, 0.044, 0.9480000000000001, 0.10400000000000001, 192.0, 0.0, 0.0, 0.0, 0.0, 0.0, 0.0, 0.0, 0.0, 0.0, 1.6665565132810252E9, 0.0, 2022-10-23 13:21:53.281
184.0, -85216.15984632491, -117610.2078092346, 46242.27240589529, 48639.54170221588, 60756.13179875992, 102237.50498741925, 62918.77483353315, 67662.64202149416, 0.044, 0.9480000000000001, 0.10400000000000001, 192.0, 0.0, 0.0, 0.0, 0.0, 0.0, 0.0, 0.0, 0.0, 0.0, 1.6665565132810328E9, 0.0, 2022-10-23 13:21:53.281
185.0, -85251.7214717533, -117643.2213357951, 46849.614006234886, 48777.04963410493, 60853.60775632951, 102575.35160486122, 63401.14783062314, 68262.47343569678, 0.044, 0.9480000000000001, 0.10400000000000001, 192.0, 0.0, 0.0, 0.0, 0.0, 0.0, 0.0, 0.0, 0.0, 0.0, 1.6665565132810407E9, 0.0, 2022-10-23 13:21:53.281
186.0, -85257.35411135603, -117652.74317893306, 48942.11726690737, 48840.10390521335, 60912.05756808014, 103335.98146867532, 64687.602482748334, 69445.03717959371, 0.04, 0.9480000000000001, 0.106, 192.0, 1.0, 64.0, 29.0, 160.0, 3.0, 80.0, 0.0, 0.0, 0.0, 1.6665565132810483E9, 0.0, 2022-10-23 13:21:53.281
187.0, -85192.08701754654, -117593.7569253155, 47948.314004935506, 48529.61582298468, 60706.93560921379, 102793.37052027829, 63926.279714856115, 68509.95195030594, 0.04, 0.9480000000000001, 0.106, 192.0, 0.0, 0.0, 0.0, 0.0, 0.0, 0.0, 0.0, 0.0, 0.0, 1.666556513281057E9, 0.0, 2022-10-23 13:21:53.281
188.0, -85194.09867454752, -117596.86381779479, 46284.807775593734, 48625.05777180884, 60754.7906940926, 102224.92095529092, 62923.35694114649, 67642.48074799548, 0.04, 0.9480000000000001, 0.106, 192.0, 0.0, 0.0, 0.0, 0.0, 0.0, 0.0, 0.0, 0.0, 0.0, 1.6665565132810645E9, 0.0, 2022-10-23 13:21:53.281
189.0, -85231.87312267699, -117631.41961472269, 46579.78374717042, 48768.66772993419, 60860.492093621746, 102464.86693201863, 63219.69636913495, 68084.84412251045, 0.04, 0.9480000000000001, 0.106, 192.0, 0.0, 0.0, 0.0, 0.0, 0.0, 0.0, 0.0, 0.0, 0.0, 1.6665565132810724E9, 0.0, 2022-10-23 13:21:53.281
190.0, -85259.56693405712, -117658.71109470262, 48659.03242338091, 48881.23111501111, 60944.62405975152, 103269.64149113197, 64539.119844331726, 69346.71185573481, 0.04, 0.9480000000000001, 0.106, 192.0, 0.0, 0.0, 0.0, 0.0, 0.0, 0.0, 0.0, 0.0, 0.0, 1.6665565132810812E9, 0.0, 2022-10-23 13:21:53.281
191.0, -85208.80612239911, -117609.67136736767, 48364.6152454156, 48562.606997800714, 60732.23778393719, 102973.9055602438, 64205.74357578082, 68802.44687824808, 0.04, 0.9480000000000001, 0.106, 192.0, 0.0, 0.0, 0.0, 0.0, 0.0, 0.0, 0.0, 0.0, 0.0, 1.6665565132810965E9, 0.0, 2022-10-23 13:21:53.281
192.0, -85203.39700024093, -117598.71901258458, 46392.61023910168, 48579.39315788665, 60723.945286744274, 102242.06474328814, 62974.98947083825, 67658.28343132537, 0.04, 0.9480000000000001, 0.106, 192.0, 0.0, 0.0, 0.0, 0.0, 0.0, 0.0, 0.0, 0.0, 0.0, 1.6665565132811048E9, 0.0, 2022-10-23 13:21:53.281
193.0, -85236.49993377924, -117631.12904204478, 46377.947494739, 48724.61244161278, 60832.239488630235, 102363.03238428026, 63074.454733664366, 67924.35859732135, 0.04, 0.9480000000000001, 0.106, 192.0, 0.0, 0.0, 0.0, 0.0, 0.0, 0.0, 0.0, 0.0, 0.0, 1.6665565132811127E9, 0.0, 2022-10-23 13:21:53.281
194.0, -85285.91964076992, -117681.55457753595, 48253.57177896163, 48875.46436494165, 60939.10317887106, 103124.31044868357, 64295.59758849116, 69134.45969038722, 0.04, 0.9480000000000001, 0.106, 192.0, 0.0, 0.0, 0.0, 0.0, 0.0, 0.0, 0.0, 0.0, 0.0, 1.6665565132811205E9, 0.0, 2022-10-23 13:21:53.281
195.0, -85232.38721279945, -117631.97840833408, 48734.38015393975, 48618.7769316169, 60773.32029024605, 103145.16462626036, 64464.55442482882, 69080.01084089409, 0.044, 0.9480000000000001, 0.10400000000000001, 192.0, 1.0, 96.0, 29.0, 160.0, 3.0, 64.0, 0.0, 0.0, 0.0, 1.6665565132811286E9, 0.0, 2022-10-23 13:21:53.281
196.0, -85190.27652624567, -117589.13011421324, 46587.22687807404, 48558.78484949885, 60708.41082434784, 102297.63118000403, 63083.08250702411, 67730.3901589382, 0.044, 0.9480000000000001, 0.10400000000000001, 192.0, 0.0, 0.0, 0.0, 0.0, 0.0, 0.0, 0.0, 0.0, 0.0, 1.6665565132811368E9, 0.0, 2022-10-23 13:21:53.281
197.0, -85217.90328239242, -117615.19224824813, 46262.70190032743, 48724.18775846813, 60830.496052562725, 102303.95672368488, 62988.244055300245, 67813.6057035453, 0.044, 0.9480000000000001, 0.10400000000000001, 192.0, 0.0, 0.0, 0.0, 0.0, 0.0, 0.0, 0.0, 0.0, 0.0, 1.6665565132811449E9, 0.0, 2022-10-23 13:21:53.281
198.0, -85262.2714951362, -117654.57602197838, 47830.9896982896, 48889.65772267077, 60949.87671969852, 102982.71214755918, 64044.67690523588, 68905.71193763161, 0.044, 0.9480000000000001, 0.10400000000000001, 192.0, 0.0, 0.0, 0.0, 0.0, 0.0, 0.0, 0.0, 0.0, 0.0, 1.6665565132811527E9, 0.0, 2022-10-23 13:21:53.281
199.0, -85237.52811402419, -117631.39726297824, 48970.727499810164, 48706.37341813725, 60843.54947132462, 103275.45294469035, 64641.20026125912, 69298.36503247799, 0.044, 0.9480000000000001, 0.10400000000000001, 192.0, 0.0, 0.0, 0.0, 0.0, 0.0, 0.0, 0.0, 0.0, 0.0, 1.6665565132811608E9, 0.0, 2022-10-23 13:21:53.281
200.0, -85204.80516014161, -117602.02707076396, 46849.055212623505, 48536.388401554635, 60705.7286150132, 102385.98762583586, 63234.828500131196, 67860.74553260155, 0.044, 0.9480000000000001, 0.10400000000000001, 192.0, 0.0, 0.0, 0.0, 0.0, 0.0, 0.0, 0.0, 0.0, 0.0, 1.6665565132811687E9, 0.0, 2022-10-23 13:21:53.281
201.0, -85239.7185849808, -117632.85012636783, 46195.19963207241, 48691.88948773021, 60808.5019360187, 102264.03650808771, 62923.26753416867, 67727.93146704811, 0.044, 0.9480000000000001, 0.10400000000000001, 192.0, 0.0, 0.0, 0.0, 0.0, 0.0, 0.0, 0.0, 0.0, 0.0, 1.6665565132811763E9, 0.0, 2022-10-23 13:21:53.281
202.0, -85273.84969876405, -117663.69553371615, 47385.20650687296, 48852.442068152675, 60914.38214950349, 102814.58232576637, 63758.775741908044, 68637.53570765683, 0.044, 0.9480000000000001, 0.10400000000000001, 192.0, 0.0, 0.0, 0.0, 0.0, 0.0, 0.0, 0.0, 0.0, 0.0, 1.6665565132811844E9, 0.0, 2022-10-23 13:21:53.281
203.0, -85273.3803121305, -117665.55072850594, 49067.77877423511, 48753.04386055993, 60864.98479425726, 103353.66169853946, 64732.23891642558, 69432.05081606518, 0.044, 0.9480000000000001, 0.10400000000000001, 192.0, 0.0, 0.0, 0.0, 0.0, 0.0, 0.0, 0.0, 0.0, 0.0, 1.666556513281192E9, 0.0, 2022-10-23 13:21:53.281
204.0, -85210.95188986682, -117603.01054752, 47215.668525179455, 48517.0541426008, 60690.9764636727, 102531.74335142892, 63467.46545642203, 68073.17651190478, 0.044, 0.9480000000000001, 0.10400000000000001, 192.0, 0.0, 0.0, 0.0, 0.0, 0.0, 0.0, 0.0, 0.0, 0.0, 1.6665565132811997E9, 0.0, 2022-10-23 13:21:53.281
0.0, 0.0, 0.0, 0.0, 0.0, 0.0, 0.0, 0.0, 0.0, 0.046, 0.9520000000000001, 0.10200000000000001, 192.0, 1.0, 112.0, 29.0, 192.0, 3.0, 48.0, 0.0, 0.0, 0.0, 1.6665565133458033E9, 0.0, 2022-10-23 13:21:53.345
1.0, -85333.50650471527, -117737.92567705223, 44275.274190339354, 48755.8601803613, 60756.98116504922, 102741.2015487196, 63188.87331353108, 68085.00058472164, 0.046, 0.9520000000000001, 0.10200000000000001, 192.0, 0.0, 0.0, 0.0, 0.0, 0.0, 0.0, 0.0, 0.0, 0.0, 1.6665565138407724E9, 0.0, 2022-10-23 13:21:53.840
2.0, -85368.48698478783, -117770.0451338345, 43755.99846315366, 48917.23977532861, 60869.7680675707, 102672.1346583527, 62965.91466258939, 68030.32821778396, 0.046, 0.9520000000000001, 0.10200000000000001, 192.0, 0.0, 0.0, 0.0, 0.0, 0.0, 0.0, 0.0, 0.0, 0.0, 1.6665565138408847E9, 0.0, 2022-10-23 13:21:53.840
3.0, -85404.54034859424, -117803.43864005074, 45066.16831614594, 49081.815669753036, 60985.25953117127, 103243.95933675281, 63851.8707575644, 68981.03731644599, 0.046, 0.9520000000000001, 0.10200000000000001, 192.0, 0.0, 0.0, 0.0, 0.0, 0.0, 0.0, 0.0, 0.0, 0.0, 1.6665565138408945E9, 0.0, 2022-10-23 13:21:53.840
4.0, -85395.06320894518, -117796.53195101404, 46608.7516079845, 48967.665310819786, 60931.19066133388, 103707.24394407797, 64710.602427792845, 69659.77038857584, 0.046, 0.9520000000000001, 0.10200000000000001, 192.0, 0.0, 0.0, 0.0, 0.0, 0.0, 0.0, 0.0, 0.0, 0.0, 1.6665565138409033E9, 0.0, 2022-10-23 13:21:53.840
5.0, -85344.5482664762, -117752.7448836261, 44694.50350934309, 48738.02348828596, 60751.21441497975, 102879.06710851993, 63428.64047630316, 68284.51225572971, 0.046, 0.9520000000000001, 0.10200000000000001, 192.0, 0.0, 0.0, 0.0, 0.0, 0.0, 0.0, 0.0, 0.0, 0.0, 1.6665565138409114E9, 0.0, 2022-10-23 13:21:53.840
6.0, -85364.53072601923, -117770.76038965708, 43780.04894018757, 48892.518745961046, 60848.44450336033, 102635.23192825698, 62935.62804885246, 67962.91535650675, 0.046, 0.9520000000000001, 0.10200000000000001, 192.0, 0.0, 0.0, 0.0, 0.0, 0.0, 0.0, 0.0, 0.0, 0.0, 1.666556513840924E9, 0.0, 2022-10-23 13:21:53.840
7.0, -85404.92032824998, -117804.44446855123, 44744.012623311595, 49059.26275959764, 60979.93981599091, 103102.56220132855, 63624.79938564294, 68750.74729332296, 0.044, 0.9580000000000001, 0.094, 192.0, 1.0, 96.0, 29.0, 240.0, 2.0, 240.0, 0.0, 0.0, 0.0, 1.666556513840932E9, 0.0, 2022-10-23 13:21:53.840
8.0, -85417.6608225895, -117815.12860240086, 46700.773739906996, 49031.92657612879, 60979.13515319052, 103767.81717155185, 64778.909358848265, 69755.65937228911, 0.044, 0.9580000000000001, 0.094, 192.0, 0.0, 0.0, 0.0, 0.0, 0.0, 0.0, 0.0, 0.0, 0.0, 1.6665565138409412E9, 0.0, 2022-10-23 13:21:53.840
9.0, -85346.6940339439, -117750.040322547, 45159.01746261329, 48744.97488081156, 60758.769304605645, 103035.19404354025, 63693.9333312432, 68523.2735900013, 0.044, 0.9580000000000001, 0.094, 192.0, 0.0, 0.0, 0.0, 0.0, 0.0, 0.0, 0.0, 0.0, 0.0, 1.6665565138409493E9, 0.0, 2022-10-23 13:21:53.840
10.0, -85370.38688306653, -117775.52131122605, 43836.71061238177, 48868.84824858287, 60818.046130901115, 102601.45844238502, 62918.88659225543, 67903.63853021128, 0.044, 0.9580000000000001, 0.094, 192.0, 0.0, 0.0, 0.0, 0.0, 0.0, 0.0, 0.0, 0.0, 0.0, 1.6665565138409572E9, 0.0, 2022-10-23 13:21:53.840
11.0, -85394.70558103391, -117801.82931444995, 44468.639131622214, 49024.75166615864, 60951.82132146613, 102955.19715013471, 63413.32953135128, 68523.07242430121, 0.044, 0.9580000000000001, 0.094, 192.0, 0.0, 0.0, 0.0, 0.0, 0.0, 0.0, 0.0, 0.0, 0.0, 1.666556513840966E9, 0.0, 2022-10-23 13:21:53.840
12.0, -85407.84840677363, -117814.56980878947, 46590.959619398076, 49089.012931467645, 61011.41107218398, 103720.92321168461, 64701.41586082171, 69716.72263344796, 0.044, 0.9580000000000001, 0.094, 192.0, 0.0, 0.0, 0.0, 0.0, 0.0, 0.0, 0.0, 0.0, 0.0, 1.666556513840974E9, 0.0, 2022-10-23 13:21:53.840
13.0, -85347.72221418885, -117758.62339241784, 45647.872465595305, 48772.93691312515, 60793.593322467015, 103198.45118504182, 63972.25725320068, 68800.81520090284, 0.044, 0.9580000000000001, 0.094, 192.0, 0.0, 0.0, 0.0, 0.0, 0.0, 0.0, 0.0, 0.0, 0.0, 1.666556513840982E9, 0.0, 2022-10-23 13:21:53.840
14.0, -85357.75814744928, -117759.87509010734, 44001.86765216204, 48850.832742551895, 60824.25991585969, 102632.3262014778, 62982.32084301959, 67928.09133864539, 0.044, 0.9580000000000001, 0.094, 192.0, 0.0, 0.0, 0.0, 0.0, 0.0, 0.0, 0.0, 0.0, 0.0, 1.6665565138409898E9, 0.0, 2022-10-23 13:21:53.840
15.0, -85395.08556068964, -117789.04411662152, 44284.66192301058, 48991.425215175776, 60925.222745564315, 102843.63959355827, 63251.43584626149, 68344.8843175035, 0.044, 0.9580000000000001, 0.094, 192.0, 0.0, 0.0, 0.0, 0.0, 0.0, 0.0, 0.0, 0.0, 0.0, 1.6665565138409977E9, 0.0, 2022-10-23 13:21:53.840
16.0, -85421.0135842578, -117819.15191640281, 46361.96599745345, 49114.51627189115, 61019.21183099888, 103630.48805361845, 64544.283097300904, 69591.86578892062, 0.044, 0.9580000000000001, 0.094, 192.0, 0.0, 0.0, 0.0, 0.0, 0.0, 0.0, 0.0, 0.0, 0.0, 1.6665565138410056E9, 0.0, 2022-10-23 13:21:53.841
17.0, -85353.06428111366, -117757.61756391736, 46126.51272136125, 48816.791035746464, 60817.50968903419, 103363.58587307762, 64245.30616346672, 69083.98945140713, 0.044, 0.9580000000000001, 0.092, 192.0, 1.0, 96.0, 29.0, 240.0, 2.0, 224.0, 0.0, 0.0, 0.0, 1.6665565138410137E9, 0.0, 2022-10-23 13:21:53.841
18.0, -85340.97198736334, -117742.73130211011, 44184.235535172884, 48833.219567921115, 60800.18708708133, 102645.67019291762, 63037.08261693509, 67949.66077204475, 0.044, 0.9580000000000001, 0.092, 192.0, 0.0, 0.0, 0.0, 0.0, 0.0, 0.0, 0.0, 0.0, 0.0, 1.6665565138410387E9, 0.0, 2022-10-23 13:21:53.841
19.0, -85382.68034251695, -117782.91973864076, 44188.54942185276, 48964.06667996248, 60904.97206508781, 102764.9614530756, 63137.66546698398, 68210.349167627, 0.044, 0.9580000000000001, 0.092, 192.0, 0.0, 0.0, 0.0, 0.0, 0.0, 0.0, 0.0, 0.0, 0.0, 1.6665565138410466E9, 0.0, 2022-10-23 13:21:53.841
20.0, -85431.34009019614, -117830.48425084166, 46059.36808101751, 49108.8389287995, 61014.47326117435, 103505.69826432447, 64331.002751708365, 69403.19471397337, 0.044, 0.9580000000000001, 0.092, 192.0, 0.0, 0.0, 0.0, 0.0, 0.0, 0.0, 0.0, 0.0, 0.0, 1.6665565138410547E9, 0.0, 2022-10-23 13:21:53.841
21.0, -85381.92038320546, -117785.73605844213, 46596.36874155626, 48857.04652751047, 60853.42894237387, 103545.12674154363, 64525.59703893627, 69378.31722239462, 0.044, 0.9580000000000001, 0.092, 192.0, 0.0, 0.0, 0.0, 0.0, 0.0, 0.0, 0.0, 0.0, 0.0, 1.6665565138410623E9, 0.0, 2022-10-23 13:21:53.841
22.0, -85343.92241763145, -117750.30854348047, 44486.16289927517, 48794.81927094689, 60777.991804837206, 102715.92172574064, 63174.88112150206, 68044.09689236843, 0.044, 0.9580000000000001, 0.092, 192.0, 0.0, 0.0, 0.0, 0.0, 0.0, 0.0, 0.0, 0.0, 0.0, 1.6665565138410702E9, 0.0, 2022-10-23 13:21:53.841
23.0, -85377.6064965256, -117780.77397117305, 44163.15784015153, 48938.563339538974, 60876.40653567392, 102705.81873724685, 63064.307041681655, 68100.91502677382, 0.044, 0.9580000000000001, 0.092, 192.0, 0.0, 0.0, 0.0, 0.0, 0.0, 0.0, 0.0, 0.0, 0.0, 1.666556513841078E9, 0.0, 2022-10-23 13:21:53.841
24.0, -85417.34789816712, -117819.93422745875, 45705.24939361208, 49103.85448978597, 60996.323644676646, 103347.73848625881, 64075.09762943955, 69154.50920516363, 0.044, 0.9580000000000001, 0.092, 192.0, 0.0, 0.0, 0.0, 0.0, 0.0, 0.0, 0.0, 0.0, 0.0, 1.666556513841086E9, 0.0, 2022-10-23 13:21:53.841
25.0, -85393.16331066648, -117796.01786089157, 46914.411713410824, 48932.50601679159, 60898.19948651785, 103666.09438253575, 64707.65199752474, 69586.81429467372, 0.044, 0.9580000000000001, 0.092, 192.0, 0.0, 0.0, 0.0, 0.0, 0.0, 0.0, 0.0, 0.0, 0.0, 1.6665565138410935E9, 0.0, 2022-10-23 13:21:53.841
26.0, -85354.18186833643, -117753.66130514877, 44863.92973231432, 48766.65607293321, 60762.12206627394, 102819.20913686862, 63362.36755399318, 68188.57856852753, 0.044, 0.9580000000000001, 0.092, 192.0, 0.0, 0.0, 0.0, 0.0, 0.0, 0.0, 0.0, 0.0, 0.0, 1.6665565138411012E9, 0.0, 2022-10-23 13:21:53.841
27.0, -85384.69199951792, -117779.92460488375, 44191.61161084314, 48916.50216776159, 60866.348250669034, 102673.92279790912, 63026.10791040754, 68024.96379911469, 0.044, 0.962, 0.092, 192.0, 1.0, 96.0, 30.0, 16.0, 2.0, 224.0, 0.0, 0.0, 0.0, 1.6665565138411088E9, 0.0, 2022-10-23 13:21:53.841
28.0, -85422.24293020283, -117817.09555591292, 45354.99755799741, 49065.4318410673, 60972.29551938719, 103188.21408608128, 63815.4597658467, 68894.9160450597, 0.044, 0.962, 0.092, 192.0, 0.0, 0.0, 0.0, 0.0, 0.0, 0.0, 0.0, 0.0, 0.0, 1.666556513841118E9, 0.0, 2022-10-23 13:21:53.841
29.0, -85404.89797650553, -117803.79626796203, 47071.49977344272, 48990.39703493083, 60942.23242309481, 103731.00384843396, 64790.4428589872, 69703.82567689725, 0.044, 0.962, 0.092, 192.0, 0.0, 0.0, 0.0, 0.0, 0.0, 0.0, 0.0, 0.0, 0.0, 1.6665565138411262E9, 0.0, 2022-10-23 13:21:53.841
30.0, -85343.72125193135, -117748.3415899684, 45257.38748996109, 48746.31598547888, 60755.416542937346, 102924.73172244213, 63553.58672780833, 68361.64812584498, 0.044, 0.962, 0.092, 192.0, 0.0, 0.0, 0.0, 0.0, 0.0, 0.0, 0.0, 0.0, 0.0, 1.666556513841134E9, 0.0, 2022-10-23 13:21:53.841
31.0, -85365.42479579744, -117763.38431398683, 44225.161579270556, 48908.43318801322, 60857.273442420184, 102643.21150102753, 62987.685261688865, 67962.87065301785, 0.044, 0.962, 0.092, 192.0, 0.0, 0.0, 0.0, 0.0, 0.0, 0.0, 0.0, 0.0, 0.0, 1.6665565138411417E9, 0.0, 2022-10-23 13:21:53.841
32.0, -85395.06320894518, -117792.75450620109, 45055.43947880739, 49063.95662593325, 60973.34605137659, 103062.1725990978, 63595.04921377292, 68675.7124871865, 0.044, 0.962, 0.092, 192.0, 0.0, 0.0, 0.0, 0.0, 0.0, 0.0, 0.0, 0.0, 0.0, 1.6665565138411496E9, 0.0, 2022-10-23 13:21:53.841
33.0, -85402.12636019307, -117805.47264879617, 47076.37245373398, 49061.4308788098, 60990.95922600738, 103755.68017431261, 64789.749954909086, 69746.40575008461, 0.044, 0.962, 0.092, 192.0, 0.0, 0.0, 0.0, 0.0, 0.0, 0.0, 0.0, 0.0, 0.0, 1.6665565138411648E9, 0.0, 2022-10-23 13:21:53.841
34.0, -85349.89033340101, -117752.61077315937, 45707.775140735524, 48752.64152915973, 60764.31253723056, 103068.09581137846, 63790.67168124577, 68598.66602404905, 0.044, 0.962, 0.092, 192.0, 0.0, 0.0, 0.0, 0.0, 0.0, 0.0, 0.0, 0.0, 0.0, 1.6665565138411732E9, 0.0, 2022-10-23 13:21:53.841
35.0, -85374.7007697464, -117773.35319201389, 44304.1079406867, 48873.89974282977, 60835.100511920515, 102621.88793681716, 62974.207159782316, 67923.57628626541, 0.044, 0.962, 0.092, 192.0, 0.0, 0.0, 0.0, 0.0, 0.0, 0.0, 0.0, 0.0, 0.0, 1.6665565138411815E9, 0.0, 2022-10-23 13:21:53.841
36.0, -85407.89311026254, -117806.14320112983, 44799.10967339393, 49012.1676340303, 60938.700847470864, 102917.66857119424, 63380.561873979794, 68456.82185373567, 0.044, 0.962, 0.092, 192.0, 0.0, 0.0, 0.0, 0.0, 0.0, 0.0, 0.0, 0.0, 0.0, 1.6665565138411894E9, 0.0, 2022-10-23 13:21:53.841
37.0, -85441.15250601203, -117842.24126842515, 46938.84217010048, 49096.25489667117, 61012.41690068447, 103709.03208363439, 64693.86097119582, 69687.44184821151, 0.042, 0.962, 0.098, 192.0, 1.0, 80.0, 30.0, 16.0, 3.0, 16.0, 0.0, 0.0, 0.0, 1.6665565138411973E9, 0.0, 2022-10-23 13:21:53.841
38.0, -85371.41506331148, -117774.8954623813, 46255.795211290744, 48781.65409346272, 60793.727432933745, 103276.99521505776, 64119.84582183908, 68913.08801330185, 0.042, 0.962, 0.098, 192.0, 0.0, 0.0, 0.0, 0.0, 0.0, 0.0, 0.0, 0.0, 0.0, 1.6665565138412056E9, 0.0, 2022-10-23 13:21:53.841
39.0, -85367.43645279843, -117771.47564547964, 44483.16776551816, 48848.64227159527, 60817.5543925231, 102648.73238190799, 63037.104968679545, 67933.67927475921, 0.042, 0.962, 0.098, 192.0, 0.0, 0.0, 0.0, 0.0, 0.0, 0.0, 0.0, 0.0, 0.0, 1.6665565138412132E9, 0.0, 2022-10-23 13:21:53.841
40.0, -85388.29063037522, -117792.53098875654, 44654.22566583463, 48987.89363955184, 60924.731007186296, 102825.84760497184, 63238.15891005503, 68289.18377032087, 0.042, 0.962, 0.098, 192.0, 0.0, 0.0, 0.0, 0.0, 0.0, 0.0, 0.0, 0.0, 0.0, 1.6665565138412209E9, 0.0, 2022-10-23 13:21:53.841
41.0, -85418.64429934554, -117816.98379719065, 46656.42787890767, 49135.3480977235, 61036.109749807096, 103595.93225669055, 64492.33764318677, 69523.17887820947, 0.042, 0.962, 0.098, 192.0, 0.0, 0.0, 0.0, 0.0, 0.0, 0.0, 0.0, 0.0, 0.0, 1.6665565138412287E9, 0.0, 2022-10-23 13:21:53.841
42.0, -85379.01465642627, -117784.305546797, 46709.06623709992, 48846.04946923846, 60850.79143652814, 103440.6099844706, 64375.99681329689, 69192.03778410409, 0.042, 0.962, 0.098, 192.0, 0.0, 0.0, 0.0, 0.0, 0.0, 0.0, 0.0, 0.0, 0.0, 1.6665565138412364E9, 0.0, 2022-10-23 13:21:53.841
43.0, -85365.2459818418, -117769.62045068985, 44697.744512289115, 48815.89696596825, 60794.08506084503, 102683.80226895837, 63114.62081845055, 67979.43329565923, 0.042, 0.962, 0.098, 192.0, 0.0, 0.0, 0.0, 0.0, 0.0, 0.0, 0.0, 0.0, 0.0, 1.6665565138412445E9, 0.0, 2022-10-23 13:21:53.841
44.0, -85394.72793277836, -117798.18598010374, 44587.125728979794, 48956.601197314405, 60894.399689960446, 102760.64756639571, 63143.991010664824, 68172.86529217545, 0.042, 0.962, 0.098, 192.0, 0.0, 0.0, 0.0, 0.0, 0.0, 0.0, 0.0, 0.0, 0.0, 1.666556513841252E9, 0.0, 2022-10-23 13:21:53.841
45.0, -85429.06021226171, -117830.08191944147, 46337.82611344172, 49119.05367601558, 61005.487859903325, 103465.42042081601, 64268.48492246687, 69315.88880013094, 0.042, 0.962, 0.098, 192.0, 0.0, 0.0, 0.0, 0.0, 0.0, 0.0, 0.0, 0.0, 0.0, 1.6665565138412597E9, 0.0, 2022-10-23 13:21:53.841
46.0, -85397.16427292398, -117801.0022999051, 47119.48896878827, 48886.93080984722, 60864.269538434695, 103599.08385265873, 64616.09925223581, 69450.93804012991, 0.044, 0.9540000000000001, 0.09, 192.0, 1.0, 96.0, 29.0, 208.0, 2.0, 208.0, 0.0, 0.0, 0.0, 1.6665565138412673E9, 0.0, 2022-10-23 13:21:53.841
47.0, -85363.63665624103, -117769.21811928965, 44995.64856238944, 48773.3615962698, 60759.10458077247, 102743.01204002048, 63240.37173275611, 68068.84027348045, 0.044, 0.9540000000000001, 0.09, 192.0, 0.0, 0.0, 0.0, 0.0, 0.0, 0.0, 0.0, 0.0, 0.0, 1.666556513841276E9, 0.0, 2022-10-23 13:21:53.841
48.0, -85395.7561130233, -117799.21416034868, 44597.49693840706, 48944.06186867498, 60892.14216377046, 102725.93530725663, 63095.93476008592, 68091.72845980269, 0.044, 0.9540000000000001, 0.09, 192.0, 0.0, 0.0, 0.0, 0.0, 0.0, 0.0, 0.0, 0.0, 0.0, 1.6665565138412836E9, 0.0, 2022-10-23 13:21:53.841
49.0, -85424.32164243718, -117827.31030312901, 46018.19616773083, 49107.92250727684, 61004.30321744719, 103329.03007614972, 64039.49130052225, 69086.58225376395, 0.044, 0.9540000000000001, 0.09, 192.0, 0.0, 0.0, 0.0, 0.0, 0.0, 0.0, 0.0, 0.0, 0.0, 1.6665565138412995E9, 0.0, 2022-10-23 13:21:53.841
50.0, -85404.58505208314, -117812.87107621087, 47409.324039140236, 48959.28340664905, 60920.37241701751, 103710.55200225735, 64785.23490252911, 69642.76071104535, 0.044, 0.9540000000000001, 0.09, 192.0, 0.0, 0.0, 0.0, 0.0, 0.0, 0.0, 0.0, 0.0, 0.0, 1.6665565138413074E9, 0.0, 2022-10-23 13:21:53.841
51.0, -85351.79023167971, -117764.41249423177, 45415.481378493474, 48764.152677554215, 60763.396115707896, 102860.93984376668, 63459.1282557402, 68246.3578279445, 0.044, 0.9540000000000001, 0.09, 192.0, 0.0, 0.0, 0.0, 0.0, 0.0, 0.0, 0.0, 0.0, 0.0, 1.6665565138413153E9, 0.0, 2022-10-23 13:21:53.841
52.0, -85384.3567233511, -117793.20154109021, 44646.626072719824, 48916.85979567287, 60865.20831170182, 102683.89167593619, 63067.97272777233, 68019.93465661224, 0.044, 0.9540000000000001, 0.09, 192.0, 0.0, 0.0, 0.0, 0.0, 0.0, 0.0, 0.0, 0.0, 0.0, 1.6665565138413234E9, 0.0, 2022-10-23 13:21:53.841
53.0, -85417.57141561167, -117820.04598618102, 45720.69444903069, 49077.6358935399, 60981.66090031397, 103179.54160923262, 63816.55500132502, 68852.04539919441, 0.044, 0.9540000000000001, 0.09, 192.0, 0.0, 0.0, 0.0, 0.0, 0.0, 0.0, 0.0, 0.0, 0.0, 1.6665565138413312E9, 0.0, 2022-10-23 13:21:53.841
54.0, -85415.1574272105, -117815.73209950115, 47606.108797324756, 49036.19575931976, 60974.15071417698, 103797.96967482206, 64909.30943600052, 69783.66610809161, 0.044, 0.9540000000000001, 0.09, 192.0, 0.0, 0.0, 0.0, 0.0, 0.0, 0.0, 0.0, 0.0, 0.0, 1.6665565138413396E9, 0.0, 2022-10-23 13:21:53.841
55.0, -85353.33250204712, -117754.30950573797, 45930.867902143946, 48765.00204384352, 60765.58658666451, 103007.8131565825, 63733.339456717906, 68481.38642089206, 0.044, 0.9540000000000001, 0.09, 192.0, 0.0, 0.0, 0.0, 0.0, 0.0, 0.0, 0.0, 0.0, 0.0, 1.6665565138413477E9, 0.0, 2022-10-23 13:21:53.841
56.0, -85373.896106946, -117774.18020655874, 44772.6675597033, 48911.227156070134, 60860.961480255304, 102661.40582101415, 63079.57328314463, 67983.90364455029, 0.046, 0.9540000000000001, 0.088, 192.0, 1.0, 112.0, 29.0, 208.0, 2.0, 192.0, 0.0, 0.0, 0.0, 1.6665565138413556E9, 0.0, 2022-10-23 13:21:53.841
57.0, -85406.99904048433, -117805.58440751844, 45487.87867878422, 49061.65439625435, 60970.70854553086, 103034.09880806194, 63614.562286682405, 68633.15476574359, 0.046, 0.9540000000000001, 0.088, 192.0, 0.0, 0.0, 0.0, 0.0, 0.0, 0.0, 0.0, 0.0, 0.0, 1.6665565138413644E9, 0.0, 2022-10-23 13:21:53.841
58.0, -85425.17100872648, -117827.22089615118, 47593.100082051766, 49093.37152163643, 61007.81244132668, 103777.56253213437, 64875.40183966182, 69783.24142494696, 0.046, 0.9540000000000001, 0.088, 192.0, 0.0, 0.0, 0.0, 0.0, 0.0, 0.0, 0.0, 0.0, 0.0, 1.666556513841372E9, 0.0, 2022-10-23 13:21:53.841
59.0, -85360.73092946183, -117768.81578788946, 46467.80150744933, 48776.669654449186, 60780.96458684976, 103177.61935920946, 64024.29211429264, 68757.6316306152, 0.046, 0.9540000000000001, 0.088, 192.0, 0.0, 0.0, 0.0, 0.0, 0.0, 0.0, 0.0, 0.0, 0.0, 1.66655651384138E9, 0.0, 2022-10-23 13:21:53.841
60.0, -85365.62596149754, -117766.55826169948, 44920.0996661305, 48884.472117957135, 60838.00623869971, 102657.27074828991, 63100.85214386608, 67961.95423149517, 0.046, 0.9540000000000001, 0.088, 192.0, 0.0, 0.0, 0.0, 0.0, 0.0, 0.0, 0.0, 0.0, 0.0, 1.6665565138413882E9, 0.0, 2022-10-23 13:21:53.841
61.0, -85399.69002004743, -117796.95663415869, 45305.533147517825, 49023.924651613794, 60949.94377493188, 102915.58985895991, 63438.65405781914, 68435.6547517365, 0.046, 0.9540000000000001, 0.088, 192.0, 0.0, 0.0, 0.0, 0.0, 0.0, 0.0, 0.0, 0.0, 0.0, 1.666556513841396E9, 0.0, 2022-10-23 13:21:53.841
62.0, -85419.5160173793, -117823.3093408715, 47430.87112079515, 49131.168321510355, 61037.11557830758, 103706.79690918887, 64752.28843120199, 69686.90540634458, 0.046, 0.9540000000000001, 0.088, 192.0, 0.0, 0.0, 0.0, 0.0, 0.0, 0.0, 0.0, 0.0, 0.0, 1.6665565138414035E9, 0.0, 2022-10-23 13:21:53.841
63.0, -85362.60847599608, -117774.38137225884, 47018.32497338355, 48813.59473628936, 60820.99656116922, 103364.72581204484, 64341.95510649146, 69064.23050930865, 0.046, 0.9540000000000001, 0.088, 192.0, 0.0, 0.0, 0.0, 0.0, 0.0, 0.0, 0.0, 0.0, 0.0, 1.6665565138414116E9, 0.0, 2022-10-23 13:21:53.841
64.0, -85365.93888591992, -117770.2462995346, 45141.15841879349, 48843.03198373699, 60805.819726684065, 102667.86547516173, 63177.94331049244, 67975.43233340172, 0.046, 0.9540000000000001, 0.088, 192.0, 0.0, 0.0, 0.0, 0.0, 0.0, 0.0, 0.0, 0.0, 0.0, 1.6665565138414288E9, 0.0, 2022-10-23 13:21:53.841
65.0, -85392.24688914382, -117791.83808467843, 45230.83361754818, 48993.48157566567, 60924.37337927501, 102818.02449441249, 63334.00319027939, 68283.43937199586, 0.046, 0.9540000000000001, 0.088, 192.0, 0.0, 0.0, 0.0, 0.0, 0.0, 0.0, 0.0, 0.0, 0.0, 1.6665565138414364E9, 0.0, 2022-10-23 13:21:53.841
66.0, -85422.7123168364, -117820.04598618102, 47190.142833011494, 49149.6532141749, 61041.340058009635, 103588.198553109, 64579.08476341781, 69512.62885482656, 0.04, 0.962, 0.094, 192.0, 1.0, 64.0, 30.0, 16.0, 2.0, 240.0, 0.0, 0.0, 0.0, 1.6665565138414443E9, 0.0, 2022-10-23 13:21:53.841
67.0, -85390.14582516502, -117793.58152074594, 47511.53856653435, 48855.63836760978, 60847.79630277113, 103518.55051738626, 64623.18475522814, 69335.7147974628, 0.04, 0.962, 0.094, 192.0, 0.0, 0.0, 0.0, 0.0, 0.0, 0.0, 0.0, 0.0, 0.0, 1.6665565138414526E9, 0.0, 2022-10-23 13:21:53.841
68.0, -85368.50933653228, -117773.800226903, 45408.39587550114, 48795.266305836005, 60767.97822332123, 102687.9820451715, 63277.49798029638, 68021.0075403461, 0.04, 0.962, 0.094, 192.0, 0.0, 0.0, 0.0, 0.0, 0.0, 0.0, 0.0, 0.0, 0.0, 1.6665565138414605E9, 0.0, 2022-10-23 13:21:53.841
69.0, -85388.67061003097, -117791.77102944507, 45197.574221798684, 48958.52344733757, 60896.567809172615, 102735.12187422776, 63248.7759886713, 68160.37066702494, 0.04, 0.962, 0.094, 192.0, 0.0, 0.0, 0.0, 0.0, 0.0, 0.0, 0.0, 0.0, 0.0, 1.666556513841468E9, 0.0, 2022-10-23 13:21:53.841
70.0, -85416.38677315555, -117814.43569832275, 46859.471125539676, 49137.69503089131, 61033.65105791701, 103429.45646398742, 64337.909440745054, 69280.37187819146, 0.04, 0.962, 0.094, 192.0, 0.0, 0.0, 0.0, 0.0, 0.0, 0.0, 0.0, 0.0, 0.0, 1.666556513841477E9, 0.0, 2022-10-23 13:21:53.841
71.0, -85385.98840069633, -117789.93818639973, 47894.28983858703, 48927.00748765558, 60908.28012326719, 103661.6687371336, 64851.17254867227, 69584.176788828, 0.04, 0.962, 0.094, 192.0, 0.0, 0.0, 0.0, 0.0, 0.0, 0.0, 0.0, 0.0, 0.0, 1.6665565138414843E9, 0.0, 2022-10-23 13:21:53.841
72.0, -85341.06139434116, -117747.51457542356, 45792.9576388547, 48789.41014878871, 60779.846999627, 102791.5600289774, 63475.06504953683, 68177.31328932206, 0.04, 0.962, 0.094, 192.0, 0.0, 0.0, 0.0, 0.0, 0.0, 0.0, 0.0, 0.0, 0.0, 1.6665565138414924E9, 0.0, 2022-10-23 13:21:53.841
73.0, -85366.0506446422, -117771.43094199074, 45281.482670483914, 48959.059889204495, 60905.59791393256, 102727.2987636684, 63256.57674748621, 68123.73615786269, 0.04, 0.962, 0.094, 192.0, 0.0, 0.0, 0.0, 0.0, 0.0, 0.0, 0.0, 0.0, 0.0, 1.6665565138415E9, 0.0, 2022-10-23 13:21:53.841
74.0, -85401.96989798188, -117804.46682029568, 46598.38039855724, 49113.93512653532, 61017.98248505384, 103299.19049730188, 64147.003191352276, 69069.7066867002, 0.04, 0.962, 0.094, 192.0, 0.0, 0.0, 0.0, 0.0, 0.0, 0.0, 0.0, 0.0, 0.0, 1.666556513841508E9, 0.0, 2022-10-23 13:21:53.841
75.0, -85393.14095892203, -117791.74867770061, 48180.52627808169, 49002.31051472551, 60955.62111802353, 103757.80359003588, 65016.26253321917, 69758.20747115702, 0.036000000000000004, 0.9560000000000001, 0.098, 192.0, 1.0, 32.0, 29.0, 224.0, 3.0, 16.0, 0.0, 0.0, 0.0, 1.6665565138415155E9, 0.0, 2022-10-23 13:21:53.841
76.0, -85351.45495551288, -117746.17347075624, 46295.178985021, 48770.07588983487, 60772.42622046784, 102923.48002475263, 63737.47452944214, 68381.9435098104, 0.036000000000000004, 0.9560000000000001, 0.098, 192.0, 0.0, 0.0, 0.0, 0.0, 0.0, 0.0, 0.0, 0.0, 0.0, 1.666556513841524E9, 0.0, 2022-10-23 13:21:53.841
77.0, -85375.61719126906, -117766.91588961077, 45369.41443317109, 48917.887975917816, 60862.32493666708, 102664.982100127, 63232.28040126329, 68039.29126731053, 0.036000000000000004, 0.9560000000000001, 0.098, 192.0, 0.0, 0.0, 0.0, 0.0, 0.0, 0.0, 0.0, 0.0, 0.0, 1.666556513841532E9, 0.0, 2022-10-23 13:21:53.841
78.0, -85409.4130288855, -117800.71172722719, 46324.77269467982, 49079.80401275206, 60992.83677254162, 103124.75748357267, 63913.762737961144, 68814.44976502059, 0.036000000000000004, 0.9560000000000001, 0.098, 192.0, 0.0, 0.0, 0.0, 0.0, 0.0, 0.0, 0.0, 0.0, 0.0, 1.6665565138415396E9, 0.0, 2022-10-23 13:21:53.841
79.0, -85410.12828470806, -117806.2549598521, 48306.903041232, 49053.45130603926, 60988.16525795046, 103783.08341301483, 65070.06318212309, 69825.01683533392, 0.036000000000000004, 0.9560000000000001, 0.098, 192.0, 0.0, 0.0, 0.0, 0.0, 0.0, 0.0, 0.0, 0.0, 0.0, 1.6665565138415475E9, 0.0, 2022-10-23 13:21:53.841
80.0, -85345.33057753212, -117746.68756087871, 46813.203014517196, 48757.93889259564, 60768.93934833281, 103050.05795360303, 64000.398099469916, 68604.96921598545, 0.036000000000000004, 0.9560000000000001, 0.098, 192.0, 0.0, 0.0, 0.0, 0.0, 0.0, 0.0, 0.0, 0.0, 0.0, 1.6665565138415625E9, 0.0, 2022-10-23 13:21:53.841
81.0, -85355.92530440395, -117758.62339241784, 45509.939850561605, 48898.866641386354, 60854.21125342981, 102637.35534398023, 63243.635087446586, 67993.8948743218, 0.036000000000000004, 0.9560000000000001, 0.098, 192.0, 0.0, 0.0, 0.0, 0.0, 0.0, 0.0, 0.0, 0.0, 0.0, 1.6665565138415704E9, 0.0, 2022-10-23 13:21:53.841
82.0, -85390.43639784293, -117795.59317774692, 46117.19204392339, 49037.13453258688, 60964.24889138328, 102973.72674628816, 63718.11791874385, 68586.46197157646, 0.036000000000000004, 0.9560000000000001, 0.098, 192.0, 0.0, 0.0, 0.0, 0.0, 0.0, 0.0, 0.0, 0.0, 0.0, 1.666556513841578E9, 0.0, 2022-10-23 13:21:53.841
83.0, -85401.63462181504, -117808.08780289744, 48253.2365027948, 49104.72620781973, 61023.25749674529, 103746.24773815248, 65015.83785007452, 69789.25404420543, 0.036000000000000004, 0.9560000000000001, 0.098, 192.0, 0.0, 0.0, 0.0, 0.0, 0.0, 0.0, 0.0, 0.0, 0.0, 1.6665565138415856E9, 0.0, 2022-10-23 13:21:53.841
84.0, -85342.62601645304, -117752.61077315937, 47385.675893506515, 48785.31977955339, 60796.722566690754, 103245.41220014241, 64327.292362128785, 68905.35430972032, 0.036000000000000004, 0.9560000000000001, 0.098, 192.0, 0.0, 0.0, 0.0, 0.0, 0.0, 0.0, 0.0, 0.0, 0.0, 1.6665565138415935E9, 0.0, 2022-10-23 13:21:53.841
85.0, -85348.83980141161, -117751.87316559235, 45704.847062211884, 48870.81520209494, 60825.91394494939, 102656.5331407229, 63308.03046322233, 67997.6052639014, 0.036000000000000004, 0.9500000000000001, 0.098, 192.0, 1.0, 32.0, 29.0, 176.0, 3.0, 16.0, 0.0, 0.0, 0.0, 1.6665565138416011E9, 0.0, 2022-10-23 13:21:53.841
86.0, -85384.98257219585, -117785.28902355302, 45977.784213755636, 49007.09378803895, 60936.66683872543, 102876.31784395193, 63578.419515898175, 68410.41963224646, 0.036000000000000004, 0.9500000000000001, 0.098, 192.0, 0.0, 0.0, 0.0, 0.0, 0.0, 0.0, 0.0, 0.0, 0.0, 1.6665565138416097E9, 0.0, 2022-10-23 13:21:53.841
87.0, -85424.25458720382, -117824.67279728327, 48030.70253499777, 49115.18682422481, 61013.35567395159, 103650.5599201393, 64852.871281250875, 69642.60424883416, 0.036000000000000004, 0.9500000000000001, 0.098, 192.0, 0.0, 0.0, 0.0, 0.0, 0.0, 0.0, 0.0, 0.0, 0.0, 1.6665565138416173E9, 0.0, 2022-10-23 13:21:53.841
88.0, -85359.07690037214, -117766.82648263294, 47858.03530908052, 48820.143797414756, 60815.386273310934, 103408.13289977705, 64592.20523741308, 69176.32450775201, 0.036000000000000004, 0.9500000000000001, 0.098, 192.0, 0.0, 0.0, 0.0, 0.0, 0.0, 0.0, 0.0, 0.0, 0.0, 1.6665565138416252E9, 0.0, 2022-10-23 13:21:53.841
89.0, -85340.21202805186, -117743.35715095486, 45857.06244195252, 48833.66660281022, 60794.53209573413, 102658.2765767904, 63338.0488560258, 68000.46628719167, 0.036000000000000004, 0.9500000000000001, 0.098, 192.0, 0.0, 0.0, 0.0, 0.0, 0.0, 0.0, 0.0, 0.0, 0.0, 1.666556513841633E9, 0.0, 2022-10-23 13:21:53.841
90.0, -85376.37715058055, -117773.26378503606, 45791.325961509465, 48980.942247026236, 60909.19654478986, 102752.10920001379, 63394.30819681981, 68227.8058800466, 0.036000000000000004, 0.9500000000000001, 0.098, 192.0, 0.0, 0.0, 0.0, 0.0, 0.0, 0.0, 0.0, 0.0, 0.0, 1.6665565138416407E9, 0.0, 2022-10-23 13:21:53.841
91.0, -85411.5140928643, -117810.16651513179, 47605.28178277991, 49136.420981457355, 61028.063121803185, 103482.54185706876, 64559.392876552694, 69404.64757736296, 0.036000000000000004, 0.9500000000000001, 0.098, 192.0, 0.0, 0.0, 0.0, 0.0, 0.0, 0.0, 0.0, 0.0, 0.0, 1.6665565138416483E9, 0.0, 2022-10-23 13:21:53.841
92.0, -85369.31399933268, -117770.38041000134, 48167.69637676435, 48890.32827500442, 60882.374451443495, 103536.32015422823, 64773.92491983473, 69410.30256871016, 0.036000000000000004, 0.9500000000000001, 0.098, 192.0, 0.0, 0.0, 0.0, 0.0, 0.0, 0.0, 0.0, 0.0, 0.0, 1.6665565138416567E9, 0.0, 2022-10-23 13:21:53.841
93.0, -85334.80290589368, -117738.4844706636, 46039.229159263276, 48800.3178000829, 60791.60401721049, 102707.96450471456, 63416.861106975215, 68068.1697211468, 0.036000000000000004, 0.9500000000000001, 0.098, 192.0, 0.0, 0.0, 0.0, 0.0, 0.0, 0.0, 0.0, 0.0, 0.0, 1.6665565138416662E9, 0.0, 2022-10-23 13:21:53.841
94.0, -85361.02150213976, -117760.65740116328, 45654.51093369853, 48956.37767986985, 60900.3229022411, 102679.30956832285, 63270.77010521533, 68103.7313465752, 0.036000000000000004, 0.9500000000000001, 0.098, 192.0, 0.0, 0.0, 0.0, 0.0, 0.0, 0.0, 0.0, 0.0, 0.0, 1.666556513841674E9, 0.0, 2022-10-23 13:21:53.841
95.0, -85413.68221207646, -117812.93813144424, 47133.74938175075, 49108.928335777324, 61014.31679896317, 103302.18563105889, 64246.557861156216, 69134.75026306513, 0.036000000000000004, 0.9480000000000001, 0.09, 192.0, 1.0, 32.0, 29.0, 160.0, 2.0, 208.0, 0.0, 0.0, 0.0, 1.666556513841689E9, 0.0, 2022-10-23 13:21:53.841
96.0, -85378.88054595955, -117783.23266306314, 48381.78138515728, 48940.9996796846, 60919.970085617315, 103651.00695502841, 64915.322055259, 69607.8249344617, 0.036000000000000004, 0.9480000000000001, 0.09, 192.0, 0.0, 0.0, 0.0, 0.0, 0.0, 0.0, 0.0, 0.0, 0.0, 1.6665565138416984E9, 0.0, 2022-10-23 13:21:53.841
97.0, -85322.95648133237, -117727.50976413606, 46287.55704016174, 48778.971884128085, 60774.97431933574, 102777.14315380373, 63536.48764330002, 68183.97410916974, 0.036000000000000004, 0.9480000000000001, 0.09, 192.0, 0.0, 0.0, 0.0, 0.0, 0.0, 0.0, 0.0, 0.0, 0.0, 1.6665565138417065E9, 0.0, 2022-10-23 13:21:53.841
98.0, -85355.9476561484, -117754.95770632717, 45572.21181061409, 48945.850008231406, 60883.268521221704, 102623.7207798625, 63179.530284348766, 68009.38463322933, 0.036000000000000004, 0.9480000000000001, 0.09, 192.0, 0.0, 0.0, 0.0, 0.0, 0.0, 0.0, 0.0, 0.0, 0.0, 1.6665565138417144E9, 0.0, 2022-10-23 13:21:53.841
99.0, -85411.1117614641, -117808.51248604209, 46713.648344713256, 49097.059559471556, 60989.72988006233, 103139.17435874634, 63966.89283453141, 68883.85193155431, 0.036000000000000004, 0.9480000000000001, 0.09, 192.0, 0.0, 0.0, 0.0, 0.0, 0.0, 0.0, 0.0, 0.0, 0.0, 1.6665565138417222E9, 0.0, 2022-10-23 13:21:53.841
100.0, -85415.62681384406, -117812.64755876632, 48465.26515069785, 49004.143357770845, 60944.55700451816, 103699.7784614299, 64973.34718386498, 69724.34457830722, 0.036000000000000004, 0.9480000000000001, 0.09, 192.0, 0.0, 0.0, 0.0, 0.0, 0.0, 0.0, 0.0, 0.0, 0.0, 1.66655651384173E9, 0.0, 2022-10-23 13:21:53.841
101.0, -85353.71248170287, -117753.70600863767, 46682.400605964736, 48755.72606989456, 60758.277566227625, 102909.39842574578, 63763.62607045485, 68404.63053043254, 0.036000000000000004, 0.9480000000000001, 0.09, 192.0, 0.0, 0.0, 0.0, 0.0, 0.0, 0.0, 0.0, 0.0, 0.0, 1.6665565138417387E9, 0.0, 2022-10-23 13:21:53.841
102.0, -85369.17988886594, -117769.97807860114, 45607.37110464229, 48906.73445543462, 60853.83127377406, 102612.74607333494, 63178.412697126, 67982.24961546059, 0.036000000000000004, 0.9480000000000001, 0.09, 192.0, 0.0, 0.0, 0.0, 0.0, 0.0, 0.0, 0.0, 0.0, 0.0, 1.6665565138417468E9, 0.0, 2022-10-23 13:21:53.841
103.0, -85398.32656363567, -117797.02368939207, 46382.90958200808, 49055.15003861786, 60959.890301214495, 103007.58963913795, 63752.070218571454, 68669.74457141693, 0.036000000000000004, 0.9480000000000001, 0.09, 192.0, 0.0, 0.0, 0.0, 0.0, 0.0, 0.0, 0.0, 0.0, 0.0, 1.6665565138417544E9, 0.0, 2022-10-23 13:21:53.841
104.0, -85406.21672942839, -117816.06737566799, 48407.08355988069, 49068.85165796896, 60983.78431603722, 103710.37318830172, 64955.39873306736, 69757.58162231227, 0.036000000000000004, 0.9560000000000001, 0.092, 192.0, 1.0, 32.0, 29.0, 224.0, 2.0, 224.0, 0.0, 0.0, 0.0, 1.6665565138417623E9, 0.0, 2022-10-23 13:21:53.841
105.0, -85342.22368505284, -117756.38821797232, 47100.110006345516, 48763.37036649828, 60763.843150597, 103061.59145374197, 64007.9082856069, 68651.55025143031, 0.036000000000000004, 0.9560000000000001, 0.092, 192.0, 0.0, 0.0, 0.0, 0.0, 0.0, 0.0, 0.0, 0.0, 0.0, 1.6665565138417704E9, 0.0, 2022-10-23 13:21:53.841
106.0, -85353.6454264695, -117753.5942499154, 45646.46430569462, 48890.06005407096, 60836.35220961001, 102593.9706079925, 63154.49633055882, 67945.90567897627, 0.036000000000000004, 0.9560000000000001, 0.092, 192.0, 0.0, 0.0, 0.0, 0.0, 0.0, 0.0, 0.0, 0.0, 0.0, 1.6665565138417785E9, 0.0, 2022-10-23 13:21:53.841
107.0, -85379.3499325931, -117779.4999217391, 46104.13862516149, 49034.497026741155, 60950.50256854327, 102880.54232365398, 63535.12418688824, 68469.89762424203, 0.036000000000000004, 0.9560000000000001, 0.092, 192.0, 0.0, 0.0, 0.0, 0.0, 0.0, 0.0, 0.0, 0.0, 0.0, 1.6665565138417861E9, 0.0, 2022-10-23 13:21:53.841
108.0, -85409.94947075241, -117809.0042244201, 48222.838130335585, 49122.20527198378, 61023.97275256786, 103664.6191674017, 64835.43692057573, 69700.80819139579, 0.036000000000000004, 0.9560000000000001, 0.092, 192.0, 0.0, 0.0, 0.0, 0.0, 0.0, 0.0, 0.0, 0.0, 0.0, 1.666556513841794E9, 0.0, 2022-10-23 13:21:53.841
109.0, -85359.30041781669, -117759.02572381803, 47557.96313976803, 48793.925201168684, 60796.27553180165, 103235.0633424596, 64270.98831784586, 68941.56413573792, 0.036000000000000004, 0.9560000000000001, 0.092, 192.0, 0.0, 0.0, 0.0, 0.0, 0.0, 0.0, 0.0, 0.0, 0.0, 1.6665565138418016E9, 0.0, 2022-10-23 13:21:53.841
110.0, -85348.3927665225, -117752.14138652581, 45743.8955597753, 48860.3322339454, 60817.59909601201, 102595.35641614872, 63167.10271443161, 67945.90567897627, 0.036000000000000004, 0.9560000000000001, 0.092, 192.0, 0.0, 0.0, 0.0, 0.0, 0.0, 0.0, 0.0, 0.0, 0.0, 1.6665565138418164E9, 0.0, 2022-10-23 13:21:53.841
111.0, -85381.4509965719, -117787.54654974301, 45894.926297059814, 49001.148224013836, 60925.02157986422, 102775.80204913642, 63365.31798426127, 68301.14195360446, 0.036000000000000004, 0.9560000000000001, 0.092, 192.0, 0.0, 0.0, 0.0, 0.0, 0.0, 0.0, 0.0, 0.0, 0.0, 1.6665565138418243E9, 0.0, 2022-10-23 13:21:53.841
112.0, -85410.910595764, -117814.12277390037, 47878.37539653485, 49139.840798359015, 61027.97371482536, 103543.15978803155, 64613.17117371216, 69528.67740734547, 0.036000000000000004, 0.9560000000000001, 0.092, 192.0, 0.0, 0.0, 0.0, 0.0, 0.0, 0.0, 0.0, 0.0, 0.0, 1.6665565138418324E9, 0.0, 2022-10-23 13:21:53.841
113.0, -85361.46853702886, -117768.30169776699, 47979.762909384124, 48845.96006226064, 60843.6612300469, 103411.21744051189, 64531.81082389484, 69234.01436019115, 0.036000000000000004, 0.9560000000000001, 0.092, 192.0, 0.0, 0.0, 0.0, 0.0, 0.0, 0.0, 0.0, 0.0, 0.0, 1.6665565138418417E9, 0.0, 2022-10-23 13:21:53.841
114.0, -85334.62409193804, -117743.75948235506, 45904.51519543114, 48830.38089637529, 60796.163773079374, 102618.69163736005, 63222.870316847606, 67983.38955442782, 0.036000000000000004, 0.9580000000000001, 0.094, 192.0, 1.0, 32.0, 29.0, 240.0, 2.0, 240.0, 0.0, 0.0, 0.0, 1.666556513841852E9, 0.0, 2022-10-23 13:21:53.841
115.0, -85373.22555461235, -117781.77979967355, 45745.9966237541, 48974.147316711824, 60904.5250301987, 102681.07535613482, 63224.77021512631, 68159.1413210799, 0.036000000000000004, 0.9580000000000001, 0.094, 192.0, 0.0, 0.0, 0.0, 0.0, 0.0, 0.0, 0.0, 0.0, 0.0, 1.6665565138418608E9, 0.0, 2022-10-23 13:21:53.841
116.0, -85422.4664476474, -117823.9128379718, 47462.856467110694, 49129.31312672057, 61013.46743267387, 103379.34385291861, 64336.814205266746, 69297.62742491096, 0.036000000000000004, 0.9580000000000001, 0.094, 192.0, 0.0, 0.0, 0.0, 0.0, 0.0, 0.0, 0.0, 0.0, 0.0, 1.6665565138418686E9, 0.0, 2022-10-23 13:21:53.841
117.0, -85386.21191814088, -117788.86530266587, 48274.0459768827, 48909.30490604698, 60880.832181076075, 103533.74970361587, 64710.84829698185, 69467.9477176604, 0.036000000000000004, 0.9580000000000001, 0.094, 192.0, 0.0, 0.0, 0.0, 0.0, 0.0, 0.0, 0.0, 0.0, 0.0, 1.6665565138418765E9, 0.0, 2022-10-23 13:21:53.841
118.0, -85351.9466938909, -117757.17052902826, 46129.887834774, 48792.42763429018, 60775.689575158314, 102678.05787063336, 63329.48813789942, 68078.92091022979, 0.036000000000000004, 0.9580000000000001, 0.094, 192.0, 0.0, 0.0, 0.0, 0.0, 0.0, 0.0, 0.0, 0.0, 0.0, 1.6665565138418841E9, 0.0, 2022-10-23 13:21:53.841
119.0, -85378.88054595955, -117781.91391014027, 45647.537189428476, 48942.6537087743, 60879.8710560645, 102620.63623912768, 63129.28356281323, 68055.20570936271, 0.036000000000000004, 0.9580000000000001, 0.094, 192.0, 0.0, 0.0, 0.0, 0.0, 0.0, 0.0, 0.0, 0.0, 0.0, 1.666556513841892E9, 0.0, 2022-10-23 13:21:53.841
120.0, -85410.5082643638, -117811.1052883989, 46989.40181605838, 49110.2917921891, 60995.42957489844, 103201.51337403219, 64029.72358819528, 69025.45023267869, 0.036000000000000004, 0.9580000000000001, 0.094, 192.0, 0.0, 0.0, 0.0, 0.0, 0.0, 0.0, 0.0, 0.0, 0.0, 1.6665565138418999E9, 0.0, 2022-10-23 13:21:53.841
121.0, -85385.6084210406, -117793.11213411238, 48404.80368194624, 48975.60018010142, 60926.36268453154, 103617.61344881219, 64808.52542025154, 69625.32635037022, 0.036000000000000004, 0.9580000000000001, 0.094, 192.0, 0.0, 0.0, 0.0, 0.0, 0.0, 0.0, 0.0, 0.0, 0.0, 1.6665565138419104E9, 0.0, 2022-10-23 13:21:53.841
122.0, -85333.77472564873, -117745.88289807831, 46386.687026821026, 48768.623026445275, 60759.685726128315, 102763.32977573035, 63475.579139659305, 68224.76604280068, 0.036000000000000004, 0.9580000000000001, 0.094, 192.0, 0.0, 0.0, 0.0, 0.0, 0.0, 0.0, 0.0, 0.0, 0.0, 1.6665565143211188E9, 0.0, 2022-10-23 13:21:54.321
123.0, -85361.24501958431, -117775.34249727041, 45516.33244947582, 48923.58767075392, 60857.49695986474, 102547.32251731427, 63026.73375925229, 67956.20983317016, 0.036000000000000004, 0.9580000000000001, 0.094, 192.0, 0.0, 0.0, 0.0, 0.0, 0.0, 0.0, 0.0, 0.0, 0.0, 1.6665565143211515E9, 0.0, 2022-10-23 13:21:54.321
124.0, -85390.27993563176, -117800.26469233808, 46476.33987383126, 49081.547448819576, 60970.28386238621, 103008.72957810517, 63711.881782040815, 68746.3216479208, 0.034, 0.9540000000000001, 0.092, 192.0, 1.0, 16.0, 29.0, 208.0, 2.0, 224.0, 0.0, 0.0, 0.0, 1.6665565143211732E9, 0.0, 2022-10-23 13:21:54.321
125.0, -85393.29742113322, -117803.81861970648, 48272.906037915476, 49033.915881385314, 60955.352897090066, 103603.48714631643, 64754.45655041416, 69658.29517344179, 0.034, 0.9540000000000001, 0.092, 192.0, 0.0, 0.0, 0.0, 0.0, 0.0, 0.0, 0.0, 0.0, 0.0, 1.6665565143211894E9, 0.0, 2022-10-23 13:21:54.321
126.0, -85329.14791454648, -117741.25608697606, 46581.03544485992, 48761.47046821958, 60760.0433540396, 102843.10315169135, 63596.815001584895, 68390.63833840351, 0.034, 0.9540000000000001, 0.092, 192.0, 0.0, 0.0, 0.0, 0.0, 0.0, 0.0, 0.0, 0.0, 0.0, 1.6665565143212752E9, 0.0, 2022-10-23 13:21:54.321
127.0, -85349.48800200081, -117752.49901443708, 45339.61955781216, 48911.2942113035, 60857.273442420184, 102490.01264453086, 62911.97990321874, 67876.25764325353, 0.034, 0.9540000000000001, 0.092, 192.0, 0.0, 0.0, 0.0, 0.0, 0.0, 0.0, 0.0, 0.0, 0.0, 1.6665565143212836E9, 0.0, 2022-10-23 13:21:54.321
128.0, -85391.62104029907, -117791.94984340071, 45960.796887969605, 49047.41633503632, 60950.614327265546, 102836.75525626604, 63401.23723760096, 68498.2172844669, 0.034, 0.9540000000000001, 0.092, 192.0, 0.0, 0.0, 0.0, 0.0, 0.0, 0.0, 0.0, 0.0, 0.0, 1.6665565143212917E9, 0.0, 2022-10-23 13:21:54.321
129.0, -85413.68221207646, -117815.24036112314, 48001.19823231676, 49088.27532390062, 60992.41208939697, 103572.01589012337, 64640.44030194764, 69650.58382160471, 0.034, 0.9540000000000001, 0.092, 192.0, 0.0, 0.0, 0.0, 0.0, 0.0, 0.0, 0.0, 0.0, 0.0, 1.6665565143213E9, 0.0, 2022-10-23 13:21:54.321
130.0, -85352.66194971347, -117760.92562209674, 46901.09007371546, 48770.8134974019, 60771.73331638972, 103014.60808689691, 63835.71044632322, 68677.09829534273, 0.034, 0.9540000000000001, 0.092, 192.0, 0.0, 0.0, 0.0, 0.0, 0.0, 0.0, 0.0, 0.0, 0.0, 1.666556514321308E9, 0.0, 2022-10-23 13:21:54.321
131.0, -85358.38399629403, -117765.66419192127, 45270.30679825626, 48867.77536484902, 60810.69240697532, 102472.19830419998, 62875.412449289855, 67854.44234066515, 0.034, 0.9540000000000001, 0.092, 192.0, 0.0, 0.0, 0.0, 0.0, 0.0, 0.0, 0.0, 0.0, 0.0, 1.666556514321316E9, 0.0, 2022-10-23 13:21:54.321
132.0, -85385.58606929613, -117791.14518060032, 45578.872630461774, 49016.34741024344, 60926.72031244282, 102714.96060072907, 63181.43018262747, 68315.67058750041, 0.034, 0.9540000000000001, 0.092, 192.0, 0.0, 0.0, 0.0, 0.0, 0.0, 0.0, 0.0, 0.0, 0.0, 1.6665565143213239E9, 0.0, 2022-10-23 13:21:54.321
133.0, -85404.1603689385, -117810.2559221096, 47625.107780111764, 49132.33061222203, 61018.049540287204, 103493.44950836296, 64460.464055593504, 69557.19823327044, 0.034, 0.9540000000000001, 0.092, 192.0, 0.0, 0.0, 0.0, 0.0, 0.0, 0.0, 0.0, 0.0, 0.0, 1.6665565143213317E9, 0.0, 2022-10-23 13:21:54.321
134.0, -85343.90006588699, -117754.13069178232, 47207.35367624208, 48822.71424802712, 60815.386273310934, 103175.51829523066, 64065.48637932377, 68969.10148490686, 0.036000000000000004, 0.9560000000000001, 0.09, 192.0, 1.0, 32.0, 29.0, 224.0, 2.0, 208.0, 0.0, 0.0, 0.0, 1.6665565143213444E9, 0.0, 2022-10-23 13:21:54.321
135.0, -85346.6940339439, -117752.14138652581, 45287.137661831104, 48847.055297738945, 60810.24537208622, 102497.9922173014, 62899.84290597951, 67892.03797483897, 0.036000000000000004, 0.9560000000000001, 0.09, 192.0, 0.0, 0.0, 0.0, 0.0, 0.0, 0.0, 0.0, 0.0, 0.0, 1.6665565143213532E9, 0.0, 2022-10-23 13:21:54.321
136.0, -85384.26731637327, -117788.32886079895, 45288.07643509823, 48971.62156958837, 60897.886562095475, 102619.33983794926, 63010.551096266645, 68166.45034151679, 0.036000000000000004, 0.9560000000000001, 0.09, 192.0, 0.0, 0.0, 0.0, 0.0, 0.0, 0.0, 0.0, 0.0, 0.0, 1.6665565143213608E9, 0.0, 2022-10-23 13:21:54.321
137.0, -85413.81632254319, -117826.97502696217, 47133.07882941709, 49129.58134765403, 61006.091357003614, 103349.3925153485, 64189.69502326191, 69354.19969012734, 0.036000000000000004, 0.9560000000000001, 0.09, 192.0, 0.0, 0.0, 0.0, 0.0, 0.0, 0.0, 0.0, 0.0, 0.0, 1.6665565143213687E9, 0.0, 2022-10-23 13:21:54.321
138.0, -85374.16432787948, -117790.98871838913, 47452.48525768343, 48860.7345653456, 60836.06163693209, 103313.62972422001, 64257.10788453912, 69219.84335420649, 0.036000000000000004, 0.9560000000000001, 0.09, 192.0, 0.0, 0.0, 0.0, 0.0, 0.0, 0.0, 0.0, 0.0, 0.0, 1.6665565143213768E9, 0.0, 2022-10-23 13:21:54.321
139.0, -85355.50062125929, -117762.22202327514, 45293.48555725641, 48805.61516351881, 60768.64877565489, 102489.18562998601, 62900.91578971336, 67908.75707969154, 0.036000000000000004, 0.9560000000000001, 0.09, 192.0, 0.0, 0.0, 0.0, 0.0, 0.0, 0.0, 0.0, 0.0, 0.0, 1.666556514321385E9, 0.0, 2022-10-23 13:21:54.321
140.0, -85389.89995597601, -117796.68841322523, 44987.33371345207, 48950.99090945613, 60876.5182943962, 102508.60929591767, 62826.79740509956, 68016.6042466884, 0.036000000000000004, 0.9560000000000001, 0.09, 192.0, 0.0, 0.0, 0.0, 0.0, 0.0, 0.0, 0.0, 0.0, 0.0, 1.6665565143213928E9, 0.0, 2022-10-23 13:21:54.321
141.0, -85411.49174111984, -117819.53189605856, 46546.59140665429, 49131.48124593273, 61004.97376978085, 103172.27729228465, 63866.89112983837, 69107.65994878531, 0.036000000000000004, 0.9560000000000001, 0.09, 192.0, 0.0, 0.0, 0.0, 0.0, 0.0, 0.0, 0.0, 0.0, 0.0, 1.6665565143214269E9, 0.0, 2022-10-23 13:21:54.321
142.0, -85383.59676403961, -117794.00620389059, 47570.94950329656, 48942.81017098548, 60902.222800519805, 103430.05996108771, 64399.46614497497, 69449.88750814051, 0.036000000000000004, 0.9560000000000001, 0.09, 192.0, 0.0, 0.0, 0.0, 0.0, 0.0, 0.0, 0.0, 0.0, 0.0, 1.6665565143214347E9, 0.0, 2022-10-23 13:21:54.321
143.0, -85351.32084504615, -117756.67879065023, 45414.14027382616, 48786.0126836315, 60770.995708822695, 102562.6111105217, 63014.66381724642, 68038.93363939926, 0.034, 0.962, 0.092, 192.0, 1.0, 16.0, 30.0, 16.0, 2.0, 224.0, 0.0, 0.0, 0.0, 1.6665565143214428E9, 0.0, 2022-10-23 13:21:54.321
144.0, -85384.3567233511, -117790.13935209982, 44763.34688226544, 48935.858778459886, 60875.84774206254, 102447.16435041004, 62720.2019357922, 67925.45383279966, 0.034, 0.962, 0.092, 192.0, 0.0, 0.0, 0.0, 0.0, 0.0, 0.0, 0.0, 0.0, 0.0, 1.666556514321452E9, 0.0, 2022-10-23 13:21:54.321
145.0, -85429.90957855101, -117834.0605299545, 45970.206972385284, 49091.538678591096, 60983.73961254831, 102998.00074076663, 63561.856873256795, 68844.8481374798, 0.034, 0.962, 0.092, 192.0, 0.0, 0.0, 0.0, 0.0, 0.0, 0.0, 0.0, 0.0, 0.0, 1.6665565143214595E9, 0.0, 2022-10-23 13:21:54.321
146.0, -85411.58114809766, -117815.39682333432, 47549.00009024145, 48995.64969487783, 60933.02350437922, 103496.75756654234, 64464.733238784465, 69581.29341379326, 0.034, 0.962, 0.092, 192.0, 0.0, 0.0, 0.0, 0.0, 0.0, 0.0, 0.0, 0.0, 0.0, 1.6665565143214679E9, 0.0, 2022-10-23 13:21:54.321
147.0, -85356.48409801532, -117757.72932263963, 45595.45762484761, 48763.236256031545, 60752.86844406944, 102655.39320175568, 63165.38163010855, 68200.33558611102, 0.034, 0.962, 0.092, 192.0, 0.0, 0.0, 0.0, 0.0, 0.0, 0.0, 0.0, 0.0, 0.0, 1.6665565143214757E9, 0.0, 2022-10-23 13:21:54.321
148.0, -85382.79210123922, -117780.93043338424, 44621.70387765216, 48925.644031243806, 60865.47653263528, 102423.44914954295, 62669.35171715638, 67877.71050664312, 0.034, 0.962, 0.092, 192.0, 0.0, 0.0, 0.0, 0.0, 0.0, 0.0, 0.0, 0.0, 0.0, 1.6665565143214839E9, 0.0, 2022-10-23 13:21:54.321
149.0, -85410.44120913044, -117812.20052387721, 45493.444263153586, 49074.64075978289, 60968.987461207806, 102873.52387589501, 63321.843841295704, 68636.30636171179, 0.034, 0.962, 0.092, 192.0, 0.0, 0.0, 0.0, 0.0, 0.0, 0.0, 0.0, 0.0, 0.0, 1.6665565143214917E9, 0.0, 2022-10-23 13:21:54.321
150.0, -85414.5092266213, -117821.58825654845, 47406.12773968312, 49061.2297131097, 60970.105048430574, 103529.72638961392, 64455.68078228007, 69651.07555998272, 0.034, 0.962, 0.092, 192.0, 0.0, 0.0, 0.0, 0.0, 0.0, 0.0, 0.0, 0.0, 0.0, 1.6665565143214996E9, 0.0, 2022-10-23 13:21:54.321
151.0, -85351.83493516862, -117760.76915988556, 45922.79892239558, 48765.896113621726, 60763.61963315245, 102840.64445980126, 63426.11472917971, 68477.20664467891, 0.034, 0.962, 0.092, 192.0, 0.0, 0.0, 0.0, 0.0, 0.0, 0.0, 0.0, 0.0, 0.0, 1.666556514321508E9, 0.0, 2022-10-23 13:21:54.321
152.0, -85361.89322017352, -117766.6923721662, 44559.72249027759, 48900.16304256476, 60840.487282334245, 102431.38401882458, 62659.56165308496, 67860.67847736817, 0.034, 0.962, 0.092, 192.0, 0.0, 0.0, 0.0, 0.0, 0.0, 0.0, 0.0, 0.0, 0.0, 1.666556514321516E9, 0.0, 2022-10-23 13:21:54.321
153.0, -85390.34699086512, -117798.02951789254, 45090.57642109114, 49043.23655882318, 60952.290708099696, 102757.87595008325, 63105.52365845724, 68437.04055989273, 0.036000000000000004, 0.9580000000000001, 0.09, 192.0, 1.0, 32.0, 29.0, 240.0, 2.0, 208.0, 0.0, 0.0, 0.0, 1.666556514321524E9, 0.0, 2022-10-23 13:21:54.321
154.0, -85407.49077886234, -117818.57077104697, 47184.2866759642, 49111.20821371177, 61017.714264120375, 103529.03348553581, 64395.15225829509, 69640.97257148894, 0.036000000000000004, 0.9580000000000001, 0.09, 192.0, 0.0, 0.0, 0.0, 0.0, 0.0, 0.0, 0.0, 0.0, 0.0, 1.6665565143215325E9, 0.0, 2022-10-23 13:21:54.321
155.0, -85362.22849634034, -117771.6991629242, 46326.51613074734, 48785.94562839814, 60794.12976433394, 103041.7207529212, 63732.08775902841, 68785.99599432899, 0.036000000000000004, 0.9580000000000001, 0.09, 192.0, 0.0, 0.0, 0.0, 0.0, 0.0, 0.0, 0.0, 0.0, 0.0, 1.6665565143215404E9, 0.0, 2022-10-23 13:21:54.321
156.0, -85367.61526675407, -117767.47468322214, 44615.7806653715, 48866.52366715952, 60824.25991585969, 102462.69881280647, 62719.33021775845, 67882.42672472319, 0.036000000000000004, 0.9580000000000001, 0.09, 192.0, 0.0, 0.0, 0.0, 0.0, 0.0, 0.0, 0.0, 0.0, 0.0, 1.6665565143215497E9, 0.0, 2022-10-23 13:21:54.321
157.0, -85388.42474084196, -117791.03342187803, 44856.82187757753, 49015.27452650959, 60936.57743174761, 102689.30079809438, 62990.345119279045, 68298.52679950319, 0.036000000000000004, 0.9580000000000001, 0.09, 192.0, 0.0, 0.0, 0.0, 0.0, 0.0, 0.0, 0.0, 0.0, 0.0, 1.6665565143215775E9, 0.0, 2022-10-23 13:21:54.321
158.0, -85421.68413659146, -117828.96433221869, 46871.205791378714, 49134.2975657341, 61015.36733095257, 103456.47972303387, 64252.86105309261, 69525.68227358846, 0.036000000000000004, 0.9580000000000001, 0.09, 192.0, 0.0, 0.0, 0.0, 0.0, 0.0, 0.0, 0.0, 0.0, 0.0, 1.6665565143215857E9, 0.0, 2022-10-23 13:21:54.321
159.0, -85377.67355175895, -117792.59804398991, 46752.80860099896, 48829.66564055272, 60816.39210181143, 103239.7125053063, 64039.87128017799, 69098.98747193665, 0.036000000000000004, 0.9580000000000001, 0.09, 192.0, 0.0, 0.0, 0.0, 0.0, 0.0, 0.0, 0.0, 0.0, 0.0, 1.6665565143215935E9, 0.0, 2022-10-23 13:21:54.321
160.0, -85358.67456897194, -117773.35319201389, 44777.11555684991, 48834.94065224417, 60789.72647067624, 102518.71228441148, 62826.79740509956, 67942.26234463004, 0.036000000000000004, 0.9580000000000001, 0.09, 192.0, 0.0, 0.0, 0.0, 0.0, 0.0, 0.0, 0.0, 0.0, 0.0, 1.6665565143216012E9, 0.0, 2022-10-23 13:21:54.321
161.0, -85388.89412747552, -117799.37062255987, 44726.57826263646, 48985.88198255086, 60901.99928307525, 102633.53319567838, 62909.78943226212, 68184.19762661429, 0.036000000000000004, 0.9580000000000001, 0.09, 192.0, 0.0, 0.0, 0.0, 0.0, 0.0, 0.0, 0.0, 0.0, 0.0, 1.6665565143216093E9, 0.0, 2022-10-23 13:21:54.321
162.0, -85428.34495643913, -117838.62028582339, 46546.434944443106, 49143.282967005136, 61016.239048986325, 103370.09023071412, 64087.77106854571, 69364.86147223253, 0.036000000000000004, 0.9580000000000001, 0.09, 192.0, 0.0, 0.0, 0.0, 0.0, 0.0, 0.0, 0.0, 0.0, 0.0, 1.6665565143216171E9, 0.0, 2022-10-23 13:21:54.321
163.0, -85396.49372059033, -117806.5008290411, 47191.97567605683, 48900.274801287036, 60861.02853548867, 103458.24551084585, 64361.758752078866, 69413.96825480083, 0.032, 0.9480000000000001, 0.09, 192.0, 1.0, 0.0, 29.0, 160.0, 2.0, 208.0, 0.0, 0.0, 0.0, 1.6665565143216252E9, 0.0, 2022-10-23 13:21:54.321
164.0, -85362.96610390737, -117770.15689255678, 45051.37146131652, 48797.72499772609, 60754.008383036664, 102606.97932326548, 62992.088555346556, 68044.02983713507, 0.032, 0.9480000000000001, 0.09, 192.0, 0.0, 0.0, 0.0, 0.0, 0.0, 0.0, 0.0, 0.0, 0.0, 1.6665565143216338E9, 0.0, 2022-10-23 13:21:54.321
165.0, -85377.96412443688, -117787.63595672083, 44660.59591300439, 48968.60408408691, 60885.81662008961, 102586.19220092204, 62852.30074552307, 68079.63616605237, 0.032, 0.9480000000000001, 0.09, 192.0, 0.0, 0.0, 0.0, 0.0, 0.0, 0.0, 0.0, 0.0, 0.0, 1.6665565143216417E9, 0.0, 2022-10-23 13:21:54.321
166.0, -85414.5092266213, -117822.90700947131, 46133.41941039794, 49134.00699305618, 61007.65597911549, 103210.14114739194, 63831.93300151027, 69111.68326278726, 0.032, 0.9480000000000001, 0.09, 192.0, 0.0, 0.0, 0.0, 0.0, 0.0, 0.0, 0.0, 0.0, 0.0, 1.6665565143216496E9, 0.0, 2022-10-23 13:21:54.321
167.0, -85402.81926427118, -117810.99352967663, 47426.42312364854, 48966.4583166192, 60920.21595480633, 103571.74766918989, 64530.357960505244, 69612.8317252197, 0.032, 0.9480000000000001, 0.09, 192.0, 0.0, 0.0, 0.0, 0.0, 0.0, 0.0, 0.0, 0.0, 0.0, 1.6665565143216577E9, 0.0, 2022-10-23 13:21:54.321
168.0, -85358.38399629403, -117768.547566956, 45386.491165934945, 48779.597732972834, 60764.580758164026, 102725.01888573395, 63194.79652581174, 68211.64556880541, 0.032, 0.9480000000000001, 0.09, 192.0, 0.0, 0.0, 0.0, 0.0, 0.0, 0.0, 0.0, 0.0, 0.0, 1.666556514321667E9, 0.0, 2022-10-23 13:21:54.321
169.0, -85381.58510703864, -117789.35704104388, 44674.05166316649, 48944.57595879745, 60871.19857921584, 102573.87638972717, 62845.572870442025, 68025.92492412626, 0.032, 0.9480000000000001, 0.09, 192.0, 0.0, 0.0, 0.0, 0.0, 0.0, 0.0, 0.0, 0.0, 0.0, 1.666556514321675E9, 0.0, 2022-10-23 13:21:54.321
170.0, -85403.19924392692, -117816.64852102382, 45799.01496160209, 49107.56487936555, 60988.9475690064, 103089.88876222238, 63627.414539744204, 68888.90342580121, 0.032, 0.9480000000000001, 0.09, 192.0, 0.0, 0.0, 0.0, 0.0, 0.0, 0.0, 0.0, 0.0, 0.0, 1.6665565143216827E9, 0.0, 2022-10-23 13:21:54.321
171.0, -85393.18566241094, -117812.60285527741, 47573.49760216446, 49043.929462901295, 60969.322737374634, 103670.49767619344, 64652.778464886964, 69750.65258153112, 0.032, 0.9480000000000001, 0.09, 192.0, 0.0, 0.0, 0.0, 0.0, 0.0, 0.0, 0.0, 0.0, 0.0, 1.6665565143216908E9, 0.0, 2022-10-23 13:21:54.321
172.0, -85351.81258342417, -117756.00823831657, 45805.04993260503, 48778.770718427986, 60765.765400620156, 102877.12250675232, 63449.80757830234, 68426.1999638319, 0.03, 0.9540000000000001, 0.09, 192.0, 0.0, 240.0, 29.0, 208.0, 2.0, 208.0, 0.0, 0.0, 0.0, 1.6665565143217187E9, 0.0, 2022-10-23 13:21:54.321
173.0, -85388.5588513087, -117786.89834915381, 44684.15465166028, 48908.924926391235, 60841.046075945625, 102549.75885745989, 62828.76435861163, 67960.85899601686, 0.03, 0.9540000000000001, 0.09, 192.0, 0.0, 0.0, 0.0, 0.0, 0.0, 0.0, 0.0, 0.0, 0.0, 1.6665565143217275E9, 0.0, 2022-10-23 13:21:54.321
174.0, -85413.16812195399, -117819.1072129139, 45444.62805326319, 49059.66509099783, 60951.77661797722, 102946.41291456377, 63400.41022305611, 68643.59303040421, 0.03, 0.9540000000000001, 0.09, 192.0, 0.0, 0.0, 0.0, 0.0, 0.0, 0.0, 0.0, 0.0, 0.0, 1.6665565143217351E9, 0.0, 2022-10-23 13:21:54.321
175.0, -85404.1603689385, -117813.87690471136, 47471.05955732579, 49090.73401579071, 60986.57828409413, 103657.15368475362, 64611.807717300384, 69742.18127038256, 0.03, 0.9540000000000001, 0.09, 192.0, 0.0, 0.0, 0.0, 0.0, 0.0, 0.0, 0.0, 0.0, 0.0, 1.6665565143217432E9, 0.0, 2022-10-23 13:21:54.321
176.0, -85342.55896121966, -117755.22592726063, 46174.47956496234, 48785.051558619925, 60777.18714203682, 103007.4108251823, 63670.70986875414, 68645.202356005, 0.03, 0.9540000000000001, 0.09, 192.0, 0.0, 0.0, 0.0, 0.0, 0.0, 0.0, 0.0, 0.0, 0.0, 1.6665565143217514E9, 0.0, 2022-10-23 13:21:54.321
177.0, -85361.60264749559, -117770.42511349024, 44679.214916135665, 48894.70921691766, 60842.2083666573, 102523.78613040282, 62799.95296000874, 67914.277960572, 0.03, 0.9540000000000001, 0.09, 192.0, 0.0, 0.0, 0.0, 0.0, 0.0, 0.0, 0.0, 0.0, 0.0, 1.6665565143217607E9, 0.0, 2022-10-23 13:21:54.321
178.0, -85394.99615371182, -117802.16459061678, 45104.322743931145, 49036.66514595332, 60953.43064706691, 102807.09449137385, 63176.088115702645, 68428.01045513278, 0.03, 0.9540000000000001, 0.09, 192.0, 0.0, 0.0, 0.0, 0.0, 0.0, 0.0, 0.0, 0.0, 0.0, 1.666556514321769E9, 0.0, 2022-10-23 13:21:54.321
179.0, -85413.52574986526, -117823.19758214922, 47191.14866151198, 49129.00020229819, 61025.58207816864, 103584.51051527388, 64465.26968065139, 69657.17758621903, 0.03, 0.9540000000000001, 0.09, 192.0, 0.0, 0.0, 0.0, 0.0, 0.0, 0.0, 0.0, 0.0, 0.0, 1.6665565143217769E9, 0.0, 2022-10-23 13:21:54.321
180.0, -85366.9000109315, -117779.56697697246, 46565.12100280774, 48811.51602405501, 60809.21719184127, 103179.54160923262, 63937.52264231714, 68934.85861240132, 0.03, 0.9540000000000001, 0.09, 192.0, 0.0, 0.0, 0.0, 0.0, 0.0, 0.0, 0.0, 0.0, 0.0, 1.6665565143217845E9, 0.0, 2022-10-23 13:21:54.321
181.0, -85368.12935687654, -117775.52131122605, 44735.988347052145, 48869.988187550094, 60825.37750308246, 102544.7520667019, 62841.16957678433, 67931.06412065795, 0.03, 0.9540000000000001, 0.09, 192.0, 0.0, 0.0, 0.0, 0.0, 0.0, 0.0, 0.0, 0.0, 0.0, 1.6665565143217924E9, 0.0, 2022-10-23 13:21:54.321
182.0, -85395.10791243409, -117800.30939582699, 44818.93567072578, 49000.298857724534, 60920.48417573979, 102689.8372399613, 62997.9223606494, 68248.05656052311, 0.032, 0.96, 0.092, 192.0, 1.0, 0.0, 30.0, 0.0, 2.0, 224.0, 0.0, 0.0, 0.0, 1.6665565143218005E9, 0.0, 2022-10-23 13:21:54.321
183.0, -85428.12143899458, -117834.23934391014, 46747.57829279641, 49138.61145241398, 61023.101034534106, 103440.47587400388, 64218.640532331534, 69459.69992395639, 0.032, 0.96, 0.092, 192.0, 0.0, 0.0, 0.0, 0.0, 0.0, 0.0, 0.0, 0.0, 0.0, 1.666556514321809E9, 0.0, 2022-10-23 13:21:54.321
184.0, -85385.38490359604, -117792.97802364566, 46881.219372894695, 48846.69766982766, 60841.49311083474, 103330.90762268397, 64169.95843290788, 69201.02318537512, 0.032, 0.96, 0.092, 192.0, 0.0, 0.0, 0.0, 0.0, 0.0, 0.0, 0.0, 0.0, 0.0, 1.6665565143218167E9, 0.0, 2022-10-23 13:21:54.321
185.0, -85372.73381623434, -117779.23170080564, 44791.66654249031, 48815.00289619004, 60787.46894448626, 102548.77538070385, 62870.85269342097, 67949.8395860004, 0.032, 0.96, 0.092, 192.0, 0.0, 0.0, 0.0, 0.0, 0.0, 0.0, 0.0, 0.0, 0.0, 1.6665565143218248E9, 0.0, 2022-10-23 13:21:54.321
186.0, -85391.03989494323, -117799.99647140462, 44605.36475245533, 48981.501040637624, 60913.398672747455, 102621.4185501836, 62877.379402801926, 68124.2278962407, 0.032, 0.96, 0.092, 192.0, 0.0, 0.0, 0.0, 0.0, 0.0, 0.0, 0.0, 0.0, 0.0, 1.6665565143218327E9, 0.0, 2022-10-23 13:21:54.321
187.0, -85422.68996509195, -117835.13341368835, 46259.72911831488, 49143.193560027314, 61025.49267119083, 103300.21867754683, 63959.71792456126, 69238.37295035995, 0.032, 0.96, 0.092, 192.0, 0.0, 0.0, 0.0, 0.0, 0.0, 0.0, 0.0, 0.0, 0.0, 1.6665565143218408E9, 0.0, 2022-10-23 13:21:54.321
188.0, -85395.93492697894, -117808.49013429764, 47114.88450943047, 48928.19213011171, 60899.18296327388, 103483.01124370233, 64376.35444120818, 69451.98857211931, 0.032, 0.96, 0.092, 192.0, 0.0, 0.0, 0.0, 0.0, 0.0, 0.0, 0.0, 0.0, 0.0, 1.6665565143218687E9, 0.0, 2022-10-23 13:21:54.321
189.0, -85362.58612425163, -117765.30656400998, 44961.159820694906, 48804.1175966403, 60784.96554910726, 102625.75478860794, 63000.13518335047, 68063.74407574465, 0.032, 0.96, 0.092, 192.0, 0.0, 0.0, 0.0, 0.0, 0.0, 0.0, 0.0, 0.0, 0.0, 1.6665565143218777E9, 0.0, 2022-10-23 13:21:54.321
190.0, -85391.35281936561, -117790.83225617794, 44425.589671801295, 48964.46901136268, 60896.94778882835, 102548.44010453703, 62772.4156108398, 68020.42639499025, 0.032, 0.96, 0.092, 192.0, 0.0, 0.0, 0.0, 0.0, 0.0, 0.0, 0.0, 0.0, 0.0, 1.666556514321885E9, 0.0, 2022-10-23 13:21:54.321
191.0, -85429.66370936201, -117832.07122469798, 45781.91587709378, 49132.62118489995, 61026.18557526894, 103154.03826880912, 63699.81184003495, 69015.4366511627, 0.032, 0.96, 0.092, 192.0, 0.0, 0.0, 0.0, 0.0, 0.0, 0.0, 0.0, 0.0, 0.0, 1.6665565143218935E9, 0.0, 2022-10-23 13:21:54.321
192.0, -85412.6093283426, -117820.09068966993, 47231.89589165401, 48990.2629244641, 60940.533690516204, 103574.02754712434, 64498.372614189706, 69635.40698711955, 0.034, 0.9500000000000001, 0.09, 192.0, 1.0, 16.0, 29.0, 176.0, 2.0, 208.0, 0.0, 0.0, 0.0, 1.6665565143219013E9, 0.0, 2022-10-23 13:21:54.321
193.0, -85358.09342361611, -117767.00529658858, 45222.49641686636, 48780.24593356204, 60767.48648494321, 102714.62532456224, 63166.07453418667, 68230.21986844776, 0.034, 0.9500000000000001, 0.09, 192.0, 0.0, 0.0, 0.0, 0.0, 0.0, 0.0, 0.0, 0.0, 0.0, 1.66655651432191E9, 0.0, 2022-10-23 13:21:54.321
194.0, -85384.08850241762, -117791.36869804487, 44356.34396747875, 48936.86460696037, 60872.24911120524, 102509.10103429569, 62726.147499817314, 67962.91535650675, 0.034, 0.9500000000000001, 0.09, 192.0, 0.0, 0.0, 0.0, 0.0, 0.0, 0.0, 0.0, 0.0, 0.0, 1.666556514321918E9, 0.0, 2022-10-23 13:21:54.321
195.0, -85419.47131389038, -117822.54938156002, 45333.96456646497, 49091.270457657636, 60983.0914119591, 102979.1582201908, 63429.98158097048, 68766.28175571939, 0.034, 0.9500000000000001, 0.09, 192.0, 0.0, 0.0, 0.0, 0.0, 0.0, 0.0, 0.0, 0.0, 0.0, 1.6665565143219259E9, 0.0, 2022-10-23 13:21:54.321
196.0, -85419.62777610157, -117822.34821585992, 47209.32062975415, 49050.54557926006, 60977.525827589736, 103609.38800685263, 64532.07904482831, 69727.80909869779, 0.034, 0.9500000000000001, 0.09, 192.0, 0.0, 0.0, 0.0, 0.0, 0.0, 0.0, 0.0, 0.0, 0.0, 1.6665565143219335E9, 0.0, 2022-10-23 13:21:54.321
197.0, -85361.22266783986, -117770.6486309348, 45599.97267722758, 48772.691043936145, 60778.751764148685, 102873.30035845046, 63424.66186579012, 68485.94617676093, 0.034, 0.9500000000000001, 0.09, 192.0, 0.0, 0.0, 0.0, 0.0, 0.0, 0.0, 0.0, 0.0, 0.0, 1.666556514321942E9, 0.0, 2022-10-23 13:21:54.321
198.0, -85382.07684541665, -117788.7535439436, 44366.04462457236, 48911.98711538161, 60859.307451165616, 102515.02424657634, 62739.089159856936, 67950.19721391168, 0.034, 0.9500000000000001, 0.09, 192.0, 0.0, 0.0, 0.0, 0.0, 0.0, 0.0, 0.0, 0.0, 0.0, 1.666556514321951E9, 0.0, 2022-10-23 13:21:54.321
199.0, -85414.68804057695, -117819.308378614, 45001.23649850327, 49052.64664323886, 60964.137132661, 102870.6852043492, 63238.60594494414, 68568.5805760122, 0.034, 0.9500000000000001, 0.09, 192.0, 0.0, 0.0, 0.0, 0.0, 0.0, 0.0, 0.0, 0.0, 0.0, 1.6665565143219593E9, 0.0, 2022-10-23 13:21:54.321
200.0, -85429.57430238418, -117832.96529447619, 47067.230590251755, 49101.50755661816, 61004.68319710293, 103602.77189049387, 64486.548541372846, 69717.72846194846, 0.034, 0.9500000000000001, 0.09, 192.0, 0.0, 0.0, 0.0, 0.0, 0.0, 0.0, 0.0, 0.0, 0.0, 1.666556514321967E9, 0.0, 2022-10-23 13:21:54.321
201.0, -85374.92428719095, -117784.52906424155, 46009.43428390435, 48782.16818358519, 60778.57295019305, 103030.7683981381, 63690.93819748619, 68746.8804415322, 0.034, 0.9500000000000001, 0.09, 192.0, 0.0, 0.0, 0.0, 0.0, 0.0, 0.0, 0.0, 0.0, 0.0, 1.6665565143219748E9, 0.0, 2022-10-23 13:21:54.321
202.0, -85381.4509965719, -117795.14614285782, 44385.22242131501, 48870.72579511712, 60812.100566876004, 102482.50245839388, 62728.248563796114, 67909.20411458064, 0.036000000000000004, 0.9520000000000001, 0.076, 192.0, 1.0, 32.0, 29.0, 192.0, 2.0, 96.0, 0.0, 0.0, 0.0, 1.6665565143219829E9, 0.0, 2022-10-23 13:21:54.321
203.0, -85403.57922358265, -117817.14025940184, 44702.88541351383, 49023.3211545135, 60932.978800890305, 102729.13160671374, 63036.076788434606, 68366.8337305586, 0.036000000000000004, 0.9520000000000001, 0.076, 192.0, 0.0, 0.0, 0.0, 0.0, 0.0, 0.0, 0.0, 0.0, 0.0, 1.666556514322011E9, 0.0, 2022-10-23 13:21:54.322
204.0, -85445.35463396963, -117854.40061740883, 46798.62967713233, 49128.06142903107, 61023.592772912125, 103527.82649133522, 64348.459464127955, 69627.51682132683, 0.036000000000000004, 0.9520000000000001, 0.076, 192.0, 0.0, 0.0, 0.0, 0.0, 0.0, 0.0, 0.0, 0.0, 0.0, 1.666556514322019E9, 0.0, 2022-10-23 13:21:54.322
205.0, -85405.97086023938, -117810.8594192099, 46472.942408674055, 48809.12438739829, 60809.396005796916, 103228.64839180093, 64004.28730300514, 69064.6998959422, 0.036000000000000004, 0.9520000000000001, 0.076, 192.0, 0.0, 0.0, 0.0, 0.0, 0.0, 0.0, 0.0, 0.0, 0.0, 1.6665565143220267E9, 0.0, 2022-10-23 13:21:54.322
206.0, -85378.23234537034, -117779.63403220584, 44535.94023417714, 48852.10679198585, 60809.46306103028, 102524.9484211145, 62816.403843927845, 67952.00770521256, 0.036000000000000004, 0.9520000000000001, 0.076, 192.0, 0.0, 0.0, 0.0, 0.0, 0.0, 0.0, 0.0, 0.0, 0.0, 1.666556514322035E9, 0.0, 2022-10-23 13:21:54.322
207.0, -85403.98155498285, -117803.86332319539, 44550.781792495465, 49005.59622116044, 60932.01767587873, 102657.27074828991, 62938.44436865382, 68234.57845861655, 0.036000000000000004, 0.9520000000000001, 0.076, 192.0, 0.0, 0.0, 0.0, 0.0, 0.0, 0.0, 0.0, 0.0, 0.0, 1.666556514322043E9, 0.0, 2022-10-23 13:21:54.322
208.0, -85446.56162817021, -117843.5153178591, 46411.4527596775, 49144.847589117, 61028.37604622556, 103388.9551030344, 64127.17719402042, 69420.40555720397, 0.036000000000000004, 0.9520000000000001, 0.076, 192.0, 0.0, 0.0, 0.0, 0.0, 0.0, 0.0, 0.0, 0.0, 0.0, 1.6665565143220508E9, 0.0, 2022-10-23 13:21:54.322
209.0, -85402.01460147079, -117803.61745400638, 46816.93575584123, 48872.26806548453, 60854.99356448574, 103371.85601852609, 64242.623954132076, 69321.4096810114, 0.036000000000000004, 0.9520000000000001, 0.076, 192.0, 0.0, 0.0, 0.0, 0.0, 0.0, 0.0, 0.0, 0.0, 0.0, 1.666556514322059E9, 0.0, 2022-10-23 13:21:54.322
210.0, -85371.86209820058, -117771.47564547964, 44698.97385823415, 48816.723980513096, 60788.27360728665, 102557.42550580806, 62906.61548454947, 68007.7529558841, 0.036000000000000004, 0.9520000000000001, 0.076, 192.0, 0.0, 0.0, 0.0, 0.0, 0.0, 0.0, 0.0, 0.0, 0.0, 1.6665565143220668E9, 0.0, 2022-10-23 13:21:54.322
211.0, -85399.24298515833, -117799.12475337087, 44412.089218150286, 48975.063738234494, 60905.28498951018, 102580.82778225277, 62839.35908548345, 68107.03940475457, 0.036000000000000004, 0.9460000000000001, 0.08, 192.0, 1.0, 32.0, 29.0, 144.0, 2.0, 128.0, 0.0, 0.0, 0.0, 1.666556514322075E9, 0.0, 2022-10-23 13:21:54.322
212.0, -85427.45088666092, -117828.80787000751, 45987.39546387142, 49136.73390587973, 61021.6034676556, 103237.79025528315, 63884.01256609113, 69186.31573752353, 0.036000000000000004, 0.9460000000000001, 0.08, 192.0, 0.0, 0.0, 0.0, 0.0, 0.0, 0.0, 0.0, 0.0, 0.0, 1.6665565143220832E9, 0.0, 2022-10-23 13:21:54.322
213.0, -85400.02529621427, -117806.6572912523, 47074.67372115538, 48950.63328154484, 60909.53182095669, 103502.30079916726, 64443.409674574104, 69542.69195111895, 0.036000000000000004, 0.9460000000000001, 0.08, 192.0, 0.0, 0.0, 0.0, 0.0, 0.0, 0.0, 0.0, 0.0, 0.0, 1.666556514322091E9, 0.0, 2022-10-23 13:21:54.322
214.0, -85368.95637142139, -117777.01887810456, 44947.83818099954, 48794.4169395467, 60775.37665073594, 102630.6721723881, 63061.088390480094, 68122.66327412883, 0.036000000000000004, 0.9460000000000001, 0.08, 192.0, 0.0, 0.0, 0.0, 0.0, 0.0, 0.0, 0.0, 0.0, 0.0, 1.666556514322099E9, 0.0, 2022-10-23 13:21:54.322
215.0, -85396.11374093458, -117804.6009307624, 44324.3139176743, 48964.089031706935, 60897.461878950824, 102529.37406651666, 62781.82569525549, 68017.94535135572, 0.036000000000000004, 0.9460000000000001, 0.08, 192.0, 0.0, 0.0, 0.0, 0.0, 0.0, 0.0, 0.0, 0.0, 0.0, 1.6665565143221068E9, 0.0, 2022-10-23 13:21:54.322
216.0, -85427.85321806112, -117835.40163462183, 45535.174970051645, 49126.18388249682, 61016.864897831074, 103073.59434051446, 63618.67500766218, 68930.0753390879, 0.036000000000000004, 0.9460000000000001, 0.08, 192.0, 0.0, 0.0, 0.0, 0.0, 0.0, 0.0, 0.0, 0.0, 0.0, 1.6665565143221147E9, 0.0, 2022-10-23 13:21:54.322
217.0, -85418.912520279, -117828.04791069603, 47181.58211488511, 49025.46692198121, 60968.24985364078, 103589.49495428741, 64557.62708874072, 69693.54387444782, 0.036000000000000004, 0.9460000000000001, 0.08, 192.0, 0.0, 0.0, 0.0, 0.0, 0.0, 0.0, 0.0, 0.0, 0.0, 1.6665565143221228E9, 0.0, 2022-10-23 13:21:54.322
218.0, -85367.88348768753, -117775.76718041506, 45300.25813582637, 48785.00685513102, 60779.13174380443, 102766.92840658766, 63295.13350667161, 68331.65208478595, 0.036000000000000004, 0.9460000000000001, 0.08, 192.0, 0.0, 0.0, 0.0, 0.0, 0.0, 0.0, 0.0, 0.0, 0.0, 1.6665565143221505E9, 0.0, 2022-10-23 13:21:54.322
219.0, -85391.41987459897, -117790.27346256656, 44300.48695808494, 48935.858778459886, 60873.65727110592, 102502.48491793692, 62763.87724445787, 67967.98920249811, 0.036000000000000004, 0.9460000000000001, 0.08, 192.0, 0.0, 0.0, 0.0, 0.0, 0.0, 0.0, 0.0, 0.0, 0.0, 1.6665565143221586E9, 0.0, 2022-10-23 13:21:54.322
220.0, -85421.23710170235, -117817.98962569115, 45118.02436328225, 49086.91186748885, 60983.20317068138, 102904.8386698769, 63364.93800460554, 68680.74162968894, 0.036000000000000004, 0.9460000000000001, 0.08, 192.0, 0.0, 0.0, 0.0, 0.0, 0.0, 0.0, 0.0, 0.0, 0.0, 1.6665565143221676E9, 0.0, 2022-10-23 13:21:54.322
221.0, -85435.87749432058, -117837.50269860063, 47075.4113287224, 49082.933256975804, 60998.40235691099, 103576.24036982542, 64527.11695755923, 69720.96946489447, 0.036000000000000004, 0.9520000000000001, 0.088, 192.0, 1.0, 32.0, 29.0, 192.0, 2.0, 192.0, 0.0, 0.0, 0.0, 1.6665565143221755E9, 0.0, 2022-10-23 13:21:54.322
222.0, -85369.60457201059, -117779.96930837266, 45634.46141892212, 48782.101128351824, 60781.23280778323, 102888.36543421334, 63510.06788135385, 68556.89061366208, 0.036000000000000004, 0.9520000000000001, 0.088, 192.0, 0.0, 0.0, 0.0, 0.0, 0.0, 0.0, 0.0, 0.0, 0.0, 1.666556514322184E9, 0.0, 2022-10-23 13:21:54.322
223.0, -85383.3508948506, -117794.67675622426, 44226.88266359361, 48909.37196128035, 60850.210291172305, 102449.9806702114, 62703.728700128646, 67903.79499242247, 0.036000000000000004, 0.9520000000000001, 0.088, 192.0, 0.0, 0.0, 0.0, 0.0, 0.0, 0.0, 0.0, 0.0, 0.0, 1.6665565143221917E9, 0.0, 2022-10-23 13:21:54.322
224.0, -85416.99027025585, -117827.35500661792, 44726.265338214085, 49051.73022171619, 60954.6376412675, 102757.31715647188, 63124.47793775534, 68458.18531014744, 0.036000000000000004, 0.9520000000000001, 0.088, 192.0, 0.0, 0.0, 0.0, 0.0, 0.0, 0.0, 0.0, 0.0, 0.0, 1.6665565143222003E9, 0.0, 2022-10-23 13:21:54.322
225.0, -85452.4177852175, -117856.41227440981, 46815.12526454035, 49125.781551096625, 61024.5538979237, 103525.21133723395, 64409.435023002035, 69667.77231309084, 0.036000000000000004, 0.9520000000000001, 0.088, 192.0, 0.0, 0.0, 0.0, 0.0, 0.0, 0.0, 0.0, 0.0, 0.0, 1.6665565143222084E9, 0.0, 2022-10-23 13:21:54.322
226.0, -85402.39458112653, -117813.45222156671, 46003.44401639033, 48788.471375521585, 60792.386328266424, 103052.56134898202, 63770.890387402826, 68839.21549787707, 0.036000000000000004, 0.9520000000000001, 0.088, 192.0, 0.0, 0.0, 0.0, 0.0, 0.0, 0.0, 0.0, 0.0, 0.0, 1.6665565143222165E9, 0.0, 2022-10-23 13:21:54.322
227.0, -85401.12053169258, -117814.4133465783, 44232.783524129816, 48864.132030502806, 60818.113186134484, 102446.33733586519, 62715.239848523124, 67895.23427429608, 0.036000000000000004, 0.9520000000000001, 0.088, 192.0, 0.0, 0.0, 0.0, 0.0, 0.0, 0.0, 0.0, 0.0, 0.0, 1.6665565143222244E9, 0.0, 2022-10-23 13:21:54.322
228.0, -85422.35468892512, -117833.97112297668, 44404.601383757756, 49013.19581427525, 60931.883565412, 102638.16000678063, 62937.773816320165, 68271.77176139019, 0.036000000000000004, 0.9520000000000001, 0.088, 192.0, 0.0, 0.0, 0.0, 0.0, 0.0, 0.0, 0.0, 0.0, 0.0, 1.666556514322232E9, 0.0, 2022-10-23 13:21:54.322
229.0, -85456.39639573055, -117863.92246054679, 46381.434366874026, 49144.467609461266, 61031.43823521594, 103397.56052464969, 64187.41514532747, 69498.23433139734, 0.036000000000000004, 0.9520000000000001, 0.088, 192.0, 0.0, 0.0, 0.0, 0.0, 0.0, 0.0, 0.0, 0.0, 0.0, 1.6665565143222399E9, 0.0, 2022-10-23 13:21:54.322
230.0, -85406.12732245056, -117817.2073146352, 46294.9778193209, 48836.929957500695, 60829.62433452897, 103198.07120538608, 64001.56039018159, 69105.24596038413, 0.036000000000000004, 0.9520000000000001, 0.088, 192.0, 0.0, 0.0, 0.0, 0.0, 0.0, 0.0, 0.0, 0.0, 0.0, 1.6665565143222475E9, 0.0, 2022-10-23 13:21:54.322
231.0, -85379.52874654875, -117790.98871838913, 44267.13815535762, 48847.16705646123, 60812.949933165306, 102466.23038843041, 62759.96568917819, 67929.09716714587, 0.03, 0.9480000000000001, 0.08, 192.0, 0.0, 240.0, 29.0, 160.0, 2.0, 128.0, 0.0, 0.0, 0.0, 1.6665565143222556E9, 0.0, 2022-10-23 13:21:54.322
232.0, -85407.06609571769, -117819.95657920321, 44147.08693588817, 48997.95192455673, 60927.12264384302, 102552.21754934998, 62801.83050654299, 68141.66225691585, 0.03, 0.9480000000000001, 0.08, 192.0, 0.0, 0.0, 0.0, 0.0, 0.0, 0.0, 0.0, 0.0, 0.0, 1.666556514322264E9, 0.0, 2022-10-23 13:21:54.322
233.0, -85445.71226188091, -117853.6183063529, 45889.74069234618, 49156.694013678316, 61041.69768592092, 103257.05745900363, 63934.21458413775, 69289.1561137624, 0.03, 0.9480000000000001, 0.08, 192.0, 0.0, 0.0, 0.0, 0.0, 0.0, 0.0, 0.0, 0.0, 0.0, 1.6665565143222718E9, 0.0, 2022-10-23 13:21:54.322
234.0, -85414.5092266213, -117819.57659954746, 46549.83240960031, 48919.65376372979, 60894.51144868272, 103357.64030905251, 64220.98746549934, 69365.375562355, 0.03, 0.9480000000000001, 0.08, 192.0, 0.0, 0.0, 0.0, 0.0, 0.0, 0.0, 0.0, 0.0, 0.0, 1.6665565143222992E9, 0.0, 2022-10-23 13:21:54.322
235.0, -85381.31688610517, -117786.6524799648, 44430.73057302601, 48826.446989351156, 60807.96549415177, 102547.07664812525, 62885.87306569494, 68027.37778751586, 0.03, 0.9480000000000001, 0.08, 192.0, 0.0, 0.0, 0.0, 0.0, 0.0, 0.0, 0.0, 0.0, 0.0, 1.6665565143223076E9, 0.0, 2022-10-23 13:21:54.322
236.0, -85410.17298819698, -117815.44152682324, 44020.732524482315, 48974.236723689646, 60907.56486744462, 102525.82013914826, 62746.66640122729, 68054.89278494034, 0.03, 0.9480000000000001, 0.08, 192.0, 0.0, 0.0, 0.0, 0.0, 0.0, 0.0, 0.0, 0.0, 0.0, 1.6665565143223157E9, 0.0, 2022-10-23 13:21:54.322
237.0, -85451.25549450582, -117855.5182046316, 45449.43367832109, 49136.53274017963, 61011.38872043952, 103132.84881506549, 63705.153906959764, 69064.52108198656, 0.03, 0.9480000000000001, 0.08, 192.0, 0.0, 0.0, 0.0, 0.0, 0.0, 0.0, 0.0, 0.0, 0.0, 1.6665565143223233E9, 0.0, 2022-10-23 13:21:54.322
238.0, -85430.82600007368, -117836.96625673369, 46751.24397888708, 48985.30083719502, 60926.340332787084, 103490.65554030605, 64409.7032439355, 69575.99605035735, 0.03, 0.9480000000000001, 0.08, 192.0, 0.0, 0.0, 0.0, 0.0, 0.0, 0.0, 0.0, 0.0, 0.0, 1.6665565143223314E9, 0.0, 2022-10-23 13:21:54.322
239.0, -85392.35864786609, -117797.96246265918, 44664.75333747308, 48786.50442200952, 60760.53509241762, 102609.77329132239, 63036.56852681262, 68145.41734998433, 0.03, 0.9480000000000001, 0.08, 192.0, 0.0, 0.0, 0.0, 0.0, 0.0, 0.0, 0.0, 0.0, 0.0, 1.6665565143223393E9, 0.0, 2022-10-23 13:21:54.322
240.0, -85405.99321198383, -117813.04989016651, 43881.056473381104, 48955.416554858275, 60873.05377400563, 102435.2285188709, 62649.57042331343, 67938.37314109482, 0.036000000000000004, 0.9500000000000001, 0.088, 192.0, 1.0, 32.0, 29.0, 176.0, 2.0, 192.0, 0.0, 0.0, 0.0, 1.6665565143223472E9, 0.0, 2022-10-23 13:21:54.322
241.0, -85440.54900891174, -117846.4210446383, 44930.247358113214, 49110.38119916692, 60986.15360094948, 102918.56264097246, 63387.17799033857, 68773.30020347837, 0.036000000000000004, 0.9500000000000001, 0.088, 192.0, 0.0, 0.0, 0.0, 0.0, 0.0, 0.0, 0.0, 0.0, 0.0, 1.6665565143223577E9, 0.0, 2022-10-23 13:21:54.322
242.0, -85446.5169246813, -117849.72910281767, 46687.630914167275, 49043.28126231209, 60957.87864421352, 103484.173534414, 64402.26011303188, 69641.64312382259, 0.036000000000000004, 0.9500000000000001, 0.088, 192.0, 0.0, 0.0, 0.0, 0.0, 0.0, 0.0, 0.0, 0.0, 0.0, 1.6665565148006222E9, 0.0, 2022-10-23 13:21:54.800
243.0, -85384.46848207337, -117789.58055848844, 44934.13656164844, 48781.65409346272, 60768.71583088826, 102703.60591454577, 63215.18131675498, 68342.82795701361, 0.036000000000000004, 0.9500000000000001, 0.088, 192.0, 0.0, 0.0, 0.0, 0.0, 0.0, 0.0, 0.0, 0.0, 0.0, 1.666556514800674E9, 0.0, 2022-10-23 13:21:54.800
244.0, -85409.61419458559, -117812.53580004405, 43771.35411159445, 48922.11245561987, 60863.39782040093, 102372.30835822922, 62577.12841953379, 67871.09439028436, 0.036000000000000004, 0.9500000000000001, 0.088, 192.0, 0.0, 0.0, 0.0, 0.0, 0.0, 0.0, 0.0, 0.0, 0.0, 1.666556514800706E9, 0.0, 2022-10-23 13:21:54.800
245.0, -85450.40612821652, -117850.95844876271, 44503.731370417045, 49063.7331084887, 60971.60261530908, 102765.09556354232, 63143.2534030978, 68549.73805543638, 0.036000000000000004, 0.9500000000000001, 0.088, 192.0, 0.0, 0.0, 0.0, 0.0, 0.0, 0.0, 0.0, 0.0, 0.0, 1.6665565148007147E9, 0.0, 2022-10-23 13:21:54.800
246.0, -85444.92995082498, -117850.89139352935, 46557.96844458204, 49095.96432399325, 61002.31391219067, 103496.33288339768, 64388.40203146959, 69680.6469178971, 0.036000000000000004, 0.9500000000000001, 0.088, 192.0, 0.0, 0.0, 0.0, 0.0, 0.0, 0.0, 0.0, 0.0, 0.0, 1.6665565148007228E9, 0.0, 2022-10-23 13:21:54.800
247.0, -85378.2994006037, -117791.32399455596, 45327.79548499531, 48793.14289011275, 60783.91501711786, 102879.17886724221, 63498.26616028144, 68624.7505098284, 0.036000000000000004, 0.9500000000000001, 0.088, 192.0, 0.0, 0.0, 0.0, 0.0, 0.0, 0.0, 0.0, 0.0, 0.0, 1.6665565148007307E9, 0.0, 2022-10-23 13:21:54.800
248.0, -85392.62686879956, -117796.84487543642, 43801.17133869784, 48906.063903100956, 60841.58251781256, 102390.167402049, 62611.013664128026, 67873.41897170771, 0.036000000000000004, 0.9500000000000001, 0.088, 192.0, 0.0, 0.0, 0.0, 0.0, 0.0, 0.0, 0.0, 0.0, 0.0, 1.6665565148007388E9, 0.0, 2022-10-23 13:21:54.800
249.0, -85425.84156106014, -117829.36666361889, 44181.598029327164, 49046.723430958205, 60950.36845807653, 102650.60992844224, 62954.53762466164, 68359.92704152192, 0.036000000000000004, 0.9500000000000001, 0.088, 192.0, 0.0, 0.0, 0.0, 0.0, 0.0, 0.0, 0.0, 0.0, 0.0, 1.6665565148008585E9, 0.0, 2022-10-23 13:21:54.800
250.0, -85456.12817479708, -117861.12849248988, 46285.18775524948, 49147.30628100709, 61035.43919747343, 103440.58763272615, 64262.29348925275, 69603.9804344154, 0.032, 0.9520000000000001, 0.088, 192.0, 1.0, 0.0, 29.0, 192.0, 2.0, 192.0, 0.0, 0.0, 0.0, 1.666556514800867E9, 0.0, 2022-10-23 13:21:54.800
251.0, -85407.66959281798, -117811.64173026584, 45738.84406552841, 48823.34009687187, 60807.54081100712, 103055.13179959438, 63779.406402040295, 68917.267789515, 0.032, 0.9520000000000001, 0.088, 192.0, 0.0, 0.0, 0.0, 0.0, 0.0, 0.0, 0.0, 0.0, 0.0, 1.666556514800876E9, 0.0, 2022-10-23 13:21:54.800
252.0, -85408.67542131846, -117813.83220122245, 43881.905839670406, 48863.03679502449, 60808.09960461851, 102390.72619566038, 62647.82698724592, 67880.41506772222, 0.032, 0.9520000000000001, 0.088, 192.0, 0.0, 0.0, 0.0, 0.0, 0.0, 0.0, 0.0, 0.0, 0.0, 1.666556514800884E9, 0.0, 2022-10-23 13:21:54.800
253.0, -85445.93577932546, -117848.92444001729, 43996.413826514945, 49009.2172037622, 60920.50652748425, 102560.89002619864, 62829.01022780064, 68217.90405725289, 0.032, 0.9520000000000001, 0.088, 192.0, 0.0, 0.0, 0.0, 0.0, 0.0, 0.0, 0.0, 0.0, 0.0, 1.666556514800893E9, 0.0, 2022-10-23 13:21:54.800
254.0, -85473.38372151658, -117878.7193153762, 45986.99313247122, 49157.744545667716, 61031.7064561494, 103344.81040773516, 64099.237513451284, 69469.62409849455, 0.032, 0.9520000000000001, 0.088, 192.0, 0.0, 0.0, 0.0, 0.0, 0.0, 0.0, 0.0, 0.0, 0.0, 1.6665565148009007E9, 0.0, 2022-10-23 13:21:54.800
255.0, -85413.23517718735, -117827.01973045108, 46241.42303960599, 48879.53238243251, 60856.31231740861, 103273.75421211174, 64125.00907480825, 69270.8053315646, 0.032, 0.9520000000000001, 0.088, 192.0, 0.0, 0.0, 0.0, 0.0, 0.0, 0.0, 0.0, 0.0, 0.0, 1.6665565148009086E9, 0.0, 2022-10-23 13:21:54.800
0.0, -85391.35281936561, -117800.48820978263, 44166.13062216409, 48846.295338427466, 60799.740052192225, 102474.99227225689, 62819.91306780733, 67997.31469122347, 0.032, 0.9520000000000001, 0.088, 192.0, 0.0, 0.0, 0.0, 0.0, 0.0, 0.0, 0.0, 0.0, 0.0, 1.6665565148009164E9, 0.0, 2022-10-23 13:21:54.800
1.0, -85420.29832843522, -117822.50467807111, 43989.10480607806, 49004.99272406015, 60920.37241701751, 102533.24091830742, 62817.879059061896, 68157.24142280119, 0.032, 0.9520000000000001, 0.088, 192.0, 0.0, 0.0, 0.0, 0.0, 0.0, 0.0, 0.0, 0.0, 0.0, 1.6665565148009243E9, 0.0, 2022-10-23 13:21:54.800
2.0, -85451.1213840391, -117855.67466684278, 45667.69846292716, 49173.54722899762, 61039.7083806644, 103214.79031023865, 63908.51007801415, 69274.62747986645, 0.032, 0.9520000000000001, 0.088, 192.0, 0.0, 0.0, 0.0, 0.0, 0.0, 0.0, 0.0, 0.0, 0.0, 1.666556514800932E9, 0.0, 2022-10-23 13:21:54.800
3.0, -85426.914444794, -117838.21795442319, 46644.24617817953, 48951.54970306751, 60906.02259707721, 103425.90253661902, 64389.87724660364, 69538.55687839471, 0.032, 0.9520000000000001, 0.088, 192.0, 0.0, 0.0, 0.0, 0.0, 0.0, 0.0, 0.0, 0.0, 0.0, 1.66655651480094E9, 0.0, 2022-10-23 13:21:54.800
4.0, -85390.65991528748, -117803.37158481737, 44548.121934905284, 48817.3721811023, 60778.01415658167, 102568.15434314661, 63029.43832033138, 68150.71471342024, 0.034, 0.9500000000000001, 0.09, 192.0, 1.0, 16.0, 29.0, 176.0, 2.0, 208.0, 0.0, 0.0, 0.0, 1.6665565148009477E9, 0.0, 2022-10-23 13:21:54.800
5.0, -85423.7628488258, -117836.74273928914, 44041.9443299704, 48964.60312182941, 60879.021689775196, 102487.91158055206, 62809.72067233571, 68096.53408486058, 0.034, 0.9500000000000001, 0.09, 192.0, 0.0, 0.0, 0.0, 0.0, 0.0, 0.0, 0.0, 0.0, 0.0, 1.666556514800956E9, 0.0, 2022-10-23 13:21:54.800
6.0, -85444.05823279121, -117854.37826566437, 45386.692331635044, 49141.36071698197, 61013.534487907236, 103071.73914572468, 63718.74376758859, 69065.48220699815, 0.034, 0.9500000000000001, 0.09, 192.0, 0.0, 0.0, 0.0, 0.0, 0.0, 0.0, 0.0, 0.0, 0.0, 1.666556514800968E9, 0.0, 2022-10-23 13:21:54.800
7.0, -85428.45671516142, -117842.8671172699, 46930.147341507356, 49020.34837250094, 60954.39177207849, 103531.71569487044, 64577.20721688357, 69733.709959234, 0.034, 0.9500000000000001, 0.09, 192.0, 0.0, 0.0, 0.0, 0.0, 0.0, 0.0, 0.0, 0.0, 0.0, 1.6665565148009756E9, 0.0, 2022-10-23 13:21:54.800
8.0, -85381.47334831636, -117801.98577666114, 44999.38130371348, 48800.13898612726, 60776.807162381076, 102697.8391644763, 63289.25499787986, 68350.36049489505, 0.034, 0.9500000000000001, 0.09, 192.0, 0.0, 0.0, 0.0, 0.0, 0.0, 0.0, 0.0, 0.0, 0.0, 1.6665565148009834E9, 0.0, 2022-10-23 13:21:54.800
9.0, -85406.48495036185, -117819.04015768055, 44142.8177526972, 48956.91412173678, 60880.60866363152, 102488.85035381919, 62847.83039663201, 68064.14640714484, 0.034, 0.9500000000000001, 0.09, 192.0, 0.0, 0.0, 0.0, 0.0, 0.0, 0.0, 0.0, 0.0, 0.0, 1.666556514801004E9, 0.0, 2022-10-23 13:21:54.801
10.0, -85450.74140438336, -117855.80877730952, 45133.4023634675, 49107.78839681011, 60988.99227249531, 102954.43719082323, 63552.58089930784, 68851.03957069392, 0.034, 0.9500000000000001, 0.09, 192.0, 0.0, 0.0, 0.0, 0.0, 0.0, 0.0, 0.0, 0.0, 0.0, 1.666556514801012E9, 0.0, 2022-10-23 13:21:54.801
11.0, -85452.28367475077, -117857.70867558822, 47049.058622009594, 49076.40654759485, 60980.96799623585, 103575.23454132493, 64661.98738360255, 69815.13736428469, 0.034, 0.9500000000000001, 0.09, 192.0, 0.0, 0.0, 0.0, 0.0, 0.0, 0.0, 0.0, 0.0, 0.0, 1.66655651480102E9, 0.0, 2022-10-23 13:21:54.801
12.0, -85400.13705493654, -117812.71461399969, 45485.0847107273, 48782.72697719657, 60771.12981928943, 102823.5677270374, 63561.94628023461, 68573.45325630346, 0.034, 0.9500000000000001, 0.09, 192.0, 0.0, 0.0, 0.0, 0.0, 0.0, 0.0, 0.0, 0.0, 0.0, 1.666556514801028E9, 0.0, 2022-10-23 13:21:54.801
13.0, -85422.42174415848, -117829.25490489662, 44246.93217837002, 48911.182452581226, 60845.114093436496, 102445.30915562024, 62863.36485902844, 68012.6032844309, 0.04, 0.9560000000000001, 0.08600000000000001, 192.0, 1.0, 64.0, 29.0, 224.0, 2.0, 176.0, 0.0, 0.0, 0.0, 1.666556514801036E9, 0.0, 2022-10-23 13:21:54.801
14.0, -85438.02326178829, -117844.40938763731, 44883.08517731252, 49072.76321324864, 60966.819341995644, 102791.33651153285, 63355.14794053411, 68620.12369872615, 0.04, 0.9560000000000001, 0.08600000000000001, 192.0, 0.0, 0.0, 0.0, 0.0, 0.0, 0.0, 0.0, 0.0, 0.0, 1.6665565148010442E9, 0.0, 2022-10-23 13:21:54.801
