%OpenBCI Raw EEG Data
%Number of channels = 8
%Sample Rate = 250 Hz
%Board = OpenBCI_GUI$BoardCytonSerial
Sample Index, EXG Channel 0, EXG Channel 1, EXG Channel 2, EXG Channel 3, EXG Channel 4, EXG Channel 5, EXG Channel 6, EXG Channel 7, Accel Channel 0, Accel Channel 1, Accel Channel 2, Other, Other, Other, Other, Other, Other, Other, Analog Channel 0, Analog Channel 1, Analog Channel 2, Timestamp, Other, Timestamp (Formatted)
196.0, -83610.87991128922, -115894.1526286784, 46174.83719287362, 45321.87227271465, 61135.28443995529, 100400.70568331548, 61908.699501597825, 65629.54969758388, 0.0, 0.0, 0.0, 192.0, 0.0, 0.0, 0.0, 0.0, 0.0, 0.0, 0.0, 0.0, 0.0, 1.6665564681406033E9, 0.0, 2022-10-23 13:21:08.140
197.0, -83641.74767038198, -115925.69094010485, 47385.22885861741, 45473.39474837718, 61246.372609898164, 100946.53528291409, 62744.118302359384, 66543.11019696119, 0.0, 0.0, 0.0, 192.0, 0.0, 0.0, 0.0, 0.0, 0.0, 0.0, 0.0, 0.0, 0.0, 1.6665564681406207E9, 0.0, 2022-10-23 13:21:08.140
198.0, -83632.31523422185, -115918.7618993237, 49013.82166312, 45380.43384318756, 61199.56805700876, 101456.445629173, 63674.59907228936, 67305.59525556509, 0.0, 0.0, 0.0, 192.0, 0.0, 0.0, 0.0, 0.0, 0.0, 0.0, 0.0, 0.0, 0.0, 1.6665564681406293E9, 0.0, 2022-10-23 13:21:08.140
199.0, -83589.3775331232, -115874.41603832437, 47135.29165211817, 45148.24392178583, 61015.32262746366, 100625.16190113568, 62401.73428079299, 65938.94254433425, 0.0, 0.0, 0.0, 192.0, 0.0, 0.0, 0.0, 0.0, 0.0, 0.0, 0.0, 0.0, 0.0, 1.6665564681406372E9, 0.0, 2022-10-23 13:21:08.140
200.0, -83606.11898972023, -115884.09434367351, 46132.972375508834, 45306.18134810703, 61124.265029938826, 100356.7398019719, 61857.469303306265, 65563.70145841855, 0.0, 0.0, 0.0, 192.0, 0.0, 0.0, 0.0, 0.0, 0.0, 0.0, 0.0, 0.0, 0.0, 1.6665564681406448E9, 0.0, 2022-10-23 13:21:08.140
201.0, -83640.69713839258, -115914.67153008838, 47002.61169703146, 45453.41228883413, 61237.63307781614, 100796.66683634125, 62501.87009595276, 66307.20988597989, 0.0, 0.0, 0.0, 192.0, 0.0, 0.0, 0.0, 0.0, 0.0, 0.0, 0.0, 0.0, 0.0, 1.666556468140653E9, 0.0, 2022-10-23 13:21:08.140
202.0, -83646.30742625087, -115924.55100113762, 48973.052081233516, 45444.62805326319, 61245.52324360886, 101476.22692301594, 63682.06455493743, 67353.31622997716, 0.0, 0.0, 0.0, 192.0, 0.0, 0.0, 0.0, 0.0, 0.0, 0.0, 0.0, 0.0, 0.0, 1.6665564681406603E9, 0.0, 2022-10-23 13:21:08.140
203.0, -83580.03450394089, -115862.23433759622, 47563.30520669284, 45165.566523738686, 61044.491653977835, 100798.63378985331, 62686.02611852004, 66204.54832369665, 0.0, 0.0, 0.0, 192.0, 0.0, 0.0, 0.0, 0.0, 0.0, 0.0, 0.0, 0.0, 0.0, 1.666556468140668E9, 0.0, 2022-10-23 13:21:08.140
204.0, -83594.04904771436, -115869.92333768886, 46194.37261752756, 45287.29412404229, 61114.117337956115, 100373.99534869139, 61895.981359002755, 65555.54307169236, 0.0, 0.0, 0.0, 192.0, 0.0, 0.0, 0.0, 0.0, 0.0, 0.0, 0.0, 0.0, 0.0, 1.6665564681406755E9, 0.0, 2022-10-23 13:21:08.140
205.0, -83626.0343940299, -115898.53357059165, 46681.03714955296, 45410.04990459084, 61206.43004255653, 100659.78475329695, 62291.09314573922, 66082.57485420405, 0.042, 0.9540000000000001, 0.106, 192.0, 1.0, 80.0, 29.0, 208.0, 3.0, 80.0, 0.0, 0.0, 0.0, 1.6665564681406834E9, 0.0, 2022-10-23 13:21:08.140
206.0, -83653.3929292432, -115928.28374246166, 48775.57441897088, 45482.91659151514, 61273.03824103335, 101435.27852717382, 63586.24262645753, 67294.3299763596, 0.042, 0.9540000000000001, 0.106, 192.0, 0.0, 0.0, 0.0, 0.0, 0.0, 0.0, 0.0, 0.0, 0.0, 1.6665564681406946E9, 0.0, 2022-10-23 13:21:08.140
207.0, -83593.40084712516, -115876.58415753653, 47993.28571477959, 45184.789023970254, 61061.23311057486, 100978.6323879519, 62967.85926435701, 66479.2959665413, 0.042, 0.9540000000000001, 0.106, 192.0, 0.0, 0.0, 0.0, 0.0, 0.0, 0.0, 0.0, 0.0, 0.0, 1.6665564681407034E9, 0.0, 2022-10-23 13:21:08.140
208.0, -83594.16080643664, -115878.32759360404, 46271.70965334292, 45255.48759168239, 61085.99884343134, 100389.82038376575, 61933.19701352084, 65547.63055415518, 0.042, 0.9540000000000001, 0.106, 192.0, 0.0, 0.0, 0.0, 0.0, 0.0, 0.0, 0.0, 0.0, 0.0, 1.6665564681407113E9, 0.0, 2022-10-23 13:21:08.140
209.0, -83616.9372340366, -115902.46747761578, 46476.40692906463, 45374.68944486254, 61171.67307992853, 100581.77716514793, 62164.20229246644, 65922.5587156485, 0.042, 0.9540000000000001, 0.106, 192.0, 0.0, 0.0, 0.0, 0.0, 0.0, 0.0, 0.0, 0.0, 0.0, 1.6665564681407194E9, 0.0, 2022-10-23 13:21:08.140
210.0, -83640.49597269249, -115926.62971337196, 48464.34872917518, 45497.82520506683, 61265.77392408538, 101345.84919760814, 63422.0690634333, 67145.93674492082, 0.042, 0.9540000000000001, 0.106, 192.0, 0.0, 0.0, 0.0, 0.0, 0.0, 0.0, 0.0, 0.0, 0.0, 1.6665564681407273E9, 0.0, 2022-10-23 13:21:08.140
211.0, -83585.10834993224, -115874.59485228002, 48396.89116440906, 45219.92596625399, 61086.33411959817, 101153.5794918036, 63246.38435201459, 66759.72095247757, 0.042, 0.9540000000000001, 0.106, 192.0, 0.0, 0.0, 0.0, 0.0, 0.0, 0.0, 0.0, 0.0, 0.0, 1.6665564681407363E9, 0.0, 2022-10-23 13:21:08.140
212.0, -83576.56998355032, -115861.2508608402, 46379.71328255097, 45218.80837903123, 61059.06499136269, 100402.35971240517, 61988.338767092086, 65562.69562991806, 0.042, 0.9540000000000001, 0.106, 192.0, 0.0, 0.0, 0.0, 0.0, 0.0, 0.0, 0.0, 0.0, 0.0, 1.66655646814084E9, 0.0, 2022-10-23 13:21:08.140
213.0, -83613.9868037685, -115898.62297756947, 46296.005999565845, 45360.00434875541, 61163.11236180215, 100498.56162054082, 62044.28518346372, 65778.41231565623, 0.042, 0.9540000000000001, 0.106, 192.0, 0.0, 0.0, 0.0, 0.0, 0.0, 0.0, 0.0, 0.0, 0.0, 1.6665564681408484E9, 0.0, 2022-10-23 13:21:08.140
214.0, -83653.50468796548, -115936.55388791012, 48071.069785484055, 45506.00594353747, 61269.238444475945, 101222.8475478706, 63202.77609858228, 66943.31818143347, 0.042, 0.9540000000000001, 0.106, 192.0, 0.0, 0.0, 0.0, 0.0, 0.0, 0.0, 0.0, 0.0, 0.0, 1.6665564681408567E9, 0.0, 2022-10-23 13:21:08.140
215.0, -83616.51255089194, -115903.00391948271, 48758.96707284058, 45262.97542607492, 61111.43512862148, 101328.05720902172, 63510.112584842755, 67027.96423768571, 0.046, 0.9520000000000001, 0.106, 192.0, 1.0, 112.0, 29.0, 192.0, 3.0, 80.0, 0.0, 0.0, 0.0, 1.6665564681408646E9, 0.0, 2022-10-23 13:21:08.140
216.0, -83581.8226434973, -115867.7999219656, 46608.59514577331, 45175.9600849104, 61014.38385419654, 100466.97860562547, 62122.002198934824, 65644.74888381349, 0.046, 0.9520000000000001, 0.106, 192.0, 0.0, 0.0, 0.0, 0.0, 0.0, 0.0, 0.0, 0.0, 0.0, 1.6665564681408732E9, 0.0, 2022-10-23 13:21:08.140
217.0, -83604.75553330846, -115886.21775939676, 46179.03932083122, 45322.47576981494, 61120.688750825975, 100421.78337833684, 61947.703295672334, 65648.92866002664, 0.046, 0.9520000000000001, 0.106, 192.0, 0.0, 0.0, 0.0, 0.0, 0.0, 0.0, 0.0, 0.0, 0.0, 1.6665564681408813E9, 0.0, 2022-10-23 13:21:08.140
218.0, -83628.80601034236, -115910.84938178652, 47612.92607938362, 45488.61628635124, 61248.272508176866, 101043.51950210566, 62913.45511835279, 66671.09628571228, 0.046, 0.9520000000000001, 0.106, 192.0, 0.0, 0.0, 0.0, 0.0, 0.0, 0.0, 0.0, 0.0, 0.0, 1.6665564681408923E9, 0.0, 2022-10-23 13:21:08.140
219.0, -83602.90033851867, -115890.68810828784, 48948.06283093248, 45343.06172645828, 61170.71195491695, 101434.42916088452, 63655.48833078007, 67216.30003646613, 0.046, 0.9520000000000001, 0.106, 192.0, 0.0, 0.0, 0.0, 0.0, 0.0, 0.0, 0.0, 0.0, 0.0, 1.6665564681409E9, 0.0, 2022-10-23 13:21:08.140
220.0, -83560.63318975367, -115851.66196246886, 46898.60903008092, 45169.18750634045, 61015.92612456395, 100570.46718245355, 62301.12907899965, 65804.09447003537, 0.046, 0.9520000000000001, 0.106, 192.0, 0.0, 0.0, 0.0, 0.0, 0.0, 0.0, 0.0, 0.0, 0.0, 1.666556468140908E9, 0.0, 2022-10-23 13:21:08.140
221.0, -83597.71473380503, -115883.6026052955, 46142.628329113526, 45314.00445866638, 61124.15327121655, 100406.02539849585, 61923.47400468279, 65599.19602861357, 0.046, 0.9520000000000001, 0.106, 192.0, 0.0, 0.0, 0.0, 0.0, 0.0, 0.0, 0.0, 0.0, 0.0, 1.666556468140916E9, 0.0, 2022-10-23 13:21:08.140
222.0, -83626.61553938575, -115909.01653874118, 47227.403191018486, 45462.107117427244, 61235.3531998817, 100914.7734540431, 62689.8482668219, 66451.04336154979, 0.046, 0.9520000000000001, 0.106, 192.0, 0.0, 0.0, 0.0, 0.0, 0.0, 0.0, 0.0, 0.0, 0.0, 1.6665564681409237E9, 0.0, 2022-10-23 13:21:08.140
223.0, -83620.26764396044, -115903.74152704973, 49000.92470656928, 45397.35411374022, 61205.848897200696, 101496.99169361492, 63725.06931126944, 67326.42708139743, 0.046, 0.9520000000000001, 0.106, 192.0, 0.0, 0.0, 0.0, 0.0, 0.0, 0.0, 0.0, 0.0, 0.0, 1.6665564681409316E9, 0.0, 2022-10-23 13:21:08.140
224.0, -83562.60014326575, -115850.43261652383, 47261.243732123825, 45152.11077357659, 61013.35567395159, 100709.51738471001, 62532.33552364535, 66016.97248422772, 0.046, 0.9520000000000001, 0.106, 192.0, 0.0, 0.0, 0.0, 0.0, 0.0, 0.0, 0.0, 0.0, 0.0, 1.6665564681409397E9, 0.0, 2022-10-23 13:21:08.140
225.0, -83580.45918708554, -115865.54239577561, 46127.02681148372, 45303.3426765612, 61114.273800167306, 100386.10999418618, 61901.72575732777, 65549.59750766725, 0.05, 0.9520000000000001, 0.11, 192.0, 1.0, 144.0, 29.0, 192.0, 3.0, 112.0, 0.0, 0.0, 0.0, 1.6665564681409478E9, 0.0, 2022-10-23 13:21:08.140
226.0, -83628.0907545198, -115909.59768409703, 46879.45358508272, 45426.29962280984, 61216.77890023934, 100786.16151644726, 62477.08201135183, 66231.30336180965, 0.05, 0.9520000000000001, 0.11, 192.0, 0.0, 0.0, 0.0, 0.0, 0.0, 0.0, 0.0, 0.0, 0.0, 1.6665564681409564E9, 0.0, 2022-10-23 13:21:08.140
227.0, -83647.13444079572, -115931.70355936332, 48927.27570858905, 45430.121771111706, 61223.57383055375, 101508.61460073169, 63718.877878055326, 67347.70594211888, 0.05, 0.9520000000000001, 0.11, 192.0, 0.0, 0.0, 0.0, 0.0, 0.0, 0.0, 0.0, 0.0, 0.0, 1.666556468140992E9, 0.0, 2022-10-23 13:21:08.140
228.0, -83576.16765215012, -115865.07300914206, 47694.66640885668, 45156.31290153419, 61014.54031640772, 100872.81922970049, 62813.49811714866, 66277.68323155442, 0.05, 0.9520000000000001, 0.11, 192.0, 0.0, 0.0, 0.0, 0.0, 0.0, 0.0, 0.0, 0.0, 0.0, 1.6665564681410005E9, 0.0, 2022-10-23 13:21:08.141
229.0, -83586.85178599975, -115873.94665169081, 46196.09370185062, 45274.710091913956, 61087.94344519895, 100383.87481974064, 61932.057074553624, 65530.084434757766, 0.05, 0.9520000000000001, 0.11, 192.0, 0.0, 0.0, 0.0, 0.0, 0.0, 0.0, 0.0, 0.0, 0.0, 1.6665564681410084E9, 0.0, 2022-10-23 13:21:08.141
230.0, -83613.00332701247, -115895.31491939008, 46631.349221628814, 45404.238451032455, 61190.0909173597, 100669.261892946, 62310.695625626526, 66038.63132460491, 0.05, 0.9520000000000001, 0.11, 192.0, 0.0, 0.0, 0.0, 0.0, 0.0, 0.0, 0.0, 0.0, 0.0, 1.6665564681410162E9, 0.0, 2022-10-23 13:21:08.141
231.0, -83645.23454251702, -115925.86975406049, 48703.534746591424, 45488.92921077362, 61251.26764193388, 101436.77609405233, 63595.20567598411, 67252.08517933908, 0.05, 0.9520000000000001, 0.11, 192.0, 0.0, 0.0, 0.0, 0.0, 0.0, 0.0, 0.0, 0.0, 0.0, 1.666556468141024E9, 0.0, 2022-10-23 13:21:08.141
232.0, -83594.11610294774, -115880.51806456067, 48176.92764722439, 45192.500375807336, 61047.39738075702, 101069.78280184064, 63131.36227504758, 66583.9691858255, 0.05, 0.9520000000000001, 0.11, 192.0, 0.0, 0.0, 0.0, 0.0, 0.0, 0.0, 0.0, 0.0, 0.0, 1.666556468141032E9, 0.0, 2022-10-23 13:21:08.141
233.0, -83585.73419877699, -115876.80767498109, 46342.18470361051, 45251.03959453578, 61064.71998270989, 100420.66579111408, 62010.55640108066, 65552.07855130179, 0.05, 0.9520000000000001, 0.11, 192.0, 0.0, 0.0, 0.0, 0.0, 0.0, 0.0, 0.0, 0.0, 0.0, 1.6665564681410398E9, 0.0, 2022-10-23 13:21:08.141
234.0, -83614.45619040207, -115901.7075183043, 46447.90845488411, 45385.306523478816, 61171.31545201725, 100580.81604013634, 62177.434525183984, 65873.92131971376, 0.05, 0.9500000000000001, 0.108, 192.0, 1.0, 144.0, 29.0, 176.0, 3.0, 96.0, 0.0, 0.0, 0.0, 1.6665564681410477E9, 0.0, 2022-10-23 13:21:08.141
235.0, -83645.12278379474, -115931.18946924085, 48402.94848715645, 45519.48404544402, 61280.97311031498, 101357.33799425817, 63429.17691817009, 67105.43538396781, 0.05, 0.9500000000000001, 0.108, 192.0, 0.0, 0.0, 0.0, 0.0, 0.0, 0.0, 0.0, 0.0, 0.0, 1.666556468141056E9, 0.0, 2022-10-23 13:21:08.141
236.0, -83590.87510000171, -115881.43448608334, 48627.4270567211, 45249.72084161292, 61106.18246867448, 101276.08940316313, 63437.60352582974, 66893.07145989794, 0.05, 0.9500000000000001, 0.108, 192.0, 0.0, 0.0, 0.0, 0.0, 0.0, 0.0, 0.0, 0.0, 0.0, 1.666556468141064E9, 0.0, 2022-10-23 13:21:08.141
237.0, -83564.56709677781, -115850.87965141294, 46515.96951675052, 45234.70046933895, 61057.43331401746, 100455.959195609, 62097.77290794527, 65600.58183676981, 0.05, 0.9500000000000001, 0.108, 192.0, 0.0, 0.0, 0.0, 0.0, 0.0, 0.0, 0.0, 0.0, 0.0, 1.666556468141072E9, 0.0, 2022-10-23 13:21:08.141
238.0, -83600.64281232868, -115885.45780008529, 46288.62992389559, 45369.213267470994, 61161.54773969028, 100486.20110585704, 62054.03054404623, 65732.63594301176, 0.05, 0.9500000000000001, 0.108, 192.0, 0.0, 0.0, 0.0, 0.0, 0.0, 0.0, 0.0, 0.0, 0.0, 1.6665564681410797E9, 0.0, 2022-10-23 13:21:08.141
239.0, -83643.71462389406, -115931.05535877412, 47927.83980701445, 45511.72799011803, 61267.89733980863, 101167.39286987697, 63131.96577214787, 66839.96371507212, 0.05, 0.9500000000000001, 0.108, 192.0, 0.0, 0.0, 0.0, 0.0, 0.0, 0.0, 0.0, 0.0, 0.0, 1.6665564681410885E9, 0.0, 2022-10-23 13:21:08.141
240.0, -83617.09369624779, -115906.58019859556, 48874.16796376323, 45310.45053129799, 61148.87430058412, 101391.31264583024, 63611.12011803629, 67107.2905787576, 0.05, 0.9500000000000001, 0.108, 192.0, 0.0, 0.0, 0.0, 0.0, 0.0, 0.0, 0.0, 0.0, 0.0, 1.6665564681410964E9, 0.0, 2022-10-23 13:21:08.141
241.0, -83577.50875681743, -115869.56570977757, 46741.34215609338, 45186.48775654886, 61024.46449094588, 100524.04260921988, 62225.44607227398, 65700.47178274057, 0.05, 0.9500000000000001, 0.108, 192.0, 0.0, 0.0, 0.0, 0.0, 0.0, 0.0, 0.0, 0.0, 0.0, 1.666556468141104E9, 0.0, 2022-10-23 13:21:08.141
242.0, -83604.9343472641, -115894.04086995612, 46193.81382391618, 45337.138514177626, 61130.76938757532, 100437.13902677763, 61978.03461289819, 65634.64589531969, 0.05, 0.9500000000000001, 0.108, 192.0, 0.0, 0.0, 0.0, 0.0, 0.0, 0.0, 0.0, 0.0, 0.0, 1.666556468141112E9, 0.0, 2022-10-23 13:21:08.141
243.0, -83632.76226911096, -115923.38871042595, 47497.83694718325, 45493.153690475665, 61247.154920954104, 101014.9986761807, 62867.924614897325, 66594.74272665296, 0.05, 0.9500000000000001, 0.108, 192.0, 0.0, 0.0, 0.0, 0.0, 0.0, 0.0, 0.0, 0.0, 0.0, 1.666556468141143E9, 0.0, 2022-10-23 13:21:08.141
244.0, -83619.37357418223, -115916.95140802281, 49008.12196828389, 45374.46592741799, 61187.76633593635, 101472.29301599182, 63719.52607864453, 67266.65851672394, 0.048, 0.9520000000000001, 0.108, 192.0, 1.0, 128.0, 29.0, 192.0, 3.0, 96.0, 0.0, 0.0, 0.0, 1.6665564681411514E9, 0.0, 2022-10-23 13:21:08.141
245.0, -83570.73617824748, -115868.33636383252, 47090.67757018538, 45171.713253463895, 61025.49267119083, 100654.66620381668, 62444.78374061391, 65908.14184047483, 0.048, 0.9520000000000001, 0.108, 192.0, 0.0, 0.0, 0.0, 0.0, 0.0, 0.0, 0.0, 0.0, 0.0, 1.66655646814116E9, 0.0, 2022-10-23 13:21:08.141
246.0, -83596.39598088217, -115890.53164607665, 46201.703989708905, 45310.070551642246, 61114.184393189484, 100425.06908477176, 61971.910234917435, 65601.43120305911, 0.048, 0.9520000000000001, 0.108, 192.0, 0.0, 0.0, 0.0, 0.0, 0.0, 0.0, 0.0, 0.0, 0.0, 1.6665564681411676E9, 0.0, 2022-10-23 13:21:08.141
247.0, -83629.52126616494, -115920.48298364675, 47143.919425477914, 45458.62024529222, 61221.361007852676, 100875.03205240156, 62643.06606567694, 66367.67135473149, 0.048, 0.9520000000000001, 0.108, 192.0, 0.0, 0.0, 0.0, 0.0, 0.0, 0.0, 0.0, 0.0, 0.0, 1.6665564681411755E9, 0.0, 2022-10-23 13:21:08.141
248.0, -83625.3861934407, -115918.29251269014, 49042.588358233974, 45447.22085562001, 61229.76526376788, 101522.98677241645, 63767.82819841245, 67349.8964130755, 0.048, 0.9520000000000001, 0.108, 192.0, 0.0, 0.0, 0.0, 0.0, 0.0, 0.0, 0.0, 0.0, 0.0, 1.6665564681411834E9, 0.0, 2022-10-23 13:21:08.141
249.0, -83560.14145137566, -115857.0934363715, 47476.75925216189, 45189.03585541676, 61035.77447364027, 100793.76110956205, 62675.43139164823, 66125.82547972507, 0.048, 0.9520000000000001, 0.108, 192.0, 0.0, 0.0, 0.0, 0.0, 0.0, 0.0, 0.0, 0.0, 0.0, 1.6665564681411912E9, 0.0, 2022-10-23 13:21:08.141
250.0, -83577.32994286179, -115871.82323596756, 46154.60886414157, 45309.69057198651, 61103.38850061757, 100371.15667714557, 61903.40213816192, 65519.75792881942, 0.048, 0.9520000000000001, 0.108, 192.0, 0.0, 0.0, 0.0, 0.0, 0.0, 0.0, 0.0, 0.0, 0.0, 1.666556468141199E9, 0.0, 2022-10-23 13:21:08.141
251.0, -83614.09856249078, -115908.79302129663, 46749.52289456403, 45440.15770437213, 61211.32507459225, 100711.32787601088, 62374.442800813056, 66123.90322970191, 0.048, 0.9520000000000001, 0.108, 192.0, 0.0, 0.0, 0.0, 0.0, 0.0, 0.0, 0.0, 0.0, 0.0, 1.666556468141207E9, 0.0, 2022-10-23 13:21:08.141
252.0, -83640.25010350348, -115937.80558559962, 48835.81237027793, 45481.37432114772, 61255.492121635936, 101475.55637068229, 63658.55051977045, 67306.66813929894, 0.048, 0.9520000000000001, 0.108, 192.0, 0.0, 0.0, 0.0, 0.0, 0.0, 0.0, 0.0, 0.0, 0.0, 1.666556468141215E9, 0.0, 2022-10-23 13:21:08.141
253.0, -83579.49806207397, -115882.32855586155, 47873.86034415488, 45175.73656746585, 61037.69672366342, 100953.84430335097, 62931.15769996139, 66393.44291608846, 0.048, 0.9520000000000001, 0.108, 192.0, 0.0, 0.0, 0.0, 0.0, 0.0, 0.0, 0.0, 0.0, 0.0, 1.6665564681412227E9, 0.0, 2022-10-23 13:21:08.141
254.0, -83582.53789931988, -115886.28481463014, 46221.35117308512, 45266.507001698854, 61073.146590369535, 100387.36169187566, 61939.65666766842, 65526.46345215601, 0.042, 0.9480000000000001, 0.108, 192.0, 1.0, 80.0, 29.0, 160.0, 3.0, 96.0, 0.0, 0.0, 0.0, 1.6665564681412308E9, 0.0, 2022-10-23 13:21:08.141
255.0, -83618.41244917065, -115918.24780920123, 46514.762522549936, 45391.095625292735, 61171.3378037617, 100616.95881092058, 62228.24004033089, 65956.10868407592, 0.042, 0.9480000000000001, 0.108, 192.0, 0.0, 0.0, 0.0, 0.0, 0.0, 0.0, 0.0, 0.0, 0.0, 1.6665564681412392E9, 0.0, 2022-10-23 13:21:08.141
0.0, -83640.54067618141, -115935.34689370953, 48581.36011139872, 45507.16823424915, 61265.77392408538, 101415.54193681979, 63531.503204286484, 67206.53232413916, 0.042, 0.9480000000000001, 0.108, 192.0, 0.0, 0.0, 0.0, 0.0, 0.0, 0.0, 0.0, 0.0, 0.0, 1.666556468141247E9, 0.0, 2022-10-23 13:21:08.141
1.0, -83591.29978314636, -115887.71532627528, 48306.254840642796, 45215.209748173926, 61060.160226841006, 101131.29480258166, 63216.54477316675, 66684.55203587438, 0.042, 0.9480000000000001, 0.108, 192.0, 0.0, 0.0, 0.0, 0.0, 0.0, 0.0, 0.0, 0.0, 0.0, 1.666556468141255E9, 0.0, 2022-10-23 13:21:08.141
2.0, -83577.75462600644, -115872.04675341211, 46351.34891883718, 45252.29129222528, 61061.478979763866, 100412.9991427659, 62003.47089808833, 65553.30789724684, 0.042, 0.9480000000000001, 0.108, 192.0, 0.0, 0.0, 0.0, 0.0, 0.0, 0.0, 0.0, 0.0, 0.0, 1.6665564681412709E9, 0.0, 2022-10-23 13:21:08.141
3.0, -83604.71082981955, -115899.42764036986, 46338.45196228647, 45389.10632003621, 61173.50592297387, 100534.0785424803, 62098.354053301104, 65813.21398177314, 0.042, 0.9480000000000001, 0.108, 192.0, 0.0, 0.0, 0.0, 0.0, 0.0, 0.0, 0.0, 0.0, 0.0, 1.6665564681412785E9, 0.0, 2022-10-23 13:21:08.141
4.0, -83645.61452217276, -115939.37020771149, 48205.91785978292, 45529.54233044891, 61281.12957252617, 101293.54611558272, 63310.667969068054, 67019.85055444844, 0.042, 0.9480000000000001, 0.108, 192.0, 0.0, 0.0, 0.0, 0.0, 0.0, 0.0, 0.0, 0.0, 0.0, 1.6665564681412876E9, 0.0, 2022-10-23 13:21:08.141
5.0, -83600.19577743957, -115899.51704734768, 48699.33261863382, 45277.61581869314, 61115.68196006799, 101325.73262759837, 63493.72875615702, 66984.3112807645, 0.042, 0.9480000000000001, 0.108, 192.0, 0.0, 0.0, 0.0, 0.0, 0.0, 0.0, 0.0, 0.0, 0.0, 1.6665564681412954E9, 0.0, 2022-10-23 13:21:08.141
6.0, -83568.59041077977, -115863.44133179681, 46563.15404929567, 45219.99302148736, 61044.44695048892, 100487.1622308686, 62125.44436758094, 65644.63712509122, 0.042, 0.9480000000000001, 0.108, 192.0, 0.0, 0.0, 0.0, 0.0, 0.0, 0.0, 0.0, 0.0, 0.0, 1.6665564681413033E9, 0.0, 2022-10-23 13:21:08.141
7.0, -83593.981992481, -115883.93788146233, 46250.47549611038, 45370.755537838406, 61157.747943132876, 100496.92994319559, 62034.115139736554, 65724.83518419685, 0.042, 0.9500000000000001, 0.108, 192.0, 1.0, 80.0, 29.0, 176.0, 3.0, 96.0, 0.0, 0.0, 0.0, 1.6665564681413112E9, 0.0, 2022-10-23 13:21:08.141
8.0, -83633.81280110036, -115924.99803602672, 47768.784793470484, 45512.53265291842, 61258.46490364849, 101134.55815727213, 63042.983477471294, 66771.90265320572, 0.042, 0.9500000000000001, 0.108, 192.0, 0.0, 0.0, 0.0, 0.0, 0.0, 0.0, 0.0, 0.0, 0.0, 1.6665564681413195E9, 0.0, 2022-10-23 13:21:08.141
9.0, -83618.39009742619, -115912.27989343165, 48923.25239458709, 45335.05980194328, 61154.462236697946, 101438.11719871966, 63657.209415103134, 67180.82781801556, 0.042, 0.9500000000000001, 0.108, 192.0, 0.0, 0.0, 0.0, 0.0, 0.0, 0.0, 0.0, 0.0, 0.0, 1.6665564681413271E9, 0.0, 2022-10-23 13:21:08.141
10.0, -83582.44849234205, -115876.29358485862, 46804.84346209091, 45192.1650996405, 61016.32845596415, 100553.8821880677, 62265.098066937695, 65752.64075429925, 0.042, 0.9500000000000001, 0.108, 192.0, 0.0, 0.0, 0.0, 0.0, 0.0, 0.0, 0.0, 0.0, 0.0, 1.6665564681413352E9, 0.0, 2022-10-23 13:21:08.141
11.0, -83614.34443167978, -115902.15455319341, 46157.38048045403, 45342.234711913436, 61131.730512586895, 100435.86497734368, 61958.70035394435, 65620.63135154621, 0.042, 0.9500000000000001, 0.108, 192.0, 0.0, 0.0, 0.0, 0.0, 0.0, 0.0, 0.0, 0.0, 0.0, 1.6665564681413429E9, 0.0, 2022-10-23 13:21:08.141
12.0, -83643.84873436078, -115927.74730059472, 47337.35142199414, 45493.645428853684, 61244.94209825303, 100971.39042274839, 62774.27080562959, 66513.20356288, 0.042, 0.9500000000000001, 0.108, 192.0, 0.0, 0.0, 0.0, 0.0, 0.0, 0.0, 0.0, 0.0, 0.0, 1.6665564681413505E9, 0.0, 2022-10-23 13:21:08.141
13.0, -83634.70687087857, -115925.93680929385, 48994.12977625487, 45404.08198882127, 61199.478650030935, 101494.98003661395, 63724.37640719133, 67295.35815660455, 0.042, 0.9500000000000001, 0.108, 192.0, 0.0, 0.0, 0.0, 0.0, 0.0, 0.0, 0.0, 0.0, 0.0, 1.6665564681413584E9, 0.0, 2022-10-23 13:21:08.141
14.0, -83574.98300969398, -115873.72313424625, 47153.66478606043, 45183.22440185838, 61022.34107522263, 100683.43289893067, 62477.43963926312, 65950.49839621763, 0.042, 0.9500000000000001, 0.108, 192.0, 0.0, 0.0, 0.0, 0.0, 0.0, 0.0, 0.0, 0.0, 0.0, 1.6665564681413665E9, 0.0, 2022-10-23 13:21:08.141
15.0, -83599.01113498345, -115890.82221875456, 46122.66822131494, 45328.98012745144, 61123.482718882886, 100399.52104085936, 61912.94633304433, 65554.38078098069, 0.042, 0.9500000000000001, 0.108, 192.0, 0.0, 0.0, 0.0, 0.0, 0.0, 0.0, 0.0, 0.0, 0.0, 1.666556468141374E9, 0.0, 2022-10-23 13:21:08.141
16.0, -83634.5951121563, -115923.79104182615, 46945.458286459245, 45468.94675123057, 61233.85563300319, 100816.20226099518, 62520.91378222869, 66268.60842330557, 0.042, 0.9500000000000001, 0.108, 192.0, 0.0, 0.0, 0.0, 0.0, 0.0, 0.0, 0.0, 0.0, 0.0, 1.666556468141382E9, 0.0, 2022-10-23 13:21:08.141
17.0, -83647.98380708502, -115941.85125134603, 48959.484572349145, 45467.493887840974, 61252.38522915664, 101527.45712130751, 63737.4968811866, 67351.52809042073, 0.038, 0.9560000000000001, 0.112, 192.0, 1.0, 48.0, 29.0, 224.0, 3.0, 128.0, 0.0, 0.0, 0.0, 1.6665564681413896E9, 0.0, 2022-10-23 13:21:08.141
18.0, -83584.68366678759, -115880.92039596086, 47595.670532664124, 45177.0106168998, 61030.164185781985, 100859.31877604948, 62761.954994434716, 66219.63575120398, 0.038, 0.9560000000000001, 0.112, 192.0, 0.0, 0.0, 0.0, 0.0, 0.0, 0.0, 0.0, 0.0, 0.0, 1.6665564681414056E9, 0.0, 2022-10-23 13:21:08.141
19.0, -83596.50773960445, -115888.36352686449, 46194.66319020548, 45300.03461838182, 61097.66645403701, 100415.77075907837, 61945.69163867136, 65545.26126924292, 0.038, 0.9560000000000001, 0.112, 192.0, 0.0, 0.0, 0.0, 0.0, 0.0, 0.0, 0.0, 0.0, 0.0, 1.6665564681414132E9, 0.0, 2022-10-23 13:21:08.141
20.0, -83634.61746390075, -115923.72398659277, 46678.33258847387, 45427.05958212133, 61187.7439841919, 100706.65636141972, 62344.469111498496, 66075.6458134229, 0.038, 0.9560000000000001, 0.112, 192.0, 0.0, 0.0, 0.0, 0.0, 0.0, 0.0, 0.0, 0.0, 0.0, 1.666556468141421E9, 0.0, 2022-10-23 13:21:08.141
21.0, -83657.86327813426, -115943.99701881374, 48774.54623872593, 45503.860176069764, 61253.41340940159, 101483.42418473055, 63641.31732479541, 67292.40772633645, 0.038, 0.9560000000000001, 0.112, 192.0, 0.0, 0.0, 0.0, 0.0, 0.0, 0.0, 0.0, 0.0, 0.0, 1.6665564681414287E9, 0.0, 2022-10-23 13:21:08.141
22.0, -83599.8381495283, -115887.89414023091, 48023.16999711633, 45197.52951830978, 61043.08349407715, 101025.45929258577, 63032.12052966601, 66492.72936495893, 0.038, 0.9560000000000001, 0.112, 192.0, 0.0, 0.0, 0.0, 0.0, 0.0, 0.0, 0.0, 0.0, 0.0, 1.6665564681414366E9, 0.0, 2022-10-23 13:21:08.141
23.0, -83599.70403906156, -115880.40630583839, 46256.44341187995, 45266.8869813546, 61073.05718339171, 100408.97582876394, 61960.77906617869, 65533.95128654854, 0.038, 0.9560000000000001, 0.112, 192.0, 0.0, 0.0, 0.0, 0.0, 0.0, 0.0, 0.0, 0.0, 0.0, 1.6665564681414444E9, 0.0, 2022-10-23 13:21:08.141
24.0, -83625.65441437416, -115901.32753864856, 46437.62665243467, 45404.84194813275, 61179.09385908769, 100598.3398077893, 62178.909740318035, 65912.8580585549, 0.038, 0.9560000000000001, 0.112, 192.0, 0.0, 0.0, 0.0, 0.0, 0.0, 0.0, 0.0, 0.0, 0.0, 1.666556468141452E9, 0.0, 2022-10-23 13:21:08.141
25.0, -83648.3414349963, -115926.18267848286, 48448.188417934, 45546.373194023756, 61291.23256101997, 101395.1347941321, 63462.21279647503, 67166.16507365288, 0.038, 0.9560000000000001, 0.112, 192.0, 0.0, 0.0, 0.0, 0.0, 0.0, 0.0, 0.0, 0.0, 0.0, 1.6665564681414597E9, 0.0, 2022-10-23 13:21:08.141
26.0, -83594.80900702585, -115877.56763429257, 48448.14371444508, 45265.56822843173, 61099.5216488268, 101226.4461787279, 63326.045969253304, 66811.12996472478, 0.038, 0.9560000000000001, 0.112, 192.0, 0.0, 0.0, 0.0, 0.0, 0.0, 0.0, 0.0, 0.0, 0.0, 1.6665564681414688E9, 0.0, 2022-10-23 13:21:08.141
27.0, -83579.92274521862, -115862.18963410732, 46406.51302415288, 45256.22519924941, 61068.22920658937, 100457.2555967874, 62043.86050031907, 65588.04250813038, 0.046, 0.9560000000000001, 0.11, 192.0, 1.0, 112.0, 29.0, 224.0, 3.0, 112.0, 0.0, 0.0, 0.0, 1.6665564681414766E9, 0.0, 2022-10-23 13:21:08.141
28.0, -83615.10439099127, -115895.49373334572, 46301.90686010204, 45389.2627822474, 61171.56132120625, 100545.03089726341, 62083.49014323833, 65793.38798444129, 0.046, 0.9560000000000001, 0.11, 192.0, 0.0, 0.0, 0.0, 0.0, 0.0, 0.0, 0.0, 0.0, 0.0, 1.6665564681414847E9, 0.0, 2022-10-23 13:21:08.141
29.0, -83651.26951351995, -115933.67051287538, 48054.59654982049, 45530.23523452703, 61272.390040444145, 101261.62782450055, 63228.70412215044, 66944.39106516732, 0.046, 0.9560000000000001, 0.11, 192.0, 0.0, 0.0, 0.0, 0.0, 0.0, 0.0, 0.0, 0.0, 0.0, 1.6665564681414928E9, 0.0, 2022-10-23 13:21:08.141
30.0, -83608.44357114358, -115897.88537000245, 48768.690081678644, 45310.852862698186, 61130.054131752746, 101370.21259906443, 63546.76944574946, 67045.91268848332, 0.046, 0.9560000000000001, 0.11, 192.0, 0.0, 0.0, 0.0, 0.0, 0.0, 0.0, 0.0, 0.0, 0.0, 1.6665564681415007E9, 0.0, 2022-10-23 13:21:08.141
31.0, -83582.98493420899, -115875.42186682485, 46608.23751786203, 45217.310812152726, 61031.46058696039, 100498.65102751864, 62149.405437637026, 65649.8897850382, 0.046, 0.9560000000000001, 0.11, 192.0, 0.0, 0.0, 0.0, 0.0, 0.0, 0.0, 0.0, 0.0, 0.0, 1.6665564681415093E9, 0.0, 2022-10-23 13:21:08.141
32.0, -83617.80895207035, -115904.38972763893, 46183.82259414466, 45360.83136330025, 61137.13963474508, 100462.17298056759, 61985.4330403129, 65658.58461363132, 0.046, 0.9560000000000001, 0.11, 192.0, 0.0, 0.0, 0.0, 0.0, 0.0, 0.0, 0.0, 0.0, 0.0, 1.6665564681415172E9, 0.0, 2022-10-23 13:21:08.141
33.0, -83650.8895338642, -115935.68216987637, 47603.65010543467, 45517.89707158769, 61253.525168123866, 101080.7575083682, 62944.2558222122, 66673.89025376919, 0.046, 0.9560000000000001, 0.11, 192.0, 0.0, 0.0, 0.0, 0.0, 0.0, 0.0, 0.0, 0.0, 0.0, 1.666556468141533E9, 0.0, 2022-10-23 13:21:08.141
34.0, -83629.61067314276, -115916.43731790035, 48979.623494103376, 45373.81772682878, 61176.478704986424, 101484.2511992754, 63707.970226761136, 67242.16100480092, 0.046, 0.9560000000000001, 0.11, 192.0, 0.0, 0.0, 0.0, 0.0, 0.0, 0.0, 0.0, 0.0, 0.0, 1.6665564681415412E9, 0.0, 2022-10-23 13:21:08.141
35.0, -83581.46501558603, -115867.7999219656, 46954.421335985826, 45198.93767821046, 61027.303162491706, 100622.9490784346, 62363.043411140854, 65831.96709537115, 0.046, 0.9560000000000001, 0.11, 192.0, 0.0, 0.0, 0.0, 0.0, 0.0, 0.0, 0.0, 0.0, 0.0, 1.666556468141549E9, 0.0, 2022-10-23 13:21:08.141
36.0, -83607.32598392082, -115887.603567553, 46137.97916626682, 45346.19097068202, 61124.82382355021, 100413.31206718828, 61928.3690367185, 65579.37003128172, 0.046, 0.9560000000000001, 0.11, 192.0, 0.0, 0.0, 0.0, 0.0, 0.0, 0.0, 0.0, 0.0, 0.0, 1.6665564681415572E9, 0.0, 2022-10-23 13:21:08.141
37.0, -83656.25395253349, -115933.82697508657, 47191.327475467624, 45490.940867774596, 61237.61072607169, 100909.90077375184, 62673.30797592497, 66415.74995705485, 0.042, 0.962, 0.10400000000000001, 192.0, 1.0, 80.0, 30.0, 16.0, 3.0, 64.0, 0.0, 0.0, 0.0, 1.6665564681415648E9, 0.0, 2022-10-23 13:21:08.141
38.0, -83661.10428108029, -115943.54998392463, 49019.27548876709, 45428.31127981082, 61212.129737392635, 101519.18697585905, 63748.80686388098, 67329.6904360879, 0.042, 0.962, 0.10400000000000001, 192.0, 0.0, 0.0, 0.0, 0.0, 0.0, 0.0, 0.0, 0.0, 0.0, 1.6665564681415734E9, 0.0, 2022-10-23 13:21:08.141
39.0, -83594.00434422545, -115880.83098898304, 47335.697392904454, 45185.03489315926, 61024.285676990236, 100752.07510615292, 62593.8251726419, 66048.37668518742, 0.042, 0.962, 0.10400000000000001, 192.0, 0.0, 0.0, 0.0, 0.0, 0.0, 0.0, 0.0, 0.0, 0.0, 1.6665564681415813E9, 0.0, 2022-10-23 13:21:08.141
40.0, -83608.13064672121, -115895.11375368998, 46173.13846029502, 45322.14049364811, 61115.34668390116, 100412.95443927699, 61940.55073744664, 65555.74423739246, 0.042, 0.962, 0.10400000000000001, 192.0, 0.0, 0.0, 0.0, 0.0, 0.0, 0.0, 0.0, 0.0, 0.0, 1.6665564681415887E9, 0.0, 2022-10-23 13:21:08.141
41.0, -83638.43961220261, -115924.39453892644, 46867.89773319933, 45460.14016391518, 61221.15984215258, 100782.42877512322, 62469.236549048015, 66203.05075681815, 0.042, 0.962, 0.10400000000000001, 192.0, 0.0, 0.0, 0.0, 0.0, 0.0, 0.0, 0.0, 0.0, 0.0, 1.6665564681415963E9, 0.0, 2022-10-23 13:21:08.141
42.0, -83652.32004550935, -115938.09615827753, 48925.219348099155, 45494.137167231704, 61257.2579094479, 101519.74576947044, 63719.771947833535, 67345.22489848435, 0.042, 0.962, 0.10400000000000001, 192.0, 0.0, 0.0, 0.0, 0.0, 0.0, 0.0, 0.0, 0.0, 0.0, 1.6665564681416042E9, 0.0, 2022-10-23 13:21:08.141
43.0, -83592.21620466904, -115880.20514013829, 47752.44566827365, 45187.40417807152, 61032.28760150524, 100909.99018072966, 62853.73125716821, 66309.82504008115, 0.042, 0.962, 0.10400000000000001, 192.0, 0.0, 0.0, 0.0, 0.0, 0.0, 0.0, 0.0, 0.0, 0.0, 1.666556468141612E9, 0.0, 2022-10-23 13:21:08.141
44.0, -83607.95183276557, -115893.95146297831, 46181.58741969913, 45285.48363274141, 61081.394384073545, 100377.57162780424, 61914.39919643393, 65511.57719034877, 0.042, 0.962, 0.10400000000000001, 192.0, 0.0, 0.0, 0.0, 0.0, 0.0, 0.0, 0.0, 0.0, 0.0, 1.66655646814162E9, 0.0, 2022-10-23 13:21:08.141
45.0, -83641.7923738709, -115925.82505057157, 46562.34938649528, 45419.482340750976, 61193.443679028, 100648.98886072503, 62259.06309593476, 66000.85687647545, 0.042, 0.962, 0.10400000000000001, 192.0, 0.0, 0.0, 0.0, 0.0, 0.0, 0.0, 0.0, 0.0, 0.0, 1.6665564681416278E9, 0.0, 2022-10-23 13:21:08.141
46.0, -83660.88076363574, -115942.70061763533, 48675.79623172239, 45528.02241182595, 61288.617406918696, 101465.11810602166, 63590.511809648495, 67269.89951966995, 0.044, 0.9540000000000001, 0.1, 192.0, 1.0, 96.0, 29.0, 208.0, 3.0, 32.0, 0.0, 0.0, 0.0, 1.6665564681416357E9, 0.0, 2022-10-23 13:21:08.141
47.0, -83597.40180938266, -115880.6968785163, 48182.73910078277, 45236.64507110656, 61078.84628520564, 101099.9129533664, 63139.185385606936, 66618.94966589805, 0.044, 0.9540000000000001, 0.1, 192.0, 0.0, 0.0, 0.0, 0.0, 0.0, 0.0, 0.0, 0.0, 0.0, 1.6665564681416447E9, 0.0, 2022-10-23 13:21:08.141
48.0, -83594.33962039229, -115878.08172441504, 46324.795046424275, 45282.041464095295, 61093.33021561268, 100440.51414019038, 62002.95680796586, 65570.85401664424, 0.044, 0.9540000000000001, 0.1, 192.0, 0.0, 0.0, 0.0, 0.0, 0.0, 0.0, 0.0, 0.0, 0.0, 1.6665564681416528E9, 0.0, 2022-10-23 13:21:08.141
49.0, -83628.64954813117, -115914.604474855, 46404.03198051834, 45403.813767887805, 61180.85964689966, 100591.20960130807, 62155.574519106696, 65875.86592148137, 0.044, 0.9540000000000001, 0.1, 192.0, 0.0, 0.0, 0.0, 0.0, 0.0, 0.0, 0.0, 0.0, 0.0, 1.6665564681416686E9, 0.0, 2022-10-23 13:21:08.141
50.0, -83659.27143803495, -115944.57816416958, 48293.02260792525, 45540.271167787454, 61273.015889288894, 101324.95031654242, 63357.651335913106, 67068.48795038319, 0.044, 0.9540000000000001, 0.1, 192.0, 0.0, 0.0, 0.0, 0.0, 0.0, 0.0, 0.0, 0.0, 0.0, 1.6665564681416767E9, 0.0, 2022-10-23 13:21:08.141
51.0, -83625.85558007426, -115915.09621323303, 48575.682768307066, 45276.498231470374, 61107.74709078635, 101272.13314439454, 63405.10408939172, 66899.77698323452, 0.044, 0.9540000000000001, 0.1, 192.0, 0.0, 0.0, 0.0, 0.0, 0.0, 0.0, 0.0, 0.0, 0.0, 1.6665564681416843E9, 0.0, 2022-10-23 13:21:08.141
52.0, -83608.86825428823, -115892.76682052217, 46490.53323156038, 45237.11445774013, 61049.118465080086, 100468.83380041526, 62084.16069557198, 65612.1376886532, 0.044, 0.9540000000000001, 0.1, 192.0, 0.0, 0.0, 0.0, 0.0, 0.0, 0.0, 0.0, 0.0, 0.0, 1.666556468141692E9, 0.0, 2022-10-23 13:21:08.141
53.0, -83636.45030694608, -115924.84157381555, 46263.707728827925, 45380.56795365429, 61159.7372483894, 100506.04945493335, 62042.787616585214, 65739.29676285943, 0.044, 0.9540000000000001, 0.1, 192.0, 0.0, 0.0, 0.0, 0.0, 0.0, 0.0, 0.0, 0.0, 0.0, 1.6665564681417E9, 0.0, 2022-10-23 13:21:08.141
54.0, -83669.97792362905, -115961.14080681096, 47913.221766140676, 45536.91840611916, 61279.47554343648, 101202.4851086718, 63135.72086521636, 66860.19204380419, 0.044, 0.9540000000000001, 0.1, 192.0, 0.0, 0.0, 0.0, 0.0, 0.0, 0.0, 0.0, 0.0, 0.0, 1.6665564681417077E9, 0.0, 2022-10-23 13:21:08.141
55.0, -83632.00230979947, -115924.39453892644, 48906.2427170566, 45347.062688715785, 61164.945204847485, 101439.50300687588, 63643.59720272985, 67159.63836427193, 0.044, 0.9540000000000001, 0.1, 192.0, 0.0, 0.0, 0.0, 0.0, 0.0, 0.0, 0.0, 0.0, 0.0, 1.6665564681417153E9, 0.0, 2022-10-23 13:21:08.141
56.0, -83605.40373389766, -115898.06418395808, 46764.72208079363, 45212.840463261666, 61035.28273526225, 100556.96672880254, 62241.047589903785, 65734.11115814581, 0.044, 0.9520000000000001, 0.1, 192.0, 1.0, 96.0, 29.0, 192.0, 3.0, 32.0, 0.0, 0.0, 0.0, 1.6665564681417232E9, 0.0, 2022-10-23 13:21:08.141
57.0, -83652.05182457589, -115939.05728328912, 46184.31433252267, 45351.242464928924, 61130.85879455314, 100449.34307925023, 61964.06477261362, 65636.81401453186, 0.044, 0.9520000000000001, 0.1, 192.0, 0.0, 0.0, 0.0, 0.0, 0.0, 0.0, 0.0, 0.0, 0.0, 1.6665564681417325E9, 0.0, 2022-10-23 13:21:08.141
58.0, -83683.18780460213, -115968.76275167022, 47473.16062130459, 45514.16433026366, 61253.63692684614, 101030.30962113258, 62848.65741117686, 66593.04399407435, 0.044, 0.9520000000000001, 0.1, 192.0, 0.0, 0.0, 0.0, 0.0, 0.0, 0.0, 0.0, 0.0, 0.0, 1.6665564681417403E9, 0.0, 2022-10-23 13:21:08.141
59.0, -83677.26459232147, -115970.34972552655, 49025.73514291467, 45402.003276586925, 61192.05787087177, 101512.48145252246, 63730.85841308337, 67294.19586589288, 0.044, 0.9520000000000001, 0.1, 192.0, 0.0, 0.0, 0.0, 0.0, 0.0, 0.0, 0.0, 0.0, 0.0, 1.666556468141749E9, 0.0, 2022-10-23 13:21:08.141
60.0, -83638.57372266933, -115927.03204477216, 47110.70473321733, 45199.831747988675, 61027.66079040299, 100687.85854433282, 62448.71764763805, 65924.23509648265, 0.044, 0.9520000000000001, 0.1, 192.0, 0.0, 0.0, 0.0, 0.0, 0.0, 0.0, 0.0, 0.0, 0.0, 1.6665564681417568E9, 0.0, 2022-10-23 13:21:08.141
61.0, -83676.90696441018, -115962.79483590066, 46166.388233469515, 45327.72842976194, 61098.22524764839, 100421.93984054803, 61931.65474315343, 65575.79375216887, 0.044, 0.9520000000000001, 0.1, 192.0, 0.0, 0.0, 0.0, 0.0, 0.0, 0.0, 0.0, 0.0, 0.0, 1.6665564681417646E9, 0.0, 2022-10-23 13:21:08.141
62.0, -83715.7095927846, -116001.66451950843, 47054.91477905688, 45484.235344438, 61216.98006593944, 100846.98061311015, 62566.77956185098, 66321.06796754217, 0.044, 0.9520000000000001, 0.1, 192.0, 0.0, 0.0, 0.0, 0.0, 0.0, 0.0, 0.0, 0.0, 0.0, 1.6665564681417735E9, 0.0, 2022-10-23 13:21:08.141
0.0, 0.0, 0.0, 0.0, 0.0, 0.0, 0.0, 0.0, 0.0, 0.062, 0.9480000000000001, 0.098, 192.0, 1.0, 240.0, 29.0, 160.0, 3.0, 16.0, 0.0, 0.0, 0.0, 1.666556468233146E9, 0.0, 2022-10-23 13:21:08.233
1.0, -83789.51505297603, -116062.1483400045, 46494.06480718432, 45608.9133750097, 61172.991832851396, 100799.08082474243, 62224.70846470696, 65784.64845235925, 0.062, 0.9480000000000001, 0.098, 192.0, 0.0, 0.0, 0.0, 0.0, 0.0, 0.0, 0.0, 0.0, 0.0, 1.666556468726751E9, 0.0, 2022-10-23 13:21:08.726
2.0, -83816.11362887784, -116088.76926765076, 48173.88780997846, 45756.83721981492, 61278.961453314005, 101484.13944055313, 63324.637809352615, 66911.84692524039, 0.062, 0.9480000000000001, 0.098, 192.0, 0.0, 0.0, 0.0, 0.0, 0.0, 0.0, 0.0, 0.0, 0.0, 1.6665564687268105E9, 0.0, 2022-10-23 13:21:08.726
3.0, -83781.55783194993, -116059.22026148085, 48969.2075811872, 45547.96016788008, 61142.45934992545, 101623.8378433988, 63690.334700385894, 67076.10989524245, 0.062, 0.9480000000000001, 0.098, 192.0, 0.0, 0.0, 0.0, 0.0, 0.0, 0.0, 0.0, 0.0, 0.0, 1.6665564687268333E9, 0.0, 2022-10-23 13:21:08.726
4.0, -83744.69980534313, -116023.85980175255, 46833.49839848261, 45453.300530111854, 61052.9629651264, 100766.93901621569, 62299.47504990996, 65685.96550058908, 0.062, 0.9480000000000001, 0.098, 192.0, 0.0, 0.0, 0.0, 0.0, 0.0, 0.0, 0.0, 0.0, 0.0, 1.666556468726842E9, 0.0, 2022-10-23 13:21:08.726
5.0, -83769.01850331051, -116046.07743574113, 46357.92033170704, 45608.28752616495, 61175.20465555247, 100717.04992259144, 62101.34918705812, 65674.20848300558, 0.062, 0.9480000000000001, 0.098, 192.0, 0.0, 0.0, 0.0, 0.0, 0.0, 0.0, 0.0, 0.0, 0.0, 1.6665564687268555E9, 0.0, 2022-10-23 13:21:08.726
6.0, -83813.54317826548, -116088.0540118282, 47730.13862730726, 45768.01309204258, 61293.646549421144, 101328.21367123291, 63040.256564647745, 66677.22066369304, 0.062, 0.9480000000000001, 0.098, 192.0, 0.0, 0.0, 0.0, 0.0, 0.0, 0.0, 0.0, 0.0, 0.0, 1.6665564687268636E9, 0.0, 2022-10-23 13:21:08.726
7.0, -83811.91150092024, -116091.80910489669, 49160.046775346615, 45616.31180242441, 61197.13171686313, 101746.77243790298, 63835.464577134204, 67278.19201686287, 0.06, 0.9440000000000001, 0.096, 192.0, 1.0, 224.0, 29.0, 128.0, 3.0, 0.0, 0.0, 0.0, 0.0, 1.6665564687268715E9, 0.0, 2022-10-23 13:21:08.726
8.0, -83754.55692464793, -116035.59446759158, 47178.05053926117, 45429.60768098923, 61035.46154921789, 100894.83569798896, 62506.18398263264, 65869.56272954497, 0.06, 0.9440000000000001, 0.096, 192.0, 0.0, 0.0, 0.0, 0.0, 0.0, 0.0, 0.0, 0.0, 0.0, 1.6665564687268803E9, 0.0, 2022-10-23 13:21:08.726
9.0, -83776.66279991422, -116050.77130207674, 46362.3906805981, 45593.15539516871, 61158.35144023317, 100708.73507365407, 62089.368652030076, 65623.62648530322, 0.06, 0.9440000000000001, 0.096, 192.0, 0.0, 0.0, 0.0, 0.0, 0.0, 0.0, 0.0, 0.0, 0.0, 1.6665564687268882E9, 0.0, 2022-10-23 13:21:08.726
10.0, -83810.10100961936, -116084.14245654852, 47355.23281755839, 45730.68567880222, 61268.903168309116, 101184.04491949617, 62803.50688737713, 66429.31746593922, 0.06, 0.9440000000000001, 0.096, 192.0, 0.0, 0.0, 0.0, 0.0, 0.0, 0.0, 0.0, 0.0, 0.0, 1.666556468726896E9, 0.0, 2022-10-23 13:21:08.726
11.0, -83803.9319281497, -116083.94129084842, 49224.285688911164, 45684.931657902205, 61256.78852281434, 101821.87429927282, 63916.33318857351, 67387.55910248269, 0.06, 0.9440000000000001, 0.096, 192.0, 0.0, 0.0, 0.0, 0.0, 0.0, 0.0, 0.0, 0.0, 0.0, 1.666556468726904E9, 0.0, 2022-10-23 13:21:08.726
12.0, -83760.23426773958, -116031.95113324537, 47589.41204421664, 45428.19952108854, 61047.486787734844, 101059.12101973547, 62774.89665447434, 66109.28518882814, 0.06, 0.9440000000000001, 0.096, 192.0, 0.0, 0.0, 0.0, 0.0, 0.0, 0.0, 0.0, 0.0, 0.0, 1.666556468726912E9, 0.0, 2022-10-23 13:21:08.726
13.0, -83785.80466339644, -116054.81696782315, 46375.980541226934, 45567.62970300075, 61136.80435857825, 100695.2122682586, 62087.42405026246, 65577.09015334728, 0.06, 0.9440000000000001, 0.096, 192.0, 0.0, 0.0, 0.0, 0.0, 0.0, 0.0, 0.0, 0.0, 0.0, 1.66655646872692E9, 0.0, 2022-10-23 13:21:08.726
14.0, -83808.11170436283, -116080.54382569122, 47030.752543300696, 45695.28051558501, 61234.36972312567, 101052.92958652135, 62598.38492851078, 66207.85638187604, 0.06, 0.9440000000000001, 0.096, 192.0, 0.0, 0.0, 0.0, 0.0, 0.0, 0.0, 0.0, 0.0, 0.0, 1.6665564687269278E9, 0.0, 2022-10-23 13:21:08.726
15.0, -83818.86289344584, -116097.32998577715, 49092.43274836931, 45735.31248990446, 61276.90509282412, 101798.1814501502, 63861.482007680184, 67372.53873020873, 0.06, 0.9440000000000001, 0.096, 192.0, 0.0, 0.0, 0.0, 0.0, 0.0, 0.0, 0.0, 0.0, 0.0, 1.6665564687269356E9, 0.0, 2022-10-23 13:21:08.726
16.0, -83777.93684934817, -116054.48169165633, 48045.9911282052, 45442.3258235843, 61058.550901240225, 101245.55692023718, 63077.20399823237, 66403.85882900463, 0.06, 0.9440000000000001, 0.096, 192.0, 0.0, 0.0, 0.0, 0.0, 0.0, 0.0, 0.0, 0.0, 0.0, 1.6665564687269435E9, 0.0, 2022-10-23 13:21:08.726
17.0, -83789.89503263177, -116060.33784870361, 46428.350678485716, 45537.38779275272, 61091.3185586117, 100684.68459662017, 62094.68836721044, 65552.3244204908, 0.066, 0.9520000000000001, 0.09, 192.0, 2.0, 16.0, 29.0, 192.0, 2.0, 208.0, 0.0, 0.0, 0.0, 1.6665564687269974E9, 0.0, 2022-10-23 13:21:08.726
18.0, -83800.69092520367, -116075.96171807787, 46756.96602546764, 45671.788832162485, 61210.98979842541, 100928.85505304993, 62403.36595813822, 66013.82088825952, 0.066, 0.9520000000000001, 0.09, 192.0, 0.0, 0.0, 0.0, 0.0, 0.0, 0.0, 0.0, 0.0, 0.0, 1.666556468727006E9, 0.0, 2022-10-23 13:21:08.727
19.0, -83822.37211732533, -116105.28720680323, 48797.03209364797, 45769.68947287673, 61289.734994141465, 101697.62095184576, 63681.70692702615, 67244.88791762447, 0.066, 0.9520000000000001, 0.09, 192.0, 0.0, 0.0, 0.0, 0.0, 0.0, 0.0, 0.0, 0.0, 0.0, 1.666556468727014E9, 0.0, 2022-10-23 13:21:08.727
20.0, -83775.05347431343, -116054.6381538675, 48430.9328712145, 45474.86996351123, 61086.51293355381, 101390.10565162965, 63314.311303414266, 66663.40728561966, 0.066, 0.9520000000000001, 0.09, 192.0, 0.0, 0.0, 0.0, 0.0, 0.0, 0.0, 0.0, 0.0, 0.0, 1.666556468727022E9, 0.0, 2022-10-23 13:21:08.727
21.0, -83761.10598577333, -116035.72857805832, 46494.15421416214, 45518.85819659927, 61082.82489571869, 100678.91784655068, 62105.014873148786, 65544.50130993144, 0.066, 0.9520000000000001, 0.09, 192.0, 0.0, 0.0, 0.0, 0.0, 0.0, 0.0, 0.0, 0.0, 0.0, 1.66655646872703E9, 0.0, 2022-10-23 13:21:08.727
22.0, -83793.20309081115, -116064.58468015012, 46515.6789440726, 45650.21939876311, 61192.75077494988, 100813.36358944936, 62222.29447630578, 65829.0837203364, 0.066, 0.9520000000000001, 0.09, 192.0, 0.0, 0.0, 0.0, 0.0, 0.0, 0.0, 0.0, 0.0, 0.0, 1.666556468727038E9, 0.0, 2022-10-23 13:21:08.727
23.0, -83826.283672605, -116093.5525409642, 48397.18173708698, 45785.22393527316, 61296.68638666706, 101570.5289328729, 63442.655020076636, 67042.47051983721, 0.066, 0.9520000000000001, 0.09, 192.0, 0.0, 0.0, 0.0, 0.0, 0.0, 0.0, 0.0, 0.0, 0.0, 1.6665564687270455E9, 0.0, 2022-10-23 13:21:08.727
24.0, -83771.14191903376, -116049.45254915388, 48788.35961679931, 45537.16427530817, 61139.86654756863, 101562.728174058, 63562.34861163481, 66945.66511460127, 0.066, 0.9520000000000001, 0.09, 192.0, 0.0, 0.0, 0.0, 0.0, 0.0, 0.0, 0.0, 0.0, 0.0, 1.6665564687270536E9, 0.0, 2022-10-23 13:21:08.727
25.0, -83755.36158744832, -116028.50896459926, 46696.68337067168, 45479.54147810239, 61071.827837446675, 100754.37733583181, 62229.78231069831, 65640.47970062253, 0.066, 0.9520000000000001, 0.09, 192.0, 0.0, 0.0, 0.0, 0.0, 0.0, 0.0, 0.0, 0.0, 0.0, 1.6665564687270615E9, 0.0, 2022-10-23 13:21:08.727
26.0, -83801.13796009279, -116071.58077616463, 46436.598472189726, 45614.27779367898, 61175.070545085735, 100783.25578966807, 62168.53853089077, 65751.5678705654, 0.066, 0.9520000000000001, 0.09, 192.0, 0.0, 0.0, 0.0, 0.0, 0.0, 0.0, 0.0, 0.0, 0.0, 1.6665564687270696E9, 0.0, 2022-10-23 13:21:08.727
27.0, -83832.36334709685, -116104.0578608582, 48008.50725275365, 45774.405690956795, 61287.008081317916, 101446.52145463484, 63212.454403931435, 66835.31455222542, 0.058, 0.9500000000000001, 0.094, 192.0, 1.0, 208.0, 29.0, 176.0, 2.0, 240.0, 0.0, 0.0, 0.0, 1.6665564687270784E9, 0.0, 2022-10-23 13:21:08.727
28.0, -83800.62386997031, -116071.02198255325, 49054.345375817466, 45598.74333128254, 61181.932530633516, 101702.44892864811, 63750.63970692632, 67174.2117016568, 0.058, 0.9500000000000001, 0.094, 192.0, 0.0, 0.0, 0.0, 0.0, 0.0, 0.0, 0.0, 0.0, 0.0, 1.6665564687270873E9, 0.0, 2022-10-23 13:21:08.727
29.0, -83781.84840462786, -116051.8441858106, 46955.00248134166, 45445.544474785864, 61045.78805515624, 100838.3975432393, 62374.219283368504, 65757.2675654015, 0.058, 0.9500000000000001, 0.094, 192.0, 0.0, 0.0, 0.0, 0.0, 0.0, 0.0, 0.0, 0.0, 0.0, 1.666556468727095E9, 0.0, 2022-10-23 13:21:08.727
30.0, -83811.30800381996, -116083.8518838706, 46358.635587529614, 45587.72392126607, 61147.533195916796, 100734.23841407758, 62098.53286725675, 65653.82369206235, 0.058, 0.9500000000000001, 0.094, 192.0, 0.0, 0.0, 0.0, 0.0, 0.0, 0.0, 0.0, 0.0, 0.0, 1.6665564687271028E9, 0.0, 2022-10-23 13:21:08.727
31.0, -83821.58980626939, -116102.13561083503, 47566.41209917213, 45747.069507487955, 61262.957604284005, 101276.96112119689, 62933.862261040485, 66569.55231065182, 0.058, 0.9500000000000001, 0.094, 192.0, 0.0, 0.0, 0.0, 0.0, 0.0, 0.0, 0.0, 0.0, 0.0, 1.6665564687271106E9, 0.0, 2022-10-23 13:21:08.727
32.0, -83820.15929462425, -116093.3066717752, 49172.80962143059, 45651.47109645261, 61220.28812411882, 101782.80344996494, 63857.413990189314, 67322.62728484003, 0.058, 0.9500000000000001, 0.094, 192.0, 0.0, 0.0, 0.0, 0.0, 0.0, 0.0, 0.0, 0.0, 0.0, 1.6665564687271261E9, 0.0, 2022-10-23 13:21:08.727
33.0, -83780.59670693836, -116047.84322355309, 47311.13282574807, 45425.763180942915, 61041.496520220826, 100965.26604476763, 62598.31787327742, 65960.0649428445, 0.058, 0.9500000000000001, 0.094, 192.0, 0.0, 0.0, 0.0, 0.0, 0.0, 0.0, 0.0, 0.0, 0.0, 1.6665564687271342E9, 0.0, 2022-10-23 13:21:08.727
34.0, -83785.13411106278, -116050.97246777684, 46335.97091865193, 45593.490671335545, 61143.129902259105, 100699.92848633869, 62065.34052674062, 65596.17854311211, 0.058, 0.9500000000000001, 0.094, 192.0, 0.0, 0.0, 0.0, 0.0, 0.0, 0.0, 0.0, 0.0, 0.0, 1.6665564687271423E9, 0.0, 2022-10-23 13:21:08.727
35.0, -83819.57814926842, -116084.76830539327, 47195.797824358684, 45744.58846385342, 61265.41629617409, 101129.55136651413, 62692.64223487881, 66338.23410728385, 0.058, 0.9500000000000001, 0.094, 192.0, 0.0, 0.0, 0.0, 0.0, 0.0, 0.0, 0.0, 0.0, 0.0, 1.6665564687271504E9, 0.0, 2022-10-23 13:21:08.727
36.0, -83829.1893993842, -116100.14630557851, 49178.844592433525, 45725.1424461773, 61278.715584125, 101830.32325867693, 63890.31575802753, 67401.19366660043, 0.06, 0.9520000000000001, 0.1, 192.0, 1.0, 224.0, 29.0, 192.0, 3.0, 32.0, 0.0, 0.0, 0.0, 1.6665564687271583E9, 0.0, 2022-10-23 13:21:08.727
37.0, -83772.75124463455, -116045.09395898509, 47716.280545744965, 45443.28694859588, 61059.15439834051, 101121.1694623434, 62846.10931230895, 66204.03423357419, 0.06, 0.9520000000000001, 0.1, 192.0, 0.0, 0.0, 0.0, 0.0, 0.0, 0.0, 0.0, 0.0, 0.0, 1.666556468727167E9, 0.0, 2022-10-23 13:21:08.727
38.0, -83802.6355269713, -116068.87621508555, 46345.06807864524, 45561.3041593199, 61126.38844566208, 100682.96351229711, 62042.36293344056, 65553.39730422465, 0.06, 0.9520000000000001, 0.1, 192.0, 0.0, 0.0, 0.0, 0.0, 0.0, 0.0, 0.0, 0.0, 0.0, 1.6665564687271748E9, 0.0, 2022-10-23 13:21:08.727
39.0, -83829.81524822894, -116092.47965723035, 46876.6149135369, 45691.12309111632, 61230.43581610153, 100999.73243471772, 62476.1432380847, 66118.98584592174, 0.06, 0.9520000000000001, 0.1, 192.0, 0.0, 0.0, 0.0, 0.0, 0.0, 0.0, 0.0, 0.0, 0.0, 1.6665564687271829E9, 0.0, 2022-10-23 13:21:08.727
40.0, -83847.58488507092, -116116.88776217554, 48975.08608997895, 45759.67589136075, 61288.63975866315, 101780.7247377306, 63781.216893341174, 67336.06068325766, 0.06, 0.9520000000000001, 0.1, 192.0, 0.0, 0.0, 0.0, 0.0, 0.0, 0.0, 0.0, 0.0, 0.0, 1.6665564687271907E9, 0.0, 2022-10-23 13:21:08.727
41.0, -83780.14967204926, -116055.28635445671, 48161.99668192824, 45468.90204774166, 61080.43325906197, 101311.87454603608, 63141.889946686024, 66497.73615571692, 0.06, 0.9520000000000001, 0.1, 192.0, 0.0, 0.0, 0.0, 0.0, 0.0, 0.0, 0.0, 0.0, 0.0, 1.6665564687271986E9, 0.0, 2022-10-23 13:21:08.727
42.0, -83792.95722162214, -116062.8412440826, 46457.92203640009, 45539.89118813172, 61110.85398326564, 100720.38033251528, 62109.86520169559, 65575.88315914669, 0.06, 0.9520000000000001, 0.1, 192.0, 0.0, 0.0, 0.0, 0.0, 0.0, 0.0, 0.0, 0.0, 0.0, 1.6665564687272065E9, 0.0, 2022-10-23 13:21:08.727
43.0, -83829.12234415083, -116098.64873870001, 46670.24125698105, 45656.65670116624, 61195.32122556225, 100907.97852372869, 62340.5128527299, 65954.1640823083, 0.06, 0.9520000000000001, 0.1, 192.0, 0.0, 0.0, 0.0, 0.0, 0.0, 0.0, 0.0, 0.0, 0.0, 1.6665564687272143E9, 0.0, 2022-10-23 13:21:08.727
44.0, -83842.2428181461, -116112.01508188428, 48673.11402238775, 45787.414406229786, 61294.38415698817, 101680.49951559301, 63612.08124304787, 67193.16598095489, 0.06, 0.9520000000000001, 0.1, 192.0, 0.0, 0.0, 0.0, 0.0, 0.0, 0.0, 0.0, 0.0, 0.0, 1.6665564687272224E9, 0.0, 2022-10-23 13:21:08.727
45.0, -83792.30902103294, -116065.65756388397, 48564.10456467922, 45505.178928992624, 61108.28353265328, 101464.53696066582, 63403.80768821332, 66770.98623168305, 0.06, 0.9520000000000001, 0.1, 192.0, 0.0, 0.0, 0.0, 0.0, 0.0, 0.0, 0.0, 0.0, 0.0, 1.6665564687272303E9, 0.0, 2022-10-23 13:21:08.727
46.0, -83784.7764831515, -116054.66050561196, 46558.080203304315, 45507.61526913825, 61081.752011984834, 100707.99746608705, 62141.984658477864, 65578.65477545914, 0.056, 0.9580000000000001, 0.10400000000000001, 192.0, 1.0, 192.0, 29.0, 240.0, 3.0, 64.0, 0.0, 0.0, 0.0, 1.666556468727238E9, 0.0, 2022-10-23 13:21:08.727
47.0, -83813.49847477657, -116077.32517448964, 46513.15319694915, 45651.851076108345, 61200.171554109045, 100826.3499529779, 62226.720121707935, 65827.42969124671, 0.056, 0.9580000000000001, 0.10400000000000001, 192.0, 0.0, 0.0, 0.0, 0.0, 0.0, 0.0, 0.0, 0.0, 0.0, 1.6665564687272463E9, 0.0, 2022-10-23 13:21:08.727
48.0, -83844.45564084717, -116105.84600041462, 48297.11297716057, 45797.24917379012, 61303.302503025836, 101552.75929603093, 63390.866028173696, 66997.74467918214, 0.056, 0.9580000000000001, 0.10400000000000001, 192.0, 0.0, 0.0, 0.0, 0.0, 0.0, 0.0, 0.0, 0.0, 0.0, 1.6665564687272625E9, 0.0, 2022-10-23 13:21:08.727
49.0, -83809.34105030788, -116080.05208731319, 48914.468159016156, 45555.98444413954, 61146.01327729384, 101622.36262826475, 63645.944135897655, 67038.11192966842, 0.056, 0.9580000000000001, 0.10400000000000001, 192.0, 0.0, 0.0, 0.0, 0.0, 0.0, 0.0, 0.0, 0.0, 0.0, 1.6665564687272704E9, 0.0, 2022-10-23 13:21:08.727
50.0, -83787.16811980822, -116063.71296211636, 46776.7920227995, 45466.71157678504, 61048.64907844652, 100766.60374004886, 62261.968822713956, 65660.43980842111, 0.056, 0.9580000000000001, 0.10400000000000001, 192.0, 0.0, 0.0, 0.0, 0.0, 0.0, 0.0, 0.0, 0.0, 0.0, 1.666556468727278E9, 0.0, 2022-10-23 13:21:08.727
51.0, -83806.41297178423, -116083.76247689278, 46419.63349814815, 45626.14656998475, 61174.84702764118, 100767.07312668243, 62146.07502771319, 65718.12966086026, 0.056, 0.9580000000000001, 0.10400000000000001, 192.0, 0.0, 0.0, 0.0, 0.0, 0.0, 0.0, 0.0, 0.0, 0.0, 1.6665564687272856E9, 0.0, 2022-10-23 13:21:08.727
52.0, -83840.9911204566, -116111.72450920637, 47871.35694877589, 45775.322112479465, 61286.49399119544, 101390.39622430757, 63122.42157726546, 66746.68988546013, 0.056, 0.9580000000000001, 0.10400000000000001, 192.0, 0.0, 0.0, 0.0, 0.0, 0.0, 0.0, 0.0, 0.0, 0.0, 1.6665564687272933E9, 0.0, 2022-10-23 13:21:08.727
53.0, -83821.52275103603, -116089.01513683978, 49130.6989348768, 45614.85893903481, 61184.32416729024, 101728.64517314974, 63802.115774406884, 67230.94042908435, 0.056, 0.9580000000000001, 0.10400000000000001, 192.0, 0.0, 0.0, 0.0, 0.0, 0.0, 0.0, 0.0, 0.0, 0.0, 1.6665564687273011E9, 0.0, 2022-10-23 13:21:08.727
54.0, -83782.58601219488, -116050.27956369873, 47072.81852636558, 45452.80879173384, 61041.965906854384, 100855.96601438118, 62435.59717364278, 65811.78347012801, 0.056, 0.9580000000000001, 0.10400000000000001, 192.0, 0.0, 0.0, 0.0, 0.0, 0.0, 0.0, 0.0, 0.0, 0.0, 1.6665564687273088E9, 0.0, 2022-10-23 13:21:08.727
55.0, -83809.1845880967, -116074.03946805472, 46364.64820678809, 45603.2136801736, 61155.89274834308, 100712.55722195593, 62089.99450087482, 65638.15511919917, 0.056, 0.9580000000000001, 0.10400000000000001, 192.0, 0.0, 0.0, 0.0, 0.0, 0.0, 0.0, 0.0, 0.0, 0.0, 1.6665564687273169E9, 0.0, 2022-10-23 13:21:08.727
56.0, -83840.92406522323, -116104.92957889196, 47454.183990262034, 45753.88678954683, 61271.78654334385, 101221.34998099209, 62858.5368822261, 66495.3445190602, 0.062, 0.962, 0.10400000000000001, 192.0, 1.0, 240.0, 30.0, 16.0, 3.0, 64.0, 0.0, 0.0, 0.0, 1.6665564687273245E9, 0.0, 2022-10-23 13:21:08.727
57.0, -83831.3351668519, -116097.01706135477, 49206.203127646826, 45691.212498094144, 61252.4075809011, 101801.1318804183, 63886.00187134765, 67364.53680569373, 0.062, 0.962, 0.10400000000000001, 192.0, 0.0, 0.0, 0.0, 0.0, 0.0, 0.0, 0.0, 0.0, 0.0, 1.6665564687273328E9, 0.0, 2022-10-23 13:21:08.727
58.0, -83773.31003824592, -116046.36800841904, 47453.491086183916, 45442.28112009539, 61053.432351759955, 101007.73435923271, 62682.36043242937, 66041.96173452876, 0.062, 0.962, 0.10400000000000001, 192.0, 0.0, 0.0, 0.0, 0.0, 0.0, 0.0, 0.0, 0.0, 0.0, 1.6665564687273407E9, 0.0, 2022-10-23 13:21:08.727
59.0, -83788.01748609752, -116062.41656093796, 46327.8348836702, 45583.208868886104, 61141.20765223595, 100674.9615877821, 62046.788578842716, 65574.56440622383, 0.062, 0.962, 0.10400000000000001, 192.0, 0.0, 0.0, 0.0, 0.0, 0.0, 0.0, 0.0, 0.0, 0.0, 1.6665564687273483E9, 0.0, 2022-10-23 13:21:08.727
60.0, -83811.64327998678, -116083.76247689278, 47081.26748576969, 45748.81294355547, 61273.574682900275, 101081.8080403576, 62622.36835031133, 66268.20609190538, 0.062, 0.962, 0.10400000000000001, 192.0, 0.0, 0.0, 0.0, 0.0, 0.0, 0.0, 0.0, 0.0, 0.0, 1.666556468727356E9, 0.0, 2022-10-23 13:21:08.727
61.0, -83832.92214070824, -116108.34939579362, 49120.93122254983, 45765.956731552695, 61303.637779192664, 101813.73826429108, 63866.75701937164, 67391.24714031782, 0.062, 0.962, 0.10400000000000001, 192.0, 0.0, 0.0, 0.0, 0.0, 0.0, 0.0, 0.0, 0.0, 0.0, 1.666556468727364E9, 0.0, 2022-10-23 13:21:08.727
62.0, -83787.88337563079, -116059.8908138145, 47876.497850000604, 45458.821410992314, 61078.42160206099, 101182.50264912876, 62955.63286013995, 66310.62970288155, 0.062, 0.962, 0.10400000000000001, 192.0, 0.0, 0.0, 0.0, 0.0, 0.0, 0.0, 0.0, 0.0, 0.0, 1.6665564687273717E9, 0.0, 2022-10-23 13:21:08.727
63.0, -83804.53542525, -116068.78680810772, 46384.54125935331, 45556.856162173295, 61131.752864331356, 100690.94308506764, 62068.872102364556, 65566.18250205308, 0.062, 0.962, 0.10400000000000001, 192.0, 0.0, 0.0, 0.0, 0.0, 0.0, 0.0, 0.0, 0.0, 0.0, 1.6665564687273867E9, 0.0, 2022-10-23 13:21:08.727
64.0, -83832.11747790784, -116093.06080258619, 46783.7434153251, 45678.002617121056, 61220.77986249684, 100946.66939338081, 62415.63706584419, 66053.18231024532, 0.062, 0.962, 0.10400000000000001, 192.0, 0.0, 0.0, 0.0, 0.0, 0.0, 0.0, 0.0, 0.0, 0.0, 1.6665564687273948E9, 0.0, 2022-10-23 13:21:08.727
65.0, -83838.6888907777, -116099.18518056694, 48869.54115266099, 45784.17340328376, 61313.6737124531, 101736.1106557978, 63724.57757289143, 67296.8333717386, 0.062, 0.962, 0.10400000000000001, 192.0, 0.0, 0.0, 0.0, 0.0, 0.0, 0.0, 0.0, 0.0, 0.0, 1.6665564687274027E9, 0.0, 2022-10-23 13:21:08.727
66.0, -83781.93781160568, -116049.85488055408, 48280.25976184127, 45484.57062060483, 61095.27481738029, 101336.39440970354, 63213.147308009546, 66581.44343870204, 0.084, 0.9560000000000001, 0.10200000000000001, 192.0, 2.0, 160.0, 29.0, 224.0, 3.0, 48.0, 0.0, 0.0, 0.0, 1.6665564687274108E9, 0.0, 2022-10-23 13:21:08.727
67.0, -83772.23715451207, -116040.46714788284, 46439.07951582426, 45548.29544404691, 61113.692654811464, 100677.57674188337, 62076.02466059026, 65550.20100476754, 0.084, 0.9560000000000001, 0.10200000000000001, 192.0, 0.0, 0.0, 0.0, 0.0, 0.0, 0.0, 0.0, 0.0, 0.0, 1.6665564687274194E9, 0.0, 2022-10-23 13:21:08.727
68.0, -83805.47419851711, -116071.02198255325, 46550.27944448942, 45679.16490783273, 61223.9985136984, 100848.29936603301, 62250.077694663734, 65887.51118034258, 0.084, 0.9560000000000001, 0.10200000000000001, 192.0, 0.0, 0.0, 0.0, 0.0, 0.0, 0.0, 0.0, 0.0, 0.0, 1.6665564687274272E9, 0.0, 2022-10-23 13:21:08.727
69.0, -83844.29917863598, -116114.54082900773, 48484.35354046268, 45799.73021742466, 61318.18876483307, 101614.49481421648, 63488.81137237685, 67110.50922995916, 0.084, 0.9560000000000001, 0.10200000000000001, 192.0, 0.0, 0.0, 0.0, 0.0, 0.0, 0.0, 0.0, 0.0, 0.0, 1.6665564687274358E9, 0.0, 2022-10-23 13:21:08.727
70.0, -83804.71423920563, -116071.40196220898, 48658.13835360269, 45525.317850746855, 61132.44576840947, 101519.90223168163, 63463.71036335354, 66866.11525608483, 0.084, 0.9560000000000001, 0.10200000000000001, 192.0, 0.0, 0.0, 0.0, 0.0, 0.0, 0.0, 0.0, 0.0, 0.0, 1.6665564687274437E9, 0.0, 2022-10-23 13:21:08.727
71.0, -83773.66766615721, -116040.02011299373, 46591.47370952055, 45512.97968780753, 61091.0726894227, 100735.46776002261, 62153.56286210572, 65605.58862752779, 0.084, 0.9560000000000001, 0.10200000000000001, 192.0, 0.0, 0.0, 0.0, 0.0, 0.0, 0.0, 0.0, 0.0, 0.0, 1.6665564687274516E9, 0.0, 2022-10-23 13:21:08.727
72.0, -83797.74049493558, -116067.71392437386, 46422.44981794951, 45657.573122688904, 61206.16182162307, 100804.80287132299, 62152.467626627404, 65778.54642612296, 0.084, 0.9560000000000001, 0.10200000000000001, 192.0, 0.0, 0.0, 0.0, 0.0, 0.0, 0.0, 0.0, 0.0, 0.0, 1.6665564687274597E9, 0.0, 2022-10-23 13:21:08.727
73.0, -83842.60044605737, -116107.20945682639, 48080.859849555476, 45801.58541221445, 61308.06342459482, 101488.8556586332, 63241.22109904541, 66896.35716633286, 0.084, 0.9560000000000001, 0.10200000000000001, 192.0, 0.0, 0.0, 0.0, 0.0, 0.0, 0.0, 0.0, 0.0, 0.0, 1.6665564687274673E9, 0.0, 2022-10-23 13:21:08.727
74.0, -83812.26912883153, -116077.3475262341, 48969.4087468873, 45594.13887192475, 61179.51854223234, 101684.96986448407, 63683.159790415746, 67122.02037835364, 0.084, 0.9560000000000001, 0.10200000000000001, 192.0, 0.0, 0.0, 0.0, 0.0, 0.0, 0.0, 0.0, 0.0, 0.0, 1.6665564687274747E9, 0.0, 2022-10-23 13:21:08.727
75.0, -83769.6220004108, -116045.89862178548, 46850.75394520211, 45480.502603113964, 61065.50229376582, 100825.56764192197, 62304.101861012205, 65723.47172778509, 0.082, 0.9560000000000001, 0.096, 192.0, 2.0, 144.0, 29.0, 224.0, 3.0, 0.0, 0.0, 0.0, 0.0, 1.6665564687274823E9, 0.0, 2022-10-23 13:21:08.727
76.0, -83793.71718093363, -116075.67114539996, 46338.27314833083, 45616.71413382461, 61161.88301585711, 100739.66988798021, 62070.88375936553, 65669.51461666997, 0.082, 0.9560000000000001, 0.096, 192.0, 0.0, 0.0, 0.0, 0.0, 0.0, 0.0, 0.0, 0.0, 0.0, 1.666556468727491E9, 0.0, 2022-10-23 13:21:08.727
77.0, -83836.72193726564, -116107.23180857085, 47644.687908254615, 45767.09667051991, 61272.14417125514, 101305.41489188849, 62957.08572352955, 66624.0235118894, 0.082, 0.9560000000000001, 0.096, 192.0, 0.0, 0.0, 0.0, 0.0, 0.0, 0.0, 0.0, 0.0, 0.0, 1.6665564687274988E9, 0.0, 2022-10-23 13:21:08.727
78.0, -83838.80064949997, -116104.37078528057, 49110.895289289394, 45648.163038273226, 61215.63896127212, 101753.52266472849, 63782.066259630476, 67265.6750399679, 0.082, 0.9560000000000001, 0.096, 192.0, 0.0, 0.0, 0.0, 0.0, 0.0, 0.0, 0.0, 0.0, 0.0, 1.6665564687275066E9, 0.0, 2022-10-23 13:21:08.727
79.0, -83806.72589620661, -116076.60991866708, 47145.79697201216, 45434.65917523613, 61039.104883564105, 100909.05140746254, 62461.7934181444, 65864.15360738679, 0.082, 0.9560000000000001, 0.096, 192.0, 0.0, 0.0, 0.0, 0.0, 0.0, 0.0, 0.0, 0.0, 0.0, 1.6665564687275212E9, 0.0, 2022-10-23 13:21:08.727
80.0, -83801.96497463762, -116071.2454999978, 46275.84472606715, 45602.83370051786, 61150.595384907174, 100697.00040781504, 61999.089956175085, 65579.973528382, 0.082, 0.9560000000000001, 0.096, 192.0, 0.0, 0.0, 0.0, 0.0, 0.0, 0.0, 0.0, 0.0, 0.0, 1.666556468727529E9, 0.0, 2022-10-23 13:21:08.727
81.0, -83832.92214070824, -116102.53794223523, 47275.41473810849, 45763.14041175132, 61280.95075857053, 101192.35976843355, 62725.119319572375, 66400.97545396989, 0.082, 0.9560000000000001, 0.096, 192.0, 0.0, 0.0, 0.0, 0.0, 0.0, 0.0, 0.0, 0.0, 0.0, 1.666556468727537E9, 0.0, 2022-10-23 13:21:08.727
82.0, -83842.6898530352, -116116.61954124208, 49158.54920846811, 45705.38350407881, 61250.105351222206, 101825.98702025259, 63838.95144926923, 67361.47461670334, 0.082, 0.9560000000000001, 0.096, 192.0, 0.0, 0.0, 0.0, 0.0, 0.0, 0.0, 0.0, 0.0, 0.0, 1.6665564687275445E9, 0.0, 2022-10-23 13:21:08.727
83.0, -83782.20603253914, -116059.8908138145, 47553.64925308815, 45449.612492276734, 61049.409037758, 101072.33090070855, 62710.79185137652, 66099.60688347899, 0.082, 0.9560000000000001, 0.096, 192.0, 0.0, 0.0, 0.0, 0.0, 0.0, 0.0, 0.0, 0.0, 0.0, 1.6665564687275524E9, 0.0, 2022-10-23 13:21:08.727
84.0, -83805.67536421721, -116077.3475262341, 46316.413142253536, 45580.146679895726, 61132.11049224264, 100699.1685270272, 62002.867400988034, 65546.58002216578, 0.082, 0.9560000000000001, 0.096, 192.0, 0.0, 0.0, 0.0, 0.0, 0.0, 0.0, 0.0, 0.0, 0.0, 1.66655646872756E9, 0.0, 2022-10-23 13:21:08.727
85.0, -83838.08539367741, -116108.01411962678, 46918.27856520159, 45710.233832625614, 61225.138452665626, 101030.98017346623, 62470.75646767098, 66142.67869504436, 0.068, 0.9500000000000001, 0.096, 192.0, 2.0, 32.0, 29.0, 176.0, 3.0, 0.0, 0.0, 0.0, 0.0, 1.666556468727568E9, 0.0, 2022-10-23 13:21:08.727
86.0, -83851.78701302852, -116122.408643056, 48978.88588653635, 45760.994644283615, 61275.474581178976, 101777.64019699577, 63730.72430261664, 67311.7866887792, 0.068, 0.9500000000000001, 0.096, 192.0, 0.0, 0.0, 0.0, 0.0, 0.0, 0.0, 0.0, 0.0, 0.0, 1.666556468727576E9, 0.0, 2022-10-23 13:21:08.727
87.0, -83784.75413140704, -116063.86942432755, 47985.64141817587, 45474.80290827786, 61074.21947410339, 101251.92716740695, 62984.86894188749, 66382.91524445, 0.068, 0.9500000000000001, 0.096, 192.0, 0.0, 0.0, 0.0, 0.0, 0.0, 0.0, 0.0, 0.0, 0.0, 1.6665564687275836E9, 0.0, 2022-10-23 13:21:08.727
88.0, -83790.45382624315, -116068.71975287436, 46393.12432922415, 45563.18170585415, 61113.46913736691, 100717.273440036, 62032.997552513785, 65553.91139434712, 0.068, 0.9500000000000001, 0.096, 192.0, 0.0, 0.0, 0.0, 0.0, 0.0, 0.0, 0.0, 0.0, 0.0, 1.6665564687275915E9, 0.0, 2022-10-23 13:21:08.727
89.0, -83823.95909118165, -116101.26389280127, 46721.136179105786, 45692.285381828, 61216.48832756142, 100962.53913194408, 62344.7149806875, 66005.61779804442, 0.068, 0.9500000000000001, 0.096, 192.0, 0.0, 0.0, 0.0, 0.0, 0.0, 0.0, 0.0, 0.0, 0.0, 1.6665564687275991E9, 0.0, 2022-10-23 13:21:08.727
90.0, -83847.51782983754, -116126.74488148034, 48772.08754683585, 45800.24430754713, 61295.59115118875, 101739.10578955481, 63630.90141187923, 67238.9200018549, 0.068, 0.9500000000000001, 0.096, 192.0, 0.0, 0.0, 0.0, 0.0, 0.0, 0.0, 0.0, 0.0, 0.0, 1.666556468727607E9, 0.0, 2022-10-23 13:21:08.727
91.0, -83777.57922143688, -116066.48457842882, 48430.44113283648, 45523.14973153469, 61102.85205875064, 101431.27756491632, 63267.126770869116, 66677.84651253778, 0.068, 0.9500000000000001, 0.096, 192.0, 0.0, 0.0, 0.0, 0.0, 0.0, 0.0, 0.0, 0.0, 0.0, 1.6665564687276154E9, 0.0, 2022-10-23 13:21:08.727
92.0, -83793.56071872244, -116075.71584888887, 46491.69552227206, 45533.498589217495, 61086.647044020545, 100715.73116966858, 62056.86921559206, 65556.75006589295, 0.068, 0.9500000000000001, 0.096, 192.0, 0.0, 0.0, 0.0, 0.0, 0.0, 0.0, 0.0, 0.0, 0.0, 1.6665564687276232E9, 0.0, 2022-10-23 13:21:08.727
93.0, -83838.86770473335, -116108.86348591608, 46519.45638888555, 45658.33308200039, 61184.525332990335, 100849.66282244478, 62178.82033334021, 65841.10895885337, 0.068, 0.9500000000000001, 0.096, 192.0, 0.0, 0.0, 0.0, 0.0, 0.0, 0.0, 0.0, 0.0, 0.0, 1.6665564687276309E9, 0.0, 2022-10-23 13:21:08.727
94.0, -83855.65386481928, -116128.13068963656, 48414.392580317566, 45815.2646798211, 61305.71649142701, 101622.29557303138, 63410.0661766608, 67064.68815382579, 0.068, 0.9500000000000001, 0.096, 192.0, 0.0, 0.0, 0.0, 0.0, 0.0, 0.0, 0.0, 0.0, 0.0, 1.6665564687276456E9, 0.0, 2022-10-23 13:21:08.727
95.0, -83801.76380893754, -116083.20368328139, 48855.794829820974, 45575.05048215992, 61147.28732672779, 101632.2868028029, 63557.38652436573, 66990.6144727009, 0.054, 0.9540000000000001, 0.106, 192.0, 1.0, 176.0, 29.0, 208.0, 3.0, 80.0, 0.0, 0.0, 0.0, 1.6665564687276535E9, 0.0, 2022-10-23 13:21:08.727
96.0, -83775.20993652462, -116056.8956800575, 46720.3762197943, 45516.645373898195, 61071.537264768755, 100787.61437983684, 62183.53655142028, 65644.5924216023, 0.054, 0.9540000000000001, 0.106, 192.0, 0.0, 0.0, 0.0, 0.0, 0.0, 0.0, 0.0, 0.0, 0.0, 1.6665564687276633E9, 0.0, 2022-10-23 13:21:08.727
97.0, -83801.31677404842, -116083.31544200367, 46414.96198355699, 45661.5293814575, 61186.20171382448, 100791.43652813871, 62088.69809969641, 65728.50087028752, 0.054, 0.9540000000000001, 0.106, 192.0, 0.0, 0.0, 0.0, 0.0, 0.0, 0.0, 0.0, 0.0, 0.0, 1.666556468727671E9, 0.0, 2022-10-23 13:21:08.727
98.0, -83853.46339386266, -116133.42805307246, 47979.82996461749, 45809.25206056262, 61300.70970066902, 101455.73037335044, 63134.133891360034, 66812.85104904784, 0.054, 0.9540000000000001, 0.106, 192.0, 0.0, 0.0, 0.0, 0.0, 0.0, 0.0, 0.0, 0.0, 0.0, 1.666556468727679E9, 0.0, 2022-10-23 13:21:08.727
99.0, -83826.6860040052, -116112.77504119577, 49095.182012937315, 45619.55280537043, 61175.00348985237, 101735.82008311989, 63721.0907007564, 67188.65092857492, 0.054, 0.9540000000000001, 0.106, 192.0, 0.0, 0.0, 0.0, 0.0, 0.0, 0.0, 0.0, 0.0, 0.0, 1.666556468727687E9, 0.0, 2022-10-23 13:21:08.727
100.0, -83776.08165455838, -116064.53997666121, 46976.48250776321, 45474.31116989985, 61032.57817418315, 100844.76779040907, 62319.81513736429, 65753.2218996551, 0.054, 0.9540000000000001, 0.106, 192.0, 0.0, 0.0, 0.0, 0.0, 0.0, 0.0, 0.0, 0.0, 0.0, 1.6665564687276947E9, 0.0, 2022-10-23 13:21:08.727
101.0, -83802.8813961603, -116083.8518838706, 46341.64826174358, 45631.26511946501, 61152.16000701905, 100721.36380927132, 62011.204601669866, 65629.23677316151, 0.054, 0.9540000000000001, 0.106, 192.0, 0.0, 0.0, 0.0, 0.0, 0.0, 0.0, 0.0, 0.0, 0.0, 1.6665564687277029E9, 0.0, 2022-10-23 13:21:08.727
102.0, -83839.82882974492, -116116.73129996435, 47558.566636868316, 45793.38232199935, 61281.621310904186, 101282.97374045536, 62858.223957803726, 66556.14126397864, 0.054, 0.9540000000000001, 0.106, 192.0, 0.0, 0.0, 0.0, 0.0, 0.0, 0.0, 0.0, 0.0, 0.0, 1.6665564687277107E9, 0.0, 2022-10-23 13:21:08.727
103.0, -83830.15052439577, -116108.30469230471, 49211.299325382635, 45695.548736518474, 61230.88285099064, 101812.59832532387, 63812.64344604534, 67331.47857564433, 0.054, 0.9540000000000001, 0.106, 192.0, 0.0, 0.0, 0.0, 0.0, 0.0, 0.0, 0.0, 0.0, 0.0, 1.6665564687277184E9, 0.0, 2022-10-23 13:21:08.727
104.0, -83780.99903833856, -116066.64104064001, 47340.01127958432, 45460.11781217073, 61035.77447364027, 100977.20187630676, 62539.82335803787, 65957.7627131656, 0.044, 0.9460000000000001, 0.108, 192.0, 1.0, 96.0, 29.0, 144.0, 3.0, 96.0, 0.0, 0.0, 0.0, 1.6665564687277267E9, 0.0, 2022-10-23 13:21:08.727
105.0, -83806.05534387295, -116094.37955550905, 46327.49960750337, 45603.88423250726, 61127.90836428504, 100690.54075366745, 61979.666290243425, 65572.01630735592, 0.044, 0.9460000000000001, 0.108, 192.0, 0.0, 0.0, 0.0, 0.0, 0.0, 0.0, 0.0, 0.0, 0.0, 1.6665564687277365E9, 0.0, 2022-10-23 13:21:08.727
106.0, -83838.8453529889, -116117.29009357574, 47188.51115566625, 45752.2998156905, 61245.52324360886, 101125.39394204546, 62617.49567002007, 66318.31870297417, 0.044, 0.9460000000000001, 0.108, 192.0, 0.0, 0.0, 0.0, 0.0, 0.0, 0.0, 0.0, 0.0, 0.0, 1.666556468727744E9, 0.0, 2022-10-23 13:21:08.727
107.0, -83836.9901581991, -116114.13849760754, 49201.2633921222, 45758.78182158254, 61266.19860723003, 101838.86162505885, 63835.464577134204, 67400.97014915588, 0.044, 0.9460000000000001, 0.108, 192.0, 0.0, 0.0, 0.0, 0.0, 0.0, 0.0, 0.0, 0.0, 0.0, 1.666556468727752E9, 0.0, 2022-10-23 13:21:08.727
108.0, -83768.3255992324, -116055.06283701216, 47787.96259021314, 45479.78734729139, 61057.05333436171, 101151.4784278248, 62826.64094288838, 66242.8815654375, 0.044, 0.9460000000000001, 0.108, 192.0, 0.0, 0.0, 0.0, 0.0, 0.0, 0.0, 0.0, 0.0, 0.0, 1.66655646872776E9, 0.0, 2022-10-23 13:21:08.727
109.0, -83776.26046851402, -116067.62451739605, 46369.56559056826, 45604.4653778631, 61128.19893696296, 100684.34932045333, 61986.55062753566, 65564.01438284092, 0.044, 0.9460000000000001, 0.108, 192.0, 0.0, 0.0, 0.0, 0.0, 0.0, 0.0, 0.0, 0.0, 0.0, 1.6665564687277677E9, 0.0, 2022-10-23 13:21:08.727
110.0, -83829.032937173, -116121.71573897789, 46865.52844828707, 45719.398047852286, 61223.90910672058, 100976.5313239731, 62393.330024877796, 66105.79831669311, 0.044, 0.9460000000000001, 0.108, 192.0, 0.0, 0.0, 0.0, 0.0, 0.0, 0.0, 0.0, 0.0, 0.0, 1.6665564687277837E9, 0.0, 2022-10-23 13:21:08.727
111.0, -83853.26222816257, -116142.52521306578, 48946.81113324298, 45788.19671728572, 61283.47650569398, 101744.80548439092, 63681.43870609268, 67309.8867905005, 0.044, 0.9460000000000001, 0.108, 192.0, 0.0, 0.0, 0.0, 0.0, 0.0, 0.0, 0.0, 0.0, 0.0, 1.6665564687277915E9, 0.0, 2022-10-23 13:21:08.727
112.0, -83796.22057631261, -116083.36014549258, 48196.708941067336, 45497.355818433265, 61083.38368933007, 101311.00282800233, 63088.558684415664, 66519.5514583053, 0.044, 0.9460000000000001, 0.108, 192.0, 0.0, 0.0, 0.0, 0.0, 0.0, 0.0, 0.0, 0.0, 0.0, 1.6665564687278E9, 0.0, 2022-10-23 13:21:08.727
113.0, -83802.0767333599, -116086.15411354949, 46447.506123483916, 45557.7055284626, 61089.23984637736, 100690.42899494518, 62019.83237502961, 65566.38366775318, 0.044, 0.9460000000000001, 0.108, 192.0, 0.0, 0.0, 0.0, 0.0, 0.0, 0.0, 0.0, 0.0, 0.0, 1.666556468727808E9, 0.0, 2022-10-23 13:21:08.727
114.0, -83819.9357771797, -116102.04620385722, 46636.601881575814, 45701.96368717714, 61204.843068700204, 100880.44117455975, 62240.08646489221, 65948.12911130537, 0.036000000000000004, 0.9480000000000001, 0.11, 192.0, 1.0, 32.0, 29.0, 160.0, 3.0, 112.0, 0.0, 0.0, 0.0, 1.6665564687278159E9, 0.0, 2022-10-23 13:21:08.727
115.0, -83842.33222512392, -116125.42612855746, 48639.02761209341, 45831.067363151, 61303.436613492566, 101662.52871305094, 63515.25348606748, 67194.79765830013, 0.036000000000000004, 0.9480000000000001, 0.11, 192.0, 0.0, 0.0, 0.0, 0.0, 0.0, 0.0, 0.0, 0.0, 0.0, 1.6665564687278242E9, 0.0, 2022-10-23 13:21:08.727
116.0, -83791.54906172145, -116083.2483867703, 48573.53700083936, 45543.86979864476, 61115.659608323534, 101465.09575427721, 63336.193661236015, 66810.95115076913, 0.036000000000000004, 0.9480000000000001, 0.11, 192.0, 0.0, 0.0, 0.0, 0.0, 0.0, 0.0, 0.0, 0.0, 0.0, 1.666556468727832E9, 0.0, 2022-10-23 13:21:08.727
117.0, -83776.05930281393, -116062.48361617132, 46584.81288967287, 45544.339185278324, 61094.64896853554, 100731.08681810938, 62098.19759108992, 65636.88106976522, 0.036000000000000004, 0.9480000000000001, 0.11, 192.0, 0.0, 0.0, 0.0, 0.0, 0.0, 0.0, 0.0, 0.0, 0.0, 1.6665564687278397E9, 0.0, 2022-10-23 13:21:08.727
118.0, -83819.01935565703, -116106.78477368173, 46506.76059803493, 45672.36997751832, 61195.29887381779, 100828.74158963462, 62157.228548196385, 65858.31980208395, 0.036000000000000004, 0.9480000000000001, 0.11, 192.0, 0.0, 0.0, 0.0, 0.0, 0.0, 0.0, 0.0, 0.0, 0.0, 1.6665564687278476E9, 0.0, 2022-10-23 13:21:08.727
119.0, -83856.72674855313, -116144.22394564438, 48235.48921769729, 45813.767112942594, 61286.82926736227, 101517.37648455818, 63274.05581165026, 66987.41817324379, 0.036000000000000004, 0.9480000000000001, 0.11, 192.0, 0.0, 0.0, 0.0, 0.0, 0.0, 0.0, 0.0, 0.0, 0.0, 1.6665564687278557E9, 0.0, 2022-10-23 13:21:08.727
120.0, -83808.64814622977, -116095.51949447626, 48948.778086755054, 45609.44981687663, 61175.24935904138, 101655.15263738068, 63610.74013838055, 67106.62002642395, 0.036000000000000004, 0.9480000000000001, 0.11, 192.0, 0.0, 0.0, 0.0, 0.0, 0.0, 0.0, 0.0, 0.0, 0.0, 1.6665564687278633E9, 0.0, 2022-10-23 13:21:08.727
121.0, -83772.55007893445, -116059.6896481144, 46809.60438365989, 45508.93402206111, 61065.85992167711, 100798.7902520645, 62231.548098510284, 65728.6126290098, 0.036000000000000004, 0.9480000000000001, 0.11, 192.0, 0.0, 0.0, 0.0, 0.0, 0.0, 0.0, 0.0, 0.0, 0.0, 1.666556468727871E9, 0.0, 2022-10-23 13:21:08.727
122.0, -83804.75894269455, -116086.93642460543, 46384.47420411995, 45658.020157578016, 61172.209521795456, 100749.88463519629, 62060.08786679362, 65741.30841986042, 0.036000000000000004, 0.9480000000000001, 0.11, 192.0, 0.0, 0.0, 0.0, 0.0, 0.0, 0.0, 0.0, 0.0, 0.0, 1.666556469206188E9, 0.0, 2022-10-23 13:21:09.206
123.0, -83839.89588497828, -116119.10058487662, 47826.944032543186, 45821.83609269096, 61291.09845055324, 101373.40889852153, 63038.155500668945, 66770.98623168305, 0.036000000000000004, 0.9480000000000001, 0.11, 192.0, 0.0, 0.0, 0.0, 0.0, 0.0, 0.0, 0.0, 0.0, 0.0, 1.6665564692062745E9, 0.0, 2022-10-23 13:21:09.206
124.0, -83821.25453010257, -116101.93444513495, 49152.33542350953, 45666.89380012677, 61203.27844658834, 101753.54501647294, 63771.98562288113, 67305.66231079845, 0.036000000000000004, 0.9440000000000001, 0.106, 192.0, 1.0, 32.0, 29.0, 128.0, 3.0, 80.0, 0.0, 0.0, 0.0, 1.6665564692062836E9, 0.0, 2022-10-23 13:21:09.206
125.0, -83797.67343970221, -116077.68280240093, 47110.83884368406, 45466.242190151475, 61030.36535148208, 100885.49266880663, 62418.22986820101, 65887.10884894239, 0.036000000000000004, 0.9440000000000001, 0.106, 192.0, 0.0, 0.0, 0.0, 0.0, 0.0, 0.0, 0.0, 0.0, 0.0, 1.6665564692063537E9, 0.0, 2022-10-23 13:21:09.206
126.0, -83823.44500105918, -116104.21432306938, 46355.349881094684, 45613.45077913413, 61132.646934109565, 100709.56208819892, 62031.9917240133, 65674.16377951668, 0.036000000000000004, 0.9440000000000001, 0.106, 192.0, 0.0, 0.0, 0.0, 0.0, 0.0, 0.0, 0.0, 0.0, 0.0, 1.6665564692063627E9, 0.0, 2022-10-23 13:21:09.206
127.0, -83846.57905657042, -116132.82455597217, 47475.39579575012, 45777.28906599153, 61266.578586885764, 101246.65215571549, 62829.74783536766, 66553.52610987736, 0.036000000000000004, 0.9440000000000001, 0.106, 192.0, 0.0, 0.0, 0.0, 0.0, 0.0, 0.0, 0.0, 0.0, 0.0, 1.6665564692063708E9, 0.0, 2022-10-23 13:21:09.206
128.0, -83843.80744025797, -116129.3153320927, 49258.37209920551, 45717.05111468448, 61234.280316147844, 101829.20567145415, 63871.473237451704, 67430.7650245148, 0.036000000000000004, 0.9440000000000001, 0.106, 192.0, 0.0, 0.0, 0.0, 0.0, 0.0, 0.0, 0.0, 0.0, 0.0, 1.666556469206379E9, 0.0, 2022-10-23 13:21:09.206
129.0, -83786.27405003, -116065.61286039506, 47502.910793174604, 45480.59201009179, 61041.22829928736, 101020.47485357223, 62658.17584492873, 66102.8031829361, 0.036000000000000004, 0.9440000000000001, 0.106, 192.0, 0.0, 0.0, 0.0, 0.0, 0.0, 0.0, 0.0, 0.0, 0.0, 1.6665564692063875E9, 0.0, 2022-10-23 13:21:09.206
130.0, -83804.5801287389, -116084.47773271534, 46365.40816609957, 45619.977488515084, 61137.51961440082, 100690.74191936755, 62020.771148296735, 65633.61771507475, 0.036000000000000004, 0.9440000000000001, 0.106, 192.0, 0.0, 0.0, 0.0, 0.0, 0.0, 0.0, 0.0, 0.0, 0.0, 1.6665564692063954E9, 0.0, 2022-10-23 13:21:09.206
131.0, -83831.64809127428, -116118.98882615434, 47092.39865450843, 45758.111269248875, 61244.45035987501, 101074.09668852053, 62573.95447182113, 66303.41008942248, 0.036000000000000004, 0.9440000000000001, 0.106, 192.0, 0.0, 0.0, 0.0, 0.0, 0.0, 0.0, 0.0, 0.0, 0.0, 1.6665564692064035E9, 0.0, 2022-10-23 13:21:09.206
132.0, -83851.04940546148, -116129.91882919299, 49146.63572867343, 45783.92753409476, 61280.906055081614, 101809.60319156686, 63826.814452030005, 67440.2198124194, 0.036000000000000004, 0.9440000000000001, 0.106, 192.0, 0.0, 0.0, 0.0, 0.0, 0.0, 0.0, 0.0, 0.0, 0.0, 1.6665564692064114E9, 0.0, 2022-10-23 13:21:09.206
133.0, -83800.35564903685, -116079.76151463528, 47922.229519156164, 45476.747510045476, 61052.09124709264, 101175.68536706989, 62929.727188316254, 66373.68397398996, 0.036000000000000004, 0.9440000000000001, 0.106, 192.0, 0.0, 0.0, 0.0, 0.0, 0.0, 0.0, 0.0, 0.0, 0.0, 1.6665564692064238E9, 0.0, 2022-10-23 13:21:09.206
134.0, -83812.64910848727, -116090.31153801818, 46400.96979152797, 45579.34201709533, 61109.021140220306, 100671.38530866925, 62027.16374721095, 65610.93069445262, 0.042, 0.9420000000000001, 0.10200000000000001, 192.0, 1.0, 80.0, 29.0, 112.0, 3.0, 48.0, 0.0, 0.0, 0.0, 1.6665564692064319E9, 0.0, 2022-10-23 13:21:09.206
135.0, -83847.42842285972, -116124.48735529034, 46800.70838936668, 45708.84802446938, 61216.197754883506, 100942.10963751194, 62379.762515993425, 66106.2006480933, 0.042, 0.9420000000000001, 0.10200000000000001, 192.0, 0.0, 0.0, 0.0, 0.0, 0.0, 0.0, 0.0, 0.0, 0.0, 1.6665564692064404E9, 0.0, 2022-10-23 13:21:09.206
136.0, -83866.53916436901, -116148.62723930208, 48885.70146390217, 45813.67770596477, 61298.385119245664, 101730.58977491735, 63682.444534593174, 67343.52616590574, 0.042, 0.9420000000000001, 0.10200000000000001, 192.0, 0.0, 0.0, 0.0, 0.0, 0.0, 0.0, 0.0, 0.0, 0.0, 1.6665564692064483E9, 0.0, 2022-10-23 13:21:09.206
137.0, -83802.41200952674, -116087.58462519464, 48365.308149493714, 45520.06519079986, 61093.33021561268, 101367.91036938553, 63223.496165692355, 66680.6404805947, 0.042, 0.9420000000000001, 0.10200000000000001, 192.0, 0.0, 0.0, 0.0, 0.0, 0.0, 0.0, 0.0, 0.0, 0.0, 1.6665564692064564E9, 0.0, 2022-10-23 13:21:09.206
138.0, -83794.74536117856, -116078.01807856777, 46522.87620578721, 45574.93872343763, 61105.28839889627, 100708.4221492317, 62094.57660848816, 65645.6429535917, 0.042, 0.9420000000000001, 0.10200000000000001, 192.0, 0.0, 0.0, 0.0, 0.0, 0.0, 0.0, 0.0, 0.0, 0.0, 1.6665564692064643E9, 0.0, 2022-10-23 13:21:09.206
139.0, -83843.78508851351, -116122.54275352274, 46617.89347146672, 45686.92096315872, 61197.310530818766, 100861.12926735035, 62255.97855519993, 65959.39439051085, 0.042, 0.9420000000000001, 0.10200000000000001, 192.0, 0.0, 0.0, 0.0, 0.0, 0.0, 0.0, 0.0, 0.0, 0.0, 1.6665564692064722E9, 0.0, 2022-10-23 13:21:09.206
140.0, -83868.41671090326, -116147.19672765693, 48562.42818384507, 45831.49204629565, 61307.638741450166, 101634.27610805942, 63503.965855117545, 67187.48863786324, 0.042, 0.9420000000000001, 0.10200000000000001, 192.0, 0.0, 0.0, 0.0, 0.0, 0.0, 0.0, 0.0, 0.0, 0.0, 1.66655646920648E9, 0.0, 2022-10-23 13:21:09.206
141.0, -83816.73947772259, -116102.4038317685, 48760.308177507904, 45563.53933376543, 61127.03664625128, 101538.70004876853, 63488.99018633249, 66959.32203046346, 0.042, 0.9420000000000001, 0.10200000000000001, 192.0, 0.0, 0.0, 0.0, 0.0, 0.0, 0.0, 0.0, 0.0, 0.0, 1.6665564692065027E9, 0.0, 2022-10-23 13:21:09.206
142.0, -83794.76771292303, -116083.98599433733, 46682.26649549801, 45529.00588858198, 61073.97360491438, 100740.27338508051, 62173.791190837765, 65689.83235237985, 0.042, 0.9420000000000001, 0.10200000000000001, 192.0, 0.0, 0.0, 0.0, 0.0, 0.0, 0.0, 0.0, 0.0, 0.0, 1.6665564692065113E9, 0.0, 2022-10-23 13:21:09.206
143.0, -83822.8862074478, -116109.39992778302, 46484.49826055745, 45666.35735825984, 61181.083164344214, 100786.47444086963, 62153.36169640562, 65839.87961290832, 0.05, 0.9540000000000001, 0.1, 192.0, 1.0, 144.0, 29.0, 208.0, 3.0, 32.0, 0.0, 0.0, 0.0, 1.6665564692065196E9, 0.0, 2022-10-23 13:21:09.206
144.0, -83869.042559748, -116149.18603291347, 48125.608041955005, 45808.514452995594, 61287.1645435291, 101459.86544607466, 63229.709950650926, 66945.91098379028, 0.05, 0.9540000000000001, 0.1, 192.0, 0.0, 0.0, 0.0, 0.0, 0.0, 0.0, 0.0, 0.0, 0.0, 1.6665564692065284E9, 0.0, 2022-10-23 13:21:09.206
145.0, -83834.10678316436, -116115.72547146387, 49034.22880580769, 45605.851186019325, 61165.66046067006, 101651.91163443467, 63675.04610717847, 67184.96289073979, 0.05, 0.9540000000000001, 0.1, 192.0, 0.0, 0.0, 0.0, 0.0, 0.0, 0.0, 0.0, 0.0, 0.0, 1.6665564692065363E9, 0.0, 2022-10-23 13:21:09.206
146.0, -83784.97764885159, -116067.93744181842, 46913.316477932516, 45496.86408005525, 61066.508122266314, 100796.4433188967, 62300.056195265795, 65796.56193215394, 0.05, 0.9540000000000001, 0.1, 192.0, 0.0, 0.0, 0.0, 0.0, 0.0, 0.0, 0.0, 0.0, 0.0, 1.666556469206544E9, 0.0, 2022-10-23 13:21:09.206
147.0, -83816.94064342268, -116092.97139560836, 46402.75793108439, 45650.50997144103, 61178.356251520665, 100733.8807861663, 62083.6019019606, 65758.3180973909, 0.05, 0.9540000000000001, 0.1, 192.0, 0.0, 0.0, 0.0, 0.0, 0.0, 0.0, 0.0, 0.0, 0.0, 1.6665564692065518E9, 0.0, 2022-10-23 13:21:09.206
148.0, -83845.05913794746, -116116.82070694218, 47723.79073188195, 45814.99645888763, 61295.948779100036, 101324.86090956461, 62988.95931112282, 66728.51791721796, 0.05, 0.9540000000000001, 0.1, 192.0, 0.0, 0.0, 0.0, 0.0, 0.0, 0.0, 0.0, 0.0, 0.0, 1.6665564692065597E9, 0.0, 2022-10-23 13:21:09.206
149.0, -83826.39543132728, -116100.01219511178, 49231.572357603596, 45698.275649342024, 61229.09471143421, 101785.01627266602, 63843.19828071574, 67392.70000370742, 0.05, 0.9540000000000001, 0.1, 192.0, 0.0, 0.0, 0.0, 0.0, 0.0, 0.0, 0.0, 0.0, 0.0, 1.6665564692065673E9, 0.0, 2022-10-23 13:21:09.206
150.0, -83782.27308777251, -116066.149302262, 47256.706327999396, 45476.54634434538, 61041.72003766538, 100925.47993963718, 62516.33167461535, 65983.64603324486, 0.05, 0.9540000000000001, 0.1, 192.0, 0.0, 0.0, 0.0, 0.0, 0.0, 0.0, 0.0, 0.0, 0.0, 1.6665564692065752E9, 0.0, 2022-10-23 13:21:09.206
151.0, -83803.9319281497, -116088.99278509531, 46354.34405259419, 45631.04160202046, 61143.93456505949, 100693.69234963565, 62036.015038015255, 65677.78476211843, 0.05, 0.9540000000000001, 0.1, 192.0, 0.0, 0.0, 0.0, 0.0, 0.0, 0.0, 0.0, 0.0, 0.0, 1.6665564692065833E9, 0.0, 2022-10-23 13:21:09.206
152.0, -83835.82786748742, -116115.30078831922, 47307.377732679575, 45780.03833055953, 61262.84584556173, 101158.80980000613, 62724.00173234961, 66463.80620763377, 0.05, 0.9540000000000001, 0.1, 192.0, 0.0, 0.0, 0.0, 0.0, 0.0, 0.0, 0.0, 0.0, 0.0, 1.6665564692065916E9, 0.0, 2022-10-23 13:21:09.206
153.0, -83836.49841982107, -116114.56318075219, 49217.75897953022, 45752.76920232406, 61261.415333916586, 101810.98899972308, 63860.565586157514, 67453.13912071456, 0.056, 0.9580000000000001, 0.10200000000000001, 192.0, 1.0, 192.0, 29.0, 240.0, 3.0, 48.0, 0.0, 0.0, 0.0, 1.6665564692065997E9, 0.0, 2022-10-23 13:21:09.206
154.0, -83771.63365741177, -116063.0424097827, 47649.42647807914, 45484.39180664919, 61054.50523549381, 101073.18026699785, 62759.496302544634, 66217.95937036983, 0.056, 0.9580000000000001, 0.10200000000000001, 192.0, 0.0, 0.0, 0.0, 0.0, 0.0, 0.0, 0.0, 0.0, 0.0, 1.666556469206608E9, 0.0, 2022-10-23 13:21:09.206
155.0, -83792.10785533284, -116085.37180249355, 46364.62585504363, 45611.03679073296, 61130.881146297594, 100675.90036104922, 62015.9878749833, 65635.96464824256, 0.056, 0.9580000000000001, 0.10200000000000001, 192.0, 0.0, 0.0, 0.0, 0.0, 0.0, 0.0, 0.0, 0.0, 0.0, 1.666556469206617E9, 0.0, 2022-10-23 13:21:09.206
156.0, -83835.35848085386, -116120.01700639928, 46957.46117323174, 45740.855722529384, 61229.56409806778, 101006.05797839856, 62480.479476509034, 66226.22951581831, 0.056, 0.9580000000000001, 0.10200000000000001, 192.0, 0.0, 0.0, 0.0, 0.0, 0.0, 0.0, 0.0, 0.0, 0.0, 1.6665564692066355E9, 0.0, 2022-10-23 13:21:09.206
157.0, -83874.20581271718, -116150.19186141394, 49048.42216353681, 45789.023731830566, 61285.55521792832, 101769.25829282502, 63765.45891350018, 67413.48712605085, 0.056, 0.9580000000000001, 0.10200000000000001, 192.0, 0.0, 0.0, 0.0, 0.0, 0.0, 0.0, 0.0, 0.0, 0.0, 1.666556469206643E9, 0.0, 2022-10-23 13:21:09.206
158.0, -83803.21667232712, -116079.29212800172, 48092.102777016495, 45495.50062364348, 61074.17477061448, 101249.46847551686, 63040.77065477022, 66500.70893772948, 0.056, 0.9580000000000001, 0.10200000000000001, 192.0, 0.0, 0.0, 0.0, 0.0, 0.0, 0.0, 0.0, 0.0, 0.0, 1.6665564692066512E9, 0.0, 2022-10-23 13:21:09.206
159.0, -83792.86781464433, -116072.25132849829, 46445.00272810492, 45595.725845781075, 61116.061939723724, 100682.1141460078, 62045.98391604232, 65635.2940959089, 0.056, 0.9580000000000001, 0.10200000000000001, 192.0, 0.0, 0.0, 0.0, 0.0, 0.0, 0.0, 0.0, 0.0, 0.0, 1.6665564692066593E9, 0.0, 2022-10-23 13:21:09.206
160.0, -83826.12721039382, -116108.5058580048, 46744.44904857267, 45724.31543163245, 61218.58939154022, 100914.1252534539, 62335.349599760724, 66070.41550522036, 0.056, 0.9580000000000001, 0.10200000000000001, 192.0, 0.0, 0.0, 0.0, 0.0, 0.0, 0.0, 0.0, 0.0, 0.0, 1.6665564692066677E9, 0.0, 2022-10-23 13:21:09.206
161.0, -83848.45660310467, -116132.66809376099, 48786.862049920805, 45834.64364226385, 61301.13438381367, 101694.98344600004, 63617.31155125041, 67305.77406952072, 0.056, 0.9580000000000001, 0.10200000000000001, 192.0, 0.0, 0.0, 0.0, 0.0, 0.0, 0.0, 0.0, 0.0, 0.0, 1.6665564692066755E9, 0.0, 2022-10-23 13:21:09.206
162.0, -83803.37313453831, -116088.56810195066, 48532.812122441785, 45535.10791481828, 61105.95895122993, 101430.11527420465, 63322.29087618481, 66797.24953141803, 0.056, 0.9580000000000001, 0.10200000000000001, 192.0, 0.0, 0.0, 0.0, 0.0, 0.0, 0.0, 0.0, 0.0, 0.0, 1.6665564692066834E9, 0.0, 2022-10-23 13:21:09.206
163.0, -83798.56750948042, -116079.13566579053, 46596.99459040101, 45559.47131627456, 61091.36326210061, 100719.21804180362, 62122.02455067928, 65668.84406433631, 0.046, 0.9520000000000001, 0.1, 192.0, 1.0, 112.0, 29.0, 192.0, 3.0, 32.0, 0.0, 0.0, 0.0, 1.6665564692066913E9, 0.0, 2022-10-23 13:21:09.206
164.0, -83821.34393708038, -116101.88974164602, 46569.32313076534, 45684.35051254636, 61186.87226615814, 100822.59485990941, 62199.65215917256, 65911.06991899847, 0.046, 0.9520000000000001, 0.1, 192.0, 0.0, 0.0, 0.0, 0.0, 0.0, 0.0, 0.0, 0.0, 0.0, 1.6665564692066996E9, 0.0, 2022-10-23 13:21:09.206
165.0, -83850.71412929466, -116127.84011695864, 48399.88629816608, 45837.07998240948, 61300.73205241348, 101556.84966526624, 63378.10318208971, 67095.086526285, 0.046, 0.9520000000000001, 0.1, 192.0, 0.0, 0.0, 0.0, 0.0, 0.0, 0.0, 0.0, 0.0, 0.0, 1.666556469206708E9, 0.0, 2022-10-23 13:21:09.206
166.0, -83817.85706494535, -116097.46409624387, 48874.41383295225, 45588.68504627765, 61136.983172533895, 101574.46283989702, 63543.64020152572, 67046.73970302817, 0.046, 0.9520000000000001, 0.1, 192.0, 0.0, 0.0, 0.0, 0.0, 0.0, 0.0, 0.0, 0.0, 0.0, 1.6665564692067156E9, 0.0, 2022-10-23 13:21:09.206
167.0, -83793.96305012263, -116072.81012210967, 46750.32755736441, 45518.85819659927, 61055.823988416676, 100741.12275136981, 62186.7775543663, 65713.30168405792, 0.046, 0.9520000000000001, 0.1, 192.0, 0.0, 0.0, 0.0, 0.0, 0.0, 0.0, 0.0, 0.0, 0.0, 1.6665564692067235E9, 0.0, 2022-10-23 13:21:09.206
168.0, -83817.52178877853, -116098.64873870001, 46452.19998981953, 45675.901553142256, 61182.60308296717, 100761.66400452424, 62107.42886154996, 65810.93410383869, 0.046, 0.9520000000000001, 0.1, 192.0, 0.0, 0.0, 0.0, 0.0, 0.0, 0.0, 0.0, 0.0, 0.0, 1.6665564692067327E9, 0.0, 2022-10-23 13:21:09.206
169.0, -83848.88128624932, -116131.32698909366, 47982.06513906302, 45837.459962065215, 61297.93808435656, 101411.80919549575, 63126.55664998969, 66871.52437824302, 0.046, 0.9520000000000001, 0.1, 192.0, 0.0, 0.0, 0.0, 0.0, 0.0, 0.0, 0.0, 0.0, 0.0, 1.6665564692067409E9, 0.0, 2022-10-23 13:21:09.206
170.0, -83825.74723073808, -116113.46794527388, 49130.45306568778, 45661.17175354621, 61191.25320807138, 101706.04755950542, 63733.16064276227, 67276.06860113962, 0.046, 0.9520000000000001, 0.1, 192.0, 0.0, 0.0, 0.0, 0.0, 0.0, 0.0, 0.0, 0.0, 0.0, 1.6665564692067487E9, 0.0, 2022-10-23 13:21:09.206
171.0, -83787.01165759703, -116074.01711631026, 47053.35015694501, 45510.18571975061, 61059.62378497408, 100847.22648229916, 62373.39226882366, 65874.12248541386, 0.046, 0.9520000000000001, 0.1, 192.0, 0.0, 0.0, 0.0, 0.0, 0.0, 0.0, 0.0, 0.0, 0.0, 1.666556469206766E9, 0.0, 2022-10-23 13:21:09.206
172.0, -83811.77739045351, -116091.4514769854, 46397.594678115216, 45659.74124190107, 61163.894672858085, 100717.20638480263, 62053.985840557325, 65730.62428601077, 0.038, 0.962, 0.10200000000000001, 192.0, 1.0, 48.0, 30.0, 16.0, 3.0, 48.0, 0.0, 0.0, 0.0, 1.6665564692067742E9, 0.0, 2022-10-23 13:21:09.206
173.0, -83856.61498983085, -116135.93144845146, 47573.519953908915, 45807.262755306096, 61273.97701430047, 101251.144856351, 62869.82451317603, 66623.3753113002, 0.038, 0.962, 0.10200000000000001, 192.0, 0.0, 0.0, 0.0, 0.0, 0.0, 0.0, 0.0, 0.0, 0.0, 1.6665564692067828E9, 0.0, 2022-10-23 13:21:09.206
174.0, -83835.67140527624, -116118.2065150984, 49218.78715977516, 45720.56033856396, 61221.49511831941, 101763.6703567112, 63810.83295474446, 67397.68444272094, 0.038, 0.962, 0.10200000000000001, 192.0, 0.0, 0.0, 0.0, 0.0, 0.0, 0.0, 0.0, 0.0, 0.0, 1.6665564692067907E9, 0.0, 2022-10-23 13:21:09.206
175.0, -83785.71525641863, -116073.70419188788, 47389.69920750847, 45498.16048123366, 61056.651002961524, 100957.59939641946, 62574.22269275459, 66062.65944989437, 0.038, 0.962, 0.10200000000000001, 192.0, 0.0, 0.0, 0.0, 0.0, 0.0, 0.0, 0.0, 0.0, 0.0, 1.6665564692067988E9, 0.0, 2022-10-23 13:21:09.206
176.0, -83805.11657060582, -116091.76440140778, 46387.89402102161, 45636.09309626736, 61141.81114933624, 100692.99944555754, 62036.55147988218, 65684.42323022166, 0.038, 0.962, 0.10200000000000001, 192.0, 0.0, 0.0, 0.0, 0.0, 0.0, 0.0, 0.0, 0.0, 0.0, 1.6665564692068079E9, 0.0, 2022-10-23 13:21:09.206
177.0, -83841.72872802362, -116128.0636344032, 47200.67050464994, 45773.26575198958, 61240.49410110642, 101098.32597951007, 62635.0864929064, 66390.17956139798, 0.038, 0.962, 0.10200000000000001, 192.0, 0.0, 0.0, 0.0, 0.0, 0.0, 0.0, 0.0, 0.0, 0.0, 1.6665564692068155E9, 0.0, 2022-10-23 13:21:09.206
178.0, -83846.40024261478, -116132.93631469445, 49213.08746493905, 45777.847859602916, 61267.003270030415, 101810.02787471151, 63855.08940876596, 67476.6308041371, 0.038, 0.962, 0.10200000000000001, 192.0, 0.0, 0.0, 0.0, 0.0, 0.0, 0.0, 0.0, 0.0, 0.0, 1.6665564692068236E9, 0.0, 2022-10-23 13:21:09.206
179.0, -83784.19533779567, -116073.43597095442, 47842.5902536619, 45491.566716619345, 61052.62768895957, 101140.21314861932, 62879.97220515874, 66338.23410728385, 0.038, 0.962, 0.10200000000000001, 192.0, 0.0, 0.0, 0.0, 0.0, 0.0, 0.0, 0.0, 0.0, 0.0, 1.6665564692068317E9, 0.0, 2022-10-23 13:21:09.206
180.0, -83793.27014604451, -116081.90728210298, 46432.55280644332, 45604.9124127522, 61114.83259377869, 100687.94795131063, 62061.00428831629, 65657.22115721955, 0.038, 0.962, 0.10200000000000001, 192.0, 0.0, 0.0, 0.0, 0.0, 0.0, 0.0, 0.0, 0.0, 0.0, 1.6665564692068396E9, 0.0, 2022-10-23 13:21:09.206
181.0, -83817.90176843427, -116104.95193063641, 46913.62940235489, 45745.393126653806, 61224.13262416513, 100982.00750136466, 62463.80507514538, 66189.59500665606, 0.038, 0.962, 0.10200000000000001, 192.0, 0.0, 0.0, 0.0, 0.0, 0.0, 0.0, 0.0, 0.0, 0.0, 1.6665564692068474E9, 0.0, 2022-10-23 13:21:09.206
182.0, -83839.71707102265, -116127.23661985835, 49004.97037231569, 45821.322002568486, 61292.394851731646, 101758.23888280855, 63760.85445414239, 67403.49589627933, 0.042, 0.9540000000000001, 0.10400000000000001, 192.0, 1.0, 80.0, 29.0, 208.0, 3.0, 64.0, 0.0, 0.0, 0.0, 1.6665564692068553E9, 0.0, 2022-10-23 13:21:09.206
183.0, -83795.05828560094, -116080.78969488022, 48251.64952893848, 45510.18571975061, 61065.725811210374, 101291.22153415937, 63147.74610373332, 66594.16158129711, 0.042, 0.9540000000000001, 0.10400000000000001, 192.0, 0.0, 0.0, 0.0, 0.0, 0.0, 0.0, 0.0, 0.0, 0.0, 1.666556469206864E9, 0.0, 2022-10-23 13:21:09.206
184.0, -83797.1817013242, -116075.69349714441, 46466.48275452647, 45576.72686299406, 61090.29037836676, 100655.96260499509, 62061.13839878302, 65618.21736314504, 0.042, 0.9540000000000001, 0.10400000000000001, 192.0, 0.0, 0.0, 0.0, 0.0, 0.0, 0.0, 0.0, 0.0, 0.0, 1.666556469206872E9, 0.0, 2022-10-23 13:21:09.206
185.0, -83830.64226277379, -116110.18223883894, 46661.412317921204, 45704.489434300594, 61191.722594704945, 100855.29546204752, 62294.602369618704, 66001.75094625365, 0.042, 0.9540000000000001, 0.10400000000000001, 192.0, 0.0, 0.0, 0.0, 0.0, 0.0, 0.0, 0.0, 0.0, 0.0, 1.66655646920688E9, 0.0, 2022-10-23 13:21:09.206
186.0, -83847.24960890408, -116126.63312275805, 48646.358984274746, 45840.49979931114, 61289.15384878562, 101626.69886668908, 63556.80537900989, 67234.29319075265, 0.042, 0.9540000000000001, 0.10400000000000001, 192.0, 0.0, 0.0, 0.0, 0.0, 0.0, 0.0, 0.0, 0.0, 0.0, 1.666556469206888E9, 0.0, 2022-10-23 13:21:09.206
187.0, -83796.84642515736, -116083.82953212614, 48649.220007565025, 45559.49366801902, 61102.516782583814, 101454.63513787213, 63424.1701274121, 66886.05301213897, 0.042, 0.9540000000000001, 0.10400000000000001, 192.0, 0.0, 0.0, 0.0, 0.0, 0.0, 0.0, 0.0, 0.0, 0.0, 1.6665564692069051E9, 0.0, 2022-10-23 13:21:09.206
188.0, -83776.61809642531, -116062.03658128221, 46618.74283775602, 45560.87947617525, 61074.24182584785, 100694.67582639169, 62156.0215539958, 65676.10838128428, 0.042, 0.9540000000000001, 0.10400000000000001, 192.0, 0.0, 0.0, 0.0, 0.0, 0.0, 0.0, 0.0, 0.0, 0.0, 1.6665564692069128E9, 0.0, 2022-10-23 13:21:09.206
189.0, -83814.97368991062, -116095.56419796517, 46498.736321775476, 45693.313562072944, 61175.294062530294, 100771.52112382904, 62185.97289156591, 65876.87174998186, 0.042, 0.9540000000000001, 0.10400000000000001, 192.0, 0.0, 0.0, 0.0, 0.0, 0.0, 0.0, 0.0, 0.0, 0.0, 1.6665564692069209E9, 0.0, 2022-10-23 13:21:09.206
190.0, -83852.43521361772, -116131.70696874941, 48246.79920039168, 45828.251043349635, 61283.65531964962, 101489.0568243333, 63331.32098094476, 67034.8709267224, 0.042, 0.9540000000000001, 0.10400000000000001, 192.0, 0.0, 0.0, 0.0, 0.0, 0.0, 0.0, 0.0, 0.0, 0.0, 1.6665564692069287E9, 0.0, 2022-10-23 13:21:09.206
191.0, -83806.16710259522, -116090.42329674045, 48990.84406981994, 45605.67237206369, 61144.29219297078, 101623.52491897643, 63678.1306479133, 67165.38276259694, 0.042, 0.9540000000000001, 0.10400000000000001, 192.0, 0.0, 0.0, 0.0, 0.0, 0.0, 0.0, 0.0, 0.0, 0.0, 1.6665564692069366E9, 0.0, 2022-10-23 13:21:09.206
192.0, -83762.24592474055, -116045.69745608539, 46869.328244844466, 45536.6948886746, 61065.099962365624, 100787.48026937012, 62317.33409372975, 65801.8816473343, 0.044, 0.9580000000000001, 0.10400000000000001, 192.0, 1.0, 96.0, 29.0, 240.0, 3.0, 64.0, 0.0, 0.0, 0.0, 1.6665564692069445E9, 0.0, 2022-10-23 13:21:09.206
193.0, -83802.4790647601, -116079.78386637973, 46448.5119519844, 45683.56820149043, 61178.26684454285, 100754.64555676527, 62156.13331271808, 65811.62700791682, 0.044, 0.9580000000000001, 0.10400000000000001, 192.0, 0.0, 0.0, 0.0, 0.0, 0.0, 0.0, 0.0, 0.0, 0.0, 1.6665564692069533E9, 0.0, 2022-10-23 13:21:09.206
194.0, -83836.31960586544, -116111.29982606172, 47869.099422585896, 45831.76026722912, 61285.44345920604, 101367.44098275197, 63112.96678936086, 66817.29904619444, 0.044, 0.9580000000000001, 0.10400000000000001, 192.0, 0.0, 0.0, 0.0, 0.0, 0.0, 0.0, 0.0, 0.0, 0.0, 1.6665564692069612E9, 0.0, 2022-10-23 13:21:09.206
195.0, -83813.61023349884, -116091.78675315224, 49207.67834278087, 45686.04924512497, 61195.567094751255, 101737.04942906492, 63840.29255393655, 67352.80213985468, 0.044, 0.9580000000000001, 0.10400000000000001, 192.0, 0.0, 0.0, 0.0, 0.0, 0.0, 0.0, 0.0, 0.0, 0.0, 1.666556469206969E9, 0.0, 2022-10-23 13:21:09.206
196.0, -83771.2760295005, -116055.15224398999, 47177.29057994969, 45508.37522844973, 61047.73265692385, 100877.7589652251, 62494.18109586014, 65943.21172752521, 0.044, 0.9580000000000001, 0.10400000000000001, 192.0, 0.0, 0.0, 0.0, 0.0, 0.0, 0.0, 0.0, 0.0, 0.0, 1.666556469206977E9, 0.0, 2022-10-23 13:21:09.206
197.0, -83796.44409375716, -116077.90631984548, 46394.018399002365, 45662.80343089145, 61154.23871925339, 100701.82838461739, 62096.72237595587, 65720.67775972818, 0.044, 0.9580000000000001, 0.10400000000000001, 192.0, 0.0, 0.0, 0.0, 0.0, 0.0, 0.0, 0.0, 0.0, 0.0, 1.666556469206986E9, 0.0, 2022-10-23 13:21:09.206
198.0, -83831.20105638517, -116107.05299461521, 47446.18206574703, 45819.69032522325, 61270.69130786554, 101199.62408538153, 62841.90718435135, 66555.67187734507, 0.044, 0.9580000000000001, 0.10400000000000001, 192.0, 0.0, 0.0, 0.0, 0.0, 0.0, 0.0, 0.0, 0.0, 0.0, 1.6665564692069936E9, 0.0, 2022-10-23 13:21:09.206
199.0, -83833.61504478635, -116115.70311971942, 49254.617006137014, 45751.36104242338, 61243.511586607885, 101797.64500828326, 63902.00572037765, 67456.20130970493, 0.044, 0.9580000000000001, 0.10400000000000001, 192.0, 0.0, 0.0, 0.0, 0.0, 0.0, 0.0, 0.0, 0.0, 0.0, 1.6665564692070017E9, 0.0, 2022-10-23 13:21:09.207
200.0, -83770.24784925555, -116063.2435754828, 47574.302264964856, 45495.3888649212, 61044.93868886694, 101033.5953275675, 62748.29807857252, 66172.0712390031, 0.044, 0.9580000000000001, 0.10400000000000001, 192.0, 0.0, 0.0, 0.0, 0.0, 0.0, 0.0, 0.0, 0.0, 0.0, 1.6665564692070093E9, 0.0, 2022-10-23 13:21:09.207
201.0, -83790.40912275424, -116079.06861055717, 46403.18261422904, 45632.293299709956, 61121.76163455983, 100684.30461696442, 62084.808896161194, 65670.47574168156, 0.044, 0.9580000000000001, 0.10400000000000001, 192.0, 0.0, 0.0, 0.0, 0.0, 0.0, 0.0, 0.0, 0.0, 0.0, 1.6665564692070172E9, 0.0, 2022-10-23 13:21:09.207
202.0, -83836.00668144306, -116109.17641033846, 47090.34229401855, 45766.31435946398, 61223.462071831476, 101048.25807193019, 62604.86693440282, 66309.10978425859, 0.048, 0.9560000000000001, 0.098, 192.0, 1.0, 128.0, 29.0, 224.0, 3.0, 16.0, 0.0, 0.0, 0.0, 1.6665564692070353E9, 0.0, 2022-10-23 13:21:09.207
203.0, -83848.70247229368, -116123.43682330094, 49154.3023770216, 45802.725351181674, 61264.81279907379, 101792.90643845874, 63862.13020826939, 67450.9262980135, 0.048, 0.9560000000000001, 0.098, 192.0, 0.0, 0.0, 0.0, 0.0, 0.0, 0.0, 0.0, 0.0, 0.0, 1.666556469207044E9, 0.0, 2022-10-23 13:21:09.207
204.0, -83789.96208786513, -116075.55938667768, 48010.094226609974, 45505.15657724817, 61050.504273236314, 101206.10609127357, 63023.11277665052, 66433.87722180811, 0.048, 0.9560000000000001, 0.098, 192.0, 0.0, 0.0, 0.0, 0.0, 0.0, 0.0, 0.0, 0.0, 0.0, 1.666556469207052E9, 0.0, 2022-10-23 13:21:09.207
205.0, -83799.23806181409, -116084.2989187597, 46465.588684748254, 45595.0105899585, 61088.27872136578, 100684.50578266452, 62101.86327718059, 65641.35141865628, 0.048, 0.9560000000000001, 0.098, 192.0, 0.0, 0.0, 0.0, 0.0, 0.0, 0.0, 0.0, 0.0, 0.0, 1.66655646920706E9, 0.0, 2022-10-23 13:21:09.207
206.0, -83829.34586159539, -116115.79252669723, 46857.83944819444, 45737.61471958336, 61205.31245533377, 100954.09017253997, 62449.254089504975, 66129.04413092663, 0.048, 0.9560000000000001, 0.098, 192.0, 0.0, 0.0, 0.0, 0.0, 0.0, 0.0, 0.0, 0.0, 0.0, 1.666556469207068E9, 0.0, 2022-10-23 13:21:09.207
207.0, -83852.23404791762, -116135.99850368482, 48941.513769807076, 45831.872025951394, 61279.29672948083, 101743.19615879013, 63749.47741621464, 67364.33563999363, 0.048, 0.9560000000000001, 0.098, 192.0, 0.0, 0.0, 0.0, 0.0, 0.0, 0.0, 0.0, 0.0, 0.0, 1.666556469207076E9, 0.0, 2022-10-23 13:21:09.207
208.0, -83789.80562565394, -116076.34169773362, 48442.555778331254, 45532.47040897256, 61069.6150147456, 101374.14650608857, 63291.75839325886, 66705.65208264018, 0.048, 0.9560000000000001, 0.098, 192.0, 0.0, 0.0, 0.0, 0.0, 0.0, 0.0, 0.0, 0.0, 0.0, 1.6665564692070837E9, 0.0, 2022-10-23 13:21:09.207
209.0, -83789.38094250929, -116072.92188083196, 46541.53991240739, 45574.13406063725, 61070.643194990545, 100676.48150640506, 62111.161602873995, 65628.56622082785, 0.048, 0.9560000000000001, 0.098, 192.0, 0.0, 0.0, 0.0, 0.0, 0.0, 0.0, 0.0, 0.0, 0.0, 1.6665564692070913E9, 0.0, 2022-10-23 13:21:09.207
210.0, -83825.14373363779, -116104.01315736928, 46621.26858487947, 45707.350457590874, 61184.033594612316, 100833.77073213705, 62265.098066937695, 65946.58684093796, 0.048, 0.9560000000000001, 0.098, 192.0, 0.0, 0.0, 0.0, 0.0, 0.0, 0.0, 0.0, 0.0, 0.0, 1.6665564692070992E9, 0.0, 2022-10-23 13:21:09.207
211.0, -83845.66263504776, -116127.97422742537, 48565.9150559801, 45854.40258436234, 61306.20822980502, 101621.40150325318, 63520.90847741467, 67187.86861751898, 0.046, 0.9540000000000001, 0.106, 192.0, 1.0, 112.0, 29.0, 208.0, 3.0, 80.0, 0.0, 0.0, 0.0, 1.6665564692071068E9, 0.0, 2022-10-23 13:21:09.207
212.0, -83796.95818387964, -116084.92476760445, 48825.50821608403, 45587.96979045508, 61122.298076426756, 101547.55133957283, 63546.63533528273, 66997.9681966267, 0.046, 0.9540000000000001, 0.106, 192.0, 0.0, 0.0, 0.0, 0.0, 0.0, 0.0, 0.0, 0.0, 0.0, 1.6665564692071152E9, 0.0, 2022-10-23 13:21:09.207
213.0, -83773.69001790167, -116058.92968880293, 46740.71630724863, 45553.65986271619, 61068.29626182274, 100752.74565848657, 62228.24004033089, 65718.33082656036, 0.046, 0.9540000000000001, 0.106, 192.0, 0.0, 0.0, 0.0, 0.0, 0.0, 0.0, 0.0, 0.0, 0.0, 1.6665564692071228E9, 0.0, 2022-10-23 13:21:09.207
214.0, -83800.40035252576, -116082.8013518812, 46523.6808685876, 45700.39906506528, 61180.09968758818, 100799.70667358718, 62196.83583937119, 65859.03505790653, 0.046, 0.9540000000000001, 0.106, 192.0, 0.0, 0.0, 0.0, 0.0, 0.0, 0.0, 0.0, 0.0, 0.0, 1.666556469207131E9, 0.0, 2022-10-23 13:21:09.207
215.0, -83835.35848085386, -116122.18512561145, 48130.6595362019, 45850.08869768247, 61283.52120918289, 101459.77603909685, 63248.5301194823, 66946.33566693493, 0.046, 0.9540000000000001, 0.106, 192.0, 0.0, 0.0, 0.0, 0.0, 0.0, 0.0, 0.0, 0.0, 0.0, 1.6665564692071388E9, 0.0, 2022-10-23 13:21:09.207
216.0, -83802.74728569356, -116092.65847118599, 49090.33168439051, 45659.31655875642, 61171.650728184075, 101680.74538478201, 63728.55618340447, 67224.1678505144, 0.046, 0.9540000000000001, 0.106, 192.0, 0.0, 0.0, 0.0, 0.0, 0.0, 0.0, 0.0, 0.0, 0.0, 1.6665564692071466E9, 0.0, 2022-10-23 13:21:09.207
217.0, -83768.50441318804, -116054.86167131206, 46978.58357174201, 45526.41308622516, 61061.613090230596, 100828.56277567898, 62358.52835876088, 65831.9447436267, 0.046, 0.9540000000000001, 0.106, 192.0, 0.0, 0.0, 0.0, 0.0, 0.0, 0.0, 0.0, 0.0, 0.0, 1.6665564692071545E9, 0.0, 2022-10-23 13:21:09.207
218.0, -83803.57430023841, -116090.57975895164, 46449.964815374, 45669.48660248359, 61166.2863095148, 100756.16547538823, 62131.00995195031, 65775.55129236596, 0.046, 0.9540000000000001, 0.106, 192.0, 0.0, 0.0, 0.0, 0.0, 0.0, 0.0, 0.0, 0.0, 0.0, 1.666556469207171E9, 0.0, 2022-10-23 13:21:09.207
219.0, -83839.44885008917, -116124.68852099044, 47718.82864461287, 45824.1159706254, 61267.27149096388, 101310.98047625787, 62995.55307573713, 66705.45091694008, 0.046, 0.9540000000000001, 0.106, 192.0, 0.0, 0.0, 0.0, 0.0, 0.0, 0.0, 0.0, 0.0, 0.0, 1.66655646920718E9, 0.0, 2022-10-23 13:21:09.207
220.0, -83824.69669874868, -116115.2560848303, 49260.38375620649, 45714.48066407212, 61209.268714102356, 101781.75291797554, 63871.85321710745, 67395.18104734195, 0.046, 0.9540000000000001, 0.106, 192.0, 0.0, 0.0, 0.0, 0.0, 0.0, 0.0, 0.0, 0.0, 0.0, 1.6665564692071877E9, 0.0, 2022-10-23 13:21:09.207
221.0, -83766.38099746479, -116058.54970914719, 47315.334953705664, 45505.469501670545, 61035.23803177333, 100933.48186415219, 62564.81260833891, 66004.6343212884, 0.044, 0.9560000000000001, 0.106, 192.0, 1.0, 96.0, 29.0, 224.0, 3.0, 80.0, 0.0, 0.0, 0.0, 1.6665564692071955E9, 0.0, 2022-10-23 13:21:09.207
222.0, -83789.023314598, -116074.82177911066, 46406.535375897336, 45660.590608190374, 61143.93456505949, 100705.85169861934, 62083.3560327716, 65696.94020711663, 0.044, 0.9560000000000001, 0.106, 192.0, 0.0, 0.0, 0.0, 0.0, 0.0, 0.0, 0.0, 0.0, 0.0, 1.6665564692072039E9, 0.0, 2022-10-23 13:21:09.207
223.0, -83823.37794582582, -116107.16475333748, 47311.915136804004, 45807.888604150845, 61248.18310119905, 101142.49302655376, 62734.88703189934, 66452.71974238392, 0.044, 0.9560000000000001, 0.106, 192.0, 0.0, 0.0, 0.0, 0.0, 0.0, 0.0, 0.0, 0.0, 0.0, 1.6665564692072115E9, 0.0, 2022-10-23 13:21:09.207
224.0, -83833.10095466387, -116121.38046281105, 49239.037840251665, 45783.6593131613, 61248.65248783261, 101803.79173800847, 63883.61023469094, 67457.43065564998, 0.044, 0.9560000000000001, 0.106, 192.0, 0.0, 0.0, 0.0, 0.0, 0.0, 0.0, 0.0, 0.0, 0.0, 1.6665564692072203E9, 0.0, 2022-10-23 13:21:09.207
225.0, -83767.43152945417, -116060.4496074259, 47723.85778711531, 45515.34897271979, 61045.832758645156, 101090.27935150616, 62824.49517542067, 66250.6376207635, 0.044, 0.9560000000000001, 0.106, 192.0, 0.0, 0.0, 0.0, 0.0, 0.0, 0.0, 0.0, 0.0, 0.0, 1.666556469207228E9, 0.0, 2022-10-23 13:21:09.207
226.0, -83787.36928550832, -116073.70419188788, 46410.938669555035, 45633.83557007737, 61116.75484380184, 100678.64962561722, 62066.9498523414, 65646.60407860328, 0.044, 0.9560000000000001, 0.106, 192.0, 0.0, 0.0, 0.0, 0.0, 0.0, 0.0, 0.0, 0.0, 0.0, 1.6665564692072358E9, 0.0, 2022-10-23 13:21:09.207
227.0, -83827.42361157223, -116112.48446851784, 46999.214231874255, 45760.88288556134, 61216.957714194985, 101012.80820522406, 62533.98955273504, 66239.97583865831, 0.044, 0.9560000000000001, 0.106, 192.0, 0.0, 0.0, 0.0, 0.0, 0.0, 0.0, 0.0, 0.0, 0.0, 1.6665564692072437E9, 0.0, 2022-10-23 13:21:09.207
228.0, -83854.11159445187, -116138.54660255273, 49086.2860186441, 45804.602897715915, 61253.90514777961, 101770.46528702561, 63814.230419901665, 67423.59011454466, 0.044, 0.9560000000000001, 0.106, 192.0, 0.0, 0.0, 0.0, 0.0, 0.0, 0.0, 0.0, 0.0, 0.0, 1.6665564692072513E9, 0.0, 2022-10-23 13:21:09.207
229.0, -83795.7735414235, -116079.22507276834, 48162.28725460616, 45503.21197548055, 61042.85997663259, 101261.35960356708, 63108.563495703165, 66526.41344385307, 0.044, 0.9560000000000001, 0.106, 192.0, 0.0, 0.0, 0.0, 0.0, 0.0, 0.0, 0.0, 0.0, 0.0, 1.6665564692072592E9, 0.0, 2022-10-23 13:21:09.207
230.0, -83792.73370417759, -116081.86257861408, 46491.71787401651, 45592.842470746335, 61084.63538701957, 100689.82549784488, 62101.75151845831, 65641.50788086747, 0.044, 0.9560000000000001, 0.106, 192.0, 0.0, 0.0, 0.0, 0.0, 0.0, 0.0, 0.0, 0.0, 0.0, 1.666556469207267E9, 0.0, 2022-10-23 13:21:09.207
231.0, -83826.17191388273, -116112.70798596239, 46763.3362726374, 45734.44077187071, 61202.138507621115, 100915.8686895214, 62375.068649657806, 66065.92280458484, 0.046, 0.9460000000000001, 0.106, 192.0, 1.0, 112.0, 29.0, 144.0, 3.0, 80.0, 0.0, 0.0, 0.0, 1.666556469207275E9, 0.0, 2022-10-23 13:21:09.207
232.0, -83847.69664379318, -116128.82359371467, 48808.78911123146, 45853.687328539774, 61293.82536337678, 101703.56651587087, 63663.780827972994, 67311.45141261237, 0.046, 0.9460000000000001, 0.106, 192.0, 0.0, 0.0, 0.0, 0.0, 0.0, 0.0, 0.0, 0.0, 0.0, 1.666556469207283E9, 0.0, 2022-10-23 13:21:09.207
233.0, -83787.68220993069, -116068.63034589653, 48602.035475019875, 45572.16710712518, 61103.343797128655, 101459.7983908413, 63399.02441489988, 66837.48267143758, 0.046, 0.9460000000000001, 0.106, 192.0, 0.0, 0.0, 0.0, 0.0, 0.0, 0.0, 0.0, 0.0, 0.0, 1.6665564692072985E9, 0.0, 2022-10-23 13:21:09.207
234.0, -83779.61323018232, -116061.92482255994, 46630.94689022862, 45584.01353168649, 61085.12712539758, 100730.34921054235, 62172.0254030258, 65686.16666628918, 0.046, 0.9460000000000001, 0.106, 192.0, 0.0, 0.0, 0.0, 0.0, 0.0, 0.0, 0.0, 0.0, 0.0, 1.6665564692073061E9, 0.0, 2022-10-23 13:21:09.207
235.0, -83812.55970150944, -116092.32319501915, 46589.10442460828, 45716.112341417356, 61183.49715274539, 100831.46850245816, 62243.930964938525, 65926.64908488383, 0.046, 0.9460000000000001, 0.106, 192.0, 0.0, 0.0, 0.0, 0.0, 0.0, 0.0, 0.0, 0.0, 0.0, 1.666556469207314E9, 0.0, 2022-10-23 13:21:09.207
236.0, -83852.94930374018, -116131.03641641575, 48418.63941176408, 45860.86223850992, 61292.8195348763, 101569.7242700725, 63427.612296058214, 67114.26432302766, 0.046, 0.9460000000000001, 0.106, 192.0, 0.0, 0.0, 0.0, 0.0, 0.0, 0.0, 0.0, 0.0, 0.0, 1.666556469207322E9, 0.0, 2022-10-23 13:21:09.207
237.0, -83821.031012658, -116104.46019225838, 48943.97246169716, 45606.58879358635, 61125.69554158396, 101600.70378788756, 63624.37470249829, 67091.01850879414, 0.046, 0.9460000000000001, 0.106, 192.0, 0.0, 0.0, 0.0, 0.0, 0.0, 0.0, 0.0, 0.0, 0.0, 1.6665564692073295E9, 0.0, 2022-10-23 13:21:09.207
238.0, -83790.85615764334, -116072.96658432086, 46821.4508082212, 45537.85717938628, 61046.21273830089, 100768.70480402766, 62269.300194895295, 65752.19371941015, 0.046, 0.9460000000000001, 0.106, 192.0, 0.0, 0.0, 0.0, 0.0, 0.0, 0.0, 0.0, 0.0, 0.0, 1.6665564692073383E9, 0.0, 2022-10-23 13:21:09.207
239.0, -83813.31966082093, -116093.53018921975, 46505.5759555788, 45700.577879020915, 61175.24935904138, 100782.36171988986, 62178.619167640114, 65835.96805762865, 0.046, 0.9460000000000001, 0.106, 192.0, 0.0, 0.0, 0.0, 0.0, 0.0, 0.0, 0.0, 0.0, 0.0, 1.6665564692073462E9, 0.0, 2022-10-23 13:21:09.207
240.0, -83842.53339082401, -116127.34837858062, 48033.40709607686, 45858.26943615311, 61286.873970851186, 101435.18912019601, 63199.870371803096, 66895.66426225475, 0.04, 0.9460000000000001, 0.098, 192.0, 1.0, 64.0, 29.0, 144.0, 3.0, 16.0, 0.0, 0.0, 0.0, 1.6665564692073553E9, 0.0, 2022-10-23 13:21:09.207
241.0, -83823.10972489235, -116108.68467196044, 49206.56075555811, 45683.29998055696, 61175.428172997024, 101736.512987198, 63816.666760047294, 67307.76337477725, 0.04, 0.9460000000000001, 0.098, 192.0, 0.0, 0.0, 0.0, 0.0, 0.0, 0.0, 0.0, 0.0, 0.0, 1.6665564692073638E9, 0.0, 2022-10-23 13:21:09.207
242.0, -83783.68124767319, -116070.44083719741, 47114.482178030274, 45520.86985360025, 61032.28760150524, 100860.16814233878, 62437.45236843257, 65886.93003498674, 0.04, 0.9460000000000001, 0.098, 192.0, 0.0, 0.0, 0.0, 0.0, 0.0, 0.0, 0.0, 0.0, 0.0, 1.6665564696865833E9, 0.0, 2022-10-23 13:21:09.686
243.0, -83807.19528284017, -116092.52436071925, 46429.40121047512, 45680.57306773342, 61146.01327729384, 100720.49209123757, 62100.47746902436, 65732.72534998957, 0.04, 0.9460000000000001, 0.098, 192.0, 0.0, 0.0, 0.0, 0.0, 0.0, 0.0, 0.0, 0.0, 0.0, 1.666556469686628E9, 0.0, 2022-10-23 13:21:09.686
244.0, -83841.14758266778, -116129.69531174844, 47589.50145119446, 45831.98378467367, 61264.36576418469, 101254.54232150821, 62908.895362483905, 66618.88261066469, 0.04, 0.9460000000000001, 0.098, 192.0, 0.0, 0.0, 0.0, 0.0, 0.0, 0.0, 0.0, 0.0, 0.0, 1.6665564696866455E9, 0.0, 2022-10-23 13:21:09.686
245.0, -83830.53050405151, -116119.79348895473, 49275.29236975818, 45741.36981265185, 61217.31534210627, 101790.00071167955, 63881.01743233412, 67419.23152437586, 0.04, 0.9460000000000001, 0.098, 192.0, 0.0, 0.0, 0.0, 0.0, 0.0, 0.0, 0.0, 0.0, 0.0, 1.6665564696866655E9, 0.0, 2022-10-23 13:21:09.686
246.0, -83776.21576502512, -116059.91316555896, 47437.37547843164, 45514.03021979693, 61039.9095463645, 100970.51870471463, 62630.61614401534, 66067.82270286354, 0.04, 0.9460000000000001, 0.098, 192.0, 0.0, 0.0, 0.0, 0.0, 0.0, 0.0, 0.0, 0.0, 0.0, 1.6665564696866739E9, 0.0, 2022-10-23 13:21:09.686
247.0, -83801.65205021526, -116082.13079954754, 46396.76766357037, 45668.81605014993, 61142.705219114454, 100689.42316644469, 62065.22876801834, 65668.03940153592, 0.04, 0.9460000000000001, 0.098, 192.0, 0.0, 0.0, 0.0, 0.0, 0.0, 0.0, 0.0, 0.0, 0.0, 1.6665564696866815E9, 0.0, 2022-10-23 13:21:09.686
248.0, -83833.3915273418, -116113.11031736259, 47189.11465276655, 45798.07618833497, 61237.163691182584, 101089.09470905003, 62652.29733613698, 66364.76562795229, 0.04, 0.9460000000000001, 0.098, 192.0, 0.0, 0.0, 0.0, 0.0, 0.0, 0.0, 0.0, 0.0, 0.0, 1.6665564696867468E9, 0.0, 2022-10-23 13:21:09.686
249.0, -83835.55964655396, -116117.3571488091, 49196.45776706431, 45816.58343274396, 61272.814723588795, 101801.86948798531, 63866.533501927086, 67456.49188238286, 0.04, 0.9460000000000001, 0.098, 192.0, 0.0, 0.0, 0.0, 0.0, 0.0, 0.0, 0.0, 0.0, 0.0, 1.666556469686756E9, 0.0, 2022-10-23 13:21:09.686
250.0, -83763.83289859688, -116052.42533116644, 47862.21508529366, 45539.46650498707, 61063.93767165395, 101149.7796952462, 62913.92450498635, 66345.58783120965, 0.048, 0.9480000000000001, 0.10400000000000001, 192.0, 1.0, 128.0, 29.0, 160.0, 3.0, 64.0, 0.0, 0.0, 0.0, 1.6665564696867645E9, 0.0, 2022-10-23 13:21:09.686
251.0, -83791.88433788829, -116080.23090126883, 46403.42848341805, 45629.92401479769, 61111.85981176613, 100668.36782316779, 62054.544634168706, 65634.13180519722, 0.048, 0.9480000000000001, 0.10400000000000001, 192.0, 0.0, 0.0, 0.0, 0.0, 0.0, 0.0, 0.0, 0.0, 0.0, 1.6665564696867738E9, 0.0, 2022-10-23 13:21:09.686
252.0, -83826.32837609391, -116109.95872139439, 46904.420483639304, 45761.3522721949, 61218.4999845624, 100985.94140838878, 62480.25595906448, 66185.03525078717, 0.048, 0.9480000000000001, 0.10400000000000001, 192.0, 0.0, 0.0, 0.0, 0.0, 0.0, 0.0, 0.0, 0.0, 0.0, 1.666556469686782E9, 0.0, 2022-10-23 13:21:09.686
253.0, -83843.67332979123, -116126.8119367137, 48978.6623690918, 45847.69706102575, 61274.200531745024, 101748.20294954813, 63760.876805886845, 67390.33071879516, 0.048, 0.9480000000000001, 0.10400000000000001, 192.0, 0.0, 0.0, 0.0, 0.0, 0.0, 0.0, 0.0, 0.0, 0.0, 1.6665564696867895E9, 0.0, 2022-10-23 13:21:09.686
254.0, -83789.40329425375, -116076.90049134499, 48263.07127035514, 45542.90867363318, 61062.08247686416, 101300.8104325307, 63170.52253133328, 66610.7242239385, 0.048, 0.9480000000000001, 0.10400000000000001, 192.0, 0.0, 0.0, 0.0, 0.0, 0.0, 0.0, 0.0, 0.0, 0.0, 1.6665564696867979E9, 0.0, 2022-10-23 13:21:09.686
255.0, -83784.82118664042, -116070.23967149731, 46492.54488856136, 45617.09411348034, 61093.151401657036, 100690.80897460092, 62100.96920740238, 65647.96753501505, 0.048, 0.9480000000000001, 0.10400000000000001, 192.0, 0.0, 0.0, 0.0, 0.0, 0.0, 0.0, 0.0, 0.0, 0.0, 1.6665564696868055E9, 0.0, 2022-10-23 13:21:09.686
0.0, -83814.90663467726, -116096.9053026325, 46645.65433808021, 45741.07923997394, 61186.06760335775, 100867.63362498685, 62298.379814431646, 65997.5264665516, 0.048, 0.9480000000000001, 0.10400000000000001, 192.0, 0.0, 0.0, 0.0, 0.0, 0.0, 0.0, 0.0, 0.0, 0.0, 1.6665564696868136E9, 0.0, 2022-10-23 13:21:09.686
1.0, -83845.10384143637, -116130.96936118239, 48629.41636197762, 45873.200401449256, 61296.75344190043, 101648.20124485508, 63563.98028898005, 67235.50018495324, 0.048, 0.9480000000000001, 0.10400000000000001, 192.0, 0.0, 0.0, 0.0, 0.0, 0.0, 0.0, 0.0, 0.0, 0.0, 1.6665564696868217E9, 0.0, 2022-10-23 13:21:09.686
2.0, -83801.5849949819, -116083.82953212614, 48714.30828741888, 45589.80263350042, 61114.63142807859, 101528.70881899701, 63494.95810210206, 66940.99360001012, 0.048, 0.9480000000000001, 0.10400000000000001, 192.0, 0.0, 0.0, 0.0, 0.0, 0.0, 0.0, 0.0, 0.0, 0.0, 1.6665564696868296E9, 0.0, 2022-10-23 13:21:09.686
3.0, -83780.70846566063, -116064.0482382832, 46662.753422588525, 45573.619970514774, 61063.20006408692, 100745.90602468325, 62201.86498187363, 65703.04223335293, 0.048, 0.9480000000000001, 0.10400000000000001, 192.0, 0.0, 0.0, 0.0, 0.0, 0.0, 0.0, 0.0, 0.0, 0.0, 1.6665564696868377E9, 0.0, 2022-10-23 13:21:09.686
4.0, -83812.38088755381, -116094.75953516479, 46539.17062749513, 45714.43596058321, 61172.835370640205, 100821.32081047546, 62226.60836298566, 65896.8542095249, 0.048, 0.9540000000000001, 0.10400000000000001, 192.0, 1.0, 128.0, 29.0, 208.0, 3.0, 64.0, 0.0, 0.0, 0.0, 1.6665564696868453E9, 0.0, 2022-10-23 13:21:09.686
5.0, -83842.35457686837, -116129.67296000397, 48265.21703782285, 45871.76988980411, 61283.565912671795, 101528.35119108572, 63353.024524810855, 67038.0225226906, 0.048, 0.9540000000000001, 0.10400000000000001, 192.0, 0.0, 0.0, 0.0, 0.0, 0.0, 0.0, 0.0, 0.0, 0.0, 1.6665564696868584E9, 0.0, 2022-10-23 13:21:09.686
6.0, -83798.05341935795, -116088.9033781175, 49056.33468107399, 45658.31073025593, 61158.61966116663, 101684.79105052842, 63729.85258458288, 67199.98326301375, 0.048, 0.9540000000000001, 0.10400000000000001, 192.0, 0.0, 0.0, 0.0, 0.0, 0.0, 0.0, 0.0, 0.0, 0.0, 1.6665564696868663E9, 0.0, 2022-10-23 13:21:09.686
7.0, -83767.02919805399, -116052.17946197743, 46911.90831803183, 45561.23710408653, 61059.020287873784, 100825.12060703285, 62344.62557370968, 65813.81747887343, 0.048, 0.9540000000000001, 0.10400000000000001, 192.0, 0.0, 0.0, 0.0, 0.0, 0.0, 0.0, 0.0, 0.0, 0.0, 1.6665564696868742E9, 0.0, 2022-10-23 13:21:09.686
8.0, -83804.44601827217, -116086.37763099404, 46457.05031836633, 45710.56910879244, 61174.73526891891, 100778.04783320997, 62161.11775173161, 65808.98950207108, 0.048, 0.9540000000000001, 0.10400000000000001, 192.0, 0.0, 0.0, 0.0, 0.0, 0.0, 0.0, 0.0, 0.0, 0.0, 1.6665564696868913E9, 0.0, 2022-10-23 13:21:09.686
9.0, -83844.47799259162, -116127.61659951409, 47856.67185266875, 45855.78839251857, 61281.621310904186, 101388.33986381769, 63109.72578641484, 66810.97350251359, 0.048, 0.9540000000000001, 0.10400000000000001, 192.0, 0.0, 0.0, 0.0, 0.0, 0.0, 0.0, 0.0, 0.0, 0.0, 1.6665564696868987E9, 0.0, 2022-10-23 13:21:09.686
10.0, -83826.037803416, -116114.42907028545, 49252.962977047326, 45712.469007071144, 61197.46699302996, 101794.73928150408, 63882.22442653471, 67386.62032921557, 0.048, 0.9540000000000001, 0.10400000000000001, 192.0, 0.0, 0.0, 0.0, 0.0, 0.0, 0.0, 0.0, 0.0, 0.0, 1.6665564696869068E9, 0.0, 2022-10-23 13:21:09.686
11.0, -83778.83091912638, -116066.28341272872, 47227.000859618296, 45525.85429261378, 61037.67437191896, 100928.78799781657, 62534.28012541296, 65970.34674529395, 0.048, 0.9540000000000001, 0.10400000000000001, 192.0, 0.0, 0.0, 0.0, 0.0, 0.0, 0.0, 0.0, 0.0, 0.0, 1.6665564696869147E9, 0.0, 2022-10-23 13:21:09.686
12.0, -83797.60638446885, -116084.16480829298, 46432.3069372543, 45684.52932650201, 61148.96370756194, 100747.11301888383, 62131.54639381724, 65737.37451283628, 0.048, 0.9540000000000001, 0.10400000000000001, 192.0, 0.0, 0.0, 0.0, 0.0, 0.0, 0.0, 0.0, 0.0, 0.0, 1.6665564696869223E9, 0.0, 2022-10-23 13:21:09.686
13.0, -83834.10678316436, -116116.17250635297, 47454.72043212896, 45836.632947520375, 61258.7107728375, 101226.71439966136, 62852.2336902897, 66549.59220285324, 0.044, 0.9480000000000001, 0.10400000000000001, 192.0, 1.0, 96.0, 29.0, 160.0, 3.0, 64.0, 0.0, 0.0, 0.0, 1.6665564696869302E9, 0.0, 2022-10-23 13:21:09.686
14.0, -83834.71028026466, -116122.408643056, 49311.055160886666, 45789.359007997395, 61241.276412162355, 101857.36886946784, 63950.57606107904, 67486.24205425287, 0.044, 0.9480000000000001, 0.10400000000000001, 192.0, 0.0, 0.0, 0.0, 0.0, 0.0, 0.0, 0.0, 0.0, 0.0, 1.6665564696869385E9, 0.0, 2022-10-23 13:21:09.686
