%OpenBCI Raw EEG Data
%Number of channels = 8
%Sample Rate = 250 Hz
%Board = OpenBCI_GUI$BoardCytonSerial
Sample Index, EXG Channel 0, EXG Channel 1, EXG Channel 2, EXG Channel 3, EXG Channel 4, EXG Channel 5, EXG Channel 6, EXG Channel 7, Accel Channel 0, Accel Channel 1, Accel Channel 2, Other, Other, Other, Other, Other, Other, Other, Analog Channel 0, Analog Channel 1, Analog Channel 2, Timestamp, Other, Timestamp (Formatted)
216.0, -81463.61487670122, -113558.060056932, 51508.27634433226, 37873.891040550596, 61468.616005017284, 92842.53035098677, 60015.08206308867, 59813.42462461289, 0.0, 0.0, 0.0, 192.0, 0.0, 0.0, 0.0, 0.0, 0.0, 0.0, 0.0, 0.0, 0.0, 1.6665563104429803E9, 0.0, 2022-10-23 13:18:30.442
217.0, -81409.41189639711, -113505.75697490657, 49719.68975301859, 37657.14617456748, 61265.55040664082, 92008.3185444258, 58763.071449169096, 58447.643631415805, 0.0, 0.0, 0.0, 192.0, 0.0, 0.0, 0.0, 0.0, 0.0, 0.0, 0.0, 0.0, 0.0, 1.6665563104429991E9, 0.0, 2022-10-23 13:18:30.442
218.0, -81437.23981824396, -113526.67820771673, 48608.13750125617, 37784.819338896195, 61358.15368391916, 91679.92671488842, 58132.70755204053, 57999.11117543116, 0.0, 0.0, 0.0, 192.0, 0.0, 0.0, 0.0, 0.0, 0.0, 0.0, 0.0, 0.0, 0.0, 1.6665563104430075E9, 0.0, 2022-10-23 13:18:30.443
219.0, -81465.4253680021, -113552.78504524054, 49366.688652835925, 37919.73446842843, 61477.53435105495, 92090.32709483232, 58713.629390433955, 58703.81697461808, 0.0, 0.0, 0.0, 192.0, 0.0, 0.0, 0.0, 0.0, 0.0, 0.0, 0.0, 0.0, 0.0, 1.666556310443015E9, 0.0, 2022-10-23 13:18:30.443
220.0, -81477.67412396362, -113567.58190006994, 51409.63809605099, 37928.51870399937, 61511.95603751612, 92835.98128986136, 59968.29986194371, 59832.37890391099, 0.0, 0.0, 0.0, 192.0, 0.0, 0.0, 0.0, 0.0, 0.0, 0.0, 0.0, 0.0, 0.0, 1.6665563104430232E9, 0.0, 2022-10-23 13:18:30.443
221.0, -81421.50419014743, -113511.92605637624, 50135.007516742655, 37665.282209549216, 61285.75638362842, 92178.99646508651, 59024.49745231837, 58718.457367236304, 0.0, 0.0, 0.0, 192.0, 0.0, 0.0, 0.0, 0.0, 0.0, 0.0, 0.0, 0.0, 0.0, 1.6665563104430308E9, 0.0, 2022-10-23 13:18:30.443
222.0, -81438.73738512247, -113525.96295189417, 48664.933283917104, 37773.17408003498, 61343.490939556475, 91690.76731094925, 58149.60547084874, 57987.30945435876, 0.0, 0.0, 0.0, 192.0, 0.0, 0.0, 0.0, 0.0, 0.0, 0.0, 0.0, 0.0, 0.0, 1.6665563104430385E9, 0.0, 2022-10-23 13:18:30.443
223.0, -81470.85684190475, -113558.39533309882, 49116.46087365876, 37888.35261921318, 61451.561623997884, 91993.83461401876, 58550.68517335477, 58523.10312069692, 0.0, 0.0, 0.0, 192.0, 0.0, 0.0, 0.0, 0.0, 0.0, 0.0, 0.0, 0.0, 0.0, 1.666556310443046E9, 0.0, 2022-10-23 13:18:30.443
224.0, -81483.44087403308, -113572.02989721655, 51223.917451371846, 37966.3602073622, 61535.06774128291, 92802.94541155641, 59881.619796946026, 59775.38195554996, 0.0, 0.0, 0.0, 192.0, 0.0, 0.0, 0.0, 0.0, 0.0, 0.0, 0.0, 0.0, 0.0, 1.6665563104430535E9, 0.0, 2022-10-23 13:18:30.443
225.0, -81420.45365815803, -113508.6850534302, 50617.91695569956, 37692.08195115113, 61320.80391893434, 92390.7121885672, 59353.246909767025, 59038.60140306967, 0.052000000000000005, 0.9500000000000001, 0.124, 192.0, 1.0, 160.0, 29.0, 176.0, 3.0, 224.0, 0.0, 0.0, 0.0, 1.666556310443061E9, 0.0, 2022-10-23 13:18:30.443
226.0, -81417.03384125637, -113504.32646326143, 48776.26732304899, 37754.5103734148, 61325.98952364797, 91710.52625304775, 58205.08250058681, 57998.28416088631, 0.052000000000000005, 0.9500000000000001, 0.124, 192.0, 0.0, 0.0, 0.0, 0.0, 0.0, 0.0, 0.0, 0.0, 0.0, 1.6665563104430711E9, 0.0, 2022-10-23 13:18:30.443
227.0, -81446.26992300391, -113533.94252466472, 48904.521632733544, 37877.13204349662, 61445.25843206149, 91894.05642677027, 58400.50380235956, 58357.4766942831, 0.052000000000000005, 0.9500000000000001, 0.124, 192.0, 0.0, 0.0, 0.0, 0.0, 0.0, 0.0, 0.0, 0.0, 0.0, 1.6665563104430792E9, 0.0, 2022-10-23 13:18:30.443
228.0, -81475.39424602917, -113562.46335058968, 50875.38670008024, 37996.95974552152, 61559.60995669484, 92693.42186372541, 59678.107163680455, 59612.61655242641, 0.052000000000000005, 0.9500000000000001, 0.124, 192.0, 0.0, 0.0, 0.0, 0.0, 0.0, 0.0, 0.0, 0.0, 0.0, 1.666556310443087E9, 0.0, 2022-10-23 13:18:30.443
229.0, -81436.25634148793, -113529.4498240292, 51001.49524229709, 37733.857361538096, 61361.57350082082, 92564.13937379592, 59611.968351837204, 59322.759130329985, 0.052000000000000005, 0.9500000000000001, 0.124, 192.0, 0.0, 0.0, 0.0, 0.0, 0.0, 0.0, 0.0, 0.0, 0.0, 1.666556310443095E9, 0.0, 2022-10-23 13:18:30.443
230.0, -81430.80251584084, -113520.73264369162, 48941.96080469618, 37709.739829270824, 61298.251008778934, 91756.28027394775, 58290.53321963945, 58052.710658634984, 0.052000000000000005, 0.9500000000000001, 0.124, 192.0, 0.0, 0.0, 0.0, 0.0, 0.0, 0.0, 0.0, 0.0, 0.0, 1.6665563104431028E9, 0.0, 2022-10-23 13:18:30.443
231.0, -81464.3748360127, -113547.91236494928, 48750.8086861144, 37828.36053709513, 61398.43152742762, 91799.68736167996, 58270.684870563135, 58210.96100937856, 0.052000000000000005, 0.9500000000000001, 0.124, 192.0, 0.0, 0.0, 0.0, 0.0, 0.0, 0.0, 0.0, 0.0, 0.0, 1.6665563104431107E9, 0.0, 2022-10-23 13:18:30.443
232.0, -81492.3815718152, -113573.0580774615, 50447.95429086141, 37976.37378887818, 61528.384569690774, 92520.2852511746, 59402.666616757706, 59368.98253786356, 0.052000000000000005, 0.9500000000000001, 0.124, 192.0, 0.0, 0.0, 0.0, 0.0, 0.0, 0.0, 0.0, 0.0, 0.0, 1.666556310443206E9, 0.0, 2022-10-23 13:18:30.443
233.0, -81449.35446373874, -113537.58585901093, 51299.22047844178, 37782.60651619513, 61403.03598678541, 92698.1827852944, 59817.023255470194, 59570.30470017251, 0.052000000000000005, 0.9500000000000001, 0.124, 192.0, 0.0, 0.0, 0.0, 0.0, 0.0, 0.0, 0.0, 0.0, 0.0, 1.6665563104432144E9, 0.0, 2022-10-23 13:18:30.443
234.0, -81414.44103889955, -113504.92996036173, 49154.101211321504, 37686.09168363711, 61290.5173051974, 91810.8185304187, 58402.269590171534, 58151.46066563853, 0.058, 0.9500000000000001, 0.122, 192.0, 1.0, 208.0, 29.0, 176.0, 3.0, 208.0, 0.0, 0.0, 0.0, 1.666556310443222E9, 0.0, 2022-10-23 13:18:30.443
235.0, -81444.81705961432, -113534.65778048728, 48669.425984552625, 37824.85131321565, 61407.86396358776, 91756.72730883687, 58200.790965651395, 58136.060313708826, 0.058, 0.9500000000000001, 0.122, 192.0, 0.0, 0.0, 0.0, 0.0, 0.0, 0.0, 0.0, 0.0, 0.0, 1.6665563104432304E9, 0.0, 2022-10-23 13:18:30.443
236.0, -81486.39130430119, -113573.7062780507, 50027.38386719035, 37959.542925303336, 61517.566325374406, 92368.56160981198, 59139.51952928538, 59136.725561228464, 0.058, 0.9500000000000001, 0.122, 192.0, 0.0, 0.0, 0.0, 0.0, 0.0, 0.0, 0.0, 0.0, 0.0, 1.6665563104432385E9, 0.0, 2022-10-23 13:18:30.443
237.0, -81464.732463924, -113554.3049638635, 51481.387195752526, 37837.033013943794, 61446.755998939996, 92808.71216162588, 59961.43787639593, 59760.6521559539, 0.058, 0.9500000000000001, 0.122, 192.0, 0.0, 0.0, 0.0, 0.0, 0.0, 0.0, 0.0, 0.0, 0.0, 1.6665563104432464E9, 0.0, 2022-10-23 13:18:30.443
238.0, -81419.55958837982, -113509.17679180823, 49493.9818375089, 37668.21028807286, 61273.55233115582, 91933.3954970116, 58612.21952584023, 58333.269755037996, 0.058, 0.9500000000000001, 0.122, 192.0, 0.0, 0.0, 0.0, 0.0, 0.0, 0.0, 0.0, 0.0, 0.0, 1.6665563104432564E9, 0.0, 2022-10-23 13:18:30.443
239.0, -81444.25826600293, -113528.10871936187, 48646.29192904138, 37810.5238450198, 61376.86209402825, 91726.9994887113, 58168.53739840238, 58066.94871985301, 0.058, 0.9500000000000001, 0.122, 192.0, 0.0, 0.0, 0.0, 0.0, 0.0, 0.0, 0.0, 0.0, 0.0, 1.666556310443264E9, 0.0, 2022-10-23 13:18:30.443
240.0, -81469.80630991535, -113550.41576032827, 49622.370257660186, 37946.1542303746, 61494.54402858544, 92205.14800609923, 58877.19945635789, 58877.35591856908, 0.058, 0.9500000000000001, 0.122, 192.0, 0.0, 0.0, 0.0, 0.0, 0.0, 0.0, 0.0, 0.0, 0.0, 1.6665563104432719E9, 0.0, 2022-10-23 13:18:30.443
241.0, -81472.10853959425, -113559.66938253277, 51496.92165814897, 37909.810293890274, 61500.73546179956, 92853.88503717007, 60000.55342919272, 59850.34970645305, 0.058, 0.9500000000000001, 0.122, 192.0, 0.0, 0.0, 0.0, 0.0, 0.0, 0.0, 0.0, 0.0, 0.0, 1.6665563104432795E9, 0.0, 2022-10-23 13:18:30.443
242.0, -81418.84433255724, -113513.15540232128, 49885.718510832616, 37665.79629967169, 61285.21994176149, 92090.39415006568, 58861.285014305715, 58574.26626375512, 0.058, 0.9500000000000001, 0.122, 192.0, 0.0, 0.0, 0.0, 0.0, 0.0, 0.0, 0.0, 0.0, 0.0, 1.6665563104432871E9, 0.0, 2022-10-23 13:18:30.443
243.0, -81439.69851013405, -113530.79092869652, 48648.97413837602, 37788.93205987597, 61359.42773335311, 91708.06756115766, 58146.0738952248, 58020.30062917479, 0.058, 0.9500000000000001, 0.122, 192.0, 0.0, 0.0, 0.0, 0.0, 0.0, 0.0, 0.0, 0.0, 0.0, 1.6665563104432952E9, 0.0, 2022-10-23 13:18:30.443
244.0, -81473.76256868393, -113563.804455257, 49288.971637364826, 37911.03963983532, 61467.654880005706, 92073.74210044648, 58656.54303509511, 58654.86665426096, 0.062, 0.9520000000000001, 0.11800000000000001, 192.0, 1.0, 240.0, 29.0, 192.0, 3.0, 176.0, 0.0, 0.0, 0.0, 1.6665563104433029E9, 0.0, 2022-10-23 13:18:30.443
245.0, -81493.61091776025, -113583.27282467758, 51362.02888036119, 37937.88408492614, 61512.35836891632, 92837.45650499541, 59941.07543719715, 59829.89786027645, 0.062, 0.9520000000000001, 0.11800000000000001, 192.0, 0.0, 0.0, 0.0, 0.0, 0.0, 0.0, 0.0, 0.0, 0.0, 1.6665563104433112E9, 0.0, 2022-10-23 13:18:30.443
246.0, -81434.0211670424, -113528.55575425098, 50306.31128624813, 37666.891535149996, 61289.77969763037, 92258.16634394722, 59132.4563780375, 58836.69809540488, 0.062, 0.9520000000000001, 0.11800000000000001, 192.0, 0.0, 0.0, 0.0, 0.0, 0.0, 0.0, 0.0, 0.0, 0.0, 1.666556310443319E9, 0.0, 2022-10-23 13:18:30.443
247.0, -81436.88219033268, -113528.24282982861, 48705.769921036954, 37760.32182697318, 61333.16443361813, 91710.50390130328, 58163.55295938885, 58001.3910533656, 0.062, 0.9520000000000001, 0.11800000000000001, 192.0, 0.0, 0.0, 0.0, 0.0, 0.0, 0.0, 0.0, 0.0, 0.0, 1.6665563104433563E9, 0.0, 2022-10-23 13:18:30.443
248.0, -81460.9326673666, -113549.34287659441, 49026.159826059324, 37881.66944762105, 61440.69867619261, 91959.34587232422, 58474.264559062074, 58462.28402403403, 0.062, 0.9520000000000001, 0.11800000000000001, 192.0, 0.0, 0.0, 0.0, 0.0, 0.0, 0.0, 0.0, 0.0, 0.0, 1.6665563104433644E9, 0.0, 2022-10-23 13:18:30.443
249.0, -81492.26981309293, -113579.31656590899, 51101.072263845475, 37985.046265726836, 61537.772302362006, 92769.5966088291, 59798.94069420585, 59729.270306738654, 0.062, 0.9520000000000001, 0.11800000000000001, 192.0, 0.0, 0.0, 0.0, 0.0, 0.0, 0.0, 0.0, 0.0, 0.0, 1.6665563104433725E9, 0.0, 2022-10-23 13:18:30.443
250.0, -81448.23687651598, -113537.4964520331, 50767.31601563883, 37703.61545129007, 61323.083796868785, 92469.18916334977, 59451.70634409265, 59154.785770748356, 0.062, 0.9520000000000001, 0.11800000000000001, 192.0, 0.0, 0.0, 0.0, 0.0, 0.0, 0.0, 0.0, 0.0, 0.0, 1.66655631044338E9, 0.0, 2022-10-23 13:18:30.443
251.0, -81434.35644320922, -113521.0008646251, 48844.61895759332, 37739.5570563742, 61305.98471236047, 91748.21129419938, 58242.320506849355, 58030.02363801285, 0.062, 0.9520000000000001, 0.11800000000000001, 192.0, 0.0, 0.0, 0.0, 0.0, 0.0, 0.0, 0.0, 0.0, 0.0, 1.666556310443388E9, 0.0, 2022-10-23 13:18:30.443
252.0, -81467.2805627919, -113555.89193771982, 48848.21758845062, 37849.30412164976, 61406.52285892044, 91871.86114452615, 58349.29595581245, 58303.78780410145, 0.062, 0.9520000000000001, 0.11800000000000001, 192.0, 0.0, 0.0, 0.0, 0.0, 0.0, 0.0, 0.0, 0.0, 0.0, 1.6665563104433959E9, 0.0, 2022-10-23 13:18:30.443
253.0, -81503.42333357612, -113595.78980157255, 50719.19270982656, 37973.11043418771, 61513.94534277265, 92633.98857521875, 59570.81879029499, 59517.77810070254, 0.062, 0.9520000000000001, 0.11800000000000001, 192.0, 0.0, 0.0, 0.0, 0.0, 0.0, 0.0, 0.0, 0.0, 0.0, 1.6665563104434035E9, 0.0, 2022-10-23 13:18:30.443
254.0, -81456.05998707534, -113551.3545335954, 51112.3151913065, 37741.38989941953, 61353.057486183345, 92619.88462446745, 59684.544466083586, 59409.28273311648, 0.064, 0.9520000000000001, 0.11800000000000001, 192.0, 2.0, 0.0, 29.0, 192.0, 3.0, 176.0, 0.0, 0.0, 0.0, 1.6665563104434116E9, 0.0, 2022-10-23 13:18:30.443
255.0, -81423.44879191504, -113515.36822502235, 48990.19586923074, 37712.62320430556, 61291.79135463135, 91776.73212012436, 58311.87913559427, 58076.93994962454, 0.064, 0.9520000000000001, 0.11800000000000001, 192.0, 0.0, 0.0, 0.0, 0.0, 0.0, 0.0, 0.0, 0.0, 0.0, 1.6665563104434197E9, 0.0, 2022-10-23 13:18:30.443
0.0, -81462.20671680055, -113549.54404229451, 48712.25192692899, 37839.5811128117, 61407.26046648747, 91803.35304777064, 58246.45557957359, 58190.62092192423, 0.064, 0.9520000000000001, 0.11800000000000001, 192.0, 0.0, 0.0, 0.0, 0.0, 0.0, 0.0, 0.0, 0.0, 0.0, 1.6665563104434276E9, 0.0, 2022-10-23 13:18:30.443
1.0, -81499.37766782971, -113584.09983922241, 50289.23455348427, 37974.89857374413, 61519.242706208555, 92481.46027105574, 59308.31990341186, 59288.53860956891, 0.064, 0.9520000000000001, 0.11800000000000001, 192.0, 0.0, 0.0, 0.0, 0.0, 0.0, 0.0, 0.0, 0.0, 0.0, 1.6665563104434357E9, 0.0, 2022-10-23 13:18:30.443
2.0, -81472.44381576107, -113558.88707147683, 51365.605159474035, 37805.89703391755, 61416.759957880975, 92756.16321041145, 59873.439058475386, 59645.65243073135, 0.064, 0.9520000000000001, 0.11800000000000001, 192.0, 0.0, 0.0, 0.0, 0.0, 0.0, 0.0, 0.0, 0.0, 0.0, 1.6665563104434433E9, 0.0, 2022-10-23 13:18:30.443
3.0, -81430.467239674, -113520.28560880251, 49287.138794319486, 37685.4434830479, 61288.326834240775, 91889.11669124564, 58498.1585738848, 58235.16794862365, 0.064, 0.9520000000000001, 0.11800000000000001, 192.0, 0.0, 0.0, 0.0, 0.0, 0.0, 0.0, 0.0, 0.0, 0.0, 1.6665563104434524E9, 0.0, 2022-10-23 13:18:30.443
4.0, -81458.33986500978, -113547.28651610453, 48682.434699825615, 37819.95628117994, 61389.87080930124, 91781.13541378206, 58215.43135826962, 58130.58413631727, 0.064, 0.9520000000000001, 0.11800000000000001, 192.0, 0.0, 0.0, 0.0, 0.0, 0.0, 0.0, 0.0, 0.0, 0.0, 1.6665563104434605E9, 0.0, 2022-10-23 13:18:30.443
5.0, -81492.87331019323, -113580.14358045383, 49890.792356823964, 37960.95108520402, 61505.675197324184, 92330.9436238937, 59058.561510868254, 59046.64803107358, 0.064, 0.9520000000000001, 0.11800000000000001, 192.0, 0.0, 0.0, 0.0, 0.0, 0.0, 0.0, 0.0, 0.0, 0.0, 1.6665563104434683E9, 0.0, 2022-10-23 13:18:30.443
6.0, -81485.74310371198, -113575.11443795139, 51512.634934501046, 37864.54801136828, 61462.3575165698, 92846.82188592218, 59995.993673323836, 59800.61707504, 0.064, 0.9520000000000001, 0.11800000000000001, 192.0, 0.0, 0.0, 0.0, 0.0, 0.0, 0.0, 0.0, 0.0, 0.0, 1.666556310443476E9, 0.0, 2022-10-23 13:18:30.443
7.0, -81440.34671072326, -113535.84242294342, 49619.30806866981, 37661.080081591615, 61270.55719739881, 91988.9619337275, 58689.84713433351, 58399.92265700372, 0.064, 0.9520000000000001, 0.11800000000000001, 192.0, 0.0, 0.0, 0.0, 0.0, 0.0, 0.0, 0.0, 0.0, 0.0, 1.6665563104435096E9, 0.0, 2022-10-23 13:18:30.443
8.0, -81457.15522255364, -113548.91819344976, 48601.49903315295, 37794.36353377861, 61361.41703860963, 91693.3377615616, 58118.76006350041, 58015.696169817, 0.06, 0.9540000000000001, 0.122, 192.0, 1.0, 224.0, 29.0, 208.0, 3.0, 208.0, 0.0, 0.0, 0.0, 1.6665563104435177E9, 0.0, 2022-10-23 13:18:30.443
9.0, -81491.3310398258, -113582.66932757729, 49468.210276151935, 37930.84328542272, 61486.58680755935, 92145.42414491465, 58769.48639982777, 58782.13748718947, 0.06, 0.9540000000000001, 0.122, 192.0, 0.0, 0.0, 0.0, 0.0, 0.0, 0.0, 0.0, 0.0, 0.0, 1.6665563104435265E9, 0.0, 2022-10-23 13:18:30.443
10.0, -81498.79652247389, -113595.45452540572, 51453.11223901656, 37909.72088691245, 61488.88903723825, 92852.3651185471, 59976.972338792366, 59846.03581977318, 0.06, 0.9540000000000001, 0.122, 192.0, 0.0, 0.0, 0.0, 0.0, 0.0, 0.0, 0.0, 0.0, 0.0, 1.6665563104435344E9, 0.0, 2022-10-23 13:18:30.443
11.0, -81450.0250160724, -113548.22528937165, 49994.616209818865, 37648.16077329645, 61259.671897849075, 92124.65937431567, 58917.767872544275, 58635.10771216246, 0.06, 0.9540000000000001, 0.122, 192.0, 0.0, 0.0, 0.0, 0.0, 0.0, 0.0, 0.0, 0.0, 0.0, 1.6665563104435425E9, 0.0, 2022-10-23 13:18:30.443
12.0, -81455.4788417195, -113549.00760042759, 48632.791475390375, 37779.1196440601, 61343.89327095667, 91692.53309876123, 58118.35773210022, 57994.685530029004, 0.06, 0.9540000000000001, 0.122, 192.0, 0.0, 0.0, 0.0, 0.0, 0.0, 0.0, 0.0, 0.0, 0.0, 1.66655631044355E9, 0.0, 2022-10-23 13:18:30.443
13.0, -81475.66246696263, -113566.41960935827, 49172.563752241585, 37919.71211668398, 61475.36623184279, 92034.73830637198, 58573.908635843836, 58584.9280458603, 0.06, 0.9540000000000001, 0.122, 192.0, 0.0, 0.0, 0.0, 0.0, 0.0, 0.0, 0.0, 0.0, 0.0, 1.6665563104435582E9, 0.0, 2022-10-23 13:18:30.443
14.0, -81507.84897897828, -113598.20378997372, 51257.266254099166, 37960.83932648174, 61525.43413942268, 92811.21555700488, 59874.489590464786, 59795.99026393775, 0.06, 0.9540000000000001, 0.122, 192.0, 0.0, 0.0, 0.0, 0.0, 0.0, 0.0, 0.0, 0.0, 0.0, 1.666556310443566E9, 0.0, 2022-10-23 13:18:30.443
15.0, -81452.88603936268, -113545.54308003701, 50432.196311020416, 37682.98479115782, 61301.044976835845, 92319.25366154357, 59209.14521326366, 58934.10699774111, 0.06, 0.9540000000000001, 0.122, 192.0, 0.0, 0.0, 0.0, 0.0, 0.0, 0.0, 0.0, 0.0, 0.0, 1.666556310443574E9, 0.0, 2022-10-23 13:18:30.443
16.0, -81459.5245074659, -113546.63831551533, 48721.438493900125, 37759.60657115061, 61331.51040452843, 91719.51165431878, 58161.89893029916, 58006.19667842349, 0.06, 0.9540000000000001, 0.122, 192.0, 0.0, 0.0, 0.0, 0.0, 0.0, 0.0, 0.0, 0.0, 0.0, 1.6665563104435818E9, 0.0, 2022-10-23 13:18:30.443
17.0, -81496.27077535044, -113578.37779264186, 48953.85193274641, 37873.2875434503, 61434.01550460047, 91942.22443607145, 58423.34728519288, 58415.85945080036, 0.06, 0.9520000000000001, 0.12, 192.0, 1.0, 224.0, 29.0, 192.0, 3.0, 192.0, 0.0, 0.0, 0.0, 1.66655631044359E9, 0.0, 2022-10-23 13:18:30.443
18.0, -81527.89849375469, -113612.79947910304, 50970.71689018213, 37964.348550361225, 61517.45456665213, 92733.72205897834, 59714.78637633162, 59666.59601528598, 0.06, 0.9520000000000001, 0.12, 192.0, 0.0, 0.0, 0.0, 0.0, 0.0, 0.0, 0.0, 0.0, 0.0, 1.6665563104435985E9, 0.0, 2022-10-23 13:18:30.443
19.0, -81463.36900751221, -113555.06492317497, 50853.92902540315, 37709.8515879931, 61322.21207883502, 92505.51074808964, 59488.56437069945, 59228.83710012879, 0.06, 0.9520000000000001, 0.12, 192.0, 0.0, 0.0, 0.0, 0.0, 0.0, 0.0, 0.0, 0.0, 0.0, 1.6665563104436061E9, 0.0, 2022-10-23 13:18:30.443
20.0, -81442.13485027968, -113531.32737056343, 48845.71419307163, 37733.90206502701, 61302.20726754752, 91740.56699759567, 58213.6879222021, 58032.12470199165, 0.06, 0.9520000000000001, 0.12, 192.0, 0.0, 0.0, 0.0, 0.0, 0.0, 0.0, 0.0, 0.0, 0.0, 1.666556310443614E9, 0.0, 2022-10-23 13:18:30.443
21.0, -81468.62166745921, -113556.31662086447, 48770.45586949061, 37855.853182775165, 61413.742472379505, 91844.36849884612, 58278.21740844458, 58271.891864763726, 0.06, 0.9520000000000001, 0.12, 192.0, 0.0, 0.0, 0.0, 0.0, 0.0, 0.0, 0.0, 0.0, 0.0, 1.6665563104436219E9, 0.0, 2022-10-23 13:18:30.443
22.0, -81504.85384522127, -113592.81701956, 50548.00069904336, 37983.70516105952, 61523.10955799933, 92577.14808906891, 59448.64415510227, 59451.16990222572, 0.06, 0.9520000000000001, 0.12, 192.0, 0.0, 0.0, 0.0, 0.0, 0.0, 0.0, 0.0, 0.0, 0.0, 1.6665563104436297E9, 0.0, 2022-10-23 13:18:30.443
23.0, -81470.25334480446, -113562.15042616731, 51205.454910451765, 37756.99141704934, 61365.61916656723, 92672.45592742633, 59735.014705063666, 59507.00455987508, 0.06, 0.9520000000000001, 0.12, 192.0, 0.0, 0.0, 0.0, 0.0, 0.0, 0.0, 0.0, 0.0, 0.0, 1.666556310443647E9, 0.0, 2022-10-23 13:18:30.443
24.0, -81433.68589087557, -113523.1466320928, 49067.5329050461, 37698.80982623218, 61269.84194157624, 91802.74955067034, 58335.19200506115, 58115.3178948543, 0.06, 0.9520000000000001, 0.12, 192.0, 0.0, 0.0, 0.0, 0.0, 0.0, 0.0, 0.0, 0.0, 0.0, 1.666556310443656E9, 0.0, 2022-10-23 13:18:30.443
25.0, -81467.50408023645, -113549.56639403896, 48672.845801454285, 37845.16904892553, 61398.11860300525, 91783.70586439442, 58190.866791113236, 58157.13800873018, 0.06, 0.9520000000000001, 0.12, 192.0, 0.0, 0.0, 0.0, 0.0, 0.0, 0.0, 0.0, 0.0, 0.0, 1.6665563104436638E9, 0.0, 2022-10-23 13:18:30.443
26.0, -81510.21826389054, -113589.7101270807, 50128.65962131735, 37976.35143713372, 61516.40403466273, 92428.24076750765, 59186.7711170639, 59205.50187891744, 0.06, 0.9520000000000001, 0.12, 192.0, 0.0, 0.0, 0.0, 0.0, 0.0, 0.0, 0.0, 0.0, 0.0, 1.6665563104436717E9, 0.0, 2022-10-23 13:18:30.443
27.0, -81480.02105713142, -113562.32924012296, 51390.59440977507, 37822.14675213656, 61423.1972602841, 92776.50329786578, 59872.47793346381, 59693.82044003254, 0.056, 0.9480000000000001, 0.128, 192.0, 1.0, 192.0, 29.0, 160.0, 4.0, 0.0, 0.0, 0.0, 0.0, 1.6665563104436793E9, 0.0, 2022-10-23 13:18:30.443
28.0, -81438.15623976663, -113522.7443006926, 49335.798541998694, 37672.9935613863, 61276.83803759075, 91899.4879006729, 58493.12943138235, 58263.57701582635, 0.056, 0.9480000000000001, 0.128, 192.0, 0.0, 0.0, 0.0, 0.0, 0.0, 0.0, 0.0, 0.0, 0.0, 1.666556310443688E9, 0.0, 2022-10-23 13:18:30.443
29.0, -81468.95694362605, -113555.44490283071, 48608.450425678544, 37811.50732177583, 61385.55692262136, 91748.83714304413, 58130.472377595, 58082.6619962051, 0.056, 0.9480000000000001, 0.128, 192.0, 0.0, 0.0, 0.0, 0.0, 0.0, 0.0, 0.0, 0.0, 0.0, 1.6665563104436955E9, 0.0, 2022-10-23 13:18:30.443
30.0, -81498.34948758477, -113579.51773160908, 49727.33404962231, 37959.07353866977, 61512.671293338695, 92292.90095483077, 58934.15170123002, 58974.98833834986, 0.056, 0.9480000000000001, 0.128, 192.0, 0.0, 0.0, 0.0, 0.0, 0.0, 0.0, 0.0, 0.0, 0.0, 1.6665563104437034E9, 0.0, 2022-10-23 13:18:30.443
31.0, -81494.72850498301, -113578.3554408974, 51483.8011841537, 37883.70345636648, 61474.31569985339, 92874.94038044696, 59967.69636484342, 59836.379866168485, 0.056, 0.9480000000000001, 0.128, 192.0, 0.0, 0.0, 0.0, 0.0, 0.0, 0.0, 0.0, 0.0, 0.0, 1.6665563104437113E9, 0.0, 2022-10-23 13:18:30.443
32.0, -81438.67032988911, -113530.38859729632, 49725.255337387964, 37666.958590383365, 61274.60286314522, 92061.09101308478, 58741.83729193656, 58489.62020750287, 0.056, 0.9480000000000001, 0.128, 192.0, 0.0, 0.0, 0.0, 0.0, 0.0, 0.0, 0.0, 0.0, 0.0, 1.6665563104437194E9, 0.0, 2022-10-23 13:18:30.443
33.0, -81460.06094933284, -113551.33218185094, 48599.777948829884, 37793.357705278126, 61356.67846878511, 91725.5466253217, 58100.744557469436, 58021.55232686429, 0.056, 0.9480000000000001, 0.128, 192.0, 0.0, 0.0, 0.0, 0.0, 0.0, 0.0, 0.0, 0.0, 0.0, 1.6665563104437273E9, 0.0, 2022-10-23 13:18:30.443
34.0, -81491.66631599264, -113578.51190310859, 49346.68384154843, 37921.18733181803, 61476.55087429892, 92133.93534826463, 58674.75970682618, 58717.33978001354, 0.056, 0.9480000000000001, 0.128, 192.0, 0.0, 0.0, 0.0, 0.0, 0.0, 0.0, 0.0, 0.0, 0.0, 1.666556310443735E9, 0.0, 2022-10-23 13:18:30.443
35.0, -81491.01811540344, -113578.8024757865, 51397.769319745224, 37950.311654843295, 61524.02597952199, 92889.64782829855, 59942.03656220873, 59863.6266426595, 0.056, 0.9480000000000001, 0.128, 192.0, 0.0, 0.0, 0.0, 0.0, 0.0, 0.0, 0.0, 0.0, 0.0, 1.6665563104437428E9, 0.0, 2022-10-23 13:18:30.443
36.0, -81435.80930659882, -113526.7452629501, 50149.35733668296, 37685.756407470275, 61299.97209310199, 92245.89523624125, 59018.28366735979, 58772.81680975161, 0.056, 0.9480000000000001, 0.128, 192.0, 0.0, 0.0, 0.0, 0.0, 0.0, 0.0, 0.0, 0.0, 0.0, 1.6665563104437504E9, 0.0, 2022-10-23 13:18:30.443
37.0, -81446.44873695954, -113530.45565252968, 48633.95376610205, 37778.85142312663, 61346.57548029131, 91729.21231141238, 58107.22656336148, 58010.845841270195, 0.06, 0.9520000000000001, 0.138, 192.0, 1.0, 224.0, 29.0, 192.0, 4.0, 80.0, 0.0, 0.0, 0.0, 1.6665563104437585E9, 0.0, 2022-10-23 13:18:30.443
38.0, -81487.55359501285, -113572.18635942774, 49047.148114102856, 37892.197119259494, 61455.09319962183, 92010.2631461934, 58479.4054602868, 58522.54432708554, 0.06, 0.9520000000000001, 0.138, 192.0, 0.0, 0.0, 0.0, 0.0, 0.0, 0.0, 0.0, 0.0, 0.0, 1.666556310443778E9, 0.0, 2022-10-23 13:18:30.443
39.0, -81519.3377756283, -113606.54099065554, 51113.231612829164, 37959.29705611432, 61518.348636430346, 92789.51201313878, 59779.24880734072, 59752.851397139006, 0.06, 0.9520000000000001, 0.138, 192.0, 0.0, 0.0, 0.0, 0.0, 0.0, 0.0, 0.0, 0.0, 0.0, 1.666556310443786E9, 0.0, 2022-10-23 13:18:30.443
40.0, -81452.75192889594, -113542.27972534654, 50525.53719586578, 37697.580480287135, 61319.08283461128, 92384.2525344196, 59262.52117902294, 59036.94737397997, 0.06, 0.9520000000000001, 0.138, 192.0, 0.0, 0.0, 0.0, 0.0, 0.0, 0.0, 0.0, 0.0, 0.0, 1.6665563104437935E9, 0.0, 2022-10-23 13:18:30.443
41.0, -81451.16495503963, -113538.5469840225, 48715.492929875014, 37755.22562923737, 61336.628954008695, 91732.67683180295, 58143.682258568086, 58020.16651870806, 0.06, 0.9520000000000001, 0.138, 192.0, 0.0, 0.0, 0.0, 0.0, 0.0, 0.0, 0.0, 0.0, 0.0, 1.6665563104438016E9, 0.0, 2022-10-23 13:18:30.443
42.0, -81477.29414430787, -113563.69269653472, 48855.77247807652, 37876.461491162954, 61442.263298304475, 91924.74537190741, 58351.97816514709, 58379.78373524949, 0.06, 0.9520000000000001, 0.138, 192.0, 0.0, 0.0, 0.0, 0.0, 0.0, 0.0, 0.0, 0.0, 0.0, 1.6665563104438095E9, 0.0, 2022-10-23 13:18:30.443
43.0, -81508.51953131193, -113595.83450506146, 50789.51129788296, 37986.47677737198, 61532.18436624818, 92694.67356141491, 59602.49121218816, 59608.66029365782, 0.06, 0.9520000000000001, 0.138, 192.0, 0.0, 0.0, 0.0, 0.0, 0.0, 0.0, 0.0, 0.0, 0.0, 1.6665563104438176E9, 0.0, 2022-10-23 13:18:30.443
44.0, -81467.14645232516, -113562.68686803423, 50941.92784332369, 37724.93901550043, 61336.919526686615, 92574.35412101199, 59555.619604065374, 59344.12739802926, 0.06, 0.9520000000000001, 0.138, 192.0, 0.0, 0.0, 0.0, 0.0, 0.0, 0.0, 0.0, 0.0, 0.0, 1.6665563104438255E9, 0.0, 2022-10-23 13:18:30.443
45.0, -81442.76069912442, -113534.03193164253, 48876.090213786396, 37719.77576253125, 61291.90311335363, 91768.52902990926, 58233.87154744525, 58075.218865301475, 0.06, 0.9520000000000001, 0.138, 192.0, 0.0, 0.0, 0.0, 0.0, 0.0, 0.0, 0.0, 0.0, 0.0, 1.666556310443833E9, 0.0, 2022-10-23 13:18:30.443
46.0, -81471.90737389415, -113561.43517034473, 48701.50073784599, 37850.24289491688, 61410.948504322594, 91834.28786209678, 58236.46434980206, 58252.28938487642, 0.056, 0.9460000000000001, 0.134, 192.0, 1.0, 192.0, 29.0, 144.0, 4.0, 48.0, 0.0, 0.0, 0.0, 1.666556310443842E9, 0.0, 2022-10-23 13:18:30.443
47.0, -81501.992821931, -113588.4137259023, 50394.75713905777, 37994.5681088648, 61532.318476714914, 92555.10926903598, 59372.93879663215, 59407.38283483778, 0.056, 0.9460000000000001, 0.134, 192.0, 0.0, 0.0, 0.0, 0.0, 0.0, 0.0, 0.0, 0.0, 0.0, 1.6665563104438505E9, 0.0, 2022-10-23 13:18:30.443
48.0, -81468.2863912924, -113561.85985348938, 51258.18267562183, 37793.76003667832, 61392.10598374677, 92727.46357053085, 59788.10009814503, 59605.03931105606, 0.056, 0.9460000000000001, 0.134, 192.0, 0.0, 0.0, 0.0, 0.0, 0.0, 0.0, 0.0, 0.0, 0.0, 1.6665563104438584E9, 0.0, 2022-10-23 13:18:30.443
49.0, -81430.04255652936, -113525.0465303715, 49108.86128054396, 37701.33557335562, 61280.88370333716, 91833.68436499649, 58365.72448798711, 58179.9814915635, 0.056, 0.9460000000000001, 0.134, 192.0, 0.0, 0.0, 0.0, 0.0, 0.0, 0.0, 0.0, 0.0, 0.0, 1.6665563104438665E9, 0.0, 2022-10-23 13:18:30.443
50.0, -81462.0279028449, -113550.52751905055, 48617.5252339274, 37842.218618657425, 61408.713329877064, 91779.79430911473, 58162.36831693272, 58165.6763751121, 0.056, 0.9460000000000001, 0.134, 192.0, 0.0, 0.0, 0.0, 0.0, 0.0, 0.0, 0.0, 0.0, 0.0, 1.666556310443874E9, 0.0, 2022-10-23 13:18:30.443
51.0, -81503.66920276513, -113590.9618247702, 49975.192543887206, 37981.402931380624, 61528.183403990675, 92395.3613514139, 59105.81309864677, 59166.69925054303, 0.056, 0.9460000000000001, 0.134, 192.0, 0.0, 0.0, 0.0, 0.0, 0.0, 0.0, 0.0, 0.0, 0.0, 1.6665563104438827E9, 0.0, 2022-10-23 13:18:30.443
52.0, -81487.55359501285, -113578.7577722976, 51434.11325622955, 37852.25455191786, 61443.69380994962, 92830.48276072535, 59926.993838190305, 59789.821182468084, 0.056, 0.9460000000000001, 0.134, 192.0, 0.0, 0.0, 0.0, 0.0, 0.0, 0.0, 0.0, 0.0, 0.0, 1.6665563104438903E9, 0.0, 2022-10-23 13:18:30.443
53.0, -81436.7257281215, -113529.78510019602, 49441.07525838319, 37681.219003345854, 61273.0605927778, 91947.34298555172, 58567.91836832981, 58357.20847334963, 0.056, 0.9460000000000001, 0.134, 192.0, 0.0, 0.0, 0.0, 0.0, 0.0, 0.0, 0.0, 0.0, 0.0, 1.6665563104438984E9, 0.0, 2022-10-23 13:18:30.443
54.0, -81464.62070520171, -113559.7587895106, 48583.081195721774, 37827.5782260392, 61387.188599966605, 91735.38139288205, 58117.664828022105, 58086.88647590715, 0.056, 0.9460000000000001, 0.134, 192.0, 0.0, 0.0, 0.0, 0.0, 0.0, 0.0, 0.0, 0.0, 0.0, 1.666556310443914E9, 0.0, 2022-10-23 13:18:30.443
55.0, -81501.32226959732, -113597.01914751758, 49560.500629007896, 37955.36314909019, 61499.05908096542, 92218.17907311667, 58831.713656391345, 58896.82428798966, 0.056, 0.9460000000000001, 0.134, 192.0, 0.0, 0.0, 0.0, 0.0, 0.0, 0.0, 0.0, 0.0, 0.0, 1.6665563104439218E9, 0.0, 2022-10-23 13:18:30.443
56.0, -81496.82956896181, -113593.82284806047, 51430.71579107235, 37917.67810793854, 61498.00854897602, 92856.27667382678, 59948.85384426759, 59862.17377926991, 0.056, 0.9420000000000001, 0.134, 192.0, 1.0, 192.0, 29.0, 112.0, 4.0, 48.0, 0.0, 0.0, 0.0, 1.6665563104439297E9, 0.0, 2022-10-23 13:18:30.443
57.0, -81435.89871357665, -113538.18935611122, 49825.77113220348, 37688.32685808264, 61293.37832848768, 92089.23185935401, 58812.53585964869, 58592.50528723065, 0.056, 0.9420000000000001, 0.134, 192.0, 0.0, 0.0, 0.0, 0.0, 0.0, 0.0, 0.0, 0.0, 0.0, 1.6665563104439378E9, 0.0, 2022-10-23 13:18:30.443
58.0, -81460.50798422194, -113565.61494655788, 48593.47475689349, 37806.03114438429, 61375.00689923846, 91715.89067171702, 58107.807708717315, 58051.48131268994, 0.056, 0.9420000000000001, 0.134, 192.0, 0.0, 0.0, 0.0, 0.0, 0.0, 0.0, 0.0, 0.0, 0.0, 1.6665563104439456E9, 0.0, 2022-10-23 13:18:30.443
59.0, -81494.32617358281, -113597.84616206243, 49227.03495347917, 37924.003651619394, 61472.952243441614, 92072.84803066828, 58612.778319451616, 58676.48079114924, 0.056, 0.9420000000000001, 0.134, 192.0, 0.0, 0.0, 0.0, 0.0, 0.0, 0.0, 0.0, 0.0, 0.0, 1.6665563104439533E9, 0.0, 2022-10-23 13:18:30.443
60.0, -81513.88394998122, -113610.45254593523, 51319.20293798482, 37960.74991950392, 61522.90839229923, 92847.15716208902, 59910.29708508219, 59859.91625307992, 0.056, 0.9420000000000001, 0.134, 192.0, 0.0, 0.0, 0.0, 0.0, 0.0, 0.0, 0.0, 0.0, 0.0, 1.666556310443962E9, 0.0, 2022-10-23 13:18:30.443
61.0, -81438.78208861138, -113536.82589969944, 50264.29000667215, 37694.585346530126, 61295.948779100036, 92260.08859397037, 59094.68192990803, 58862.53671199521, 0.056, 0.9420000000000001, 0.134, 192.0, 0.0, 0.0, 0.0, 0.0, 0.0, 0.0, 0.0, 0.0, 0.0, 1.6665563104439695E9, 0.0, 2022-10-23 13:18:30.443
62.0, -81444.30296949184, -113542.57029802445, 48647.38716451969, 37793.17889132248, 61350.978773949006, 91702.72549423284, 58115.94374369905, 58020.90412627508, 0.056, 0.9420000000000001, 0.134, 192.0, 0.0, 0.0, 0.0, 0.0, 0.0, 0.0, 0.0, 0.0, 0.0, 1.6665563104439783E9, 0.0, 2022-10-23 13:18:30.443
63.0, -81481.42921703211, -113576.9025775078, 48977.32126442448, 37899.5955466742, 61453.953260654605, 91957.60243625671, 58438.94880282269, 58489.39669005832, 0.056, 0.9420000000000001, 0.134, 192.0, 0.0, 0.0, 0.0, 0.0, 0.0, 0.0, 0.0, 0.0, 0.0, 1.6665563104439864E9, 0.0, 2022-10-23 13:18:30.443
64.0, -81516.74497327149, -113613.55943841451, 51046.37754516334, 37976.798472022834, 61531.13383425878, 92760.27593139124, 59756.31591752958, 59744.22362377925, 0.056, 0.9420000000000001, 0.134, 192.0, 0.0, 0.0, 0.0, 0.0, 0.0, 0.0, 0.0, 0.0, 0.0, 1.666556310443994E9, 0.0, 2022-10-23 13:18:30.443
65.0, -81458.6304376877, -113563.1562546678, 50723.908927906625, 37714.81367526218, 61329.52109927191, 92455.06286085401, 59405.728805748084, 59176.35520414772, 0.056, 0.9420000000000001, 0.134, 192.0, 0.0, 0.0, 0.0, 0.0, 0.0, 0.0, 0.0, 0.0, 0.0, 1.666556310444002E9, 0.0, 2022-10-23 13:18:30.444
66.0, -81443.54301018036, -113546.16892888176, 48806.2186606191, 37761.57352466268, 61331.75627371744, 91740.23172142885, 58201.93090461861, 58058.11978079317, 0.062, 0.9420000000000001, 0.138, 192.0, 1.0, 240.0, 29.0, 112.0, 4.0, 80.0, 0.0, 0.0, 0.0, 1.66655631044401E9, 0.0, 2022-10-23 13:18:30.444
67.0, -81481.74214145448, -113579.78595254254, 48819.741466014566, 37867.83371780321, 61428.38286499773, 91867.32374040173, 58317.13179554127, 58337.69540044015, 0.062, 0.9420000000000001, 0.138, 192.0, 0.0, 0.0, 0.0, 0.0, 0.0, 0.0, 0.0, 0.0, 0.0, 1.6665563104440196E9, 0.0, 2022-10-23 13:18:30.444
68.0, -81512.92282496963, -113611.92776106928, 50679.7642326074, 37997.831463555274, 61534.330133715885, 92619.77286574518, 59529.266897352565, 59545.293098127026, 0.062, 0.9420000000000001, 0.138, 192.0, 0.0, 0.0, 0.0, 0.0, 0.0, 0.0, 0.0, 0.0, 0.0, 1.6665563104440274E9, 0.0, 2022-10-23 13:18:30.444
69.0, -81468.1299290812, -113575.31560365148, 51090.4104817403, 37762.08761478515, 61367.76493403494, 92603.32198182607, 59649.60868949994, 59444.19615795567, 0.062, 0.9420000000000001, 0.138, 192.0, 0.0, 0.0, 0.0, 0.0, 0.0, 0.0, 0.0, 0.0, 0.0, 1.6665563104440458E9, 0.0, 2022-10-23 13:18:30.444
70.0, -81443.27478924689, -113547.24181261561, 48977.70124408022, 37713.83019850614, 61288.0139098184, 91759.43186991595, 58281.63722534624, 58106.66776975009, 0.062, 0.9420000000000001, 0.138, 192.0, 0.0, 0.0, 0.0, 0.0, 0.0, 0.0, 0.0, 0.0, 0.0, 1.666556310444054E9, 0.0, 2022-10-23 13:18:30.444
71.0, -81478.38937978618, -113575.18149318475, 48689.25198188448, 37844.14086868058, 61404.15357400818, 91780.80013761522, 58206.80358490987, 58212.23505881251, 0.062, 0.9420000000000001, 0.138, 192.0, 0.0, 0.0, 0.0, 0.0, 0.0, 0.0, 0.0, 0.0, 0.0, 1.6665563104440618E9, 0.0, 2022-10-23 13:18:30.444
72.0, -81511.62642379123, -113606.63039763337, 50279.98093127977, 37983.03460872586, 61526.84229932336, 92475.84998319746, 59285.141144411704, 59321.9544675296, 0.062, 0.9420000000000001, 0.138, 192.0, 0.0, 0.0, 0.0, 0.0, 0.0, 0.0, 0.0, 0.0, 0.0, 1.6665563104440694E9, 0.0, 2022-10-23 13:18:30.444
73.0, -81477.74117919698, -113576.2543769186, 51361.492438494264, 37819.46454280192, 61418.59280092631, 92745.05439341717, 59847.93571805188, 59675.71552702374, 0.062, 0.9420000000000001, 0.138, 192.0, 0.0, 0.0, 0.0, 0.0, 0.0, 0.0, 0.0, 0.0, 0.0, 1.666556310444077E9, 0.0, 2022-10-23 13:18:30.444
74.0, -81443.69947239154, -113540.22336485665, 49247.576206633596, 37703.28017512324, 61287.58922667375, 91850.49287682687, 58437.80886385547, 58238.23013761403, 0.062, 0.9420000000000001, 0.138, 192.0, 0.0, 0.0, 0.0, 0.0, 0.0, 0.0, 0.0, 0.0, 0.0, 1.666556310444085E9, 0.0, 2022-10-23 13:18:30.444
75.0, -81462.25142028945, -113560.6081557999, 48650.02467036542, 37844.8337727587, 61407.05930078737, 91759.76714608278, 58170.32553795881, 58149.672526082104, 0.058, 0.9460000000000001, 0.13, 192.0, 1.0, 208.0, 29.0, 144.0, 4.0, 16.0, 0.0, 0.0, 0.0, 1.6665563104440925E9, 0.0, 2022-10-23 13:18:30.444
76.0, -81505.7926184884, -113602.54002839804, 49871.18987693666, 37963.83446023875, 61506.32339791339, 92321.37707726682, 59029.10191167616, 59080.197999501, 0.058, 0.9460000000000001, 0.13, 192.0, 0.0, 0.0, 0.0, 0.0, 0.0, 0.0, 0.0, 0.0, 0.0, 1.6665563104441009E9, 0.0, 2022-10-23 13:18:30.444
77.0, -81498.4388945626, -113595.85685680591, 51500.4532337729, 37869.420691659536, 61455.36142055529, 92838.43998175145, 59970.71385034488, 59839.79968307015, 0.058, 0.9460000000000001, 0.13, 192.0, 0.0, 0.0, 0.0, 0.0, 0.0, 0.0, 0.0, 0.0, 0.0, 1.6665563104441087E9, 0.0, 2022-10-23 13:18:30.444
78.0, -81440.72669037899, -113544.76076898108, 49660.30116800084, 37683.40947430247, 61287.09748829574, 92022.71306785502, 58712.66826542238, 58476.298567807506, 0.058, 0.9460000000000001, 0.13, 192.0, 0.0, 0.0, 0.0, 0.0, 0.0, 0.0, 0.0, 0.0, 0.0, 1.6665563104441164E9, 0.0, 2022-10-23 13:18:30.444
79.0, -81465.67123719111, -113565.50318783561, 48662.87692342722, 37805.2711850728, 61369.55307359136, 91742.3551371521, 58161.60835762124, 58093.4131852881, 0.058, 0.9460000000000001, 0.13, 192.0, 0.0, 0.0, 0.0, 0.0, 0.0, 0.0, 0.0, 0.0, 0.0, 1.666556310444124E9, 0.0, 2022-10-23 13:18:30.444
80.0, -81497.61188001775, -113598.49436265163, 49508.86809931613, 37934.73248895794, 61483.032880190956, 92173.02854931695, 58790.8770192715, 58830.48431044631, 0.058, 0.9460000000000001, 0.13, 192.0, 0.0, 0.0, 0.0, 0.0, 0.0, 0.0, 0.0, 0.0, 0.0, 1.666556310444132E9, 0.0, 2022-10-23 13:18:30.444
81.0, -81498.79652247389, -113602.20475223122, 51494.79824242571, 37914.05712533678, 61490.565418072394, 92878.40490083753, 59997.91592334699, 59894.87438140802, 0.058, 0.9460000000000001, 0.13, 192.0, 0.0, 0.0, 0.0, 0.0, 0.0, 0.0, 0.0, 0.0, 0.0, 1.6665563104441397E9, 0.0, 2022-10-23 13:18:30.444
82.0, -81428.9249693066, -113528.62280948435, 50061.179704806775, 37670.44546251839, 61275.27341547888, 92162.41147070068, 58957.486922441356, 58701.02300656116, 0.058, 0.9460000000000001, 0.13, 192.0, 0.0, 0.0, 0.0, 0.0, 0.0, 0.0, 0.0, 0.0, 0.0, 1.6665563104441483E9, 0.0, 2022-10-23 13:18:30.444
0.0, 0.0, 0.0, 0.0, 0.0, 0.0, 0.0, 0.0, 0.0, 0.056, 0.9440000000000001, 0.126, 192.0, 1.0, 192.0, 29.0, 128.0, 3.0, 240.0, 0.0, 0.0, 0.0, 1.6665563105543773E9, 0.0, 2022-10-23 13:18:30.554
1.0, -81602.19569232414, -113728.4921084037, 50789.556001371864, 37837.54710406627, 61344.608526779244, 92790.67430385045, 59577.32314793148, 59410.33326510588, 0.056, 0.9440000000000001, 0.126, 192.0, 0.0, 0.0, 0.0, 0.0, 0.0, 0.0, 0.0, 0.0, 0.0, 1.6665563105704195E9, 0.0, 2022-10-23 13:18:30.570
2.0, -81587.13061656125, -113699.88187550091, 48805.05636990743, 37857.73072930941, 61324.111977113724, 92041.1756087751, 58327.27948752398, 58222.27099207294, 0.056, 0.9440000000000001, 0.126, 192.0, 0.0, 0.0, 0.0, 0.0, 0.0, 0.0, 0.0, 0.0, 0.0, 1.6665563110469465E9, 0.0, 2022-10-23 13:18:31.046
3.0, -81617.55134076493, -113727.10630024747, 48705.21112742557, 37982.07348371428, 61428.80754814238, 92128.74974355099, 58370.396002578265, 58436.80303535498, 0.056, 0.9440000000000001, 0.126, 192.0, 0.0, 0.0, 0.0, 0.0, 0.0, 0.0, 0.0, 0.0, 0.0, 1.6665563110469837E9, 0.0, 2022-10-23 13:18:31.046
4.0, -81642.94292246616, -113761.59504194201, 50443.39453499253, 38122.04010749341, 61547.85293911135, 92843.82675216517, 59509.68676920972, 59597.32795921898, 0.056, 0.9440000000000001, 0.126, 192.0, 0.0, 0.0, 0.0, 0.0, 0.0, 0.0, 0.0, 0.0, 0.0, 1.666556311047004E9, 0.0, 2022-10-23 13:18:31.047
5.0, -81601.70395394611, -113729.9002683044, 51111.10819710591, 37905.58581418822, 61398.20800998307, 92940.185122512, 59799.41008083941, 59665.81370423004, 0.056, 0.9440000000000001, 0.126, 192.0, 0.0, 0.0, 0.0, 0.0, 0.0, 0.0, 0.0, 0.0, 0.0, 1.6665563110470257E9, 0.0, 2022-10-23 13:18:31.047
6.0, -81582.52615720347, -113700.46302085675, 48962.54676133952, 37837.99413895537, 61302.90017162564, 92067.3271497878, 58398.93918024769, 58275.870475276766, 0.056, 0.9440000000000001, 0.126, 192.0, 0.0, 0.0, 0.0, 0.0, 0.0, 0.0, 0.0, 0.0, 0.0, 1.6665563110470424E9, 0.0, 2022-10-23 13:18:31.047
7.0, -81623.18398036767, -113734.59413464, 48591.060768492316, 37967.96953296298, 61424.42660622914, 92069.98700737799, 58283.268902691474, 58335.39317076125, 0.054, 0.9460000000000001, 0.124, 192.0, 1.0, 176.0, 29.0, 144.0, 3.0, 224.0, 0.0, 0.0, 0.0, 1.6665563110470529E9, 0.0, 2022-10-23 13:18:31.047
8.0, -81652.50946909303, -113765.43954198832, 50068.55578047702, 38108.94198524261, 61536.25238373905, 92725.94365190789, 59294.12654568274, 59390.775488707484, 0.054, 0.9460000000000001, 0.124, 192.0, 0.0, 0.0, 0.0, 0.0, 0.0, 0.0, 0.0, 0.0, 0.0, 1.666556311047062E9, 0.0, 2022-10-23 13:18:31.047
9.0, -81624.6144920128, -113744.38419871143, 51386.74990972876, 37969.84707949723, 61446.532481495444, 93098.61428721123, 60015.32793227767, 59906.162012357956, 0.054, 0.9460000000000001, 0.124, 192.0, 0.0, 0.0, 0.0, 0.0, 0.0, 0.0, 0.0, 0.0, 0.0, 1.66655631104707E9, 0.0, 2022-10-23 13:18:31.047
10.0, -81581.38621823624, -113706.56504709304, 49348.382574127034, 37812.513150276325, 61287.43276446257, 92218.89432893925, 58645.43421810082, 58472.43171601674, 0.054, 0.9460000000000001, 0.124, 192.0, 0.0, 0.0, 0.0, 0.0, 0.0, 0.0, 0.0, 0.0, 0.0, 1.666556311047078E9, 0.0, 2022-10-23 13:18:31.047
11.0, -81594.28317478695, -113715.59515185299, 48579.90724800912, 37961.44282358204, 61399.213838483556, 92040.43800120808, 58250.344783108805, 58260.33601288033, 0.054, 0.9460000000000001, 0.124, 192.0, 0.0, 0.0, 0.0, 0.0, 0.0, 0.0, 0.0, 0.0, 0.0, 1.6665563110470867E9, 0.0, 2022-10-23 13:18:31.047
12.0, -81634.33750085086, -113751.51440519268, 49654.46736269801, 38098.28020313742, 61518.952133530634, 92550.1471817669, 59014.84149871368, 59118.86651740868, 0.054, 0.9460000000000001, 0.124, 192.0, 0.0, 0.0, 0.0, 0.0, 0.0, 0.0, 0.0, 0.0, 0.0, 1.6665563110470948E9, 0.0, 2022-10-23 13:18:31.047
13.0, -81637.6232072858, -113758.77872214065, 51435.7896370637, 38029.48153370399, 61489.49253433854, 93142.87074123273, 60063.92062472351, 60002.65449317152, 0.054, 0.9460000000000001, 0.124, 192.0, 0.0, 0.0, 0.0, 0.0, 0.0, 0.0, 0.0, 0.0, 0.0, 1.6665563110471025E9, 0.0, 2022-10-23 13:18:31.047
14.0, -81574.72539838856, -113703.16758193584, 49707.03866565689, 37813.09429563216, 61297.96043610101, 92346.65690024578, 58860.94973813889, 58677.44191616082, 0.054, 0.9460000000000001, 0.124, 192.0, 0.0, 0.0, 0.0, 0.0, 0.0, 0.0, 0.0, 0.0, 0.0, 1.6665563110471103E9, 0.0, 2022-10-23 13:18:31.047
15.0, -81602.2627475575, -113731.04020727161, 48580.75661429842, 37934.1066401132, 61379.25373068497, 92014.73349508447, 58222.89684091769, 58205.08250058681, 0.054, 0.9460000000000001, 0.124, 192.0, 0.0, 0.0, 0.0, 0.0, 0.0, 0.0, 0.0, 0.0, 0.0, 1.6665563110471182E9, 0.0, 2022-10-23 13:18:31.047
16.0, -81639.34429160885, -113761.12565530845, 49304.886079417, 38058.449394518066, 61479.948339456125, 92401.12810148337, 58776.840123753565, 58875.59013075711, 0.054, 0.9460000000000001, 0.124, 192.0, 0.0, 0.0, 0.0, 0.0, 0.0, 0.0, 0.0, 0.0, 0.0, 1.666556311047126E9, 0.0, 2022-10-23 13:18:31.047
17.0, -81644.30637887793, -113768.4570274898, 51334.02214455869, 38073.827394703316, 61512.22425844959, 93127.67155500312, 60012.131632820565, 59993.93731283395, 0.054, 0.9540000000000001, 0.12, 192.0, 1.0, 176.0, 29.0, 208.0, 3.0, 192.0, 0.0, 0.0, 0.0, 1.6665563110472372E9, 0.0, 2022-10-23 13:18:31.047
18.0, -81577.69818040112, -113703.30169240257, 50122.267022403124, 37819.44219105747, 61305.56002921582, 92501.4874340877, 59112.16099407208, 58925.97096275938, 0.054, 0.9540000000000001, 0.12, 192.0, 0.0, 0.0, 0.0, 0.0, 0.0, 0.0, 0.0, 0.0, 0.0, 1.6665563110472465E9, 0.0, 2022-10-23 13:18:31.047
19.0, -81580.04511356892, -113709.64958782788, 48617.39112346067, 37917.02990734934, 61358.28779438589, 91998.68494256555, 58216.168965836645, 58172.11367751523, 0.054, 0.9540000000000001, 0.12, 192.0, 0.0, 0.0, 0.0, 0.0, 0.0, 0.0, 0.0, 0.0, 0.0, 1.6665563110472543E9, 0.0, 2022-10-23 13:18:31.047
20.0, -81615.96436690859, -113743.26661148867, 49028.7749801606, 38026.82167611381, 61457.59659500082, 92282.9320768037, 58588.280807528594, 58683.365128441474, 0.054, 0.9540000000000001, 0.12, 192.0, 0.0, 0.0, 0.0, 0.0, 0.0, 0.0, 0.0, 0.0, 0.0, 1.6665563110472622E9, 0.0, 2022-10-23 13:18:31.047
21.0, -81645.58042831188, -113765.05956233258, 51103.64271445784, 38109.16550268716, 61534.86657558282, 93073.17800202109, 59893.80149767417, 59919.52835554223, 0.054, 0.9540000000000001, 0.12, 192.0, 0.0, 0.0, 0.0, 0.0, 0.0, 0.0, 0.0, 0.0, 0.0, 1.66655631104727E9, 0.0, 2022-10-23 13:18:31.047
22.0, -81588.6058316953, -113705.91684650384, 50539.95407103945, 37846.420746615026, 61332.06919813981, 92676.76981410621, 59392.92125617519, 59214.889611588675, 0.054, 0.9540000000000001, 0.12, 192.0, 0.0, 0.0, 0.0, 0.0, 0.0, 0.0, 0.0, 0.0, 0.0, 1.666556311047278E9, 0.0, 2022-10-23 13:18:31.047
23.0, -81596.96538412159, -113712.01887274014, 48689.564906306856, 37885.96098255646, 61328.448215538054, 91998.88610826565, 58246.90261446269, 58167.48686641298, 0.054, 0.9540000000000001, 0.12, 192.0, 0.0, 0.0, 0.0, 0.0, 0.0, 0.0, 0.0, 0.0, 0.0, 1.6665563110472865E9, 0.0, 2022-10-23 13:18:31.047
24.0, -81634.18103863967, -113748.45221620229, 48773.093375336335, 38000.223100211995, 61427.8464231308, 92152.1073165068, 58407.81282279645, 58491.94478892622, 0.054, 0.9540000000000001, 0.12, 192.0, 0.0, 0.0, 0.0, 0.0, 0.0, 0.0, 0.0, 0.0, 0.0, 1.6665563110472941E9, 0.0, 2022-10-23 13:18:31.047
25.0, -81659.10323370734, -113775.00608861519, 50718.14217783716, 38118.93321501413, 61534.12896801579, 92935.80418059876, 59668.741782753685, 59734.05358005209, 0.054, 0.9540000000000001, 0.12, 192.0, 0.0, 0.0, 0.0, 0.0, 0.0, 0.0, 0.0, 0.0, 0.0, 1.666556311047302E9, 0.0, 2022-10-23 13:18:31.047
26.0, -81606.24135807055, -113731.15196599388, 50907.34969465133, 37874.3380754397, 61356.92433797412, 92835.04251659424, 59647.95466041025, 59489.23492303312, 0.054, 0.9540000000000001, 0.12, 192.0, 0.0, 0.0, 0.0, 0.0, 0.0, 0.0, 0.0, 0.0, 0.0, 1.6665563110473096E9, 0.0, 2022-10-23 13:18:31.047
27.0, -81577.80993912338, -113702.07234645753, 48848.91049252874, 37865.50913637986, 61312.26555255241, 92040.92973958609, 58339.3717812743, 58222.33804730631, 0.056, 0.96, 0.122, 192.0, 1.0, 192.0, 30.0, 0.0, 3.0, 208.0, 0.0, 0.0, 0.0, 1.6665563110473187E9, 0.0, 2022-10-23 13:18:31.047
28.0, -81604.9673086366, -113726.592210125, 48679.19369687959, 38000.29015544536, 61441.65980120419, 92122.98299348152, 58352.559310502926, 58408.46102338565, 0.056, 0.96, 0.122, 192.0, 0.0, 0.0, 0.0, 0.0, 0.0, 0.0, 0.0, 0.0, 0.0, 1.6665563110473273E9, 0.0, 2022-10-23 13:18:31.047
29.0, -81641.33359686537, -113762.48911172022, 50341.11295236504, 38124.56585461686, 61546.8247588664, 92826.48179846785, 59457.540149395485, 59538.431112579245, 0.056, 0.96, 0.122, 192.0, 0.0, 0.0, 0.0, 0.0, 0.0, 0.0, 0.0, 0.0, 0.0, 1.6665563110473351E9, 0.0, 2022-10-23 13:18:31.047
30.0, -81613.55037850743, -113738.43863468632, 51249.62195749545, 37929.949215644505, 61417.63167591473, 93027.7592572879, 59907.838393192105, 59768.4082112799, 0.056, 0.96, 0.122, 192.0, 0.0, 0.0, 0.0, 0.0, 0.0, 0.0, 0.0, 0.0, 0.0, 1.6665563110473428E9, 0.0, 2022-10-23 13:18:31.047
31.0, -81573.38429372125, -113696.10443068796, 49099.942934506296, 37834.97665345391, 61286.00225281742, 92129.48735111802, 58487.206219101696, 58328.95586835813, 0.056, 0.96, 0.122, 192.0, 0.0, 0.0, 0.0, 0.0, 0.0, 0.0, 0.0, 0.0, 0.0, 1.6665563110473504E9, 0.0, 2022-10-23 13:18:31.047
32.0, -81599.7146486896, -113722.1442129784, 48554.58272154126, 37981.46998661399, 61407.57339090984, 92043.6790041541, 58241.87347196025, 58272.517713608475, 0.056, 0.96, 0.122, 192.0, 0.0, 0.0, 0.0, 0.0, 0.0, 0.0, 0.0, 0.0, 0.0, 1.6665563110473583E9, 0.0, 2022-10-23 13:18:31.047
33.0, -81646.89918123474, -113765.79716989961, 49898.54841214996, 38105.142188685204, 61524.338903944365, 92660.4753923983, 59177.85277102623, 59269.40551631517, 0.056, 0.96, 0.122, 192.0, 0.0, 0.0, 0.0, 0.0, 0.0, 0.0, 0.0, 0.0, 0.0, 1.6665563110473912E9, 0.0, 2022-10-23 13:18:31.047
34.0, -81632.45995431661, -113754.26366976068, 51387.018130662225, 37980.75473079142, 61446.755998939996, 93116.1827583531, 60021.65347595853, 59921.540012543206, 0.056, 0.96, 0.122, 192.0, 0.0, 0.0, 0.0, 0.0, 0.0, 0.0, 0.0, 0.0, 0.0, 1.6665563110473993E9, 0.0, 2022-10-23 13:18:31.047
35.0, -81578.12286354577, -113709.09079421649, 49443.64570899555, 37813.11664737662, 61282.94006382705, 92270.77272782002, 58712.19887878882, 58525.33829514245, 0.056, 0.96, 0.122, 192.0, 0.0, 0.0, 0.0, 0.0, 0.0, 0.0, 0.0, 0.0, 0.0, 1.666556311047407E9, 0.0, 2022-10-23 13:18:31.047
36.0, -81597.74769517753, -113728.11212874796, 48576.08509970726, 37951.27277985487, 61384.796963309884, 92054.34078625927, 58258.3020041349, 58241.91817544916, 0.058, 0.9520000000000001, 0.116, 192.0, 1.0, 208.0, 29.0, 192.0, 3.0, 160.0, 0.0, 0.0, 0.0, 1.666556311047415E9, 0.0, 2022-10-23 13:18:31.047
37.0, -81624.72625073508, -113751.29088774811, 49521.92151807804, 38081.42698781812, 61492.44296460664, 92512.61860282643, 58944.03117227926, 59025.97266745242, 0.058, 0.9520000000000001, 0.116, 192.0, 0.0, 0.0, 0.0, 0.0, 0.0, 0.0, 0.0, 0.0, 0.0, 1.6665563110474234E9, 0.0, 2022-10-23 13:18:31.047
38.0, -81632.6164165278, -113758.8010738851, 51412.20854666335, 38038.936321608584, 61489.71605178309, 93160.68508156361, 60071.94490098297, 60003.660321672, 0.058, 0.9520000000000001, 0.116, 192.0, 0.0, 0.0, 0.0, 0.0, 0.0, 0.0, 0.0, 0.0, 0.0, 1.6665563110474312E9, 0.0, 2022-10-23 13:18:31.047
39.0, -81579.06163681288, -113709.29195991659, 49830.509702028, 37795.168196579005, 61278.045031791335, 92404.01147651809, 58951.16137876051, 58743.31250707061, 0.058, 0.9520000000000001, 0.116, 192.0, 0.0, 0.0, 0.0, 0.0, 0.0, 0.0, 0.0, 0.0, 0.0, 1.6665563110474389E9, 0.0, 2022-10-23 13:18:31.047
40.0, -81595.28900328744, -113719.4396518993, 48571.36888162719, 37923.377802774645, 61363.09341944378, 92017.86273930821, 58227.367189808756, 58178.618035151725, 0.058, 0.9520000000000001, 0.116, 192.0, 0.0, 0.0, 0.0, 0.0, 0.0, 0.0, 0.0, 0.0, 0.0, 1.6665563110474467E9, 0.0, 2022-10-23 13:18:31.047
41.0, -81628.54839903694, -113747.2005185128, 49161.857266647494, 38053.062624104336, 61471.16410388519, 92355.3964323278, 58698.34079722653, 58780.63992031097, 0.058, 0.9520000000000001, 0.116, 192.0, 0.0, 0.0, 0.0, 0.0, 0.0, 0.0, 0.0, 0.0, 0.0, 1.6665563110474546E9, 0.0, 2022-10-23 13:18:31.047
42.0, -81666.59106809986, -113784.03619337514, 51238.75900969017, 38078.163633127646, 61516.96282827412, 93119.84844444376, 59979.408678937994, 59960.83437929564, 0.058, 0.9520000000000001, 0.116, 192.0, 0.0, 0.0, 0.0, 0.0, 0.0, 0.0, 0.0, 0.0, 0.0, 1.6665563110474625E9, 0.0, 2022-10-23 13:18:31.047
43.0, -81604.94495689213, -113725.27345720214, 50252.175361177375, 37808.10985661863, 61295.83702037776, 92579.04798734761, 59221.751597136456, 59013.567449279726, 0.058, 0.9520000000000001, 0.116, 192.0, 0.0, 0.0, 0.0, 0.0, 0.0, 0.0, 0.0, 0.0, 0.0, 1.66655631104747E9, 0.0, 2022-10-23 13:18:31.047
44.0, -81601.2122155681, -113721.45130890029, 48605.83527157728, 37901.67425890854, 61334.974924919006, 92005.09989322424, 58219.09704436029, 58144.732790557486, 0.058, 0.9520000000000001, 0.116, 192.0, 0.0, 0.0, 0.0, 0.0, 0.0, 0.0, 0.0, 0.0, 0.0, 1.6665563110474777E9, 0.0, 2022-10-23 13:18:31.047
45.0, -81644.5745998114, -113763.29377452061, 48887.71312090315, 38011.890710817665, 61436.56360346838, 92231.32189885639, 58501.66779776428, 58581.41882198082, 0.058, 0.9520000000000001, 0.116, 192.0, 0.0, 0.0, 0.0, 0.0, 0.0, 0.0, 0.0, 0.0, 0.0, 1.6665563110474856E9, 0.0, 2022-10-23 13:18:31.047
46.0, -81662.18777444218, -113779.78936192863, 50972.46032624964, 38126.465752895565, 61540.25334599654, 93051.80973432181, 59834.16704346741, 59861.59263391407, 0.056, 0.9540000000000001, 0.11800000000000001, 192.0, 1.0, 192.0, 29.0, 208.0, 3.0, 176.0, 0.0, 0.0, 0.0, 1.6665563110474937E9, 0.0, 2022-10-23 13:18:31.047
47.0, -81610.66700347268, -113730.90609680487, 50686.49210768844, 37842.91152273554, 61331.21983185051, 92766.31090239417, 59509.5973622319, 59316.746511071506, 0.056, 0.9540000000000001, 0.11800000000000001, 192.0, 0.0, 0.0, 0.0, 0.0, 0.0, 0.0, 0.0, 0.0, 0.0, 1.6665563110475016E9, 0.0, 2022-10-23 13:18:31.047
48.0, -81593.81378815339, -113714.07523323003, 48756.597787928324, 37874.91922079554, 61318.456985766534, 92050.20571353505, 58300.613856388794, 58185.36826197723, 0.056, 0.9540000000000001, 0.11800000000000001, 192.0, 0.0, 0.0, 0.0, 0.0, 0.0, 0.0, 0.0, 0.0, 0.0, 1.6665563110475285E9, 0.0, 2022-10-23 13:18:31.047
49.0, -81620.47941928857, -113741.03143704313, 48733.106104505794, 37995.730399576474, 61424.225440529044, 92163.03731954543, 58386.9809969641, 58445.296698248, 0.056, 0.9540000000000001, 0.11800000000000001, 192.0, 0.0, 0.0, 0.0, 0.0, 0.0, 0.0, 0.0, 0.0, 0.0, 1.6665563110475366E9, 0.0, 2022-10-23 13:18:31.047
50.0, -81652.95650398213, -113771.09453333552, 50602.404845047575, 38125.37051741726, 61539.80631110744, 92933.65841313105, 59608.63794191337, 59669.90407346536, 0.056, 0.9540000000000001, 0.11800000000000001, 192.0, 0.0, 0.0, 0.0, 0.0, 0.0, 0.0, 0.0, 0.0, 0.0, 1.6665563110475445E9, 0.0, 2022-10-23 13:18:31.047
51.0, -81606.93426214866, -113730.01202702666, 51054.58063537844, 37893.605279160176, 61367.07202995683, 92944.43195395851, 59758.34992627501, 59596.5679999075, 0.056, 0.9540000000000001, 0.11800000000000001, 192.0, 0.0, 0.0, 0.0, 0.0, 0.0, 0.0, 0.0, 0.0, 0.0, 1.666556311047552E9, 0.0, 2022-10-23 13:18:31.047
52.0, -81578.21227052358, -113702.51938134663, 48934.54002553702, 37844.319682636225, 61284.79525861684, 92096.69734200208, 58389.260874898544, 58253.0493441879, 0.056, 0.9540000000000001, 0.11800000000000001, 192.0, 0.0, 0.0, 0.0, 0.0, 0.0, 0.0, 0.0, 0.0, 0.0, 1.66655631104756E9, 0.0, 2022-10-23 13:18:31.047
53.0, -81612.47749477357, -113738.77391085314, 48608.40572218964, 37964.52736431687, 61387.63563485571, 92088.69541748708, 58283.64888234722, 58330.52049046999, 0.056, 0.9540000000000001, 0.11800000000000001, 192.0, 0.0, 0.0, 0.0, 0.0, 0.0, 0.0, 0.0, 0.0, 0.0, 1.6665563110475678E9, 0.0, 2022-10-23 13:18:31.047
54.0, -81653.4705941046, -113777.9565188833, 50176.84998236299, 38113.99347948951, 61518.1698224747, 92775.47511762085, 59343.41214220669, 59432.14856769426, 0.056, 0.9540000000000001, 0.11800000000000001, 192.0, 0.0, 0.0, 0.0, 0.0, 0.0, 0.0, 0.0, 0.0, 0.0, 1.6665563110475757E9, 0.0, 2022-10-23 13:18:31.047
55.0, -81628.19077112565, -113754.33072499404, 51303.91434477739, 37945.28251234085, 61407.23811474301, 93074.3179409883, 59939.57787031864, 59818.54317409315, 0.056, 0.9540000000000001, 0.11800000000000001, 192.0, 0.0, 0.0, 0.0, 0.0, 0.0, 0.0, 0.0, 0.0, 0.0, 1.6665563110475833E9, 0.0, 2022-10-23 13:18:31.047
56.0, -81588.69523867313, -113712.75648030717, 49200.16815664389, 37815.240063099875, 61262.711735095, 92184.47264247807, 58542.88441453987, 58379.627273038306, 0.054, 0.9560000000000001, 0.114, 192.0, 1.0, 176.0, 29.0, 224.0, 3.0, 144.0, 0.0, 0.0, 0.0, 1.6665563110475912E9, 0.0, 2022-10-23 13:18:31.047
57.0, -81610.08585811686, -113726.88278280292, 48572.19589617204, 37959.92290495907, 61384.70755633206, 92076.40195803666, 58251.685887776126, 58269.34376589582, 0.054, 0.9560000000000001, 0.114, 192.0, 0.0, 0.0, 0.0, 0.0, 0.0, 0.0, 0.0, 0.0, 0.0, 1.6665563110475993E9, 0.0, 2022-10-23 13:18:31.047
58.0, -81649.87196324731, -113765.37248675496, 49768.3495006978, 38091.52997631192, 61501.80834553342, 92630.79227576165, 59091.21740951746, 59183.55246586233, 0.054, 0.9560000000000001, 0.114, 192.0, 0.0, 0.0, 0.0, 0.0, 0.0, 0.0, 0.0, 0.0, 0.0, 1.6665563110476072E9, 0.0, 2022-10-23 13:18:31.047
59.0, -81635.768012496, -113758.1975767848, 51426.80423579267, 38003.46410315801, 61460.792894457925, 93166.65299733318, 60054.04115367427, 59961.57198686266, 0.054, 0.9560000000000001, 0.114, 192.0, 0.0, 0.0, 0.0, 0.0, 0.0, 0.0, 0.0, 0.0, 0.0, 1.6665563110476148E9, 0.0, 2022-10-23 13:18:31.047
60.0, -81575.19478502212, -113702.31821564653, 49581.041882162324, 37817.899920690055, 61284.37057547219, 92337.60444374138, 58788.03834772568, 58590.91831337432, 0.054, 0.9560000000000001, 0.114, 192.0, 0.0, 0.0, 0.0, 0.0, 0.0, 0.0, 0.0, 0.0, 0.0, 1.6665563110476239E9, 0.0, 2022-10-23 13:18:31.047
61.0, -81597.6582881997, -113726.27928570262, 48555.90147446412, 37944.008462906895, 61374.67162307163, 92044.30485299884, 58217.75593969297, 58200.56744820684, 0.054, 0.9560000000000001, 0.114, 192.0, 0.0, 0.0, 0.0, 0.0, 0.0, 0.0, 0.0, 0.0, 0.0, 1.6665563110476315E9, 0.0, 2022-10-23 13:18:31.047
62.0, -81635.18686714016, -113764.72428616576, 49414.47668248137, 38071.36870281323, 61483.792839502436, 92490.64683802686, 58860.74857243879, 58950.82610259367, 0.054, 0.9560000000000001, 0.114, 192.0, 0.0, 0.0, 0.0, 0.0, 0.0, 0.0, 0.0, 0.0, 0.0, 1.6665563110476391E9, 0.0, 2022-10-23 13:18:31.047
63.0, -81642.40648059922, -113773.59792871452, 51389.454470807854, 38057.95765614005, 61491.146563428236, 93183.01447427446, 60052.87886296259, 60003.8614873721, 0.054, 0.9560000000000001, 0.114, 192.0, 0.0, 0.0, 0.0, 0.0, 0.0, 0.0, 0.0, 0.0, 0.0, 1.6665563110476468E9, 0.0, 2022-10-23 13:18:31.047
64.0, -81591.84683464133, -113726.1451752359, 49999.868869765865, 37799.83971117016, 61276.212188746, 92494.60309679546, 59049.285536919306, 58835.3346389931, 0.054, 0.9560000000000001, 0.114, 192.0, 0.0, 0.0, 0.0, 0.0, 0.0, 0.0, 0.0, 0.0, 0.0, 1.666556311047685E9, 0.0, 2022-10-23 13:18:31.047
65.0, -81602.0615818574, -113730.52611714913, 48594.81586156081, 37916.02407884885, 61335.91369818613, 92029.88797782517, 58217.55477399287, 58155.30516568484, 0.054, 0.9560000000000001, 0.114, 192.0, 0.0, 0.0, 0.0, 0.0, 0.0, 0.0, 0.0, 0.0, 0.0, 1.6665563110476933E9, 0.0, 2022-10-23 13:18:31.047
66.0, -81634.7174805066, -113758.06346631807, 49071.86914347043, 38045.82065890082, 61454.80262694391, 92330.00485062657, 58621.495499789184, 58703.0570153066, 0.058, 0.9500000000000001, 0.114, 192.0, 1.0, 208.0, 29.0, 176.0, 3.0, 144.0, 0.0, 0.0, 0.0, 1.666556311047701E9, 0.0, 2022-10-23 13:18:31.047
67.0, -81657.42685287319, -113783.94678639733, 51141.774790498595, 38100.40361886068, 61519.17565097519, 93105.49862450345, 59909.80534670417, 59915.14741362899, 0.058, 0.9500000000000001, 0.114, 192.0, 0.0, 0.0, 0.0, 0.0, 0.0, 0.0, 0.0, 0.0, 0.0, 1.6665563110477097E9, 0.0, 2022-10-23 13:18:31.047
68.0, -81601.63689871275, -113730.48141366022, 50386.621104076046, 37823.82313297071, 61310.05272985134, 92653.30048242814, 59298.66394980717, 59104.6508079351, 0.058, 0.9500000000000001, 0.114, 192.0, 0.0, 0.0, 0.0, 0.0, 0.0, 0.0, 0.0, 0.0, 0.0, 1.666556311047717E9, 0.0, 2022-10-23 13:18:31.047
69.0, -81599.69229694514, -113719.2384861992, 48661.11113561525, 37904.04354382081, 61337.411265064635, 92047.54585594486, 58249.00367844149, 58164.11175300024, 0.058, 0.9500000000000001, 0.114, 192.0, 0.0, 0.0, 0.0, 0.0, 0.0, 0.0, 0.0, 0.0, 0.0, 1.6665563110477257E9, 0.0, 2022-10-23 13:18:31.047
70.0, -81630.69416650465, -113747.15581502389, 48846.18357970519, 38021.85958884473, 61445.5043012505, 92241.29077688346, 58475.29273930702, 58546.10306574143, 0.058, 0.9500000000000001, 0.114, 192.0, 0.0, 0.0, 0.0, 0.0, 0.0, 0.0, 0.0, 0.0, 0.0, 1.6665563110477335E9, 0.0, 2022-10-23 13:18:31.047
71.0, -81658.00799822903, -113775.63193745994, 50863.6073307523, 38134.11004949928, 61547.16003503324, 93043.07020223979, 59770.464571769786, 59806.62969429847, 0.058, 0.9500000000000001, 0.114, 192.0, 0.0, 0.0, 0.0, 0.0, 0.0, 0.0, 0.0, 0.0, 0.0, 1.6665563110477412E9, 0.0, 2022-10-23 13:18:31.047
72.0, -81619.85357044383, -113740.89732657639, 50817.27216449645, 37860.16706945504, 61341.18870987758, 92847.53714174476, 59598.333787719464, 59408.880401716284, 0.058, 0.9500000000000001, 0.114, 192.0, 0.0, 0.0, 0.0, 0.0, 0.0, 0.0, 0.0, 0.0, 0.0, 1.6665563110477488E9, 0.0, 2022-10-23 13:18:31.047
73.0, -81601.30162254591, -113727.55333513657, 48802.8211954619, 37857.93189500951, 61293.2665697654, 92076.89369641469, 58326.608935190314, 58197.97464585002, 0.058, 0.9500000000000001, 0.114, 192.0, 0.0, 0.0, 0.0, 0.0, 0.0, 0.0, 0.0, 0.0, 0.0, 1.6665563110477567E9, 0.0, 2022-10-23 13:18:31.047
74.0, -81625.55326527993, -113750.62033541445, 48714.3976943967, 37987.75082680593, 61412.17785026763, 92177.78947088594, 58386.26574114153, 58427.61646838385, 0.058, 0.9500000000000001, 0.114, 192.0, 0.0, 0.0, 0.0, 0.0, 0.0, 0.0, 0.0, 0.0, 0.0, 1.6665563110477643E9, 0.0, 2022-10-23 13:18:31.047
75.0, -81652.42006211521, -113771.63097520244, 50485.28170410177, 38130.533770386435, 61532.29612497045, 92913.13951172108, 59553.675002297765, 59604.279351744575, 0.058, 0.9480000000000001, 0.114, 192.0, 1.0, 208.0, 29.0, 160.0, 3.0, 144.0, 0.0, 0.0, 0.0, 1.6665563110477722E9, 0.0, 2022-10-23 13:18:31.047
76.0, -81614.19857909663, -113738.66215213087, 51158.538598840074, 37918.92980562804, 61384.796963309884, 93006.3015826108, 59841.45371215984, 59673.368593855936, 0.058, 0.9480000000000001, 0.114, 192.0, 0.0, 0.0, 0.0, 0.0, 0.0, 0.0, 0.0, 0.0, 0.0, 1.6665563110477805E9, 0.0, 2022-10-23 13:18:31.047
77.0, -81595.44546549863, -113718.54558212109, 49041.202550077745, 37832.361499352635, 61286.78456387336, 92153.62723512975, 58466.03911710252, 58299.20569648811, 0.058, 0.9480000000000001, 0.114, 192.0, 0.0, 0.0, 0.0, 0.0, 0.0, 0.0, 0.0, 0.0, 0.0, 1.6665563110477884E9, 0.0, 2022-10-23 13:18:31.047
78.0, -81623.5639600234, -113743.93716382232, 48626.19771077606, 37963.454480583016, 61387.613283111255, 92119.22790041303, 58306.693530880635, 58320.08222580937, 0.058, 0.9480000000000001, 0.114, 192.0, 0.0, 0.0, 0.0, 0.0, 0.0, 0.0, 0.0, 0.0, 0.0, 1.666556311047796E9, 0.0, 2022-10-23 13:18:31.047
79.0, -81663.19360294266, -113775.96721362678, 50056.12821055987, 38107.86910150875, 61510.3690636598, 92744.22737887233, 59277.89917920819, 59346.63079340825, 0.058, 0.9480000000000001, 0.114, 192.0, 0.0, 0.0, 0.0, 0.0, 0.0, 0.0, 0.0, 0.0, 0.0, 1.6665563110478036E9, 0.0, 2022-10-23 13:18:31.047
80.0, -81654.18584992718, -113767.92058562287, 51381.05021489265, 37952.971512433476, 61418.369283481756, 93124.4305520571, 60007.393062996045, 59870.95801484085, 0.058, 0.9480000000000001, 0.114, 192.0, 0.0, 0.0, 0.0, 0.0, 0.0, 0.0, 0.0, 0.0, 0.0, 1.6665563110478215E9, 0.0, 2022-10-23 13:18:31.047
81.0, -81593.81378815339, -113714.09758497449, 49340.6488705455, 37811.35085956465, 61269.77488634287, 92250.23147466559, 58638.46047383076, 58442.48037844663, 0.058, 0.9480000000000001, 0.114, 192.0, 0.0, 0.0, 0.0, 0.0, 0.0, 0.0, 0.0, 0.0, 0.0, 1.6665563110478292E9, 0.0, 2022-10-23 13:18:31.047
82.0, -81609.10238136082, -113728.93914329281, 48577.15798344112, 37969.7129690305, 61396.95631229357, 92085.05208314086, 58252.870530232256, 58245.15917839518, 0.058, 0.9480000000000001, 0.114, 192.0, 0.0, 0.0, 0.0, 0.0, 0.0, 0.0, 0.0, 0.0, 0.0, 1.6665563110478368E9, 0.0, 2022-10-23 13:18:31.047
83.0, -81646.69801553465, -113765.5065972217, 49680.14951707715, 38095.10625542477, 61508.35740665882, 92617.38122908845, 59046.58097584021, 59122.398093032614, 0.058, 0.9480000000000001, 0.114, 192.0, 0.0, 0.0, 0.0, 0.0, 0.0, 0.0, 0.0, 0.0, 0.0, 1.666556311047845E9, 0.0, 2022-10-23 13:18:31.047
84.0, -81650.20723941413, -113769.90989087938, 51474.03347182673, 38027.134600536185, 61473.108705652805, 93211.91527985517, 60102.879715309115, 60007.68363567396, 0.058, 0.9480000000000001, 0.114, 192.0, 0.0, 0.0, 0.0, 0.0, 0.0, 0.0, 0.0, 0.0, 0.0, 1.6665563110478525E9, 0.0, 2022-10-23 13:18:31.047
85.0, -81591.01982009648, -113714.36580590795, 49735.51478809295, 37811.50732177583, 61276.212188746, 92398.71411308218, 58888.17416288545, 58669.43999164581, 0.06, 0.9520000000000001, 0.116, 192.0, 1.0, 224.0, 29.0, 192.0, 3.0, 160.0, 0.0, 0.0, 0.0, 1.66655631104786E9, 0.0, 2022-10-23 13:18:31.047
86.0, -81607.29189005995, -113729.0509020151, 48600.13557674117, 37951.138669388136, 61377.24207368399, 92067.34950153227, 58248.95897495258, 58199.06988132833, 0.06, 0.9520000000000001, 0.116, 192.0, 0.0, 0.0, 0.0, 0.0, 0.0, 0.0, 0.0, 0.0, 0.0, 1.6665563110478685E9, 0.0, 2022-10-23 13:18:31.047
87.0, -81649.17905916918, -113769.35109726801, 49326.366105838555, 38057.398862528666, 61476.394412087735, 92453.9676253757, 58807.30555144615, 58870.85156093259, 0.06, 0.9520000000000001, 0.116, 192.0, 0.0, 0.0, 0.0, 0.0, 0.0, 0.0, 0.0, 0.0, 0.0, 1.666556311047876E9, 0.0, 2022-10-23 13:18:31.047
88.0, -81663.99826574305, -113787.43365853235, 51377.76450845772, 38068.44062428959, 61504.89288626825, 93192.89394532371, 60060.88078747759, 60001.42514722647, 0.06, 0.9520000000000001, 0.116, 192.0, 0.0, 0.0, 0.0, 0.0, 0.0, 0.0, 0.0, 0.0, 0.0, 1.6665563110478837E9, 0.0, 2022-10-23 13:18:31.047
89.0, -81596.96538412159, -113724.40173916839, 50182.37086324345, 37819.844522457664, 61295.7699651444, 92574.64469368992, 59174.90234075813, 58938.35382918762, 0.06, 0.9520000000000001, 0.116, 192.0, 0.0, 0.0, 0.0, 0.0, 0.0, 0.0, 0.0, 0.0, 0.0, 1.6665563110478914E9, 0.0, 2022-10-23 13:18:31.047
90.0, -81597.94886087762, -113724.33468393501, 48639.854626638255, 37915.97937535994, 61336.628954008695, 92044.14839078765, 58245.53915805092, 58150.56659586032, 0.06, 0.9520000000000001, 0.116, 192.0, 0.0, 0.0, 0.0, 0.0, 0.0, 0.0, 0.0, 0.0, 0.0, 1.666556311047899E9, 0.0, 2022-10-23 13:18:31.047
91.0, -81637.48909681906, -113763.2043675428, 49011.36297122991, 38027.17930402509, 61439.11170233628, 92299.42766421172, 58580.16712429132, 58634.52656680663, 0.06, 0.9520000000000001, 0.116, 192.0, 0.0, 0.0, 0.0, 0.0, 0.0, 0.0, 0.0, 0.0, 0.0, 1.6665563110479074E9, 0.0, 2022-10-23 13:18:31.047
92.0, -81668.7815390565, -113789.53472251115, 51104.7603016806, 38112.58531958882, 61521.634342865276, 93103.1740430801, 59899.50119251027, 59890.56049472815, 0.06, 0.9520000000000001, 0.116, 192.0, 0.0, 0.0, 0.0, 0.0, 0.0, 0.0, 0.0, 0.0, 0.0, 1.6665563110479152E9, 0.0, 2022-10-23 13:18:31.047
93.0, -81615.02559364148, -113735.28703871812, 50595.20758333297, 37840.38577561209, 61318.50168925544, 92740.76285848176, 59439.72580906461, 59219.717588391024, 0.06, 0.9520000000000001, 0.116, 192.0, 0.0, 0.0, 0.0, 0.0, 0.0, 0.0, 0.0, 0.0, 0.0, 1.6665563110479228E9, 0.0, 2022-10-23 13:18:31.047
94.0, -81609.16943659418, -113730.3920066824, 48755.614311172285, 37890.654848892074, 61319.88749741167, 92074.2338388245, 58301.954961056115, 58176.248750239465, 0.06, 0.9520000000000001, 0.116, 192.0, 0.0, 0.0, 0.0, 0.0, 0.0, 0.0, 0.0, 0.0, 0.0, 1.6665563110479305E9, 0.0, 2022-10-23 13:18:31.047
95.0, -81635.99152994055, -113754.53189069414, 48838.71809705712, 38012.13658000667, 61421.63263817223, 92229.66786976671, 58460.6970501777, 58500.25963786359, 0.052000000000000005, 0.9520000000000001, 0.11800000000000001, 192.0, 1.0, 160.0, 29.0, 192.0, 3.0, 176.0, 0.0, 0.0, 0.0, 1.6665563110479453E9, 0.0, 2022-10-23 13:18:31.047
96.0, -81665.80875704394, -113783.32093755258, 50781.06233847885, 38134.82530532185, 61534.553651160444, 93011.73305651345, 59716.350998443486, 59743.262498767675, 0.052000000000000005, 0.9520000000000001, 0.11800000000000001, 192.0, 0.0, 0.0, 0.0, 0.0, 0.0, 0.0, 0.0, 0.0, 0.0, 1.666556311047954E9, 0.0, 2022-10-23 13:18:31.047
97.0, -81613.12569536277, -113739.26564923117, 50985.20082058917, 37888.66554363556, 61354.66681178413, 92912.06662798722, 59698.737823812706, 59508.97151338715, 0.052000000000000005, 0.9520000000000001, 0.11800000000000001, 192.0, 0.0, 0.0, 0.0, 0.0, 0.0, 0.0, 0.0, 0.0, 0.0, 1.6665563110479617E9, 0.0, 2022-10-23 13:18:31.047
98.0, -81599.3123172894, -113728.4474049148, 48901.30298153198, 37861.95520901147, 61293.42303197659, 92095.24447861248, 58363.84694145286, 58219.56643099385, 0.052000000000000005, 0.9520000000000001, 0.11800000000000001, 192.0, 0.0, 0.0, 0.0, 0.0, 0.0, 0.0, 0.0, 0.0, 0.0, 1.6665563110479696E9, 0.0, 2022-10-23 13:18:31.047
99.0, -81638.09259391935, -113764.81369314357, 48718.06338048737, 37978.07252145679, 61401.650178629185, 92160.33275846633, 58362.416429807716, 58387.092755686375, 0.052000000000000005, 0.9520000000000001, 0.11800000000000001, 192.0, 0.0, 0.0, 0.0, 0.0, 0.0, 0.0, 0.0, 0.0, 0.0, 1.6665563110479784E9, 0.0, 2022-10-23 13:18:31.047
100.0, -81665.11585296581, -113787.47836202125, 50372.36069111356, 38112.2947469109, 61509.96673225961, 92852.05219412473, 59459.95413779666, 59511.363150043864, 0.052000000000000005, 0.9520000000000001, 0.11800000000000001, 192.0, 0.0, 0.0, 0.0, 0.0, 0.0, 0.0, 0.0, 0.0, 0.0, 1.6665563110479865E9, 0.0, 2022-10-23 13:18:31.047
101.0, -81627.67668100318, -113752.34141973751, 51291.643237071425, 37931.58089298975, 61398.63269312772, 93051.5638651328, 59914.700378739886, 59754.237205295234, 0.052000000000000005, 0.9520000000000001, 0.11800000000000001, 192.0, 0.0, 0.0, 0.0, 0.0, 0.0, 0.0, 0.0, 0.0, 0.0, 1.666556311047998E9, 0.0, 2022-10-23 13:18:31.047
102.0, -81586.77298864997, -113711.52713436213, 49169.18863882883, 37844.520848336324, 61290.9643400865, 92175.7554621405, 58519.59389681744, 58339.26002255202, 0.052000000000000005, 0.9520000000000001, 0.11800000000000001, 192.0, 0.0, 0.0, 0.0, 0.0, 0.0, 0.0, 0.0, 0.0, 0.0, 1.6665563110480068E9, 0.0, 2022-10-23 13:18:31.048
103.0, -81617.14900936473, -113743.46777718877, 48637.418286492626, 37976.35143713372, 61404.511201919464, 92101.4359118266, 58287.09105099333, 58290.39910917272, 0.052000000000000005, 0.9520000000000001, 0.11800000000000001, 192.0, 0.0, 0.0, 0.0, 0.0, 0.0, 0.0, 0.0, 0.0, 0.0, 1.6665563110480146E9, 0.0, 2022-10-23 13:18:31.048
104.0, -81654.76699528302, -113784.72909745325, 49925.54931945197, 38107.511473597464, 61511.017264249, 92677.23920073977, 59173.31536690181, 59250.1830160836, 0.056, 0.9540000000000001, 0.124, 192.0, 1.0, 192.0, 29.0, 208.0, 3.0, 224.0, 0.0, 0.0, 0.0, 1.6665563110480225E9, 0.0, 2022-10-23 13:18:31.048
105.0, -81641.8253352434, -113776.07897234905, 51410.17453791792, 37982.90049825913, 61438.10587383579, 93122.19537761157, 60007.75069090733, 59899.635302977, 0.056, 0.9540000000000001, 0.124, 192.0, 0.0, 0.0, 0.0, 0.0, 0.0, 0.0, 0.0, 0.0, 0.0, 1.6665563110480309E9, 0.0, 2022-10-23 13:18:31.048
106.0, -81590.505729974, -113724.26762870165, 49462.55528480474, 37814.86008344413, 61280.995462059436, 92270.70567258664, 58689.55656165559, 58499.946713441226, 0.056, 0.9540000000000001, 0.124, 192.0, 0.0, 0.0, 0.0, 0.0, 0.0, 0.0, 0.0, 0.0, 0.0, 1.6665563110480385E9, 0.0, 2022-10-23 13:18:31.048
107.0, -81626.53674203595, -113746.41820745685, 48597.78864357337, 37955.09492815673, 61386.965082522045, 92065.89663814267, 58240.30884984838, 58226.98721015301, 0.056, 0.9540000000000001, 0.124, 192.0, 0.0, 0.0, 0.0, 0.0, 0.0, 0.0, 0.0, 0.0, 0.0, 1.666556311048046E9, 0.0, 2022-10-23 13:18:31.048
108.0, -81660.60080058585, -113777.80005667212, 49538.394753741595, 38082.96925818554, 61486.1621244147, 92530.00826001266, 58923.914602269484, 59014.37211208011, 0.056, 0.9540000000000001, 0.124, 192.0, 0.0, 0.0, 0.0, 0.0, 0.0, 0.0, 0.0, 0.0, 0.0, 1.6665563110480537E9, 0.0, 2022-10-23 13:18:31.048
109.0, -81661.51722210851, -113781.77866718515, 51435.36495391905, 38052.41442351513, 61490.92304598368, 93187.998913288, 60057.19274964247, 60001.715719904394, 0.056, 0.9540000000000001, 0.124, 192.0, 0.0, 0.0, 0.0, 0.0, 0.0, 0.0, 0.0, 0.0, 0.0, 1.6665563110480616E9, 0.0, 2022-10-23 13:18:31.048
110.0, -81600.1616835787, -113725.20640196877, 49887.05961549993, 37817.13996137857, 61291.32196799779, 92457.36509053291, 58963.991280077855, 58765.306623614626, 0.056, 0.9540000000000001, 0.124, 192.0, 0.0, 0.0, 0.0, 0.0, 0.0, 0.0, 0.0, 0.0, 0.0, 1.6665563110480692E9, 0.0, 2022-10-23 13:18:31.048
111.0, -81615.24911108603, -113740.27147773164, 48624.83425436429, 37936.78884944783, 61368.41313462414, 92071.90925740114, 58240.44296031511, 58200.09806157328, 0.056, 0.9540000000000001, 0.124, 192.0, 0.0, 0.0, 0.0, 0.0, 0.0, 0.0, 0.0, 0.0, 0.0, 1.6665563110480852E9, 0.0, 2022-10-23 13:18:31.048
112.0, -81645.8710009898, -113768.94876586781, 49235.774485561196, 38061.75745269745, 61477.35553709931, 92425.6703168953, 58730.61671621999, 58815.441586427885, 0.056, 0.9540000000000001, 0.124, 192.0, 0.0, 0.0, 0.0, 0.0, 0.0, 0.0, 0.0, 0.0, 0.0, 1.666556311048094E9, 0.0, 2022-10-23 13:18:31.048
113.0, -81662.54540235345, -113782.1586468409, 51310.19518496933, 38097.63200254822, 61515.2193922066, 93181.67336960715, 60006.09666181763, 59988.01410055329, 0.056, 0.9540000000000001, 0.124, 192.0, 0.0, 0.0, 0.0, 0.0, 0.0, 0.0, 0.0, 0.0, 0.0, 1.6665563110481017E9, 0.0, 2022-10-23 13:18:31.048
114.0, -81597.54652947743, -113718.76909956564, 50306.37834148149, 37842.084508190695, 61304.15186931514, 92618.8117407336, 59227.4289402281, 59027.671400031024, 0.052000000000000005, 0.9580000000000001, 0.114, 192.0, 1.0, 160.0, 29.0, 240.0, 3.0, 144.0, 0.0, 0.0, 0.0, 1.6665563110481093E9, 0.0, 2022-10-23 13:18:31.048
115.0, -81603.58150048036, -113726.88278280292, 48689.833127240316, 37933.92782615755, 61355.85145424026, 92071.55162948986, 58255.44098084462, 58183.26719799843, 0.052000000000000005, 0.9580000000000001, 0.114, 192.0, 0.0, 0.0, 0.0, 0.0, 0.0, 0.0, 0.0, 0.0, 0.0, 1.6665563110481174E9, 0.0, 2022-10-23 13:18:31.048
116.0, -81646.47449809009, -113769.46285599028, 48992.29693320953, 38030.420306971115, 61444.83374891684, 92313.4422079852, 58554.77554259009, 58628.51394754815, 0.052000000000000005, 0.9580000000000001, 0.114, 192.0, 0.0, 0.0, 0.0, 0.0, 0.0, 0.0, 0.0, 0.0, 0.0, 1.666556311048125E9, 0.0, 2022-10-23 13:18:31.048
117.0, -81682.03612351848, -113804.55509478512, 51051.13846673232, 38117.72622081354, 61519.08624399737, 93109.38782803869, 59859.111590279535, 59877.32826201061, 0.052000000000000005, 0.9580000000000001, 0.114, 192.0, 0.0, 0.0, 0.0, 0.0, 0.0, 0.0, 0.0, 0.0, 0.0, 1.666556311048133E9, 0.0, 2022-10-23 13:18:31.048
118.0, -81631.25296011603, -113756.56589943956, 50781.06233847885, 37852.76864204033, 61323.061445124324, 92825.29715601173, 59541.6050602919, 59341.26637473898, 0.052000000000000005, 0.9580000000000001, 0.114, 192.0, 0.0, 0.0, 0.0, 0.0, 0.0, 0.0, 0.0, 0.0, 0.0, 1.6665563110481403E9, 0.0, 2022-10-23 13:18:31.048
119.0, -81613.63978548525, -113734.70589336228, 48839.05337322395, 37887.63736339061, 61313.13727058617, 92098.21726062504, 58323.50204271103, 58203.093195330286, 0.052000000000000005, 0.9580000000000001, 0.114, 192.0, 0.0, 0.0, 0.0, 0.0, 0.0, 0.0, 0.0, 0.0, 0.0, 1.666556311048148E9, 0.0, 2022-10-23 13:18:31.048
120.0, -81640.99832069855, -113760.74567565271, 48824.837663750375, 38003.73232409148, 61419.08453930433, 92214.75925621501, 58422.63202937032, 58469.43658225973, 0.052000000000000005, 0.9580000000000001, 0.114, 192.0, 0.0, 0.0, 0.0, 0.0, 0.0, 0.0, 0.0, 0.0, 0.0, 1.6665563110481555E9, 0.0, 2022-10-23 13:18:31.048
121.0, -81675.37530367081, -113800.2635598497, 50672.544619148335, 38128.36565117427, 61525.814119078415, 92961.70985242247, 59625.49115723267, 59673.32389036702, 0.052000000000000005, 0.9580000000000001, 0.114, 192.0, 0.0, 0.0, 0.0, 0.0, 0.0, 0.0, 0.0, 0.0, 0.0, 1.6665563110481632E9, 0.0, 2022-10-23 13:18:31.048
122.0, -81635.49979156254, -113758.95753609629, 51139.517264308604, 37904.06589556526, 61363.272233399424, 92970.51643973785, 59779.22645559627, 59606.00043606764, 0.052000000000000005, 0.9580000000000001, 0.114, 192.0, 0.0, 0.0, 0.0, 0.0, 0.0, 0.0, 0.0, 0.0, 0.0, 1.666556311526507E9, 0.0, 2022-10-23 13:18:31.526
123.0, -81607.98479413806, -113727.66509385886, 49003.092825781445, 37858.40128164307, 61280.79429635934, 92109.77311250844, 58391.04901445497, 58244.86860571726, 0.052000000000000005, 0.9580000000000001, 0.114, 192.0, 0.0, 0.0, 0.0, 0.0, 0.0, 0.0, 0.0, 0.0, 0.0, 1.6665563115265872E9, 0.0, 2022-10-23 13:18:31.526
124.0, -81642.11590792131, -113761.46093147527, 48675.05862415536, 37977.37961737867, 61384.84166679879, 92105.99566769549, 58285.951112026116, 58321.937420599155, 0.05, 0.9560000000000001, 0.124, 192.0, 1.0, 144.0, 29.0, 224.0, 3.0, 224.0, 0.0, 0.0, 0.0, 1.666556311526596E9, 0.0, 2022-10-23 13:18:31.526
125.0, -81680.13622523978, -113798.18484761535, 50218.29011658313, 38120.654299337184, 61511.8666305383, 92777.57618159965, 59329.71052285559, 59411.406148839735, 0.05, 0.9560000000000001, 0.124, 192.0, 0.0, 0.0, 0.0, 0.0, 0.0, 0.0, 0.0, 0.0, 0.0, 1.6665563115266056E9, 0.0, 2022-10-23 13:18:31.526
126.0, -81654.87875400529, -113777.73300143874, 51382.59248526007, 37956.41368107959, 61410.65793164467, 93093.20516505303, 59955.2017396929, 59822.43237762838, 0.05, 0.9560000000000001, 0.124, 192.0, 0.0, 0.0, 0.0, 0.0, 0.0, 0.0, 0.0, 0.0, 0.0, 1.666556311526678E9, 0.0, 2022-10-23 13:18:31.526
127.0, -81612.74571570703, -113734.28121021762, 49289.46337574284, 37824.314871348724, 61267.53971189734, 92210.64653523524, 58565.19145550626, 58388.59032256488, 0.05, 0.9560000000000001, 0.124, 192.0, 0.0, 0.0, 0.0, 0.0, 0.0, 0.0, 0.0, 0.0, 0.0, 1.6665563115266864E9, 0.0, 2022-10-23 13:18:31.526
128.0, -81650.87779174779, -113767.4064955004, 48639.80992314934, 37950.1104891432, 61375.81156203885, 92084.2921238294, 58254.256338388484, 58255.37392561125, 0.05, 0.9560000000000001, 0.124, 192.0, 0.0, 0.0, 0.0, 0.0, 0.0, 0.0, 0.0, 0.0, 0.0, 1.6665563115266948E9, 0.0, 2022-10-23 13:18:31.526
129.0, -81682.81843457442, -113797.5142952817, 49838.42221956518, 38085.60676403127, 61484.93277846966, 92637.98953747626, 59098.52642995435, 59170.16377093361, 0.05, 0.9560000000000001, 0.124, 192.0, 0.0, 0.0, 0.0, 0.0, 0.0, 0.0, 0.0, 0.0, 0.0, 1.666556311526703E9, 0.0, 2022-10-23 13:18:31.526
130.0, -81661.15959419723, -113781.86807416298, 51483.28709403123, 38009.43201892758, 61444.54317623892, 93159.67925306312, 60044.0722756472, 59943.400018620494, 0.05, 0.9560000000000001, 0.124, 192.0, 0.0, 0.0, 0.0, 0.0, 0.0, 0.0, 0.0, 0.0, 0.0, 1.6665563115267112E9, 0.0, 2022-10-23 13:18:31.526
131.0, -81609.83998892785, -113737.14223350791, 49657.28368249937, 37809.2721473303, 61270.80306658782, 92345.85223744539, 58796.10732747404, 58588.88430462889, 0.05, 0.9560000000000001, 0.124, 192.0, 0.0, 0.0, 0.0, 0.0, 0.0, 0.0, 0.0, 0.0, 0.0, 1.666556311526719E9, 0.0, 2022-10-23 13:18:31.526
132.0, -81626.15676238023, -113751.08972204803, 48622.777893874394, 37940.83451519424, 61360.21004440905, 92056.57596070481, 58224.3944077962, 58193.61605568124, 0.05, 0.9560000000000001, 0.124, 192.0, 0.0, 0.0, 0.0, 0.0, 0.0, 0.0, 0.0, 0.0, 0.0, 1.6665563115267272E9, 0.0, 2022-10-23 13:18:31.526
133.0, -81665.36172215483, -113782.8068474301, 49443.6233572511, 38073.693284236586, 61477.087316165846, 92484.32129434601, 58841.8389966296, 58927.93791627144, 0.05, 0.9560000000000001, 0.124, 192.0, 0.0, 0.0, 0.0, 0.0, 0.0, 0.0, 0.0, 0.0, 0.0, 1.6665563115267413E9, 0.0, 2022-10-23 13:18:31.526
134.0, -81674.41417865922, -113796.4637632923, 51427.85476778207, 38061.668045719634, 61486.92208372618, 93183.72973009702, 60040.33953432317, 59996.08308030166, 0.056, 0.9460000000000001, 0.124, 192.0, 1.0, 192.0, 29.0, 144.0, 3.0, 224.0, 0.0, 0.0, 0.0, 1.6665563115267491E9, 0.0, 2022-10-23 13:18:31.526
135.0, -81600.89929114572, -113729.40852992637, 50043.00773656461, 37813.45192354345, 61272.72531661097, 92493.84313748397, 59037.55087108027, 58832.920650591936, 0.056, 0.9460000000000001, 0.124, 192.0, 0.0, 0.0, 0.0, 0.0, 0.0, 0.0, 0.0, 0.0, 0.0, 1.666556311526758E9, 0.0, 2022-10-23 13:18:31.526
136.0, -81620.25590184402, -113740.58440215403, 48637.10536207025, 37930.48565751143, 61346.061390168834, 92040.21448376351, 58214.000846624476, 58161.11661924322, 0.056, 0.9460000000000001, 0.124, 192.0, 0.0, 0.0, 0.0, 0.0, 0.0, 0.0, 0.0, 0.0, 0.0, 1.666556311526766E9, 0.0, 2022-10-23 13:18:31.526
137.0, -81659.3267511519, -113774.82727465956, 49148.78149614114, 38043.630187944196, 61450.77931294195, 92364.71710976567, 58650.3963053699, 58727.398065018424, 0.056, 0.9460000000000001, 0.124, 192.0, 0.0, 0.0, 0.0, 0.0, 0.0, 0.0, 0.0, 0.0, 0.0, 1.6665563115267737E9, 0.0, 2022-10-23 13:18:31.526
138.0, -81678.79512057247, -113792.59691150152, 51240.413038779865, 38108.96433698706, 61515.398206162245, 93150.17976166961, 59953.86063502558, 59945.85871051058, 0.056, 0.9460000000000001, 0.124, 192.0, 0.0, 0.0, 0.0, 0.0, 0.0, 0.0, 0.0, 0.0, 0.0, 1.6665563115267816E9, 0.0, 2022-10-23 13:18:31.526
139.0, -81609.88469241676, -113731.68840786081, 50492.50131756083, 37839.849333745165, 61304.66595943761, 92689.73382589029, 59337.33246771485, 59129.5059477694, 0.056, 0.9460000000000001, 0.124, 192.0, 0.0, 0.0, 0.0, 0.0, 0.0, 0.0, 0.0, 0.0, 0.0, 1.6665563115267897E9, 0.0, 2022-10-23 13:18:31.526
140.0, -81615.96436690859, -113745.03239930063, 48728.300479447906, 37905.87638686614, 61320.17807008959, 92057.42532699411, 58251.01533544247, 58157.853264552745, 0.056, 0.9460000000000001, 0.124, 192.0, 0.0, 0.0, 0.0, 0.0, 0.0, 0.0, 0.0, 0.0, 0.0, 1.6665563115267975E9, 0.0, 2022-10-23 13:18:31.526
141.0, -81649.73785278057, -113776.19073107133, 48900.408911753766, 38021.5243126779, 61422.21378352807, 92248.5774455759, 58465.9497101247, 58532.62496383488, 0.056, 0.9460000000000001, 0.124, 192.0, 0.0, 0.0, 0.0, 0.0, 0.0, 0.0, 0.0, 0.0, 0.0, 1.6665563115268135E9, 0.0, 2022-10-23 13:18:31.526
142.0, -81690.0827515224, -113810.03127217667, 50905.1145202058, 38126.73397382903, 61522.50606089903, 93043.91956852909, 59752.60552795, 59787.027214411166, 0.056, 0.9460000000000001, 0.124, 192.0, 0.0, 0.0, 0.0, 0.0, 0.0, 0.0, 0.0, 0.0, 0.0, 1.6665563115268214E9, 0.0, 2022-10-23 13:18:31.526
143.0, -81651.12366093679, -113772.99443161422, 50899.30306664742, 37864.391549157095, 61329.0740643828, 92865.77616522029, 59604.011130811115, 59417.10584367584, 0.056, 0.9440000000000001, 0.12, 192.0, 1.0, 192.0, 29.0, 128.0, 3.0, 192.0, 0.0, 0.0, 0.0, 1.6665563115268292E9, 0.0, 2022-10-23 13:18:31.526
144.0, -81627.27434960299, -113748.45221620229, 48880.94054233319, 37876.26032546286, 61299.05567157933, 92097.77022573593, 58326.608935190314, 58201.61798019624, 0.056, 0.9440000000000001, 0.12, 192.0, 0.0, 0.0, 0.0, 0.0, 0.0, 0.0, 0.0, 0.0, 0.0, 1.6665563115268376E9, 0.0, 2022-10-23 13:18:31.526
145.0, -81649.17905916918, -113766.31126002208, 48772.199305558126, 38002.5700333798, 61414.86005960227, 92186.61840994578, 58369.88191245579, 58414.80891881096, 0.056, 0.9440000000000001, 0.12, 192.0, 0.0, 0.0, 0.0, 0.0, 0.0, 0.0, 0.0, 0.0, 0.0, 1.6665563115268455E9, 0.0, 2022-10-23 13:18:31.526
146.0, -81680.06917000642, -113798.8106964601, 50532.91327153603, 38146.44821243861, 61539.35927621833, 92921.18613972499, 59532.82082472096, 59592.120002760894, 0.056, 0.9440000000000001, 0.12, 192.0, 0.0, 0.0, 0.0, 0.0, 0.0, 0.0, 0.0, 0.0, 0.0, 1.666556311526853E9, 0.0, 2022-10-23 13:18:31.526
147.0, -81642.40648059922, -113766.44537048881, 51238.35667828997, 37927.870503410166, 61382.31591967535, 93026.7087252985, 59842.61600287152, 59683.985672472205, 0.056, 0.9440000000000001, 0.12, 192.0, 0.0, 0.0, 0.0, 0.0, 0.0, 0.0, 0.0, 0.0, 0.0, 1.666556311526861E9, 0.0, 2022-10-23 13:18:31.526
148.0, -81616.79138145344, -113740.94203006531, 49091.337512891, 37846.86778150413, 61278.80499110282, 92151.19089498412, 58441.31808773495, 58286.48755389304, 0.056, 0.9440000000000001, 0.12, 192.0, 0.0, 0.0, 0.0, 0.0, 0.0, 0.0, 0.0, 0.0, 0.0, 1.6665563115268688E9, 0.0, 2022-10-23 13:18:31.526
149.0, -81640.6183410428, -113764.12078906546, 48688.492022573, 37980.642972069145, 61398.20800998307, 92136.88577853273, 58301.48557442255, 58324.15024330023, 0.056, 0.9440000000000001, 0.12, 192.0, 0.0, 0.0, 0.0, 0.0, 0.0, 0.0, 0.0, 0.0, 0.0, 1.6665563115268767E9, 0.0, 2022-10-23 13:18:31.526
150.0, -81672.73779782507, -113793.42392604637, 50103.15628089384, 38119.35789815878, 61505.98812174656, 92759.58302731313, 59264.331670323816, 59342.49572068402, 0.056, 0.9440000000000001, 0.12, 192.0, 0.0, 0.0, 0.0, 0.0, 0.0, 0.0, 0.0, 0.0, 0.0, 1.6665563115268843E9, 0.0, 2022-10-23 13:18:31.526
151.0, -81654.99051272757, -113778.38120202794, 51430.916956772446, 37978.18428017906, 61426.21474578557, 93138.17687489711, 59991.27745524376, 59871.628567174506, 0.056, 0.9440000000000001, 0.12, 192.0, 0.0, 0.0, 0.0, 0.0, 0.0, 0.0, 0.0, 0.0, 0.0, 1.666556311526892E9, 0.0, 2022-10-23 13:18:31.526
152.0, -81603.44739001362, -113731.55429739408, 49412.68854292495, 37825.81243822723, 61283.99059581645, 92277.38884417879, 58641.500311076685, 58459.37829725484, 0.056, 0.9440000000000001, 0.12, 192.0, 0.0, 0.0, 0.0, 0.0, 0.0, 0.0, 0.0, 0.0, 0.0, 1.6665563115269E9, 0.0, 2022-10-23 13:18:31.526
153.0, -81633.89046596175, -113754.46483546076, 48638.35705975975, 37962.51570731589, 61383.969948765036, 92102.53114730492, 58248.48958831902, 58248.71310576357, 0.058, 0.9500000000000001, 0.12, 192.0, 1.0, 208.0, 29.0, 176.0, 3.0, 192.0, 0.0, 0.0, 0.0, 1.6665563115269077E9, 0.0, 2022-10-23 13:18:31.526
154.0, -81678.54925138346, -113795.79321095864, 49683.949313634555, 38090.30063036688, 61485.9162552257, 92598.44930153481, 58993.09325135866, 59087.48466819342, 0.058, 0.9500000000000001, 0.12, 192.0, 0.0, 0.0, 0.0, 0.0, 0.0, 0.0, 0.0, 0.0, 0.0, 1.6665563115269163E9, 0.0, 2022-10-23 13:18:31.526
155.0, -81676.11291123783, -113794.31799582459, 51501.39200704003, 38034.62243492871, 61469.890054451236, 93214.03869557842, 60069.396802115065, 60001.5592576932, 0.058, 0.9500000000000001, 0.12, 192.0, 0.0, 0.0, 0.0, 0.0, 0.0, 0.0, 0.0, 0.0, 0.0, 1.666556311526925E9, 0.0, 2022-10-23 13:18:31.526
156.0, -81607.09072435985, -113726.7486723362, 49804.112291826284, 37820.85035095816, 61272.90413056662, 92428.26311925211, 58889.09058440812, 58695.323311725064, 0.058, 0.9500000000000001, 0.12, 192.0, 0.0, 0.0, 0.0, 0.0, 0.0, 0.0, 0.0, 0.0, 0.0, 1.6665563115269327E9, 0.0, 2022-10-23 13:18:31.526
157.0, -81621.32878557788, -113739.35505620898, 48636.30069926986, 37947.96472167548, 61360.45591359805, 92078.79359469339, 58226.60723049727, 58198.824012139325, 0.058, 0.9500000000000001, 0.12, 192.0, 0.0, 0.0, 0.0, 0.0, 0.0, 0.0, 0.0, 0.0, 0.0, 1.666556311526948E9, 0.0, 2022-10-23 13:18:31.526
158.0, -81662.18777444218, -113776.74952468272, 49339.44187634491, 38065.221973088024, 61465.196188115624, 92460.56138999002, 58767.67590852689, 58862.78258118422, 0.058, 0.9500000000000001, 0.12, 192.0, 0.0, 0.0, 0.0, 0.0, 0.0, 0.0, 0.0, 0.0, 0.0, 1.666556311526956E9, 0.0, 2022-10-23 13:18:31.526
159.0, -81678.86217580583, -113797.98368191526, 51386.68285449539, 38081.76226398495, 61498.343825142845, 93198.48188143753, 60015.17147006649, 59995.32312099018, 0.058, 0.9500000000000001, 0.12, 192.0, 0.0, 0.0, 0.0, 0.0, 0.0, 0.0, 0.0, 0.0, 0.0, 1.6665563115269637E9, 0.0, 2022-10-23 13:18:31.526
160.0, -81619.04890764343, -113744.60771615598, 50200.07344485205, 37825.365403338124, 61287.74568888494, 92579.83029840354, 59128.902450669106, 58938.80086407672, 0.058, 0.9500000000000001, 0.12, 192.0, 0.0, 0.0, 0.0, 0.0, 0.0, 0.0, 0.0, 0.0, 0.0, 1.666556311526975E9, 0.0, 2022-10-23 13:18:31.526
161.0, -81628.8166199704, -113750.86620460346, 48662.29577807138, 37924.6518522086, 61337.56772727582, 92065.33784453128, 58212.16800357914, 58165.45285766755, 0.058, 0.9500000000000001, 0.12, 192.0, 0.0, 0.0, 0.0, 0.0, 0.0, 0.0, 0.0, 0.0, 0.0, 1.666556311526983E9, 0.0, 2022-10-23 13:18:31.526
162.0, -81656.55513483944, -113779.0070508727, 49016.03448582107, 38034.15304829515, 61434.95427786759, 92315.40916149726, 58537.36353365941, 58642.90847097737, 0.058, 0.9500000000000001, 0.12, 192.0, 0.0, 0.0, 0.0, 0.0, 0.0, 0.0, 0.0, 0.0, 0.0, 1.666556311526991E9, 0.0, 2022-10-23 13:18:31.526
163.0, -81678.79512057247, -113803.862190707, 51102.92745863527, 38123.940005772114, 61528.339866201866, 93118.03795314288, 59856.96582281183, 59901.132869855515, 0.052000000000000005, 0.9500000000000001, 0.114, 192.0, 1.0, 160.0, 29.0, 176.0, 3.0, 144.0, 0.0, 0.0, 0.0, 1.666556311526999E9, 0.0, 2022-10-23 13:18:31.526
164.0, -81617.99837565403, -113746.06057954558, 50622.11908365716, 37856.45667987546, 61320.826270678794, 92763.82985875964, 59413.84248898536, 59247.81373117134, 0.052000000000000005, 0.9500000000000001, 0.114, 192.0, 0.0, 0.0, 0.0, 0.0, 0.0, 0.0, 0.0, 0.0, 0.0, 1.6665563115270076E9, 0.0, 2022-10-23 13:18:31.527
165.0, -81613.8633029298, -113738.72920736423, 48752.01568031498, 37900.19904377449, 61316.60179097674, 92080.26880982744, 58252.08821917632, 58185.122392788224, 0.052000000000000005, 0.9500000000000001, 0.114, 192.0, 0.0, 0.0, 0.0, 0.0, 0.0, 0.0, 0.0, 0.0, 0.0, 1.6665563115270157E9, 0.0, 2022-10-23 13:18:31.527
166.0, -81651.86126850382, -113770.60279495751, 48833.44308536567, 38013.41062944062, 61417.98930382601, 92240.26259663852, 58415.36771242234, 58508.37332110087, 0.052000000000000005, 0.9500000000000001, 0.114, 192.0, 0.0, 0.0, 0.0, 0.0, 0.0, 0.0, 0.0, 0.0, 0.0, 1.6665563115270233E9, 0.0, 2022-10-23 13:18:31.527
167.0, -81671.3296379244, -113789.82529518906, 50746.57359678431, 38145.33062521584, 61528.74219760206, 93004.17816688755, 59649.54163426658, 59730.477300939245, 0.052000000000000005, 0.9500000000000001, 0.114, 192.0, 0.0, 0.0, 0.0, 0.0, 0.0, 0.0, 0.0, 0.0, 0.0, 1.6665563115270312E9, 0.0, 2022-10-23 13:18:31.527
168.0, -81629.15189613723, -113751.42499821485, 51005.40679757676, 37902.72479089794, 61364.00984096645, 92942.10737253516, 59678.889474736396, 59534.56426078847, 0.052000000000000005, 0.9500000000000001, 0.114, 192.0, 0.0, 0.0, 0.0, 0.0, 0.0, 0.0, 0.0, 0.0, 0.0, 1.6665563115270393E9, 0.0, 2022-10-23 13:18:31.527
169.0, -81610.66700347268, -113731.75546309417, 48904.521632733544, 37871.365293427145, 61290.47260170849, 92115.96454572256, 58329.93934511416, 58230.13880612121, 0.052000000000000005, 0.9500000000000001, 0.114, 192.0, 0.0, 0.0, 0.0, 0.0, 0.0, 0.0, 0.0, 0.0, 0.0, 1.6665563115270474E9, 0.0, 2022-10-23 13:18:31.527
170.0, -81647.16740216821, -113768.18880655633, 48687.2403248835, 37993.495225130944, 61399.66087337266, 92165.13838352423, 58307.00645530301, 58383.49412482907, 0.052000000000000005, 0.9500000000000001, 0.114, 192.0, 0.0, 0.0, 0.0, 0.0, 0.0, 0.0, 0.0, 0.0, 0.0, 1.6665563115270553E9, 0.0, 2022-10-23 13:18:31.527
171.0, -81684.42776017521, -113802.99047267323, 50336.754362196254, 38127.85156105179, 61513.94534277265, 92867.43019430999, 59409.32743660539, 59514.58180124543, 0.052000000000000005, 0.9500000000000001, 0.114, 192.0, 0.0, 0.0, 0.0, 0.0, 0.0, 0.0, 0.0, 0.0, 0.0, 1.6665563115270631E9, 0.0, 2022-10-23 13:18:31.527
172.0, -81646.94388472366, -113768.30056527861, 51287.798737025114, 37955.22903862346, 61398.923265805635, 93082.29751375885, 59884.92785512542, 59777.14774336192, 0.05, 0.9520000000000001, 0.11800000000000001, 192.0, 1.0, 144.0, 29.0, 192.0, 3.0, 176.0, 0.0, 0.0, 0.0, 1.6665563115270789E9, 0.0, 2022-10-23 13:18:31.527
173.0, -81608.14125634925, -113735.53290790712, 49154.63765318843, 37848.722976293924, 61277.6650521356, 92196.94491588413, 58481.618282987874, 58352.78282794748, 0.05, 0.9520000000000001, 0.11800000000000001, 192.0, 0.0, 0.0, 0.0, 0.0, 0.0, 0.0, 0.0, 0.0, 0.0, 1.6665563115270872E9, 0.0, 2022-10-23 13:18:31.527
174.0, -81642.09355617686, -113766.51242572218, 48624.83425436429, 37980.508861602415, 61390.09432674579, 92131.63311858573, 58255.77625701145, 58305.55359191342, 0.05, 0.9520000000000001, 0.11800000000000001, 192.0, 0.0, 0.0, 0.0, 0.0, 0.0, 0.0, 0.0, 0.0, 0.0, 1.6665563115270948E9, 0.0, 2022-10-23 13:18:31.527
175.0, -81666.30049542195, -113788.5065422662, 49929.79615089848, 38126.10812498428, 61505.00464499053, 92725.8318931856, 59160.217244650994, 59276.53572279641, 0.05, 0.9520000000000001, 0.11800000000000001, 192.0, 0.0, 0.0, 0.0, 0.0, 0.0, 0.0, 0.0, 0.0, 0.0, 1.6665563115271027E9, 0.0, 2022-10-23 13:18:31.527
176.0, -81654.90110574974, -113781.42103927388, 51444.99855577929, 38013.567091651814, 61441.90567039319, 93184.4002824307, 60014.90324913302, 59946.842187266615, 0.05, 0.9520000000000001, 0.11800000000000001, 192.0, 0.0, 0.0, 0.0, 0.0, 0.0, 0.0, 0.0, 0.0, 0.0, 1.6665563115271115E9, 0.0, 2022-10-23 13:18:31.527
177.0, -81612.29868081793, -113739.66798063136, 49512.869061573634, 37830.79687724076, 61271.09363926574, 92339.16906585325, 58707.52736419766, 58552.02627802209, 0.05, 0.9520000000000001, 0.11800000000000001, 192.0, 0.0, 0.0, 0.0, 0.0, 0.0, 0.0, 0.0, 0.0, 0.0, 1.6665563115271194E9, 0.0, 2022-10-23 13:18:31.527
178.0, -81636.32680610739, -113756.63295467294, 48603.73420759848, 37961.57693404877, 61369.39661138018, 92105.74979850648, 58223.61209674026, 58243.371038838755, 0.05, 0.9520000000000001, 0.11800000000000001, 192.0, 0.0, 0.0, 0.0, 0.0, 0.0, 0.0, 0.0, 0.0, 0.0, 1.6665563115271273E9, 0.0, 2022-10-23 13:18:31.527
179.0, -81660.91372500823, -113785.33259455355, 49538.75238165288, 38092.267583878944, 61486.18447615916, 92570.10728956548, 58907.9554567284, 59029.81716749873, 0.05, 0.9520000000000001, 0.11800000000000001, 192.0, 0.0, 0.0, 0.0, 0.0, 0.0, 0.0, 0.0, 0.0, 0.0, 1.666556311527135E9, 0.0, 2022-10-23 13:18:31.527
180.0, -81666.18873669968, -113790.69701322282, 51442.450456911385, 38061.48923176399, 61484.97748195857, 93222.04062009342, 60045.68160124798, 60023.039284114755, 0.05, 0.9520000000000001, 0.11800000000000001, 192.0, 0.0, 0.0, 0.0, 0.0, 0.0, 0.0, 0.0, 0.0, 0.0, 1.6665563115271428E9, 0.0, 2022-10-23 13:18:31.527
181.0, -81618.28894833194, -113742.86428008847, 49895.66503711522, 37818.101086390154, 61273.015889288894, 92480.14151813288, 58949.172073503985, 58782.20454242284, 0.05, 0.9520000000000001, 0.11800000000000001, 192.0, 0.0, 0.0, 0.0, 0.0, 0.0, 0.0, 0.0, 0.0, 0.0, 1.6665563115271504E9, 0.0, 2022-10-23 13:18:31.527
182.0, -81636.50562006302, -113757.66113491789, 48617.413475205125, 37939.87339018266, 61346.95545994705, 92085.27560058542, 58212.1903553236, 58204.65781744216, 0.058, 0.9440000000000001, 0.10400000000000001, 192.0, 1.0, 208.0, 29.0, 128.0, 3.0, 64.0, 0.0, 0.0, 0.0, 1.666556311527158E9, 0.0, 2022-10-23 13:18:31.527
183.0, -81673.98949551457, -113792.4628010348, 49218.340124886054, 38060.259885818945, 61457.931871167646, 92435.48273271117, 58697.1561547704, 58818.32496146262, 0.058, 0.9440000000000001, 0.10400000000000001, 192.0, 0.0, 0.0, 0.0, 0.0, 0.0, 0.0, 0.0, 0.0, 0.0, 1.6665563115271664E9, 0.0, 2022-10-23 13:18:31.527
184.0, -81688.18285324369, -113810.09832741003, 51318.51003390671, 38102.86231075076, 61507.97742700308, 93215.24568977901, 59997.29007450224, 60016.84785090064, 0.058, 0.9440000000000001, 0.10400000000000001, 192.0, 0.0, 0.0, 0.0, 0.0, 0.0, 0.0, 0.0, 0.0, 0.0, 1.666556311527174E9, 0.0, 2022-10-23 13:18:31.527
185.0, -81623.00516641203, -113750.91090809238, 50356.93798743939, 37826.550045794254, 61277.75445911342, 92670.91365705892, 59244.30450729186, 59072.53135115282, 0.058, 0.9440000000000001, 0.10400000000000001, 192.0, 0.0, 0.0, 0.0, 0.0, 0.0, 0.0, 0.0, 0.0, 0.0, 1.666556311527182E9, 0.0, 2022-10-23 13:18:31.527
186.0, -81628.2131228701, -113756.07416106155, 48680.11011840226, 37911.710192168975, 61315.19363107606, 92080.02294063842, 58221.66749497265, 58176.56167466184, 0.058, 0.9440000000000001, 0.10400000000000001, 192.0, 0.0, 0.0, 0.0, 0.0, 0.0, 0.0, 0.0, 0.0, 0.0, 1.6665563115271897E9, 0.0, 2022-10-23 13:18:31.527
187.0, -81653.0235592155, -113779.0070508727, 48949.336880366434, 38035.29298726237, 61431.154481310194, 92307.80956838245, 58500.23728611914, 58609.15733684985, 0.058, 0.9440000000000001, 0.10400000000000001, 192.0, 0.0, 0.0, 0.0, 0.0, 0.0, 0.0, 0.0, 0.0, 0.0, 1.666556311527198E9, 0.0, 2022-10-23 13:18:31.527
188.0, -81681.47732990711, -113802.92341743987, 50976.148364084765, 38139.07213676836, 61529.68097086919, 93093.22751679749, 59782.489810286745, 59854.484779177285, 0.058, 0.9440000000000001, 0.10400000000000001, 192.0, 0.0, 0.0, 0.0, 0.0, 0.0, 0.0, 0.0, 0.0, 0.0, 1.666556311527213E9, 0.0, 2022-10-23 13:18:31.527
189.0, -81617.66309948721, -113746.84289060152, 50748.875826463205, 37876.14856674058, 61340.24993661046, 92840.33988003015, 59498.77911791553, 59356.398505735226, 0.058, 0.9440000000000001, 0.10400000000000001, 192.0, 0.0, 0.0, 0.0, 0.0, 0.0, 0.0, 0.0, 0.0, 0.0, 1.6665563115272207E9, 0.0, 2022-10-23 13:18:31.527
190.0, -81606.53193074846, -113731.1966694828, 48775.30619803741, 37905.38464848812, 61322.54735500185, 92097.90433620267, 58255.932719222634, 58200.05335808437, 0.058, 0.9440000000000001, 0.10400000000000001, 192.0, 0.0, 0.0, 0.0, 0.0, 0.0, 0.0, 0.0, 0.0, 0.0, 1.6665563115272284E9, 0.0, 2022-10-23 13:18:31.527
191.0, -81654.56582958292, -113772.05565834709, 48772.64634044723, 38023.08893478977, 61435.691885434615, 92233.44531457964, 58369.971319433615, 58483.853457433404, 0.058, 0.9440000000000001, 0.10400000000000001, 192.0, 0.0, 0.0, 0.0, 0.0, 0.0, 0.0, 0.0, 0.0, 0.0, 1.6665563115272362E9, 0.0, 2022-10-23 13:18:31.527
192.0, -81683.82426307492, -113799.05656564911, 50602.38249330312, 38151.81263110789, 61538.91224132923, 92975.65734096257, 59561.54281634603, 59680.7893730151, 0.058, 0.9420000000000001, 0.106, 192.0, 1.0, 208.0, 29.0, 112.0, 3.0, 80.0, 0.0, 0.0, 0.0, 1.666556311527244E9, 0.0, 2022-10-23 13:18:31.527
193.0, -81638.85255323084, -113761.72915240875, 51078.83227811245, 37920.874407395655, 61372.19057943709, 92976.64081771861, 59718.60852463348, 59621.2219740417, 0.058, 0.9420000000000001, 0.106, 192.0, 0.0, 0.0, 0.0, 0.0, 0.0, 0.0, 0.0, 0.0, 0.0, 1.6665563115272524E9, 0.0, 2022-10-23 13:18:31.527
194.0, -81615.74084946404, -113741.27730623214, 48959.328110137954, 37871.18647947151, 61292.864238365204, 92131.83428428583, 58349.65358372374, 58272.76358279748, 0.058, 0.9420000000000001, 0.106, 192.0, 0.0, 0.0, 0.0, 0.0, 0.0, 0.0, 0.0, 0.0, 0.0, 1.6665563115272603E9, 0.0, 2022-10-23 13:18:31.527
195.0, -81645.78159401198, -113767.94293736732, 48647.409516264146, 38002.100646746236, 61408.646274643696, 92148.9557205386, 58264.98517572704, 58365.34450833136, 0.058, 0.9420000000000001, 0.106, 192.0, 0.0, 0.0, 0.0, 0.0, 0.0, 0.0, 0.0, 0.0, 0.0, 1.666556311527268E9, 0.0, 2022-10-23 13:18:31.527
196.0, -81688.71929511063, -113809.31601635409, 50172.4913921942, 38130.77963957544, 61520.13677598677, 92805.62762089106, 59293.76891777146, 59437.51298636353, 0.058, 0.9420000000000001, 0.106, 192.0, 0.0, 0.0, 0.0, 0.0, 0.0, 0.0, 0.0, 0.0, 0.0, 1.6665563115272758E9, 0.0, 2022-10-23 13:18:31.527
197.0, -81661.36075989733, -113785.06437362009, 51354.45163899084, 37961.956913704504, 61412.848402601296, 93121.6812874891, 59927.99966669079, 59859.93860482438, 0.058, 0.9420000000000001, 0.106, 192.0, 0.0, 0.0, 0.0, 0.0, 0.0, 0.0, 0.0, 0.0, 0.0, 1.666556311527285E9, 0.0, 2022-10-23 13:18:31.527
198.0, -81610.39878253923, -113735.33174220702, 49240.714221085815, 37831.9815196969, 61263.7622670844, 92217.15089287174, 58517.1128531829, 58407.432843140705, 0.058, 0.9420000000000001, 0.106, 192.0, 0.0, 0.0, 0.0, 0.0, 0.0, 0.0, 0.0, 0.0, 0.0, 1.6665563115272927E9, 0.0, 2022-10-23 13:18:31.527
199.0, -81641.04302418746, -113762.91379486487, 48580.80131778733, 37975.72558828897, 61383.7911348094, 92094.37276057873, 58204.7919279089, 58279.40205090071, 0.058, 0.9420000000000001, 0.106, 192.0, 0.0, 0.0, 0.0, 0.0, 0.0, 0.0, 0.0, 0.0, 0.0, 1.666556311527301E9, 0.0, 2022-10-23 13:18:31.527
200.0, -81675.30824843745, -113792.79807720162, 49742.33207015182, 38115.37928764574, 61495.37104313029, 92633.85446475202, 59024.452748829455, 59180.44557338305, 0.058, 0.9420000000000001, 0.106, 192.0, 0.0, 0.0, 0.0, 0.0, 0.0, 0.0, 0.0, 0.0, 0.0, 1.6665563115273087E9, 0.0, 2022-10-23 13:18:31.527
201.0, -81672.40252165825, -113789.3559085555, 51422.22212817933, 38036.29881576286, 61464.4585805486, 93177.5382968829, 59998.87704835857, 59984.99661505182, 0.052000000000000005, 0.96, 0.112, 192.0, 1.0, 160.0, 30.0, 0.0, 3.0, 128.0, 0.0, 0.0, 0.0, 1.6665563115273166E9, 0.0, 2022-10-23 13:18:31.527
202.0, -81616.27729133097, -113737.29869571909, 49595.659923036095, 37829.679290018, 61274.02171778938, 92350.32258633645, 58742.59725124804, 58621.40609281136, 0.052000000000000005, 0.96, 0.112, 192.0, 0.0, 0.0, 0.0, 0.0, 0.0, 0.0, 0.0, 0.0, 0.0, 1.666556311527325E9, 0.0, 2022-10-23 13:18:31.527
203.0, -81628.68250950368, -113748.80984411358, 48559.589512299244, 37982.5652220923, 61379.16432370715, 92066.74600443197, 58177.589854906786, 58231.1446346217, 0.052000000000000005, 0.96, 0.112, 192.0, 0.0, 0.0, 0.0, 0.0, 0.0, 0.0, 0.0, 0.0, 0.0, 1.6665563115273404E9, 0.0, 2022-10-23 13:18:31.527
204.0, -81665.24996343255, -113784.66204221989, 49377.037510518734, 38103.66697355115, 61485.02218544748, 92491.25033512716, 58794.14037396197, 58961.93491958796, 0.052000000000000005, 0.96, 0.112, 192.0, 0.0, 0.0, 0.0, 0.0, 0.0, 0.0, 0.0, 0.0, 0.0, 1.6665563115273485E9, 0.0, 2022-10-23 13:18:31.527
205.0, -81679.53272813949, -113801.93994068385, 51372.333034555086, 38086.21026113156, 61501.98715948906, 93192.98335230153, 60003.54856294973, 60041.61358375712, 0.052000000000000005, 0.96, 0.112, 192.0, 0.0, 0.0, 0.0, 0.0, 0.0, 0.0, 0.0, 0.0, 0.0, 1.6665563115273564E9, 0.0, 2022-10-23 13:18:31.527
206.0, -81615.24911108603, -113743.31131497757, 50027.29446021253, 37836.96595871043, 61294.94295059955, 92524.4426756433, 59030.91240297704, 58905.92144798297, 0.052000000000000005, 0.96, 0.112, 192.0, 0.0, 0.0, 0.0, 0.0, 0.0, 0.0, 0.0, 0.0, 0.0, 1.666556311527364E9, 0.0, 2022-10-23 13:18:31.527
207.0, -81620.68058498867, -113745.77000686765, 48600.359094185726, 37947.160058875095, 61357.79605600787, 92056.50890547143, 58189.391575979185, 58212.726797190524, 0.052000000000000005, 0.96, 0.112, 192.0, 0.0, 0.0, 0.0, 0.0, 0.0, 0.0, 0.0, 0.0, 0.0, 1.666556311527372E9, 0.0, 2022-10-23 13:18:31.527
208.0, -81652.46476560412, -113775.54253048213, 49073.67963477131, 38062.60681898675, 61462.044592147424, 92358.36921434036, 58594.852220398454, 58755.22598686528, 0.052000000000000005, 0.96, 0.112, 192.0, 0.0, 0.0, 0.0, 0.0, 0.0, 0.0, 0.0, 0.0, 0.0, 1.6665563115273795E9, 0.0, 2022-10-23 13:18:31.527
209.0, -81674.97297227061, -113800.0623941496, 51165.400584387855, 38129.23736920802, 61525.814119078415, 93145.59765405627, 59901.80342218917, 59983.141420262036, 0.052000000000000005, 0.96, 0.112, 192.0, 0.0, 0.0, 0.0, 0.0, 0.0, 0.0, 0.0, 0.0, 0.0, 1.6665563115273871E9, 0.0, 2022-10-23 13:18:31.527
210.0, -81629.39776532624, -113761.93031810885, 50428.195348762914, 37841.950397723966, 61295.814668633306, 92672.97001754881, 59286.23637989001, 59169.62732906668, 0.052000000000000005, 0.96, 0.112, 192.0, 0.0, 0.0, 0.0, 0.0, 0.0, 0.0, 0.0, 0.0, 0.0, 1.6665563115273952E9, 0.0, 2022-10-23 13:18:31.527
211.0, -81633.39872758374, -113759.13635005194, 48645.57667321881, 37905.51875895486, 61310.25389555143, 92035.02887904989, 58191.827916124814, 58186.82112536683, 0.06, 0.9500000000000001, 0.112, 192.0, 1.0, 224.0, 29.0, 176.0, 3.0, 128.0, 0.0, 0.0, 0.0, 1.666556311527403E9, 0.0, 2022-10-23 13:18:31.527
212.0, -81650.38605336977, -113771.65332694691, 48809.236146120566, 38035.76237389593, 61428.092292319816, 92228.21500637711, 58408.08104372991, 58562.151618260345, 0.06, 0.9500000000000001, 0.112, 192.0, 0.0, 0.0, 0.0, 0.0, 0.0, 0.0, 0.0, 0.0, 0.0, 1.6665563115274112E9, 0.0, 2022-10-23 13:18:31.527
213.0, -81679.86800430632, -113798.14014412645, 50812.243021994, 38154.89717184272, 61542.75674137554, 93033.48130386845, 59700.21303894676, 59823.05822647313, 0.06, 0.9500000000000001, 0.112, 192.0, 0.0, 0.0, 0.0, 0.0, 0.0, 0.0, 0.0, 0.0, 0.0, 1.6665563115274189E9, 0.0, 2022-10-23 13:18:31.527
214.0, -81630.1130211488, -113753.41430347138, 50841.926138630646, 37889.98429655842, 61351.06818092683, 92876.81792698121, 59580.96648227769, 59477.94729208318, 0.06, 0.9500000000000001, 0.112, 192.0, 0.0, 0.0, 0.0, 0.0, 0.0, 0.0, 0.0, 0.0, 0.0, 1.6665563115274267E9, 0.0, 2022-10-23 13:18:31.527
215.0, -81612.05281162892, -113738.03630328612, 48802.597678017344, 37881.35652319867, 61299.234485534966, 92093.23282161151, 58287.403975415706, 58238.6995242476, 0.06, 0.9500000000000001, 0.112, 192.0, 0.0, 0.0, 0.0, 0.0, 0.0, 0.0, 0.0, 0.0, 0.0, 1.6665563115274343E9, 0.0, 2022-10-23 13:18:31.527
216.0, -81638.94196020866, -113761.84091113102, 48671.48234504251, 38009.81199858332, 61407.37222520974, 92176.26955226298, 58316.6624089077, 58438.52411967804, 0.06, 0.9500000000000001, 0.112, 192.0, 0.0, 0.0, 0.0, 0.0, 0.0, 0.0, 0.0, 0.0, 0.0, 1.666556311527442E9, 0.0, 2022-10-23 13:18:31.527
217.0, -81675.777635071, -113797.62605400397, 50403.384912417525, 38152.57259041937, 61529.03277027998, 92902.74595054936, 59462.01049828655, 59601.23951449866, 0.06, 0.9500000000000001, 0.112, 192.0, 0.0, 0.0, 0.0, 0.0, 0.0, 0.0, 0.0, 0.0, 0.0, 1.66655631152745E9, 0.0, 2022-10-23 13:18:31.527
218.0, -81642.51823932151, -113769.66402169038, 51165.42293613231, 37939.15813436009, 61390.25078895698, 93043.5619406178, 59819.660761315914, 59733.98652481873, 0.06, 0.9500000000000001, 0.112, 192.0, 0.0, 0.0, 0.0, 0.0, 0.0, 0.0, 0.0, 0.0, 0.0, 1.6665563115274577E9, 0.0, 2022-10-23 13:18:31.527
219.0, -81603.24622431352, -113728.73797759271, 49026.78567490407, 37864.70447357946, 61287.87979935167, 92172.24623826102, 58426.29771546098, 58336.84603415085, 0.06, 0.9500000000000001, 0.112, 192.0, 0.0, 0.0, 0.0, 0.0, 0.0, 0.0, 0.0, 0.0, 0.0, 1.6665563115274763E9, 0.0, 2022-10-23 13:18:31.527
220.0, -81632.68347176116, -113751.6932191483, 48587.99857950194, 38003.017068268906, 61404.57825715283, 92139.00919425598, 58260.693640791615, 58351.19585409115, 0.06, 0.9500000000000001, 0.112, 192.0, 0.0, 0.0, 0.0, 0.0, 0.0, 0.0, 0.0, 0.0, 0.0, 1.666556311527485E9, 0.0, 2022-10-23 13:18:31.527
221.0, -81656.53278309498, -113773.46381824778, 49982.70273002419, 38154.36072997579, 61531.24559298105, 92760.81237325816, 59217.79533836786, 59368.15552331872, 0.054, 0.9440000000000001, 0.116, 192.0, 1.0, 176.0, 29.0, 128.0, 3.0, 160.0, 0.0, 0.0, 0.0, 1.666556311527493E9, 0.0, 2022-10-23 13:18:31.527
222.0, -81642.45118408813, -113764.12078906546, 51363.83937166207, 38013.05300152934, 61450.935775153135, 93170.72101482404, 59991.2104000104, 59940.51664358576, 0.054, 0.9440000000000001, 0.116, 192.0, 0.0, 0.0, 0.0, 0.0, 0.0, 0.0, 0.0, 0.0, 0.0, 1.6665563115275018E9, 0.0, 2022-10-23 13:18:31.527
223.0, -81598.7088201891, -113719.10437573248, 49360.407812643985, 37839.067022689225, 61281.73306962646, 92311.09527481739, 58650.82098851455, 58523.30428639702, 0.054, 0.9440000000000001, 0.116, 192.0, 0.0, 0.0, 0.0, 0.0, 0.0, 0.0, 0.0, 0.0, 0.0, 1.66655631152751E9, 0.0, 2022-10-23 13:18:31.527
224.0, -81625.95559668013, -113743.40072195539, 48570.31834963779, 37982.453463370024, 61387.814448811354, 92130.82845578533, 58247.93079470764, 58295.092975508334, 0.054, 0.9440000000000001, 0.116, 192.0, 0.0, 0.0, 0.0, 0.0, 0.0, 0.0, 0.0, 0.0, 0.0, 1.6665563115275192E9, 0.0, 2022-10-23 13:18:31.527
225.0, -81668.8262425454, -113789.33355681105, 49628.44993215203, 38105.38805787421, 61491.88417099526, 92637.02841246467, 59005.69963523145, 59137.82079670677, 0.054, 0.9440000000000001, 0.116, 192.0, 0.0, 0.0, 0.0, 0.0, 0.0, 0.0, 0.0, 0.0, 0.0, 1.666556311527527E9, 0.0, 2022-10-23 13:18:31.527
226.0, -81660.93607675268, -113785.53376025365, 51446.89845405799, 38048.14524032417, 61470.448848062624, 93242.44776278113, 60077.3316713967, 60044.78753146977, 0.054, 0.9440000000000001, 0.116, 192.0, 0.0, 0.0, 0.0, 0.0, 0.0, 0.0, 0.0, 0.0, 0.0, 1.6665563115275357E9, 0.0, 2022-10-23 13:18:31.527
227.0, -81592.29386953043, -113717.96443676525, 49769.176515242645, 37836.004833698855, 61278.00032830243, 92462.03660512407, 58905.206192160396, 58741.814940192104, 0.054, 0.9440000000000001, 0.116, 192.0, 0.0, 0.0, 0.0, 0.0, 0.0, 0.0, 0.0, 0.0, 0.0, 1.6665563115275433E9, 0.0, 2022-10-23 13:18:31.527
228.0, -81614.19857909663, -113732.96245729477, 48557.39904134262, 37958.961779947495, 61356.566710062834, 92082.70514997306, 58204.72487267553, 58213.06207335736, 0.054, 0.9440000000000001, 0.116, 192.0, 0.0, 0.0, 0.0, 0.0, 0.0, 0.0, 0.0, 0.0, 0.0, 1.6665563115275514E9, 0.0, 2022-10-23 13:18:31.527
229.0, -81647.30151263493, -113765.32778326605, 49231.19237794785, 38081.181118629116, 61464.503284037506, 92451.97832011919, 58729.722646441776, 58865.911825407966, 0.054, 0.9440000000000001, 0.116, 192.0, 0.0, 0.0, 0.0, 0.0, 0.0, 0.0, 0.0, 0.0, 0.0, 1.6665563115275595E9, 0.0, 2022-10-23 13:18:31.527
230.0, -81663.55123085395, -113786.45018177631, 51283.97658872326, 38107.33265964183, 61506.301046168934, 93201.32055298335, 59992.93148433346, 60017.49605148984, 0.054, 0.9440000000000001, 0.116, 192.0, 0.0, 0.0, 0.0, 0.0, 0.0, 0.0, 0.0, 0.0, 0.0, 1.6665563115275676E9, 0.0, 2022-10-23 13:18:31.527
231.0, -81602.84389291334, -113728.55916363707, 50152.37482218443, 37847.7842030268, 61302.117860569706, 92615.59308953203, 59153.95875620351, 58997.76476594982, 0.054, 0.9480000000000001, 0.122, 192.0, 1.0, 176.0, 29.0, 160.0, 3.0, 208.0, 0.0, 0.0, 0.0, 1.6665563115275755E9, 0.0, 2022-10-23 13:18:31.527
232.0, -81611.82929418437, -113730.68257936032, 48639.83227489379, 37943.114393128686, 61355.22560539551, 92124.01117372647, 58262.928815237145, 58235.1455968792, 0.054, 0.9480000000000001, 0.122, 192.0, 0.0, 0.0, 0.0, 0.0, 0.0, 0.0, 0.0, 0.0, 0.0, 1.6665563115275848E9, 0.0, 2022-10-23 13:18:31.527
233.0, -81644.68635853367, -113762.37735299795, 49010.17832877378, 38064.327903309815, 61456.613118244786, 92388.94640075522, 58604.575229236514, 58715.462233479295, 0.054, 0.9480000000000001, 0.122, 192.0, 0.0, 0.0, 0.0, 0.0, 0.0, 0.0, 0.0, 0.0, 0.0, 1.666556311527593E9, 0.0, 2022-10-23 13:18:31.527
234.0, -81674.63769610377, -113796.88844643695, 51089.561115451, 38145.129459515745, 61531.8714418258, 93183.37210218575, 59914.052178150676, 59958.53214961674, 0.054, 0.9480000000000001, 0.122, 192.0, 0.0, 0.0, 0.0, 0.0, 0.0, 0.0, 0.0, 0.0, 0.0, 1.66655631152761E9, 0.0, 2022-10-23 13:18:31.527
235.0, -81612.45514302912, -113743.69129463332, 50596.10165311118, 37867.11846198064, 61310.969151374, 92801.87252782256, 59448.68885859119, 59285.11879266725, 0.054, 0.9480000000000001, 0.122, 192.0, 0.0, 0.0, 0.0, 0.0, 0.0, 0.0, 0.0, 0.0, 0.0, 1.6665563115276184E9, 0.0, 2022-10-23 13:18:31.527
236.0, -81597.52417773296, -113730.63787587141, 48690.34721736279, 37916.113485826674, 61311.32677928529, 92092.49521404448, 58259.307832635386, 58194.13014580371, 0.054, 0.9480000000000001, 0.122, 192.0, 0.0, 0.0, 0.0, 0.0, 0.0, 0.0, 0.0, 0.0, 0.0, 1.6665563115276277E9, 0.0, 2022-10-23 13:18:31.527
237.0, -81627.65432925873, -113759.73984715222, 48740.57158715386, 38036.58938844078, 61422.01261782797, 92234.51819831351, 58400.45909887065, 58503.65710302081, 0.054, 0.9480000000000001, 0.122, 192.0, 0.0, 0.0, 0.0, 0.0, 0.0, 0.0, 0.0, 0.0, 0.0, 1.6665563115276356E9, 0.0, 2022-10-23 13:18:31.527
238.0, -81668.06628323391, -113795.4579347918, 50661.92754053206, 38156.953532332605, 61535.604183149844, 93016.42692284906, 59648.468750532724, 59742.144911544914, 0.054, 0.9480000000000001, 0.122, 192.0, 0.0, 0.0, 0.0, 0.0, 0.0, 0.0, 0.0, 0.0, 0.0, 1.666556311527644E9, 0.0, 2022-10-23 13:18:31.527
239.0, -81628.77191648149, -113754.1966145273, 50941.65962239023, 37913.16305555857, 61358.734829274996, 92953.93144535202, 59686.779640529116, 59556.536025588044, 0.054, 0.9480000000000001, 0.122, 192.0, 0.0, 0.0, 0.0, 0.0, 0.0, 0.0, 0.0, 0.0, 0.0, 1.6665563115276532E9, 0.0, 2022-10-23 13:18:31.527
240.0, -81601.05575335691, -113724.31233219056, 48840.66269882473, 37888.59848840219, 61301.08968032476, 92132.63894708622, 58341.4728452531, 58250.68005927564, 0.056, 0.9540000000000001, 0.116, 192.0, 1.0, 192.0, 29.0, 208.0, 3.0, 160.0, 0.0, 0.0, 0.0, 1.6665563115276635E9, 0.0, 2022-10-23 13:18:31.527
241.0, -81631.63293977176, -113751.78262612614, 48611.602021646744, 38026.48639994698, 61420.045664315905, 92182.77390989946, 58308.88400183726, 58397.48631685809, 0.056, 0.9540000000000001, 0.116, 192.0, 0.0, 0.0, 0.0, 0.0, 0.0, 0.0, 0.0, 0.0, 0.0, 1.6665563115276716E9, 0.0, 2022-10-23 13:18:31.527
242.0, -81674.16830947022, -113792.68631847935, 50237.13263715895, 38158.629913166755, 61527.423444679196, 92873.30870310172, 59393.68121548668, 59514.02300763405, 0.056, 0.9540000000000001, 0.116, 192.0, 0.0, 0.0, 0.0, 0.0, 0.0, 0.0, 0.0, 0.0, 0.0, 1.6665563120059946E9, 0.0, 2022-10-23 13:18:32.005
243.0, -81639.65721603122, -113760.56686169707, 51221.21289029275, 37976.35143713372, 61403.84064958581, 93105.2751070589, 59894.069718607636, 59801.39938609593, 0.056, 0.9540000000000001, 0.116, 192.0, 0.0, 0.0, 0.0, 0.0, 0.0, 0.0, 0.0, 0.0, 0.0, 1.666556312006075E9, 0.0, 2022-10-23 13:18:32.006
244.0, -81602.68743070215, -113727.73214909222, 49114.85154805798, 37869.82302305973, 61284.14705802764, 92236.64161403677, 58511.48021358016, 58392.83715401139, 0.056, 0.9540000000000001, 0.116, 192.0, 0.0, 0.0, 0.0, 0.0, 0.0, 0.0, 0.0, 0.0, 0.0, 1.6665563120060835E9, 0.0, 2022-10-23 13:18:32.006
245.0, -81623.63101525677, -113749.65921040288, 48550.62646277266, 38012.69537361805, 61400.71140536206, 92146.72054609306, 58259.71016403558, 58320.14928104273, 0.056, 0.9540000000000001, 0.116, 192.0, 0.0, 0.0, 0.0, 0.0, 0.0, 0.0, 0.0, 0.0, 0.0, 1.6665563120060918E9, 0.0, 2022-10-23 13:18:32.006
246.0, -81651.52599233699, -113777.66594620538, 49824.608841491805, 38153.93604683114, 61521.969619032105, 92723.84258792909, 59145.12981714366, 59274.948748940085, 0.056, 0.9540000000000001, 0.116, 192.0, 0.0, 0.0, 0.0, 0.0, 0.0, 0.0, 0.0, 0.0, 0.0, 1.6665563120060997E9, 0.0, 2022-10-23 13:18:32.006
247.0, -81639.27723637549, -113767.29473677812, 51357.75969717022, 38042.98198735499, 61459.58590025734, 93194.81619534687, 60016.13259507807, 59963.427181652456, 0.056, 0.9540000000000001, 0.116, 192.0, 0.0, 0.0, 0.0, 0.0, 0.0, 0.0, 0.0, 0.0, 0.0, 1.6665563120061076E9, 0.0, 2022-10-23 13:18:32.006
248.0, -81604.8108464254, -113737.27634397463, 49447.78078171978, 37838.172952911016, 61276.726278868475, 92357.4974963066, 58723.66532369439, 58576.5237899451, 0.056, 0.9540000000000001, 0.116, 192.0, 0.0, 0.0, 0.0, 0.0, 0.0, 0.0, 0.0, 0.0, 0.0, 1.6665563120061154E9, 0.0, 2022-10-23 13:18:32.006
249.0, -81618.40070705423, -113753.19078602681, 48508.493424474414, 37961.912210215596, 61351.93989896058, 92102.62055428274, 58215.92309664764, 58245.13682665072, 0.056, 0.9540000000000001, 0.116, 192.0, 0.0, 0.0, 0.0, 0.0, 0.0, 0.0, 0.0, 0.0, 0.0, 1.6665563120061233E9, 0.0, 2022-10-23 13:18:32.006
250.0, -81648.06147194642, -113776.16837932687, 49404.2619352653, 38101.29768863889, 61472.41580157469, 92547.30851022108, 58873.667880733956, 59012.58397252369, 0.052000000000000005, 0.9520000000000001, 0.116, 192.0, 1.0, 160.0, 29.0, 192.0, 3.0, 160.0, 0.0, 0.0, 0.0, 1.666556312006209E9, 0.0, 2022-10-23 13:18:32.006
251.0, -81657.31509415092, -113779.67760320635, 51336.816112615605, 38068.91001092315, 61482.38467960175, 93221.88415788223, 60035.44450228745, 60030.88474641857, 0.052000000000000005, 0.9520000000000001, 0.116, 192.0, 0.0, 0.0, 0.0, 0.0, 0.0, 0.0, 0.0, 0.0, 0.0, 1.6665563120062177E9, 0.0, 2022-10-23 13:18:32.006
252.0, -81591.86918638578, -113717.38329140941, 49814.95288788711, 37830.66276677403, 61274.17818000057, 92491.4291490828, 58954.894120084544, 58804.958618278346, 0.052000000000000005, 0.9520000000000001, 0.116, 192.0, 0.0, 0.0, 0.0, 0.0, 0.0, 0.0, 0.0, 0.0, 0.0, 1.6665563120062256E9, 0.0, 2022-10-23 13:18:32.006
253.0, -81608.767105194, -113731.8001665831, 48516.875328645154, 37952.83740196674, 61355.67264028462, 92092.74108323349, 58211.072768100836, 58216.34777979229, 0.052000000000000005, 0.9520000000000001, 0.116, 192.0, 0.0, 0.0, 0.0, 0.0, 0.0, 0.0, 0.0, 0.0, 0.0, 1.6665563120062337E9, 0.0, 2022-10-23 13:18:32.006
254.0, -81643.47936433308, -113762.57851869805, 49097.417187382845, 38073.31330458085, 61460.0552868909, 92437.00265133413, 58683.94627379731, 58816.35800795055, 0.052000000000000005, 0.9520000000000001, 0.116, 192.0, 0.0, 0.0, 0.0, 0.0, 0.0, 0.0, 0.0, 0.0, 0.0, 1.666556312006241E9, 0.0, 2022-10-23 13:18:32.006
255.0, -81662.61245758683, -113782.91860615238, 51185.91948579782, 38115.87102602375, 61511.754871816025, 93209.81421587638, 59977.73229810385, 60012.57866770967, 0.052000000000000005, 0.9520000000000001, 0.116, 192.0, 0.0, 0.0, 0.0, 0.0, 0.0, 0.0, 0.0, 0.0, 0.0, 1.6665563120062492E9, 0.0, 2022-10-23 13:18:32.006
0.0, -81595.37841026526, -113721.9430472783, 50258.21033218031, 37843.693833791476, 61296.03818607786, 92681.46368044183, 59253.401667285165, 59095.196020030504, 0.052000000000000005, 0.9520000000000001, 0.116, 192.0, 0.0, 0.0, 0.0, 0.0, 0.0, 0.0, 0.0, 0.0, 0.0, 1.6665563120062568E9, 0.0, 2022-10-23 13:18:32.006
1.0, -81602.17334057967, -113733.63300962842, 48586.232791689974, 37924.718907441966, 61327.218869593016, 92098.53018504742, 58239.12420739225, 58203.04849184138, 0.052000000000000005, 0.9520000000000001, 0.116, 192.0, 0.0, 0.0, 0.0, 0.0, 0.0, 0.0, 0.0, 0.0, 0.0, 1.6665563120062644E9, 0.0, 2022-10-23 13:18:32.006
2.0, -81631.23060837158, -113765.73011466625, 48862.656815368755, 38045.798307156365, 61439.11170233628, 92336.24098732961, 58528.53459459956, 58640.248613387186, 0.052000000000000005, 0.9520000000000001, 0.116, 192.0, 0.0, 0.0, 0.0, 0.0, 0.0, 0.0, 0.0, 0.0, 0.0, 1.6665563120062723E9, 0.0, 2022-10-23 13:18:32.006
3.0, -81657.44920461765, -113787.9030451659, 50902.09703470433, 38144.503610671, 61532.251421481546, 93131.00196492697, 59825.40515964093, 59890.82871566161, 0.052000000000000005, 0.9520000000000001, 0.116, 192.0, 0.0, 0.0, 0.0, 0.0, 0.0, 0.0, 0.0, 0.0, 0.0, 1.6665563120062802E9, 0.0, 2022-10-23 13:18:32.006
4.0, -81606.68839295965, -113734.70589336228, 50677.68552037305, 37876.21562197395, 61325.00604689194, 92858.04246163875, 59533.49137705462, 59382.19241883665, 0.05, 0.9420000000000001, 0.11, 192.0, 1.0, 144.0, 29.0, 112.0, 3.0, 112.0, 0.0, 0.0, 0.0, 1.666556312006288E9, 0.0, 2022-10-23 13:18:32.006
5.0, -81591.48920673004, -113718.9926170102, 48713.01188624047, 37917.00755560488, 61319.596924733756, 92123.18415918162, 58302.69256862314, 58230.004695654476, 0.05, 0.9420000000000001, 0.11, 192.0, 0.0, 0.0, 0.0, 0.0, 0.0, 0.0, 0.0, 0.0, 0.0, 1.6665563120063012E9, 0.0, 2022-10-23 13:18:32.006
6.0, -81631.74469849405, -113757.57172794006, 48701.724255290545, 38032.2755017609, 61428.919306864664, 92255.23826542357, 58412.79726180998, 58503.29947510952, 0.05, 0.9420000000000001, 0.11, 192.0, 0.0, 0.0, 0.0, 0.0, 0.0, 0.0, 0.0, 0.0, 0.0, 1.666556312006309E9, 0.0, 2022-10-23 13:18:32.006
7.0, -81673.07307399191, -113794.87678943596, 50517.80349228424, 38150.65034039621, 61523.17661323269, 92990.36478881417, 59596.47859292968, 59687.74076554069, 0.05, 0.9420000000000001, 0.11, 192.0, 0.0, 0.0, 0.0, 0.0, 0.0, 0.0, 0.0, 0.0, 0.0, 1.666556312006317E9, 0.0, 2022-10-23 13:18:32.006
8.0, -81630.42594557119, -113754.26366976068, 51042.62245209485, 37926.97643363195, 61367.63082356821, 93021.50076884041, 59789.15063013442, 59659.801084971565, 0.05, 0.9420000000000001, 0.11, 192.0, 0.0, 0.0, 0.0, 0.0, 0.0, 0.0, 0.0, 0.0, 0.0, 1.6665563120063243E9, 0.0, 2022-10-23 13:18:32.006
9.0, -81588.73994216204, -113713.20351519628, 48916.56922299496, 37885.53629941181, 61294.048880821334, 92174.07908130635, 58413.06548274344, 58303.58663840135, 0.05, 0.9420000000000001, 0.11, 192.0, 0.0, 0.0, 0.0, 0.0, 0.0, 0.0, 0.0, 0.0, 0.0, 1.6665563120063405E9, 0.0, 2022-10-23 13:18:32.006
10.0, -81617.61839599829, -113741.41141669887, 48575.883934007164, 38019.60206265475, 61415.50826019148, 92179.84583137582, 58305.0618535354, 58380.65545328325, 0.05, 0.9420000000000001, 0.11, 192.0, 0.0, 0.0, 0.0, 0.0, 0.0, 0.0, 0.0, 0.0, 0.0, 1.6665563120063484E9, 0.0, 2022-10-23 13:18:32.006
11.0, -81654.47642260509, -113777.08480084954, 50067.86287639891, 38160.28394225644, 61528.13870050177, 92820.17860653147, 59307.939923756116, 59434.20492818415, 0.05, 0.9420000000000001, 0.11, 192.0, 0.0, 0.0, 0.0, 0.0, 0.0, 0.0, 0.0, 0.0, 0.0, 1.6665563120063565E9, 0.0, 2022-10-23 13:18:32.006
12.0, -81631.74469849405, -113760.63391693044, 51263.59179778002, 37997.58559436627, 61428.360513253276, 93144.90474997816, 59951.82662628015, 59871.04742181867, 0.05, 0.9420000000000001, 0.11, 192.0, 0.0, 0.0, 0.0, 0.0, 0.0, 0.0, 0.0, 0.0, 0.0, 1.6665563120063643E9, 0.0, 2022-10-23 13:18:32.006
13.0, -81594.79726490943, -113726.16752698035, 49182.9573134133, 37853.57330484072, 61278.44736319153, 92262.32376841591, 58567.381926462884, 58439.06056154497, 0.054, 0.9500000000000001, 0.11800000000000001, 192.0, 1.0, 176.0, 29.0, 176.0, 3.0, 176.0, 0.0, 0.0, 0.0, 1.6665563120063725E9, 0.0, 2022-10-23 13:18:32.006
14.0, -81636.10328866284, -113763.69610592081, 48506.660581429074, 37985.85092852723, 61385.55692262136, 92128.81679878436, 58241.94052719361, 58292.790745829436, 0.054, 0.9500000000000001, 0.11800000000000001, 192.0, 0.0, 0.0, 0.0, 0.0, 0.0, 0.0, 0.0, 0.0, 0.0, 1.6665563120063808E9, 0.0, 2022-10-23 13:18:32.006
