%OpenBCI Raw EEG Data
%Number of channels = 8
%Sample Rate = 250 Hz
%Board = OpenBCI_GUI$BoardCytonSerial
Sample Index, EXG Channel 0, EXG Channel 1, EXG Channel 2, EXG Channel 3, EXG Channel 4, EXG Channel 5, EXG Channel 6, EXG Channel 7, Accel Channel 0, Accel Channel 1, Accel Channel 2, Other, Other, Other, Other, Other, Other, Other, Analog Channel 0, Analog Channel 1, Analog Channel 2, Timestamp, Other, Timestamp (Formatted)
130.0, -82010.02562165566, -114253.40047519213, 49224.68802031136, 38607.654107529415, 61281.28603473736, 93877.28200880076, 59488.05028057698, 59774.107906116005, 0.0, 0.0, 0.0, 192.0, 0.0, 0.0, 0.0, 0.0, 0.0, 0.0, 0.0, 0.0, 0.0, 1.6665563332314012E9, 0.0, 2022-10-23 13:18:53.231
131.0, -82041.07219470409, -114280.89312087216, 48051.06497419655, 38721.37978331802, 61356.09732342927, 93525.80082724105, 58823.0858830316, 59271.864208205254, 0.0, 0.0, 0.0, 192.0, 0.0, 0.0, 0.0, 0.0, 0.0, 0.0, 0.0, 0.0, 0.0, 1.66655633323142E9, 0.0, 2022-10-23 13:18:53.231
132.0, -82071.93995379686, -114311.7832317094, 48728.25577595899, 38844.40378480003, 61450.60049898631, 93891.3636078076, 59349.44711320962, 59916.60027701859, 0.0, 0.0, 0.0, 192.0, 0.0, 0.0, 0.0, 0.0, 0.0, 0.0, 0.0, 0.0, 0.0, 1.6665563332314284E9, 0.0, 2022-10-23 13:18:53.231
133.0, -82079.6736573784, -114320.27689460242, 50794.585143874305, 38885.39688413106, 61508.826793292385, 94639.02945983762, 60619.18266048225, 61073.32540432518, 0.0, 0.0, 0.0, 192.0, 0.0, 0.0, 0.0, 0.0, 0.0, 0.0, 0.0, 0.0, 0.0, 1.6665563332314365E9, 0.0, 2022-10-23 13:18:53.231
134.0, -82025.82830498557, -114267.3703154767, 49665.39736573665, 38601.574433037575, 61284.99642431694, 94028.80448446328, 59763.78140017765, 60041.300659334745, 0.0, 0.0, 0.0, 192.0, 0.0, 0.0, 0.0, 0.0, 0.0, 0.0, 0.0, 0.0, 0.0, 1.6665563332314453E9, 0.0, 2022-10-23 13:18:53.231
135.0, -82038.32293013608, -114276.64628942565, 48090.13582350443, 38688.813291646635, 61325.117805614216, 93486.0147221106, 58812.66997011542, 59227.51834720592, 0.0, 0.0, 0.0, 192.0, 0.0, 0.0, 0.0, 0.0, 0.0, 0.0, 0.0, 0.0, 0.0, 1.6665563332314525E9, 0.0, 2022-10-23 13:18:53.231
136.0, -82071.49291890775, -114309.14572586367, 48464.68400534201, 38809.5127117053, 61435.53542322343, 93756.29201606418, 59163.39119236365, 59716.552164143584, 0.0, 0.0, 0.0, 192.0, 0.0, 0.0, 0.0, 0.0, 0.0, 0.0, 0.0, 0.0, 0.0, 1.66655633323146E9, 0.0, 2022-10-23 13:18:53.231
137.0, -82098.00208783174, -114334.69376977609, 50571.11240281015, 38898.1820819595, 61517.85689805233, 94571.19191541577, 60501.16544975823, 60983.00200498128, 0.056, 0.9500000000000001, 0.13, 192.0, 1.0, 192.0, 29.0, 176.0, 4.0, 16.0, 0.0, 0.0, 0.0, 1.6665563332314675E9, 0.0, 2022-10-23 13:18:53.231
138.0, -82039.4628691033, -114281.13899006117, 50131.40888588535, 38611.47625583127, 61301.49201172496, 94214.90510879816, 60072.59310157217, 60338.91413675716, 0.056, 0.9500000000000001, 0.13, 192.0, 0.0, 0.0, 0.0, 0.0, 0.0, 0.0, 0.0, 0.0, 0.0, 1.6665563332314773E9, 0.0, 2022-10-23 13:18:53.231
139.0, -82030.00808119871, -114270.87953935619, 48222.12287451302, 38656.537372653176, 61301.469659980496, 93507.15947236533, 58878.80878195868, 59240.258841545445, 0.056, 0.9500000000000001, 0.13, 192.0, 0.0, 0.0, 0.0, 0.0, 0.0, 0.0, 0.0, 0.0, 0.0, 1.666556333231485E9, 0.0, 2022-10-23 13:18:53.231
140.0, -82066.86610780552, -114306.21764734003, 48268.703909957876, 38783.65174337051, 61409.205068255076, 93652.26699736918, 59018.39542608207, 59543.616717292876, 0.056, 0.9500000000000001, 0.13, 192.0, 0.0, 0.0, 0.0, 0.0, 0.0, 0.0, 0.0, 0.0, 0.0, 1.6665563332314928E9, 0.0, 2022-10-23 13:18:53.231
141.0, -82097.10801805354, -114337.6889035331, 50191.289209281116, 38913.06834376673, 61519.06389225291, 94433.05813468197, 60271.300109779855, 60777.991804837206, 0.056, 0.9500000000000001, 0.13, 192.0, 0.0, 0.0, 0.0, 0.0, 0.0, 0.0, 0.0, 0.0, 0.0, 1.6665563332315009E9, 0.0, 2022-10-23 13:18:53.231
142.0, -82043.50853484971, -114290.81729541032, 50500.212669397915, 38669.00964605923, 61349.70472451505, 94379.88333462279, 60325.43603485061, 60608.52087837707, 0.056, 0.9500000000000001, 0.13, 192.0, 0.0, 0.0, 0.0, 0.0, 0.0, 0.0, 0.0, 0.0, 0.0, 1.6665563332315085E9, 0.0, 2022-10-23 13:18:53.231
143.0, -82025.78360149666, -114272.08653355677, 48426.50722581235, 38636.68902357686, 61290.919636597595, 93569.54319114008, 58997.29537931626, 59312.343217413814, 0.056, 0.9500000000000001, 0.13, 192.0, 0.0, 0.0, 0.0, 0.0, 0.0, 0.0, 0.0, 0.0, 0.0, 1.6665563332315164E9, 0.0, 2022-10-23 13:18:53.231
144.0, -82058.59596235705, -114300.65206297065, 48172.94903671134, 38760.36122564808, 61389.62494011223, 93593.10192979597, 58942.33243970066, 59432.170919438715, 0.056, 0.9500000000000001, 0.13, 192.0, 0.0, 0.0, 0.0, 0.0, 0.0, 0.0, 0.0, 0.0, 0.0, 1.6665563332315242E9, 0.0, 2022-10-23 13:18:53.231
145.0, -82093.64349766297, -114332.01156044145, 49770.070585020854, 38903.94883202897, 61505.339921157356, 94267.18583907913, 60008.95768510791, 60533.64253445179, 0.056, 0.9500000000000001, 0.13, 192.0, 0.0, 0.0, 0.0, 0.0, 0.0, 0.0, 0.0, 0.0, 0.0, 1.666556333231532E9, 0.0, 2022-10-23 13:18:53.231
146.0, -82062.73103508128, -114305.14476360616, 50764.589102815284, 38724.6431380085, 61399.3926524392, 94500.11336804788, 60514.084758053395, 60830.85368047401, 0.056, 0.9500000000000001, 0.13, 192.0, 0.0, 0.0, 0.0, 0.0, 0.0, 0.0, 0.0, 0.0, 0.0, 1.6665563332316267E9, 0.0, 2022-10-23 13:18:53.231
147.0, -82033.78552601165, -114275.23812952497, 48665.380318806216, 38605.977726695266, 61279.855523092214, 93632.64216573742, 59131.56230825929, 59420.503308833046, 0.056, 0.9500000000000001, 0.128, 192.0, 1.0, 192.0, 29.0, 176.0, 4.0, 0.0, 0.0, 0.0, 0.0, 1.666556333231635E9, 0.0, 2022-10-23 13:18:53.231
148.0, -82056.42784314488, -114291.75606867744, 48089.107643259485, 38747.62073130855, 61382.80765805336, 93537.40138261336, 58870.091601621105, 59337.019543292474, 0.056, 0.9500000000000001, 0.128, 192.0, 0.0, 0.0, 0.0, 0.0, 0.0, 0.0, 0.0, 0.0, 0.0, 1.6665563332316437E9, 0.0, 2022-10-23 13:18:53.231
149.0, -82091.25186100625, -114328.77055749543, 49337.2961088772, 38897.80210230376, 61503.32826415638, 94105.62743015616, 59737.451045209295, 60277.89387439417, 0.056, 0.9500000000000001, 0.128, 192.0, 0.0, 0.0, 0.0, 0.0, 0.0, 0.0, 0.0, 0.0, 0.0, 1.6665563332316515E9, 0.0, 2022-10-23 13:18:53.231
150.0, -82076.0750265211, -114320.58981902478, 50897.35846487981, 38792.97242080837, 61455.45082753311, 94594.21421220472, 60630.02325654308, 60989.5957695956, 0.056, 0.9500000000000001, 0.128, 192.0, 0.0, 0.0, 0.0, 0.0, 0.0, 0.0, 0.0, 0.0, 0.0, 1.6665563332316594E9, 0.0, 2022-10-23 13:18:53.231
151.0, -82022.65435727291, -114265.73863813146, 48984.02678776107, 38607.519997062685, 61288.77386912989, 93751.73226019529, 59326.08954025383, 59602.37945346588, 0.056, 0.9500000000000001, 0.128, 192.0, 0.0, 0.0, 0.0, 0.0, 0.0, 0.0, 0.0, 0.0, 0.0, 1.6665563332316675E9, 0.0, 2022-10-23 13:18:53.231
152.0, -82050.50463086422, -114291.15257157714, 48061.078555712535, 38742.3457196171, 61388.172076722636, 93520.1234841494, 58836.340467493595, 59284.62705428923, 0.056, 0.9500000000000001, 0.128, 192.0, 0.0, 0.0, 0.0, 0.0, 0.0, 0.0, 0.0, 0.0, 0.0, 1.6665563332316775E9, 0.0, 2022-10-23 13:18:53.231
153.0, -82092.21298601782, -114331.45276683007, 48962.904389250805, 38868.36485485612, 61490.67717679467, 93968.32066396721, 59501.26016155007, 60047.447389059955, 0.056, 0.9500000000000001, 0.128, 192.0, 0.0, 0.0, 0.0, 0.0, 0.0, 0.0, 0.0, 0.0, 0.0, 1.6665563332316856E9, 0.0, 2022-10-23 13:18:53.231
154.0, -82091.92241333991, -114332.74916800848, 50913.18349995417, 38842.88386617707, 61489.112554682804, 94651.68054719931, 60680.64995773434, 61073.8171427032, 0.056, 0.9500000000000001, 0.128, 192.0, 0.0, 0.0, 0.0, 0.0, 0.0, 0.0, 0.0, 0.0, 0.0, 1.6665563332316933E9, 0.0, 2022-10-23 13:18:53.231
155.0, -82029.24812188723, -114274.83579812477, 49377.55160064121, 38596.50058704622, 61272.07711602177, 93898.60557301111, 59576.85376129792, 59827.64033408646, 0.056, 0.9500000000000001, 0.128, 192.0, 0.0, 0.0, 0.0, 0.0, 0.0, 0.0, 0.0, 0.0, 0.0, 1.6665563332317011E9, 0.0, 2022-10-23 13:18:53.231
156.0, -82051.6669215759, -114291.93488263308, 48033.16122688785, 38710.18155934591, 61343.625050023205, 93468.75917539111, 58789.58061809309, 59203.66903587211, 0.056, 0.9500000000000001, 0.128, 192.0, 0.0, 0.0, 0.0, 0.0, 0.0, 0.0, 0.0, 0.0, 0.0, 1.666556333231709E9, 0.0, 2022-10-23 13:18:53.231
157.0, -82079.71836086731, -114317.4829265455, 48600.2696872079, 38841.989796398855, 61466.42553406067, 93813.57953710313, 59259.704859221565, 59807.18848790986, 0.058, 0.9460000000000001, 0.128, 192.0, 1.0, 208.0, 29.0, 144.0, 4.0, 0.0, 0.0, 0.0, 0.0, 1.6665563332317169E9, 0.0, 2022-10-23 13:18:53.231
158.0, -82091.94476508436, -114333.84440348679, 50719.70679994903, 38893.59997434616, 61528.78690109097, 94614.80016884806, 60588.22549441165, 61035.3050870067, 0.058, 0.9460000000000001, 0.128, 192.0, 0.0, 0.0, 0.0, 0.0, 0.0, 0.0, 0.0, 0.0, 0.0, 1.6665563332317252E9, 0.0, 2022-10-23 13:18:53.231
159.0, -82037.04888070213, -114278.90381561565, 49815.39992277622, 38607.34118310704, 61300.53088671338, 94090.74116834893, 59872.36617474153, 60128.91949759955, 0.058, 0.9460000000000001, 0.128, 192.0, 0.0, 0.0, 0.0, 0.0, 0.0, 0.0, 0.0, 0.0, 0.0, 1.666556333231733E9, 0.0, 2022-10-23 13:18:53.231
160.0, -82042.10037494903, -114277.78622839287, 48132.22415831377, 38688.88034688, 61330.39281730567, 93502.39855079634, 58844.856482131065, 59227.51834720592, 0.058, 0.9460000000000001, 0.128, 192.0, 0.0, 0.0, 0.0, 0.0, 0.0, 0.0, 0.0, 0.0, 0.0, 1.6665563332317412E9, 0.0, 2022-10-23 13:18:53.231
161.0, -82080.21009924533, -114318.24288585698, 48362.7153471369, 38802.427208712965, 61425.566545196365, 93708.74985560773, 59093.2961217518, 59633.51543349212, 0.058, 0.9460000000000001, 0.128, 192.0, 0.0, 0.0, 0.0, 0.0, 0.0, 0.0, 0.0, 0.0, 0.0, 1.6665563332317772E9, 0.0, 2022-10-23 13:18:53.231
162.0, -82111.30137578266, -114350.9434879951, 50391.76200530076, 38908.86621580913, 61511.486650882565, 94501.00743782609, 60387.57388443636, 60883.76025959972, 0.058, 0.9460000000000001, 0.128, 192.0, 0.0, 0.0, 0.0, 0.0, 0.0, 0.0, 0.0, 0.0, 0.0, 1.6665563332317858E9, 0.0, 2022-10-23 13:18:53.231
163.0, -82052.69510182085, -114296.85226641325, 50205.72843619924, 38646.50143939274, 61320.31218055632, 94257.59694070781, 60125.94671558699, 60406.88579164574, 0.058, 0.9460000000000001, 0.128, 192.0, 0.0, 0.0, 0.0, 0.0, 0.0, 0.0, 0.0, 0.0, 0.0, 1.666556333231794E9, 0.0, 2022-10-23 13:18:53.231
164.0, -82031.03626144365, -114272.55592019034, 48231.89058683999, 38671.08835829358, 61310.56681997381, 93523.38683883987, 58886.0507471622, 59247.27728930442, 0.058, 0.9460000000000001, 0.128, 192.0, 0.0, 0.0, 0.0, 0.0, 0.0, 0.0, 0.0, 0.0, 0.0, 1.666556333231802E9, 0.0, 2022-10-23 13:18:53.231
165.0, -82063.35688392603, -114302.39549903816, 48212.31045869714, 38795.654630143006, 61424.53836495142, 93659.53131431715, 58992.15447809154, 59518.91803966976, 0.058, 0.9460000000000001, 0.128, 192.0, 0.0, 0.0, 0.0, 0.0, 0.0, 0.0, 0.0, 0.0, 0.0, 1.6665563332318113E9, 0.0, 2022-10-23 13:18:53.231
166.0, -82097.5774046871, -114334.80552849836, 50037.77742836207, 38936.090640555696, 61532.452587181644, 94411.17577686021, 60192.085527430245, 60715.31751338453, 0.058, 0.9480000000000001, 0.134, 192.0, 1.0, 208.0, 29.0, 160.0, 4.0, 48.0, 0.0, 0.0, 0.0, 1.666556333231819E9, 0.0, 2022-10-23 13:18:53.231
167.0, -82054.59500009955, -114296.74050769098, 50603.1424526146, 38705.17476858792, 61372.794076537386, 94460.46137338417, 60411.71376844809, 60708.76845225912, 0.058, 0.9480000000000001, 0.134, 192.0, 0.0, 0.0, 0.0, 0.0, 0.0, 0.0, 0.0, 0.0, 0.0, 1.6665563332318273E9, 0.0, 2022-10-23 13:18:53.231
168.0, -82027.03529918616, -114271.90771960113, 48463.25349369687, 38628.39652638394, 61280.83899984825, 93590.8891070949, 59014.595629524665, 59333.107988012795, 0.058, 0.9480000000000001, 0.134, 192.0, 0.0, 0.0, 0.0, 0.0, 0.0, 0.0, 0.0, 0.0, 0.0, 1.6665563332318351E9, 0.0, 2022-10-23 13:18:53.231
169.0, -82062.95455252583, -114304.0271763834, 48108.97834408026, 38761.56821984866, 61391.61424536875, 93584.20593550276, 58898.72418626836, 59395.87168644329, 0.058, 0.9480000000000001, 0.134, 192.0, 0.0, 0.0, 0.0, 0.0, 0.0, 0.0, 0.0, 0.0, 0.0, 1.6665563332318428E9, 0.0, 2022-10-23 13:18:53.231
170.0, -82104.57350070162, -114340.8852029902, 49606.81344351929, 38904.909957040545, 61500.73546179956, 94234.1946642631, 59917.22612586333, 60455.232614902576, 0.058, 0.9480000000000001, 0.134, 192.0, 0.0, 0.0, 0.0, 0.0, 0.0, 0.0, 0.0, 0.0, 0.0, 1.6665563332318509E9, 0.0, 2022-10-23 13:18:53.231
171.0, -82082.3782184575, -114321.95327543656, 50818.72502788604, 38745.318501629656, 61405.986417053515, 94561.62536878888, 60570.45585756968, 60901.596951675056, 0.058, 0.9480000000000001, 0.134, 192.0, 0.0, 0.0, 0.0, 0.0, 0.0, 0.0, 0.0, 0.0, 0.0, 1.6665563332318585E9, 0.0, 2022-10-23 13:18:53.231
172.0, -82021.24619737222, -114262.58704216327, 48735.0507062734, 38614.24787214374, 61272.97118579998, 93671.60125632302, 59175.08115471377, 59463.95510005416, 0.058, 0.9480000000000001, 0.134, 192.0, 0.0, 0.0, 0.0, 0.0, 0.0, 0.0, 0.0, 0.0, 0.0, 1.6665563332318664E9, 0.0, 2022-10-23 13:18:53.231
173.0, -82044.35790113901, -114285.56463546332, 48028.0873808965, 38763.35635940509, 61390.96604477955, 93523.63270802889, 58824.672856887926, 59300.608551574776, 0.058, 0.9480000000000001, 0.134, 192.0, 0.0, 0.0, 0.0, 0.0, 0.0, 0.0, 0.0, 0.0, 0.0, 1.6665563332318747E9, 0.0, 2022-10-23 13:18:53.231
174.0, -82089.06139004962, -114330.64810402968, 49178.44226103333, 38890.448378377965, 61497.49445885354, 94067.11537445968, 59644.93717490878, 60197.740518777435, 0.058, 0.9480000000000001, 0.134, 192.0, 0.0, 0.0, 0.0, 0.0, 0.0, 0.0, 0.0, 0.0, 0.0, 1.6665563332318828E9, 0.0, 2022-10-23 13:18:53.231
175.0, -82084.7251516253, -114327.31769410583, 50913.80934879892, 38812.53019720676, 61460.725839224564, 94639.588253449, 60665.11549533791, 61042.524700465765, 0.058, 0.9480000000000001, 0.134, 192.0, 0.0, 0.0, 0.0, 0.0, 0.0, 0.0, 0.0, 0.0, 0.0, 1.6665563332318904E9, 0.0, 2022-10-23 13:18:53.231
176.0, -82033.71847077829, -114275.86397836971, 49126.832083086025, 38594.444226556334, 61264.74574384043, 93821.38029591803, 59427.49940484756, 59693.351053398976, 0.058, 0.9560000000000001, 0.136, 192.0, 1.0, 208.0, 29.0, 224.0, 4.0, 64.0, 0.0, 0.0, 0.0, 1.666556333231899E9, 0.0, 2022-10-23 13:18:53.231
177.0, -82061.65815134742, -114300.473249015, 48025.96396517324, 38722.653832751974, 61337.61243076473, 93487.53464073356, 58799.147164719965, 59239.990620611985, 0.058, 0.9560000000000001, 0.136, 192.0, 0.0, 0.0, 0.0, 0.0, 0.0, 0.0, 0.0, 0.0, 0.0, 1.666556333231932E9, 0.0, 2022-10-23 13:18:53.231
178.0, -82095.43163721939, -114330.04460692938, 48820.43437009268, 38864.16272689852, 61465.486760793545, 93911.48017781737, 59405.90761970373, 59959.29210892822, 0.058, 0.9560000000000001, 0.136, 192.0, 0.0, 0.0, 0.0, 0.0, 0.0, 0.0, 0.0, 0.0, 0.0, 1.6665563332319417E9, 0.0, 2022-10-23 13:18:53.231
179.0, -82105.51227396874, -114340.48287159001, 50843.311946786875, 38867.090805422165, 61490.431307605664, 94638.60477669297, 60641.82497761548, 61066.82104668869, 0.058, 0.9560000000000001, 0.136, 192.0, 0.0, 0.0, 0.0, 0.0, 0.0, 0.0, 0.0, 0.0, 0.0, 1.6665563332319496E9, 0.0, 2022-10-23 13:18:53.231
180.0, -82043.03914821615, -114281.13899006117, 49559.47244876295, 38597.75228473572, 61281.621310904186, 93996.26034453635, 59706.20330646078, 59962.73427757434, 0.058, 0.9560000000000001, 0.136, 192.0, 0.0, 0.0, 0.0, 0.0, 0.0, 0.0, 0.0, 0.0, 0.0, 1.6665563332319577E9, 0.0, 2022-10-23 13:18:53.231
181.0, -82049.49880236374, -114285.92226337461, 48100.26116374268, 38709.80157969017, 61339.26645985442, 93508.99231541065, 58837.659220416455, 59239.11890257823, 0.058, 0.9560000000000001, 0.136, 192.0, 0.0, 0.0, 0.0, 0.0, 0.0, 0.0, 0.0, 0.0, 0.0, 1.6665563332319653E9, 0.0, 2022-10-23 13:18:53.231
182.0, -82076.74557885475, -114313.14668812117, 48543.295090591324, 38837.87707541908, 61446.197205328615, 93793.21709790434, 59221.751597136456, 59760.22747280925, 0.058, 0.9560000000000001, 0.136, 192.0, 0.0, 0.0, 0.0, 0.0, 0.0, 0.0, 0.0, 0.0, 0.0, 1.6665563332319732E9, 0.0, 2022-10-23 13:18:53.231
183.0, -82097.26448026473, -114334.51495582044, 50622.25319412389, 38915.08000076771, 61519.51092714202, 94573.85177300594, 60522.80193839097, 60987.584112594624, 0.058, 0.9560000000000001, 0.136, 192.0, 0.0, 0.0, 0.0, 0.0, 0.0, 0.0, 0.0, 0.0, 0.0, 1.6665563332319813E9, 0.0, 2022-10-23 13:18:53.231
184.0, -82047.75536629622, -114287.77745816439, 49955.72417446663, 38625.24493041574, 61311.550296729845, 94141.83725617376, 59954.06180072568, 60221.947458022536, 0.058, 0.9560000000000001, 0.136, 192.0, 0.0, 0.0, 0.0, 0.0, 0.0, 0.0, 0.0, 0.0, 0.0, 1.666556333231989E9, 0.0, 2022-10-23 13:18:53.231
185.0, -82040.82632551508, -114280.53549296087, 48154.03946090215, 38686.64517243447, 61327.352980059746, 93496.76591119361, 58840.9896303403, 59222.355094236744, 0.058, 0.9560000000000001, 0.136, 192.0, 0.0, 0.0, 0.0, 0.0, 0.0, 0.0, 0.0, 0.0, 0.0, 1.6665563332319968E9, 0.0, 2022-10-23 13:18:53.231
186.0, -82071.89525030795, -114312.16321136514, 48294.140195148015, 38802.18133952395, 61424.18073704014, 93676.92097150338, 59039.49547284788, 59581.6146828669, 0.058, 0.9540000000000001, 0.134, 192.0, 1.0, 208.0, 29.0, 208.0, 4.0, 48.0, 0.0, 0.0, 0.0, 1.6665563332320046E9, 0.0, 2022-10-23 13:18:53.232
187.0, -82100.48313146629, -114341.0416652014, 50300.276315245195, 38929.5415794303, 61535.76064536103, 94488.28929523102, 60341.30577341387, 60849.51738709419, 0.058, 0.9540000000000001, 0.134, 192.0, 0.0, 0.0, 0.0, 0.0, 0.0, 0.0, 0.0, 0.0, 0.0, 1.666556333232013E9, 0.0, 2022-10-23 13:18:53.232
188.0, -82055.4667181333, -114301.8814089157, 50381.61431331805, 38657.722015109306, 61335.04198015237, 94339.40432541423, 60246.08734203427, 60528.50163322707, 0.058, 0.9540000000000001, 0.134, 192.0, 0.0, 0.0, 0.0, 0.0, 0.0, 0.0, 0.0, 0.0, 0.0, 1.6665563332320209E9, 0.0, 2022-10-23 13:18:53.232
189.0, -82047.35303489602, -114291.33138553279, 48314.18970992443, 38642.612235857516, 61280.79429635934, 93533.78040001159, 58920.94182025693, 59263.99639415698, 0.058, 0.9540000000000001, 0.134, 192.0, 0.0, 0.0, 0.0, 0.0, 0.0, 0.0, 0.0, 0.0, 0.0, 1.6665563332320287E9, 0.0, 2022-10-23 13:18:53.232
190.0, -82077.68435212188, -114315.00188291096, 48143.288271819154, 38772.14059497602, 61390.69782384609, 93590.33031348352, 58915.64445682102, 59439.18936719768, 0.058, 0.9540000000000001, 0.134, 192.0, 0.0, 0.0, 0.0, 0.0, 0.0, 0.0, 0.0, 0.0, 0.0, 1.6665563332320373E9, 0.0, 2022-10-23 13:18:53.232
191.0, -82113.51419848374, -114349.51297634996, 49860.70690878712, 38918.87979732511, 61518.10276724133, 94312.64928730122, 60055.09168566367, 60602.28474167404, 0.058, 0.9540000000000001, 0.134, 192.0, 0.0, 0.0, 0.0, 0.0, 0.0, 0.0, 0.0, 0.0, 0.0, 1.6665563332320452E9, 0.0, 2022-10-23 13:18:53.232
192.0, -82080.25480273424, -114320.47806030251, 50684.45809894301, 38717.691745482894, 61387.30035868888, 94485.49532717411, 60455.702001536134, 60781.07634557204, 0.058, 0.9540000000000001, 0.134, 192.0, 0.0, 0.0, 0.0, 0.0, 0.0, 0.0, 0.0, 0.0, 0.0, 1.6665563332320611E9, 0.0, 2022-10-23 13:18:53.232
193.0, -82040.69221504834, -114280.35667900523, 48580.510745109415, 38633.22450318629, 61293.53479069887, 93637.51484602867, 59084.511886180866, 59400.87847720129, 0.058, 0.9540000000000001, 0.134, 192.0, 0.0, 0.0, 0.0, 0.0, 0.0, 0.0, 0.0, 0.0, 0.0, 1.666556333232069E9, 0.0, 2022-10-23 13:18:53.232
194.0, -82068.87776480649, -114306.61997874021, 48126.12213207747, 38762.97637974934, 61398.25271347198, 93593.70542689627, 58904.289770637726, 59394.86585794281, 0.058, 0.9540000000000001, 0.134, 192.0, 0.0, 0.0, 0.0, 0.0, 0.0, 0.0, 0.0, 0.0, 0.0, 1.6665563332320776E9, 0.0, 2022-10-23 13:18:53.232
195.0, -82097.42094247592, -114341.82397625734, 49501.42496841252, 38907.65922160855, 61512.872459038794, 94203.79629180388, 59847.53338665169, 60393.43004148365, 0.058, 0.9540000000000001, 0.134, 192.0, 0.0, 0.0, 0.0, 0.0, 0.0, 0.0, 0.0, 0.0, 0.0, 1.6665563332320852E9, 0.0, 2022-10-23 13:18:53.232
196.0, -82073.616334631, -114320.4333568136, 50905.15922369471, 38778.510842145784, 61439.201109314105, 94614.01785779213, 60626.04464603003, 60978.86693225705, 0.06, 0.9440000000000001, 0.13, 192.0, 1.0, 224.0, 29.0, 128.0, 4.0, 16.0, 0.0, 0.0, 0.0, 1.666556333232093E9, 0.0, 2022-10-23 13:18:53.232
197.0, -82023.6601857734, -114266.99033582096, 48917.10566486188, 38615.1642936664, 61286.38223247317, 93755.3308910526, 59283.50946706647, 59567.75660130461, 0.06, 0.9440000000000001, 0.13, 192.0, 0.0, 0.0, 0.0, 0.0, 0.0, 0.0, 0.0, 0.0, 0.0, 1.666556333232102E9, 0.0, 2022-10-23 13:18:53.232
198.0, -82052.40452914292, -114290.97375762151, 48117.29319301763, 38758.77425179175, 61395.72696634853, 93573.99118828669, 58874.80781970118, 59335.38786594723, 0.06, 0.9440000000000001, 0.13, 192.0, 0.0, 0.0, 0.0, 0.0, 0.0, 0.0, 0.0, 0.0, 0.0, 1.6665563332321095E9, 0.0, 2022-10-23 13:18:53.232
199.0, -82089.50842493873, -114329.32935110682, 49129.60369939848, 38888.57083184372, 61496.82390651988, 94056.09596444322, 59602.468860443696, 60153.88639615612, 0.06, 0.9440000000000001, 0.13, 192.0, 0.0, 0.0, 0.0, 0.0, 0.0, 0.0, 0.0, 0.0, 0.0, 1.6665563332321177E9, 0.0, 2022-10-23 13:18:53.232
200.0, -82090.78247437268, -114333.6879412756, 50938.86565433331, 38829.87515090408, 61468.99598467303, 94645.62322445193, 60663.72968718168, 61057.94740413993, 0.06, 0.9440000000000001, 0.13, 192.0, 0.0, 0.0, 0.0, 0.0, 0.0, 0.0, 0.0, 0.0, 0.0, 1.6665563332321255E9, 0.0, 2022-10-23 13:18:53.232
201.0, -82040.60280807053, -114286.83868489727, 49291.81030891065, 38599.92040394788, 61275.809857345805, 93871.22468605336, 59506.11049009687, 59770.531627003154, 0.06, 0.9440000000000001, 0.13, 192.0, 0.0, 0.0, 0.0, 0.0, 0.0, 0.0, 0.0, 0.0, 0.0, 1.6665563332321332E9, 0.0, 2022-10-23 13:18:53.232
202.0, -82064.92150603789, -114304.85419092825, 48082.51387864517, 38723.74906823028, 61355.96321296254, 93503.40437929683, 58814.45810967185, 59243.07516134682, 0.06, 0.9440000000000001, 0.13, 192.0, 0.0, 0.0, 0.0, 0.0, 0.0, 0.0, 0.0, 0.0, 0.0, 1.6665563332321413E9, 0.0, 2022-10-23 13:18:53.232
203.0, -82103.59002394558, -114338.40415935566, 48741.51036042099, 38845.05198538923, 61458.1553886122, 93869.9059331305, 59334.94083105813, 59883.09501208008, 0.06, 0.9440000000000001, 0.13, 192.0, 0.0, 0.0, 0.0, 0.0, 0.0, 0.0, 0.0, 0.0, 0.0, 1.666556333232149E9, 0.0, 2022-10-23 13:18:53.232
204.0, -82113.5812537171, -114351.5916885843, 50809.31494347036, 38878.914878239026, 61501.54012459995, 94625.39489571987, 60611.404253411805, 61046.48095923436, 0.06, 0.9440000000000001, 0.13, 192.0, 0.0, 0.0, 0.0, 0.0, 0.0, 0.0, 0.0, 0.0, 0.0, 1.6665563332321565E9, 0.0, 2022-10-23 13:18:53.232
205.0, -82048.3141599076, -114289.43148725409, 49716.381694839205, 38604.0107731832, 61287.09748829574, 94041.58968229171, 59785.97668242177, 60040.76421746782, 0.052000000000000005, 0.9500000000000001, 0.128, 192.0, 1.0, 160.0, 29.0, 176.0, 4.0, 0.0, 0.0, 0.0, 0.0, 1.6665563332321644E9, 0.0, 2022-10-23 13:18:53.232
206.0, -82053.1197849655, -114290.59377796577, 48155.380565569474, 38708.61693723404, 61346.1284454022, 93519.45293181574, 58849.88562463351, 59238.448350244566, 0.052000000000000005, 0.9500000000000001, 0.128, 192.0, 0.0, 0.0, 0.0, 0.0, 0.0, 0.0, 0.0, 0.0, 0.0, 1.6665563332321727E9, 0.0, 2022-10-23 13:18:53.232
207.0, -82080.7241893678, -114314.0854613883, 48537.05895388829, 38832.78087768327, 61464.570339270875, 93806.38227538852, 59210.50866967544, 59739.082722554536, 0.052000000000000005, 0.9500000000000001, 0.128, 192.0, 0.0, 0.0, 0.0, 0.0, 0.0, 0.0, 0.0, 0.0, 0.0, 1.6665563332321806E9, 0.0, 2022-10-23 13:18:53.232
208.0, -82097.04096282017, -114333.06209243085, 50588.837336163204, 38922.6348903936, 61540.99095356357, 94585.58643884498, 60503.244161992574, 60973.88249324352, 0.052000000000000005, 0.9500000000000001, 0.128, 192.0, 0.0, 0.0, 0.0, 0.0, 0.0, 0.0, 0.0, 0.0, 0.0, 1.6665563332321959E9, 0.0, 2022-10-23 13:18:53.232
209.0, -82060.67467459138, -114301.43437402659, 50150.89960705038, 38631.704584563326, 61323.486128268974, 94223.33171645782, 60071.922549238516, 60334.6896570551, 0.052000000000000005, 0.9500000000000001, 0.128, 192.0, 0.0, 0.0, 0.0, 0.0, 0.0, 0.0, 0.0, 0.0, 0.0, 1.6665563332322035E9, 0.0, 2022-10-23 13:18:53.232
210.0, -82054.77381405518, -114293.09717334477, 48239.132552043506, 38669.590791415074, 61313.71841594201, 93513.28385034608, 58874.003156900784, 59231.07227457432, 0.052000000000000005, 0.9500000000000001, 0.128, 192.0, 0.0, 0.0, 0.0, 0.0, 0.0, 0.0, 0.0, 0.0, 0.0, 1.666556333232211E9, 0.0, 2022-10-23 13:18:53.232
211.0, -82087.80969236013, -114324.65783651566, 48295.10132015959, 38794.1570632645, 61423.26431551747, 93670.52837258916, 59025.6820947745, 59545.51661557158, 0.052000000000000005, 0.9500000000000001, 0.128, 192.0, 0.0, 0.0, 0.0, 0.0, 0.0, 0.0, 0.0, 0.0, 0.0, 1.6665563332322192E9, 0.0, 2022-10-23 13:18:53.232
212.0, -82117.09047759659, -114353.02220022943, 50206.26487806617, 38932.55906493176, 61535.380665705285, 94447.76558253355, 60274.429354003594, 60779.377612993434, 0.052000000000000005, 0.9500000000000001, 0.128, 192.0, 0.0, 0.0, 0.0, 0.0, 0.0, 0.0, 0.0, 0.0, 0.0, 1.6665563332322268E9, 0.0, 2022-10-23 13:18:53.232
213.0, -82069.54831714014, -114313.21374335454, 50526.74419006636, 38688.27684977971, 61361.39468686518, 94389.94161962767, 60332.1415581872, 60616.209878469694, 0.052000000000000005, 0.9500000000000001, 0.128, 192.0, 0.0, 0.0, 0.0, 0.0, 0.0, 0.0, 0.0, 0.0, 0.0, 1.6665563332322347E9, 0.0, 2022-10-23 13:18:53.232
214.0, -82051.37634889797, -114294.72885069, 48425.523749056316, 38640.19824745634, 61287.83509586276, 93558.65789159035, 58979.34692851865, 59298.35102538479, 0.052000000000000005, 0.9500000000000001, 0.128, 192.0, 0.0, 0.0, 0.0, 0.0, 0.0, 0.0, 0.0, 0.0, 0.0, 1.6665563332322423E9, 0.0, 2022-10-23 13:18:53.232
215.0, -82083.875785336, -114324.23315337101, 48158.800382471134, 38768.60901935209, 61397.4927541605, 93586.12818552593, 58917.87963126655, 59416.591753553366, 0.056, 0.9500000000000001, 0.12, 192.0, 1.0, 192.0, 29.0, 176.0, 3.0, 192.0, 0.0, 0.0, 0.0, 1.6665563332322502E9, 0.0, 2022-10-23 13:18:53.232
216.0, -82120.24207356478, -114358.43132238762, 49784.50981193898, 38921.00321304837, 61530.23976448057, 94293.58324928084, 60015.97613286688, 60546.83006368042, 0.056, 0.9500000000000001, 0.12, 192.0, 0.0, 0.0, 0.0, 0.0, 0.0, 0.0, 0.0, 0.0, 0.0, 1.6665563332322595E9, 0.0, 2022-10-23 13:18:53.232
217.0, -82095.54339594167, -114336.45955758805, 50834.61711819376, 38732.376841590034, 61407.43928044311, 94556.12683965289, 60562.36452607686, 60874.90896879542, 0.056, 0.9500000000000001, 0.12, 192.0, 0.0, 0.0, 0.0, 0.0, 0.0, 0.0, 0.0, 0.0, 0.0, 1.6665563332322671E9, 0.0, 2022-10-23 13:18:53.232
218.0, -82049.7670232972, -114290.61612971022, 48678.076109656824, 38605.73185750626, 61255.24625244692, 93634.34089831602, 59119.537069742335, 59411.29439011746, 0.056, 0.9500000000000001, 0.12, 192.0, 0.0, 0.0, 0.0, 0.0, 0.0, 0.0, 0.0, 0.0, 0.0, 1.6665563332322752E9, 0.0, 2022-10-23 13:18:53.232
219.0, -82070.73295959628, -114308.229304341, 48062.821991780045, 38759.645969825506, 61380.326614418824, 93520.50346380514, 58826.52805167771, 59311.31503716887, 0.056, 0.9500000000000001, 0.12, 192.0, 0.0, 0.0, 0.0, 0.0, 0.0, 0.0, 0.0, 0.0, 0.0, 1.6665563332322829E9, 0.0, 2022-10-23 13:18:53.232
220.0, -82104.46174197934, -114336.97364771053, 49314.38557081051, 38910.45318966546, 61511.08431948237, 94101.33589522075, 59705.10807098247, 60269.37785975669, 0.056, 0.9500000000000001, 0.12, 192.0, 0.0, 0.0, 0.0, 0.0, 0.0, 0.0, 0.0, 0.0, 0.0, 1.6665563332322917E9, 0.0, 2022-10-23 13:18:53.232
221.0, -82098.60558493204, -114335.00669419846, 50910.41188364171, 38806.22700527037, 61461.9551851696, 94615.11309327044, 60628.90566932031, 61010.092319261115, 0.056, 0.9500000000000001, 0.12, 192.0, 0.0, 0.0, 0.0, 0.0, 0.0, 0.0, 0.0, 0.0, 0.0, 1.666556333232299E9, 0.0, 2022-10-23 13:18:53.232
222.0, -82047.64360757395, -114287.73275467548, 49009.97716307368, 38607.25177612922, 61279.3637847142, 93771.91588543843, 59331.87864206775, 59623.54655546505, 0.056, 0.9500000000000001, 0.12, 192.0, 0.0, 0.0, 0.0, 0.0, 0.0, 0.0, 0.0, 0.0, 0.0, 1.6665563332323072E9, 0.0, 2022-10-23 13:18:53.232
223.0, -82068.9224682954, -114303.91541766113, 48037.83274147901, 38741.47400158334, 61371.29650965888, 93503.65024848584, 58800.01888275372, 59271.39482157169, 0.056, 0.9500000000000001, 0.12, 192.0, 0.0, 0.0, 0.0, 0.0, 0.0, 0.0, 0.0, 0.0, 0.0, 1.6665563332323234E9, 0.0, 2022-10-23 13:18:53.232
224.0, -82097.08566630908, -114332.6821127751, 48921.866586430864, 38873.93043922549, 61484.03870869145, 93953.00971901533, 59456.60137612837, 60033.54460400875, 0.056, 0.9500000000000001, 0.12, 192.0, 0.0, 0.0, 0.0, 0.0, 0.0, 0.0, 0.0, 0.0, 0.0, 1.666556333232332E9, 0.0, 2022-10-23 13:18:53.232
225.0, -82108.01566934773, -114343.52270883594, 50866.62481625376, 38855.6690640055, 61496.04159546395, 94637.12956155892, 60629.0621315315, 61067.89393042254, 0.054, 0.9480000000000001, 0.124, 192.0, 1.0, 176.0, 29.0, 160.0, 3.0, 224.0, 0.0, 0.0, 0.0, 1.66655633323234E9, 0.0, 2022-10-23 13:18:53.232
226.0, -82046.99540698474, -114283.46357148452, 49395.92473458347, 38605.284822617155, 61280.88370333716, 93927.08169544718, 59574.23860719665, 59867.76171538374, 0.054, 0.9480000000000001, 0.124, 192.0, 0.0, 0.0, 0.0, 0.0, 0.0, 0.0, 0.0, 0.0, 0.0, 1.6665563332323487E9, 0.0, 2022-10-23 13:18:53.232
227.0, -82051.15283145342, -114285.18465580758, 48050.729698029725, 38741.47400158334, 61360.701782787066, 93503.89611767484, 58788.84301052606, 59244.393914269676, 0.054, 0.9480000000000001, 0.124, 192.0, 0.0, 0.0, 0.0, 0.0, 0.0, 0.0, 0.0, 0.0, 0.0, 1.6665563332323563E9, 0.0, 2022-10-23 13:18:53.232
228.0, -82093.5764424296, -114328.4352813286, 48575.682768307066, 38854.35031108264, 61463.63156600375, 93820.17330171744, 59223.74090239298, 59815.45863335832, 0.054, 0.9480000000000001, 0.124, 192.0, 0.0, 0.0, 0.0, 0.0, 0.0, 0.0, 0.0, 0.0, 0.0, 1.666556333232364E9, 0.0, 2022-10-23 13:18:53.232
229.0, -82114.85530315105, -114351.92696475112, 50680.05480528531, 38901.624250605615, 61520.02501726449, 94611.53681415759, 60540.102188599376, 61038.27786901926, 0.054, 0.9480000000000001, 0.124, 192.0, 0.0, 0.0, 0.0, 0.0, 0.0, 0.0, 0.0, 0.0, 0.0, 1.666556333232372E9, 0.0, 2022-10-23 13:18:53.232
230.0, -82067.38019792798, -114309.25748458595, 49789.24838176351, 38600.322735348076, 61283.163581271605, 94084.59443862372, 59826.58980209706, 60134.10510231318, 0.054, 0.9480000000000001, 0.124, 192.0, 0.0, 0.0, 0.0, 0.0, 0.0, 0.0, 0.0, 0.0, 0.0, 1.66655633323238E9, 0.0, 2022-10-23 13:18:53.232
231.0, -82071.62702937449, -114309.34689156376, 48083.31854144556, 38690.623782947514, 61324.24608758045, 93487.69110294475, 58784.81969652411, 59217.0800825453, 0.054, 0.9480000000000001, 0.124, 192.0, 0.0, 0.0, 0.0, 0.0, 0.0, 0.0, 0.0, 0.0, 0.0, 1.6665563332323875E9, 0.0, 2022-10-23 13:18:53.232
232.0, -82089.88840459447, -114324.81429872684, 48356.27804473377, 38829.24930205933, 61456.255490333504, 93745.13849558098, 59082.7460983689, 59663.86910246243, 0.054, 0.9480000000000001, 0.124, 192.0, 0.0, 0.0, 0.0, 0.0, 0.0, 0.0, 0.0, 0.0, 0.0, 1.6665563332323956E9, 0.0, 2022-10-23 13:18:53.232
233.0, -82121.382012532, -114355.88322351972, 50395.07006348015, 38928.78162011881, 61538.30874422893, 94547.78963897105, 60388.06562281438, 60920.66298969543, 0.054, 0.9480000000000001, 0.124, 192.0, 0.0, 0.0, 0.0, 0.0, 0.0, 0.0, 0.0, 0.0, 0.0, 1.6665563332324033E9, 0.0, 2022-10-23 13:18:53.232
234.0, -82074.28688696468, -114317.81820271233, 50230.985907433744, 38652.804631329134, 61324.98369514748, 94297.29363886043, 60132.49577671239, 60447.029524687474, 0.06, 0.9500000000000001, 0.132, 192.0, 1.0, 224.0, 29.0, 176.0, 4.0, 32.0, 0.0, 0.0, 0.0, 1.6665563332324111E9, 0.0, 2022-10-23 13:18:53.232
235.0, -82061.07700599158, -114302.68607171609, 48253.79529640619, 38669.12140478151, 61306.1188228272, 93554.8804467774, 58886.20720937338, 59273.45118206158, 0.06, 0.9500000000000001, 0.132, 192.0, 0.0, 0.0, 0.0, 0.0, 0.0, 0.0, 0.0, 0.0, 0.0, 1.6665563332324195E9, 0.0, 2022-10-23 13:18:53.232
236.0, -82084.8816138365, -114322.60147602577, 48177.8217170026, 38797.82274935517, 61416.67055090315, 93647.03668916663, 58944.12057925708, 59506.02108311905, 0.06, 0.9500000000000001, 0.132, 192.0, 0.0, 0.0, 0.0, 0.0, 0.0, 0.0, 0.0, 0.0, 0.0, 1.6665563332324283E9, 0.0, 2022-10-23 13:18:53.232
237.0, -82119.99620437577, -114354.40800838567, 50007.4014076473, 38929.7874486193, 61530.351523202844, 94408.47121578113, 60154.37813453414, 60716.70332154076, 0.06, 0.9500000000000001, 0.132, 192.0, 0.0, 0.0, 0.0, 0.0, 0.0, 0.0, 0.0, 0.0, 0.0, 1.666556333232437E9, 0.0, 2022-10-23 13:18:53.232
238.0, -82072.85637531953, -114312.07380438731, 50579.62841744762, 38701.21850981933, 61370.04481196938, 94457.6450535828, 60376.152143019695, 60718.24559190817, 0.06, 0.9500000000000001, 0.132, 192.0, 0.0, 0.0, 0.0, 0.0, 0.0, 0.0, 0.0, 0.0, 0.0, 1.6665563332324448E9, 0.0, 2022-10-23 13:18:53.232
239.0, -82047.57655234059, -114287.5762924643, 48462.851162296676, 38640.511171878716, 61293.713604654506, 93613.79964516159, 59003.88914393057, 59361.002965093016, 0.06, 0.9500000000000001, 0.132, 192.0, 0.0, 0.0, 0.0, 0.0, 0.0, 0.0, 0.0, 0.0, 0.0, 1.6665563332324595E9, 0.0, 2022-10-23 13:18:53.232
240.0, -82083.24993649125, -114321.90857194766, 48101.02112305417, 38769.078405985645, 61398.47623091653, 93605.37303750194, 58883.726165738844, 59416.88232623129, 0.06, 0.9500000000000001, 0.132, 192.0, 0.0, 0.0, 0.0, 0.0, 0.0, 0.0, 0.0, 0.0, 0.0, 1.6665563332324677E9, 0.0, 2022-10-23 13:18:53.232
241.0, -82109.66969843743, -114350.11647345025, 49563.29459706481, 38913.00128853336, 61509.02795899248, 94232.38417296222, 59873.573168942115, 60457.35603062583, 0.06, 0.9500000000000001, 0.132, 192.0, 0.0, 0.0, 0.0, 0.0, 0.0, 0.0, 0.0, 0.0, 0.0, 1.6665563332324753E9, 0.0, 2022-10-23 13:18:53.232
242.0, -82081.10416902354, -114329.19524064008, 50813.36060921677, 38762.372882649055, 61419.77744338244, 94576.60103757394, 60554.295546328496, 60934.945754402375, 0.06, 0.9500000000000001, 0.132, 192.0, 0.0, 0.0, 0.0, 0.0, 0.0, 0.0, 0.0, 0.0, 0.0, 1.6665563332324831E9, 0.0, 2022-10-23 13:18:53.232
243.0, -82042.07802320458, -114291.19727506606, 48745.22075000057, 38606.73768600675, 61263.31523219529, 93692.50013738874, 59168.30857614381, 59499.51672548256, 0.06, 0.9500000000000001, 0.132, 192.0, 0.0, 0.0, 0.0, 0.0, 0.0, 0.0, 0.0, 0.0, 0.0, 1.6665563332324908E9, 0.0, 2022-10-23 13:18:53.232
244.0, -82070.95647704083, -114310.01744389742, 48030.16609313084, 38758.68484481393, 61378.47141962903, 93548.19727518527, 58813.16170849344, 59328.011790276985, 0.056, 0.9460000000000001, 0.128, 192.0, 1.0, 192.0, 29.0, 144.0, 4.0, 0.0, 0.0, 0.0, 0.0, 1.6665563332324986E9, 0.0, 2022-10-23 13:18:53.232
245.0, -82090.49190169477, -114325.95423769407, 49178.48696452224, 38920.779695603815, 61520.33794168686, 94104.28632548885, 59638.09754110546, 60239.38181869767, 0.056, 0.9460000000000001, 0.128, 192.0, 0.0, 0.0, 0.0, 0.0, 0.0, 0.0, 0.0, 0.0, 0.0, 1.6665563332325072E9, 0.0, 2022-10-23 13:18:53.232
246.0, -82090.00016331676, -114331.92215346363, 50909.316648163396, 38826.85766540261, 61476.14854289872, 94665.56098050607, 60649.7151434082, 61078.667471249995, 0.056, 0.9460000000000001, 0.128, 192.0, 0.0, 0.0, 0.0, 0.0, 0.0, 0.0, 0.0, 0.0, 0.0, 1.666556333232515E9, 0.0, 2022-10-23 13:18:53.232
247.0, -82029.24812188723, -114275.95338534754, 49117.734923092714, 38612.2138633983, 61281.77777311538, 93842.52504617276, 59405.41588132571, 59723.45885318027, 0.056, 0.9460000000000001, 0.128, 192.0, 0.0, 0.0, 0.0, 0.0, 0.0, 0.0, 0.0, 0.0, 0.0, 1.6665563332325227E9, 0.0, 2022-10-23 13:18:53.232
248.0, -82051.59986634253, -114297.03108036889, 48033.9882414327, 38753.52159184475, 61377.64440508419, 93539.23422565869, 58801.91878103242, 59290.63967354771, 0.056, 0.9460000000000001, 0.128, 192.0, 0.0, 0.0, 0.0, 0.0, 0.0, 0.0, 0.0, 0.0, 0.0, 1.6665563332325306E9, 0.0, 2022-10-23 13:18:53.232
249.0, -82103.18769254538, -114348.1942234271, 48796.00391340303, 38866.666122277515, 61472.08052540786, 93940.60450084264, 59385.3663665493, 59983.83432434015, 0.056, 0.9460000000000001, 0.128, 192.0, 0.0, 0.0, 0.0, 0.0, 0.0, 0.0, 0.0, 0.0, 0.0, 1.6665563332325385E9, 0.0, 2022-10-23 13:18:53.232
250.0, -82116.19640781837, -114364.19807245709, 50817.27216449645, 38869.41538684552, 61496.60038907533, 94658.341367047, 60618.84738431542, 61087.78698298777, 0.056, 0.9460000000000001, 0.128, 192.0, 0.0, 0.0, 0.0, 0.0, 0.0, 0.0, 0.0, 0.0, 0.0, 1.6665563332325463E9, 0.0, 2022-10-23 13:18:53.232
251.0, -82057.09839547853, -114307.84932468526, 49530.079904804224, 38603.7649039942, 61281.39779345963, 93999.00960910435, 59670.52992231011, 59974.33483294664, 0.056, 0.9460000000000001, 0.128, 192.0, 0.0, 0.0, 0.0, 0.0, 0.0, 0.0, 0.0, 0.0, 0.0, 1.6665563332325542E9, 0.0, 2022-10-23 13:18:53.232
0.0, 0.0, 0.0, 0.0, 0.0, 0.0, 0.0, 0.0, 0.0, 0.056, 0.9460000000000001, 0.128, 192.0, 0.0, 0.0, 0.0, 0.0, 0.0, 0.0, 0.0, 0.0, 0.0, 1.6665563333109953E9, 0.0, 2022-10-23 13:18:53.310
1.0, -82111.7260589273, -114486.23859718307, 48859.505219400555, 38729.33700434411, 61253.92749952406, 93940.04570723126, 59373.5646454769, 59673.25683513366, 0.048, 0.9480000000000001, 0.128, 192.0, 1.0, 128.0, 29.0, 160.0, 4.0, 0.0, 0.0, 0.0, 0.0, 1.6665563337902415E9, 0.0, 2022-10-23 13:18:53.790
2.0, -82139.0398906517, -114504.87995205879, 47967.20122900024, 38863.58158154268, 61348.92241345911, 93718.7187336348, 58904.8038607602, 59379.55491299092, 0.048, 0.9480000000000001, 0.128, 192.0, 0.0, 0.0, 0.0, 0.0, 0.0, 0.0, 0.0, 0.0, 0.0, 1.6665563337903576E9, 0.0, 2022-10-23 13:18:53.790
3.0, -82164.36441711956, -114529.89155410428, 48912.97059213765, 39005.42575185606, 61463.229234603554, 94187.16659392913, 59593.97519755068, 60170.404335308594, 0.048, 0.9480000000000001, 0.128, 192.0, 0.0, 0.0, 0.0, 0.0, 0.0, 0.0, 0.0, 0.0, 0.0, 1.6665563337903676E9, 0.0, 2022-10-23 13:18:53.790
4.0, -82169.48296659983, -114540.0839495759, 50815.75224587348, 38965.01379788086, 61455.31671706638, 94831.36622087554, 60721.330132643, 61149.45544593996, 0.048, 0.9480000000000001, 0.128, 192.0, 0.0, 0.0, 0.0, 0.0, 0.0, 0.0, 0.0, 0.0, 0.0, 1.666556333790376E9, 0.0, 2022-10-23 13:18:53.790
5.0, -82099.05261982114, -114474.1686551772, 49253.76763984771, 38727.548864787685, 61253.2569471904, 94080.12408973266, 59612.43773847076, 59901.132869855515, 0.048, 0.9480000000000001, 0.128, 192.0, 0.0, 0.0, 0.0, 0.0, 0.0, 0.0, 0.0, 0.0, 0.0, 1.6665563337903843E9, 0.0, 2022-10-23 13:18:53.790
6.0, -82104.41703849043, -114475.04037321096, 47985.37319724241, 38872.343465369166, 61351.15758790465, 93703.34073344956, 58892.91273270998, 59339.388828204734, 0.048, 0.9480000000000001, 0.128, 192.0, 0.0, 0.0, 0.0, 0.0, 0.0, 0.0, 0.0, 0.0, 0.0, 1.6665563337903967E9, 0.0, 2022-10-23 13:18:53.790
7.0, -82138.54815227368, -114508.523286405, 48591.03841674786, 38990.964173193475, 61456.63546998924, 94053.92784523104, 59381.477163014075, 59953.43595188093, 0.046, 0.9520000000000001, 0.122, 192.0, 1.0, 112.0, 29.0, 192.0, 3.0, 208.0, 0.0, 0.0, 0.0, 1.6665563337904048E9, 0.0, 2022-10-23 13:18:53.790
8.0, -82163.29153338571, -114526.87406860282, 50683.51932567589, 39027.2634061889, 61503.998816490035, 94818.67043002493, 60669.74230644016, 61141.38646619159, 0.046, 0.9520000000000001, 0.122, 192.0, 0.0, 0.0, 0.0, 0.0, 0.0, 0.0, 0.0, 0.0, 0.0, 1.666556333790414E9, 0.0, 2022-10-23 13:18:53.790
9.0, -82120.84557066507, -114480.42714362469, 49712.09015990379, 38742.41277485046, 61278.55912191381, 94271.25385657, 59915.32622758463, 60199.416899611584, 0.046, 0.9520000000000001, 0.122, 192.0, 0.0, 0.0, 0.0, 0.0, 0.0, 0.0, 0.0, 0.0, 0.0, 1.666556333790422E9, 0.0, 2022-10-23 13:18:53.790
10.0, -82109.3344222706, -114480.2259779246, 48062.37495689094, 38830.25513055982, 61318.83696542227, 93709.17453875238, 58921.23239293485, 59331.990400790026, 0.046, 0.9520000000000001, 0.122, 192.0, 0.0, 0.0, 0.0, 0.0, 0.0, 0.0, 0.0, 0.0, 0.0, 1.66655633379043E9, 0.0, 2022-10-23 13:18:53.790
11.0, -82135.95534991687, -114516.36874870882, 48329.05361998721, 38943.712585414956, 61417.07288230335, 93934.21190192841, 59194.21424796752, 59759.758086175694, 0.046, 0.9520000000000001, 0.122, 192.0, 0.0, 0.0, 0.0, 0.0, 0.0, 0.0, 0.0, 0.0, 0.0, 1.666556333790438E9, 0.0, 2022-10-23 13:18:53.790
12.0, -82155.91545771545, -114525.62237091332, 50357.07209790613, 39043.82604883028, 61506.993950247044, 94710.62209732797, 60469.82830403189, 60995.58603710962, 0.046, 0.9520000000000001, 0.122, 192.0, 0.0, 0.0, 0.0, 0.0, 0.0, 0.0, 0.0, 0.0, 0.0, 1.6665563337904458E9, 0.0, 2022-10-23 13:18:53.790
13.0, -82116.15170432946, -114488.2279024396, 50130.62657482941, 38775.940391533426, 61323.3743695467, 94457.93562626072, 60191.303216374305, 60501.232504991596, 0.046, 0.9520000000000001, 0.122, 192.0, 0.0, 0.0, 0.0, 0.0, 0.0, 0.0, 0.0, 0.0, 0.0, 1.6665563337904537E9, 0.0, 2022-10-23 13:18:53.790
14.0, -82111.2790240382, -114479.91305350221, 48192.39505438746, 38801.71195289039, 61299.68152042408, 93744.19972231386, 58984.44312625446, 59370.12247683078, 0.046, 0.9520000000000001, 0.122, 192.0, 0.0, 0.0, 0.0, 0.0, 0.0, 0.0, 0.0, 0.0, 0.0, 1.6665563337904615E9, 0.0, 2022-10-23 13:18:53.790
15.0, -82147.22062912234, -114515.0276440415, 48179.565153070114, 38920.712640370446, 61400.331425706325, 93870.59883720861, 59087.81994436026, 59634.54361373706, 0.046, 0.9520000000000001, 0.122, 192.0, 0.0, 0.0, 0.0, 0.0, 0.0, 0.0, 0.0, 0.0, 0.0, 1.6665563337904696E9, 0.0, 2022-10-23 13:18:53.790
16.0, -82167.24779215429, -114534.71953090663, 50028.30028871301, 39062.8697351062, 61514.481784639574, 94625.86428235345, 60292.71308096804, 60833.24531713073, 0.046, 0.9520000000000001, 0.122, 192.0, 0.0, 0.0, 0.0, 0.0, 0.0, 0.0, 0.0, 0.0, 0.0, 1.6665563337904775E9, 0.0, 2022-10-23 13:18:53.790
17.0, -82131.46264928134, -114506.91396080423, 50509.17571892449, 38819.81686589919, 61343.200366878555, 94634.80498013557, 60453.48917883506, 60769.58754892201, 0.04, 0.9560000000000001, 0.11800000000000001, 192.0, 1.0, 64.0, 29.0, 224.0, 3.0, 176.0, 0.0, 0.0, 0.0, 1.6665563337904851E9, 0.0, 2022-10-23 13:18:53.790
18.0, -82099.34319249907, -114475.77798077799, 48398.165213843014, 38766.66441758447, 61274.89343582314, 93803.20832767586, 59097.27473226485, 59433.75789329504, 0.04, 0.9560000000000001, 0.11800000000000001, 192.0, 0.0, 0.0, 0.0, 0.0, 0.0, 0.0, 0.0, 0.0, 0.0, 1.6665563337905068E9, 0.0, 2022-10-23 13:18:53.790
19.0, -82137.65408249547, -114511.49606841756, 48101.64697189891, 38896.81862554773, 61388.216780211544, 93829.40457217749, 59024.98919069638, 59532.44084506522, 0.04, 0.9560000000000001, 0.11800000000000001, 192.0, 0.0, 0.0, 0.0, 0.0, 0.0, 0.0, 0.0, 0.0, 0.0, 1.6665563337905145E9, 0.0, 2022-10-23 13:18:53.790
20.0, -82182.60344059509, -114548.97994386911, 49610.0097429764, 39036.427621415576, 61488.911388982706, 94461.48955362912, 60026.70497020543, 60577.29549137301, 0.04, 0.9560000000000001, 0.11800000000000001, 192.0, 0.0, 0.0, 0.0, 0.0, 0.0, 0.0, 0.0, 0.0, 0.0, 1.6665563337905223E9, 0.0, 2022-10-23 13:18:53.790
21.0, -82151.9368472024, -114514.8264783414, 50748.317032851824, 38886.04508472027, 61394.028233769925, 94746.72016462329, 60618.33329419295, 60970.48502808631, 0.04, 0.9560000000000001, 0.11800000000000001, 192.0, 0.0, 0.0, 0.0, 0.0, 0.0, 0.0, 0.0, 0.0, 0.0, 1.66655633379053E9, 0.0, 2022-10-23 13:18:53.790
22.0, -82105.5793292021, -114476.269719156, 48631.606832934245, 38741.02696669423, 61249.948889011015, 93850.14699103202, 59211.58155340929, 59530.02685666405, 0.04, 0.9560000000000001, 0.11800000000000001, 192.0, 0.0, 0.0, 0.0, 0.0, 0.0, 0.0, 0.0, 0.0, 0.0, 1.666556333790538E9, 0.0, 2022-10-23 13:18:53.790
23.0, -82125.76295444525, -114494.73226007608, 47969.25758949013, 38884.636924819584, 61365.39564912268, 93730.83337912957, 58897.628950790044, 59400.05146265644, 0.04, 0.9560000000000001, 0.11800000000000001, 192.0, 0.0, 0.0, 0.0, 0.0, 0.0, 0.0, 0.0, 0.0, 0.0, 1.6665563337905457E9, 0.0, 2022-10-23 13:18:53.790
24.0, -82174.06507421315, -114542.27442053253, 49170.619150473976, 39017.00395548391, 61480.35067085632, 94295.12551964827, 59744.11186505698, 60317.61292429125, 0.04, 0.9560000000000001, 0.11800000000000001, 192.0, 0.0, 0.0, 0.0, 0.0, 0.0, 0.0, 0.0, 0.0, 0.0, 1.6665563337905536E9, 0.0, 2022-10-23 13:18:53.790
25.0, -82166.48783284282, -114543.30260077746, 50855.02426088146, 38924.5347886723, 61427.46644347507, 94831.09799994207, 60715.80925176254, 61106.4730413524, 0.04, 0.9560000000000001, 0.11800000000000001, 192.0, 0.0, 0.0, 0.0, 0.0, 0.0, 0.0, 0.0, 0.0, 0.0, 1.6665563337905617E9, 0.0, 2022-10-23 13:18:53.790
26.0, -82105.10994256854, -114481.23180642509, 48989.190040730246, 38715.881254182015, 61231.66516204658, 93977.931914083, 59431.14273919377, 59721.022513034644, 0.04, 0.9560000000000001, 0.11800000000000001, 192.0, 0.0, 0.0, 0.0, 0.0, 0.0, 0.0, 0.0, 0.0, 0.0, 1.6665563337905693E9, 0.0, 2022-10-23 13:18:53.790
27.0, -82121.96315788785, -114496.29688218796, 47945.00594675612, 38863.33571235368, 61343.60269827875, 93687.359236164, 58859.9439096384, 59329.688171111135, 0.046, 0.9540000000000001, 0.12, 192.0, 1.0, 112.0, 29.0, 208.0, 3.0, 192.0, 0.0, 0.0, 0.0, 1.6665563337905772E9, 0.0, 2022-10-23 13:18:53.790
28.0, -82166.68899854292, -114538.02758908602, 48775.328549781865, 38996.552109307304, 61458.892996179224, 94121.13954080816, 59484.89868460879, 60064.25590089034, 0.046, 0.9540000000000001, 0.12, 192.0, 0.0, 0.0, 0.0, 0.0, 0.0, 0.0, 0.0, 0.0, 0.0, 1.6665563337905865E9, 0.0, 2022-10-23 13:18:53.790
29.0, -82155.37901584852, -114536.46296697414, 50783.25280943547, 39007.683278046046, 61489.62664480528, 94838.02704072322, 60699.760699243634, 61149.52250117332, 0.046, 0.9540000000000001, 0.12, 192.0, 0.0, 0.0, 0.0, 0.0, 0.0, 0.0, 0.0, 0.0, 0.0, 1.666556333790594E9, 0.0, 2022-10-23 13:18:53.790
30.0, -82111.77076241621, -114479.30955640192, 49419.192900561444, 38734.65671952447, 61268.210264231006, 94162.4232128171, 59714.607562375975, 60003.615618183096, 0.046, 0.9540000000000001, 0.12, 192.0, 0.0, 0.0, 0.0, 0.0, 0.0, 0.0, 0.0, 0.0, 0.0, 1.6665563337906022E9, 0.0, 2022-10-23 13:18:53.790
31.0, -82129.49569576928, -114494.77696356499, 47998.04663634857, 38857.03252041728, 61338.730017987495, 93707.27464047368, 58883.525000038746, 59324.52491814196, 0.046, 0.9540000000000001, 0.12, 192.0, 0.0, 0.0, 0.0, 0.0, 0.0, 0.0, 0.0, 0.0, 0.0, 1.66655633379061E9, 0.0, 2022-10-23 13:18:53.790
32.0, -82157.45772808287, -114529.42216747072, 48488.53331667582, 38975.653228241594, 61448.410028029684, 94022.07660938223, 59302.3966911312, 59878.28938702219, 0.046, 0.9540000000000001, 0.12, 192.0, 0.0, 0.0, 0.0, 0.0, 0.0, 0.0, 0.0, 0.0, 0.0, 1.6665563337906177E9, 0.0, 2022-10-23 13:18:53.790
33.0, -82173.10394920158, -114547.21415605715, 50585.149298328084, 39040.473287161985, 61512.35836891632, 94806.48872929678, 60606.1068899759, 61096.95119821444, 0.046, 0.9540000000000001, 0.12, 192.0, 0.0, 0.0, 0.0, 0.0, 0.0, 0.0, 0.0, 0.0, 0.0, 1.6665563337906253E9, 0.0, 2022-10-23 13:18:53.790
34.0, -82125.69589921187, -114496.69921358816, 49856.88476048526, 38756.695539557404, 61295.21117153301, 94354.73762211057, 60006.52134496228, 60296.49052578098, 0.046, 0.9540000000000001, 0.12, 192.0, 0.0, 0.0, 0.0, 0.0, 0.0, 0.0, 0.0, 0.0, 0.0, 1.666556333790644E9, 0.0, 2022-10-23 13:18:53.790
35.0, -82141.69974824188, -114492.78765830847, 48093.84621308401, 38831.238607315856, 61319.75338694494, 93730.83337912957, 58929.90486978351, 59334.06911302437, 0.046, 0.9540000000000001, 0.12, 192.0, 0.0, 0.0, 0.0, 0.0, 0.0, 0.0, 0.0, 0.0, 0.0, 1.666556333790652E9, 0.0, 2022-10-23 13:18:53.790
36.0, -82168.00775146578, -114541.64857168778, 48291.9497241914, 38936.22475102243, 61416.20116426959, 93935.86593101811, 59169.80614302232, 59721.246030479204, 0.046, 0.9540000000000001, 0.12, 192.0, 0.0, 0.0, 0.0, 0.0, 0.0, 0.0, 0.0, 0.0, 0.0, 1.66655633379066E9, 0.0, 2022-10-23 13:18:53.790
37.0, -82187.96785926436, -114561.07223761943, 50288.49694591724, 39051.49269717845, 61507.17276420269, 94718.5569666096, 60444.034390930465, 60958.705658758365, 0.048, 0.9500000000000001, 0.116, 192.0, 1.0, 128.0, 29.0, 176.0, 3.0, 160.0, 0.0, 0.0, 0.0, 1.6665563337906675E9, 0.0, 2022-10-23 13:18:53.790
38.0, -82137.72113772883, -114509.86439107233, 50283.89248655945, 38786.28924921623, 61312.578476974784, 94530.86936841838, 60292.55661875685, 60586.25854089959, 0.048, 0.9500000000000001, 0.116, 192.0, 0.0, 0.0, 0.0, 0.0, 0.0, 0.0, 0.0, 0.0, 0.0, 1.666556333790676E9, 0.0, 2022-10-23 13:18:53.790
39.0, -82122.72311719932, -114501.5271903905, 48268.614502980054, 38781.43892066943, 61280.4143167036, 93764.80803070165, 59021.4799668169, 59375.4645437556, 0.048, 0.9500000000000001, 0.116, 192.0, 0.0, 0.0, 0.0, 0.0, 0.0, 0.0, 0.0, 0.0, 0.0, 1.6665563337906837E9, 0.0, 2022-10-23 13:18:53.790
40.0, -82172.43339686793, -114546.07421708993, 48157.414574314906, 38896.4833493809, 61379.834876040804, 93852.24805501082, 59059.9920225134, 59584.22983696817, 0.048, 0.9500000000000001, 0.116, 192.0, 0.0, 0.0, 0.0, 0.0, 0.0, 0.0, 0.0, 0.0, 0.0, 1.6665563337906916E9, 0.0, 2022-10-23 13:18:53.790
41.0, -82181.5976120946, -114560.04405737449, 49886.16554572172, 39039.78038308387, 61480.708298767604, 94558.29495886505, 60187.34695760572, 60724.57113558902, 0.048, 0.9500000000000001, 0.116, 192.0, 0.0, 0.0, 0.0, 0.0, 0.0, 0.0, 0.0, 0.0, 0.0, 1.6665563337906995E9, 0.0, 2022-10-23 13:18:53.790
42.0, -82135.15068711647, -114520.66028364425, 50608.81979570625, 38839.97813939788, 61355.56088156234, 94676.31216958907, 60509.77087137353, 60832.15008165242, 0.048, 0.9500000000000001, 0.116, 192.0, 0.0, 0.0, 0.0, 0.0, 0.0, 0.0, 0.0, 0.0, 0.0, 1.666556333790707E9, 0.0, 2022-10-23 13:18:53.790
43.0, -82114.40826826195, -114490.75364956303, 48470.96484553395, 38765.300961172696, 61261.99647927243, 93813.57953710313, 59122.59925873271, 59451.952213281664, 0.048, 0.9500000000000001, 0.116, 192.0, 0.0, 0.0, 0.0, 0.0, 0.0, 0.0, 0.0, 0.0, 0.0, 1.6665563337907152E9, 0.0, 2022-10-23 13:18:53.790
44.0, -82155.02138793725, -114515.94406556417, 48030.34490708648, 38892.16946270102, 61370.268329413935, 93772.07234764962, 58950.17790200447, 59463.26219597604, 0.048, 0.9500000000000001, 0.116, 192.0, 0.0, 0.0, 0.0, 0.0, 0.0, 0.0, 0.0, 0.0, 0.0, 1.6665563337907228E9, 0.0, 2022-10-23 13:18:53.790
45.0, -82175.40617888048, -114545.02368510053, 49463.672872027506, 39040.87561856218, 61495.97454023058, 94408.60532624785, 59929.00549519128, 60492.87295256531, 0.048, 0.9500000000000001, 0.116, 192.0, 0.0, 0.0, 0.0, 0.0, 0.0, 0.0, 0.0, 0.0, 0.0, 1.6665563337907307E9, 0.0, 2022-10-23 13:18:53.790
46.0, -82173.61803932405, -114544.3307810224, 50818.32269648585, 38896.05866623625, 61412.22255375655, 94796.69866522535, 60675.28553906507, 61040.714209164886, 0.044, 0.9520000000000001, 0.116, 192.0, 1.0, 96.0, 29.0, 192.0, 3.0, 160.0, 0.0, 0.0, 0.0, 1.6665563337907383E9, 0.0, 2022-10-23 13:18:53.790
47.0, -82105.8251983911, -114480.9188820027, 48774.769756170484, 38736.33310035862, 61256.83322630325, 93917.40339009803, 59305.45888012158, 59615.5222792056, 0.044, 0.9520000000000001, 0.116, 192.0, 0.0, 0.0, 0.0, 0.0, 0.0, 0.0, 0.0, 0.0, 0.0, 1.6665563337907467E9, 0.0, 2022-10-23 13:18:53.790
48.0, -82149.1875826344, -114504.00823402504, 48016.64328773538, 38870.33180836819, 61362.914605488135, 93760.56119925514, 58930.17309071697, 59412.81430874042, 0.044, 0.9520000000000001, 0.116, 192.0, 0.0, 0.0, 0.0, 0.0, 0.0, 0.0, 0.0, 0.0, 0.0, 1.6665563337907546E9, 0.0, 2022-10-23 13:18:53.790
49.0, -82185.75503656329, -114547.37061826834, 49040.46494251072, 38989.8018824818, 61445.59370822832, 94233.30059448488, 59650.03337264459, 60221.165146966596, 0.044, 0.9520000000000001, 0.116, 192.0, 0.0, 0.0, 0.0, 0.0, 0.0, 0.0, 0.0, 0.0, 0.0, 1.66655633379077E9, 0.0, 2022-10-23 13:18:53.790
50.0, -82180.23415568283, -114556.06544686145, 50860.14281036172, 38946.48420172742, 61440.29634479241, 94847.12420071653, 60723.319437899525, 61131.305829442244, 0.044, 0.9520000000000001, 0.116, 192.0, 0.0, 0.0, 0.0, 0.0, 0.0, 0.0, 0.0, 0.0, 0.0, 1.666556333790778E9, 0.0, 2022-10-23 13:18:53.790
51.0, -82118.85626540855, -114487.98203325058, 49167.48990625023, 38735.34962360259, 61255.045086746824, 94070.95987450599, 59552.17743541926, 59834.34585742305, 0.044, 0.9520000000000001, 0.116, 192.0, 0.0, 0.0, 0.0, 0.0, 0.0, 0.0, 0.0, 0.0, 0.0, 1.6665563337907856E9, 0.0, 2022-10-23 13:18:53.790
52.0, -82146.32655934413, -114515.3852719528, 48023.035886649595, 38853.1209651376, 61334.84081445227, 93739.95289086735, 58914.57157308717, 59357.20316853561, 0.044, 0.9520000000000001, 0.116, 192.0, 0.0, 0.0, 0.0, 0.0, 0.0, 0.0, 0.0, 0.0, 0.0, 1.6665563337907932E9, 0.0, 2022-10-23 13:18:53.790
53.0, -82194.56162387868, -114548.64466770229, 48739.006965042, 38982.448158556006, 61442.57622272685, 94128.47091298949, 59465.54207391049, 60023.97805738188, 0.044, 0.9520000000000001, 0.116, 192.0, 0.0, 0.0, 0.0, 0.0, 0.0, 0.0, 0.0, 0.0, 0.0, 1.666556333790801E9, 0.0, 2022-10-23 13:18:53.790
54.0, -82186.11266447457, -114550.72337993662, 50786.15853621466, 39006.09630418972, 61480.574188300874, 94857.69657584389, 60707.27088538062, 61145.67800112701, 0.044, 0.9520000000000001, 0.116, 192.0, 0.0, 0.0, 0.0, 0.0, 0.0, 0.0, 0.0, 0.0, 0.0, 1.666556333790809E9, 0.0, 2022-10-23 13:18:53.790
55.0, -82112.06133509414, -114494.32992867588, 49609.71917029848, 38731.125143900535, 61262.64467986163, 94234.6416991522, 59829.7190463208, 60090.89918028107, 0.044, 0.9520000000000001, 0.116, 192.0, 0.0, 0.0, 0.0, 0.0, 0.0, 0.0, 0.0, 0.0, 0.0, 1.6665563337908163E9, 0.0, 2022-10-23 13:18:53.790
56.0, -82115.81642816264, -114496.29688218796, 48091.61103863848, 38839.95578765342, 61327.554145759845, 93735.79546639866, 58933.8611285521, 59341.60165090581, 0.044, 0.9480000000000001, 0.122, 192.0, 1.0, 96.0, 29.0, 160.0, 3.0, 208.0, 0.0, 0.0, 0.0, 1.666556333790824E9, 0.0, 2022-10-23 13:18:53.790
57.0, -82156.16132690446, -114532.68552216119, 48467.61208386566, 38961.37046353465, 61431.31094352138, 94001.44594924999, 59276.31220535186, 59831.93186902188, 0.044, 0.9480000000000001, 0.122, 192.0, 0.0, 0.0, 0.0, 0.0, 0.0, 0.0, 0.0, 0.0, 0.0, 1.6665563337908323E9, 0.0, 2022-10-23 13:18:53.790
58.0, -82191.52178663276, -114558.52413875153, 50532.95797502494, 39036.22645571548, 61502.14362170025, 94774.16810681441, 60564.93497668922, 61055.89104365004, 0.044, 0.9480000000000001, 0.122, 192.0, 0.0, 0.0, 0.0, 0.0, 0.0, 0.0, 0.0, 0.0, 0.0, 1.6665563337908404E9, 0.0, 2022-10-23 13:18:53.790
59.0, -82137.94465517339, -114493.77113506451, 50039.230291751664, 38754.5497720897, 61292.64072092065, 94404.00086689007, 60107.70769211146, 60393.18417229464, 0.044, 0.9480000000000001, 0.122, 192.0, 0.0, 0.0, 0.0, 0.0, 0.0, 0.0, 0.0, 0.0, 0.0, 1.666556333790848E9, 0.0, 2022-10-23 13:18:53.790
60.0, -82122.07491661012, -114501.14721073475, 48164.94711219634, 38793.888842331035, 61287.768040629395, 93718.67403014589, 58945.729904857864, 59332.99622929052, 0.044, 0.9480000000000001, 0.122, 192.0, 0.0, 0.0, 0.0, 0.0, 0.0, 0.0, 0.0, 0.0, 0.0, 1.666556333790856E9, 0.0, 2022-10-23 13:18:53.790
61.0, -82148.04764366719, -114515.07234753041, 48253.30355802817, 38945.5454284603, 61415.351797980285, 93893.57643050868, 59114.12794758415, 59667.66889901983, 0.044, 0.9480000000000001, 0.122, 192.0, 0.0, 0.0, 0.0, 0.0, 0.0, 0.0, 0.0, 0.0, 0.0, 1.6665563337908635E9, 0.0, 2022-10-23 13:18:53.790
62.0, -82192.99700176681, -114553.3385340379, 50184.82955513353, 39061.21570601651, 61516.89577304075, 94672.17709686483, 60358.270747455455, 60885.39193694496, 0.044, 0.9480000000000001, 0.122, 192.0, 0.0, 0.0, 0.0, 0.0, 0.0, 0.0, 0.0, 0.0, 0.0, 1.6665563337908714E9, 0.0, 2022-10-23 13:18:53.790
63.0, -82143.19731512039, -114513.284207974, 50423.27796498275, 38799.29796448922, 61323.977866646994, 94580.60199983144, 60361.80232307939, 60666.12132383839, 0.044, 0.9480000000000001, 0.122, 192.0, 0.0, 0.0, 0.0, 0.0, 0.0, 0.0, 0.0, 0.0, 0.0, 1.6665563337908792E9, 0.0, 2022-10-23 13:18:53.790
64.0, -82121.00203287626, -114496.72156533261, 48338.5084078918, 38782.19887998091, 61271.048935776824, 93769.881876693, 59033.92988847851, 59387.914465417205, 0.044, 0.9480000000000001, 0.122, 192.0, 0.0, 0.0, 0.0, 0.0, 0.0, 0.0, 0.0, 0.0, 0.0, 1.6665563337908869E9, 0.0, 2022-10-23 13:18:53.790
65.0, -82163.15742291897, -114540.82155714293, 48116.3544197505, 38905.75932332985, 61373.554035848865, 93813.31131616967, 59002.41392879652, 59527.47875779615, 0.044, 0.9480000000000001, 0.122, 192.0, 0.0, 0.0, 0.0, 0.0, 0.0, 0.0, 0.0, 0.0, 0.0, 1.6665563337909014E9, 0.0, 2022-10-23 13:18:53.790
66.0, -82203.03293502724, -114569.18592085672, 49743.38260214122, 39034.99710977043, 61472.41580157469, 94488.78103360905, 60077.152857441055, 60620.23319247165, 0.042, 0.9500000000000001, 0.11800000000000001, 192.0, 1.0, 80.0, 29.0, 176.0, 3.0, 176.0, 0.0, 0.0, 0.0, 1.6665563337909093E9, 0.0, 2022-10-23 13:18:53.790
67.0, -82154.35083560357, -114520.19089701067, 50710.27436378889, 38849.52233428029, 61355.24795713997, 94711.44911187282, 60563.571520277445, 60895.494925438754, 0.042, 0.9500000000000001, 0.11800000000000001, 192.0, 0.0, 0.0, 0.0, 0.0, 0.0, 0.0, 0.0, 0.0, 0.0, 1.6665563337909172E9, 0.0, 2022-10-23 13:18:53.790
68.0, -82125.36062304505, -114494.70990833163, 48596.53694588387, 38734.254388124275, 61236.82841501575, 93842.36858396156, 59182.3678234062, 59491.13482131181, 0.042, 0.9500000000000001, 0.11800000000000001, 192.0, 0.0, 0.0, 0.0, 0.0, 0.0, 0.0, 0.0, 0.0, 0.0, 1.6665563337909248E9, 0.0, 2022-10-23 13:18:53.790
69.0, -82173.48392885733, -114545.783644412, 48038.95032870178, 38862.39693908655, 61341.61339302223, 93754.01213812974, 58932.96705877389, 59421.129157677795, 0.042, 0.9500000000000001, 0.11800000000000001, 192.0, 0.0, 0.0, 0.0, 0.0, 0.0, 0.0, 0.0, 0.0, 0.0, 1.6665563337909327E9, 0.0, 2022-10-23 13:18:53.790
70.0, -82185.28564992972, -114550.92454563672, 49333.965698953354, 39029.74444982343, 61479.009566189, 94343.78526732746, 59828.69086607586, 60386.97038733606, 0.042, 0.9500000000000001, 0.11800000000000001, 192.0, 0.0, 0.0, 0.0, 0.0, 0.0, 0.0, 0.0, 0.0, 0.0, 1.6665563337909424E9, 0.0, 2022-10-23 13:18:53.790
71.0, -82166.48783284282, -114522.76134762305, 50878.47124081507, 38927.842846851694, 61425.90182136319, 94824.81715975014, 60704.946303957266, 61069.436200789954, 0.042, 0.9500000000000001, 0.11800000000000001, 192.0, 0.0, 0.0, 0.0, 0.0, 0.0, 0.0, 0.0, 0.0, 0.0, 1.6665563337909503E9, 0.0, 2022-10-23 13:18:53.790
72.0, -82125.76295444525, -114487.06561172791, 48920.27961257454, 38740.33406261612, 61252.16171171209, 93964.69968136546, 59379.48785775756, 59678.77771601412, 0.042, 0.9500000000000001, 0.11800000000000001, 192.0, 0.0, 0.0, 0.0, 0.0, 0.0, 0.0, 0.0, 0.0, 0.0, 1.666556333790958E9, 0.0, 2022-10-23 13:18:53.790
73.0, -82153.61322803656, -114523.29778948997, 48028.9367471858, 38875.65152354855, 61357.61724205223, 93749.11710609403, 58915.73386379884, 59391.89307593025, 0.042, 0.9500000000000001, 0.11800000000000001, 192.0, 0.0, 0.0, 0.0, 0.0, 0.0, 0.0, 0.0, 0.0, 0.0, 1.6665563337909687E9, 0.0, 2022-10-23 13:18:53.790
74.0, -82183.54221386221, -114563.44152253169, 48978.349444669424, 39005.783379767345, 61462.29046133644, 94221.65533562367, 59608.01209306862, 60162.98355614943, 0.042, 0.9500000000000001, 0.11800000000000001, 192.0, 0.0, 0.0, 0.0, 0.0, 0.0, 0.0, 0.0, 0.0, 0.0, 1.6665563337909763E9, 0.0, 2022-10-23 13:18:53.790
75.0, -82179.22832718234, -114541.24624028758, 50898.74427303604, 38973.88744042962, 61454.62381298826, 94878.72956737633, 60749.40392367887, 61156.898576843574, 0.044, 0.9540000000000001, 0.11800000000000001, 192.0, 1.0, 96.0, 29.0, 208.0, 3.0, 176.0, 0.0, 0.0, 0.0, 1.6665563337909846E9, 0.0, 2022-10-23 13:18:53.790
76.0, -82114.8329514066, -114490.82070479641, 49349.72367879435, 38737.56244630366, 61259.85071180472, 94140.20557882854, 59654.973108169215, 59946.10457969959, 0.044, 0.9540000000000001, 0.11800000000000001, 192.0, 0.0, 0.0, 0.0, 0.0, 0.0, 0.0, 0.0, 0.0, 0.0, 1.6665563337909932E9, 0.0, 2022-10-23 13:18:53.790
77.0, -82142.21383836435, -114491.89358853026, 48044.89589272689, 38848.74002322436, 61325.721302714504, 93734.4767134758, 58900.98171245834, 59348.66480215369, 0.044, 0.9540000000000001, 0.11800000000000001, 192.0, 0.0, 0.0, 0.0, 0.0, 0.0, 0.0, 0.0, 0.0, 0.0, 1.6665563337910013E9, 0.0, 2022-10-23 13:18:53.791
78.0, -82176.83669052563, -114532.39494948328, 48621.727361885, 38972.05459738429, 61431.93679236613, 94067.42829888205, 59361.31588951539, 59935.62161155005, 0.044, 0.9540000000000001, 0.11800000000000001, 192.0, 0.0, 0.0, 0.0, 0.0, 0.0, 0.0, 0.0, 0.0, 0.0, 1.6665563337910094E9, 0.0, 2022-10-23 13:18:53.791
79.0, -82187.38671390852, -114556.42307477273, 50719.148006337644, 39019.14972295162, 61493.22527566258, 94839.97164249083, 60652.6655736763, 61128.13188172959, 0.044, 0.9540000000000001, 0.11800000000000001, 192.0, 0.0, 0.0, 0.0, 0.0, 0.0, 0.0, 0.0, 0.0, 0.0, 1.6665563337910173E9, 0.0, 2022-10-23 13:18:53.791
80.0, -82150.41692857945, -114519.78856561048, 49735.89476774869, 38722.743239729796, 61250.440627389034, 94274.42780428265, 59882.82679114662, 60172.036012653836, 0.044, 0.9540000000000001, 0.11800000000000001, 192.0, 0.0, 0.0, 0.0, 0.0, 0.0, 0.0, 0.0, 0.0, 0.0, 1.6665563337910323E9, 0.0, 2022-10-23 13:18:53.791
81.0, -82131.21678009233, -114483.89166401526, 48087.11833800296, 38838.03353763027, 61318.50168925544, 93719.79161736865, 58896.377253100545, 59317.9535052721, 0.044, 0.9540000000000001, 0.11800000000000001, 192.0, 0.0, 0.0, 0.0, 0.0, 0.0, 0.0, 0.0, 0.0, 0.0, 1.66655633379104E9, 0.0, 2022-10-23 13:18:53.791
82.0, -82164.52087933074, -114529.64568491527, 48392.66668470701, 38961.03518736782, 61437.59178371332, 93975.67438789301, 59209.435785941576, 59779.69584222983, 0.044, 0.9540000000000001, 0.11800000000000001, 192.0, 0.0, 0.0, 0.0, 0.0, 0.0, 0.0, 0.0, 0.0, 0.0, 1.6665563337910478E9, 0.0, 2022-10-23 13:18:53.791
83.0, -82201.04362977072, -114585.43563907572, 50450.48003798485, 39061.88625835017, 61516.091110240355, 94773.11757482501, 60512.631894663806, 61039.238994030835, 0.044, 0.9540000000000001, 0.11800000000000001, 192.0, 0.0, 0.0, 0.0, 0.0, 0.0, 0.0, 0.0, 0.0, 0.0, 1.6665563337910557E9, 0.0, 2022-10-23 13:18:53.791
84.0, -82135.24009409429, -114503.56119913593, 50199.29113379611, 38786.04338002722, 61304.88947688216, 94489.16101326478, 60202.09910894622, 60511.983694074595, 0.044, 0.9540000000000001, 0.11800000000000001, 192.0, 0.0, 0.0, 0.0, 0.0, 0.0, 0.0, 0.0, 0.0, 0.0, 1.6665563337910635E9, 0.0, 2022-10-23 13:18:53.791
85.0, -82123.6842422109, -114497.39211766627, 48221.49702566827, 38817.49228447584, 61296.35111050023, 93753.16277184043, 58967.03111732377, 59359.75126740352, 0.04, 0.9520000000000001, 0.112, 192.0, 1.0, 64.0, 29.0, 192.0, 3.0, 128.0, 0.0, 0.0, 0.0, 1.6665563337910712E9, 0.0, 2022-10-23 13:18:53.791
86.0, -82146.6841872554, -114519.52034467702, 48206.72252258331, 38939.13047780162, 61406.56756240936, 93886.84855542763, 59074.83358083172, 59631.99551486916, 0.04, 0.9520000000000001, 0.112, 192.0, 0.0, 0.0, 0.0, 0.0, 0.0, 0.0, 0.0, 0.0, 0.0, 1.6665563337910795E9, 0.0, 2022-10-23 13:18:53.791
87.0, -82184.05630398469, -114544.46489148914, 50037.46450393969, 39064.724929895994, 61509.92202877069, 94626.91481434285, 60264.46047597653, 60815.0062936552, 0.04, 0.9520000000000001, 0.112, 192.0, 0.0, 0.0, 0.0, 0.0, 0.0, 0.0, 0.0, 0.0, 0.0, 1.6665563337910872E9, 0.0, 2022-10-23 13:18:53.791
88.0, -82149.23228612331, -114521.42024295572, 50570.73242315441, 38833.339671294656, 61351.47051232702, 94669.00314915218, 60468.04016447547, 60787.69246193081, 0.04, 0.9520000000000001, 0.112, 192.0, 0.0, 0.0, 0.0, 0.0, 0.0, 0.0, 0.0, 0.0, 0.0, 1.666556333791095E9, 0.0, 2022-10-23 13:18:53.791
89.0, -82147.01946342224, -114528.61750467033, 48430.44113283648, 38756.427318623944, 61249.16657795508, 93806.00229573277, 59084.243665247406, 59436.48480611859, 0.04, 0.9520000000000001, 0.112, 192.0, 0.0, 0.0, 0.0, 0.0, 0.0, 0.0, 0.0, 0.0, 0.0, 1.666556333791103E9, 0.0, 2022-10-23 13:18:53.791
90.0, -82169.12533868854, -114541.76033041005, 48122.99288785373, 38893.17529120151, 61362.31110838785, 93823.92839478594, 59002.59274275217, 59533.78194973254, 0.04, 0.9520000000000001, 0.112, 192.0, 0.0, 0.0, 0.0, 0.0, 0.0, 0.0, 0.0, 0.0, 0.0, 1.6665563337911105E9, 0.0, 2022-10-23 13:18:53.791
91.0, -82185.28564992972, -114551.93037413721, 49632.24972870943, 39058.44408970405, 61494.074641951884, 94470.67612060024, 60013.83036539917, 60597.501468360606, 0.04, 0.9520000000000001, 0.112, 192.0, 0.0, 0.0, 0.0, 0.0, 0.0, 0.0, 0.0, 0.0, 0.0, 1.666556333791118E9, 0.0, 2022-10-23 13:18:53.791
92.0, -82160.69873102888, -114528.37163548132, 50806.118644013244, 38893.68938132398, 61398.45387917208, 94777.96790337181, 60635.63354440136, 61010.60640938359, 0.04, 0.9520000000000001, 0.112, 192.0, 0.0, 0.0, 0.0, 0.0, 0.0, 0.0, 0.0, 0.0, 0.0, 1.6665563337911265E9, 0.0, 2022-10-23 13:18:53.791
93.0, -82117.09047759659, -114495.64868159876, 48738.67168887516, 38760.47298437035, 61269.21609273149, 93918.47627383188, 59274.25584486197, 59607.855630857426, 0.04, 0.9520000000000001, 0.112, 192.0, 0.0, 0.0, 0.0, 0.0, 0.0, 0.0, 0.0, 0.0, 0.0, 1.6665563337911344E9, 0.0, 2022-10-23 13:18:53.791
94.0, -82145.92422794393, -114520.10149003286, 48068.27581742714, 38904.418218662526, 61378.24790218448, 93788.72439726883, 58951.80957934971, 59465.49737042157, 0.04, 0.9520000000000001, 0.112, 192.0, 0.0, 0.0, 0.0, 0.0, 0.0, 0.0, 0.0, 0.0, 0.0, 1.666556333791142E9, 0.0, 2022-10-23 13:18:53.791
95.0, -82181.86583302806, -114545.87305138983, 49223.19045343286, 39029.54328412334, 61478.1601998997, 94319.73479029356, 59758.14876057491, 60343.96563100405, 0.04, 0.9520000000000001, 0.12, 192.0, 1.0, 64.0, 29.0, 192.0, 3.0, 192.0, 0.0, 0.0, 0.0, 1.6665563337911506E9, 0.0, 2022-10-23 13:18:53.791
96.0, -82170.62290556704, -114538.1840512972, 50904.60043008333, 38949.27816978433, 61437.63648720223, 94855.2825874427, 60723.744121044176, 61130.85879455314, 0.04, 0.9520000000000001, 0.12, 192.0, 0.0, 0.0, 0.0, 0.0, 0.0, 0.0, 0.0, 0.0, 0.0, 1.6665563337911665E9, 0.0, 2022-10-23 13:18:53.791
97.0, -82116.4869804963, -114487.51264661702, 49093.6844460588, 38739.99878644929, 61255.201548958015, 94042.32728985875, 59484.58576018641, 59787.04956615563, 0.04, 0.9520000000000001, 0.12, 192.0, 0.0, 0.0, 0.0, 0.0, 0.0, 0.0, 0.0, 0.0, 0.0, 1.6665563337911747E9, 0.0, 2022-10-23 13:18:53.791
98.0, -82149.7910797347, -114519.1850685102, 48054.015404464655, 38866.42025308851, 61337.053637153345, 93752.2239985733, 58912.69402655292, 59385.58988399385, 0.04, 0.9520000000000001, 0.12, 192.0, 0.0, 0.0, 0.0, 0.0, 0.0, 0.0, 0.0, 0.0, 0.0, 1.6665563337911825E9, 0.0, 2022-10-23 13:18:53.791
99.0, -82171.9416584899, -114542.9896763551, 48861.00278627906, 39003.63761229964, 61452.99213564303, 94171.6321315327, 59516.72756871314, 60099.303436196264, 0.04, 0.9520000000000001, 0.12, 192.0, 0.0, 0.0, 0.0, 0.0, 0.0, 0.0, 0.0, 0.0, 0.0, 1.6665563337911904E9, 0.0, 2022-10-23 13:18:53.791
100.0, -82187.36436216407, -114557.96534514015, 50850.665670712675, 38992.66290577208, 61466.69375499413, 94865.40792768096, 60712.0318069496, 61165.12401880313, 0.04, 0.9520000000000001, 0.12, 192.0, 0.0, 0.0, 0.0, 0.0, 0.0, 0.0, 0.0, 0.0, 0.0, 1.666556333791198E9, 0.0, 2022-10-23 13:18:53.791
101.0, -82124.86888466703, -114492.22886469708, 49497.08872998819, 38728.15236188798, 61243.60099358571, 94186.42898636211, 59732.82423410705, 60016.11024333361, 0.04, 0.9520000000000001, 0.12, 192.0, 0.0, 0.0, 0.0, 0.0, 0.0, 0.0, 0.0, 0.0, 0.0, 1.6665563337912064E9, 0.0, 2022-10-23 13:18:53.791
102.0, -82132.02144289273, -114498.08502174438, 48077.95412277629, 38848.38239531308, 61319.08283461128, 93735.0802105761, 58905.63087530505, 59338.293592726426, 0.04, 0.9520000000000001, 0.12, 192.0, 0.0, 0.0, 0.0, 0.0, 0.0, 0.0, 0.0, 0.0, 0.0, 1.666556333791214E9, 0.0, 2022-10-23 13:18:53.791
103.0, -82165.05732119767, -114529.91390584873, 48547.363108082194, 38971.78637645082, 61425.141862051714, 94032.82779846524, 59305.52593535494, 59875.92010210993, 0.04, 0.9520000000000001, 0.12, 192.0, 0.0, 0.0, 0.0, 0.0, 0.0, 0.0, 0.0, 0.0, 0.0, 1.6665563337912219E9, 0.0, 2022-10-23 13:18:53.791
104.0, -82193.53344363373, -114565.3414208104, 50637.11710418667, 39032.20314171352, 61483.90459822472, 94811.45081656586, 60602.64236958532, 61095.07365168019, 0.04, 0.9520000000000001, 0.12, 192.0, 0.0, 0.0, 0.0, 0.0, 0.0, 0.0, 0.0, 0.0, 0.0, 1.6665563337912295E9, 0.0, 2022-10-23 13:18:53.791
105.0, -82132.7366987153, -114501.99657702407, 49920.587232182894, 38749.498277842795, 61267.18208398606, 94359.83381984638, 60008.845926385635, 60307.55463928636, 0.04, 0.9500000000000001, 0.122, 192.0, 1.0, 64.0, 29.0, 176.0, 3.0, 208.0, 0.0, 0.0, 0.0, 1.666556333791237E9, 0.0, 2022-10-23 13:18:53.791
106.0, -82133.94369291588, -114495.62632985429, 48163.11426915101, 38816.48645597535, 61289.82440111929, 93743.50681823574, 58941.751294344824, 59338.09242702633, 0.04, 0.9500000000000001, 0.122, 192.0, 0.0, 0.0, 0.0, 0.0, 0.0, 0.0, 0.0, 0.0, 0.0, 1.6665563337912457E9, 0.0, 2022-10-23 13:18:53.791
107.0, -82169.46061485537, -114533.66899891723, 48333.07693398916, 38937.81172487876, 61399.77263209494, 93936.4694281184, 59158.116180672194, 59705.33158842702, 0.04, 0.9500000000000001, 0.122, 192.0, 0.0, 0.0, 0.0, 0.0, 0.0, 0.0, 0.0, 0.0, 0.0, 1.6665563337912543E9, 0.0, 2022-10-23 13:18:53.791
108.0, -82193.06405700017, -114555.73017069462, 50355.999214172276, 39067.78711888637, 61515.331150928876, 94746.83192334557, 60457.98187947058, 60974.62010081054, 0.04, 0.9500000000000001, 0.122, 192.0, 0.0, 0.0, 0.0, 0.0, 0.0, 0.0, 0.0, 0.0, 0.0, 1.6665563337912624E9, 0.0, 2022-10-23 13:18:53.791
109.0, -82135.30714932767, -114517.44163244267, 50389.683293066424, 38803.58949942464, 61315.84183166526, 94583.28420916609, 60335.60607857777, 60635.83471010145, 0.04, 0.9500000000000001, 0.122, 192.0, 0.0, 0.0, 0.0, 0.0, 0.0, 0.0, 0.0, 0.0, 0.0, 1.6665563337912705E9, 0.0, 2022-10-23 13:18:53.791
110.0, -82117.11282934104, -114507.60686488234, 48336.38499216855, 38807.34459249313, 61270.89247356564, 93794.04411244919, 59032.700542533465, 59395.08937538736, 0.04, 0.9500000000000001, 0.122, 192.0, 0.0, 0.0, 0.0, 0.0, 0.0, 0.0, 0.0, 0.0, 0.0, 1.666556333791278E9, 0.0, 2022-10-23 13:18:53.791
111.0, -82144.15844013196, -114502.42126016872, 48200.262868435726, 38929.876855597126, 61376.6385765837, 93869.34713951912, 59053.42060964354, 59588.901351559325, 0.04, 0.9500000000000001, 0.122, 192.0, 0.0, 0.0, 0.0, 0.0, 0.0, 0.0, 0.0, 0.0, 0.0, 1.666556333791293E9, 0.0, 2022-10-23 13:18:53.791
112.0, -82183.54221386221, -114543.16849031074, 49921.011915327545, 39070.938714854565, 61495.57220883039, 94578.7691567861, 60179.657957513096, 60741.156129974865, 0.04, 0.9500000000000001, 0.122, 192.0, 0.0, 0.0, 0.0, 0.0, 0.0, 0.0, 0.0, 0.0, 0.0, 1.6665563337913005E9, 0.0, 2022-10-23 13:18:53.791
113.0, -82154.66376002596, -114521.66611214473, 50688.749633878426, 38854.79734597175, 61359.29362288638, 94716.5006061197, 60534.7377699301, 60879.066393264104, 0.04, 0.9500000000000001, 0.122, 192.0, 0.0, 0.0, 0.0, 0.0, 0.0, 0.0, 0.0, 0.0, 0.0, 1.6665563337913103E9, 0.0, 2022-10-23 13:18:53.791
114.0, -82145.96893143284, -114517.24046674257, 48554.71683200799, 38743.01627195076, 61231.843976002216, 93845.43077295194, 59146.82854972227, 59477.23203626061, 0.042, 0.9540000000000001, 0.122, 192.0, 1.0, 80.0, 29.0, 208.0, 3.0, 208.0, 0.0, 0.0, 0.0, 1.666556333791318E9, 0.0, 2022-10-23 13:18:53.791
115.0, -82166.04079795371, -114530.24918201557, 48114.678038916354, 38880.81477651773, 61340.831081966295, 93806.11405445506, 58975.927111616984, 59481.92590259623, 0.042, 0.9540000000000001, 0.122, 192.0, 0.0, 0.0, 0.0, 0.0, 0.0, 0.0, 0.0, 0.0, 0.0, 1.6665563337913263E9, 0.0, 2022-10-23 13:18:53.791
116.0, -82185.86679528556, -114551.70685669266, 49514.23251798541, 39045.10009826423, 61472.23698761904, 94419.64708800877, 59926.39034109001, 60497.45506017865, 0.042, 0.9540000000000001, 0.122, 192.0, 0.0, 0.0, 0.0, 0.0, 0.0, 0.0, 0.0, 0.0, 0.0, 1.666556333791334E9, 0.0, 2022-10-23 13:18:53.791
117.0, -82163.13507117452, -114539.6369146868, 50883.99212169553, 38914.208282733955, 61402.141917007204, 94811.60727877704, 60679.085335622476, 61057.008630872806, 0.042, 0.9540000000000001, 0.122, 192.0, 0.0, 0.0, 0.0, 0.0, 0.0, 0.0, 0.0, 0.0, 0.0, 1.666556333791342E9, 0.0, 2022-10-23 13:18:53.791
118.0, -82124.64536722247, -114500.14138223427, 48897.123205318836, 38741.27283588325, 61239.667086561574, 93964.90084706555, 59353.716296400584, 59651.24036684518, 0.042, 0.9540000000000001, 0.122, 192.0, 0.0, 0.0, 0.0, 0.0, 0.0, 0.0, 0.0, 0.0, 0.0, 1.6665563337913496E9, 0.0, 2022-10-23 13:18:53.791
119.0, -82157.83770773861, -114527.2316965141, 48075.18250646383, 38875.24919214835, 61329.74461671646, 93758.97422539881, 58918.7066458114, 59397.95039867764, 0.042, 0.9540000000000001, 0.122, 192.0, 0.0, 0.0, 0.0, 0.0, 0.0, 0.0, 0.0, 0.0, 0.0, 1.6665563337913575E9, 0.0, 2022-10-23 13:18:53.791
120.0, -82197.10972274658, -114564.33559230992, 49108.57070786604, 39011.12544669217, 61445.63841171723, 94256.81462965187, 59657.74472448167, 60238.085417519265, 0.042, 0.9540000000000001, 0.122, 192.0, 0.0, 0.0, 0.0, 0.0, 0.0, 0.0, 0.0, 0.0, 0.0, 1.6665563337913651E9, 0.0, 2022-10-23 13:18:53.791
121.0, -82176.83669052563, -114552.15389158177, 50926.95217453864, 38962.89038215761, 61429.20987954258, 94858.97062527784, 60722.96180998824, 61143.845158081676, 0.042, 0.9540000000000001, 0.122, 192.0, 0.0, 0.0, 0.0, 0.0, 0.0, 0.0, 0.0, 0.0, 0.0, 1.666556334269018E9, 0.0, 2022-10-23 13:18:54.269
122.0, -82125.36062304505, -114508.12095500481, 49232.37702040399, 38727.258292109764, 61224.78082475434, 94067.8976855156, 59540.331010857946, 59832.84829054455, 0.042, 0.9540000000000001, 0.122, 192.0, 0.0, 0.0, 0.0, 0.0, 0.0, 0.0, 0.0, 0.0, 0.0, 1.6665563342690892E9, 0.0, 2022-10-23 13:18:54.269
123.0, -82141.56563777514, -114515.20645799715, 48052.78605851961, 38858.97712218489, 61312.75729093043, 93723.5243586927, 58879.054651147686, 59335.29845896942, 0.042, 0.9540000000000001, 0.122, 192.0, 0.0, 0.0, 0.0, 0.0, 0.0, 0.0, 0.0, 0.0, 0.0, 1.6665563342691193E9, 0.0, 2022-10-23 13:18:54.269
124.0, -82172.03106546773, -114543.34730426638, 48755.14492453873, 38984.19159462352, 61421.74439689451, 94111.52829069237, 59429.24284091507, 60006.119013562085, 0.042, 0.9520000000000001, 0.11800000000000001, 192.0, 1.0, 80.0, 29.0, 192.0, 3.0, 176.0, 0.0, 0.0, 0.0, 1.6665563342691276E9, 0.0, 2022-10-23 13:18:54.269
125.0, -82180.7482458053, -114550.76808342554, 50819.44028370861, 39005.40340011161, 61454.98144089955, 94856.0872502431, 60689.076565393996, 61152.562338419244, 0.042, 0.9520000000000001, 0.11800000000000001, 192.0, 0.0, 0.0, 0.0, 0.0, 0.0, 0.0, 0.0, 0.0, 0.0, 1.666556334269137E9, 0.0, 2022-10-23 13:18:54.269
126.0, -82117.00107061876, -114487.78086755048, 49694.16406085063, 38751.01819646576, 61255.201548958015, 94273.75725194899, 59853.83657858808, 60143.917518129056, 0.042, 0.9520000000000001, 0.11800000000000001, 192.0, 0.0, 0.0, 0.0, 0.0, 0.0, 0.0, 0.0, 0.0, 0.0, 1.6665563342691453E9, 0.0, 2022-10-23 13:18:54.269
127.0, -82134.97187316083, -114505.88578055929, 48154.35238532453, 38838.23470333037, 61299.99444484645, 93763.64573998997, 58938.97967803237, 59362.45582848261, 0.042, 0.9520000000000001, 0.11800000000000001, 192.0, 0.0, 0.0, 0.0, 0.0, 0.0, 0.0, 0.0, 0.0, 0.0, 1.6665563342692757E9, 0.0, 2022-10-23 13:18:54.269
128.0, -82166.24196365381, -114540.97801935411, 48501.67614241554, 38949.166411062055, 61389.17790522312, 94006.29627779679, 59254.76512369694, 59821.18067993888, 0.042, 0.9520000000000001, 0.11800000000000001, 192.0, 0.0, 0.0, 0.0, 0.0, 0.0, 0.0, 0.0, 0.0, 0.0, 1.6665563342692847E9, 0.0, 2022-10-23 13:18:54.269
129.0, -82189.84540579861, -114558.25591781807, 50568.11726905314, 39033.65600510311, 61466.42553406067, 94782.25943830723, 60547.142988102794, 61046.36920051208, 0.042, 0.9520000000000001, 0.11800000000000001, 192.0, 0.0, 0.0, 0.0, 0.0, 0.0, 0.0, 0.0, 0.0, 0.0, 1.6665563342692933E9, 0.0, 2022-10-23 13:18:54.269
130.0, -82142.90674244246, -114521.66611214473, 50102.61983902691, 38744.58089406263, 61255.42506640257, 94420.11647464235, 60107.52887815582, 60397.2074862966, 0.042, 0.9520000000000001, 0.11800000000000001, 192.0, 0.0, 0.0, 0.0, 0.0, 0.0, 0.0, 0.0, 0.0, 0.0, 1.6665563342693012E9, 0.0, 2022-10-23 13:18:54.269
131.0, -82134.56954176063, -114511.20549573965, 48229.94598507237, 38792.86066208609, 61262.21999671698, 93742.47863799079, 58952.27896598327, 59336.23723223653, 0.042, 0.9520000000000001, 0.11800000000000001, 192.0, 0.0, 0.0, 0.0, 0.0, 0.0, 0.0, 0.0, 0.0, 0.0, 1.6665563342693093E9, 0.0, 2022-10-23 13:18:54.269
132.0, -82144.1360883875, -114514.6253126413, 48309.02645695525, 38929.69804164148, 61386.74156507749, 93909.04383767175, 59118.10655809719, 59663.17619838431, 0.042, 0.9520000000000001, 0.11800000000000001, 192.0, 0.0, 0.0, 0.0, 0.0, 0.0, 0.0, 0.0, 0.0, 0.0, 1.6665563342693176E9, 0.0, 2022-10-23 13:18:54.269
133.0, -82184.5480423627, -114557.58536548441, 50222.872224196464, 39055.292493735855, 61491.72770878407, 94675.03812015512, 60354.403895664684, 60882.8214863326, 0.042, 0.9520000000000001, 0.11800000000000001, 192.0, 0.0, 0.0, 0.0, 0.0, 0.0, 0.0, 0.0, 0.0, 0.0, 1.6665563342693255E9, 0.0, 2022-10-23 13:18:54.269
134.0, -82156.89893447148, -114527.00817906955, 50498.62569554159, 38796.59340341013, 61303.86129663722, 94601.90321229736, 60383.19294252312, 60689.68006249429, 0.044, 0.9520000000000001, 0.122, 192.0, 1.0, 96.0, 29.0, 192.0, 3.0, 208.0, 0.0, 0.0, 0.0, 1.6665563342693374E9, 0.0, 2022-10-23 13:18:54.269
135.0, -82130.94855915887, -114500.99074852357, 48383.72598692489, 38765.658589083985, 61231.12872017965, 93772.07234764962, 59029.25837388735, 59379.241988568545, 0.044, 0.9520000000000001, 0.122, 192.0, 0.0, 0.0, 0.0, 0.0, 0.0, 0.0, 0.0, 0.0, 0.0, 1.6665563342693465E9, 0.0, 2022-10-23 13:18:54.269
136.0, -82158.24003913881, -114523.0295685565, 48142.61771948549, 38908.86621580913, 61356.969041463024, 93812.46194988037, 58986.499486744346, 59515.96760940166, 0.044, 0.9520000000000001, 0.122, 192.0, 0.0, 0.0, 0.0, 0.0, 0.0, 0.0, 0.0, 0.0, 0.0, 1.6665563342693543E9, 0.0, 2022-10-23 13:18:54.269
137.0, -82206.22923448434, -114567.33072606692, 49760.61579711626, 39041.523819151385, 61471.34291784083, 94494.88305984534, 60060.433752588484, 60617.88625930384, 0.044, 0.9520000000000001, 0.122, 192.0, 0.0, 0.0, 0.0, 0.0, 0.0, 0.0, 0.0, 0.0, 0.0, 1.6665563342693624E9, 0.0, 2022-10-23 13:18:54.269
138.0, -82179.38478939353, -114540.46392923164, 50742.371468826714, 38844.78376445577, 61347.91658495863, 94716.99234449773, 60555.52489227353, 60904.77089938771, 0.044, 0.9520000000000001, 0.122, 192.0, 0.0, 0.0, 0.0, 0.0, 0.0, 0.0, 0.0, 0.0, 0.0, 1.6665563342693703E9, 0.0, 2022-10-23 13:18:54.269
139.0, -82129.47334402482, -114507.2268852266, 48638.737039415486, 38737.71890851485, 61236.00140047091, 93859.8029446367, 59185.09473622975, 59507.183373830725, 0.044, 0.9520000000000001, 0.122, 192.0, 0.0, 0.0, 0.0, 0.0, 0.0, 0.0, 0.0, 0.0, 0.0, 1.666556334269378E9, 0.0, 2022-10-23 13:18:54.269
140.0, -82151.10983265756, -114527.65637965876, 48086.380730435936, 38884.83809051968, 61355.940861218085, 93787.3832926015, 58945.104056013115, 59453.04744875997, 0.044, 0.9520000000000001, 0.122, 192.0, 0.0, 0.0, 0.0, 0.0, 0.0, 0.0, 0.0, 0.0, 0.0, 1.6665563342693863E9, 0.0, 2022-10-23 13:18:54.269
141.0, -82188.01256275327, -114554.3443625384, 49338.748972266796, 39028.17982771157, 61465.03972590443, 94347.3168429514, 59804.081595430565, 60390.52431470446, 0.044, 0.9520000000000001, 0.122, 192.0, 0.0, 0.0, 0.0, 0.0, 0.0, 0.0, 0.0, 0.0, 0.0, 1.666556334269395E9, 0.0, 2022-10-23 13:18:54.269
142.0, -82175.71910330285, -114549.89636539179, 50877.68892975914, 38920.623233392624, 61406.45580368707, 94815.18355788989, 60669.27291980659, 61077.639291005056, 0.044, 0.9520000000000001, 0.122, 192.0, 0.0, 0.0, 0.0, 0.0, 0.0, 0.0, 0.0, 0.0, 0.0, 1.6665563342694142E9, 0.0, 2022-10-23 13:18:54.269
143.0, -82129.09336436908, -114508.23271372709, 48962.70322355071, 38724.57608277513, 61230.05583644579, 93978.35659722766, 59373.51994198799, 59695.38506214441, 0.05, 0.9540000000000001, 0.122, 192.0, 1.0, 144.0, 29.0, 208.0, 3.0, 208.0, 0.0, 0.0, 0.0, 1.6665563342694223E9, 0.0, 2022-10-23 13:18:54.269
144.0, -82156.20603039337, -114528.84102211488, 48048.203950906274, 38857.63601751757, 61325.65424748114, 93750.90524565044, 58890.52109605326, 59380.3148723024, 0.05, 0.9540000000000001, 0.122, 192.0, 0.0, 0.0, 0.0, 0.0, 0.0, 0.0, 0.0, 0.0, 0.0, 1.666556334269431E9, 0.0, 2022-10-23 13:18:54.269
145.0, -82192.21469071087, -114555.57370848343, 48953.740174024126, 38990.114806904174, 61437.41296975768, 94198.94596325708, 59551.48453134114, 60137.43551223702, 0.05, 0.9540000000000001, 0.122, 192.0, 0.0, 0.0, 0.0, 0.0, 0.0, 0.0, 0.0, 0.0, 0.0, 1.6665563342694392E9, 0.0, 2022-10-23 13:18:54.269
146.0, -82191.14180697702, -114558.30062130697, 50873.59856052382, 38972.56868750676, 61448.32062105187, 94853.7403170753, 60694.21746661872, 61140.112416757634, 0.05, 0.9540000000000001, 0.122, 192.0, 0.0, 0.0, 0.0, 0.0, 0.0, 0.0, 0.0, 0.0, 0.0, 1.6665563342694468E9, 0.0, 2022-10-23 13:18:54.269
147.0, -82133.18373360441, -114508.90326606075, 49367.605074358595, 38727.481809554316, 61252.78756055684, 94138.08216310528, 59633.49308174766, 59938.08030344013, 0.05, 0.9540000000000001, 0.122, 192.0, 0.0, 0.0, 0.0, 0.0, 0.0, 0.0, 0.0, 0.0, 0.0, 1.6665563342694547E9, 0.0, 2022-10-23 13:18:54.269
148.0, -82149.67932101242, -114517.75455686505, 48061.838515024014, 38848.51650577981, 61327.01770389292, 93741.74103042377, 58887.5483140407, 59346.85431085281, 0.05, 0.9540000000000001, 0.122, 192.0, 0.0, 0.0, 0.0, 0.0, 0.0, 0.0, 0.0, 0.0, 0.0, 1.6665563342694628E9, 0.0, 2022-10-23 13:18:54.269
149.0, -82184.5033388738, -114551.37158052584, 48623.71666714152, 38968.00893163788, 61427.13116730824, 94073.77619430736, 59344.12739802926, 59926.94913470139, 0.05, 0.9540000000000001, 0.122, 192.0, 0.0, 0.0, 0.0, 0.0, 0.0, 0.0, 0.0, 0.0, 0.0, 1.6665563342694707E9, 0.0, 2022-10-23 13:18:54.269
150.0, -82193.26522270027, -114562.63685973131, 50717.98571562597, 39030.951444024024, 61494.47697335207, 94851.66160484095, 60637.265221746595, 61130.43411140849, 0.05, 0.9540000000000001, 0.122, 192.0, 0.0, 0.0, 0.0, 0.0, 0.0, 0.0, 0.0, 0.0, 0.0, 1.6665563342694783E9, 0.0, 2022-10-23 13:18:54.269
151.0, -82133.47430628233, -114504.43291716969, 49806.12394882726, 38752.0463767107, 61276.83803759075, 94335.64923234574, 59923.082282910626, 60230.57523138228, 0.05, 0.9540000000000001, 0.122, 192.0, 0.0, 0.0, 0.0, 0.0, 0.0, 0.0, 0.0, 0.0, 0.0, 1.6665563342694862E9, 0.0, 2022-10-23 13:18:54.269
152.0, -82132.93786441539, -114503.49414390257, 48116.1085505615, 38827.81879041419, 61301.42495649159, 93746.43489675938, 58897.60659904559, 59331.61042113429, 0.05, 0.9540000000000001, 0.122, 192.0, 0.0, 0.0, 0.0, 0.0, 0.0, 0.0, 0.0, 0.0, 0.0, 1.6665563342694943E9, 0.0, 2022-10-23 13:18:54.269
153.0, -82159.35762636157, -114528.75161513707, 48368.727966395374, 38950.66397794056, 61410.97085606705, 93965.86197207714, 59165.3134423868, 59753.87957738395, 0.05, 0.9560000000000001, 0.12, 192.0, 1.0, 144.0, 29.0, 224.0, 3.0, 192.0, 0.0, 0.0, 0.0, 1.6665563342695017E9, 0.0, 2022-10-23 13:18:54.269
154.0, -82203.68113561644, -114568.58242375642, 50406.73767408582, 39056.25361874743, 61499.595522832344, 94751.6599001479, 60455.94787072514, 60998.759984822274, 0.05, 0.9560000000000001, 0.12, 192.0, 0.0, 0.0, 0.0, 0.0, 0.0, 0.0, 0.0, 0.0, 0.0, 1.66655633426951E9, 0.0, 2022-10-23 13:18:54.269
155.0, -82159.29057112821, -114525.89059184678, 50204.52144199866, 38773.77227232126, 61293.13245929867, 94494.07839704496, 60182.87660871466, 60509.52500218451, 0.05, 0.9560000000000001, 0.12, 192.0, 0.0, 0.0, 0.0, 0.0, 0.0, 0.0, 0.0, 0.0, 0.0, 1.666556334269518E9, 0.0, 2022-10-23 13:18:54.269
156.0, -82155.4460710819, -114524.84005985738, 48231.868235095535, 38788.56912715067, 61268.612595631195, 93758.97422539881, 58950.781399104766, 59353.53748244495, 0.05, 0.9560000000000001, 0.12, 192.0, 0.0, 0.0, 0.0, 0.0, 0.0, 0.0, 0.0, 0.0, 0.0, 1.6665563342695267E9, 0.0, 2022-10-23 13:18:54.269
157.0, -82172.92513524594, -114539.92748736472, 48175.89946697944, 38915.527035656814, 61373.0846492153, 93860.47349697036, 59020.22826912741, 59590.17540099328, 0.05, 0.9560000000000001, 0.12, 192.0, 0.0, 0.0, 0.0, 0.0, 0.0, 0.0, 0.0, 0.0, 0.0, 1.6665563342695346E9, 0.0, 2022-10-23 13:18:54.269
158.0, -82204.15052225, -114572.00224065808, 49999.19831743221, 39060.187525771566, 61498.544990842944, 94608.09464551148, 60208.91639100509, 60783.40092699539, 0.05, 0.9560000000000001, 0.12, 192.0, 0.0, 0.0, 0.0, 0.0, 0.0, 0.0, 0.0, 0.0, 0.0, 1.6665563342695498E9, 0.0, 2022-10-23 13:18:54.269
159.0, -82167.73953053232, -114535.6359524293, 50563.95984458445, 38827.103534591624, 61339.13234938769, 94667.25971308467, 60434.736065237055, 60787.6477584419, 0.05, 0.9560000000000001, 0.12, 192.0, 0.0, 0.0, 0.0, 0.0, 0.0, 0.0, 0.0, 0.0, 0.0, 1.6665563342695577E9, 0.0, 2022-10-23 13:18:54.269
160.0, -82130.07684112512, -114502.22009446862, 48443.53925508729, 38772.63233335404, 61255.626232102666, 93826.87882505404, 59071.16789474105, 59443.25738468855, 0.05, 0.9560000000000001, 0.12, 192.0, 0.0, 0.0, 0.0, 0.0, 0.0, 0.0, 0.0, 0.0, 0.0, 1.6665563342695653E9, 0.0, 2022-10-23 13:18:54.269
161.0, -82155.71429201536, -114527.58932442538, 48112.308754004094, 38911.973108288425, 61368.48018985751, 93837.60766239258, 58970.45093422544, 59514.55944950098, 0.05, 0.9560000000000001, 0.12, 192.0, 0.0, 0.0, 0.0, 0.0, 0.0, 0.0, 0.0, 0.0, 0.0, 1.6665563342695732E9, 0.0, 2022-10-23 13:18:54.269
162.0, -82192.19233896642, -114557.07127536193, 49596.59869630322, 39054.219610001994, 61482.92112146868, 94471.45843165618, 59960.29793742871, 60557.60360450788, 0.05, 0.9560000000000001, 0.12, 192.0, 0.0, 0.0, 0.0, 0.0, 0.0, 0.0, 0.0, 0.0, 0.0, 1.666556334269581E9, 0.0, 2022-10-23 13:18:54.269
163.0, -82176.07673121414, -114543.39200775529, 50802.11768175575, 38886.89445100957, 61389.91551279015, 94793.50236576825, 60602.46355562968, 60999.07290924465, 0.05, 0.9480000000000001, 0.112, 192.0, 1.0, 144.0, 29.0, 160.0, 3.0, 128.0, 0.0, 0.0, 0.0, 1.6665563342695887E9, 0.0, 2022-10-23 13:18:54.269
164.0, -82138.90578018497, -114513.39596669626, 48755.4578489611, 38729.04643166619, 61242.01401972938, 93936.40237288504, 59254.7874754414, 59594.623398139884, 0.05, 0.9480000000000001, 0.112, 192.0, 0.0, 0.0, 0.0, 0.0, 0.0, 0.0, 0.0, 0.0, 0.0, 1.6665563342695973E9, 0.0, 2022-10-23 13:18:54.269
165.0, -82159.55879206167, -114528.59515292587, 48058.39634637789, 38876.9255729825, 61341.76985523342, 93785.97513270083, 58909.743596284825, 59428.48288160359, 0.05, 0.9480000000000001, 0.112, 192.0, 0.0, 0.0, 0.0, 0.0, 0.0, 0.0, 0.0, 0.0, 0.0, 1.6665563342696052E9, 0.0, 2022-10-23 13:18:54.269
166.0, -82192.37115292206, -114555.01491487205, 49198.715293254296, 39023.687127076046, 61457.998926401015, 94313.25278440151, 59706.02449250514, 60306.36999683023, 0.05, 0.9480000000000001, 0.112, 192.0, 0.0, 0.0, 0.0, 0.0, 0.0, 0.0, 0.0, 0.0, 0.0, 1.6665563342696128E9, 0.0, 2022-10-23 13:18:54.269
167.0, -82180.01063823828, -114541.80503389896, 50885.22146764058, 38942.08090806972, 61421.856155616784, 94850.36520366254, 60675.777277443085, 61100.348663371646, 0.05, 0.9480000000000001, 0.112, 192.0, 0.0, 0.0, 0.0, 0.0, 0.0, 0.0, 0.0, 0.0, 0.0, 1.666556334269621E9, 0.0, 2022-10-23 13:18:54.269
168.0, -82134.92716967192, -114506.31046370394, 49088.54354483409, 38731.393364833995, 61241.276412162355, 94044.62951953763, 59448.06300974644, 59778.60060675152, 0.05, 0.9480000000000001, 0.112, 192.0, 0.0, 0.0, 0.0, 0.0, 0.0, 0.0, 0.0, 0.0, 0.0, 1.6665563342696288E9, 0.0, 2022-10-23 13:18:54.269
169.0, -82166.26431539826, -114522.11314703383, 48050.01444220715, 38856.0713954057, 61329.40934054963, 93762.17052485592, 58882.13919188252, 59384.74051770455, 0.05, 0.9480000000000001, 0.112, 192.0, 0.0, 0.0, 0.0, 0.0, 0.0, 0.0, 0.0, 0.0, 0.0, 1.6665563342696369E9, 0.0, 2022-10-23 13:18:54.269
170.0, -82189.86775754306, -114544.46489148914, 48844.48484712659, 38993.6016790392, 61435.73658892353, 94172.39209084417, 59480.405983973265, 60092.97789251541, 0.05, 0.9480000000000001, 0.112, 192.0, 0.0, 0.0, 0.0, 0.0, 0.0, 0.0, 0.0, 0.0, 0.0, 1.6665563342696445E9, 0.0, 2022-10-23 13:18:54.269
171.0, -82185.48681562982, -114553.38323752681, 50844.80951366539, 39008.39853386862, 61465.196188115624, 94874.21451499636, 60686.617873503914, 61180.21144631046, 0.05, 0.9480000000000001, 0.112, 192.0, 0.0, 0.0, 0.0, 0.0, 0.0, 0.0, 0.0, 0.0, 0.0, 1.6665563342696521E9, 0.0, 2022-10-23 13:18:54.269
172.0, -82133.63076849352, -114503.94117879168, 49515.17129125253, 38739.931731215926, 61250.239461688936, 94205.87500403821, 59719.81551883406, 60052.49888330685, 0.04, 0.9460000000000001, 0.108, 192.0, 1.0, 64.0, 29.0, 144.0, 3.0, 96.0, 0.0, 0.0, 0.0, 1.66655633426966E9, 0.0, 2022-10-23 13:18:54.269
173.0, -82147.9358849449, -114515.27351323051, 48074.24373319671, 38840.7157469649, 61302.96722685901, 93735.81781814311, 58872.3938313, 59345.40144746321, 0.04, 0.9460000000000001, 0.108, 192.0, 0.0, 0.0, 0.0, 0.0, 0.0, 0.0, 0.0, 0.0, 0.0, 1.6665563342696755E9, 0.0, 2022-10-23 13:18:54.269
174.0, -82161.07871068463, -114534.13838555079, 48524.07259035976, 38972.52398401785, 61408.60157115479, 94024.80352220578, 59259.995431899486, 59871.13682879649, 0.04, 0.9460000000000001, 0.108, 192.0, 0.0, 0.0, 0.0, 0.0, 0.0, 0.0, 0.0, 0.0, 0.0, 1.6665563342696838E9, 0.0, 2022-10-23 13:18:54.269
175.0, -82187.81139705317, -114558.30062130697, 50618.11812139966, 39044.1166215082, 61483.0105284465, 94809.48386305379, 60564.08561039992, 61096.66062553652, 0.04, 0.9460000000000001, 0.108, 192.0, 0.0, 0.0, 0.0, 0.0, 0.0, 0.0, 0.0, 0.0, 0.0, 1.6665563342696917E9, 0.0, 2022-10-23 13:18:54.269
176.0, -82158.95529496137, -114525.3317982354, 49931.31606952144, 38734.835533480116, 61250.55238611131, 94366.56169492743, 59989.57872266516, 60322.530308071415, 0.04, 0.9460000000000001, 0.108, 192.0, 0.0, 0.0, 0.0, 0.0, 0.0, 0.0, 0.0, 0.0, 0.0, 1.6665563342696996E9, 0.0, 2022-10-23 13:18:54.269
177.0, -82152.24977162479, -114519.49799293256, 48153.994757413246, 38809.53506344975, 61278.670880636084, 93743.35035602456, 58907.84369800612, 59348.53069168695, 0.04, 0.9460000000000001, 0.108, 192.0, 0.0, 0.0, 0.0, 0.0, 0.0, 0.0, 0.0, 0.0, 0.0, 1.6665563342697089E9, 0.0, 2022-10-23 13:18:54.269
178.0, -82167.38190262103, -114532.03732157199, 48298.834061483634, 38938.23640802341, 61392.66477735815, 93924.0642099457, 59104.06966257926, 59697.419070889846, 0.04, 0.9460000000000001, 0.108, 192.0, 0.0, 0.0, 0.0, 0.0, 0.0, 0.0, 0.0, 0.0, 0.0, 1.6665563342697165E9, 0.0, 2022-10-23 13:18:54.269
179.0, -82205.4022199395, -114562.07806611992, 50290.66506512941, 39059.42756646009, 61501.85304902233, 94716.88058577545, 60378.99081456552, 60948.133283631, 0.04, 0.9460000000000001, 0.108, 192.0, 0.0, 0.0, 0.0, 0.0, 0.0, 0.0, 0.0, 0.0, 0.0, 1.6665563342697244E9, 0.0, 2022-10-23 13:18:54.269
180.0, -82162.75509151877, -114529.42216747072, 50373.50063008078, 38785.5516416492, 61306.297636782845, 94579.19383993075, 60294.90355192465, 60639.12041653638, 0.04, 0.9460000000000001, 0.108, 192.0, 0.0, 0.0, 0.0, 0.0, 0.0, 0.0, 0.0, 0.0, 0.0, 1.666556334269732E9, 0.0, 2022-10-23 13:18:54.269
181.0, -82146.3936145775, -114510.60199863935, 48309.317029633174, 38777.77323457876, 61245.14326395313, 93775.71568199583, 58983.92903613199, 59375.62100596679, 0.04, 0.9460000000000001, 0.108, 192.0, 0.0, 0.0, 0.0, 0.0, 0.0, 0.0, 0.0, 0.0, 0.0, 1.66655633426974E9, 0.0, 2022-10-23 13:18:54.269
182.0, -82180.7929492942, -114546.02951360101, 48176.01122570172, 38916.04112577929, 61368.27902415741, 93859.69118591443, 59014.170946380014, 59575.87028454188, 0.038, 0.9580000000000001, 0.12, 192.0, 1.0, 48.0, 29.0, 240.0, 3.0, 192.0, 0.0, 0.0, 0.0, 1.6665563342697475E9, 0.0, 2022-10-23 13:18:54.269
183.0, -82212.46537118738, -114581.45702856268, 49912.29473498997, 39059.762842626915, 61490.163086672204, 94581.89840100985, 60160.16723634807, 60747.861653311455, 0.038, 0.9580000000000001, 0.12, 192.0, 0.0, 0.0, 0.0, 0.0, 0.0, 0.0, 0.0, 0.0, 0.0, 1.666556334269756E9, 0.0, 2022-10-23 13:18:54.269
184.0, -82176.3449521476, -114550.09753109189, 50678.9148663181, 38856.36196808362, 61352.655154783155, 94709.45980661629, 60509.77087137353, 60884.319053211104, 0.038, 0.9580000000000001, 0.12, 192.0, 0.0, 0.0, 0.0, 0.0, 0.0, 0.0, 0.0, 0.0, 0.0, 1.666556334269764E9, 0.0, 2022-10-23 13:18:54.269
185.0, -82128.93690215789, -114502.24244621307, 48561.690576278044, 38773.79462406571, 61255.961508269495, 93860.83112488165, 59140.435950808045, 59508.502126753585, 0.038, 0.9580000000000001, 0.12, 192.0, 0.0, 0.0, 0.0, 0.0, 0.0, 0.0, 0.0, 0.0, 0.0, 1.666556334269772E9, 0.0, 2022-10-23 13:18:54.269
186.0, -82159.31292287266, -114526.31527499143, 48106.787873123634, 38907.74862858637, 61357.59489030777, 93818.45221739438, 58958.671564897486, 59495.67222543624, 0.038, 0.9580000000000001, 0.12, 192.0, 0.0, 0.0, 0.0, 0.0, 0.0, 0.0, 0.0, 0.0, 0.0, 1.66655633426978E9, 0.0, 2022-10-23 13:18:54.269
187.0, -82202.94352804942, -114563.30741206497, 49463.874037727604, 39049.68220587757, 61466.71610673858, 94406.0348756355, 59875.78599164319, 60476.35501341284, 0.038, 0.9580000000000001, 0.12, 192.0, 0.0, 0.0, 0.0, 0.0, 0.0, 0.0, 0.0, 0.0, 0.0, 1.6665563342697875E9, 0.0, 2022-10-23 13:18:54.269
188.0, -82190.47125464336, -114555.0372666165, 50842.66374619767, 38906.854558808154, 61387.54622787789, 94799.47028153781, 60634.78417811206, 61049.67725869147, 0.038, 0.9580000000000001, 0.12, 192.0, 0.0, 0.0, 0.0, 0.0, 0.0, 0.0, 0.0, 0.0, 0.0, 1.6665563342697952E9, 0.0, 2022-10-23 13:18:54.269
189.0, -82130.38976554749, -114503.8741235583, 48852.57617861941, 38741.02696669423, 61237.27544990486, 93952.09329749267, 59313.17023195866, 59655.308384336044, 0.038, 0.9580000000000001, 0.12, 192.0, 0.0, 0.0, 0.0, 0.0, 0.0, 0.0, 0.0, 0.0, 0.0, 1.6665563342698104E9, 0.0, 2022-10-23 13:18:54.269
190.0, -82148.7852512342, -114519.20742025465, 48042.683070025814, 38883.56404108573, 61339.33351508779, 93761.79054520019, 58900.646436291514, 59420.346846621855, 0.038, 0.9580000000000001, 0.12, 192.0, 0.0, 0.0, 0.0, 0.0, 0.0, 0.0, 0.0, 0.0, 0.0, 1.6665563342698183E9, 0.0, 2022-10-23 13:18:54.269
191.0, -82184.36922840706, -114547.1918043127, 49053.31719557252, 39021.519007863884, 61449.192339085625, 94243.06830681185, 59624.93236362128, 60240.20883324252, 0.038, 0.9580000000000001, 0.12, 192.0, 0.0, 0.0, 0.0, 0.0, 0.0, 0.0, 0.0, 0.0, 0.0, 1.666556334269826E9, 0.0, 2022-10-23 13:18:54.269
192.0, -82185.21859469636, -114548.55526072446, 50888.50717407551, 38959.96230363397, 61430.595687698806, 94856.13195373201, 60710.24366739317, 61163.29117575779, 0.036000000000000004, 0.9540000000000001, 0.11800000000000001, 192.0, 1.0, 32.0, 29.0, 208.0, 3.0, 176.0, 0.0, 0.0, 0.0, 1.6665563342698338E9, 0.0, 2022-10-23 13:18:54.269
193.0, -82129.04866088017, -114494.41933565371, 49226.63262207897, 38714.540149514694, 61219.23759212942, 94079.8111653103, 59554.94905173172, 59870.46627646283, 0.036000000000000004, 0.9540000000000001, 0.11800000000000001, 192.0, 0.0, 0.0, 0.0, 0.0, 0.0, 0.0, 0.0, 0.0, 0.0, 1.666556334269842E9, 0.0, 2022-10-23 13:18:54.269
194.0, -82139.91160868545, -114503.56119913593, 48015.97273540172, 38854.03738666027, 61307.03524434987, 93719.47869294629, 58869.17518009844, 59355.817360379384, 0.036000000000000004, 0.9540000000000001, 0.11800000000000001, 192.0, 0.0, 0.0, 0.0, 0.0, 0.0, 0.0, 0.0, 0.0, 0.0, 1.66655633426985E9, 0.0, 2022-10-23 13:18:54.269
195.0, -82170.17587067794, -114529.93625759319, 48692.33652261931, 38989.66777201507, 61429.36634175377, 94101.3135434763, 59401.839602212865, 60007.2142490404, 0.036000000000000004, 0.9540000000000001, 0.11800000000000001, 192.0, 0.0, 0.0, 0.0, 0.0, 0.0, 0.0, 0.0, 0.0, 0.0, 1.666556334269858E9, 0.0, 2022-10-23 13:18:54.269
196.0, -82185.33035341864, -114546.72241767914, 50744.405477572145, 39018.300356662316, 61477.444944077135, 94844.39728789298, 60656.44301848925, 61153.903443086565, 0.036000000000000004, 0.9540000000000001, 0.11800000000000001, 192.0, 0.0, 0.0, 0.0, 0.0, 0.0, 0.0, 0.0, 0.0, 0.0, 1.6665563342698655E9, 0.0, 2022-10-23 13:18:54.269
197.0, -82117.49280899677, -114482.88583551477, 49610.63559182115, 38743.23978939531, 61260.67772634956, 94247.493952214, 59811.077691445076, 60137.39080874811, 0.036000000000000004, 0.9540000000000001, 0.11800000000000001, 192.0, 0.0, 0.0, 0.0, 0.0, 0.0, 0.0, 0.0, 0.0, 0.0, 1.6665563342698731E9, 0.0, 2022-10-23 13:18:54.269
198.0, -82132.60258824857, -114493.05587924193, 48046.393459605395, 38844.60495050013, 61310.075081595794, 93728.30763200614, 58881.40158431549, 59342.92040382867, 0.036000000000000004, 0.9540000000000001, 0.11800000000000001, 192.0, 0.0, 0.0, 0.0, 0.0, 0.0, 0.0, 0.0, 0.0, 0.0, 1.666556334269882E9, 0.0, 2022-10-23 13:18:54.269
199.0, -82167.15838517647, -114529.86920235983, 48391.05735910623, 38967.696007215505, 61410.5461729224, 93986.33616999819, 59207.29001847387, 59811.10004318954, 0.036000000000000004, 0.9540000000000001, 0.11800000000000001, 192.0, 0.0, 0.0, 0.0, 0.0, 0.0, 0.0, 0.0, 0.0, 0.0, 1.66655633426989E9, 0.0, 2022-10-23 13:18:54.269
200.0, -82198.45082741391, -114560.35698179687, 50463.10877360211, 39053.77257511289, 61493.381737873766, 94778.75021442774, 60512.475432452615, 61054.72875293836, 0.036000000000000004, 0.9540000000000001, 0.11800000000000001, 192.0, 0.0, 0.0, 0.0, 0.0, 0.0, 0.0, 0.0, 0.0, 0.0, 1.6665563342698977E9, 0.0, 2022-10-23 13:18:54.269
201.0, -82147.15357388897, -114512.2783794735, 50044.10297204292, 38772.87820254305, 61290.494953452944, 94447.11738194435, 60113.496793925384, 60445.6660682757, 0.036000000000000004, 0.9540000000000001, 0.11800000000000001, 192.0, 0.0, 0.0, 0.0, 0.0, 0.0, 0.0, 0.0, 0.0, 0.0, 1.666556334269905E9, 0.0, 2022-10-23 13:18:54.269
202.0, -82128.04283237968, -114495.73808857657, 48136.113361849, 38815.92766236397, 61277.88856958015, 93744.24442580277, 58930.55307037271, 59354.58801443435, 0.034, 0.9480000000000001, 0.12, 192.0, 1.0, 16.0, 29.0, 160.0, 3.0, 192.0, 0.0, 0.0, 0.0, 1.6665563342699132E9, 0.0, 2022-10-23 13:18:54.269
203.0, -82160.56462056216, -114517.59809465386, 48191.9256677539, 38956.81070766577, 61401.33725420681, 93904.68524750296, 59082.43317394653, 59672.22865488871, 0.034, 0.9480000000000001, 0.12, 192.0, 0.0, 0.0, 0.0, 0.0, 0.0, 0.0, 0.0, 0.0, 0.0, 1.6665563342699213E9, 0.0, 2022-10-23 13:18:54.269
204.0, -82191.07475174365, -114544.50959497805, 50109.10184491895, 39079.20886030303, 61505.56343860191, 94679.48611730173, 60324.005523205466, 60896.9254370839, 0.034, 0.9480000000000001, 0.12, 192.0, 0.0, 0.0, 0.0, 0.0, 0.0, 0.0, 0.0, 0.0, 0.0, 1.666556334269938E9, 0.0, 2022-10-23 13:18:54.269
205.0, -82147.91353320045, -114513.775946352, 50407.67644735294, 38814.87713037457, 61318.456985766534, 94615.11309327044, 60370.631262139235, 60721.508946598646, 0.034, 0.9480000000000001, 0.12, 192.0, 0.0, 0.0, 0.0, 0.0, 0.0, 0.0, 0.0, 0.0, 0.0, 1.666556334269946E9, 0.0, 2022-10-23 13:18:54.269
206.0, -82118.386878775, -114482.66231807022, 48302.43269234094, 38789.1055690176, 61258.84488330423, 93796.36869387254, 59028.96780120943, 59420.1233291773, 0.034, 0.9480000000000001, 0.12, 192.0, 0.0, 0.0, 0.0, 0.0, 0.0, 0.0, 0.0, 0.0, 0.0, 1.666556334269954E9, 0.0, 2022-10-23 13:18:54.269
207.0, -82164.27501014173, -114525.89059184678, 48044.98529970471, 38912.040163521786, 61354.532701317396, 93824.48718839731, 58973.62488193809, 59536.57591778945, 0.034, 0.9480000000000001, 0.12, 192.0, 0.0, 0.0, 0.0, 0.0, 0.0, 0.0, 0.0, 0.0, 0.0, 1.666556334269962E9, 0.0, 2022-10-23 13:18:54.269
208.0, -82185.77738830775, -114541.31329552094, 49660.74820288995, 39072.88331662218, 61490.54306632794, 94513.8596908879, 60051.850682717646, 60651.07859981997, 0.034, 0.9480000000000001, 0.12, 192.0, 0.0, 0.0, 0.0, 0.0, 0.0, 0.0, 0.0, 0.0, 0.0, 1.66655633426997E9, 0.0, 2022-10-23 13:18:54.269
209.0, -82168.7453590328, -114536.4853187186, 50676.63498838365, 38879.13839568358, 61375.789210294395, 94760.8688188635, 60573.40628783778, 60956.31402210165, 0.034, 0.9480000000000001, 0.12, 192.0, 0.0, 0.0, 0.0, 0.0, 0.0, 0.0, 0.0, 0.0, 0.0, 1.6665563342699776E9, 0.0, 2022-10-23 13:18:54.269
210.0, -82123.81835267763, -114500.14138223427, 48569.178410670575, 38762.775214049245, 61247.66901107658, 93895.83395669865, 59194.70598634553, 59544.3543248599, 0.034, 0.9480000000000001, 0.12, 192.0, 0.0, 0.0, 0.0, 0.0, 0.0, 0.0, 0.0, 0.0, 0.0, 1.6665563342699857E9, 0.0, 2022-10-23 13:18:54.269
211.0, -82142.01267266425, -114506.06459451493, 47991.94461011227, 38908.66505010904, 61362.5346258324, 93804.638839321, 58937.772683831776, 59465.60912914386, 0.04, 0.9440000000000001, 0.112, 192.0, 1.0, 64.0, 29.0, 128.0, 3.0, 128.0, 0.0, 0.0, 0.0, 1.6665563342699933E9, 0.0, 2022-10-23 13:18:54.269
212.0, -82189.51012963177, -114547.92941187971, 49267.51396268773, 39048.519915165896, 61479.36719410029, 94387.63938994877, 59824.30992416262, 60417.30170456192, 0.04, 0.9440000000000001, 0.112, 192.0, 0.0, 0.0, 0.0, 0.0, 0.0, 0.0, 0.0, 0.0, 0.0, 1.666556334270002E9, 0.0, 2022-10-23 13:18:54.270
213.0, -82184.5480423627, -114545.02368510053, 50853.526694002954, 38929.876855597126, 61408.60157115479, 94883.95987557888, 60731.231955436706, 61132.95985853194, 0.04, 0.9440000000000001, 0.112, 192.0, 0.0, 0.0, 0.0, 0.0, 0.0, 0.0, 0.0, 0.0, 0.0, 1.6665563342700098E9, 0.0, 2022-10-23 13:18:54.270
214.0, -82116.77755317421, -114484.6292715823, 48917.887975917816, 38741.585760305614, 61224.087920676226, 94022.54599601579, 59414.02130294101, 59730.63376315043, 0.04, 0.9440000000000001, 0.112, 192.0, 0.0, 0.0, 0.0, 0.0, 0.0, 0.0, 0.0, 0.0, 0.0, 1.6665563342700176E9, 0.0, 2022-10-23 13:18:54.270
215.0, -82132.17790510392, -114497.97326302211, 47996.86199389243, 38894.98578250239, 61345.480244813, 93797.75450202877, 58928.966096516386, 59421.66559954472, 0.04, 0.9440000000000001, 0.112, 192.0, 0.0, 0.0, 0.0, 0.0, 0.0, 0.0, 0.0, 0.0, 0.0, 1.6665563342700255E9, 0.0, 2022-10-23 13:18:54.270
216.0, -82165.21378340886, -114530.60680992686, 48923.297098076, 39026.972833510976, 61458.892996179224, 94263.6989669441, 59612.86242161541, 60201.74148103494, 0.04, 0.9440000000000001, 0.112, 192.0, 0.0, 0.0, 0.0, 0.0, 0.0, 0.0, 0.0, 0.0, 0.0, 1.6665563342700336E9, 0.0, 2022-10-23 13:18:54.270
217.0, -82175.65204806949, -114540.91096412075, 50855.71716495958, 38998.183786652546, 61454.26618507698, 94922.27076557527, 60763.88785408591, 61201.423251798544, 0.04, 0.9440000000000001, 0.112, 192.0, 0.0, 0.0, 0.0, 0.0, 0.0, 0.0, 0.0, 0.0, 0.0, 1.6665563342700417E9, 0.0, 2022-10-23 13:18:54.270
218.0, -82137.76584121774, -114504.41056542523, 49351.176542183945, 38734.65671952447, 61232.51452833588, 94186.74191078448, 59689.81947777504, 59973.261949212785, 0.04, 0.9440000000000001, 0.112, 192.0, 0.0, 0.0, 0.0, 0.0, 0.0, 0.0, 0.0, 0.0, 0.0, 1.6665563342700496E9, 0.0, 2022-10-23 13:18:54.270
219.0, -82146.8406494666, -114509.95379805015, 48026.70157274027, 38864.2744856208, 61313.360788030725, 93771.29003659368, 58924.02636099176, 59365.74153491754, 0.04, 0.9440000000000001, 0.112, 192.0, 0.0, 0.0, 0.0, 0.0, 0.0, 0.0, 0.0, 0.0, 0.0, 1.6665563342700577E9, 0.0, 2022-10-23 13:18:54.270
220.0, -82167.15838517647, -114534.29484776198, 48588.08798647976, 38999.14491166412, 61428.20405104209, 94102.74405512144, 59381.45481126962, 59954.732353059335, 0.04, 0.9440000000000001, 0.112, 192.0, 0.0, 0.0, 0.0, 0.0, 0.0, 0.0, 0.0, 0.0, 0.0, 1.6665563342700808E9, 0.0, 2022-10-23 13:18:54.270
221.0, -82190.58301336563, -114546.9906386126, 50665.52617138936, 39039.66862436159, 61470.5606067849, 94861.71988984584, 60658.789951657054, 61137.34080044518, 0.038, 0.9480000000000001, 0.112, 192.0, 1.0, 48.0, 29.0, 160.0, 3.0, 128.0, 0.0, 0.0, 0.0, 1.6665563342700887E9, 0.0, 2022-10-23 13:18:54.270
222.0, -82116.84460840757, -114482.21528318111, 49761.88984655021, 38772.989961265324, 61266.48917990794, 94349.68612786366, 59951.58075709114, 60249.8200833583, 0.038, 0.9480000000000001, 0.112, 192.0, 0.0, 0.0, 0.0, 0.0, 0.0, 0.0, 0.0, 0.0, 0.0, 1.6665563342700968E9, 0.0, 2022-10-23 13:18:54.270
223.0, -82123.21485557733, -114487.33383266137, 48061.23501792372, 38850.997549414344, 61300.32972101328, 93757.09667886456, 58922.19351794643, 59349.89414809873, 0.038, 0.9480000000000001, 0.112, 192.0, 0.0, 0.0, 0.0, 0.0, 0.0, 0.0, 0.0, 0.0, 0.0, 1.6665563342701046E9, 0.0, 2022-10-23 13:18:54.270
224.0, -82161.52574557373, -114526.22586801361, 48312.35686687909, 38966.66782697056, 61408.86979208825, 93984.16805078603, 59192.604922366736, 59772.275063070665, 0.038, 0.9480000000000001, 0.112, 192.0, 0.0, 0.0, 0.0, 0.0, 0.0, 0.0, 0.0, 0.0, 0.0, 1.6665563342701132E9, 0.0, 2022-10-23 13:18:54.270
225.0, -82187.900804031, -114557.20538582867, 50356.78152522821, 39075.16319455662, 61498.29912165393, 94783.8240604191, 60492.44826942066, 61021.71522637788, 0.038, 0.9480000000000001, 0.112, 192.0, 0.0, 0.0, 0.0, 0.0, 0.0, 0.0, 0.0, 0.0, 0.0, 1.6665563342701209E9, 0.0, 2022-10-23 13:18:54.270
226.0, -82139.59868426308, -114514.31238821894, 50184.20370628878, 38800.21438601189, 61296.17229654459, 94543.3639935689, 60239.605336142224, 60549.244052081594, 0.038, 0.9480000000000001, 0.112, 192.0, 0.0, 0.0, 0.0, 0.0, 0.0, 0.0, 0.0, 0.0, 0.0, 1.6665563342701287E9, 0.0, 2022-10-23 13:18:54.270
227.0, -82119.59387297557, -114492.6758995862, 48202.83331904809, 38822.8119996562, 61270.423086932075, 93804.97411548783, 58999.32938806169, 59382.46063977011, 0.038, 0.9480000000000001, 0.112, 192.0, 0.0, 0.0, 0.0, 0.0, 0.0, 0.0, 0.0, 0.0, 0.0, 1.6665563342701364E9, 0.0, 2022-10-23 13:18:54.270
228.0, -82134.65894873845, -114503.69530960267, 48161.951978439334, 38967.56189674877, 61395.637559370705, 93928.55691058123, 59088.51284843837, 59641.338544051476, 0.038, 0.9480000000000001, 0.112, 192.0, 0.0, 0.0, 0.0, 0.0, 0.0, 0.0, 0.0, 0.0, 0.0, 1.666556334270144E9, 0.0, 2022-10-23 13:18:54.270
229.0, -82183.76573130676, -114547.41532175725, 49959.7921919575, 39082.896898138155, 61494.85695300782, 94656.0391373681, 60254.46924620501, 60814.24633434372, 0.038, 0.9480000000000001, 0.112, 192.0, 0.0, 0.0, 0.0, 0.0, 0.0, 0.0, 0.0, 0.0, 0.0, 1.6665563342701519E9, 0.0, 2022-10-23 13:18:54.270
230.0, -82143.37612907603, -114511.78664109549, 50536.80247507125, 38853.098613393144, 61342.90979420064, 94710.95737349479, 60481.69708033766, 60818.38140706795, 0.038, 0.9480000000000001, 0.112, 192.0, 0.0, 0.0, 0.0, 0.0, 0.0, 0.0, 0.0, 0.0, 0.0, 1.6665563342701595E9, 0.0, 2022-10-23 13:18:54.270
231.0, -82106.16047455794, -114472.11229468731, 48403.61903949011, 38790.156101007, 61258.5096071374, 93861.7028429154, 59106.86363063617, 59460.44587617468, 0.042, 0.9540000000000001, 0.116, 192.0, 1.0, 80.0, 29.0, 208.0, 3.0, 160.0, 0.0, 0.0, 0.0, 1.666556334270167E9, 0.0, 2022-10-23 13:18:54.270
232.0, -82142.25854185325, -114508.6797486162, 48056.98818647721, 38928.98278581891, 61378.85139928477, 93868.92245637446, 59001.72102471841, 59535.97242068916, 0.042, 0.9540000000000001, 0.116, 192.0, 0.0, 0.0, 0.0, 0.0, 0.0, 0.0, 0.0, 0.0, 0.0, 1.6665563342701757E9, 0.0, 2022-10-23 13:18:54.270
233.0, -82176.0990829586, -114544.44253974469, 49557.75136443989, 39072.79390964436, 61491.30302563942, 94518.35239152341, 60011.48343223136, 60590.72888979065, 0.042, 0.9540000000000001, 0.116, 192.0, 0.0, 0.0, 0.0, 0.0, 0.0, 0.0, 0.0, 0.0, 0.0, 1.666556334270183E9, 0.0, 2022-10-23 13:18:54.270
234.0, -82151.15453614647, -114515.60878939735, 50754.01672768793, 38904.932308785, 61373.50933235995, 94824.01249694974, 60639.299230492026, 61012.08162451764, 0.042, 0.9540000000000001, 0.116, 192.0, 0.0, 0.0, 0.0, 0.0, 0.0, 0.0, 0.0, 0.0, 0.0, 1.6665563342701912E9, 0.0, 2022-10-23 13:18:54.270
235.0, -82110.0273263487, -114472.6710882987, 48652.6845279556, 38763.02108323826, 61225.71959802146, 93928.40044837004, 59240.72822817901, 59570.19294145024, 0.042, 0.9540000000000001, 0.116, 192.0, 0.0, 0.0, 0.0, 0.0, 0.0, 0.0, 0.0, 0.0, 0.0, 1.6665563342702067E9, 0.0, 2022-10-23 13:18:54.270
236.0, -82136.82706795062, -114496.83332405488, 47955.75713583912, 38919.14801825858, 61357.259614140945, 93800.16849042995, 58909.09539569562, 59432.70736130564, 0.042, 0.9540000000000001, 0.116, 192.0, 0.0, 0.0, 0.0, 0.0, 0.0, 0.0, 0.0, 0.0, 0.0, 1.6665563342702148E9, 0.0, 2022-10-23 13:18:54.270
237.0, -82177.7978155372, -114542.92262112173, 49107.408417154365, 39059.44991820454, 61474.919196953684, 94344.99226152805, 59725.515213670165, 60333.46031111006, 0.042, 0.9540000000000001, 0.116, 192.0, 0.0, 0.0, 0.0, 0.0, 0.0, 0.0, 0.0, 0.0, 0.0, 1.6665563342702227E9, 0.0, 2022-10-23 13:18:54.270
238.0, -82183.31869641766, -114543.61552519984, 50819.99907731999, 38965.55023974779, 61424.13603355122, 94891.29124776021, 60715.80925176254, 61154.596347164676, 0.042, 0.9540000000000001, 0.116, 192.0, 0.0, 0.0, 0.0, 0.0, 0.0, 0.0, 0.0, 0.0, 0.0, 1.6665563342702308E9, 0.0, 2022-10-23 13:18:54.270
239.0, -82129.74156495828, -114495.96160602113, 49015.609802676416, 38740.60228354958, 61228.35710386719, 94072.56920010677, 59474.68393739271, 59803.90278147493, 0.042, 0.9540000000000001, 0.116, 192.0, 0.0, 0.0, 0.0, 0.0, 0.0, 0.0, 0.0, 0.0, 0.0, 1.666556334270239E9, 0.0, 2022-10-23 13:18:54.270
240.0, -82148.44997506739, -114514.93823706369, 47959.82515332999, 38886.20154693146, 61334.63964875218, 93793.6864845379, 58904.89326773802, 59400.65495975673, 0.046, 0.9460000000000001, 0.12, 192.0, 1.0, 112.0, 29.0, 144.0, 3.0, 192.0, 0.0, 0.0, 0.0, 1.6665563342702477E9, 0.0, 2022-10-23 13:18:54.270
241.0, -82191.63354535503, -114548.75642642456, 48737.82232258586, 39011.930109492554, 61431.69092317712, 94199.6835708241, 59492.073594578935, 60099.728119340914, 0.046, 0.9460000000000001, 0.12, 192.0, 0.0, 0.0, 0.0, 0.0, 0.0, 0.0, 0.0, 0.0, 0.0, 1.666556334748495E9, 0.0, 2022-10-23 13:18:54.748
242.0, -82183.4975103733, -114549.04699910249, 50762.95742547005, 39025.922301521576, 61463.2068828591, 94918.89565216252, 60718.87144075292, 61195.25417032888, 0.046, 0.9460000000000001, 0.12, 192.0, 0.0, 0.0, 0.0, 0.0, 0.0, 0.0, 0.0, 0.0, 0.0, 1.6665563347485275E9, 0.0, 2022-10-23 13:18:54.748
243.0, -82123.57248348862, -114489.54665536246, 49454.93333994548, 38749.073594698144, 61236.76135978239, 94251.96430110506, 59762.03796411014, 60069.687374792986, 0.046, 0.9460000000000001, 0.12, 192.0, 0.0, 0.0, 0.0, 0.0, 0.0, 0.0, 0.0, 0.0, 0.0, 1.6665563347485442E9, 0.0, 2022-10-23 13:18:54.748
244.0, -82135.41890804993, -114497.45917289963, 47969.99519705716, 38862.329883853185, 61297.491049467455, 93755.82262943061, 58879.27816859224, 59342.965107317585, 0.046, 0.9460000000000001, 0.12, 192.0, 0.0, 0.0, 0.0, 0.0, 0.0, 0.0, 0.0, 0.0, 0.0, 1.6665563347485642E9, 0.0, 2022-10-23 13:18:54.748
245.0, -82167.42660610993, -114526.11410929133, 48418.21472861943, 38992.59585053872, 61417.2963997479, 94051.62561555214, 59271.104248893775, 59877.82000038862, 0.046, 0.9460000000000001, 0.12, 192.0, 0.0, 0.0, 0.0, 0.0, 0.0, 0.0, 0.0, 0.0, 0.0, 1.6665563347485826E9, 0.0, 2022-10-23 13:18:54.748
246.0, -82188.72781857585, -114545.22485080063, 50533.15914072504, 39063.76380488442, 61496.48863035305, 94853.65091009748, 60596.38388113784, 61121.47106188191, 0.046, 0.9460000000000001, 0.12, 192.0, 0.0, 0.0, 0.0, 0.0, 0.0, 0.0, 0.0, 0.0, 0.0, 1.6665563347485907E9, 0.0, 2022-10-23 13:18:54.748
247.0, -82131.66381498144, -114494.88872228727, 49905.74567386457, 38789.843176584625, 61290.629063919674, 94443.63050980933, 60064.97115671291, 60382.589445422826, 0.046, 0.9460000000000001, 0.12, 192.0, 0.0, 0.0, 0.0, 0.0, 0.0, 0.0, 0.0, 0.0, 0.0, 1.6665563347485986E9, 0.0, 2022-10-23 13:18:54.748
248.0, -82126.47821026781, -114489.79252455146, 48088.124166503454, 38849.29881683574, 61294.40650873262, 93786.69038852339, 58948.79209384824, 59371.4635814981, 0.046, 0.9460000000000001, 0.12, 192.0, 0.0, 0.0, 0.0, 0.0, 0.0, 0.0, 0.0, 0.0, 0.0, 1.6665563347486067E9, 0.0, 2022-10-23 13:18:54.748
249.0, -82165.45965259787, -114528.99748432607, 48233.678726396414, 38958.21886756645, 61394.85524831477, 93968.4324226895, 59151.634174780156, 59730.0973212835, 0.046, 0.9460000000000001, 0.12, 192.0, 0.0, 0.0, 0.0, 0.0, 0.0, 0.0, 0.0, 0.0, 0.0, 1.6665563347486143E9, 0.0, 2022-10-23 13:18:54.748
250.0, -82200.26131871478, -114557.27244106203, 50207.74009320022, 39073.665627678114, 61491.615950061794, 94745.84844658953, 60414.261867315996, 60959.53267330321, 0.044, 0.9500000000000001, 0.116, 192.0, 1.0, 96.0, 29.0, 176.0, 3.0, 160.0, 0.0, 0.0, 0.0, 1.6665563347486224E9, 0.0, 2022-10-23 13:18:54.748
251.0, -82150.34987334609, -114520.21324875513, 50297.45999544382, 38810.809112883704, 61301.55906695832, 94599.69038959628, 60324.31844762784, 60645.60242242843, 0.044, 0.9500000000000001, 0.116, 192.0, 0.0, 0.0, 0.0, 0.0, 0.0, 0.0, 0.0, 0.0, 0.0, 1.6665563347486737E9, 0.0, 2022-10-23 13:18:54.748
252.0, -82126.16528584543, -114495.26870194302, 48244.42991547941, 38806.741095392834, 61261.6612031056, 93816.59702260459, 59024.430397085, 59402.95718943563, 0.044, 0.9500000000000001, 0.116, 192.0, 0.0, 0.0, 0.0, 0.0, 0.0, 0.0, 0.0, 0.0, 0.0, 1.6665563347486815E9, 0.0, 2022-10-23 13:18:54.748
253.0, -82148.27116111174, -114507.2268852266, 48080.05518675509, 38945.3442627602, 61376.079782972316, 93884.32280830418, 59025.436225585494, 59579.60302586592, 0.044, 0.9500000000000001, 0.116, 192.0, 0.0, 0.0, 0.0, 0.0, 0.0, 0.0, 0.0, 0.0, 0.0, 1.6665563347486908E9, 0.0, 2022-10-23 13:18:54.748
254.0, -82199.97074603687, -114562.10041786438, 49787.124966040254, 39078.20303180254, 61492.957054729115, 94595.84588954996, 60149.52780598734, 60726.605144334455, 0.044, 0.9500000000000001, 0.116, 192.0, 0.0, 0.0, 0.0, 0.0, 0.0, 0.0, 0.0, 0.0, 0.0, 1.6665563347486987E9, 0.0, 2022-10-23 13:18:54.748
255.0, -82165.61611480906, -114532.99844658357, 50585.998664617386, 38863.49217456486, 61338.79707322086, 94734.31494645058, 60516.47639471012, 60878.99933803074, 0.044, 0.9500000000000001, 0.116, 192.0, 0.0, 0.0, 0.0, 0.0, 0.0, 0.0, 0.0, 0.0, 0.0, 1.6665563347487063E9, 0.0, 2022-10-23 13:18:54.748
0.0, -82119.6385764645, -114483.26581517051, 48455.989176748895, 38795.29700223172, 61254.419237902075, 93877.08084310066, 59132.545785015325, 59493.68292017972, 0.044, 0.9500000000000001, 0.116, 192.0, 0.0, 0.0, 0.0, 0.0, 0.0, 0.0, 0.0, 0.0, 0.0, 1.6665563347487144E9, 0.0, 2022-10-23 13:18:54.748
1.0, -82157.83770773861, -114520.30265573296, 48010.29539231007, 38922.41137294905, 61372.25763467046, 93847.26361599728, 58967.43344872397, 59506.66928370825, 0.044, 0.9500000000000001, 0.116, 192.0, 0.0, 0.0, 0.0, 0.0, 0.0, 0.0, 0.0, 0.0, 0.0, 1.6665563347487223E9, 0.0, 2022-10-23 13:18:54.748
2.0, -82195.96978377936, -114558.65824921826, 49365.12403072406, 39056.320673980794, 61473.242816119535, 94441.14946617479, 59888.50413423826, 60490.59307463087, 0.044, 0.9500000000000001, 0.116, 192.0, 0.0, 0.0, 0.0, 0.0, 0.0, 0.0, 0.0, 0.0, 0.0, 1.66655633474873E9, 0.0, 2022-10-23 13:18:54.748
3.0, -82166.71135028737, -114526.11410929133, 50780.70471056756, 38942.729108658925, 61407.23811474301, 94860.98228227881, 60676.29136756556, 61089.48571556637, 0.044, 0.9500000000000001, 0.116, 192.0, 0.0, 0.0, 0.0, 0.0, 0.0, 0.0, 0.0, 0.0, 0.0, 1.666556334748738E9, 0.0, 2022-10-23 13:18:54.748
4.0, -82120.51029449825, -114495.22399845411, 48773.67452069218, 38768.161984462975, 61237.38720862714, 93992.66171367904, 59330.6045926338, 59674.128553167415, 0.04, 0.9580000000000001, 0.11, 192.0, 1.0, 64.0, 29.0, 240.0, 3.0, 112.0, 0.0, 0.0, 0.0, 1.666556334748746E9, 0.0, 2022-10-23 13:18:54.748
5.0, -82169.05828345518, -114543.86139438885, 47918.29561213203, 38897.08684648119, 61325.90011667015, 93778.88962970849, 58880.12753488154, 59402.398395824246, 0.04, 0.9580000000000001, 0.11, 192.0, 0.0, 0.0, 0.0, 0.0, 0.0, 0.0, 0.0, 0.0, 0.0, 1.6665563347487545E9, 0.0, 2022-10-23 13:18:54.748
6.0, -82201.53536814873, -114564.02266788753, 48944.68771751973, 39042.842572074245, 61448.432379774145, 94285.31310383238, 59621.13256706388, 60234.44208317305, 0.04, 0.9580000000000001, 0.11, 192.0, 0.0, 0.0, 0.0, 0.0, 0.0, 0.0, 0.0, 0.0, 0.0, 1.666556334748762E9, 0.0, 2022-10-23 13:18:54.748
7.0, -82183.63162084004, -114537.87112687483, 50803.10115851178, 39006.72215303447, 61449.058228618895, 94921.17553009695, 60722.291257654586, 61178.04332709829, 0.04, 0.9580000000000001, 0.11, 192.0, 0.0, 0.0, 0.0, 0.0, 0.0, 0.0, 0.0, 0.0, 0.0, 1.6665563347487698E9, 0.0, 2022-10-23 13:18:54.748
8.0, -82138.01171040675, -114494.15111472024, 49175.1565545984, 38762.68580707143, 61247.221976187466, 94169.3299018538, 59591.80707833852, 59911.57113451614, 0.04, 0.9580000000000001, 0.11, 192.0, 0.0, 0.0, 0.0, 0.0, 0.0, 0.0, 0.0, 0.0, 0.0, 1.6665563347487783E9, 0.0, 2022-10-23 13:18:54.748
9.0, -82163.47034734134, -114524.16950752372, 47952.47142940419, 38881.03829396228, 61310.25389555143, 93798.06742645115, 58894.47735482185, 59367.03793609595, 0.04, 0.9580000000000001, 0.11, 192.0, 0.0, 0.0, 0.0, 0.0, 0.0, 0.0, 0.0, 0.0, 0.0, 1.6665563347487864E9, 0.0, 2022-10-23 13:18:54.748
10.0, -82194.04753375621, -114552.33270553741, 48611.17733850209, 39017.56274909529, 61431.55681271038, 94169.3299018538, 59412.65784652923, 60003.52621120527, 0.04, 0.9580000000000001, 0.11, 192.0, 0.0, 0.0, 0.0, 0.0, 0.0, 0.0, 0.0, 0.0, 0.0, 1.6665563347488024E9, 0.0, 2022-10-23 13:18:54.748
11.0, -82214.09704853261, -114583.80396173049, 50687.31912223329, 39032.15843822461, 61473.108705652805, 94922.06959987518, 60687.69075723777, 61174.06471658525, 0.04, 0.9580000000000001, 0.11, 192.0, 0.0, 0.0, 0.0, 0.0, 0.0, 0.0, 0.0, 0.0, 0.0, 1.6665563347488103E9, 0.0, 2022-10-23 13:18:54.748
12.0, -82140.51510578574, -114503.04710901345, 49621.11855997069, 38765.61388559507, 61258.53195888185, 94349.26144471901, 59884.99491035878, 60190.23033264045, 0.04, 0.9580000000000001, 0.11, 192.0, 0.0, 0.0, 0.0, 0.0, 0.0, 0.0, 0.0, 0.0, 0.0, 1.6665563347488182E9, 0.0, 2022-10-23 13:18:54.748
13.0, -82141.29741684168, -114498.97909152259, 48025.87455819542, 38868.78953800077, 61308.51045948392, 93805.8905370105, 58927.66969533798, 59368.17787506317, 0.04, 0.9580000000000001, 0.11, 192.0, 0.0, 0.0, 0.0, 0.0, 0.0, 0.0, 0.0, 0.0, 0.0, 1.6665563347488263E9, 0.0, 2022-10-23 13:18:54.748
14.0, -82199.85898731458, -114564.51440626556, 48356.792134856245, 38966.198440337, 61397.58216113832, 94049.12222017316, 59240.97409736802, 59820.33131364958, 0.042, 0.962, 0.112, 192.0, 1.0, 80.0, 30.0, 16.0, 3.0, 128.0, 0.0, 0.0, 0.0, 1.666556334748834E9, 0.0, 2022-10-23 13:18:54.748
15.0, -82212.44301944293, -114591.58236880093, 50433.090380798625, 39071.9221916106, 61490.38660411676, 94846.3865931495, 60548.327630558924, 61077.348718327135, 0.042, 0.962, 0.112, 192.0, 0.0, 0.0, 0.0, 0.0, 0.0, 0.0, 0.0, 0.0, 0.0, 1.6665563347488425E9, 0.0, 2022-10-23 13:18:54.748
16.0, -82152.4956408138, -114525.5329639355, 50025.34985844492, 38798.96268832239, 61285.44345920604, 94505.61189718389, 60144.76688441836, 60467.07903946389, 0.042, 0.962, 0.112, 192.0, 0.0, 0.0, 0.0, 0.0, 0.0, 0.0, 0.0, 0.0, 0.0, 1.6665563347488503E9, 0.0, 2022-10-23 13:18:54.748
17.0, -82142.34794883108, -114507.51745790453, 48093.42152993936, 38839.821677186694, 61278.5144184249, 93786.51157456775, 58941.10309375562, 59357.13611330225, 0.042, 0.962, 0.112, 192.0, 0.0, 0.0, 0.0, 0.0, 0.0, 0.0, 0.0, 0.0, 0.0, 1.666556334748858E9, 0.0, 2022-10-23 13:18:54.748
