%OpenBCI Raw EEG Data
%Number of channels = 8
%Sample Rate = 250 Hz
%Board = OpenBCI_GUI$BoardCytonSerial
Sample Index, EXG Channel 0, EXG Channel 1, EXG Channel 2, EXG Channel 3, EXG Channel 4, EXG Channel 5, EXG Channel 6, EXG Channel 7, Accel Channel 0, Accel Channel 1, Accel Channel 2, Other, Other, Other, Other, Other, Other, Other, Analog Channel 0, Analog Channel 1, Analog Channel 2, Timestamp, Other, Timestamp (Formatted)
80.0, -79436.08813716032, -111020.93589555453, 51253.46645754176, 35123.173609158235, 61685.51733321159, 86646.15740134209, 57527.556422657544, 56408.56103999151, 0.064, 0.9400000000000001, 0.154, 192.0, 2.0, 0.0, 29.0, 96.0, 4.0, 208.0, 0.0, 0.0, 0.0, 1.6665562429948173E9, 0.0, 2022-10-23 13:17:22.994
81.0, -79373.05621779636, -110962.441380315, 51337.15138878243, 34894.068228491335, 61496.55568558642, 86499.75347515983, 57434.03672385654, 56091.00980651496, 0.064, 0.9400000000000001, 0.154, 192.0, 0.0, 0.0, 0.0, 0.0, 0.0, 0.0, 0.0, 0.0, 0.0, 1.6665562429948373E9, 0.0, 2022-10-23 13:17:22.994
82.0, -79332.08547020979, -110918.36374024913, 49292.36910252203, 34913.62600488973, 61466.671403249675, 85692.36376194522, 56116.71431263856, 54826.34810523369, 0.064, 0.9400000000000001, 0.154, 192.0, 0.0, 0.0, 0.0, 0.0, 0.0, 0.0, 0.0, 0.0, 0.0, 1.666556242994846E9, 0.0, 2022-10-23 13:17:22.994
83.0, -79350.72682508551, -110932.04300785578, 49143.57353968305, 35036.24767497154, 61586.72262271913, 85768.58321053782, 56135.15450181419, 55019.31071511635, 0.064, 0.9400000000000001, 0.154, 192.0, 0.0, 0.0, 0.0, 0.0, 0.0, 0.0, 0.0, 0.0, 0.0, 1.666556242994854E9, 0.0, 2022-10-23 13:17:22.994
84.0, -79389.84237788229, -110970.73387750791, 50824.91646110016, 35136.27173140904, 61690.658234436305, 86477.08880628215, 57258.50847464901, 56164.90467368421, 0.064, 0.9400000000000001, 0.154, 192.0, 0.0, 0.0, 0.0, 0.0, 0.0, 0.0, 0.0, 0.0, 0.0, 1.666556242994862E9, 0.0, 2022-10-23 13:17:22.994
85.0, -79354.54897338737, -110940.9837056379, 51657.921273460546, 34950.19345881861, 61556.68187817119, 86652.46059327849, 57670.585235427054, 56352.99460327561, 0.064, 0.9400000000000001, 0.154, 192.0, 0.0, 0.0, 0.0, 0.0, 0.0, 0.0, 0.0, 0.0, 0.0, 1.66655624299487E9, 0.0, 2022-10-23 13:17:22.994
86.0, -79309.46550482101, -110901.39876620755, 49537.74655315239, 34881.640658574186, 61443.4032372717, 85762.95057093508, 56268.46030574564, 54937.12335075419, 0.064, 0.9400000000000001, 0.154, 192.0, 0.0, 0.0, 0.0, 0.0, 0.0, 0.0, 0.0, 0.0, 0.0, 1.666556242994878E9, 0.0, 2022-10-23 13:17:22.994
87.0, -79335.48293536699, -110920.88948737258, 49064.582474778, 34998.942613475636, 61554.60316593685, 85702.64556439467, 56070.580312082806, 54917.275001677874, 0.064, 0.9400000000000001, 0.154, 192.0, 0.0, 0.0, 0.0, 0.0, 0.0, 0.0, 0.0, 0.0, 0.0, 1.6665562429948857E9, 0.0, 2022-10-23 13:17:22.994
88.0, -79381.79574987838, -110963.00017392638, 50448.31191877269, 35117.42921083322, 61663.79143760103, 86329.7237550883, 57032.308820761304, 55936.38043837315, 0.064, 0.9400000000000001, 0.154, 192.0, 0.0, 0.0, 0.0, 0.0, 0.0, 0.0, 0.0, 0.0, 0.0, 1.6665562429948936E9, 0.0, 2022-10-23 13:17:22.994
89.0, -79345.65297909416, -110930.59014446619, 51855.957729334565, 35003.85999725581, 61584.129820362316, 86747.65667291364, 57819.02317035475, 56534.66958220835, 0.064, 0.9440000000000001, 0.152, 192.0, 2.0, 0.0, 29.0, 128.0, 4.0, 192.0, 0.0, 0.0, 0.0, 1.6665562429949017E9, 0.0, 2022-10-23 13:17:22.994
90.0, -79288.14194061064, -110875.38133566157, 49868.53001934648, 34872.14116718068, 61438.93288838064, 85869.25546756452, 56465.87091277492, 55110.259963305, 0.064, 0.9440000000000001, 0.152, 192.0, 0.0, 0.0, 0.0, 0.0, 0.0, 0.0, 0.0, 0.0, 0.0, 1.66655624299491E9, 0.0, 2022-10-23 13:17:22.994
91.0, -79306.35861234172, -110893.28508297028, 49020.84011087896, 34994.44991284012, 61544.70134314315, 85649.69428178004, 56013.42690151059, 54839.267413528854, 0.064, 0.9440000000000001, 0.152, 192.0, 0.0, 0.0, 0.0, 0.0, 0.0, 0.0, 0.0, 0.0, 0.0, 1.666556242994918E9, 0.0, 2022-10-23 13:17:22.994
92.0, -79338.05338597935, -110926.34331301968, 50023.986402033144, 35115.79753348798, 61661.10922826639, 86147.40057556637, 56747.54759640069, 55668.11480142055, 0.064, 0.9440000000000001, 0.152, 192.0, 0.0, 0.0, 0.0, 0.0, 0.0, 0.0, 0.0, 0.0, 0.0, 1.6665562429949257E9, 0.0, 2022-10-23 13:17:22.994
93.0, -79333.65009232165, -110923.48228972939, 51872.05098534239, 35064.41087298523, 61646.67000134826, 86786.70517047706, 57855.724734750365, 56621.886089072956, 0.064, 0.9440000000000001, 0.152, 192.0, 0.0, 0.0, 0.0, 0.0, 0.0, 0.0, 0.0, 0.0, 0.0, 1.6665562429949336E9, 0.0, 2022-10-23 13:17:22.994
94.0, -79278.10600735022, -110871.84976003764, 50266.078146228574, 34863.08871067628, 61450.511092008484, 86025.96354794069, 56721.641924576994, 55346.00381207512, 0.064, 0.9440000000000001, 0.152, 192.0, 0.0, 0.0, 0.0, 0.0, 0.0, 0.0, 0.0, 0.0, 0.0, 1.6665562429949417E9, 0.0, 2022-10-23 13:17:22.994
95.0, -79297.57437677079, -110892.34630970315, 49044.51060825713, 34971.42761605115, 61518.23687770807, 85636.50675255142, 56011.70581718753, 54792.75343331736, 0.064, 0.9440000000000001, 0.152, 192.0, 0.0, 0.0, 0.0, 0.0, 0.0, 0.0, 0.0, 0.0, 0.0, 1.6665562429949496E9, 0.0, 2022-10-23 13:17:22.994
96.0, -79332.75602254344, -110918.54255420477, 49677.6237699537, 35080.392370270776, 61624.586477826415, 85990.82660565694, 56513.882459864915, 55420.770397278124, 0.064, 0.9440000000000001, 0.152, 192.0, 0.0, 0.0, 0.0, 0.0, 0.0, 0.0, 0.0, 0.0, 0.0, 1.6665562429950569E9, 0.0, 2022-10-23 13:17:22.995
97.0, -79345.40710990514, -110934.97108637943, 51731.167940040585, 35098.40787630175, 61670.809885359995, 86752.70816716054, 57786.70254787237, 56594.14757420392, 0.064, 0.9440000000000001, 0.152, 192.0, 0.0, 0.0, 0.0, 0.0, 0.0, 0.0, 0.0, 0.0, 0.0, 1.6665562429950652E9, 0.0, 2022-10-23 13:17:22.995
98.0, -79281.10114110722, -110874.19669320545, 50668.633063868656, 34859.98181819699, 61462.67044099217, 86173.70857879026, 56973.56843633276, 55604.00999832273, 0.064, 0.9440000000000001, 0.152, 192.0, 0.0, 0.0, 0.0, 0.0, 0.0, 0.0, 0.0, 0.0, 0.0, 1.6665562429950733E9, 0.0, 2022-10-23 13:17:22.995
99.0, -79280.25177481792, -110863.84783552264, 49090.80107102407, 34957.68129321114, 61510.279656681974, 85628.28131059186, 56018.65720971313, 54778.73888954388, 0.064, 0.9400000000000001, 0.146, 192.0, 2.0, 0.0, 29.0, 96.0, 4.0, 144.0, 0.0, 0.0, 0.0, 1.6665562429950812E9, 0.0, 2022-10-23 13:17:22.995
100.0, -79312.41593508911, -110896.07905102719, 49415.996601104336, 35059.15821303823, 61605.63219852832, 85876.40802579022, 56334.844986777905, 55238.89425264529, 0.064, 0.9400000000000001, 0.146, 192.0, 0.0, 0.0, 0.0, 0.0, 0.0, 0.0, 0.0, 0.0, 0.0, 1.66655624299509E9, 0.0, 2022-10-23 13:17:22.995
101.0, -79340.08739472477, -110924.84574614117, 51477.29682651721, 35130.929664484225, 61685.3608710004, 86685.34000937224, 57653.75437185221, 56504.025340560125, 0.064, 0.9400000000000001, 0.146, 192.0, 0.0, 0.0, 0.0, 0.0, 0.0, 0.0, 0.0, 0.0, 0.0, 1.666556242995098E9, 0.0, 2022-10-23 13:17:22.995
102.0, -79274.462673004, -110863.3113936557, 51105.274391803076, 34890.916632523134, 61483.859894735804, 86361.68674965939, 57272.388907955756, 55914.56513578477, 0.064, 0.9400000000000001, 0.146, 192.0, 0.0, 0.0, 0.0, 0.0, 0.0, 0.0, 0.0, 0.0, 0.0, 1.6665562429951084E9, 0.0, 2022-10-23 13:17:22.995
103.0, -79260.11285306369, -110846.86050973661, 49169.99330162923, 34940.17987730263, 61477.55670279941, 85623.25216808941, 56043.98173618099, 54784.63975008008, 0.064, 0.9400000000000001, 0.146, 192.0, 0.0, 0.0, 0.0, 0.0, 0.0, 0.0, 0.0, 0.0, 0.0, 1.6665562429951165E9, 0.0, 2022-10-23 13:17:22.995
104.0, -79300.72597273899, -110883.11503924312, 49192.03212166216, 35040.02511978449, 61584.06276512895, 85759.15077437769, 56168.99504291952, 55079.86159084578, 0.064, 0.9400000000000001, 0.146, 192.0, 0.0, 0.0, 0.0, 0.0, 0.0, 0.0, 0.0, 0.0, 0.0, 1.666556242995124E9, 0.0, 2022-10-23 13:17:22.995
105.0, -79338.25455167945, -110918.05081582676, 51066.02472853956, 35145.391243146805, 61682.65630992131, 86529.1236673741, 57397.62573213885, 56301.362073583856, 0.064, 0.9400000000000001, 0.146, 192.0, 0.0, 0.0, 0.0, 0.0, 0.0, 0.0, 0.0, 0.0, 0.0, 1.666556242995132E9, 0.0, 2022-10-23 13:17:22.995
106.0, -79296.65795524811, -110879.13642873007, 51475.41927998296, 34930.09924055329, 61520.80732832043, 86530.30830983023, 57525.745931356665, 56203.30497065842, 0.064, 0.9400000000000001, 0.146, 192.0, 0.0, 0.0, 0.0, 0.0, 0.0, 0.0, 0.0, 0.0, 0.0, 1.66655624299514E9, 0.0, 2022-10-23 13:17:22.995
107.0, -79272.62982995866, -110858.75163778683, 49389.73330136935, 34898.58328087131, 61444.67728670565, 85695.56006140233, 56172.03488016545, 54875.544294779815, 0.064, 0.9400000000000001, 0.146, 192.0, 0.0, 0.0, 0.0, 0.0, 0.0, 0.0, 0.0, 0.0, 0.0, 1.6665562429951477E9, 0.0, 2022-10-23 13:17:22.995
108.0, -79303.34112684026, -110888.59121663467, 49120.93122254983, 35007.79390427994, 61554.3796484923, 85722.49391347099, 56112.02044630295, 54985.26900831092, 0.064, 0.9400000000000001, 0.146, 192.0, 0.0, 0.0, 0.0, 0.0, 0.0, 0.0, 0.0, 0.0, 0.0, 1.6665562429951556E9, 0.0, 2022-10-23 13:17:22.995
109.0, -79323.74826952795, -110905.01974880931, 50684.88278208766, 35145.30183616899, 61671.21221676019, 86401.11522687855, 57167.738040416014, 56079.90098952067, 0.062, 0.9400000000000001, 0.14400000000000002, 192.0, 1.0, 240.0, 29.0, 96.0, 4.0, 128.0, 0.0, 0.0, 0.0, 1.6665562429951637E9, 0.0, 2022-10-23 13:17:22.995
110.0, -79294.78040871386, -110876.923606029, 51763.756783456425, 34983.29639235692, 61566.47194224262, 86681.58491630375, 57736.76875075922, 56442.06630493001, 0.062, 0.9400000000000001, 0.14400000000000002, 192.0, 0.0, 0.0, 0.0, 0.0, 0.0, 0.0, 0.0, 0.0, 0.0, 1.6665562429951725E9, 0.0, 2022-10-23 13:17:22.995
111.0, -79260.26931527488, -110845.1170736691, 49679.43426125458, 34869.10132993476, 61433.25554528899, 85792.0972457048, 56343.8974432823, 55006.83844171029, 0.062, 0.9400000000000001, 0.14400000000000002, 192.0, 0.0, 0.0, 0.0, 0.0, 0.0, 0.0, 0.0, 0.0, 0.0, 1.6665562429951804E9, 0.0, 2022-10-23 13:17:22.995
112.0, -79286.37615279868, -110868.20642569143, 49059.55333227555, 34994.58402330685, 61539.873366340806, 85666.10046221023, 56046.44042807108, 54885.49082106243, 0.062, 0.9400000000000001, 0.14400000000000002, 192.0, 0.0, 0.0, 0.0, 0.0, 0.0, 0.0, 0.0, 0.0, 0.0, 1.6665562429952207E9, 0.0, 2022-10-23 13:17:22.995
113.0, -79312.63945253367, -110893.24037948137, 50279.80211732413, 35126.52637082653, 61660.930414310744, 86237.67927142135, 56908.860136134645, 55821.850099784155, 0.062, 0.9400000000000001, 0.14400000000000002, 192.0, 0.0, 0.0, 0.0, 0.0, 0.0, 0.0, 0.0, 0.0, 0.0, 1.6665562429952288E9, 0.0, 2022-10-23 13:17:22.995
114.0, -79309.51020830992, -110896.14610626055, 51894.35802630878, 35034.034852270466, 61617.545678323, 86762.90056263216, 57846.22524335686, 56580.781231019646, 0.062, 0.9400000000000001, 0.14400000000000002, 192.0, 0.0, 0.0, 0.0, 0.0, 0.0, 0.0, 0.0, 0.0, 0.0, 1.6665562429952369E9, 0.0, 2022-10-23 13:17:22.995
115.0, -79262.95152460951, -110848.78275975976, 50028.14382650183, 34859.31126586333, 61434.28372553393, 85911.27674714051, 56555.7025737408, 55187.775813076, 0.062, 0.9400000000000001, 0.14400000000000002, 192.0, 0.0, 0.0, 0.0, 0.0, 0.0, 0.0, 0.0, 0.0, 0.0, 1.6665562429952445E9, 0.0, 2022-10-23 13:17:22.995
116.0, -79284.3644957977, -110864.3619256451, 49035.59226221946, 34981.39649407822, 61528.2728109685, 85627.87897919166, 56004.64266593965, 54811.90887831556, 0.062, 0.9400000000000001, 0.14400000000000002, 192.0, 0.0, 0.0, 0.0, 0.0, 0.0, 0.0, 0.0, 0.0, 0.0, 1.6665562429952536E9, 0.0, 2022-10-23 13:17:22.995
117.0, -79313.95820545653, -110891.56399864722, 49891.61937136881, 35100.933623425204, 61643.07137049096, 86070.28705719556, 56650.004583597736, 55567.10726822702, 0.062, 0.9400000000000001, 0.14400000000000002, 192.0, 0.0, 0.0, 0.0, 0.0, 0.0, 0.0, 0.0, 0.0, 0.0, 1.6665562429952612E9, 0.0, 2022-10-23 13:17:22.995
118.0, -79330.49849635345, -110912.75345239085, 51871.51454347546, 35080.57118422642, 61658.53877765403, 86785.0287896429, 57862.6090720426, 56641.935603849364, 0.062, 0.9440000000000001, 0.14200000000000002, 192.0, 1.0, 240.0, 29.0, 128.0, 4.0, 112.0, 0.0, 0.0, 0.0, 1.6665562429952693E9, 0.0, 2022-10-23 13:17:22.995
119.0, -79268.83003340126, -110852.13552142806, 50473.435279540456, 34867.089672933784, 61451.74043795353, 86094.24812725165, 56851.818484284704, 55469.45249670178, 0.062, 0.9440000000000001, 0.14200000000000002, 192.0, 0.0, 0.0, 0.0, 0.0, 0.0, 0.0, 0.0, 0.0, 0.0, 1.6665562429952776E9, 0.0, 2022-10-23 13:17:22.995
120.0, -79282.95633589702, -110864.13840820055, 49117.846681815, 34975.29446784192, 61519.19800271965, 85654.41049986011, 56052.833026985296, 54814.27816322782, 0.062, 0.9440000000000001, 0.14200000000000002, 192.0, 0.0, 0.0, 0.0, 0.0, 0.0, 0.0, 0.0, 0.0, 0.0, 1.6665562429952855E9, 0.0, 2022-10-23 13:17:22.995
121.0, -79315.61223454622, -110894.6261876376, 49639.11171425721, 35070.602306199355, 61611.48835557561, 85974.62159092684, 56489.27318921962, 55376.98332989017, 0.062, 0.9440000000000001, 0.14200000000000002, 192.0, 0.0, 0.0, 0.0, 0.0, 0.0, 0.0, 0.0, 0.0, 0.0, 1.6665562429952936E9, 0.0, 2022-10-23 13:17:22.995
122.0, -79322.40716486063, -110903.0304435528, 51730.698553407026, 35124.0900306809, 61677.06837380748, 86769.15905107964, 57801.52175444624, 56603.62471385297, 0.062, 0.9440000000000001, 0.14200000000000002, 192.0, 0.0, 0.0, 0.0, 0.0, 0.0, 0.0, 0.0, 0.0, 0.0, 1.6665562429953012E9, 0.0, 2022-10-23 13:17:22.995
123.0, -79266.50545197791, -110854.92948948497, 50913.07174123189, 34871.80589101385, 61459.0047549015, 86263.1602601004, 57129.561260886345, 55741.56263370069, 0.062, 0.9440000000000001, 0.14200000000000002, 192.0, 0.0, 0.0, 0.0, 0.0, 0.0, 0.0, 0.0, 0.0, 0.0, 1.66655624299531E9, 0.0, 2022-10-23 13:17:22.995
124.0, -79268.49475723442, -110857.41053311952, 49185.61717100348, 34949.70172044059, 61489.805458760915, 85640.91004620912, 56063.450105601565, 54790.808831549744, 0.062, 0.9440000000000001, 0.14200000000000002, 192.0, 0.0, 0.0, 0.0, 0.0, 0.0, 0.0, 0.0, 0.0, 0.0, 1.666556242995318E9, 0.0, 2022-10-23 13:17:22.995
125.0, -79286.13028360967, -110871.670946082, 49383.474812921864, 35061.08046306139, 61596.95972167966, 85843.37214748528, 56302.83728871791, 55186.68057759769, 0.062, 0.9440000000000001, 0.14200000000000002, 192.0, 0.0, 0.0, 0.0, 0.0, 0.0, 0.0, 0.0, 0.0, 0.0, 1.6665562429953258E9, 0.0, 2022-10-23 13:17:22.995
126.0, -79327.45865910753, -110912.44052796847, 51399.110424412545, 35138.86453376586, 61686.07612682297, 86651.92415141156, 57611.91190623187, 56456.28201440359, 0.062, 0.9440000000000001, 0.14200000000000002, 192.0, 0.0, 0.0, 0.0, 0.0, 0.0, 0.0, 0.0, 0.0, 0.0, 1.6665562429953337E9, 0.0, 2022-10-23 13:17:22.995
127.0, -79280.67645796257, -110870.84393153715, 51324.03091478717, 34890.46959763403, 61474.31569985339, 86434.10640169459, 57413.607229424386, 56037.589137266776, 0.062, 0.9440000000000001, 0.14200000000000002, 192.0, 0.0, 0.0, 0.0, 0.0, 0.0, 0.0, 0.0, 0.0, 0.0, 1.66655624299535E9, 0.0, 2022-10-23 13:17:22.995
128.0, -79256.46951871748, -110843.95478295741, 49302.71796020484, 34921.67263289364, 61459.09416187932, 85646.94501721204, 56118.256583005976, 54812.31120971575, 0.064, 0.9500000000000001, 0.14, 192.0, 2.0, 0.0, 29.0, 176.0, 4.0, 96.0, 0.0, 0.0, 0.0, 1.6665562429953578E9, 0.0, 2022-10-23 13:17:22.995
129.0, -79279.87179516218, -110865.99360299035, 49192.18858387334, 35037.00763428302, 61577.04431736998, 85734.22857931002, 56155.82986543535, 55025.993886708486, 0.064, 0.9500000000000001, 0.14, 192.0, 0.0, 0.0, 0.0, 0.0, 0.0, 0.0, 0.0, 0.0, 0.0, 1.6665562429953666E9, 0.0, 2022-10-23 13:17:22.995
130.0, -79319.7696590149, -110904.10332728665, 50950.421506216706, 35146.68764432522, 61687.998376846124, 86474.9653905589, 57324.87080393682, 56211.35159866233, 0.064, 0.9500000000000001, 0.14, 192.0, 0.0, 0.0, 0.0, 0.0, 0.0, 0.0, 0.0, 0.0, 0.0, 1.6665562429953744E9, 0.0, 2022-10-23 13:17:22.995
131.0, -79295.3168505808, -110882.15391423153, 51617.017581107335, 34932.08854580981, 61521.92491554319, 86568.59684808218, 57616.0469789561, 56285.64879723177, 0.064, 0.9500000000000001, 0.14, 192.0, 0.0, 0.0, 0.0, 0.0, 0.0, 0.0, 0.0, 0.0, 0.0, 1.6665562429953823E9, 0.0, 2022-10-23 13:17:22.995
132.0, -79247.23824825743, -110835.57287878668, 49477.19567742296, 34879.65135331766, 61423.73370215103, 85680.11500598372, 56205.3166276594, 54884.03795767283, 0.064, 0.9500000000000001, 0.14, 192.0, 0.0, 0.0, 0.0, 0.0, 0.0, 0.0, 0.0, 0.0, 0.0, 1.66655624299539E9, 0.0, 2022-10-23 13:17:22.995
133.0, -79268.24888804542, -110855.80120751873, 49078.23939064019, 35010.610224081305, 61551.98801183558, 85664.33467439827, 56061.99724221197, 54927.355638427216, 0.064, 0.9500000000000001, 0.14, 192.0, 0.0, 0.0, 0.0, 0.0, 0.0, 0.0, 0.0, 0.0, 0.0, 1.666556242995398E9, 0.0, 2022-10-23 13:17:22.995
134.0, -79316.81922874681, -110900.28117898479, 50547.93364380999, 35134.68475755271, 61671.74865862712, 86336.96572029183, 57079.60511202874, 55993.48914545646, 0.064, 0.9500000000000001, 0.14, 192.0, 0.0, 0.0, 0.0, 0.0, 0.0, 0.0, 0.0, 0.0, 0.0, 1.666556242995406E9, 0.0, 2022-10-23 13:17:22.995
135.0, -79304.74928674095, -110889.15001024604, 51875.15787782167, 34997.042715196934, 61577.84898017037, 86725.68490811407, 57814.93280111943, 56525.17009081484, 0.064, 0.9500000000000001, 0.14, 192.0, 0.0, 0.0, 0.0, 0.0, 0.0, 0.0, 0.0, 0.0, 0.0, 1.6665562429954135E9, 0.0, 2022-10-23 13:17:22.995
136.0, -79255.06135881679, -110838.79152998824, 49836.09763814183, 34873.459920103545, 61422.79492888391, 85830.3634322123, 56429.86225245742, 55076.66529138867, 0.064, 0.9500000000000001, 0.14, 192.0, 0.0, 0.0, 0.0, 0.0, 0.0, 0.0, 0.0, 0.0, 0.0, 1.6665562429954214E9, 0.0, 2022-10-23 13:17:22.995
137.0, -79276.3625712827, -110858.99750697584, 49050.12089611541, 34998.45087509762, 61524.67418011119, 85634.69626125053, 56015.25974455592, 54844.96710836496, 0.064, 0.9500000000000001, 0.14, 192.0, 0.0, 0.0, 0.0, 0.0, 0.0, 0.0, 0.0, 0.0, 0.0, 1.6665562429954293E9, 0.0, 2022-10-23 13:17:22.995
138.0, -79310.58309204377, -110891.89927481404, 50119.67422004631, 35121.27371087953, 61655.2530712191, 86153.12262214693, 56784.45032649641, 55708.70556935139, 0.062, 0.9480000000000001, 0.138, 192.0, 1.0, 240.0, 29.0, 160.0, 4.0, 80.0, 0.0, 0.0, 0.0, 1.666556242995437E9, 0.0, 2022-10-23 13:17:22.995
139.0, -79306.470371064, -110888.39005093457, 51922.878852233756, 35057.45948045963, 61636.119977965354, 86776.11044360524, 57863.16786565398, 56622.020199539686, 0.062, 0.9480000000000001, 0.138, 192.0, 0.0, 0.0, 0.0, 0.0, 0.0, 0.0, 0.0, 0.0, 0.0, 1.6665562429954453E9, 0.0, 2022-10-23 13:17:22.995
140.0, -79246.65710290159, -110828.59913451663, 50190.95393311429, 34870.017751457424, 61439.58108896984, 85962.99868381009, 56644.37194399499, 55283.03894794452, 0.062, 0.9480000000000001, 0.138, 192.0, 0.0, 0.0, 0.0, 0.0, 0.0, 0.0, 0.0, 0.0, 0.0, 1.6665562429954531E9, 0.0, 2022-10-23 13:17:22.995
141.0, -79271.1099113357, -110850.39208536054, 49065.49889630066, 34994.89694772923, 61532.519642415005, 85637.15495314062, 56009.627104953186, 54813.5852591497, 0.062, 0.9480000000000001, 0.138, 192.0, 0.0, 0.0, 0.0, 0.0, 0.0, 0.0, 0.0, 0.0, 0.0, 1.6665562429954607E9, 0.0, 2022-10-23 13:17:22.995
142.0, -79303.81051347381, -110882.73505958737, 49770.0482332764, 35095.39039080028, 61622.79833827, 86016.68757399173, 56552.08159113903, 55476.47094446074, 0.062, 0.9480000000000001, 0.138, 192.0, 0.0, 0.0, 0.0, 0.0, 0.0, 0.0, 0.0, 0.0, 0.0, 1.6665562429954689E9, 0.0, 2022-10-23 13:17:22.995
143.0, -79317.60153980274, -110900.30353072924, 51804.48166185399, 35096.57503325642, 61658.695239865214, 86764.44283299957, 57805.70153065938, 56617.281629715166, 0.062, 0.9480000000000001, 0.138, 192.0, 0.0, 0.0, 0.0, 0.0, 0.0, 0.0, 0.0, 0.0, 0.0, 1.6665562429954998E9, 0.0, 2022-10-23 13:17:22.995
144.0, -79255.88837336164, -110843.4630445794, 50615.36885683166, 34868.90016423466, 61455.09319962183, 86142.6843574863, 56917.398502516575, 55555.841989021545, 0.062, 0.9480000000000001, 0.138, 192.0, 0.0, 0.0, 0.0, 0.0, 0.0, 0.0, 0.0, 0.0, 0.0, 1.666556242995509E9, 0.0, 2022-10-23 13:17:22.995
145.0, -79272.1157398362, -110858.03638196427, 49098.57947809452, 34960.989351390526, 61506.63632233576, 85624.48151403446, 56002.16162230512, 54778.94005524398, 0.062, 0.9480000000000001, 0.138, 192.0, 0.0, 0.0, 0.0, 0.0, 0.0, 0.0, 0.0, 0.0, 0.0, 1.6665562429955163E9, 0.0, 2022-10-23 13:17:22.995
146.0, -79295.98740291446, -110876.0742397397, 49483.20829668144, 35065.99784684156, 61610.28136137502, 85895.8763952108, 56355.14037074332, 55270.90195070529, 0.062, 0.9480000000000001, 0.138, 192.0, 0.0, 0.0, 0.0, 0.0, 0.0, 0.0, 0.0, 0.0, 0.0, 1.6665562429955244E9, 0.0, 2022-10-23 13:17:22.995
147.0, -79322.34010962727, -110900.66115864053, 51578.68433936648, 35145.63711233582, 61704.67277820978, 86722.04157376786, 57694.38984327196, 56546.35954455847, 0.068, 0.9460000000000001, 0.134, 192.0, 2.0, 32.0, 29.0, 144.0, 4.0, 48.0, 0.0, 0.0, 0.0, 1.6665562429955325E9, 0.0, 2022-10-23 13:17:22.995
148.0, -79280.47529226248, -110863.33374540017, 51067.0529087845, 34887.295649921376, 61484.17281915818, 86345.57114190712, 57225.629058555256, 55866.26301601685, 0.068, 0.9460000000000001, 0.134, 192.0, 0.0, 0.0, 0.0, 0.0, 0.0, 0.0, 0.0, 0.0, 0.0, 1.6665562429955409E9, 0.0, 2022-10-23 13:17:22.995
149.0, -79280.94467889603, -110860.15979768752, 49209.55588931512, 34937.564723201365, 61481.289444123446, 85651.4153661031, 56060.38791661119, 54795.65916009655, 0.068, 0.9460000000000001, 0.134, 192.0, 0.0, 0.0, 0.0, 0.0, 0.0, 0.0, 0.0, 0.0, 0.0, 1.6665562429955485E9, 0.0, 2022-10-23 13:17:22.995
150.0, -79311.03012693288, -110887.16070498952, 49289.6868931874, 35039.71219536212, 61586.700270974674, 85806.96115576758, 56221.67810460069, 55120.38530354325, 0.068, 0.9460000000000001, 0.134, 192.0, 0.0, 0.0, 0.0, 0.0, 0.0, 0.0, 0.0, 0.0, 0.0, 1.6665562429955564E9, 0.0, 2022-10-23 13:17:22.995
151.0, -79340.02033949141, -110915.65917917005, 51208.04771280858, 35140.920894255745, 61688.423059990775, 86586.65705760206, 57469.821866729486, 56357.88963531132, 0.068, 0.9460000000000001, 0.134, 192.0, 0.0, 0.0, 0.0, 0.0, 0.0, 0.0, 0.0, 0.0, 0.0, 1.6665562429955642E9, 0.0, 2022-10-23 13:17:22.995
152.0, -79289.32658306678, -110869.39106814755, 51443.38923017851, 34921.24794974899, 61510.570229359895, 86508.04597235275, 57475.49920982114, 56144.29636529641, 0.068, 0.9460000000000001, 0.134, 192.0, 0.0, 0.0, 0.0, 0.0, 0.0, 0.0, 0.0, 0.0, 0.0, 1.666556242995572E9, 0.0, 2022-10-23 13:17:22.995
153.0, -79265.8572513887, -110847.79928300373, 49380.189106486934, 34926.366499229254, 61466.62669976076, 85696.96822130302, 56144.20695831859, 54855.4500765145, 0.068, 0.9460000000000001, 0.134, 192.0, 0.0, 0.0, 0.0, 0.0, 0.0, 0.0, 0.0, 0.0, 0.0, 1.6665562429955797E9, 0.0, 2022-10-23 13:17:22.995
154.0, -79294.5121877804, -110873.83906529416, 49153.408307243386, 35037.07468951639, 61572.39515452328, 85735.88260839971, 56105.20316424408, 54991.86277292523, 0.068, 0.9460000000000001, 0.134, 192.0, 0.0, 0.0, 0.0, 0.0, 0.0, 0.0, 0.0, 0.0, 0.0, 1.6665562429955876E9, 0.0, 2022-10-23 13:17:22.995
155.0, -79327.10103119625, -110910.49592620086, 50788.34900717128, 35153.54962987299, 61686.6572721788, 86439.96255874189, 57204.03727341143, 56127.44314997711, 0.068, 0.9460000000000001, 0.134, 192.0, 0.0, 0.0, 0.0, 0.0, 0.0, 0.0, 0.0, 0.0, 0.0, 1.6665562429955952E9, 0.0, 2022-10-23 13:17:22.995
156.0, -79296.8144174593, -110879.00231826334, 51741.785018656854, 34985.57627029136, 61566.56134922044, 86667.03393066334, 57691.484116492764, 56403.50954574461, 0.068, 0.9460000000000001, 0.134, 192.0, 0.0, 0.0, 0.0, 0.0, 0.0, 0.0, 0.0, 0.0, 0.0, 1.666556242995603E9, 0.0, 2022-10-23 13:17:22.995
157.0, -79264.87377463267, -110845.25118413582, 49625.857129795215, 34899.030315760414, 61448.81235942988, 85775.95928620808, 56284.53121000901, 54973.40023200515, 0.07200000000000001, 0.9440000000000001, 0.136, 192.0, 2.0, 64.0, 29.0, 128.0, 4.0, 64.0, 0.0, 0.0, 0.0, 1.6665562429956107E9, 0.0, 2022-10-23 13:17:22.995
158.0, -79311.61127228872, -110891.02755678029, 49072.29382661508, 34994.02522969547, 61542.77909311999, 85676.49402338195, 56027.12852086169, 54894.45387058901, 0.07200000000000001, 0.9440000000000001, 0.136, 192.0, 0.0, 0.0, 0.0, 0.0, 0.0, 0.0, 0.0, 0.0, 0.0, 1.6665562429956307E9, 0.0, 2022-10-23 13:17:22.995
159.0, -79354.30310419835, -110931.64067645559, 50372.427746346926, 35117.74213525559, 61653.1520072403, 86275.118443384, 56936.84452019269, 55867.5370654508, 0.07200000000000001, 0.9440000000000001, 0.136, 192.0, 0.0, 0.0, 0.0, 0.0, 0.0, 0.0, 0.0, 0.0, 0.0, 1.6665562429956388E9, 0.0, 2022-10-23 13:17:22.995
160.0, -79341.74142381447, -110926.76799616433, 51899.36481706677, 35004.55290133392, 61585.40386979627, 86756.70912941804, 57812.69762667389, 56556.306070841085, 0.07200000000000001, 0.9440000000000001, 0.136, 192.0, 0.0, 0.0, 0.0, 0.0, 0.0, 0.0, 0.0, 0.0, 0.0, 1.6665562429956465E9, 0.0, 2022-10-23 13:17:22.995
161.0, -79267.86890838968, -110854.54950982923, 49963.36847107035, 34872.56585032533, 61433.948449367104, 85892.85890970934, 56482.72412809422, 55147.363859100806, 0.07200000000000001, 0.9440000000000001, 0.136, 192.0, 0.0, 0.0, 0.0, 0.0, 0.0, 0.0, 0.0, 0.0, 0.0, 1.666556242995654E9, 0.0, 2022-10-23 13:17:22.995
162.0, -79288.14194061064, -110871.78270480427, 49074.10431791596, 35007.056296712915, 61551.65273566875, 85671.48723262397, 56008.08483458577, 54850.733858434425, 0.07200000000000001, 0.9440000000000001, 0.136, 192.0, 0.0, 0.0, 0.0, 0.0, 0.0, 0.0, 0.0, 0.0, 0.0, 1.6665562429956622E9, 0.0, 2022-10-23 13:17:22.995
163.0, -79334.90179001115, -110917.55907744874, 50006.08265472444, 35112.64593751978, 61648.05580950449, 86139.68922372929, 56694.171630641424, 55638.09640861707, 0.07200000000000001, 0.9440000000000001, 0.136, 192.0, 0.0, 0.0, 0.0, 0.0, 0.0, 0.0, 0.0, 0.0, 0.0, 1.66655624299567E9, 0.0, 2022-10-23 13:17:22.995
164.0, -79333.29246441036, -110918.16257454903, 51911.36770383927, 35084.23687031709, 61637.19286169921, 86804.9888974415, 57841.21845259887, 56642.0697143161, 0.07200000000000001, 0.9440000000000001, 0.136, 192.0, 0.0, 0.0, 0.0, 0.0, 0.0, 0.0, 0.0, 0.0, 0.0, 1.666556242995678E9, 0.0, 2022-10-23 13:17:22.995
165.0, -79270.93109738006, -110857.14231218604, 50375.556990570665, 34873.035236958895, 61433.456710989085, 86053.74676629863, 56739.255099207774, 55392.450737053245, 0.07200000000000001, 0.9440000000000001, 0.136, 192.0, 0.0, 0.0, 0.0, 0.0, 0.0, 0.0, 0.0, 0.0, 0.0, 1.6665562429956858E9, 0.0, 2022-10-23 13:17:22.995
166.0, -79296.52384478139, -110879.89638804155, 49060.983843920694, 34969.55006951691, 61501.897752511235, 85623.25216808941, 55962.35316543021, 54777.50954359884, 0.07200000000000001, 0.9440000000000001, 0.136, 192.0, 0.0, 0.0, 0.0, 0.0, 0.0, 0.0, 0.0, 0.0, 0.0, 1.6665562429956949E9, 0.0, 2022-10-23 13:17:22.995
167.0, -79327.61512131871, -110911.18883027897, 49658.982415077975, 35080.593535970875, 61617.38921611181, 85982.06472183047, 56451.230520156685, 55398.7762807341, 0.066, 0.9460000000000001, 0.134, 192.0, 2.0, 16.0, 29.0, 144.0, 4.0, 48.0, 0.0, 0.0, 0.0, 1.6665562429957025E9, 0.0, 2022-10-23 13:17:22.995
168.0, -79345.04948199386, -110924.86809788563, 51761.365146799704, 35116.445734077184, 61678.32007149698, 86782.57009775283, 57771.16808547593, 56623.40600769592, 0.066, 0.9460000000000001, 0.134, 192.0, 0.0, 0.0, 0.0, 0.0, 0.0, 0.0, 0.0, 0.0, 0.0, 1.6665562429957108E9, 0.0, 2022-10-23 13:17:22.995
169.0, -79282.71046670801, -110866.12771345708, 50832.60546119278, 34870.576545068805, 61455.94256591113, 86247.53639072615, 57039.8637103872, 55698.15554596848, 0.066, 0.9460000000000001, 0.134, 192.0, 0.0, 0.0, 0.0, 0.0, 0.0, 0.0, 0.0, 0.0, 0.0, 1.6665562429957187E9, 0.0, 2022-10-23 13:17:22.995
170.0, -79275.62496371567, -110858.59517557564, 49154.90587412189, 34960.54231650142, 61489.33607212736, 85641.82646773178, 56002.40749149412, 54787.63488383709, 0.066, 0.9460000000000001, 0.134, 192.0, 0.0, 0.0, 0.0, 0.0, 0.0, 0.0, 0.0, 0.0, 0.0, 1.6665562429957263E9, 0.0, 2022-10-23 13:17:22.995
171.0, -79307.0738681643, -110885.77489683329, 49413.26968828079, 35066.400178241754, 61594.70219548967, 85864.09221459535, 56275.076422104416, 55211.91569708773, 0.066, 0.9460000000000001, 0.134, 192.0, 0.0, 0.0, 0.0, 0.0, 0.0, 0.0, 0.0, 0.0, 0.0, 1.6665562429957352E9, 0.0, 2022-10-23 13:17:22.995
172.0, -79339.68506332458, -110916.59795243717, 51443.9927272788, 35151.78384206103, 61683.75154539962, 86669.29145685333, 57577.35610930397, 56473.336395422986, 0.066, 0.9460000000000001, 0.134, 192.0, 0.0, 0.0, 0.0, 0.0, 0.0, 0.0, 0.0, 0.0, 0.0, 1.6665562429957433E9, 0.0, 2022-10-23 13:17:22.995
173.0, -79282.44224577454, -110865.01012623431, 51231.114713086456, 34909.42387693213, 61487.32441512638, 86414.88390146302, 57298.182821057184, 55980.525133672374, 0.066, 0.9460000000000001, 0.134, 192.0, 0.0, 0.0, 0.0, 0.0, 0.0, 0.0, 0.0, 0.0, 0.0, 1.6665562429957583E9, 0.0, 2022-10-23 13:17:22.995
174.0, -79272.07103634728, -110856.62822206358, 49265.547009175665, 34937.02828133444, 61466.87256894977, 85661.3171888968, 56049.390858339175, 54808.04202652479, 0.066, 0.9460000000000001, 0.134, 192.0, 0.0, 0.0, 0.0, 0.0, 0.0, 0.0, 0.0, 0.0, 0.0, 1.6665562429957664E9, 0.0, 2022-10-23 13:17:22.995
175.0, -79302.64822276215, -110886.33369044468, 49237.89790128445, 35041.05330002944, 61577.960738892645, 85785.07879794584, 56142.530577484446, 55070.40680294119, 0.066, 0.9460000000000001, 0.134, 192.0, 0.0, 0.0, 0.0, 0.0, 0.0, 0.0, 0.0, 0.0, 0.0, 1.6665562429957743E9, 0.0, 2022-10-23 13:17:22.995
176.0, -79339.21567669102, -110922.63292344009, 51042.80126605049, 35148.02874899253, 61681.18109478726, 86529.32483307419, 57327.84358594938, 56266.85098014486, 0.066, 0.9460000000000001, 0.134, 192.0, 0.0, 0.0, 0.0, 0.0, 0.0, 0.0, 0.0, 0.0, 0.0, 1.666556242995782E9, 0.0, 2022-10-23 13:17:22.995
177.0, -79302.84938846224, -110886.78072533378, 51583.46761267992, 34941.34216801431, 61529.54686040245, 86580.77854881031, 57539.84988210796, 56261.37480275331, 0.062, 0.9480000000000001, 0.134, 192.0, 1.0, 240.0, 29.0, 160.0, 4.0, 48.0, 0.0, 0.0, 0.0, 1.66655624299579E9, 0.0, 2022-10-23 13:17:22.995
178.0, -79275.22263231548, -110858.95280348693, 49479.29674140176, 34905.02058327444, 61451.718086209075, 85731.54636997537, 56165.75403997351, 54902.4110916151, 0.062, 0.9480000000000001, 0.134, 192.0, 0.0, 0.0, 0.0, 0.0, 0.0, 0.0, 0.0, 0.0, 0.0, 1.6665562429957988E9, 0.0, 2022-10-23 13:17:22.995
179.0, -79306.38096408617, -110887.94301604546, 49125.87095807445, 35017.13693346226, 61547.71882864462, 85717.15184654616, 56043.33353559179, 54956.569368430304, 0.062, 0.9480000000000001, 0.134, 192.0, 0.0, 0.0, 0.0, 0.0, 0.0, 0.0, 0.0, 0.0, 0.0, 1.6665562429958067E9, 0.0, 2022-10-23 13:17:22.995
180.0, -79334.6782725666, -110919.4813274719, 50624.53307205833, 35151.67208333875, 61672.553321427506, 86377.44472950039, 57067.04343164485, 56028.89430867366, 0.062, 0.9480000000000001, 0.134, 192.0, 0.0, 0.0, 0.0, 0.0, 0.0, 0.0, 0.0, 0.0, 0.0, 1.6665562429958148E9, 0.0, 2022-10-23 13:17:22.995
181.0, -79313.26530137841, -110899.2753504843, 51810.40487413465, 34989.86780522678, 61559.229977039104, 86694.95125948802, 57706.34802655555, 56464.55215985205, 0.062, 0.9480000000000001, 0.134, 192.0, 0.0, 0.0, 0.0, 0.0, 0.0, 0.0, 0.0, 0.0, 0.0, 1.6665562429958231E9, 0.0, 2022-10-23 13:17:22.995
182.0, -79275.55790848231, -110858.03638196427, 49748.50115162148, 34882.42296963012, 61426.907649863686, 85808.70459183509, 56321.72451278264, 55034.48754960151, 0.062, 0.9480000000000001, 0.134, 192.0, 0.0, 0.0, 0.0, 0.0, 0.0, 0.0, 0.0, 0.0, 0.0, 1.666556242995831E9, 0.0, 2022-10-23 13:17:22.995
183.0, -79298.82607446029, -110877.34828917365, 49076.96534120624, 35011.727811304074, 61536.65471513924, 85676.38226465968, 55996.90896235812, 54885.826097229256, 0.062, 0.9480000000000001, 0.134, 192.0, 0.0, 0.0, 0.0, 0.0, 0.0, 0.0, 0.0, 0.0, 0.0, 1.666556242995839E9, 0.0, 2022-10-23 13:17:22.995
184.0, -79339.70741506905, -110914.74275764737, 50230.53887254463, 35130.10264993938, 61650.62626011685, 86228.13507653894, 56827.25391712832, 55794.916247715504, 0.062, 0.9480000000000001, 0.134, 192.0, 0.0, 0.0, 0.0, 0.0, 0.0, 0.0, 0.0, 0.0, 0.0, 1.6665562429958467E9, 0.0, 2022-10-23 13:17:22.995
185.0, -79339.70741506905, -110917.76024314883, 51922.67768653366, 35041.34387270735, 61598.792564724994, 86785.94521116558, 57822.1971180674, 56615.113510503, 0.062, 0.9480000000000001, 0.134, 192.0, 0.0, 0.0, 0.0, 0.0, 0.0, 0.0, 0.0, 0.0, 0.0, 1.666556242995855E9, 0.0, 2022-10-23 13:17:22.995
186.0, -79271.5122427359, -110851.4649690944, 50134.40401964236, 34878.51141435044, 61429.20987954258, 85972.72169264815, 56583.105812443, 55261.804790711976, 0.068, 0.9440000000000001, 0.14, 192.0, 2.0, 32.0, 29.0, 128.0, 4.0, 96.0, 0.0, 0.0, 0.0, 1.6665562429958627E9, 0.0, 2022-10-23 13:17:22.995
187.0, -79292.45582729053, -110872.02857399329, 49087.38125412241, 35002.49654084403, 61527.95988654612, 85678.6174391052, 56002.698064172044, 54845.704715931985, 0.068, 0.9440000000000001, 0.14, 192.0, 0.0, 0.0, 0.0, 0.0, 0.0, 0.0, 0.0, 0.0, 0.0, 1.6665562429958756E9, 0.0, 2022-10-23 13:17:22.995
188.0, -79332.89013301017, -110910.07124305621, 49855.63306279577, 35100.933623425204, 61621.61369581386, 86078.17722298828, 56585.92213224437, 55541.62627954796, 0.068, 0.9440000000000001, 0.14, 192.0, 0.0, 0.0, 0.0, 0.0, 0.0, 0.0, 0.0, 0.0, 0.0, 1.6665562429958837E9, 0.0, 2022-10-23 13:17:22.995
189.0, -79339.03686273537, -110920.06247282773, 51841.49615067198, 35097.26793733453, 61646.80411181499, 86791.0861123903, 57798.884248600516, 56635.92298459089, 0.068, 0.9440000000000001, 0.14, 192.0, 0.0, 0.0, 0.0, 0.0, 0.0, 0.0, 0.0, 0.0, 0.0, 1.6665562429959002E9, 0.0, 2022-10-23 13:17:22.995
190.0, -79274.17210032608, -110859.75746628732, 50522.363248153124, 34877.304420149856, 61444.431417516644, 86116.30929902903, 56826.89628921703, 55506.1540610974, 0.068, 0.9440000000000001, 0.14, 192.0, 0.0, 0.0, 0.0, 0.0, 0.0, 0.0, 0.0, 0.0, 0.0, 1.6665562429959083E9, 0.0, 2022-10-23 13:17:22.995
191.0, -79287.22551908798, -110867.98290824688, 49074.841925482986, 34983.25168886801, 61511.95603751612, 85633.75748798341, 55964.8565608092, 54790.808831549744, 0.068, 0.9440000000000001, 0.14, 192.0, 0.0, 0.0, 0.0, 0.0, 0.0, 0.0, 0.0, 0.0, 0.0, 1.666556242995916E9, 0.0, 2022-10-23 13:17:22.995
192.0, -79313.19824614504, -110892.50277191434, 49516.19947149748, 35086.22617557361, 61615.53402132202, 85927.54881710396, 56353.575748631454, 55321.148672240815, 0.068, 0.9440000000000001, 0.14, 192.0, 0.0, 0.0, 0.0, 0.0, 0.0, 0.0, 0.0, 0.0, 0.0, 1.6665562429959242E9, 0.0, 2022-10-23 13:17:22.995
193.0, -79337.29342666786, -110914.51924020282, 51619.36451427514, 35148.296969926, 61701.565885730495, 86749.4224607256, 57689.42775600288, 56587.06207121159, 0.068, 0.9440000000000001, 0.14, 192.0, 0.0, 0.0, 0.0, 0.0, 0.0, 0.0, 0.0, 0.0, 0.0, 1.666556242995932E9, 0.0, 2022-10-23 13:17:22.995
194.0, -79272.1157398362, -110855.13065518507, 50980.842230420385, 34906.24992921948, 61493.76171752951, 86333.34473769007, 57144.33576397131, 55835.95405053545, 0.068, 0.9440000000000001, 0.14, 192.0, 0.0, 0.0, 0.0, 0.0, 0.0, 0.0, 0.0, 0.0, 0.0, 1.6665562429959397E9, 0.0, 2022-10-23 13:17:22.995
195.0, -79277.18958582754, -110861.63501282157, 49188.67935999386, 34961.749310702005, 61496.55568558642, 85678.21510770502, 56030.54833776336, 54822.81652960975, 0.068, 0.9440000000000001, 0.14, 192.0, 0.0, 0.0, 0.0, 0.0, 0.0, 0.0, 0.0, 0.0, 0.0, 1.6665562429959476E9, 0.0, 2022-10-23 13:17:22.995
196.0, -79313.15354265613, -110895.29673997125, 49325.13675989351, 35060.63342817228, 61589.82951519841, 85856.09029008035, 56226.01434302502, 55172.44251637966, 0.064, 0.9460000000000001, 0.138, 192.0, 2.0, 0.0, 29.0, 144.0, 4.0, 80.0, 0.0, 0.0, 0.0, 1.6665562429959557E9, 0.0, 2022-10-23 13:17:22.995
197.0, -79356.3818164327, -110936.20043232446, 51273.22539964025, 35153.61668510636, 61682.45514422121, 86637.86490414917, 57486.00452971513, 56409.812737681, 0.064, 0.9460000000000001, 0.138, 192.0, 0.0, 0.0, 0.0, 0.0, 0.0, 0.0, 0.0, 0.0, 0.0, 1.666556242995964E9, 0.0, 2022-10-23 13:17:22.995
198.0, -79318.09327818076, -110905.19856276496, 51348.99781334375, 34908.86508332075, 61489.514886082994, 86490.05281806622, 57391.18842973572, 56095.72602459503, 0.064, 0.9460000000000001, 0.138, 192.0, 0.0, 0.0, 0.0, 0.0, 0.0, 0.0, 0.0, 0.0, 0.0, 1.666556242995972E9, 0.0, 2022-10-23 13:17:22.995
199.0, -79274.79794917082, -110861.25503316583, 49311.65865798696, 34935.44130747811, 61464.570339270875, 85702.71261962803, 56087.366472168746, 54847.872835144146, 0.064, 0.9460000000000001, 0.138, 192.0, 0.0, 0.0, 0.0, 0.0, 0.0, 0.0, 0.0, 0.0, 0.0, 1.6665562429959807E9, 0.0, 2022-10-23 13:17:22.995
200.0, -79300.59186227225, -110877.68356534047, 49156.44814448931, 35048.719948377606, 61577.24548307008, 85778.52973682043, 56100.218725230545, 55036.87918625822, 0.064, 0.9460000000000001, 0.138, 192.0, 0.0, 0.0, 0.0, 0.0, 0.0, 0.0, 0.0, 0.0, 0.0, 1.666556242995989E9, 0.0, 2022-10-23 13:17:22.995
201.0, -79334.20888593304, -110910.40651922305, 50842.417877008666, 35171.94511555971, 61692.602836203914, 86496.51247221381, 57228.37832312326, 56188.105784428815, 0.064, 0.9460000000000001, 0.138, 192.0, 0.0, 0.0, 0.0, 0.0, 0.0, 0.0, 0.0, 0.0, 0.0, 1.6665562429959998E9, 0.0, 2022-10-23 13:17:22.995
0.0, 0.0, 0.0, 0.0, 0.0, 0.0, 0.0, 0.0, 0.0, 0.058, 0.9500000000000001, 0.13, 192.0, 1.0, 208.0, 29.0, 176.0, 4.0, 16.0, 0.0, 0.0, 0.0, 1.6665562430988133E9, 0.0, 2022-10-23 13:17:23.098
1.0, -79464.43014912965, -111118.54596359086, 50030.73662885864, 35009.626747325274, 61402.65600712968, 86299.8171210071, 56663.482685504285, 55405.23593488168, 0.058, 0.9500000000000001, 0.13, 192.0, 0.0, 0.0, 0.0, 0.0, 0.0, 0.0, 0.0, 0.0, 0.0, 1.6665562431148214E9, 0.0, 2022-10-23 13:17:23.114
2.0, -79481.19395747113, -111129.05128348486, 48953.06962169047, 35143.156068701275, 61503.03769147846, 85997.77799818254, 56069.4850766045, 54972.28264478238, 0.058, 0.9500000000000001, 0.13, 192.0, 0.0, 0.0, 0.0, 0.0, 0.0, 0.0, 0.0, 0.0, 0.0, 1.666556243592062E9, 0.0, 2022-10-23 13:17:23.592
3.0, -79511.34646074135, -111156.49922567597, 49709.519709291424, 35260.56978232501, 61617.50097483409, 86407.66428800396, 56651.25628128723, 55672.36163286706, 0.058, 0.9500000000000001, 0.13, 192.0, 0.0, 0.0, 0.0, 0.0, 0.0, 0.0, 0.0, 0.0, 0.0, 1.6665562435922008E9, 0.0, 2022-10-23 13:17:23.592
4.0, -79522.34351901335, -111169.53029269342, 51742.43321924606, 35261.799128270046, 61641.26087919008, 87148.91518937532, 57895.57789511418, 56804.18691685044, 0.058, 0.9500000000000001, 0.13, 192.0, 0.0, 0.0, 0.0, 0.0, 0.0, 0.0, 0.0, 0.0, 0.0, 1.6665562435922096E9, 0.0, 2022-10-23 13:17:23.592
5.0, -79466.53121310845, -111116.55665833435, 50498.04455018575, 35024.31184343241, 61418.03400731493, 86502.45803623892, 56975.22246542245, 55712.90769730898, 0.058, 0.9500000000000001, 0.13, 192.0, 0.0, 0.0, 0.0, 0.0, 0.0, 0.0, 0.0, 0.0, 0.0, 1.6665562435922184E9, 0.0, 2022-10-23 13:17:23.592
6.0, -79460.36213163879, -111108.01829195241, 49030.4737127392, 35147.96169375917, 61491.23597040606, 86013.02188790106, 56103.1915072431, 54976.88710414018, 0.058, 0.9500000000000001, 0.13, 192.0, 0.0, 0.0, 0.0, 0.0, 0.0, 0.0, 0.0, 0.0, 0.0, 1.6665562435922327E9, 0.0, 2022-10-23 13:17:23.592
7.0, -79502.45046644814, -111149.79370233939, 49452.65346201104, 35243.42599432779, 61599.57487578093, 86295.32442037159, 56478.74551758117, 55489.904342878384, 0.058, 0.9500000000000001, 0.124, 192.0, 1.0, 208.0, 29.0, 176.0, 3.0, 224.0, 0.0, 0.0, 0.0, 1.6665562435922408E9, 0.0, 2022-10-23 13:17:23.592
8.0, -79534.92755114169, -111183.18720855561, 51512.59023101214, 35282.54154712457, 61650.6486118613, 87070.19234540372, 57766.228349951314, 56711.583639572105, 0.058, 0.9500000000000001, 0.124, 192.0, 0.0, 0.0, 0.0, 0.0, 0.0, 0.0, 0.0, 0.0, 0.0, 1.6665562435922508E9, 0.0, 2022-10-23 13:17:23.592
9.0, -79462.97728574005, -111116.60136182325, 50925.119331493304, 35056.14072753677, 61458.06598163438, 86670.40904407609, 57251.28886118995, 55996.66309316911, 0.058, 0.9500000000000001, 0.124, 192.0, 0.0, 0.0, 0.0, 0.0, 0.0, 0.0, 0.0, 0.0, 0.0, 1.6665562435922587E9, 0.0, 2022-10-23 13:17:23.592
10.0, -79458.752806038, -111111.50516408744, 49106.11201597596, 35121.72074576864, 61476.30500510991, 86012.61955650087, 56126.3479144988, 54972.90849362713, 0.058, 0.9500000000000001, 0.124, 192.0, 0.0, 0.0, 0.0, 0.0, 0.0, 0.0, 0.0, 0.0, 0.0, 1.6665562435922668E9, 0.0, 2022-10-23 13:17:23.592
11.0, -79500.70703038061, -111149.45842617255, 49222.43049412138, 35215.59807248093, 61575.658509213754, 86188.86306153097, 56312.873221978334, 55320.61223037389, 0.058, 0.9500000000000001, 0.124, 192.0, 0.0, 0.0, 0.0, 0.0, 0.0, 0.0, 0.0, 0.0, 0.0, 1.6665562435922751E9, 0.0, 2022-10-23 13:17:23.592
12.0, -79539.26378956602, -111185.22121730105, 51176.91173278233, 35313.02932656161, 61673.62620516136, 86980.69596060467, 57579.077193627025, 56569.6500622809, 0.058, 0.9500000000000001, 0.124, 192.0, 0.0, 0.0, 0.0, 0.0, 0.0, 0.0, 0.0, 0.0, 0.0, 1.6665562435922832E9, 0.0, 2022-10-23 13:17:23.592
13.0, -79488.65944011921, -111135.980324266, 51340.57120568409, 35080.0794458484, 61488.41965060469, 86866.56795341587, 57537.16767277333, 56307.82172773144, 0.058, 0.9500000000000001, 0.124, 192.0, 0.0, 0.0, 0.0, 0.0, 0.0, 0.0, 0.0, 0.0, 0.0, 1.6665562435922914E9, 0.0, 2022-10-23 13:17:23.592
14.0, -79456.8529077593, -111103.10090817224, 49263.289482985674, 35093.08816112139, 61450.89107166423, 86049.65639706331, 56205.54014510395, 55024.65278204117, 0.058, 0.9500000000000001, 0.124, 192.0, 0.0, 0.0, 0.0, 0.0, 0.0, 0.0, 0.0, 0.0, 0.0, 1.6665562435922997E9, 0.0, 2022-10-23 13:17:23.592
15.0, -79494.06856227739, -111139.06486500084, 49079.24521914068, 35204.35514501991, 61564.30382303045, 86113.09064782747, 56201.02509272398, 55194.0790050124, 0.058, 0.9500000000000001, 0.124, 192.0, 0.0, 0.0, 0.0, 0.0, 0.0, 0.0, 0.0, 0.0, 0.0, 1.6665562435923076E9, 0.0, 2022-10-23 13:17:23.592
16.0, -79527.43971674917, -111171.87722586123, 50750.01576543043, 35325.94863485678, 61678.87886510836, 86826.67008956315, 57314.43253927619, 56336.63312633433, 0.058, 0.9500000000000001, 0.124, 192.0, 0.0, 0.0, 0.0, 0.0, 0.0, 0.0, 0.0, 0.0, 0.0, 1.666556243592316E9, 0.0, 2022-10-23 13:17:23.592
17.0, -79490.87226282028, -111140.00363826795, 51585.479269680895, 35144.18424894622, 61534.41954069371, 86981.25475421605, 57705.85628817753, 56523.78428265861, 0.054, 0.9520000000000001, 0.124, 192.0, 1.0, 176.0, 29.0, 192.0, 3.0, 224.0, 0.0, 0.0, 0.0, 1.666556243592324E9, 0.0, 2022-10-23 13:17:23.592
18.0, -79461.54677409492, -111112.55569607684, 49463.941092960966, 35069.73058816559, 61427.73466440853, 86104.41817097881, 56314.41549234575, 55114.61855347378, 0.054, 0.9520000000000001, 0.124, 192.0, 0.0, 0.0, 0.0, 0.0, 0.0, 0.0, 0.0, 0.0, 0.0, 1.6665562435923567E9, 0.0, 2022-10-23 13:17:23.592
19.0, -79492.97332679908, -111142.05999875785, 48958.83637175994, 35178.181252262744, 61525.07651151139, 86038.32406262447, 56100.59870488629, 55077.69347163361, 0.054, 0.9520000000000001, 0.124, 192.0, 0.0, 0.0, 0.0, 0.0, 0.0, 0.0, 0.0, 0.0, 0.0, 1.6665562435923645E9, 0.0, 2022-10-23 13:17:23.592
20.0, -79520.17539980118, -111165.52933043592, 50258.76912579169, 35303.954518312756, 61644.54658562501, 86624.52091270935, 56997.06011975529, 56051.11194266224, 0.054, 0.9520000000000001, 0.124, 192.0, 0.0, 0.0, 0.0, 0.0, 0.0, 0.0, 0.0, 0.0, 0.0, 1.6665562435923727E9, 0.0, 2022-10-23 13:17:23.592
21.0, -79502.94220482615, -111151.0901035178, 51760.96281539951, 35194.743894904124, 61595.95389317917, 87101.95417427471, 57859.79275224123, 56728.347447913584, 0.054, 0.9520000000000001, 0.124, 192.0, 0.0, 0.0, 0.0, 0.0, 0.0, 0.0, 0.0, 0.0, 0.0, 1.6665562435923803E9, 0.0, 2022-10-23 13:17:23.592
22.0, -79447.88985823272, -111096.52949530238, 49800.200736546605, 35041.90266631874, 61425.74535915201, 86231.93487309634, 56530.75802692867, 55312.275029692064, 0.054, 0.9520000000000001, 0.124, 192.0, 0.0, 0.0, 0.0, 0.0, 0.0, 0.0, 0.0, 0.0, 0.0, 1.6665562435923884E9, 0.0, 2022-10-23 13:17:23.592
23.0, -79466.97824799755, -111112.95802747704, 48923.319449820454, 35175.186118505735, 61538.64402039576, 86009.02092564356, 56068.59100682629, 55027.0891221868, 0.054, 0.9520000000000001, 0.124, 192.0, 0.0, 0.0, 0.0, 0.0, 0.0, 0.0, 0.0, 0.0, 0.0, 1.6665562435923965E9, 0.0, 2022-10-23 13:17:23.592
24.0, -79522.34351901335, -111168.68092640412, 49878.11891771781, 35271.432730130284, 61630.15206219579, 86478.42991094946, 56765.965433831865, 55824.82288179671, 0.054, 0.9520000000000001, 0.124, 192.0, 0.0, 0.0, 0.0, 0.0, 0.0, 0.0, 0.0, 0.0, 0.0, 1.6665562435924044E9, 0.0, 2022-10-23 13:17:23.592
25.0, -79520.60008294584, -111171.51959794994, 51770.35054807074, 35231.49016278865, 61614.729358521625, 87135.54884619104, 57899.15417422703, 56811.02655065377, 0.054, 0.9520000000000001, 0.124, 192.0, 0.0, 0.0, 0.0, 0.0, 0.0, 0.0, 0.0, 0.0, 0.0, 1.6665562435924122E9, 0.0, 2022-10-23 13:17:23.592
26.0, -79457.14348043723, -111113.00273096595, 50192.65266569289, 35040.78507909597, 61424.96304809607, 86383.61381097006, 56779.01885259376, 55546.65542205041, 0.054, 0.9520000000000001, 0.124, 192.0, 0.0, 0.0, 0.0, 0.0, 0.0, 0.0, 0.0, 0.0, 0.0, 1.66655624359242E9, 0.0, 2022-10-23 13:17:23.592
27.0, -79478.7129138366, -111127.59842009527, 48915.921022405746, 35156.90239154129, 61506.32339791339, 85980.32128576294, 56036.046866899356, 54962.40317373314, 0.052000000000000005, 0.962, 0.128, 192.0, 1.0, 160.0, 30.0, 16.0, 4.0, 0.0, 0.0, 0.0, 0.0, 1.666556243592428E9, 0.0, 2022-10-23 13:17:23.592
28.0, -79511.05588806342, -111158.42147569913, 49534.95258509548, 35272.86324177543, 61625.94993423819, 86342.79952559466, 56536.07774210903, 55586.79915509214, 0.052000000000000005, 0.962, 0.128, 192.0, 0.0, 0.0, 0.0, 0.0, 0.0, 0.0, 0.0, 0.0, 0.0, 1.6665562435924375E9, 0.0, 2022-10-23 13:17:23.592
29.0, -79530.99364411755, -111176.30287126338, 51637.98351740641, 35301.36171595594, 61676.755449385106, 87134.565369435, 57846.87344394606, 56795.8050126797, 0.052000000000000005, 0.962, 0.128, 192.0, 0.0, 0.0, 0.0, 0.0, 0.0, 0.0, 0.0, 0.0, 0.0, 1.6665562435924456E9, 0.0, 2022-10-23 13:17:23.592
30.0, -79468.09583522032, -111115.95316123405, 50624.6001272917, 35057.88416360428, 61450.041705374926, 86564.70764454694, 57063.087172876265, 55825.58284110819, 0.052000000000000005, 0.962, 0.128, 192.0, 0.0, 0.0, 0.0, 0.0, 0.0, 0.0, 0.0, 0.0, 0.0, 1.6665562435924535E9, 0.0, 2022-10-23 13:17:23.592
31.0, -79471.20272769961, -111122.32340840381, 48965.87717126336, 35148.22991469263, 61495.192229174645, 85978.53314620652, 56052.47539907401, 54945.795827602844, 0.052000000000000005, 0.962, 0.128, 192.0, 0.0, 0.0, 0.0, 0.0, 0.0, 0.0, 0.0, 0.0, 0.0, 1.6665562435924616E9, 0.0, 2022-10-23 13:17:23.592
32.0, -79506.74200138355, -111157.37094370973, 49267.379852221, 35247.941046707754, 61602.793526982496, 86225.96695732677, 56358.537835900526, 55399.670350512315, 0.052000000000000005, 0.962, 0.128, 192.0, 0.0, 0.0, 0.0, 0.0, 0.0, 0.0, 0.0, 0.0, 0.0, 1.6665562435924692E9, 0.0, 2022-10-23 13:17:23.592
33.0, -79526.43388824868, -111173.91123460665, 51325.483778176764, 35337.52683848463, 61690.658234436305, 87036.7988391875, 57673.826238373076, 56669.6741187184, 0.052000000000000005, 0.962, 0.128, 192.0, 0.0, 0.0, 0.0, 0.0, 0.0, 0.0, 0.0, 0.0, 0.0, 1.6665562435924768E9, 0.0, 2022-10-23 13:17:23.592
34.0, -79472.0073905, -111123.7315683045, 51030.06077171097, 35090.160082597744, 61487.77145001548, 86741.12996353269, 57342.998068690074, 56126.81730113236, 0.052000000000000005, 0.962, 0.128, 192.0, 0.0, 0.0, 0.0, 0.0, 0.0, 0.0, 0.0, 0.0, 0.0, 1.6665562435925124E9, 0.0, 2022-10-23 13:17:23.592
35.0, -79468.90049802071, -111120.08823395827, 49082.50857383115, 35104.55460602696, 61455.65199323321, 85997.62153597135, 56116.91547833866, 54973.53434247188, 0.052000000000000005, 0.962, 0.128, 192.0, 0.0, 0.0, 0.0, 0.0, 0.0, 0.0, 0.0, 0.0, 0.0, 1.6665562435925205E9, 0.0, 2022-10-23 13:17:23.592
36.0, -79492.70510586562, -111142.7305510915, 49078.70877727375, 35222.4153545398, 61578.56423599294, 86130.0779736135, 56232.38459019478, 55253.914624919256, 0.052000000000000005, 0.9500000000000001, 0.132, 192.0, 1.0, 160.0, 29.0, 176.0, 4.0, 32.0, 0.0, 0.0, 0.0, 1.6665562435925283E9, 0.0, 2022-10-23 13:17:23.592
37.0, -79523.05877483592, -111169.6867549046, 50932.093075763354, 35346.42283277784, 61698.280179295565, 86901.2131573216, 57453.460389788204, 56477.806744314046, 0.052000000000000005, 0.9500000000000001, 0.132, 192.0, 0.0, 0.0, 0.0, 0.0, 0.0, 0.0, 0.0, 0.0, 0.0, 1.6665562435925367E9, 0.0, 2022-10-23 13:17:23.592
38.0, -79486.44661741813, -111133.58868760928, 51394.774185988215, 35125.52054232604, 61531.37970344779, 86914.84772143934, 57610.97313296475, 56414.886583672356, 0.052000000000000005, 0.9500000000000001, 0.132, 192.0, 0.0, 0.0, 0.0, 0.0, 0.0, 0.0, 0.0, 0.0, 0.0, 1.6665562435925448E9, 0.0, 2022-10-23 13:17:23.592
39.0, -79460.69740780562, -111098.87642847019, 49279.06981457112, 35068.68005617619, 61436.92123137966, 86061.4581181357, 56240.99001181007, 55059.18622722462, 0.052000000000000005, 0.9500000000000001, 0.132, 192.0, 0.0, 0.0, 0.0, 0.0, 0.0, 0.0, 0.0, 0.0, 0.0, 1.6665562435925524E9, 0.0, 2022-10-23 13:17:23.592
40.0, -79480.12107373727, -111117.98716997947, 48970.83925853244, 35190.65352566881, 61551.07159031292, 86078.31133345501, 56158.936757914635, 55151.99067020306, 0.052000000000000005, 0.9500000000000001, 0.132, 192.0, 0.0, 0.0, 0.0, 0.0, 0.0, 0.0, 0.0, 0.0, 0.0, 1.6665562435925603E9, 0.0, 2022-10-23 13:17:23.592
41.0, -79532.55826622943, -111180.52735096544, 50520.99979174135, 35324.54047495609, 61679.72823139766, 86765.94039987808, 57215.548421805914, 56249.79659912546, 0.052000000000000005, 0.9500000000000001, 0.132, 192.0, 0.0, 0.0, 0.0, 0.0, 0.0, 0.0, 0.0, 0.0, 0.0, 1.666556243592568E9, 0.0, 2022-10-23 13:17:23.592
42.0, -79510.69826015214, -111167.76450488144, 51650.209921623464, 35165.77603409005, 61569.95881437765, 87063.86680172286, 57813.546992963194, 56642.717914905304, 0.052000000000000005, 0.9500000000000001, 0.132, 192.0, 0.0, 0.0, 0.0, 0.0, 0.0, 0.0, 0.0, 0.0, 0.0, 1.666556243592576E9, 0.0, 2022-10-23 13:17:23.592
43.0, -79462.37378863976, -111123.1280712042, 49576.23625710443, 35063.405044484745, 61438.843481402815, 86191.45586388778, 56437.23832812766, 55213.59207792188, 0.052000000000000005, 0.9500000000000001, 0.132, 192.0, 0.0, 0.0, 0.0, 0.0, 0.0, 0.0, 0.0, 0.0, 0.0, 1.6665562435925837E9, 0.0, 2022-10-23 13:17:23.592
44.0, -79478.24352720303, -111131.80054805287, 48947.97342395466, 35190.78763613554, 61552.01036358003, 86086.87205158139, 56147.58207173134, 55095.820736386864, 0.052000000000000005, 0.9500000000000001, 0.132, 192.0, 0.0, 0.0, 0.0, 0.0, 0.0, 0.0, 0.0, 0.0, 0.0, 1.6665562435925913E9, 0.0, 2022-10-23 13:17:23.592
45.0, -79500.34940246934, -111156.61098439826, 50146.9880517707, 35309.78832361559, 61661.89153932233, 86650.4042327886, 56998.825907567254, 56020.06536961382, 0.052000000000000005, 0.9500000000000001, 0.132, 192.0, 0.0, 0.0, 0.0, 0.0, 0.0, 0.0, 0.0, 0.0, 0.0, 1.6665562435925992E9, 0.0, 2022-10-23 13:17:23.592
46.0, -79500.77408561399, -111163.76354262394, 51810.53898460138, 35223.15296210682, 61606.50391656208, 87184.40975957034, 57961.71670695743, 56807.76319596329, 0.05, 0.9500000000000001, 0.132, 192.0, 1.0, 144.0, 29.0, 176.0, 4.0, 32.0, 0.0, 0.0, 0.0, 1.666556243592607E9, 0.0, 2022-10-23 13:17:23.592
47.0, -79452.27080014597, -111114.232076911, 49945.30826155046, 35056.677169403694, 61426.86294637477, 86324.11346723002, 56666.9248541504, 55407.87344072741, 0.05, 0.9500000000000001, 0.132, 192.0, 0.0, 0.0, 0.0, 0.0, 0.0, 0.0, 0.0, 0.0, 0.0, 1.6665562435926156E9, 0.0, 2022-10-23 13:17:23.592
48.0, -79470.19689919912, -111133.45457714255, 48916.36805729486, 35163.54085964452, 61510.68198808217, 86028.46694331968, 56098.00590252947, 55004.87148819822, 0.05, 0.9500000000000001, 0.132, 192.0, 0.0, 0.0, 0.0, 0.0, 0.0, 0.0, 0.0, 0.0, 0.0, 1.6665562435926237E9, 0.0, 2022-10-23 13:17:23.592
49.0, -79489.93348955316, -111147.67028661614, 49707.508052290446, 35280.50753837914, 61609.78962299701, 86432.29591039372, 56689.56717128363, 55712.48301416433, 0.05, 0.9500000000000001, 0.132, 192.0, 0.0, 0.0, 0.0, 0.0, 0.0, 0.0, 0.0, 0.0, 0.0, 1.6665562435926409E9, 0.0, 2022-10-23 13:17:23.592
50.0, -79492.6604023767, -111150.33014420631, 51700.88132630364, 35284.55320412555, 61651.9003095508, 87156.78300342358, 57907.29020920875, 56811.07125414268, 0.05, 0.9500000000000001, 0.132, 192.0, 0.0, 0.0, 0.0, 0.0, 0.0, 0.0, 0.0, 0.0, 0.0, 1.6665562435926485E9, 0.0, 2022-10-23 13:17:23.592
51.0, -79440.98316919604, -111106.58778030728, 50342.632870987996, 35047.08827103237, 61437.34591452431, 86480.64273365054, 56922.159424085556, 55659.0399931717, 0.05, 0.9500000000000001, 0.132, 192.0, 0.0, 0.0, 0.0, 0.0, 0.0, 0.0, 0.0, 0.0, 0.0, 1.6665562435926564E9, 0.0, 2022-10-23 13:17:23.592
52.0, -79455.3553408808, -111116.91428624562, 48937.512807549574, 35156.231839207634, 61509.47499388159, 86025.94119619623, 56097.58121938482, 54975.367185517214, 0.05, 0.9500000000000001, 0.132, 192.0, 0.0, 0.0, 0.0, 0.0, 0.0, 0.0, 0.0, 0.0, 0.0, 1.666556243592664E9, 0.0, 2022-10-23 13:17:23.592
53.0, -79485.77606508447, -111145.99390578199, 49407.4135312335, 35256.16648866731, 61605.40868108376, 86324.94048177487, 56503.91358183785, 55513.77600595666, 0.05, 0.9500000000000001, 0.132, 192.0, 0.0, 0.0, 0.0, 0.0, 0.0, 0.0, 0.0, 0.0, 0.0, 1.666556243592672E9, 0.0, 2022-10-23 13:17:23.592
54.0, -79506.09380079435, -111168.61387117075, 51470.88187585853, 35308.335460226, 61663.38910620083, 87103.13881673085, 57794.30214098718, 56732.70603808237, 0.05, 0.9500000000000001, 0.132, 192.0, 0.0, 0.0, 0.0, 0.0, 0.0, 0.0, 0.0, 0.0, 0.0, 1.6665562435926795E9, 0.0, 2022-10-23 13:17:23.592
55.0, -79443.1065849193, -111109.71702453101, 50760.8787132357, 35073.239812045074, 61461.66461249169, 86664.95521842901, 57208.485270558034, 55949.23269143495, 0.05, 0.9500000000000001, 0.132, 192.0, 0.0, 0.0, 0.0, 0.0, 0.0, 0.0, 0.0, 0.0, 0.0, 1.6665562435926876E9, 0.0, 2022-10-23 13:17:23.592
56.0, -79442.92777096365, -111107.25833264094, 49008.479596195175, 35146.28531292502, 61485.84919999233, 86040.3580713699, 56133.72399016905, 54976.82004890681, 0.062, 0.9460000000000001, 0.128, 192.0, 1.0, 240.0, 29.0, 144.0, 4.0, 0.0, 0.0, 0.0, 0.0, 1.6665562435926952E9, 0.0, 2022-10-23 13:17:23.592
57.0, -79478.60115511432, -111140.69654234608, 49185.438357047846, 35248.27632287459, 61591.34943382138, 86239.71328016679, 56359.49896091211, 55349.42362897678, 0.062, 0.9460000000000001, 0.128, 192.0, 0.0, 0.0, 0.0, 0.0, 0.0, 0.0, 0.0, 0.0, 0.0, 1.6665562435927036E9, 0.0, 2022-10-23 13:17:23.592
58.0, -79504.73034438257, -111168.16683628164, 51193.25085797917, 35346.71340545576, 61693.76512691559, 87052.17683937274, 57658.80586609911, 56616.231097725766, 0.062, 0.9460000000000001, 0.128, 192.0, 0.0, 0.0, 0.0, 0.0, 0.0, 0.0, 0.0, 0.0, 0.0, 1.6665562435927117E9, 0.0, 2022-10-23 13:17:23.592
59.0, -79457.9034397487, -111127.37490265071, 51217.63661117991, 35103.861701948845, 61495.482801852566, 86883.82350013538, 57529.23280349169, 56263.34175626538, 0.062, 0.9460000000000001, 0.128, 192.0, 0.0, 0.0, 0.0, 0.0, 0.0, 0.0, 0.0, 0.0, 0.0, 1.6665562435927193E9, 0.0, 2022-10-23 13:17:23.592
60.0, -79441.51961106296, -111109.38174836419, 49151.53076070914, 35113.42824857572, 61448.141807096225, 86068.05188275002, 56202.12032820229, 54992.019235136424, 0.062, 0.9460000000000001, 0.128, 192.0, 0.0, 0.0, 0.0, 0.0, 0.0, 0.0, 0.0, 0.0, 0.0, 1.6665562435927267E9, 0.0, 2022-10-23 13:17:23.592
61.0, -79482.60211737182, -111146.23977497099, 49021.82358763499, 35211.954738134715, 61566.44959049817, 86153.97198843623, 56233.23395648408, 55196.090662013376, 0.062, 0.9460000000000001, 0.128, 192.0, 0.0, 0.0, 0.0, 0.0, 0.0, 0.0, 0.0, 0.0, 0.0, 1.6665562435927346E9, 0.0, 2022-10-23 13:17:23.592
62.0, -79511.01118457451, -111171.63135667222, 50783.61043734675, 35328.85436163597, 61684.578559944464, 86909.46095102561, 57409.762729378075, 56388.667987426285, 0.062, 0.9460000000000001, 0.128, 192.0, 0.0, 0.0, 0.0, 0.0, 0.0, 0.0, 0.0, 0.0, 0.0, 1.6665562435927422E9, 0.0, 2022-10-23 13:17:23.592
63.0, -79456.11530019228, -111123.10571945975, 51535.210196400905, 35148.296969926, 61541.37093321931, 87042.65499623478, 57753.219634678324, 56517.90577386687, 0.062, 0.9460000000000001, 0.128, 192.0, 0.0, 0.0, 0.0, 0.0, 0.0, 0.0, 0.0, 0.0, 0.0, 1.66655624359275E9, 0.0, 2022-10-23 13:17:23.592
64.0, -79420.71013697507, -111089.8239719658, 49406.49710971083, 35093.82576868842, 61449.25939431899, 86170.02054095514, 56358.96251904518, 55119.49123376504, 0.062, 0.9460000000000001, 0.128, 192.0, 0.0, 0.0, 0.0, 0.0, 0.0, 0.0, 0.0, 0.0, 0.0, 1.6665562435927577E9, 0.0, 2022-10-23 13:17:23.592
65.0, -79459.87039326078, -111124.51387936043, 48967.82177303097, 35201.13649381835, 61551.540976946475, 86131.24026432518, 56191.30208388592, 55126.12970186827, 0.062, 0.9460000000000001, 0.128, 192.0, 0.0, 0.0, 0.0, 0.0, 0.0, 0.0, 0.0, 0.0, 0.0, 1.6665562435927727E9, 0.0, 2022-10-23 13:17:23.592
66.0, -79493.37565819928, -111152.72178086302, 50353.09348739308, 35328.45203023577, 61663.34440271192, 86749.73538514799, 57142.39116220369, 56140.16129257218, 0.074, 0.9500000000000001, 0.126, 192.0, 2.0, 80.0, 29.0, 176.0, 3.0, 240.0, 0.0, 0.0, 0.0, 1.6665562435927808E9, 0.0, 2022-10-23 13:17:23.592
67.0, -79483.71970459458, -111147.67028661614, 51721.020248057874, 35189.84886286841, 61571.814009167436, 87149.65279694233, 57899.24358120484, 56705.66042729145, 0.074, 0.9500000000000001, 0.126, 192.0, 0.0, 0.0, 0.0, 0.0, 0.0, 0.0, 0.0, 0.0, 0.0, 1.6665562435927892E9, 0.0, 2022-10-23 13:17:23.592
68.0, -79440.6031895403, -111106.56542856283, 49710.994924425475, 35051.715082134615, 61409.18271651062, 86271.63157124896, 56541.44216077831, 55274.098250162395, 0.074, 0.9500000000000001, 0.126, 192.0, 0.0, 0.0, 0.0, 0.0, 0.0, 0.0, 0.0, 0.0, 0.0, 1.6665562435927973E9, 0.0, 2022-10-23 13:17:23.592
69.0, -79464.6089630853, -111127.93369626209, 48897.950219863684, 35181.466958697674, 61515.44290965115, 86075.02562702008, 56119.3965219732, 55026.4409215976, 0.074, 0.9500000000000001, 0.126, 192.0, 0.0, 0.0, 0.0, 0.0, 0.0, 0.0, 0.0, 0.0, 0.0, 1.666556243592805E9, 0.0, 2022-10-23 13:17:23.592
70.0, -79497.84600709034, -111156.5886326538, 49945.86705516184, 35307.70961138125, 61638.73513206663, 86596.73769435141, 56884.07205153371, 55876.20954229946, 0.074, 0.9500000000000001, 0.126, 192.0, 0.0, 0.0, 0.0, 0.0, 0.0, 0.0, 0.0, 0.0, 0.0, 1.6665562435928135E9, 0.0, 2022-10-23 13:17:23.592
71.0, -79480.36694292628, -111136.85204229975, 51792.7246442705, 35265.95655273873, 61628.922716250745, 87240.0432515196, 57988.605855537164, 56823.364713593095, 0.074, 0.9500000000000001, 0.126, 192.0, 0.0, 0.0, 0.0, 0.0, 0.0, 0.0, 0.0, 0.0, 0.0, 1.6665562435928216E9, 0.0, 2022-10-23 13:17:23.592
72.0, -79432.57891328084, -111091.94738768906, 50112.38755135388, 35051.73743387907, 61414.07774854633, 86442.19773318741, 56803.516364516785, 55503.0024651292, 0.074, 0.9500000000000001, 0.126, 192.0, 0.0, 0.0, 0.0, 0.0, 0.0, 0.0, 0.0, 0.0, 0.0, 1.6665562435928297E9, 0.0, 2022-10-23 13:17:23.592
73.0, -79466.77708229746, -111127.82193753982, 48897.41377799676, 35155.114251984865, 61479.322490611376, 86055.24433317714, 56099.86109731926, 54960.07859230979, 0.074, 0.9500000000000001, 0.126, 192.0, 0.0, 0.0, 0.0, 0.0, 0.0, 0.0, 0.0, 0.0, 0.0, 1.6665562435928376E9, 0.0, 2022-10-23 13:17:23.592
74.0, -79478.9140795367, -111142.39527492468, 49572.32470182475, 35276.01483774362, 61595.864486201346, 86433.70407029439, 56633.0172578117, 55614.11298681653, 0.074, 0.9500000000000001, 0.126, 192.0, 0.0, 0.0, 0.0, 0.0, 0.0, 0.0, 0.0, 0.0, 0.0, 1.6665562435928452E9, 0.0, 2022-10-23 13:17:23.592
75.0, -79483.85381506132, -111145.99390578199, 51642.11859013064, 35296.891367064876, 61642.847853046405, 87200.6818295338, 57914.2192499899, 56788.29482654272, 0.064, 0.9440000000000001, 0.11800000000000001, 192.0, 2.0, 0.0, 29.0, 128.0, 3.0, 176.0, 0.0, 0.0, 0.0, 1.6665562435928533E9, 0.0, 2022-10-23 13:17:23.592
76.0, -79428.37678532324, -111093.95904469003, 50522.296192919755, 35057.258314759536, 61427.041760330416, 86598.77170309683, 57068.83157120128, 55761.52274149928, 0.064, 0.9440000000000001, 0.11800000000000001, 192.0, 0.0, 0.0, 0.0, 0.0, 0.0, 0.0, 0.0, 0.0, 0.0, 1.6665562435928617E9, 0.0, 2022-10-23 13:17:23.592
77.0, -79433.60709352579, -111098.98818719247, 48925.085237632426, 35149.928647271234, 61462.06694389188, 86036.3571091124, 56097.24594321799, 54925.29927793733, 0.064, 0.9440000000000001, 0.11800000000000001, 192.0, 0.0, 0.0, 0.0, 0.0, 0.0, 0.0, 0.0, 0.0, 0.0, 1.6665562435928695E9, 0.0, 2022-10-23 13:17:23.592
78.0, -79464.49720436301, -111124.5809345938, 49278.93570410439, 35271.90211676385, 61590.075384387426, 86306.3214786436, 56436.45601707173, 55413.95311521925, 0.064, 0.9440000000000001, 0.11800000000000001, 192.0, 0.0, 0.0, 0.0, 0.0, 0.0, 0.0, 0.0, 0.0, 0.0, 1.6665562435928776E9, 0.0, 2022-10-23 13:17:23.592
79.0, -79481.73039933806, -111142.84230981379, 51345.71210690882, 35345.37230078844, 61675.63786216234, 87113.10769475791, 57750.47037011032, 56674.05506063165, 0.064, 0.9440000000000001, 0.11800000000000001, 192.0, 0.0, 0.0, 0.0, 0.0, 0.0, 0.0, 0.0, 0.0, 0.0, 1.6665562435928853E9, 0.0, 2022-10-23 13:17:23.592
80.0, -79446.19112565412, -111108.89000998616, 50915.195156955146, 35074.67032369022, 61459.764714212986, 86764.73340567749, 57331.15164412876, 56041.52304429091, 0.064, 0.9440000000000001, 0.11800000000000001, 192.0, 0.0, 0.0, 0.0, 0.0, 0.0, 0.0, 0.0, 0.0, 0.0, 1.6665562435929008E9, 0.0, 2022-10-23 13:17:23.592
81.0, -79439.46325057307, -111101.44687908255, 49044.51060825713, 35127.37573711583, 61457.39542930072, 86076.32202819848, 56167.609234763295, 54959.67626090959, 0.064, 0.9440000000000001, 0.11800000000000001, 192.0, 0.0, 0.0, 0.0, 0.0, 0.0, 0.0, 0.0, 0.0, 0.0, 1.6665562435929086E9, 0.0, 2022-10-23 13:17:23.592
82.0, -79472.1638527112, -111133.6780945871, 49104.413283397356, 35232.47363954468, 61565.64492769777, 86235.33233825355, 56321.45629184917, 55269.96317743816, 0.064, 0.9440000000000001, 0.11800000000000001, 192.0, 0.0, 0.0, 0.0, 0.0, 0.0, 0.0, 0.0, 0.0, 0.0, 1.6665562435929165E9, 0.0, 2022-10-23 13:17:23.592
83.0, -79510.3182804964, -111172.57012993934, 50980.10462285336, 35332.7882686601, 61661.69037362223, 86993.77173111102, 57538.35231522946, 56480.600712370964, 0.064, 0.9440000000000001, 0.11800000000000001, 192.0, 0.0, 0.0, 0.0, 0.0, 0.0, 0.0, 0.0, 0.0, 0.0, 1.666556243592924E9, 0.0, 2022-10-23 13:17:23.592
84.0, -79472.94616376712, -111137.18731846659, 51302.75205406571, 35114.009393931556, 61493.1135169403, 86952.06337595743, 57607.039225940614, 56326.26191690707, 0.064, 0.9440000000000001, 0.11800000000000001, 192.0, 0.0, 0.0, 0.0, 0.0, 0.0, 0.0, 0.0, 0.0, 0.0, 1.666556243592932E9, 0.0, 2022-10-23 13:17:23.592
85.0, -79453.0531112019, -111113.58387632179, 49211.008752704714, 35082.761655183036, 61413.80952761287, 86120.48907524218, 56261.307747519946, 55004.804432964855, 0.056, 0.9500000000000001, 0.124, 192.0, 1.0, 192.0, 29.0, 176.0, 3.0, 224.0, 0.0, 0.0, 0.0, 1.6665562435929396E9, 0.0, 2022-10-23 13:17:23.592
86.0, -79455.78002402544, -111124.82680378281, 48953.315490879475, 35216.62625272587, 61534.93363081618, 86150.73098549021, 56209.474052128084, 55134.95864092811, 0.056, 0.9500000000000001, 0.124, 192.0, 0.0, 0.0, 0.0, 0.0, 0.0, 0.0, 0.0, 0.0, 0.0, 1.666556243592948E9, 0.0, 2022-10-23 13:17:23.592
87.0, -79490.98402154255, -111159.76258036646, 50554.90738808005, 35353.37422530344, 61667.99356555862, 86847.92659854014, 57288.258646519025, 56258.55848295194, 0.056, 0.9500000000000001, 0.124, 192.0, 0.0, 0.0, 0.0, 0.0, 0.0, 0.0, 0.0, 0.0, 0.0, 1.6665562435929556E9, 0.0, 2022-10-23 13:17:23.592
88.0, -79468.18524219815, -111136.31560043283, 51572.24703696335, 35163.67497011125, 61543.80727336494, 87096.36623816089, 57811.13300456203, 56577.65198679591, 0.056, 0.9500000000000001, 0.124, 192.0, 0.0, 0.0, 0.0, 0.0, 0.0, 0.0, 0.0, 0.0, 0.0, 1.6665562435929637E9, 0.0, 2022-10-23 13:17:23.592
89.0, -79431.70719524709, -111098.60820753673, 49472.36770062062, 35067.718931164614, 61418.436338715124, 86217.56270141157, 56424.09550238794, 55157.17627491669, 0.056, 0.9500000000000001, 0.124, 192.0, 0.0, 0.0, 0.0, 0.0, 0.0, 0.0, 0.0, 0.0, 0.0, 1.666556243592971E9, 0.0, 2022-10-23 13:17:23.592
90.0, -79454.01423621348, -111120.15528919165, 48896.854984385376, 35195.101522815414, 61528.205755735136, 86125.09353459998, 56165.12819112876, 55072.32905296434, 0.056, 0.9500000000000001, 0.124, 192.0, 0.0, 0.0, 0.0, 0.0, 0.0, 0.0, 0.0, 0.0, 0.0, 1.6665562435929804E9, 0.0, 2022-10-23 13:17:23.592
91.0, -79492.70510586562, -111154.80049309737, 50140.97543251222, 35325.38984124539, 61643.2501844466, 86699.19809093453, 57033.359352750704, 56019.350113791246, 0.056, 0.9500000000000001, 0.124, 192.0, 0.0, 0.0, 0.0, 0.0, 0.0, 0.0, 0.0, 0.0, 0.0, 1.666556243592988E9, 0.0, 2022-10-23 13:17:23.592
92.0, -79484.12203599478, -111147.67028661614, 51721.46728294698, 35224.49406677414, 61582.76636395054, 87201.26297488964, 57938.18032004599, 56750.028640035234, 0.056, 0.9500000000000001, 0.124, 192.0, 0.0, 0.0, 0.0, 0.0, 0.0, 0.0, 0.0, 0.0, 0.0, 1.6665562435929966E9, 0.0, 2022-10-23 13:17:23.592
93.0, -79438.92680870615, -111111.28164664289, 49828.8109694494, 35053.86084960232, 61396.39751868219, 86348.6333308975, 56640.32627824858, 55349.22246327668, 0.056, 0.9500000000000001, 0.124, 192.0, 0.0, 0.0, 0.0, 0.0, 0.0, 0.0, 0.0, 0.0, 0.0, 1.6665562435930045E9, 0.0, 2022-10-23 13:17:23.593
94.0, -79458.68575080464, -111123.26218167093, 48872.49158292909, 35183.27744999855, 61496.13100244177, 86091.5212144281, 56120.58116442933, 54999.97645616251, 0.056, 0.9500000000000001, 0.124, 192.0, 0.0, 0.0, 0.0, 0.0, 0.0, 0.0, 0.0, 0.0, 0.0, 1.666556243593012E9, 0.0, 2022-10-23 13:17:23.593
95.0, -79491.34164945384, -111155.47104543103, 49754.02203250194, 35299.23830023269, 61607.37563459583, 86540.3218913462, 56776.53780895923, 55762.37210778858, 0.056, 0.9460000000000001, 0.124, 192.0, 1.0, 192.0, 29.0, 144.0, 3.0, 224.0, 0.0, 0.0, 0.0, 1.66655624359302E9, 0.0, 2022-10-23 13:17:23.593
96.0, -79519.03546083397, -111188.05988884687, 51699.83079431424, 35258.49107009066, 61609.1414224078, 87222.5865391, 57950.786703918784, 56801.99644589382, 0.056, 0.9460000000000001, 0.124, 192.0, 0.0, 0.0, 0.0, 0.0, 0.0, 0.0, 0.0, 0.0, 0.0, 1.6665562435930357E9, 0.0, 2022-10-23 13:17:23.593
97.0, -79449.74505302252, -111112.80156526585, 50241.87120698347, 35052.96677982411, 61407.64044614321, 86505.1178938291, 56904.255676776855, 55599.91962908741, 0.056, 0.9460000000000001, 0.124, 192.0, 0.0, 0.0, 0.0, 0.0, 0.0, 0.0, 0.0, 0.0, 0.0, 1.666556243593044E9, 0.0, 2022-10-23 13:17:23.593
98.0, -79443.50891631948, -111108.35356811924, 48902.62173445484, 35177.57775516245, 61494.65578730772, 86077.48431891017, 56122.9951528305, 54971.2768162819, 0.056, 0.9460000000000001, 0.124, 192.0, 0.0, 0.0, 0.0, 0.0, 0.0, 0.0, 0.0, 0.0, 0.0, 1.666556243593052E9, 0.0, 2022-10-23 13:17:23.593
99.0, -79470.88980327724, -111137.58964986679, 49466.71270927343, 35280.395779656865, 61602.61471302685, 86421.54472131071, 56591.66653056938, 55569.20833220582, 0.056, 0.9460000000000001, 0.124, 192.0, 0.0, 0.0, 0.0, 0.0, 0.0, 0.0, 0.0, 0.0, 0.0, 1.6665562435930595E9, 0.0, 2022-10-23 13:17:23.593
100.0, -79495.49907392253, -111166.80337986987, 51542.988603471356, 35314.83981786249, 61643.38429491333, 87191.45055907375, 57882.435069374456, 56773.0509368242, 0.056, 0.9460000000000001, 0.124, 192.0, 0.0, 0.0, 0.0, 0.0, 0.0, 0.0, 0.0, 0.0, 0.0, 1.6665562435930676E9, 0.0, 2022-10-23 13:17:23.593
101.0, -79438.92680870615, -111112.55569607684, 50657.859523041196, 35068.99298059857, 61418.52574569294, 86657.84736369221, 57169.146200316696, 55871.20275154147, 0.056, 0.9460000000000001, 0.124, 192.0, 0.0, 0.0, 0.0, 0.0, 0.0, 0.0, 0.0, 0.0, 0.0, 1.6665562435930753E9, 0.0, 2022-10-23 13:17:23.593
102.0, -79443.1065849193, -111110.83461175379, 48949.202769899704, 35162.51267939957, 61468.347784083824, 86053.38913838734, 56124.11274005327, 54948.07570553729, 0.056, 0.9460000000000001, 0.124, 192.0, 0.0, 0.0, 0.0, 0.0, 0.0, 0.0, 0.0, 0.0, 0.0, 1.666556243593083E9, 0.0, 2022-10-23 13:17:23.593
103.0, -79483.74205633903, -111152.90059481867, 49195.429586819366, 35259.005160213135, 61577.692517959185, 86286.67429526738, 56400.06737709849, 55376.75981244562, 0.056, 0.9460000000000001, 0.124, 192.0, 0.0, 0.0, 0.0, 0.0, 0.0, 0.0, 0.0, 0.0, 0.0, 1.6665562435930908E9, 0.0, 2022-10-23 13:17:23.593
104.0, -79514.83333287637, -111187.18817081311, 51232.05348635358, 35341.080765853025, 61659.03051603205, 87098.48965388414, 57712.94179116986, 56647.99292659676, 0.058, 0.9480000000000001, 0.126, 192.0, 1.0, 208.0, 29.0, 160.0, 3.0, 240.0, 0.0, 0.0, 0.0, 1.6665562435930986E9, 0.0, 2022-10-23 13:17:23.593
105.0, -79451.75671002349, -111127.21844043952, 51098.88179288886, 35110.433114818705, 61459.51884502397, 86861.89643882471, 57479.1648959118, 56197.26999965549, 0.058, 0.9480000000000001, 0.126, 192.0, 0.0, 0.0, 0.0, 0.0, 0.0, 0.0, 0.0, 0.0, 0.0, 1.6665562435931067E9, 0.0, 2022-10-23 13:17:23.593
106.0, -79451.91317223468, -111120.26704791392, 49109.53183287762, 35134.43888836371, 61435.33425752333, 86097.37737147539, 56218.05712199892, 54997.763633461436, 0.058, 0.9480000000000001, 0.126, 192.0, 0.0, 0.0, 0.0, 0.0, 0.0, 0.0, 0.0, 0.0, 0.0, 1.6665562435931149E9, 0.0, 2022-10-23 13:17:23.593
107.0, -79476.72360858007, -111136.8296905553, 49058.189875863776, 35255.49593633365, 61555.76545664853, 86216.28865197762, 56304.89364920779, 55247.544377749495, 0.058, 0.9480000000000001, 0.126, 192.0, 0.0, 0.0, 0.0, 0.0, 0.0, 0.0, 0.0, 0.0, 0.0, 1.6665562435931225E9, 0.0, 2022-10-23 13:17:23.593
108.0, -79536.4698215091, -111185.60119695679, 50844.31777528737, 35356.01173114917, 61655.78951308603, 86957.2713324155, 57483.25526514713, 56431.49392980265, 0.058, 0.9480000000000001, 0.126, 192.0, 0.0, 0.0, 0.0, 0.0, 0.0, 0.0, 0.0, 0.0, 0.0, 1.66655624359313E9, 0.0, 2022-10-23 13:17:23.593
109.0, -79472.76734981149, -111141.0318185129, 51454.85567508408, 35150.219219949155, 61506.47986012458, 87023.63366170331, 57733.95243095785, 56465.446229630266, 0.058, 0.9480000000000001, 0.126, 192.0, 0.0, 0.0, 0.0, 0.0, 0.0, 0.0, 0.0, 0.0, 0.0, 1.6665562435931377E9, 0.0, 2022-10-23 13:17:23.593
110.0, -79431.30486384689, -111109.18058266409, 49355.8480567751, 35104.37579207132, 61424.56071669587, 86177.59778232548, 56372.73119362965, 55102.839184145836, 0.058, 0.9480000000000001, 0.126, 192.0, 0.0, 0.0, 0.0, 0.0, 0.0, 0.0, 0.0, 0.0, 0.0, 1.6665562435931456E9, 0.0, 2022-10-23 13:17:23.593
111.0, -79449.29801813341, -111114.00855946644, 48966.83829627494, 35239.62619777038, 61546.40007572175, 86158.97877919422, 56234.32919196239, 55142.87115846529, 0.058, 0.9480000000000001, 0.126, 192.0, 0.0, 0.0, 0.0, 0.0, 0.0, 0.0, 0.0, 0.0, 0.0, 1.666556243593162E9, 0.0, 2022-10-23 13:17:23.593
112.0, -79487.63125987427, -111149.99486803947, 50431.481055197844, 35365.35476033149, 61676.196655773725, 86812.56613881185, 57239.77771279547, 56203.17086019169, 0.058, 0.9480000000000001, 0.126, 192.0, 0.0, 0.0, 0.0, 0.0, 0.0, 0.0, 0.0, 0.0, 0.0, 1.666556243593171E9, 0.0, 2022-10-23 13:17:23.593
113.0, -79470.5545271104, -111142.23881271349, 51723.970678325975, 35222.080078372965, 61589.293073331486, 87188.74599799467, 57955.90525339905, 56713.684703550905, 0.058, 0.9480000000000001, 0.126, 192.0, 0.0, 0.0, 0.0, 0.0, 0.0, 0.0, 0.0, 0.0, 0.0, 1.6665562435931797E9, 0.0, 2022-10-23 13:17:23.593
114.0, -79450.77323326746, -111120.91524850312, 49686.385653780184, 35082.694599949675, 61423.01844632846, 86307.08143795509, 56587.15147818941, 55272.04188967251, 0.064, 0.9500000000000001, 0.132, 192.0, 2.0, 0.0, 29.0, 176.0, 4.0, 32.0, 0.0, 0.0, 0.0, 1.666556243593187E9, 0.0, 2022-10-23 13:17:23.593
115.0, -79493.73328611055, -111157.79562685438, 48943.34661285241, 35194.743894904124, 61510.97256076009, 86130.45795326924, 56206.344807904345, 55062.02489877044, 0.064, 0.9500000000000001, 0.132, 192.0, 0.0, 0.0, 0.0, 0.0, 0.0, 0.0, 0.0, 0.0, 0.0, 1.6665562435931957E9, 0.0, 2022-10-23 13:17:23.593
116.0, -79515.70505091012, -111182.42724924414, 50018.93490778624, 35311.75527712766, 61619.78085276853, 86637.01553785987, 56971.82500026524, 55918.61080153118, 0.064, 0.9500000000000001, 0.132, 192.0, 0.0, 0.0, 0.0, 0.0, 0.0, 0.0, 0.0, 0.0, 0.0, 1.6665562435932033E9, 0.0, 2022-10-23 13:17:23.593
117.0, -79522.07529807989, -111190.13860108121, 51776.20670511803, 35240.967302437704, 61592.06468964394, 87223.34649841148, 58007.11309994616, 56792.16167833348, 0.064, 0.9500000000000001, 0.132, 192.0, 0.0, 0.0, 0.0, 0.0, 0.0, 0.0, 0.0, 0.0, 0.0, 1.6665562435932112E9, 0.0, 2022-10-23 13:17:23.593
118.0, -79462.61965782878, -111128.55954510684, 50037.28568998405, 35059.56054443843, 61401.6948821181, 86412.58167178412, 56795.76030919079, 55455.728525606224, 0.064, 0.9500000000000001, 0.132, 192.0, 0.0, 0.0, 0.0, 0.0, 0.0, 0.0, 0.0, 0.0, 0.0, 1.666556243593219E9, 0.0, 2022-10-23 13:17:23.593
119.0, -79475.51661437948, -111144.47398715901, 48932.282499347035, 35189.33477274594, 61496.13100244177, 86090.69419988325, 56178.47218256858, 54997.406005550154, 0.064, 0.9500000000000001, 0.132, 192.0, 0.0, 0.0, 0.0, 0.0, 0.0, 0.0, 0.0, 0.0, 0.0, 1.666556243593227E9, 0.0, 2022-10-23 13:17:23.593
120.0, -79510.81001887441, -111178.98508059801, 49632.964984532, 35298.008954287645, 61598.68080600272, 86461.75550958581, 56714.51171809575, 55659.33056584962, 0.064, 0.9500000000000001, 0.132, 192.0, 0.0, 0.0, 0.0, 0.0, 0.0, 0.0, 0.0, 0.0, 0.0, 1.6665562435932353E9, 0.0, 2022-10-23 13:17:23.593
121.0, -79525.62922544828, -111186.27174929045, 51676.361462636174, 35308.000184059165, 61643.85368154689, 87214.27169016263, 57971.57382626222, 56808.81372795269, 0.064, 0.9500000000000001, 0.132, 192.0, 0.0, 0.0, 0.0, 0.0, 0.0, 0.0, 0.0, 0.0, 0.0, 1.6665562435932431E9, 0.0, 2022-10-23 13:17:23.593
122.0, -79444.71591052007, -111122.14459444817, 50443.75216290381, 35076.41375975773, 61428.87460337575, 86575.97292375243, 57057.32042280679, 55723.39066545852, 0.064, 0.9500000000000001, 0.132, 192.0, 0.0, 0.0, 0.0, 0.0, 0.0, 0.0, 0.0, 0.0, 0.0, 1.6665562440714953E9, 0.0, 2022-10-23 13:17:24.071
123.0, -79461.88205026175, -111136.74028357748, 48943.14544715231, 35180.081150541446, 61486.98913895955, 86072.3657694299, 56161.01547014898, 54965.934749357075, 0.064, 0.9500000000000001, 0.132, 192.0, 0.0, 0.0, 0.0, 0.0, 0.0, 0.0, 0.0, 0.0, 0.0, 1.6665562440715463E9, 0.0, 2022-10-23 13:17:24.071
124.0, -79503.18807401515, -111166.26693800294, 49359.089059721126, 35294.05269551906, 61602.16767813775, 86365.10656656105, 56538.67054446585, 55481.63419742992, 0.06, 0.9520000000000001, 0.124, 192.0, 1.0, 224.0, 29.0, 192.0, 3.0, 224.0, 0.0, 0.0, 0.0, 1.6665562440715766E9, 0.0, 2022-10-23 13:17:24.071
125.0, -79552.67483623921, -111206.83535418933, 51437.86834929805, 35333.95055937178, 61662.78560910054, 87163.51087850463, 57851.522606792765, 56725.776997301225, 0.06, 0.9520000000000001, 0.124, 192.0, 0.0, 0.0, 0.0, 0.0, 0.0, 0.0, 0.0, 0.0, 0.0, 1.6665562440715866E9, 0.0, 2022-10-23 13:17:24.071
126.0, -79460.31742814988, -111140.7859493239, 50859.963996406084, 35089.1319023528, 61445.59370822832, 86757.24557128496, 57338.86299596584, 56008.19659330805, 0.06, 0.9520000000000001, 0.124, 192.0, 0.0, 0.0, 0.0, 0.0, 0.0, 0.0, 0.0, 0.0, 0.0, 1.6665562440715952E9, 0.0, 2022-10-23 13:17:24.071
127.0, -79468.4087596427, -111139.10956848974, 49021.15303530134, 35146.866458280856, 61453.01448738748, 86081.61939163439, 56196.755909533014, 54963.63251967818, 0.06, 0.9520000000000001, 0.124, 192.0, 0.0, 0.0, 0.0, 0.0, 0.0, 0.0, 0.0, 0.0, 0.0, 1.6665562440716517E9, 0.0, 2022-10-23 13:17:24.071
128.0, -79474.57784111236, -111139.91423129014, 49125.66979237435, 35261.50855559213, 61572.10458184536, 86257.70643445331, 56376.82156286497, 55308.74345406812, 0.06, 0.9520000000000001, 0.124, 192.0, 0.0, 0.0, 0.0, 0.0, 0.0, 0.0, 0.0, 0.0, 0.0, 1.6665562440716598E9, 0.0, 2022-10-23 13:17:24.071
129.0, -79515.92856835468, -111186.07058359035, 51082.36385373639, 35365.265353353665, 61684.35504249991, 87062.23512437764, 57652.81559858508, 56571.92994021535, 0.06, 0.9520000000000001, 0.124, 192.0, 0.0, 0.0, 0.0, 0.0, 0.0, 0.0, 0.0, 0.0, 0.0, 1.666556244071668E9, 0.0, 2022-10-23 13:17:24.071
130.0, -79477.8635475473, -111148.3855424387, 51268.35271934899, 35129.92383598373, 61493.06881345139, 86961.09348071736, 57627.82634828405, 56321.836271504915, 0.06, 0.9520000000000001, 0.124, 192.0, 0.0, 0.0, 0.0, 0.0, 0.0, 0.0, 0.0, 0.0, 0.0, 1.6665562440716755E9, 0.0, 2022-10-23 13:17:24.071
131.0, -79464.13957645174, -111131.95701026404, 49192.79208097364, 35125.52054232604, 61437.59178371332, 86143.2878545866, 56295.52826828102, 55029.88309024371, 0.06, 0.9520000000000001, 0.124, 192.0, 0.0, 0.0, 0.0, 0.0, 0.0, 0.0, 0.0, 0.0, 0.0, 1.6665562440716836E9, 0.0, 2022-10-23 13:17:24.071
132.0, -79477.23769870255, -111146.64210637119, 49002.98106705917, 35255.33947412246, 61556.32425025991, 86208.57730014055, 56291.75082346807, 55201.56683940493, 0.06, 0.9520000000000001, 0.124, 192.0, 0.0, 0.0, 0.0, 0.0, 0.0, 0.0, 0.0, 0.0, 0.0, 1.6665562440716913E9, 0.0, 2022-10-23 13:17:24.071
133.0, -79529.56313247242, -111192.88786564922, 50673.48339241545, 35365.60062952049, 61664.90902482379, 86925.24128261105, 57413.78604338003, 56348.412495662276, 0.06, 0.9520000000000001, 0.124, 192.0, 0.0, 0.0, 0.0, 0.0, 0.0, 0.0, 0.0, 0.0, 0.0, 1.6665562440716991E9, 0.0, 2022-10-23 13:17:24.071
134.0, -79509.78183862947, -111168.8373886153, 51578.147897499555, 35179.20943250769, 61529.725674358095, 87126.38463096436, 57863.50314182081, 56578.45664959629, 0.064, 0.9540000000000001, 0.126, 192.0, 2.0, 0.0, 29.0, 208.0, 3.0, 240.0, 0.0, 0.0, 0.0, 1.6665562440717113E9, 0.0, 2022-10-23 13:17:24.071
135.0, -79438.21155288357, -111103.83851573928, 49444.94211017396, 35118.88207422281, 61429.03106558694, 86235.44409697581, 56455.25383415864, 55149.97901320208, 0.064, 0.9540000000000001, 0.126, 192.0, 0.0, 0.0, 0.0, 0.0, 0.0, 0.0, 0.0, 0.0, 0.0, 1.66655624407172E9, 0.0, 2022-10-23 13:17:24.071
136.0, -79478.35528592531, -111147.5808796383, 48912.367095037356, 35230.059651143514, 61538.28639248448, 86154.32961634752, 56219.755854577525, 55095.26194277548, 0.064, 0.9540000000000001, 0.126, 192.0, 0.0, 0.0, 0.0, 0.0, 0.0, 0.0, 0.0, 0.0, 0.0, 1.666556244071728E9, 0.0, 2022-10-23 13:17:24.071
137.0, -79529.02669060549, -111195.61477847277, 50225.62148876447, 35335.58223671702, 61641.21617570116, 86753.87045787221, 57132.98107778801, 56076.07884121881, 0.064, 0.9540000000000001, 0.126, 192.0, 0.0, 0.0, 0.0, 0.0, 0.0, 0.0, 0.0, 0.0, 0.0, 1.6665562440717359E9, 0.0, 2022-10-23 13:17:24.071
138.0, -79507.72547813957, -111176.48168521901, 51702.37889318215, 35222.4153545398, 61572.35045103436, 87204.97336446922, 57969.00337564986, 56733.734218327314, 0.064, 0.9540000000000001, 0.126, 192.0, 0.0, 0.0, 0.0, 0.0, 0.0, 0.0, 0.0, 0.0, 0.0, 1.6665562440717435E9, 0.0, 2022-10-23 13:17:24.071
139.0, -79456.60703857029, -111124.64798982716, 49743.82963703032, 35075.98907661308, 61410.322655477845, 86339.31265345964, 56638.00169682523, 55319.6064018734, 0.064, 0.9540000000000001, 0.126, 192.0, 0.0, 0.0, 0.0, 0.0, 0.0, 0.0, 0.0, 0.0, 0.0, 1.666556244071751E9, 0.0, 2022-10-23 13:17:24.071
140.0, -79482.40095167172, -111148.89963256117, 48864.891989814285, 35203.95281361971, 61515.91229628472, 86119.81852290852, 56176.79580173443, 55031.91709898914, 0.064, 0.9540000000000001, 0.126, 192.0, 0.0, 0.0, 0.0, 0.0, 0.0, 0.0, 0.0, 0.0, 0.0, 1.6665562440717592E9, 0.0, 2022-10-23 13:17:24.071
141.0, -79530.43485050618, -111192.41847901566, 49819.60205073381, 35320.91949235433, 61622.48541384762, 86596.73769435141, 56879.73581310938, 55836.22227146891, 0.064, 0.9540000000000001, 0.126, 192.0, 0.0, 0.0, 0.0, 0.0, 0.0, 0.0, 0.0, 0.0, 0.0, 1.6665562440717669E9, 0.0, 2022-10-23 13:17:24.071
142.0, -79518.07433582238, -111191.63616795972, 51695.06987274526, 35274.249049931655, 61610.32606486393, 87238.1433532409, 57996.026634696325, 56810.33364657565, 0.064, 0.9540000000000001, 0.126, 192.0, 0.0, 0.0, 0.0, 0.0, 0.0, 0.0, 0.0, 0.0, 0.0, 1.6665562440717862E9, 0.0, 2022-10-23 13:17:24.071
143.0, -79452.56137282388, -111122.39046363717, 50123.116388692426, 35085.71208545114, 61429.545155709406, 86483.8166813632, 56877.45593517494, 55554.2103116763, 0.07, 0.9560000000000001, 0.122, 192.0, 2.0, 48.0, 29.0, 224.0, 3.0, 208.0, 0.0, 0.0, 0.0, 1.666556244071794E9, 0.0, 2022-10-23 13:17:24.071
144.0, -79477.03653300245, -111146.66445811564, 48866.68012937071, 35187.07724655596, 61505.87636302428, 86098.33849648696, 56159.093220125826, 54985.26900831092, 0.07, 0.9560000000000001, 0.122, 192.0, 0.0, 0.0, 0.0, 0.0, 0.0, 0.0, 0.0, 0.0, 0.0, 1.6665562440718024E9, 0.0, 2022-10-23 13:17:24.071
145.0, -79515.59329218786, -111183.96951961155, 49477.03921521178, 35291.61635537343, 61602.70412000467, 86454.82646880466, 56655.436057500374, 55605.95460009034, 0.07, 0.9560000000000001, 0.122, 192.0, 0.0, 0.0, 0.0, 0.0, 0.0, 0.0, 0.0, 0.0, 0.0, 1.6665562440718105E9, 0.0, 2022-10-23 13:17:24.071
146.0, -79539.30849305494, -111207.3941478007, 51539.32291738068, 35310.19065501579, 61637.41637914377, 87215.21046342976, 57931.98888683187, 56789.77004167677, 0.07, 0.9560000000000001, 0.122, 192.0, 0.0, 0.0, 0.0, 0.0, 0.0, 0.0, 0.0, 0.0, 0.0, 1.666556244071818E9, 0.0, 2022-10-23 13:17:24.071
147.0, -79462.82082352888, -111131.28645793039, 50565.792687629786, 35076.883146391294, 61428.13699580872, 86666.45278530751, 57177.729270187534, 55846.034687284795, 0.07, 0.9560000000000001, 0.122, 192.0, 0.0, 0.0, 0.0, 0.0, 0.0, 0.0, 0.0, 0.0, 0.0, 1.6665562440718255E9, 0.0, 2022-10-23 13:17:24.071
148.0, -79466.46415787509, -111135.91326903264, 48920.23490908562, 35168.03356028003, 61476.48381906555, 86087.40849344833, 56176.572284289876, 54971.5226854709, 0.07, 0.9560000000000001, 0.122, 192.0, 0.0, 0.0, 0.0, 0.0, 0.0, 0.0, 0.0, 0.0, 0.0, 1.6665562440718336E9, 0.0, 2022-10-23 13:17:24.071
149.0, -79521.04711783494, -111185.73530742351, 49206.09136892454, 35260.949761980744, 61578.13955284829, 86327.84620855407, 56470.967110510726, 55418.15524317685, 0.07, 0.9560000000000001, 0.122, 192.0, 0.0, 0.0, 0.0, 0.0, 0.0, 0.0, 0.0, 0.0, 0.0, 1.6665562440718415E9, 0.0, 2022-10-23 13:17:24.071
150.0, -79546.55045825845, -111209.56226701288, 51257.80269596609, 35340.164344330355, 61664.68550737924, 87134.67712815727, 57782.25455072577, 56683.26397934723, 0.07, 0.9560000000000001, 0.122, 192.0, 0.0, 0.0, 0.0, 0.0, 0.0, 0.0, 0.0, 0.0, 0.0, 1.666556244071849E9, 0.0, 2022-10-23 13:17:24.071
151.0, -79461.9044020062, -111131.35351316376, 51004.468024309645, 35121.60898704636, 61480.104801667316, 86863.61752314777, 57478.762564511606, 56166.40224056271, 0.07, 0.9560000000000001, 0.122, 192.0, 0.0, 0.0, 0.0, 0.0, 0.0, 0.0, 0.0, 0.0, 0.0, 1.6665562440718567E9, 0.0, 2022-10-23 13:17:24.071
152.0, -79454.9530094806, -111121.69755955906, 49038.475637254196, 35161.46214741017, 61461.55285376941, 86111.05663908203, 56231.714037861115, 54997.674226483614, 0.07, 0.9560000000000001, 0.122, 192.0, 0.0, 0.0, 0.0, 0.0, 0.0, 0.0, 0.0, 0.0, 0.0, 1.6665562440718646E9, 0.0, 2022-10-23 13:17:24.071
153.0, -79500.6623268917, -111168.45740895957, 49000.81294784701, 35249.32685486399, 61557.73241016059, 86218.18855025632, 56311.30859986647, 55245.867996915345, 0.07, 0.9540000000000001, 0.124, 192.0, 2.0, 48.0, 29.0, 208.0, 3.0, 224.0, 0.0, 0.0, 0.0, 1.6665562440718725E9, 0.0, 2022-10-23 13:17:24.071
154.0, -79542.1248128563, -111210.47868853554, 50827.82218787935, 35351.094347369, 61664.663155634786, 86973.67751284571, 57509.54091662657, 56449.1741596668, 0.07, 0.9540000000000001, 0.124, 192.0, 0.0, 0.0, 0.0, 0.0, 0.0, 0.0, 0.0, 0.0, 0.0, 1.6665562440718808E9, 0.0, 2022-10-23 13:17:24.071
155.0, -79504.97621357159, -111179.00743234246, 51326.042571788144, 35136.24937966459, 61500.444889121645, 87007.31688825093, 57694.568657227595, 56410.39388303684, 0.07, 0.9540000000000001, 0.124, 192.0, 0.0, 0.0, 0.0, 0.0, 0.0, 0.0, 0.0, 0.0, 0.0, 1.6665562440718884E9, 0.0, 2022-10-23 13:17:24.071
156.0, -79476.70125683561, -111153.01235354095, 49213.08746493905, 35107.86266420635, 61421.67734166114, 86158.17411639383, 56321.25512614908, 55051.31841317635, 0.07, 0.9540000000000001, 0.124, 192.0, 0.0, 0.0, 0.0, 0.0, 0.0, 0.0, 0.0, 0.0, 0.0, 1.6665562440718968E9, 0.0, 2022-10-23 13:17:24.071
157.0, -79508.50778919552, -111177.53221720841, 48868.1329927603, 35225.74576446364, 61533.927802315695, 86148.16053487785, 56203.28261891397, 55116.85372791931, 0.07, 0.9540000000000001, 0.124, 192.0, 0.0, 0.0, 0.0, 0.0, 0.0, 0.0, 0.0, 0.0, 0.0, 1.6665562440719047E9, 0.0, 2022-10-23 13:17:24.071
158.0, -79546.84103093637, -111214.9490374266, 50394.55597335768, 35346.64635022239, 61654.13548399633, 86817.77409526994, 57240.13534070675, 56203.84141252535, 0.07, 0.9540000000000001, 0.124, 192.0, 0.0, 0.0, 0.0, 0.0, 0.0, 0.0, 0.0, 0.0, 0.0, 1.66655624407192E9, 0.0, 2022-10-23 13:17:24.071
159.0, -79533.13941158526, -111202.99085414302, 51555.43852513296, 35181.22108950867, 61537.50408142854, 87125.19998850823, 57859.99391794133, 56620.12030126099, 0.07, 0.9540000000000001, 0.124, 192.0, 0.0, 0.0, 0.0, 0.0, 0.0, 0.0, 0.0, 0.0, 0.0, 1.6665562440719278E9, 0.0, 2022-10-23 13:17:24.071
160.0, -79480.03166675946, -111149.34666745027, 49499.256849200356, 35079.118320836824, 61411.70846363407, 86256.52179199718, 56493.05063403257, 55203.01970279452, 0.07, 0.9540000000000001, 0.124, 192.0, 0.0, 0.0, 0.0, 0.0, 0.0, 0.0, 0.0, 0.0, 0.0, 1.6665562440719357E9, 0.0, 2022-10-23 13:17:24.071
161.0, -79498.65066989073, -111164.50115019098, 48852.91145478624, 35207.97612762167, 61523.154261488235, 86137.20818009475, 56188.7092815291, 55069.8480093298, 0.07, 0.9540000000000001, 0.124, 192.0, 0.0, 0.0, 0.0, 0.0, 0.0, 0.0, 0.0, 0.0, 0.0, 1.6665562440719435E9, 0.0, 2022-10-23 13:17:24.071
162.0, -79534.63697846378, -111192.55258948238, 50030.33429745845, 35336.47630649523, 61643.317239679964, 86695.53240484386, 57027.68200965906, 55984.74961337443, 0.07, 0.9540000000000001, 0.124, 192.0, 0.0, 0.0, 0.0, 0.0, 0.0, 0.0, 0.0, 0.0, 0.0, 1.6665562440719514E9, 0.0, 2022-10-23 13:17:24.071
163.0, -79526.9703301156, -111190.33976678131, 51697.86384080218, 35255.987674711665, 61594.83630595641, 87236.13169623991, 57997.81477425275, 56781.87987588404, 0.078, 0.9460000000000001, 0.122, 192.0, 2.0, 112.0, 29.0, 144.0, 3.0, 208.0, 0.0, 0.0, 0.0, 1.6665562440719593E9, 0.0, 2022-10-23 13:17:24.071
164.0, -79472.07444573336, -111141.50120514646, 49861.668033798705, 35082.98517262759, 61409.67445488864, 86394.94614540889, 56724.65941007846, 55400.2738476126, 0.078, 0.9460000000000001, 0.122, 192.0, 0.0, 0.0, 0.0, 0.0, 0.0, 0.0, 0.0, 0.0, 0.0, 1.6665562440719676E9, 0.0, 2022-10-23 13:17:24.071
165.0, -79507.43490546166, -111167.60804267027, 48843.25550118155, 35200.756514162604, 61512.2689619385, 86120.06439209753, 56169.509133042, 55009.45359581156, 0.078, 0.9460000000000001, 0.122, 192.0, 0.0, 0.0, 0.0, 0.0, 0.0, 0.0, 0.0, 0.0, 0.0, 1.6665562440719755E9, 0.0, 2022-10-23 13:17:24.071
166.0, -79540.11315585532, -111206.90240942269, 49637.36827818969, 35304.513311924136, 61604.045224671994, 86532.29761508675, 56768.15590478849, 55717.44510143341, 0.078, 0.9460000000000001, 0.122, 192.0, 0.0, 0.0, 0.0, 0.0, 0.0, 0.0, 0.0, 0.0, 0.0, 1.6665562440719862E9, 0.0, 2022-10-23 13:17:24.071
167.0, -79535.15106858624, -111203.10261286529, 51624.59482247768, 35295.17028274182, 61626.35226563839, 87242.68075736532, 57975.753602475364, 56802.93521916094, 0.078, 0.9460000000000001, 0.122, 192.0, 0.0, 0.0, 0.0, 0.0, 0.0, 0.0, 0.0, 0.0, 0.0, 1.6665562440719938E9, 0.0, 2022-10-23 13:17:24.071
168.0, -79474.28726843445, -111143.64697261418, 50293.347274464046, 35076.03378010199, 61421.38676898322, 86571.56963009473, 57001.485765157435, 55663.30917636266, 0.078, 0.9460000000000001, 0.122, 192.0, 0.0, 0.0, 0.0, 0.0, 0.0, 0.0, 0.0, 0.0, 0.0, 1.6665562440720048E9, 0.0, 2022-10-23 13:17:24.072
169.0, -79487.63125987427, -111157.72857162102, 48862.232132224104, 35175.85667083939, 61480.730650512065, 86093.6222784069, 56147.82794092035, 54953.1719032731, 0.078, 0.9460000000000001, 0.122, 192.0, 0.0, 0.0, 0.0, 0.0, 0.0, 0.0, 0.0, 0.0, 0.0, 1.666556244072013E9, 0.0, 2022-10-23 13:17:24.072
170.0, -79516.88969336626, -111184.8412376453, 49341.20766415688, 35287.12365473791, 61589.494239031585, 86407.46312230386, 56560.66466100987, 55501.79547092861, 0.078, 0.9460000000000001, 0.122, 192.0, 0.0, 0.0, 0.0, 0.0, 0.0, 0.0, 0.0, 0.0, 0.0, 1.6665562440720203E9, 0.0, 2022-10-23 13:17:24.072
171.0, -79544.98583614657, -111216.62541826075, 51429.53114861622, 35341.55015248658, 61658.80699858749, 87208.52729183761, 57874.2096274149, 56744.21718647685, 0.078, 0.9460000000000001, 0.122, 192.0, 0.0, 0.0, 0.0, 0.0, 0.0, 0.0, 0.0, 0.0, 0.0, 1.6665562440720284E9, 0.0, 2022-10-23 13:17:24.072
172.0, -79483.76440808349, -111155.58280415331, 50746.75241073995, 35099.123132124325, 61444.76669368347, 86773.04825461487, 57299.43451874668, 55962.97901427496, 0.074, 0.9460000000000001, 0.13, 192.0, 2.0, 80.0, 29.0, 144.0, 4.0, 16.0, 0.0, 0.0, 0.0, 1.6665562440720363E9, 0.0, 2022-10-23 13:17:24.072
173.0, -79499.92471932468, -111167.988022326, 48957.33880488143, 35164.5019846561, 61460.9046531802, 86120.55613047554, 56187.055252439415, 54958.603377175736, 0.074, 0.9460000000000001, 0.13, 192.0, 0.0, 0.0, 0.0, 0.0, 0.0, 0.0, 0.0, 0.0, 0.0, 1.666556244072056E9, 0.0, 2022-10-23 13:17:24.072
174.0, -79520.73419341257, -111190.47387724805, 49113.17516722383, 35255.60769505593, 61555.00549733705, 86304.57804257609, 56392.33367351695, 55322.400369930314, 0.074, 0.9460000000000001, 0.13, 192.0, 0.0, 0.0, 0.0, 0.0, 0.0, 0.0, 0.0, 0.0, 0.0, 1.666556244072064E9, 0.0, 2022-10-23 13:17:24.072
175.0, -79544.31528381292, -111208.89171467921, 51084.04023457054, 35362.56079227457, 61664.19376900122, 87096.27683118306, 57665.53374118015, 56580.13303043044, 0.074, 0.9460000000000001, 0.13, 192.0, 0.0, 0.0, 0.0, 0.0, 0.0, 0.0, 0.0, 0.0, 0.0, 1.6665562440720718E9, 0.0, 2022-10-23 13:17:24.072
176.0, -79489.9111378087, -111159.02497279942, 51143.76409575511, 35136.517600598054, 61490.61012156131, 86949.04589045595, 57564.99559462018, 56262.961776609634, 0.074, 0.9460000000000001, 0.13, 192.0, 0.0, 0.0, 0.0, 0.0, 0.0, 0.0, 0.0, 0.0, 0.0, 1.66655624407208E9, 0.0, 2022-10-23 13:17:24.072
177.0, -79474.46608239009, -111151.02304828442, 49127.21206274177, 35145.70416756918, 61453.72974321005, 86169.70761653276, 56282.340739052386, 55024.69748553008, 0.074, 0.9460000000000001, 0.13, 192.0, 0.0, 0.0, 0.0, 0.0, 0.0, 0.0, 0.0, 0.0, 0.0, 1.666556244072089E9, 0.0, 2022-10-23 13:17:24.072
178.0, -79517.22496953308, -111184.01422310046, 48989.27944770807, 35243.51540130561, 61553.776151392005, 86241.83669589004, 56301.67499800623, 55213.6814848997, 0.074, 0.9460000000000001, 0.13, 192.0, 0.0, 0.0, 0.0, 0.0, 0.0, 0.0, 0.0, 0.0, 0.0, 1.6665562440720968E9, 0.0, 2022-10-23 13:17:24.072
179.0, -79545.4775745246, -111217.8994676947, 50701.60188694023, 35359.16332711736, 61660.304565466, 86961.71932956211, 57437.12126459137, 56369.82546685046, 0.074, 0.9460000000000001, 0.13, 192.0, 0.0, 0.0, 0.0, 0.0, 0.0, 0.0, 0.0, 0.0, 0.0, 1.6665562440721047E9, 0.0, 2022-10-23 13:17:24.072
180.0, -79501.511693181, -111177.50986546396, 51504.81182394169, 35179.0529702965, 61531.58086914789, 87124.4176774523, 57821.70537968938, 56536.92710839833, 0.074, 0.9460000000000001, 0.13, 192.0, 0.0, 0.0, 0.0, 0.0, 0.0, 0.0, 0.0, 0.0, 0.0, 1.6665562440721128E9, 0.0, 2022-10-23 13:17:24.072
181.0, -79468.52051836497, -111145.30100170386, 49373.19301047242, 35118.65855677826, 61426.68413241913, 86241.59082670102, 56416.562964506506, 55122.79929194442, 0.074, 0.9460000000000001, 0.13, 192.0, 0.0, 0.0, 0.0, 0.0, 0.0, 0.0, 0.0, 0.0, 0.0, 1.6665562440721207E9, 0.0, 2022-10-23 13:17:24.072
182.0, -79510.67590840768, -111179.63328118721, 48886.86375461385, 35228.49502903164, 61529.1221772578, 86170.64638979989, 56206.54597360444, 55090.746890395516, 0.062, 0.9520000000000001, 0.128, 192.0, 1.0, 240.0, 29.0, 192.0, 4.0, 0.0, 0.0, 0.0, 0.0, 1.6665562440721283E9, 0.0, 2022-10-23 13:17:24.072
183.0, -79550.05968213793, -111217.31832233886, 50244.44165759584, 35337.61624546245, 61633.86245177537, 86773.85291741526, 57141.85472033676, 56091.3897861707, 0.062, 0.9520000000000001, 0.128, 192.0, 0.0, 0.0, 0.0, 0.0, 0.0, 0.0, 0.0, 0.0, 0.0, 1.6665562440721369E9, 0.0, 2022-10-23 13:17:24.072
184.0, -79521.96353935762, -111193.58076972733, 51654.7920292368, 35231.75838372212, 61575.56910223593, 87202.71583827924, 57937.39800899006, 56700.76539525574, 0.062, 0.9520000000000001, 0.128, 192.0, 0.0, 0.0, 0.0, 0.0, 0.0, 0.0, 0.0, 0.0, 0.0, 1.6665562440721445E9, 0.0, 2022-10-23 13:17:24.072
185.0, -79482.26684120498, -111153.14646400767, 49650.62286265169, 35076.99490511357, 61409.22741999954, 86317.25148168225, 56574.410983849884, 55262.38593606782, 0.062, 0.9520000000000001, 0.128, 192.0, 0.0, 0.0, 0.0, 0.0, 0.0, 0.0, 0.0, 0.0, 0.0, 1.6665562440721524E9, 0.0, 2022-10-23 13:17:24.072
186.0, -79482.98209702756, -111156.25335648697, 48824.30122188345, 35226.19279935274, 61531.4244069367, 86121.00316536464, 56144.69869669661, 55015.68973251459, 0.062, 0.9520000000000001, 0.128, 192.0, 0.0, 0.0, 0.0, 0.0, 0.0, 0.0, 0.0, 0.0, 0.0, 1.66655624407216E9, 0.0, 2022-10-23 13:17:24.072
187.0, -79526.21037080412, -111194.02780461643, 49860.37163262029, 35331.424812248326, 61639.87507103385, 86635.98735761493, 56903.138089554086, 55863.3349374932, 0.062, 0.9520000000000001, 0.128, 192.0, 0.0, 0.0, 0.0, 0.0, 0.0, 0.0, 0.0, 0.0, 0.0, 1.6665562440721679E9, 0.0, 2022-10-23 13:17:24.072
188.0, -79541.20839133364, -111213.58558101484, 51676.629683569634, 35263.65432305984, 61599.19489612519, 87242.9936817877, 57978.18994262099, 56784.8526578966, 0.062, 0.9520000000000001, 0.128, 192.0, 0.0, 0.0, 0.0, 0.0, 0.0, 0.0, 0.0, 0.0, 0.0, 1.6665562440721755E9, 0.0, 2022-10-23 13:17:24.072
189.0, -79479.27170744797, -111151.80535934036, 50047.09810579993, 35081.93464063819, 61413.63071365723, 86473.98191380285, 56832.0148386973, 55508.232773331736, 0.062, 0.9520000000000001, 0.128, 192.0, 0.0, 0.0, 0.0, 0.0, 0.0, 0.0, 0.0, 0.0, 0.0, 1.666556244072194E9, 0.0, 2022-10-23 13:17:24.072
190.0, -79488.07829476337, -111156.16394950915, 48857.9853007776, 35213.51936024659, 61509.676159581686, 86119.55030197505, 56155.87456892426, 54993.31563631483, 0.062, 0.9520000000000001, 0.128, 192.0, 0.0, 0.0, 0.0, 0.0, 0.0, 0.0, 0.0, 0.0, 0.0, 1.6665562440722017E9, 0.0, 2022-10-23 13:17:24.072
191.0, -79541.11898435581, -111206.20950534458, 49504.44245391399, 35301.07114327802, 61597.92084669124, 86477.73700687135, 56664.71203144932, 55622.673704942914, 0.062, 0.9520000000000001, 0.128, 192.0, 0.0, 0.0, 0.0, 0.0, 0.0, 0.0, 0.0, 0.0, 0.0, 1.6665562440722096E9, 0.0, 2022-10-23 13:17:24.072
192.0, -79547.75745245903, -111224.6049910313, 51583.46761267992, 35316.51619869664, 61633.95185875319, 87251.28617898062, 57954.430038264996, 56799.38129179255, 0.062, 0.9520000000000001, 0.11800000000000001, 192.0, 1.0, 240.0, 29.0, 192.0, 3.0, 176.0, 0.0, 0.0, 0.0, 1.6665562440722172E9, 0.0, 2022-10-23 13:17:24.072
193.0, -79461.59147758383, -111137.09791148877, 50493.015407683306, 35092.43996053219, 61431.512109221476, 86660.19429686002, 57122.6322201052, 55789.35066334614, 0.062, 0.9520000000000001, 0.11800000000000001, 192.0, 0.0, 0.0, 0.0, 0.0, 0.0, 0.0, 0.0, 0.0, 0.0, 1.6665562440722256E9, 0.0, 2022-10-23 13:17:24.072
194.0, -79482.87033830528, -111154.241699486, 48895.62563844033, 35189.89356635733, 61485.35746161431, 86105.0216680791, 56150.80072293291, 54955.317670740806, 0.062, 0.9520000000000001, 0.11800000000000001, 192.0, 0.0, 0.0, 0.0, 0.0, 0.0, 0.0, 0.0, 0.0, 0.0, 1.6665562440722332E9, 0.0, 2022-10-23 13:17:24.072
195.0, -79546.86338268082, -111207.84118268981, 49215.32263938459, 35270.0245702296, 61568.05891609895, 86343.35831920605, 56456.23731091468, 55410.51094657314, 0.062, 0.9520000000000001, 0.11800000000000001, 192.0, 0.0, 0.0, 0.0, 0.0, 0.0, 0.0, 0.0, 0.0, 0.0, 1.666556244072241E9, 0.0, 2022-10-23 13:17:24.072
196.0, -79567.29287711298, -111228.60595328879, 51284.870658501466, 35353.28481832562, 61659.701068365706, 87159.91224764733, 57774.3867366775, 56682.25815084674, 0.062, 0.9520000000000001, 0.11800000000000001, 192.0, 0.0, 0.0, 0.0, 0.0, 0.0, 0.0, 0.0, 0.0, 0.0, 1.6665562440722487E9, 0.0, 2022-10-23 13:17:24.072
197.0, -79459.24454441603, -111140.20480396805, 50926.63925011626, 35148.475783881644, 61490.69952853913, 86866.29973248241, 57414.434243969234, 56113.60742015928, 0.062, 0.9520000000000001, 0.11800000000000001, 192.0, 0.0, 0.0, 0.0, 0.0, 0.0, 0.0, 0.0, 0.0, 0.0, 1.6665562440722563E9, 0.0, 2022-10-23 13:17:24.072
198.0, -79485.73136159556, -111151.47008317352, 48990.77701458657, 35159.98693227612, 61465.79968521592, 86125.6746799558, 56187.14465941724, 54972.68497618258, 0.062, 0.9520000000000001, 0.11800000000000001, 192.0, 0.0, 0.0, 0.0, 0.0, 0.0, 0.0, 0.0, 0.0, 0.0, 1.666556244072265E9, 0.0, 2022-10-23 13:17:24.072
199.0, -79547.93626641468, -111202.0967843648, 49034.09469534096, 35254.35599736643, 61569.40002076627, 86277.93476318536, 56329.86054776437, 55278.05450893099, 0.062, 0.9520000000000001, 0.11800000000000001, 192.0, 0.0, 0.0, 0.0, 0.0, 0.0, 0.0, 0.0, 0.0, 0.0, 1.6665562440722725E9, 0.0, 2022-10-23 13:17:24.072
200.0, -79549.61264724882, -111227.13073815475, 50914.97163951059, 35369.26631561117, 61675.6602139068, 87049.31581608247, 57561.173446318324, 56504.18180277131, 0.062, 0.9520000000000001, 0.11800000000000001, 192.0, 0.0, 0.0, 0.0, 0.0, 0.0, 0.0, 0.0, 0.0, 0.0, 1.6665562440722804E9, 0.0, 2022-10-23 13:17:24.072
201.0, -79490.24641397553, -111167.988022326, 51284.13305093444, 35179.27648774105, 61531.625572636796, 87031.32266179594, 57659.476418432765, 56389.67381592677, 0.062, 0.9520000000000001, 0.11800000000000001, 192.0, 0.0, 0.0, 0.0, 0.0, 0.0, 0.0, 0.0, 0.0, 0.0, 1.666556244072288E9, 0.0, 2022-10-23 13:17:24.072
202.0, -79478.9140795367, -111161.68483038961, 49172.92138015287, 35137.67989130973, 61448.432379774145, 86182.20224168328, 56287.74986121057, 55047.02687824093, 0.07200000000000001, 0.9440000000000001, 0.13, 192.0, 2.0, 64.0, 29.0, 128.0, 4.0, 16.0, 0.0, 0.0, 0.0, 1.666556244072296E9, 0.0, 2022-10-23 13:17:24.072
203.0, -79504.95386182712, -111187.52344697995, 48915.25047007209, 35244.40947108382, 61551.98801183558, 86221.54131192462, 56237.63725014177, 55169.26856866701, 0.07200000000000001, 0.9440000000000001, 0.13, 192.0, 0.0, 0.0, 0.0, 0.0, 0.0, 0.0, 0.0, 0.0, 0.0, 1.6665562440723045E9, 0.0, 2022-10-23 13:17:24.072
204.0, -79561.63788576578, -111240.29591563893, 50486.511050046814, 35341.25957980866, 61636.00821924308, 86897.8603956533, 57293.511306466025, 56257.3291370069, 0.07200000000000001, 0.9440000000000001, 0.13, 192.0, 0.0, 0.0, 0.0, 0.0, 0.0, 0.0, 0.0, 0.0, 0.0, 1.6665562440723193E9, 0.0, 2022-10-23 13:17:24.072
205.0, -79511.21235027461, -111186.87524639074, 51525.218966629385, 35197.001421094115, 61532.83256683738, 87154.90545688933, 57830.02022862676, 56593.857001526005, 0.07200000000000001, 0.9440000000000001, 0.13, 192.0, 0.0, 0.0, 0.0, 0.0, 0.0, 0.0, 0.0, 0.0, 0.0, 1.666556244072327E9, 0.0, 2022-10-23 13:17:24.072
206.0, -79472.92381202267, -111145.65862961515, 49412.912060369505, 35115.59636778788, 61426.57237369685, 86265.2613240792, 56425.369551821896, 55164.842923264856, 0.07200000000000001, 0.9440000000000001, 0.13, 192.0, 0.0, 0.0, 0.0, 0.0, 0.0, 0.0, 0.0, 0.0, 0.0, 1.6665562440723345E9, 0.0, 2022-10-23 13:17:24.072
207.0, -79518.47666722258, -111190.76444992596, 48824.99412596156, 35233.07713664498, 61536.38649420578, 86173.90974449036, 56157.908577669696, 55077.380547211236, 0.07200000000000001, 0.9440000000000001, 0.13, 192.0, 0.0, 0.0, 0.0, 0.0, 0.0, 0.0, 0.0, 0.0, 0.0, 1.6665562440723424E9, 0.0, 2022-10-23 13:17:24.072
208.0, -79539.6214174773, -111199.45927851908, 50055.85998962641, 35371.277972612144, 61655.74480959712, 86753.35636774974, 57025.64800091362, 56024.2227940825, 0.07200000000000001, 0.9440000000000001, 0.13, 192.0, 0.0, 0.0, 0.0, 0.0, 0.0, 0.0, 0.0, 0.0, 0.0, 1.6665562440723503E9, 0.0, 2022-10-23 13:17:24.072
209.0, -79504.37271647129, -111176.61579568575, 51664.51503807486, 35280.01580000112, 61617.85860274537, 87276.47659498175, 57959.928567401, 56793.56983823417, 0.07200000000000001, 0.9440000000000001, 0.13, 192.0, 0.0, 0.0, 0.0, 0.0, 0.0, 0.0, 0.0, 0.0, 0.0, 1.666556244072359E9, 0.0, 2022-10-23 13:17:24.072
210.0, -79470.48747187704, -111143.736379592, 49766.6954716081, 35108.60027177337, 61432.51793772196, 86412.96165143987, 56649.848121386545, 55391.95899867523, 0.07200000000000001, 0.9440000000000001, 0.13, 192.0, 0.0, 0.0, 0.0, 0.0, 0.0, 0.0, 0.0, 0.0, 0.0, 1.6665562440723667E9, 0.0, 2022-10-23 13:17:24.072
211.0, -79508.57484442889, -111178.67215617564, 48794.908677924715, 35215.84394166993, 61521.85786030983, 86149.76986047863, 56121.78815862992, 55032.18531992261, 0.07, 0.9480000000000001, 0.122, 192.0, 2.0, 48.0, 29.0, 160.0, 3.0, 208.0, 0.0, 0.0, 0.0, 1.6665562440723755E9, 0.0, 2022-10-23 13:17:24.072
212.0, -79550.79728970496, -111222.41452007467, 49662.0222523239, 35330.173114558835, 61624.27355340404, 86599.73282810842, 56772.17921879044, 55785.282645855266, 0.07, 0.9480000000000001, 0.122, 192.0, 0.0, 0.0, 0.0, 0.0, 0.0, 0.0, 0.0, 0.0, 0.0, 1.666556244072384E9, 0.0, 2022-10-23 13:17:24.072
213.0, -79569.1257201583, -111235.33382836984, 51620.0350666088, 35291.61635537343, 61620.92079173575, 87292.41338877838, 57959.23566332289, 56836.19461491044, 0.07, 0.9480000000000001, 0.122, 192.0, 0.0, 0.0, 0.0, 0.0, 0.0, 0.0, 0.0, 0.0, 0.0, 1.6665562440723917E9, 0.0, 2022-10-23 13:17:24.072
214.0, -79502.65163214823, -111178.71685966455, 50203.31444779807, 35071.31756202192, 61405.60643739777, 86587.37231342462, 56936.50924402586, 55646.54536802118, 0.07, 0.9480000000000001, 0.122, 192.0, 0.0, 0.0, 0.0, 0.0, 0.0, 0.0, 0.0, 0.0, 0.0, 1.6665562440723996E9, 0.0, 2022-10-23 13:17:24.072
215.0, -79512.06171656391, -111195.03363311692, 48834.828893521895, 35185.40086572181, 61471.94641494113, 86134.43656378229, 56126.77259764345, 54977.78117391839, 0.07, 0.9480000000000001, 0.122, 192.0, 0.0, 0.0, 0.0, 0.0, 0.0, 0.0, 0.0, 0.0, 0.0, 1.6665562440724072E9, 0.0, 2022-10-23 13:17:24.072
216.0, -79531.30656853993, -111199.10165060779, 49382.51368791029, 35307.35198346996, 61605.52043980604, 86477.7593586158, 56590.0572049686, 55577.81375382111, 0.07, 0.9480000000000001, 0.122, 192.0, 0.0, 0.0, 0.0, 0.0, 0.0, 0.0, 0.0, 0.0, 0.0, 1.6665562440724156E9, 0.0, 2022-10-23 13:17:24.072
217.0, -79572.34437135987, -111237.97133421557, 51460.73418387582, 35327.513256968654, 61641.21617570116, 87250.23564699122, 57883.15032519702, 56786.305521286195, 0.07, 0.9480000000000001, 0.122, 192.0, 0.0, 0.0, 0.0, 0.0, 0.0, 0.0, 0.0, 0.0, 0.0, 1.6665562440724235E9, 0.0, 2022-10-23 13:17:24.072
218.0, -79483.85381506132, -111154.64403088618, 50645.07432521276, 35102.23002460361, 61441.27982154844, 86756.41855674011, 57220.06347418589, 55934.257022649894, 0.07, 0.9480000000000001, 0.122, 192.0, 0.0, 0.0, 0.0, 0.0, 0.0, 0.0, 0.0, 0.0, 0.0, 1.666556244072431E9, 0.0, 2022-10-23 13:17:24.072
219.0, -79481.48453014906, -111148.65376337216, 48908.90257464678, 35192.12874080286, 61479.83658073385, 86131.70965095874, 56150.37603978826, 54981.200990820056, 0.07, 0.9480000000000001, 0.122, 192.0, 0.0, 0.0, 0.0, 0.0, 0.0, 0.0, 0.0, 0.0, 0.0, 1.6665562440724387E9, 0.0, 2022-10-23 13:17:24.072
220.0, -79510.18417002966, -111174.67119391814, 49102.55808860756, 35302.79222760108, 61603.8887624608, 86336.09400225806, 56385.22581878016, 55379.106745613426, 0.07, 0.9480000000000001, 0.122, 192.0, 0.0, 0.0, 0.0, 0.0, 0.0, 0.0, 0.0, 0.0, 0.0, 1.6665562440724545E9, 0.0, 2022-10-23 13:17:24.072
221.0, -79568.05283642445, -111242.26286915099, 51100.91580163429, 35364.68420799782, 61679.057679064004, 87129.08919204345, 57669.37824122647, 56630.53621417716, 0.076, 0.9480000000000001, 0.124, 192.0, 2.0, 96.0, 29.0, 160.0, 3.0, 224.0, 0.0, 0.0, 0.0, 1.6665562440724623E9, 0.0, 2022-10-23 13:17:24.072
222.0, -79527.6185307048, -111199.3475197968, 51029.05494321048, 35110.70133575217, 61469.15244688421, 86921.97792792058, 57478.628454044876, 56213.16208996321, 0.076, 0.9480000000000001, 0.124, 192.0, 0.0, 0.0, 0.0, 0.0, 0.0, 0.0, 0.0, 0.0, 0.0, 1.6665562440724707E9, 0.0, 2022-10-23 13:17:24.072
223.0, -79512.77697238648, -111182.96369111106, 49042.00721287814, 35133.05308020748, 61440.78808317043, 86162.6891687738, 56220.29229644446, 55009.34183708928, 0.076, 0.9480000000000001, 0.124, 192.0, 0.0, 0.0, 0.0, 0.0, 0.0, 0.0, 0.0, 0.0, 0.0, 1.6665562440724783E9, 0.0, 2022-10-23 13:17:24.072
224.0, -79548.65152223725, -111221.31928459636, 48940.50794130659, 35234.26177910111, 61533.81604359342, 86245.6588441919, 56263.14059056528, 55217.79420587948, 0.076, 0.9480000000000001, 0.124, 192.0, 0.0, 0.0, 0.0, 0.0, 0.0, 0.0, 0.0, 0.0, 0.0, 1.666556244072486E9, 0.0, 2022-10-23 13:17:24.072
225.0, -79568.61163003584, -111247.6049360758, 50701.758349151416, 35360.795004462605, 61648.74871358261, 86981.0312367715, 57429.07463658746, 56401.252019554624, 0.076, 0.9480000000000001, 0.124, 192.0, 0.0, 0.0, 0.0, 0.0, 0.0, 0.0, 0.0, 0.0, 0.0, 1.6665562440724947E9, 0.0, 2022-10-23 13:17:24.072
226.0, -79525.7186324261, -111205.94128441112, 51374.16587760042, 35173.777958605046, 61517.70043584114, 87089.83952877994, 57728.52095705521, 56486.054538018056, 0.076, 0.9480000000000001, 0.124, 192.0, 0.0, 0.0, 0.0, 0.0, 0.0, 0.0, 0.0, 0.0, 0.0, 1.6665562440725024E9, 0.0, 2022-10-23 13:17:24.072
227.0, -79475.67307659067, -111156.3874669537, 49231.23708143677, 35128.04628944949, 61429.79102489842, 86211.84065483102, 56321.67980929373, 55085.71774789307, 0.076, 0.9480000000000001, 0.124, 192.0, 0.0, 0.0, 0.0, 0.0, 0.0, 0.0, 0.0, 0.0, 0.0, 1.6665562440725102E9, 0.0, 2022-10-23 13:17:24.072
228.0, -79525.47276323709, -111198.49815350749, 48828.548053329956, 35229.277340087574, 61532.96667730412, 86183.31982890604, 56169.79970571992, 55114.775015684965, 0.076, 0.9480000000000001, 0.124, 192.0, 0.0, 0.0, 0.0, 0.0, 0.0, 0.0, 0.0, 0.0, 0.0, 1.666556244072518E9, 0.0, 2022-10-23 13:17:24.072
229.0, -79564.70007475615, -111239.69241853863, 50278.304550445624, 35344.54528624359, 61641.46204489018, 86827.96649074156, 57162.03834557991, 56162.021298649466, 0.076, 0.9480000000000001, 0.124, 192.0, 0.0, 0.0, 0.0, 0.0, 0.0, 0.0, 0.0, 0.0, 0.0, 1.666556244072526E9, 0.0, 2022-10-23 13:17:24.072
230.0, -79533.25117030754, -111205.6954152221, 51559.30537692373, 35218.526151004575, 61557.15126480476, 87186.71198924923, 57858.63046152955, 56672.19986584185, 0.076, 0.9480000000000001, 0.124, 192.0, 0.0, 0.0, 0.0, 0.0, 0.0, 0.0, 0.0, 0.0, 0.0, 1.6665562440725336E9, 0.0, 2022-10-23 13:17:24.072
231.0, -79485.21727147308, -111162.73536237901, 49532.18096878302, 35096.955012912156, 61422.571411439356, 86316.4244671374, 56497.3868724569, 55251.1430086068, 0.068, 0.9440000000000001, 0.128, 192.0, 2.0, 32.0, 29.0, 128.0, 4.0, 0.0, 0.0, 0.0, 0.0, 1.6665562440725415E9, 0.0, 2022-10-23 13:17:24.072
232.0, -79526.25507429303, -111201.35917679778, 48789.63366623326, 35205.69624968723, 61520.494403898054, 86154.19550588078, 56124.96210634257, 55052.10072423229, 0.068, 0.9440000000000001, 0.128, 192.0, 0.0, 0.0, 0.0, 0.0, 0.0, 0.0, 0.0, 0.0, 0.0, 1.6665562440725496E9, 0.0, 2022-10-23 13:17:24.072
233.0, -79563.40367357775, -111241.03352320594, 49885.003255010044, 35325.79217264559, 61626.95576273868, 86684.44593959404, 56914.29161003728, 55924.69047602302, 0.068, 0.9440000000000001, 0.128, 192.0, 0.0, 0.0, 0.0, 0.0, 0.0, 0.0, 0.0, 0.0, 0.0, 1.6665562440725572E9, 0.0, 2022-10-23 13:17:24.072
234.0, -79546.43869953617, -111220.67108400716, 51668.60540731018, 35271.61154408593, 61611.600114297886, 87289.68647595483, 57971.99850940687, 56820.12371064707, 0.068, 0.9440000000000001, 0.128, 192.0, 0.0, 0.0, 0.0, 0.0, 0.0, 0.0, 0.0, 0.0, 0.0, 1.6665562440725653E9, 0.0, 2022-10-23 13:17:24.072
235.0, -79483.33972493884, -111162.42243795663, 49946.49290400659, 35084.79566392847, 61427.8464231308, 86487.46001570941, 56768.826457122144, 55491.804241157086, 0.068, 0.9440000000000001, 0.128, 192.0, 0.0, 0.0, 0.0, 0.0, 0.0, 0.0, 0.0, 0.0, 0.0, 1.6665562440725825E9, 0.0, 2022-10-23 13:17:24.072
236.0, -79497.37662045678, -111174.35826949576, 48820.85905323733, 35208.333755532956, 61518.72861608608, 86155.9836454372, 56136.38384775923, 55019.17660464962, 0.068, 0.9440000000000001, 0.128, 192.0, 0.0, 0.0, 0.0, 0.0, 0.0, 0.0, 0.0, 0.0, 0.0, 1.6665562440725908E9, 0.0, 2022-10-23 13:17:24.072
237.0, -79537.83327792089, -111213.60793275929, 49536.89718686309, 35314.437486462295, 61615.98105621112, 86544.79224023726, 56691.9811596848, 55688.70075806389, 0.068, 0.9440000000000001, 0.128, 192.0, 0.0, 0.0, 0.0, 0.0, 0.0, 0.0, 0.0, 0.0, 0.0, 1.6665562440725985E9, 0.0, 2022-10-23 13:17:24.072
238.0, -79551.42313854971, -111228.47184282207, 51579.332539955685, 35328.25086453568, 61652.9508415402, 87293.91095565689, 57946.741038172375, 56829.667905529495, 0.068, 0.9440000000000001, 0.128, 192.0, 0.0, 0.0, 0.0, 0.0, 0.0, 0.0, 0.0, 0.0, 0.0, 1.666556244072606E9, 0.0, 2022-10-23 13:17:24.072
239.0, -79483.94322203913, -111165.59638566928, 50370.21492364585, 35092.0823326209, 61433.92609762265, 86652.28177932285, 57037.60618419721, 55741.6073371896, 0.068, 0.9440000000000001, 0.128, 192.0, 0.0, 0.0, 0.0, 0.0, 0.0, 0.0, 0.0, 0.0, 0.0, 1.666556244072614E9, 0.0, 2022-10-23 13:17:24.072
240.0, -79500.6176234028, -111174.20180728458, 48856.86771355483, 35189.1559587903, 61496.55568558642, 86139.30924407355, 56129.07482732235, 54972.237941293475, 0.064, 0.9440000000000001, 0.128, 192.0, 2.0, 0.0, 29.0, 128.0, 4.0, 0.0, 0.0, 0.0, 0.0, 1.6665562440726225E9, 0.0, 2022-10-23 13:17:24.072
241.0, -79548.0256733925, -111220.87224970726, 49257.09804977156, 35263.85548875994, 61576.641985969785, 86411.01704967226, 56489.72022410873, 55474.48163920423, 0.064, 0.9440000000000001, 0.128, 192.0, 0.0, 0.0, 0.0, 0.0, 0.0, 0.0, 0.0, 0.0, 0.0, 1.6665562440726497E9, 0.0, 2022-10-23 13:17:24.072
242.0, -79566.7787869905, -111241.27939239495, 51337.509016693715, 35342.555980987076, 61648.994582771615, 87215.52338785212, 57805.76858589275, 56726.693418823896, 0.064, 0.9440000000000001, 0.128, 192.0, 0.0, 0.0, 0.0, 0.0, 0.0, 0.0, 0.0, 0.0, 0.0, 1.666556244551442E9, 0.0, 2022-10-23 13:17:24.551
243.0, -79490.760504098, -111156.94626056508, 50789.95833277206, 35117.07158292193, 61457.73070546755, 86821.73035403852, 57306.363559527825, 56028.40257029564, 0.064, 0.9440000000000001, 0.128, 192.0, 0.0, 0.0, 0.0, 0.0, 0.0, 0.0, 0.0, 0.0, 0.0, 1.6665562445514977E9, 0.0, 2022-10-23 13:17:24.551
244.0, -79497.53308266796, -111173.46419971755, 48923.52061552055, 35156.20948746318, 61456.76958045597, 86126.54639798957, 56137.65789719319, 54960.972662088, 0.064, 0.9440000000000001, 0.128, 192.0, 0.0, 0.0, 0.0, 0.0, 0.0, 0.0, 0.0, 0.0, 0.0, 1.6665562445515282E9, 0.0, 2022-10-23 13:17:24.551
245.0, -79520.60008294584, -111200.77803144194, 49037.71567794272, 35270.337494651976, 61577.29018655899, 86313.85401652505, 56331.22400417615, 55318.287648950536, 0.064, 0.9440000000000001, 0.128, 192.0, 0.0, 0.0, 0.0, 0.0, 0.0, 0.0, 0.0, 0.0, 0.0, 1.6665562445515373E9, 0.0, 2022-10-23 13:17:24.551
246.0, -79557.14518513027, -111232.42810159066, 50958.71400340963, 35363.83484170852, 61667.43477194724, 87091.11357821389, 57578.67486222683, 56553.445047550806, 0.064, 0.9440000000000001, 0.128, 192.0, 0.0, 0.0, 0.0, 0.0, 0.0, 0.0, 0.0, 0.0, 0.0, 1.6665562445515451E9, 0.0, 2022-10-23 13:17:24.551
247.0, -79490.42522793118, -111155.82867334232, 51198.72703537071, 35140.33974889991, 61492.040633206445, 87017.75515291157, 57594.58930427901, 56344.76916131606, 0.064, 0.9440000000000001, 0.128, 192.0, 0.0, 0.0, 0.0, 0.0, 0.0, 0.0, 0.0, 0.0, 0.0, 1.6665562445515532E9, 0.0, 2022-10-23 13:17:24.551
248.0, -79485.64195461773, -111158.66734488813, 49138.38793496942, 35141.09970821139, 61443.49264424952, 86217.89797757841, 56274.07059360392, 55056.90634929018, 0.064, 0.9440000000000001, 0.128, 192.0, 0.0, 0.0, 0.0, 0.0, 0.0, 0.0, 0.0, 0.0, 0.0, 1.666556244551561E9, 0.0, 2022-10-23 13:17:24.551
249.0, -79523.01407134702, -111197.26880756246, 48907.4944147461, 35260.79329976956, 61563.007421852046, 86258.57815248707, 56233.971564051106, 55197.94585680316, 0.064, 0.9440000000000001, 0.128, 192.0, 0.0, 0.0, 0.0, 0.0, 0.0, 0.0, 0.0, 0.0, 0.0, 1.666556244551569E9, 0.0, 2022-10-23 13:17:24.551
250.0, -79595.8360547824, -111266.80508456292, 50545.162027497536, 35335.336367528005, 61649.1510449828, 86950.29758814545, 57328.82706270541, 56318.30469588098, 0.06, 0.9520000000000001, 0.132, 192.0, 1.0, 224.0, 29.0, 192.0, 4.0, 32.0, 0.0, 0.0, 0.0, 1.666556244551577E9, 0.0, 2022-10-23 13:17:24.551
251.0, -79535.19577207515, -111209.6963774796, 51495.357036037094, 35175.63315339484, 61528.36221794632, 87170.66343673032, 57810.73067316183, 56589.654873568405, 0.06, 0.9520000000000001, 0.132, 192.0, 0.0, 0.0, 0.0, 0.0, 0.0, 0.0, 0.0, 0.0, 0.0, 1.6665562445516431E9, 0.0, 2022-10-23 13:17:24.551
252.0, -79475.44955914612, -111144.33987669229, 49364.83345804614, 35113.42824857572, 61419.620981171254, 86274.9619811728, 56396.87107764138, 55159.813780762415, 0.06, 0.9520000000000001, 0.132, 192.0, 0.0, 0.0, 0.0, 0.0, 0.0, 0.0, 0.0, 0.0, 0.0, 1.6665562445516512E9, 0.0, 2022-10-23 13:17:24.551
253.0, -79499.3659257133, -111166.33399323632, 48832.95134698765, 35243.51540130561, 61545.61776466582, 86200.24009945871, 56164.189417861635, 55112.49513775053, 0.06, 0.9520000000000001, 0.132, 192.0, 0.0, 0.0, 0.0, 0.0, 0.0, 0.0, 0.0, 0.0, 0.0, 1.666556244551659E9, 0.0, 2022-10-23 13:17:24.551
254.0, -79572.14320565978, -111236.87609873727, 50130.514816107134, 35345.32759729953, 61641.48439663463, 86791.7343129795, 57066.48463803347, 56083.96900701154, 0.06, 0.9520000000000001, 0.132, 192.0, 0.0, 0.0, 0.0, 0.0, 0.0, 0.0, 0.0, 0.0, 0.0, 1.666556244551667E9, 0.0, 2022-10-23 13:17:24.551
255.0, -79565.21416487863, -111242.68755229564, 51645.44900005448, 35225.34343306344, 61561.17457880671, 87255.35419647148, 57926.6244681626, 56758.92463432845, 0.06, 0.9520000000000001, 0.132, 192.0, 0.0, 0.0, 0.0, 0.0, 0.0, 0.0, 0.0, 0.0, 0.0, 1.6665562445516748E9, 0.0, 2022-10-23 13:17:24.551
0.0, -79515.43682997666, -111191.12207783725, 49693.26999107242, 35060.32050374991, 61373.03994572639, 86371.2309445418, 56584.46926885477, 55324.38967518684, 0.06, 0.9520000000000001, 0.132, 192.0, 0.0, 0.0, 0.0, 0.0, 0.0, 0.0, 0.0, 0.0, 0.0, 1.6665562445516825E9, 0.0, 2022-10-23 13:17:24.551
1.0, -79515.10155380983, -111185.66825219015, 48775.88734339325, 35198.946022861724, 61491.16891517269, 86127.30635730104, 56086.874733790726, 55005.31852308733, 0.06, 0.9520000000000001, 0.132, 192.0, 0.0, 0.0, 0.0, 0.0, 0.0, 0.0, 0.0, 0.0, 0.0, 1.66655624455169E9, 0.0, 2022-10-23 13:17:24.551
2.0, -79544.24822857956, -111206.9918164005, 49706.77044472342, 35324.56282670055, 61618.305637634476, 86599.08462751922, 56773.945006602415, 55802.00175070784, 0.06, 0.9520000000000001, 0.132, 192.0, 0.0, 0.0, 0.0, 0.0, 0.0, 0.0, 0.0, 0.0, 0.0, 1.666556244551698E9, 0.0, 2022-10-23 13:17:24.551
3.0, -79550.70788272713, -111215.9548659271, 51635.70363947197, 35296.48903566469, 61624.027684215034, 87284.47851949674, 57942.51655847032, 56832.35011486413, 0.06, 0.9520000000000001, 0.132, 192.0, 0.0, 0.0, 0.0, 0.0, 0.0, 0.0, 0.0, 0.0, 0.0, 1.666556244551706E9, 0.0, 2022-10-23 13:17:24.551
4.0, -79489.97819304207, -111158.17560651012, 50112.2310891427, 35084.81801567293, 61416.93877183661, 86542.24414136936, 56852.243167429355, 55596.25394299674, 0.056, 0.9580000000000001, 0.126, 192.0, 1.0, 192.0, 29.0, 240.0, 3.0, 240.0, 0.0, 0.0, 0.0, 1.6665562445517137E9, 0.0, 2022-10-23 13:17:24.551
5.0, -79510.87707410778, -111180.90733062116, 48812.36539034431, 35202.43289499675, 61492.57707507337, 86126.79226717858, 56090.31690243685, 54989.64995022416, 0.056, 0.9580000000000001, 0.126, 192.0, 0.0, 0.0, 0.0, 0.0, 0.0, 0.0, 0.0, 0.0, 0.0, 1.666556244551722E9, 0.0, 2022-10-23 13:17:24.551
6.0, -79552.00428390554, -111228.53889805543, 49396.32706598366, 35301.920509567324, 61591.885875688306, 86475.68064638146, 56564.39740233391, 55590.375434204994, 0.056, 0.9580000000000001, 0.126, 192.0, 0.0, 0.0, 0.0, 0.0, 0.0, 0.0, 0.0, 0.0, 0.0, 1.66655624455173E9, 0.0, 2022-10-23 13:17:24.551
7.0, -79565.43768232319, -111229.09769166682, 51475.866314872066, 35341.28193155312, 61652.280289206545, 87260.60685641848, 57861.580891797654, 56798.50957375879, 0.056, 0.9580000000000001, 0.126, 192.0, 0.0, 0.0, 0.0, 0.0, 0.0, 0.0, 0.0, 0.0, 0.0, 1.6665562445517375E9, 0.0, 2022-10-23 13:17:24.551
8.0, -79489.17353024168, -111157.01331579845, 50530.119303479114, 35106.49920779457, 61442.77738842695, 86721.95216679004, 57121.62639160471, 55872.40974574206, 0.056, 0.9580000000000001, 0.126, 192.0, 0.0, 0.0, 0.0, 0.0, 0.0, 0.0, 0.0, 0.0, 0.0, 1.6665562445517454E9, 0.0, 2022-10-23 13:17:24.551
9.0, -79499.3659257133, -111169.12796129323, 48852.82204780842, 35185.84790061091, 61473.57809228636, 86125.76408693363, 56093.60260887178, 54966.426487735094, 0.056, 0.9580000000000001, 0.126, 192.0, 0.0, 0.0, 0.0, 0.0, 0.0, 0.0, 0.0, 0.0, 0.0, 1.6665562445517533E9, 0.0, 2022-10-23 13:17:24.551
10.0, -79540.20256283315, -111210.12106062425, 49108.43659739931, 35282.005105257645, 61570.696421944675, 86347.11341227453, 56363.857551080895, 55388.49447828466, 0.056, 0.9580000000000001, 0.126, 192.0, 0.0, 0.0, 0.0, 0.0, 0.0, 0.0, 0.0, 0.0, 0.0, 1.6665562445517693E9, 0.0, 2022-10-23 13:17:24.551
11.0, -79568.34340910238, -111232.45045333511, 51147.630947545884, 35366.47234755425, 61669.44642894822, 87154.83840165597, 57673.17803778387, 56659.012336613225, 0.056, 0.9580000000000001, 0.126, 192.0, 0.0, 0.0, 0.0, 0.0, 0.0, 0.0, 0.0, 0.0, 0.0, 1.666556244551777E9, 0.0, 2022-10-23 13:17:24.551
12.0, -79499.58944315785, -111166.22223451403, 50940.38557295628, 35141.43498437822, 61492.84529600684, 86903.53773874496, 57399.7491478621, 56174.605330777806, 0.056, 0.9580000000000001, 0.126, 192.0, 0.0, 0.0, 0.0, 0.0, 0.0, 0.0, 0.0, 0.0, 0.0, 1.6665562445517848E9, 0.0, 2022-10-23 13:17:24.551
13.0, -79481.81980631588, -111143.982248781, 48993.2133547322, 35186.74197038913, 61495.4157466192, 86172.54628807859, 56175.76762148948, 55025.34568611928, 0.064, 0.9580000000000001, 0.128, 192.0, 2.0, 0.0, 29.0, 240.0, 4.0, 0.0, 0.0, 0.0, 0.0, 1.6665562445517924E9, 0.0, 2022-10-23 13:17:24.551
14.0, -79529.18315281668, -111198.43109827413, 48962.2561886616, 35273.42203538681, 61581.64877672777, 86287.30014411213, 56270.80723891345, 55281.63078804383, 0.064, 0.9580000000000001, 0.128, 192.0, 0.0, 0.0, 0.0, 0.0, 0.0, 0.0, 0.0, 0.0, 0.0, 1.6665562445518007E9, 0.0, 2022-10-23 13:17:24.551
15.0, -79564.65537126725, -111233.61274404678, 50779.74358555598, 35384.219632651766, 61684.33269075545, 87038.51992351055, 57469.86657021839, 56485.004006028656, 0.064, 0.9580000000000001, 0.128, 192.0, 0.0, 0.0, 0.0, 0.0, 0.0, 0.0, 0.0, 0.0, 0.0, 1.6665562445518086E9, 0.0, 2022-10-23 13:17:24.551
16.0, -79526.03155684848, -111195.54772323939, 51291.7549957937, 35175.07435978346, 61521.187307976164, 87059.1505836428, 57656.950671309314, 56454.538578336076, 0.064, 0.9580000000000001, 0.128, 192.0, 0.0, 0.0, 0.0, 0.0, 0.0, 0.0, 0.0, 0.0, 0.0, 1.6665562445518165E9, 0.0, 2022-10-23 13:17:24.551
