%OpenBCI Raw EEG Data
%Number of channels = 8
%Sample Rate = 250 Hz
%Board = OpenBCI_GUI$BoardCytonSerial
Sample Index, EXG Channel 0, EXG Channel 1, EXG Channel 2, EXG Channel 3, EXG Channel 4, EXG Channel 5, EXG Channel 6, EXG Channel 7, Accel Channel 0, Accel Channel 1, Accel Channel 2, Other, Other, Other, Other, Other, Other, Other, Analog Channel 0, Analog Channel 1, Analog Channel 2, Timestamp, Other, Timestamp (Formatted)
82.0, -111752.10616017654, -150443.19932975763, -63943.66937204235, -132635.4080600033, 50626.052990681295, -82263.00266540083, 40201.91463254865, -118259.83891008365, 0.0, 0.0, 0.0, 192.0, 0.0, 0.0, 0.0, 0.0, 0.0, 0.0, 0.0, 0.0, 0.0, 1.6664037016628888E9, 0.0, 2022-10-21 18:55:01.662
83.0, -111754.2295758998, -150446.03800130344, -63946.53039533263, -132626.1097343099, 50629.07047618276, -82264.5672875127, 40187.02837074141, -118258.65426762751, 0.0, 0.0, 0.0, 192.0, 0.0, 0.0, 0.0, 0.0, 0.0, 0.0, 0.0, 0.0, 0.0, 1.666403701662923E9, 0.0, 2022-10-21 18:55:01.662
84.0, -111761.33743063659, -150455.93982409715, -63947.08918894401, -132615.62676616036, 50630.2998221278, -82249.14458383854, 40201.802873826375, -118259.92831706147, 0.0, 0.0, 0.0, 192.0, 0.0, 0.0, 0.0, 0.0, 0.0, 0.0, 0.0, 0.0, 0.0, 1.6664037016629434E9, 0.0, 2022-10-21 18:55:01.662
85.0, -111775.0837534766, -150469.93201612617, -63962.89187227391, -132640.63836820584, 50612.37372307465, -82261.19217409995, 40197.9360220356, -118272.35588697862, 0.0, 0.0, 0.0, 192.0, 0.0, 0.0, 0.0, 0.0, 0.0, 0.0, 0.0, 0.0, 0.0, 1.6664037016629634E9, 0.0, 2022-10-21 18:55:01.662
86.0, -111770.94868075236, -150463.47236197858, -63963.31655541856, -132643.76761242957, 50615.413560320565, -82273.06095040572, 40185.933135263105, -118265.44919794193, 0.0, 0.0, 0.0, 192.0, 0.0, 0.0, 0.0, 0.0, 0.0, 0.0, 0.0, 0.0, 0.0, 1.6664037016629837E9, 0.0, 2022-10-21 18:55:01.662
87.0, -111760.7786370252, -150452.52000719548, -63951.47013085725, -132621.2594057631, 50633.71963902946, -82255.6712932195, 40193.86800454474, -118256.75436934881, 0.0, 0.0, 0.0, 192.0, 0.0, 0.0, 0.0, 0.0, 0.0, 0.0, 0.0, 0.0, 0.0, 1.6664037016630027E9, 0.0, 2022-10-21 18:55:01.663
88.0, -111759.43753235789, -150449.43546646065, -63955.18052043683, -132619.6947836512, 50630.43393259453, -82249.03282511626, 40207.882548318215, -118269.87484334408, 0.0, 0.0, 0.0, 192.0, 0.0, 0.0, 0.0, 0.0, 0.0, 0.0, 0.0, 0.0, 0.0, 1.6664037016630216E9, 0.0, 2022-10-21 18:55:01.663
89.0, -111762.90205274845, -150451.40241997273, -63957.32628790454, -132635.07278383645, 50626.34356335921, -82257.48178452037, 40207.72608610703, -118270.72420963338, 0.088, 0.964, 0.05, 192.0, 2.0, 192.0, 30.0, 32.0, 1.0, 144.0, 0.0, 0.0, 0.0, 1.6664037016630409E9, 0.0, 2022-10-21 18:55:01.663
90.0, -111767.12653245051, -150454.77753338547, -63956.923956504346, -132634.1563623138, 50632.42323785106, -82265.66252299101, 40189.26354518694, -118265.00216305282, 0.088, 0.964, 0.05, 192.0, 0.0, 0.0, 0.0, 0.0, 0.0, 0.0, 0.0, 0.0, 0.0, 1.6664037016630654E9, 0.0, 2022-10-21 18:55:01.663
91.0, -111768.37823014, -150455.69395490814, -63961.50606411768, -132634.93867336973, 50630.63509829463, -82272.01041841632, 40170.77865252241, -118265.42684619747, 0.088, 0.964, 0.05, 192.0, 0.0, 0.0, 0.0, 0.0, 0.0, 0.0, 0.0, 0.0, 0.0, 1.6664037016630857E9, 0.0, 2022-10-21 18:55:01.663
92.0, -111766.25481441675, -150452.34119323984, -63962.17661645134, -132627.09321106592, 50630.2998221278, -82263.80732820122, 40175.293704902375, -118266.54443342025, 0.088, 0.964, 0.05, 192.0, 0.0, 0.0, 0.0, 0.0, 0.0, 0.0, 0.0, 0.0, 0.0, 1.6664037016631055E9, 0.0, 2022-10-21 18:55:01.663
93.0, -111771.0827912191, -150456.45391421963, -63968.27864268764, -132632.8152576465, 50626.455322081485, -82258.93464790996, 40188.90591727566, -118272.71351488991, 0.088, 0.964, 0.05, 192.0, 0.0, 0.0, 0.0, 0.0, 0.0, 0.0, 0.0, 0.0, 0.0, 1.6664037016631253E9, 0.0, 2022-10-21 18:55:01.663
94.0, -111771.50747436375, -150454.50931245202, -63968.032773498635, -132639.811353661, 50628.623441293654, -82268.21062185892, 40182.17804219461, -118270.94772707793, 0.088, 0.964, 0.05, 192.0, 0.0, 0.0, 0.0, 0.0, 0.0, 0.0, 0.0, 0.0, 0.0, 1.6664037016631453E9, 0.0, 2022-10-21 18:55:01.663
95.0, -111767.55121559516, -150449.07783854936, -63965.641136841914, -132638.85022864942, 50636.044220452815, -82277.15131964104, 40165.81656525333, -118262.38700895155, 0.088, 0.964, 0.05, 192.0, 0.0, 0.0, 0.0, 0.0, 0.0, 0.0, 0.0, 0.0, 0.0, 1.666403701663162E9, 0.0, 2022-10-21 18:55:01.663
96.0, -111767.17123593942, -150450.82127461687, -63966.60226185349, -132631.09417332342, 50637.564139075774, -82271.04929340474, 40166.777690264906, -118262.99050605185, 0.088, 0.964, 0.05, 192.0, 0.0, 0.0, 0.0, 0.0, 0.0, 0.0, 0.0, 0.0, 0.0, 1.6664037016631749E9, 0.0, 2022-10-21 18:55:01.663
97.0, -111768.64645107347, -150451.60358567283, -63969.284471188126, -132631.49650472362, 50635.66424079707, -82264.63434274607, 40177.35006539227, -118264.2198519969, 0.088, 0.964, 0.05, 192.0, 0.0, 0.0, 0.0, 0.0, 0.0, 0.0, 0.0, 0.0, 0.0, 1.6664037016631875E9, 0.0, 2022-10-21 18:55:01.663
98.0, -111772.69211681988, -150455.20221653013, -63977.19698872531, -132636.72681292615, 50632.42323785106, -82266.82481370268, 40178.06532121484, -118265.44919794193, 0.088, 0.964, 0.05, 192.0, 0.0, 0.0, 0.0, 0.0, 0.0, 0.0, 0.0, 0.0, 0.0, 1.666403701663337E9, 0.0, 2022-10-21 18:55:01.663
99.0, -111769.24994817376, -150453.97287058507, -63979.208645726285, -132643.4099845183, 50633.74199077392, -82288.5730610577, 40152.87490521371, -118263.28107872976, 0.088, 0.9560000000000001, 0.064, 192.0, 2.0, 192.0, 29.0, 224.0, 2.0, 0.0, 0.0, 0.0, 0.0, 1.6664037016633508E9, 0.0, 2022-10-21 18:55:01.663
100.0, -111759.16931142443, -150444.24986174703, -63967.09400023151, -132621.8629028634, 50646.72835430245, -82275.69845625144, 40161.256809384446, -118248.17129947798, 0.088, 0.9560000000000001, 0.064, 192.0, 0.0, 0.0, 0.0, 0.0, 0.0, 0.0, 0.0, 0.0, 0.0, 1.666403701663365E9, 0.0, 2022-10-21 18:55:01.663
101.0, -111766.90301500596, -150453.8611118628, -63973.57600612355, -132626.53441745453, 50640.246348410416, -82252.34088329565, 40192.4374928996, -118250.87586055708, 0.088, 0.9560000000000001, 0.064, 192.0, 0.0, 0.0, 0.0, 0.0, 0.0, 0.0, 0.0, 0.0, 0.0, 1.6664037016633785E9, 0.0, 2022-10-21 18:55:01.663
102.0, -111772.51330286424, -150459.98548984356, -63982.04731727211, -132650.62959797736, 50630.27747038335, -82272.27863934978, 40182.71448406154, -118269.60662241062, 0.088, 0.9560000000000001, 0.064, 192.0, 0.0, 0.0, 0.0, 0.0, 0.0, 0.0, 0.0, 0.0, 0.0, 1.666403701663391E9, 0.0, 2022-10-21 18:55:01.663
103.0, -111770.38988714098, -150457.4597427201, -63982.87433181696, -132660.77728996007, 50629.07047618276, -82297.80433151773, 40151.600855779754, -118275.64159341354, 0.088, 0.9560000000000001, 0.064, 192.0, 0.0, 0.0, 0.0, 0.0, 0.0, 0.0, 0.0, 0.0, 0.0, 1.666403701663404E9, 0.0, 2022-10-21 18:55:01.663
104.0, -111763.34908763756, -150450.77657112796, -63978.35927943698, -132646.29335955303, 50635.46307509698, -82286.76256975681, 40153.81367848083, -118265.56095666421, 0.088, 0.9560000000000001, 0.064, 192.0, 0.0, 0.0, 0.0, 0.0, 0.0, 0.0, 0.0, 0.0, 0.0, 1.6664037016634223E9, 0.0, 2022-10-21 18:55:01.663
105.0, -111761.4268376144, -150450.01661181648, -63981.66733761637, -132641.82301066196, 50632.87027274016, -82280.43702607598, 40172.54444033437, -118267.12557877607, 0.088, 0.9560000000000001, 0.064, 192.0, 0.0, 0.0, 0.0, 0.0, 0.0, 0.0, 0.0, 0.0, 0.0, 1.6664037016634357E9, 0.0, 2022-10-21 18:55:01.663
106.0, -111766.4783318613, -150455.26927176348, -63986.696480118815, -132651.09898461093, 50628.77990350484, -82282.82866273269, 40181.23926892749, -118278.52496844828, 0.088, 0.9560000000000001, 0.064, 192.0, 0.0, 0.0, 0.0, 0.0, 0.0, 0.0, 0.0, 0.0, 0.0, 1.6664037016634483E9, 0.0, 2022-10-21 18:55:01.663
107.0, -111761.65035505896, -150453.27996650696, -63986.4506109298, -132657.98332190316, 50629.29399362731, -82297.75962802883, 40163.60374255225, -118278.10028530363, 0.088, 0.9560000000000001, 0.064, 192.0, 0.0, 0.0, 0.0, 0.0, 0.0, 0.0, 0.0, 0.0, 0.0, 1.6664037016634612E9, 0.0, 2022-10-21 18:55:01.663
108.0, -111756.35299162305, -150450.86597810578, -63988.73048886425, -132655.18935384625, 50624.53307205833, -82304.95688974344, 40158.37343434971, -118277.18386378097, 0.078, 0.9420000000000001, 0.068, 192.0, 2.0, 112.0, 29.0, 112.0, 2.0, 32.0, 0.0, 0.0, 0.0, 1.6664037016634755E9, 0.0, 2022-10-21 18:55:01.663
109.0, -111759.4822358468, -150456.78919038645, -63993.692576133326, -132649.24378982114, 50620.73327550093, -82295.01036346082, 40180.36755089373, -118286.12456156309, 0.078, 0.9420000000000001, 0.068, 192.0, 0.0, 0.0, 0.0, 0.0, 0.0, 0.0, 0.0, 0.0, 0.0, 1.6664037016634903E9, 0.0, 2022-10-21 18:55:01.663
110.0, -111755.0789421891, -150453.54818744044, -63986.98705279673, -132646.51687699757, 50629.09282792721, -82287.36606685711, 40201.66876335964, -118282.14595105004, 0.078, 0.9420000000000001, 0.068, 192.0, 0.0, 0.0, 0.0, 0.0, 0.0, 0.0, 0.0, 0.0, 0.0, 1.6664037016635032E9, 0.0, 2022-10-21 18:55:01.663
111.0, -111750.83211074259, -150449.56957692737, -63983.29901496161, -132646.94156014224, 50636.08892394172, -82284.86267147811, 40200.752341836975, -118274.94868933543, 0.078, 0.9420000000000001, 0.068, 192.0, 0.0, 0.0, 0.0, 0.0, 0.0, 0.0, 0.0, 0.0, 0.0, 1.666403701663516E9, 0.0, 2022-10-21 18:55:01.663
112.0, -111750.04979968665, -150450.21777751658, -63980.21447422678, -132639.47607749415, 50639.93342398804, -82282.82866273269, 40195.54438537889, -118272.33353523417, 0.078, 0.9420000000000001, 0.068, 192.0, 0.0, 0.0, 0.0, 0.0, 0.0, 0.0, 0.0, 0.0, 0.0, 1.6664037016635287E9, 0.0, 2022-10-21 18:55:01.663
113.0, -111761.98563122579, -150464.3664317568, -63988.797544097615, -132654.02706313456, 50625.0471621808, -82281.12993015409, 40205.37915293922, -118281.49775046084, 0.078, 0.9420000000000001, 0.068, 192.0, 0.0, 0.0, 0.0, 0.0, 0.0, 0.0, 0.0, 0.0, 0.0, 1.6664037016635916E9, 0.0, 2022-10-21 18:55:01.663
114.0, -111751.61442179853, -150457.52679795347, -63985.020099284666, -132651.70248171123, 50632.02090645086, -82273.03859866127, 40225.62983341573, -118275.10515154662, 0.078, 0.9420000000000001, 0.068, 192.0, 0.0, 0.0, 0.0, 0.0, 0.0, 0.0, 0.0, 0.0, 0.0, 1.6664037016636052E9, 0.0, 2022-10-21 18:55:01.663
115.0, -111748.08284617458, -150457.77266714248, -63990.22805574275, -132661.1572696158, 50631.37270586166, -82296.3738198726, 40204.37332443873, -118279.62020392659, 0.078, 0.9420000000000001, 0.068, 192.0, 0.0, 0.0, 0.0, 0.0, 0.0, 0.0, 0.0, 0.0, 0.0, 1.6664037016636183E9, 0.0, 2022-10-21 18:55:01.663
116.0, -111751.9273462209, -150463.24884453404, -63995.03368080064, -132670.32148484248, 50624.75658950288, -82312.3776689026, 40182.021579983426, -118284.22466328439, 0.078, 0.9420000000000001, 0.068, 192.0, 0.0, 0.0, 0.0, 0.0, 0.0, 0.0, 0.0, 0.0, 0.0, 1.6664037016636314E9, 0.0, 2022-10-21 18:55:01.663
117.0, -111757.40352361245, -150467.74154516956, -63999.347567480516, -132667.97455167468, 50617.246403365905, -82308.48846536738, 40191.878699288216, -118288.8738261311, 0.078, 0.9420000000000001, 0.068, 192.0, 0.0, 0.0, 0.0, 0.0, 0.0, 0.0, 0.0, 0.0, 0.0, 1.6664037016636443E9, 0.0, 2022-10-21 18:55:01.663
118.0, -111751.39090435398, -150463.74058291205, -63994.49723893371, -132657.13395561386, 50627.90818547108, -82290.2717936363, 40215.1915687551, -118282.34711675014, 0.078, 0.9380000000000001, 0.084, 192.0, 2.0, 112.0, 29.0, 80.0, 2.0, 160.0, 0.0, 0.0, 0.0, 1.6664037016636577E9, 0.0, 2022-10-21 18:55:01.663
119.0, -111743.61249728352, -150455.9621758416, -63985.19891324031, -132652.55184800053, 50642.41446762258, -82289.422427347, 40210.7882750974, -118272.78057012327, 0.078, 0.9380000000000001, 0.084, 192.0, 0.0, 0.0, 0.0, 0.0, 0.0, 0.0, 0.0, 0.0, 0.0, 1.6664037016636715E9, 0.0, 2022-10-21 18:55:01.663
120.0, -111743.72425600581, -150454.95634734113, -63985.53418940714, -132652.06010962251, 50641.47569435545, -82296.48557859487, 40195.32086793433, -118275.46277945791, 0.078, 0.9380000000000001, 0.084, 192.0, 0.0, 0.0, 0.0, 0.0, 0.0, 0.0, 0.0, 0.0, 0.0, 1.6664037016636848E9, 0.0, 2022-10-21 18:55:01.663
121.0, -111751.90499447644, -150464.70170792364, -63993.37965171095, -132651.70248171123, 50635.03839195232, -82290.98704945887, 40201.91463254865, -118282.77179989479, 0.078, 0.9380000000000001, 0.084, 192.0, 0.0, 0.0, 0.0, 0.0, 0.0, 0.0, 0.0, 0.0, 0.0, 1.6664037016636975E9, 0.0, 2022-10-21 18:55:01.663
122.0, -111758.11877943503, -150469.14970507025, -63995.704233134304, -132651.25544682212, 50633.58552856273, -82277.17367138549, 40226.278034004936, -118282.6153376836, 0.078, 0.9380000000000001, 0.084, 192.0, 0.0, 0.0, 0.0, 0.0, 0.0, 0.0, 0.0, 0.0, 0.0, 1.6664037016637104E9, 0.0, 2022-10-21 18:55:01.663
123.0, -111774.83788428758, -150484.48300176658, -64009.562314696595, -132670.99203717615, 50623.594298791206, -82291.05410469224, 40220.62304265774, -118297.65806170202, 0.078, 0.9380000000000001, 0.084, 192.0, 0.0, 0.0, 0.0, 0.0, 0.0, 0.0, 0.0, 0.0, 0.0, 1.6664037016637228E9, 0.0, 2022-10-21 18:55:01.663
124.0, -111769.20524468485, -150477.55396098542, -63999.77225062517, -132662.94540917224, 50637.67589779805, -82292.86459599312, 40211.54823440889, -118286.90687261903, 0.078, 0.9380000000000001, 0.084, 192.0, 0.0, 0.0, 0.0, 0.0, 0.0, 0.0, 0.0, 0.0, 0.0, 1.6664037016637356E9, 0.0, 2022-10-21 18:55:01.663
125.0, -111765.67366906091, -150472.10013533835, -63992.351471466005, -132647.47800200916, 50642.52622634485, -82278.58183128618, 40225.45101946009, -118280.67073591599, 0.078, 0.9380000000000001, 0.084, 192.0, 0.0, 0.0, 0.0, 0.0, 0.0, 0.0, 0.0, 0.0, 0.0, 1.66640370166375E9, 0.0, 2022-10-21 18:55:01.663
126.0, -111762.11974169251, -150470.53551322647, -63986.80823884109, -132637.44206874873, 50649.745839803916, -82267.78593871427, 40246.28284529244, -118274.16637827951, 0.078, 0.9380000000000001, 0.084, 192.0, 0.0, 0.0, 0.0, 0.0, 0.0, 0.0, 0.0, 0.0, 0.0, 1.666403701663763E9, 0.0, 2022-10-21 18:55:01.663
127.0, -111775.10610522106, -150484.50535351102, -63998.87818084696, -132656.97749340266, 50641.52039784437, -82271.98806667187, 40249.412089516176, -118279.08376205967, 0.078, 0.9380000000000001, 0.084, 192.0, 0.0, 0.0, 0.0, 0.0, 0.0, 0.0, 0.0, 0.0, 0.0, 1.6664037016637757E9, 0.0, 2022-10-21 18:55:01.663
128.0, -111777.22952094431, -150484.28183606648, -63999.19110526933, -132665.73937722915, 50638.63702280963, -82291.1211599256, 40228.75907763947, -118284.98462259588, 0.076, 0.936, 0.096, 192.0, 2.0, 96.0, 29.0, 64.0, 3.0, 0.0, 0.0, 0.0, 0.0, 1.666403701663803E9, 0.0, 2022-10-21 18:55:01.663
129.0, -111766.4336283724, -150470.62492020428, -63997.42531745736, -132659.70440622623, 50637.295918142314, -82285.84614823415, 40232.558874196875, -118285.02932608478, 0.076, 0.936, 0.096, 192.0, 0.0, 0.0, 0.0, 0.0, 0.0, 0.0, 0.0, 0.0, 0.0, 1.666403701663817E9, 0.0, 2022-10-21 18:55:01.663
130.0, -111751.7261805208, -150454.7104781521, -63995.81599185658, -132650.02610087706, 50638.32409838726, -82274.78203472878, 40257.59282798682, -118281.22952952738, 0.076, 0.936, 0.096, 192.0, 0.0, 0.0, 0.0, 0.0, 0.0, 0.0, 0.0, 0.0, 0.0, 1.6664037016638296E9, 0.0, 2022-10-21 18:55:01.663
131.0, -111771.95450925286, -150481.4655162651, -64003.72850939376, -132660.33025507096, 50634.703115785494, -82272.32334283869, 40267.360540313784, -118288.29268077525, 0.076, 0.936, 0.096, 192.0, 0.0, 0.0, 0.0, 0.0, 0.0, 0.0, 0.0, 0.0, 0.0, 1.6664037016638424E9, 0.0, 2022-10-21 18:55:01.663
132.0, -111795.58030314211, -150508.84640322285, -64009.6070181855, -132671.72964474317, 50632.132665173136, -82294.09394193816, 40244.07002259136, -118298.39566926906, 0.076, 0.936, 0.096, 192.0, 0.0, 0.0, 0.0, 0.0, 0.0, 0.0, 0.0, 0.0, 0.0, 1.6664037016638553E9, 0.0, 2022-10-21 18:55:01.663
133.0, -111805.30331198017, -150521.83276675138, -64008.780003640655, -132661.62665624937, 50637.00534546439, -82297.04437220626, 40240.38198475623, -118296.13814307906, 0.076, 0.936, 0.096, 192.0, 0.0, 0.0, 0.0, 0.0, 0.0, 0.0, 0.0, 0.0, 0.0, 1.6664037016638677E9, 0.0, 2022-10-21 18:55:01.663
134.0, -111821.8436028771, -150542.06109548346, -64014.591457199036, -132659.77146145958, 50631.97620296195, -82286.80727324574, 40259.64918847671, -118299.2226838139, 0.076, 0.936, 0.096, 192.0, 0.0, 0.0, 0.0, 0.0, 0.0, 0.0, 0.0, 0.0, 0.0, 1.6664037016638803E9, 0.0, 2022-10-21 18:55:01.663
135.0, -111834.98642861682, -150560.92596780372, -64014.97143685478, -132661.26902833808, 50636.44655185301, -82291.38938085907, 40266.533525768944, -118293.0759540887, 0.076, 0.936, 0.096, 192.0, 0.0, 0.0, 0.0, 0.0, 0.0, 0.0, 0.0, 0.0, 0.0, 1.6664037016638932E9, 0.0, 2022-10-21 18:55:01.663
136.0, -111851.79494044722, -150582.89773260328, -64023.37569276997, -132669.29330459755, 50638.21233966498, -82302.63230832008, 40244.18178131364, -118293.7688581668, 0.076, 0.936, 0.096, 192.0, 0.0, 0.0, 0.0, 0.0, 0.0, 0.0, 0.0, 0.0, 0.0, 1.666403701663906E9, 0.0, 2022-10-21 18:55:01.663
137.0, -111868.04465866621, -150599.61683745586, -64030.0141608732, -132673.24956336615, 50631.842092495215, -82299.92774724099, 40235.33049050933, -118307.49282926237, 0.08, 0.932, 0.098, 192.0, 2.0, 128.0, 29.0, 32.0, 3.0, 16.0, 0.0, 0.0, 0.0, 1.6664037016639187E9, 0.0, 2022-10-21 18:55:01.663
138.0, -111865.58596677614, -150597.0910903324, -64020.3582072685, -132658.40800504782, 50639.01700246537, -82276.7713399853, 40268.52283102546, -118296.8757506461, 0.08, 0.932, 0.098, 192.0, 0.0, 0.0, 0.0, 0.0, 0.0, 0.0, 0.0, 0.0, 0.0, 1.6664037016639323E9, 0.0, 2022-10-21 18:55:01.663
139.0, -111876.22539713686, -150611.32915155045, -64020.7605386687, -132662.87835393887, 50637.69824954251, -82282.29222086575, 40278.759929985994, -118294.19354131146, 0.08, 0.932, 0.098, 192.0, 0.0, 0.0, 0.0, 0.0, 0.0, 0.0, 0.0, 0.0, 0.0, 1.6664037016639447E9, 0.0, 2022-10-21 18:55:01.663
140.0, -111882.12625767307, -150620.13573886582, -64029.00833237271, -132672.84723196595, 50630.67980178354, -82295.99384021686, 40265.907676924195, -118295.80286691224, 0.08, 0.932, 0.098, 192.0, 0.0, 0.0, 0.0, 0.0, 0.0, 0.0, 0.0, 0.0, 0.0, 1.6664037016639576E9, 0.0, 2022-10-21 18:55:01.663
141.0, -111884.56259781869, -150621.9462301667, -64033.54573649714, -132676.28940061206, 50625.8518249812, -82316.73625907139, 40240.38198475623, -118305.54822749476, 0.08, 0.932, 0.098, 192.0, 0.0, 0.0, 0.0, 0.0, 0.0, 0.0, 0.0, 0.0, 0.0, 1.6664037016639705E9, 0.0, 2022-10-21 18:55:01.663
142.0, -111898.15245844751, -150633.59148902792, -64031.9140591519, -132669.3603598309, 50625.6506592811, -82306.58856708868, 40253.59186572932, -118312.63373048708, 0.08, 0.932, 0.098, 192.0, 0.0, 0.0, 0.0, 0.0, 0.0, 0.0, 0.0, 0.0, 0.0, 1.6664037016639829E9, 0.0, 2022-10-21 18:55:01.663
143.0, -111895.69376655744, -150634.37380008385, -64031.154099840416, -132668.80156621954, 50627.46115058198, -82302.47584610891, 40267.6064095028, -118310.97970139739, 0.08, 0.932, 0.098, 192.0, 0.0, 0.0, 0.0, 0.0, 0.0, 0.0, 0.0, 0.0, 0.0, 1.666403701664029E9, 0.0, 2022-10-21 18:55:01.664
144.0, -111894.59853107913, -150631.44572156022, -64037.300829565625, -132678.43516807977, 50627.32704011525, -82314.29991892575, 40252.98836862903, -118316.5229340223, 0.08, 0.932, 0.098, 192.0, 0.0, 0.0, 0.0, 0.0, 0.0, 0.0, 0.0, 0.0, 0.0, 1.666403701664042E9, 0.0, 2022-10-21 18:55:01.664
145.0, -111898.66654856999, -150632.02686691604, -64041.1676813564, -132680.98326694767, 50626.43297033703, -82321.29601494026, 40236.00104284299, -118320.36743406863, 0.08, 0.932, 0.098, 192.0, 0.0, 0.0, 0.0, 0.0, 0.0, 0.0, 0.0, 0.0, 0.0, 1.6664037016640549E9, 0.0, 2022-10-21 18:55:01.664
146.0, -111888.38474612054, -150621.7450644666, -64028.00250387222, -132664.80060396204, 50637.96647047597, -82306.99089848888, 40254.91061865218, -118303.91655014952, 0.08, 0.932, 0.098, 192.0, 0.0, 0.0, 0.0, 0.0, 0.0, 0.0, 0.0, 0.0, 0.0, 1.6664037016640687E9, 0.0, 2022-10-21 18:55:01.664
147.0, -111880.11460067208, -150613.58667774042, -64020.62642820197, -132651.54601950003, 50647.443610125025, -82292.93165122648, 40282.895002710226, -118298.35096578015, 0.09, 0.932, 0.09, 192.0, 2.0, 208.0, 29.0, 32.0, 2.0, 208.0, 0.0, 0.0, 0.0, 1.6664037016640816E9, 0.0, 2022-10-21 18:55:01.664
148.0, -111889.83760951014, -150623.2426313451, -64035.17741384237, -132675.0153511781, 50637.13945593112, -82301.04533446376, 40271.33915082683, -118311.58319849768, 0.09, 0.932, 0.09, 192.0, 0.0, 0.0, 0.0, 0.0, 0.0, 0.0, 0.0, 0.0, 0.0, 1.6664037016640954E9, 0.0, 2022-10-21 18:55:01.664
149.0, -111886.23897865284, -150618.3923027983, -64036.5632219986, -132682.19026114827, 50637.385325120136, -82310.99186074638, 40247.06515634837, -118308.72217520741, 0.09, 0.932, 0.09, 192.0, 0.0, 0.0, 0.0, 0.0, 0.0, 0.0, 0.0, 0.0, 0.0, 1.666403701664108E9, 0.0, 2022-10-21 18:55:01.664
150.0, -111874.0125744358, -150605.18242182524, -64020.91700087989, -132658.85503993693, 50646.5048368579, -82300.7771135303, 40255.067080863366, -118293.16536106651, 0.09, 0.932, 0.09, 192.0, 0.0, 0.0, 0.0, 0.0, 0.0, 0.0, 0.0, 0.0, 0.0, 1.666403701664121E9, 0.0, 2022-10-21 18:55:01.664
151.0, -111874.39255409152, -150603.9977793691, -64021.11816657999, -132655.0105398906, 50644.090848456726, -82294.40686636053, 40276.882383451746, -118293.41123025551, 0.09, 0.932, 0.09, 192.0, 0.0, 0.0, 0.0, 0.0, 0.0, 0.0, 0.0, 0.0, 0.0, 1.6664037016641338E9, 0.0, 2022-10-21 18:55:01.664
152.0, -111884.24967339632, -150612.8937736623, -64033.590439986045, -132672.40019707684, 50638.63702280963, -82300.37478213011, 40282.71618875458, -118311.62790198659, 0.09, 0.932, 0.09, 192.0, 0.0, 0.0, 0.0, 0.0, 0.0, 0.0, 0.0, 0.0, 0.0, 1.6664037016641464E9, 0.0, 2022-10-21 18:55:01.664
153.0, -111886.79777226422, -150615.5536312525, -64034.73037895327, -132687.1747001618, 50640.872197255165, -82316.69155558248, 40261.77260419996, -118312.09728862016, 0.09, 0.932, 0.09, 192.0, 0.0, 0.0, 0.0, 0.0, 0.0, 0.0, 0.0, 0.0, 0.0, 1.6664037016641593E9, 0.0, 2022-10-21 18:55:01.664
154.0, -111885.8589989971, -150613.58667774042, -64035.9150214094, -132691.0192002081, 50641.87802575565, -82320.44664865096, 40246.193438314614, -118310.26444557482, 0.09, 0.932, 0.09, 192.0, 0.0, 0.0, 0.0, 0.0, 0.0, 0.0, 0.0, 0.0, 0.0, 1.666403701664172E9, 0.0, 2022-10-21 18:55:01.664
155.0, -111881.70157452842, -150609.07162536046, -64029.52242249518, -132675.6188482784, 50648.58354909224, -82291.16586341451, 40278.290543352436, -118302.55309373775, 0.09, 0.932, 0.09, 192.0, 0.0, 0.0, 0.0, 0.0, 0.0, 0.0, 0.0, 0.0, 0.0, 1.6664037016641853E9, 0.0, 2022-10-21 18:55:01.664
156.0, -111896.09609795763, -150622.63913424482, -64043.98400115776, -132693.05320895353, 50631.52916807284, -82295.5244535833, 40285.28663936695, -118312.74548920937, 0.09, 0.932, 0.09, 192.0, 0.0, 0.0, 0.0, 0.0, 0.0, 0.0, 0.0, 0.0, 0.0, 1.666403701664198E9, 0.0, 2022-10-21 18:55:01.664
157.0, -111877.54415005972, -150602.32139853496, -64029.969457384286, -132683.1737379043, 50646.68365081354, -82307.54969210025, 40271.987351416035, -118305.88350366158, 0.108, 0.932, 0.094, 192.0, 3.0, 96.0, 29.0, 32.0, 2.0, 240.0, 0.0, 0.0, 0.0, 1.6664037016642108E9, 0.0, 2022-10-21 18:55:01.664
158.0, -111877.38768784853, -150600.28738978953, -64029.678884706365, -132676.93760120127, 50649.11999095917, -82312.06474448023, 40264.9018484237, -118307.44812577346, 0.108, 0.932, 0.094, 192.0, 0.0, 0.0, 0.0, 0.0, 0.0, 0.0, 0.0, 0.0, 0.0, 1.6664037016642654E9, 0.0, 2022-10-21 18:55:01.664
159.0, -111876.82889423716, -150598.9462851222, -64026.84021316055, -132666.3652260739, 50653.50093287241, -82302.40879087553, 40282.8055957324, -118301.01082337032, 0.108, 0.932, 0.094, 192.0, 0.0, 0.0, 0.0, 0.0, 0.0, 0.0, 0.0, 0.0, 0.0, 1.6664037016642787E9, 0.0, 2022-10-21 18:55:01.664
160.0, -111880.56163556119, -150602.7460816796, -64034.48450976426, -132671.55083078754, 50649.187046192535, -82309.44959037895, 40288.974677202066, -118302.44133501546, 0.108, 0.932, 0.094, 192.0, 0.0, 0.0, 0.0, 0.0, 0.0, 0.0, 0.0, 0.0, 0.0, 1.6664037016642916E9, 0.0, 2022-10-21 18:55:01.664
161.0, -111879.39934484952, -150600.10857583387, -64030.48354750676, -132674.94829594475, 50652.36099390519, -82322.61476786314, 40268.58988625883, -118294.6182244561, 0.108, 0.932, 0.094, 192.0, 0.0, 0.0, 0.0, 0.0, 0.0, 0.0, 0.0, 0.0, 0.0, 1.6664037016643057E9, 0.0, 2022-10-21 18:55:01.664
162.0, -111884.83081875216, -150600.8461834009, -64031.981114385264, -132676.89289771236, 50647.287147913834, -82316.3786311601, 40260.185630343636, -118299.177980325, 0.108, 0.932, 0.094, 192.0, 0.0, 0.0, 0.0, 0.0, 0.0, 0.0, 0.0, 0.0, 0.0, 1.666403701664319E9, 0.0, 2022-10-21 18:55:01.664
163.0, -111886.88717924204, -150601.7402531791, -64032.562259741106, -132673.9648191887, 50639.888720499126, -82310.36601190163, 40272.97082817207, -118300.38497452557, 0.108, 0.932, 0.094, 192.0, 0.0, 0.0, 0.0, 0.0, 0.0, 0.0, 0.0, 0.0, 0.0, 1.6664037016643322E9, 0.0, 2022-10-21 18:55:01.664
164.0, -111888.407097865, -150601.87436364585, -64035.93737315386, -132674.6130197779, 50637.0500489533, -82308.44376187847, 40286.11365391179, -118305.88350366158, 0.108, 0.932, 0.094, 192.0, 0.0, 0.0, 0.0, 0.0, 0.0, 0.0, 0.0, 0.0, 0.0, 1.6664037016643455E9, 0.0, 2022-10-21 18:55:01.664
165.0, -111883.04267919573, -150598.81217465547, -64034.52921325317, -132680.49152856966, 50641.989784477926, -82321.16190447354, 40273.171993872165, -118305.45882051693, 0.108, 0.932, 0.094, 192.0, 0.0, 0.0, 0.0, 0.0, 0.0, 0.0, 0.0, 0.0, 0.0, 1.6664037016643584E9, 0.0, 2022-10-21 18:55:01.664
166.0, -111884.96492921888, -150601.4943839901, -64036.09383536504, -132682.68199952628, 50639.70990654349, -82327.42039292102, 40257.21284833108, -118306.46464901742, 0.108, 0.932, 0.094, 192.0, 0.0, 0.0, 0.0, 0.0, 0.0, 0.0, 0.0, 0.0, 0.0, 1.6664037016643713E9, 0.0, 2022-10-21 18:55:01.664
167.0, -111906.89199052955, -150621.9462301667, -64055.3163355966, -132698.66349681182, 50620.08507491172, -82335.91405581404, 40251.781374428436, -118317.61816950062, 0.11800000000000001, 0.9440000000000001, 0.084, 192.0, 3.0, 176.0, 29.0, 128.0, 2.0, 160.0, 0.0, 0.0, 0.0, 1.6664037016643844E9, 0.0, 2022-10-21 18:55:01.664
168.0, -111895.5596560907, -150609.8539364164, -64042.620544745994, -132681.78792974807, 50633.876101240654, -82317.47386663841, 40286.02424693397, -118302.39663152656, 0.11800000000000001, 0.9440000000000001, 0.084, 192.0, 0.0, 0.0, 0.0, 0.0, 0.0, 0.0, 0.0, 0.0, 0.0, 1.6664037016644013E9, 0.0, 2022-10-21 18:55:01.664
169.0, -111888.04946995372, -150599.88505838934, -64034.305695808616, -132683.4643105822, 50644.94021474603, -82325.0287562643, 40283.92318295517, -118298.61918671361, 0.11800000000000001, 0.9440000000000001, 0.084, 192.0, 0.0, 0.0, 0.0, 0.0, 0.0, 0.0, 0.0, 0.0, 0.0, 1.6664037016644142E9, 0.0, 2022-10-21 18:55:01.664
170.0, -111890.5081618438, -150598.81217465547, -64033.50103300823, -132685.14069141637, 50646.72835430245, -82332.49423891238, 40266.84645019132, -118300.45202975895, 0.11800000000000001, 0.9440000000000001, 0.084, 192.0, 0.0, 0.0, 0.0, 0.0, 0.0, 0.0, 0.0, 0.0, 0.0, 1.6664037016644268E9, 0.0, 2022-10-21 18:55:01.664
171.0, -111890.84343801063, -150600.3991485118, -64030.0141608732, -132678.18929889076, 50649.611729337186, -82316.3786311601, 40282.336209098845, -118297.47924774639, 0.11800000000000001, 0.9440000000000001, 0.084, 192.0, 0.0, 0.0, 0.0, 0.0, 0.0, 0.0, 0.0, 0.0, 0.0, 1.6664037016644397E9, 0.0, 2022-10-21 18:55:01.664
172.0, -111890.48581009934, -150600.26503804507, -64031.86935566299, -132673.18250813277, 50651.82455203826, -82287.41077034602, 40318.30016592743, -118302.55309373775, 0.11800000000000001, 0.9440000000000001, 0.084, 192.0, 0.0, 0.0, 0.0, 0.0, 0.0, 0.0, 0.0, 0.0, 0.0, 1.6664037016644523E9, 0.0, 2022-10-21 18:55:01.664
173.0, -111892.2068944224, -150600.33209327844, -64036.27264932069, -132684.33602861597, 50647.04127872483, -82307.41558163353, 40309.85120652333, -118307.04579437326, 0.11800000000000001, 0.9440000000000001, 0.084, 192.0, 0.0, 0.0, 0.0, 0.0, 0.0, 0.0, 0.0, 0.0, 0.0, 1.6664037016644812E9, 0.0, 2022-10-21 18:55:01.664
174.0, -111894.44206886794, -150601.67319794575, -64034.68567546436, -132690.75097927463, 50646.661299069085, -82332.85186682366, 40278.78228173045, -118304.2741780608, 0.11800000000000001, 0.9440000000000001, 0.084, 192.0, 0.0, 0.0, 0.0, 0.0, 0.0, 0.0, 0.0, 0.0, 0.0, 1.666403701664494E9, 0.0, 2022-10-21 18:55:01.664
175.0, -111889.30116764322, -150595.68293043174, -64028.561297483604, -132676.0211796786, 50654.39500265062, -82318.52439862781, 40287.92414521267, -118299.04386985826, 0.11800000000000001, 0.9440000000000001, 0.084, 192.0, 0.0, 0.0, 0.0, 0.0, 0.0, 0.0, 0.0, 0.0, 0.0, 1.666403701664507E9, 0.0, 2022-10-21 18:55:01.664
176.0, -111889.07765019867, -150595.81704089846, -64026.549640482626, -132665.29234234005, 50660.13940097563, -82290.58471805867, 40320.80356130643, -118295.64640470105, 0.124, 0.9500000000000001, 0.08600000000000001, 192.0, 3.0, 224.0, 29.0, 176.0, 2.0, 176.0, 0.0, 0.0, 0.0, 1.6664037016645203E9, 0.0, 2022-10-21 18:55:01.664
177.0, -111895.87258051308, -150605.5400497365, -64035.557393498115, -132685.81124375, 50655.60199685121, -82296.23970940587, 40316.444971137644, -118300.00499486983, 0.124, 0.9500000000000001, 0.08600000000000001, 192.0, 0.0, 0.0, 0.0, 0.0, 0.0, 0.0, 0.0, 0.0, 0.0, 1.6664037016645336E9, 0.0, 2022-10-21 18:55:01.664
178.0, -111894.53147584575, -150604.71303519167, -64038.79839644414, -132693.34378163144, 50656.250197440415, -82314.41167764804, 40288.08060742386, -118296.42871575699, 0.124, 0.9500000000000001, 0.08600000000000001, 192.0, 0.0, 0.0, 0.0, 0.0, 0.0, 0.0, 0.0, 0.0, 0.0, 1.6664037016645467E9, 0.0, 2022-10-21 18:55:01.664
179.0, -111888.94353973193, -150599.61683745586, -64034.41745453089, -132682.6596477818, 50658.39596490812, -82307.41558163353, 40286.00189518951, -118290.21493079841, 0.124, 0.9500000000000001, 0.08600000000000001, 192.0, 0.0, 0.0, 0.0, 0.0, 0.0, 0.0, 0.0, 0.0, 0.0, 1.6664037016645596E9, 0.0, 2022-10-21 18:55:01.664
180.0, -111895.04556596823, -150606.7023404482, -64037.99373364374, -132678.4128163353, 50654.03737473934, -82290.33884886967, 40309.180654189666, -118295.40053551205, 0.124, 0.9500000000000001, 0.08600000000000001, 192.0, 0.0, 0.0, 0.0, 0.0, 0.0, 0.0, 0.0, 0.0, 0.0, 1.6664037016645725E9, 0.0, 2022-10-21 18:55:01.664
181.0, -111894.5538275902, -150605.87532590335, -64042.30762032362, -132679.15042390232, 50653.83620903924, -82295.25623264983, 40316.7131920711, -118300.16145708102, 0.124, 0.9500000000000001, 0.08600000000000001, 192.0, 0.0, 0.0, 0.0, 0.0, 0.0, 0.0, 0.0, 0.0, 0.0, 1.6664037016645854E9, 0.0, 2022-10-21 18:55:01.664
182.0, -111893.32448164518, -150604.37775902485, -64043.872242435486, -132687.28645888407, 50650.438743882034, -82315.48456138189, 40297.49069183954, -118299.93793963647, 0.124, 0.9500000000000001, 0.08600000000000001, 192.0, 0.0, 0.0, 0.0, 0.0, 0.0, 0.0, 0.0, 0.0, 0.0, 1.6664037016645982E9, 0.0, 2022-10-21 18:55:01.664
183.0, -111899.80648753721, -150613.96665739617, -64051.65064950594, -132695.31073514352, 50637.76530477587, -82333.07538426822, 40277.88821195224, -118310.04092813027, 0.124, 0.9500000000000001, 0.08600000000000001, 192.0, 0.0, 0.0, 0.0, 0.0, 0.0, 0.0, 0.0, 0.0, 0.0, 1.6664037016646109E9, 0.0, 2022-10-21 18:55:01.664
184.0, -111891.46928685538, -150609.22808757165, -64047.29205933715, -132675.4623860672, 50646.236615924434, -82309.33783165668, 40311.57229084639, -118305.70468970593, 0.124, 0.9500000000000001, 0.08600000000000001, 192.0, 0.0, 0.0, 0.0, 0.0, 0.0, 0.0, 0.0, 0.0, 0.0, 1.6664037016646235E9, 0.0, 2022-10-21 18:55:01.664
185.0, -111883.75793501831, -150600.55561072298, -64036.63027723197, -132673.02604592158, 50657.457191641, -82294.56332857172, 40335.01927078, -118293.81356165571, 0.124, 0.9500000000000001, 0.08600000000000001, 192.0, 0.0, 0.0, 0.0, 0.0, 0.0, 0.0, 0.0, 0.0, 0.0, 1.6664037016646364E9, 0.0, 2022-10-21 18:55:01.664
186.0, -111884.38378386304, -150601.71790143466, -64039.35719005552, -132688.2699356401, 50653.031546238846, -82313.29409042528, 40308.57715708938, -118302.59779722666, 0.12, 0.9520000000000001, 0.082, 192.0, 3.0, 192.0, 29.0, 192.0, 2.0, 144.0, 0.0, 0.0, 0.0, 1.6664037016646492E9, 0.0, 2022-10-21 18:55:01.664
187.0, -111869.4528185669, -150587.81511638346, -64027.734282938756, -132669.78504297556, 50663.11218298819, -82314.5234363703, 40297.24482265054, -118296.8757506461, 0.12, 0.9520000000000001, 0.082, 192.0, 0.0, 0.0, 0.0, 0.0, 0.0, 0.0, 0.0, 0.0, 0.0, 1.6664037016646636E9, 0.0, 2022-10-21 18:55:01.664
188.0, -111877.34298435962, -150597.42636649925, -64034.70802720881, -132668.80156621954, 50654.52911311735, -82301.87234900861, 40309.82885477887, -118305.65998621703, 0.12, 0.9520000000000001, 0.082, 192.0, 0.0, 0.0, 0.0, 0.0, 0.0, 0.0, 0.0, 0.0, 0.0, 1.6664037016646905E9, 0.0, 2022-10-21 18:55:01.664
189.0, -111890.01642346579, -150606.25530555908, -64048.49905353774, -132693.29907814253, 50639.84401701022, -82306.36504964413, 40323.91045378571, -118320.90387593555, 0.12, 0.9520000000000001, 0.082, 192.0, 0.0, 0.0, 0.0, 0.0, 0.0, 0.0, 0.0, 0.0, 0.0, 1.6664037016647053E9, 0.0, 2022-10-21 18:55:01.664
190.0, -111883.46736234038, -150598.4992502331, -64045.615678503, -132701.45746486873, 50640.62632806615, -82335.35526220266, 40302.944517486634, -118313.79602119877, 0.12, 0.9520000000000001, 0.082, 192.0, 0.0, 0.0, 0.0, 0.0, 0.0, 0.0, 0.0, 0.0, 0.0, 1.666403701664718E9, 0.0, 2022-10-21 18:55:01.664
191.0, -111879.35464136061, -150599.5944857114, -64037.792567943645, -132692.6285258089, 50650.93048226005, -82337.14340175908, 40287.65592427921, -118303.60362572713, 0.12, 0.9520000000000001, 0.082, 192.0, 0.0, 0.0, 0.0, 0.0, 0.0, 0.0, 0.0, 0.0, 0.0, 1.666403701664731E9, 0.0, 2022-10-21 18:55:01.664
192.0, -111881.14278091703, -150599.77329966705, -64036.98790514325, -132683.08433092647, 50654.19383695052, -82313.00351774735, 40305.827892521374, -118298.86505590261, 0.12, 0.9520000000000001, 0.082, 192.0, 0.0, 0.0, 0.0, 0.0, 0.0, 0.0, 0.0, 0.0, 0.0, 1.6664037016647437E9, 0.0, 2022-10-21 18:55:01.664
193.0, -111882.84151349563, -150602.25434330158, -64038.418416788394, -132685.7665402611, 50648.15886594759, -82311.03656423528, 40318.21075894961, -118305.01178562782, 0.12, 0.9520000000000001, 0.082, 192.0, 0.0, 0.0, 0.0, 0.0, 0.0, 0.0, 0.0, 0.0, 0.0, 1.6664037016647565E9, 0.0, 2022-10-21 18:55:01.664
194.0, -111886.03781295274, -150607.37289278186, -64042.419379045896, -132695.35543863242, 50644.090848456726, -82331.01902377832, 40301.40224711922, -118314.51127702133, 0.12, 0.9520000000000001, 0.082, 192.0, 0.0, 0.0, 0.0, 0.0, 0.0, 0.0, 0.0, 0.0, 0.0, 1.6664037016647692E9, 0.0, 2022-10-21 18:55:01.664
195.0, -111875.3089756142, -150595.95115136518, -64037.85962317701, -132691.4215316083, 50653.18800845004, -82334.08121276871, 40292.752122015016, -118306.97873913989, 0.12, 0.9520000000000001, 0.082, 192.0, 0.0, 0.0, 0.0, 0.0, 0.0, 0.0, 0.0, 0.0, 0.0, 1.666403701664782E9, 0.0, 2022-10-21 18:55:01.664
196.0, -111851.63847823603, -150572.07948828692, -64027.7119311943, -132670.38854007586, 50670.711776102995, -82316.33392767119, 40304.35267738732, -118291.57838721019, 0.122, 0.9440000000000001, 0.08600000000000001, 192.0, 3.0, 208.0, 29.0, 128.0, 2.0, 176.0, 0.0, 0.0, 0.0, 1.6664037016647947E9, 0.0, 2022-10-21 18:55:01.664
197.0, -111867.5529202882, -150586.20579078267, -64041.74882671223, -132678.9045547133, 50658.46302014149, -82331.48841041188, 40290.29343012493, -118308.14102985157, 0.122, 0.9440000000000001, 0.08600000000000001, 192.0, 0.0, 0.0, 0.0, 0.0, 0.0, 0.0, 0.0, 0.0, 0.0, 1.6664037016648085E9, 0.0, 2022-10-21 18:55:01.664
198.0, -111887.73654553134, -150608.35636953788, -64039.111320866505, -132686.28063038358, 50661.94989227652, -82338.88683782659, 40284.012589932994, -118303.38010828258, 0.122, 0.9440000000000001, 0.08600000000000001, 192.0, 0.0, 0.0, 0.0, 0.0, 0.0, 0.0, 0.0, 0.0, 0.0, 1.666403701664821E9, 0.0, 2022-10-21 18:55:01.664
199.0, -111893.36918513408, -150616.8947359198, -64030.34943704003, -132679.820976236, 50673.461040671, -82338.28334072631, 40272.88142119425, -118294.46176224492, 0.122, 0.9440000000000001, 0.08600000000000001, 192.0, 0.0, 0.0, 0.0, 0.0, 0.0, 0.0, 0.0, 0.0, 0.0, 1.6664037016648338E9, 0.0, 2022-10-21 18:55:01.664
200.0, -111914.11160398861, -150635.69255300672, -64042.30762032362, -132684.78306350508, 50662.329871932256, -82321.56423587374, 40285.063121922394, -118307.26931181781, 0.122, 0.9440000000000001, 0.08600000000000001, 192.0, 0.0, 0.0, 0.0, 0.0, 0.0, 0.0, 0.0, 0.0, 0.0, 1.6664037016648464E9, 0.0, 2022-10-21 18:55:01.664
201.0, -111915.56446737821, -150636.6536780183, -64040.810053445115, -132680.9162117143, 50662.26281669889, -82321.34071842919, 40303.95034598713, -118307.04579437326, 0.122, 0.9440000000000001, 0.08600000000000001, 192.0, 0.0, 0.0, 0.0, 0.0, 0.0, 0.0, 0.0, 0.0, 0.0, 1.6664037016648593E9, 0.0, 2022-10-21 18:55:01.664
202.0, -111909.12716497507, -150630.23872735963, -64033.188108585855, -132675.4623860672, 50672.36580519269, -82334.26002672435, 40297.9600784731, -118294.39470701155, 0.122, 0.9440000000000001, 0.08600000000000001, 192.0, 0.0, 0.0, 0.0, 0.0, 0.0, 0.0, 0.0, 0.0, 0.0, 1.6664037016648717E9, 0.0, 2022-10-21 18:55:01.664
203.0, -111920.01246452481, -150639.00061118611, -64036.33970455405, -132679.3739413469, 50674.22099998248, -82335.57877964721, 40287.14183415673, -118290.90783487653, 0.122, 0.9440000000000001, 0.08600000000000001, 192.0, 0.0, 0.0, 0.0, 0.0, 0.0, 0.0, 0.0, 0.0, 0.0, 1.6664037016648984E9, 0.0, 2022-10-21 18:55:01.664
204.0, -111933.31175247571, -150652.36695437037, -64045.72743722528, -132693.00850546462, 50661.145229476126, -82340.3844047051, 40278.60346777481, -118300.56378848122, 0.122, 0.9440000000000001, 0.08600000000000001, 192.0, 0.0, 0.0, 0.0, 0.0, 0.0, 0.0, 0.0, 0.0, 0.0, 1.666403701664912E9, 0.0, 2022-10-21 18:55:01.664
205.0, -111931.09892977464, -150645.7061345227, -64043.76048371321, -132688.60521180692, 50659.89353178663, -82329.81202957775, 40301.9610407306, -118300.54143673676, 0.124, 0.9440000000000001, 0.09, 192.0, 3.0, 224.0, 29.0, 128.0, 2.0, 208.0, 0.0, 0.0, 0.0, 1.6664037016649249E9, 0.0, 2022-10-21 18:55:01.664
0.0, 0.0, 0.0, 0.0, 0.0, 0.0, 0.0, 0.0, 0.0, 0.124, 0.9440000000000001, 0.09, 192.0, 0.0, 0.0, 0.0, 0.0, 0.0, 0.0, 0.0, 0.0, 0.0, 1.6664037017696073E9, 0.0, 2022-10-21 18:55:01.769
1.0, -110136.67853315813, -150623.04146564502, -63473.12044776922, -132496.3802094913, 50803.749359100984, -79231.94965505, 40182.89329801718, -118185.60876674758, 0.076, 0.9580000000000001, 0.06, 192.0, 2.0, 96.0, 29.0, 240.0, 1.0, 224.0, 0.0, 0.0, 0.0, 1.6664037022529256E9, 0.0, 2022-10-21 18:55:02.252
2.0, -110150.0001728535, -150638.12889315234, -63485.45861070855, -132512.11583758783, 50792.52878338442, -79236.1070795187, 40182.155690450156, -118200.29386285471, 0.076, 0.9580000000000001, 0.06, 192.0, 0.0, 0.0, 0.0, 0.0, 0.0, 0.0, 0.0, 0.0, 0.0, 1.6664037022529724E9, 0.0, 2022-10-21 18:55:02.252
3.0, -110141.28299251593, -150630.551651782, -63478.66368039414, -132519.29074755797, 50798.72021659854, -79239.5045446759, 40177.327713647814, -118198.7515924873, 0.076, 0.9580000000000001, 0.06, 192.0, 0.0, 0.0, 0.0, 0.0, 0.0, 0.0, 0.0, 0.0, 0.0, 1.6664037022529898E9, 0.0, 2022-10-21 18:55:02.252
4.0, -110130.95648657758, -150620.046331888, -63466.83960757728, -132504.8738723843, 50811.863042338264, -79226.27231195835, 40180.0322747269, -118186.88281618153, 0.076, 0.9580000000000001, 0.06, 192.0, 0.0, 0.0, 0.0, 0.0, 0.0, 0.0, 0.0, 0.0, 0.0, 1.6664037022530308E9, 0.0, 2022-10-21 18:55:02.253
5.0, -110138.13139654773, -150627.7129802362, -63475.735601870496, -132505.70088692915, 50802.58706838931, -79223.5006956459, 40188.19066145309, -118193.18600811792, 0.076, 0.9580000000000001, 0.06, 192.0, 0.0, 0.0, 0.0, 0.0, 0.0, 0.0, 0.0, 0.0, 0.0, 1.6664037022530477E9, 0.0, 2022-10-21 18:55:02.253
6.0, -110135.11391104627, -150623.06381738948, -63474.90858732565, -132506.66201194073, 50795.94860028608, -79234.92243706256, 40196.99724876848, -118195.66705175246, 0.076, 0.9580000000000001, 0.06, 192.0, 0.0, 0.0, 0.0, 0.0, 0.0, 0.0, 0.0, 0.0, 0.0, 1.666403702253064E9, 0.0, 2022-10-21 18:55:02.253
7.0, -110137.28203025843, -150623.57790751194, -63472.3828402022, -132516.09444810086, 50796.75326308647, -79258.01178908489, 40174.71255954654, -118195.71175524137, 0.052000000000000005, 0.9560000000000001, 0.044, 192.0, 1.0, 160.0, 29.0, 224.0, 1.0, 96.0, 0.0, 0.0, 0.0, 1.66640370225308E9, 0.0, 2022-10-21 18:55:02.253
8.0, -110164.23823407153, -150651.11525668087, -63497.260331780955, -132535.60752101036, 50779.3859576447, -79252.75912913789, 40156.27237037091, -118215.35893861759, 0.052000000000000005, 0.9560000000000001, 0.044, 192.0, 0.0, 0.0, 0.0, 0.0, 0.0, 0.0, 0.0, 0.0, 0.0, 1.6664037022530975E9, 0.0, 2022-10-21 18:55:02.253
9.0, -110144.16636755066, -150633.30091635, -63475.288566981384, -132516.63088996778, 50796.485042153006, -79222.0478322563, 40188.57064110883, -118193.14130462901, 0.052000000000000005, 0.9560000000000001, 0.044, 192.0, 0.0, 0.0, 0.0, 0.0, 0.0, 0.0, 0.0, 0.0, 0.0, 1.6664037022531135E9, 0.0, 2022-10-21 18:55:02.253
10.0, -110137.50554770298, -150628.1600151253, -63467.688973866585, -132507.84665439685, 50804.934001557114, -79212.57069260725, 40208.776618096424, -118190.7496679723, 0.052000000000000005, 0.9560000000000001, 0.044, 192.0, 0.0, 0.0, 0.0, 0.0, 0.0, 0.0, 0.0, 0.0, 0.0, 1.6664037022531295E9, 0.0, 2022-10-21 18:55:02.253
11.0, -110138.57843143684, -150628.8976226923, -63470.974680301515, -132509.65714569774, 50806.968010302546, -79223.16541947906, 40196.6396208572, -118192.42604880645, 0.052000000000000005, 0.9560000000000001, 0.044, 192.0, 0.0, 0.0, 0.0, 0.0, 0.0, 0.0, 0.0, 0.0, 0.0, 1.6664037022531457E9, 0.0, 2022-10-21 18:55:02.253
12.0, -110154.2023008111, -150643.87329147736, -63483.84928510777, -132528.00792789555, 50791.63471360621, -79241.27033248787, 40172.11975718972, -118207.78169724724, 0.052000000000000005, 0.9560000000000001, 0.044, 192.0, 0.0, 0.0, 0.0, 0.0, 0.0, 0.0, 0.0, 0.0, 0.0, 1.6664037022531617E9, 0.0, 2022-10-21 18:55:02.253
13.0, -110145.75334140699, -150632.563308783, -63475.10975302575, -132520.2295208251, 50793.24403920699, -79241.06916678777, 40176.12071944722, -118200.09269715461, 0.052000000000000005, 0.9560000000000001, 0.044, 192.0, 0.0, 0.0, 0.0, 0.0, 0.0, 0.0, 0.0, 0.0, 0.0, 1.666403702253244E9, 0.0, 2022-10-21 18:55:02.253
14.0, -110143.27229777245, -150628.048256403, -63471.734639612994, -132516.36266903434, 50795.009827018956, -79222.4501636565, 40201.10996974826, -118203.11018265608, 0.052000000000000005, 0.9560000000000001, 0.044, 192.0, 0.0, 0.0, 0.0, 0.0, 0.0, 0.0, 0.0, 0.0, 0.0, 1.6664037022532604E9, 0.0, 2022-10-21 18:55:02.253
15.0, -110147.76499840796, -150632.9656401832, -63472.6287093912, -132528.38790755128, 50795.926248541626, -79223.07601250125, 40201.22172847053, -118205.65828152398, 0.052000000000000005, 0.9560000000000001, 0.044, 192.0, 0.0, 0.0, 0.0, 0.0, 0.0, 0.0, 0.0, 0.0, 0.0, 1.666403702253276E9, 0.0, 2022-10-21 18:55:02.253
16.0, -110140.746550649, -150626.41657905778, -63468.35952620024, -132527.09150637288, 50801.46948116654, -79236.12943126315, 40177.57358283682, -118192.58251101762, 0.052000000000000005, 0.9560000000000001, 0.044, 192.0, 0.0, 0.0, 0.0, 0.0, 0.0, 0.0, 0.0, 0.0, 0.0, 1.666403702253292E9, 0.0, 2022-10-21 18:55:02.253
17.0, -110149.5978414533, -150637.27952686304, -63477.389630960184, -132523.44817202666, 50794.5404403854, -79226.51818114736, 40184.52497536242, -118197.92457794245, 0.04, 0.9560000000000001, 0.034, 192.0, 1.0, 64.0, 29.0, 224.0, 1.0, 16.0, 0.0, 0.0, 0.0, 1.6664037022533076E9, 0.0, 2022-10-21 18:55:02.253
18.0, -110146.8932803742, -150638.03948617453, -63473.00868904695, -132519.78248593598, 50796.14976598618, -79222.20429446749, 40202.31696394885, -118196.71758374186, 0.04, 0.9560000000000001, 0.034, 192.0, 0.0, 0.0, 0.0, 0.0, 0.0, 0.0, 0.0, 0.0, 0.0, 1.666403702253325E9, 0.0, 2022-10-21 18:55:02.253
19.0, -110154.04583859991, -150644.83441648894, -63477.255520493454, -132533.4841052871, 50790.80769906136, -79239.59395165372, 40192.14692022168, -118195.10825814107, 0.04, 0.9560000000000001, 0.034, 192.0, 0.0, 0.0, 0.0, 0.0, 0.0, 0.0, 0.0, 0.0, 0.0, 1.6664037022533405E9, 0.0, 2022-10-21 18:55:02.253
20.0, -110163.29946080441, -150654.64683230483, -63485.65977640865, -132545.19641938168, 50784.10217572477, -79248.86992560267, 40175.651332813664, -118204.49599081231, 0.04, 0.9560000000000001, 0.034, 192.0, 0.0, 0.0, 0.0, 0.0, 0.0, 0.0, 0.0, 0.0, 0.0, 1.6664037022533565E9, 0.0, 2022-10-21 18:55:02.253
21.0, -110151.34127752081, -150644.29797462202, -63472.449895435566, -132527.94087266218, 50793.86988805174, -79243.84078310023, 40179.33937064879, -118201.52320879976, 0.04, 0.9560000000000001, 0.034, 192.0, 0.0, 0.0, 0.0, 0.0, 0.0, 0.0, 0.0, 0.0, 0.0, 1.6664037022533724E9, 0.0, 2022-10-21 18:55:02.253
22.0, -110147.6979431746, -150640.8558059759, -63467.86778782222, -132513.81457016643, 50799.86015556576, -79226.71934684746, 40199.09831274728, -118201.59026403312, 0.04, 0.9560000000000001, 0.034, 192.0, 0.0, 0.0, 0.0, 0.0, 0.0, 0.0, 0.0, 0.0, 0.0, 1.666403702253388E9, 0.0, 2022-10-21 18:55:02.253
23.0, -110132.36464647827, -150626.7518552246, -63453.339153926274, -132502.23636653856, 50819.3955802197, -79217.82335255425, 40208.57545239633, -118182.390115546, 0.04, 0.9560000000000001, 0.034, 192.0, 0.0, 0.0, 0.0, 0.0, 0.0, 0.0, 0.0, 0.0, 0.0, 1.6664037022534044E9, 0.0, 2022-10-21 18:55:02.253
24.0, -110135.06920755735, -150628.2047186142, -63459.08355225129, -132511.55704397644, 50816.57926041833, -79231.88259981664, 40187.274239930426, -118186.81576094816, 0.04, 0.9560000000000001, 0.034, 192.0, 0.0, 0.0, 0.0, 0.0, 0.0, 0.0, 0.0, 0.0, 0.0, 1.6664037022534194E9, 0.0, 2022-10-21 18:55:02.253
25.0, -110144.92632686214, -150640.1629018978, -63468.47128492252, -132527.31502381744, 50802.832937578314, -79234.02836728435, 40179.45112937107, -118198.37161283156, 0.04, 0.9560000000000001, 0.034, 192.0, 0.0, 0.0, 0.0, 0.0, 0.0, 0.0, 0.0, 0.0, 0.0, 1.6664037022534344E9, 0.0, 2022-10-21 18:55:02.253
26.0, -110151.11776007626, -150648.50010257962, -63470.2817762234, -132526.84563718387, 50800.28483871041, -79218.85153279919, 40200.48412090351, -118201.43380182193, 0.04, 0.9560000000000001, 0.034, 192.0, 0.0, 0.0, 0.0, 0.0, 0.0, 0.0, 0.0, 0.0, 0.0, 1.6664037022534516E9, 0.0, 2022-10-21 18:55:02.253
27.0, -110165.86991141677, -150664.48159986516, -63480.80944786185, -132540.45784955716, 50787.03025424841, -79219.63384385513, 40214.163388510155, -118209.03339493673, 0.036000000000000004, 0.96, 0.032, 192.0, 1.0, 32.0, 30.0, 0.0, 1.0, 0.0, 0.0, 0.0, 0.0, 1.6664037022534668E9, 0.0, 2022-10-21 18:55:02.253
28.0, -110152.99530661051, -150654.19979741573, -63472.11461926874, -132544.4364600702, 50792.8864112957, -79237.17996325255, 40199.81356856985, -118200.69619425491, 0.036000000000000004, 0.96, 0.032, 192.0, 0.0, 0.0, 0.0, 0.0, 0.0, 0.0, 0.0, 0.0, 0.0, 1.6664037022534986E9, 0.0, 2022-10-21 18:55:02.253
29.0, -110137.48319595853, -150643.3592013549, -63461.49754065246, -132536.278073344, 50800.62011487724, -79229.6027218822, 40200.37236218123, -118194.37065057406, 0.036000000000000004, 0.96, 0.032, 192.0, 0.0, 0.0, 0.0, 0.0, 0.0, 0.0, 0.0, 0.0, 0.0, 1.6664037022535138E9, 0.0, 2022-10-21 18:55:02.253
30.0, -110135.29272500191, -150639.6041082864, -63458.32359293981, -132525.3257185609, 50803.57054514534, -79214.22472169694, 40217.62790890073, -118194.43770580742, 0.036000000000000004, 0.96, 0.032, 192.0, 0.0, 0.0, 0.0, 0.0, 0.0, 0.0, 0.0, 0.0, 0.0, 1.6664037022535286E9, 0.0, 2022-10-21 18:55:02.253
31.0, -110147.00503909649, -150649.2600618911, -63465.96788954353, -132532.99236690908, 50797.40146367568, -79229.6474253711, 40212.26349023145, -118200.31621459917, 0.036000000000000004, 0.96, 0.032, 192.0, 0.0, 0.0, 0.0, 0.0, 0.0, 0.0, 0.0, 0.0, 0.0, 1.6664037022535436E9, 0.0, 2022-10-21 18:55:02.253
32.0, -110149.50843447549, -150648.54480606853, -63463.95623254255, -132544.1905908812, 50797.98260903152, -79239.19162025352, 40204.97682153903, -118203.66897626747, 0.036000000000000004, 0.96, 0.032, 192.0, 0.0, 0.0, 0.0, 0.0, 0.0, 0.0, 0.0, 0.0, 0.0, 1.6664037022535584E9, 0.0, 2022-10-21 18:55:02.253
33.0, -110130.86707959976, -150630.61870701538, -63449.04761899086, -132530.10899187435, 50813.91940282815, -79233.93896030652, 40208.19547274059, -118194.77298197425, 0.036000000000000004, 0.96, 0.032, 192.0, 0.0, 0.0, 0.0, 0.0, 0.0, 0.0, 0.0, 0.0, 0.0, 1.6664037022535737E9, 0.0, 2022-10-21 18:55:02.253
34.0, -110131.15765227767, -150630.6634105043, -63448.48882537948, -132525.39277379427, 50811.639524893704, -79235.74945160741, 40210.251833230475, -118200.0032901768, 0.036000000000000004, 0.96, 0.032, 192.0, 0.0, 0.0, 0.0, 0.0, 0.0, 0.0, 0.0, 0.0, 0.0, 1.6664037022535884E9, 0.0, 2022-10-21 18:55:02.253
35.0, -110131.76114937797, -150634.5526140395, -63446.61127884523, -132524.20813133815, 50813.62883015023, -79224.30535844629, 40227.172103783145, -118191.04024065021, 0.036000000000000004, 0.96, 0.032, 192.0, 0.0, 0.0, 0.0, 0.0, 0.0, 0.0, 0.0, 0.0, 0.0, 1.6664037022536035E9, 0.0, 2022-10-21 18:55:02.253
36.0, -110136.70088490259, -150640.34171585343, -63450.835758547284, -132534.35582332086, 50807.92913531412, -79238.40930919758, 40214.90099607718, -118194.88474069652, 0.036000000000000004, 0.96, 0.032, 192.0, 0.0, 0.0, 0.0, 0.0, 0.0, 0.0, 0.0, 0.0, 0.0, 1.6664037022536197E9, 0.0, 2022-10-21 18:55:02.253
37.0, -110130.33063773283, -150633.56913728348, -63448.75704631294, -132522.46469527064, 50814.746417373, -79243.90783833359, 40198.80774006936, -118192.649566251, 0.032, 0.9580000000000001, 0.028, 192.0, 1.0, 0.0, 29.0, 240.0, 0.0, 224.0, 0.0, 0.0, 0.0, 1.6664037022536352E9, 0.0, 2022-10-21 18:55:02.253
38.0, -110140.61244018227, -150642.84511123243, -63459.642345862674, -132524.72222146063, 50801.11185325526, -79228.64159687061, 40212.33054546482, -118207.80404899169, 0.032, 0.9580000000000001, 0.028, 192.0, 0.0, 0.0, 0.0, 0.0, 0.0, 0.0, 0.0, 0.0, 0.0, 1.666403702253651E9, 0.0, 2022-10-21 18:55:02.253
39.0, -110164.84173117182, -150665.24155917665, -63476.60731990425, -132557.8475067434, 50776.74845179897, -79241.27033248787, 40221.04772580239, -118219.76223227529, 0.032, 0.9580000000000001, 0.028, 192.0, 0.0, 0.0, 0.0, 0.0, 0.0, 0.0, 0.0, 0.0, 0.0, 1.6664037022536657E9, 0.0, 2022-10-21 18:55:02.253
40.0, -110141.81943438285, -150640.14055015333, -63450.85811029174, -132543.4306315697, 50804.01758003445, -79245.18188776754, 40225.96510958256, -118188.17921735994, 0.032, 0.9580000000000001, 0.028, 192.0, 0.0, 0.0, 0.0, 0.0, 0.0, 0.0, 0.0, 0.0, 0.0, 1.6664037022536805E9, 0.0, 2022-10-21 18:55:02.253
41.0, -110134.68922790162, -150632.22803261614, -63444.331400910785, -132540.16727687922, 50811.52776617143, -79251.28391400384, 40208.351934951774, -118188.71565922686, 0.032, 0.9580000000000001, 0.028, 192.0, 0.0, 0.0, 0.0, 0.0, 0.0, 0.0, 0.0, 0.0, 0.0, 1.6664037022536955E9, 0.0, 2022-10-21 18:55:02.253
42.0, -110133.32577148984, -150631.5127767936, -63442.74442705446, -132537.61917801131, 50809.560812659365, -79246.63475115714, 40210.542405908396, -118192.94013892891, 0.032, 0.9580000000000001, 0.028, 192.0, 0.0, 0.0, 0.0, 0.0, 0.0, 0.0, 0.0, 0.0, 0.0, 1.6664037022537105E9, 0.0, 2022-10-21 18:55:02.253
43.0, -110139.47250121504, -150638.5088728081, -63445.89602302266, -132534.7805064655, 50808.48792892551, -79244.35487322269, 40220.28776649091, -118197.58930177562, 0.032, 0.9580000000000001, 0.028, 192.0, 0.0, 0.0, 0.0, 0.0, 0.0, 0.0, 0.0, 0.0, 0.0, 1.666403702253741E9, 0.0, 2022-10-21 18:55:02.253
44.0, -110142.62409718324, -150642.84511123243, -63448.28765967938, -132541.64249201328, 50804.48696666801, -79248.8028703693, 40220.62304265774, -118199.1986273764, 0.032, 0.9580000000000001, 0.028, 192.0, 0.0, 0.0, 0.0, 0.0, 0.0, 0.0, 0.0, 0.0, 0.0, 1.6664037022537627E9, 0.0, 2022-10-21 18:55:02.253
45.0, -110129.63773365472, -150630.17167212628, -63437.4247118741, -132544.34705309238, 50809.60551614827, -79259.33054200775, 40211.07884777532, -118185.87698768104, 0.032, 0.9580000000000001, 0.028, 192.0, 0.0, 0.0, 0.0, 0.0, 0.0, 0.0, 0.0, 0.0, 0.0, 1.666403702253778E9, 0.0, 2022-10-21 18:55:02.253
46.0, -110130.10712028827, -150630.17167212628, -63438.63170607468, -132540.2343321126, 50809.67257138164, -79256.29070476184, 40209.64833613019, -118192.91778718446, 0.032, 0.9580000000000001, 0.026000000000000002, 192.0, 1.0, 0.0, 29.0, 240.0, 0.0, 208.0, 0.0, 0.0, 0.0, 1.6664037022537932E9, 0.0, 2022-10-21 18:55:02.253
47.0, -110146.06626582936, -150646.64490778983, -63449.13702596868, -132545.71050950416, 50799.52487939893, -79244.89131508963, 40219.52780717943, -118200.13740064352, 0.032, 0.9580000000000001, 0.026000000000000002, 192.0, 0.0, 0.0, 0.0, 0.0, 0.0, 0.0, 0.0, 0.0, 0.0, 1.6664037022538116E9, 0.0, 2022-10-21 18:55:02.253
48.0, -110138.48902445902, -150637.79361698552, -63438.58700258577, -132537.9321024337, 50811.97480106054, -79231.03323352734, 40240.35963301178, -118192.76132497327, 0.032, 0.9580000000000001, 0.026000000000000002, 192.0, 0.0, 0.0, 0.0, 0.0, 0.0, 0.0, 0.0, 0.0, 0.0, 1.666403702253827E9, 0.0, 2022-10-21 18:55:02.253
49.0, -110125.12268127475, -150624.98606741262, -63427.902868736135, -132533.6852709872, 50823.53065294393, -79244.57839066726, 40227.55208343889, -118187.62042374855, 0.032, 0.9580000000000001, 0.026000000000000002, 192.0, 0.0, 0.0, 0.0, 0.0, 0.0, 0.0, 0.0, 0.0, 0.0, 1.666403702253842E9, 0.0, 2022-10-21 18:55:02.253
50.0, -110127.93900107611, -150628.78586397003, -63430.40626411513, -132539.85435245687, 50818.27799299693, -79256.91655360658, 40210.251833230475, -118186.7934092037, 0.032, 0.9580000000000001, 0.026000000000000002, 192.0, 0.0, 0.0, 0.0, 0.0, 0.0, 0.0, 0.0, 0.0, 0.0, 1.6664037022538571E9, 0.0, 2022-10-21 18:55:02.253
51.0, -110128.69896038758, -150627.66827674728, -63429.60160131474, -132531.7853727085, 50819.50733894198, -79242.90200983311, 40224.445190959595, -118186.3910778035, 0.032, 0.9580000000000001, 0.026000000000000002, 192.0, 0.0, 0.0, 0.0, 0.0, 0.0, 0.0, 0.0, 0.0, 0.0, 1.6664037022538724E9, 0.0, 2022-10-21 18:55:02.253
52.0, -110134.46571045707, -150631.22220411568, -63434.407226372634, -132529.95252966316, 50818.993248819505, -79231.77084109436, 40238.81736264436, -118185.8993394255, 0.032, 0.9580000000000001, 0.026000000000000002, 192.0, 0.0, 0.0, 0.0, 0.0, 0.0, 0.0, 0.0, 0.0, 0.0, 1.6664037022538872E9, 0.0, 2022-10-21 18:55:02.253
53.0, -110126.73200687552, -150629.6575820038, -63425.801804757335, -132536.1886663662, 50822.278955254435, -79233.0001870394, 40235.12932480923, -118175.70694395388, 0.032, 0.9580000000000001, 0.026000000000000002, 192.0, 0.0, 0.0, 0.0, 0.0, 0.0, 0.0, 0.0, 0.0, 0.0, 1.666403702253902E9, 0.0, 2022-10-21 18:55:02.253
54.0, -110117.92541956014, -150627.4000558138, -63416.436423830564, -132533.81938145394, 50824.35766748878, -79240.30920747628, 40225.87570260474, -118179.8420166781, 0.032, 0.9580000000000001, 0.026000000000000002, 192.0, 0.0, 0.0, 0.0, 0.0, 0.0, 0.0, 0.0, 0.0, 0.0, 1.6664037022539177E9, 0.0, 2022-10-21 18:55:02.253
55.0, -110129.16834702116, -150639.38059084184, -63430.47331934849, -132544.99525368158, 50806.25275447998, -79246.09830929022, 40228.73672589502, -118193.87891219604, 0.032, 0.9580000000000001, 0.026000000000000002, 192.0, 0.0, 0.0, 0.0, 0.0, 0.0, 0.0, 0.0, 0.0, 0.0, 1.6664037022539327E9, 0.0, 2022-10-21 18:55:02.253
56.0, -110139.27133551495, -150647.02488744556, -63438.2740781634, -132558.9427422217, 50798.496699153984, -79258.99526584093, 40230.21194102907, -118200.0032901768, 0.028, 0.96, 0.03, 192.0, 0.0, 224.0, 30.0, 0.0, 0.0, 240.0, 0.0, 0.0, 0.0, 1.6664037022539487E9, 0.0, 2022-10-21 18:55:02.253
57.0, -110126.17321326413, -150630.6634105043, -63420.95147621054, -132544.65997751476, 50820.669629653654, -79251.64154191513, 40233.497647464, -118177.07040036564, 0.028, 0.96, 0.03, 192.0, 0.0, 0.0, 0.0, 0.0, 0.0, 0.0, 0.0, 0.0, 0.0, 1.6664037022539647E9, 0.0, 2022-10-21 18:55:02.253
58.0, -110123.28983822941, -150630.52930003754, -63421.57732505528, -132541.1284018908, 50820.69198139811, -79253.4073297271, 40223.99815607049, -118172.86827240804, 0.028, 0.96, 0.03, 192.0, 0.0, 0.0, 0.0, 0.0, 0.0, 0.0, 0.0, 0.0, 0.0, 1.6664037022539973E9, 0.0, 2022-10-21 18:55:02.253
59.0, -110127.87194584275, -150636.34075359593, -63426.40530185763, -132538.69206174518, 50815.81930110685, -79248.19937326902, 40234.168199797656, -118185.00526964728, 0.028, 0.96, 0.03, 192.0, 0.0, 0.0, 0.0, 0.0, 0.0, 0.0, 0.0, 0.0, 0.0, 1.6664037022540133E9, 0.0, 2022-10-21 18:55:02.254
60.0, -110133.05755055638, -150640.2076053867, -63426.36059836872, -132542.1342303913, 50811.77363536044, -79252.31209424879, 40243.48887723552, -118192.22488310635, 0.028, 0.96, 0.03, 192.0, 0.0, 0.0, 0.0, 0.0, 0.0, 0.0, 0.0, 0.0, 0.0, 1.6664037022540293E9, 0.0, 2022-10-21 18:55:02.254
61.0, -110129.48127144352, -150636.47486406265, -63421.93495296657, -132543.6317972698, 50817.316867985355, -79260.20226004151, 40239.130287066735, -118186.77105745925, 0.028, 0.96, 0.03, 192.0, 0.0, 0.0, 0.0, 0.0, 0.0, 0.0, 0.0, 0.0, 0.0, 1.666403702254044E9, 0.0, 2022-10-21 18:55:02.254
62.0, -110124.07214928535, -150630.97633492664, -63414.80474648533, -132538.96028267866, 50827.21869077906, -79269.83586190175, 40219.48310369052, -118184.66999348045, 0.028, 0.96, 0.03, 192.0, 0.0, 0.0, 0.0, 0.0, 0.0, 0.0, 0.0, 0.0, 0.0, 1.6664037022540588E9, 0.0, 2022-10-21 18:55:02.254
63.0, -110134.06337905687, -150642.39807634332, -63422.18082215558, -132536.4345355552, 50821.00490582048, -79249.65223665861, 40229.65314741769, -118189.20739760489, 0.028, 0.96, 0.03, 192.0, 0.0, 0.0, 0.0, 0.0, 0.0, 0.0, 0.0, 0.0, 0.0, 1.6664037022540739E9, 0.0, 2022-10-21 18:55:02.254
64.0, -110118.86419282726, -150627.33300058043, -63405.77464172538, -132518.15080859076, 50839.132170573735, -79227.14402999211, 40257.59282798682, -118170.20841481787, 0.028, 0.96, 0.03, 192.0, 0.0, 0.0, 0.0, 0.0, 0.0, 0.0, 0.0, 0.0, 0.0, 1.6664037022540889E9, 0.0, 2022-10-21 18:55:02.254
65.0, -110125.56971616385, -150635.312573351, -63409.55208653833, -132532.1206488753, 50834.304193771386, -79231.88259981664, 40254.62004597426, -118167.81677816116, 0.028, 0.96, 0.03, 192.0, 0.0, 0.0, 0.0, 0.0, 0.0, 0.0, 0.0, 0.0, 0.0, 1.666403702254104E9, 0.0, 2022-10-21 18:55:02.254
66.0, -110125.61441965276, -150636.4525123182, -63416.50347906393, -132544.03412867, 50825.89993785619, -79255.39663498363, 40228.66967066165, -118178.09858061059, 0.03, 0.9520000000000001, 0.034, 192.0, 0.0, 240.0, 29.0, 192.0, 1.0, 16.0, 0.0, 0.0, 0.0, 1.6664037022541187E9, 0.0, 2022-10-21 18:55:02.254
67.0, -110127.42491095363, -150639.4029425863, -63423.1195954227, -132539.69789024568, 50819.753208130984, -79259.86698387469, 40229.96607184006, -118184.73704871381, 0.03, 0.9520000000000001, 0.034, 192.0, 0.0, 0.0, 0.0, 0.0, 0.0, 0.0, 0.0, 0.0, 0.0, 1.666403702254135E9, 0.0, 2022-10-21 18:55:02.254
68.0, -110118.01482653795, -150629.88109944834, -63416.12349940819, -132532.4782767866, 50825.989344834015, -79252.22268727097, 40248.47331624905, -118174.25408056428, 0.03, 0.9520000000000001, 0.034, 192.0, 0.0, 0.0, 0.0, 0.0, 0.0, 0.0, 0.0, 0.0, 0.0, 1.6664037022541544E9, 0.0, 2022-10-21 18:55:02.254
69.0, -110108.24711421099, -150619.88986967682, -63415.22942962998, -132547.16337289373, 50825.47525471154, -79268.62886770116, 40233.9446823531, -118177.15980734347, 0.03, 0.9520000000000001, 0.034, 192.0, 0.0, 0.0, 0.0, 0.0, 0.0, 0.0, 0.0, 0.0, 0.0, 1.6664037022541692E9, 0.0, 2022-10-21 18:55:02.254
70.0, -110126.68730338661, -150642.6662972768, -63418.85041223174, -132550.8961142178, 50825.87758611174, -79270.77463516887, 40218.790199612406, -118182.52422601274, 0.03, 0.9520000000000001, 0.034, 192.0, 0.0, 0.0, 0.0, 0.0, 0.0, 0.0, 0.0, 0.0, 0.0, 1.6664037022541842E9, 0.0, 2022-10-21 18:55:02.254
71.0, -110144.16636755066, -150666.20268418823, -63425.91356347961, -132550.96316945113, 50815.5957836623, -79264.29262927684, 40224.176970026136, -118187.97805165984, 0.03, 0.9520000000000001, 0.034, 192.0, 0.0, 0.0, 0.0, 0.0, 0.0, 0.0, 0.0, 0.0, 0.0, 1.6664037022541993E9, 0.0, 2022-10-21 18:55:02.254
72.0, -110137.93023084763, -150660.48063760766, -63423.20900240052, -132546.11284090436, 50816.467501696054, -79267.82420490077, 40239.80083940039, -118181.92072891245, 0.03, 0.9520000000000001, 0.034, 192.0, 0.0, 0.0, 0.0, 0.0, 0.0, 0.0, 0.0, 0.0, 0.0, 1.6664037022542143E9, 0.0, 2022-10-21 18:55:02.254
73.0, -110122.10519577327, -150642.2639658766, -63400.74549922294, -132525.37042204983, 50836.896996128206, -79254.83784137224, 40260.029168132445, -118165.0451618487, 0.03, 0.9520000000000001, 0.034, 192.0, 0.0, 0.0, 0.0, 0.0, 0.0, 0.0, 0.0, 0.0, 0.0, 1.666403702254243E9, 0.0, 2022-10-21 18:55:02.254
74.0, -110138.46667271457, -150658.06664920648, -63417.151679653136, -132552.5948467964, 50818.81443486386, -79281.32465855178, 40223.70758339257, -118179.35027830009, 0.03, 0.9520000000000001, 0.034, 192.0, 0.0, 0.0, 0.0, 0.0, 0.0, 0.0, 0.0, 0.0, 0.0, 1.6664037022542577E9, 0.0, 2022-10-21 18:55:02.254
75.0, -110127.91664933166, -150646.42139034526, -63405.28290334737, -132548.77269849452, 50826.50343495649, -79281.77169344088, 40211.52588266443, -118175.17050208694, 0.028, 0.9500000000000001, 0.032, 192.0, 0.0, 224.0, 29.0, 176.0, 1.0, 0.0, 0.0, 0.0, 0.0, 1.6664037022542727E9, 0.0, 2022-10-21 18:55:02.254
76.0, -110132.07407380034, -150649.97531771366, -63404.45588880252, -132542.1342303913, 50823.128321543736, -79266.14782406662, 40225.89805434919, -118180.46786552285, 0.028, 0.9500000000000001, 0.032, 192.0, 0.0, 0.0, 0.0, 0.0, 0.0, 0.0, 0.0, 0.0, 0.0, 1.666403702254288E9, 0.0, 2022-10-21 18:55:02.254
77.0, -110143.16053905018, -150661.35235564143, -63412.77073773989, -132551.8348874849, 50813.00298130548, -79261.16338505309, 40244.807630158386, -118189.7438394718, 0.028, 0.9500000000000001, 0.032, 192.0, 0.0, 0.0, 0.0, 0.0, 0.0, 0.0, 0.0, 0.0, 0.0, 1.6664037022543027E9, 0.0, 2022-10-21 18:55:02.254
78.0, -110133.81750986786, -150654.33390788245, -63407.02633941488, -132560.30619863348, 50815.43932145111, -79284.94564115354, 40224.91457759316, -118182.390115546, 0.028, 0.9500000000000001, 0.032, 192.0, 0.0, 0.0, 0.0, 0.0, 0.0, 0.0, 0.0, 0.0, 0.0, 1.6664037022543175E9, 0.0, 2022-10-21 18:55:02.254
79.0, -110127.29080048691, -150646.309631623, -63398.93500792206, -132548.54918104998, 50829.0962373133, -79284.63271673117, 40209.46952217454, -118172.71181019687, 0.028, 0.9500000000000001, 0.032, 192.0, 0.0, 0.0, 0.0, 0.0, 0.0, 0.0, 0.0, 0.0, 0.0, 1.6664037022543325E9, 0.0, 2022-10-21 18:55:02.254
80.0, -110130.08476854382, -150647.29310837903, -63394.93404566456, -132533.39469830928, 50837.232272295034, -79263.84559438772, 40222.701754892085, -118163.16761531445, 0.028, 0.9500000000000001, 0.032, 192.0, 0.0, 0.0, 0.0, 0.0, 0.0, 0.0, 0.0, 0.0, 0.0, 1.6664037022543476E9, 0.0, 2022-10-21 18:55:02.254
81.0, -110132.94579183409, -150653.43983810424, -63399.65026374463, -132545.50934380406, 50826.59284193431, -79272.51807123638, 40228.13322879472, -118170.85661540707, 0.028, 0.9500000000000001, 0.032, 192.0, 0.0, 0.0, 0.0, 0.0, 0.0, 0.0, 0.0, 0.0, 0.0, 1.6664037022543623E9, 0.0, 2022-10-21 18:55:02.254
82.0, -110125.18973650811, -150647.47192233466, -63398.331510821765, -132550.87376247332, 50828.559795446374, -79290.712391223, 40218.1419990232, -118173.00238287478, 0.028, 0.9500000000000001, 0.032, 192.0, 0.0, 0.0, 0.0, 0.0, 0.0, 0.0, 0.0, 0.0, 0.0, 1.6664037022543771E9, 0.0, 2022-10-21 18:55:02.254
83.0, -110140.1430535487, -150662.24642541964, -63412.30135110633, -132566.02824521402, 50819.57439417534, -79298.42374306009, 40199.3888854252, -118189.92265342745, 0.028, 0.9500000000000001, 0.032, 192.0, 0.0, 0.0, 0.0, 0.0, 0.0, 0.0, 0.0, 0.0, 0.0, 1.6664037022543929E9, 0.0, 2022-10-21 18:55:02.254
84.0, -110125.52501267493, -150644.4544368332, -63392.00596714091, -132532.70179423116, 50842.70844968659, -79267.13130082266, 40225.2945572489, -118163.9946298593, 0.028, 0.9500000000000001, 0.032, 192.0, 0.0, 0.0, 0.0, 0.0, 0.0, 0.0, 0.0, 0.0, 0.0, 1.666403702254408E9, 0.0, 2022-10-21 18:55:02.254
85.0, -110130.42004471066, -150649.2600618911, -63397.079813132266, -132537.10508788886, 50838.081638584335, -79245.71832963447, 40255.67057796366, -118163.14526357, 0.026000000000000002, 0.96, 0.034, 192.0, 0.0, 208.0, 30.0, 0.0, 1.0, 16.0, 0.0, 0.0, 0.0, 1.666403702254423E9, 0.0, 2022-10-21 18:55:02.254
86.0, -110129.48127144352, -150649.77415201356, -63398.15269686612, -132548.05744267197, 50841.792028163916, -79266.79602465582, 40239.71143242257, -118160.86538563555, 0.026000000000000002, 0.96, 0.034, 192.0, 0.0, 0.0, 0.0, 0.0, 0.0, 0.0, 0.0, 0.0, 0.0, 1.6664037022544386E9, 0.0, 2022-10-21 18:55:02.254
87.0, -110125.45795744157, -150648.90243397982, -63393.88351367516, -132543.9894251811, 50848.430496267145, -79274.61913521518, 40224.42283921514, -118152.2823157647, 0.026000000000000002, 0.96, 0.034, 192.0, 0.0, 0.0, 0.0, 0.0, 0.0, 0.0, 0.0, 0.0, 0.0, 1.6664037022544537E9, 0.0, 2022-10-21 18:55:02.254
88.0, -110126.82141385335, -150648.79067525754, -63393.92821716407, -132537.10508788886, 50845.59182472132, -79266.706617678, 40230.43545847362, -118153.7351791543, 0.026000000000000002, 0.96, 0.034, 192.0, 0.0, 0.0, 0.0, 0.0, 0.0, 0.0, 0.0, 0.0, 0.0, 1.6664037022544796E9, 0.0, 2022-10-21 18:55:02.254
89.0, -110132.36464647827, -150653.28337589305, -63399.53850502235, -132539.20615186766, 50839.35568801829, -79258.14589955163, 40251.647263961706, -118165.78276941572, 0.026000000000000002, 0.96, 0.034, 192.0, 0.0, 0.0, 0.0, 0.0, 0.0, 0.0, 0.0, 0.0, 0.0, 1.666403702254493E9, 0.0, 2022-10-21 18:55:02.254
90.0, -110140.81360588237, -150661.97820448616, -63408.65801676012, -132557.60163755438, 50830.12441755825, -79281.36936204068, 40239.24204578901, -118172.75651368577, 0.026000000000000002, 0.96, 0.034, 192.0, 0.0, 0.0, 0.0, 0.0, 0.0, 0.0, 0.0, 0.0, 0.0, 1.6664037022545073E9, 0.0, 2022-10-21 18:55:02.254
91.0, -110138.13139654773, -150661.08413470795, -63406.69106324805, -132562.80959401245, 50832.91838561516, -79306.09039140826, 40211.034144286416, -118167.72737118333, 0.026000000000000002, 0.96, 0.034, 192.0, 0.0, 0.0, 0.0, 0.0, 0.0, 0.0, 0.0, 0.0, 0.0, 1.6664037022545197E9, 0.0, 2022-10-21 18:55:02.254
92.0, -110121.45699518407, -150643.62742228835, -63384.272263559375, -132537.2839018445, 50848.67636545615, -79291.7182197235, 40218.231406001025, -118147.99078082929, 0.026000000000000002, 0.96, 0.034, 192.0, 0.0, 0.0, 0.0, 0.0, 0.0, 0.0, 0.0, 0.0, 0.0, 1.6664037022545323E9, 0.0, 2022-10-21 18:55:02.254
93.0, -110126.68730338661, -150647.33781186794, -63385.948644393524, -132523.91755866024, 50850.21863582357, -79265.49962347742, 40248.495667993506, -118151.70117040888, 0.026000000000000002, 0.96, 0.034, 192.0, 0.0, 0.0, 0.0, 0.0, 0.0, 0.0, 0.0, 0.0, 0.0, 1.6664037022545452E9, 0.0, 2022-10-21 18:55:02.254
94.0, -110132.65521915618, -150655.94323348324, -63397.52684802137, -132541.19545712418, 50841.702621186094, -79273.14392008113, 40247.4004325152, -118166.65448744947, 0.026000000000000002, 0.96, 0.034, 192.0, 0.0, 0.0, 0.0, 0.0, 0.0, 0.0, 0.0, 0.0, 0.0, 1.6664037022545576E9, 0.0, 2022-10-21 18:55:02.254
95.0, -110148.18968155261, -150674.02579474758, -63417.352845353234, -132569.4480621157, 50820.08848429781, -79300.971841928, 40214.40925769917, -118184.42412429144, 0.032, 0.96, 0.032, 192.0, 1.0, 0.0, 30.0, 0.0, 1.0, 0.0, 0.0, 0.0, 0.0, 1.6664037022545714E9, 0.0, 2022-10-21 18:55:02.254
96.0, -110138.10904480328, -150661.73233529716, -63405.48406904747, -132562.96605622364, 50824.58118493333, -79304.90574895212, 40213.537539665405, -118170.63309796252, 0.032, 0.96, 0.032, 192.0, 0.0, 0.0, 0.0, 0.0, 0.0, 0.0, 0.0, 0.0, 0.0, 1.6664037022545848E9, 0.0, 2022-10-21 18:55:02.254
97.0, -110139.60661168178, -150663.07343996447, -63403.1147841352, -132560.0379777, 50819.909670342175, -79300.3236413388, 40227.44032471661, -118172.35418228558, 0.032, 0.96, 0.032, 192.0, 0.0, 0.0, 0.0, 0.0, 0.0, 0.0, 0.0, 0.0, 0.0, 1.6664037022545974E9, 0.0, 2022-10-21 18:55:02.254
98.0, -110142.91466986117, -150666.20268418823, -63402.041900401346, -132566.8999632478, 50819.23911800851, -79306.22450187498, 40230.63662417372, -118169.18023457292, 0.032, 0.96, 0.032, 192.0, 0.0, 0.0, 0.0, 0.0, 0.0, 0.0, 0.0, 0.0, 0.0, 1.66640370225461E9, 0.0, 2022-10-21 18:55:02.254
99.0, -110124.40742545217, -150648.72362002416, -63383.28878680334, -132555.05353868648, 50839.06511534037, -79308.12440015368, 40218.81255135686, -118147.05200756218, 0.032, 0.96, 0.032, 192.0, 0.0, 0.0, 0.0, 0.0, 0.0, 0.0, 0.0, 0.0, 0.0, 1.6664037022546227E9, 0.0, 2022-10-21 18:55:02.254
100.0, -110130.28593424392, -150658.40192537333, -63391.558932251806, -132564.6871405467, 50827.10693205678, -79310.89601646615, 40202.47342616003, -118153.80223438767, 0.032, 0.96, 0.032, 192.0, 0.0, 0.0, 0.0, 0.0, 0.0, 0.0, 0.0, 0.0, 0.0, 1.6664037022546356E9, 0.0, 2022-10-21 18:55:02.254
101.0, -110138.13139654773, -150666.3144429105, -63399.963188167, -132563.81542251294, 50816.15457727368, -79301.97767042847, 40217.15852226717, -118165.71571418236, 0.032, 0.96, 0.032, 192.0, 0.0, 0.0, 0.0, 0.0, 0.0, 0.0, 0.0, 0.0, 0.0, 1.6664037022546487E9, 0.0, 2022-10-21 18:55:02.254
102.0, -110135.78446337993, -150662.91697775328, -63398.39856605513, -132562.76489052354, 50818.434455208124, -79293.28284183536, 40242.1477725682, -118167.95088862788, 0.032, 0.96, 0.032, 192.0, 0.0, 0.0, 0.0, 0.0, 0.0, 0.0, 0.0, 0.0, 0.0, 1.6664037022546616E9, 0.0, 2022-10-21 18:55:02.254
103.0, -110133.50458544548, -150662.17937018626, -63392.609464241206, -132572.8902307618, 50823.79887387739, -79306.31390885281, 40235.24108353151, -118169.11317933956, 0.032, 0.96, 0.032, 192.0, 0.0, 0.0, 0.0, 0.0, 0.0, 0.0, 0.0, 0.0, 0.0, 1.6664037022546856E9, 0.0, 2022-10-21 18:55:02.254
104.0, -110128.07311154284, -150657.75372478412, -63386.30627230481, -132563.56955332393, 50832.2478332815, -79324.3741183727, 40213.44813268759, -118164.53107172622, 0.032, 0.96, 0.032, 192.0, 0.0, 0.0, 0.0, 0.0, 0.0, 0.0, 0.0, 0.0, 0.0, 1.6664037022546985E9, 0.0, 2022-10-21 18:55:02.254
105.0, -110118.7971375939, -150649.39417235783, -63373.27520528737, -132537.95445417817, 50844.47423749855, -79311.23129263298, 40222.3441269808, -118154.42808323241, 0.028, 0.9580000000000001, 0.028, 192.0, 0.0, 224.0, 29.0, 240.0, 0.0, 224.0, 0.0, 0.0, 0.0, 1.666403702254712E9, 0.0, 2022-10-21 18:55:02.254
106.0, -110123.46865218505, -150653.81981775997, -63371.129437819654, -132536.523942533, 50846.70941194408, -79297.70848723751, 40239.82319114485, -118152.93051635391, 0.028, 0.9580000000000001, 0.028, 192.0, 0.0, 0.0, 0.0, 0.0, 0.0, 0.0, 0.0, 0.0, 0.0, 1.6664037022547257E9, 0.0, 2022-10-21 18:55:02.254
107.0, -110121.3452364618, -150653.23867240414, -63370.68240293055, -132552.01370144053, 50847.13409508873, -79307.3197373533, 40231.17306604065, -118152.2376122758, 0.028, 0.9580000000000001, 0.028, 192.0, 0.0, 0.0, 0.0, 0.0, 0.0, 0.0, 0.0, 0.0, 0.0, 1.6664037022547383E9, 0.0, 2022-10-21 18:55:02.254
108.0, -110123.58041090732, -150657.95489048422, -63375.15275182161, -132554.80766949747, 50844.988327621024, -79318.04857469184, 40210.81062684186, -118153.7351791543, 0.028, 0.9580000000000001, 0.028, 192.0, 0.0, 0.0, 0.0, 0.0, 0.0, 0.0, 0.0, 0.0, 0.0, 1.6664037022547514E9, 0.0, 2022-10-21 18:55:02.254
109.0, -110138.35491399228, -150673.01996624708, -63385.09927810422, -132563.92718123522, 50835.31002227188, -79315.14284791266, 40208.351934951774, -118167.21328106086, 0.028, 0.9580000000000001, 0.028, 192.0, 0.0, 0.0, 0.0, 0.0, 0.0, 0.0, 0.0, 0.0, 0.0, 1.6664037022547643E9, 0.0, 2022-10-21 18:55:02.254
110.0, -110124.58623940781, -150658.42427711777, -63367.39669649562, -132549.6891200172, 50850.88918815723, -79288.99130689994, 40240.06906033386, -118153.13168205401, 0.028, 0.9580000000000001, 0.028, 192.0, 0.0, 0.0, 0.0, 0.0, 0.0, 0.0, 0.0, 0.0, 0.0, 1.666403702254777E9, 0.0, 2022-10-21 18:55:02.254
111.0, -110118.6406753827, -150651.3611258699, -63366.77084765087, -132552.66190202974, 50851.0009468795, -79301.57533902829, 40233.98938584201, -118152.32701925363, 0.028, 0.9580000000000001, 0.028, 192.0, 0.0, 0.0, 0.0, 0.0, 0.0, 0.0, 0.0, 0.0, 0.0, 1.6664037022547913E9, 0.0, 2022-10-21 18:55:02.254
112.0, -110117.36662594875, -150652.63517530385, -63371.710583175496, -132560.9320474782, 50840.11564732977, -79321.91542648262, 40209.96126055256, -118161.84886239158, 0.028, 0.9580000000000001, 0.028, 192.0, 0.0, 0.0, 0.0, 0.0, 0.0, 0.0, 0.0, 0.0, 0.0, 1.6664037022548037E9, 0.0, 2022-10-21 18:55:02.254
113.0, -110112.9856840355, -150650.06472469147, -63367.97784185146, -132558.85333524388, 50837.90282462869, -79319.94847297054, 40213.20226349858, -118155.5903739441, 0.028, 0.9580000000000001, 0.028, 192.0, 0.0, 0.0, 0.0, 0.0, 0.0, 0.0, 0.0, 0.0, 0.0, 1.6664037022548163E9, 0.0, 2022-10-21 18:55:02.254
114.0, -110118.52891666042, -150652.97045147067, -63371.35295526421, -132558.0486724435, 50837.63460369523, -79304.19049312956, 40238.19151379961, -118150.44947271938, 0.034, 0.9540000000000001, 0.03, 192.0, 1.0, 16.0, 29.0, 208.0, 0.0, 240.0, 0.0, 0.0, 0.0, 1.6664037022548287E9, 0.0, 2022-10-21 18:55:02.254
115.0, -110119.66885562765, -150650.26589039157, -63375.17510356607, -132572.1973266837, 50833.20895829308, -79308.03499317587, 40240.49374347851, -118164.93340312642, 0.034, 0.9540000000000001, 0.03, 192.0, 0.0, 0.0, 0.0, 0.0, 0.0, 0.0, 0.0, 0.0, 0.0, 1.6664037022548425E9, 0.0, 2022-10-21 18:55:02.254
116.0, -110122.4404719401, -150651.78580901455, -63379.98072862396, -132584.93782102322, 50827.330449501336, -79331.7725457874, 40210.72121986404, -118164.30755428167, 0.034, 0.9540000000000001, 0.03, 192.0, 0.0, 0.0, 0.0, 0.0, 0.0, 0.0, 0.0, 0.0, 0.0, 1.6664037022548552E9, 0.0, 2022-10-21 18:55:02.254
117.0, -110117.85836432676, -150650.44470434723, -63377.16440882259, -132580.17689945424, 50824.13415004422, -79333.24776092145, 40211.659993131165, -118162.65352519197, 0.034, 0.9540000000000001, 0.03, 192.0, 0.0, 0.0, 0.0, 0.0, 0.0, 0.0, 0.0, 0.0, 0.0, 1.6664037022548687E9, 0.0, 2022-10-21 18:55:02.254
118.0, -110115.19850673659, -150646.89077697883, -63366.50262671741, -132567.90579174826, 50830.526748958444, -79328.218618419, 40228.11087705027, -118155.72448441084, 0.034, 0.9540000000000001, 0.03, 192.0, 0.0, 0.0, 0.0, 0.0, 0.0, 0.0, 0.0, 0.0, 0.0, 1.66640370225496E9, 0.0, 2022-10-21 18:55:02.254
119.0, -110122.9992655515, -150654.71388753818, -63371.26354828639, -132564.53067833552, 50832.851330381796, -79312.68415602257, 40251.89313315071, -118153.35519949856, 0.034, 0.9540000000000001, 0.03, 192.0, 0.0, 0.0, 0.0, 0.0, 0.0, 0.0, 0.0, 0.0, 0.0, 1.6664037022549744E9, 0.0, 2022-10-21 18:55:02.254
120.0, -110113.76799509145, -150646.64490778983, -63367.35199300671, -132573.58313483992, 50832.18077804813, -79334.4771068665, 40230.70367940708, -118147.61080117355, 0.034, 0.9540000000000001, 0.03, 192.0, 0.0, 0.0, 0.0, 0.0, 0.0, 0.0, 0.0, 0.0, 0.0, 1.6664037022549877E9, 0.0, 2022-10-21 18:55:02.254
121.0, -110115.55613464786, -150647.94130896823, -63365.474446472464, -132579.75221630957, 50827.41985647915, -79341.65201683666, 40219.416048457155, -118153.55636519866, 0.034, 0.9540000000000001, 0.03, 192.0, 0.0, 0.0, 0.0, 0.0, 0.0, 0.0, 0.0, 0.0, 0.0, 1.666403702733316E9, 0.0, 2022-10-21 18:55:02.733
122.0, -110113.09744275779, -150646.04141068953, -63357.74074289093, -132566.65409405876, 50835.10885657178, -79333.06894696581, 40232.4471154746, -118151.41059773095, 0.034, 0.9540000000000001, 0.03, 192.0, 0.0, 0.0, 0.0, 0.0, 0.0, 0.0, 0.0, 0.0, 0.0, 1.6664037027335143E9, 0.0, 2022-10-21 18:55:02.733
123.0, -110117.47838467102, -150647.89660547933, -63361.92051910407, -132572.1973266837, 50830.191472791616, -79324.19530441705, 40247.22161855955, -118156.77501640022, 0.034, 0.9540000000000001, 0.03, 192.0, 0.0, 0.0, 0.0, 0.0, 0.0, 0.0, 0.0, 0.0, 0.0, 1.666403702733544E9, 0.0, 2022-10-21 18:55:02.733
124.0, -110123.4910039295, -150653.32807938196, -63367.083772073245, -132585.27309719005, 50824.044743066406, -79339.34978715776, 40229.80960962887, -118164.26285079276, 0.032, 0.9560000000000001, 0.028, 192.0, 1.0, 0.0, 29.0, 224.0, 0.0, 224.0, 0.0, 0.0, 0.0, 1.6664037027335732E9, 0.0, 2022-10-21 18:55:02.733
125.0, -110126.53084117542, -150658.89366375134, -63374.19162681003, -132595.15256823928, 50816.0428185514, -79349.229258207, 40210.72121986404, -118174.72346719784, 0.032, 0.9560000000000001, 0.028, 192.0, 0.0, 0.0, 0.0, 0.0, 0.0, 0.0, 0.0, 0.0, 0.0, 1.6664037027336044E9, 0.0, 2022-10-21 18:55:02.733
126.0, -110104.06733799784, -150636.3184018515, -63351.59401316572, -132565.0000649691, 50840.69679268561, -79321.2672258934, 40237.00687134348, -118146.06853080614, 0.032, 0.9560000000000001, 0.028, 192.0, 0.0, 0.0, 0.0, 0.0, 0.0, 0.0, 0.0, 0.0, 0.0, 1.6664037027336338E9, 0.0, 2022-10-21 18:55:02.733
127.0, -110100.04402399588, -150634.1055791504, -63345.87196658516, -132557.82515499892, 50847.06703985537, -79308.3702693427, 40248.6521302047, -118136.65844639046, 0.032, 0.9560000000000001, 0.028, 192.0, 0.0, 0.0, 0.0, 0.0, 0.0, 0.0, 0.0, 0.0, 0.0, 1.6664037027336617E9, 0.0, 2022-10-21 18:55:02.733
128.0, -110093.71848031503, -150625.5001575351, -63338.8982223151, -132547.49864906058, 50859.181685350144, -79310.89601646615, 40239.15263881119, -118125.884905563, 0.032, 0.9560000000000001, 0.028, 192.0, 0.0, 0.0, 0.0, 0.0, 0.0, 0.0, 0.0, 0.0, 0.0, 1.6664037027336893E9, 0.0, 2022-10-21 18:55:02.733
129.0, -110106.45897465455, -150637.6148030299, -63356.48904520143, -132573.22550692863, 50838.551025217894, -79326.13990618466, 40215.996231555495, -118140.41353945894, 0.032, 0.9560000000000001, 0.028, 192.0, 0.0, 0.0, 0.0, 0.0, 0.0, 0.0, 0.0, 0.0, 0.0, 1.6664037027337177E9, 0.0, 2022-10-21 18:55:02.733
130.0, -110107.95654153307, -150639.78292224204, -63356.600803923706, -132565.78237602502, 50834.237138538025, -79313.51117056742, 40232.15654279668, -118140.90527783697, 0.032, 0.9560000000000001, 0.028, 192.0, 0.0, 0.0, 0.0, 0.0, 0.0, 0.0, 0.0, 0.0, 0.0, 1.666403702733745E9, 0.0, 2022-10-21 18:55:02.733
131.0, -110111.53282064591, -150646.2649281341, -63360.98174583695, -132574.63366682932, 50823.30713549938, -79313.91350196762, 40250.28380754993, -118152.93051635391, 0.032, 0.9560000000000001, 0.028, 192.0, 0.0, 0.0, 0.0, 0.0, 0.0, 0.0, 0.0, 0.0, 0.0, 1.6664037027337732E9, 0.0, 2022-10-21 18:55:02.733
132.0, -110107.30834094386, -150644.47678857765, -63356.89137660163, -132579.41694014275, 50827.06222856787, -79332.86778126571, 40238.16916205516, -118152.12585355353, 0.032, 0.9560000000000001, 0.028, 192.0, 0.0, 0.0, 0.0, 0.0, 0.0, 0.0, 0.0, 0.0, 0.0, 1.6664037027338085E9, 0.0, 2022-10-21 18:55:02.733
133.0, -110109.92349504514, -150646.22022464516, -63358.79127488033, -132581.36154191036, 50829.63267918023, -79338.8804005242, 40227.172103783145, -118146.91789709544, 0.032, 0.9560000000000001, 0.028, 192.0, 0.0, 0.0, 0.0, 0.0, 0.0, 0.0, 0.0, 0.0, 0.0, 1.666403702733836E9, 0.0, 2022-10-21 18:55:02.733
134.0, -110108.15770723316, -150649.43887584674, -63358.59010918023, -132580.51217562106, 50825.31879250036, -79334.00772023294, 40232.78239164143, -118144.97329532783, 0.028, 0.96, 0.038, 192.0, 0.0, 224.0, 30.0, 0.0, 1.0, 48.0, 0.0, 0.0, 0.0, 1.6664037027339516E9, 0.0, 2022-10-21 18:55:02.733
135.0, -110100.66987284063, -150645.63907928934, -63352.5551381773, -132574.0972249624, 50828.291574512914, -79326.69869979605, 40246.10403133679, -118139.51946968073, 0.028, 0.96, 0.038, 192.0, 0.0, 0.0, 0.0, 0.0, 0.0, 0.0, 0.0, 0.0, 0.0, 1.6664037027339833E9, 0.0, 2022-10-21 18:55:02.733
136.0, -110098.63586409521, -150644.25327113312, -63354.11976028917, -132584.60254485637, 50826.92811810114, -79332.48780160997, 40244.13707782472, -118139.89944933647, 0.028, 0.96, 0.038, 192.0, 0.0, 0.0, 0.0, 0.0, 0.0, 0.0, 0.0, 0.0, 0.0, 1.6664037027340114E9, 0.0, 2022-10-21 18:55:02.734
137.0, -110112.96333229105, -150654.15509392682, -63370.078905830254, -132600.7405043531, 50813.71823712805, -79349.69864484057, 40216.28680423341, -118155.03158033271, 0.028, 0.96, 0.038, 192.0, 0.0, 0.0, 0.0, 0.0, 0.0, 0.0, 0.0, 0.0, 0.0, 1.6664037027340412E9, 0.0, 2022-10-21 18:55:02.734
138.0, -110112.31513170185, -150652.59047181494, -63366.72614416196, -132592.4927106491, 50814.657010395174, -79337.91927551261, 40226.278034004936, -118154.9868768438, 0.028, 0.96, 0.038, 192.0, 0.0, 0.0, 0.0, 0.0, 0.0, 0.0, 0.0, 0.0, 0.0, 1.6664037027340703E9, 0.0, 2022-10-21 18:55:02.734
139.0, -110116.02552128144, -150656.90435849482, -63364.06628657178, -132589.63168735884, 50816.266335995955, -79323.23417940548, 40253.01072037348, -118153.75753089876, 0.028, 0.96, 0.038, 192.0, 0.0, 0.0, 0.0, 0.0, 0.0, 0.0, 0.0, 0.0, 0.0, 1.666403702734098E9, 0.0, 2022-10-21 18:55:02.734
140.0, -110104.44731765358, -150644.92382346676, -63349.62705965365, -132588.80467281397, 50828.090408812815, -79322.85419974974, 40262.59961874481, -118141.95580982637, 0.028, 0.96, 0.038, 192.0, 0.0, 0.0, 0.0, 0.0, 0.0, 0.0, 0.0, 0.0, 0.0, 1.666403702734126E9, 0.0, 2022-10-21 18:55:02.734
141.0, -110110.25877121196, -150649.84120724694, -63352.08575154374, -132596.96305954017, 50829.43151348013, -79343.75308081546, 40235.978691098535, -118147.76726338474, 0.028, 0.96, 0.038, 192.0, 0.0, 0.0, 0.0, 0.0, 0.0, 0.0, 0.0, 0.0, 0.0, 1.6664037027341585E9, 0.0, 2022-10-21 18:55:02.734
142.0, -110103.50854438647, -150644.09680892192, -63345.49198692942, -132586.21187045716, 50833.320717015355, -79346.85997329473, 40226.903882849685, -118145.0850540501, 0.028, 0.96, 0.038, 192.0, 0.0, 0.0, 0.0, 0.0, 0.0, 0.0, 0.0, 0.0, 0.0, 1.6664037027341871E9, 0.0, 2022-10-21 18:55:02.734
143.0, -110101.02750075192, -150642.5098350656, -63341.46867292746, -132572.33143715042, 50835.95822286108, -79329.44796436405, 40250.48497325003, -118141.0840917926, 0.028, 0.9580000000000001, 0.036000000000000004, 192.0, 0.0, 224.0, 29.0, 240.0, 1.0, 32.0, 0.0, 0.0, 0.0, 1.6664037027342148E9, 0.0, 2022-10-21 18:55:02.734
144.0, -110101.22866645202, -150642.37572459885, -63338.495890914906, -132577.27117267504, 50837.90282462869, -79326.8775137517, 40257.54812449791, -118138.06660629113, 0.028, 0.9580000000000001, 0.036000000000000004, 192.0, 0.0, 0.0, 0.0, 0.0, 0.0, 0.0, 0.0, 0.0, 0.0, 1.666403702734245E9, 0.0, 2022-10-21 18:55:02.734
145.0, -110103.55324787537, -150646.53314906755, -63335.277239713345, -132594.25849846107, 50830.526748958444, -79340.46737438052, 40239.01852834446, -118140.34648422558, 0.028, 0.9580000000000001, 0.036000000000000004, 192.0, 0.0, 0.0, 0.0, 0.0, 0.0, 0.0, 0.0, 0.0, 0.0, 1.666403702734273E9, 0.0, 2022-10-21 18:55:02.734
146.0, -110099.28406468441, -150645.99670720063, -63332.751492589894, -132580.80274829897, 50836.114685072265, -79344.62479884921, 40230.70367940708, -118140.52529818122, 0.028, 0.9580000000000001, 0.036000000000000004, 192.0, 0.0, 0.0, 0.0, 0.0, 0.0, 0.0, 0.0, 0.0, 0.0, 1.6664037027343004E9, 0.0, 2022-10-21 18:55:02.734
147.0, -110100.51341062944, -150645.99670720063, -63338.60764963718, -132578.52287036454, 50833.83480713783, -79339.3274354133, 40236.00104284299, -118142.40284471547, 0.028, 0.9580000000000001, 0.036000000000000004, 192.0, 0.0, 0.0, 0.0, 0.0, 0.0, 0.0, 0.0, 0.0, 0.0, 1.6664037027343173E9, 0.0, 2022-10-21 18:55:02.734
148.0, -110114.34914044729, -150659.63127131836, -63347.34718171921, -132607.06604803397, 50816.66866739615, -79339.79682204686, 40247.020452859455, -118150.9859145863, 0.028, 0.9580000000000001, 0.036000000000000004, 192.0, 0.0, 0.0, 0.0, 0.0, 0.0, 0.0, 0.0, 0.0, 0.0, 1.66640370273433E9, 0.0, 2022-10-21 18:55:02.734
149.0, -110101.02750075192, -150648.23188164615, -63326.87298379815, -132606.86488233387, 50828.67155416865, -79345.36240641623, 40244.159429569176, -118137.53016442421, 0.028, 0.9580000000000001, 0.036000000000000004, 192.0, 0.0, 0.0, 0.0, 0.0, 0.0, 0.0, 0.0, 0.0, 0.0, 1.6664037027343562E9, 0.0, 2022-10-21 18:55:02.734
150.0, -110092.44443088108, -150640.63228853134, -63319.563963361266, -132595.73371359514, 50838.66278394018, -79349.89981054066, 40229.899016606694, -118128.54476315317, 0.028, 0.9580000000000001, 0.036000000000000004, 192.0, 0.0, 0.0, 0.0, 0.0, 0.0, 0.0, 0.0, 0.0, 0.0, 1.666403702734377E9, 0.0, 2022-10-21 18:55:02.734
151.0, -110094.34432915978, -150638.57592804145, -63320.83801279522, -132585.89894603478, 50838.68513568463, -79333.89596151066, 40246.64047320372, -118136.72550162382, 0.028, 0.9580000000000001, 0.036000000000000004, 192.0, 0.0, 0.0, 0.0, 0.0, 0.0, 0.0, 0.0, 0.0, 0.0, 1.6664037027343936E9, 0.0, 2022-10-21 18:55:02.734
152.0, -110103.93322753112, -150649.03654444654, -63330.98570477792, -132603.042734032, 50825.363495989266, -79347.59758086177, 40247.95922612658, -118150.36006574155, 0.028, 0.9580000000000001, 0.036000000000000004, 192.0, 0.0, 0.0, 0.0, 0.0, 0.0, 0.0, 0.0, 0.0, 0.0, 1.6664037027344067E9, 0.0, 2022-10-21 18:55:02.734
153.0, -110106.52602988793, -150652.12108518137, -63333.75732109039, -132617.43725746122, 50821.69780989859, -79374.86670909723, 40223.394658970195, -118157.33381001161, 0.028, 0.9580000000000001, 0.04, 192.0, 0.0, 224.0, 29.0, 240.0, 1.0, 64.0, 0.0, 0.0, 0.0, 1.6664037027344198E9, 0.0, 2022-10-21 18:55:02.734
154.0, -110104.9390560316, -150649.21535840217, -63328.348198932195, -132616.7443533831, 50825.87758611174, -79374.37497071922, 40216.95735656707, -118155.36685649955, 0.028, 0.9580000000000001, 0.04, 192.0, 0.0, 0.0, 0.0, 0.0, 0.0, 0.0, 0.0, 0.0, 0.0, 1.6664037027344348E9, 0.0, 2022-10-21 18:55:02.734
155.0, -110096.06541348284, -150639.1123699084, -63311.13735570161, -132596.56072813997, 50840.13799907422, -79360.33807520129, 40230.77073464045, -118138.37953071352, 0.028, 0.9580000000000001, 0.04, 192.0, 0.0, 0.0, 0.0, 0.0, 0.0, 0.0, 0.0, 0.0, 0.0, 1.6664037027344477E9, 0.0, 2022-10-21 18:55:02.734
156.0, -110095.93130301611, -150638.77709374155, -63303.20248641998, -132586.32362917945, 50847.938757889126, -79343.64132209317, 40251.75902268398, -118135.69732137887, 0.028, 0.9580000000000001, 0.04, 192.0, 0.0, 0.0, 0.0, 0.0, 0.0, 0.0, 0.0, 0.0, 0.0, 1.6664037027344604E9, 0.0, 2022-10-21 18:55:02.734
157.0, -110102.4356606526, -150644.74500951113, -63310.109175456666, -132604.3391352104, 50842.64139445322, -79352.76083383094, 40240.76196441197, -118142.64871390448, 0.028, 0.9580000000000001, 0.04, 192.0, 0.0, 0.0, 0.0, 0.0, 0.0, 0.0, 0.0, 0.0, 0.0, 1.6664037027344732E9, 0.0, 2022-10-21 18:55:02.734
158.0, -110113.3433119468, -150657.99959397313, -63324.928382030535, -132622.33228949693, 50826.81635937886, -79373.0338660519, 40209.24600472999, -118153.13168205401, 0.028, 0.9580000000000001, 0.04, 192.0, 0.0, 0.0, 0.0, 0.0, 0.0, 0.0, 0.0, 0.0, 0.0, 1.6664037027344859E9, 0.0, 2022-10-21 18:55:02.734
159.0, -110100.91574202964, -150643.53801531054, -63306.28702715481, -132602.32747820945, 50840.36151651878, -79353.63255186469, 40224.869874104246, -118139.72063538083, 0.028, 0.9580000000000001, 0.04, 192.0, 0.0, 0.0, 0.0, 0.0, 0.0, 0.0, 0.0, 0.0, 0.0, 1.6664037027344987E9, 0.0, 2022-10-21 18:55:02.734
160.0, -110110.77286133444, -150649.01419270207, -63310.33269290122, -132610.552920169, 50829.72208615805, -79351.75500533044, 40241.857199890284, -118146.49321395079, 0.028, 0.9580000000000001, 0.04, 192.0, 0.0, 0.0, 0.0, 0.0, 0.0, 0.0, 0.0, 0.0, 0.0, 1.6664037027345116E9, 0.0, 2022-10-21 18:55:02.734
161.0, -110099.99932050698, -150640.07349491995, -63300.944960229994, -132611.53639692502, 50836.15938856118, -79357.81232807784, 40243.06419409087, -118145.42033021693, 0.028, 0.9580000000000001, 0.04, 192.0, 0.0, 0.0, 0.0, 0.0, 0.0, 0.0, 0.0, 0.0, 0.0, 1.6664037027345245E9, 0.0, 2022-10-21 18:55:02.734
162.0, -110097.36181466126, -150639.09001816393, -63298.86624799565, -132616.02909756053, 50837.96987986206, -79371.0892642843, 40222.61234791426, -118147.72255989583, 0.028, 0.9580000000000001, 0.04, 192.0, 0.0, 0.0, 0.0, 0.0, 0.0, 0.0, 0.0, 0.0, 0.0, 1.6664037027345371E9, 0.0, 2022-10-21 18:55:02.734
163.0, -110097.40651815016, -150637.95007919671, -63298.06158519526, -132612.9892603146, 50839.93683337413, -79363.75789210295, 40222.545292680894, -118143.14045228249, 0.03, 0.9500000000000001, 0.038, 192.0, 0.0, 240.0, 29.0, 176.0, 1.0, 48.0, 0.0, 0.0, 0.0, 1.66640370273455E9, 0.0, 2022-10-21 18:55:02.734
164.0, -110094.72430881552, -150633.0103436721, -63287.042175178794, -132605.054391033, 50841.702621186094, -79351.24091520798, 40242.93008362414, -118136.77020511273, 0.03, 0.9500000000000001, 0.038, 192.0, 0.0, 0.0, 0.0, 0.0, 0.0, 0.0, 0.0, 0.0, 0.0, 1.6664037027345788E9, 0.0, 2022-10-21 18:55:02.734
165.0, -110097.27240768343, -150636.13958789583, -63286.75160250087, -132612.36341146988, 50839.892129885215, -79347.53052562839, 40257.21284833108, -118140.41353945894, 0.03, 0.9500000000000001, 0.038, 192.0, 0.0, 0.0, 0.0, 0.0, 0.0, 0.0, 0.0, 0.0, 0.0, 1.6664037027345917E9, 0.0, 2022-10-21 18:55:02.734
166.0, -110095.95365476057, -150631.1998523712, -63282.72828849892, -132616.52083593857, 50846.24002531052, -79365.74719735947, 40235.10697306478, -118140.52529818122, 0.03, 0.9500000000000001, 0.038, 192.0, 0.0, 0.0, 0.0, 0.0, 0.0, 0.0, 0.0, 0.0, 0.0, 1.6664037027346044E9, 0.0, 2022-10-21 18:55:02.734
167.0, -110091.86328552525, -150627.064779647, -63277.47562855192, -132603.9368038102, 50851.15740909069, -79364.71901711453, 40227.105048549776, -118137.84308884658, 0.03, 0.9500000000000001, 0.038, 192.0, 0.0, 0.0, 0.0, 0.0, 0.0, 0.0, 0.0, 0.0, 0.0, 1.6664037027346168E9, 0.0, 2022-10-21 18:55:02.734
168.0, -110100.51341062944, -150637.81596873, -63284.739945499896, -132608.04952479, 50839.66861244066, -79352.31379894183, 40245.90286563669, -118149.44364421889, 0.03, 0.9500000000000001, 0.038, 192.0, 0.0, 0.0, 0.0, 0.0, 0.0, 0.0, 0.0, 0.0, 0.0, 1.6664037027346294E9, 0.0, 2022-10-21 18:55:02.734
169.0, -110105.72136708754, -150641.07932342045, -63288.96442520195, -132623.1593040418, 50836.271147283456, -79353.36433093123, 40254.575342485354, -118152.72935065381, 0.03, 0.9500000000000001, 0.038, 192.0, 0.0, 0.0, 0.0, 0.0, 0.0, 0.0, 0.0, 0.0, 0.0, 1.6664037027346423E9, 0.0, 2022-10-21 18:55:02.734
170.0, -110103.50854438647, -150635.2008146287, -63287.869189723635, -132621.63938541882, 50841.59086246382, -79364.987238048, 40236.403374243186, -118150.02478957473, 0.03, 0.9500000000000001, 0.038, 192.0, 0.0, 0.0, 0.0, 0.0, 0.0, 0.0, 0.0, 0.0, 0.0, 1.666403702734655E9, 0.0, 2022-10-21 18:55:02.734
171.0, -110103.39678566418, -150636.78778848503, -63285.5893117892, -132620.36533598488, 50842.08260084184, -79364.13787175869, 40232.80474338588, -118149.77892038571, 0.03, 0.9500000000000001, 0.038, 192.0, 0.0, 0.0, 0.0, 0.0, 0.0, 0.0, 0.0, 0.0, 0.0, 1.6664037027346675E9, 0.0, 2022-10-21 18:55:02.734
172.0, -110106.25780895445, -150640.52052980906, -63286.6398437786, -132617.16903652778, 50840.33916477432, -79356.71709259953, 40247.69100519312, -118151.29883900868, 0.03, 0.9560000000000001, 0.032, 192.0, 0.0, 240.0, 29.0, 224.0, 1.0, 0.0, 0.0, 0.0, 0.0, 1.66640370273468E9, 0.0, 2022-10-21 18:55:02.734
173.0, -110103.41913740864, -150638.39711408582, -63282.46006756545, -132614.62093765987, 50845.43536251013, -79349.34101692928, 40260.87853442175, -118144.86153660555, 0.03, 0.9560000000000001, 0.032, 192.0, 0.0, 0.0, 0.0, 0.0, 0.0, 0.0, 0.0, 0.0, 0.0, 1.6664037027346933E9, 0.0, 2022-10-21 18:55:02.734
174.0, -110095.61837859373, -150633.4126750723, -63277.83325646321, -132613.793923115, 50851.51503700198, -79355.71126409904, 40252.09429885081, -118138.64775164697, 0.03, 0.9560000000000001, 0.032, 192.0, 0.0, 0.0, 0.0, 0.0, 0.0, 0.0, 0.0, 0.0, 0.0, 1.6664037027347057E9, 0.0, 2022-10-21 18:55:02.734
175.0, -110093.00322449247, -150629.47876804814, -63274.2346256059, -132605.7919986, 50854.95720564809, -79359.46635716753, 40239.44321148911, -118144.10157729407, 0.03, 0.9560000000000001, 0.032, 192.0, 0.0, 0.0, 0.0, 0.0, 0.0, 0.0, 0.0, 0.0, 0.0, 1.6664037027347207E9, 0.0, 2022-10-21 18:55:02.734
176.0, -110104.80494556487, -150641.77222749856, -63283.44354432149, -132616.8561121054, 50838.32750777334, -79354.90660129864, 40254.865915163275, -118160.97714435782, 0.03, 0.9560000000000001, 0.032, 192.0, 0.0, 0.0, 0.0, 0.0, 0.0, 0.0, 0.0, 0.0, 0.0, 1.6664037027347343E9, 0.0, 2022-10-21 18:55:02.734
177.0, -110100.60281760727, -150640.05114317551, -63283.4882478104, -132617.63842316132, 50837.232272295034, -79362.97558104701, 40268.74634847002, -118158.96548735685, 0.03, 0.9560000000000001, 0.032, 192.0, 0.0, 0.0, 0.0, 0.0, 0.0, 0.0, 0.0, 0.0, 0.0, 1.6664037027347476E9, 0.0, 2022-10-21 18:55:02.734
178.0, -110094.23257043751, -150632.92093669428, -63279.19671287498, -132617.83958886142, 50844.83186540984, -79370.57517416182, 40257.70458670909, -118152.97521984283, 0.03, 0.9560000000000001, 0.032, 192.0, 0.0, 0.0, 0.0, 0.0, 0.0, 0.0, 0.0, 0.0, 0.0, 1.6664037027347603E9, 0.0, 2022-10-21 18:55:02.734
179.0, -110089.80692503536, -150628.6070500144, -63274.458143050455, -132618.57719642846, 50846.10591484379, -79381.84045336729, 40239.15263881119, -118152.39407448699, 0.03, 0.9560000000000001, 0.032, 192.0, 0.0, 0.0, 0.0, 0.0, 0.0, 0.0, 0.0, 0.0, 0.0, 1.6664037027347877E9, 0.0, 2022-10-21 18:55:02.734
180.0, -110094.94782626008, -150635.33492509543, -63276.08982039569, -132611.13406552482, 50844.027202609446, -79376.45368295356, 40244.67351969165, -118157.2891065227, 0.03, 0.9560000000000001, 0.032, 192.0, 0.0, 0.0, 0.0, 0.0, 0.0, 0.0, 0.0, 0.0, 0.0, 1.6664037027348008E9, 0.0, 2022-10-21 18:55:02.734
181.0, -110102.23449495251, -150643.85093973292, -63280.51546579784, -132612.6986876367, 50840.16035081868, -79358.6840461116, 40270.44508104862, -118157.2444030338, 0.03, 0.9560000000000001, 0.032, 192.0, 0.0, 0.0, 0.0, 0.0, 0.0, 0.0, 0.0, 0.0, 0.0, 1.6664037027348137E9, 0.0, 2022-10-21 18:55:02.734
182.0, -110095.93130301611, -150636.38545708483, -63270.99362265988, -132616.8114086165, 50848.83282766734, -79358.66169436714, 40272.68025549415, -118138.55834466916, 0.032, 0.9580000000000001, 0.03, 192.0, 1.0, 0.0, 29.0, 240.0, 0.0, 240.0, 0.0, 0.0, 0.0, 1.6664037027348268E9, 0.0, 2022-10-21 18:55:02.734
183.0, -110098.09942222828, -150639.38059084184, -63273.42996280551, -132621.1029435519, 50849.883359656735, -79370.239897995, 40248.74153718252, -118141.01703655923, 0.032, 0.9580000000000001, 0.03, 192.0, 0.0, 0.0, 0.0, 0.0, 0.0, 0.0, 0.0, 0.0, 0.0, 1.6664037027348404E9, 0.0, 2022-10-21 18:55:02.734
184.0, -110098.76997456193, -150641.88398622084, -63274.18992211699, -132613.056315548, 50844.69775494311, -79367.5353369159, 40248.80859241588, -118142.84987960458, 0.032, 0.9580000000000001, 0.03, 192.0, 0.0, 0.0, 0.0, 0.0, 0.0, 0.0, 0.0, 0.0, 0.0, 1.6664037027348533E9, 0.0, 2022-10-21 18:55:02.734
185.0, -110098.14412571718, -150642.84511123243, -63274.882826195106, -132616.78905687202, 50840.42857175214, -79354.32545594282, 40265.907676924195, -118147.76726338474, 0.032, 0.9580000000000001, 0.03, 192.0, 0.0, 0.0, 0.0, 0.0, 0.0, 0.0, 0.0, 0.0, 0.0, 1.666403702734866E9, 0.0, 2022-10-21 18:55:02.734
186.0, -110105.1402217317, -150649.68474503575, -63281.454239064966, -132632.63644369083, 50833.92421411565, -79360.36042694574, 40261.66084547769, -118160.79833040218, 0.032, 0.9580000000000001, 0.03, 192.0, 0.0, 0.0, 0.0, 0.0, 0.0, 0.0, 0.0, 0.0, 0.0, 1.6664037027348785E9, 0.0, 2022-10-21 18:55:02.734
187.0, -110100.06637574034, -150643.58271879944, -63279.73315474191, -132634.17871405825, 50837.589900206316, -79366.5295084154, 40247.06515634837, -118160.01601934625, 0.032, 0.9580000000000001, 0.03, 192.0, 0.0, 0.0, 0.0, 0.0, 0.0, 0.0, 0.0, 0.0, 0.0, 1.6664037027348917E9, 0.0, 2022-10-21 18:55:02.734
188.0, -110096.33363441631, -150638.9112042083, -63277.92266344103, -132630.5130279676, 50836.06998158336, -79370.06108403935, 40239.264397533465, -118161.55828971366, 0.032, 0.9580000000000001, 0.03, 192.0, 0.0, 0.0, 0.0, 0.0, 0.0, 0.0, 0.0, 0.0, 0.0, 1.6664037027349043E9, 0.0, 2022-10-21 18:55:02.734
189.0, -110099.77580306242, -150641.95104145422, -63276.08982039569, -132625.5509406985, 50836.78523740593, -79358.99697053398, 40259.336264054335, -118163.74876067028, 0.032, 0.9580000000000001, 0.03, 192.0, 0.0, 0.0, 0.0, 0.0, 0.0, 0.0, 0.0, 0.0, 0.0, 1.6664037027349174E9, 0.0, 2022-10-21 18:55:02.734
190.0, -110094.32197741533, -150636.69838150722, -63266.433866791, -132624.12042905338, 50843.02137410896, -79368.45175843856, 40264.655979234696, -118154.27162102124, 0.032, 0.9580000000000001, 0.03, 192.0, 0.0, 0.0, 0.0, 0.0, 0.0, 0.0, 0.0, 0.0, 0.0, 1.66640370273493E9, 0.0, 2022-10-21 18:55:02.734
191.0, -110098.23353269501, -150639.89468096432, -63271.239491848886, -132632.39057450183, 50842.1496560752, -79385.0367528244, 40242.281883034935, -118157.2891065227, 0.032, 0.9580000000000001, 0.03, 192.0, 0.0, 0.0, 0.0, 0.0, 0.0, 0.0, 0.0, 0.0, 0.0, 1.666403702734943E9, 0.0, 2022-10-21 18:55:02.734
192.0, -110111.59987587928, -150652.67987879275, -63283.71176525495, -132644.9075513968, 50829.72208615805, -79392.30106977238, 40225.78629562692, -118173.31530729716, 0.03, 0.96, 0.03, 192.0, 0.0, 240.0, 30.0, 0.0, 0.0, 240.0, 0.0, 0.0, 0.0, 1.6664037027349553E9, 0.0, 2022-10-21 18:55:02.734
193.0, -110115.17615499214, -150653.08221019295, -63281.49894255387, -132645.04166186354, 50826.39167623421, -79384.14268304619, 40240.046708589405, -118170.43193226242, 0.03, 0.96, 0.03, 192.0, 0.0, 0.0, 0.0, 0.0, 0.0, 0.0, 0.0, 0.0, 0.0, 1.666403702734969E9, 0.0, 2022-10-21 18:55:02.734
194.0, -110094.94782626008, -150629.2552506036, -63255.928546897005, -132623.7628011421, 50852.833789924836, -79359.75692984545, 40273.61902876128, -118131.69635912137, 0.03, 0.96, 0.03, 192.0, 0.0, 0.0, 0.0, 0.0, 0.0, 0.0, 0.0, 0.0, 0.0, 1.6664037027349937E9, 0.0, 2022-10-21 18:55:02.734
195.0, -110097.07124198333, -150629.9481546817, -63254.47568350741, -132626.8473418769, 50857.12532486026, -79358.16995598913, 40269.036921147934, -118134.55738241166, 0.03, 0.96, 0.03, 192.0, 0.0, 0.0, 0.0, 0.0, 0.0, 0.0, 0.0, 0.0, 0.0, 1.6664037027350078E9, 0.0, 2022-10-21 18:55:02.735
196.0, -110096.31128267186, -150630.0152099151, -63255.99560213037, -132632.3682227574, 50851.73855444653, -79368.25059273846, 40254.17301108516, -118150.89650760849, 0.03, 0.96, 0.03, 192.0, 0.0, 0.0, 0.0, 0.0, 0.0, 0.0, 0.0, 0.0, 0.0, 1.666403702735022E9, 0.0, 2022-10-21 18:55:02.735
197.0, -110096.71361407204, -150628.42823605874, -63255.19093932998, -132613.48099869263, 50858.82405743886, -79358.30406645585, 40269.14867987021, -118152.66229542045, 0.03, 0.96, 0.03, 192.0, 0.0, 0.0, 0.0, 0.0, 0.0, 0.0, 0.0, 0.0, 0.0, 1.6664037027350347E9, 0.0, 2022-10-21 18:55:02.735
198.0, -110111.10813750126, -150643.29214612153, -63268.11024762515, -132630.93771111223, 50845.34595553231, -79363.91435431414, 40275.630685762255, -118166.49802523828, 0.03, 0.96, 0.03, 192.0, 0.0, 0.0, 0.0, 0.0, 0.0, 0.0, 0.0, 0.0, 0.0, 1.6664037027350478E9, 0.0, 2022-10-21 18:55:02.735
199.0, -110109.52116364494, -150643.49331182163, -63268.22200634742, -132640.30309203902, 50841.68026944164, -79369.99402880597, 40272.054406649404, -118170.56604272916, 0.03, 0.96, 0.03, 192.0, 0.0, 0.0, 0.0, 0.0, 0.0, 0.0, 0.0, 0.0, 0.0, 1.6664037027350607E9, 0.0, 2022-10-21 18:55:02.735
200.0, -110104.89435254269, -150638.93355595274, -63264.55632025675, -132641.3089205395, 50842.26141479748, -79388.76949414844, 40247.512191237474, -118166.63213570502, 0.03, 0.96, 0.03, 192.0, 0.0, 0.0, 0.0, 0.0, 0.0, 0.0, 0.0, 0.0, 0.0, 1.666403702735073E9, 0.0, 2022-10-21 18:55:02.735
201.0, -110095.79719254938, -150629.0093814146, -63249.13361658259, -132619.18069352873, 50855.895978915214, -79378.0853602988, 40254.12830759625, -118153.64577217649, 0.03, 0.96, 0.03, 192.0, 0.0, 0.0, 0.0, 0.0, 0.0, 0.0, 0.0, 0.0, 0.0, 1.666403702735086E9, 0.0, 2022-10-21 18:55:02.735
202.0, -110094.05375648187, -150627.53416628053, -63242.40574150154, -132612.0951905364, 50860.99217665102, -79365.14370025918, 40268.768700214474, -118148.79544362969, 0.032, 0.962, 0.03, 192.0, 1.0, 0.0, 30.0, 16.0, 0.0, 240.0, 0.0, 0.0, 0.0, 1.666403702735099E9, 0.0, 2022-10-21 18:55:02.735
203.0, -110103.8885240422, -150634.37380008385, -63254.65449746305, -132635.98920535913, 50848.67636545615, -79375.42550270862, 40255.78233668594, -118159.72544666832, 0.032, 0.962, 0.03, 192.0, 0.0, 0.0, 0.0, 0.0, 0.0, 0.0, 0.0, 0.0, 0.0, 1.6664037027351127E9, 0.0, 2022-10-21 18:55:02.735
204.0, -110107.75537583297, -150634.77613148405, -63261.941166155484, -132642.33710078444, 50845.86004565478, -79392.88221512821, 40232.000080585494, -118164.41931300395, 0.032, 0.962, 0.03, 192.0, 0.0, 0.0, 0.0, 0.0, 0.0, 0.0, 0.0, 0.0, 0.0, 1.6664037027351255E9, 0.0, 2022-10-21 18:55:02.735
205.0, -110110.45993691206, -150637.95007919671, -63261.740000455386, -132633.08347857994, 50843.75898167599, -79380.74521788898, 40242.57245571285, -118156.17151929994, 0.032, 0.962, 0.03, 192.0, 0.0, 0.0, 0.0, 0.0, 0.0, 0.0, 0.0, 0.0, 0.0, 1.6664037027351396E9, 0.0, 2022-10-21 18:55:02.735
206.0, -110110.4375851676, -150639.44764607522, -63258.81192193174, -132633.08347857994, 50841.25558629699, -79368.16118576065, 40267.584057758344, -118158.65256293447, 0.032, 0.962, 0.03, 192.0, 0.0, 0.0, 0.0, 0.0, 0.0, 0.0, 0.0, 0.0, 0.0, 1.6664037027351525E9, 0.0, 2022-10-21 18:55:02.735
207.0, -110100.55811411836, -150628.4952912921, -63251.9275846395, -132628.07668782194, 50852.07383061336, -79386.71313365854, 40256.4528890196, -118149.24247851879, 0.032, 0.962, 0.03, 192.0, 0.0, 0.0, 0.0, 0.0, 0.0, 0.0, 0.0, 0.0, 0.0, 1.666403702735165E9, 0.0, 2022-10-21 18:55:02.735
208.0, -110107.4871548995, -150634.3514483394, -63258.32018355372, -132630.3118622675, 50851.716202702075, -79384.58971793529, 40239.53261846693, -118148.39311222949, 0.032, 0.962, 0.03, 192.0, 0.0, 0.0, 0.0, 0.0, 0.0, 0.0, 0.0, 0.0, 0.0, 1.666403702735178E9, 0.0, 2022-10-21 18:55:02.735
209.0, -110114.66206486966, -150641.79457924303, -63262.27644232231, -132646.5615804865, 50838.79689440691, -79386.89194761419, 40231.88832186322, -118167.28033629422, 0.032, 0.962, 0.03, 192.0, 0.0, 0.0, 0.0, 0.0, 0.0, 0.0, 0.0, 0.0, 0.0, 1.6664037027352023E9, 0.0, 2022-10-21 18:55:02.735
210.0, -110102.92739903062, -150629.83639595943, -63246.25024154786, -132624.88038836484, 50853.41493528068, -79363.64613338068, 40261.66084547769, -118158.25023153427, 0.032, 0.962, 0.03, 192.0, 0.0, 0.0, 0.0, 0.0, 0.0, 0.0, 0.0, 0.0, 0.0, 1.6664037027352157E9, 0.0, 2022-10-21 18:55:02.735
211.0, -110106.90600954367, -150633.68089600574, -63251.4805497504, -132636.32448152595, 50849.190455578624, -79371.37983696221, 40265.86297343528, -118161.06655133565, 0.032, 0.964, 0.028, 192.0, 1.0, 0.0, 30.0, 32.0, 0.0, 224.0, 0.0, 0.0, 0.0, 1.6664037027352283E9, 0.0, 2022-10-21 18:55:02.735
212.0, -110109.92349504514, -150636.58662278493, -63255.34740154116, -132647.27683630906, 50848.139923589224, -79387.36133424775, 40246.86399064827, -118161.17831005792, 0.032, 0.964, 0.028, 192.0, 0.0, 0.0, 0.0, 0.0, 0.0, 0.0, 0.0, 0.0, 0.0, 1.6664037027352424E9, 0.0, 2022-10-21 18:55:02.735
213.0, -110105.09551824279, -150633.52443379455, -63251.257032305846, -132641.15245832832, 50851.02329862396, -79388.88125287072, 40240.91842662316, -118157.2444030338, 0.032, 0.964, 0.028, 192.0, 0.0, 0.0, 0.0, 0.0, 0.0, 0.0, 0.0, 0.0, 0.0, 1.6664037027352552E9, 0.0, 2022-10-21 18:55:02.735
214.0, -110101.83216355232, -150633.14445413882, -63251.033514861294, -132629.551902956, 50856.030089381944, -79368.7870346054, 40267.87463043626, -118152.6846471649, 0.032, 0.964, 0.028, 192.0, 0.0, 0.0, 0.0, 0.0, 0.0, 0.0, 0.0, 0.0, 0.0, 1.666403702735268E9, 0.0, 2022-10-21 18:55:02.735
215.0, -110099.50758212896, -150633.54678553902, -63247.59134621517, -132626.04267907652, 50861.081583628846, -79362.2826769689, 40276.748272985016, -118145.88971685049, 0.032, 0.964, 0.028, 192.0, 0.0, 0.0, 0.0, 0.0, 0.0, 0.0, 0.0, 0.0, 0.0, 1.6664037027352805E9, 0.0, 2022-10-21 18:55:02.735
216.0, -110109.72232934504, -150644.25327113312, -63256.08500910819, -132646.3604147864, 50848.274034055954, -79388.61303193725, 40244.76292666947, -118152.77405414273, 0.032, 0.964, 0.028, 192.0, 0.0, 0.0, 0.0, 0.0, 0.0, 0.0, 0.0, 0.0, 0.0, 1.6664037027352934E9, 0.0, 2022-10-21 18:55:02.735
217.0, -110110.75050958998, -150646.24257638963, -63255.794436430275, -132646.51687699757, 50846.28472879943, -79398.67131694214, 40228.82613287284, -118156.8867751225, 0.032, 0.964, 0.028, 192.0, 0.0, 0.0, 0.0, 0.0, 0.0, 0.0, 0.0, 0.0, 0.0, 1.6664037027353058E9, 0.0, 2022-10-21 18:55:02.735
218.0, -110109.85643981176, -150645.72848626715, -63254.252166062855, -132634.2681210361, 50850.106877101294, -79378.10771204326, 40258.576304742855, -118160.35129551307, 0.032, 0.964, 0.028, 192.0, 0.0, 0.0, 0.0, 0.0, 0.0, 0.0, 0.0, 0.0, 0.0, 1.6664037027353225E9, 0.0, 2022-10-21 18:55:02.735
219.0, -110108.06830025534, -150641.056971676, -63248.440712504475, -132630.3565657564, 50858.86876092777, -79372.989162563, 40276.457700307095, -118156.8867751225, 0.032, 0.964, 0.028, 192.0, 0.0, 0.0, 0.0, 0.0, 0.0, 0.0, 0.0, 0.0, 0.0, 1.666403702735335E9, 0.0, 2022-10-21 18:55:02.735
220.0, -110109.3423496893, -150636.9666024407, -63247.79251191527, -132634.49163848063, 50862.93677841864, -79383.986220835, 40257.01168263098, -118160.99949610227, 0.032, 0.964, 0.028, 192.0, 0.0, 0.0, 0.0, 0.0, 0.0, 0.0, 0.0, 0.0, 0.0, 1.6664037027353532E9, 0.0, 2022-10-21 18:55:02.735
221.0, -110112.85157356878, -150641.99574494312, -63257.71668645343, -132642.94059788474, 50852.140885846726, -79395.45266574058, 40241.18664755662, -118170.09665609559, 0.028, 0.9560000000000001, 0.028, 192.0, 0.0, 224.0, 29.0, 224.0, 0.0, 224.0, 0.0, 0.0, 0.0, 1.6664037027353666E9, 0.0, 2022-10-21 18:55:02.735
222.0, -110101.5862943633, -150629.76934072608, -63245.98202061439, -132622.26523426358, 50862.10976387379, -79383.53918594589, 40256.475240764055, -118155.27744952172, 0.028, 0.9560000000000001, 0.028, 192.0, 0.0, 0.0, 0.0, 0.0, 0.0, 0.0, 0.0, 0.0, 0.0, 1.6664037027353804E9, 0.0, 2022-10-21 18:55:02.735
223.0, -110101.3851286632, -150631.0657419045, -63238.315372266225, -132609.7929608575, 50868.72588023256, -79355.66656061013, 40286.06895042288, -118151.56705994214, 0.028, 0.9560000000000001, 0.028, 192.0, 0.0, 0.0, 0.0, 0.0, 0.0, 0.0, 0.0, 0.0, 0.0, 1.666403702735394E9, 0.0, 2022-10-21 18:55:02.735
224.0, -110107.50950664395, -150639.04531467502, -63247.99367761537, -132641.53243798405, 50852.409106780186, -79377.48186319851, 40270.69095023763, -118161.35712401356, 0.028, 0.9560000000000001, 0.028, 192.0, 0.0, 0.0, 0.0, 0.0, 0.0, 0.0, 0.0, 0.0, 0.0, 1.6664037027354193E9, 0.0, 2022-10-21 18:55:02.735
225.0, -110107.44245141059, -150637.99478268562, -63251.81582591723, -132650.71900495517, 50845.25654855449, -79409.78013393642, 40236.91746436566, -118159.56898445715, 0.028, 0.9560000000000001, 0.028, 192.0, 0.0, 0.0, 0.0, 0.0, 0.0, 0.0, 0.0, 0.0, 0.0, 1.666403702735432E9, 0.0, 2022-10-21 18:55:02.735
226.0, -110109.87879155623, -150639.6041082864, -63250.0276863608, -132636.4138885038, 50851.06800211287, -79399.11835183125, 40248.853295904795, -118163.21231880336, 0.028, 0.9560000000000001, 0.028, 192.0, 0.0, 0.0, 0.0, 0.0, 0.0, 0.0, 0.0, 0.0, 0.0, 1.6664037027354443E9, 0.0, 2022-10-21 18:55:02.735
227.0, -110109.20823922256, -150640.52052980906, -63248.50776773784, -132627.47319072168, 50855.94068240413, -79384.43325572411, 40271.2050403601, -118165.26867929325, 0.028, 0.9560000000000001, 0.028, 192.0, 0.0, 0.0, 0.0, 0.0, 0.0, 0.0, 0.0, 0.0, 0.0, 1.6664037027354572E9, 0.0, 2022-10-21 18:55:02.735
228.0, -110110.32582644533, -150637.27952686304, -63249.08891309368, -132644.84049616344, 50853.07965911385, -79397.6431366972, 40257.97280764256, -118165.87217639353, 0.028, 0.9560000000000001, 0.028, 192.0, 0.0, 0.0, 0.0, 0.0, 0.0, 0.0, 0.0, 0.0, 0.0, 1.66640370273547E9, 0.0, 2022-10-21 18:55:02.735
229.0, -110112.3374834463, -150639.3582390974, -63250.94410788347, -132651.25544682212, 50849.190455578624, -79412.86467467126, 40235.24108353151, -118171.21424331836, 0.028, 0.9560000000000001, 0.028, 192.0, 0.0, 0.0, 0.0, 0.0, 0.0, 0.0, 0.0, 0.0, 0.0, 1.6664037027354825E9, 0.0, 2022-10-21 18:55:02.735
230.0, -110102.59212286379, -150630.32813433744, -63238.60594494414, -132640.59366471693, 50856.58888299333, -79407.92493914663, 40238.90676962218, -118161.2453652913, 0.028, 0.9560000000000001, 0.028, 192.0, 0.0, 0.0, 0.0, 0.0, 0.0, 0.0, 0.0, 0.0, 0.0, 1.6664037027354949E9, 0.0, 2022-10-21 18:55:02.735
231.0, -110099.19465770658, -150628.42823605874, -63236.57193619871, -132633.5528652135, 50856.16419984868, -79381.99691557848, 40271.696778738115, -118161.71475192485, 0.028, 0.9580000000000001, 0.032, 192.0, 0.0, 224.0, 29.0, 240.0, 1.0, 0.0, 0.0, 0.0, 0.0, 1.6664037027355075E9, 0.0, 2022-10-21 18:55:02.735
232.0, -110102.48036414152, -150632.92093669428, -63241.93635486798, -132654.45174627923, 50844.228368309545, -79405.26508155646, 40257.14579309771, -118168.37557177253, 0.028, 0.9580000000000001, 0.032, 192.0, 0.0, 0.0, 0.0, 0.0, 0.0, 0.0, 0.0, 0.0, 0.0, 1.6664037027355208E9, 0.0, 2022-10-21 18:55:02.735
233.0, -110098.90408502867, -150626.52833778004, -63234.6273344311, -132653.40121428983, 50854.711336459084, -79413.40111653818, 40240.53844696742, -118161.62534494702, 0.028, 0.9580000000000001, 0.032, 192.0, 0.0, 0.0, 0.0, 0.0, 0.0, 0.0, 0.0, 0.0, 0.0, 1.6664037027355337E9, 0.0, 2022-10-21 18:55:02.735
234.0, -110099.41817515114, -150627.42240755828, -63233.28622976378, -132646.5615804865, 50858.354670805296, -79392.77045640594, 40253.614217473776, -118153.13168205401, 0.028, 0.9580000000000001, 0.032, 192.0, 0.0, 0.0, 0.0, 0.0, 0.0, 0.0, 0.0, 0.0, 0.0, 1.666403702735546E9, 0.0, 2022-10-21 18:55:02.735
235.0, -110101.92157053013, -150630.43989305972, -63231.83336637418, -132646.67333920876, 50854.73368820354, -79387.85307262577, 40269.886287437235, -118152.97521984283, 0.028, 0.9580000000000001, 0.032, 192.0, 0.0, 0.0, 0.0, 0.0, 0.0, 0.0, 0.0, 0.0, 0.0, 1.666403702735559E9, 0.0, 2022-10-21 18:55:02.735
236.0, -110108.35887293326, -150634.84318671742, -63237.08602632118, -132653.31180731198, 50853.43728702513, -79389.79767439338, 40269.99804615951, -118155.76918789974, 0.028, 0.9580000000000001, 0.032, 192.0, 0.0, 0.0, 0.0, 0.0, 0.0, 0.0, 0.0, 0.0, 0.0, 1.6664037027355716E9, 0.0, 2022-10-21 18:55:02.735
237.0, -110111.86809681274, -150639.0676664195, -63243.12099732411, -132661.44784229374, 50847.6034817223, -79398.82777915333, 40255.134136096734, -118162.1394350695, 0.028, 0.9580000000000001, 0.032, 192.0, 0.0, 0.0, 0.0, 0.0, 0.0, 0.0, 0.0, 0.0, 0.0, 1.6664037027355843E9, 0.0, 2022-10-21 18:55:02.735
238.0, -110106.57073337684, -150634.5079105506, -63238.717703666414, -132649.26614156557, 50851.58209223534, -79402.80638966637, 40249.59090347182, -118155.45626347736, 0.028, 0.9580000000000001, 0.032, 192.0, 0.0, 0.0, 0.0, 0.0, 0.0, 0.0, 0.0, 0.0, 0.0, 1.666403702735597E9, 0.0, 2022-10-21 18:55:02.735
239.0, -110102.05568099687, -150631.0657419045, -63236.013142587326, -132640.59366471693, 50850.732725946036, -79403.49929374449, 40257.59282798682, -118151.7905773867, 0.028, 0.9580000000000001, 0.032, 192.0, 0.0, 0.0, 0.0, 0.0, 0.0, 0.0, 0.0, 0.0, 0.0, 1.6664037027356226E9, 0.0, 2022-10-21 18:55:02.735
240.0, -110101.36277691874, -150630.9092796933, -63233.062712319224, -132630.9153593678, 50855.761868448484, -79391.69757267208, 40275.138947384236, -118153.4893099653, 0.032, 0.9580000000000001, 0.028, 192.0, 1.0, 0.0, 29.0, 240.0, 0.0, 224.0, 0.0, 0.0, 0.0, 1.666403702735636E9, 0.0, 2022-10-21 18:55:02.735
241.0, -110109.20823922256, -150639.29118386403, -63241.310506023234, -132652.30597881152, 50846.66470845517, -79397.17375006364, 40270.02039790397, -118162.27354553623, 0.032, 0.9580000000000001, 0.028, 192.0, 0.0, 0.0, 0.0, 0.0, 0.0, 0.0, 0.0, 0.0, 0.0, 1.6664037032122998E9, 0.0, 2022-10-21 18:55:03.212
242.0, -110104.51437288694, -150632.2503843606, -63237.75657865484, -132650.54019099954, 50854.77839169245, -79406.96381413506, 40256.13996459723, -118156.0374088332, 0.032, 0.9580000000000001, 0.028, 192.0, 0.0, 0.0, 0.0, 0.0, 0.0, 0.0, 0.0, 0.0, 0.0, 1.6664037032125156E9, 0.0, 2022-10-21 18:55:03.212
243.0, -110108.35887293326, -150634.9996489286, -63236.840157132174, -132642.27004555106, 50853.41493528068, -79396.77141866344, 40269.618066503775, -118157.33381001161, 0.032, 0.9580000000000001, 0.028, 192.0, 0.0, 0.0, 0.0, 0.0, 0.0, 0.0, 0.0, 0.0, 0.0, 1.6664037032125459E9, 0.0, 2022-10-21 18:55:03.212
244.0, -110105.45314615408, -150631.5574802825, -63233.554450697244, -132642.69472869573, 50853.21376958058, -79398.64896519769, 40273.3061043389, -118158.67491467892, 0.032, 0.9580000000000001, 0.028, 192.0, 0.0, 0.0, 0.0, 0.0, 0.0, 0.0, 0.0, 0.0, 0.0, 1.6664037032125745E9, 0.0, 2022-10-21 18:55:03.212
245.0, -110104.82729730933, -150630.84222445992, -63235.18612804248, -132649.84728692143, 50852.96790039157, -79407.72377344655, 40261.48203152204, -118161.51358622476, 0.032, 0.9580000000000001, 0.028, 192.0, 0.0, 0.0, 0.0, 0.0, 0.0, 0.0, 0.0, 0.0, 0.0, 1.6664037032126029E9, 0.0, 2022-10-21 18:55:03.212
246.0, -110108.40357642218, -150634.97729718414, -63240.41643624502, -132663.57125801698, 50843.71427818707, -79419.54784626339, 40247.42278425965, -118166.02863860472, 0.032, 0.9580000000000001, 0.028, 192.0, 0.0, 0.0, 0.0, 0.0, 0.0, 0.0, 0.0, 0.0, 0.0, 1.6664037032126307E9, 0.0, 2022-10-21 18:55:03.212
247.0, -110105.07316649833, -150632.2503843606, -63238.96357285543, -132653.44591777874, 50845.59182472132, -79409.17663683613, 40264.00777864549, -118159.7925019017, 0.032, 0.9580000000000001, 0.028, 192.0, 0.0, 0.0, 0.0, 0.0, 0.0, 0.0, 0.0, 0.0, 0.0, 1.6664037032126584E9, 0.0, 2022-10-21 18:55:03.212
248.0, -110108.02359676643, -150635.02200067305, -63238.49418622186, -132650.98722588865, 50848.072868355855, -79404.70628794507, 40278.67052300817, -118155.52331871074, 0.032, 0.9580000000000001, 0.028, 192.0, 0.0, 0.0, 0.0, 0.0, 0.0, 0.0, 0.0, 0.0, 0.0, 1.6664037032126863E9, 0.0, 2022-10-21 18:55:03.212
249.0, -110099.93226527362, -150627.4000558138, -63231.2745727628, -132648.43912702074, 50856.41006903769, -79409.73543044752, 40267.44994729161, -118149.66716166344, 0.032, 0.9580000000000001, 0.028, 192.0, 0.0, 0.0, 0.0, 0.0, 0.0, 0.0, 0.0, 0.0, 0.0, 1.6664037032127137E9, 0.0, 2022-10-21 18:55:03.212
250.0, -110094.56784660433, -150620.4933667771, -63223.630276159085, -132637.12914432635, 50865.3060633309, -79404.01338386696, 40258.64335997622, -118151.85763262006, 0.03, 0.9580000000000001, 0.028, 192.0, 0.0, 240.0, 29.0, 240.0, 0.0, 224.0, 0.0, 0.0, 0.0, 1.666403703212742E9, 0.0, 2022-10-21 18:55:03.212
251.0, -110110.10230900078, -150635.7596082401, -63232.1239390521, -132648.01444387608, 50848.74342068952, -79400.28064254292, 40261.39262454422, -118166.81094966066, 0.03, 0.9580000000000001, 0.028, 192.0, 0.0, 0.0, 0.0, 0.0, 0.0, 0.0, 0.0, 0.0, 0.0, 1.666403703212772E9, 0.0, 2022-10-21 18:55:03.212
252.0, -110119.08771027181, -150643.29214612153, -63240.88582287858, -132662.52072602758, 50836.87464438375, -79402.56052047736, 40278.37995033025, -118178.09858061059, 0.03, 0.9580000000000001, 0.028, 192.0, 0.0, 0.0, 0.0, 0.0, 0.0, 0.0, 0.0, 0.0, 0.0, 1.6664037032128E9, 0.0, 2022-10-21 18:55:03.212
253.0, -110108.87296305574, -150632.33979133843, -63232.68273266348, -132656.03872013555, 50849.97276663456, -79413.87050317175, 40272.56849677188, -118168.4426270059, 0.03, 0.9580000000000001, 0.028, 192.0, 0.0, 0.0, 0.0, 0.0, 0.0, 0.0, 0.0, 0.0, 0.0, 1.666403703212828E9, 0.0, 2022-10-21 18:55:03.212
254.0, -110105.34138743179, -150629.76934072608, -63230.492261706866, -132654.56350500148, 50851.87266491326, -79421.0454131419, 40255.04472911891, -118166.87800489402, 0.03, 0.9580000000000001, 0.028, 192.0, 0.0, 0.0, 0.0, 0.0, 0.0, 0.0, 0.0, 0.0, 0.0, 1.6664037032129261E9, 0.0, 2022-10-21 18:55:03.212
255.0, -110117.72425386004, -150643.67212577726, -63243.36686651312, -132669.6062290199, 50836.29349902791, -79419.88312243023, 40256.16231634168, -118180.2890515672, 0.03, 0.9580000000000001, 0.028, 192.0, 0.0, 0.0, 0.0, 0.0, 0.0, 0.0, 0.0, 0.0, 0.0, 1.6664037032129433E9, 0.0, 2022-10-21 18:55:03.212
0.0, -110111.10813750126, -150637.43598907423, -63235.297886764754, -132656.46340328018, 50843.468408998066, -79412.88702641572, 40274.088415394835, -118166.76624617176, 0.03, 0.9580000000000001, 0.028, 192.0, 0.0, 0.0, 0.0, 0.0, 0.0, 0.0, 0.0, 0.0, 0.0, 1.6664037032129588E9, 0.0, 2022-10-21 18:55:03.212
1.0, -110103.32973043082, -150626.2601168466, -63226.69246514946, -132645.68986245274, 50856.477124271056, -79414.92103516114, 40273.97665667256, -118150.62828667501, 0.03, 0.9580000000000001, 0.028, 192.0, 0.0, 0.0, 0.0, 0.0, 0.0, 0.0, 0.0, 0.0, 0.0, 1.6664037032129743E9, 0.0, 2022-10-21 18:55:03.212
2.0, -110104.3355589313, -150627.02007615808, -63233.688561163974, -132661.5148975271, 50851.24681606851, -79429.18144812364, 40247.69100519312, -118150.89650760849, 0.03, 0.9580000000000001, 0.028, 192.0, 0.0, 0.0, 0.0, 0.0, 0.0, 0.0, 0.0, 0.0, 0.0, 1.6664037032129903E9, 0.0, 2022-10-21 18:55:03.212
3.0, -110106.41427116565, -150629.9481546817, -63233.10741580814, -132666.812260963, 50847.11174334428, -79431.93071269164, 40242.05836559038, -118158.00436234527, 0.03, 0.9580000000000001, 0.028, 192.0, 0.0, 0.0, 0.0, 0.0, 0.0, 0.0, 0.0, 0.0, 0.0, 1.6664037032130055E9, 0.0, 2022-10-21 18:55:03.213
4.0, -110110.30347470088, -150632.809177972, -63223.98790407037, -132652.14951660033, 50853.99608063651, -79411.70238395958, 40266.958208913595, -118157.75849315626, 0.03, 0.9560000000000001, 0.032, 192.0, 0.0, 240.0, 29.0, 224.0, 1.0, 0.0, 0.0, 0.0, 0.0, 1.6664037032130263E9, 0.0, 2022-10-21 18:55:03.213
5.0, -110114.237381725, -150634.23968961713, -63230.11228205112, -132660.79964170454, 50851.17976083515, -79406.58383447932, 40275.474223551064, -118166.29685953818, 0.03, 0.9560000000000001, 0.032, 192.0, 0.0, 0.0, 0.0, 0.0, 0.0, 0.0, 0.0, 0.0, 0.0, 1.6664037032130427E9, 0.0, 2022-10-21 18:55:03.213
6.0, -110113.94680904709, -150634.88789020633, -63229.88876460657, -132671.72964474317, 50851.425630024154, -79418.25144508498, 40265.3041798239, -118161.67004843595, 0.03, 0.9560000000000001, 0.032, 192.0, 0.0, 0.0, 0.0, 0.0, 0.0, 0.0, 0.0, 0.0, 0.0, 1.666403703213058E9, 0.0, 2022-10-21 18:55:03.213
7.0, -110113.00803577996, -150634.1502826393, -63226.11131979362, -132664.57708651747, 50857.01356613798, -79415.43512528362, 40264.499517023505, -118160.79833040218, 0.03, 0.9560000000000001, 0.032, 192.0, 0.0, 0.0, 0.0, 0.0, 0.0, 0.0, 0.0, 0.0, 0.0, 1.6664037032130735E9, 0.0, 2022-10-21 18:55:03.213
8.0, -110114.79617533639, -150638.59827978592, -63228.1229767946, -132658.87739168137, 50853.77256319196, -79393.77628490643, 40295.38962786074, -118168.75555142827, 0.03, 0.9560000000000001, 0.032, 192.0, 0.0, 0.0, 0.0, 0.0, 0.0, 0.0, 0.0, 0.0, 0.0, 1.6664037032130888E9, 0.0, 2022-10-21 18:55:03.213
9.0, -110119.490041672, -150642.42042808776, -63230.58166868469, -132664.39827256184, 50849.34691778981, -79405.82387516784, 40300.30701164091, -118164.66518219296, 0.03, 0.9560000000000001, 0.032, 192.0, 0.0, 0.0, 0.0, 0.0, 0.0, 0.0, 0.0, 0.0, 0.0, 1.666403703213104E9, 0.0, 2022-10-21 18:55:03.213
10.0, -110107.2412857105, -150629.88109944834, -63216.7235871224, -132655.8599061799, 50864.501400530506, -79422.81120095387, 40278.894040452724, -118144.4368534609, 0.03, 0.9560000000000001, 0.032, 192.0, 0.0, 0.0, 0.0, 0.0, 0.0, 0.0, 0.0, 0.0, 0.0, 1.6664037032131195E9, 0.0, 2022-10-21 18:55:03.213
11.0, -110105.85547755427, -150630.551651782, -63217.70706387843, -132657.49158352514, 50863.674385985665, -79426.990977167, 40261.9514181556, -118151.25413551976, 0.03, 0.9560000000000001, 0.032, 192.0, 0.0, 0.0, 0.0, 0.0, 0.0, 0.0, 0.0, 0.0, 0.0, 1.6664037032131343E9, 0.0, 2022-10-21 18:55:03.213
12.0, -110103.10621298627, -150626.88596569133, -63212.20853474242, -132637.9561588712, 50870.46931630008, -79400.75002917649, 40283.63261027725, -118154.87511812153, 0.03, 0.9560000000000001, 0.032, 192.0, 0.0, 0.0, 0.0, 0.0, 0.0, 0.0, 0.0, 0.0, 0.0, 1.6664037032131503E9, 0.0, 2022-10-21 18:55:03.213
