%OpenBCI Raw EEG Data
%Number of channels = 8
%Sample Rate = 250 Hz
%Board = OpenBCI_GUI$BoardCytonSerial
Sample Index, EXG Channel 0, EXG Channel 1, EXG Channel 2, EXG Channel 3, EXG Channel 4, EXG Channel 5, EXG Channel 6, EXG Channel 7, Accel Channel 0, Accel Channel 1, Accel Channel 2, Other, Other, Other, Other, Other, Other, Other, Analog Channel 0, Analog Channel 1, Analog Channel 2, Timestamp, Other, Timestamp (Formatted)
190.0, -79953.12868990049, -118622.49596387101, 27490.92459570463, 82741.48645895558, 48700.472557601046, 45821.59022350195, 29503.31920424929, 82683.86366174981, 0.0, 0.0, 0.0, 192.0, 0.0, 0.0, 0.0, 0.0, 0.0, 0.0, 0.0, 0.0, 0.0, 1.6665570684655545E9, 0.0, 2022-10-23 13:31:08.465
191.0, -79951.60877127752, -118620.73017605903, 27441.99662709196, 82745.50977295754, 48709.88264201673, 45845.283072624574, 29536.399786043145, 82717.72655459959, 0.0, 0.0, 0.0, 192.0, 0.0, 0.0, 0.0, 0.0, 0.0, 0.0, 0.0, 0.0, 0.0, 1.666557068465591E9, 0.0, 2022-10-23 13:31:08.465
192.0, -79953.88864921196, -118625.15582146119, 27749.757796497084, 82747.70024391417, 48716.4987583755, 45858.49295359766, 29725.495544135043, 82870.94776284072, 0.0, 0.0, 0.0, 192.0, 0.0, 0.0, 0.0, 0.0, 0.0, 0.0, 0.0, 0.0, 0.0, 1.6665570684656267E9, 0.0, 2022-10-23 13:31:08.465
193.0, -79941.39402406145, -118614.58344633383, 27768.868538006373, 82752.41646199423, 48712.698961818096, 45847.76411625912, 29661.88247941524, 82809.39105861081, 0.04, 0.9500000000000001, 0.168, 192.0, 1.0, 64.0, 29.0, 176.0, 5.0, 64.0, 0.0, 0.0, 0.0, 1.6665570684656627E9, 0.0, 2022-10-23 13:31:08.465
194.0, -79951.56406778861, -118625.15582146119, 27570.45210247661, 82744.12396480131, 48704.87585125874, 45831.42499106228, 29514.115096821202, 82689.60806007482, 0.04, 0.9500000000000001, 0.168, 192.0, 0.0, 0.0, 0.0, 0.0, 0.0, 0.0, 0.0, 0.0, 0.0, 1.6665570684657068E9, 0.0, 2022-10-23 13:31:08.465
195.0, -79964.68454178388, -118639.77386233496, 27444.455318982044, 82735.85381935285, 48698.10327268878, 45823.60188050293, 29497.39599196863, 82675.34764711233, 0.04, 0.9500000000000001, 0.168, 192.0, 0.0, 0.0, 0.0, 0.0, 0.0, 0.0, 0.0, 0.0, 0.0, 1.6665570684657447E9, 0.0, 2022-10-23 13:31:08.465
196.0, -79967.47850984079, -118637.29281870041, 27751.16595639777, 82741.30764499995, 48702.126586690734, 45834.330717841476, 29704.484904347053, 82847.83605907393, 0.04, 0.9500000000000001, 0.168, 192.0, 0.0, 0.0, 0.0, 0.0, 0.0, 0.0, 0.0, 0.0, 0.0, 1.6665570684657812E9, 0.0, 2022-10-23 13:31:08.465
197.0, -79959.38717834797, -118628.50858312949, 27888.293908631076, 82740.65944441075, 48687.88852547271, 45821.85844443541, 29727.328387180376, 82851.54644865352, 0.04, 0.9500000000000001, 0.168, 192.0, 0.0, 0.0, 0.0, 0.0, 0.0, 0.0, 0.0, 0.0, 0.0, 1.6665570684658184E9, 0.0, 2022-10-23 13:31:08.465
198.0, -79955.5203265572, -118622.51831561547, 27678.858063084852, 82745.35331074636, 48686.413310338656, 45816.9634123997, 29542.501812279443, 82701.18626370266, 0.04, 0.9500000000000001, 0.168, 192.0, 0.0, 0.0, 0.0, 0.0, 0.0, 0.0, 0.0, 0.0, 0.0, 1.666557068465844E9, 0.0, 2022-10-23 13:31:08.465
199.0, -79960.01302719272, -118627.502754629, 27507.263720901457, 82753.37758700582, 48700.07022620085, 45835.090677152955, 29498.89355884714, 82672.10664416631, 0.04, 0.9500000000000001, 0.168, 192.0, 0.0, 0.0, 0.0, 0.0, 0.0, 0.0, 0.0, 0.0, 0.0, 1.6665570684658644E9, 0.0, 2022-10-23 13:31:08.465
200.0, -79969.66898079742, -118638.23159196755, 27706.685984931708, 82746.00151133556, 48693.45410984208, 45835.18008413078, 29644.224601295544, 82797.63404102731, 0.04, 0.9500000000000001, 0.168, 192.0, 0.0, 0.0, 0.0, 0.0, 0.0, 0.0, 0.0, 0.0, 0.0, 1.6665570684658847E9, 0.0, 2022-10-23 13:31:08.465
201.0, -79969.11018718603, -118633.6494843542, 27867.193861865268, 82738.7818978765, 48683.239362626, 45827.64754624934, 29688.190482639133, 82826.2442739301, 0.04, 0.9500000000000001, 0.168, 192.0, 0.0, 0.0, 0.0, 0.0, 0.0, 0.0, 0.0, 0.0, 0.0, 1.6665570684659052E9, 0.0, 2022-10-23 13:31:08.465
202.0, -79969.87014649752, -118632.64365585371, 27683.61898465383, 82732.54576117346, 48674.14220263269, 45811.75545594162, 29512.66223343161, 82682.09787393783, 0.04, 0.9460000000000001, 0.164, 192.0, 1.0, 64.0, 29.0, 144.0, 5.0, 32.0, 0.0, 0.0, 0.0, 1.6665570684659204E9, 0.0, 2022-10-23 13:31:08.465
203.0, -79975.59219307808, -118641.8525745693, 27480.553386277366, 82730.15412451675, 48673.695167743586, 45815.68936296575, 29443.796508764808, 82619.13300980724, 0.04, 0.9460000000000001, 0.164, 192.0, 0.0, 0.0, 0.0, 0.0, 0.0, 0.0, 0.0, 0.0, 0.0, 1.666557068465937E9, 0.0, 2022-10-23 13:31:08.465
204.0, -79970.04896045315, -118638.92449604566, 27623.559847302422, 82742.3805287338, 48689.7437202625, 45841.952662700736, 29584.344277899778, 82739.51950544352, 0.04, 0.9460000000000001, 0.164, 192.0, 0.0, 0.0, 0.0, 0.0, 0.0, 0.0, 0.0, 0.0, 0.0, 1.6665570684659517E9, 0.0, 2022-10-23 13:31:08.465
205.0, -79956.01206493522, -118628.44152789612, 27883.868263228927, 82747.16380204723, 48688.44731908409, 45844.389002846365, 29716.331328908367, 82840.88466654834, 0.04, 0.9460000000000001, 0.164, 192.0, 0.0, 0.0, 0.0, 0.0, 0.0, 0.0, 0.0, 0.0, 0.0, 1.6665570684659667E9, 0.0, 2022-10-23 13:31:08.465
206.0, -79946.19964911934, -118618.18207719113, 27756.597430300408, 82755.29983702897, 48697.388016866214, 45840.768020244606, 29571.04498994887, 82722.04044127947, 0.04, 0.9460000000000001, 0.164, 192.0, 0.0, 0.0, 0.0, 0.0, 0.0, 0.0, 0.0, 0.0, 0.0, 1.6665570684661348E9, 0.0, 2022-10-23 13:31:08.466
207.0, -79956.61556203551, -118626.34046391732, 27541.908924807183, 82745.7332904021, 48692.560040063865, 45836.49883705364, 29474.932488791048, 82646.31273106489, 0.04, 0.9460000000000001, 0.164, 192.0, 0.0, 0.0, 0.0, 0.0, 0.0, 0.0, 0.0, 0.0, 0.0, 1.6665570684661508E9, 0.0, 2022-10-23 13:31:08.466
208.0, -79976.30744890064, -118649.51922291747, 27584.533701483455, 82734.15508677425, 48681.16065039166, 45825.27826133707, 29551.218992617014, 82714.15027548674, 0.04, 0.9460000000000001, 0.164, 192.0, 0.0, 0.0, 0.0, 0.0, 0.0, 0.0, 0.0, 0.0, 0.0, 1.6665570684661655E9, 0.0, 2022-10-23 13:31:08.466
209.0, -79980.10724545804, -118652.53670841893, 27870.12194038891, 82731.13760127279, 48674.030443910415, 45821.3667060574, 29704.730773536063, 82836.63783510184, 0.04, 0.9460000000000001, 0.164, 192.0, 0.0, 0.0, 0.0, 0.0, 0.0, 0.0, 0.0, 0.0, 0.0, 1.6665570684661808E9, 0.0, 2022-10-23 13:31:08.466
210.0, -79973.1782046769, -118641.4055396802, 27780.133817211845, 82729.61768264981, 48673.337539832304, 45824.36183981441, 29574.442455106077, 82725.23674073658, 0.04, 0.9460000000000001, 0.164, 192.0, 0.0, 0.0, 0.0, 0.0, 0.0, 0.0, 0.0, 0.0, 0.0, 1.666557068466196E9, 0.0, 2022-10-23 13:31:08.466
211.0, -79958.13548065847, -118630.92257153065, 27540.83604107333, 82737.46314495362, 48688.93905746211, 45843.9196162128, 29442.67892154204, 82621.63640518623, 0.04, 0.9460000000000001, 0.164, 192.0, 0.0, 0.0, 0.0, 0.0, 0.0, 0.0, 0.0, 0.0, 0.0, 1.6665570684662113E9, 0.0, 2022-10-23 13:31:08.466
212.0, -79963.14227141647, -118635.19175472161, 27488.689421259096, 82740.65944441075, 48693.476461586535, 45853.93319772878, 29474.910137046594, 82657.84623120383, 0.038, 0.9400000000000001, 0.17, 192.0, 1.0, 48.0, 29.0, 96.0, 5.0, 80.0, 0.0, 0.0, 0.0, 1.66655706846623E9, 0.0, 2022-10-23 13:31:08.466
213.0, -79963.00816094973, -118633.8059465654, 27769.2038141732, 82737.7313658871, 48688.06733942835, 45850.8710087384, 29641.408281494176, 82797.07524741594, 0.038, 0.9400000000000001, 0.17, 192.0, 0.0, 0.0, 0.0, 0.0, 0.0, 0.0, 0.0, 0.0, 0.0, 1.6665570684662466E9, 0.0, 2022-10-23 13:31:08.466
214.0, -79960.88474522647, -118632.12956573124, 27726.132002607825, 82733.55158967395, 48682.412348081154, 45831.380287573375, 29543.84291694676, 82711.93745278567, 0.038, 0.9400000000000001, 0.17, 192.0, 0.0, 0.0, 0.0, 0.0, 0.0, 0.0, 0.0, 0.0, 0.0, 1.6665570684662614E9, 0.0, 2022-10-23 13:31:08.466
215.0, -79973.4240738659, -118644.69124611512, 27496.06549692935, 82726.13081051479, 48672.287007842904, 45822.841921191444, 29399.83062742122, 82592.95911705006, 0.038, 0.9400000000000001, 0.17, 192.0, 0.0, 0.0, 0.0, 0.0, 0.0, 0.0, 0.0, 0.0, 0.0, 1.6665570684662764E9, 0.0, 2022-10-23 13:31:08.466
216.0, -79984.28702167119, -118660.58333642285, 27384.887920008652, 82717.1230574993, 48669.89537118618, 45821.25494733512, 29405.95500540197, 82595.57427115134, 0.038, 0.9400000000000001, 0.17, 192.0, 0.0, 0.0, 0.0, 0.0, 0.0, 0.0, 0.0, 0.0, 0.0, 1.6665570684662936E9, 0.0, 2022-10-23 13:31:08.466
217.0, -79984.64464958246, -118663.5561184354, 27694.683098159207, 82717.19011273267, 48672.354063076265, 45833.973089930194, 29616.463734682053, 82767.07920635691, 0.038, 0.9400000000000001, 0.17, 192.0, 0.0, 0.0, 0.0, 0.0, 0.0, 0.0, 0.0, 0.0, 0.0, 1.6665570684663086E9, 0.0, 2022-10-23 13:31:08.466
218.0, -79971.77004477622, -118648.17811825016, 27731.76464221056, 82721.03461277898, 48671.68351074261, 45829.078057894476, 29575.33652488429, 82727.33780471538, 0.038, 0.9400000000000001, 0.17, 192.0, 0.0, 0.0, 0.0, 0.0, 0.0, 0.0, 0.0, 0.0, 0.0, 1.6665570684663236E9, 0.0, 2022-10-23 13:31:08.466
219.0, -79969.55722207513, -118645.87588857126, 27495.35024110678, 82719.69350811167, 48665.7379467175, 45823.98186015867, 29398.2883570538, 82586.9912012805, 0.038, 0.9400000000000001, 0.17, 192.0, 0.0, 0.0, 0.0, 0.0, 0.0, 0.0, 0.0, 0.0, 0.0, 1.6665570684663384E9, 0.0, 2022-10-23 13:31:08.466
220.0, -79961.44353883786, -118637.04694951141, 27342.017274143374, 82727.80719134894, 48671.41528980915, 45835.291842853054, 29384.81025514725, 82579.81629131034, 0.038, 0.9400000000000001, 0.17, 192.0, 0.0, 0.0, 0.0, 0.0, 0.0, 0.0, 0.0, 0.0, 0.0, 1.6665570684663532E9, 0.0, 2022-10-23 13:31:08.466
221.0, -79963.70106502785, -118642.2102024806, 27581.024477603973, 82728.70126112715, 48671.661158998155, 45850.15575291583, 29565.45705383504, 82729.59533090536, 0.038, 0.9400000000000001, 0.17, 192.0, 0.0, 0.0, 0.0, 0.0, 0.0, 0.0, 0.0, 0.0, 0.0, 1.666557068466414E9, 0.0, 2022-10-23 13:31:08.466
222.0, -79969.53487033068, -118651.50852817399, 27699.622833683832, 82730.26588323903, 48669.82831595282, 45844.232540635174, 29590.982746003003, 82736.2337990086, 0.05, 0.9420000000000001, 0.176, 192.0, 1.0, 144.0, 29.0, 112.0, 5.0, 128.0, 0.0, 0.0, 0.0, 1.6665570684664316E9, 0.0, 2022-10-23 13:31:08.466
223.0, -79965.71272202882, -118650.63681014023, 27493.182121894613, 82737.06081355344, 48681.29476085839, 45847.36178485892, 29418.851961952685, 82596.80361709639, 0.05, 0.9420000000000001, 0.176, 192.0, 0.0, 0.0, 0.0, 0.0, 0.0, 0.0, 0.0, 0.0, 0.0, 1.666557068466448E9, 0.0, 2022-10-23 13:31:08.466
224.0, -79966.51738482922, -118651.19560375162, 27299.280738744827, 82733.23866525159, 48681.18300213612, 45846.24419763615, 29370.37102822912, 82557.59865732178, 0.05, 0.9420000000000001, 0.176, 192.0, 0.0, 0.0, 0.0, 0.0, 0.0, 0.0, 0.0, 0.0, 0.0, 1.666557068466463E9, 0.0, 2022-10-23 13:31:08.466
225.0, -79971.54652733167, -118656.18004276515, 27466.80706343735, 82731.11524952833, 48679.39486257969, 45853.3744041174, 29518.138410823158, 82684.22128966109, 0.05, 0.9420000000000001, 0.176, 192.0, 0.0, 0.0, 0.0, 0.0, 0.0, 0.0, 0.0, 0.0, 0.0, 1.6665570684664905E9, 0.0, 2022-10-23 13:31:08.466
226.0, -79971.99356222077, -118656.00122880952, 27674.47712117161, 82720.02878427849, 48673.337539832304, 45843.94196795726, 29613.803877091872, 82755.4339474957, 0.05, 0.9420000000000001, 0.176, 192.0, 0.0, 0.0, 0.0, 0.0, 0.0, 0.0, 0.0, 0.0, 0.0, 1.66655706846651E9, 0.0, 2022-10-23 13:31:08.466
227.0, -79959.9236202149, -118643.86423157027, 27514.840962271806, 82724.9238163142, 48679.32780734632, 45843.69609876825, 29455.709988559483, 82625.81618139938, 0.05, 0.9420000000000001, 0.176, 192.0, 0.0, 0.0, 0.0, 0.0, 0.0, 0.0, 0.0, 0.0, 0.0, 1.6665570684665253E9, 0.0, 2022-10-23 13:31:08.466
228.0, -79957.35316960255, -118640.28795245742, 27294.45276194248, 82732.8810373403, 48687.55324930588, 45858.20238091974, 29372.069760807724, 82559.61031432275, 0.05, 0.9420000000000001, 0.176, 192.0, 0.0, 0.0, 0.0, 0.0, 0.0, 0.0, 0.0, 0.0, 0.0, 1.6665570684665399E9, 0.0, 2022-10-23 13:31:08.466
229.0, -79963.56695456112, -118649.36276070628, 27393.001603245928, 82733.41747920722, 48685.89922021618, 45860.683424554285, 29489.192901753537, 82661.89189695024, 0.05, 0.9420000000000001, 0.176, 192.0, 0.0, 0.0, 0.0, 0.0, 0.0, 0.0, 0.0, 0.0, 0.0, 1.6665570684665546E9, 0.0, 2022-10-23 13:31:08.466
230.0, -79967.56791681862, -118652.73787411903, 27659.635562853287, 82723.44860118015, 48674.43277531061, 45844.50076156864, 29626.164391775656, 82769.1355668468, 0.05, 0.9420000000000001, 0.176, 192.0, 0.0, 0.0, 0.0, 0.0, 0.0, 0.0, 0.0, 0.0, 0.0, 1.6665570684665706E9, 0.0, 2022-10-23 13:31:08.466
231.0, -79962.56112606062, -118646.23351648255, 27542.802994585396, 82723.35919420233, 48671.459993298056, 45837.34820334294, 29479.17932023756, 82646.11156536479, 0.06, 0.9480000000000001, 0.17, 192.0, 1.0, 224.0, 29.0, 160.0, 5.0, 80.0, 0.0, 0.0, 0.0, 1.6665570684665854E9, 0.0, 2022-10-23 13:31:08.466
232.0, -79961.15296615993, -118644.8030048374, 27337.770442696863, 82729.9306070722, 48678.098461401285, 45851.20628490523, 29386.598394703677, 82572.50727087347, 0.06, 0.9480000000000001, 0.17, 192.0, 0.0, 0.0, 0.0, 0.0, 0.0, 0.0, 0.0, 0.0, 0.0, 1.6665570684666011E9, 0.0, 2022-10-23 13:31:08.466
233.0, -79961.46589058232, -118645.89824031571, 27363.385541842646, 82736.36790947532, 48687.6426562837, 45866.964264746224, 29465.321238675268, 82641.41769902917, 0.06, 0.9480000000000001, 0.17, 192.0, 0.0, 0.0, 0.0, 0.0, 0.0, 0.0, 0.0, 0.0, 0.0, 1.6665570684666183E9, 0.0, 2022-10-23 13:31:08.466
234.0, -79968.57374531911, -118652.11202527428, 27667.6821908572, 82728.09776402685, 48680.22187712454, 45864.19264843377, 29640.447156482598, 82775.39405529428, 0.06, 0.9480000000000001, 0.17, 192.0, 0.0, 0.0, 0.0, 0.0, 0.0, 0.0, 0.0, 0.0, 0.0, 1.666557068466633E9, 0.0, 2022-10-23 13:31:08.466
235.0, -79968.05965519663, -118652.35789446329, 27616.45199256563, 82723.58271164689, 48670.94590317558, 45849.30638662653, 29534.343425553256, 82677.85104249133, 0.06, 0.9480000000000001, 0.17, 192.0, 0.0, 0.0, 0.0, 0.0, 0.0, 0.0, 0.0, 0.0, 0.0, 1.666557068466648E9, 0.0, 2022-10-23 13:31:08.466
236.0, -79962.38231210498, -118648.1557665057, 27393.02395499038, 82728.61185414933, 48674.16455437715, 45849.52990407108, 29400.992918132895, 82569.82506153882, 0.06, 0.9480000000000001, 0.17, 192.0, 0.0, 0.0, 0.0, 0.0, 0.0, 0.0, 0.0, 0.0, 0.0, 1.6665570684666626E9, 0.0, 2022-10-23 13:31:08.466
237.0, -79969.44546335287, -118655.84476659833, 27334.149460095105, 82726.24256923707, 48675.05862415536, 45852.79325876156, 29435.459308082976, 82599.06114328637, 0.06, 0.9480000000000001, 0.17, 192.0, 0.0, 0.0, 0.0, 0.0, 0.0, 0.0, 0.0, 0.0, 0.0, 1.666557068466694E9, 0.0, 2022-10-23 13:31:08.466
238.0, -79968.30552438564, -118657.29762998792, 27630.175963661193, 82727.85189483785, 48669.425984552625, 45851.42980234978, 29619.928255072628, 82747.58848519188, 0.06, 0.9480000000000001, 0.17, 192.0, 0.0, 0.0, 0.0, 0.0, 0.0, 0.0, 0.0, 0.0, 0.0, 1.6665570684667087E9, 0.0, 2022-10-23 13:31:08.466
239.0, -79967.7243790298, -118658.57167942188, 27644.011693479028, 82721.86162732383, 48656.79724893538, 45832.3190608405, 29558.304495609344, 82685.20476641713, 0.06, 0.9480000000000001, 0.17, 192.0, 0.0, 0.0, 0.0, 0.0, 0.0, 0.0, 0.0, 0.0, 0.0, 1.6665570684667232E9, 0.0, 2022-10-23 13:31:08.466
240.0, -79963.87987898348, -118654.86128984229, 27431.200734520047, 82726.1755140037, 48660.99937689297, 45837.884645209866, 29411.230017093425, 82567.43342488211, 0.06, 0.9480000000000001, 0.17, 192.0, 0.0, 0.0, 0.0, 0.0, 0.0, 0.0, 0.0, 0.0, 0.0, 1.666557068466738E9, 0.0, 2022-10-23 13:31:08.466
241.0, -79965.06452143962, -118655.80006310942, 27311.50714296188, 82731.49522918406, 48671.34823457578, 45850.826305249495, 29410.604168248676, 82572.77549180693, 0.052000000000000005, 0.9460000000000001, 0.168, 192.0, 1.0, 160.0, 29.0, 144.0, 5.0, 64.0, 0.0, 0.0, 0.0, 1.6665570684667528E9, 0.0, 2022-10-23 13:31:08.466
242.0, -79980.1295972025, -118665.4113132252, 27612.629844263774, 82729.03653729399, 48668.084879885304, 45858.26943615311, 29618.09541202729, 82744.72746190161, 0.052000000000000005, 0.9460000000000001, 0.168, 192.0, 0.0, 0.0, 0.0, 0.0, 0.0, 0.0, 0.0, 0.0, 0.0, 1.6665570684667687E9, 0.0, 2022-10-23 13:31:08.466
243.0, -79973.80405352164, -118657.81172011039, 27698.4381912277, 82728.34363321586, 48661.044080381886, 45848.03233719258, 29609.84761832328, 82724.25326398054, 0.052000000000000005, 0.9460000000000001, 0.168, 192.0, 0.0, 0.0, 0.0, 0.0, 0.0, 0.0, 0.0, 0.0, 0.0, 1.6665570684667835E9, 0.0, 2022-10-23 13:31:08.466
244.0, -79969.04313195267, -118656.85059509882, 27495.21613064005, 82726.6225488928, 48652.05867911085, 45835.6718225088, 29449.54090708982, 82592.60148913879, 0.052000000000000005, 0.9460000000000001, 0.168, 192.0, 0.0, 0.0, 0.0, 0.0, 0.0, 0.0, 0.0, 0.0, 0.0, 1.6665570684667983E9, 0.0, 2022-10-23 13:31:08.466
245.0, -79969.53487033068, -118655.88947008723, 27304.30988124727, 82724.43207793619, 48648.795324420375, 45830.687383495264, 29396.90254889757, 82550.11082292924, 0.052000000000000005, 0.9460000000000001, 0.168, 192.0, 0.0, 0.0, 0.0, 0.0, 0.0, 0.0, 0.0, 0.0, 0.0, 1.6665570684668145E9, 0.0, 2022-10-23 13:31:08.466
246.0, -79979.43669312439, -118666.08186555885, 27549.173241755158, 82725.5273134145, 48655.8361239238, 45852.1227064279, 29585.79714128937, 82708.24941495055, 0.052000000000000005, 0.9460000000000001, 0.168, 192.0, 0.0, 0.0, 0.0, 0.0, 0.0, 0.0, 0.0, 0.0, 0.0, 1.6665570684668293E9, 0.0, 2022-10-23 13:31:08.466
247.0, -79986.81276879464, -118675.00021159652, 27703.80260989697, 82714.15027548674, 48641.08397258329, 45838.95752894373, 29626.633778409217, 82728.0754122824, 0.052000000000000005, 0.9460000000000001, 0.168, 192.0, 0.0, 0.0, 0.0, 0.0, 0.0, 0.0, 0.0, 0.0, 0.0, 1.6665570684668443E9, 0.0, 2022-10-23 13:31:08.466
248.0, -79976.66507681193, -118666.75241789251, 27541.618352129266, 82713.65853710873, 48646.64955695267, 45833.21313061871, 29474.463102157486, 82601.8998148322, 0.052000000000000005, 0.9460000000000001, 0.168, 192.0, 0.0, 0.0, 0.0, 0.0, 0.0, 0.0, 0.0, 0.0, 0.0, 1.666557068466859E9, 0.0, 2022-10-23 13:31:08.466
249.0, -79962.44936733835, -118650.81562409588, 27372.393294858135, 82728.70126112715, 48662.60870249375, 45847.78646800357, 29432.24065688141, 82568.6404190827, 0.052000000000000005, 0.9460000000000001, 0.168, 192.0, 0.0, 0.0, 0.0, 0.0, 0.0, 0.0, 0.0, 0.0, 0.0, 1.666557068466874E9, 0.0, 2022-10-23 13:31:08.466
250.0, -79967.79143426317, -118651.01678979598, 27505.028546455927, 82730.28823498348, 48666.29674032888, 45856.30248264104, 29548.93911468257, 82672.37486509977, 0.052000000000000005, 0.9460000000000001, 0.168, 192.0, 0.0, 0.0, 0.0, 0.0, 0.0, 0.0, 0.0, 0.0, 0.0, 1.6665570684668891E9, 0.0, 2022-10-23 13:31:08.466
251.0, -79972.93233548789, -118655.08480728684, 27741.10767139288, 82724.16385700273, 48660.84291468179, 45854.380232617885, 29657.97092413556, 82753.62345619482, 0.044, 0.9480000000000001, 0.166, 192.0, 1.0, 96.0, 29.0, 160.0, 5.0, 48.0, 0.0, 0.0, 0.0, 1.666557068466904E9, 0.0, 2022-10-23 13:31:08.466
252.0, -79971.63593430948, -118656.44826369862, 27606.17019011619, 82720.34170870087, 48653.31037680035, 45839.717488255206, 29505.777896139374, 82621.47994297504, 0.044, 0.9480000000000001, 0.166, 192.0, 0.0, 0.0, 0.0, 0.0, 0.0, 0.0, 0.0, 0.0, 0.0, 1.6665570684669592E9, 0.0, 2022-10-23 13:31:08.466
253.0, -79966.74090227377, -118650.41329269568, 27399.461257393512, 82727.60602564884, 48660.28412107041, 45847.473543581196, 29419.433107308523, 82551.16135491864, 0.044, 0.9480000000000001, 0.166, 192.0, 0.0, 0.0, 0.0, 0.0, 0.0, 0.0, 0.0, 0.0, 0.0, 1.666557068466975E9, 0.0, 2022-10-23 13:31:08.466
254.0, -79975.9274692449, -118655.46478694258, 27455.76530167643, 82725.68377562569, 48666.29674032888, 45865.95843624573, 29507.297814762333, 82629.28070178995, 0.044, 0.9480000000000001, 0.166, 192.0, 0.0, 0.0, 0.0, 0.0, 0.0, 0.0, 0.0, 0.0, 0.0, 1.666557068466992E9, 0.0, 2022-10-23 13:31:08.466
255.0, -79985.73988506079, -118663.64552541323, 27757.379741356344, 82710.32812718488, 48650.67287095462, 45859.31996814251, 29675.472340044063, 82759.77018592003, 0.044, 0.9480000000000001, 0.166, 192.0, 0.0, 0.0, 0.0, 0.0, 0.0, 0.0, 0.0, 0.0, 0.0, 1.6665570684670067E9, 0.0, 2022-10-23 13:31:08.467
0.0, -79965.35509411753, -118645.56296414888, 27659.076769241903, 82722.88980756878, 48659.59121699229, 45858.35884313093, 29540.579562256287, 82643.92109440817, 0.044, 0.9480000000000001, 0.166, 192.0, 0.0, 0.0, 0.0, 0.0, 0.0, 0.0, 0.0, 0.0, 0.0, 1.6665570684670217E9, 0.0, 2022-10-23 13:31:08.467
1.0, -79963.94693421686, -118642.88075481425, 27426.32805422879, 82724.70029886965, 48669.78361246391, 45856.68246229678, 29414.87335143964, 82545.17108740463, 0.044, 0.9480000000000001, 0.166, 192.0, 0.0, 0.0, 0.0, 0.0, 0.0, 0.0, 0.0, 0.0, 0.0, 1.666557068467036E9, 0.0, 2022-10-23 13:31:08.467
2.0, -79974.83223376659, -118654.23544099754, 27427.222124007003, 82722.28631046848, 48669.738908975, 45857.88945649737, 29481.92858480556, 82607.44304745711, 0.044, 0.9480000000000001, 0.166, 192.0, 0.0, 0.0, 0.0, 0.0, 0.0, 0.0, 0.0, 0.0, 0.0, 1.6665570684670508E9, 0.0, 2022-10-23 13:31:08.467
3.0, -79981.00131523625, -118659.3092869889, 27761.738331525128, 82718.68767961118, 48668.174286863126, 45866.472526368205, 29685.329459348854, 82774.1870610937, 0.044, 0.9480000000000001, 0.166, 192.0, 0.0, 0.0, 0.0, 0.0, 0.0, 0.0, 0.0, 0.0, 0.0, 1.6665570684670658E9, 0.0, 2022-10-23 13:31:08.467
4.0, -79965.31039062863, -118643.99834203701, 27734.402148056288, 82719.53704590048, 48666.63201649571, 45855.45311635174, 29594.00023150447, 82692.69260080965, 0.044, 0.9480000000000001, 0.166, 192.0, 0.0, 0.0, 0.0, 0.0, 0.0, 0.0, 0.0, 0.0, 0.0, 1.6665570684670804E9, 0.0, 2022-10-23 13:31:08.467
5.0, -79965.71272202882, -118643.08192051435, 27507.35312787928, 82718.66532786672, 48658.093650113784, 45841.527979556085, 29442.96949421996, 82573.2895819294, 0.046, 0.9460000000000001, 0.158, 192.0, 1.0, 112.0, 29.0, 144.0, 4.0, 240.0, 0.0, 0.0, 0.0, 1.6665570684670951E9, 0.0, 2022-10-23 13:31:08.467
6.0, -79977.24622216776, -118656.40356020971, 27422.595312904756, 82717.43598192168, 48657.71367045804, 45852.88266573938, 29457.92281126056, 82589.20402398158, 0.046, 0.9460000000000001, 0.158, 192.0, 0.0, 0.0, 0.0, 0.0, 0.0, 0.0, 0.0, 0.0, 0.0, 1.666557068467111E9, 0.0, 2022-10-23 13:31:08.467
7.0, -79977.64855356795, -118658.43756895514, 27736.860839946374, 82721.34753720135, 48661.84874318227, 45870.98757874818, 29660.96605789257, 82754.65163643977, 0.046, 0.9460000000000001, 0.158, 192.0, 0.0, 0.0, 0.0, 0.0, 0.0, 0.0, 0.0, 0.0, 0.0, 1.666557068467126E9, 0.0, 2022-10-23 13:31:08.467
8.0, -79975.48043435579, -118651.12854851826, 27776.82575903246, 82720.40876393423, 48653.51154250045, 45862.628026321894, 29616.01669979295, 82708.94231902866, 0.046, 0.9460000000000001, 0.158, 192.0, 0.0, 0.0, 0.0, 0.0, 0.0, 0.0, 0.0, 0.0, 0.0, 1.6665570684671383E9, 0.0, 2022-10-23 13:31:08.467
9.0, -79979.50374835775, -118652.91668807468, 27590.12163759728, 82719.09001101137, 48655.076164612314, 45859.43172686479, 29476.094779502724, 82597.80944559687, 0.046, 0.9460000000000001, 0.158, 192.0, 0.0, 0.0, 0.0, 0.0, 0.0, 0.0, 0.0, 0.0, 0.0, 1.666557068467151E9, 0.0, 2022-10-23 13:31:08.467
10.0, -79980.3754663915, -118655.46478694258, 27470.360990805744, 82722.8227523354, 48663.748641460974, 45866.964264746224, 29472.02676201186, 82595.1942914956, 0.046, 0.9460000000000001, 0.158, 192.0, 0.0, 0.0, 0.0, 0.0, 0.0, 0.0, 0.0, 0.0, 0.0, 1.6665570684671633E9, 0.0, 2022-10-23 13:31:08.467
11.0, -79979.2802309132, -118653.25196424151, 27736.39145331281, 82722.53217965749, 48664.57565600582, 45872.73101481569, 29651.667732199163, 82740.41357522173, 0.046, 0.9460000000000001, 0.158, 192.0, 0.0, 0.0, 0.0, 0.0, 0.0, 0.0, 0.0, 0.0, 0.0, 1.666557068467176E9, 0.0, 2022-10-23 13:31:08.467
12.0, -79979.50374835775, -118653.87781308626, 27878.056809670546, 82715.87135980981, 48653.01980412243, 45858.157677430834, 29681.909642447194, 82749.64484568177, 0.046, 0.9460000000000001, 0.158, 192.0, 0.0, 0.0, 0.0, 0.0, 0.0, 0.0, 0.0, 0.0, 0.0, 1.6665570684672265E9, 0.0, 2022-10-23 13:31:08.467
13.0, -79976.64272506748, -118654.39190320873, 27735.20681085668, 82717.52538889949, 48645.35315577426, 45862.002177477145, 29552.291876350868, 82639.22722807256, 0.046, 0.9460000000000001, 0.158, 192.0, 0.0, 0.0, 0.0, 0.0, 0.0, 0.0, 0.0, 0.0, 0.0, 1.6665570684672391E9, 0.0, 2022-10-23 13:31:08.467
14.0, -79966.58444006258, -118644.17715599266, 27598.525893512477, 82734.35625247435, 48661.62522573772, 45893.51813715913, 29527.41438477211, 82615.91435860567, 0.048, 0.9460000000000001, 0.154, 192.0, 1.0, 128.0, 29.0, 144.0, 4.0, 208.0, 0.0, 0.0, 0.0, 1.6665570684672575E9, 0.0, 2022-10-23 13:31:08.467
15.0, -79984.89051877148, -118661.9020893457, 27806.93355881376, 82724.45442968064, 48661.71463271554, 45891.90881155834, 29673.661848743184, 82736.14439203076, 0.048, 0.9460000000000001, 0.154, 192.0, 0.0, 0.0, 0.0, 0.0, 0.0, 0.0, 0.0, 0.0, 0.0, 1.666557068467271E9, 0.0, 2022-10-23 13:31:08.467
16.0, -79987.55037636166, -118662.41617946819, 28022.516134085196, 82715.17845573169, 48647.07424009732, 45866.98661649068, 29751.244753747556, 82783.55244202047, 0.048, 0.9460000000000001, 0.154, 192.0, 0.0, 0.0, 0.0, 0.0, 0.0, 0.0, 0.0, 0.0, 0.0, 1.6665570684672837E9, 0.0, 2022-10-23 13:31:08.467
17.0, -79983.70587631535, -118656.78353986544, 27876.738056747683, 82721.10166801234, 48654.49501925648, 45860.70577629874, 29590.75922855845, 82649.15140261072, 0.048, 0.9460000000000001, 0.154, 192.0, 0.0, 0.0, 0.0, 0.0, 0.0, 0.0, 0.0, 0.0, 0.0, 1.6665570684672973E9, 0.0, 2022-10-23 13:31:08.467
18.0, -79985.89634727196, -118655.17421426467, 27685.697696888175, 82719.17941798919, 48661.379356548714, 45868.19361069127, 29516.50673347792, 82587.5946983808, 0.048, 0.9460000000000001, 0.154, 192.0, 0.0, 0.0, 0.0, 0.0, 0.0, 0.0, 0.0, 0.0, 0.0, 1.6665570684673104E9, 0.0, 2022-10-23 13:31:08.467
19.0, -79980.7777977917, -118654.03427529744, 27817.70709964122, 82735.2279705081, 48676.82441196733, 45897.36263720544, 29641.0953570718, 82695.59832758884, 0.048, 0.9460000000000001, 0.154, 192.0, 0.0, 0.0, 0.0, 0.0, 0.0, 0.0, 0.0, 0.0, 0.0, 1.6665570684673228E9, 0.0, 2022-10-23 13:31:08.467
20.0, -79973.69229479937, -118645.56296414888, 28071.153530019943, 82731.91991232871, 48669.40363280817, 45895.082759271, 29755.290419493966, 82782.74777922008, 0.048, 0.9460000000000001, 0.154, 192.0, 0.0, 0.0, 0.0, 0.0, 0.0, 0.0, 0.0, 0.0, 0.0, 1.666557068467337E9, 0.0, 2022-10-23 13:31:08.467
21.0, -79977.8273675236, -118651.1061967738, 27933.37737719743, 82716.51956039901, 48652.72923144451, 45870.74170955917, 29588.747571557473, 82641.9094374072, 0.048, 0.9460000000000001, 0.154, 192.0, 0.0, 0.0, 0.0, 0.0, 0.0, 0.0, 0.0, 0.0, 0.0, 1.6665570684673495E9, 0.0, 2022-10-23 13:31:08.467
22.0, -79997.87688230001, -118675.1119703188, 27716.81132516996, 82692.78200778748, 48627.829388121296, 45843.65139527934, 29478.59817488172, 82549.55202931787, 0.048, 0.9460000000000001, 0.154, 192.0, 0.0, 0.0, 0.0, 0.0, 0.0, 0.0, 0.0, 0.0, 0.0, 1.666557068467362E9, 0.0, 2022-10-23 13:31:08.467
23.0, -79994.97115552082, -118670.4628074721, 27773.048314219515, 82704.29315618196, 48641.799228405864, 45862.38215713289, 29568.653353292153, 82631.27000704646, 0.048, 0.9460000000000001, 0.154, 192.0, 0.0, 0.0, 0.0, 0.0, 0.0, 0.0, 0.0, 0.0, 0.0, 1.6665570684673748E9, 0.0, 2022-10-23 13:31:08.467
24.0, -79996.26755669923, -118672.09448481734, 28109.17384733842, 82701.70035382514, 48641.70982142804, 45862.38215713289, 29756.385654972277, 82781.87606118633, 0.054, 0.9500000000000001, 0.152, 192.0, 1.0, 176.0, 29.0, 176.0, 4.0, 192.0, 0.0, 0.0, 0.0, 1.6665570684673872E9, 0.0, 2022-10-23 13:31:08.467
25.0, -79980.5766320916, -118654.54836541992, 28047.058349497125, 82708.025897506, 48645.1296383297, 45856.01190996313, 29634.032205823925, 82674.25241163402, 0.054, 0.9500000000000001, 0.152, 192.0, 0.0, 0.0, 0.0, 0.0, 0.0, 0.0, 0.0, 0.0, 0.0, 1.6665570684674015E9, 0.0, 2022-10-23 13:31:08.467
26.0, -79982.2753646702, -118651.97791480756, 27821.193971776247, 82712.54094988597, 48649.3317662873, 45857.822401264006, 29496.501922190422, 82563.96890449154, 0.054, 0.9500000000000001, 0.152, 192.0, 0.0, 0.0, 0.0, 0.0, 0.0, 0.0, 0.0, 0.0, 0.0, 1.666557068467414E9, 0.0, 2022-10-23 13:31:08.467
27.0, -79989.65144034046, -118660.24806025602, 27776.892814265826, 82716.05017376544, 48653.64565296718, 45868.68534906928, 29529.69426270655, 82595.35075370679, 0.054, 0.9500000000000001, 0.152, 192.0, 0.0, 0.0, 0.0, 0.0, 0.0, 0.0, 0.0, 0.0, 0.0, 1.6665570684674268E9, 0.0, 2022-10-23 13:31:08.467
28.0, -80001.25199571277, -118672.69798191762, 28104.301167047164, 82711.93745278567, 48652.237493066496, 45872.641607837875, 29726.099041235335, 82750.36010150434, 0.054, 0.9500000000000001, 0.152, 192.0, 0.0, 0.0, 0.0, 0.0, 0.0, 0.0, 0.0, 0.0, 0.0, 1.666557068467453E9, 0.0, 2022-10-23 13:31:08.467
29.0, -79994.85939679855, -118664.22667076906, 28098.065030344133, 82714.08322025338, 48652.0363273664, 45866.24900892365, 29643.419938495153, 82670.58672554335, 0.054, 0.9500000000000001, 0.152, 192.0, 0.0, 0.0, 0.0, 0.0, 0.0, 0.0, 0.0, 0.0, 0.0, 1.6665570684674659E9, 0.0, 2022-10-23 13:31:08.467
30.0, -79981.71657105883, -118651.03914154043, 27894.440638356285, 82723.51565641352, 48664.21802809454, 45878.430709651795, 29504.570901938787, 82562.56074459085, 0.054, 0.9500000000000001, 0.152, 192.0, 0.0, 0.0, 0.0, 0.0, 0.0, 0.0, 0.0, 0.0, 0.0, 1.666557068467478E9, 0.0, 2022-10-23 13:31:08.467
31.0, -79983.2811931707, -118654.03427529744, 27775.484654365144, 82723.38154594679, 48666.05087113987, 45880.21884920822, 29496.59132916824, 82558.47037535554, 0.054, 0.9500000000000001, 0.152, 192.0, 0.0, 0.0, 0.0, 0.0, 0.0, 0.0, 0.0, 0.0, 0.0, 1.6665570684674904E9, 0.0, 2022-10-23 13:31:08.467
32.0, -79993.02655375321, -118662.66204865719, 28069.566556163616, 82719.35823194483, 48661.75933620445, 45886.2314684667, 29686.715267505082, 82716.89954005474, 0.054, 0.9500000000000001, 0.152, 192.0, 0.0, 0.0, 0.0, 0.0, 0.0, 0.0, 0.0, 0.0, 0.0, 1.6665570684675028E9, 0.0, 2022-10-23 13:31:08.467
33.0, -79987.10334147255, -118657.11881603228, 28142.701464021382, 82713.21150221962, 48654.00328087846, 45878.20719220724, 29664.430578283143, 82688.31165889642, 0.054, 0.9500000000000001, 0.152, 192.0, 0.0, 0.0, 0.0, 0.0, 0.0, 0.0, 0.0, 0.0, 0.0, 1.6665570684675152E9, 0.0, 2022-10-23 13:31:08.467
34.0, -79983.77293154871, -118656.6047259098, 27935.23257198722, 82716.38544993228, 48658.63009198071, 45877.13430847339, 29500.74875363693, 82554.3353026313, 0.06, 0.9540000000000001, 0.15, 192.0, 1.0, 224.0, 29.0, 208.0, 4.0, 176.0, 0.0, 0.0, 0.0, 1.6665570684675276E9, 0.0, 2022-10-23 13:31:08.467
35.0, -79989.629088596, -118663.69022890214, 27767.505081594598, 82716.76542958802, 48659.05477512536, 45880.37531141941, 29465.611811353185, 82523.6240057497, 0.06, 0.9540000000000001, 0.15, 192.0, 0.0, 0.0, 0.0, 0.0, 0.0, 0.0, 0.0, 0.0, 0.0, 1.666557068467541E9, 0.0, 2022-10-23 13:31:08.467
36.0, -79994.6805828429, -118666.84182487034, 27976.717409696274, 82713.59148187537, 48658.87596116972, 45885.292695199576, 29617.491914927, 82652.68297823465, 0.06, 0.9540000000000001, 0.15, 192.0, 0.0, 0.0, 0.0, 0.0, 0.0, 0.0, 0.0, 0.0, 0.0, 1.6665570684675536E9, 0.0, 2022-10-23 13:31:08.467
37.0, -79979.70491405785, -118653.63194389724, 28133.24667611679, 82719.51469415602, 48661.446411782075, 45883.16927947632, 29669.705589974594, 82686.88114725128, 0.06, 0.9540000000000001, 0.15, 192.0, 0.0, 0.0, 0.0, 0.0, 0.0, 0.0, 0.0, 0.0, 0.0, 1.6665570684675665E9, 0.0, 2022-10-23 13:31:08.467
38.0, -79986.65630658345, -118662.59499342383, 27921.396842169386, 82720.76639184552, 48654.897350656676, 45877.42488115131, 29491.338669221244, 82534.86693321072, 0.06, 0.9540000000000001, 0.15, 192.0, 0.0, 0.0, 0.0, 0.0, 0.0, 0.0, 0.0, 0.0, 0.0, 1.666557068467579E9, 0.0, 2022-10-23 13:31:08.467
39.0, -79992.89244328647, -118663.77963587995, 27648.638504581275, 82716.94424354366, 48655.21027507905, 45880.71058758624, 29394.309746540755, 82448.23157170195, 0.06, 0.9540000000000001, 0.15, 192.0, 0.0, 0.0, 0.0, 0.0, 0.0, 0.0, 0.0, 0.0, 0.0, 1.6665570684675925E9, 0.0, 2022-10-23 13:31:08.467
40.0, -80002.45898991334, -118676.90010987522, 27753.043502932014, 82709.81403706242, 48646.828370908304, 45879.548296874564, 29511.209370042012, 82549.32851187332, 0.06, 0.9540000000000001, 0.15, 192.0, 0.0, 0.0, 0.0, 0.0, 0.0, 0.0, 0.0, 0.0, 0.0, 1.6665570684676049E9, 0.0, 2022-10-23 13:31:08.467
41.0, -80000.31322244563, -118674.32965926286, 27950.47646170574, 82708.4729323951, 48643.05092609536, 45880.37531141941, 29604.304385698368, 82622.9551581091, 0.06, 0.9540000000000001, 0.15, 192.0, 0.0, 0.0, 0.0, 0.0, 0.0, 0.0, 0.0, 0.0, 0.0, 1.6665570684676187E9, 0.0, 2022-10-23 13:31:08.467
42.0, -79989.7855508072, -118665.23249926955, 27796.5623493865, 82712.94328128616, 48645.375507518715, 45876.955494517744, 29456.15702344859, 82505.60849971873, 0.06, 0.9540000000000001, 0.15, 192.0, 0.0, 0.0, 0.0, 0.0, 0.0, 0.0, 0.0, 0.0, 0.0, 1.666557068467631E9, 0.0, 2022-10-23 13:31:08.467
43.0, -79993.27242294222, -118668.2052812821, 27567.50167220851, 82710.52929288498, 48645.91194938564, 45879.213020707735, 29368.13585378359, 82439.44733613102, 0.064, 0.96, 0.154, 192.0, 2.0, 0.0, 30.0, 0.0, 4.0, 208.0, 0.0, 0.0, 0.0, 1.6665570684676554E9, 0.0, 2022-10-23 13:31:08.467
44.0, -80005.78939983719, -118681.54927272192, 27638.535516087475, 82704.20374920414, 48644.77201041842, 45879.548296874564, 29473.144349234626, 82533.21290412104, 0.064, 0.96, 0.154, 192.0, 0.0, 0.0, 0.0, 0.0, 0.0, 0.0, 0.0, 0.0, 0.0, 1.6665570684676685E9, 0.0, 2022-10-23 13:31:08.467
45.0, -80005.40942018144, -118683.04683960043, 27882.594213794975, 82700.98509800257, 48635.026649835905, 45868.66299732483, 29600.884568796704, 82635.42743151516, 0.064, 0.96, 0.154, 192.0, 0.0, 0.0, 0.0, 0.0, 0.0, 0.0, 0.0, 0.0, 0.0, 1.6665570684676812E9, 0.0, 2022-10-23 13:31:08.467
46.0, -79993.65240259796, -118669.72519990506, 27770.88019500735, 82706.99771726105, 48640.10049582726, 45860.191686176266, 29466.818805553772, 82532.09531689827, 0.064, 0.96, 0.154, 192.0, 0.0, 0.0, 0.0, 0.0, 0.0, 0.0, 0.0, 0.0, 0.0, 1.666557068467694E9, 0.0, 2022-10-23 13:31:08.467
47.0, -79993.94297527587, -118670.79808363892, 27540.25489571749, 82713.12209524181, 48645.59902496327, 45868.707700813735, 29356.401187944557, 82449.41621415809, 0.064, 0.96, 0.154, 192.0, 0.0, 0.0, 0.0, 0.0, 0.0, 0.0, 0.0, 0.0, 0.0, 1.6665570684677067E9, 0.0, 2022-10-23 13:31:08.467
48.0, -80004.40359168097, -118683.60563321182, 27540.83604107333, 82708.83056030638, 48646.04605985237, 45882.16345097583, 29429.670206269053, 82515.7785434459, 0.064, 0.96, 0.154, 192.0, 0.0, 0.0, 0.0, 0.0, 0.0, 0.0, 0.0, 0.0, 0.0, 1.666557068467719E9, 0.0, 2022-10-23 13:31:08.467
49.0, -80012.71844061834, -118691.764019938, 27842.830460408983, 82699.53223461297, 48636.90419637015, 45883.43750040978, 29607.210112477558, 82659.32144633788, 0.064, 0.96, 0.154, 192.0, 0.0, 0.0, 0.0, 0.0, 0.0, 0.0, 0.0, 0.0, 0.0, 1.6665570684677312E9, 0.0, 2022-10-23 13:31:08.467
50.0, -79995.90992878795, -118676.63188894176, 27778.50213986661, 82705.94718527165, 48644.66025169614, 45877.40252940685, 29495.876073345673, 82564.14771844719, 0.064, 0.96, 0.154, 192.0, 0.0, 0.0, 0.0, 0.0, 0.0, 0.0, 0.0, 0.0, 0.0, 1.6665570684677436E9, 0.0, 2022-10-23 13:31:08.467
51.0, -80000.80496082366, -118683.76209542301, 27565.154739040703, 82704.15904571522, 48642.648594695165, 45867.59011359097, 29370.281621251303, 82466.29178122185, 0.064, 0.96, 0.154, 192.0, 0.0, 0.0, 0.0, 0.0, 0.0, 0.0, 0.0, 0.0, 0.0, 1.6665570684677563E9, 0.0, 2022-10-23 13:31:08.467
52.0, -80004.9847370368, -118689.61825247029, 27505.05089820038, 82702.75088581454, 48644.324975529315, 45872.66395958233, 29405.77619144633, 82500.4228950051, 0.064, 0.96, 0.154, 192.0, 0.0, 0.0, 0.0, 0.0, 0.0, 0.0, 0.0, 0.0, 0.0, 1.6665570684677687E9, 0.0, 2022-10-23 13:31:08.467
53.0, -80017.14408602049, -118694.96031939512, 27830.44759398074, 82696.40299038924, 48641.19573130557, 45879.23537245219, 29613.468600925044, 82668.4186063312, 0.07, 0.9560000000000001, 0.158, 192.0, 2.0, 48.0, 29.0, 224.0, 4.0, 240.0, 0.0, 0.0, 0.0, 1.6665570684677813E9, 0.0, 2022-10-23 13:31:08.467
54.0, -80009.61154813904, -118689.46179025911, 27850.78768143507, 82696.80532178943, 48635.518388213924, 45861.62219782141, 29550.07905364979, 82604.51496893346, 0.07, 0.9560000000000001, 0.158, 192.0, 0.0, 0.0, 0.0, 0.0, 0.0, 0.0, 0.0, 0.0, 0.0, 1.6665570684677944E9, 0.0, 2022-10-23 13:31:08.467
55.0, -80002.36958293553, -118685.66199370171, 27647.252696425046, 82699.84515903535, 48638.15589405965, 45859.61054082043, 29402.19991233348, 82486.05072332034, 0.07, 0.9560000000000001, 0.158, 192.0, 0.0, 0.0, 0.0, 0.0, 0.0, 0.0, 0.0, 0.0, 0.0, 1.666557068467808E9, 0.0, 2022-10-23 13:31:08.467
56.0, -80009.2315684833, -118694.40152578373, 27543.205325985593, 82698.66051657921, 48640.23460629399, 45872.06046248203, 29409.218360092447, 82495.55021471385, 0.07, 0.9560000000000001, 0.158, 192.0, 0.0, 0.0, 0.0, 0.0, 0.0, 0.0, 0.0, 0.0, 0.0, 1.6665570684678204E9, 0.0, 2022-10-23 13:31:08.467
0.0, 0.0, 0.0, 0.0, 0.0, 0.0, 0.0, 0.0, 0.0, 0.048, 0.9480000000000001, 0.14400000000000002, 192.0, 1.0, 128.0, 29.0, 160.0, 4.0, 128.0, 0.0, 0.0, 0.0, 1.6665570685284452E9, 0.0, 2022-10-23 13:31:08.528
1.0, -80306.37565927216, -117827.15384091782, 25597.73184034012, 82676.44288259064, 47985.06027282003, 45362.93242727905, 31949.203544760174, 76308.43088727366, 0.048, 0.9480000000000001, 0.14400000000000002, 192.0, 0.0, 0.0, 0.0, 0.0, 0.0, 0.0, 0.0, 0.0, 0.0, 1.6665570690189507E9, 0.0, 2022-10-23 13:31:09.018
2.0, -80304.31929878227, -117825.70097752822, 25821.83043024903, 82671.65960927721, 47979.60644717293, 45354.43876438603, 32065.54437465005, 76369.94288801467, 0.048, 0.9480000000000001, 0.14400000000000002, 192.0, 0.0, 0.0, 0.0, 0.0, 0.0, 0.0, 0.0, 0.0, 0.0, 1.6665570690190952E9, 0.0, 2022-10-23 13:31:09.019
3.0, -80302.41940050357, -117821.49884957062, 25699.655795056322, 82661.24369636104, 47974.19732501475, 45334.65747054308, 31925.287178192997, 76253.53500289143, 0.048, 0.9480000000000001, 0.14400000000000002, 192.0, 0.0, 0.0, 0.0, 0.0, 0.0, 0.0, 0.0, 0.0, 0.0, 1.666557069019123E9, 0.0, 2022-10-23 13:31:09.019
4.0, -80292.18230154304, -117811.37350933236, 25519.43367951318, 82671.12316741027, 47983.62976117489, 45350.348395150715, 31854.83447966987, 76213.81595299435, 0.048, 0.9480000000000001, 0.14400000000000002, 192.0, 0.0, 0.0, 0.0, 0.0, 0.0, 0.0, 0.0, 0.0, 0.0, 1.6665570690191383E9, 0.0, 2022-10-23 13:31:09.019
5.0, -80295.42330448906, -117814.63686402285, 25570.462712104647, 82678.05220819142, 47991.07289207851, 45370.55437213831, 31945.202582502676, 76297.63499470174, 0.048, 0.9480000000000001, 0.14400000000000002, 192.0, 0.0, 0.0, 0.0, 0.0, 0.0, 0.0, 0.0, 0.0, 0.0, 1.6665570690191612E9, 0.0, 2022-10-23 13:31:09.019
6.0, -80298.12786556815, -117816.559114046, 25839.48830836872, 82678.74511226953, 47990.42469148931, 45367.42512791457, 32099.742543666667, 76398.95545231765, 0.048, 0.9480000000000001, 0.14400000000000002, 192.0, 0.0, 0.0, 0.0, 0.0, 0.0, 0.0, 0.0, 0.0, 0.0, 1.666557069019179E9, 0.0, 2022-10-23 13:31:09.019
7.0, -80304.02872610436, -117822.83995423793, 25744.225173500203, 82671.59255404385, 47981.41693847382, 45344.84986601471, 31968.314286269462, 76280.24533751552, 0.038, 0.9460000000000001, 0.138, 192.0, 1.0, 48.0, 29.0, 144.0, 4.0, 80.0, 0.0, 0.0, 0.0, 1.6665570690191944E9, 0.0, 2022-10-23 13:31:09.019
8.0, -80304.11813308217, -117821.38709084835, 25549.742644994574, 82667.70335050861, 47978.242990761166, 45336.847941499705, 31860.131843105777, 76209.72558375902, 0.038, 0.9460000000000001, 0.138, 192.0, 0.0, 0.0, 0.0, 0.0, 0.0, 0.0, 0.0, 0.0, 0.0, 1.666557069019211E9, 0.0, 2022-10-23 13:31:09.019
9.0, -80301.3018132808, -117818.6601780248, 25519.09840334635, 82676.01819944599, 47978.712377394724, 45347.196799182515, 31899.537968580484, 76251.99273252401, 0.038, 0.9460000000000001, 0.138, 192.0, 0.0, 0.0, 0.0, 0.0, 0.0, 0.0, 0.0, 0.0, 0.0, 1.666557069019226E9, 0.0, 2022-10-23 13:31:09.019
10.0, -80305.0569063493, -117825.83508799496, 25796.81882820354, 82676.12995816827, 47976.18663027127, 45353.343528907724, 32072.9204503203, 76370.09935022585, 0.038, 0.9460000000000001, 0.138, 192.0, 0.0, 0.0, 0.0, 0.0, 0.0, 0.0, 0.0, 0.0, 0.0, 1.666557069019241E9, 0.0, 2022-10-23 13:31:09.019
11.0, -80296.38442950064, -117810.68060525425, 25759.737284152186, 82676.80051050193, 47983.0262640746, 45355.17637195306, 31984.988687633122, 76283.84396837282, 0.038, 0.9460000000000001, 0.138, 192.0, 0.0, 0.0, 0.0, 0.0, 0.0, 0.0, 0.0, 0.0, 0.0, 1.666557069019256E9, 0.0, 2022-10-23 13:31:09.019
12.0, -80299.6030807022, -117812.9604831887, 25542.4783280466, 82673.09012092235, 47982.06513906302, 45354.14819170811, 31840.998749852035, 76194.61580450724, 0.038, 0.9460000000000001, 0.138, 192.0, 0.0, 0.0, 0.0, 0.0, 0.0, 0.0, 0.0, 0.0, 0.0, 1.6665570690192711E9, 0.0, 2022-10-23 13:31:09.019
13.0, -80312.81296167528, -117827.31030312901, 25465.387161420247, 82666.65281851921, 47971.40335695784, 45343.911092747585, 31865.518613519507, 76231.0938514583, 0.038, 0.9460000000000001, 0.138, 192.0, 0.0, 0.0, 0.0, 0.0, 0.0, 0.0, 0.0, 0.0, 0.0, 1.6665570690192862E9, 0.0, 2022-10-23 13:31:09.019
14.0, -80308.52142673987, -117824.18105890526, 25774.19886281477, 82679.50507158102, 47980.65697916233, 45360.16081096659, 32083.82810161449, 76388.94187080167, 0.038, 0.9460000000000001, 0.138, 192.0, 0.0, 0.0, 0.0, 0.0, 0.0, 0.0, 0.0, 0.0, 0.0, 1.666557069019301E9, 0.0, 2022-10-23 13:31:09.019
15.0, -80298.44078999052, -117814.74862274512, 25828.468898352254, 82676.01819944599, 47982.24395301866, 45353.12001146317, 32060.090549002955, 76337.10817540983, 0.038, 0.9460000000000001, 0.138, 192.0, 0.0, 0.0, 0.0, 0.0, 0.0, 0.0, 0.0, 0.0, 0.0, 1.666557069019318E9, 0.0, 2022-10-23 13:31:09.019
16.0, -80293.59046144372, -117811.35115758791, 25629.49366921111, 82678.07455993588, 47988.01070308813, 45364.4076424131, 31903.31541339343, 76227.58462757882, 0.038, 0.9460000000000001, 0.138, 192.0, 0.0, 0.0, 0.0, 0.0, 0.0, 0.0, 0.0, 0.0, 0.0, 1.6665570690193331E9, 0.0, 2022-10-23 13:31:09.019
17.0, -80297.32320276776, -117814.97214018967, 25471.109208000806, 82676.82286224638, 47984.00974083063, 45366.73222383645, 31863.39519779625, 76214.77707800592, 0.034, 0.9480000000000001, 0.134, 192.0, 1.0, 16.0, 29.0, 160.0, 4.0, 48.0, 0.0, 0.0, 0.0, 1.6665570690193648E9, 0.0, 2022-10-23 13:31:09.019
18.0, -80305.72745868296, -117822.12469841537, 25697.822952010985, 82674.69944652313, 47976.45485120474, 45367.06750000328, 32032.977882978666, 76348.84284124886, 0.034, 0.9480000000000001, 0.134, 192.0, 0.0, 0.0, 0.0, 0.0, 0.0, 0.0, 0.0, 0.0, 0.0, 1.666557069019381E9, 0.0, 2022-10-23 13:31:09.019
19.0, -80302.37469701466, -117820.53772455905, 25819.036462192114, 82671.8160714884, 47972.29742673605, 45354.1034882192, 32059.39764492484, 76342.94198071265, 0.034, 0.9480000000000001, 0.134, 192.0, 0.0, 0.0, 0.0, 0.0, 0.0, 0.0, 0.0, 0.0, 0.0, 1.6665570690193956E9, 0.0, 2022-10-23 13:31:09.019
20.0, -80299.84894989121, -117818.52606755806, 25638.45671873769, 82682.85783324932, 47984.18855478628, 45365.79345056933, 31899.917948236223, 76232.03262472543, 0.034, 0.9480000000000001, 0.134, 192.0, 0.0, 0.0, 0.0, 0.0, 0.0, 0.0, 0.0, 0.0, 0.0, 1.6665570690194108E9, 0.0, 2022-10-23 13:31:09.019
21.0, -80304.49811273791, -117823.86813448288, 25498.490094958557, 82672.95601045561, 47977.75125238315, 45365.994616269425, 31875.442788057662, 76235.87712477174, 0.034, 0.9480000000000001, 0.134, 192.0, 0.0, 0.0, 0.0, 0.0, 0.0, 0.0, 0.0, 0.0, 0.0, 1.6665570690194256E9, 0.0, 2022-10-23 13:31:09.019
22.0, -80315.42811577657, -117834.61932356589, 25684.32249835998, 82666.13872839675, 47969.34699646795, 45365.83815405824, 32031.43561261125, 76350.45216684965, 0.034, 0.9480000000000001, 0.134, 192.0, 0.0, 0.0, 0.0, 0.0, 0.0, 0.0, 0.0, 0.0, 0.0, 1.6665570690194407E9, 0.0, 2022-10-23 13:31:09.019
23.0, -80311.24833956342, -117830.66306479729, 25893.73599216175, 82662.92007719519, 47969.279941234585, 45360.339624922235, 32131.414965559838, 76387.39960043426, 0.034, 0.9480000000000001, 0.134, 192.0, 0.0, 0.0, 0.0, 0.0, 0.0, 0.0, 0.0, 0.0, 0.0, 1.6665570690194552E9, 0.0, 2022-10-23 13:31:09.019
24.0, -80315.02578437637, -117835.44633811073, 25711.859847528918, 82652.57121951238, 47957.79114458456, 45339.418392112064, 31944.28616098001, 76232.61377008125, 0.034, 0.9480000000000001, 0.134, 192.0, 0.0, 0.0, 0.0, 0.0, 0.0, 0.0, 0.0, 0.0, 0.0, 1.66655706901947E9, 0.0, 2022-10-23 13:31:09.019
25.0, -80308.14144708413, -117826.57269556198, 25500.14412404825, 82664.2611818625, 47966.8212493445, 45355.01990974187, 31850.900572645736, 76187.91028117064, 0.034, 0.9480000000000001, 0.134, 192.0, 0.0, 0.0, 0.0, 0.0, 0.0, 0.0, 0.0, 0.0, 0.0, 1.6665570690194848E9, 0.0, 2022-10-23 13:31:09.019
26.0, -80310.01899361837, -117834.30639914352, 25624.665692408766, 82665.78110048546, 47967.58120865598, 45362.91007553459, 31985.56983298896, 76309.57082624089, 0.034, 0.9480000000000001, 0.134, 192.0, 0.0, 0.0, 0.0, 0.0, 0.0, 0.0, 0.0, 0.0, 0.0, 1.6665570690194995E9, 0.0, 2022-10-23 13:31:09.019
27.0, -80288.18133928554, -117815.9109134568, 25859.761340589685, 82676.21936514608, 47978.91354309482, 45371.247276216425, 32105.509293736137, 76380.6270218643, 0.032, 0.9460000000000001, 0.138, 192.0, 1.0, 0.0, 29.0, 144.0, 4.0, 80.0, 0.0, 0.0, 0.0, 1.6665570690195167E9, 0.0, 2022-10-23 13:31:09.019
28.0, -80289.23187127494, -117814.34629134492, 25754.57403118301, 82676.71110352411, 47977.326569238496, 45372.990712283936, 31973.90222238329, 76278.74777063701, 0.032, 0.9460000000000001, 0.138, 192.0, 0.0, 0.0, 0.0, 0.0, 0.0, 0.0, 0.0, 0.0, 0.0, 1.6665570690195324E9, 0.0, 2022-10-23 13:31:09.019
29.0, -80293.97044109946, -117817.8108117355, 25555.844671230876, 82676.80051050193, 47974.107918036934, 45375.87408731867, 31873.78875896797, 76224.54479033289, 0.032, 0.9460000000000001, 0.138, 192.0, 0.0, 0.0, 0.0, 0.0, 0.0, 0.0, 0.0, 0.0, 0.0, 1.6665570690195472E9, 0.0, 2022-10-23 13:31:09.019
30.0, -80298.06081033479, -117820.38126234786, 25578.844616275386, 82680.80147275943, 47974.86787734841, 45376.36582569669, 31948.398881959783, 76296.78562841244, 0.032, 0.9460000000000001, 0.138, 192.0, 0.0, 0.0, 0.0, 0.0, 0.0, 0.0, 0.0, 0.0, 0.0, 1.666557069019562E9, 0.0, 2022-10-23 13:31:09.019
31.0, -80303.78285691535, -117825.34334961693, 25857.906145799894, 82670.40791158771, 47963.893170820855, 45369.637950615645, 32115.27700606311, 76403.69402214218, 0.032, 0.9460000000000001, 0.138, 192.0, 0.0, 0.0, 0.0, 0.0, 0.0, 0.0, 0.0, 0.0, 0.0, 1.6665570690195796E9, 0.0, 2022-10-23 13:31:09.019
32.0, -80296.54089171182, -117820.33655885895, 25787.29698506558, 82665.42347257417, 47962.86499057591, 45358.64089234363, 32001.86425469688, 76296.58446271234, 0.032, 0.9460000000000001, 0.138, 192.0, 0.0, 0.0, 0.0, 0.0, 0.0, 0.0, 0.0, 0.0, 0.0, 1.6665570690195963E9, 0.0, 2022-10-23 13:31:09.019
33.0, -80294.43982773302, -117818.63782628035, 25593.55206412698, 82667.83746097535, 47968.45292668974, 45362.10541273421, 31888.250337630554, 76227.5399240899, 0.032, 0.9460000000000001, 0.138, 192.0, 0.0, 0.0, 0.0, 0.0, 0.0, 0.0, 0.0, 0.0, 0.0, 1.6665570690196269E9, 0.0, 2022-10-23 13:31:09.019
34.0, -80290.72943815344, -117811.44056456574, 25561.745531767076, 82679.63918204776, 47978.712377394724, 45385.95472406802, 31939.547591155482, 76284.58157593985, 0.032, 0.9460000000000001, 0.138, 192.0, 0.0, 0.0, 0.0, 0.0, 0.0, 0.0, 0.0, 0.0, 0.0, 1.6665570690196416E9, 0.0, 2022-10-23 13:31:09.019
35.0, -80289.7459613974, -117807.37254707486, 25850.932401529837, 82686.14353968424, 47984.792051886565, 45397.0635410623, 32130.476192292714, 76419.92138861673, 0.032, 0.9460000000000001, 0.138, 192.0, 0.0, 0.0, 0.0, 0.0, 0.0, 0.0, 0.0, 0.0, 0.0, 1.666557069019656E9, 0.0, 2022-10-23 13:31:09.019
36.0, -80279.57591767024, -117800.17528536025, 25844.67391308235, 82682.70137103813, 47981.88632510738, 45383.45132868902, 32063.599772882437, 76339.67862602219, 0.032, 0.9460000000000001, 0.138, 192.0, 0.0, 0.0, 0.0, 0.0, 0.0, 0.0, 0.0, 0.0, 0.0, 1.6665570690196707E9, 0.0, 2022-10-23 13:31:09.019
37.0, -80277.81012985828, -117799.54943651552, 25625.135079042328, 82680.24267914804, 47978.4218047168, 45379.897401320624, 31907.294023906474, 76227.22699966753, 0.03, 0.9520000000000001, 0.138, 192.0, 0.0, 240.0, 29.0, 192.0, 4.0, 80.0, 0.0, 0.0, 0.0, 1.6665570690196855E9, 0.0, 2022-10-23 13:31:09.019
38.0, -80292.42817073205, -117810.88177095435, 25490.71168788811, 82678.76746401399, 47974.57730467049, 45378.82451758677, 31886.93158470769, 76225.79648802239, 0.03, 0.9520000000000001, 0.138, 192.0, 0.0, 0.0, 0.0, 0.0, 0.0, 0.0, 0.0, 0.0, 0.0, 1.6665570690197015E9, 0.0, 2022-10-23 13:31:09.019
39.0, -80311.42715351906, -117829.25490489662, 25758.887917862885, 82670.3185046099, 47963.96022605422, 45376.343473952234, 32079.625973656894, 76364.95844900113, 0.03, 0.9520000000000001, 0.138, 192.0, 0.0, 0.0, 0.0, 0.0, 0.0, 0.0, 0.0, 0.0, 0.0, 1.6665570690197165E9, 0.0, 2022-10-23 13:31:09.019
40.0, -80298.19492080151, -117817.43083207976, 25847.06554973907, 82670.1173389098, 47966.3742144554, 45366.86633430318, 32083.78339812558, 76336.3705678428, 0.03, 0.9520000000000001, 0.138, 192.0, 0.0, 0.0, 0.0, 0.0, 0.0, 0.0, 0.0, 0.0, 0.0, 1.666557069019731E9, 0.0, 2022-10-23 13:31:09.019
41.0, -80290.23769977543, -117811.57467503246, 25650.437253765733, 82679.75094077003, 47972.006854058134, 45365.2570087024, 31922.716727580635, 76215.0900024283, 0.03, 0.9520000000000001, 0.138, 192.0, 0.0, 0.0, 0.0, 0.0, 0.0, 0.0, 0.0, 0.0, 0.0, 1.666557069019746E9, 0.0, 2022-10-23 13:31:09.019
42.0, -80293.67986842155, -117812.71461399969, 25485.436676196656, 82684.69067629465, 47972.65505464734, 45376.008197785406, 31882.952974194646, 76204.7858482344, 0.03, 0.9520000000000001, 0.138, 192.0, 0.0, 0.0, 0.0, 0.0, 0.0, 0.0, 0.0, 0.0, 0.0, 1.6665570690197606E9, 0.0, 2022-10-23 13:31:09.019
43.0, -80300.92183362506, -117822.2588088821, 25697.95706247772, 82680.91323148171, 47970.66574939081, 45395.61067767271, 32053.988522766656, 76344.05956793542, 0.03, 0.9520000000000001, 0.138, 192.0, 0.0, 0.0, 0.0, 0.0, 0.0, 0.0, 0.0, 0.0, 0.0, 1.6665570690197752E9, 0.0, 2022-10-23 13:31:09.019
44.0, -80284.8956328506, -117801.0022999051, 25847.289067183625, 82680.64501054824, 47975.292560493064, 45390.112148536704, 32109.197331571264, 76360.80102453244, 0.03, 0.9520000000000001, 0.138, 192.0, 0.0, 0.0, 0.0, 0.0, 0.0, 0.0, 0.0, 0.0, 0.0, 1.66655706901979E9, 0.0, 2022-10-23 13:31:09.019
45.0, -80284.87328110615, -117797.31426206998, 25662.5071957716, 82683.77425477198, 47978.69002565027, 45384.56891591179, 31939.905219066768, 76232.68082531463, 0.03, 0.9520000000000001, 0.138, 192.0, 0.0, 0.0, 0.0, 0.0, 0.0, 0.0, 0.0, 0.0, 0.0, 1.6665570690198047E9, 0.0, 2022-10-23 13:31:09.019
46.0, -80290.66238292008, -117804.64563425133, 25452.154928702705, 82683.08135069387, 47975.426670959794, 45384.05482578932, 31858.25429657153, 76192.24651959498, 0.03, 0.9460000000000001, 0.134, 192.0, 0.0, 240.0, 29.0, 144.0, 4.0, 48.0, 0.0, 0.0, 0.0, 1.66655706901982E9, 0.0, 2022-10-23 13:31:09.019
47.0, -80295.02097308886, -117810.30062559851, 25588.701735580176, 82685.07065595039, 47971.62687440239, 45392.6155439157, 31996.52218777206, 76315.49403852155, 0.03, 0.9460000000000001, 0.134, 192.0, 0.0, 0.0, 0.0, 0.0, 0.0, 0.0, 0.0, 0.0, 0.0, 1.666557069019836E9, 0.0, 2022-10-23 13:31:09.019
48.0, -80286.39319972911, -117799.68354698224, 25820.86930523745, 82675.05707443441, 47964.42961268778, 45382.624314144174, 32122.608378244448, 76389.81358883543, 0.03, 0.9460000000000001, 0.134, 192.0, 0.0, 0.0, 0.0, 0.0, 0.0, 0.0, 0.0, 0.0, 0.0, 1.6665570690198677E9, 0.0, 2022-10-23 13:31:09.019
49.0, -80274.88205133463, -117792.48628526763, 25674.912413944294, 82667.88216446426, 47959.53458065207, 45370.487316904946, 31968.537803714014, 76265.247316986, 0.03, 0.9460000000000001, 0.134, 192.0, 0.0, 0.0, 0.0, 0.0, 0.0, 0.0, 0.0, 0.0, 0.0, 1.6665570690198824E9, 0.0, 2022-10-23 13:31:09.019
50.0, -80271.01519954386, -117796.91193066978, 25470.148082989228, 82664.77527198497, 47953.23138871568, 45373.88478206215, 31876.336857835875, 76206.21635987955, 0.03, 0.9460000000000001, 0.134, 192.0, 0.0, 0.0, 0.0, 0.0, 0.0, 0.0, 0.0, 0.0, 0.0, 1.6665570690198972E9, 0.0, 2022-10-23 13:31:09.019
51.0, -80267.72949310893, -117790.4522765222, 25502.42400198269, 82678.29807738043, 47961.1215545084, 45385.865317090196, 31946.1413557698, 76276.89257584722, 0.03, 0.9460000000000001, 0.134, 192.0, 0.0, 0.0, 0.0, 0.0, 0.0, 0.0, 0.0, 0.0, 0.0, 1.666557069019912E9, 0.0, 2022-10-23 13:31:09.019
52.0, -80272.28924897782, -117791.81573293397, 25756.04924631706, 82673.17952790017, 47959.37811844089, 45385.910020579104, 32093.595813941458, 76374.16736771671, 0.03, 0.9460000000000001, 0.134, 192.0, 0.0, 0.0, 0.0, 0.0, 0.0, 0.0, 0.0, 0.0, 0.0, 1.6665570690199268E9, 0.0, 2022-10-23 13:31:09.019
53.0, -80267.66243787557, -117788.68648871023, 25662.909527171796, 82679.79564425893, 47968.54233366756, 45388.34636072473, 31975.578603217436, 76270.27645948845, 0.03, 0.9460000000000001, 0.134, 192.0, 0.0, 0.0, 0.0, 0.0, 0.0, 0.0, 0.0, 0.0, 0.0, 1.666557069019941E9, 0.0, 2022-10-23 13:31:09.019
54.0, -80264.57789714074, -117781.71274444017, 25496.52314144649, 82682.65666754922, 47973.59382791446, 45398.53875619635, 31901.70608779265, 76232.1443834477, 0.03, 0.9460000000000001, 0.134, 192.0, 0.0, 0.0, 0.0, 0.0, 0.0, 0.0, 0.0, 0.0, 0.0, 1.666557069019956E9, 0.0, 2022-10-23 13:31:09.019
55.0, -80257.0453592593, -117774.78370365904, 25488.252995998027, 82694.07840896588, 47984.05444431954, 45414.296736037344, 31964.17921354523, 76295.73509642304, 0.03, 0.9460000000000001, 0.134, 192.0, 0.0, 0.0, 0.0, 0.0, 0.0, 0.0, 0.0, 0.0, 0.0, 1.666557069019972E9, 0.0, 2022-10-23 13:31:09.019
56.0, -80259.57110638275, -117776.72830542664, 25761.23485103069, 82691.35149614234, 47975.62783665989, 45407.74767491194, 32135.907666195355, 76408.20907452215, 0.028, 0.9460000000000001, 0.134, 192.0, 0.0, 224.0, 29.0, 144.0, 4.0, 48.0, 0.0, 0.0, 0.0, 1.6665570690199869E9, 0.0, 2022-10-23 13:31:09.019
57.0, -80271.05990303277, -117787.94888114321, 25703.254425913627, 82678.45453959162, 47961.1215545084, 45377.08108151926, 32029.558066077003, 76300.25014880302, 0.028, 0.9460000000000001, 0.134, 192.0, 0.0, 0.0, 0.0, 0.0, 0.0, 0.0, 0.0, 0.0, 0.0, 1.6665570690200021E9, 0.0, 2022-10-23 13:31:09.020
58.0, -80275.50790017938, -117792.15100910081, 25502.356946749325, 82677.3146006244, 47958.372289940395, 45375.94114255204, 31900.856721503347, 76216.65462454017, 0.028, 0.9460000000000001, 0.134, 192.0, 0.0, 0.0, 0.0, 0.0, 0.0, 0.0, 0.0, 0.0, 0.0, 1.666557069020017E9, 0.0, 2022-10-23 13:31:09.020
59.0, -80276.93841182452, -117795.95080565821, 25409.88777993772, 82682.81312976041, 47962.06032777552, 45388.50282293592, 31908.32220415142, 76244.84017429831, 0.028, 0.9460000000000001, 0.134, 192.0, 0.0, 0.0, 0.0, 0.0, 0.0, 0.0, 0.0, 0.0, 0.0, 1.666557069020032E9, 0.0, 2022-10-23 13:31:09.020
60.0, -80280.73820838192, -117799.77295396007, 25696.772420021585, 82680.75676927052, 47961.72505160869, 45403.612602187706, 32107.20802631474, 76392.83107433691, 0.028, 0.9460000000000001, 0.134, 192.0, 0.0, 0.0, 0.0, 0.0, 0.0, 0.0, 0.0, 0.0, 0.0, 1.6665570690200467E9, 0.0, 2022-10-23 13:31:09.020
61.0, -80275.44084494602, -117790.29581431102, 25729.025987270594, 82682.41079836022, 47965.59190339946, 45394.56014568331, 32069.500633418636, 76337.93518995466, 0.028, 0.9460000000000001, 0.134, 192.0, 0.0, 0.0, 0.0, 0.0, 0.0, 0.0, 0.0, 0.0, 0.0, 1.6665570690200615E9, 0.0, 2022-10-23 13:31:09.020
62.0, -80270.81403384377, -117785.46783750867, 25522.42881327019, 82688.17754842968, 47966.26245573312, 45389.70981713651, 31914.133657709797, 76228.7916217794, 0.028, 0.9460000000000001, 0.134, 192.0, 0.0, 0.0, 0.0, 0.0, 0.0, 0.0, 0.0, 0.0, 0.0, 1.6665570690200765E9, 0.0, 2022-10-23 13:31:09.020
63.0, -80276.78194961333, -117793.38035504584, 25388.653622705177, 82686.43411236217, 47962.66382487582, 45396.70591315102, 31899.090933691376, 76237.28528467241, 0.028, 0.9460000000000001, 0.134, 192.0, 0.0, 0.0, 0.0, 0.0, 0.0, 0.0, 0.0, 0.0, 0.0, 1.6665570690200913E9, 0.0, 2022-10-23 13:31:09.020
64.0, -80276.02199030186, -117796.53195101404, 25618.36250047237, 82692.4690833651, 47958.931083551775, 45404.39491324365, 32069.25476422963, 76367.3277339134, 0.028, 0.9460000000000001, 0.134, 192.0, 0.0, 0.0, 0.0, 0.0, 0.0, 0.0, 0.0, 0.0, 0.0, 1.66655706902012E9, 0.0, 2022-10-23 13:31:09.020
65.0, -80267.5506791533, -117786.8536456649, 25731.909362305327, 82690.27861240848, 47961.032147530575, 45402.04798007584, 32095.272194775607, 76359.86225126532, 0.028, 0.9460000000000001, 0.134, 192.0, 0.0, 0.0, 0.0, 0.0, 0.0, 0.0, 0.0, 0.0, 0.0, 1.6665570690201347E9, 0.0, 2022-10-23 13:31:09.020
66.0, -80266.83542333072, -117786.4513142647, 25534.163479109226, 82683.2154611606, 47956.09241200596, 45389.37454096968, 31923.27552119202, 76227.67403455664, 0.03, 0.9400000000000001, 0.14400000000000002, 192.0, 0.0, 240.0, 29.0, 96.0, 4.0, 128.0, 0.0, 0.0, 0.0, 1.6665570690201497E9, 0.0, 2022-10-23 13:31:09.020
67.0, -80265.4943186634, -117784.61847121936, 25376.24840453248, 82688.93750774115, 47962.01562428661, 45397.91290735161, 31888.295041119465, 76221.48260134252, 0.03, 0.9400000000000001, 0.14400000000000002, 192.0, 0.0, 0.0, 0.0, 0.0, 0.0, 0.0, 0.0, 0.0, 0.0, 1.6665570690201666E9, 0.0, 2022-10-23 13:31:09.020
68.0, -80275.97728681294, -117792.97802364566, 25560.62794454431, 82685.49533909504, 47954.12545849389, 45406.42892198908, 32043.013816239098, 76341.2655998785, 0.03, 0.9400000000000001, 0.14400000000000002, 192.0, 0.0, 0.0, 0.0, 0.0, 0.0, 0.0, 0.0, 0.0, 0.0, 1.6665570690201817E9, 0.0, 2022-10-23 13:31:09.020
69.0, -80274.68088563453, -117790.47462826666, 25748.829632857996, 82673.64891453373, 47942.569606610494, 45396.86237536221, 32126.609340501946, 76368.51237636953, 0.03, 0.9400000000000001, 0.14400000000000002, 192.0, 0.0, 0.0, 0.0, 0.0, 0.0, 0.0, 0.0, 0.0, 0.0, 1.6665570690201983E9, 0.0, 2022-10-23 13:31:09.020
70.0, -80262.1415569951, -117782.4056485183, 25572.49672085008, 82674.23005988957, 47946.39175491235, 45391.855584604215, 31953.69624539569, 76233.4407846261, 0.03, 0.9400000000000001, 0.14400000000000002, 192.0, 0.0, 0.0, 0.0, 0.0, 0.0, 0.0, 0.0, 0.0, 0.0, 1.6665570690202131E9, 0.0, 2022-10-23 13:31:09.020
71.0, -80263.43795817351, -117785.73605844213, 25383.26685229145, 82671.74901625502, 47946.03412700107, 45393.44255846054, 31884.629355028792, 76200.02492666543, 0.03, 0.9400000000000001, 0.14400000000000002, 192.0, 0.0, 0.0, 0.0, 0.0, 0.0, 0.0, 0.0, 0.0, 0.0, 1.666557069020228E9, 0.0, 2022-10-23 13:31:09.020
72.0, -80255.1901644695, -117779.63403220584, 25497.14899029124, 82676.28642037946, 47948.62692935788, 45407.099474322735, 32009.285033856042, 76302.77589592648, 0.03, 0.9400000000000001, 0.14400000000000002, 192.0, 0.0, 0.0, 0.0, 0.0, 0.0, 0.0, 0.0, 0.0, 0.0, 1.6665570690202427E9, 0.0, 2022-10-23 13:31:09.020
73.0, -80244.68484457552, -117767.11705531085, 25722.94631277875, 82681.11439718181, 47949.45394390273, 45406.674791178084, 32128.26336959164, 76368.64648683625, 0.03, 0.9400000000000001, 0.14400000000000002, 192.0, 0.0, 0.0, 0.0, 0.0, 0.0, 0.0, 0.0, 0.0, 0.0, 1.6665570690202577E9, 0.0, 2022-10-23 13:31:09.020
74.0, -80245.78008005382, -117762.11026455287, 25593.373250171335, 82679.84034774786, 47948.15754272432, 45393.97900032747, 31981.90414689829, 76249.46698540056, 0.03, 0.9400000000000001, 0.14400000000000002, 192.0, 0.0, 0.0, 0.0, 0.0, 0.0, 0.0, 0.0, 0.0, 0.0, 1.6665570690202723E9, 0.0, 2022-10-23 13:31:09.020
75.0, -80270.03172278783, -117785.49018925312, 25365.452511960568, 82669.55854529841, 47932.62308032788, 45383.02664554437, 31862.21055534012, 76170.00653386195, 0.03, 0.936, 0.138, 192.0, 0.0, 240.0, 29.0, 64.0, 4.0, 80.0, 0.0, 0.0, 0.0, 1.6665570690202868E9, 0.0, 2022-10-23 13:31:09.020
76.0, -80283.04043806082, -117802.14223887233, 25405.104506624284, 82666.98809468605, 47926.78927502505, 45385.574744412275, 31948.17536451523, 76247.43297665512, 0.03, 0.936, 0.138, 192.0, 0.0, 0.0, 0.0, 0.0, 0.0, 0.0, 0.0, 0.0, 0.0, 1.6665570690203023E9, 0.0, 2022-10-23 13:31:09.020
77.0, -80276.91606008007, -117797.71659347018, 25702.248597413138, 82668.88799296475, 47928.64446981483, 45387.541697924345, 32128.531590525105, 76358.65525706473, 0.03, 0.936, 0.138, 192.0, 0.0, 0.0, 0.0, 0.0, 0.0, 0.0, 0.0, 0.0, 0.0, 1.666557069020317E9, 0.0, 2022-10-23 13:31:09.020
78.0, -80261.80628082827, -117782.2491863071, 25634.321646013457, 82672.6654377777, 47938.25571993062, 45383.74190136694, 32018.359842104896, 76256.59719188181, 0.03, 0.936, 0.138, 192.0, 0.0, 0.0, 0.0, 0.0, 0.0, 0.0, 0.0, 0.0, 0.0, 1.6665570690203319E9, 0.0, 2022-10-23 13:31:09.020
79.0, -80256.48656564791, -117774.51548272556, 25428.372672602258, 82680.10856868132, 47949.073964246985, 45395.67773290607, 31897.638070301782, 76182.99289739048, 0.03, 0.936, 0.138, 192.0, 0.0, 0.0, 0.0, 0.0, 0.0, 0.0, 0.0, 0.0, 0.0, 1.6665570690203605E9, 0.0, 2022-10-23 13:31:09.020
80.0, -80260.77810058334, -117778.4046862608, 25380.472884234536, 82683.86366174981, 47951.242083459154, 45406.49597722245, 31930.495134651082, 76228.85867701277, 0.03, 0.936, 0.138, 192.0, 0.0, 0.0, 0.0, 0.0, 0.0, 0.0, 0.0, 0.0, 0.0, 1.6665570690203753E9, 0.0, 2022-10-23 13:31:09.020
81.0, -80265.8966500636, -117782.15977932927, 25656.02518987956, 82678.11926342479, 47941.1167432209, 45395.11893929469, 32101.709497178734, 76347.90406798173, 0.03, 0.936, 0.138, 192.0, 0.0, 0.0, 0.0, 0.0, 0.0, 0.0, 0.0, 0.0, 0.0, 1.6665570690203898E9, 0.0, 2022-10-23 13:31:09.020
82.0, -80256.06188250326, -117772.63793619133, 25636.51211697008, 82679.12509192528, 47946.905845034824, 45401.19861378654, 32024.506571830105, 76273.71862813456, 0.03, 0.936, 0.138, 192.0, 0.0, 0.0, 0.0, 0.0, 0.0, 0.0, 0.0, 0.0, 0.0, 1.6665570690204043E9, 0.0, 2022-10-23 13:31:09.020
83.0, -80257.55944938176, -117779.32110778346, 25444.622390821267, 82678.05220819142, 47946.45881014572, 45401.80211088683, 31895.11232317833, 76197.70034524208, 0.03, 0.936, 0.138, 192.0, 0.0, 0.0, 0.0, 0.0, 0.0, 0.0, 0.0, 0.0, 0.0, 1.666557069020419E9, 0.0, 2022-10-23 13:31:09.020
84.0, -80263.63912387361, -117786.49601775361, 25340.083282003794, 82673.82772848937, 47937.87574027488, 45395.96830558399, 31896.92281447921, 76220.36501411976, 0.03, 0.936, 0.138, 192.0, 0.0, 0.0, 0.0, 0.0, 0.0, 0.0, 0.0, 0.0, 0.0, 1.6665570690204337E9, 0.0, 2022-10-23 13:31:09.020
85.0, -80262.58859188421, -117781.26570955107, 25608.237160234115, 82674.29711512293, 47932.86894951689, 45401.75740739792, 32082.934031836277, 76359.88460300978, 0.032, 0.9420000000000001, 0.132, 192.0, 1.0, 0.0, 29.0, 112.0, 4.0, 32.0, 0.0, 0.0, 0.0, 1.6665570690204484E9, 0.0, 2022-10-23 13:31:09.020
86.0, -80254.00552201338, -117770.62627919034, 25663.22245159417, 82677.69458028013, 47941.027336243074, 45407.5688609563, 32061.364598436907, 76321.77487871348, 0.032, 0.9420000000000001, 0.132, 192.0, 0.0, 0.0, 0.0, 0.0, 0.0, 0.0, 0.0, 0.0, 0.0, 1.666557069020464E9, 0.0, 2022-10-23 13:31:09.020
87.0, -80261.76157733936, -117770.42511349024, 25469.94691728913, 82678.32042912488, 47939.79799029804, 45399.8128056303, 31908.433962873696, 76210.86552272625, 0.032, 0.9420000000000001, 0.132, 192.0, 0.0, 0.0, 0.0, 0.0, 0.0, 0.0, 0.0, 0.0, 0.0, 1.6665570690204785E9, 0.0, 2022-10-23 13:31:09.020
88.0, -80264.53319365182, -117772.21325304668, 25326.359310908236, 82685.9647257286, 47947.129362479376, 45410.89927088014, 31883.69058176167, 76220.1414966752, 0.032, 0.9420000000000001, 0.132, 192.0, 0.0, 0.0, 0.0, 0.0, 0.0, 0.0, 0.0, 0.0, 0.0, 1.6665570690204935E9, 0.0, 2022-10-23 13:31:09.020
89.0, -80262.9462197955, -117774.91781412576, 25541.271333846016, 82686.03178096197, 47943.57543511098, 45417.09070409426, 32047.327702918974, 76358.92347799819, 0.032, 0.9420000000000001, 0.132, 192.0, 0.0, 0.0, 0.0, 0.0, 0.0, 0.0, 0.0, 0.0, 0.0, 1.6665570690205083E9, 0.0, 2022-10-23 13:31:09.020
90.0, -80254.63137085813, -117766.02181983255, 25687.541149561544, 82683.05899894942, 47939.48506587566, 45407.524157467386, 32096.859168631934, 76373.98855376108, 0.032, 0.9420000000000001, 0.132, 192.0, 0.0, 0.0, 0.0, 0.0, 0.0, 0.0, 0.0, 0.0, 0.0, 1.6665570690205228E9, 0.0, 2022-10-23 13:31:09.020
91.0, -80249.60222835568, -117763.40666573128, 25516.796173667455, 82682.70137103813, 47941.58612985446, 45406.58538420026, 31941.626303389825, 76261.31340996188, 0.032, 0.9420000000000001, 0.132, 192.0, 0.0, 0.0, 0.0, 0.0, 0.0, 0.0, 0.0, 0.0, 0.0, 1.6665570690205393E9, 0.0, 2022-10-23 13:31:09.020
92.0, -80254.20668771348, -117770.06748557895, 25324.68293007409, 82685.54004258395, 47944.00011825563, 45422.67864020808, 31876.2250991136, 76231.20561018058, 0.032, 0.9420000000000001, 0.132, 192.0, 0.0, 0.0, 0.0, 0.0, 0.0, 0.0, 0.0, 0.0, 0.0, 1.666557069020554E9, 0.0, 2022-10-23 13:31:09.020
93.0, -80271.41753094406, -117789.804075933, 25468.650516110723, 82673.64891453373, 47926.58810932495, 45416.50955873842, 32010.156751889797, 76338.94101845515, 0.032, 0.9420000000000001, 0.132, 192.0, 0.0, 0.0, 0.0, 0.0, 0.0, 0.0, 0.0, 0.0, 0.0, 1.666557069020569E9, 0.0, 2022-10-23 13:31:09.020
94.0, -80268.4447489315, -117787.34538404291, 25693.956100220217, 82667.18926038615, 47921.67072554478, 45403.120863809694, 32125.290587579086, 76392.09346676987, 0.032, 0.9420000000000001, 0.132, 192.0, 0.0, 0.0, 0.0, 0.0, 0.0, 0.0, 0.0, 0.0, 0.0, 1.6665570690205836E9, 0.0, 2022-10-23 13:31:09.020
95.0, -80262.61094362866, -117776.39302925981, 25549.385017083292, 82671.1678708992, 47926.90103374732, 45399.477529463475, 31969.7447979146, 76265.06850303037, 0.034, 0.9460000000000001, 0.136, 192.0, 1.0, 16.0, 29.0, 144.0, 4.0, 64.0, 0.0, 0.0, 0.0, 1.6665570690206125E9, 0.0, 2022-10-23 13:31:09.020
96.0, -80260.91221105006, -117772.48147398014, 25330.40497665465, 82674.94531571213, 47926.02931571357, 45405.780721399875, 31866.50209027554, 76209.1444384032, 0.034, 0.9460000000000001, 0.136, 192.0, 0.0, 0.0, 0.0, 0.0, 0.0, 0.0, 0.0, 0.0, 0.0, 1.6665570690206296E9, 0.0, 2022-10-23 13:31:09.020
97.0, -80263.46030991797, -117777.33180252694, 25412.637044505722, 82675.16883315668, 47924.464693601694, 45413.02268660339, 31977.411446262773, 76312.14127685325, 0.034, 0.9460000000000001, 0.136, 192.0, 0.0, 0.0, 0.0, 0.0, 0.0, 0.0, 0.0, 0.0, 0.0, 1.6665570690206444E9, 0.0, 2022-10-23 13:31:09.020
98.0, -80262.96857153995, -117782.33859328492, 25681.595585536434, 82669.9161732097, 47917.692115031736, 45409.71462842401, 32133.35956732745, 76406.95737683265, 0.034, 0.9460000000000001, 0.136, 192.0, 0.0, 0.0, 0.0, 0.0, 0.0, 0.0, 0.0, 0.0, 0.0, 1.666557069020659E9, 0.0, 2022-10-23 13:31:09.020
99.0, -80249.33400742222, -117771.72151466865, 25592.769753071043, 82664.75292024051, 47916.61923129788, 45402.09268356475, 32012.414278079785, 76297.81380865739, 0.034, 0.9460000000000001, 0.136, 192.0, 0.0, 0.0, 0.0, 0.0, 0.0, 0.0, 0.0, 0.0, 0.0, 1.6665570690206735E9, 0.0, 2022-10-23 13:31:09.020
100.0, -80251.27860918983, -117770.71568616816, 25391.44759076209, 82663.54592603994, 47915.792216753034, 45400.2151370305, 31905.639994816782, 76227.56227583437, 0.034, 0.9460000000000001, 0.136, 192.0, 0.0, 0.0, 0.0, 0.0, 0.0, 0.0, 0.0, 0.0, 0.0, 1.6665570690206885E9, 0.0, 2022-10-23 13:31:09.020
101.0, -80262.3427226952, -117778.53879672752, 25365.9889538275, 82662.58480102835, 47910.53955680604, 45402.40560798712, 31943.637960390803, 76272.10930253379, 0.034, 0.9460000000000001, 0.136, 192.0, 0.0, 0.0, 0.0, 0.0, 0.0, 0.0, 0.0, 0.0, 0.0, 1.6665570690207036E9, 0.0, 2022-10-23 13:31:09.020
102.0, -80251.77034756784, -117772.90615712479, 25640.6024862054, 82674.05124593392, 47924.57645232397, 45423.41624777511, 32113.332404295496, 76394.44039993768, 0.034, 0.9460000000000001, 0.136, 192.0, 0.0, 0.0, 0.0, 0.0, 0.0, 0.0, 0.0, 0.0, 0.0, 1.6665570690207183E9, 0.0, 2022-10-23 13:31:09.020
103.0, -80236.92878924952, -117752.76723537056, 25586.91359602375, 82678.94627796963, 47935.59586234044, 45423.528006497385, 32013.755382747102, 76306.53098899496, 0.034, 0.9460000000000001, 0.136, 192.0, 0.0, 0.0, 0.0, 0.0, 0.0, 0.0, 0.0, 0.0, 0.0, 1.666557069020733E9, 0.0, 2022-10-23 13:31:09.020
104.0, -80230.4914868464, -117746.0393602895, 25358.29995373487, 82684.73537978357, 47941.653185087824, 45434.83798919177, 31867.664380987215, 76219.18037166362, 0.03, 0.9420000000000001, 0.14, 192.0, 0.0, 240.0, 29.0, 112.0, 4.0, 96.0, 0.0, 0.0, 0.0, 1.666557069020748E9, 0.0, 2022-10-23 13:31:09.020
105.0, -80237.44287937199, -117757.50580519508, 25271.642240481644, 82683.59544081634, 47937.24989143013, 45438.704840982544, 31882.34947709435, 76255.90428780369, 0.03, 0.9420000000000001, 0.14, 192.0, 0.0, 0.0, 0.0, 0.0, 0.0, 0.0, 0.0, 0.0, 0.0, 1.6665570690207636E9, 0.0, 2022-10-23 13:31:09.020
106.0, -80243.72371956393, -117767.6982006667, 25539.974932667606, 82675.28059187897, 47930.94669949373, 45436.17909385909, 32064.225621727186, 76390.50649291356, 0.03, 0.9420000000000001, 0.14, 192.0, 0.0, 0.0, 0.0, 0.0, 0.0, 0.0, 0.0, 0.0, 0.0, 1.6665570690207784E9, 0.0, 2022-10-23 13:31:09.020
107.0, -80251.6362371011, -117772.1014943244, 25554.01182818554, 82667.30101910842, 47921.80483601151, 45415.45902674902, 32015.208246136695, 76327.02753866048, 0.03, 0.9420000000000001, 0.14, 192.0, 0.0, 0.0, 0.0, 0.0, 0.0, 0.0, 0.0, 0.0, 0.0, 1.6665570690207932E9, 0.0, 2022-10-23 13:31:09.020
108.0, -80253.75965282436, -117776.77300891555, 25363.217337515038, 82673.514804067, 47922.96712672319, 45408.95466911253, 31878.102645647843, 76230.244485169, 0.03, 0.9420000000000001, 0.14, 192.0, 0.0, 0.0, 0.0, 0.0, 0.0, 0.0, 0.0, 0.0, 0.0, 1.6665570690208082E9, 0.0, 2022-10-23 13:31:09.020
109.0, -80257.0453592593, -117780.57280547296, 25226.268199237373, 82678.05220819142, 47922.76596102309, 45410.675753435586, 31855.505032003526, 76224.90241824418, 0.03, 0.9420000000000001, 0.14, 192.0, 0.0, 0.0, 0.0, 0.0, 0.0, 0.0, 0.0, 0.0, 0.0, 1.6665570690208237E9, 0.0, 2022-10-23 13:31:09.020
110.0, -80268.48945242041, -117789.53585499953, 25484.74377211854, 82671.77136799948, 47917.133321420355, 45412.59800345874, 32043.192630194742, 76368.2218036916, 0.03, 0.9420000000000001, 0.14, 192.0, 0.0, 0.0, 0.0, 0.0, 0.0, 0.0, 0.0, 0.0, 0.0, 1.6665570690208378E9, 0.0, 2022-10-23 13:31:09.020
111.0, -80254.76548132485, -117772.90615712479, 25602.604520631376, 82676.39817910173, 47929.15855993731, 45422.5221779969, 32071.333476463973, 76366.14309145727, 0.03, 0.9420000000000001, 0.14, 192.0, 0.0, 0.0, 0.0, 0.0, 0.0, 0.0, 0.0, 0.0, 0.0, 1.6665570690208645E9, 0.0, 2022-10-23 13:31:09.020
112.0, -80250.7421673229, -117772.61558444686, 25420.281341109436, 82676.06290293491, 47931.594900082935, 45423.03626811937, 31916.011204244045, 76253.60205812479, 0.03, 0.9420000000000001, 0.14, 192.0, 0.0, 0.0, 0.0, 0.0, 0.0, 0.0, 0.0, 0.0, 0.0, 1.6665570690208795E9, 0.0, 2022-10-23 13:31:09.020
113.0, -80252.57501036824, -117775.07427633695, 25266.6130979792, 82672.4642720776, 47924.77761802407, 45418.364753528214, 31880.717799749113, 76240.43688064061, 0.03, 0.9420000000000001, 0.14, 192.0, 0.0, 0.0, 0.0, 0.0, 0.0, 0.0, 0.0, 0.0, 0.0, 1.666557069020893E9, 0.0, 2022-10-23 13:31:09.020
114.0, -80257.0900627482, -117782.67386945176, 25422.158887643684, 82675.8170337459, 47920.10610343291, 45418.38710527267, 32002.803027964, 76339.65627427773, 0.03, 0.9480000000000001, 0.136, 192.0, 0.0, 240.0, 29.0, 160.0, 4.0, 64.0, 0.0, 0.0, 0.0, 1.6665570690209067E9, 0.0, 2022-10-23 13:31:09.020
115.0, -80256.82184181474, -117780.1034188394, 25601.822209575443, 82669.29032436495, 47920.843710999936, 45412.620355203195, 32081.324706235497, 76372.021600249, 0.03, 0.9480000000000001, 0.136, 192.0, 0.0, 0.0, 0.0, 0.0, 0.0, 0.0, 0.0, 0.0, 0.0, 1.6665570690209212E9, 0.0, 2022-10-23 13:31:09.020
116.0, -80253.75965282436, -117777.48826473812, 25455.57474560437, 82672.35251335532, 47926.74457153614, 45418.767084928404, 31939.771108600034, 76262.16277625118, 0.03, 0.9480000000000001, 0.136, 192.0, 0.0, 0.0, 0.0, 0.0, 0.0, 0.0, 0.0, 0.0, 0.0, 1.6665570690209348E9, 0.0, 2022-10-23 13:31:09.020
117.0, -80258.38646392661, -117781.53393048454, 25284.427438310082, 82674.99001920105, 47930.3655541379, 45426.43373327658, 31885.523424807005, 76241.42035739665, 0.03, 0.9480000000000001, 0.136, 192.0, 0.0, 0.0, 0.0, 0.0, 0.0, 0.0, 0.0, 0.0, 0.0, 1.6665570690209486E9, 0.0, 2022-10-23 13:31:09.020
118.0, -80256.2406964589, -117778.67290719425, 25407.40673630318, 82677.33695236886, 47928.935042492754, 45437.296681081854, 32009.173275133762, 76347.3676261148, 0.03, 0.9480000000000001, 0.136, 192.0, 0.0, 0.0, 0.0, 0.0, 0.0, 0.0, 0.0, 0.0, 0.0, 1.6665570690209622E9, 0.0, 2022-10-23 13:31:09.020
119.0, -80249.82574580023, -117769.86631987886, 25638.032035593038, 82677.02402794648, 47929.493836104135, 45441.23058810599, 32128.911570180844, 76414.19934203617, 0.03, 0.9480000000000001, 0.136, 192.0, 0.0, 0.0, 0.0, 0.0, 0.0, 0.0, 0.0, 0.0, 0.0, 1.6665570690209756E9, 0.0, 2022-10-23 13:31:09.020
120.0, -80245.24363818689, -117763.87605236484, 25507.028461340484, 82676.91226922421, 47929.292670404044, 45429.540625755864, 31980.965373631167, 76291.84589288782, 0.03, 0.9480000000000001, 0.136, 192.0, 0.0, 0.0, 0.0, 0.0, 0.0, 0.0, 0.0, 0.0, 0.0, 1.6665570690209892E9, 0.0, 2022-10-23 13:31:09.020
121.0, -80255.43603365851, -117769.5980989454, 25306.8238862543, 82670.18439414316, 47920.77665576657, 45424.66794546461, 31887.579785296894, 76232.36790089225, 0.03, 0.9480000000000001, 0.136, 192.0, 0.0, 0.0, 0.0, 0.0, 0.0, 0.0, 0.0, 0.0, 0.0, 1.666557069500538E9, 0.0, 2022-10-23 13:31:09.500
122.0, -80259.43699591601, -117774.6942966812, 25330.20381095455, 82674.83355698986, 47925.06819070199, 45443.68927999608, 31958.211297775662, 76306.21806457259, 0.03, 0.9480000000000001, 0.136, 192.0, 0.0, 0.0, 0.0, 0.0, 0.0, 0.0, 0.0, 0.0, 0.0, 1.666557069500618E9, 0.0, 2022-10-23 13:31:09.500
123.0, -80251.72564407894, -117771.16272105728, 25587.181816957214, 82676.21936514608, 47926.67751630277, 45448.494905053965, 32109.465552504727, 76410.0866210564, 0.03, 0.9480000000000001, 0.136, 192.0, 0.0, 0.0, 0.0, 0.0, 0.0, 0.0, 0.0, 0.0, 0.0, 1.6665570695006804E9, 0.0, 2022-10-23 13:31:09.500
124.0, -80249.87044928914, -117771.00625884609, 25505.933225862173, 82670.94435345464, 47920.64254529984, 45429.11594261121, 31993.504702270595, 76304.58638722735, 0.028, 0.9520000000000001, 0.14, 192.0, 0.0, 224.0, 29.0, 192.0, 4.0, 96.0, 0.0, 0.0, 0.0, 1.6665570695007105E9, 0.0, 2022-10-23 13:31:09.500
125.0, -80251.8374028012, -117772.16854955775, 25290.752981990932, 82669.40208308722, 47917.62505979837, 45426.29962280984, 31868.35728506533, 76226.62350256724, 0.028, 0.9520000000000001, 0.14, 192.0, 0.0, 0.0, 0.0, 0.0, 0.0, 0.0, 0.0, 0.0, 0.0, 1.66655706950073E9, 0.0, 2022-10-23 13:31:09.500
126.0, -80253.75965282436, -117774.0013926031, 25252.75501641691, 82674.27476337847, 47919.793179010536, 45435.39678280315, 31909.976233241112, 76279.93241309315, 0.028, 0.9520000000000001, 0.14, 192.0, 0.0, 0.0, 0.0, 0.0, 0.0, 0.0, 0.0, 0.0, 0.0, 1.6665570695008905E9, 0.0, 2022-10-23 13:31:09.500
127.0, -80262.52153665085, -117782.22683456265, 25525.178077838194, 82667.6586470197, 47913.73585626315, 45430.591157745264, 32084.364543481417, 76401.52590293002, 0.028, 0.9520000000000001, 0.14, 192.0, 0.0, 0.0, 0.0, 0.0, 0.0, 0.0, 0.0, 0.0, 0.0, 1.6665570695009096E9, 0.0, 2022-10-23 13:31:09.500
128.0, -80261.6498186171, -117781.64568920681, 25506.313205517916, 82667.12220515277, 47916.93215572026, 45422.45512276353, 32011.38609783484, 76320.61258800181, 0.028, 0.9520000000000001, 0.14, 192.0, 0.0, 0.0, 0.0, 0.0, 0.0, 0.0, 0.0, 0.0, 0.0, 1.6665570695009274E9, 0.0, 2022-10-23 13:31:09.500
129.0, -80247.34470216569, -117769.06165707848, 25296.117400660205, 82673.00071394452, 47921.71542903369, 45429.74179145596, 31866.34562806435, 76220.90145598668, 0.028, 0.9520000000000001, 0.14, 192.0, 0.0, 0.0, 0.0, 0.0, 0.0, 0.0, 0.0, 0.0, 0.0, 1.666557069500945E9, 0.0, 2022-10-23 13:31:09.500
130.0, -80245.75772830937, -117768.5922704449, 25207.380975172637, 82677.64987679123, 47926.92338549178, 45442.14700962866, 31881.634221271783, 76256.19486048161, 0.028, 0.9520000000000001, 0.14, 192.0, 0.0, 0.0, 0.0, 0.0, 0.0, 0.0, 0.0, 0.0, 0.0, 1.6665570695009625E9, 0.0, 2022-10-23 13:31:09.500
131.0, -80248.52934462183, -117769.68750592323, 25491.89633034424, 82673.29128662245, 47922.497740089624, 45450.75243124395, 32081.30235449104, 76398.7319348731, 0.028, 0.9520000000000001, 0.14, 192.0, 0.0, 0.0, 0.0, 0.0, 0.0, 0.0, 0.0, 0.0, 0.0, 1.666557069500979E9, 0.0, 2022-10-23 13:31:09.500
132.0, -80245.84713528719, -117764.94893609869, 25534.811679698432, 82668.50801330901, 47920.64254529984, 45438.41426830462, 32049.47347038668, 76341.13148941178, 0.028, 0.9520000000000001, 0.14, 192.0, 0.0, 0.0, 0.0, 0.0, 0.0, 0.0, 0.0, 0.0, 0.0, 1.6665570695009964E9, 0.0, 2022-10-23 13:31:09.500
133.0, -80249.19989695548, -117767.40762798878, 25324.61587484072, 82670.5643737989, 47918.452074343215, 45430.23352983398, 31882.93062245019, 76218.12983967422, 0.028, 0.9520000000000001, 0.14, 192.0, 0.0, 0.0, 0.0, 0.0, 0.0, 0.0, 0.0, 0.0, 0.0, 1.666557069501022E9, 0.0, 2022-10-23 13:31:09.501
134.0, -80254.38550166911, -117776.3483257709, 25176.066181190752, 82674.05124593392, 47917.423894098276, 45435.642651992166, 31854.365093036307, 76215.67114778413, 0.03, 0.9500000000000001, 0.134, 192.0, 0.0, 240.0, 29.0, 176.0, 4.0, 48.0, 0.0, 0.0, 0.0, 1.6665570695010395E9, 0.0, 2022-10-23 13:31:09.501
135.0, -80262.58859188421, -117783.27736655205, 25396.655547220176, 82670.63142903226, 47911.03129518405, 45442.974024173505, 32022.874894484867, 76346.78648075896, 0.03, 0.9500000000000001, 0.134, 192.0, 0.0, 0.0, 0.0, 0.0, 0.0, 0.0, 0.0, 0.0, 0.0, 1.6665570695010583E9, 0.0, 2022-10-23 13:31:09.501
136.0, -80256.93360053701, -117774.26961353655, 25541.24898210156, 82660.99782717203, 47904.52693754756, 45429.071239122306, 32072.9204503203, 76353.13437618427, 0.03, 0.9500000000000001, 0.134, 192.0, 0.0, 0.0, 0.0, 0.0, 0.0, 0.0, 0.0, 0.0, 0.0, 1.6665570695010765E9, 0.0, 2022-10-23 13:31:09.501
137.0, -80242.49437361889, -117763.9431075982, 25360.82570085832, 82668.64212377575, 47911.81360623999, 45429.31710831131, 31906.9810994841, 76225.90824674467, 0.03, 0.9500000000000001, 0.134, 192.0, 0.0, 0.0, 0.0, 0.0, 0.0, 0.0, 0.0, 0.0, 0.0, 1.666557069501099E9, 0.0, 2022-10-23 13:31:09.501
138.0, -80241.57795209622, -117764.9936395876, 25157.424826315026, 82676.37582735727, 47919.860234243904, 45448.15962888714, 31829.241732268543, 76192.80531320635, 0.03, 0.9500000000000001, 0.134, 192.0, 0.0, 0.0, 0.0, 0.0, 0.0, 0.0, 0.0, 0.0, 0.0, 1.6665570695011165E9, 0.0, 2022-10-23 13:31:09.501
139.0, -80244.57308585323, -117768.63697393383, 25306.734479276478, 82668.9103447092, 47907.81264398249, 45452.49586731147, 31969.76714965906, 76316.83514318886, 0.03, 0.9500000000000001, 0.134, 192.0, 0.0, 0.0, 0.0, 0.0, 0.0, 0.0, 0.0, 0.0, 0.0, 1.6665570695011337E9, 0.0, 2022-10-23 13:31:09.501
140.0, -80234.42539387052, -117761.68558140822, 25512.124659076293, 82659.72377773808, 47893.9545624202, 45434.3238990693, 32074.06038928752, 76367.73006531359, 0.03, 0.9500000000000001, 0.134, 192.0, 0.0, 0.0, 0.0, 0.0, 0.0, 0.0, 0.0, 0.0, 0.0, 1.666557069501151E9, 0.0, 2022-10-23 13:31:09.501
141.0, -80233.50897234786, -117761.30560175248, 25367.240651516993, 82667.09985340832, 47898.02257991106, 45432.491056023966, 31930.763355584546, 76253.15502323568, 0.03, 0.9500000000000001, 0.134, 192.0, 0.0, 0.0, 0.0, 0.0, 0.0, 0.0, 0.0, 0.0, 0.0, 1.666557069501193E9, 0.0, 2022-10-23 13:31:09.501
142.0, -80258.7440918379, -117784.84198866392, 25191.13125695363, 82670.00558018751, 47902.157652635295, 45435.5755967588, 31871.911212433723, 76225.34945313328, 0.03, 0.9500000000000001, 0.134, 192.0, 0.0, 0.0, 0.0, 0.0, 0.0, 0.0, 0.0, 0.0, 0.0, 1.6665570695012112E9, 0.0, 2022-10-23 13:31:09.501
143.0, -80271.7975105998, -117791.27929106705, 25269.51882475839, 82668.9103447092, 47894.6027630094, 45433.29571882435, 31970.1471293148, 76309.14614309624, 0.028, 0.9460000000000001, 0.138, 192.0, 0.0, 224.0, 29.0, 144.0, 4.0, 80.0, 0.0, 0.0, 0.0, 1.6665570695012283E9, 0.0, 2022-10-23 13:31:09.501
144.0, -80254.5866673692, -117767.8993663668, 25513.599874210344, 82664.2164783736, 47890.691207729724, 45426.92547165459, 32101.50833147864, 76382.37045793181, 0.028, 0.9460000000000001, 0.138, 192.0, 0.0, 0.0, 0.0, 0.0, 0.0, 0.0, 0.0, 0.0, 0.0, 1.6665570695012517E9, 0.0, 2022-10-23 13:31:09.501
145.0, -80235.25240841537, -117746.17347075624, 25389.190064572107, 82672.03958893295, 47904.50458580311, 45433.29571882435, 31955.350274485383, 76262.38629369573, 0.028, 0.9460000000000001, 0.138, 192.0, 0.0, 0.0, 0.0, 0.0, 0.0, 0.0, 0.0, 0.0, 0.0, 1.6665570695012689E9, 0.0, 2022-10-23 13:31:09.501
146.0, -80241.26502767384, -117752.67782839273, 25195.37808840014, 82670.98905694355, 47907.23149862665, 45443.309300340334, 31862.21055534012, 76216.92284547363, 0.028, 0.9460000000000001, 0.138, 192.0, 0.0, 0.0, 0.0, 0.0, 0.0, 0.0, 0.0, 0.0, 0.0, 1.6665570695012865E9, 0.0, 2022-10-23 13:31:09.501
147.0, -80246.87531553213, -117758.19870927319, 25203.670585593056, 82671.4137400882, 47904.683399758746, 45452.540570800375, 31930.31632069544, 76284.11218930628, 0.028, 0.9460000000000001, 0.138, 192.0, 0.0, 0.0, 0.0, 0.0, 0.0, 0.0, 0.0, 0.0, 0.0, 1.666557069501304E9, 0.0, 2022-10-23 13:31:09.501
148.0, -80251.36801616765, -117762.06556106397, 25461.855585796307, 82664.6635132627, 47897.9555246777, 45449.72425099901, 32088.432560972284, 76384.71739109962, 0.028, 0.9460000000000001, 0.138, 192.0, 0.0, 0.0, 0.0, 0.0, 0.0, 0.0, 0.0, 0.0, 0.0, 1.6665570695013213E9, 0.0, 2022-10-23 13:31:09.501
149.0, -80239.09690846168, -117750.28619173601, 25418.761422486477, 82669.13386215376, 47904.63869626984, 45447.19850387556, 32000.970184918668, 76306.41923027269, 0.028, 0.9460000000000001, 0.138, 192.0, 0.0, 0.0, 0.0, 0.0, 0.0, 0.0, 0.0, 0.0, 0.0, 1.6665570695013387E9, 0.0, 2022-10-23 13:31:09.501
150.0, -80240.39330964009, -117753.1472150263, 25220.9037805681, 82673.44774883363, 47905.13043464785, 45444.4268875631, 31878.862604959322, 76235.56420034936, 0.028, 0.9460000000000001, 0.138, 192.0, 0.0, 0.0, 0.0, 0.0, 0.0, 0.0, 0.0, 0.0, 0.0, 1.6665570695013556E9, 0.0, 2022-10-23 13:31:09.501
151.0, -80246.00359749838, -117760.03155231853, 25154.608506513658, 82672.12899591077, 47898.737835733635, 45443.55516952934, 31901.437866859185, 76272.73515137854, 0.028, 0.9460000000000001, 0.138, 192.0, 0.0, 0.0, 0.0, 0.0, 0.0, 0.0, 0.0, 0.0, 0.0, 1.6665570695013733E9, 0.0, 2022-10-23 13:31:09.501
152.0, -80253.58083886873, -117766.40179948829, 25441.761367530988, 82666.27283886347, 47893.82045195347, 45449.99247193247, 32095.406305242337, 76410.46660071214, 0.028, 0.9460000000000001, 0.138, 192.0, 0.0, 0.0, 0.0, 0.0, 0.0, 0.0, 0.0, 0.0, 0.0, 1.6665570695013928E9, 0.0, 2022-10-23 13:31:09.501
153.0, -80244.14840270858, -117755.06946504946, 25457.720513072076, 82670.51967031, 47900.2577543566, 45451.53474229989, 32044.801955795523, 76345.31126562491, 0.024, 0.9480000000000001, 0.138, 192.0, 0.0, 192.0, 29.0, 160.0, 4.0, 80.0, 0.0, 0.0, 0.0, 1.6665570695014071E9, 0.0, 2022-10-23 13:31:09.501
154.0, -80239.38748113961, -117750.48735743611, 25261.203975821016, 82678.23102214707, 47906.71740850418, 45453.18877138958, 31900.432038358696, 76248.05882549987, 0.024, 0.9480000000000001, 0.138, 192.0, 0.0, 0.0, 0.0, 0.0, 0.0, 0.0, 0.0, 0.0, 0.0, 1.6665570695014224E9, 0.0, 2022-10-23 13:31:09.501
155.0, -80246.67414983203, -117760.03155231853, 25138.492898761382, 82666.3175423524, 47896.03327465455, 45449.16545738762, 31890.105532420344, 76258.40768318268, 0.024, 0.9480000000000001, 0.138, 192.0, 0.0, 0.0, 0.0, 0.0, 0.0, 0.0, 0.0, 0.0, 0.0, 1.666557069501439E9, 0.0, 2022-10-23 13:31:09.501
156.0, -80250.16102196705, -117759.09277905141, 25375.466093476545, 82665.24465861854, 47891.2052978522, 45457.368547602724, 32059.19647922474, 76385.49970215556, 0.024, 0.9480000000000001, 0.138, 192.0, 0.0, 0.0, 0.0, 0.0, 0.0, 0.0, 0.0, 0.0, 0.0, 1.6665570695014536E9, 0.0, 2022-10-23 13:31:09.501
157.0, -80248.14936496608, -117757.08112205043, 25462.57084161888, 82661.73543473905, 47885.55030650501, 45441.632919506184, 32064.53854614956, 76361.35981814383, 0.024, 0.9480000000000001, 0.138, 192.0, 0.0, 0.0, 0.0, 0.0, 0.0, 0.0, 0.0, 0.0, 0.0, 1.6665570695014822E9, 0.0, 2022-10-23 13:31:09.501
158.0, -80242.87435327463, -117753.63895340431, 25258.09708334173, 82668.73153075356, 47891.38411180784, 45441.52116078391, 31895.447599345163, 76240.81686029636, 0.024, 0.9480000000000001, 0.138, 192.0, 0.0, 0.0, 0.0, 0.0, 0.0, 0.0, 0.0, 0.0, 0.0, 1.6665570695014968E9, 0.0, 2022-10-23 13:31:09.501
159.0, -80236.52645784932, -117749.25801149107, 25087.26270046982, 82682.05317044893, 47903.834033469444, 45467.09155644078, 31852.219325568596, 76233.10550845928, 0.024, 0.9480000000000001, 0.138, 192.0, 0.0, 0.0, 0.0, 0.0, 0.0, 0.0, 0.0, 0.0, 0.0, 1.6665570695015109E9, 0.0, 2022-10-23 13:31:09.501
160.0, -80244.77425155333, -117758.95866858467, 25275.10676087222, 82680.73441752607, 47898.894297944826, 45478.826222279815, 32009.01681292258, 76360.35398964334, 0.024, 0.9480000000000001, 0.138, 192.0, 0.0, 0.0, 0.0, 0.0, 0.0, 0.0, 0.0, 0.0, 0.0, 1.6665570695015252E9, 0.0, 2022-10-23 13:31:09.501
161.0, -80246.76355680985, -117760.76915988556, 25427.433899335134, 82665.17760338516, 47886.086748371934, 45458.03909993638, 32069.478281674183, 76375.91080378424, 0.024, 0.9480000000000001, 0.138, 192.0, 0.0, 0.0, 0.0, 0.0, 0.0, 0.0, 0.0, 0.0, 0.0, 1.6665570695015395E9, 0.0, 2022-10-23 13:31:09.501
162.0, -80240.86269627366, -117755.4941481941, 25263.595612477737, 82659.18733587115, 47882.84574542591, 45444.76216372993, 31915.340651910385, 76253.73616859152, 0.024, 0.9480000000000001, 0.138, 192.0, 0.0, 0.0, 0.0, 0.0, 0.0, 0.0, 0.0, 0.0, 0.0, 1.6665570695015533E9, 0.0, 2022-10-23 13:31:09.501
163.0, -80238.53811485031, -117757.37169472834, 25059.233612922864, 82666.7645772415, 47889.595972251416, 45457.81558249183, 31835.209648038108, 76210.6420052817, 0.024, 0.9520000000000001, 0.134, 192.0, 0.0, 192.0, 29.0, 192.0, 4.0, 48.0, 0.0, 0.0, 0.0, 1.6665570695015678E9, 0.0, 2022-10-23 13:31:09.501
164.0, -80248.61875159964, -117767.13940705532, 25188.158474941072, 82666.13872839675, 47886.8020041945, 45465.70574828455, 31965.766187401558, 76323.63007350327, 0.024, 0.9520000000000001, 0.134, 192.0, 0.0, 0.0, 0.0, 0.0, 0.0, 0.0, 0.0, 0.0, 0.0, 1.6665570695015829E9, 0.0, 2022-10-23 13:31:09.501
165.0, -80244.70719631997, -117761.70793315268, 25404.948044413097, 82664.23883011805, 47882.801041937004, 45456.876809224705, 32079.268345745608, 76382.90689979875, 0.024, 0.9520000000000001, 0.134, 192.0, 0.0, 0.0, 0.0, 0.0, 0.0, 0.0, 0.0, 0.0, 0.0, 1.6665570695015967E9, 0.0, 2022-10-23 13:31:09.501
166.0, -80245.86948703164, -117764.07721806494, 25266.702504957022, 82659.90259169371, 47878.733024446134, 45443.48811429598, 31930.741003840092, 76261.4475204286, 0.024, 0.9520000000000001, 0.134, 192.0, 0.0, 0.0, 0.0, 0.0, 0.0, 0.0, 0.0, 0.0, 0.0, 1.666557069501611E9, 0.0, 2022-10-23 13:31:09.501
167.0, -80252.10562373468, -117771.31918326845, 25081.920633545, 82656.81805095889, 47875.91670464477, 45439.46480029402, 31856.019122126, 76218.64392979669, 0.024, 0.9520000000000001, 0.134, 192.0, 0.0, 0.0, 0.0, 0.0, 0.0, 0.0, 0.0, 0.0, 0.0, 1.6665570695016253E9, 0.0, 2022-10-23 13:31:09.501
168.0, -80254.0949289912, -117770.35805825688, 25146.383064554106, 82659.67907424916, 47877.771899434556, 45451.46768706652, 31959.46299546516, 76306.19571282814, 0.024, 0.9520000000000001, 0.134, 192.0, 0.0, 0.0, 0.0, 0.0, 0.0, 0.0, 0.0, 0.0, 0.0, 1.6665570695016398E9, 0.0, 2022-10-23 13:31:09.501
169.0, -80243.94723700848, -117757.68461915072, 25413.64287300621, 82668.8656412203, 47889.23834434013, 45466.80098376286, 32118.54036075358, 76407.5832256774, 0.024, 0.9520000000000001, 0.134, 192.0, 0.0, 0.0, 0.0, 0.0, 0.0, 0.0, 0.0, 0.0, 0.0, 1.666557069501654E9, 0.0, 2022-10-23 13:31:09.501
170.0, -80234.33598689271, -117753.16956677075, 25321.129002705697, 82672.39721684423, 47896.212088610184, 45467.73975702999, 31994.354068559896, 76299.53489298045, 0.024, 0.9520000000000001, 0.134, 192.0, 0.0, 0.0, 0.0, 0.0, 0.0, 0.0, 0.0, 0.0, 0.0, 1.6665570695016694E9, 0.0, 2022-10-23 13:31:09.501
171.0, -80245.15423120908, -117762.82552037544, 25121.79614565327, 82661.53426903895, 47882.39871053681, 45455.46864932402, 31885.948107951655, 76226.95877873407, 0.024, 0.9520000000000001, 0.134, 192.0, 0.0, 0.0, 0.0, 0.0, 0.0, 0.0, 0.0, 0.0, 0.0, 1.666557069501685E9, 0.0, 2022-10-23 13:31:09.501
172.0, -80241.37678639613, -117756.72349413914, 25082.7699998343, 82672.8666034778, 47889.48421352914, 45464.11877442822, 31922.336747924895, 76273.56216592339, 0.026000000000000002, 0.9520000000000001, 0.136, 192.0, 0.0, 208.0, 29.0, 192.0, 4.0, 64.0, 0.0, 0.0, 0.0, 1.6665570695017233E9, 0.0, 2022-10-23 13:31:09.501
173.0, -80247.54586786579, -117764.16662504277, 25372.761532397453, 82667.1669086417, 47884.14214660432, 45460.81071624884, 32109.532607738092, 76405.8844930988, 0.026000000000000002, 0.9520000000000001, 0.136, 192.0, 0.0, 0.0, 0.0, 0.0, 0.0, 0.0, 0.0, 0.0, 0.0, 1.6665570695017393E9, 0.0, 2022-10-23 13:31:09.501
174.0, -80241.08621371821, -117757.34934298389, 25353.40492169916, 82664.99878942952, 47887.47255652816, 45453.54639930087, 32033.939007990244, 76323.76418397001, 0.026000000000000002, 0.9520000000000001, 0.136, 192.0, 0.0, 0.0, 0.0, 0.0, 0.0, 0.0, 0.0, 0.0, 0.0, 1.6665570695017533E9, 0.0, 2022-10-23 13:31:09.501
175.0, -80231.02792871332, -117744.81001434446, 25136.16831733803, 82672.53132731096, 47898.51431828908, 45460.788364504384, 31885.63518352928, 76227.45051711208, 0.026000000000000002, 0.9520000000000001, 0.136, 192.0, 0.0, 0.0, 0.0, 0.0, 0.0, 0.0, 0.0, 0.0, 0.0, 1.6665570695017676E9, 0.0, 2022-10-23 13:31:09.501
176.0, -80235.45357411547, -117749.77210161355, 25057.82545302218, 82672.2631063775, 47892.12171937487, 45459.15668715915, 31906.55641633945, 76265.71670361958, 0.026000000000000002, 0.9520000000000001, 0.136, 192.0, 0.0, 0.0, 0.0, 0.0, 0.0, 0.0, 0.0, 0.0, 0.0, 1.666557069501784E9, 0.0, 2022-10-23 13:31:09.501
177.0, -80233.6877863035, -117748.67686613523, 25340.01622677043, 82680.95793497062, 47892.5016990306, 45466.42100410712, 32103.229415801696, 76406.286824499, 0.026000000000000002, 0.9520000000000001, 0.136, 192.0, 0.0, 0.0, 0.0, 0.0, 0.0, 0.0, 0.0, 0.0, 0.0, 1.666557069501798E9, 0.0, 2022-10-23 13:31:09.501
178.0, -80229.06097520125, -117745.9946568006, 25381.277547034926, 82674.81120524541, 47894.04396939802, 45469.17026867512, 32075.82617709949, 76361.69509431066, 0.026000000000000002, 0.9520000000000001, 0.136, 192.0, 0.0, 0.0, 0.0, 0.0, 0.0, 0.0, 0.0, 0.0, 0.0, 1.6665570695018132E9, 0.0, 2022-10-23 13:31:09.501
179.0, -80229.440954857, -117749.70504638017, 25178.36841086965, 82669.89382146524, 47894.08867288693, 45471.29368439838, 31919.945111268178, 76253.40089242469, 0.026000000000000002, 0.9520000000000001, 0.136, 192.0, 0.0, 0.0, 0.0, 0.0, 0.0, 0.0, 0.0, 0.0, 0.0, 1.6665570695018277E9, 0.0, 2022-10-23 13:31:09.501
180.0, -80237.08525146071, -117754.15304352678, 25027.6058945186, 82666.92103945269, 47888.65719898429, 45467.33742562979, 31888.40679984174, 76246.74007257701, 0.026000000000000002, 0.9520000000000001, 0.136, 192.0, 0.0, 0.0, 0.0, 0.0, 0.0, 0.0, 0.0, 0.0, 0.0, 1.6665570695018415E9, 0.0, 2022-10-23 13:31:09.501
181.0, -80238.0910799612, -117752.00727605907, 25259.080560097762, 82673.7159697671, 47892.83697519743, 45480.54730660288, 32064.560897894014, 76382.01283002053, 0.026000000000000002, 0.9520000000000001, 0.136, 192.0, 0.0, 0.0, 0.0, 0.0, 0.0, 0.0, 0.0, 0.0, 0.0, 1.66655706950186E9, 0.0, 2022-10-23 13:31:09.501
182.0, -80233.01723396985, -117746.17347075624, 25377.231881288517, 82668.32919935336, 47888.07605362846, 45464.61051280624, 32094.333421508483, 76373.58622236089, 0.026000000000000002, 0.9480000000000001, 0.138, 192.0, 0.0, 208.0, 29.0, 160.0, 4.0, 80.0, 0.0, 0.0, 0.0, 1.6665570695018802E9, 0.0, 2022-10-23 13:31:09.501
183.0, -80233.10664094766, -117746.55345041197, 25198.328518668237, 82666.47400456357, 47886.33261756094, 45459.536666814885, 31934.40668993076, 76256.84306107082, 0.026000000000000002, 0.9480000000000001, 0.138, 192.0, 0.0, 0.0, 0.0, 0.0, 0.0, 0.0, 0.0, 0.0, 0.0, 1.6665570695019011E9, 0.0, 2022-10-23 13:31:09.501
184.0, -80234.35833863716, -117749.1909562577, 25008.71867045387, 82668.23979237555, 47886.936114661235, 45477.798042034876, 31870.771273466504, 76229.52922934643, 0.026000000000000002, 0.9480000000000001, 0.138, 192.0, 0.0, 0.0, 0.0, 0.0, 0.0, 0.0, 0.0, 0.0, 0.0, 1.6665570695019238E9, 0.0, 2022-10-23 13:31:09.501
185.0, -80236.03471947131, -117749.92856382472, 25184.582195828225, 82668.77623424247, 47881.884620414334, 45484.79413804939, 32023.99248170763, 76355.3248471409, 0.026000000000000002, 0.9480000000000001, 0.138, 192.0, 0.0, 0.0, 0.0, 0.0, 0.0, 0.0, 0.0, 0.0, 0.0, 1.666557069501943E9, 0.0, 2022-10-23 13:31:09.501
186.0, -80236.43705087151, -117748.58745915741, 25360.87040434723, 82667.56924004189, 47878.129527345845, 45472.00894022095, 32099.921357622312, 76386.70669635615, 0.026000000000000002, 0.9480000000000001, 0.138, 192.0, 0.0, 0.0, 0.0, 0.0, 0.0, 0.0, 0.0, 0.0, 0.0, 1.6665570695019631E9, 0.0, 2022-10-23 13:31:09.501
187.0, -80236.97349273843, -117749.86150859136, 25206.330443183237, 82663.38946382875, 47874.93322788873, 45455.960387702034, 31950.85757384987, 76267.43778794263, 0.026000000000000002, 0.9480000000000001, 0.138, 192.0, 0.0, 0.0, 0.0, 0.0, 0.0, 0.0, 0.0, 0.0, 0.0, 1.6665570695019863E9, 0.0, 2022-10-23 13:31:09.501
188.0, -80239.49923986188, -117754.13069178232, 25018.32992056965, 82659.0085219155, 47870.507582486585, 45454.41811733462, 31880.650744515748, 76225.46121185557, 0.026000000000000002, 0.9480000000000001, 0.138, 192.0, 0.0, 0.0, 0.0, 0.0, 0.0, 0.0, 0.0, 0.0, 0.0, 1.6665570695020337E9, 0.0, 2022-10-23 13:31:09.502
189.0, -80244.46132713096, -117759.87509010734, 25113.905979860545, 82660.506088794, 47865.05375683949, 45463.49292558348, 31991.448341780706, 76321.55136126892, 0.026000000000000002, 0.9480000000000001, 0.138, 192.0, 0.0, 0.0, 0.0, 0.0, 0.0, 0.0, 0.0, 0.0, 0.0, 1.6665570695020564E9, 0.0, 2022-10-23 13:31:09.502
190.0, -80243.45549863047, -117759.31629649596, 25354.88013683321, 82656.61688525879, 47863.26561728306, 45464.18582966159, 32122.049584633063, 76391.15469350276, 0.026000000000000002, 0.9480000000000001, 0.138, 192.0, 0.0, 0.0, 0.0, 0.0, 0.0, 0.0, 0.0, 0.0, 0.0, 1.6665570695020761E9, 0.0, 2022-10-23 13:31:09.502
191.0, -80232.97253048093, -117745.77113935605, 25232.929019085055, 82664.0600161624, 47876.38609127833, 45472.70184429906, 31979.065475352465, 76266.4543111866, 0.026000000000000002, 0.9480000000000001, 0.138, 192.0, 0.0, 0.0, 0.0, 0.0, 0.0, 0.0, 0.0, 0.0, 0.0, 1.6665570695021012E9, 0.0, 2022-10-23 13:31:09.502
192.0, -80233.6877863035, -117744.43003468872, 25020.162763614986, 82665.24465861854, 47877.05664361199, 45474.489983855485, 31871.86650894481, 76209.47971457001, 0.028, 0.9500000000000001, 0.136, 192.0, 0.0, 224.0, 29.0, 176.0, 4.0, 64.0, 0.0, 0.0, 0.0, 1.6665570695021353E9, 0.0, 2022-10-23 13:31:09.502
193.0, -80239.49923986188, -117750.97909581412, 25023.604932261103, 82668.9103447092, 47873.18979182122, 45474.9370187446, 31933.959655041657, 76282.21229102758, 0.028, 0.9500000000000001, 0.136, 192.0, 0.0, 0.0, 0.0, 0.0, 0.0, 0.0, 0.0, 0.0, 0.0, 1.6665570695021555E9, 0.0, 2022-10-23 13:31:09.502
194.0, -80244.68484457552, -117756.85760460587, 25302.44294434106, 82655.96868466958, 47859.57757944794, 45465.88456224019, 32106.291604792073, 76393.23340573709, 0.028, 0.9500000000000001, 0.136, 192.0, 0.0, 0.0, 0.0, 0.0, 0.0, 0.0, 0.0, 0.0, 0.0, 1.666557069502175E9, 0.0, 2022-10-23 13:31:09.502
195.0, -80238.71692880594, -117754.26480224906, 25240.215687777483, 82657.42154805918, 47865.880771384334, 45460.721309271015, 32004.792333220525, 76295.69039293414, 0.028, 0.9500000000000001, 0.136, 192.0, 0.0, 0.0, 0.0, 0.0, 0.0, 0.0, 0.0, 0.0, 0.0, 1.666557069502195E9, 0.0, 2022-10-23 13:31:09.502
196.0, -80232.50314384737, -117746.2405259896, 25036.52424055627, 82670.5643737989, 47876.38609127833, 45473.41710012163, 31886.171625396208, 76221.41554610916, 0.028, 0.9500000000000001, 0.136, 192.0, 0.0, 0.0, 0.0, 0.0, 0.0, 0.0, 0.0, 0.0, 0.0, 1.6665570695022142E9, 0.0, 2022-10-23 13:31:09.502
197.0, -80234.00071072587, -117748.2968864795, 24977.85091136109, 82675.88408897926, 47880.2529430691, 45480.860231025246, 31916.25707343305, 76265.06850303037, 0.028, 0.9500000000000001, 0.136, 192.0, 0.0, 0.0, 0.0, 0.0, 0.0, 0.0, 0.0, 0.0, 0.0, 1.666557069502236E9, 0.0, 2022-10-23 13:31:09.502
198.0, -80238.78398403931, -117754.55537492697, 25279.085371385263, 82674.94531571213, 47879.89531515781, 45491.11968173023, 32117.199256086264, 76414.71343215865, 0.028, 0.9500000000000001, 0.136, 192.0, 0.0, 0.0, 0.0, 0.0, 0.0, 0.0, 0.0, 0.0, 0.0, 1.6665570695022595E9, 0.0, 2022-10-23 13:31:09.502
199.0, -80230.55854207976, -117744.4970899221, 25282.66165049811, 82674.92296396768, 47880.76703319157, 45485.01765549394, 32059.19647922474, 76345.13245166927, 0.028, 0.9500000000000001, 0.136, 192.0, 0.0, 0.0, 0.0, 0.0, 0.0, 0.0, 0.0, 0.0, 0.0, 1.666557069502283E9, 0.0, 2022-10-23 13:31:09.502
200.0, -80229.50801009036, -117740.20555498666, 25051.25404015232, 82672.30780986641, 47875.78259417803, 45478.58035309081, 31888.183282397185, 76229.08219445733, 0.028, 0.9500000000000001, 0.136, 192.0, 0.0, 0.0, 0.0, 0.0, 0.0, 0.0, 0.0, 0.0, 0.0, 1.6665570695023072E9, 0.0, 2022-10-23 13:31:09.502
201.0, -80241.06386197376, -117749.95091556918, 24913.611997796535, 82663.03183591746, 47865.61255045087, 45473.64061756618, 31862.9705146516, 76230.6915200581, 0.028, 0.9500000000000001, 0.136, 192.0, 0.0, 0.0, 0.0, 0.0, 0.0, 0.0, 0.0, 0.0, 0.0, 1.6665570695023313E9, 0.0, 2022-10-23 13:31:09.502
202.0, -80260.12989999414, -117771.83327339093, 25164.018590929343, 82651.99007415654, 47848.066431053456, 45460.028405192905, 32040.309255160006, 76361.42687337719, 0.032, 0.9420000000000001, 0.13, 192.0, 1.0, 0.0, 29.0, 112.0, 4.0, 16.0, 0.0, 0.0, 0.0, 1.666557069502356E9, 0.0, 2022-10-23 13:31:09.502
203.0, -80264.57789714074, -117777.93529962724, 25258.834690908756, 82642.60234148531, 47840.310375727466, 45438.61543400472, 32052.647418099335, 76341.0644341784, 0.032, 0.9420000000000001, 0.13, 192.0, 0.0, 0.0, 0.0, 0.0, 0.0, 0.0, 0.0, 0.0, 0.0, 1.6665570695024116E9, 0.0, 2022-10-23 13:31:09.502
204.0, -80245.46715563144, -117760.56799418546, 25087.575624892193, 82657.84623120383, 47858.08001256943, 45455.267483623924, 31913.64191933178, 76243.83434579782, 0.032, 0.9420000000000001, 0.13, 192.0, 0.0, 0.0, 0.0, 0.0, 0.0, 0.0, 0.0, 0.0, 0.0, 1.6665570695024347E9, 0.0, 2022-10-23 13:31:09.502
205.0, -80235.69944330447, -117752.63312490382, 24921.79273626718, 82669.2679726205, 47871.8486871539, 45481.62019033673, 31871.01714265551, 76231.3397206473, 0.032, 0.9420000000000001, 0.13, 192.0, 0.0, 0.0, 0.0, 0.0, 0.0, 0.0, 0.0, 0.0, 0.0, 1.6665570695024598E9, 0.0, 2022-10-23 13:31:09.502
206.0, -80245.04247248679, -117764.16662504277, 25123.65134044306, 82662.51774579499, 47860.024614337046, 45485.21882119404, 32030.921522488778, 76360.62221057681, 0.032, 0.9420000000000001, 0.13, 192.0, 0.0, 0.0, 0.0, 0.0, 0.0, 0.0, 0.0, 0.0, 0.0, 1.666557069502483E9, 0.0, 2022-10-23 13:31:09.502
207.0, -80245.26598993134, -117759.31629649596, 25291.512941302415, 82664.03766441795, 47862.103326571385, 45473.50650709945, 32101.418924500817, 76386.77375158951, 0.032, 0.9420000000000001, 0.13, 192.0, 0.0, 0.0, 0.0, 0.0, 0.0, 0.0, 0.0, 0.0, 0.0, 1.666557069502506E9, 0.0, 2022-10-23 13:31:09.502
208.0, -80231.22909441341, -117741.47960442062, 25118.68925317398, 82679.37096111428, 47877.16840233427, 45479.63088508021, 31939.70405336667, 76262.9003838182, 0.032, 0.9420000000000001, 0.13, 192.0, 0.0, 0.0, 0.0, 0.0, 0.0, 0.0, 0.0, 0.0, 0.0, 1.6665570695025294E9, 0.0, 2022-10-23 13:31:09.502
209.0, -80229.8879897461, -117747.06754053445, 24921.055128700154, 82676.88991747976, 47875.80494592249, 45487.1857747061, 31870.123072877297, 76232.47965961453, 0.032, 0.9420000000000001, 0.13, 192.0, 0.0, 0.0, 0.0, 0.0, 0.0, 0.0, 0.0, 0.0, 0.0, 1.6665570695025525E9, 0.0, 2022-10-23 13:31:09.502
210.0, -80233.26310315885, -117752.63312490382, 25040.458147580404, 82671.97253369958, 47865.83606789543, 45487.074015983824, 31987.022696378554, 76334.0683381639, 0.032, 0.9420000000000001, 0.13, 192.0, 0.0, 0.0, 0.0, 0.0, 0.0, 0.0, 0.0, 0.0, 0.0, 1.666557069502576E9, 0.0, 2022-10-23 13:31:09.502
211.0, -80238.67222531703, -117752.87899409283, 25254.47610073997, 82664.64116151824, 47857.81179163597, 45477.03808272339, 32097.17209305431, 76393.61338539283, 0.03, 0.9480000000000001, 0.136, 192.0, 0.0, 240.0, 29.0, 160.0, 4.0, 64.0, 0.0, 0.0, 0.0, 1.6665570695025995E9, 0.0, 2022-10-23 13:31:09.502
212.0, -80242.29320791879, -117756.00823831657, 25108.139229791075, 82658.13680388175, 47851.352137488386, 45464.632864550695, 31941.827469089923, 76262.11807276227, 0.03, 0.9480000000000001, 0.136, 192.0, 0.0, 0.0, 0.0, 0.0, 0.0, 0.0, 0.0, 0.0, 0.0, 1.6665570695026212E9, 0.0, 2022-10-23 13:31:09.502
213.0, -80246.58474285422, -117756.79054937251, 24895.820009210114, 82653.82291720188, 47848.17818977573, 45466.9797977185, 31844.865601642803, 76207.35629884676, 0.03, 0.9480000000000001, 0.136, 192.0, 0.0, 0.0, 0.0, 0.0, 0.0, 0.0, 0.0, 0.0, 0.0, 1.6665570695026417E9, 0.0, 2022-10-23 13:31:09.502
214.0, -80255.74895808089, -117766.20063378819, 24955.23094597232, 82649.1066991218, 47838.32107047094, 45469.61730356423, 31937.535934154505, 76293.29875627742, 0.03, 0.9480000000000001, 0.136, 192.0, 0.0, 0.0, 0.0, 0.0, 0.0, 0.0, 0.0, 0.0, 0.0, 1.6665570695026617E9, 0.0, 2022-10-23 13:31:09.502
215.0, -80242.47202187443, -117758.73515114012, 25209.392632173614, 82655.49929803603, 47841.24914899459, 45471.13722218719, 32085.191558026265, 76389.92534755771, 0.03, 0.9480000000000001, 0.136, 192.0, 0.0, 0.0, 0.0, 0.0, 0.0, 0.0, 0.0, 0.0, 0.0, 1.666557069502682E9, 0.0, 2022-10-23 13:31:09.502
216.0, -80232.41373686955, -117749.01214230206, 25125.841811399678, 82663.88120220676, 47851.03921306601, 45471.80777452085, 31969.32011476995, 76293.74579116653, 0.03, 0.9480000000000001, 0.136, 192.0, 0.0, 0.0, 0.0, 0.0, 0.0, 0.0, 0.0, 0.0, 0.0, 1.666557069502704E9, 0.0, 2022-10-23 13:31:09.502
217.0, -80230.4914868464, -117745.8381945894, 24908.806372738647, 82660.7072544941, 47850.03338456552, 45469.97493147552, 31849.604171467327, 76220.20855190857, 0.03, 0.9480000000000001, 0.136, 192.0, 0.0, 0.0, 0.0, 0.0, 0.0, 0.0, 0.0, 0.0, 0.0, 1.6665570695027244E9, 0.0, 2022-10-23 13:31:09.502
218.0, -80234.40304212607, -117748.52040392405, 24886.141703860965, 82664.14942314022, 47853.38614623382, 45482.67072232613, 31901.437866859185, 76281.56409043838, 0.03, 0.9480000000000001, 0.136, 192.0, 0.0, 0.0, 0.0, 0.0, 0.0, 0.0, 0.0, 0.0, 0.0, 1.6665570695027475E9, 0.0, 2022-10-23 13:31:09.502
219.0, -80230.20091416847, -117746.10641552287, 25166.812558986254, 82666.49635630804, 47855.91189335727, 45492.6396003532, 32083.20225276974, 76411.24891176807, 0.03, 0.9480000000000001, 0.136, 192.0, 0.0, 0.0, 0.0, 0.0, 0.0, 0.0, 0.0, 0.0, 0.0, 1.666557069502812E9, 0.0, 2022-10-23 13:31:09.502
220.0, -80228.88216124561, -117746.12876726732, 25120.387985752583, 82664.41764407369, 47854.32491950094, 45479.742643802485, 31988.162635345776, 76313.23651233155, 0.03, 0.9480000000000001, 0.136, 192.0, 0.0, 0.0, 0.0, 0.0, 0.0, 0.0, 0.0, 0.0, 0.0, 1.6665570695028355E9, 0.0, 2022-10-23 13:31:09.502
221.0, -80237.44287937199, -117755.06946504946, 24909.83455298359, 82659.88023994926, 47846.05477405248, 45467.60564656325, 31848.553639477926, 76216.56521756235, 0.03, 0.9500000000000001, 0.138, 192.0, 0.0, 240.0, 29.0, 176.0, 4.0, 80.0, 0.0, 0.0, 0.0, 1.6665570695028622E9, 0.0, 2022-10-23 13:31:09.502
222.0, -80244.55073410878, -117759.49511045161, 24826.730767098757, 82657.08627189235, 47841.360907716866, 45467.56094307434, 31863.283439073974, 76241.86739228576, 0.03, 0.9500000000000001, 0.138, 192.0, 0.0, 0.0, 0.0, 0.0, 0.0, 0.0, 0.0, 0.0, 0.0, 1.6665570695028903E9, 0.0, 2022-10-23 13:31:09.502
223.0, -80247.14353646559, -117765.12775005434, 25126.400605011062, 82657.3544928258, 47839.61747164935, 45477.216896679034, 32071.266421230608, 76385.58910913338, 0.03, 0.9500000000000001, 0.138, 192.0, 0.0, 0.0, 0.0, 0.0, 0.0, 0.0, 0.0, 0.0, 0.0, 1.6665570695029154E9, 0.0, 2022-10-23 13:31:09.502
224.0, -80230.17856242401, -117751.82846210343, 25139.431672028506, 82657.04156840344, 47846.099477541386, 45472.6347890657, 32018.516304316083, 76320.74669846853, 0.03, 0.9500000000000001, 0.138, 192.0, 0.0, 0.0, 0.0, 0.0, 0.0, 0.0, 0.0, 0.0, 0.0, 1.6665570695029397E9, 0.0, 2022-10-23 13:31:09.502
225.0, -80223.02600419831, -117745.65938063376, 24945.64204760099, 82660.6625510052, 47852.08974505541, 45473.461803610546, 31877.543852036462, 76225.46121185557, 0.03, 0.9500000000000001, 0.138, 192.0, 0.0, 0.0, 0.0, 0.0, 0.0, 0.0, 0.0, 0.0, 0.0, 1.6665570695029626E9, 0.0, 2022-10-23 13:31:09.502
226.0, -80229.70917579046, -117751.78375861452, 24829.368272944484, 82664.64116151824, 47853.788477634014, 45480.94963800307, 31878.43792181467, 76244.1472702202, 0.03, 0.9500000000000001, 0.138, 192.0, 0.0, 0.0, 0.0, 0.0, 0.0, 0.0, 0.0, 0.0, 0.0, 1.666557069502986E9, 0.0, 2022-10-23 13:31:09.502
227.0, -80235.02889097082, -117754.24245050461, 25059.09950245613, 82662.31658009489, 47847.95467233118, 45480.927286258615, 32048.467641886193, 76373.20624270514, 0.03, 0.9500000000000001, 0.138, 192.0, 0.0, 0.0, 0.0, 0.0, 0.0, 0.0, 0.0, 0.0, 0.0, 1.6665570695030098E9, 0.0, 2022-10-23 13:31:09.503
228.0, -80227.5410565783, -117744.00535154407, 25154.764968724845, 82661.46721380559, 47848.28994849801, 45468.05268145236, 32060.76110133661, 76352.41912036171, 0.03, 0.9500000000000001, 0.138, 192.0, 0.0, 0.0, 0.0, 0.0, 0.0, 0.0, 0.0, 0.0, 0.0, 1.6665570695030336E9, 0.0, 2022-10-23 13:31:09.503
229.0, -80223.9871292099, -117738.35036019688, 24960.282440219216, 82670.765539499, 47859.97991084813, 45471.53955358738, 31898.710954035636, 76231.25031366949, 0.03, 0.9500000000000001, 0.138, 192.0, 0.0, 0.0, 0.0, 0.0, 0.0, 0.0, 0.0, 0.0, 0.0, 1.6665570695030591E9, 0.0, 2022-10-23 13:31:09.503
230.0, -80226.82580075572, -117741.23373523161, 24794.164275427374, 82678.54394656944, 47868.29475978551, 45490.85146079677, 31862.098796617844, 76226.17646767813, 0.03, 0.9500000000000001, 0.138, 192.0, 0.0, 0.0, 0.0, 0.0, 0.0, 0.0, 0.0, 0.0, 0.0, 1.666557069503085E9, 0.0, 2022-10-23 13:31:09.503
231.0, -80236.74997529387, -117755.29298249401, 24977.18035902743, 82673.73832151156, 47860.06931782595, 45486.69403632809, 32020.930292717254, 76350.42981510518, 0.03, 0.9580000000000001, 0.14400000000000002, 192.0, 0.0, 240.0, 29.0, 240.0, 4.0, 128.0, 0.0, 0.0, 0.0, 1.666557069503111E9, 0.0, 2022-10-23 13:31:09.503
232.0, -80245.40010039808, -117765.30656400998, 25160.151739138575, 82653.91232417969, 47842.3443844729, 45469.57260007532, 32104.7269826802, 76376.782521818, 0.03, 0.9580000000000001, 0.14400000000000002, 192.0, 0.0, 0.0, 0.0, 0.0, 0.0, 0.0, 0.0, 0.0, 0.0, 1.6665570695031378E9, 0.0, 2022-10-23 13:31:09.503
233.0, -80237.21936192743, -117758.42222671774, 25020.632150248548, 82656.92980968115, 47849.18401827622, 45481.217858936536, 31967.8448996359, 76265.47083443055, 0.03, 0.9580000000000001, 0.14400000000000002, 192.0, 0.0, 0.0, 0.0, 0.0, 0.0, 0.0, 0.0, 0.0, 0.0, 1.666557069503162E9, 0.0, 2022-10-23 13:31:09.503
234.0, -80224.5906263102, -117747.2463544901, 24819.891133295434, 82673.69361802265, 47860.851628881894, 45497.04289401089, 31890.954898709646, 76227.76344153445, 0.03, 0.9580000000000001, 0.14400000000000002, 192.0, 0.0, 0.0, 0.0, 0.0, 0.0, 0.0, 0.0, 0.0, 0.0, 1.6665570695032237E9, 0.0, 2022-10-23 13:31:09.503
235.0, -80230.8938182466, -117754.73418888262, 24894.568311520616, 82678.40983610271, 47854.72725090114, 45498.62986786722, 31982.150016087297, 76314.33174780986, 0.03, 0.9580000000000001, 0.14400000000000002, 192.0, 0.0, 0.0, 0.0, 0.0, 0.0, 0.0, 0.0, 0.0, 0.0, 1.6665570695032482E9, 0.0, 2022-10-23 13:31:09.503
236.0, -80232.92782699202, -117757.03641856152, 25105.948758834453, 82668.55271679792, 47843.08199203992, 45488.21395495105, 32093.01466858562, 76378.36949567431, 0.03, 0.9580000000000001, 0.14400000000000002, 192.0, 0.0, 0.0, 0.0, 0.0, 0.0, 0.0, 0.0, 0.0, 0.0, 1.6665570695032706E9, 0.0, 2022-10-23 13:31:09.503
237.0, -80225.01530945484, -117750.42030220275, 24983.818827130657, 82665.89285920774, 47848.200541520186, 45485.263524682945, 31959.37358848734, 76268.17539550965, 0.03, 0.9580000000000001, 0.14400000000000002, 192.0, 0.0, 0.0, 0.0, 0.0, 0.0, 0.0, 0.0, 0.0, 0.0, 1.6665570695032911E9, 0.0, 2022-10-23 13:31:09.503
238.0, -80217.05808842875, -117742.59719164339, 24794.52190333866, 82666.00461793001, 47851.977986333135, 45495.187699221104, 31879.577860781894, 76221.25908389797, 0.03, 0.9580000000000001, 0.14400000000000002, 192.0, 0.0, 0.0, 0.0, 0.0, 0.0, 0.0, 0.0, 0.0, 0.0, 1.6665570695033116E9, 0.0, 2022-10-23 13:31:09.503
239.0, -80215.29230061678, -117738.4844706636, 24824.361482186498, 82672.8666034778, 47857.38710849132, 45509.98455405051, 31961.809928632967, 76299.73605868054, 0.03, 0.9580000000000001, 0.14400000000000002, 192.0, 0.0, 0.0, 0.0, 0.0, 0.0, 0.0, 0.0, 0.0, 0.0, 1.6665570695033329E9, 0.0, 2022-10-23 13:31:09.503
240.0, -80209.81612322523, -117727.71092983615, 25114.844753127665, 82684.40010361673, 47864.137335316824, 45520.91455708916, 32142.59083778749, 76419.3402432609, 0.028, 0.9460000000000001, 0.14400000000000002, 192.0, 0.0, 224.0, 29.0, 144.0, 4.0, 128.0, 0.0, 0.0, 0.0, 1.6665570695033567E9, 0.0, 2022-10-23 13:31:09.503
241.0, -80211.15722789255, -117727.88974379179, 25022.554400271703, 82674.1630046562, 47856.42598347974, 45501.02150452394, 32013.71067925819, 76298.5067127355, 0.028, 0.9460000000000001, 0.14400000000000002, 192.0, 0.0, 0.0, 0.0, 0.0, 0.0, 0.0, 0.0, 0.0, 0.0, 1.666557069977039E9, 0.0, 2022-10-23 13:31:09.977
242.0, -80213.97354769392, -117737.1880694852, 24824.495592653228, 82664.95408594061, 47847.8429136089, 45492.6396003532, 31902.421343615217, 76227.38346187872, 0.028, 0.9460000000000001, 0.14400000000000002, 192.0, 0.0, 0.0, 0.0, 0.0, 0.0, 0.0, 0.0, 0.0, 0.0, 1.6665570699772816E9, 0.0, 2022-10-23 13:31:09.977
243.0, -80222.02017569783, -117749.30271497997, 24779.970917698258, 82664.97643768507, 47842.187922261706, 45494.71831258754, 31937.446527176682, 76267.81776759838, 0.028, 0.9460000000000001, 0.14400000000000002, 192.0, 0.0, 0.0, 0.0, 0.0, 0.0, 0.0, 0.0, 0.0, 0.0, 1.666557069977318E9, 0.0, 2022-10-23 13:31:09.977
244.0, -80229.35154787917, -117754.73418888262, 25026.37654857356, 82665.37876908526, 47839.01397454905, 45494.96418177655, 32086.10797954893, 76369.33939091438, 0.028, 0.9460000000000001, 0.14400000000000002, 192.0, 0.0, 0.0, 0.0, 0.0, 0.0, 0.0, 0.0, 0.0, 0.0, 1.6665570699773426E9, 0.0, 2022-10-23 13:31:09.977
245.0, -80225.57410306622, -117746.57580215644, 25022.08501363814, 82661.44486206114, 47840.62330014984, 45480.27908566941, 32024.886551485844, 76300.11603833629, 0.028, 0.9460000000000001, 0.14400000000000002, 192.0, 0.0, 0.0, 0.0, 0.0, 0.0, 0.0, 0.0, 0.0, 0.0, 1.6665570699773648E9, 0.0, 2022-10-23 13:31:09.977
246.0, -80223.24952164287, -117741.05492127597, 24828.25068572172, 82668.75388249801, 47849.02755606503, 45486.04583573888, 31895.98404121209, 76214.17358090563, 0.028, 0.9460000000000001, 0.14400000000000002, 192.0, 0.0, 0.0, 0.0, 0.0, 0.0, 0.0, 0.0, 0.0, 0.0, 1.6665570699773867E9, 0.0, 2022-10-23 13:31:09.977
247.0, -80218.89093147409, -117735.9363717957, 24709.138239519387, 82680.62265880378, 47858.415288736265, 45508.28582147191, 31888.94324170867, 76234.67013057115, 0.028, 0.9460000000000001, 0.14400000000000002, 192.0, 0.0, 0.0, 0.0, 0.0, 0.0, 0.0, 0.0, 0.0, 0.0, 1.6665570699774084E9, 0.0, 2022-10-23 13:31:09.977
248.0, -80222.46721058694, -117742.1948602432, 24963.210518742864, 82676.91226922421, 47854.28021601203, 45511.415065695655, 32071.31112471952, 76373.40740840524, 0.028, 0.9460000000000001, 0.14400000000000002, 192.0, 0.0, 0.0, 0.0, 0.0, 0.0, 0.0, 0.0, 0.0, 0.0, 1.6665570699774303E9, 0.0, 2022-10-23 13:31:09.977
249.0, -80216.72281226193, -117741.32314220944, 25053.35510413112, 82672.2631063775, 47851.26273051056, 45498.80868182286, 32084.900985348344, 76357.11298669732, 0.028, 0.9460000000000001, 0.14400000000000002, 192.0, 0.0, 0.0, 0.0, 0.0, 0.0, 0.0, 0.0, 0.0, 0.0, 1.6665570699774525E9, 0.0, 2022-10-23 13:31:09.977
250.0, -80208.81029472474, -117731.53307813802, 24862.15828206042, 82683.19310941614, 47861.56688470446, 45516.511263431465, 31937.13360275431, 76247.79060456641, 0.03, 0.9520000000000001, 0.14, 192.0, 0.0, 240.0, 29.0, 192.0, 4.0, 96.0, 0.0, 0.0, 0.0, 1.6665570699775567E9, 0.0, 2022-10-23 13:31:09.977
251.0, -80212.6324430266, -117732.18127872722, 24685.467742141216, 82688.17754842968, 47865.76901266206, 45522.70269664558, 31889.636145786782, 76230.13272644673, 0.03, 0.9520000000000001, 0.14, 192.0, 0.0, 0.0, 0.0, 0.0, 0.0, 0.0, 0.0, 0.0, 0.0, 1.6665570699775825E9, 0.0, 2022-10-23 13:31:09.977
252.0, -80230.9385217355, -117751.0461510475, 24902.100849402053, 82679.61683030329, 47850.34630898789, 45513.82905409683, 32059.017665269097, 76362.29859141094, 0.03, 0.9520000000000001, 0.14, 192.0, 0.0, 0.0, 0.0, 0.0, 0.0, 0.0, 0.0, 0.0, 0.0, 1.6665570699776044E9, 0.0, 2022-10-23 13:31:09.977
253.0, -80238.49341136139, -117757.84108136191, 25011.110307110586, 82665.13289989626, 47834.70008786918, 45493.60072536478, 32075.96028756622, 76344.14897491325, 0.03, 0.9520000000000001, 0.14, 192.0, 0.0, 0.0, 0.0, 0.0, 0.0, 0.0, 0.0, 0.0, 0.0, 1.6665570699776273E9, 0.0, 2022-10-23 13:31:09.977
254.0, -80237.15230669407, -117756.7458458836, 24835.090319525043, 82668.95504819811, 47838.85751233787, 45493.39955966468, 31917.285253677997, 76226.77996477843, 0.03, 0.9520000000000001, 0.14, 192.0, 0.0, 0.0, 0.0, 0.0, 0.0, 0.0, 0.0, 0.0, 0.0, 1.666557069977649E9, 0.0, 2022-10-23 13:31:09.977
255.0, -80236.6382165716, -117756.27645925003, 24667.16166343232, 82669.64795227622, 47835.92943381422, 45491.47730964152, 31870.30188683294, 76204.60703427876, 0.03, 0.9520000000000001, 0.14, 192.0, 0.0, 0.0, 0.0, 0.0, 0.0, 0.0, 0.0, 0.0, 0.0, 1.6665570699776714E9, 0.0, 2022-10-23 13:31:09.977
0.0, -80238.18048693902, -117758.42222671774, 24805.340147655028, 82670.69848426562, 47835.66121288076, 45503.81547258085, 31997.1033331279, 76313.37062279829, 0.03, 0.9520000000000001, 0.14, 192.0, 0.0, 0.0, 0.0, 0.0, 0.0, 0.0, 0.0, 0.0, 0.0, 1.6665570699776933E9, 0.0, 2022-10-23 13:31:09.977
1.0, -80231.7431845359, -117751.76140687006, 24992.781876657235, 82664.81997547389, 47835.974137303136, 45509.55987090586, 32085.25861325963, 76361.24805942154, 0.03, 0.9520000000000001, 0.14, 192.0, 0.0, 0.0, 0.0, 0.0, 0.0, 0.0, 0.0, 0.0, 0.0, 1.666557069977715E9, 0.0, 2022-10-23 13:31:09.977
2.0, -80221.10375417516, -117740.07144451994, 24836.87845908147, 82671.50314706602, 47844.288986240506, 45514.566661663855, 31929.42225091723, 76245.01898825396, 0.03, 0.9520000000000001, 0.14, 192.0, 0.0, 0.0, 0.0, 0.0, 0.0, 0.0, 0.0, 0.0, 0.0, 1.6665570699777372E9, 0.0, 2022-10-23 13:31:09.977
3.0, -80213.72767850492, -117736.31635145145, 24654.15294815933, 82677.60517330232, 47846.25593975258, 45519.05936229937, 31862.948162907145, 76215.82760999532, 0.03, 0.9520000000000001, 0.14, 192.0, 0.0, 0.0, 0.0, 0.0, 0.0, 0.0, 0.0, 0.0, 0.0, 1.6665570699777596E9, 0.0, 2022-10-23 13:31:09.977
4.0, -80219.87440823013, -117742.10545326537, 24738.106100333465, 82672.35251335532, 47839.6398233938, 45518.50056868799, 31973.701056683192, 76313.4600297761, 0.026000000000000002, 0.9460000000000001, 0.132, 192.0, 0.0, 208.0, 29.0, 144.0, 4.0, 32.0, 0.0, 0.0, 0.0, 1.6665570699777813E9, 0.0, 2022-10-23 13:31:09.977
5.0, -80222.15428616456, -117743.46890967715, 24997.542798226215, 82664.6635132627, 47829.02274477753, 45507.212937738055, 32120.328500310006, 76398.26254823954, 0.026000000000000002, 0.9460000000000001, 0.132, 192.0, 0.0, 0.0, 0.0, 0.0, 0.0, 0.0, 0.0, 0.0, 0.0, 1.666557069977815E9, 0.0, 2022-10-23 13:31:09.977
6.0, -80216.54399830628, -117738.12684275233, 24901.0279656682, 82670.63142903226, 47834.364811702355, 45507.45880692707, 31997.1033331279, 76288.24726203052, 0.026000000000000002, 0.9460000000000001, 0.132, 192.0, 0.0, 0.0, 0.0, 0.0, 0.0, 0.0, 0.0, 0.0, 0.0, 1.6665570699778368E9, 0.0, 2022-10-23 13:31:09.977
7.0, -80210.59843428117, -117736.3834066848, 24684.730134574194, 82678.40983610271, 47843.88665484031, 45523.03797281242, 31881.321296849408, 76216.00642395097, 0.026000000000000002, 0.9460000000000001, 0.132, 192.0, 0.0, 0.0, 0.0, 0.0, 0.0, 0.0, 0.0, 0.0, 0.0, 1.6665570699778583E9, 0.0, 2022-10-23 13:31:09.977
8.0, -80218.42154484053, -117750.86733709186, 24678.538701360074, 82672.88895522225, 47835.23652973611, 45522.76975187895, 31940.285198722508, 76274.6574014017, 0.026000000000000002, 0.9460000000000001, 0.132, 192.0, 0.0, 0.0, 0.0, 0.0, 0.0, 0.0, 0.0, 0.0, 0.0, 1.666557069977882E9, 0.0, 2022-10-23 13:31:09.977
9.0, -80223.24952164287, -117753.66130514877, 24956.95203029538, 82661.1095858943, 47820.90906154026, 45509.872795328236, 32109.420849015816, 76381.00700152005, 0.026000000000000002, 0.9460000000000001, 0.132, 192.0, 0.0, 0.0, 0.0, 0.0, 0.0, 0.0, 0.0, 0.0, 0.0, 1.6665570699779265E9, 0.0, 2022-10-23 13:31:09.977
10.0, -80213.10182966017, -117741.50195616508, 24917.858829243047, 82663.79179522894, 47829.33566919991, 45508.397580194185, 32019.52213281657, 76295.73509642304, 0.026000000000000002, 0.9460000000000001, 0.132, 192.0, 0.0, 0.0, 0.0, 0.0, 0.0, 0.0, 0.0, 0.0, 0.0, 1.666557069977949E9, 0.0, 2022-10-23 13:31:09.977
11.0, -80211.71602150393, -117737.00925552956, 24717.430736712307, 82669.1115104093, 47832.17434074573, 45513.985516308014, 31894.173549911207, 76215.06765068385, 0.026000000000000002, 0.9460000000000001, 0.132, 192.0, 0.0, 0.0, 0.0, 0.0, 0.0, 0.0, 0.0, 0.0, 0.0, 1.6665570699779713E9, 0.0, 2022-10-23 13:31:09.977
12.0, -80209.86082671414, -117733.61179037235, 24649.25791612362, 82672.71014126661, 47834.633032635815, 45518.38880996571, 31917.866399033835, 76249.80226156738, 0.026000000000000002, 0.9460000000000001, 0.132, 192.0, 0.0, 0.0, 0.0, 0.0, 0.0, 0.0, 0.0, 0.0, 0.0, 1.6665570699779935E9, 0.0, 2022-10-23 13:31:09.977
13.0, -80214.59939653867, -117738.26095321905, 24936.36607365204, 82670.00558018751, 47832.241395979094, 45517.91942333215, 32109.51025599364, 76386.86315856733, 0.026000000000000002, 0.9460000000000001, 0.132, 192.0, 0.0, 0.0, 0.0, 0.0, 0.0, 0.0, 0.0, 0.0, 0.0, 1.6665570699780152E9, 0.0, 2022-10-23 13:31:09.978
14.0, -80202.46239929943, -117727.2862466915, 24984.26586201976, 82674.29711512293, 47841.71853562815, 45528.67061241515, 32085.996220826655, 76342.69611152365, 0.026000000000000002, 0.9540000000000001, 0.136, 192.0, 0.0, 208.0, 29.0, 208.0, 4.0, 64.0, 0.0, 0.0, 0.0, 1.6665570699780369E9, 0.0, 2022-10-23 13:31:09.978
15.0, -80207.33507959069, -117732.44949966068, 24785.245929389708, 82674.78885350096, 47839.6398233938, 45527.24010077001, 31936.708919609657, 76234.96070324906, 0.026000000000000002, 0.9540000000000001, 0.136, 192.0, 0.0, 0.0, 0.0, 0.0, 0.0, 0.0, 0.0, 0.0, 0.0, 1.66655706997806E9, 0.0, 2022-10-23 13:31:09.978
16.0, -80222.40015535356, -117745.9946568006, 24625.654473978815, 82664.77527198497, 47822.42898016322, 45509.26929822795, 31890.574919053906, 76214.19593265008, 0.026000000000000002, 0.9540000000000001, 0.136, 192.0, 0.0, 0.0, 0.0, 0.0, 0.0, 0.0, 0.0, 0.0, 0.0, 1.6665570699780822E9, 0.0, 2022-10-23 13:31:09.978
