%OpenBCI Raw EEG Data
%Number of channels = 8
%Sample Rate = 250 Hz
%Board = OpenBCI_GUI$BoardCytonSerial
Sample Index, EXG Channel 0, EXG Channel 1, EXG Channel 2, EXG Channel 3, EXG Channel 4, EXG Channel 5, EXG Channel 6, EXG Channel 7, Accel Channel 0, Accel Channel 1, Accel Channel 2, Other, Other, Other, Other, Other, Other, Other, Analog Channel 0, Analog Channel 1, Analog Channel 2, Timestamp, Other, Timestamp (Formatted)
86.0, -83649.995464086, -120716.04975653288, 25590.40046815878, 83531.6206254507, 39685.164652486405, 51952.5619688704, 36690.36617164209, 72873.19128193751, 0.0, 0.0, 0.0, 192.0, 0.0, 0.0, 0.0, 0.0, 0.0, 0.0, 0.0, 0.0, 0.0, 1.6665571602110412E9, 0.0, 2022-10-23 13:32:40.211
87.0, -83639.71366163656, -120710.1935994856, 25735.038606529073, 83529.29604402735, 39690.46201592231, 51951.82436130338, 36738.66829141001, 72846.43624382452, 0.0, 0.0, 0.0, 192.0, 0.0, 0.0, 0.0, 0.0, 0.0, 0.0, 0.0, 0.0, 0.0, 1.6665571602110736E9, 0.0, 2022-10-23 13:32:40.211
88.0, -83632.87402783323, -120705.85736106127, 25545.540517036978, 83530.79361090585, 39693.635963634966, 51943.86714027729, 36563.631780580494, 72750.27903917778, 0.0, 0.0, 0.0, 192.0, 0.0, 0.0, 0.0, 0.0, 0.0, 0.0, 0.0, 0.0, 0.0, 1.666557160211092E9, 0.0, 2022-10-23 13:32:40.211
89.0, -83634.1927807561, -120705.32091919435, 25347.369950696226, 83528.2678637824, 39688.182137987875, 51940.24615767553, 36488.909898866405, 72748.78147229928, 0.0, 0.0, 0.0, 192.0, 0.0, 0.0, 0.0, 0.0, 0.0, 0.0, 0.0, 0.0, 0.0, 1.6665571602111182E9, 0.0, 2022-10-23 13:32:40.211
90.0, -83631.62233014374, -120701.1858464701, 25493.528007689478, 83532.6711574401, 39688.04802752114, 51945.25294843352, 36627.22249355585, 72854.92990671753, 0.0, 0.0, 0.0, 192.0, 0.0, 0.0, 0.0, 0.0, 0.0, 0.0, 0.0, 0.0, 0.0, 1.666557160211144E9, 0.0, 2022-10-23 13:32:40.211
91.0, -83614.85852180225, -120686.74661955198, 25689.776324007074, 83534.1687243186, 39691.51254791171, 51947.77869555697, 36717.165913244, 72862.3953893656, 0.0, 0.0, 0.0, 192.0, 0.0, 0.0, 0.0, 0.0, 0.0, 0.0, 0.0, 0.0, 0.0, 1.666557160211171E9, 0.0, 2022-10-23 13:32:40.211
92.0, -83596.57479483781, -120665.49011057499, 25524.351063293347, 83539.68960519906, 39703.269565495204, 51956.45117240563, 36552.14298393047, 72766.90873705254, 0.0, 0.0, 0.0, 192.0, 0.0, 0.0, 0.0, 0.0, 0.0, 0.0, 0.0, 0.0, 0.0, 1.6665571602111983E9, 0.0, 2022-10-23 13:32:40.211
93.0, -83598.7876175389, -120665.84773848626, 25335.367063923724, 83541.72361394449, 39702.95664107283, 51965.369518443295, 36486.115930809494, 72772.36256269962, 0.024, 0.9400000000000001, 0.146, 192.0, 0.0, 192.0, 29.0, 96.0, 4.0, 144.0, 0.0, 0.0, 0.0, 1.6665571602112296E9, 0.0, 2022-10-23 13:32:40.211
94.0, -83603.4367803856, -120670.85452924426, 25406.579721758335, 83542.30475930033, 39698.66510613741, 51968.655224878225, 36590.90090881597, 72853.61115379467, 0.024, 0.9400000000000001, 0.146, 192.0, 0.0, 0.0, 0.0, 0.0, 0.0, 0.0, 0.0, 0.0, 0.0, 1.666557160211252E9, 0.0, 2022-10-23 13:32:40.211
95.0, -83607.23657694299, -120671.79330251137, 25676.655850011808, 83528.7148986715, 39685.52228039769, 51950.90793978071, 36743.56332344572, 72890.33506993474, 0.024, 0.9400000000000001, 0.146, 192.0, 0.0, 0.0, 0.0, 0.0, 0.0, 0.0, 0.0, 0.0, 0.0, 1.6665571602112722E9, 0.0, 2022-10-23 13:32:40.211
96.0, -83592.97616398051, -120656.2811918594, 25569.25571790406, 83526.971462604, 39685.879908308976, 51942.68249782116, 36600.981545565315, 72777.68227788, 0.024, 0.9400000000000001, 0.146, 192.0, 0.0, 0.0, 0.0, 0.0, 0.0, 0.0, 0.0, 0.0, 0.0, 1.6665571602112925E9, 0.0, 2022-10-23 13:32:40.211
97.0, -83596.35127739326, -120661.1315204062, 25375.19787254308, 83526.07739282577, 39688.22684147678, 51954.35010842683, 36502.3656490285, 72762.170167228, 0.024, 0.9400000000000001, 0.146, 192.0, 0.0, 0.0, 0.0, 0.0, 0.0, 0.0, 0.0, 0.0, 0.0, 1.666557160211315E9, 0.0, 2022-10-23 13:32:40.211
98.0, -83605.00140249747, -120670.20632865505, 25380.02584934543, 83525.45154398102, 39685.20935597531, 51958.39577417324, 36571.901926028964, 72826.81141219275, 0.024, 0.9400000000000001, 0.146, 192.0, 0.0, 0.0, 0.0, 0.0, 0.0, 0.0, 0.0, 0.0, 0.0, 1.6665571602113423E9, 0.0, 2022-10-23 13:32:40.211
99.0, -83602.87798677421, -120668.26172688745, 25665.815253950987, 83524.98215734746, 39681.92364954038, 51957.36759392829, 36747.296064769755, 72893.91134904759, 0.024, 0.9400000000000001, 0.146, 192.0, 0.0, 0.0, 0.0, 0.0, 0.0, 0.0, 0.0, 0.0, 0.0, 1.6665571602113624E9, 0.0, 2022-10-23 13:32:40.211
100.0, -83586.15888192164, -120646.49112778797, 25637.674407681752, 83527.6643666821, 39688.67387636589, 51948.00221300152, 36662.0018079283, 72807.74537417237, 0.024, 0.9400000000000001, 0.146, 192.0, 0.0, 0.0, 0.0, 0.0, 0.0, 0.0, 0.0, 0.0, 0.0, 1.666557160211382E9, 0.0, 2022-10-23 13:32:40.211
101.0, -83584.10252143175, -120647.92163943312, 25454.50186187051, 83520.04242182284, 39683.04123676315, 51939.59795708632, 36542.48703032578, 72768.49571090886, 0.024, 0.9400000000000001, 0.146, 192.0, 0.0, 0.0, 0.0, 0.0, 0.0, 0.0, 0.0, 0.0, 0.0, 1.6665571602114024E9, 0.0, 2022-10-23 13:32:40.211
102.0, -83595.54661459287, -120661.3773895952, 25377.813026644355, 83518.99188983344, 39676.89450703794, 51944.247119933025, 36555.29457989867, 72809.42175500652, 0.024, 0.9400000000000001, 0.146, 192.0, 0.0, 0.0, 0.0, 0.0, 0.0, 0.0, 0.0, 0.0, 0.0, 1.6665571602115784E9, 0.0, 2022-10-23 13:32:40.211
103.0, -83592.30561164685, -120653.80014822485, 25676.231166867157, 83532.96173011801, 39687.109254254014, 51965.10129750983, 36751.207620049434, 72908.32822422126, 0.032, 0.9440000000000001, 0.14400000000000002, 192.0, 1.0, 0.0, 29.0, 128.0, 4.0, 128.0, 0.0, 0.0, 0.0, 1.6665571602115989E9, 0.0, 2022-10-23 13:32:40.211
104.0, -83585.93536447709, -120645.59705800976, 25752.830595115494, 83524.40101199162, 39685.05289376413, 51950.61736710279, 36735.896675097545, 72837.9425809315, 0.032, 0.9440000000000001, 0.14400000000000002, 192.0, 0.0, 0.0, 0.0, 0.0, 0.0, 0.0, 0.0, 0.0, 0.0, 1.66655716021162E9, 0.0, 2022-10-23 13:32:40.211
105.0, -83582.44849234205, -120642.89249693067, 25592.412125159757, 83527.97729110447, 39690.260850222214, 51952.58432061486, 36602.56851942164, 72779.35865871413, 0.032, 0.9440000000000001, 0.14400000000000002, 192.0, 0.0, 0.0, 0.0, 0.0, 0.0, 0.0, 0.0, 0.0, 0.0, 1.66655716021164E9, 0.0, 2022-10-23 13:32:40.211
106.0, -83595.4348558706, -120654.00131392495, 25492.410420466713, 83528.7148986715, 39687.6680478654, 51953.478390393066, 36596.220623996334, 72813.91445564205, 0.032, 0.9440000000000001, 0.14400000000000002, 192.0, 0.0, 0.0, 0.0, 0.0, 0.0, 0.0, 0.0, 0.0, 0.0, 1.66655716021166E9, 0.0, 2022-10-23 13:32:40.211
107.0, -83605.38138215321, -120664.59604079677, 25796.036517147604, 83523.4622387245, 39673.02765524717, 51942.637794332244, 36798.48155957241, 72912.64211090114, 0.032, 0.9440000000000001, 0.14400000000000002, 192.0, 0.0, 0.0, 0.0, 0.0, 0.0, 0.0, 0.0, 0.0, 0.0, 1.66655716021168E9, 0.0, 2022-10-23 13:32:40.211
108.0, -83599.6369838282, -120658.20344188255, 25965.038056974183, 83521.65174742363, 39677.87798379397, 51948.78452405745, 36840.838115315215, 72872.4536743705, 0.032, 0.9440000000000001, 0.14400000000000002, 192.0, 0.0, 0.0, 0.0, 0.0, 0.0, 0.0, 0.0, 0.0, 0.0, 1.666557160211704E9, 0.0, 2022-10-23 13:32:40.211
109.0, -83587.85761450024, -120641.14906086316, 25828.290084396613, 83536.73917493096, 39696.832263092074, 51966.6659196217, 36693.65187807702, 72792.43442922049, 0.032, 0.9440000000000001, 0.14400000000000002, 192.0, 0.0, 0.0, 0.0, 0.0, 0.0, 0.0, 0.0, 0.0, 0.0, 1.6665571602117236E9, 0.0, 2022-10-23 13:32:40.211
110.0, -83587.0753034443, -120641.17141260761, 25693.576120564478, 83542.03653836687, 39701.81670210561, 51971.22567549058, 36656.79385147022, 72802.89504562558, 0.032, 0.9440000000000001, 0.14400000000000002, 192.0, 0.0, 0.0, 0.0, 0.0, 0.0, 0.0, 0.0, 0.0, 0.0, 1.6665571602117434E9, 0.0, 2022-10-23 13:32:40.211
111.0, -83607.16952170963, -120663.478453574, 25912.019719126194, 83531.03948009486, 39684.20352747483, 51961.301500952424, 36815.737106291905, 72890.17860772356, 0.032, 0.9440000000000001, 0.14400000000000002, 192.0, 0.0, 0.0, 0.0, 0.0, 0.0, 0.0, 0.0, 0.0, 0.0, 1.666557160211763E9, 0.0, 2022-10-23 13:32:40.211
112.0, -83607.01305949844, -120658.49401456048, 26108.379794166067, 83523.28342476886, 39680.5154896397, 51956.18295147216, 36881.607697201696, 72872.2525086704, 0.032, 0.9440000000000001, 0.14400000000000002, 192.0, 0.0, 0.0, 0.0, 0.0, 0.0, 0.0, 0.0, 0.0, 0.0, 1.6665571602117825E9, 0.0, 2022-10-23 13:32:40.211
113.0, -83599.16759719462, -120648.27926734439, 25988.99912703027, 83526.05504108132, 39686.215184475805, 51950.4609048916, 36736.678986153485, 72789.79692337477, 0.036000000000000004, 0.9500000000000001, 0.146, 192.0, 1.0, 32.0, 29.0, 176.0, 4.0, 144.0, 0.0, 0.0, 0.0, 1.6665571602118013E9, 0.0, 2022-10-23 13:32:40.211
114.0, -83604.62142284172, -120656.41530232613, 25865.282221470145, 83530.10070682772, 39685.455225164325, 51950.17033221368, 36697.60813684561, 72793.2837955098, 0.036000000000000004, 0.9500000000000001, 0.146, 192.0, 0.0, 0.0, 0.0, 0.0, 0.0, 0.0, 0.0, 0.0, 0.0, 1.666557160211822E9, 0.0, 2022-10-23 13:32:40.211
115.0, -83613.33860317929, -120666.65240128666, 25999.61620564654, 83531.73238417297, 39680.80606231762, 51958.731050340066, 36803.577757308216, 72865.32346788925, 0.036000000000000004, 0.9500000000000001, 0.146, 192.0, 0.0, 0.0, 0.0, 0.0, 0.0, 0.0, 0.0, 0.0, 0.0, 1.6665571602118416E9, 0.0, 2022-10-23 13:32:40.211
116.0, -83606.29780367587, -120655.76710173693, 26276.464912469975, 83527.75377365992, 39681.65542860692, 51960.20626547412, 36932.8155437488, 72894.31368044778, 0.036000000000000004, 0.9500000000000001, 0.146, 192.0, 0.0, 0.0, 0.0, 0.0, 0.0, 0.0, 0.0, 0.0, 0.0, 1.6665571602118611E9, 0.0, 2022-10-23 13:32:40.211
117.0, -83600.5310536064, -120646.98286616598, 26213.455344850463, 83524.9151021141, 39684.114120497004, 51951.243215947536, 36810.95383297847, 72808.17005731702, 0.036000000000000004, 0.9500000000000001, 0.146, 192.0, 0.0, 0.0, 0.0, 0.0, 0.0, 0.0, 0.0, 0.0, 0.0, 1.666557160211882E9, 0.0, 2022-10-23 13:32:40.211
118.0, -83608.19770195457, -120654.80597672534, 26050.980514404837, 83523.79751489134, 39679.95669602832, 51947.75634381251, 36718.417610933495, 72782.73377212689, 0.036000000000000004, 0.9500000000000001, 0.146, 192.0, 0.0, 0.0, 0.0, 0.0, 0.0, 0.0, 0.0, 0.0, 0.0, 1.6665571602119493E9, 0.0, 2022-10-23 13:32:40.211
119.0, -83611.8857397897, -120658.76223549394, 26122.953131550927, 83524.84804688074, 39675.173422714885, 51954.32775668237, 36802.460170085455, 72856.24865964039, 0.036000000000000004, 0.9500000000000001, 0.146, 192.0, 0.0, 0.0, 0.0, 0.0, 0.0, 0.0, 0.0, 0.0, 0.0, 1.6665571602119691E9, 0.0, 2022-10-23 13:32:40.211
120.0, -83610.29876593337, -120657.51053780444, 26443.723016229036, 83522.97050034649, 39672.737082569256, 51957.70287009512, 36976.22263148101, 72912.59740741222, 0.036000000000000004, 0.9500000000000001, 0.146, 192.0, 0.0, 0.0, 0.0, 0.0, 0.0, 0.0, 0.0, 0.0, 0.0, 1.6665571602119896E9, 0.0, 2022-10-23 13:32:40.211
121.0, -83596.21716692652, -120642.26664808592, 26405.434477977095, 83525.27273002539, 39685.49992865323, 51960.20626547412, 36867.280229005846, 72812.21572306345, 0.036000000000000004, 0.9500000000000001, 0.146, 192.0, 0.0, 0.0, 0.0, 0.0, 0.0, 0.0, 0.0, 0.0, 0.0, 1.6665571602120106E9, 0.0, 2022-10-23 13:32:40.212
122.0, -83587.9246697336, -120636.76811894991, 26222.10546995467, 83530.19011380555, 39693.99359154625, 51966.196532988135, 36745.26205602432, 72780.14096977007, 0.044, 0.9500000000000001, 0.15, 192.0, 1.0, 96.0, 29.0, 176.0, 4.0, 176.0, 0.0, 0.0, 0.0, 1.6665571602120304E9, 0.0, 2022-10-23 13:32:40.212
123.0, -83593.7808267809, -120641.99842715246, 26214.41646986204, 83530.48068648347, 39685.879908308976, 51963.76019284251, 36789.47380655692, 72835.97562741944, 0.044, 0.9500000000000001, 0.15, 192.0, 0.0, 0.0, 0.0, 0.0, 0.0, 0.0, 0.0, 0.0, 0.0, 1.6665571602120516E9, 0.0, 2022-10-23 13:32:40.212
124.0, -83601.60393734026, -120649.10628188924, 26524.099889290323, 83524.02103233589, 39671.887716279954, 51952.33845142585, 36962.69982608555, 72901.64505262913, 0.044, 0.9500000000000001, 0.15, 192.0, 0.0, 0.0, 0.0, 0.0, 0.0, 0.0, 0.0, 0.0, 0.0, 1.6665571602120717E9, 0.0, 2022-10-23 13:32:40.212
125.0, -83594.04904771436, -120643.94302892007, 26529.084328303856, 83519.03659332235, 39673.47469013628, 51941.83313153186, 36876.422092488065, 72807.8347811502, 0.044, 0.9500000000000001, 0.15, 192.0, 0.0, 0.0, 0.0, 0.0, 0.0, 0.0, 0.0, 0.0, 0.0, 1.6665571602120912E9, 0.0, 2022-10-23 13:32:40.212
126.0, -83598.96643149453, -120647.00521791044, 26363.234384445477, 83514.14156128664, 39672.33475116906, 51944.49298912204, 36746.89373336956, 72765.65703936304, 0.044, 0.9500000000000001, 0.15, 192.0, 0.0, 0.0, 0.0, 0.0, 0.0, 0.0, 0.0, 0.0, 0.0, 1.6665571602121112E9, 0.0, 2022-10-23 13:32:40.212
127.0, -83596.12775994871, -120642.57957250829, 26286.322031774765, 83522.72463115749, 39680.04610300614, 51956.495875894536, 36753.04046309477, 72809.77938291781, 0.044, 0.9500000000000001, 0.15, 192.0, 0.0, 0.0, 0.0, 0.0, 0.0, 0.0, 0.0, 0.0, 0.0, 1.6665571602121308E9, 0.0, 2022-10-23 13:32:40.212
128.0, -83598.80996928335, -120647.8769359442, 26581.700334751647, 83523.30577651331, 39674.10053898103, 51950.57266361388, 36937.107078684225, 72906.74125036494, 0.044, 0.9500000000000001, 0.15, 192.0, 0.0, 0.0, 0.0, 0.0, 0.0, 0.0, 0.0, 0.0, 0.0, 1.6665571602121499E9, 0.0, 2022-10-23 13:32:40.212
129.0, -83594.69724830356, -120640.56791550732, 26672.671934684746, 83520.04242182284, 39675.08401573706, 51946.974032756574, 36920.03034592037, 72837.71906348695, 0.044, 0.9500000000000001, 0.15, 192.0, 0.0, 0.0, 0.0, 0.0, 0.0, 0.0, 0.0, 0.0, 0.0, 1.666557160212172E9, 0.0, 2022-10-23 13:32:40.212
130.0, -83594.4290273701, -120645.86527894322, 26526.759746880503, 83519.77420088938, 39679.084977994564, 51953.36663167079, 36784.66818149903, 72778.71045812493, 0.044, 0.9500000000000001, 0.15, 192.0, 0.0, 0.0, 0.0, 0.0, 0.0, 0.0, 0.0, 0.0, 0.0, 1.6665571602121913E9, 0.0, 2022-10-23 13:32:40.212
131.0, -83603.54853910787, -120657.08585465979, 26406.395602988676, 83519.50597995591, 39670.412501145904, 51946.14701821173, 36756.84025965217, 72788.74639138537, 0.044, 0.9500000000000001, 0.15, 192.0, 0.0, 0.0, 0.0, 0.0, 0.0, 0.0, 0.0, 0.0, 0.0, 1.666557160212211E9, 0.0, 2022-10-23 13:32:40.212
132.0, -83613.3833066682, -120661.93618320659, 26652.354198974874, 83517.62843342168, 39658.36491088449, 51932.33364013835, 36918.13044764167, 72868.74328479091, 0.042, 0.9500000000000001, 0.152, 192.0, 1.0, 80.0, 29.0, 176.0, 4.0, 192.0, 0.0, 0.0, 0.0, 1.666557160212231E9, 0.0, 2022-10-23 13:32:40.212
133.0, -83613.15978922365, -120664.50663381895, 26811.856247407944, 83509.82767460677, 39656.37560562797, 51928.600898814315, 36954.69790157055, 72837.24967685339, 0.042, 0.9500000000000001, 0.152, 192.0, 0.0, 0.0, 0.0, 0.0, 0.0, 0.0, 0.0, 0.0, 0.0, 1.666557160212268E9, 0.0, 2022-10-23 13:32:40.212
134.0, -83602.36389665173, -120653.91190694713, 26662.636001424315, 83515.14738978713, 39666.38918714395, 51942.28016642096, 36796.3357921047, 72754.50351887984, 0.042, 0.9500000000000001, 0.152, 192.0, 0.0, 0.0, 0.0, 0.0, 0.0, 0.0, 0.0, 0.0, 0.0, 1.666557160212288E9, 0.0, 2022-10-23 13:32:40.212
135.0, -83594.22786167, -120644.79239520937, 26490.326403418352, 83525.20567479201, 39681.29780069564, 51966.64356787725, 36732.767430873806, 72765.05354226274, 0.042, 0.9500000000000001, 0.152, 192.0, 0.0, 0.0, 0.0, 0.0, 0.0, 0.0, 0.0, 0.0, 0.0, 1.6665571602123108E9, 0.0, 2022-10-23 13:32:40.212
136.0, -83599.12289370572, -120650.84971795675, 26674.124798074343, 83528.69254692705, 39676.80510006012, 51973.14792551374, 36879.283115778344, 72861.68013354304, 0.042, 0.9500000000000001, 0.152, 192.0, 0.0, 0.0, 0.0, 0.0, 0.0, 0.0, 0.0, 0.0, 0.0, 1.6665571602123325E9, 0.0, 2022-10-23 13:32:40.212
137.0, -83600.06166697285, -120653.88955520268, 26893.350707691996, 83521.29411951234, 39667.2609051777, 51955.49004739404, 36968.84655581076, 72857.79093000782, 0.042, 0.9500000000000001, 0.152, 192.0, 0.0, 0.0, 0.0, 0.0, 0.0, 0.0, 0.0, 0.0, 0.0, 1.666557160212354E9, 0.0, 2022-10-23 13:32:40.212
138.0, -83604.39790539717, -120656.50470930395, 26763.509424151114, 83517.9637095885, 39664.981027243266, 51940.17910244216, 36809.36685912214, 72754.7717398133, 0.042, 0.9500000000000001, 0.152, 192.0, 0.0, 0.0, 0.0, 0.0, 0.0, 0.0, 0.0, 0.0, 0.0, 1.6665571602123735E9, 0.0, 2022-10-23 13:32:40.212
139.0, -83605.67195483112, -120661.44444482856, 26594.68669828018, 83513.02397406388, 39661.80707953061, 51940.067343719886, 36734.10853554113, 72745.60752458662, 0.042, 0.9500000000000001, 0.152, 192.0, 0.0, 0.0, 0.0, 0.0, 0.0, 0.0, 0.0, 0.0, 0.0, 1.666557160212393E9, 0.0, 2022-10-23 13:32:40.212
140.0, -83604.24144318598, -120659.79041573888, 26655.639905409804, 83520.33299450076, 39663.68462606485, 51950.43855314715, 36804.24830964188, 72814.7861736758, 0.042, 0.9500000000000001, 0.152, 192.0, 0.0, 0.0, 0.0, 0.0, 0.0, 0.0, 0.0, 0.0, 0.0, 1.6665571602124126E9, 0.0, 2022-10-23 13:32:40.212
141.0, -83612.31042293434, -120668.17231990962, 26948.179536840864, 83513.06867755279, 39657.87317250647, 51951.869064792285, 36966.745491831956, 72862.35068587669, 0.042, 0.9500000000000001, 0.152, 192.0, 0.0, 0.0, 0.0, 0.0, 0.0, 0.0, 0.0, 0.0, 0.0, 1.6665571602124329E9, 0.0, 2022-10-23 13:32:40.212
142.0, -83597.22299542702, -120650.40268306764, 26875.6928295723, 83515.0132793204, 39668.37849240047, 51955.780620071964, 36846.42605142904, 72762.88542305058, 0.05, 0.9420000000000001, 0.154, 192.0, 1.0, 144.0, 29.0, 112.0, 4.0, 208.0, 0.0, 0.0, 0.0, 1.6665571602124524E9, 0.0, 2022-10-23 13:32:40.212
143.0, -83600.44164662858, -120651.54262203487, 26673.208376551676, 83517.38256423266, 39671.99947500223, 51959.11102999581, 36730.59931166164, 72738.3208558942, 0.05, 0.9420000000000001, 0.154, 192.0, 0.0, 0.0, 0.0, 0.0, 0.0, 0.0, 0.0, 0.0, 0.0, 1.666557160212473E9, 0.0, 2022-10-23 13:32:40.212
144.0, -83609.49410313298, -120661.80207273985, 26668.738027660613, 83515.8626456097, 39664.60104758752, 51953.45603864861, 36773.872288927116, 72800.61516769114, 0.05, 0.9420000000000001, 0.154, 192.0, 0.0, 0.0, 0.0, 0.0, 0.0, 0.0, 0.0, 0.0, 0.0, 1.6665571602124925E9, 0.0, 2022-10-23 13:32:40.212
145.0, -83605.62725134222, -120659.83511922779, 26944.37974028346, 83522.34465150174, 39669.719597067786, 51962.62025387529, 36929.57454080279, 72862.28363064333, 0.05, 0.9420000000000001, 0.154, 192.0, 0.0, 0.0, 0.0, 0.0, 0.0, 0.0, 0.0, 0.0, 0.0, 1.6665571602125115E9, 0.0, 2022-10-23 13:32:40.212
146.0, -83592.55148083586, -120648.90511618914, 26894.311832703574, 83518.92483460008, 39669.40667264541, 51957.546407883936, 36822.867312773145, 72769.90387080955, 0.05, 0.9420000000000001, 0.154, 192.0, 0.0, 0.0, 0.0, 0.0, 0.0, 0.0, 0.0, 0.0, 0.0, 1.6665571602125309E9, 0.0, 2022-10-23 13:32:40.212
147.0, -83589.01990521191, -120647.85458419974, 26709.753478736104, 83522.0093753349, 39674.32405642558, 51960.31802419639, 36708.87341605108, 72748.73676881037, 0.05, 0.9420000000000001, 0.154, 192.0, 0.0, 0.0, 0.0, 0.0, 0.0, 0.0, 0.0, 0.0, 0.0, 1.66655716021255E9, 0.0, 2022-10-23 13:32:40.212
148.0, -83597.71473380503, -120660.63978202819, 26649.113196028855, 83530.1677620611, 39674.14524246994, 51963.58137888687, 36732.610968662615, 72792.65794666504, 0.05, 0.9420000000000001, 0.154, 192.0, 0.0, 0.0, 0.0, 0.0, 0.0, 0.0, 0.0, 0.0, 0.0, 1.6665571602126107E9, 0.0, 2022-10-23 13:32:40.212
149.0, -83604.35320190826, -120663.70197101856, 26939.462356503293, 83519.77420088938, 39662.18705918635, 51959.781582329466, 36913.97302317298, 72869.01150572438, 0.05, 0.9420000000000001, 0.154, 192.0, 0.0, 0.0, 0.0, 0.0, 0.0, 0.0, 0.0, 0.0, 0.0, 1.666557160212632E9, 0.0, 2022-10-23 13:32:40.212
150.0, -83585.73419877699, -120639.91971491811, 26964.362199826504, 83506.38550596064, 39654.542762582634, 51939.709715808596, 36857.892496334614, 72785.79596111727, 0.05, 0.9420000000000001, 0.154, 192.0, 0.0, 0.0, 0.0, 0.0, 0.0, 0.0, 0.0, 0.0, 0.0, 1.6665571602126555E9, 0.0, 2022-10-23 13:32:40.212
151.0, -83579.65452428514, -120631.58251423629, 26798.758125157136, 83511.90638684112, 39658.27550390667, 51939.95558499761, 36731.158105273025, 72739.84077451716, 0.05, 0.9420000000000001, 0.154, 192.0, 0.0, 0.0, 0.0, 0.0, 0.0, 0.0, 0.0, 0.0, 0.0, 1.666557160212675E9, 0.0, 2022-10-23 13:32:40.212
152.0, -83595.36780063722, -120654.53775579188, 26707.741821735126, 83533.87815164067, 39677.45330064932, 51967.671748122186, 36737.863628609615, 72790.48982745288, 0.052000000000000005, 0.9380000000000001, 0.154, 192.0, 1.0, 160.0, 29.0, 80.0, 4.0, 208.0, 0.0, 0.0, 0.0, 1.6665571602126946E9, 0.0, 2022-10-23 13:32:40.212
153.0, -83627.21903648604, -120690.27819517592, 26967.446740561336, 83534.72751792998, 39679.12968148347, 51976.09835578184, 36911.89431093864, 72889.95509027899, 0.052000000000000005, 0.9380000000000001, 0.154, 192.0, 0.0, 0.0, 0.0, 0.0, 0.0, 0.0, 0.0, 0.0, 0.0, 1.666557160212715E9, 0.0, 2022-10-23 13:32:40.212
154.0, -83649.66018791917, -120707.8913698067, 27049.812918879143, 83509.5594536733, 39657.202620172815, 51947.24225369004, 36898.930299154556, 72818.47421151093, 0.052000000000000005, 0.9380000000000001, 0.154, 192.0, 0.0, 0.0, 0.0, 0.0, 0.0, 0.0, 0.0, 0.0, 0.0, 1.6665571602127335E9, 0.0, 2022-10-23 13:32:40.212
155.0, -83664.05471134839, -120720.67656763514, 26856.716198529746, 83510.14059902914, 39658.45431786231, 51951.08675373635, 36731.716898884406, 72739.43844311696, 0.052000000000000005, 0.9380000000000001, 0.154, 192.0, 0.0, 0.0, 0.0, 0.0, 0.0, 0.0, 0.0, 0.0, 0.0, 1.6665571602127528E9, 0.0, 2022-10-23 13:32:40.212
156.0, -83668.5474119839, -120729.28198925043, 26690.732144204634, 83528.73725041596, 39673.42998664737, 51967.93996905565, 36689.53915709724, 72764.38298992909, 0.052000000000000005, 0.9380000000000001, 0.154, 192.0, 0.0, 0.0, 0.0, 0.0, 0.0, 0.0, 0.0, 0.0, 0.0, 1.666557160212772E9, 0.0, 2022-10-23 13:32:40.212
157.0, -83683.67954298014, -120743.49769872401, 26868.69673355779, 83532.15706731762, 39672.17828895787, 51971.67271037969, 36827.0917924752, 72857.16508116307, 0.052000000000000005, 0.9380000000000001, 0.154, 192.0, 0.0, 0.0, 0.0, 0.0, 0.0, 0.0, 0.0, 0.0, 0.0, 1.6665571602127912E9, 0.0, 2022-10-23 13:32:40.212
158.0, -83702.47736006706, -120766.4082367907, 27014.318348684115, 83521.718802657, 39667.618533088986, 51967.537637655456, 36873.762234897884, 72830.61120875015, 0.052000000000000005, 0.9380000000000001, 0.154, 192.0, 0.0, 0.0, 0.0, 0.0, 0.0, 0.0, 0.0, 0.0, 0.0, 1.6665571602128105E9, 0.0, 2022-10-23 13:32:40.212
159.0, -83710.14400841523, -120776.5112252845, 26838.54423028758, 83519.0142415779, 39668.13262321146, 51960.49683815204, 36705.1630264715, 72737.49384134935, 0.052000000000000005, 0.9380000000000001, 0.154, 192.0, 0.0, 0.0, 0.0, 0.0, 0.0, 0.0, 0.0, 0.0, 0.0, 1.6665571602128315E9, 0.0, 2022-10-23 13:32:40.212
160.0, -83718.36945037478, -120791.82217023638, 26623.609855605348, 83522.5681689463, 39667.10444296652, 51963.693137609145, 36621.27692953074, 72739.30433265022, 0.052000000000000005, 0.9380000000000001, 0.154, 192.0, 0.0, 0.0, 0.0, 0.0, 0.0, 0.0, 0.0, 0.0, 0.0, 1.666557160212854E9, 0.0, 2022-10-23 13:32:40.212
161.0, -83733.03219473746, -120807.42368786618, 26729.62417955687, 83523.55164570232, 39661.89648650843, 51969.12461151178, 36732.3203959847, 72823.95038890248, 0.044, 0.9480000000000001, 0.162, 192.0, 1.0, 96.0, 29.0, 160.0, 5.0, 16.0, 0.0, 0.0, 0.0, 1.6665571602128732E9, 0.0, 2022-10-23 13:32:40.212
162.0, -83748.58900887836, -120820.85708628382, 26948.514813007692, 83511.72757288547, 39654.18513467135, 51958.97691952907, 36846.80603108478, 72840.66949375505, 0.044, 0.9480000000000001, 0.162, 192.0, 0.0, 0.0, 0.0, 0.0, 0.0, 0.0, 0.0, 0.0, 0.0, 1.666557160212894E9, 0.0, 2022-10-23 13:32:40.212
163.0, -83739.2683314405, -120815.09033621436, 26804.234302548684, 83509.22417750648, 39652.866381748485, 51940.67084082018, 36692.06490422069, 72732.35294012463, 0.044, 0.9480000000000001, 0.162, 192.0, 0.0, 0.0, 0.0, 0.0, 0.0, 0.0, 0.0, 0.0, 0.0, 1.6665571602129135E9, 0.0, 2022-10-23 13:32:40.212
164.0, -83744.43158440967, -120819.09129847185, 26572.334953824873, 83512.77810487487, 39658.43196611786, 51943.420105388184, 36584.70947560185, 72715.58913178316, 0.044, 0.9480000000000001, 0.162, 192.0, 0.0, 0.0, 0.0, 0.0, 0.0, 0.0, 0.0, 0.0, 0.0, 1.6665571602129798E9, 0.0, 2022-10-23 13:32:40.212
165.0, -83764.03406429697, -120842.29240921646, 26615.89850376827, 83509.26888099538, 39650.1618206694, 51947.97986125707, 36674.809357501195, 72796.05541182225, 0.044, 0.9480000000000001, 0.162, 192.0, 0.0, 0.0, 0.0, 0.0, 0.0, 0.0, 0.0, 0.0, 0.0, 1.6665571602129998E9, 0.0, 2022-10-23 13:32:40.212
166.0, -83761.55302066244, -120840.05723477092, 26884.231195954228, 83507.36898271668, 39647.837239246044, 51949.32096592438, 36834.57962686773, 72840.58008677722, 0.044, 0.9480000000000001, 0.162, 192.0, 0.0, 0.0, 0.0, 0.0, 0.0, 0.0, 0.0, 0.0, 0.0, 1.6665571602130191E9, 0.0, 2022-10-23 13:32:40.213
167.0, -83752.43350892467, -120830.8706677998, 26777.21104350222, 83507.90542458362, 39652.97814047076, 51942.83896003234, 36699.061000235204, 72733.40347211403, 0.044, 0.9480000000000001, 0.162, 192.0, 0.0, 0.0, 0.0, 0.0, 0.0, 0.0, 0.0, 0.0, 0.0, 1.6665571602130387E9, 0.0, 2022-10-23 13:32:40.213
168.0, -83748.54430538944, -120829.68602534366, 26564.534195009972, 83508.86654959519, 39651.79349801463, 51944.64945133322, 36586.87759481402, 72701.52988452076, 0.044, 0.9480000000000001, 0.162, 192.0, 0.0, 0.0, 0.0, 0.0, 0.0, 0.0, 0.0, 0.0, 0.0, 1.666557160213058E9, 0.0, 2022-10-23 13:32:40.213
169.0, -83738.37426166228, -120819.11365021631, 26535.186354540154, 83518.54485494434, 39660.04129171864, 51960.34037594085, 36640.56648499567, 72774.59773714516, 0.044, 0.9480000000000001, 0.162, 192.0, 0.0, 0.0, 0.0, 0.0, 0.0, 0.0, 0.0, 0.0, 0.0, 1.6665571602130773E9, 0.0, 2022-10-23 13:32:40.213
170.0, -83743.73868033156, -120820.72297581709, 26803.563750215024, 83518.14252354414, 39653.626341059964, 51956.27235844998, 36813.85955975766, 72850.10192991518, 0.044, 0.9480000000000001, 0.162, 192.0, 0.0, 0.0, 0.0, 0.0, 0.0, 0.0, 0.0, 0.0, 0.0, 1.6665571602130964E9, 0.0, 2022-10-23 13:32:40.213
171.0, -83730.32763365837, -120807.53544658846, 26745.62802858687, 83520.15418054511, 39661.695320808336, 51954.55127412693, 36713.254357964324, 72762.08076025019, 0.05, 0.9440000000000001, 0.162, 192.0, 1.0, 144.0, 29.0, 128.0, 5.0, 16.0, 0.0, 0.0, 0.0, 1.666557160213116E9, 0.0, 2022-10-23 13:32:40.213
172.0, -83732.3616424038, -120814.0174524805, 26525.463345702094, 83514.8568171092, 39660.5106783522, 51956.562931127904, 36576.640495853484, 72723.27813187578, 0.05, 0.9440000000000001, 0.162, 192.0, 0.0, 0.0, 0.0, 0.0, 0.0, 0.0, 0.0, 0.0, 0.0, 1.666557160213138E9, 0.0, 2022-10-23 13:32:40.213
173.0, -83746.62205536629, -120825.46154564162, 26436.078719625322, 83514.96857583149, 39652.55345732611, 51950.72912582506, 36599.88631008701, 72764.8747283071, 0.05, 0.9440000000000001, 0.162, 192.0, 0.0, 0.0, 0.0, 0.0, 0.0, 0.0, 0.0, 0.0, 0.0, 1.6665571602131572E9, 0.0, 2022-10-23 13:32:40.213
174.0, -83748.67841585618, -120824.18749620767, 26694.442533784215, 83515.50501769842, 39647.077279934565, 51946.16936995618, 36777.87325118462, 72850.68307527102, 0.05, 0.9440000000000001, 0.162, 192.0, 0.0, 0.0, 0.0, 0.0, 0.0, 0.0, 0.0, 0.0, 0.0, 1.6665571602131767E9, 0.0, 2022-10-23 13:32:40.213
175.0, -83737.45784013961, -120811.20113267913, 26699.851655942402, 83513.85098860873, 39654.408652115904, 51948.47159963508, 36721.39039294606, 72781.99616455987, 0.05, 0.9440000000000001, 0.162, 192.0, 0.0, 0.0, 0.0, 0.0, 0.0, 0.0, 0.0, 0.0, 0.0, 1.6665571602131963E9, 0.0, 2022-10-23 13:32:40.213
176.0, -83728.22656967957, -120804.763830276, 26498.931825033647, 83515.6614799096, 39658.6107800735, 51952.00317525902, 36575.813481308636, 72727.3685011111, 0.05, 0.9440000000000001, 0.162, 192.0, 0.0, 0.0, 0.0, 0.0, 0.0, 0.0, 0.0, 0.0, 0.0, 1.6665571602132154E9, 0.0, 2022-10-23 13:32:40.213
177.0, -83731.22170343659, -120807.98248147756, 26359.434587888074, 83512.73340138595, 39654.676873049364, 51948.00221300152, 36564.57055384762, 72757.11867298112, 0.05, 0.9440000000000001, 0.162, 192.0, 0.0, 0.0, 0.0, 0.0, 0.0, 0.0, 0.0, 0.0, 0.0, 1.666557160213235E9, 0.0, 2022-10-23 13:32:40.213
178.0, -83737.65900583971, -120812.27401641298, 26581.34270684036, 83514.90152059813, 39655.03450096065, 51959.66982360719, 36733.14741052955, 72846.5927060357, 0.05, 0.9440000000000001, 0.162, 192.0, 0.0, 0.0, 0.0, 0.0, 0.0, 0.0, 0.0, 0.0, 0.0, 1.6665571602132545E9, 0.0, 2022-10-23 13:32:40.213
179.0, -83740.83295355237, -120808.65303381122, 26684.048972612498, 83508.88890133964, 39649.98300671375, 51950.840884547346, 36754.06864333971, 72800.70457466895, 0.05, 0.9440000000000001, 0.162, 192.0, 0.0, 0.0, 0.0, 0.0, 0.0, 0.0, 0.0, 0.0, 0.0, 1.6665571602132895E9, 0.0, 2022-10-23 13:32:40.213
180.0, -83733.52393311547, -120799.98055696256, 26507.023156526466, 83510.47587519597, 39653.31341663759, 51956.54057938344, 36606.3906677235, 72728.4637365894, 0.05, 0.9440000000000001, 0.162, 192.0, 0.0, 0.0, 0.0, 0.0, 0.0, 0.0, 0.0, 0.0, 0.0, 1.666557160213312E9, 0.0, 2022-10-23 13:32:40.213
181.0, -83720.38110737575, -120790.48106556905, 26317.97210192348, 83526.30091027032, 39665.249248176726, 51971.40448944623, 36555.18282117639, 72749.13910021057, 0.056, 0.9380000000000001, 0.152, 192.0, 1.0, 192.0, 29.0, 80.0, 4.0, 192.0, 0.0, 0.0, 0.0, 1.6665571602133312E9, 0.0, 2022-10-23 13:32:40.213
182.0, -83730.79702029194, -120800.7181645296, 26463.37019960525, 83521.87526486818, 39656.21914341678, 51967.82821033338, 36686.09698845112, 72842.3458745892, 0.056, 0.9380000000000001, 0.152, 192.0, 0.0, 0.0, 0.0, 0.0, 0.0, 0.0, 0.0, 0.0, 0.0, 1.6665571602133517E9, 0.0, 2022-10-23 13:32:40.213
183.0, -83724.762049289, -120789.25171962402, 26640.485422669106, 83516.42143922109, 39654.833335260555, 51961.54737014144, 36767.54674524626, 72839.32838908774, 0.056, 0.9380000000000001, 0.152, 192.0, 0.0, 0.0, 0.0, 0.0, 0.0, 0.0, 0.0, 0.0, 0.0, 1.6665571602133713E9, 0.0, 2022-10-23 13:32:40.213
184.0, -83721.0069562205, -120783.19439687663, 26456.172937890642, 83513.64982290863, 39653.022843959676, 51948.940986268644, 36594.56659490664, 72739.90782975052, 0.056, 0.9380000000000001, 0.152, 192.0, 0.0, 0.0, 0.0, 0.0, 0.0, 0.0, 0.0, 0.0, 0.0, 1.6665571602133904E9, 0.0, 2022-10-23 13:32:40.213
185.0, -83727.9583487461, -120790.2128446356, 26247.787624333814, 83513.51571244189, 39649.446564846825, 51948.60571010181, 36516.9166346689, 72734.54341108125, 0.056, 0.9380000000000001, 0.152, 192.0, 0.0, 0.0, 0.0, 0.0, 0.0, 0.0, 0.0, 0.0, 0.0, 1.6665571602134101E9, 0.0, 2022-10-23 13:32:40.213
186.0, -83728.89712201324, -120795.57726330488, 26356.662971575617, 83519.88595961165, 39647.32314912357, 51956.138247983254, 36643.53926700822, 72829.11364187165, 0.056, 0.9380000000000001, 0.152, 192.0, 0.0, 0.0, 0.0, 0.0, 0.0, 0.0, 0.0, 0.0, 0.0, 1.6665571602134297E9, 0.0, 2022-10-23 13:32:40.213
187.0, -83729.47826736906, -120792.49272257004, 26582.63910801877, 83511.88403509665, 39641.84697173202, 51955.26652994949, 36765.28921905628, 72848.02321768085, 0.056, 0.9380000000000001, 0.152, 192.0, 0.0, 0.0, 0.0, 0.0, 0.0, 0.0, 0.0, 0.0, 0.0, 1.6665571602134488E9, 0.0, 2022-10-23 13:32:40.213
188.0, -83731.95931100361, -120793.76677200399, 26448.729806987027, 83503.0103925479, 39637.287215863136, 51938.97210824158, 36616.292490517204, 72738.90200125004, 0.056, 0.9380000000000001, 0.152, 192.0, 0.0, 0.0, 0.0, 0.0, 0.0, 0.0, 0.0, 0.0, 0.0, 1.666557160213468E9, 0.0, 2022-10-23 13:32:40.213
189.0, -83730.50644761401, -120793.09621967033, 26238.28813294031, 83504.53031117086, 39638.58361704154, 51935.28407040645, 36518.12362886949, 72715.83500097216, 0.056, 0.9380000000000001, 0.152, 192.0, 0.0, 0.0, 0.0, 0.0, 0.0, 0.0, 0.0, 0.0, 0.0, 1.6665571602134874E9, 0.0, 2022-10-23 13:32:40.213
190.0, -83727.66777606819, -120789.58699579084, 26266.63014490964, 83514.0074508199, 39646.04909968962, 51956.65233810572, 36608.51408344675, 72798.20117928996, 0.058, 0.9420000000000001, 0.152, 192.0, 1.0, 208.0, 29.0, 112.0, 4.0, 192.0, 0.0, 0.0, 0.0, 1.6665571602135065E9, 0.0, 2022-10-23 13:32:40.213
191.0, -83721.87867425426, -120782.25562360951, 26538.516764463995, 83518.8130758778, 39654.29689339363, 51969.39283244525, 36780.153129119055, 72861.9930579654, 0.058, 0.9420000000000001, 0.152, 192.0, 0.0, 0.0, 0.0, 0.0, 0.0, 0.0, 0.0, 0.0, 0.0, 1.666557160213534E9, 0.0, 2022-10-23 13:32:40.213
192.0, -83723.17507543268, -120783.95435618811, 26473.070856698854, 83514.18626477555, 39652.173477670374, 51951.84671304783, 36678.11741568058, 72768.09337950866, 0.058, 0.9420000000000001, 0.152, 192.0, 0.0, 0.0, 0.0, 0.0, 0.0, 0.0, 0.0, 0.0, 0.0, 1.6665571602135515E9, 0.0, 2022-10-23 13:32:40.213
193.0, -83725.25378766701, -120790.2128446356, 26250.738054601916, 83514.45448570902, 39647.92664622387, 51946.61640484529, 36547.76204201723, 72721.24412313034, 0.058, 0.9420000000000001, 0.152, 192.0, 0.0, 0.0, 0.0, 0.0, 0.0, 0.0, 0.0, 0.0, 0.0, 1.6665571602135715E9, 0.0, 2022-10-23 13:32:40.213
194.0, -83735.49088662755, -120802.2157314081, 26191.148303884067, 83516.28732875435, 39645.82558224507, 51954.528922382466, 36580.507347644256, 72770.3285539542, 0.058, 0.9420000000000001, 0.152, 192.0, 0.0, 0.0, 0.0, 0.0, 0.0, 0.0, 0.0, 0.0, 0.0, 1.6665571602135894E9, 0.0, 2022-10-23 13:32:40.213
195.0, -83729.59002609135, -120793.78912374844, 26459.86097572577, 83519.48362821146, 39648.93247472435, 51963.3131579534, 36755.87913464059, 72847.01738918036, 0.058, 0.9420000000000001, 0.152, 192.0, 0.0, 0.0, 0.0, 0.0, 0.0, 0.0, 0.0, 0.0, 0.0, 1.6665571602136223E9, 0.0, 2022-10-23 13:32:40.213
196.0, -83713.29560438343, -120775.259527595, 26439.632646993716, 83524.1104393137, 39660.488326607745, 51964.318986453894, 36681.78310177125, 72767.35577194164, 0.058, 0.9420000000000001, 0.152, 192.0, 0.0, 0.0, 0.0, 0.0, 0.0, 0.0, 0.0, 0.0, 0.0, 1.6665571602136414E9, 0.0, 2022-10-23 13:32:40.213
197.0, -83717.05069745192, -120777.47235029607, 26228.76628980235, 83519.0589450668, 39654.29689339363, 51953.16546597069, 36541.212980891825, 72715.79029748324, 0.058, 0.9420000000000001, 0.152, 192.0, 0.0, 0.0, 0.0, 0.0, 0.0, 0.0, 0.0, 0.0, 0.0, 1.6665571602136595E9, 0.0, 2022-10-23 13:32:40.213
198.0, -83721.4092876207, -120783.70848699911, 26130.55272466573, 83519.75184914493, 39651.27940789216, 51956.764096827996, 36560.03314972319, 72760.80671081624, 0.058, 0.9420000000000001, 0.152, 192.0, 0.0, 0.0, 0.0, 0.0, 0.0, 0.0, 0.0, 0.0, 0.0, 1.666557160213678E9, 0.0, 2022-10-23 13:32:40.213
199.0, -83729.90295051372, -120794.0573446819, 26362.519128622906, 83527.44084923755, 39651.614684058986, 51968.789335344954, 36722.70914586892, 72848.11262465866, 0.058, 0.9420000000000001, 0.152, 192.0, 0.0, 0.0, 0.0, 0.0, 0.0, 0.0, 0.0, 0.0, 0.0, 1.666557160213696E9, 0.0, 2022-10-23 13:32:40.213
200.0, -83712.53564507194, -120777.00296366251, 26409.793068145882, 83531.6206254507, 39664.9139720099, 51978.33353022737, 36701.81026480321, 72799.92226361303, 0.05, 0.9480000000000001, 0.152, 192.0, 1.0, 144.0, 29.0, 160.0, 4.0, 192.0, 0.0, 0.0, 0.0, 1.6665571602137136E9, 0.0, 2022-10-23 13:32:40.213
201.0, -83713.02738344997, -120777.85232995181, 26220.406737376063, 83527.10557307072, 39665.13748945445, 51977.14888777124, 36557.015664221726, 72739.28198090577, 0.05, 0.9480000000000001, 0.152, 192.0, 0.0, 0.0, 0.0, 0.0, 0.0, 0.0, 0.0, 0.0, 0.0, 1.6665571602137325E9, 0.0, 2022-10-23 13:32:40.213
202.0, -83729.72413655808, -120791.3080801139, 26070.046552425214, 83521.02589857888, 39652.77697477066, 51964.184875987165, 36533.54633254365, 72759.80088231574, 0.05, 0.9480000000000001, 0.152, 192.0, 0.0, 0.0, 0.0, 0.0, 0.0, 0.0, 0.0, 0.0, 0.0, 1.6665571602137585E9, 0.0, 2022-10-23 13:32:40.213
203.0, -83726.4160783787, -120790.12343765778, 26285.29385152982, 83524.80334339182, 39654.00632071571, 51974.69019588116, 36703.330183426166, 72857.947392219, 0.05, 0.9480000000000001, 0.152, 192.0, 0.0, 0.0, 0.0, 0.0, 0.0, 0.0, 0.0, 0.0, 0.0, 1.6665571602137809E9, 0.0, 2022-10-23 13:32:40.213
204.0, -83718.48120909705, -120780.91451894218, 26432.70360621257, 83527.99964284892, 39663.148184197926, 51978.73586162757, 36758.829564908694, 72834.27689484083, 0.05, 0.9480000000000001, 0.152, 192.0, 0.0, 0.0, 0.0, 0.0, 0.0, 0.0, 0.0, 0.0, 0.0, 1.6665571602137976E9, 0.0, 2022-10-23 13:32:40.213
205.0, -83713.67558403917, -120774.76778921697, 26238.064615495758, 83531.39710800615, 39669.719597067786, 51980.21107676162, 36585.40237967997, 72744.10995770812, 0.05, 0.9480000000000001, 0.152, 192.0, 0.0, 0.0, 0.0, 0.0, 0.0, 0.0, 0.0, 0.0, 0.0, 1.6665571602138145E9, 0.0, 2022-10-23 13:32:40.213
206.0, -83706.16539790218, -120766.8552716798, 26033.322636285146, 83536.02391910838, 39677.29683843814, 51990.29171351096, 36516.33548931307, 72752.71537932342, 0.05, 0.9480000000000001, 0.152, 192.0, 0.0, 0.0, 0.0, 0.0, 0.0, 0.0, 0.0, 0.0, 0.0, 1.6665571602138307E9, 0.0, 2022-10-23 13:32:40.213
207.0, -83721.27517715398, -120780.02044916397, 26159.453530246443, 83531.28534928386, 39662.455280119815, 51979.138193027764, 36640.38767104002, 72841.42945306652, 0.05, 0.9480000000000001, 0.152, 192.0, 0.0, 0.0, 0.0, 0.0, 0.0, 0.0, 0.0, 0.0, 0.0, 1.6665571602138476E9, 0.0, 2022-10-23 13:32:40.213
208.0, -83720.33640388685, -120777.1594258737, 26359.233422187976, 83528.53608471586, 39658.119041695485, 51971.89622782424, 36739.00356757684, 72842.56939203375, 0.05, 0.9480000000000001, 0.152, 192.0, 0.0, 0.0, 0.0, 0.0, 0.0, 0.0, 0.0, 0.0, 0.0, 1.666557160213866E9, 0.0, 2022-10-23 13:32:40.213
209.0, -83702.72322925607, -120763.12253035576, 26226.95579850147, 83542.12594534468, 39676.916858782395, 51989.218829777106, 36604.51312118925, 72764.2712312068, 0.05, 0.9480000000000001, 0.152, 192.0, 0.0, 0.0, 0.0, 0.0, 0.0, 0.0, 0.0, 0.0, 0.0, 1.6665571602138827E9, 0.0, 2022-10-23 13:32:40.213
210.0, -83711.32865087136, -120772.5549665159, 26016.424717476933, 83539.28727379887, 39673.631152347465, 51992.48218446758, 36518.03422189167, 72751.01664674481, 0.044, 0.9520000000000001, 0.148, 192.0, 1.0, 96.0, 29.0, 192.0, 4.0, 160.0, 0.0, 0.0, 0.0, 1.6665571602139146E9, 0.0, 2022-10-23 13:32:40.213
211.0, -83727.75718304601, -120785.38486783324, 26055.137938873522, 83536.67211969759, 39658.43196611786, 51983.49678319655, 36594.14191176199, 72816.48490625441, 0.044, 0.9520000000000001, 0.148, 192.0, 0.0, 0.0, 0.0, 0.0, 0.0, 0.0, 0.0, 0.0, 0.0, 1.6665571602139323E9, 0.0, 2022-10-23 13:32:40.213
212.0, -83734.14978196022, -120793.02916443696, 26285.83029339675, 83522.63522417966, 39645.244436889225, 51969.99632954554, 36723.93849181396, 72844.692807757, 0.044, 0.9520000000000001, 0.148, 192.0, 0.0, 0.0, 0.0, 0.0, 0.0, 0.0, 0.0, 0.0, 0.0, 1.666557160213949E9, 0.0, 2022-10-23 13:32:40.213
213.0, -83730.55115110292, -120788.64822252373, 26184.532187525296, 83514.67800315357, 39644.551532811114, 51960.407431174215, 36602.926147332924, 72749.96611475541, 0.044, 0.9520000000000001, 0.148, 192.0, 0.0, 0.0, 0.0, 0.0, 0.0, 0.0, 0.0, 0.0, 0.0, 1.666557160213966E9, 0.0, 2022-10-23 13:32:40.213
214.0, -83726.43843012315, -120784.11081839929, 25999.415039946445, 83513.58276767525, 39643.6574630329, 51959.13338174026, 36520.20234110384, 72731.97296046889, 0.044, 0.9520000000000001, 0.148, 192.0, 0.0, 0.0, 0.0, 0.0, 0.0, 0.0, 0.0, 0.0, 0.0, 1.666557160213984E9, 0.0, 2022-10-23 13:32:40.213
215.0, -83725.2090841781, -120785.87660621127, 25977.66679259143, 83521.3611747457, 39644.57388455557, 51965.34716669883, 36567.923315515916, 72783.180807016, 0.044, 0.9520000000000001, 0.148, 192.0, 0.0, 0.0, 0.0, 0.0, 0.0, 0.0, 0.0, 0.0, 0.0, 1.6665571602140007E9, 0.0, 2022-10-23 13:32:40.214
216.0, -83730.39468889174, -120791.86687372529, 26249.86633656816, 83524.468067225, 39646.27261713417, 51977.327701726885, 36740.255265266336, 72850.66072352657, 0.044, 0.9520000000000001, 0.148, 192.0, 0.0, 0.0, 0.0, 0.0, 0.0, 0.0, 0.0, 0.0, 0.0, 1.6665571602140176E9, 0.0, 2022-10-23 13:32:40.214
217.0, -83716.31308988489, -120776.37711481776, 26198.591434787686, 83522.90344511312, 39648.44073634633, 51972.52207666899, 36645.95325540939, 72765.45587366294, 0.044, 0.9520000000000001, 0.148, 192.0, 0.0, 0.0, 0.0, 0.0, 0.0, 0.0, 0.0, 0.0, 0.0, 1.666557160214034E9, 0.0, 2022-10-23 13:32:40.214
218.0, -83714.63670905074, -120775.32658282836, 25991.01078403125, 83525.80917189231, 39649.46891659128, 51969.214018489605, 36523.443344049854, 72731.99531221334, 0.044, 0.9520000000000001, 0.148, 192.0, 0.0, 0.0, 0.0, 0.0, 0.0, 0.0, 0.0, 0.0, 0.0, 1.6665571602140508E9, 0.0, 2022-10-23 13:32:40.214
219.0, -83718.39180211924, -120783.14969338772, 25901.290881787645, 83529.98894810546, 39645.57971305605, 51969.54929465643, 36539.15662040193, 72772.89900456656, 0.038, 0.9440000000000001, 0.152, 192.0, 1.0, 48.0, 29.0, 128.0, 4.0, 192.0, 0.0, 0.0, 0.0, 1.6665571602140672E9, 0.0, 2022-10-23 13:32:40.214
220.0, -83723.01861322149, -120788.02237367898, 26151.473957475897, 83530.79361090585, 39645.82558224507, 51981.97686457358, 36709.70043059593, 72859.98140096443, 0.038, 0.9440000000000001, 0.152, 192.0, 0.0, 0.0, 0.0, 0.0, 0.0, 0.0, 0.0, 0.0, 0.0, 1.6665571602140849E9, 0.0, 2022-10-23 13:32:40.214
221.0, -83720.5599213314, -120784.11081839929, 26162.962754125925, 83525.9209306146, 39646.76435551219, 51969.99632954554, 36662.65000851751, 72782.89023433808, 0.038, 0.9440000000000001, 0.152, 192.0, 0.0, 0.0, 0.0, 0.0, 0.0, 0.0, 0.0, 0.0, 0.0, 1.6665571602141016E9, 0.0, 2022-10-23 13:32:40.214
222.0, -83721.23047366505, -120788.13413240125, 25964.814539529627, 83518.07546831078, 39642.27165487667, 51955.40064041623, 36522.88455043847, 72721.46764057489, 0.038, 0.9440000000000001, 0.152, 192.0, 0.0, 0.0, 0.0, 0.0, 0.0, 0.0, 0.0, 0.0, 0.0, 1.6665571602141197E9, 0.0, 2022-10-23 13:32:40.214
223.0, -83727.22074117909, -120791.263376625, 25832.559267587578, 83518.25428226641, 39643.6574630329, 51962.508495153015, 36515.352012557036, 72747.99916124334, 0.038, 0.9440000000000001, 0.152, 192.0, 0.0, 0.0, 0.0, 0.0, 0.0, 0.0, 0.0, 0.0, 0.0, 1.6665571602141361E9, 0.0, 2022-10-23 13:32:40.214
224.0, -83725.1643806892, -120788.64822252373, 26090.610157324096, 83526.47972422597, 39650.6088555585, 51992.48218446758, 36713.99196553135, 72859.86964224215, 0.038, 0.9440000000000001, 0.152, 192.0, 0.0, 0.0, 0.0, 0.0, 0.0, 0.0, 0.0, 0.0, 0.0, 1.6665571602141528E9, 0.0, 2022-10-23 13:32:40.214
225.0, -83711.55216831592, -120773.53844327194, 26180.57592875671, 83528.53608471586, 39656.53206783916, 51990.35876874433, 36726.91127382652, 72813.37801377512, 0.038, 0.9440000000000001, 0.152, 192.0, 0.0, 0.0, 0.0, 0.0, 0.0, 0.0, 0.0, 0.0, 0.0, 1.6665571602141695E9, 0.0, 2022-10-23 13:32:40.214
226.0, -83710.99337470453, -120770.67741998166, 25995.548188155677, 83533.63228245167, 39661.58356208605, 51987.78831813196, 36576.81930980913, 72741.65126581804, 0.038, 0.9440000000000001, 0.152, 192.0, 0.0, 0.0, 0.0, 0.0, 0.0, 0.0, 0.0, 0.0, 0.0, 1.6665571602142036E9, 0.0, 2022-10-23 13:32:40.214
227.0, -83716.26838639598, -120779.28284159696, 25805.781877730118, 83534.45929699652, 39659.437794618345, 51982.40154771823, 36519.75530621473, 72745.94280075346, 0.038, 0.9440000000000001, 0.152, 192.0, 0.0, 0.0, 0.0, 0.0, 0.0, 0.0, 0.0, 0.0, 0.0, 1.6665571602142208E9, 0.0, 2022-10-23 13:32:40.214
228.0, -83726.2596161675, -120794.43732433765, 25984.595833372576, 83524.0657358248, 39642.718689765774, 51973.50555342502, 36672.26125863329, 72840.2895140993, 0.038, 0.9440000000000001, 0.152, 192.0, 0.0, 0.0, 0.0, 0.0, 0.0, 0.0, 0.0, 0.0, 0.0, 1.6665571602142382E9, 0.0, 2022-10-23 13:32:40.214
229.0, -83717.98947071904, -120785.78719923344, 26138.755814880828, 83505.62554664917, 39624.211445356785, 51957.27818695047, 36733.30387274073, 72812.26042655236, 0.036000000000000004, 0.9520000000000001, 0.152, 192.0, 1.0, 32.0, 29.0, 192.0, 4.0, 192.0, 0.0, 0.0, 0.0, 1.6665571602142556E9, 0.0, 2022-10-23 13:32:40.214
230.0, -83707.35004035832, -120775.48304503955, 25943.4239200859, 83518.88013111116, 39642.07048917657, 51970.957454557116, 36558.535582844685, 72717.44432657294, 0.036000000000000004, 0.9520000000000001, 0.152, 192.0, 0.0, 0.0, 0.0, 0.0, 0.0, 0.0, 0.0, 0.0, 0.0, 1.6665571602142737E9, 0.0, 2022-10-23 13:32:40.214
231.0, -83724.5608835889, -120791.41983883618, 25681.237957625148, 83530.23481729446, 39655.16861142738, 51985.91077159772, 36456.8574973175, 72714.06921316018, 0.036000000000000004, 0.9520000000000001, 0.152, 192.0, 0.0, 0.0, 0.0, 0.0, 0.0, 0.0, 0.0, 0.0, 0.0, 1.6665571602142906E9, 0.0, 2022-10-23 13:32:40.214
232.0, -83732.58515984836, -120799.19824590663, 25770.734342424195, 83529.09487832725, 39648.21721890178, 51981.4180709622, 36579.18859472139, 72815.72494694292, 0.036000000000000004, 0.9520000000000001, 0.152, 192.0, 0.0, 0.0, 0.0, 0.0, 0.0, 0.0, 0.0, 0.0, 0.0, 1.6665571602143085E9, 0.0, 2022-10-23 13:32:40.214
233.0, -83740.29651168543, -120802.10397268581, 25993.24595847678, 83515.77323863188, 39638.18128564135, 51967.738803355554, 36704.939509026946, 72833.69574948499, 0.036000000000000004, 0.9520000000000001, 0.152, 192.0, 0.0, 0.0, 0.0, 0.0, 0.0, 0.0, 0.0, 0.0, 0.0, 1.6665571602143257E9, 0.0, 2022-10-23 13:32:40.214
234.0, -83727.69012781265, -120786.05542016691, 25862.242384224224, 83521.29411951234, 39648.55249506861, 51968.34230045585, 36571.2313736953, 72742.38887338506, 0.036000000000000004, 0.9520000000000001, 0.152, 192.0, 0.0, 0.0, 0.0, 0.0, 0.0, 0.0, 0.0, 0.0, 0.0, 1.6665571602143426E9, 0.0, 2022-10-23 13:32:40.214
235.0, -83715.15079917322, -120771.7056002266, 25659.333248058945, 83526.94911085954, 39655.593294572034, 51975.00312030353, 36493.71552392429, 72737.96322798291, 0.036000000000000004, 0.9520000000000001, 0.152, 192.0, 0.0, 0.0, 0.0, 0.0, 0.0, 0.0, 0.0, 0.0, 0.0, 1.6665571602143595E9, 0.0, 2022-10-23 13:32:40.214
236.0, -83716.3577933738, -120773.04670489392, 25661.836643437942, 83527.75377365992, 39650.497096836225, 51978.60175116084, 36553.23821940878, 72794.40138273255, 0.036000000000000004, 0.9520000000000001, 0.152, 192.0, 0.0, 0.0, 0.0, 0.0, 0.0, 0.0, 0.0, 0.0, 0.0, 1.6665571602143779E9, 0.0, 2022-10-23 13:32:40.214
237.0, -83709.11582817028, -120769.93981241464, 25900.50857073171, 83528.55843646031, 39658.16374518439, 51994.382082746284, 36701.162064214004, 72844.80456647927, 0.036000000000000004, 0.9520000000000001, 0.152, 192.0, 0.0, 0.0, 0.0, 0.0, 0.0, 0.0, 0.0, 0.0, 0.0, 1.6665571602143946E9, 0.0, 2022-10-23 13:32:40.214
238.0, -83703.4608368231, -120763.32369605586, 25800.35040382748, 83527.59731144874, 39663.639922575945, 51988.660036165726, 36583.30131570117, 72750.72607406689, 0.036000000000000004, 0.9520000000000001, 0.152, 192.0, 0.0, 0.0, 0.0, 0.0, 0.0, 0.0, 0.0, 0.0, 0.0, 1.6665571602144115E9, 0.0, 2022-10-23 13:32:40.214
239.0, -83709.74167701503, -120768.01756239147, 25587.58414835741, 83528.84900913823, 39660.80125103012, 51984.61437041931, 36475.901183593414, 72726.9661697109, 0.042, 0.9500000000000001, 0.156, 192.0, 1.0, 80.0, 29.0, 176.0, 4.0, 224.0, 0.0, 0.0, 0.0, 1.666557160214428E9, 0.0, 2022-10-23 13:32:40.214
240.0, -83723.7562207885, -120786.79302773393, 25553.25186887406, 83527.37379400419, 39651.63703580345, 51978.780565116474, 36527.310195840626, 72782.10792328214, 0.042, 0.9500000000000001, 0.156, 192.0, 0.0, 0.0, 0.0, 0.0, 0.0, 0.0, 0.0, 0.0, 0.0, 1.6665571602144458E9, 0.0, 2022-10-23 13:32:40.214
241.0, -83720.5599213314, -120783.32850734337, 25830.63701756442, 83531.12888707267, 39656.04032946114, 51993.44330947916, 36707.39820091703, 72859.17673816404, 0.042, 0.9500000000000001, 0.156, 192.0, 0.0, 0.0, 0.0, 0.0, 0.0, 0.0, 0.0, 0.0, 0.0, 1.6665571602144816E9, 0.0, 2022-10-23 13:32:40.214
242.0, -83713.18384566114, -120777.07001889587, 25816.018976690648, 83524.78099164736, 39655.101556194015, 51977.21594300461, 36639.82887742864, 72780.45389419245, 0.042, 0.9500000000000001, 0.156, 192.0, 0.0, 0.0, 0.0, 0.0, 0.0, 0.0, 0.0, 0.0, 0.0, 1.6665571602144983E9, 0.0, 2022-10-23 13:32:40.214
243.0, -83716.82718000737, -120776.80179796241, 25654.59467823442, 83524.95980560301, 39652.866381748485, 51976.65714939322, 36542.1741059034, 72748.51325136582, 0.042, 0.9500000000000001, 0.156, 192.0, 0.0, 0.0, 0.0, 0.0, 0.0, 0.0, 0.0, 0.0, 0.0, 1.6665571602145152E9, 0.0, 2022-10-23 13:32:40.214
244.0, -83716.24603465153, -120775.7065624841, 25549.72029325012, 83533.83344815177, 39659.54955334062, 51991.588114689366, 36543.157582659434, 72779.13514126958, 0.042, 0.9500000000000001, 0.156, 192.0, 0.0, 0.0, 0.0, 0.0, 0.0, 0.0, 0.0, 0.0, 0.0, 1.6665571602145343E9, 0.0, 2022-10-23 13:32:40.214
245.0, -83720.04583120893, -120783.82024572138, 25813.62734003393, 83528.44667773804, 39653.71574803779, 51996.773719403, 36721.52450341279, 72861.65778179858, 0.042, 0.9500000000000001, 0.156, 192.0, 0.0, 0.0, 0.0, 0.0, 0.0, 0.0, 0.0, 0.0, 0.0, 1.666557160214554E9, 0.0, 2022-10-23 13:32:40.214
246.0, -83709.65227003722, -120774.32075432787, 25887.186931036347, 83528.6701951826, 39656.777937028164, 51988.39181523226, 36712.82967481967, 72809.3323480287, 0.042, 0.9500000000000001, 0.156, 192.0, 0.0, 0.0, 0.0, 0.0, 0.0, 0.0, 0.0, 0.0, 0.0, 1.6665571602145703E9, 0.0, 2022-10-23 13:32:40.214
247.0, -83704.80194149041, -120766.27412632396, 25718.922998776794, 83531.33005277277, 39657.91787599539, 51986.71543439811, 36580.216774966335, 72745.60752458662, 0.042, 0.9500000000000001, 0.156, 192.0, 0.0, 0.0, 0.0, 0.0, 0.0, 0.0, 0.0, 0.0, 0.0, 1.6665571602145884E9, 0.0, 2022-10-23 13:32:40.214
248.0, -83704.71253451258, -120766.6094024908, 25582.689116321697, 83537.38737552016, 39661.58356208605, 51998.159527559226, 36556.63568456598, 72765.50057715185, 0.042, 0.9500000000000001, 0.156, 192.0, 0.0, 0.0, 0.0, 0.0, 0.0, 0.0, 0.0, 0.0, 0.0, 1.6665571602146049E9, 0.0, 2022-10-23 13:32:40.214
249.0, -83716.08957244034, -120781.07098115337, 25831.218162920257, 83536.2697882974, 39658.27550390667, 52005.423844507204, 36739.048271065745, 72867.13395919013, 0.046, 0.9420000000000001, 0.162, 192.0, 1.0, 112.0, 29.0, 112.0, 5.0, 16.0, 0.0, 0.0, 0.0, 1.6665571602146215E9, 0.0, 2022-10-23 13:32:40.214
250.0, -83711.50746482701, -120774.2089956056, 25970.961269254836, 83533.5205237294, 39659.728367296266, 52004.14979507325, 36777.649733740065, 72833.51693552935, 0.046, 0.9420000000000001, 0.162, 192.0, 0.0, 0.0, 0.0, 0.0, 0.0, 0.0, 0.0, 0.0, 0.0, 1.6665571602146394E9, 0.0, 2022-10-23 13:32:40.214
251.0, -83711.14983691572, -120770.58801300384, 25803.3902410734, 83528.58078820477, 39653.5592858266, 51991.297542011445, 36622.57333070914, 72751.06135023372, 0.046, 0.9420000000000001, 0.162, 192.0, 0.0, 0.0, 0.0, 0.0, 0.0, 0.0, 0.0, 0.0, 0.0, 1.666557160214656E9, 0.0, 2022-10-23 13:32:40.214
252.0, -83714.10026718382, -120771.99617290452, 25647.710340942187, 83525.58565444776, 39648.21721890178, 51984.86023960832, 36580.46264415534, 72755.55405086924, 0.046, 0.9420000000000001, 0.162, 192.0, 0.0, 0.0, 0.0, 0.0, 0.0, 0.0, 0.0, 0.0, 0.0, 1.6665571602146728E9, 0.0, 2022-10-23 13:32:40.214
253.0, -83719.15176143072, -120774.72308572807, 25848.518413128666, 83532.80526790682, 39647.2560938902, 51994.96322810212, 36742.8704193676, 72854.99696195089, 0.046, 0.9420000000000001, 0.162, 192.0, 0.0, 0.0, 0.0, 0.0, 0.0, 0.0, 0.0, 0.0, 0.0, 1.6665571602146895E9, 0.0, 2022-10-23 13:32:40.214
254.0, -83728.67360456868, -120786.21188237809, 26057.01548540777, 83520.33299450076, 39635.096744906514, 51980.34518722835, 36832.97030126695, 72841.96589493346, 0.046, 0.9420000000000001, 0.162, 192.0, 0.0, 0.0, 0.0, 0.0, 0.0, 0.0, 0.0, 0.0, 0.0, 1.666557160214706E9, 0.0, 2022-10-23 13:32:40.214
255.0, -83734.57446510487, -120792.49272257004, 25929.74465247925, 83508.46421819499, 39624.12203837896, 51957.546407883936, 36683.83946226114, 72744.31112340822, 0.046, 0.9420000000000001, 0.162, 192.0, 0.0, 0.0, 0.0, 0.0, 0.0, 0.0, 0.0, 0.0, 0.0, 1.6665571602147229E9, 0.0, 2022-10-23 13:32:40.214
0.0, -83731.28875866995, -120788.80468473492, 25780.747923940173, 83514.45448570902, 39632.92862569435, 51975.360748214815, 36638.644234972504, 72751.93306826748, 0.046, 0.9420000000000001, 0.162, 192.0, 0.0, 0.0, 0.0, 0.0, 0.0, 0.0, 0.0, 0.0, 0.0, 1.6665571602147396E9, 0.0, 2022-10-23 13:32:40.214
1.0, -83724.82910452236, -120788.00002193452, 25909.22575106928, 83530.32422427228, 39642.092840921025, 51993.17508854569, 36766.116233601126, 72836.17679311954, 0.046, 0.9420000000000001, 0.162, 192.0, 0.0, 0.0, 0.0, 0.0, 0.0, 0.0, 0.0, 0.0, 0.0, 1.6665571602147727E9, 0.0, 2022-10-23 13:32:40.214
2.0, -83724.9632149891, -120786.18953063364, 26159.051198846246, 83531.10653532822, 39647.211390401295, 51996.5725537029, 36891.174243828566, 72861.41191260958, 0.05, 0.9440000000000001, 0.164, 192.0, 1.0, 144.0, 29.0, 128.0, 5.0, 32.0, 0.0, 0.0, 0.0, 1.6665571602147899E9, 0.0, 2022-10-23 13:32:40.214
3.0, -83723.28683415495, -120782.68030675416, 26057.68603774143, 83525.02686083637, 39646.294968878625, 51987.83302162088, 36753.375739261595, 72765.16530098501, 0.05, 0.9440000000000001, 0.164, 192.0, 0.0, 0.0, 0.0, 0.0, 0.0, 0.0, 0.0, 0.0, 0.0, 1.6665571602148075E9, 0.0, 2022-10-23 13:32:40.214
4.0, -83727.01957547899, -120789.05055392392, 25886.963413591795, 83517.82959912176, 39634.4038408284, 51977.95355057163, 36668.84144173163, 72746.38983564256, 0.05, 0.9440000000000001, 0.164, 192.0, 0.0, 0.0, 0.0, 0.0, 0.0, 0.0, 0.0, 0.0, 0.0, 1.666557160214825E9, 0.0, 2022-10-23 13:32:40.214
5.0, -83734.37329940478, -120797.58892030585, 25897.55814046361, 83523.30577651331, 39631.542817538124, 51975.58426565937, 36722.485628424365, 72801.17396130251, 0.05, 0.9440000000000001, 0.164, 192.0, 0.0, 0.0, 0.0, 0.0, 0.0, 0.0, 0.0, 0.0, 0.0, 1.6665571602148416E9, 0.0, 2022-10-23 13:32:40.214
6.0, -83729.32180515789, -120796.09135342734, 26180.397114801064, 83529.78778240536, 39637.01899492968, 51988.45887046563, 36883.619354202674, 72861.83659575423, 0.05, 0.9440000000000001, 0.164, 192.0, 0.0, 0.0, 0.0, 0.0, 0.0, 0.0, 0.0, 0.0, 0.0, 1.6665571602148583E9, 0.0, 2022-10-23 13:32:40.214
7.0, -83714.74846777302, -120780.33337358636, 26129.524544420787, 83536.49330574195, 39654.38630037145, 52001.10995782733, 36781.15895761955, 72782.01851630432, 0.05, 0.9440000000000001, 0.164, 192.0, 0.0, 0.0, 0.0, 0.0, 0.0, 0.0, 0.0, 0.0, 0.0, 1.6665571602148752E9, 0.0, 2022-10-23 13:32:40.214
8.0, -83713.89910148372, -120776.64533575122, 25941.680484018387, 83537.49913424243, 39655.6603498054, 51999.970018860105, 36665.66749401898, 72750.18963219997, 0.05, 0.9440000000000001, 0.164, 192.0, 0.0, 0.0, 0.0, 0.0, 0.0, 0.0, 0.0, 0.0, 0.0, 1.666557160214892E9, 0.0, 2022-10-23 13:32:40.214
9.0, -83722.19159867664, -120781.71918174258, 25870.937212817338, 83536.58271271977, 39647.4572595903, 51996.28198102498, 36677.178642413455, 72786.22064426192, 0.05, 0.9440000000000001, 0.164, 192.0, 0.0, 0.0, 0.0, 0.0, 0.0, 0.0, 0.0, 0.0, 0.0, 1.6665571602149088E9, 0.0, 2022-10-23 13:32:40.214
10.0, -83725.49965685603, -120784.62490852177, 26153.619724943608, 83535.04044235236, 39641.57875079856, 51994.60560019084, 36855.947894567005, 72867.26806965686, 0.05, 0.9440000000000001, 0.164, 192.0, 0.0, 0.0, 0.0, 0.0, 0.0, 0.0, 0.0, 0.0, 0.0, 1.6665571602149253E9, 0.0, 2022-10-23 13:32:40.214
11.0, -83718.10122944132, -120777.22648110706, 26152.233916787376, 83536.96269237551, 39646.98787295674, 51990.80580363343, 36786.79159722228, 72786.13123728409, 0.05, 0.9440000000000001, 0.164, 192.0, 0.0, 0.0, 0.0, 0.0, 0.0, 0.0, 0.0, 0.0, 0.0, 1.666557160214943E9, 0.0, 2022-10-23 13:32:40.214
12.0, -83713.69793578362, -120769.91746067017, 25939.780585739685, 83545.3669482907, 39655.593294572034, 52002.29460028346, 36632.40809826948, 72734.5657628257, 0.04, 0.9400000000000001, 0.158, 192.0, 1.0, 64.0, 29.0, 96.0, 4.0, 240.0, 0.0, 0.0, 0.0, 1.66655716021496E9, 0.0, 2022-10-23 13:32:40.214
13.0, -83716.73777302954, -120776.22065260657, 25825.54081982861, 83541.90242790013, 39650.94413172533, 52003.456890995134, 36628.027156356235, 72772.60843188864, 0.04, 0.9400000000000001, 0.158, 192.0, 0.0, 0.0, 0.0, 0.0, 0.0, 0.0, 0.0, 0.0, 0.0, 1.6665571602149775E9, 0.0, 2022-10-23 13:32:40.214
14.0, -83736.25084593902, -120793.09621967033, 26091.10189570211, 83529.05017483832, 39631.58752102703, 51988.5706291879, 36812.451399856975, 72863.78119752184, 0.04, 0.9400000000000001, 0.158, 192.0, 0.0, 0.0, 0.0, 0.0, 0.0, 0.0, 0.0, 0.0, 0.0, 1.6665571602149944E9, 0.0, 2022-10-23 13:32:40.214
15.0, -83729.50061911352, -120788.17883589017, 26172.1269693526, 83518.50015145543, 39624.39025931242, 51971.49389642404, 36806.595242809686, 72798.1341240566, 0.04, 0.9400000000000001, 0.158, 192.0, 0.0, 0.0, 0.0, 0.0, 0.0, 0.0, 0.0, 0.0, 0.0, 1.6665571602150123E9, 0.0, 2022-10-23 13:32:40.215
16.0, -83714.23437765054, -120775.9077281842, 26003.974795815328, 83532.96173011801, 39645.3561956115, 51988.34711174335, 36667.947371953414, 72746.90392576503, 0.04, 0.9400000000000001, 0.158, 192.0, 0.0, 0.0, 0.0, 0.0, 0.0, 0.0, 0.0, 0.0, 0.0, 1.666557160215042E9, 0.0, 2022-10-23 13:32:40.215
17.0, -83717.43067710767, -120782.14386488723, 25845.2997619271, 83537.87911389818, 39648.396032857425, 51995.81259439142, 36629.27885404573, 72764.673562607, 0.04, 0.9400000000000001, 0.158, 192.0, 0.0, 0.0, 0.0, 0.0, 0.0, 0.0, 0.0, 0.0, 0.0, 1.6665571602150605E9, 0.0, 2022-10-23 13:32:40.215
18.0, -83733.03219473746, -120802.39454536374, 26078.696677529417, 83531.12888707267, 39633.576826283555, 51985.933123342176, 36807.73518177691, 72868.98915397991, 0.04, 0.9400000000000001, 0.158, 192.0, 0.0, 0.0, 0.0, 0.0, 0.0, 0.0, 0.0, 0.0, 0.0, 1.6665571602150767E9, 0.0, 2022-10-23 13:32:40.215
19.0, -83724.18090393316, -120793.27503362598, 26238.064615495758, 83525.80917189231, 39635.2085036288, 51983.876762852284, 36859.68063589104, 72839.50720304337, 0.04, 0.9400000000000001, 0.158, 192.0, 0.0, 0.0, 0.0, 0.0, 0.0, 0.0, 0.0, 0.0, 0.0, 1.666557160215093E9, 0.0, 2022-10-23 13:32:40.215
20.0, -83722.30335739892, -120793.18562664815, 26112.000776767825, 83522.29994801283, 39636.34844259601, 51979.831097105875, 36720.18339874547, 72762.7736643283, 0.04, 0.9400000000000001, 0.158, 192.0, 0.0, 0.0, 0.0, 0.0, 0.0, 0.0, 0.0, 0.0, 0.0, 1.6665571602151084E9, 0.0, 2022-10-23 13:32:40.215
21.0, -83724.06914521089, -120798.43828659515, 25973.308202422646, 83528.60313994922, 39636.97429144076, 51984.100280296836, 36676.3069243797, 72770.86499582112, 0.04, 0.9400000000000001, 0.158, 192.0, 0.0, 0.0, 0.0, 0.0, 0.0, 0.0, 0.0, 0.0, 0.0, 1.6665571602151244E9, 0.0, 2022-10-23 13:32:40.215
22.0, -83731.37816564777, -120807.11076344381, 26134.55368692323, 83535.53218073037, 39638.404803085905, 51995.566725202414, 36805.83528349821, 72858.03679919682, 0.036000000000000004, 0.9440000000000001, 0.162, 192.0, 1.0, 32.0, 29.0, 128.0, 5.0, 16.0, 0.0, 0.0, 0.0, 1.666557160215142E9, 0.0, 2022-10-23 13:32:40.215
23.0, -83729.65708132471, -120805.70260354312, 26340.770881267894, 83523.88692186915, 39629.1511808814, 51983.7203006411, 36893.767046185385, 72854.25935438387, 0.036000000000000004, 0.9440000000000001, 0.162, 192.0, 0.0, 0.0, 0.0, 0.0, 0.0, 0.0, 0.0, 0.0, 0.0, 1.6665571602151592E9, 0.0, 2022-10-23 13:32:40.215
24.0, -83715.3072613844, -120788.9611469461, 26197.540902798286, 83526.45737248151, 39633.73328849475, 51982.356844229325, 36734.66732915251, 72754.36940841311, 0.036000000000000004, 0.9440000000000001, 0.162, 192.0, 0.0, 0.0, 0.0, 0.0, 0.0, 0.0, 0.0, 0.0, 0.0, 1.6665571602151752E9, 0.0, 2022-10-23 13:32:40.215
25.0, -83709.22758689256, -120781.71918174258, 25983.098266494068, 83543.39999477864, 39651.190000914336, 52000.729978171585, 36633.79390642571, 72747.84269903216, 0.036000000000000004, 0.9440000000000001, 0.162, 192.0, 0.0, 0.0, 0.0, 0.0, 0.0, 0.0, 0.0, 0.0, 0.0, 1.6665571602151914E9, 0.0, 2022-10-23 13:32:40.215
26.0, -83717.34127012984, -120793.8561789818, 26044.565563746164, 83547.04332912485, 39647.6584252904, 52001.646399694255, 36727.581826160174, 72838.43431930951, 0.036000000000000004, 0.9440000000000001, 0.162, 192.0, 0.0, 0.0, 0.0, 0.0, 0.0, 0.0, 0.0, 0.0, 0.0, 1.666557160215207E9, 0.0, 2022-10-23 13:32:40.215
27.0, -83722.12454344328, -120798.52769357296, 26322.129526392167, 83539.39903252113, 39639.79061124213, 52002.205193305635, 36887.91088913809, 72882.28844193082, 0.036000000000000004, 0.9440000000000001, 0.162, 192.0, 0.0, 0.0, 0.0, 0.0, 0.0, 0.0, 0.0, 0.0, 0.0, 1.6665571602152236E9, 0.0, 2022-10-23 13:32:40.215
28.0, -83715.37431661777, -120795.62196679378, 26195.79746673077, 83531.2182940505, 39636.21433212928, 51993.04097807896, 36729.43702094997, 72765.09824575165, 0.036000000000000004, 0.9440000000000001, 0.162, 192.0, 0.0, 0.0, 0.0, 0.0, 0.0, 0.0, 0.0, 0.0, 0.0, 1.6665571602152395E9, 0.0, 2022-10-23 13:32:40.215
29.0, -83716.46955209608, -120802.77452501947, 25967.541452353176, 83522.74698290194, 39627.430096558346, 51982.28978899596, 36601.62974615452, 72733.55993432521, 0.036000000000000004, 0.9440000000000001, 0.162, 192.0, 0.0, 0.0, 0.0, 0.0, 0.0, 0.0, 0.0, 0.0, 0.0, 1.6665571602152557E9, 0.0, 2022-10-23 13:32:40.215
30.0, -83710.74750551552, -120793.11857141479, 25941.568725296107, 83536.38154701967, 39640.17059089787, 52004.84269915136, 36647.2496565878, 72799.16230430154, 0.036000000000000004, 0.9440000000000001, 0.162, 192.0, 0.0, 0.0, 0.0, 0.0, 0.0, 0.0, 0.0, 0.0, 0.0, 1.6665571602152717E9, 0.0, 2022-10-23 13:32:40.215
31.0, -83715.93311022915, -120797.45480983911, 26234.33187417172, 83529.78778240536, 39634.29208210613, 52000.43940549367, 36831.964472766456, 72882.89193903112, 0.036000000000000004, 0.9480000000000001, 0.158, 192.0, 1.0, 32.0, 29.0, 160.0, 4.0, 240.0, 0.0, 0.0, 0.0, 1.666557160215288E9, 0.0, 2022-10-23 13:32:40.215
32.0, -83704.3102031124, -120786.18953063364, 26200.80425748876, 83526.03268933686, 39635.63318677345, 51986.558972186926, 36742.758660645326, 72796.7259641559, 0.036000000000000004, 0.9480000000000001, 0.158, 192.0, 0.0, 0.0, 0.0, 0.0, 0.0, 0.0, 0.0, 0.0, 0.0, 1.6665571602153187E9, 0.0, 2022-10-23 13:32:40.215
33.0, -83701.09155191082, -120784.22257712157, 26000.979662058315, 83529.94424461655, 39639.54474205312, 51991.67752166719, 36614.48199921632, 72757.7221700814, 0.036000000000000004, 0.9480000000000001, 0.158, 192.0, 0.0, 0.0, 0.0, 0.0, 0.0, 0.0, 0.0, 0.0, 0.0, 1.666557160215335E9, 0.0, 2022-10-23 13:32:40.215
34.0, -83705.02545893496, -120789.13996090174, 25929.677597245885, 83534.97338711898, 39644.23860838874, 52013.023437622, 36638.934807650425, 72813.42271726402, 0.036000000000000004, 0.9480000000000001, 0.158, 192.0, 0.0, 0.0, 0.0, 0.0, 0.0, 0.0, 0.0, 0.0, 0.0, 1.6665571602153513E9, 0.0, 2022-10-23 13:32:40.215
35.0, -83709.09347642583, -120793.05151618143, 26249.687522612516, 83537.43207900907, 39646.920817723374, 52027.55207151796, 36858.42893820154, 72922.67804416157, 0.036000000000000004, 0.9480000000000001, 0.158, 192.0, 0.0, 0.0, 0.0, 0.0, 0.0, 0.0, 0.0, 0.0, 0.0, 1.6665571602153676E9, 0.0, 2022-10-23 13:32:40.215
36.0, -83702.8573397228, -120784.37903933277, 26283.662174184585, 83537.38737552016, 39649.64773054692, 52018.11963535782, 36809.81389401125, 72837.7414152314, 0.036000000000000004, 0.9480000000000001, 0.158, 192.0, 0.0, 0.0, 0.0, 0.0, 0.0, 0.0, 0.0, 0.0, 0.0, 1.6665571602153838E9, 0.0, 2022-10-23 13:32:40.215
37.0, -83705.78541824645, -120790.03403067995, 26081.177721163956, 83538.16968657609, 39648.66425379089, 52005.15562357374, 36646.981435654336, 72765.50057715185, 0.036000000000000004, 0.9480000000000001, 0.158, 192.0, 0.0, 0.0, 0.0, 0.0, 0.0, 0.0, 0.0, 0.0, 0.0, 1.6665571602154002E9, 0.0, 2022-10-23 13:32:40.215
38.0, -83720.20229342012, -120803.73565003106, 25973.79994080066, 83535.68864294156, 39644.104497922, 52001.936972372176, 36646.690862976415, 72799.45287697946, 0.036000000000000004, 0.9480000000000001, 0.158, 192.0, 0.0, 0.0, 0.0, 0.0, 0.0, 0.0, 0.0, 0.0, 0.0, 1.6665571602154164E9, 0.0, 2022-10-23 13:32:40.215
39.0, -83732.47340112609, -120812.05049896843, 26245.03835976581, 83531.68768068406, 39634.828523973054, 52004.48507124008, 36839.74287983691, 72890.62564261266, 0.036000000000000004, 0.9480000000000001, 0.158, 192.0, 0.0, 0.0, 0.0, 0.0, 0.0, 0.0, 0.0, 0.0, 0.0, 1.6665571602154326E9, 0.0, 2022-10-23 13:32:40.215
40.0, -83728.3606801463, -120806.57432157687, 26369.626983359693, 83527.68671842656, 39635.14144839543, 51996.08081532489, 36860.01591205787, 72841.78708097781, 0.036000000000000004, 0.9480000000000001, 0.158, 192.0, 0.0, 0.0, 0.0, 0.0, 0.0, 0.0, 0.0, 0.0, 0.0, 1.666557160215449E9, 0.0, 2022-10-23 13:32:40.215
41.0, -83721.18577017615, -120798.03595519495, 26221.56902808774, 83534.92868363007, 39645.400899100416, 51997.6230856923, 36718.99875628934, 72772.92135631101, 0.032, 0.9400000000000001, 0.16, 192.0, 1.0, 0.0, 29.0, 96.0, 5.0, 0.0, 0.0, 0.0, 0.0, 1.6665571602154653E9, 0.0, 2022-10-23 13:32:40.215
42.0, -83721.94572948763, -120798.2147691506, 26065.39738957851, 83537.34267203126, 39645.80323050061, 51999.56768745991, 36671.523651066265, 72780.65505989255, 0.032, 0.9400000000000001, 0.16, 192.0, 0.0, 0.0, 0.0, 0.0, 0.0, 0.0, 0.0, 0.0, 0.0, 1.6665571602154825E9, 0.0, 2022-10-23 13:32:40.215
43.0, -83730.23822668055, -120805.94847273213, 26278.923604360058, 83538.25909355392, 39644.909160722396, 52015.66094346773, 36835.71956583495, 72886.78114256634, 0.032, 0.9400000000000001, 0.16, 192.0, 0.0, 0.0, 0.0, 0.0, 0.0, 0.0, 0.0, 0.0, 0.0, 1.6665571602154984E9, 0.0, 2022-10-23 13:32:40.215
44.0, -83726.99722373454, -120805.68025179867, 26469.80750200838, 83529.38545100516, 39643.47864907726, 52013.44812076666, 36907.98275565896, 72869.77146503585, 0.032, 0.9400000000000001, 0.16, 192.0, 0.0, 0.0, 0.0, 0.0, 0.0, 0.0, 0.0, 0.0, 0.0, 1.6665571602155163E9, 0.0, 2022-10-23 13:32:40.215
45.0, -83725.14202894474, -120806.6637285547, 26351.566773839808, 83526.6138346927, 39641.71286126529, 52006.78730091898, 36769.245477824865, 72782.06321979323, 0.032, 0.9400000000000001, 0.16, 192.0, 0.0, 0.0, 0.0, 0.0, 0.0, 0.0, 0.0, 0.0, 0.0, 1.6665571602155323E9, 0.0, 2022-10-23 13:32:40.215
46.0, -83729.27710166897, -120808.60833032231, 26175.099751365156, 83524.37866024717, 39639.27652111966, 52004.32860902889, 36692.80251178772, 72768.6298213756, 0.032, 0.9400000000000001, 0.16, 192.0, 0.0, 0.0, 0.0, 0.0, 0.0, 0.0, 0.0, 0.0, 0.0, 1.6665571602155488E9, 0.0, 2022-10-23 13:32:40.215
47.0, -83728.67360456868, -120803.0650976974, 26312.697090232028, 83526.65853818161, 39631.52046579367, 52001.60169620535, 36815.871216758635, 72850.95129620448, 0.032, 0.9400000000000001, 0.16, 192.0, 0.0, 0.0, 0.0, 0.0, 0.0, 0.0, 0.0, 0.0, 0.0, 1.6665571602155647E9, 0.0, 2022-10-23 13:32:40.215
48.0, -83717.09540094083, -120784.06611491038, 26545.714026178604, 83512.21931126348, 39615.807189441584, 51979.831097105875, 36920.678546509575, 72853.90172647258, 0.032, 0.9400000000000001, 0.16, 192.0, 0.0, 0.0, 0.0, 0.0, 0.0, 0.0, 0.0, 0.0, 0.0, 1.6665571602155952E9, 0.0, 2022-10-23 13:32:40.215
49.0, -83698.4093425762, -120769.1575013587, 26447.545164530893, 83527.28438702636, 39634.98498618424, 51996.885478125274, 36788.199757122966, 72765.54528064076, 0.032, 0.9400000000000001, 0.16, 192.0, 0.0, 0.0, 0.0, 0.0, 0.0, 0.0, 0.0, 0.0, 0.0, 1.6665571602156112E9, 0.0, 2022-10-23 13:32:40.215
50.0, -83710.99337470453, -120796.85131273883, 26260.371656462154, 83540.47191625499, 39652.28523639265, 52023.77462670501, 36699.061000235204, 72761.83489106118, 0.032, 0.9400000000000001, 0.16, 192.0, 0.0, 0.0, 0.0, 0.0, 0.0, 0.0, 0.0, 0.0, 0.0, 1.6665571602156272E9, 0.0, 2022-10-23 13:32:40.215
51.0, -83720.91754924269, -120806.64137681025, 26320.095517646732, 83544.60698897923, 39648.15016366842, 52027.39560930677, 36788.982068178906, 72846.43624382452, 0.028, 0.9400000000000001, 0.166, 192.0, 0.0, 224.0, 29.0, 96.0, 5.0, 48.0, 0.0, 0.0, 0.0, 1.6665571602156434E9, 0.0, 2022-10-23 13:32:40.215
52.0, -83716.22368290708, -120799.26530114, 26585.142503397765, 83531.06183183931, 39622.89269243392, 51998.42774849269, 36928.59106404675, 72880.0085639964, 0.028, 0.9400000000000001, 0.166, 192.0, 0.0, 0.0, 0.0, 0.0, 0.0, 0.0, 0.0, 0.0, 0.0, 1.6665571602156603E9, 0.0, 2022-10-23 13:32:40.215
53.0, -83710.27811888196, -120796.13605691625, 26540.148441809233, 83525.58565444776, 39621.953919166794, 51980.412242461716, 36827.71764131995, 72790.42277221952, 0.028, 0.9400000000000001, 0.166, 192.0, 0.0, 0.0, 0.0, 0.0, 0.0, 0.0, 0.0, 0.0, 0.0, 1.6665571602156763E9, 0.0, 2022-10-23 13:32:40.215
54.0, -83690.34036282783, -120776.39946656222, 26365.73777982447, 83536.13567783067, 39635.07439316206, 51994.180917046186, 36725.5701691592, 72763.48892015088, 0.028, 0.9400000000000001, 0.166, 192.0, 0.0, 0.0, 0.0, 0.0, 0.0, 0.0, 0.0, 0.0, 0.0, 1.666557160215692E9, 0.0, 2022-10-23 13:32:40.215
55.0, -83679.05273187789, -120763.14488210021, 26328.320959606288, 83542.08124185578, 39638.56126529709, 52008.351923030845, 36755.94618987396, 72814.56265623125, 0.028, 0.9400000000000001, 0.166, 192.0, 0.0, 0.0, 0.0, 0.0, 0.0, 0.0, 0.0, 0.0, 0.0, 1.6665571602157083E9, 0.0, 2022-10-23 13:32:40.215
56.0, -83684.37244705825, -120772.37615256026, 26622.961655016145, 83543.98114013448, 39639.67885251986, 52018.52196675801, 36937.28589263986, 72895.14069499263, 0.028, 0.9400000000000001, 0.166, 192.0, 0.0, 0.0, 0.0, 0.0, 0.0, 0.0, 0.0, 0.0, 0.0, 1.6665571602157245E9, 0.0, 2022-10-23 13:32:40.215
57.0, -83670.62612421825, -120760.84265242133, 26609.662367065237, 83538.66142495412, 39638.94124495283, 52007.61431546382, 36855.61261840017, 72811.07578409622, 0.028, 0.9400000000000001, 0.166, 192.0, 0.0, 0.0, 0.0, 0.0, 0.0, 0.0, 0.0, 0.0, 0.0, 1.6665571602157404E9, 0.0, 2022-10-23 13:32:40.215
58.0, -83669.70970269557, -120756.61817271927, 26414.352824014764, 83531.6206254507, 39630.715802993276, 51995.991408347065, 36714.08137250917, 72755.66580959152, 0.028, 0.9400000000000001, 0.166, 192.0, 0.0, 0.0, 0.0, 0.0, 0.0, 0.0, 0.0, 0.0, 0.0, 1.6665571602157564E9, 0.0, 2022-10-23 13:32:40.215
59.0, -83667.8545079058, -120758.33925704233, 26307.936168663047, 83538.37085227619, 39635.72259375126, 52007.10022534135, 36705.699468338426, 72790.71334489743, 0.028, 0.9400000000000001, 0.166, 192.0, 0.0, 0.0, 0.0, 0.0, 0.0, 0.0, 0.0, 0.0, 0.0, 1.6665571602157724E9, 0.0, 2022-10-23 13:32:40.215
60.0, -83653.3929292432, -120745.28583828043, 26560.555584496928, 83541.29893079984, 39635.812000729085, 52010.22946956509, 36870.16360404058, 72879.15919770708, 0.028, 0.9400000000000001, 0.166, 192.0, 0.0, 0.0, 0.0, 0.0, 0.0, 0.0, 0.0, 0.0, 0.0, 1.6665571602157884E9, 0.0, 2022-10-23 13:32:40.215
61.0, -83645.23454251702, -120734.31113175287, 26618.17838170271, 83534.14637257413, 39634.4038408284, 51998.24893453705, 36844.86142931717, 72811.56752247423, 0.032, 0.9400000000000001, 0.162, 192.0, 1.0, 0.0, 29.0, 96.0, 5.0, 16.0, 0.0, 0.0, 0.0, 1.6665571602158048E9, 0.0, 2022-10-23 13:32:40.215
62.0, -83647.33560649582, -120735.18284978662, 26431.09428061179, 83538.10263134273, 39642.673986276866, 52008.28486779748, 36695.149444955525, 72751.86601303412, 0.032, 0.9400000000000001, 0.162, 192.0, 0.0, 0.0, 0.0, 0.0, 0.0, 0.0, 0.0, 0.0, 0.0, 1.6665571602158215E9, 0.0, 2022-10-23 13:32:40.215
63.0, -83647.84969661829, -120733.17119278565, 26270.698162400506, 83539.08610809877, 39643.791573499635, 52017.27026906852, 36655.83272645864, 72781.61618490412, 0.032, 0.9400000000000001, 0.162, 192.0, 0.0, 0.0, 0.0, 0.0, 0.0, 0.0, 0.0, 0.0, 0.0, 1.666557160215852E9, 0.0, 2022-10-23 13:32:40.215
64.0, -83658.91381012366, -120742.58127720133, 26500.563502378882, 83530.10070682772, 39628.972366925766, 52020.5783272479, 36826.801219797286, 72880.79087505232, 0.032, 0.9400000000000001, 0.162, 192.0, 0.0, 0.0, 0.0, 0.0, 0.0, 0.0, 0.0, 0.0, 0.0, 1.666557160215868E9, 0.0, 2022-10-23 13:32:40.215
65.0, -83651.20245828659, -120734.4452422196, 26629.22014346363, 83527.84318063775, 39629.41940181487, 52007.21198406363, 36856.55139166729, 72836.37795881963, 0.032, 0.9400000000000001, 0.162, 192.0, 0.0, 0.0, 0.0, 0.0, 0.0, 0.0, 0.0, 0.0, 0.0, 1.6665571602158859E9, 0.0, 2022-10-23 13:32:40.215
66.0, -83643.51345819396, -120724.43166070363, 26447.858088953268, 83530.79361090585, 39635.47672456226, 52005.02151310701, 36691.304944909214, 72750.10022522214, 0.032, 0.9400000000000001, 0.162, 192.0, 0.0, 0.0, 0.0, 0.0, 0.0, 0.0, 0.0, 0.0, 0.0, 1.666557160215902E9, 0.0, 2022-10-23 13:32:40.215
67.0, -83644.56399018336, -120724.76693687045, 26271.972211834458, 83546.6186459802, 39648.887771235444, 52027.172091862216, 36642.645197230006, 72767.33342019719, 0.032, 0.9400000000000001, 0.162, 192.0, 0.0, 0.0, 0.0, 0.0, 0.0, 0.0, 0.0, 0.0, 0.0, 1.6665571602159183E9, 0.0, 2022-10-23 13:32:40.215
68.0, -83649.32491175234, -120725.66100664868, 26456.99995243549, 83554.0170733949, 39651.14529742543, 52032.93884193168, 36805.47765558692, 72875.58291859424, 0.032, 0.9400000000000001, 0.162, 192.0, 0.0, 0.0, 0.0, 0.0, 0.0, 0.0, 0.0, 0.0, 0.0, 1.6665571602159357E9, 0.0, 2022-10-23 13:32:40.215
69.0, -83645.27924600593, -120723.71640488105, 26666.726370659635, 83543.71291920102, 39642.29400662112, 52016.264440568026, 36901.232528833454, 72866.97749697894, 0.032, 0.9400000000000001, 0.162, 192.0, 0.0, 0.0, 0.0, 0.0, 0.0, 0.0, 0.0, 0.0, 0.0, 1.6665571602159517E9, 0.0, 2022-10-23 13:32:40.215
70.0, -83647.64853091819, -120729.12552703924, 26488.694726073114, 83533.54287547385, 39630.916968693375, 51990.58228618888, 36711.04153526325, 72745.04873097525, 0.04, 0.936, 0.156, 192.0, 1.0, 64.0, 29.0, 64.0, 4.0, 224.0, 0.0, 0.0, 0.0, 1.6665571606313713E9, 0.0, 2022-10-23 13:32:40.631
71.0, -83651.00129258649, -120732.7018061521, 26269.468816455465, 83534.72751792998, 39636.48255306275, 52000.23823979357, 36611.598624181584, 72734.3198936367, 0.04, 0.936, 0.156, 192.0, 0.0, 0.0, 0.0, 0.0, 0.0, 0.0, 0.0, 0.0, 0.0, 1.666557160631484E9, 0.0, 2022-10-23 13:32:40.631
72.0, -83658.55618221239, -120740.12258531126, 26359.322829165798, 83542.19300057805, 39638.85183797501, 52015.549184745454, 36722.977366802384, 72824.17390634703, 0.04, 0.936, 0.156, 192.0, 0.0, 0.0, 0.0, 0.0, 0.0, 0.0, 0.0, 0.0, 0.0, 1.6665571606315155E9, 0.0, 2022-10-23 13:32:40.631
73.0, -83657.95268511209, -120736.12162305375, 26609.215332176133, 83537.968520876, 39634.02386117266, 52012.75521668854, 36863.32397023725, 72856.6956945295, 0.04, 0.936, 0.156, 192.0, 0.0, 0.0, 0.0, 0.0, 0.0, 0.0, 0.0, 0.0, 0.0, 1.6665571606315508E9, 0.0, 2022-10-23 13:32:40.631
74.0, -83659.38319675723, -120738.69207366611, 26497.456609899597, 83526.23385503696, 39627.60891051399, 51996.058463580426, 36724.7655063588, 72750.99429500036, 0.04, 0.936, 0.156, 192.0, 0.0, 0.0, 0.0, 0.0, 0.0, 0.0, 0.0, 0.0, 0.0, 1.6665571606315715E9, 0.0, 2022-10-23 13:32:40.631
75.0, -83656.67863567814, -120740.12258531126, 26308.76318320789, 83531.37475626168, 39636.7060705073, 52012.86697541082, 36637.10196460509, 72736.4209576155, 0.04, 0.936, 0.156, 192.0, 0.0, 0.0, 0.0, 0.0, 0.0, 0.0, 0.0, 0.0, 0.0, 1.6665571606315944E9, 0.0, 2022-10-23 13:32:40.631
76.0, -83656.1421938112, -120733.97585558605, 26306.125677362168, 83542.17064883359, 39641.84697173202, 52025.67452498371, 36695.0600379777, 72803.07385958121, 0.04, 0.936, 0.156, 192.0, 0.0, 0.0, 0.0, 0.0, 0.0, 0.0, 0.0, 0.0, 0.0, 1.666557160631614E9, 0.0, 2022-10-23 13:32:40.631
77.0, -83655.11401356626, -120730.01959681745, 26553.559488482417, 83540.74013718846, 39636.66136701839, 52018.52196675801, 36839.11703099216, 72852.24769738289, 0.04, 0.936, 0.156, 192.0, 0.0, 0.0, 0.0, 0.0, 0.0, 0.0, 0.0, 0.0, 0.0, 1.6665571606316342E9, 0.0, 2022-10-23 13:32:40.631
78.0, -83643.78167912742, -120714.64159663221, 26483.777342292946, 83537.32032028679, 39638.76243099719, 52007.301391041445, 36726.6207011486, 72760.71730383842, 0.04, 0.936, 0.156, 192.0, 0.0, 0.0, 0.0, 0.0, 0.0, 0.0, 0.0, 0.0, 0.0, 1.6665571606316543E9, 0.0, 2022-10-23 13:32:40.631
79.0, -83647.58147568483, -120720.27423623494, 26263.34443847471, 83532.09001208426, 39637.153105396406, 52007.83783290838, 36589.00101053727, 72722.1158411641, 0.04, 0.936, 0.156, 192.0, 0.0, 0.0, 0.0, 0.0, 0.0, 0.0, 0.0, 0.0, 0.0, 1.6665571606318057E9, 0.0, 2022-10-23 13:32:40.631
80.0, -83662.17716481414, -120737.68624516562, 26193.204664373956, 83536.13567783067, 39633.66623326138, 52012.35288528835, 36615.15255154998, 72780.63270814808, 0.046, 0.9420000000000001, 0.154, 192.0, 1.0, 112.0, 29.0, 112.0, 4.0, 208.0, 0.0, 0.0, 0.0, 1.6665571606318269E9, 0.0, 2022-10-23 13:32:40.631
81.0, -83670.6484759627, -120746.8504603923, 26479.418752124162, 83528.44667773804, 39624.613776756974, 52007.23433580808, 36806.595242809686, 72865.50228184489, 0.046, 0.9420000000000001, 0.154, 192.0, 0.0, 0.0, 0.0, 0.0, 0.0, 0.0, 0.0, 0.0, 0.0, 1.6665571606318488E9, 0.0, 2022-10-23 13:32:40.631
82.0, -83657.5950572008, -120737.21685853206, 26477.608260823283, 83514.76741013139, 39617.72943946475, 51991.85633562283, 36742.51279145632, 72777.928147069, 0.046, 0.9420000000000001, 0.154, 192.0, 0.0, 0.0, 0.0, 0.0, 0.0, 0.0, 0.0, 0.0, 0.0, 1.666557160631869E9, 0.0, 2022-10-23 13:32:40.631
83.0, -83649.995464086, -120726.06333804886, 26264.596136164208, 83522.67992766856, 39623.20561685629, 51999.29946652645, 36595.751237362776, 72721.24412313034, 0.046, 0.9420000000000001, 0.154, 192.0, 0.0, 0.0, 0.0, 0.0, 0.0, 0.0, 0.0, 0.0, 0.0, 1.6665571606318893E9, 0.0, 2022-10-23 13:32:40.631
84.0, -83648.9896355855, -120725.05750954838, 26131.98323631087, 83529.67602368307, 39627.74302098072, 52013.179899833194, 36586.497615158274, 72756.44812064744, 0.046, 0.9420000000000001, 0.154, 192.0, 0.0, 0.0, 0.0, 0.0, 0.0, 0.0, 0.0, 0.0, 0.0, 1.6665571606319096E9, 0.0, 2022-10-23 13:32:40.631
85.0, -83647.80499312938, -120728.90200959469, 26364.195509457055, 83530.50303822792, 39624.971404668264, 52022.411170293235, 36759.4777654979, 72852.18064214953, 0.046, 0.9420000000000001, 0.154, 192.0, 0.0, 0.0, 0.0, 0.0, 0.0, 0.0, 0.0, 0.0, 0.0, 1.6665571606319296E9, 0.0, 2022-10-23 13:32:40.631
96.0, -83899.9997258186, -120959.46025365118, 25623.659863908277, 83545.59046573525, 39470.49849873764, 52124.11160756488, 36767.23382082389, 72784.67837389451, 0.046, 0.9420000000000001, 0.154, 192.0, 0.0, 0.0, 0.0, 0.0, 0.0, 0.0, 0.0, 0.0, 0.0, 1.6665571606320088E9, 0.0, 2022-10-23 13:32:40.632
97.0, -83890.72375186965, -120953.20176520369, 25454.971248504073, 83550.6643117266, 39480.28856280906, 52132.940546624726, 36609.497560202784, 72705.5084950338, 0.046, 0.9420000000000001, 0.154, 192.0, 0.0, 0.0, 0.0, 0.0, 0.0, 0.0, 0.0, 0.0, 0.0, 1.6665571606320298E9, 0.0, 2022-10-23 13:32:40.632
98.0, -83899.32917348495, -120964.89172755383, 25287.04259241135, 83556.9228001741, 39485.787091945065, 52141.43420951775, 36562.64830382446, 72717.9137132065, 0.046, 0.9420000000000001, 0.154, 192.0, 0.0, 0.0, 0.0, 0.0, 0.0, 0.0, 0.0, 0.0, 0.0, 1.6665571606320505E9, 0.0, 2022-10-23 13:32:40.632
99.0, -83920.20570280621, -120982.52725392906, 25442.342512886826, 83550.06081462633, 39471.750196427136, 52136.76269492658, 36704.89480553804, 72802.76093515885, 0.046, 0.9420000000000001, 0.154, 192.0, 0.0, 0.0, 0.0, 0.0, 0.0, 0.0, 0.0, 0.0, 0.0, 1.6665571606320705E9, 0.0, 2022-10-23 13:32:40.632
100.0, -83906.81700787747, -120965.56227988748, 25676.901719200818, 83550.57490474879, 39475.57234472899, 52138.32731703846, 36821.66031857256, 72812.41688876355, 0.046, 0.9420000000000001, 0.154, 192.0, 0.0, 0.0, 0.0, 0.0, 0.0, 0.0, 0.0, 0.0, 0.0, 1.6665571606320903E9, 0.0, 2022-10-23 13:32:40.632
101.0, -83897.6527926508, -120959.52730888454, 25523.702862704144, 83552.74302396095, 39483.99895238864, 52131.28651753504, 36653.418738057466, 72708.34716657962, 0.046, 0.9420000000000001, 0.154, 192.0, 0.0, 0.0, 0.0, 0.0, 0.0, 0.0, 0.0, 0.0, 0.0, 1.6665571606321104E9, 0.0, 2022-10-23 13:32:40.632
102.0, -83903.57600493146, -120965.60698337639, 25318.178572437595, 83555.44758504005, 39483.73073145518, 52126.927927366254, 36559.317893900625, 72700.76992520929, 0.028, 0.9480000000000001, 0.152, 192.0, 0.0, 224.0, 29.0, 160.0, 4.0, 192.0, 0.0, 0.0, 0.0, 1.6665571606321306E9, 0.0, 2022-10-23 13:32:40.632
103.0, -83913.4554759807, -120972.6030793909, 25370.772227140933, 83559.04621589735, 39480.98146688718, 52134.41576175878, 36645.70738622038, 72779.47041743642, 0.028, 0.9480000000000001, 0.152, 192.0, 0.0, 0.0, 0.0, 0.0, 0.0, 0.0, 0.0, 0.0, 0.0, 1.6665571606321514E9, 0.0, 2022-10-23 13:32:40.632
104.0, -83916.58472020444, -120973.81007359149, 25639.328436771448, 83552.4748030275, 39471.727844682675, 52129.096046578416, 36804.24830964188, 72824.82210693623, 0.028, 0.9480000000000001, 0.152, 192.0, 0.0, 0.0, 0.0, 0.0, 0.0, 0.0, 0.0, 0.0, 0.0, 1.6665571606322136E9, 0.0, 2022-10-23 13:32:40.632
105.0, -83909.90154861231, -120969.29502121151, 25568.02637195902, 83550.6643117266, 39474.588867972954, 52123.12813080885, 36697.1611019565, 72721.75821325282, 0.028, 0.9480000000000001, 0.152, 192.0, 0.0, 0.0, 0.0, 0.0, 0.0, 0.0, 0.0, 0.0, 0.0, 1.666557160632233E9, 0.0, 2022-10-23 13:32:40.632
106.0, -83898.47980719565, -120957.51565188357, 25365.251346260473, 83559.38149206419, 39484.82596693349, 52137.12032283787, 36587.12346400302, 72700.412297298, 0.028, 0.9480000000000001, 0.152, 192.0, 0.0, 0.0, 0.0, 0.0, 0.0, 0.0, 0.0, 0.0, 0.0, 1.66655716063225E9, 0.0, 2022-10-23 13:32:40.632
107.0, -83903.06191480899, -120960.24256470712, 25353.986067054997, 83560.18615486457, 39480.757949442625, 52139.93664263924, 36641.81818268516, 72773.05546677775, 0.028, 0.9480000000000001, 0.152, 192.0, 0.0, 0.0, 0.0, 0.0, 0.0, 0.0, 0.0, 0.0, 0.0, 1.6665571606322668E9, 0.0, 2022-10-23 13:32:40.632
108.0, -83907.82283637796, -120966.99279153263, 25631.7511954011, 83551.51367801591, 39470.72201618219, 52133.61109895839, 36809.05393469977, 72835.90857218606, 0.028, 0.9480000000000001, 0.152, 192.0, 0.0, 0.0, 0.0, 0.0, 0.0, 0.0, 0.0, 0.0, 0.0, 1.666557160632284E9, 0.0, 2022-10-23 13:32:40.632
109.0, -83896.87048159486, -120959.48260539563, 25585.10310472287, 83548.9208756591, 39469.58207721497, 52120.848252874406, 36708.06875325069, 72731.2130011574, 0.028, 0.9480000000000001, 0.152, 192.0, 0.0, 0.0, 0.0, 0.0, 0.0, 0.0, 0.0, 0.0, 0.0, 1.666557160632301E9, 0.0, 2022-10-23 13:32:40.632
110.0, -83892.04250479252, -120952.44180589222, 25385.32321278134, 83558.93445717507, 39475.75115868463, 52127.553776211, 36578.5850976211, 72685.25781455729, 0.028, 0.9480000000000001, 0.152, 192.0, 0.0, 0.0, 0.0, 0.0, 0.0, 0.0, 0.0, 0.0, 0.0, 1.6665571606323178E9, 0.0, 2022-10-23 13:32:40.632
111.0, -83902.68193515325, -120964.4446926647, 25292.58582503627, 83564.25417235545, 39476.75698718512, 52133.74520942512, 36582.80957732315, 72723.88162897607, 0.028, 0.9480000000000001, 0.152, 192.0, 0.0, 0.0, 0.0, 0.0, 0.0, 0.0, 0.0, 0.0, 0.0, 1.6665571606323347E9, 0.0, 2022-10-23 13:32:40.632
112.0, -83916.85294113791, -120979.3086027275, 25554.30240086346, 83551.75954720493, 39460.35080675493, 52123.79868314251, 36753.55455321724, 72808.4382782505, 0.024, 0.9480000000000001, 0.152, 192.0, 0.0, 192.0, 29.0, 160.0, 4.0, 192.0, 0.0, 0.0, 0.0, 1.6665571606323512E9, 0.0, 2022-10-23 13:32:40.632
113.0, -83905.8558828659, -120969.2503177226, 25591.272186192535, 83545.52341050189, 39465.04467309054, 52122.32346800846, 36717.3670789441, 72741.53950709576, 0.024, 0.9480000000000001, 0.152, 192.0, 0.0, 0.0, 0.0, 0.0, 0.0, 0.0, 0.0, 0.0, 0.0, 1.6665571606323693E9, 0.0, 2022-10-23 13:32:40.632
114.0, -83895.05999029399, -120956.37571291634, 25399.337756554814, 83554.08412862828, 39480.8697081649, 52144.16112234129, 36576.84166155358, 72695.29374781773, 0.024, 0.9480000000000001, 0.152, 192.0, 0.0, 0.0, 0.0, 0.0, 0.0, 0.0, 0.0, 0.0, 0.0, 1.666557160632386E9, 0.0, 2022-10-23 13:32:40.632
115.0, -83907.04052532202, -120968.02097177756, 25281.968746419996, 83554.0170733949, 39473.04659760554, 52137.41089551579, 36573.95828651885, 72725.93798946595, 0.024, 0.9480000000000001, 0.152, 192.0, 0.0, 0.0, 0.0, 0.0, 0.0, 0.0, 0.0, 0.0, 0.0, 1.666557160632403E9, 0.0, 2022-10-23 13:32:40.632
116.0, -83909.56627244547, -120969.63029737835, 25526.139202849772, 83557.1686693631, 39466.60929520241, 52135.57805247045, 36750.2241432934, 72812.28277829681, 0.024, 0.9480000000000001, 0.152, 192.0, 0.0, 0.0, 0.0, 0.0, 0.0, 0.0, 0.0, 0.0, 0.0, 1.6665571606324196E9, 0.0, 2022-10-23 13:32:40.632
117.0, -83900.78203687455, -120958.32031468397, 25639.239029793625, 83551.44662278255, 39469.55972547051, 52132.739380924635, 36771.92768715951, 72767.95926904194, 0.024, 0.9480000000000001, 0.152, 192.0, 0.0, 0.0, 0.0, 0.0, 0.0, 0.0, 0.0, 0.0, 0.0, 1.6665571606324365E9, 0.0, 2022-10-23 13:32:40.632
118.0, -83899.53033918505, -120955.16871871577, 25436.70987328409, 83547.11038435822, 39465.312894024006, 52123.59751744241, 36593.00197279477, 72679.44636099892, 0.024, 0.9480000000000001, 0.152, 192.0, 0.0, 0.0, 0.0, 0.0, 0.0, 0.0, 0.0, 0.0, 0.0, 1.6665571606324553E9, 0.0, 2022-10-23 13:32:40.632
119.0, -83900.96085083019, -120956.82274780546, 25264.221461322482, 83551.11134661573, 39466.989274858155, 52130.86183439039, 36545.884495482984, 72698.26652983029, 0.024, 0.9480000000000001, 0.152, 192.0, 0.0, 0.0, 0.0, 0.0, 0.0, 0.0, 0.0, 0.0, 0.0, 1.666557160632472E9, 0.0, 2022-10-23 13:32:40.632
120.0, -83909.49921721211, -120968.26684096658, 25456.84879503832, 83550.79842219334, 39464.30706552351, 52143.19999732971, 36708.784009073264, 72802.67152818103, 0.024, 0.9480000000000001, 0.152, 192.0, 0.0, 0.0, 0.0, 0.0, 0.0, 0.0, 0.0, 0.0, 0.0, 1.6665571606325223E9, 0.0, 2022-10-23 13:32:40.632
121.0, -83906.19115903272, -120959.7508263291, 25642.63649495083, 83544.67404421259, 39463.86003063441, 52136.18154957075, 36789.80908272375, 72794.5801966882, 0.024, 0.9480000000000001, 0.152, 192.0, 0.0, 0.0, 0.0, 0.0, 0.0, 0.0, 0.0, 0.0, 0.0, 1.6665571606325395E9, 0.0, 2022-10-23 13:32:40.632
122.0, -83893.83064434894, -120946.6527040783, 25478.015897037494, 83556.3193030738, 39479.01451337511, 52140.920119395276, 36628.16126682297, 72700.14407636454, 0.026000000000000002, 0.9480000000000001, 0.15, 192.0, 0.0, 208.0, 29.0, 160.0, 4.0, 176.0, 0.0, 0.0, 0.0, 1.666557160632557E9, 0.0, 2022-10-23 13:32:40.632
123.0, -83909.05218232301, -120962.63420136384, 25301.7723920074, 83548.67500647009, 39468.598600458936, 52132.739380924635, 36567.81155679364, 72693.52796000575, 0.026000000000000002, 0.9480000000000001, 0.15, 192.0, 0.0, 0.0, 0.0, 0.0, 0.0, 0.0, 0.0, 0.0, 0.0, 1.6665571606325748E9, 0.0, 2022-10-23 13:32:40.632
124.0, -83914.21543529218, -120969.33972470043, 25430.98782670353, 83549.47966927048, 39462.25070503363, 52136.06979084847, 36698.926889768474, 72774.03894353377, 0.026000000000000002, 0.9480000000000001, 0.15, 192.0, 0.0, 0.0, 0.0, 0.0, 0.0, 0.0, 0.0, 0.0, 0.0, 1.6665571606326268E9, 0.0, 2022-10-23 13:32:40.632
125.0, -83901.8996240973, -120957.89563153932, 25673.124274387872, 83553.23476233898, 39466.43048124677, 52138.46142750519, 36826.13066746362, 72803.65500493706, 0.026000000000000002, 0.9480000000000001, 0.15, 192.0, 0.0, 0.0, 0.0, 0.0, 0.0, 0.0, 0.0, 0.0, 0.0, 1.6665571606326935E9, 0.0, 2022-10-23 13:32:40.632
126.0, -83894.63530714934, -120952.24064019212, 25540.980761168095, 83553.1230036167, 39467.36925451389, 52128.380790755844, 36672.5071278223, 72703.85446594411, 0.026000000000000002, 0.9480000000000001, 0.15, 192.0, 0.0, 0.0, 0.0, 0.0, 0.0, 0.0, 0.0, 0.0, 0.0, 1.6665571606327417E9, 0.0, 2022-10-23 13:32:40.632
127.0, -83897.42927520625, -120952.93354427023, 25333.131889478194, 83553.99472165045, 39469.5150219816, 52132.62762220235, 36570.31495217264, 72696.63485248505, 0.026000000000000002, 0.9480000000000001, 0.15, 192.0, 0.0, 0.0, 0.0, 0.0, 0.0, 0.0, 0.0, 0.0, 0.0, 1.666557160632789E9, 0.0, 2022-10-23 13:32:40.632
128.0, -83910.99678409062, -120966.36694268788, 25377.187177799606, 83551.73719546048, 39464.44117599025, 52139.5566629835, 36659.856040460596, 72780.38683895908, 0.026000000000000002, 0.9480000000000001, 0.15, 192.0, 0.0, 0.0, 0.0, 0.0, 0.0, 0.0, 0.0, 0.0, 0.0, 1.666557160632836E9, 0.0, 2022-10-23 13:32:40.632
129.0, -83916.76353416008, -120970.81493983448, 25670.464416797688, 83549.94905590404, 39460.73078641067, 52140.04840136152, 36836.18895246851, 72836.35560707517, 0.026000000000000002, 0.9480000000000001, 0.15, 192.0, 0.0, 0.0, 0.0, 0.0, 0.0, 0.0, 0.0, 0.0, 0.0, 1.6665571606328733E9, 0.0, 2022-10-23 13:32:40.632
130.0, -83907.7557811446, -120960.64489610732, 25617.088451038417, 83547.62447448069, 39464.463527734704, 52124.893918620815, 36731.82865760668, 72731.30240813523, 0.026000000000000002, 0.9480000000000001, 0.15, 192.0, 0.0, 0.0, 0.0, 0.0, 0.0, 0.0, 0.0, 0.0, 0.0, 1.6665571606328907E9, 0.0, 2022-10-23 13:32:40.632
131.0, -83906.302917755, -120958.25325945059, 25412.41352706117, 83544.9199134016, 39463.03301608956, 52122.949316853206, 36604.133141533515, 72687.20241632492, 0.024, 0.9440000000000001, 0.152, 192.0, 0.0, 192.0, 29.0, 128.0, 4.0, 192.0, 0.0, 0.0, 0.0, 1.6665571606329083E9, 0.0, 2022-10-23 13:32:40.632
132.0, -83911.66733642427, -120963.21534671968, 25366.30187824987, 83551.714843716, 39467.27984753607, 52136.025087359565, 36635.090307604114, 72741.8747832626, 0.024, 0.9440000000000001, 0.152, 192.0, 0.0, 0.0, 0.0, 0.0, 0.0, 0.0, 0.0, 0.0, 0.0, 1.6665571606329563E9, 0.0, 2022-10-23 13:32:40.632
133.0, -83902.23490026414, -120953.20176520369, 25652.538317744533, 83562.48838454347, 39476.15349008483, 52153.280634079056, 36817.972280737435, 72826.5878947482, 0.024, 0.9440000000000001, 0.152, 192.0, 0.0, 0.0, 0.0, 0.0, 0.0, 0.0, 0.0, 0.0, 0.0, 1.6665571606330032E9, 0.0, 2022-10-23 13:32:40.633
134.0, -83897.4069234618, -120948.9996372461, 25646.257477552594, 83557.34748331875, 39473.404225516824, 52138.57318622747, 36747.720747914405, 72740.13134719507, 0.024, 0.9440000000000001, 0.152, 192.0, 0.0, 0.0, 0.0, 0.0, 0.0, 0.0, 0.0, 0.0, 0.0, 1.6665571606330495E9, 0.0, 2022-10-23 13:32:40.633
135.0, -83902.77134213106, -120959.549660629, 25455.12771071526, 83553.63709373916, 39472.53250748307, 52138.01439261608, 36614.10201956058, 72701.93221592096, 0.024, 0.9440000000000001, 0.152, 192.0, 0.0, 0.0, 0.0, 0.0, 0.0, 0.0, 0.0, 0.0, 0.0, 1.6665571606331959E9, 0.0, 2022-10-23 13:32:40.633
136.0, -83902.52547294206, -120961.78483507453, 25374.21439578705, 83557.03455889638, 39471.77254817159, 52144.98813688614, 36631.49167674681, 72748.42384438799, 0.024, 0.9440000000000001, 0.152, 192.0, 0.0, 0.0, 0.0, 0.0, 0.0, 0.0, 0.0, 0.0, 0.0, 1.6665571606332438E9, 0.0, 2022-10-23 13:32:40.633
137.0, -83907.59931893341, -120967.52923339955, 25631.840602378918, 83550.46314602651, 39458.3615014984, 52137.12032283787, 36801.99078345189, 72827.8395924377, 0.024, 0.9440000000000001, 0.152, 192.0, 0.0, 0.0, 0.0, 0.0, 0.0, 0.0, 0.0, 0.0, 0.0, 1.6665571606332912E9, 0.0, 2022-10-23 13:32:40.633
138.0, -83896.17757751675, -120950.76542505807, 25686.289451872046, 83550.15022160414, 39462.47422247818, 52129.587784956435, 36775.973352905916, 72760.98552477188, 0.024, 0.9440000000000001, 0.152, 192.0, 0.0, 0.0, 0.0, 0.0, 0.0, 0.0, 0.0, 0.0, 0.0, 1.6665571606333387E9, 0.0, 2022-10-23 13:32:40.633
139.0, -83893.54007167103, -120948.55260235698, 25481.569824405888, 83550.28433207088, 39468.62095220339, 52136.56152922649, 36611.956252092874, 72698.02066064128, 0.024, 0.9440000000000001, 0.152, 192.0, 0.0, 0.0, 0.0, 0.0, 0.0, 0.0, 0.0, 0.0, 0.0, 1.6665571606333928E9, 0.0, 2022-10-23 13:32:40.633
140.0, -83903.26308050909, -120962.00835251909, 25342.229049471505, 83538.43790750956, 39455.94751309723, 52128.93958436723, 36586.47526341382, 72713.93510269346, 0.024, 0.9440000000000001, 0.152, 192.0, 0.0, 0.0, 0.0, 0.0, 0.0, 0.0, 0.0, 0.0, 0.0, 1.66655716063344E9, 0.0, 2022-10-23 13:32:40.633
141.0, -83913.4554759807, -120968.11037875539, 25580.744514554088, 83536.38154701967, 39444.2128472582, 52124.87156687636, 36764.17163183351, 72807.65596719456, 0.026000000000000002, 0.9400000000000001, 0.152, 192.0, 0.0, 208.0, 29.0, 96.0, 4.0, 192.0, 0.0, 0.0, 0.0, 1.6665571606334684E9, 0.0, 2022-10-23 13:32:40.633
142.0, -83899.26211825159, -120951.30186692499, 25735.798565840552, 83540.87424765519, 39459.18851604325, 52132.515863480075, 36817.704059803975, 72777.59287090217, 0.026000000000000002, 0.9400000000000001, 0.152, 192.0, 0.0, 0.0, 0.0, 0.0, 0.0, 0.0, 0.0, 0.0, 0.0, 1.666557160633489E9, 0.0, 2022-10-23 13:32:40.633
143.0, -83882.09597850991, -120933.37576787184, 25553.67655201871, 83552.89948617214, 39476.77933892958, 52145.27870956406, 36649.976569411345, 72697.0595356297, 0.026000000000000002, 0.9400000000000001, 0.152, 192.0, 0.0, 0.0, 0.0, 0.0, 0.0, 0.0, 0.0, 0.0, 0.0, 1.666557160633508E9, 0.0, 2022-10-23 13:32:40.633
144.0, -83887.48274892363, -120939.90247725279, 25368.134721295206, 83551.6701402271, 39472.19723131624, 52141.21069207319, 36584.553013390665, 72710.42587881397, 0.026000000000000002, 0.9400000000000001, 0.152, 192.0, 0.0, 0.0, 0.0, 0.0, 0.0, 0.0, 0.0, 0.0, 0.0, 1.6665571606335268E9, 0.0, 2022-10-23 13:32:40.633
145.0, -83907.33109799995, -120960.44373040722, 25535.10225237635, 83545.3669482907, 39457.35567299792, 52140.83071241745, 36728.47589593838, 72803.7891154038, 0.026000000000000002, 0.9400000000000001, 0.152, 192.0, 0.0, 0.0, 0.0, 0.0, 0.0, 0.0, 0.0, 0.0, 0.0, 1.6665571606335459E9, 0.0, 2022-10-23 13:32:40.633
146.0, -83906.88406311085, -120958.54383212852, 25754.81990037202, 83543.19882907854, 39454.85227761892, 52132.739380924635, 36832.523266377844, 72796.50244671135, 0.026000000000000002, 0.9400000000000001, 0.152, 192.0, 0.0, 0.0, 0.0, 0.0, 0.0, 0.0, 0.0, 0.0, 0.0, 1.6665571606335645E9, 0.0, 2022-10-23 13:32:40.633
147.0, -83900.04442930751, -120952.82178554796, 25596.949529284186, 83549.1220413592, 39466.16226031331, 52131.37592451286, 36665.39927308551, 72693.55031175022, 0.026000000000000002, 0.9400000000000001, 0.152, 192.0, 0.0, 0.0, 0.0, 0.0, 0.0, 0.0, 0.0, 0.0, 0.0, 1.6665571606335845E9, 0.0, 2022-10-23 13:32:40.633
148.0, -83909.81214163448, -120965.8528525654, 25423.164716144172, 83543.53410524537, 39463.547106212034, 52128.13492156684, 36599.21575775334, 72698.33358506365, 0.026000000000000002, 0.9400000000000001, 0.152, 192.0, 0.0, 0.0, 0.0, 0.0, 0.0, 0.0, 0.0, 0.0, 0.0, 1.6665571606336055E9, 0.0, 2022-10-23 13:32:40.633
149.0, -83932.05212736751, -120985.29887024152, 25525.759223194033, 83526.23385503696, 39443.51994318008, 52116.95904933919, 36714.55075914273, 72774.0836470227, 0.026000000000000002, 0.9400000000000001, 0.152, 192.0, 0.0, 0.0, 0.0, 0.0, 0.0, 0.0, 0.0, 0.0, 0.0, 1.6665571606336243E9, 0.0, 2022-10-23 13:32:40.633
150.0, -83922.01619410708, -120976.89461432632, 25796.796476459083, 83533.85579989622, 39449.28669324955, 52128.69371517822, 36862.720473136964, 72808.12535382812, 0.026000000000000002, 0.9400000000000001, 0.152, 192.0, 0.0, 0.0, 0.0, 0.0, 0.0, 0.0, 0.0, 0.0, 0.0, 1.6665571606336432E9, 0.0, 2022-10-23 13:32:40.633
151.0, -83906.07940031045, -120966.43399792124, 25694.42548685378, 83544.02584362339, 39462.921257367285, 52135.93568038174, 36724.47493368089, 72711.45405905892, 0.024, 0.9400000000000001, 0.148, 192.0, 0.0, 192.0, 29.0, 96.0, 4.0, 160.0, 0.0, 0.0, 0.0, 1.6665571606336992E9, 0.0, 2022-10-23 13:32:40.633
152.0, -83904.93946134322, -120964.35528568689, 25480.563995905402, 83547.49036401395, 39464.03884459005, 52134.12518908086, 36606.010688067756, 72684.81077966819, 0.024, 0.9400000000000001, 0.148, 192.0, 0.0, 0.0, 0.0, 0.0, 0.0, 0.0, 0.0, 0.0, 0.0, 1.6665571606337194E9, 0.0, 2022-10-23 13:32:40.633
153.0, -83913.61193819188, -120968.26684096658, 25491.47164719959, 83547.51271575842, 39457.109803808904, 52131.063000090486, 36670.22724988786, 72749.69789382194, 0.024, 0.9400000000000001, 0.148, 192.0, 0.0, 0.0, 0.0, 0.0, 0.0, 0.0, 0.0, 0.0, 0.0, 1.6665571606337385E9, 0.0, 2022-10-23 13:32:40.633
154.0, -83914.01426959208, -120965.87520430985, 25781.19495882928, 83544.11525060121, 39458.67442592078, 52143.26705256308, 36848.10243226319, 72823.8386301802, 0.024, 0.9400000000000001, 0.148, 192.0, 0.0, 0.0, 0.0, 0.0, 0.0, 0.0, 0.0, 0.0, 0.0, 1.6665571606337578E9, 0.0, 2022-10-23 13:32:40.633
155.0, -83904.24655726511, -120959.39319841782, 25720.979359266683, 83539.77901217688, 39460.28375152156, 52135.46629374818, 36739.02591932129, 72726.54148656625, 0.024, 0.9400000000000001, 0.148, 192.0, 0.0, 0.0, 0.0, 0.0, 0.0, 0.0, 0.0, 0.0, 0.0, 1.6665571606337748E9, 0.0, 2022-10-23 13:32:40.633
156.0, -83903.9559845872, -120962.36598043038, 25531.123641863305, 83540.49426799944, 39461.49074572215, 52137.54500598252, 36621.92513011994, 72695.38315479555, 0.024, 0.9400000000000001, 0.148, 192.0, 0.0, 0.0, 0.0, 0.0, 0.0, 0.0, 0.0, 0.0, 0.0, 1.6665571606337917E9, 0.0, 2022-10-23 13:32:40.633
157.0, -83911.26500502408, -120966.38929443233, 25458.927507272663, 83542.95295988953, 39459.52379221008, 52139.13197983885, 36637.21372332737, 72742.65709431852, 0.024, 0.9400000000000001, 0.148, 192.0, 0.0, 0.0, 0.0, 0.0, 0.0, 0.0, 0.0, 0.0, 0.0, 1.6665571606338086E9, 0.0, 2022-10-23 13:32:40.633
158.0, -83914.84128413693, -120965.048189765, 25742.392330454866, 83543.98114013448, 39459.74730965463, 52149.19026484374, 36821.77207729484, 72835.6403512526, 0.024, 0.9400000000000001, 0.148, 192.0, 0.0, 0.0, 0.0, 0.0, 0.0, 0.0, 0.0, 0.0, 0.0, 1.6665571606338255E9, 0.0, 2022-10-23 13:32:40.633
159.0, -83904.2018537762, -120956.15219547179, 25737.56435365252, 83540.82954416628, 39460.17199279928, 52141.054229862006, 36749.397128748555, 72750.88253627808, 0.024, 0.9400000000000001, 0.148, 192.0, 0.0, 0.0, 0.0, 0.0, 0.0, 0.0, 0.0, 0.0, 0.0, 1.6665571606338427E9, 0.0, 2022-10-23 13:32:40.633
160.0, -83900.6032229189, -120951.68184658073, 25532.66591223072, 83544.36111979022, 39462.787146900555, 52137.99204087163, 36598.16522576394, 72691.76217219379, 0.024, 0.9460000000000001, 0.152, 192.0, 0.0, 192.0, 29.0, 144.0, 4.0, 192.0, 0.0, 0.0, 0.0, 1.6665571606338615E9, 0.0, 2022-10-23 13:32:40.633
161.0, -83908.806313134, -120961.2483932076, 25417.643835263712, 83553.45827978353, 39464.70939692371, 52145.457523519704, 36594.834815840106, 72720.30534986322, 0.024, 0.9460000000000001, 0.152, 192.0, 0.0, 0.0, 0.0, 0.0, 0.0, 0.0, 0.0, 0.0, 0.0, 1.66655716063388E9, 0.0, 2022-10-23 13:32:40.633
162.0, -83918.84224639443, -120973.34068695792, 25674.13010288836, 83551.69249197155, 39455.50047820812, 52148.676174721266, 36777.11329187314, 72821.60345573467, 0.024, 0.9460000000000001, 0.152, 192.0, 0.0, 0.0, 0.0, 0.0, 0.0, 0.0, 0.0, 0.0, 0.0, 1.6665571606338968E9, 0.0, 2022-10-23 13:32:40.633
163.0, -83915.91416787078, -120965.8975560543, 25764.4311504878, 83543.82467792329, 39453.53352469606, 52136.74034318213, 36780.82368145272, 72779.31395522523, 0.024, 0.9460000000000001, 0.152, 192.0, 0.0, 0.0, 0.0, 0.0, 0.0, 0.0, 0.0, 0.0, 0.0, 1.6665571606339135E9, 0.0, 2022-10-23 13:32:40.633
164.0, -83910.54974920151, -120957.71681758367, 25586.77948555702, 83545.43400352407, 39451.99125432864, 52124.29042152053, 36627.66952844495, 72702.93804442145, 0.024, 0.9460000000000001, 0.152, 192.0, 0.0, 0.0, 0.0, 0.0, 0.0, 0.0, 0.0, 0.0, 0.0, 1.6665571606339304E9, 0.0, 2022-10-23 13:32:40.633
165.0, -83914.30484227001, -120962.0977594969, 25411.050070649395, 83548.56324774782, 39454.00291132962, 52135.13101758135, 36575.321742930624, 72717.17610563948, 0.024, 0.9460000000000001, 0.152, 192.0, 0.0, 0.0, 0.0, 0.0, 0.0, 0.0, 0.0, 0.0, 0.0, 1.6665571606339474E9, 0.0, 2022-10-23 13:32:40.633
166.0, -83920.4068685063, -120967.9539165442, 25599.989366530106, 83548.56324774782, 39449.778431627565, 52151.7607154561, 36731.2698639953, 72815.50142949837, 0.024, 0.9460000000000001, 0.152, 192.0, 0.0, 0.0, 0.0, 0.0, 0.0, 0.0, 0.0, 0.0, 0.0, 1.6665571606340108E9, 0.0, 2022-10-23 13:32:40.634
167.0, -83907.26404276658, -120957.76152107258, 25761.033685330593, 83545.29989305734, 39453.488821207146, 52146.642165975834, 36797.16280664955, 72796.50244671135, 0.024, 0.9460000000000001, 0.152, 192.0, 0.0, 0.0, 0.0, 0.0, 0.0, 0.0, 0.0, 0.0, 0.0, 1.666557160634028E9, 0.0, 2022-10-23 13:32:40.634
168.0, -83899.9997258186, -120955.19107046022, 25590.44517164769, 83546.4174802801, 39457.84741137593, 52137.03091586005, 36637.258426816275, 72702.53571302125, 0.024, 0.9460000000000001, 0.152, 192.0, 0.0, 0.0, 0.0, 0.0, 0.0, 0.0, 0.0, 0.0, 0.0, 1.666557160634045E9, 0.0, 2022-10-23 13:32:40.634
169.0, -83909.38745848983, -120964.1988234757, 25402.60111124529, 83544.9199134016, 39454.7628706411, 52134.46046524769, 36570.225545194815, 72709.68827124695, 0.024, 0.9460000000000001, 0.152, 192.0, 0.0, 0.0, 0.0, 0.0, 0.0, 0.0, 0.0, 0.0, 0.0, 1.6665571606340616E9, 0.0, 2022-10-23 13:32:40.634
170.0, -83906.57113868846, -120959.52730888454, 25538.61147625583, 83555.69345422905, 39459.97082709918, 52147.80445668751, 36702.36905841459, 72808.46062999495, 0.024, 0.9460000000000001, 0.15, 192.0, 0.0, 192.0, 29.0, 144.0, 4.0, 176.0, 0.0, 0.0, 0.0, 1.6665571606340787E9, 0.0, 2022-10-23 13:32:40.634
171.0, -83898.47980719565, -120951.48068088063, 25750.014275314126, 83558.84505019725, 39466.497536480136, 52161.34961382743, 36807.62342305463, 72822.20695283497, 0.024, 0.9460000000000001, 0.15, 192.0, 0.0, 0.0, 0.0, 0.0, 0.0, 0.0, 0.0, 0.0, 0.0, 1.6665571606340997E9, 0.0, 2022-10-23 13:32:40.634
172.0, -83896.8034263615, -120949.29020992402, 25611.58992190241, 83549.90435241513, 39457.48978346465, 52147.04449737603, 36656.39152007002, 72713.55512303772, 0.024, 0.9460000000000001, 0.15, 192.0, 0.0, 0.0, 0.0, 0.0, 0.0, 0.0, 0.0, 0.0, 0.0, 1.6665571606341164E9, 0.0, 2022-10-23 13:32:40.634
173.0, -83908.94042360072, -120963.08123625294, 25402.26583507846, 83537.52148598689, 39440.770678612076, 52127.754941911095, 36556.90390549945, 72685.54838723522, 0.024, 0.9460000000000001, 0.15, 192.0, 0.0, 0.0, 0.0, 0.0, 0.0, 0.0, 0.0, 0.0, 0.0, 1.6665571606341329E9, 0.0, 2022-10-23 13:32:40.634
174.0, -83911.84615037992, -120967.23866072163, 25462.906117785707, 83539.82371566579, 39439.6083879004, 52135.1533693258, 36649.90951417798, 72760.60554511614, 0.024, 0.9460000000000001, 0.15, 192.0, 0.0, 0.0, 0.0, 0.0, 0.0, 0.0, 0.0, 0.0, 0.0, 1.6665571606341496E9, 0.0, 2022-10-23 13:32:40.634
175.0, -83912.56140620248, -120968.28919271103, 25714.586760352464, 83538.72848018748, 39440.32364372297, 52136.87445364887, 36793.96650719244, 72804.77259215982, 0.024, 0.9460000000000001, 0.15, 192.0, 0.0, 0.0, 0.0, 0.0, 0.0, 0.0, 0.0, 0.0, 0.0, 1.6665571606341662E9, 0.0, 2022-10-23 13:32:40.634
176.0, -83912.85197888041, -120966.03166652104, 25618.764831872562, 83536.7168231865, 39439.4072222003, 52124.960973854184, 36666.338046352634, 72701.08284963165, 0.024, 0.9460000000000001, 0.15, 192.0, 0.0, 0.0, 0.0, 0.0, 0.0, 0.0, 0.0, 0.0, 0.0, 1.6665571606341827E9, 0.0, 2022-10-23 13:32:40.634
177.0, -83905.58766193244, -120956.71098908318, 25416.7497654855, 83545.92574190209, 39447.56560892649, 52133.8569681474, 36556.70273979935, 72675.78067490825, 0.024, 0.9460000000000001, 0.15, 192.0, 0.0, 0.0, 0.0, 0.0, 0.0, 0.0, 0.0, 0.0, 0.0, 1.6665571606341996E9, 0.0, 2022-10-23 13:32:40.634
178.0, -83911.84615037992, -120964.98113453164, 25385.993765114996, 83545.47870701298, 39443.631701902355, 52139.53431123905, 36598.76872286424, 72733.60463781413, 0.024, 0.9460000000000001, 0.15, 192.0, 0.0, 0.0, 0.0, 0.0, 0.0, 0.0, 0.0, 0.0, 0.0, 1.666557160634216E9, 0.0, 2022-10-23 13:32:40.634
179.0, -83909.81214163448, -120963.1482914863, 25688.07759142847, 83539.89077089916, 39437.77554485507, 52138.304965294, 36793.89945195907, 72819.25652256687, 0.024, 0.9460000000000001, 0.15, 192.0, 0.0, 0.0, 0.0, 0.0, 0.0, 0.0, 0.0, 0.0, 0.0, 1.6665571606342325E9, 0.0, 2022-10-23 13:32:40.634
180.0, -83902.16784503077, -120957.73916932812, 25679.114541901894, 83542.72944244498, 39448.05734730451, 52136.62858445985, 36730.8228291062, 72743.90879200802, 0.024, 0.9460000000000001, 0.15, 192.0, 0.0, 192.0, 29.0, 144.0, 4.0, 176.0, 0.0, 0.0, 0.0, 1.6665571606342497E9, 0.0, 2022-10-23 13:32:40.634
181.0, -83904.78299913205, -120962.298925197, 25481.055734283418, 83541.45539301103, 39449.912542094295, 52140.920119395276, 36602.27794674372, 72693.63971872804, 0.024, 0.9460000000000001, 0.15, 192.0, 0.0, 0.0, 0.0, 0.0, 0.0, 0.0, 0.0, 0.0, 0.0, 1.666557160634299E9, 0.0, 2022-10-23 13:32:40.634
182.0, -83906.68289741075, -120963.5506228865, 25383.6915354361, 83551.29016057136, 39456.55101019752, 52152.0065846451, 36605.72011538984, 72731.99531221334, 0.024, 0.9460000000000001, 0.15, 192.0, 0.0, 0.0, 0.0, 0.0, 0.0, 0.0, 0.0, 0.0, 0.0, 1.6665571606343288E9, 0.0, 2022-10-23 13:32:40.634
183.0, -83918.59637720542, -120975.46410268119, 25659.534413759044, 83545.41165177962, 39446.87270484838, 52154.398221301824, 36788.84795771217, 72816.90958939906, 0.024, 0.9460000000000001, 0.15, 192.0, 0.0, 0.0, 0.0, 0.0, 0.0, 0.0, 0.0, 0.0, 0.0, 1.6665571606343458E9, 0.0, 2022-10-23 13:32:40.634
184.0, -83914.86363588138, -120971.46314042369, 25680.388591335846, 83535.95686387502, 39439.451925689216, 52133.8569681474, 36733.61679716311, 72729.00017845634, 0.024, 0.9460000000000001, 0.15, 192.0, 0.0, 0.0, 0.0, 0.0, 0.0, 0.0, 0.0, 0.0, 0.0, 1.6665571606343625E9, 0.0, 2022-10-23 13:32:40.634
185.0, -83907.26404276658, -120963.21534671968, 25504.592121194855, 83541.92477964459, 39447.09622229293, 52141.47891300666, 36599.55103392017, 72680.45218949941, 0.024, 0.9460000000000001, 0.15, 192.0, 0.0, 0.0, 0.0, 0.0, 0.0, 0.0, 0.0, 0.0, 0.0, 1.666557160634379E9, 0.0, 2022-10-23 13:32:40.634
186.0, -83910.16976954577, -120967.03749502153, 25384.02681160293, 83543.24353256745, 39446.87270484838, 52148.13973285434, 36592.39847569448, 72713.46571605989, 0.024, 0.9460000000000001, 0.15, 192.0, 0.0, 0.0, 0.0, 0.0, 0.0, 0.0, 0.0, 0.0, 0.0, 1.6665571606343956E9, 0.0, 2022-10-23 13:32:40.634
187.0, -83917.76936266058, -120968.89268981131, 25618.474259194645, 83544.36111979022, 39443.363480968896, 52154.48762827965, 36764.9762946339, 72805.97958636041, 0.024, 0.9460000000000001, 0.15, 192.0, 0.0, 0.0, 0.0, 0.0, 0.0, 0.0, 0.0, 0.0, 0.0, 1.6665571606344123E9, 0.0, 2022-10-23 13:32:40.634
188.0, -83925.59247321993, -120973.76537010257, 25719.861772043918, 83533.81109640731, 39435.83094308746, 52138.75200018311, 36776.39803605057, 72760.78435907178, 0.024, 0.9460000000000001, 0.15, 192.0, 0.0, 0.0, 0.0, 0.0, 0.0, 0.0, 0.0, 0.0, 0.0, 1.666557160634429E9, 0.0, 2022-10-23 13:32:40.634
189.0, -83914.01426959208, -120961.02487576305, 25553.140110151784, 83543.62351222319, 39447.76677462659, 52138.84140716093, 36629.65883370148, 72695.78548619575, 0.024, 0.9460000000000001, 0.15, 192.0, 0.0, 0.0, 0.0, 0.0, 0.0, 0.0, 0.0, 0.0, 0.0, 1.6665571606344457E9, 0.0, 2022-10-23 13:32:40.634
190.0, -83906.34762124391, -120953.13470997033, 25387.804256415875, 83550.30668381533, 39452.6618066623, 52142.574148484964, 36582.67546685642, 72707.1178206346, 0.024, 0.9560000000000001, 0.156, 192.0, 0.0, 192.0, 29.0, 224.0, 4.0, 224.0, 0.0, 0.0, 0.0, 1.666557160634462E9, 0.0, 2022-10-23 13:32:40.634
191.0, -83907.08522881095, -120956.50982338308, 25559.800929999463, 83552.54185826085, 39449.68902464974, 52149.95022415522, 36724.7655063588, 72795.29545251078, 0.024, 0.9560000000000001, 0.156, 192.0, 0.0, 0.0, 0.0, 0.0, 0.0, 0.0, 0.0, 0.0, 0.0, 1.6665571606344795E9, 0.0, 2022-10-23 13:32:40.634
192.0, -83904.47007470966, -120955.05695999348, 25729.405966926333, 83559.20267810854, 39457.17685904227, 52153.012413145596, 36791.70898100245, 72782.75612387135, 0.024, 0.9560000000000001, 0.156, 192.0, 0.0, 0.0, 0.0, 0.0, 0.0, 0.0, 0.0, 0.0, 0.0, 1.6665571606344967E9, 0.0, 2022-10-23 13:32:40.634
193.0, -83911.93555735773, -120967.66334386628, 25548.692113005178, 83548.45148902554, 39453.17589678477, 52141.523616495564, 36612.76091489326, 72684.78842792373, 0.024, 0.9560000000000001, 0.156, 192.0, 0.0, 0.0, 0.0, 0.0, 0.0, 0.0, 0.0, 0.0, 0.0, 1.6665571606345131E9, 0.0, 2022-10-23 13:32:40.634
194.0, -83921.68091794025, -120972.93835555774, 25352.01911354293, 83544.3164163013, 39448.54908568253, 52142.79766592952, 36533.63573952147, 72687.26947155828, 0.024, 0.9560000000000001, 0.156, 192.0, 0.0, 0.0, 0.0, 0.0, 0.0, 0.0, 0.0, 0.0, 0.0, 1.66655716063453E9, 0.0, 2022-10-23 13:32:40.634
195.0, -83931.71685120069, -120976.44757943721, 25466.437693409647, 83547.04332912485, 39444.883399591854, 52148.36325029889, 36655.899781692, 72782.26438549333, 0.024, 0.9560000000000001, 0.156, 192.0, 0.0, 0.0, 0.0, 0.0, 0.0, 0.0, 0.0, 0.0, 0.0, 1.6665571606345468E9, 0.0, 2022-10-23 13:32:40.634
196.0, -83921.90443538481, -120966.76927408806, 25729.674187859797, 83550.15022160414, 39452.46064096221, 52153.30298582352, 36803.086018930204, 72822.05049062378, 0.024, 0.9560000000000001, 0.156, 192.0, 0.0, 0.0, 0.0, 0.0, 0.0, 0.0, 0.0, 0.0, 0.0, 1.666557160634565E9, 0.0, 2022-10-23 13:32:40.634
197.0, -83909.47686546766, -120954.18524195973, 25619.658901650775, 83552.2736373274, 39457.959170098206, 52153.52650326807, 36669.86962197657, 72728.73195752288, 0.024, 0.9560000000000001, 0.156, 192.0, 0.0, 0.0, 0.0, 0.0, 0.0, 0.0, 0.0, 0.0, 0.0, 1.666557160634612E9, 0.0, 2022-10-23 13:32:40.634
198.0, -83913.79075214753, -120960.08610249593, 25396.387326286713, 83554.32999781729, 39452.013606073095, 52152.34186081194, 36551.58419031909, 72697.77479145226, 0.024, 0.9560000000000001, 0.156, 192.0, 0.0, 0.0, 0.0, 0.0, 0.0, 0.0, 0.0, 0.0, 0.0, 1.666557160634628E9, 0.0, 2022-10-23 13:32:40.634
199.0, -83932.70032795671, -120979.91209982778, 25440.59907681931, 83549.99375939295, 39444.2128472582, 52154.48762827965, 36645.03683388673, 72779.76099011433, 0.022, 0.9440000000000001, 0.152, 192.0, 0.0, 176.0, 29.0, 128.0, 4.0, 192.0, 0.0, 0.0, 0.0, 1.6665571611109405E9, 0.0, 2022-10-23 13:32:41.110
200.0, -83936.76834544759, -120981.81199810648, 25737.497298419155, 83543.98114013448, 39439.496629178124, 52150.53136951105, 36823.96254825146, 72831.10294712818, 0.022, 0.9440000000000001, 0.152, 192.0, 0.0, 0.0, 0.0, 0.0, 0.0, 0.0, 0.0, 0.0, 0.0, 1.6665571611111712E9, 0.0, 2022-10-23 13:32:41.111
201.0, -83929.36991803288, -120974.3018119695, 25667.044599896028, 83547.19979133604, 39448.034995560054, 52143.915253152285, 36705.565357871696, 72727.2120388999, 0.022, 0.9440000000000001, 0.152, 192.0, 0.0, 0.0, 0.0, 0.0, 0.0, 0.0, 0.0, 0.0, 0.0, 1.6665571611111937E9, 0.0, 2022-10-23 13:32:41.111
202.0, -83917.03175509356, -120965.83050082094, 25468.18112947716, 83557.95098041905, 39459.635550932355, 52157.63922424785, 36589.20217623737, 72703.161561866, 0.022, 0.9440000000000001, 0.152, 192.0, 0.0, 0.0, 0.0, 0.0, 0.0, 0.0, 0.0, 0.0, 0.0, 1.6665571611112163E9, 0.0, 2022-10-23 13:32:41.111
203.0, -83920.13864757284, -120967.9539165442, 25422.382405088236, 83559.71676823101, 39456.707472408714, 52166.75873598561, 36625.032022599225, 72763.89125155106, 0.022, 0.9440000000000001, 0.152, 192.0, 0.0, 0.0, 0.0, 0.0, 0.0, 0.0, 0.0, 0.0, 0.0, 1.666557161111236E9, 0.0, 2022-10-23 13:32:41.111
204.0, -83927.22415056518, -120974.83825383644, 25711.144591706347, 83552.13952686066, 39446.69389089273, 52161.84135220544, 36810.842074256194, 72838.92605768754, 0.022, 0.9440000000000001, 0.152, 192.0, 0.0, 0.0, 0.0, 0.0, 0.0, 0.0, 0.0, 0.0, 0.0, 1.6665571611112561E9, 0.0, 2022-10-23 13:32:41.111
205.0, -83924.27372029707, -120968.28919271103, 25692.391478108344, 83545.05402386833, 39444.61517865839, 52146.575110742466, 36730.375794217085, 72738.7231872944, 0.022, 0.9440000000000001, 0.152, 192.0, 0.0, 0.0, 0.0, 0.0, 0.0, 0.0, 0.0, 0.0, 0.0, 1.666557161111276E9, 0.0, 2022-10-23 13:32:41.111
206.0, -83927.49237149864, -120973.0054107911, 25503.183961294173, 83548.67500647009, 39449.80078337202, 52144.94343339723, 36598.90283333097, 72697.39481179653, 0.022, 0.9440000000000001, 0.152, 192.0, 0.0, 0.0, 0.0, 0.0, 0.0, 0.0, 0.0, 0.0, 0.0, 1.6665571611112957E9, 0.0, 2022-10-23 13:32:41.111
207.0, -83939.7634792046, -120985.47768419716, 25430.49608832551, 83542.97531163399, 39442.98350131315, 52142.64120371833, 36622.43922024241, 72737.40443437152, 0.022, 0.9440000000000001, 0.152, 192.0, 0.0, 0.0, 0.0, 0.0, 0.0, 0.0, 0.0, 0.0, 0.0, 1.6665571611113153E9, 0.0, 2022-10-23 13:32:41.111
208.0, -83941.10458387191, -120990.21625402168, 25704.84139976995, 83540.717785444, 39437.01558554359, 52142.75296244061, 36806.84111199869, 72828.21957209344, 0.022, 0.9440000000000001, 0.152, 192.0, 0.0, 0.0, 0.0, 0.0, 0.0, 0.0, 0.0, 0.0, 0.0, 1.666557161111335E9, 0.0, 2022-10-23 13:32:41.111
209.0, -83928.92288314378, -120975.59821314791, 25772.09779883597, 83536.80623016432, 39439.94366406723, 52137.6567647048, 36789.876137957115, 72766.43935041898, 0.02, 0.9440000000000001, 0.152, 192.0, 0.0, 160.0, 29.0, 128.0, 4.0, 192.0, 0.0, 0.0, 0.0, 1.666557161111355E9, 0.0, 2022-10-23 13:32:41.111
210.0, -83917.85876963839, -120964.1541199868, 25585.50543612307, 83544.87520991269, 39451.47716420617, 52161.75194522762, 36639.96298789537, 72701.8651606876, 0.02, 0.9440000000000001, 0.152, 192.0, 0.0, 0.0, 0.0, 0.0, 0.0, 0.0, 0.0, 0.0, 0.0, 1.666557161111376E9, 0.0, 2022-10-23 13:32:41.111
211.0, -83914.57306320347, -120967.41747467728, 25430.27257088096, 83559.0685676418, 39459.501440465625, 52175.297102367535, 36600.78037986522, 72719.63479752956, 0.02, 0.9440000000000001, 0.152, 192.0, 0.0, 0.0, 0.0, 0.0, 0.0, 0.0, 0.0, 0.0, 0.0, 1.6665571611113958E9, 0.0, 2022-10-23 13:32:41.111
212.0, -83926.12891508685, -120977.0063730486, 25648.872631653863, 83557.95098041905, 39452.371233984384, 52167.87632320837, 36766.47386151241, 72826.43143253702, 0.02, 0.9440000000000001, 0.152, 192.0, 0.0, 0.0, 0.0, 0.0, 0.0, 0.0, 0.0, 0.0, 0.0, 1.6665571611125393E9, 0.0, 2022-10-23 13:32:41.112
213.0, -83934.60022623542, -120985.12005628587, 25803.21142711776, 83544.0705471123, 39442.1117832794, 52157.482762036656, 36818.62048132664, 72804.05733633725, 0.02, 0.9440000000000001, 0.152, 192.0, 0.0, 0.0, 0.0, 0.0, 0.0, 0.0, 0.0, 0.0, 0.0, 1.6665571611125555E9, 0.0, 2022-10-23 13:32:41.112
214.0, -83935.00255763561, -120987.24347200913, 25628.577247688445, 83541.12011684419, 39440.81538210099, 52147.13390435385, 36653.97753166885, 72713.77864048227, 0.02, 0.9440000000000001, 0.152, 192.0, 0.0, 0.0, 0.0, 0.0, 0.0, 0.0, 0.0, 0.0, 0.0, 1.6665571611125743E9, 0.0, 2022-10-23 13:32:41.112
215.0, -83934.0637843685, -120983.19780626272, 25460.872109040276, 83545.63516922417, 39443.47523969117, 52153.10182012342, 36604.62487991153, 72722.09348941964, 0.02, 0.9440000000000001, 0.152, 192.0, 0.0, 0.0, 0.0, 0.0, 0.0, 0.0, 0.0, 0.0, 0.0, 1.6665571611125965E9, 0.0, 2022-10-23 13:32:41.112
216.0, -83944.5691042625, -120990.23860576614, 25620.128288284337, 83545.29989305734, 39434.266320975585, 52152.878302678866, 36744.725614157396, 72808.21476080595, 0.02, 0.9440000000000001, 0.152, 192.0, 0.0, 0.0, 0.0, 0.0, 0.0, 0.0, 0.0, 0.0, 0.0, 1.6665571611126149E9, 0.0, 2022-10-23 13:32:41.112
217.0, -83937.70711871471, -120985.50003594162, 25838.035444979127, 83542.28240755587, 39437.17204775477, 52151.29132882254, 36847.76715609636, 72823.05631912427, 0.02, 0.9440000000000001, 0.152, 192.0, 0.0, 0.0, 0.0, 0.0, 0.0, 0.0, 0.0, 0.0, 0.0, 1.6665571611126337E9, 0.0, 2022-10-23 13:32:41.112
218.0, -83923.93844413024, -120973.36303870239, 25682.93669020375, 83548.20561983653, 39447.87853334886, 52148.98909914364, 36679.838500003636, 72723.32283536468, 0.02, 0.9440000000000001, 0.152, 192.0, 0.0, 0.0, 0.0, 0.0, 0.0, 0.0, 0.0, 0.0, 0.0, 1.666557161112652E9, 0.0, 2022-10-23 13:32:41.112
219.0, -83923.78198191905, -120972.37956194635, 25473.634955124257, 83549.41261403712, 39455.67929216377, 52162.33309058346, 36581.80374882266, 72709.42005031348, 0.02, 0.9500000000000001, 0.152, 192.0, 0.0, 160.0, 29.0, 176.0, 4.0, 192.0, 0.0, 0.0, 0.0, 1.666557161112672E9, 0.0, 2022-10-23 13:32:41.112
220.0, -83930.44280176674, -120979.46506493867, 25539.39378731177, 83546.70805295803, 39447.23033275966, 52158.5109422816, 36673.132976667046, 72782.75612387135, 0.02, 0.9500000000000001, 0.152, 192.0, 0.0, 0.0, 0.0, 0.0, 0.0, 0.0, 0.0, 0.0, 0.0, 1.6665571611126924E9, 0.0, 2022-10-23 13:32:41.112
221.0, -83931.40392677831, -120982.08021903996, 25795.67888923632, 83541.58950347776, 39441.06125129, 52151.112514866894, 36816.67587955903, 72820.37410978963, 0.02, 0.9500000000000001, 0.152, 192.0, 0.0, 0.0, 0.0, 0.0, 0.0, 0.0, 0.0, 0.0, 0.0, 1.6665571611127105E9, 0.0, 2022-10-23 13:32:41.112
222.0, -83923.87138889688, -120971.86547182388, 25681.774399492075, 83547.75858494743, 39449.510210694105, 52149.4584857772, 36678.94443022543, 72715.20915212741, 0.02, 0.9500000000000001, 0.152, 192.0, 0.0, 0.0, 0.0, 0.0, 0.0, 0.0, 0.0, 0.0, 0.0, 1.6665571611127248E9, 0.0, 2022-10-23 13:32:41.112
223.0, -83936.54482800304, -120985.05300105251, 25479.111132515805, 83545.29989305734, 39447.38679497085, 52152.52067476758, 36574.070045241126, 72691.13632334904, 0.02, 0.9500000000000001, 0.152, 192.0, 0.0, 0.0, 0.0, 0.0, 0.0, 0.0, 0.0, 0.0, 0.0, 1.6665571611127396E9, 0.0, 2022-10-23 13:32:41.112
224.0, -83938.82470593747, -120988.45046620972, 25470.505710900514, 83552.45245128304, 39448.21380951569, 52162.35544232791, 36628.384784267524, 72754.5705741132, 0.02, 0.9500000000000001, 0.152, 192.0, 0.0, 0.0, 0.0, 0.0, 0.0, 0.0, 0.0, 0.0, 0.0, 1.6665571611127543E9, 0.0, 2022-10-23 13:32:41.112
225.0, -83943.54092401755, -120993.01022207859, 25785.82176993153, 83547.37860529168, 39443.67640539127, 52163.67419525078, 36833.46203964496, 72838.56842977625, 0.02, 0.9500000000000001, 0.152, 192.0, 0.0, 0.0, 0.0, 0.0, 0.0, 0.0, 0.0, 0.0, 0.0, 1.666557161112769E9, 0.0, 2022-10-23 13:32:41.112
226.0, -83928.63231046585, -120972.69248636872, 25733.965722795216, 83547.15508784713, 39446.44802170373, 52155.873436435875, 36728.85587559413, 72732.44234710245, 0.02, 0.9500000000000001, 0.152, 192.0, 0.0, 0.0, 0.0, 0.0, 0.0, 0.0, 0.0, 0.0, 0.0, 1.6665571611127832E9, 0.0, 2022-10-23 13:32:41.112
227.0, -83932.29799655653, -120975.06177128099, 25515.14214457776, 83550.73136695998, 39452.08066130646, 52159.13679112635, 36587.90577505896, 72694.89141641754, 0.02, 0.9500000000000001, 0.152, 192.0, 0.0, 0.0, 0.0, 0.0, 0.0, 0.0, 0.0, 0.0, 0.0, 1.6665571611127975E9, 0.0, 2022-10-23 13:32:41.112
228.0, -83938.35531930391, -120980.91792832827, 25436.03932095043, 83551.11134661573, 39449.577265927466, 52160.52259928258, 36600.24393799829, 72740.98071348437, 0.02, 0.9480000000000001, 0.152, 192.0, 0.0, 160.0, 29.0, 160.0, 4.0, 192.0, 0.0, 0.0, 0.0, 1.666557161112884E9, 0.0, 2022-10-23 13:32:41.112
229.0, -83937.55065650352, -120983.1083992849, 25727.617827369908, 83555.84991644025, 39447.833829859956, 52166.3117010965, 36798.10157991667, 72842.3905780781, 0.02, 0.9480000000000001, 0.152, 192.0, 0.0, 0.0, 0.0, 0.0, 0.0, 0.0, 0.0, 0.0, 0.0, 1.6665571611128993E9, 0.0, 2022-10-23 13:32:41.112
230.0, -83925.72658368667, -120972.75954160209, 25763.53708070959, 83553.03359663888, 39445.15162052532, 52148.65382297681, 36761.489422498875, 72761.63372536108, 0.02, 0.9480000000000001, 0.152, 192.0, 0.0, 0.0, 0.0, 0.0, 0.0, 0.0, 0.0, 0.0, 0.0, 1.6665571611129305E9, 0.0, 2022-10-23 13:32:41.112
231.0, -83935.27077856909, -120980.58265216145, 25570.127435937815, 83539.89077089916, 39431.71822210768, 52127.486720977635, 36616.33719400611, 72693.12562860556, 0.02, 0.9480000000000001, 0.152, 192.0, 0.0, 0.0, 0.0, 0.0, 0.0, 0.0, 0.0, 0.0, 0.0, 1.6665571611130388E9, 0.0, 2022-10-23 13:32:41.113
232.0, -83938.7129472152, -120985.05300105251, 25446.477585611057, 83544.47287851249, 39436.4567919322, 52146.59746248692, 36602.61322291055, 72721.24412313034, 0.02, 0.9480000000000001, 0.152, 192.0, 0.0, 0.0, 0.0, 0.0, 0.0, 0.0, 0.0, 0.0, 0.0, 1.6665571611130543E9, 0.0, 2022-10-23 13:32:41.113
233.0, -83939.98699664915, -120990.23860576614, 25676.409980822802, 83549.27850357039, 39440.971844312175, 52164.92589294027, 36766.0268266233, 72816.86488591014, 0.02, 0.9480000000000001, 0.152, 192.0, 0.0, 0.0, 0.0, 0.0, 0.0, 0.0, 0.0, 0.0, 0.0, 1.6665571611130688E9, 0.0, 2022-10-23 13:32:41.113
234.0, -83931.64979596733, -120979.08508528295, 25761.033685330593, 83550.95488440453, 39446.33626298145, 52160.36613707139, 36770.47482376991, 72771.15556849905, 0.02, 0.9480000000000001, 0.152, 192.0, 0.0, 0.0, 0.0, 0.0, 0.0, 0.0, 0.0, 0.0, 0.0, 1.6665571611130834E9, 0.0, 2022-10-23 13:32:41.113
