%OpenBCI Raw EEG Data
%Number of channels = 8
%Sample Rate = 250 Hz
%Board = OpenBCI_GUI$BoardCytonSerial
Sample Index, EXG Channel 0, EXG Channel 1, EXG Channel 2, EXG Channel 3, EXG Channel 4, EXG Channel 5, EXG Channel 6, EXG Channel 7, Accel Channel 0, Accel Channel 1, Accel Channel 2, Other, Other, Other, Other, Other, Other, Other, Analog Channel 0, Analog Channel 1, Analog Channel 2, Timestamp, Other, Timestamp (Formatted)
204.0, -84408.27839473229, -116694.85917030087, 47011.664153535865, 46947.31348124904, 60897.73009988429, 101550.79234251885, 62982.70082267533, 66891.70800348616, 0.0, 0.0, 0.0, 192.0, 0.0, 0.0, 0.0, 0.0, 0.0, 0.0, 0.0, 0.0, 0.0, 1.6665564907836597E9, 0.0, 2022-10-23 13:21:30.783
205.0, -84436.15102006806, -116721.3012839915, 46294.41902570952, 47106.100273859534, 61004.437327913925, 101396.23002961041, 62628.04569340297, 66713.3410827328, 0.044, 0.9480000000000001, 0.11800000000000001, 192.0, 1.0, 96.0, 29.0, 160.0, 3.0, 176.0, 0.0, 0.0, 0.0, 1.666556490783677E9, 0.0, 2022-10-23 13:21:30.783
206.0, -84473.1878606305, -116750.31384829449, 47455.05570829579, 47261.44489782392, 61123.706236327445, 101940.94204198624, 63452.288621936874, 67608.41668944558, 0.044, 0.9480000000000001, 0.11800000000000001, 192.0, 0.0, 0.0, 0.0, 0.0, 0.0, 0.0, 0.0, 0.0, 0.0, 1.6665564907836883E9, 0.0, 2022-10-23 13:21:30.783
207.0, -84467.51051753886, -116740.38967375633, 49207.45482533632, 47180.86685906254, 61080.43325906197, 102505.01066506037, 64471.505817354424, 68448.0599699092, 0.044, 0.9480000000000001, 0.11800000000000001, 192.0, 0.0, 0.0, 0.0, 0.0, 0.0, 0.0, 0.0, 0.0, 0.0, 1.6665564907836967E9, 0.0, 2022-10-23 13:21:30.783
208.0, -84408.47956043239, -116685.292623674, 47418.443550878, 46944.4301062143, 60896.38899521697, 101690.4460418756, 63236.013142587326, 67104.42955546732, 0.044, 0.9480000000000001, 0.11800000000000001, 192.0, 0.0, 0.0, 0.0, 0.0, 0.0, 0.0, 0.0, 0.0, 0.0, 1.6665564907837062E9, 0.0, 2022-10-23 13:21:30.783
209.0, -84433.96054911143, -116709.79013559701, 46324.97386037992, 47095.46084349881, 60995.36251966507, 101378.95213114645, 62627.218678858124, 66665.17307343162, 0.044, 0.9480000000000001, 0.11800000000000001, 192.0, 0.0, 0.0, 0.0, 0.0, 0.0, 0.0, 0.0, 0.0, 0.0, 1.6665564907837148E9, 0.0, 2022-10-23 13:21:30.783
210.0, -84459.2403720904, -116735.11466206488, 47065.46480243979, 47239.4507812799, 61099.76751801581, 101756.13781882975, 63183.777115795274, 67338.72054084785, 0.044, 0.9480000000000001, 0.11800000000000001, 192.0, 0.0, 0.0, 0.0, 0.0, 0.0, 0.0, 0.0, 0.0, 0.0, 1.666556490783726E9, 0.0, 2022-10-23 13:21:30.783
211.0, -84459.77681395732, -116738.8474033889, 49070.30452135856, 47254.13587738704, 61127.126053229105, 102456.12739993661, 64392.82767687174, 68430.8491266786, 0.044, 0.9480000000000001, 0.11800000000000001, 192.0, 0.0, 0.0, 0.0, 0.0, 0.0, 0.0, 0.0, 0.0, 0.0, 1.666556490783734E9, 0.0, 2022-10-23 13:21:30.783
212.0, -84399.49415916136, -116683.57153935095, 47774.48448830658, 46948.40871672735, 60914.56096345913, 101805.02108395351, 63445.85131953375, 67330.85272679958, 0.044, 0.9480000000000001, 0.11800000000000001, 192.0, 0.0, 0.0, 0.0, 0.0, 0.0, 0.0, 0.0, 0.0, 0.0, 1.6665564907837417E9, 0.0, 2022-10-23 13:21:30.783
213.0, -84407.00434529834, -116693.74158307811, 46291.71446463042, 47059.78745934814, 60971.580263564625, 101319.98822927335, 62570.06526828591, 66605.22569480249, 0.044, 0.9480000000000001, 0.11800000000000001, 192.0, 0.0, 0.0, 0.0, 0.0, 0.0, 0.0, 0.0, 0.0, 0.0, 1.6665564907837496E9, 0.0, 2022-10-23 13:21:30.783
214.0, -84435.54752296777, -116719.82606885745, 46736.514179291036, 47204.403245973976, 61079.22626486138, 101617.1323200622, 62960.19261600883, 67133.97856163724, 0.046, 0.9500000000000001, 0.114, 192.0, 1.0, 112.0, 29.0, 176.0, 3.0, 144.0, 0.0, 0.0, 0.0, 1.6665564907837574E9, 0.0, 2022-10-23 13:21:30.783
215.0, -84466.03530240481, -116750.69382795022, 48855.325443187416, 47294.83840404015, 61151.82473085222, 102423.15857686504, 64290.456687266436, 68384.22338774483, 0.046, 0.9500000000000001, 0.114, 192.0, 0.0, 0.0, 0.0, 0.0, 0.0, 0.0, 0.0, 0.0, 0.0, 1.666556490783766E9, 0.0, 2022-10-23 13:21:30.783
216.0, -84414.8721593466, -116706.37031869535, 48235.60097641957, 46974.51555425114, 60929.849556666566, 102011.03711259809, 63756.697029673705, 67649.99093413245, 0.046, 0.9500000000000001, 0.114, 192.0, 0.0, 0.0, 0.0, 0.0, 0.0, 0.0, 0.0, 0.0, 0.0, 1.666556490783774E9, 0.0, 2022-10-23 13:21:30.783
217.0, -84413.88868259056, -116704.58217913893, 46402.10973049518, 47022.48239785223, 60931.25771656725, 101347.01148831983, 62623.41888230073, 66622.36948279971, 0.046, 0.9500000000000001, 0.114, 192.0, 0.0, 0.0, 0.0, 0.0, 0.0, 0.0, 0.0, 0.0, 0.0, 1.666556490783782E9, 0.0, 2022-10-23 13:21:30.783
218.0, -84427.2773775193, -116715.6462926443, 46527.34655467827, 47169.35571066805, 61050.72779068087, 101515.6106967462, 62807.597256612455, 66965.89344333332, 0.046, 0.9500000000000001, 0.114, 192.0, 0.0, 0.0, 0.0, 0.0, 0.0, 0.0, 0.0, 0.0, 0.0, 1.6665564907837896E9, 0.0, 2022-10-23 13:21:30.783
219.0, -84463.01781690333, -116749.97857212766, 48489.4944416874, 47308.785892580265, 61162.30769900176, 102289.33868281111, 64065.95576595733, 68198.23452213223, 0.046, 0.9500000000000001, 0.114, 192.0, 0.0, 0.0, 0.0, 0.0, 0.0, 0.0, 0.0, 0.0, 0.0, 1.6665564907837975E9, 0.0, 2022-10-23 13:21:30.783
220.0, -84419.76719138231, -116712.6958623762, 48610.86441407972, 47019.88959549542, 60975.38006012202, 102164.75005921723, 64001.26981750367, 67917.96599840713, 0.046, 0.9500000000000001, 0.114, 192.0, 0.0, 0.0, 0.0, 0.0, 0.0, 0.0, 0.0, 0.0, 0.0, 1.666556490783893E9, 0.0, 2022-10-23 13:21:30.783
221.0, -84406.11027552013, -116694.45683890067, 46557.40965097066, 46998.70014175179, 60932.17413808992, 101384.51771551583, 62702.40994720578, 66676.97479450403, 0.046, 0.9500000000000001, 0.114, 192.0, 0.0, 0.0, 0.0, 0.0, 0.0, 0.0, 0.0, 0.0, 0.0, 1.6665564907839017E9, 0.0, 2022-10-23 13:21:30.783
222.0, -84436.08396483469, -116724.58699042643, 46382.90958200808, 47140.924291720905, 61027.10199679161, 101440.46413188746, 62697.31374946997, 66842.02007556202, 0.046, 0.9500000000000001, 0.114, 192.0, 0.0, 0.0, 0.0, 0.0, 0.0, 0.0, 0.0, 0.0, 0.0, 1.66655649078391E9, 0.0, 2022-10-23 13:21:30.783
223.0, -84470.77387222933, -116753.84542391842, 48054.88712249841, 47315.37965719458, 61150.751847118365, 102130.55189020062, 63797.24309411563, 67970.6937635772, 0.046, 0.9500000000000001, 0.114, 192.0, 0.0, 0.0, 0.0, 0.0, 0.0, 0.0, 0.0, 0.0, 0.0, 1.6665564907839181E9, 0.0, 2022-10-23 13:21:30.783
224.0, -84448.91386615204, -116734.19824054222, 48938.20571162769, 47088.04006433965, 61022.184613011435, 102326.62139256256, 64237.93008779646, 68192.35601334048, 0.05, 0.9520000000000001, 0.122, 192.0, 1.0, 144.0, 29.0, 192.0, 3.0, 208.0, 0.0, 0.0, 0.0, 1.6665564907839265E9, 0.0, 2022-10-23 13:21:30.783
225.0, -84411.80997035623, -116703.2410744716, 46791.521822395545, 46965.97718786922, 60899.58529467408, 101448.55546338028, 62834.06172204754, 66781.9609382106, 0.05, 0.9520000000000001, 0.122, 192.0, 0.0, 0.0, 0.0, 0.0, 0.0, 0.0, 0.0, 0.0, 0.0, 1.6665564907839353E9, 0.0, 2022-10-23 13:21:30.783
226.0, -84441.00134861485, -116732.72302540817, 46286.841784339165, 47121.94766067835, 61006.60544712609, 101378.99683463537, 62614.61229498533, 66742.91244064718, 0.05, 0.9520000000000001, 0.122, 192.0, 0.0, 0.0, 0.0, 0.0, 0.0, 0.0, 0.0, 0.0, 0.0, 1.666556490783945E9, 0.0, 2022-10-23 13:21:30.783
227.0, -84468.20342161697, -116761.80264494452, 47625.93479465661, 47289.272819670776, 61131.64110560907, 101971.63098712338, 63530.586782763814, 67725.65158911367, 0.05, 0.9520000000000001, 0.122, 192.0, 0.0, 0.0, 0.0, 0.0, 0.0, 0.0, 0.0, 0.0, 0.0, 1.6665564907839532E9, 0.0, 2022-10-23 13:21:30.783
228.0, -84450.34437779718, -116746.69286569273, 49114.4939201467, 47156.50345760625, 61070.50908452381, 102430.42289381301, 64377.002641797386, 68377.45080917487, 0.05, 0.9520000000000001, 0.122, 192.0, 0.0, 0.0, 0.0, 0.0, 0.0, 0.0, 0.0, 0.0, 0.0, 1.666556490783962E9, 0.0, 2022-10-23 13:21:30.783
229.0, -84396.18610098197, -116687.01370799706, 47130.73189624929, 46956.6341586869, 60901.932227841884, 101576.56390387582, 63043.832843760596, 66972.84483585892, 0.05, 0.9520000000000001, 0.122, 192.0, 0.0, 0.0, 0.0, 0.0, 0.0, 0.0, 0.0, 0.0, 0.0, 1.6665564907839696E9, 0.0, 2022-10-23 13:21:30.783
230.0, -84423.0752495617, -116708.0914030184, 46277.3199412012, 47112.00113439574, 61003.00681626878, 101371.39724152056, 62597.64732094375, 66703.3945564502, 0.05, 0.9520000000000001, 0.122, 192.0, 0.0, 0.0, 0.0, 0.0, 0.0, 0.0, 0.0, 0.0, 0.0, 1.666556490783978E9, 0.0, 2022-10-23 13:21:30.783
231.0, -84457.11695636714, -116739.6073627004, 47269.58093280565, 47265.647025781516, 61115.57020134571, 101850.59629089788, 63314.0430824808, 67511.0301388538, 0.05, 0.9520000000000001, 0.122, 192.0, 0.0, 0.0, 0.0, 0.0, 0.0, 0.0, 0.0, 0.0, 0.0, 1.6665564907839859E9, 0.0, 2022-10-23 13:21:30.783
232.0, -84468.38223557262, -116751.4090837728, 49137.65032740239, 47209.1418157985, 61088.50223881033, 102470.186647199, 64418.28631380634, 68455.12312115707, 0.05, 0.9520000000000001, 0.122, 192.0, 0.0, 0.0, 0.0, 0.0, 0.0, 0.0, 0.0, 0.0, 0.0, 1.6665564907839935E9, 0.0, 2022-10-23 13:21:30.783
233.0, -84410.73708662238, -116697.9437110357, 47513.818444468794, 46941.4796759462, 60886.509524167726, 101711.70255085261, 63280.403707075566, 67188.33800415254, 0.05, 0.9520000000000001, 0.122, 192.0, 0.0, 0.0, 0.0, 0.0, 0.0, 0.0, 0.0, 0.0, 0.0, 1.6665564907840016E9, 0.0, 2022-10-23 13:21:30.784
234.0, -84414.91686283551, -116703.15166749379, 46266.859324796125, 47097.18192782187, 60984.7454410488, 101338.00373530433, 62568.031259540476, 66643.96126794354, 0.052000000000000005, 0.96, 0.124, 192.0, 1.0, 160.0, 30.0, 0.0, 3.0, 224.0, 0.0, 0.0, 0.0, 1.6665564907840095E9, 0.0, 2022-10-23 13:21:30.784
235.0, -84455.15000285507, -116743.74243542463, 46888.77426252059, 47225.168016572956, 61087.78698298777, 101680.99125397102, 63054.96401249934, 67256.35436253004, 0.052000000000000005, 0.96, 0.124, 192.0, 0.0, 0.0, 0.0, 0.0, 0.0, 0.0, 0.0, 0.0, 0.0, 1.6665564907840464E9, 0.0, 2022-10-23 13:21:30.784
236.0, -84485.77189275884, -116776.08540965145, 48972.02390098857, 47256.974548932856, 61124.466195638925, 102433.73095199239, 64335.00371396586, 68427.54106849922, 0.052000000000000005, 0.96, 0.124, 192.0, 0.0, 0.0, 0.0, 0.0, 0.0, 0.0, 0.0, 0.0, 0.0, 1.6665564907840545E9, 0.0, 2022-10-23 13:21:30.784
237.0, -84428.59613044217, -116718.77553686805, 47948.55987412451, 46952.38732724039, 60916.61732394902, 101886.44848900421, 63562.23685291253, 67474.59679539166, 0.052000000000000005, 0.96, 0.124, 192.0, 0.0, 0.0, 0.0, 0.0, 0.0, 0.0, 0.0, 0.0, 0.0, 1.6665564907840624E9, 0.0, 2022-10-23 13:21:30.784
238.0, -84424.10342980665, -116707.71142336268, 46336.70852621896, 47057.596988391524, 60970.88735948651, 101343.50226444034, 62596.820306398906, 66640.89907895317, 0.052000000000000005, 0.96, 0.124, 192.0, 0.0, 0.0, 0.0, 0.0, 0.0, 0.0, 0.0, 0.0, 0.0, 1.6665564907840705E9, 0.0, 2022-10-23 13:21:30.784
239.0, -84453.5853807432, -116731.02429282956, 46648.627120092766, 47200.02230406074, 61082.71313699641, 101581.74950858945, 62899.77585074614, 67088.00102329267, 0.052000000000000005, 0.96, 0.124, 192.0, 0.0, 0.0, 0.0, 0.0, 0.0, 0.0, 0.0, 0.0, 0.0, 1.6665564907840784E9, 0.0, 2022-10-23 13:21:30.784
240.0, -84481.68152352351, -116761.69088622223, 48743.812590099886, 47310.97636353688, 61172.67890842902, 102393.2742945283, 64229.81640455919, 68356.68603857589, 0.052000000000000005, 0.96, 0.124, 192.0, 0.0, 0.0, 0.0, 0.0, 0.0, 0.0, 0.0, 0.0, 0.0, 1.666556490784086E9, 0.0, 2022-10-23 13:21:30.784
241.0, -84427.72441240841, -116715.1545542663, 48400.825071433195, 47003.72928425423, 60966.66287978445, 102084.55200011158, 63868.9251385838, 67789.84579918931, 0.052000000000000005, 0.96, 0.124, 192.0, 0.0, 0.0, 0.0, 0.0, 0.0, 0.0, 0.0, 0.0, 0.0, 1.666556490784094E9, 0.0, 2022-10-23 13:21:30.784
242.0, -84421.66708966102, -116707.6443681293, 46452.714079942, 47026.349249643004, 60952.20130112187, 101359.61787219261, 62650.33038262492, 66664.32370714232, 0.052000000000000005, 0.96, 0.124, 192.0, 0.0, 0.0, 0.0, 0.0, 0.0, 0.0, 0.0, 0.0, 0.0, 1.6665564907841017E9, 0.0, 2022-10-23 13:21:30.784
243.0, -84454.21122958795, -116740.63554294534, 46476.228115108985, 47167.79108855619, 61060.987241385854, 101497.23756280394, 62776.349517863935, 66950.69425710372, 0.052000000000000005, 0.96, 0.124, 192.0, 0.0, 0.0, 0.0, 0.0, 0.0, 0.0, 0.0, 0.0, 0.0, 1.6665564907841096E9, 0.0, 2022-10-23 13:21:30.784
244.0, -84482.82146249074, -116771.12332238238, 48348.119658007585, 47316.74311360635, 61163.894672858085, 102247.80914161315, 63989.37868945345, 68153.19575705478, 0.042, 0.9560000000000001, 0.11800000000000001, 192.0, 1.0, 80.0, 29.0, 224.0, 3.0, 176.0, 0.0, 0.0, 0.0, 1.6665564907841172E9, 0.0, 2022-10-23 13:21:30.784
245.0, -84437.51447647983, -116729.45967071768, 48755.41314547219, 47056.09942151301, 60999.83286855613, 102235.31451646263, 64110.011054278744, 68057.44088380825, 0.042, 0.9560000000000001, 0.11800000000000001, 192.0, 0.0, 0.0, 0.0, 0.0, 0.0, 0.0, 0.0, 0.0, 0.0, 1.6665564907841258E9, 0.0, 2022-10-23 13:21:30.784
246.0, -84409.10540927714, -116696.02146101254, 46626.70005878211, 46996.152042883885, 60931.928268900905, 101398.95694243396, 62745.95114540472, 66729.76961490746, 0.042, 0.9560000000000001, 0.11800000000000001, 192.0, 0.0, 0.0, 0.0, 0.0, 0.0, 0.0, 0.0, 0.0, 0.0, 1.6665564907841337E9, 0.0, 2022-10-23 13:21:30.784
247.0, -84444.28705504979, -116726.48688870513, 46330.204168582466, 47140.298442876156, 61047.12915982356, 101413.50792807435, 62667.67533632223, 66828.34080795536, 0.042, 0.9560000000000001, 0.11800000000000001, 192.0, 0.0, 0.0, 0.0, 0.0, 0.0, 0.0, 0.0, 0.0, 0.0, 1.6665564907841427E9, 0.0, 2022-10-23 13:21:30.784
248.0, -84477.76996824384, -116754.22540357416, 47914.898146974825, 47308.428264668975, 61169.25909152736, 102094.25265720519, 63733.47356718464, 67924.85033569936, 0.042, 0.9560000000000001, 0.11800000000000001, 192.0, 0.0, 0.0, 0.0, 0.0, 0.0, 0.0, 0.0, 0.0, 0.0, 1.6665564907841508E9, 0.0, 2022-10-23 13:21:30.784
249.0, -84452.04311037579, -116730.48785096263, 49003.62926764837, 47122.7746752232, 61055.62282271658, 102364.68641336996, 64299.15151585955, 68280.91362487241, 0.042, 0.9560000000000001, 0.11800000000000001, 192.0, 0.0, 0.0, 0.0, 0.0, 0.0, 0.0, 0.0, 0.0, 0.0, 1.6665564907841587E9, 0.0, 2022-10-23 13:21:30.784
250.0, -84406.35614470913, -116683.12450446183, 46886.09205318595, 46973.710891450755, 60937.806777692655, 101489.43680398904, 62901.58634204702, 66858.47095948111, 0.042, 0.9560000000000001, 0.11800000000000001, 192.0, 0.0, 0.0, 0.0, 0.0, 0.0, 0.0, 0.0, 0.0, 0.0, 1.6665564907841663E9, 0.0, 2022-10-23 13:21:30.784
251.0, -84437.08979333518, -116712.31588272046, 46272.89429579906, 47133.14588465046, 61055.3098982942, 101392.16201211954, 62624.42471080121, 66755.98821115354, 0.042, 0.9560000000000001, 0.11800000000000001, 192.0, 0.0, 0.0, 0.0, 0.0, 0.0, 0.0, 0.0, 0.0, 0.0, 1.6665564907841992E9, 0.0, 2022-10-23 13:21:30.784
252.0, -84474.46191006445, -116751.74435993962, 47505.4141885536, 47289.25046792632, 61161.503036201364, 101955.51537937109, 63489.59368343279, 67682.35626010374, 0.042, 0.9560000000000001, 0.11800000000000001, 192.0, 0.0, 0.0, 0.0, 0.0, 0.0, 0.0, 0.0, 0.0, 0.0, 1.666556490784207E9, 0.0, 2022-10-23 13:21:30.784
253.0, -84457.09460462267, -116735.4052347428, 49143.73000189424, 47188.95819055536, 61104.05905295123, 102469.71726056543, 64432.27850583536, 68441.26503959479, 0.046, 0.9500000000000001, 0.11800000000000001, 192.0, 1.0, 112.0, 29.0, 176.0, 3.0, 176.0, 0.0, 0.0, 0.0, 1.6665564907842152E9, 0.0, 2022-10-23 13:21:30.784
254.0, -84397.3707434381, -116680.28583291601, 47248.659699995485, 46962.66912968983, 60926.00505662025, 101627.25766030046, 63139.76653096277, 67059.1225694564, 0.046, 0.9500000000000001, 0.11800000000000001, 192.0, 0.0, 0.0, 0.0, 0.0, 0.0, 0.0, 0.0, 0.0, 0.0, 1.6665564907842236E9, 0.0, 2022-10-23 13:21:30.784
255.0, -84431.43480198798, -116711.62297864235, 46250.207275176916, 47109.49773901674, 61024.7550636238, 101360.8248663932, 62598.653149444246, 66688.75416383197, 0.046, 0.9500000000000001, 0.11800000000000001, 192.0, 0.0, 0.0, 0.0, 0.0, 0.0, 0.0, 0.0, 0.0, 0.0, 1.666556490784232E9, 0.0, 2022-10-23 13:21:30.784
0.0, -84472.00321817437, -116754.20305182971, 47100.78055867917, 47251.654833752495, 61125.024989250305, 101788.65960701223, 63226.69246514946, 67417.8680679641, 0.046, 0.9500000000000001, 0.11800000000000001, 192.0, 0.0, 0.0, 0.0, 0.0, 0.0, 0.0, 0.0, 0.0, 0.0, 1.6665564907842395E9, 0.0, 2022-10-23 13:21:30.784
1.0, -84484.16256715806, -116766.54121476904, 49107.408417154365, 47243.22822609285, 61134.949163788464, 102496.87463007863, 64438.80521521631, 68482.45930462591, 0.046, 0.9500000000000001, 0.11800000000000001, 192.0, 0.0, 0.0, 0.0, 0.0, 0.0, 0.0, 0.0, 0.0, 0.0, 1.6665564907842474E9, 0.0, 2022-10-23 13:21:30.784
2.0, -84411.34058372266, -116696.53555113502, 47677.18734469263, 46957.908208120854, 60923.16638507443, 101794.18048789269, 63410.781432483374, 67303.71770903084, 0.046, 0.9500000000000001, 0.11800000000000001, 192.0, 0.0, 0.0, 0.0, 0.0, 0.0, 0.0, 0.0, 0.0, 0.0, 1.6665564907842555E9, 0.0, 2022-10-23 13:21:30.784
3.0, -84423.25406351735, -116706.32561520644, 46274.99535977785, 47086.386035249954, 61001.86687730156, 101339.68011613848, 62590.49476271806, 66635.89228819517, 0.046, 0.9500000000000001, 0.11800000000000001, 192.0, 0.0, 0.0, 0.0, 0.0, 0.0, 0.0, 0.0, 0.0, 0.0, 1.6665564907842631E9, 0.0, 2022-10-23 13:21:30.784
4.0, -84456.87108717812, -116738.3556650109, 46811.28076449403, 47224.34100202811, 61113.87146876711, 101669.23423638752, 63042.71525653783, 67210.4662311633, 0.046, 0.9500000000000001, 0.11800000000000001, 192.0, 0.0, 0.0, 0.0, 0.0, 0.0, 0.0, 0.0, 0.0, 0.0, 1.666556490784271E9, 0.0, 2022-10-23 13:21:30.784
5.0, -84474.685427509, -116761.91440366679, 48936.10464764889, 47293.542002861745, 61172.90242587357, 102463.19055118448, 64370.45358067198, 68438.22520234885, 0.046, 0.9500000000000001, 0.11800000000000001, 192.0, 0.0, 0.0, 0.0, 0.0, 0.0, 0.0, 0.0, 0.0, 0.0, 1.6665564907842789E9, 0.0, 2022-10-23 13:21:30.784
6.0, -84416.3250227362, -116710.12541176385, 48144.67407997538, 46975.40962402936, 60947.55213827517, 101987.94776057576, 63733.63002939583, 67601.53235215334, 0.046, 0.9500000000000001, 0.11800000000000001, 192.0, 0.0, 0.0, 0.0, 0.0, 0.0, 0.0, 0.0, 0.0, 0.0, 1.6665564907842867E9, 0.0, 2022-10-23 13:21:30.784
7.0, -84416.88381634759, -116706.10209776189, 46372.71718653646, 47047.89633129792, 60964.80768499467, 101352.66647966701, 62644.02719068852, 66630.95255267055, 0.054, 0.9520000000000001, 0.122, 192.0, 1.0, 176.0, 29.0, 192.0, 3.0, 208.0, 0.0, 0.0, 0.0, 1.6665564907842944E9, 0.0, 2022-10-23 13:21:30.784
8.0, -84452.1325173536, -116738.6015341999, 46576.5427442244, 47192.75798711276, 61079.85211370613, 101556.42498212159, 62881.08979238151, 67020.72227248219, 0.054, 0.9520000000000001, 0.122, 192.0, 0.0, 0.0, 0.0, 0.0, 0.0, 0.0, 0.0, 0.0, 0.0, 1.6665564907843027E9, 0.0, 2022-10-23 13:21:30.784
9.0, -84480.5862880452, -116771.8609299494, 48592.580687115274, 47317.61483164011, 61170.600196194675, 102345.93329977195, 64167.678554973434, 68263.63572640845, 0.054, 0.9520000000000001, 0.122, 192.0, 0.0, 0.0, 0.0, 0.0, 0.0, 0.0, 0.0, 0.0, 0.0, 1.6665564907843106E9, 0.0, 2022-10-23 13:21:30.784
10.0, -84428.90905486453, -116726.71040614968, 48529.63817472913, 47014.56988031505, 60968.20515015187, 102148.27682355366, 63984.461305673285, 67864.41121869221, 0.054, 0.9520000000000001, 0.122, 192.0, 0.0, 0.0, 0.0, 0.0, 0.0, 0.0, 0.0, 0.0, 0.0, 1.6665564907843263E9, 0.0, 2022-10-23 13:21:30.784
11.0, -84407.20551099844, -116702.10113550439, 46504.5254235894, 47013.4969965812, 60941.31600157214, 101387.1328696171, 62708.84724960891, 66664.12254144222, 0.054, 0.9520000000000001, 0.122, 192.0, 0.0, 0.0, 0.0, 0.0, 0.0, 0.0, 0.0, 0.0, 0.0, 1.666556490784334E9, 0.0, 2022-10-23 13:21:30.784
12.0, -84440.21903755893, -116730.01846432907, 46413.5538236563, 47159.18566694089, 61059.40026752953, 101486.06169057629, 62763.16198863531, 66885.3377563164, 0.054, 0.9520000000000001, 0.122, 192.0, 0.0, 0.0, 0.0, 0.0, 0.0, 0.0, 0.0, 0.0, 0.0, 1.6665564907843428E9, 0.0, 2022-10-23 13:21:30.784
13.0, -84472.38319783012, -116760.72976121066, 48176.01122570172, 47311.669267615, 61164.185245536006, 102202.5245073467, 63915.93085717331, 68043.78396794606, 0.054, 0.9520000000000001, 0.122, 192.0, 0.0, 0.0, 0.0, 0.0, 0.0, 0.0, 0.0, 0.0, 0.0, 1.6665564907843506E9, 0.0, 2022-10-23 13:21:30.784
14.0, -84438.83322940269, -116730.55490619599, 48856.17480947672, 47082.29566601464, 61020.9552670664, 102302.23563936182, 64214.9077910075, 68125.01020729664, 0.054, 0.9520000000000001, 0.122, 192.0, 0.0, 0.0, 0.0, 0.0, 0.0, 0.0, 0.0, 0.0, 0.0, 1.6665564907843585E9, 0.0, 2022-10-23 13:21:30.784
15.0, -84412.1228947786, -116705.61035938388, 46729.24986234306, 46989.02183640264, 60936.64448698098, 101457.38440244013, 62841.32603899551, 66762.1572926232, 0.054, 0.9520000000000001, 0.122, 192.0, 0.0, 0.0, 0.0, 0.0, 0.0, 0.0, 0.0, 0.0, 0.0, 1.6665564907843664E9, 0.0, 2022-10-23 13:21:30.784
16.0, -84445.24818006136, -116735.31582776498, 46321.97872662291, 47136.386887596476, 61041.92120336548, 101431.12110270515, 62690.87644706684, 66787.6159295578, 0.054, 0.9520000000000001, 0.122, 192.0, 0.0, 0.0, 0.0, 0.0, 0.0, 0.0, 0.0, 0.0, 0.0, 1.666556490784374E9, 0.0, 2022-10-23 13:21:30.784
17.0, -84481.14508165659, -116767.61409850289, 47767.60015101435, 47301.90155528803, 61160.02782106731, 102059.67450853283, 63671.62629027681, 67813.1586686562, 0.048, 0.9480000000000001, 0.124, 192.0, 1.0, 128.0, 29.0, 160.0, 3.0, 224.0, 0.0, 0.0, 0.0, 1.666556490784382E9, 0.0, 2022-10-23 13:21:30.784
18.0, -84456.04407263327, -116747.31871453747, 49094.01972222564, 47150.66965230342, 61079.40507881702, 102437.68721076098, 64399.22027578596, 68338.42466335591, 0.048, 0.9480000000000001, 0.124, 192.0, 0.0, 0.0, 0.0, 0.0, 0.0, 0.0, 0.0, 0.0, 0.0, 1.6665564907843904E9, 0.0, 2022-10-23 13:21:30.784
19.0, -84408.9712988104, -116701.02825177053, 47035.53581661413, 46967.00536811416, 60929.44722526637, 101558.68250831158, 63022.82220397261, 66909.96937870614, 0.048, 0.9480000000000001, 0.124, 192.0, 0.0, 0.0, 0.0, 0.0, 0.0, 0.0, 0.0, 0.0, 0.0, 1.6665564907843983E9, 0.0, 2022-10-23 13:21:30.784
20.0, -84429.44549673147, -116719.04375780151, 46261.96429276041, 47122.70761998983, 61035.193328284426, 101380.2261805804, 62626.65988524674, 66693.87271331224, 0.048, 0.9480000000000001, 0.124, 192.0, 0.0, 0.0, 0.0, 0.0, 0.0, 0.0, 0.0, 0.0, 0.0, 1.6665564907844062E9, 0.0, 2022-10-23 13:21:30.784
21.0, -84465.3871018156, -116753.82307217397, 47357.8256199152, 47286.478851613865, 61157.97146057743, 101901.78178570054, 63408.41214757111, 67559.35461036618, 0.048, 0.9480000000000001, 0.124, 192.0, 0.0, 0.0, 0.0, 0.0, 0.0, 0.0, 0.0, 0.0, 0.0, 1.666556490784414E9, 0.0, 2022-10-23 13:21:30.784
22.0, -84458.61452324565, -116750.13503433885, 49168.62984521745, 47223.75985667227, 61135.39619867757, 102504.87655459363, 64472.779866788376, 68457.89473746953, 0.048, 0.9480000000000001, 0.124, 192.0, 0.0, 0.0, 0.0, 0.0, 0.0, 0.0, 0.0, 0.0, 0.0, 1.6665564907844217E9, 0.0, 2022-10-23 13:21:30.784
23.0, -84402.33283070718, -116697.31786219095, 47437.53194064283, 46963.429089001314, 60943.84174869559, 101711.34492294132, 63272.066506393734, 67141.93578266332, 0.048, 0.9480000000000001, 0.124, 192.0, 0.0, 0.0, 0.0, 0.0, 0.0, 0.0, 0.0, 0.0, 0.0, 1.6665564907844296E9, 0.0, 2022-10-23 13:21:30.784
24.0, -84428.23850253088, -116719.78136536854, 46296.2295170104, 47100.13235808997, 61025.26915374627, 101373.8782851551, 62630.2808678485, 66663.54139608638, 0.048, 0.9480000000000001, 0.124, 192.0, 0.0, 0.0, 0.0, 0.0, 0.0, 0.0, 0.0, 0.0, 0.0, 1.6665564907844372E9, 0.0, 2022-10-23 13:21:30.784
25.0, -84451.84194467569, -116740.0991010784, 46986.02670264563, 47251.20779886339, 61128.08717824068, 101732.24380400704, 63154.004592180805, 67307.62926431051, 0.048, 0.9480000000000001, 0.124, 192.0, 0.0, 0.0, 0.0, 0.0, 0.0, 0.0, 0.0, 0.0, 0.0, 1.6665564907844453E9, 0.0, 2022-10-23 13:21:30.784
26.0, -84473.76900598634, -116768.68698223674, 49063.37548057741, 47281.06972945568, 61176.7916294088, 102490.45967941996, 64428.70222672251, 68465.31551662869, 0.042, 0.9540000000000001, 0.12, 192.0, 1.0, 80.0, 29.0, 208.0, 3.0, 192.0, 0.0, 0.0, 0.0, 1.6665564907844608E9, 0.0, 2022-10-23 13:21:30.784
27.0, -84400.07530451719, -116698.94953953619, 47863.13150681633, 46975.655493218364, 60954.61528952304, 101876.0996313214, 63544.646030026204, 67414.20238187342, 0.042, 0.9540000000000001, 0.12, 192.0, 0.0, 0.0, 0.0, 0.0, 0.0, 0.0, 0.0, 0.0, 0.0, 1.6665564907844691E9, 0.0, 2022-10-23 13:21:30.784
28.0, -84412.70404013444, -116704.2469029721, 46296.38597922158, 47086.65425618342, 61006.20311572589, 101338.89780508254, 62598.854315144345, 66618.88261066469, 0.042, 0.9540000000000001, 0.12, 192.0, 0.0, 0.0, 0.0, 0.0, 0.0, 0.0, 0.0, 0.0, 0.0, 1.6665564907844775E9, 0.0, 2022-10-23 13:21:30.784
29.0, -84458.99450290138, -116744.79296741403, 46713.6259929688, 47216.070856579645, 61110.18343093198, 101626.09536958879, 62973.626014426474, 67125.03786385512, 0.042, 0.9540000000000001, 0.12, 192.0, 0.0, 0.0, 0.0, 0.0, 0.0, 0.0, 0.0, 0.0, 0.0, 1.666556490784485E9, 0.0, 2022-10-23 13:21:30.784
30.0, -84481.88268922361, -116765.66949673528, 48824.39062886127, 47309.07646525818, 61179.138562576605, 102428.8806234456, 64301.52080077181, 68373.40514342846, 0.042, 0.9540000000000001, 0.12, 192.0, 0.0, 0.0, 0.0, 0.0, 0.0, 0.0, 0.0, 0.0, 0.0, 1.6665564907844932E9, 0.0, 2022-10-23 13:21:30.784
31.0, -84424.14813329556, -116713.45582168769, 48292.86614571406, 47002.47758656473, 60965.63469953951, 102048.09630490498, 63820.28774264905, 67690.04526019636, 0.042, 0.9540000000000001, 0.12, 192.0, 0.0, 0.0, 0.0, 0.0, 0.0, 0.0, 0.0, 0.0, 0.0, 1.666556490784501E9, 0.0, 2022-10-23 13:21:30.784
32.0, -84414.80510411324, -116706.05739427298, 46401.282715950336, 47055.36181394599, 60966.86404548455, 101350.05132556574, 62639.80271098646, 66620.6707502211, 0.042, 0.9540000000000001, 0.12, 192.0, 0.0, 0.0, 0.0, 0.0, 0.0, 0.0, 0.0, 0.0, 0.0, 1.6665564907845092E9, 0.0, 2022-10-23 13:21:30.784
33.0, -84451.2384475754, -116742.3566272684, 46495.316504873816, 47189.5393359112, 61074.75591597032, 101513.15200485612, 62810.97237002521, 66950.24722221462, 0.042, 0.9540000000000001, 0.12, 192.0, 0.0, 0.0, 0.0, 0.0, 0.0, 0.0, 0.0, 0.0, 0.0, 1.6665564907845168E9, 0.0, 2022-10-23 13:21:30.784
34.0, -84490.59986956119, -116781.67334576529, 48454.938644759495, 47320.520558419295, 61178.80328640978, 102296.06655789216, 64075.87994049549, 68188.6903272498, 0.042, 0.9540000000000001, 0.12, 192.0, 0.0, 0.0, 0.0, 0.0, 0.0, 0.0, 0.0, 0.0, 0.0, 1.6665564907845256E9, 0.0, 2022-10-23 13:21:30.784
35.0, -84441.00134861485, -116737.64040918833, 48706.887508259715, 47044.78943881863, 61006.82896457064, 102233.45932167284, 64100.17628671841, 67985.93765329572, 0.042, 0.9540000000000001, 0.12, 192.0, 0.0, 0.0, 0.0, 0.0, 0.0, 0.0, 0.0, 0.0, 0.0, 1.6665564907845333E9, 0.0, 2022-10-23 13:21:30.784
36.0, -84411.49704593385, -116702.90579830478, 46604.862404449275, 47015.82157800455, 60950.882548199006, 101418.04533219879, 62757.685811243755, 66692.6433673672, 0.044, 0.9560000000000001, 0.124, 192.0, 1.0, 96.0, 29.0, 224.0, 3.0, 224.0, 0.0, 0.0, 0.0, 1.6665564907845411E9, 0.0, 2022-10-23 13:21:30.784
37.0, -84442.0295288598, -116729.48202246214, 46400.74627408341, 47176.798841571675, 61078.51100903881, 101475.93635033803, 62741.41374128029, 66855.4758257241, 0.044, 0.9560000000000001, 0.124, 192.0, 0.0, 0.0, 0.0, 0.0, 0.0, 0.0, 0.0, 0.0, 0.0, 1.6665564907845497E9, 0.0, 2022-10-23 13:21:30.784
38.0, -84482.66500027955, -116770.98921191564, 48086.82776532505, 47329.90829109053, 61195.410632540064, 102189.98517870727, 63866.511150182625, 67996.04064178951, 0.044, 0.9560000000000001, 0.124, 192.0, 0.0, 0.0, 0.0, 0.0, 0.0, 0.0, 0.0, 0.0, 0.0, 1.6665564907845583E9, 0.0, 2022-10-23 13:21:30.784
39.0, -84453.76419469884, -116746.82697615946, 49023.7681894026, 47107.26256457121, 61052.51593023729, 102392.31316951671, 64329.661647041044, 68240.18874647484, 0.044, 0.9560000000000001, 0.124, 192.0, 0.0, 0.0, 0.0, 0.0, 0.0, 0.0, 0.0, 0.0, 0.0, 1.6665564907845664E9, 0.0, 2022-10-23 13:21:30.784
40.0, -84417.8225896147, -116710.61715014186, 46910.7236755757, 46978.740033953196, 60941.159539360946, 101533.82736847727, 62950.89429031543, 66842.04242730647, 0.044, 0.9560000000000001, 0.124, 192.0, 0.0, 0.0, 0.0, 0.0, 0.0, 0.0, 0.0, 0.0, 0.0, 1.6665564907845743E9, 0.0, 2022-10-23 13:21:30.784
41.0, -84443.03535736029, -116731.31486550748, 46382.46254711897, 47135.693983518366, 61043.731694666356, 101453.96458553846, 62718.324389257956, 66782.18445565515, 0.044, 0.9560000000000001, 0.124, 192.0, 0.0, 0.0, 0.0, 0.0, 0.0, 0.0, 0.0, 0.0, 0.0, 1.6665564907845893E9, 0.0, 2022-10-23 13:21:30.784
42.0, -84481.8379857347, -116770.13984562634, 47686.19509770812, 47302.57210762169, 61159.04434431128, 102032.7853599531, 63612.08124304787, 67735.15108050717, 0.044, 0.9560000000000001, 0.124, 192.0, 0.0, 0.0, 0.0, 0.0, 0.0, 0.0, 0.0, 0.0, 0.0, 1.6665564907845972E9, 0.0, 2022-10-23 13:21:30.784
43.0, -84473.1878606305, -116764.28368857906, 49210.584069560064, 47174.87659154852, 61089.016328932805, 102498.08162427922, 64472.13166619917, 68401.85891412008, 0.044, 0.9560000000000001, 0.124, 192.0, 0.0, 0.0, 0.0, 0.0, 0.0, 0.0, 0.0, 0.0, 0.0, 1.6665564907846053E9, 0.0, 2022-10-23 13:21:30.784
44.0, -84422.65056641705, -116711.77944085354, 47252.414793063974, 46964.6360832019, 60920.327713528604, 101646.36840180974, 63145.60033626561, 66998.32582453797, 0.044, 0.9560000000000001, 0.124, 192.0, 0.0, 0.0, 0.0, 0.0, 0.0, 0.0, 0.0, 0.0, 0.0, 1.666556490784613E9, 0.0, 2022-10-23 13:21:30.784
45.0, -84443.70590969395, -116731.69484516322, 46360.28961661931, 47123.6240415125, 61033.092264305626, 101426.20371892497, 62671.9445195132, 66701.20408549358, 0.044, 0.9560000000000001, 0.124, 192.0, 0.0, 0.0, 0.0, 0.0, 0.0, 0.0, 0.0, 0.0, 0.0, 1.6665564907846208E9, 0.0, 2022-10-23 13:21:30.784
46.0, -84483.80493924677, -116768.55287177002, 47297.85588954161, 47264.84236298113, 61137.00552427835, 101882.78280291353, 63351.01286780988, 67477.4801704264, 0.048, 0.9500000000000001, 0.124, 192.0, 1.0, 128.0, 29.0, 176.0, 3.0, 224.0, 0.0, 0.0, 0.0, 1.6665564907846286E9, 0.0, 2022-10-23 13:21:30.784
47.0, -84479.62516303363, -116763.34491531193, 49210.33820037106, 47240.72483071385, 61138.41368417903, 102535.94547938652, 64489.43191640758, 68469.47294109738, 0.048, 0.9500000000000001, 0.124, 192.0, 0.0, 0.0, 0.0, 0.0, 0.0, 0.0, 0.0, 0.0, 0.0, 1.6665564907846367E9, 0.0, 2022-10-23 13:21:30.784
48.0, -84417.68847914797, -116703.30812970498, 47640.95516693058, 46972.4368420168, 60939.14788235997, 101792.68292101419, 63381.03126061336, 67228.8170133611, 0.048, 0.9500000000000001, 0.124, 192.0, 0.0, 0.0, 0.0, 0.0, 0.0, 0.0, 0.0, 0.0, 0.0, 1.6665564907846446E9, 0.0, 2022-10-23 13:21:30.784
49.0, -84441.98482537089, -116723.58116192593, 46355.573398539236, 47098.74654993374, 61015.27792397475, 101397.66054125555, 62641.836719731895, 66649.16922440163, 0.048, 0.9500000000000001, 0.124, 192.0, 0.0, 0.0, 0.0, 0.0, 0.0, 0.0, 0.0, 0.0, 0.0, 1.6665564907846525E9, 0.0, 2022-10-23 13:21:30.784
50.0, -84473.05375016377, -116753.59955472942, 46965.99953961367, 47235.650984722495, 61120.7781578038, 101751.51100772752, 63132.97160064836, 67259.64006896497, 0.048, 0.9500000000000001, 0.124, 192.0, 0.0, 0.0, 0.0, 0.0, 0.0, 0.0, 0.0, 0.0, 0.0, 1.66655649078466E9, 0.0, 2022-10-23 13:21:30.784
51.0, -84478.99931418888, -116758.33812455393, 49045.248215824155, 47296.22421219638, 61174.444696240986, 102509.65982790707, 64410.64201720262, 68437.398187804, 0.048, 0.9500000000000001, 0.124, 192.0, 0.0, 0.0, 0.0, 0.0, 0.0, 0.0, 0.0, 0.0, 0.0, 1.666556490784668E9, 0.0, 2022-10-23 13:21:30.784
52.0, -84415.5203599358, -116698.63661511382, 48081.93273328933, 46993.93922018281, 60971.53556007571, 101981.19753375025, 63669.68168850919, 67512.97474062142, 0.048, 0.9500000000000001, 0.124, 192.0, 0.0, 0.0, 0.0, 0.0, 0.0, 0.0, 0.0, 0.0, 0.0, 1.6665564907846756E9, 0.0, 2022-10-23 13:21:30.784
53.0, -84435.88279913459, -116718.88729559032, 46413.7549893564, 47067.0070728072, 60990.62394984054, 101395.29125634328, 62657.95232748418, 66625.476375279, 0.048, 0.9500000000000001, 0.124, 192.0, 0.0, 0.0, 0.0, 0.0, 0.0, 0.0, 0.0, 0.0, 0.0, 1.6665564907846837E9, 0.0, 2022-10-23 13:21:30.784
54.0, -84475.71360775395, -116757.68992396473, 46700.90785037373, 47194.34496096909, 61081.23792186236, 101618.94281136309, 62946.91567980238, 67055.25571766564, 0.048, 0.9500000000000001, 0.124, 192.0, 0.0, 0.0, 0.0, 0.0, 0.0, 0.0, 0.0, 0.0, 0.0, 1.6665564907846913E9, 0.0, 2022-10-23 13:21:30.784
55.0, -84488.85643349367, -116772.24090960514, 48770.67938693517, 47330.13180853508, 61186.6934522025, 102419.64935298555, 64261.712343896914, 68312.38488106547, 0.048, 0.9520000000000001, 0.116, 192.0, 1.0, 128.0, 29.0, 192.0, 3.0, 160.0, 0.0, 0.0, 0.0, 1.6665564907847009E9, 0.0, 2022-10-23 13:21:30.784
56.0, -84430.04899383176, -116718.37320546785, 48513.656677443585, 47036.854569537, 60994.423746397944, 102146.80160841961, 63953.481787858225, 67794.11498238027, 0.048, 0.9520000000000001, 0.116, 192.0, 0.0, 0.0, 0.0, 0.0, 0.0, 0.0, 0.0, 0.0, 0.0, 1.66655649078471E9, 0.0, 2022-10-23 13:21:30.784
57.0, -84420.25892976034, -116707.33144370693, 46523.99379300998, 47048.365717931476, 60975.53652233321, 101398.75577673386, 62701.828801849944, 66631.80191895986, 0.048, 0.9520000000000001, 0.116, 192.0, 0.0, 0.0, 0.0, 0.0, 0.0, 0.0, 0.0, 0.0, 0.0, 1.6665564907847252E9, 0.0, 2022-10-23 13:21:30.784
58.0, -84454.09947086567, -116740.92611562325, 46495.71883627401, 47180.26336196224, 61074.77826771478, 101507.40760653111, 62789.38058488138, 66888.17642786223, 0.048, 0.9520000000000001, 0.116, 192.0, 0.0, 0.0, 0.0, 0.0, 0.0, 0.0, 0.0, 0.0, 0.0, 1.6665564907847328E9, 0.0, 2022-10-23 13:21:30.784
59.0, -84490.91279398356, -116778.85702596391, 48360.54722792473, 47330.93647133547, 61187.7439841919, 102267.59043545609, 64007.595361184525, 68102.3231866745, 0.048, 0.9520000000000001, 0.116, 192.0, 0.0, 0.0, 0.0, 0.0, 0.0, 0.0, 0.0, 0.0, 0.0, 1.6665564907847407E9, 0.0, 2022-10-23 13:21:30.784
60.0, -84447.12572659561, -116741.5072609791, 48852.598530363866, 47077.89237235694, 61022.944572322915, 102286.72352870984, 64179.05559290118, 68059.3631338314, 0.048, 0.9520000000000001, 0.116, 192.0, 0.0, 0.0, 0.0, 0.0, 0.0, 0.0, 0.0, 0.0, 0.0, 1.6665564907847483E9, 0.0, 2022-10-23 13:21:30.784
61.0, -84422.0247175723, -116711.95825480919, 46703.25478354154, 47003.77398774314, 60945.361667318546, 101432.37280039463, 62791.99573898265, 66704.04275703941, 0.048, 0.9520000000000001, 0.116, 192.0, 0.0, 0.0, 0.0, 0.0, 0.0, 0.0, 0.0, 0.0, 0.0, 1.666556490784756E9, 0.0, 2022-10-23 13:21:30.784
62.0, -84453.36186329865, -116735.22642078715, 46390.442119889514, 47157.10695470655, 61066.23990133285, 101446.83437905723, 62705.87446759635, 66794.47791510557, 0.048, 0.9520000000000001, 0.116, 192.0, 0.0, 0.0, 0.0, 0.0, 0.0, 0.0, 0.0, 0.0, 0.0, 1.6665564907847638E9, 0.0, 2022-10-23 13:21:30.784
63.0, -84486.10716892566, -116764.19428160123, 47936.62404258538, 47327.427247455984, 61185.575864979735, 102112.96106731429, 63747.35400049139, 67871.92140482919, 0.048, 0.9520000000000001, 0.116, 192.0, 0.0, 0.0, 0.0, 0.0, 0.0, 0.0, 0.0, 0.0, 0.0, 1.6665564907847717E9, 0.0, 2022-10-23 13:21:30.784
64.0, -84462.52607852532, -116745.61998195887, 49118.22666147073, 47142.84654174406, 61067.22337808888, 102421.75041696435, 64373.94045280701, 68286.79213366414, 0.048, 0.9520000000000001, 0.116, 192.0, 0.0, 0.0, 0.0, 0.0, 0.0, 0.0, 0.0, 0.0, 0.0, 1.6665564907847793E9, 0.0, 2022-10-23 13:21:30.784
65.0, -84414.49217969086, -116699.15070523629, 47025.924566498354, 46986.339627068, 60933.604649735054, 101547.48428433947, 62989.026366356185, 66863.09777058336, 0.058, 0.9540000000000001, 0.108, 192.0, 1.0, 208.0, 29.0, 208.0, 3.0, 96.0, 0.0, 0.0, 0.0, 1.666556490784787E9, 0.0, 2022-10-23 13:21:30.784
66.0, -84448.55623824075, -116730.30903700698, 46370.884343491125, 47141.59484405456, 61043.77639815526, 101427.72363754794, 62677.75597307157, 66728.31675151786, 0.058, 0.9540000000000001, 0.108, 192.0, 0.0, 0.0, 0.0, 0.0, 0.0, 0.0, 0.0, 0.0, 0.0, 1.6665564907847953E9, 0.0, 2022-10-23 13:21:30.784
67.0, -84484.9895817029, -116768.44111304774, 47528.995278953946, 47298.705255830915, 61149.58955640669, 101954.19662644823, 63485.726831642016, 67610.49540167993, 0.058, 0.9540000000000001, 0.108, 192.0, 0.0, 0.0, 0.0, 0.0, 0.0, 0.0, 0.0, 0.0, 0.0, 1.666556490784803E9, 0.0, 2022-10-23 13:21:30.784
68.0, -84484.9895817029, -116768.73168572567, 49233.49460762675, 47211.041714077204, 61110.36224488763, 102499.93681906901, 64472.8692737662, 68416.72282418286, 0.058, 0.9540000000000001, 0.108, 192.0, 0.0, 0.0, 0.0, 0.0, 0.0, 0.0, 0.0, 0.0, 0.0, 1.6665564907848125E9, 0.0, 2022-10-23 13:21:30.784
69.0, -84429.06551707572, -116713.36641470986, 47401.120948925134, 46968.8382111595, 60921.08767284008, 101673.36930911176, 63215.673055133, 67052.55115658655, 0.058, 0.9540000000000001, 0.108, 192.0, 0.0, 0.0, 0.0, 0.0, 0.0, 0.0, 0.0, 0.0, 0.0, 1.66655649078482E9, 0.0, 2022-10-23 13:21:30.784
70.0, -84462.10139538067, -116745.5082232366, 46353.07000316024, 47108.626020982985, 61007.27599945975, 101376.426384023, 62637.8357574744, 66643.5812882878, 0.058, 0.9540000000000001, 0.108, 192.0, 0.0, 0.0, 0.0, 0.0, 0.0, 0.0, 0.0, 0.0, 0.0, 1.6665564907848284E9, 0.0, 2022-10-23 13:21:30.784
0.0, 0.0, 0.0, 0.0, 0.0, 0.0, 0.0, 0.0, 0.0, 0.06, 0.9500000000000001, 0.10200000000000001, 192.0, 1.0, 224.0, 29.0, 176.0, 3.0, 48.0, 0.0, 0.0, 0.0, 1.6665564908944821E9, 0.0, 2022-10-23 13:21:30.894
1.0, -84654.0805285073, -116957.26865020617, 49032.55242497354, 47502.79903445233, 61213.35908333768, 102648.59827144127, 64443.09675015173, 68504.7663455923, 0.06, 0.9500000000000001, 0.10200000000000001, 192.0, 0.0, 0.0, 0.0, 0.0, 0.0, 0.0, 0.0, 0.0, 0.0, 1.6665564913779695E9, 0.0, 2022-10-23 13:21:31.377
2.0, -84595.80953071231, -116901.25517860118, 48124.065771587586, 47190.500460922776, 61001.97863602384, 102130.77540764517, 63728.35501770437, 67607.9025993231, 0.06, 0.9500000000000001, 0.10200000000000001, 192.0, 0.0, 0.0, 0.0, 0.0, 0.0, 0.0, 0.0, 0.0, 0.0, 1.666556491377995E9, 0.0, 2022-10-23 13:21:31.377
3.0, -84594.20020511153, -116896.62836749892, 46471.80246970683, 47289.004598737316, 61057.58977622864, 101575.53572363088, 62738.15038658982, 66737.503318489, 0.06, 0.9500000000000001, 0.10200000000000001, 192.0, 0.0, 0.0, 0.0, 0.0, 0.0, 0.0, 0.0, 0.0, 0.0, 1.6665564913780117E9, 0.0, 2022-10-23 13:21:31.378
4.0, -84620.64231880216, -116924.9033242349, 46728.08757163138, 47426.57958585973, 61162.15123679057, 101798.024987939, 63008.42768054339, 67155.05625665859, 0.06, 0.9500000000000001, 0.10200000000000001, 192.0, 0.0, 0.0, 0.0, 0.0, 0.0, 0.0, 0.0, 0.0, 0.0, 1.666556491378028E9, 0.0, 2022-10-23 13:21:31.378
5.0, -84652.29238895088, -116954.34057168254, 48763.12449730927, 47543.00982272742, 61247.26667967638, 102583.75586077642, 64298.548018759255, 68400.87543736404, 0.06, 0.9500000000000001, 0.10200000000000001, 192.0, 0.0, 0.0, 0.0, 0.0, 0.0, 0.0, 0.0, 0.0, 0.0, 1.6665564913780496E9, 0.0, 2022-10-23 13:21:31.378
6.0, -84594.75899872291, -116896.38249830992, 48587.01510274591, 47240.88129292504, 61046.36920051208, 102340.34536365813, 64041.54766101213, 67927.4878415451, 0.06, 0.9500000000000001, 0.10200000000000001, 192.0, 0.0, 0.0, 0.0, 0.0, 0.0, 0.0, 0.0, 0.0, 0.0, 1.666556491378058E9, 0.0, 2022-10-23 13:21:31.378
7.0, -84587.78525445286, -116889.76638195115, 46591.47370952055, 47252.839476208625, 61025.537374679734, 101591.33840696079, 62786.631320313376, 66749.1038738613, 0.062, 0.9500000000000001, 0.106, 192.0, 1.0, 240.0, 29.0, 176.0, 3.0, 80.0, 0.0, 0.0, 0.0, 1.666556491378066E9, 0.0, 2022-10-23 13:21:31.378
8.0, -84628.06309796132, -116930.37950162643, 46540.891711818185, 47387.32992259621, 61129.40593116354, 101698.11269022379, 62863.70013519528, 66994.0119378581, 0.062, 0.9500000000000001, 0.106, 192.0, 0.0, 0.0, 0.0, 0.0, 0.0, 0.0, 0.0, 0.0, 0.0, 1.6665564913780754E9, 0.0, 2022-10-23 13:21:31.378
9.0, -84649.69958659406, -116948.9538012688, 48353.52878016577, 47552.352851909745, 61249.34539191072, 102435.94377469347, 64046.35328607003, 68184.97993767023, 0.062, 0.9500000000000001, 0.106, 192.0, 0.0, 0.0, 0.0, 0.0, 0.0, 0.0, 0.0, 0.0, 0.0, 1.6665564913780835E9, 0.0, 2022-10-23 13:21:31.378
10.0, -84605.26431861692, -116907.78188798213, 48932.774237725054, 47316.40783743952, 61100.14749767155, 102497.38872020111, 64276.48684698187, 68200.0450134331, 0.062, 0.9500000000000001, 0.106, 192.0, 0.0, 0.0, 0.0, 0.0, 0.0, 0.0, 0.0, 0.0, 0.0, 1.6665564913780913E9, 0.0, 2022-10-23 13:21:31.378
11.0, -84581.50441426093, -116886.77124819414, 46799.7472643551, 47237.126199856546, 61013.69095011842, 101646.68132623212, 62896.78071698913, 66840.25428775004, 0.062, 0.9500000000000001, 0.106, 192.0, 0.0, 0.0, 0.0, 0.0, 0.0, 0.0, 0.0, 0.0, 0.0, 1.6665564913780992E9, 0.0, 2022-10-23 13:21:31.378
12.0, -84605.84546397274, -116909.01123392717, 46439.884178624656, 47393.364893599144, 61130.43411140849, 101641.67453547413, 62776.30481437503, 66899.6875762567, 0.062, 0.9500000000000001, 0.106, 192.0, 0.0, 0.0, 0.0, 0.0, 0.0, 0.0, 0.0, 0.0, 0.0, 1.6665564913781073E9, 0.0, 2022-10-23 13:21:31.378
13.0, -84656.11453725274, -116953.69237109332, 47930.834940771456, 47537.89127324716, 61237.02958071585, 102281.0908891071, 63779.38405029584, 67951.27009764554, 0.062, 0.9500000000000001, 0.106, 192.0, 0.0, 0.0, 0.0, 0.0, 0.0, 0.0, 0.0, 0.0, 0.0, 1.6665564913781147E9, 0.0, 2022-10-23 13:21:31.378
14.0, -84638.14373471067, -116940.21426918678, 49145.62990017294, 47359.122021093615, 61123.25920143833, 102595.5128783599, 64421.63907547463, 68396.4944954508, 0.062, 0.9500000000000001, 0.106, 192.0, 0.0, 0.0, 0.0, 0.0, 0.0, 0.0, 0.0, 0.0, 0.0, 1.666556491378123E9, 0.0, 2022-10-23 13:21:31.378
15.0, -84599.22934761397, -116904.45147805828, 47062.424965193866, 47187.79589984368, 60974.642452555, 101715.32353345437, 63033.57339305561, 66965.1111322774, 0.062, 0.9500000000000001, 0.106, 192.0, 0.0, 0.0, 0.0, 0.0, 0.0, 0.0, 0.0, 0.0, 0.0, 1.666556491378131E9, 0.0, 2022-10-23 13:21:31.378
16.0, -84635.61798758722, -116940.43778663133, 46364.514096321356, 47342.08999181867, 61082.243750362846, 101576.13922073117, 62694.85505757989, 66803.44096463216, 0.062, 0.9500000000000001, 0.106, 192.0, 0.0, 0.0, 0.0, 0.0, 0.0, 0.0, 0.0, 0.0, 0.0, 1.6665564913781385E9, 0.0, 2022-10-23 13:21:31.378
17.0, -84666.97748505801, -116970.74675211273, 47500.765025706896, 47497.83694718325, 61190.64971097108, 102103.68509336533, 63496.45566898056, 67681.28337636989, 0.062, 0.9540000000000001, 0.10400000000000001, 192.0, 1.0, 240.0, 29.0, 208.0, 3.0, 64.0, 0.0, 0.0, 0.0, 1.666556491378202E9, 0.0, 2022-10-23 13:21:31.378
18.0, -84650.63835986119, -116956.03930426114, 49235.08158148308, 47431.92165278455, 61161.61479492364, 102664.37860302671, 64505.1228410152, 68521.03841555577, 0.062, 0.9540000000000001, 0.10400000000000001, 192.0, 0.0, 0.0, 0.0, 0.0, 0.0, 0.0, 0.0, 0.0, 0.0, 1.6665564913782103E9, 0.0, 2022-10-23 13:21:31.378
19.0, -84609.98053669698, -116914.21919038525, 47468.377347991154, 47179.88338230651, 60975.40241186648, 101875.00439584308, 63293.56888455974, 67196.45168738982, 0.062, 0.9540000000000001, 0.10400000000000001, 192.0, 0.0, 0.0, 0.0, 0.0, 0.0, 0.0, 0.0, 0.0, 0.0, 1.6665564913782248E9, 0.0, 2022-10-23 13:21:31.378
20.0, -84618.00481295644, -116916.38730959741, 46388.698683822004, 47340.9724045959, 61076.23113110437, 101577.61443586522, 62698.00665354809, 66767.36524908128, 0.062, 0.9540000000000001, 0.10400000000000001, 192.0, 0.0, 0.0, 0.0, 0.0, 0.0, 0.0, 0.0, 0.0, 0.0, 1.6665564913782332E9, 0.0, 2022-10-23 13:21:31.378
21.0, -84646.65974934814, -116939.78958604213, 47132.20711138334, 47496.629952982665, 61189.15214409258, 101961.05861199602, 63257.20259633096, 67447.05944622272, 0.062, 0.9540000000000001, 0.10400000000000001, 192.0, 0.0, 0.0, 0.0, 0.0, 0.0, 0.0, 0.0, 0.0, 0.0, 1.666556491378241E9, 0.0, 2022-10-23 13:21:31.378
22.0, -84663.982351301, -116960.3084874521, 49163.51129573719, 47498.440444283544, 61210.54276353631, 102682.37175731323, 64487.06263149532, 68556.42122702852, 0.062, 0.9540000000000001, 0.10400000000000001, 192.0, 0.0, 0.0, 0.0, 0.0, 0.0, 0.0, 0.0, 0.0, 0.0, 1.6665564913782487E9, 0.0, 2022-10-23 13:21:31.378
23.0, -84602.55975753782, -116907.55837053758, 47858.75056490309, 47192.0874347791, 60988.72405156184, 102020.96128713623, 63529.02216065195, 67441.87384150909, 0.062, 0.9540000000000001, 0.10400000000000001, 192.0, 0.0, 0.0, 0.0, 0.0, 0.0, 0.0, 0.0, 0.0, 0.0, 1.6665564913782568E9, 0.0, 2022-10-23 13:21:31.378
24.0, -84613.467408832, -116921.03647244412, 46401.23801246143, 47307.75771233532, 61060.40609603001, 101553.34044138675, 62674.15734221427, 66732.67534168666, 0.062, 0.9540000000000001, 0.10400000000000001, 192.0, 0.0, 0.0, 0.0, 0.0, 0.0, 0.0, 0.0, 0.0, 0.0, 1.666556491378265E9, 0.0, 2022-10-23 13:21:31.378
25.0, -84648.4255371601, -116953.7594263267, 46852.631491736356, 47437.91192029857, 61158.61966116663, 101845.1871687397, 63066.25164344927, 67255.41558926292, 0.062, 0.9540000000000001, 0.10400000000000001, 192.0, 0.0, 0.0, 0.0, 0.0, 0.0, 0.0, 0.0, 0.0, 0.0, 1.6665564913782723E9, 0.0, 2022-10-23 13:21:31.378
26.0, -84662.17186000012, -116967.17047299987, 48938.18335988324, 47526.93891846406, 61227.26186838888, 102620.85975657223, 64366.05028701429, 68477.87719701257, 0.062, 0.9540000000000001, 0.10400000000000001, 192.0, 0.0, 0.0, 0.0, 0.0, 0.0, 0.0, 0.0, 0.0, 0.0, 1.66655649137828E9, 0.0, 2022-10-23 13:21:31.378
27.0, -84605.15255989463, -116916.07438517504, 48280.68444498592, 47210.974658843836, 61009.22060122736, 102190.02988219618, 63803.8592104744, 67722.6341036122, 0.056, 0.9580000000000001, 0.10400000000000001, 192.0, 1.0, 192.0, 29.0, 240.0, 3.0, 64.0, 0.0, 0.0, 0.0, 1.6665564913782892E9, 0.0, 2022-10-23 13:21:31.378
28.0, -84598.98347842497, -116908.67595776034, 46464.11346961421, 47272.79958400722, 61027.66079040299, 101548.31129888432, 62693.022214534554, 66724.49460321601, 0.056, 0.9580000000000001, 0.10400000000000001, 192.0, 0.0, 0.0, 0.0, 0.0, 0.0, 0.0, 0.0, 0.0, 0.0, 1.6665564913782976E9, 0.0, 2022-10-23 13:21:31.378
29.0, -84630.81236252932, -116938.31437090808, 46611.07618940785, 47405.30072513828, 61131.57405037571, 101736.33417324236, 62901.25106588019, 67087.62104363693, 0.056, 0.9580000000000001, 0.10400000000000001, 192.0, 0.0, 0.0, 0.0, 0.0, 0.0, 0.0, 0.0, 0.0, 0.0, 1.6665564913783069E9, 0.0, 2022-10-23 13:21:31.378
30.0, -84669.4361769481, -116978.2122347608, 48576.599189829736, 47539.54530233685, 61223.797347998305, 102508.0952057952, 64160.81656942565, 68318.08457590158, 0.056, 0.9580000000000001, 0.10400000000000001, 192.0, 0.0, 0.0, 0.0, 0.0, 0.0, 0.0, 0.0, 0.0, 0.0, 1.6665564913783145E9, 0.0, 2022-10-23 13:21:31.378
31.0, -84616.8201705003, -116934.38046388394, 48698.88558374472, 47273.961874718894, 61048.98435461335, 102385.38412873556, 64099.461030895836, 68038.62071497687, 0.056, 0.9580000000000001, 0.10400000000000001, 192.0, 0.0, 0.0, 0.0, 0.0, 0.0, 0.0, 0.0, 0.0, 0.0, 1.6665564913783224E9, 0.0, 2022-10-23 13:21:31.378
32.0, -84595.56366152331, -116910.8887804614, 46639.64171882173, 47249.576121518156, 61004.638493614024, 101601.6872646436, 62798.09776521895, 66787.32535687988, 0.056, 0.9580000000000001, 0.10400000000000001, 192.0, 0.0, 0.0, 0.0, 0.0, 0.0, 0.0, 0.0, 0.0, 0.0, 1.6665564913783388E9, 0.0, 2022-10-23 13:21:31.378
33.0, -84630.70060380705, -116941.73418780974, 46441.51585596989, 47374.500021278865, 61088.256369621326, 101639.23819532851, 62771.02980268357, 66933.23754468412, 0.056, 0.9580000000000001, 0.10400000000000001, 192.0, 0.0, 0.0, 0.0, 0.0, 0.0, 0.0, 0.0, 0.0, 0.0, 1.666556491378347E9, 0.0, 2022-10-23 13:21:31.378
34.0, -84665.1893455016, -116972.24431899123, 48143.53414100816, 47543.523912849894, 61215.46014731648, 102351.07420099666, 63898.965883131736, 68080.66434629732, 0.056, 0.9580000000000001, 0.10400000000000001, 192.0, 0.0, 0.0, 0.0, 0.0, 0.0, 0.0, 0.0, 0.0, 0.0, 1.6665564913783548E9, 0.0, 2022-10-23 13:21:31.378
35.0, -84625.1797229266, -116937.17443194086, 49011.38532297437, 47331.74113413586, 61093.03964293476, 102538.53828174333, 64326.82297549522, 68287.90972088692, 0.056, 0.9580000000000001, 0.10400000000000001, 192.0, 0.0, 0.0, 0.0, 0.0, 0.0, 0.0, 0.0, 0.0, 0.0, 1.666556491378363E9, 0.0, 2022-10-23 13:21:31.378
36.0, -84591.29447833235, -116904.00444316918, 46884.28156188507, 47208.53831869821, 60983.42668812593, 101683.80757377238, 62944.054656512104, 66892.80323896446, 0.056, 0.9580000000000001, 0.10400000000000001, 192.0, 0.0, 0.0, 0.0, 0.0, 0.0, 0.0, 0.0, 0.0, 0.0, 1.6665564913783708E9, 0.0, 2022-10-23 13:21:31.378
37.0, -84612.88626347618, -116923.11518467846, 46398.93578278253, 47372.242495088874, 61103.79083201777, 101635.05841911536, 62746.576994249466, 66877.04525912348, 0.064, 0.9540000000000001, 0.096, 192.0, 2.0, 0.0, 29.0, 208.0, 3.0, 0.0, 0.0, 0.0, 0.0, 1.6665564913783789E9, 0.0, 2022-10-23 13:21:31.378
38.0, -84646.34682492577, -116953.7594263267, 47764.515610279515, 47536.483113346476, 61223.05974043128, 102239.96367930934, 63684.09856368286, 67874.15657927473, 0.064, 0.9540000000000001, 0.096, 192.0, 0.0, 0.0, 0.0, 0.0, 0.0, 0.0, 0.0, 0.0, 0.0, 1.6665564913783872E9, 0.0, 2022-10-23 13:21:31.378
39.0, -84645.20688595854, -116953.49120539323, 49201.55396480012, 47390.45916681995, 61129.24946895236, 102652.04044008738, 64479.21716919151, 68475.2173394224, 0.064, 0.9540000000000001, 0.096, 192.0, 0.0, 0.0, 0.0, 0.0, 0.0, 0.0, 0.0, 0.0, 0.0, 1.6665564913783953E9, 0.0, 2022-10-23 13:21:31.378
40.0, -84598.69290574706, -116910.32998685003, 47198.34592322659, 47185.51602190924, 60962.01371693775, 101784.34572033236, 63127.16014708998, 67052.61821181992, 0.064, 0.9540000000000001, 0.096, 192.0, 0.0, 0.0, 0.0, 0.0, 0.0, 0.0, 0.0, 0.0, 0.0, 1.6665564913784037E9, 0.0, 2022-10-23 13:21:31.378
41.0, -84609.15352215213, -116916.58847529751, 46344.665747245046, 47360.507829249844, 61086.289416109255, 101584.81169757983, 62683.992109774605, 66790.20873191461, 0.064, 0.9540000000000001, 0.096, 192.0, 0.0, 0.0, 0.0, 0.0, 0.0, 0.0, 0.0, 0.0, 0.0, 1.6665564913784113E9, 0.0, 2022-10-23 13:21:31.378
42.0, -84642.68113883509, -116946.94214426783, 47332.679907402984, 47520.188691638556, 61206.810022212274, 102064.88246499092, 63399.47144978899, 67602.38171844264, 0.064, 0.9540000000000001, 0.096, 192.0, 0.0, 0.0, 0.0, 0.0, 0.0, 0.0, 0.0, 0.0, 0.0, 1.6665564913784192E9, 0.0, 2022-10-23 13:21:31.378
43.0, -84656.1368889972, -116964.7564845987, 49195.004903674715, 47467.01389157938, 61186.335824291215, 102685.47864979252, 64499.28903571237, 68548.4863577469, 0.064, 0.9540000000000001, 0.096, 192.0, 0.0, 0.0, 0.0, 0.0, 0.0, 0.0, 0.0, 0.0, 0.0, 1.666556491378427E9, 0.0, 2022-10-23 13:21:31.378
44.0, -84597.08358014627, -116907.26779785965, 47587.713311638036, 47197.22833600383, 60989.394603895504, 101936.44934135072, 63376.27033904438, 67291.84893272507, 0.064, 0.9540000000000001, 0.096, 192.0, 0.0, 0.0, 0.0, 0.0, 0.0, 0.0, 0.0, 0.0, 0.0, 1.6665564913784351E9, 0.0, 2022-10-23 13:21:31.378
45.0, -84611.14282740865, -116917.7954694981, 46357.54035205131, 47346.18036105399, 61079.092154394646, 101571.04302299536, 62679.27589169454, 66757.86575768779, 0.064, 0.9540000000000001, 0.096, 192.0, 0.0, 0.0, 0.0, 0.0, 0.0, 0.0, 0.0, 0.0, 0.0, 1.666556491378443E9, 0.0, 2022-10-23 13:21:31.378
46.0, -84638.41195564413, -116942.33768491003, 47004.176319143335, 47492.76310119189, 61189.15214409258, 101936.91872798429, 63187.84513328614, 67391.06832636218, 0.066, 0.9520000000000001, 0.098, 192.0, 2.0, 16.0, 29.0, 192.0, 3.0, 16.0, 0.0, 0.0, 0.0, 1.6665564913784509E9, 0.0, 2022-10-23 13:21:31.378
47.0, -84653.56643838483, -116960.44259791882, 49067.80112597956, 47528.77176150939, 61226.9042404776, 102680.87419043473, 64447.76826474289, 68551.32502929271, 0.066, 0.9520000000000001, 0.098, 192.0, 0.0, 0.0, 0.0, 0.0, 0.0, 0.0, 0.0, 0.0, 0.0, 1.6665564913784592E9, 0.0, 2022-10-23 13:21:31.378
48.0, -84602.13507439317, -116908.2959781046, 48023.97465991672, 47209.924126854436, 61007.11953724856, 102120.11362553998, 63655.667144735715, 67578.66651757556, 0.066, 0.9520000000000001, 0.098, 192.0, 0.0, 0.0, 0.0, 0.0, 0.0, 0.0, 0.0, 0.0, 0.0, 1.6665564913784761E9, 0.0, 2022-10-23 13:21:31.378
49.0, -84621.17876066909, -116921.23763814422, 46414.53730041234, 47296.80535755221, 61045.050447589216, 101574.59695036376, 62690.20589473318, 66740.27493480146, 0.066, 0.9520000000000001, 0.098, 192.0, 0.0, 0.0, 0.0, 0.0, 0.0, 0.0, 0.0, 0.0, 0.0, 1.666556491378484E9, 0.0, 2022-10-23 13:21:31.378
50.0, -84656.24864771946, -116958.47564440676, 46721.24793782806, 47426.19960620399, 61134.97151553292, 101808.19503166617, 62987.28293028867, 67182.99593722772, 0.066, 0.9520000000000001, 0.098, 192.0, 0.0, 0.0, 0.0, 0.0, 0.0, 0.0, 0.0, 0.0, 0.0, 1.666556491378492E9, 0.0, 2022-10-23 13:21:31.378
51.0, -84681.39436023169, -116982.23554876275, 48790.907715667214, 47548.575407096796, 61226.01017069938, 102604.25241044193, 64294.077669868195, 68436.63822849253, 0.066, 0.9520000000000001, 0.098, 192.0, 0.0, 0.0, 0.0, 0.0, 0.0, 0.0, 0.0, 0.0, 0.0, 1.6665564913785E9, 0.0, 2022-10-23 13:21:31.378
52.0, -84624.73268803749, -116935.96743774027, 48478.273865970834, 47243.11646737057, 61028.42074971447, 102321.72636052685, 63959.427351883336, 67885.44421022465, 0.066, 0.9520000000000001, 0.098, 192.0, 0.0, 0.0, 0.0, 0.0, 0.0, 0.0, 0.0, 0.0, 0.0, 1.666556491378508E9, 0.0, 2022-10-23 13:21:31.378
53.0, -84615.74728676645, -116928.41254811437, 46542.34457520778, 47264.663549025485, 61011.567534395166, 101605.75528213446, 62750.86852918489, 66760.4585600446, 0.066, 0.9520000000000001, 0.098, 192.0, 0.0, 0.0, 0.0, 0.0, 0.0, 0.0, 0.0, 0.0, 0.0, 1.666556491378516E9, 0.0, 2022-10-23 13:21:31.378
54.0, -84644.40222315815, -116956.7098565948, 46565.702148163575, 47407.91587923955, 61119.1241287141, 101743.19615879013, 62876.038298134605, 67045.77857801659, 0.066, 0.9520000000000001, 0.098, 192.0, 0.0, 0.0, 0.0, 0.0, 0.0, 0.0, 0.0, 0.0, 0.0, 1.666556491378524E9, 0.0, 2022-10-23 13:21:31.378
55.0, -84668.69856938107, -116979.88861559494, 48454.312795914746, 47562.679357848094, 61228.8041387563, 102504.96596157146, 64101.405632663445, 68255.63380189345, 0.066, 0.9520000000000001, 0.098, 192.0, 0.0, 0.0, 0.0, 0.0, 0.0, 0.0, 0.0, 0.0, 0.0, 1.6665564913785317E9, 0.0, 2022-10-23 13:21:31.378
56.0, -84631.79583928536, -116944.88578377794, 48879.219458010135, 47299.35345642012, 61066.776343199774, 102500.16033651357, 64230.24108770384, 68161.77882692561, 0.06, 0.9500000000000001, 0.092, 192.0, 1.0, 224.0, 29.0, 176.0, 2.0, 224.0, 0.0, 0.0, 0.0, 1.6665564913785396E9, 0.0, 2022-10-23 13:21:31.378
57.0, -84603.07384766029, -116909.592379283, 46766.64433081679, 47242.62472899255, 61003.230333713334, 101672.96697771156, 62873.71371671125, 66837.05798829293, 0.06, 0.9500000000000001, 0.092, 192.0, 0.0, 0.0, 0.0, 0.0, 0.0, 0.0, 0.0, 0.0, 0.0, 1.666556491378548E9, 0.0, 2022-10-23 13:21:31.378
58.0, -84642.03293824589, -116944.37169365546, 46492.99192345046, 47398.8410709907, 61122.61100084913, 101702.71714958157, 62815.219201471715, 66950.80601582599, 0.06, 0.9500000000000001, 0.092, 192.0, 0.0, 0.0, 0.0, 0.0, 0.0, 0.0, 0.0, 0.0, 0.0, 1.666556491378556E9, 0.0, 2022-10-23 13:21:31.378
59.0, -84671.85016534927, -116974.30067948112, 48083.76557633467, 47556.64438684516, 61227.440682344524, 102376.89046584255, 63881.35270850095, 68044.99096214664, 0.06, 0.9500000000000001, 0.092, 192.0, 0.0, 0.0, 0.0, 0.0, 0.0, 0.0, 0.0, 0.0, 0.0, 1.666556491378564E9, 0.0, 2022-10-23 13:21:31.378
60.0, -84638.85899053323, -116947.16566171238, 49170.01565337368, 47369.02384388731, 61110.13872744307, 102636.30481199085, 64437.397055315625, 68396.80741987318, 0.06, 0.9500000000000001, 0.092, 192.0, 0.0, 0.0, 0.0, 0.0, 0.0, 0.0, 0.0, 0.0, 0.0, 1.6665564913785717E9, 0.0, 2022-10-23 13:21:31.378
61.0, -84602.85033021573, -116912.90043746239, 47046.44346790832, 47211.600507688585, 60983.516095103754, 101748.67233618168, 63032.500509321755, 66964.1053037769, 0.06, 0.9500000000000001, 0.092, 192.0, 0.0, 0.0, 0.0, 0.0, 0.0, 0.0, 0.0, 0.0, 0.0, 1.6665564913785799E9, 0.0, 2022-10-23 13:21:31.378
62.0, -84626.74434503846, -116935.18512668433, 46403.026152017854, 47369.33676830969, 61098.33700637067, 101625.1342445772, 62723.39823524931, 66842.10948253983, 0.06, 0.9500000000000001, 0.092, 192.0, 0.0, 0.0, 0.0, 0.0, 0.0, 0.0, 0.0, 0.0, 0.0, 1.666556491378588E9, 0.0, 2022-10-23 13:21:31.378
63.0, -84656.53922039739, -116967.61750788898, 47593.74828264097, 47534.13618017867, 61219.52816480734, 102164.07950688357, 63549.29519287291, 67754.01595282745, 0.06, 0.9500000000000001, 0.092, 192.0, 0.0, 0.0, 0.0, 0.0, 0.0, 0.0, 0.0, 0.0, 0.0, 1.6665564913786044E9, 0.0, 2022-10-23 13:21:31.378
64.0, -84653.96876978503, -116970.21031024579, 49276.07468081411, 47432.502798140384, 61178.44565849849, 102712.14428092769, 64526.51346045893, 68550.07333160321, 0.06, 0.9500000000000001, 0.092, 192.0, 0.0, 0.0, 0.0, 0.0, 0.0, 0.0, 0.0, 0.0, 0.0, 1.6665564913786125E9, 0.0, 2022-10-23 13:21:31.378
65.0, -84602.96208893802, -116917.92957996484, 47442.29286221181, 47197.205984259366, 60991.11568821856, 101904.44164329072, 63279.822561719724, 67198.97743451326, 0.06, 0.9500000000000001, 0.092, 192.0, 0.0, 0.0, 0.0, 0.0, 0.0, 0.0, 0.0, 0.0, 0.0, 1.66655649137862E9, 0.0, 2022-10-23 13:21:31.378
66.0, -84610.38286809718, -116915.47088807475, 46434.02802157737, 47355.50103849185, 61087.071727165196, 101628.4870062455, 62730.26022079709, 66818.50604039503, 0.056, 0.9560000000000001, 0.10200000000000001, 192.0, 1.0, 192.0, 29.0, 224.0, 3.0, 48.0, 0.0, 0.0, 0.0, 1.666556491378628E9, 0.0, 2022-10-23 13:21:31.378
67.0, -84638.25549343294, -116948.84204254653, 47261.802525735206, 47505.011857153404, 61201.087975631715, 102038.37329606693, 63341.62513513865, 67538.187508367, 0.056, 0.9560000000000001, 0.10200000000000001, 192.0, 0.0, 0.0, 0.0, 0.0, 0.0, 0.0, 0.0, 0.0, 0.0, 1.6665564913786366E9, 0.0, 2022-10-23 13:21:31.378
68.0, -84645.83273480329, -116963.97417354277, 49239.328412929586, 47492.89721165862, 61211.68270250353, 102719.9897432315, 64526.51346045893, 68588.56303555526, 0.056, 0.9560000000000001, 0.10200000000000001, 192.0, 0.0, 0.0, 0.0, 0.0, 0.0, 0.0, 0.0, 0.0, 0.0, 1.6665564913786445E9, 0.0, 2022-10-23 13:21:31.378
69.0, -84589.37222830919, -116911.2464083727, 47834.52127391354, 47203.53152794022, 61004.32556919165, 102036.1828251103, 63516.43812852361, 67426.22762039037, 0.056, 0.9560000000000001, 0.10200000000000001, 192.0, 0.0, 0.0, 0.0, 0.0, 0.0, 0.0, 0.0, 0.0, 0.0, 1.6665564913786545E9, 0.0, 2022-10-23 13:21:31.378
70.0, -84601.91155694862, -116920.38827185491, 46446.34383277224, 47330.15416027953, 61073.25834909181, 101594.06531978433, 62703.66164489528, 66766.18060662516, 0.056, 0.9560000000000001, 0.10200000000000001, 192.0, 0.0, 0.0, 0.0, 0.0, 0.0, 0.0, 0.0, 0.0, 0.0, 1.6665564913786623E9, 0.0, 2022-10-23 13:21:31.378
71.0, -84637.94256901057, -116950.29490593611, 46968.68174894831, 47468.84673462471, 61179.92087363254, 101914.92461144026, 63139.051275140206, 67335.50188964629, 0.056, 0.9560000000000001, 0.10200000000000001, 192.0, 0.0, 0.0, 0.0, 0.0, 0.0, 0.0, 0.0, 0.0, 0.0, 1.66655649137867E9, 0.0, 2022-10-23 13:21:31.378
72.0, -84654.14758374066, -116964.26474622068, 49080.60867555245, 47554.52097112191, 61246.596127342724, 102704.05294943487, 64450.5622327998, 68564.28904107679, 0.056, 0.9560000000000001, 0.10200000000000001, 192.0, 0.0, 0.0, 0.0, 0.0, 0.0, 0.0, 0.0, 0.0, 0.0, 1.666556491378678E9, 0.0, 2022-10-23 13:21:31.378
73.0, -84584.90187941813, -116900.00348091168, 48303.77379700825, 47248.235016850835, 61035.12627305106, 102237.30382171915, 63818.49960309263, 67742.34834222178, 0.056, 0.9560000000000001, 0.10200000000000001, 192.0, 0.0, 0.0, 0.0, 0.0, 0.0, 0.0, 0.0, 0.0, 0.0, 1.6665564913786857E9, 0.0, 2022-10-23 13:21:31.378
74.0, -84600.45869355902, -116914.50976306318, 46530.8334268133, 47295.59836335163, 61037.87553761906, 101596.14403201867, 62725.72281667266, 66767.74522873703, 0.056, 0.9560000000000001, 0.10200000000000001, 192.0, 0.0, 0.0, 0.0, 0.0, 0.0, 0.0, 0.0, 0.0, 0.0, 1.666556491378696E9, 0.0, 2022-10-23 13:21:31.378
75.0, -84625.33618513777, -116931.72060629376, 46750.484019575604, 47443.0975250122, 61159.71489664494, 101811.99482822357, 62977.24699702823, 67169.58489055454, 0.052000000000000005, 0.9480000000000001, 0.10200000000000001, 192.0, 1.0, 160.0, 29.0, 160.0, 3.0, 48.0, 0.0, 0.0, 0.0, 1.666556491378704E9, 0.0, 2022-10-23 13:21:31.378
76.0, -84658.14854599816, -116963.19186248683, 48771.908732880205, 47568.334349195284, 61251.066476233784, 102597.21161093851, 64262.1146752971, 68414.62176020406, 0.052000000000000005, 0.9480000000000001, 0.10200000000000001, 192.0, 0.0, 0.0, 0.0, 0.0, 0.0, 0.0, 0.0, 0.0, 0.0, 1.6665564913787122E9, 0.0, 2022-10-23 13:21:31.378
77.0, -84614.5179408214, -116928.77017602566, 48734.53661615093, 47264.73060425885, 61048.26909879078, 102401.81266091022, 64091.123830214005, 68023.68974968074, 0.052000000000000005, 0.9480000000000001, 0.10200000000000001, 192.0, 0.0, 0.0, 0.0, 0.0, 0.0, 0.0, 0.0, 0.0, 0.0, 1.66655649137872E9, 0.0, 2022-10-23 13:21:31.378
78.0, -84595.87658594568, -116909.3912135829, 46699.43263523968, 47264.171810647465, 61011.85810707309, 101627.97291612304, 62803.99862575515, 66803.53037160997, 0.052000000000000005, 0.9480000000000001, 0.10200000000000001, 192.0, 0.0, 0.0, 0.0, 0.0, 0.0, 0.0, 0.0, 0.0, 0.0, 1.666556491378728E9, 0.0, 2022-10-23 13:21:31.378
79.0, -84627.48195260549, -116940.28132442014, 46587.47274726305, 47401.32211462523, 61119.81703279222, 101708.68506535115, 62840.54372793958, 67009.79226944355, 0.052000000000000005, 0.9480000000000001, 0.10200000000000001, 192.0, 0.0, 0.0, 0.0, 0.0, 0.0, 0.0, 0.0, 0.0, 0.0, 1.666556491378744E9, 0.0, 2022-10-23 13:21:31.378
80.0, -84677.25928750745, -116987.39880173194, 48335.669736345975, 47538.04773545835, 61211.59329552571, 102412.4744430154, 63978.80631432609, 68160.75064668068, 0.052000000000000005, 0.9480000000000001, 0.10200000000000001, 192.0, 0.0, 0.0, 0.0, 0.0, 0.0, 0.0, 0.0, 0.0, 0.0, 1.666556491378752E9, 0.0, 2022-10-23 13:21:31.378
81.0, -84614.42853384359, -116928.52430683665, 49059.50862878664, 47331.629375413584, 61086.73645099837, 102537.53245324283, 64306.97462641891, 68274.69983991382, 0.052000000000000005, 0.9480000000000001, 0.10200000000000001, 192.0, 0.0, 0.0, 0.0, 0.0, 0.0, 0.0, 0.0, 0.0, 0.0, 1.66655649137876E9, 0.0, 2022-10-23 13:21:31.378
82.0, -84588.58991725325, -116905.68082400333, 46923.933556548785, 47228.54312998571, 60991.60742659658, 101680.49951559301, 62922.798147535104, 66895.4854482991, 0.052000000000000005, 0.9480000000000001, 0.10200000000000001, 192.0, 0.0, 0.0, 0.0, 0.0, 0.0, 0.0, 0.0, 0.0, 0.0, 1.666556491378768E9, 0.0, 2022-10-23 13:21:31.378
83.0, -84618.5189030789, -116931.94412373831, 46499.0268944534, 47382.99368417188, 61108.305884397734, 101646.54721576539, 62759.630413011364, 66914.23856189712, 0.052000000000000005, 0.9480000000000001, 0.10200000000000001, 192.0, 0.0, 0.0, 0.0, 0.0, 0.0, 0.0, 0.0, 0.0, 0.0, 1.666556491378776E9, 0.0, 2022-10-23 13:21:31.378
84.0, -84653.96876978503, -116962.96834504227, 47926.699868047224, 47548.06131697432, 61226.72542652195, 102266.91988312243, 63725.024607780535, 67939.60248703987, 0.052000000000000005, 0.9480000000000001, 0.10200000000000001, 192.0, 0.0, 0.0, 0.0, 0.0, 0.0, 0.0, 0.0, 0.0, 0.0, 1.666556491378784E9, 0.0, 2022-10-23 13:21:31.378
85.0, -84637.58494109928, -116949.33378092454, 49253.34295670306, 47388.29104760779, 61133.65276261005, 102637.02006781341, 64446.13658739765, 68465.71784802889, 0.056, 0.9500000000000001, 0.092, 192.0, 1.0, 192.0, 29.0, 176.0, 2.0, 224.0, 0.0, 0.0, 0.0, 1.666556491378792E9, 0.0, 2022-10-23 13:21:31.378
86.0, -84591.98738241046, -116906.28432110362, 47218.06016183617, 47201.40811221697, 60983.40433638148, 101774.28743532747, 63089.69862338289, 67050.65125830784, 0.056, 0.9500000000000001, 0.092, 192.0, 0.0, 0.0, 0.0, 0.0, 0.0, 0.0, 0.0, 0.0, 0.0, 1.6665564913788004E9, 0.0, 2022-10-23 13:21:31.378
87.0, -84616.97663271149, -116930.49126034872, 46454.74808868743, 47368.822678187214, 61094.42545109099, 101610.58325893681, 62707.05911005248, 66846.60218317535, 0.056, 0.9500000000000001, 0.092, 192.0, 0.0, 0.0, 0.0, 0.0, 0.0, 0.0, 0.0, 0.0, 0.0, 1.6665564913788085E9, 0.0, 2022-10-23 13:21:31.378
88.0, -84650.6830633501, -116958.87797580696, 47518.288793359854, 47519.94282244955, 61201.82558319874, 102111.26233473569, 63462.41396217513, 67689.15119041815, 0.056, 0.9500000000000001, 0.092, 192.0, 0.0, 0.0, 0.0, 0.0, 0.0, 0.0, 0.0, 0.0, 0.0, 1.6665564913788164E9, 0.0, 2022-10-23 13:21:31.378
89.0, -84648.33613018229, -116954.74290308272, 49304.70726546136, 47460.48718219843, 61177.81980965374, 102690.75366148396, 64499.892532812664, 68570.81575045774, 0.056, 0.9500000000000001, 0.092, 192.0, 0.0, 0.0, 0.0, 0.0, 0.0, 0.0, 0.0, 0.0, 0.0, 1.6665564913788245E9, 0.0, 2022-10-23 13:21:31.378
90.0, -84591.74151322145, -116900.65168150088, 47605.28178277991, 47207.82306287564, 60993.68613883092, 101918.47853880866, 63324.3472366747, 67278.59434826307, 0.056, 0.9500000000000001, 0.092, 192.0, 0.0, 0.0, 0.0, 0.0, 0.0, 0.0, 0.0, 0.0, 0.0, 1.666556491378832E9, 0.0, 2022-10-23 13:21:31.378
91.0, -84601.46452205951, -116910.21822812775, 46475.95989417552, 47355.76925942532, 61086.13295389807, 101604.12360478922, 62700.644159393814, 66815.35444442683, 0.056, 0.9500000000000001, 0.092, 192.0, 0.0, 0.0, 0.0, 0.0, 0.0, 0.0, 0.0, 0.0, 0.0, 1.6665564913788412E9, 0.0, 2022-10-23 13:21:31.378
92.0, -84639.75306031144, -116947.52328962366, 47176.46356540485, 47495.86999367118, 61184.368870779144, 101973.55323714654, 63235.90138386505, 67463.84560630866, 0.056, 0.9500000000000001, 0.092, 192.0, 0.0, 0.0, 0.0, 0.0, 0.0, 0.0, 0.0, 0.0, 0.0, 1.666556491378849E9, 0.0, 2022-10-23 13:21:31.378
93.0, -84662.90946756715, -116966.43286543286, 49223.41397087741, 47517.93116544857, 61213.71671124896, 102697.01214993146, 64476.64671857914, 68589.97119545593, 0.056, 0.9500000000000001, 0.092, 192.0, 0.0, 0.0, 0.0, 0.0, 0.0, 0.0, 0.0, 0.0, 0.0, 1.666556491378857E9, 0.0, 2022-10-23 13:21:31.378
94.0, -84602.33624009327, -116913.43687932931, 48042.43720083681, 47213.276888522734, 61000.570476123154, 102084.90962802287, 63601.66533013169, 67543.77544448084, 0.056, 0.9500000000000001, 0.092, 192.0, 0.0, 0.0, 0.0, 0.0, 0.0, 0.0, 0.0, 0.0, 0.0, 1.6665564913788722E9, 0.0, 2022-10-23 13:21:31.378
95.0, -84610.87460647519, -116925.66328354637, 46493.841289739765, 47320.63231714157, 61059.5120262518, 101566.1703427041, 62679.07472599444, 66761.1067606338, 0.056, 0.9580000000000001, 0.1, 192.0, 1.0, 192.0, 29.0, 240.0, 3.0, 32.0, 0.0, 0.0, 0.0, 1.6665564913788812E9, 0.0, 2022-10-23 13:21:31.378
96.0, -84630.0300514734, -116946.87508903445, 46893.311666645015, 47465.29280725632, 61173.260053784856, 101846.48356991811, 63043.832843760596, 67264.5798044896, 0.056, 0.9580000000000001, 0.1, 192.0, 0.0, 0.0, 0.0, 0.0, 0.0, 0.0, 0.0, 0.0, 0.0, 1.6665564913788898E9, 0.0, 2022-10-23 13:21:31.378
97.0, -84651.1748017281, -116964.08593226505, 48975.04138649004, 47573.34113995328, 61247.5572523543, 102632.61677415571, 64348.34770540568, 68505.74982234834, 0.056, 0.9580000000000001, 0.1, 192.0, 0.0, 0.0, 0.0, 0.0, 0.0, 0.0, 0.0, 0.0, 0.0, 1.666556491378898E9, 0.0, 2022-10-23 13:21:31.378
98.0, -84600.95043193703, -116916.87904797544, 48485.58288640772, 47259.03090942275, 61043.23995628834, 102275.21238031535, 63898.31768254253, 67854.88937555425, 0.056, 0.9580000000000001, 0.1, 192.0, 0.0, 0.0, 0.0, 0.0, 0.0, 0.0, 0.0, 0.0, 0.0, 1.6665564913789058E9, 0.0, 2022-10-23 13:21:31.378
99.0, -84599.721085992, -116912.22988512873, 46603.32013408186, 47289.94337200444, 61035.43919747343, 101588.85736332624, 62734.46234875469, 66786.74421152404, 0.056, 0.9580000000000001, 0.1, 192.0, 0.0, 0.0, 0.0, 0.0, 0.0, 0.0, 0.0, 0.0, 0.0, 1.6665564913789139E9, 0.0, 2022-10-23 13:21:31.378
100.0, -84629.3818508842, -116939.96839999777, 46677.930257073676, 47435.27441445284, 61145.58859414919, 101743.48673146806, 62892.623292520446, 67104.89894210087, 0.056, 0.9580000000000001, 0.1, 192.0, 0.0, 0.0, 0.0, 0.0, 0.0, 0.0, 0.0, 0.0, 0.0, 1.6665564913789215E9, 0.0, 2022-10-23 13:21:31.378
101.0, -84659.0873192653, -116972.28902248014, 48601.275515708396, 47577.47621267751, 61249.27833667736, 102508.87751685113, 64131.02169406673, 68326.80175623915, 0.056, 0.9580000000000001, 0.1, 192.0, 0.0, 0.0, 0.0, 0.0, 0.0, 0.0, 0.0, 0.0, 0.0, 1.6665564913789296E9, 0.0, 2022-10-23 13:21:31.378
102.0, -84608.68413551858, -116926.98203646923, 48876.29137948649, 47302.2144797104, 61074.64415724804, 102449.19835915546, 64168.01383114026, 68140.00822782615, 0.056, 0.9580000000000001, 0.1, 192.0, 0.0, 0.0, 0.0, 0.0, 0.0, 0.0, 0.0, 0.0, 0.0, 1.6665564913789375E9, 0.0, 2022-10-23 13:21:31.378
103.0, -84582.0632078723, -116898.50591403317, 46779.11660422285, 47254.4040983205, 61012.50630766229, 101637.51711100545, 62834.46405344774, 66844.03173256299, 0.056, 0.9580000000000001, 0.1, 192.0, 0.0, 0.0, 0.0, 0.0, 0.0, 0.0, 0.0, 0.0, 0.0, 1.6665564913789456E9, 0.0, 2022-10-23 13:21:31.378
104.0, -84611.88043497568, -116923.91984747886, 46545.89850257618, 47395.77888200032, 61112.373901888604, 101673.88339923423, 62797.00252974064, 66976.04113531603, 0.056, 0.9560000000000001, 0.10400000000000001, 192.0, 1.0, 192.0, 29.0, 224.0, 3.0, 64.0, 0.0, 0.0, 0.0, 1.6665564913789537E9, 0.0, 2022-10-23 13:21:31.378
105.0, -84645.4304034031, -116955.48051064975, 48182.44852810485, 47563.05933750384, 61230.61463005718, 102361.5124656573, 63884.772525402615, 68092.2201981807, 0.056, 0.9560000000000001, 0.10400000000000001, 192.0, 0.0, 0.0, 0.0, 0.0, 0.0, 0.0, 0.0, 0.0, 0.0, 1.666556491378962E9, 0.0, 2022-10-23 13:21:31.378
106.0, -84616.93192922258, -116930.08892894852, 49153.96710085477, 47353.48938149087, 61099.029910448786, 102583.0629566983, 64371.77233359485, 68364.19622471288, 0.056, 0.9560000000000001, 0.10400000000000001, 192.0, 0.0, 0.0, 0.0, 0.0, 0.0, 0.0, 0.0, 0.0, 0.0, 1.66655649137897E9, 0.0, 2022-10-23 13:21:31.378
107.0, -84574.44126301304, -116889.85578892897, 47021.56597632956, 47227.8502259076, 60986.06419397166, 101708.66271360668, 62977.492866217246, 66947.94499253572, 0.056, 0.9560000000000001, 0.10400000000000001, 192.0, 0.0, 0.0, 0.0, 0.0, 0.0, 0.0, 0.0, 0.0, 0.0, 1.6665564913789778E9, 0.0, 2022-10-23 13:21:31.378
108.0, -84598.49174004696, -116911.51462930616, 46469.61199875021, 47386.21233537344, 61098.51582032631, 101623.34610502078, 62734.395293521324, 66884.44368653819, 0.056, 0.9560000000000001, 0.10400000000000001, 192.0, 0.0, 0.0, 0.0, 0.0, 0.0, 0.0, 0.0, 0.0, 0.0, 1.6665564913789856E9, 0.0, 2022-10-23 13:21:31.378
109.0, -84634.41099338663, -116942.29298142112, 47750.612825228316, 47546.58610184027, 61212.77793798184, 102193.53910607567, 63612.79649887043, 67834.10225321082, 0.056, 0.9560000000000001, 0.10400000000000001, 192.0, 0.0, 0.0, 0.0, 0.0, 0.0, 0.0, 0.0, 0.0, 0.0, 1.6665564913789957E9, 0.0, 2022-10-23 13:21:31.378
110.0, -84624.48681884847, -116935.07336796206, 49308.57411725213, 47433.17335047405, 61158.95493733346, 102677.40967004416, 64497.54559964486, 68533.44363372847, 0.056, 0.9560000000000001, 0.10400000000000001, 192.0, 0.0, 0.0, 0.0, 0.0, 0.0, 0.0, 0.0, 0.0, 0.0, 1.666556491379011E9, 0.0, 2022-10-23 13:21:31.379
111.0, -84587.3605713082, -116898.93059717782, 47353.46702974642, 47199.03882730471, 60972.69785078739, 101817.44865387067, 63172.243615656334, 67122.08743358702, 0.056, 0.9560000000000001, 0.10400000000000001, 192.0, 0.0, 0.0, 0.0, 0.0, 0.0, 0.0, 0.0, 0.0, 0.0, 1.66655649137902E9, 0.0, 2022-10-23 13:21:31.379
112.0, -84592.1214928772, -116903.98209142472, 46441.18057980306, 47373.918875923024, 61092.97258770139, 101596.9263430746, 62696.48673492512, 66821.88115380779, 0.056, 0.9560000000000001, 0.10400000000000001, 192.0, 0.0, 0.0, 0.0, 0.0, 0.0, 0.0, 0.0, 0.0, 0.0, 1.6665564913790288E9, 0.0, 2022-10-23 13:21:31.379
113.0, -84628.46542936152, -116940.46013837578, 47352.37179426811, 47523.65321202913, 61200.931513420524, 102044.60943276995, 63362.63577492664, 67588.54598862481, 0.056, 0.9560000000000001, 0.10400000000000001, 192.0, 0.0, 0.0, 0.0, 0.0, 0.0, 0.0, 0.0, 0.0, 0.0, 1.666556491379037E9, 0.0, 2022-10-23 13:21:31.379
114.0, -84636.26618817642, -116951.32308618106, 49294.22429731182, 47501.100301873725, 61203.613722755166, 102712.39015011671, 64525.01589358043, 68604.96921598545, 0.052000000000000005, 0.9480000000000001, 0.10200000000000001, 192.0, 1.0, 160.0, 29.0, 160.0, 3.0, 48.0, 0.0, 0.0, 0.0, 1.6665564913790443E9, 0.0, 2022-10-23 13:21:31.379
115.0, -84576.8105479253, -116890.72750696272, 47770.9752644271, 47217.3449060136, 60989.461659128865, 101986.22667625269, 63447.93003176809, 67382.03822160223, 0.052000000000000005, 0.9480000000000001, 0.10200000000000001, 192.0, 0.0, 0.0, 0.0, 0.0, 0.0, 0.0, 0.0, 0.0, 0.0, 1.6665564913790529E9, 0.0, 2022-10-23 13:21:31.379
116.0, -84592.63558299966, -116904.45147805828, 46464.67226322559, 47352.50590473484, 61068.3633170561, 101585.54930514685, 62700.86767683837, 66785.58192081236, 0.052000000000000005, 0.9480000000000001, 0.10200000000000001, 192.0, 0.0, 0.0, 0.0, 0.0, 0.0, 0.0, 0.0, 0.0, 0.0, 1.6665564913790607E9, 0.0, 2022-10-23 13:21:31.379
117.0, -84626.25260666045, -116935.20747842878, 47034.84291253602, 47484.671769699075, 61169.415553738545, 101914.8575562069, 63161.470074828874, 67373.81277964269, 0.052000000000000005, 0.9480000000000001, 0.10200000000000001, 192.0, 0.0, 0.0, 0.0, 0.0, 0.0, 0.0, 0.0, 0.0, 0.0, 1.6665564913790684E9, 0.0, 2022-10-23 13:21:31.379
118.0, -84644.58103711379, -116953.31239143759, 49133.15762676688, 47544.75325879494, 61225.42902534355, 102685.00926315895, 64454.98787820195, 68572.62624175861, 0.052000000000000005, 0.9480000000000001, 0.10200000000000001, 192.0, 0.0, 0.0, 0.0, 0.0, 0.0, 0.0, 0.0, 0.0, 0.0, 1.6665564913790765E9, 0.0, 2022-10-23 13:21:31.379
119.0, -84574.55302173532, -116893.07444013053, 48225.40858094795, 47236.67916496744, 61016.48491817533, 102178.27286461269, 63752.561956949474, 67678.0200216794, 0.052000000000000005, 0.9480000000000001, 0.10200000000000001, 192.0, 0.0, 0.0, 0.0, 0.0, 0.0, 0.0, 0.0, 0.0, 0.0, 1.666556491379084E9, 0.0, 2022-10-23 13:21:31.379
120.0, -84578.08459735925, -116893.90145467538, 46532.9344907921, 47325.773218366296, 61053.588813971146, 101588.54443890387, 62728.29326728502, 66776.57416779688, 0.052000000000000005, 0.9480000000000001, 0.10200000000000001, 192.0, 0.0, 0.0, 0.0, 0.0, 0.0, 0.0, 0.0, 0.0, 0.0, 1.666556491379092E9, 0.0, 2022-10-23 13:21:31.379
121.0, -84612.59569079825, -116923.4951643342, 46787.36439792686, 47467.28211251285, 61163.69350715799, 101807.77034852152, 62995.866000159505, 67194.12710596647, 0.052000000000000005, 0.9480000000000001, 0.10200000000000001, 192.0, 0.0, 0.0, 0.0, 0.0, 0.0, 0.0, 0.0, 0.0, 0.0, 1.6665564918573437E9, 0.0, 2022-10-23 13:21:31.857
122.0, -84653.25351396245, -116963.12480725347, 48833.46543711012, 47577.18563999959, 61244.8079877863, 102594.2164771815, 64290.18846633297, 68439.76747271627, 0.052000000000000005, 0.9480000000000001, 0.10200000000000001, 192.0, 0.0, 0.0, 0.0, 0.0, 0.0, 0.0, 0.0, 0.0, 0.0, 1.6665564918574293E9, 0.0, 2022-10-23 13:21:31.857
123.0, -84586.5112050189, -116902.08219314602, 48629.10343755525, 47283.886049257046, 61046.54801446772, 102339.56305260219, 64016.06667233309, 67956.56746108145, 0.052000000000000005, 0.9480000000000001, 0.10200000000000001, 192.0, 0.0, 0.0, 0.0, 0.0, 0.0, 0.0, 0.0, 0.0, 0.0, 1.6665564918574378E9, 0.0, 2022-10-23 13:21:31.857
124.0, -84574.66478045759, -116887.6876697168, 46653.723317828575, 47301.18629946546, 61036.5567846962, 101611.87966011521, 62784.57495982349, 66803.30685416542, 0.056, 0.9520000000000001, 0.1, 192.0, 1.0, 192.0, 29.0, 192.0, 3.0, 32.0, 0.0, 0.0, 0.0, 1.666556491857446E9, 0.0, 2022-10-23 13:21:31.857
125.0, -84609.93583320807, -116915.6944055193, 46605.778825971945, 47434.98384177493, 61133.00456202085, 101717.11167301079, 62862.64960320588, 67045.15272917184, 0.056, 0.9520000000000001, 0.1, 192.0, 0.0, 0.0, 0.0, 0.0, 0.0, 0.0, 0.0, 0.0, 0.0, 1.6665564918576353E9, 0.0, 2022-10-23 13:21:31.857
126.0, -84644.96101676954, -116951.79247281462, 48448.88132201211, 47581.99126505748, 61241.008191228895, 102469.31492916524, 64066.58161480208, 68246.26842096668, 0.056, 0.9520000000000001, 0.1, 192.0, 0.0, 0.0, 0.0, 0.0, 0.0, 0.0, 0.0, 0.0, 0.0, 1.666556491857644E9, 0.0, 2022-10-23 13:21:31.857
127.0, -84595.54130977886, -116910.26293161666, 49014.89454685385, 47337.39612548306, 61088.256369621326, 102526.58009845974, 64289.94259714396, 68246.40253143341, 0.056, 0.9520000000000001, 0.1, 192.0, 0.0, 0.0, 0.0, 0.0, 0.0, 0.0, 0.0, 0.0, 0.0, 1.666556491857652E9, 0.0, 2022-10-23 13:21:31.857
128.0, -84564.94177161953, -116884.22314932624, 46902.85586152743, 47258.49446755582, 61011.38872043952, 101696.36925415626, 62934.82338605206, 66905.58843679291, 0.056, 0.9520000000000001, 0.1, 192.0, 0.0, 0.0, 0.0, 0.0, 0.0, 0.0, 0.0, 0.0, 0.0, 1.66655649185766E9, 0.0, 2022-10-23 13:21:31.857
129.0, -84586.53355676336, -116902.28335884612, 46535.90727280465, 47409.81577751825, 61114.89964901205, 101677.21380915807, 62804.40095715535, 66953.22000422717, 0.056, 0.9520000000000001, 0.1, 192.0, 0.0, 0.0, 0.0, 0.0, 0.0, 0.0, 0.0, 0.0, 0.0, 1.6665564918576682E9, 0.0, 2022-10-23 13:21:31.857
130.0, -84619.3682693682, -116926.08796669102, 48038.99503219069, 47585.72400638152, 61242.79633078532, 102327.38135187405, 63815.43741410225, 68011.61980767487, 0.056, 0.9520000000000001, 0.1, 192.0, 0.0, 0.0, 0.0, 0.0, 0.0, 0.0, 0.0, 0.0, 0.0, 1.6665564918576763E9, 0.0, 2022-10-23 13:21:31.857
131.0, -84608.30415586283, -116920.5000305772, 49253.76763984771, 47405.90422223857, 61141.07354176921, 102652.86745463223, 64462.40865736111, 68456.97831594686, 0.056, 0.9520000000000001, 0.1, 192.0, 0.0, 0.0, 0.0, 0.0, 0.0, 0.0, 0.0, 0.0, 0.0, 1.666556491857684E9, 0.0, 2022-10-23 13:21:31.857
132.0, -84580.99032413845, -116895.48842853171, 47194.970809813836, 47218.663658936464, 60988.23231318383, 101789.777194235, 63100.896847355, 67039.94477271376, 0.056, 0.9520000000000001, 0.1, 192.0, 0.0, 0.0, 0.0, 0.0, 0.0, 0.0, 0.0, 0.0, 0.0, 1.666556491857692E9, 0.0, 2022-10-23 13:21:31.857
133.0, -84591.16036786561, -116900.65168150088, 46483.917115201606, 47381.92080043803, 61089.798639988745, 101632.62207896974, 62745.81703493799, 66862.65073569426, 0.056, 0.9520000000000001, 0.1, 192.0, 0.0, 0.0, 0.0, 0.0, 0.0, 0.0, 0.0, 0.0, 0.0, 1.666556491857714E9, 0.0, 2022-10-23 13:21:31.857
134.0, -84624.08448744829, -116937.93439125233, 47611.09323633829, 47544.77561053939, 61206.76531872337, 102147.42745726436, 63534.20776536558, 67735.73222586302, 0.054, 0.9520000000000001, 0.1, 192.0, 1.0, 176.0, 29.0, 192.0, 3.0, 32.0, 0.0, 0.0, 0.0, 1.666556491857726E9, 0.0, 2022-10-23 13:21:31.857
135.0, -84620.12822867969, -116935.76627204017, 49313.55855626566, 47457.268530996866, 61158.86553035564, 102683.39993755818, 64511.58249516279, 68545.46887224542, 0.054, 0.9520000000000001, 0.1, 192.0, 0.0, 0.0, 0.0, 0.0, 0.0, 0.0, 0.0, 0.0, 0.0, 1.6665564918577373E9, 0.0, 2022-10-23 13:21:31.857
136.0, -84564.3606262637, -116880.333945791, 47516.70181950353, 47212.91926061145, 60984.566627093154, 101878.80419240048, 63280.49311405339, 67208.7674985847, 0.054, 0.9520000000000001, 0.1, 192.0, 0.0, 0.0, 0.0, 0.0, 0.0, 0.0, 0.0, 0.0, 0.0, 1.6665564918577452E9, 0.0, 2022-10-23 13:21:31.857
137.0, -84581.92909740558, -116896.85188494348, 46466.236885337465, 47366.67691071951, 61088.43518357697, 101600.61438090973, 62710.45657520969, 66805.58673209987, 0.054, 0.9520000000000001, 0.1, 192.0, 0.0, 0.0, 0.0, 0.0, 0.0, 0.0, 0.0, 0.0, 0.0, 1.6665564918577533E9, 0.0, 2022-10-23 13:21:31.857
138.0, -84619.79295251286, -116930.37950162643, 47268.575104305164, 47513.28200260187, 61196.21529534046, 102022.4812057592, 63318.714597071965, 67520.4849267584, 0.054, 0.9520000000000001, 0.1, 192.0, 0.0, 0.0, 0.0, 0.0, 0.0, 0.0, 0.0, 0.0, 0.0, 1.6665564918577611E9, 0.0, 2022-10-23 13:21:31.857
139.0, -84631.79583928536, -116941.8012430431, 49289.06104434265, 47527.83298824227, 61213.962580437976, 102732.41731314866, 64540.25978329895, 68612.01001548886, 0.054, 0.9520000000000001, 0.1, 192.0, 0.0, 0.0, 0.0, 0.0, 0.0, 0.0, 0.0, 0.0, 0.0, 1.6665564918577695E9, 0.0, 2022-10-23 13:21:31.857
140.0, -84575.62590546918, -116885.7877714381, 47981.43929021827, 47223.4469322499, 60993.820249297656, 102073.62199707294, 63586.82377181337, 67490.51123744383, 0.054, 0.9520000000000001, 0.1, 192.0, 0.0, 0.0, 0.0, 0.0, 0.0, 0.0, 0.0, 0.0, 0.0, 1.6665564918577993E9, 0.0, 2022-10-23 13:21:31.857
141.0, -84578.86690841519, -116892.91797791935, 46496.25527814094, 47339.45248597294, 61057.52272099528, 101582.01772952292, 62706.25444725209, 66758.04457164342, 0.054, 0.9520000000000001, 0.1, 192.0, 0.0, 0.0, 0.0, 0.0, 0.0, 0.0, 0.0, 0.0, 0.0, 1.6665564918578072E9, 0.0, 2022-10-23 13:21:31.857
142.0, -84613.04272568735, -116926.04326320211, 46914.47876864419, 47476.24516203942, 61159.491379200386, 101850.41747694224, 63067.033954505205, 67262.74696144425, 0.054, 0.9520000000000001, 0.1, 192.0, 0.0, 0.0, 0.0, 0.0, 0.0, 0.0, 0.0, 0.0, 0.0, 1.666556491857815E9, 0.0, 2022-10-23 13:21:31.857
143.0, -84635.30506316484, -116947.61269660149, 49004.23276474867, 47571.351834696754, 61234.03444695884, 102631.54389042186, 64367.52550214833, 68492.22701695288, 0.046, 0.9520000000000001, 0.106, 192.0, 1.0, 112.0, 29.0, 192.0, 3.0, 80.0, 0.0, 0.0, 0.0, 1.6665564918578231E9, 0.0, 2022-10-23 13:21:31.857
144.0, -84587.20410909702, -116901.56810302354, 48355.22751274437, 47255.87931345455, 61021.04467404422, 102211.68872257338, 63815.37035886889, 67745.65640040117, 0.046, 0.9520000000000001, 0.106, 192.0, 0.0, 0.0, 0.0, 0.0, 0.0, 0.0, 0.0, 0.0, 0.0, 1.6665564918578322E9, 0.0, 2022-10-23 13:21:31.857
145.0, -84593.79787371134, -116905.92669319233, 46549.09480203329, 47308.5176716468, 61037.96494459688, 101575.75924107543, 62710.72479614316, 66746.53342324894, 0.046, 0.9520000000000001, 0.106, 192.0, 0.0, 0.0, 0.0, 0.0, 0.0, 0.0, 0.0, 0.0, 0.0, 1.66655649185784E9, 0.0, 2022-10-23 13:21:31.857
146.0, -84611.00871694193, -116924.18806841232, 46677.013835551006, 47457.827324608246, 61149.81307385124, 101750.05814433792, 62901.92161821385, 67096.85231409696, 0.046, 0.9520000000000001, 0.106, 192.0, 0.0, 0.0, 0.0, 0.0, 0.0, 0.0, 0.0, 0.0, 0.0, 1.666556491857848E9, 0.0, 2022-10-23 13:21:31.857
147.0, -84645.85508654774, -116954.69819959381, 48646.135466830194, 47595.268201263934, 61250.21710994448, 102526.200118804, 64165.97982239483, 68334.7813290097, 0.046, 0.9520000000000001, 0.106, 192.0, 0.0, 0.0, 0.0, 0.0, 0.0, 0.0, 0.0, 0.0, 0.0, 1.6665564918578556E9, 0.0, 2022-10-23 13:21:31.857
148.0, -84591.47329228799, -116904.18325712482, 48721.7514183225, 47312.22806122638, 61057.8132936732, 102375.03527105275, 64066.00046944624, 68024.78498515904, 0.046, 0.9520000000000001, 0.106, 192.0, 0.0, 0.0, 0.0, 0.0, 0.0, 0.0, 0.0, 0.0, 0.0, 1.6665564918578637E9, 0.0, 2022-10-23 13:21:31.857
149.0, -84585.34891430724, -116895.80135295408, 46629.49402683903, 47287.819956281186, 61014.920296063465, 101573.05467999633, 62735.22230806617, 66760.95029842261, 0.046, 0.9520000000000001, 0.106, 192.0, 0.0, 0.0, 0.0, 0.0, 0.0, 0.0, 0.0, 0.0, 0.0, 1.6665564918578713E9, 0.0, 2022-10-23 13:21:31.857
150.0, -84628.95716773954, -116933.19582142781, 46476.18341162007, 47427.02662074884, 61124.44384389447, 101651.95633792358, 62751.740247218644, 66951.92360304875, 0.046, 0.9520000000000001, 0.106, 192.0, 0.0, 0.0, 0.0, 0.0, 0.0, 0.0, 0.0, 0.0, 0.0, 1.6665564918578792E9, 0.0, 2022-10-23 13:21:31.857
151.0, -84645.09512723627, -116948.73028382425, 48209.04710400666, 47595.55877394185, 61248.67483957706, 102388.33455900366, 63905.40318553486, 68121.99272179518, 0.046, 0.9520000000000001, 0.106, 192.0, 0.0, 0.0, 0.0, 0.0, 0.0, 0.0, 0.0, 0.0, 0.0, 1.666556491857887E9, 0.0, 2022-10-23 13:21:31.857
152.0, -84608.43826632957, -116919.51655382116, 49038.00625062064, 47370.856686932646, 61109.155250687036, 102551.59170050523, 64300.31380657123, 68300.96313964881, 0.046, 0.9520000000000001, 0.106, 192.0, 0.0, 0.0, 0.0, 0.0, 0.0, 0.0, 0.0, 0.0, 0.0, 1.666556491857895E9, 0.0, 2022-10-23 13:21:31.857
153.0, -84571.53553623386, -116885.7430679492, 46893.602239322936, 47259.36618558958, 61001.44219415691, 101684.45577436159, 62905.07321418205, 66900.13461114581, 0.054, 0.9460000000000001, 0.1, 192.0, 1.0, 176.0, 29.0, 144.0, 3.0, 32.0, 0.0, 0.0, 0.0, 1.6665564918579025E9, 0.0, 2022-10-23 13:21:31.857
154.0, -84608.1700453961, -116919.62831254344, 46424.75204762841, 47414.48729210941, 61111.85981176613, 101640.60165174027, 62719.307866013994, 66888.77992496251, 0.054, 0.9460000000000001, 0.1, 192.0, 0.0, 0.0, 0.0, 0.0, 0.0, 0.0, 0.0, 0.0, 0.0, 1.666556491857911E9, 0.0, 2022-10-23 13:21:31.857
155.0, -84644.60338885825, -116952.64183910393, 47783.40283434425, 47568.44610791756, 61215.59425778321, 102238.28729847519, 63648.58164174338, 67873.10604728533, 0.054, 0.9460000000000001, 0.1, 192.0, 0.0, 0.0, 0.0, 0.0, 0.0, 0.0, 0.0, 0.0, 0.0, 1.6665564918579223E9, 0.0, 2022-10-23 13:21:31.857
156.0, -84625.80557177134, -116935.25218191769, 49230.9688605033, 47437.71075459847, 61149.18722500649, 102672.87226591972, 64461.26871839389, 68494.30572918722, 0.054, 0.9460000000000001, 0.1, 192.0, 0.0, 0.0, 0.0, 0.0, 0.0, 0.0, 0.0, 0.0, 0.0, 1.6665564918579383E9, 0.0, 2022-10-23 13:21:31.857
157.0, -84576.5646787363, -116888.13470460591, 47220.60826070407, 47232.76760968776, 60985.415993382456, 101804.57404906441, 63109.65873118147, 67075.14877023087, 0.054, 0.9460000000000001, 0.1, 192.0, 0.0, 0.0, 0.0, 0.0, 0.0, 0.0, 0.0, 0.0, 0.0, 1.6665564918579464E9, 0.0, 2022-10-23 13:21:31.857
158.0, -84605.53253955038, -116911.2464083727, 46360.33432010822, 47385.1841551285, 61094.80543074673, 101591.60662789425, 62659.44989436268, 66808.42540364568, 0.054, 0.9460000000000001, 0.1, 192.0, 0.0, 0.0, 0.0, 0.0, 0.0, 0.0, 0.0, 0.0, 0.0, 1.666556491857954E9, 0.0, 2022-10-23 13:21:31.857
159.0, -84637.56258935483, -116941.51067036518, 47373.717710222925, 47534.53851157886, 61212.21914437046, 102086.36249141247, 63394.19643809753, 67635.88698338115, 0.054, 0.9460000000000001, 0.1, 192.0, 0.0, 0.0, 0.0, 0.0, 0.0, 0.0, 0.0, 0.0, 0.0, 1.666556491857962E9, 0.0, 2022-10-23 13:21:31.857
160.0, -84627.14667643866, -116929.39602487041, 49272.94543659037, 47503.1119588747, 61207.92760943504, 102738.47463589605, 64525.79820463636, 68606.35502414168, 0.054, 0.9460000000000001, 0.1, 192.0, 0.0, 0.0, 0.0, 0.0, 0.0, 0.0, 0.0, 0.0, 0.0, 1.66655649185797E9, 0.0, 2022-10-23 13:21:31.857
161.0, -84564.02535009687, -116870.52152997513, 47643.39150707621, 47232.34292654311, 61001.50924939028, 101977.44244068176, 63383.869932159185, 67330.00336051028, 0.054, 0.9460000000000001, 0.1, 192.0, 0.0, 0.0, 0.0, 0.0, 0.0, 0.0, 0.0, 0.0, 0.0, 1.6665564918579779E9, 0.0, 2022-10-23 13:21:31.857
162.0, -84577.34698979223, -116888.64879472837, 46409.99989628791, 47371.95192241096, 61085.238884119855, 101601.95548557705, 62682.8968742963, 66786.31952837939, 0.054, 0.9460000000000001, 0.1, 192.0, 0.0, 0.0, 0.0, 0.0, 0.0, 0.0, 0.0, 0.0, 0.0, 1.6665564918579855E9, 0.0, 2022-10-23 13:21:31.857
163.0, -84627.59371132776, -116939.9013447644, 47025.11990369796, 47498.82042393928, 61174.55645496327, 101933.811835505, 63162.96764170738, 67388.67668970546, 0.052000000000000005, 0.9480000000000001, 0.106, 192.0, 1.0, 160.0, 29.0, 160.0, 3.0, 80.0, 0.0, 0.0, 0.0, 1.6665564918579936E9, 0.0, 2022-10-23 13:21:31.857
164.0, -84645.60921735874, -116955.56991762757, 49092.14217569139, 47542.473380860494, 61218.09765316221, 102681.03065264592, 64427.00349414391, 68548.9780961249, 0.052000000000000005, 0.9480000000000001, 0.106, 192.0, 0.0, 0.0, 0.0, 0.0, 0.0, 0.0, 0.0, 0.0, 0.0, 1.6665564918580024E9, 0.0, 2022-10-23 13:21:31.858
165.0, -84576.92230664758, -116890.81691394055, 48037.60922403446, 47246.759801716784, 61022.07285428916, 102123.30992499708, 63634.142414825255, 67578.8453315312, 0.052000000000000005, 0.9480000000000001, 0.106, 192.0, 0.0, 0.0, 0.0, 0.0, 0.0, 0.0, 0.0, 0.0, 0.0, 1.66655649185801E9, 0.0, 2022-10-23 13:21:31.858
166.0, -84589.8639666872, -116903.46800130224, 46433.08924831024, 47337.77610513879, 61063.155360598015, 101580.85543881124, 62676.034888748516, 66748.63448722774, 0.052000000000000005, 0.9480000000000001, 0.106, 192.0, 0.0, 0.0, 0.0, 0.0, 0.0, 0.0, 0.0, 0.0, 0.0, 1.6665564918580177E9, 0.0, 2022-10-23 13:21:31.858
167.0, -84622.09518219176, -116931.49708884921, 46754.99907195557, 47476.37927250615, 61167.85093162667, 101825.51763361903, 62989.04871810064, 67202.33019618156, 0.052000000000000005, 0.9480000000000001, 0.106, 192.0, 0.0, 0.0, 0.0, 0.0, 0.0, 0.0, 0.0, 0.0, 0.0, 1.6665564918580256E9, 0.0, 2022-10-23 13:21:31.858
168.0, -84651.7335953395, -116955.9051937944, 48833.3760301323, 47592.13895704019, 61257.50377863691, 102623.18433799558, 64305.20883860694, 68458.72175201437, 0.052000000000000005, 0.9480000000000001, 0.106, 192.0, 0.0, 0.0, 0.0, 0.0, 0.0, 0.0, 0.0, 0.0, 0.0, 1.6665564918580337E9, 0.0, 2022-10-23 13:21:31.858
169.0, -84589.05930388681, -116901.05401290108, 48501.65379067109, 47283.86369751259, 61058.01445937329, 102330.37648563106, 63960.254366428184, 67896.19539930766, 0.052000000000000005, 0.9480000000000001, 0.106, 192.0, 0.0, 0.0, 0.0, 0.0, 0.0, 0.0, 0.0, 0.0, 0.0, 1.6665564918580415E9, 0.0, 2022-10-23 13:21:31.858
170.0, -84567.75809142091, -116878.74697193468, 46563.77989814042, 47314.150311249534, 61047.419732501476, 101613.75720664946, 62755.27182284258, 66778.02703118647, 0.052000000000000005, 0.9480000000000001, 0.106, 192.0, 0.0, 0.0, 0.0, 0.0, 0.0, 0.0, 0.0, 0.0, 0.0, 1.6665564918580494E9, 0.0, 2022-10-23 13:21:31.858
171.0, -84605.17491163909, -116912.38634733993, 46583.471785005546, 47454.36280421768, 61152.74115237489, 101741.43037097817, 62877.580568502024, 67063.77173230311, 0.052000000000000005, 0.9480000000000001, 0.106, 192.0, 0.0, 0.0, 0.0, 0.0, 0.0, 0.0, 0.0, 0.0, 0.0, 1.6665564918580656E9, 0.0, 2022-10-23 13:21:31.858
172.0, -84639.95422601154, -116945.91396402288, 48454.71512731494, 47601.45963447805, 61256.6097088587, 102484.91644679505, 64087.7263650568, 68266.63086016546, 0.058, 0.9500000000000001, 0.10400000000000001, 192.0, 1.0, 208.0, 29.0, 176.0, 3.0, 64.0, 0.0, 0.0, 0.0, 1.6665564918580737E9, 0.0, 2022-10-23 13:21:31.858
173.0, -84608.66178377412, -116922.33287362252, 48874.07855678542, 47333.19399752546, 61091.877352223084, 102483.70945259446, 64218.46171837589, 68172.12768460842, 0.058, 0.9500000000000001, 0.10400000000000001, 192.0, 0.0, 0.0, 0.0, 0.0, 0.0, 0.0, 0.0, 0.0, 0.0, 1.6665564918580823E9, 0.0, 2022-10-23 13:21:31.858
174.0, -84578.19635608153, -116889.81108544006, 46752.89800797677, 47268.709214771894, 61015.88142107504, 101655.57732052534, 62859.185082815304, 66842.51181394003, 0.058, 0.9500000000000001, 0.10400000000000001, 192.0, 0.0, 0.0, 0.0, 0.0, 0.0, 0.0, 0.0, 0.0, 0.0, 1.66655649185809E9, 0.0, 2022-10-23 13:21:31.858
175.0, -84613.37800185419, -116919.6953677768, 46476.27281859789, 47415.62723107663, 61125.00263750585, 101681.41593711567, 62797.38250939638, 66951.81184432648, 0.058, 0.9500000000000001, 0.10400000000000001, 192.0, 0.0, 0.0, 0.0, 0.0, 0.0, 0.0, 0.0, 0.0, 0.0, 1.6665564918580978E9, 0.0, 2022-10-23 13:21:31.858
176.0, -84637.87551377721, -116939.14138545292, 48048.2933578841, 47590.21670701703, 61239.197699928016, 102345.7544858163, 63846.84161506196, 68036.76552018708, 0.058, 0.9500000000000001, 0.10400000000000001, 192.0, 0.0, 0.0, 0.0, 0.0, 0.0, 0.0, 0.0, 0.0, 0.0, 1.6665564918581061E9, 0.0, 2022-10-23 13:21:31.858
177.0, -84603.76675173841, -116911.91696070635, 49124.23928072921, 47411.80508277477, 61132.713989342934, 102607.85104129923, 64400.6507874311, 68388.76079186927, 0.058, 0.9500000000000001, 0.10400000000000001, 192.0, 0.0, 0.0, 0.0, 0.0, 0.0, 0.0, 0.0, 0.0, 0.0, 1.666556491858114E9, 0.0, 2022-10-23 13:21:31.858
178.0, -84573.0107513679, -116881.65269871386, 47023.912909497376, 47259.67911001195, 61007.87949656004, 101743.19615879013, 63020.36351208252, 66978.36571673938, 0.058, 0.9500000000000001, 0.10400000000000001, 192.0, 0.0, 0.0, 0.0, 0.0, 0.0, 0.0, 0.0, 0.0, 0.0, 1.666556491858122E9, 0.0, 2022-10-23 13:21:31.858
179.0, -84603.90086220513, -116904.02679491363, 46411.02807653285, 47406.66418155005, 61104.61784656261, 101635.55015749337, 62738.038627867536, 66871.56908173193, 0.058, 0.9500000000000001, 0.10400000000000001, 192.0, 0.0, 0.0, 0.0, 0.0, 0.0, 0.0, 0.0, 0.0, 0.0, 1.6665564918581295E9, 0.0, 2022-10-23 13:21:31.858
180.0, -84644.98336851399, -116949.1996704578, 47631.52273077044, 47562.16526772562, 61213.604952526686, 102188.84523974005, 63587.49432414703, 67792.93033992415, 0.058, 0.9500000000000001, 0.10400000000000001, 192.0, 0.0, 0.0, 0.0, 0.0, 0.0, 0.0, 0.0, 0.0, 0.0, 1.6665564918581376E9, 0.0, 2022-10-23 13:21:31.858
181.0, -84630.6782520626, -116943.03058898814, 49270.82202086711, 47464.3540339892, 61160.13957978959, 102703.51650756795, 64525.3288180028, 68551.70500894845, 0.058, 0.9500000000000001, 0.10400000000000001, 192.0, 0.0, 0.0, 0.0, 0.0, 0.0, 0.0, 0.0, 0.0, 0.0, 1.6665564918581457E9, 0.0, 2022-10-23 13:21:31.858
182.0, -84569.63563795516, -116881.5856434805, 47375.61760850163, 47236.96973764536, 60985.147772448996, 101860.25224450258, 63229.508784950835, 67168.02026844266, 0.06, 0.9500000000000001, 0.098, 192.0, 1.0, 224.0, 29.0, 176.0, 3.0, 16.0, 0.0, 0.0, 0.0, 1.666556491858153E9, 0.0, 2022-10-23 13:21:31.858
183.0, -84599.76578948091, -116901.92573093483, 46395.31480018077, 47388.31339935224, 61094.98424470237, 101606.80581412386, 62706.52266818556, 66814.79565081545, 0.06, 0.9500000000000001, 0.098, 192.0, 0.0, 0.0, 0.0, 0.0, 0.0, 0.0, 0.0, 0.0, 0.0, 1.6665564918581617E9, 0.0, 2022-10-23 13:21:31.858
184.0, -84636.24383643197, -116940.41543488688, 47257.01925242177, 47527.69887777554, 61194.53891450631, 102040.76493272364, 63346.09548402971, 67550.68213351752, 0.06, 0.9500000000000001, 0.098, 192.0, 0.0, 0.0, 0.0, 0.0, 0.0, 0.0, 0.0, 0.0, 0.0, 1.6665564918581696E9, 0.0, 2022-10-23 13:21:31.858
185.0, -84644.73749932498, -116958.56505138458, 49249.90078805695, 47522.289755617356, 61200.931513420524, 102733.8478247938, 64542.36084727775, 68606.95852124198, 0.06, 0.9500000000000001, 0.098, 192.0, 0.0, 0.0, 0.0, 0.0, 0.0, 0.0, 0.0, 0.0, 0.0, 1.6665564918581774E9, 0.0, 2022-10-23 13:21:31.858
186.0, -84576.40821652512, -116894.34848956448, 47846.32299498594, 47244.56933076016, 61003.029168013236, 102052.32078460703, 63538.074617156344, 67446.61241133361, 0.06, 0.9500000000000001, 0.098, 192.0, 0.0, 0.0, 0.0, 0.0, 0.0, 0.0, 0.0, 0.0, 0.0, 1.6665564918581853E9, 0.0, 2022-10-23 13:21:31.858
187.0, -84589.10400737572, -116903.06566990206, 46440.934710614056, 47367.05689037525, 61070.352622312625, 101593.75239536195, 62712.28941825502, 66773.55668229541, 0.06, 0.9500000000000001, 0.098, 192.0, 0.0, 0.0, 0.0, 0.0, 0.0, 0.0, 0.0, 0.0, 0.0, 1.666556491858201E9, 0.0, 2022-10-23 13:21:31.858
188.0, -84644.91631328063, -116959.0567897626, 46931.980184552696, 47479.843792896725, 61154.2834227423, 101882.73809942462, 63119.56055397518, 67313.35131089107, 0.06, 0.9500000000000001, 0.098, 192.0, 0.0, 0.0, 0.0, 0.0, 0.0, 0.0, 0.0, 0.0, 0.0, 1.666556491858209E9, 0.0, 2022-10-23 13:21:31.858
189.0, -84655.51104015244, -116973.20544400282, 49058.90513168635, 47562.56759912582, 61223.7526445094, 102676.85087643277, 64444.884889708155, 68546.07236934571, 0.06, 0.9500000000000001, 0.098, 192.0, 0.0, 0.0, 0.0, 0.0, 0.0, 0.0, 0.0, 0.0, 0.0, 1.6665564918582168E9, 0.0, 2022-10-23 13:21:31.858
190.0, -84583.44901602853, -116900.04818440058, 48287.166450877965, 47264.462383325386, 61024.33038047915, 102221.21056571133, 63821.226515916176, 67727.39502518118, 0.06, 0.9500000000000001, 0.098, 192.0, 0.0, 0.0, 0.0, 0.0, 0.0, 0.0, 0.0, 0.0, 0.0, 1.6665564918582263E9, 0.0, 2022-10-23 13:21:31.858
191.0, -84584.00780963991, -116897.65654774387, 46529.53702563489, 47345.7780296538, 61054.30406979371, 101603.36364547773, 62748.23102333916, 66779.59165329834, 0.06, 0.9500000000000001, 0.098, 192.0, 0.0, 0.0, 0.0, 0.0, 0.0, 0.0, 0.0, 0.0, 0.0, 1.666556491858234E9, 0.0, 2022-10-23 13:21:31.858
192.0, -84620.79878101335, -116935.81097552908, 46733.273176345014, 47480.53669697484, 61159.20080652247, 101806.36218862084, 62987.32763377758, 67169.67429753236, 0.062, 0.9440000000000001, 0.096, 192.0, 1.0, 240.0, 29.0, 128.0, 3.0, 0.0, 0.0, 0.0, 0.0, 1.6665564918582418E9, 0.0, 2022-10-23 13:21:31.858
193.0, -84648.87257204922, -116962.96834504227, 48734.35780219529, 47600.230288533014, 61241.566984840276, 102577.6091310512, 64254.49273043785, 68397.45562046238, 0.062, 0.9440000000000001, 0.096, 192.0, 0.0, 0.0, 0.0, 0.0, 0.0, 0.0, 0.0, 0.0, 0.0, 1.66655649185825E9, 0.0, 2022-10-23 13:21:31.858
194.0, -84601.84450171526, -116921.7517282667, 48673.35989157676, 47307.17656697948, 61050.99601161433, 102377.78453562075, 64069.71085902582, 68000.13101102485, 0.062, 0.9440000000000001, 0.096, 192.0, 0.0, 0.0, 0.0, 0.0, 0.0, 0.0, 0.0, 0.0, 0.0, 1.666556491858258E9, 0.0, 2022-10-23 13:21:31.858
195.0, -84571.82610891177, -116886.95006214977, 46668.38606219126, 47320.945241563946, 61045.251613289314, 101641.31690756285, 62817.20850672824, 66815.68972059367, 0.062, 0.9440000000000001, 0.096, 192.0, 0.0, 0.0, 0.0, 0.0, 0.0, 0.0, 0.0, 0.0, 0.0, 1.6665564918582656E9, 0.0, 2022-10-23 13:21:31.858
196.0, -84598.82701621378, -116910.48644906122, 46577.034482602416, 47472.1547928041, 61163.04530656878, 101745.61014719131, 62870.40565853187, 67040.01182794712, 0.062, 0.9440000000000001, 0.096, 192.0, 0.0, 0.0, 0.0, 0.0, 0.0, 0.0, 0.0, 0.0, 0.0, 1.6665564918582735E9, 0.0, 2022-10-23 13:21:31.858
197.0, -84637.89786552166, -116948.64087684643, 48327.354887408605, 47618.13403584171, 61264.18695022905, 102458.40727787105, 64011.797489142125, 68194.68059476383, 0.062, 0.9440000000000001, 0.096, 192.0, 0.0, 0.0, 0.0, 0.0, 0.0, 0.0, 0.0, 0.0, 0.0, 1.666556491858282E9, 0.0, 2022-10-23 13:21:31.858
198.0, -84620.55291182434, -116938.850812775, 49026.49510222615, 47365.04523337427, 61108.68586405348, 102567.37203209067, 64321.59266729268, 68284.10992432952, 0.062, 0.9440000000000001, 0.096, 192.0, 0.0, 0.0, 0.0, 0.0, 0.0, 0.0, 0.0, 0.0, 0.0, 1.66655649185829E9, 0.0, 2022-10-23 13:21:31.858
199.0, -84578.75514969292, -116899.48939078921, 46880.168840905295, 47276.08529044215, 61011.634589628535, 101708.75212058451, 62931.69414182832, 66901.92275070223, 0.062, 0.9440000000000001, 0.096, 192.0, 0.0, 0.0, 0.0, 0.0, 0.0, 0.0, 0.0, 0.0, 0.0, 1.6665564918582978E9, 0.0, 2022-10-23 13:21:31.858
200.0, -84595.9659929235, -116911.78285023963, 46445.31565252729, 47440.705888355486, 61131.81991956472, 101667.98253869802, 62759.7645234781, 66917.09958518739, 0.062, 0.9440000000000001, 0.096, 192.0, 0.0, 0.0, 0.0, 0.0, 0.0, 0.0, 0.0, 0.0, 0.0, 1.6665564918583057E9, 0.0, 2022-10-23 13:21:31.858
201.0, -84646.57034237032, -116957.46981590627, 47876.43079476724, 47589.14382328318, 61233.810929514286, 102287.61759848805, 63728.62323863784, 67940.31774286243, 0.062, 0.9440000000000001, 0.096, 192.0, 0.0, 0.0, 0.0, 0.0, 0.0, 0.0, 0.0, 0.0, 0.0, 1.666556491858313E9, 0.0, 2022-10-23 13:21:31.858
202.0, -84628.39837412816, -116940.84011803153, 49217.28959289665, 47432.1451702291, 61140.20182373546, 102673.16283859764, 64464.84499750674, 68478.32423190167, 0.056, 0.9460000000000001, 0.1, 192.0, 1.0, 192.0, 29.0, 144.0, 3.0, 32.0, 0.0, 0.0, 0.0, 1.6665564918583283E9, 0.0, 2022-10-23 13:21:31.858
203.0, -84576.25175431393, -116890.07930637352, 47162.113745464536, 47252.32538608616, 60989.28284517323, 101799.85783098434, 63091.55381817267, 67049.89129899637, 0.056, 0.9460000000000001, 0.1, 192.0, 0.0, 0.0, 0.0, 0.0, 0.0, 0.0, 0.0, 0.0, 0.0, 1.666556491858337E9, 0.0, 2022-10-23 13:21:31.858
204.0, -84602.40329532663, -116916.81199274206, 46382.90958200808, 47405.01015246036, 61085.12712539758, 101622.16146256465, 62694.273912224045, 66830.84420333436, 0.056, 0.9460000000000001, 0.1, 192.0, 0.0, 0.0, 0.0, 0.0, 0.0, 0.0, 0.0, 0.0, 0.0, 1.666556491858345E9, 0.0, 2022-10-23 13:21:31.858
205.0, -84637.71905156602, -116952.46302514829, 47426.80310330428, 47563.864000304224, 61194.31539706176, 102114.16806151487, 63433.2225839165, 67668.54288203036, 0.056, 0.9460000000000001, 0.1, 192.0, 0.0, 0.0, 0.0, 0.0, 0.0, 0.0, 0.0, 0.0, 0.0, 1.6665564918583543E9, 0.0, 2022-10-23 13:21:31.858
206.0, -84639.50719112244, -116956.5086908947, 49239.686040840876, 47502.19553735203, 61177.596292209186, 102722.4931386105, 64497.88087581169, 68575.2860993488, 0.056, 0.9460000000000001, 0.1, 192.0, 0.0, 0.0, 0.0, 0.0, 0.0, 0.0, 0.0, 0.0, 0.0, 1.6665564918583627E9, 0.0, 2022-10-23 13:21:31.858
207.0, -84579.04572237084, -116902.43982105731, 47531.83395049977, 47247.00567090579, 60989.93104576243, 101950.12860895737, 63316.85940228217, 67276.29211858417, 0.056, 0.9460000000000001, 0.1, 192.0, 0.0, 0.0, 0.0, 0.0, 0.0, 0.0, 0.0, 0.0, 0.0, 1.6665564918583703E9, 0.0, 2022-10-23 13:21:31.858
208.0, -84599.09523714725, -116918.42131834285, 46400.36629442767, 47394.080149421716, 61084.09894515264, 101634.70079120407, 62690.8987988113, 66811.33113042488, 0.056, 0.9460000000000001, 0.1, 192.0, 0.0, 0.0, 0.0, 0.0, 0.0, 0.0, 0.0, 0.0, 0.0, 1.6665564918583791E9, 0.0, 2022-10-23 13:21:31.858
209.0, -84627.86193226122, -116938.44848137481, 47099.2159365673, 47523.65321202913, 61173.2377020404, 102001.49291771566, 63224.34553198166, 67460.67165859601, 0.056, 0.9460000000000001, 0.1, 192.0, 0.0, 0.0, 0.0, 0.0, 0.0, 0.0, 0.0, 0.0, 0.0, 1.666556491858387E9, 0.0, 2022-10-23 13:21:31.858
210.0, -84643.57520861331, -116952.99946701521, 49142.210083271275, 47555.415040900116, 61209.71574899146, 102727.3434671573, 64466.65548880762, 68590.57469255623, 0.056, 0.9460000000000001, 0.1, 192.0, 0.0, 0.0, 0.0, 0.0, 0.0, 0.0, 0.0, 0.0, 0.0, 1.6665564918583949E9, 0.0, 2022-10-23 13:21:31.858
211.0, -84582.8678706727, -116896.47190528773, 47960.45100217474, 47259.992034434326, 61001.285731945725, 102118.77252087266, 63594.15514399471, 67546.88233696012, 0.054, 0.9560000000000001, 0.10200000000000001, 192.0, 1.0, 176.0, 29.0, 224.0, 3.0, 48.0, 0.0, 0.0, 0.0, 1.6665564918584027E9, 0.0, 2022-10-23 13:21:31.858
212.0, -84601.06219065932, -116913.5486380516, 46411.6539253776, 47355.9257216365, 61044.04461908873, 101593.59593315076, 62667.67533632223, 66759.22921409956, 0.054, 0.9560000000000001, 0.10200000000000001, 192.0, 0.0, 0.0, 0.0, 0.0, 0.0, 0.0, 0.0, 0.0, 0.0, 1.6665564918584113E9, 0.0, 2022-10-23 13:21:31.858
213.0, -84628.95716773954, -116938.69435056382, 46793.39936892979, 47496.31702856029, 61156.74211463238, 101860.05107880248, 63015.513183535724, 67247.74894091475, 0.054, 0.9560000000000001, 0.10200000000000001, 192.0, 0.0, 0.0, 0.0, 0.0, 0.0, 0.0, 0.0, 0.0, 0.0, 1.666556491858419E9, 0.0, 2022-10-23 13:21:31.858
214.0, -84642.72584232401, -116955.97224902776, 48885.54500169099, 47593.90474485216, 61237.32015339377, 102655.70612617805, 64328.52170807382, 68497.03264201077, 0.054, 0.9560000000000001, 0.10200000000000001, 192.0, 0.0, 0.0, 0.0, 0.0, 0.0, 0.0, 0.0, 0.0, 0.0, 1.666556491858427E9, 0.0, 2022-10-23 13:21:31.858
215.0, -84578.88926015965, -116890.90632091837, 48355.33927146665, 47287.30586615871, 61026.07381654666, 102272.70898493635, 63843.935888282766, 67815.14797391272, 0.054, 0.9560000000000001, 0.10200000000000001, 192.0, 0.0, 0.0, 0.0, 0.0, 0.0, 0.0, 0.0, 0.0, 0.0, 1.666556491858435E9, 0.0, 2022-10-23 13:21:31.858
216.0, -84579.33629504875, -116891.97920465222, 46482.218382623, 47339.20661678394, 61038.14375855253, 101600.8378983543, 62688.97654878814, 66760.63737400025, 0.054, 0.9560000000000001, 0.10200000000000001, 192.0, 0.0, 0.0, 0.0, 0.0, 0.0, 0.0, 0.0, 0.0, 0.0, 1.6665564918584425E9, 0.0, 2022-10-23 13:21:31.858
217.0, -84630.79001078487, -116945.64574308941, 46560.047156816385, 47467.08094681275, 61135.39619867757, 101756.85307465233, 62848.433893732305, 67077.09337199848, 0.054, 0.9560000000000001, 0.10200000000000001, 192.0, 0.0, 0.0, 0.0, 0.0, 0.0, 0.0, 0.0, 0.0, 0.0, 1.6665564918584504E9, 0.0, 2022-10-23 13:21:31.858
218.0, -84692.07849408132, -116997.70295592582, 48493.2942382448, 47600.47615772202, 61233.676819047556, 102527.0494850933, 64095.66123433843, 68300.94078790436, 0.054, 0.9560000000000001, 0.10200000000000001, 192.0, 0.0, 0.0, 0.0, 0.0, 0.0, 0.0, 0.0, 0.0, 0.0, 1.6665564918584683E9, 0.0, 2022-10-23 13:21:31.858
219.0, -84614.13796116567, -116930.78183302663, 48771.99813985803, 47352.10357333464, 61076.20877935991, 102479.12734498113, 64139.78357789321, 68121.81390783953, 0.054, 0.9560000000000001, 0.10200000000000001, 192.0, 0.0, 0.0, 0.0, 0.0, 0.0, 0.0, 0.0, 0.0, 0.0, 1.666556491858477E9, 0.0, 2022-10-23 13:21:31.858
220.0, -84582.97962939498, -116903.44564955779, 46679.56193441891, 47314.03855252726, 61021.93874382243, 101672.22937014453, 62808.13369847938, 66832.90056382425, 0.054, 0.9560000000000001, 0.10200000000000001, 192.0, 0.0, 0.0, 0.0, 0.0, 0.0, 0.0, 0.0, 0.0, 0.0, 1.6665564918584847E9, 0.0, 2022-10-23 13:21:31.858
221.0, -84610.82990298628, -116933.68755980583, 46450.03187060737, 47454.34045247322, 61126.075521239705, 101712.90954505319, 62771.29802361703, 66970.31908873547, 0.052000000000000005, 0.9520000000000001, 0.106, 192.0, 1.0, 160.0, 29.0, 192.0, 3.0, 80.0, 0.0, 0.0, 0.0, 1.6665564918584929E9, 0.0, 2022-10-23 13:21:31.858
222.0, -84644.64809234717, -116964.46591192078, 48077.17181172035, 47617.19526257459, 61241.52228135137, 102393.9224951175, 63851.691943608756, 68079.14442767434, 0.052000000000000005, 0.9520000000000001, 0.106, 192.0, 0.0, 0.0, 0.0, 0.0, 0.0, 0.0, 0.0, 0.0, 0.0, 1.666556491858501E9, 0.0, 2022-10-23 13:21:31.858
223.0, -84618.9212344791, -116935.92273425136, 49032.55242497354, 47404.85369024917, 61111.03279722128, 102601.23492494047, 64324.16311790504, 68342.7832535247, 0.052000000000000005, 0.9520000000000001, 0.106, 192.0, 0.0, 0.0, 0.0, 0.0, 0.0, 0.0, 0.0, 0.0, 0.0, 1.6665564918585095E9, 0.0, 2022-10-23 13:21:31.858
224.0, -84575.7600159359, -116891.82274244103, 46889.64598055434, 47277.00171196481, 60998.290598188716, 101720.62089689028, 62917.09845269901, 66926.88964925881, 0.052000000000000005, 0.9520000000000001, 0.106, 192.0, 0.0, 0.0, 0.0, 0.0, 0.0, 0.0, 0.0, 0.0, 0.0, 1.6665564918585174E9, 0.0, 2022-10-23 13:21:31.858
225.0, -84607.18656864007, -116920.25416138819, 46366.123421922144, 47438.29189995431, 61120.129957214594, 101663.31102410686, 62701.29235998302, 66890.85863719686, 0.052000000000000005, 0.9520000000000001, 0.106, 192.0, 0.0, 0.0, 0.0, 0.0, 0.0, 0.0, 0.0, 0.0, 0.0, 1.6665564918585253E9, 0.0, 2022-10-23 13:21:31.858
226.0, -84658.84145007629, -116972.82546434707, 47632.21563484855, 47574.52578240941, 61210.810984469776, 102220.24944069976, 63571.356364650295, 67829.69895955312, 0.052000000000000005, 0.9520000000000001, 0.106, 192.0, 0.0, 0.0, 0.0, 0.0, 0.0, 0.0, 0.0, 0.0, 0.0, 1.666556491858533E9, 0.0, 2022-10-23 13:21:31.858
227.0, -84645.63156910319, -116961.44842641932, 49190.28868559464, 47461.202438021, 61150.41657095154, 102702.37656860072, 64457.37951485867, 68529.88970636007, 0.052000000000000005, 0.9520000000000001, 0.106, 192.0, 0.0, 0.0, 0.0, 0.0, 0.0, 0.0, 0.0, 0.0, 0.0, 1.6665564918585408E9, 0.0, 2022-10-23 13:21:31.858
228.0, -84580.87856541618, -116899.37763206693, 47257.73450824434, 47255.722851243365, 60990.89217077401, 101863.80617187098, 63154.96571719238, 67146.40613155438, 0.052000000000000005, 0.9520000000000001, 0.106, 192.0, 0.0, 0.0, 0.0, 0.0, 0.0, 0.0, 0.0, 0.0, 0.0, 1.6665564918585489E9, 0.0, 2022-10-23 13:21:31.858
229.0, -84608.86294947422, -116922.75755676717, 46344.75515422287, 47409.23463216241, 61093.486677823865, 101633.44909351457, 62674.80554280348, 66837.21445050412, 0.052000000000000005, 0.9520000000000001, 0.106, 192.0, 0.0, 0.0, 0.0, 0.0, 0.0, 0.0, 0.0, 0.0, 0.0, 1.6665564918585565E9, 0.0, 2022-10-23 13:21:31.858
230.0, -84645.51981038092, -116958.27447870666, 47249.151438373505, 47549.201255941545, 61186.98402488042, 102066.17886616933, 63330.33750418872, 67594.04451776082, 0.052000000000000005, 0.9520000000000001, 0.106, 192.0, 0.0, 0.0, 0.0, 0.0, 0.0, 0.0, 0.0, 0.0, 0.0, 1.6665564918585644E9, 0.0, 2022-10-23 13:21:31.858
231.0, -84657.09801400876, -116973.47366493627, 49180.4092145454, 47514.9136799471, 61178.89269338759, 102725.51062411198, 64483.28518668237, 68599.13541068262, 0.054, 0.9480000000000001, 0.10400000000000001, 192.0, 1.0, 176.0, 29.0, 160.0, 3.0, 64.0, 0.0, 0.0, 0.0, 1.6665564918585722E9, 0.0, 2022-10-23 13:21:31.858
232.0, -84585.8183009408, -116900.67403324533, 47686.61978085277, 47248.525589528756, 60991.58507485212, 102029.47730177372, 63437.000028729446, 67404.658186991, 0.054, 0.9480000000000001, 0.10400000000000001, 192.0, 0.0, 0.0, 0.0, 0.0, 0.0, 0.0, 0.0, 0.0, 0.0, 1.6665564918585804E9, 0.0, 2022-10-23 13:21:31.858
233.0, -84590.6686294876, -116906.03845191462, 46383.870707019654, 47385.742948739884, 61072.029003146774, 101627.1906050671, 62689.40123193279, 66810.14648796874, 0.054, 0.9480000000000001, 0.10400000000000001, 192.0, 0.0, 0.0, 0.0, 0.0, 0.0, 0.0, 0.0, 0.0, 0.0, 1.6665564918585958E9, 0.0, 2022-10-23 13:21:31.858
234.0, -84623.10101069225, -116934.98396098423, 46941.09969629046, 47521.507444561415, 61173.01418459585, 101944.60772807691, 63139.051275140206, 67386.26270130428, 0.054, 0.9480000000000001, 0.10400000000000001, 192.0, 0.0, 0.0, 0.0, 0.0, 0.0, 0.0, 0.0, 0.0, 0.0, 1.6665564918586037E9, 0.0, 2022-10-23 13:21:31.858
235.0, -84652.27003720643, -116967.19282474433, 49020.81775913451, 47580.69486387907, 61227.32892362225, 102700.32020811085, 64418.91216265108, 68574.52614003731, 0.054, 0.9480000000000001, 0.10400000000000001, 192.0, 0.0, 0.0, 0.0, 0.0, 0.0, 0.0, 0.0, 0.0, 0.0, 1.6665564918586116E9, 0.0, 2022-10-23 13:21:31.858
236.0, -84594.6695917451, -116905.54671353659, 48105.75969287869, 47275.81706950868, 61017.82602284265, 102185.89480947195, 63705.84681103788, 67675.2260536225, 0.054, 0.9480000000000001, 0.10400000000000001, 192.0, 0.0, 0.0, 0.0, 0.0, 0.0, 0.0, 0.0, 0.0, 0.0, 1.6665564918586192E9, 0.0, 2022-10-23 13:21:31.858
237.0, -84610.69579251955, -116919.4494985878, 46405.261326463384, 47353.95876812444, 61044.64811618902, 101587.69507261457, 62669.6422898343, 66763.8560252018, 0.054, 0.9480000000000001, 0.10400000000000001, 192.0, 0.0, 0.0, 0.0, 0.0, 0.0, 0.0, 0.0, 0.0, 0.0, 1.666556491858627E9, 0.0, 2022-10-23 13:21:31.858
238.0, -84636.26618817642, -116953.06652224858, 46686.89330660025, 47485.74465343293, 61151.1318267741, 101822.70131381767, 62961.265499742694, 67198.03866124614, 0.054, 0.9480000000000001, 0.10400000000000001, 192.0, 0.0, 0.0, 0.0, 0.0, 0.0, 0.0, 0.0, 0.0, 0.0, 1.6665564918586354E9, 0.0, 2022-10-23 13:21:31.858
239.0, -84661.94834255557, -116978.9051388389, 48742.58324415484, 47599.380922243705, 61232.4027696136, 102615.13770999167, 64266.674431165986, 68449.40107457651, 0.054, 0.9480000000000001, 0.10400000000000001, 192.0, 0.0, 0.0, 0.0, 0.0, 0.0, 0.0, 0.0, 0.0, 0.0, 1.666556491858644E9, 0.0, 2022-10-23 13:21:31.858
240.0, -84609.95818495253, -116924.97037946826, 48515.42246525556, 47305.276668700775, 61028.17488052546, 102341.53000611425, 63971.20672121129, 67944.54222256449, 0.06, 0.9480000000000001, 0.108, 192.0, 1.0, 224.0, 29.0, 160.0, 3.0, 96.0, 0.0, 0.0, 0.0, 1.6665564918586524E9, 0.0, 2022-10-23 13:21:31.858
241.0, -84593.77552196688, -116901.27753034563, 46513.89080451617, 47338.60311968364, 61026.69966539141, 101593.35006396176, 62714.5022409561, 66778.38465909775, 0.06, 0.9480000000000001, 0.108, 192.0, 0.0, 0.0, 0.0, 0.0, 0.0, 0.0, 0.0, 0.0, 0.0, 1.6665564923367996E9, 0.0, 2022-10-23 13:21:32.336
242.0, -84615.70258327754, -116922.24346664471, 46495.96470546302, 47488.89624940113, 61156.36213497665, 101725.20300450361, 62823.55640215355, 67055.63569732138, 0.06, 0.9480000000000001, 0.108, 192.0, 0.0, 0.0, 0.0, 0.0, 0.0, 0.0, 0.0, 0.0, 0.0, 1.66655649233685E9, 0.0, 2022-10-23 13:21:32.336
243.0, -84657.56740064234, -116966.27640322167, 48345.728021350864, 47620.436265520606, 61254.19572045752, 102476.66865309104, 64035.15506209792, 68262.78636011915, 0.06, 0.9480000000000001, 0.108, 192.0, 0.0, 0.0, 0.0, 0.0, 0.0, 0.0, 0.0, 0.0, 0.0, 1.6665564923368764E9, 0.0, 2022-10-23 13:21:32.336
244.0, -84613.98149895448, -116927.74199578071, 48906.756807179074, 47368.822678187214, 61088.27872136578, 102523.51790946936, 64254.87271009359, 68256.37140946048, 0.06, 0.9480000000000001, 0.108, 192.0, 0.0, 0.0, 0.0, 0.0, 0.0, 0.0, 0.0, 0.0, 0.0, 1.6665564923369002E9, 0.0, 2022-10-23 13:21:32.336
245.0, -84589.8192631983, -116906.41843157035, 46764.185638926705, 47292.02208423878, 61006.02430177025, 101668.94366370961, 62871.34443179899, 66890.7915819635, 0.06, 0.9480000000000001, 0.108, 192.0, 0.0, 0.0, 0.0, 0.0, 0.0, 0.0, 0.0, 0.0, 0.0, 1.666556492336908E9, 0.0, 2022-10-23 13:21:32.336
246.0, -84629.4265543731, -116941.64478083192, 46408.94936429851, 47436.41435342006, 61114.72083505641, 101659.6453380162, 62750.980287907165, 66948.72730359164, 0.06, 0.9480000000000001, 0.108, 192.0, 0.0, 0.0, 0.0, 0.0, 0.0, 0.0, 0.0, 0.0, 0.0, 1.6665564923369164E9, 0.0, 2022-10-23 13:21:32.336
247.0, -84650.01251101644, -116960.0626182631, 47911.880661473355, 47615.988268374, 61246.43966513153, 102308.71764525386, 63759.692163430715, 68008.6023221734, 0.06, 0.9480000000000001, 0.108, 192.0, 0.0, 0.0, 0.0, 0.0, 0.0, 0.0, 0.0, 0.0, 0.0, 1.6665564923369243E9, 0.0, 2022-10-23 13:21:32.336
248.0, -84627.37019388321, -116942.96353375478, 49174.26248482019, 47445.645623880104, 61156.138617532095, 102671.24058857448, 64451.657468278114, 68491.91409253051, 0.06, 0.9480000000000001, 0.108, 192.0, 0.0, 0.0, 0.0, 0.0, 0.0, 0.0, 0.0, 0.0, 0.0, 1.666556492336981E9, 0.0, 2022-10-23 13:21:32.336
249.0, -84592.45676904402, -116907.58072228203, 47091.25871554121, 47266.02700543726, 60994.915484775964, 101789.88895295728, 63064.172931214925, 67055.56864208802, 0.06, 0.9480000000000001, 0.108, 192.0, 0.0, 0.0, 0.0, 0.0, 0.0, 0.0, 0.0, 0.0, 0.0, 1.6665564923369894E9, 0.0, 2022-10-23 13:21:32.336
250.0, -84626.36436538272, -116932.90524874988, 46373.812422014766, 47420.209338689965, 61095.96772145841, 101627.16825332264, 62700.13006927134, 66874.31834629993, 0.06, 0.9520000000000001, 0.10400000000000001, 192.0, 1.0, 224.0, 29.0, 192.0, 3.0, 64.0, 0.0, 0.0, 0.0, 1.6665564923369975E9, 0.0, 2022-10-23 13:21:32.336
251.0, -84660.09314776577, -116961.69429560832, 47512.05265665682, 47582.058320290846, 61218.94701945151, 102155.87641666847, 63499.47315448203, 67755.15589179467, 0.06, 0.9520000000000001, 0.10400000000000001, 192.0, 0.0, 0.0, 0.0, 0.0, 0.0, 0.0, 0.0, 0.0, 0.0, 1.6665564923370073E9, 0.0, 2022-10-23 13:21:32.337
252.0, -84639.26132193343, -116953.24533620421, 49245.542197888164, 47503.000200152426, 61183.27363530084, 102721.08497870983, 64509.3249689728, 68592.18401815702, 0.06, 0.9520000000000001, 0.10400000000000001, 192.0, 0.0, 0.0, 0.0, 0.0, 0.0, 0.0, 0.0, 0.0, 0.0, 1.6665564923370156E9, 0.0, 2022-10-23 13:21:32.337
253.0, -84585.63948698515, -116901.05401290108, 47432.659260351575, 47253.59943552011, 60990.89217077401, 101900.88771592233, 63261.09179986618, 67239.18822278836, 0.06, 0.9520000000000001, 0.10400000000000001, 192.0, 0.0, 0.0, 0.0, 0.0, 0.0, 0.0, 0.0, 0.0, 0.0, 1.6665564923370235E9, 0.0, 2022-10-23 13:21:32.337
254.0, -84624.79974327085, -116936.19095518482, 46367.106898678176, 47388.08988190769, 61078.06397414971, 101603.87773560021, 62674.31380442546, 66816.38262467178, 0.06, 0.9520000000000001, 0.10400000000000001, 192.0, 0.0, 0.0, 0.0, 0.0, 0.0, 0.0, 0.0, 0.0, 0.0, 1.6665564923370318E9, 0.0, 2022-10-23 13:21:32.337
255.0, -84647.50911563744, -116961.7613508417, 47138.21973064182, 47533.4209243561, 61177.41747825355, 102000.35297874844, 63252.24050906188, 67506.71625217394, 0.06, 0.9520000000000001, 0.10400000000000001, 192.0, 0.0, 0.0, 0.0, 0.0, 0.0, 0.0, 0.0, 0.0, 0.0, 1.66655649233704E9, 0.0, 2022-10-23 13:21:32.337
0.0, -84648.31377843783, -116964.01887703167, 49160.0020718577, 47553.40338389914, 61209.22401061345, 102718.20160367509, 64475.775000545385, 68606.17621018604, 0.06, 0.9520000000000001, 0.10400000000000001, 192.0, 0.0, 0.0, 0.0, 0.0, 0.0, 0.0, 0.0, 0.0, 0.0, 1.666556492337048E9, 0.0, 2022-10-23 13:21:32.337
1.0, -84591.74151322145, -116909.25710311618, 47881.839916925426, 47252.68301399744, 61002.4480226574, 102087.48007863523, 63549.60811729528, 67511.09719408718, 0.06, 0.9520000000000001, 0.10400000000000001, 192.0, 0.0, 0.0, 0.0, 0.0, 0.0, 0.0, 0.0, 0.0, 0.0, 1.6665564923370557E9, 0.0, 2022-10-23 13:21:32.337
2.0, -84603.54323429386, -116921.84113524451, 46444.53334147136, 47365.335806052186, 61057.67918320646, 101624.62015445474, 62705.22626700715, 66803.01628148751, 0.06, 0.9520000000000001, 0.10400000000000001, 192.0, 0.0, 0.0, 0.0, 0.0, 0.0, 0.0, 0.0, 0.0, 0.0, 1.6665564923370638E9, 0.0, 2022-10-23 13:21:32.337
3.0, -84637.20496144354, -116945.93631576734, 46890.00360846563, 47503.1119588747, 61158.70906814445, 101904.91102992429, 63083.8424663356, 67319.05100572717, 0.06, 0.9520000000000001, 0.10400000000000001, 192.0, 0.0, 0.0, 0.0, 0.0, 0.0, 0.0, 0.0, 0.0, 0.0, 1.6665564923370717E9, 0.0, 2022-10-23 13:21:32.337
4.0, -84663.80353734536, -116973.02663004717, 48995.470880922185, 47594.44118671909, 61232.55923182479, 102694.32994059681, 64394.90638910609, 68555.16952933902, 0.062, 0.9540000000000001, 0.108, 192.0, 1.0, 240.0, 29.0, 208.0, 3.0, 96.0, 0.0, 0.0, 0.0, 1.66655649233708E9, 0.0, 2022-10-23 13:21:32.337
5.0, -84606.44896107304, -116916.85669623099, 48362.49182969235, 47280.73445328885, 61026.31968573567, 102285.60594148707, 63856.810493089026, 67815.81852624638, 0.062, 0.9540000000000001, 0.108, 192.0, 0.0, 0.0, 0.0, 0.0, 0.0, 0.0, 0.0, 0.0, 0.0, 1.6665564923370976E9, 0.0, 2022-10-23 13:21:32.337
6.0, -84601.37511508168, -116912.56516129556, 46539.93058680661, 47339.87716911759, 61034.12044455057, 101625.02248585493, 62731.1542905753, 66796.84720001784, 0.062, 0.9540000000000001, 0.108, 192.0, 0.0, 0.0, 0.0, 0.0, 0.0, 0.0, 0.0, 0.0, 0.0, 1.6665564923371062E9, 0.0, 2022-10-23 13:21:32.337
7.0, -84642.30115917935, -116950.56312686959, 46699.00795209503, 47473.94293236052, 61141.49822491387, 101814.6323340693, 62941.46185415529, 67158.09609390452, 0.062, 0.9540000000000001, 0.108, 192.0, 0.0, 0.0, 0.0, 0.0, 0.0, 0.0, 0.0, 0.0, 0.0, 1.666556492337114E9, 0.0, 2022-10-23 13:21:32.337
8.0, -84679.76268288644, -116980.64857490643, 48673.42694681013, 47607.025218847426, 61235.64377255962, 102588.53913408985, 64202.32375887916, 68392.20296051538, 0.062, 0.9540000000000001, 0.108, 192.0, 0.0, 0.0, 0.0, 0.0, 0.0, 0.0, 0.0, 0.0, 0.0, 1.666556492337131E9, 0.0, 2022-10-23 13:21:32.337
9.0, -84608.46061807402, -116931.8994202494, 48764.644415932235, 47335.80915162673, 61062.14953209753, 102449.31011787774, 64114.30258921416, 68087.59338707845, 0.062, 0.9540000000000001, 0.108, 192.0, 0.0, 0.0, 0.0, 0.0, 0.0, 0.0, 0.0, 0.0, 0.0, 1.6665564923371391E9, 0.0, 2022-10-23 13:21:32.337
10.0, -84605.39842908364, -116925.596228313, 46684.59107692136, 47311.13282574807, 61016.08258677514, 101648.76003846647, 62789.425288370294, 66823.60223813084, 0.062, 0.9540000000000001, 0.108, 192.0, 0.0, 0.0, 0.0, 0.0, 0.0, 0.0, 0.0, 0.0, 0.0, 1.6665564923371475E9, 0.0, 2022-10-23 13:21:32.337
