%OpenBCI Raw EEG Data
%Number of channels = 8
%Sample Rate = 250 Hz
%Board = OpenBCI_GUI$BoardCytonSerial
Sample Index, EXG Channel 0, EXG Channel 1, EXG Channel 2, EXG Channel 3, EXG Channel 4, EXG Channel 5, EXG Channel 6, EXG Channel 7, Accel Channel 0, Accel Channel 1, Accel Channel 2, Other, Other, Other, Other, Other, Other, Other, Analog Channel 0, Analog Channel 1, Analog Channel 2, Timestamp, Other, Timestamp (Formatted)
91.0, -76913.22438874537, -117155.37216131356, 10742.985992787599, 82619.89296911872, 52537.19419684341, 24649.704951012725, 42298.798835134374, 90490.99272382174, 0.0, 0.0, 0.0, 192.0, 0.0, 0.0, 0.0, 0.0, 0.0, 0.0, 0.0, 0.0, 0.0, 1.6665568617558484E9, 0.0, 2022-10-23 13:27:41.755
92.0, -76895.99119377031, -117135.0991290926, 9008.200050377853, 82657.73447248155, 52451.74347779078, 24670.246204167153, 41514.85610185339, 89689.79444382126, 0.0, 0.0, 0.0, 192.0, 0.0, 0.0, 0.0, 0.0, 0.0, 0.0, 0.0, 0.0, 0.0, 1.6665568617558644E9, 0.0, 2022-10-23 13:27:41.755
93.0, -76921.650996405, -117161.02715266075, 9085.626493171036, 82709.1211329843, 52600.20376446292, 24707.193637751778, 41666.62444670492, 89967.20194425607, 0.0, 0.0, 0.0, 192.0, 0.0, 0.0, 0.0, 0.0, 0.0, 0.0, 0.0, 0.0, 0.0, 1.6665568617558727E9, 0.0, 2022-10-23 13:27:41.755
94.0, -76950.84237466364, -117197.2146269339, 10880.62803514338, 82738.7818978765, 52781.81168816229, 24706.523085418117, 42548.91485558925, 90933.5125605479, 0.0, 0.0, 0.0, 192.0, 0.0, 0.0, 0.0, 0.0, 0.0, 0.0, 0.0, 0.0, 0.0, 1.6665568617558815E9, 0.0, 2022-10-23 13:27:41.755
95.0, -76926.14369704053, -117165.47514980736, 11023.790958379623, 82631.71704193557, 52580.17660143097, 24642.64179976485, 42476.04816866496, 90714.64427884153, 0.0, 0.0, 0.0, 192.0, 0.0, 0.0, 0.0, 0.0, 0.0, 0.0, 0.0, 0.0, 0.0, 1.66655686175589E9, 0.0, 2022-10-23 13:27:41.755
96.0, -76911.61506314458, -117145.96207689788, 9063.878245816022, 82642.31176880738, 52422.52974778769, 24655.73992201566, 41545.388584779335, 89717.30944124573, 0.0, 0.0, 0.0, 192.0, 0.0, 0.0, 0.0, 0.0, 0.0, 0.0, 0.0, 0.0, 0.0, 1.6665568617558975E9, 0.0, 2022-10-23 13:27:41.755
97.0, -76937.52073496828, -117179.66850753648, 8875.833019713524, 82679.19214715864, 52553.242749362325, 24672.771951290604, 41579.162070651306, 89864.96506511749, -0.176, 0.9380000000000001, 0.098, 192.0, 250.0, 128.0, 29.0, 80.0, 3.0, 16.0, 0.0, 0.0, 0.0, 1.6665568617559052E9, 0.0, 2022-10-23 13:27:41.755
98.0, -76949.4118630185, -117196.25350192231, 10397.204506064, 82743.40870897875, 52737.510530651874, 24692.329727688997, 42357.807440496385, 90747.88132284657, -0.176, 0.9380000000000001, 0.098, 192.0, 0.0, 0.0, 0.0, 0.0, 0.0, 0.0, 0.0, 0.0, 0.0, 1.6665568617559154E9, 0.0, 2022-10-23 13:27:41.755
99.0, -76923.99792957281, -117174.43819933393, 11205.555344290178, 82669.62560053177, 52642.53796846128, 24658.176262161287, 42622.65326054731, 90909.99852538091, -0.176, 0.9380000000000001, 0.098, 192.0, 0.0, 0.0, 0.0, 0.0, 0.0, 0.0, 0.0, 0.0, 0.0, 1.6665568617559235E9, 0.0, 2022-10-23 13:27:41.755
100.0, -76907.88232182054, -117156.24387934731, 9207.10822428563, 82634.01927161447, 52418.05939889663, 24648.654419023325, 41637.76834461312, 89809.4433318905, -0.176, 0.9380000000000001, 0.098, 192.0, 0.0, 0.0, 0.0, 0.0, 0.0, 0.0, 0.0, 0.0, 0.0, 1.6665568617559316E9, 0.0, 2022-10-23 13:27:41.755
101.0, -76922.4556592054, -117168.31382135318, 8689.553581422995, 82680.75676927052, 52522.48674899182, 24671.252032667642, 41502.62969763633, 89783.82823274472, -0.176, 0.9380000000000001, 0.098, 192.0, 0.0, 0.0, 0.0, 0.0, 0.0, 0.0, 0.0, 0.0, 0.0, 1.6665568617559395E9, 0.0, 2022-10-23 13:27:41.755
102.0, -76939.10770882461, -117189.27975765226, 9903.230953601713, 82732.76927861801, 52710.86725126115, 24685.870073541413, 42158.09460378821, 90557.60092229854, -0.176, 0.9380000000000001, 0.098, 192.0, 0.0, 0.0, 0.0, 0.0, 0.0, 0.0, 0.0, 0.0, 0.0, 1.6665568617559474E9, 0.0, 2022-10-23 13:27:41.755
103.0, -76924.73553713984, -117174.23703363384, 11311.077929863684, 82680.53325182597, 52709.10146344918, 24665.775855276093, 42735.730735746714, 91075.28967562791, -0.176, 0.9380000000000001, 0.098, 192.0, 0.0, 0.0, 0.0, 0.0, 0.0, 0.0, 0.0, 0.0, 0.0, 1.6665568617559557E9, 0.0, 2022-10-23 13:27:41.755
104.0, -76877.90863250598, -117126.58311445512, 9488.226114300027, 82643.33994905233, 52444.41210560943, 24657.997448205646, 41798.27622154668, 89981.2835432629, -0.176, 0.9380000000000001, 0.098, 192.0, 0.0, 0.0, 0.0, 0.0, 0.0, 0.0, 0.0, 0.0, 0.0, 1.6665568617559636E9, 0.0, 2022-10-23 13:27:41.755
105.0, -76900.64035661702, -117145.8503181756, 8645.632403568317, 82684.26599315, 52512.36140875357, 24673.08487571298, 41504.753113359584, 89767.64556975909, -0.176, 0.9380000000000001, 0.098, 192.0, 0.0, 0.0, 0.0, 0.0, 0.0, 0.0, 0.0, 0.0, 0.0, 1.6665568617559714E9, 0.0, 2022-10-23 13:27:41.755
106.0, -76941.02995884776, -117186.64225180654, 9493.746995180487, 82722.55453140194, 52659.4805907584, 24677.197596692753, 41992.98226749686, 90374.20485904276, -0.176, 0.9380000000000001, 0.098, 192.0, 0.0, 0.0, 0.0, 0.0, 0.0, 0.0, 0.0, 0.0, 0.0, 1.6665568617559795E9, 0.0, 2022-10-23 13:27:41.755
107.0, -76943.04161584874, -117194.01832747679, 11240.98285925184, 82689.3621908858, 52727.98868751391, 24651.202517891234, 42764.743300049704, 91132.84541760033, -0.184, 0.934, 0.098, 192.0, 250.0, 64.0, 29.0, 48.0, 3.0, 16.0, 0.0, 0.0, 0.0, 1.6665568617560842E9, 0.0, 2022-10-23 13:27:41.756
108.0, -76904.97659504136, -117164.7598939848, 9772.428545049257, 82601.83275959882, 52434.264413626726, 24609.225941804165, 41960.54988629221, 90149.59217901138, -0.184, 0.934, 0.098, 192.0, 0.0, 0.0, 0.0, 0.0, 0.0, 0.0, 0.0, 0.0, 0.0, 1.6665568617560935E9, 0.0, 2022-10-23 13:27:41.756
109.0, -76909.6034061436, -117162.3012020947, 8583.472202238108, 82660.8637167053, 52465.087469230595, 24645.480471310675, 41490.26918295255, 89726.69717391697, -0.184, 0.934, 0.098, 192.0, 0.0, 0.0, 0.0, 0.0, 0.0, 0.0, 0.0, 0.0, 0.0, 1.666556861756102E9, 0.0, 2022-10-23 13:27:41.756
110.0, -76936.1125750676, -117177.47803657987, 9116.13662435253, 82711.71393534112, 52612.519575657796, 24660.478491840186, 41847.27124539271, 90206.41031341677, -0.184, 0.934, 0.098, 192.0, 0.0, 0.0, 0.0, 0.0, 0.0, 0.0, 0.0, 0.0, 0.0, 1.66655686175611E9, 0.0, 2022-10-23 13:27:41.756
111.0, -76947.26609555079, -117186.64225180654, 11042.499368488714, 82713.25620570853, 52750.318080224766, 24653.057712681024, 42746.280759129615, 91137.65104265822, -0.184, 0.934, 0.098, 192.0, 0.0, 0.0, 0.0, 0.0, 0.0, 0.0, 0.0, 0.0, 0.0, 1.666556861756118E9, 0.0, 2022-10-23 13:27:41.756
112.0, -76896.05824900369, -117141.51407975127, 10131.86694763505, 82619.62474818525, 52485.427556684925, 24628.180221102266, 42196.47254901798, 90405.94433616928, -0.184, 0.934, 0.098, 192.0, 0.0, 0.0, 0.0, 0.0, 0.0, 0.0, 0.0, 0.0, 0.0, 1.666556861756126E9, 0.0, 2022-10-23 13:27:41.756
113.0, -76897.08642924862, -117146.36440829808, 8580.342958014364, 82662.47304230608, 52444.4791608428, 24652.811843492014, 41520.22052052266, 89738.0295083558, -0.184, 0.934, 0.098, 192.0, 0.0, 0.0, 0.0, 0.0, 0.0, 0.0, 0.0, 0.0, 0.0, 1.6665568617561364E9, 0.0, 2022-10-23 13:27:41.756
114.0, -76926.94835984091, -117174.37114410057, 8806.967295046723, 82692.82671127639, 52564.53038031225, 24648.07327366749, 41726.661232311875, 90071.96457051809, -0.184, 0.934, 0.098, 192.0, 0.0, 0.0, 0.0, 0.0, 0.0, 0.0, 0.0, 0.0, 0.0, 1.6665568617561443E9, 0.0, 2022-10-23 13:27:41.756
115.0, -76957.36908404459, -117205.26125493781, 10698.751890510546, 82717.27951971049, 52735.074190506246, 24647.469776567195, 42637.80774328801, 91051.08273638281, -0.184, 0.934, 0.098, 192.0, 0.0, 0.0, 0.0, 0.0, 0.0, 0.0, 0.0, 0.0, 0.0, 1.666556861756152E9, 0.0, 2022-10-23 13:27:41.756
116.0, -76913.82788584565, -117167.26328936378, 10458.291823660353, 82614.59560568281, 52518.01640010076, 24612.44459300573, 42398.82289157187, 90642.58225471762, -0.184, 0.934, 0.098, 192.0, 0.0, 0.0, 0.0, 0.0, 0.0, 0.0, 0.0, 0.0, 0.0, 1.66655686175616E9, 0.0, 2022-10-23 13:27:41.756
117.0, -76900.88622580603, -117151.59471650061, 8629.472092327129, 82641.7082717071, 52406.59295399105, 24625.20743908971, 41556.05036688452, 89758.34724406568, -0.188, 0.934, 0.10200000000000001, 192.0, 250.0, 32.0, 29.0, 48.0, 3.0, 48.0, 0.0, 0.0, 0.0, 1.666556861756168E9, 0.0, 2022-10-23 13:27:41.756
118.0, -76928.08829880814, -117178.93089996945, 8608.03676939449, 82676.48758607956, 52537.30595556569, 24629.521325769583, 41660.76828965763, 89979.16012753965, -0.188, 0.934, 0.10200000000000001, 192.0, 0.0, 0.0, 0.0, 0.0, 0.0, 0.0, 0.0, 0.0, 0.0, 1.6665568617561765E9, 0.0, 2022-10-23 13:27:41.756
119.0, -76955.08920611015, -117205.79769680473, 10327.914098252548, 82718.3747551888, 52724.83709154571, 24649.88376496837, 42523.16564597674, 90928.86339770119, -0.188, 0.934, 0.10200000000000001, 192.0, 0.0, 0.0, 0.0, 0.0, 0.0, 0.0, 0.0, 0.0, 0.0, 1.6665568617561843E9, 0.0, 2022-10-23 13:27:41.756
120.0, -76936.29138902323, -117186.97752797336, 10767.952891344177, 82617.0990010618, 52564.485676823344, 24597.62538643186, 42600.457978303195, 90869.2959987278, -0.188, 0.934, 0.10200000000000001, 192.0, 0.0, 0.0, 0.0, 0.0, 0.0, 0.0, 0.0, 0.0, 0.0, 1.666556861756192E9, 0.0, 2022-10-23 13:27:41.756
121.0, -76912.59853990062, -117162.34590558361, 8800.977027532701, 82619.93767260763, 52384.44237523584, 24594.2055695302, 41658.48841172319, 89827.16826524357, -0.188, 0.934, 0.10200000000000001, 192.0, 0.0, 0.0, 0.0, 0.0, 0.0, 0.0, 0.0, 0.0, 0.0, 1.6665568617562E9, 0.0, 2022-10-23 13:27:41.756
122.0, -76920.48870569334, -117168.76085624228, 8512.416006614687, 82685.58474607287, 52514.26130703227, 24634.30459908302, 41642.328100482, 89916.1729116646, -0.188, 0.934, 0.10200000000000001, 192.0, 0.0, 0.0, 0.0, 0.0, 0.0, 0.0, 0.0, 0.0, 0.0, 1.6665568617562323E9, 0.0, 2022-10-23 13:27:41.756
123.0, -76933.27390352177, -117181.79192325973, 9931.34944812649, 82744.2804270125, 52710.12964369413, 24674.157759446833, 42382.14849020821, 90763.08050907619, -0.188, 0.934, 0.10200000000000001, 192.0, 0.0, 0.0, 0.0, 0.0, 0.0, 0.0, 0.0, 0.0, 0.0, 1.6665568617562404E9, 0.0, 2022-10-23 13:27:41.756
124.0, -76919.92991208195, -117172.18067314396, 10994.979559776732, 82658.4050248152, 52645.04136384027, 24638.014988662602, 42776.835593800024, 91070.37229184774, -0.188, 0.934, 0.10200000000000001, 192.0, 0.0, 0.0, 0.0, 0.0, 0.0, 0.0, 0.0, 0.0, 0.0, 1.6665568617562482E9, 0.0, 2022-10-23 13:27:41.756
125.0, -76912.62089164507, -117168.38087658655, 9044.968670006832, 82608.33711723532, 52384.688244424855, 24595.39021198633, 41792.82239589959, 89950.25932195895, -0.188, 0.934, 0.10200000000000001, 192.0, 0.0, 0.0, 0.0, 0.0, 0.0, 0.0, 0.0, 0.0, 0.0, 1.666556861756256E9, 0.0, 2022-10-23 13:27:41.756
126.0, -76944.40507226052, -117200.54503685774, 8406.021703007425, 82641.08242286235, 52451.60936732404, 24590.07049680597, 41581.44194858574, 89832.86796007967, -0.186, 0.932, 0.092, 192.0, 250.0, 48.0, 29.0, 32.0, 2.0, 224.0, 0.0, 0.0, 0.0, 1.6665568617562635E9, 0.0, 2022-10-23 13:27:41.756
127.0, -76963.58286900316, -117214.60428412013, 9517.26103034747, 82699.0181444905, 52643.74496266186, 24610.678805193762, 42195.64553447313, 90560.05961418863, -0.186, 0.932, 0.092, 192.0, 0.0, 0.0, 0.0, 0.0, 0.0, 0.0, 0.0, 0.0, 0.0, 1.666556861756272E9, 0.0, 2022-10-23 13:27:41.756
128.0, -76957.1679183445, -117207.40702240552, 11098.803412771633, 82655.23107710255, 52667.79543969577, 24579.229900745144, 42866.55549604363, 91184.00856065853, -0.186, 0.932, 0.092, 192.0, 0.0, 0.0, 0.0, 0.0, 0.0, 0.0, 0.0, 0.0, 0.0, 1.6665568617562797E9, 0.0, 2022-10-23 13:27:41.756
129.0, -76914.40903120149, -117165.408094574, 9424.34482864676, 82599.32936421984, 52398.255753309226, 24571.67501111925, 41987.37197963858, 90131.59902472486, -0.186, 0.932, 0.092, 192.0, 0.0, 0.0, 0.0, 0.0, 0.0, 0.0, 0.0, 0.0, 0.0, 1.666556861756288E9, 0.0, 2022-10-23 13:27:41.756
130.0, -76919.37111847058, -117169.31964985367, 8469.38889853822, 82653.37588231277, 52456.549102848665, 24618.14428784183, 41626.23484447418, 89840.44520145003, -0.186, 0.932, 0.092, 192.0, 0.0, 0.0, 0.0, 0.0, 0.0, 0.0, 0.0, 0.0, 0.0, 1.6665568617562957E9, 0.0, 2022-10-23 13:27:41.756
131.0, -76948.38368277355, -117203.40606014802, 9224.8778611276, 82695.4642171221, 52612.36311344661, 24622.72639545517, 42072.37566380211, 90406.81605420305, -0.186, 0.932, 0.092, 192.0, 0.0, 0.0, 0.0, 0.0, 0.0, 0.0, 0.0, 0.0, 0.0, 1.6665568617563035E9, 0.0, 2022-10-23 13:27:41.756
132.0, -76952.67521770898, -117210.04452825124, 11108.638180331967, 82689.78687403045, 52718.86917577615, 24612.466944750184, 42923.39598219347, 91257.00935804956, -0.186, 0.932, 0.092, 192.0, 0.0, 0.0, 0.0, 0.0, 0.0, 0.0, 0.0, 0.0, 0.0, 1.6665568617563117E9, 0.0, 2022-10-23 13:27:41.756
133.0, -76899.58982462762, -117157.92026018146, 9844.334106961978, 82611.04167831442, 52429.212919379825, 24586.494217693118, 42195.37731353966, 90346.73456510718, -0.186, 0.932, 0.092, 192.0, 0.0, 0.0, 0.0, 0.0, 0.0, 0.0, 0.0, 0.0, 0.0, 1.6665568617563195E9, 0.0, 2022-10-23 13:27:41.756
134.0, -76896.81820831516, -117146.900850165, 8536.466483648597, 82661.28839984995, 52447.92132948892, 24617.049052363524, 41651.69348140877, 89834.81256184728, -0.186, 0.932, 0.092, 192.0, 0.0, 0.0, 0.0, 0.0, 0.0, 0.0, 0.0, 0.0, 0.0, 1.6665568617563283E9, 0.0, 2022-10-23 13:27:41.756
135.0, -76923.32737723915, -117171.28660336573, 8994.431375793383, 82696.35828690031, 52596.78394756126, 24629.186049602755, 41971.23402014185, 90270.00102639211, -0.186, 0.932, 0.092, 192.0, 0.0, 0.0, 0.0, 0.0, 0.0, 0.0, 0.0, 0.0, 0.0, 1.666556861756336E9, 0.0, 2022-10-23 13:27:41.756
136.0, -76951.93761014195, -117202.91432177, 10935.032181147597, 82697.00648748953, 52725.46294039046, 24609.248293548622, 42865.23674312076, 91206.27089813602, -0.192, 0.934, 0.08600000000000001, 192.0, 250.0, 0.0, 29.0, 48.0, 2.0, 176.0, 0.0, 0.0, 0.0, 1.666556861756344E9, 0.0, 2022-10-23 13:27:41.756
137.0, -76912.10680152259, -117164.31285909569, 10277.756783694838, 82593.2943932169, 52458.359594149544, 24551.82666204294, 42408.32238296537, 90567.39098636997, -0.192, 0.934, 0.08600000000000001, 192.0, 0.0, 0.0, 0.0, 0.0, 0.0, 0.0, 0.0, 0.0, 0.0, 1.6665568617563522E9, 0.0, 2022-10-23 13:27:41.756
138.0, -76909.13401951003, -117161.94357418342, 8642.033772711013, 82636.23209431555, 52396.0652823526, 24579.364011211874, 41674.00052237517, 89817.6017186167, -0.192, 0.934, 0.08600000000000001, 192.0, 0.0, 0.0, 0.0, 0.0, 0.0, 0.0, 0.0, 0.0, 0.0, 1.6665568617563684E9, 0.0, 2022-10-23 13:27:41.756
139.0, -76931.5081157098, -117187.64808030703, 8822.83703360999, 82669.62560053177, 52535.003725886796, 24595.613729430883, 41867.05253923566, 90128.33567003437, -0.192, 0.934, 0.08600000000000001, 192.0, 0.0, 0.0, 0.0, 0.0, 0.0, 0.0, 0.0, 0.0, 0.0, 1.6665568617563765E9, 0.0, 2022-10-23 13:27:41.756
140.0, -76946.90846763951, -117206.95998751641, 10667.548855250938, 82708.58469111737, 52707.2909721483, 24611.371709271876, 42750.14761092039, 91085.750292033, -0.192, 0.934, 0.08600000000000001, 192.0, 0.0, 0.0, 0.0, 0.0, 0.0, 0.0, 0.0, 0.0, 0.0, 1.6665568617563844E9, 0.0, 2022-10-23 13:27:41.756
141.0, -76916.46539169138, -117177.20981564639, 10719.941344254177, 82610.39347772521, 52525.03484785972, 24564.254231960087, 42635.974900242676, 90813.86367247865, -0.192, 0.934, 0.08600000000000001, 192.0, 0.0, 0.0, 0.0, 0.0, 0.0, 0.0, 0.0, 0.0, 0.0, 1.666556861756392E9, 0.0, 2022-10-23 13:27:41.756
142.0, -76897.06407750417, -117157.87555669255, 8826.36860923393, 82626.71025117759, 52375.30051175362, 24573.418447186763, 41733.433810881834, 89849.98939633244, -0.192, 0.934, 0.08600000000000001, 192.0, 0.0, 0.0, 0.0, 0.0, 0.0, 0.0, 0.0, 0.0, 0.0, 1.6665568617563999E9, 0.0, 2022-10-23 13:27:41.756
143.0, -76919.03584230374, -117175.08639992314, 8707.300866520509, 82667.94921969762, 52502.77251038224, 24594.496142208118, 41776.77384338067, 90011.48075002203, -0.192, 0.934, 0.08600000000000001, 192.0, 0.0, 0.0, 0.0, 0.0, 0.0, 0.0, 0.0, 0.0, 0.0, 1.6665568617564075E9, 0.0, 2022-10-23 13:27:41.756
144.0, -76947.78018567327, -117201.57321710268, 10312.08906317819, 82713.47972315308, 52684.69335850398, 24606.186104558245, 42570.86426864437, 90908.29979280231, -0.192, 0.934, 0.08600000000000001, 192.0, 0.0, 0.0, 0.0, 0.0, 0.0, 0.0, 0.0, 0.0, 0.0, 1.6665568617564156E9, 0.0, 2022-10-23 13:27:41.756
145.0, -76923.84146736164, -117183.64711804953, 11017.823042610054, 82624.2515592875, 52566.586740802144, 24567.919918050757, 42769.347759407494, 90995.73981711148, -0.192, 0.934, 0.08600000000000001, 192.0, 0.0, 0.0, 0.0, 0.0, 0.0, 0.0, 0.0, 0.0, 0.0, 1.6665568617564232E9, 0.0, 2022-10-23 13:27:41.756
146.0, -76899.07573450515, -117156.66856249196, 9044.566338606637, 82608.91826259116, 52366.717441882785, 24568.545766895506, 41800.24317505875, 89916.88816748717, -0.194, 0.934, 0.09, 192.0, 249.0, 240.0, 29.0, 48.0, 2.0, 208.0, 0.0, 0.0, 0.0, 1.666556861756431E9, 0.0, 2022-10-23 13:27:41.756
147.0, -76924.6014266731, -117178.72973426936, 8627.32632485942, 82650.49250727803, 52471.14479197798, 24575.363048954376, 41702.94603144479, 89923.10195244575, -0.194, 0.934, 0.09, 192.0, 0.0, 0.0, 0.0, 0.0, 0.0, 0.0, 0.0, 0.0, 0.0, 1.6665568617564394E9, 0.0, 2022-10-23 13:27:41.756
148.0, -76953.658694465, -117203.7636880593, 9938.166730185358, 82708.51763588401, 52661.78282043729, 24594.96552884168, 42392.273830446466, 90720.07575274417, -0.194, 0.934, 0.09, 192.0, 0.0, 0.0, 0.0, 0.0, 0.0, 0.0, 0.0, 0.0, 0.0, 1.6665568617564473E9, 0.0, 2022-10-23 13:27:41.756
149.0, -76943.17572631547, -117191.20200767541, 11244.447379642414, 82649.15140261072, 52631.42915146699, 24566.779979083538, 42907.34742967456, 91162.66264470371, -0.194, 0.934, 0.09, 192.0, 0.0, 0.0, 0.0, 0.0, 0.0, 0.0, 0.0, 0.0, 0.0, 1.666556861756455E9, 0.0, 2022-10-23 13:27:41.756
150.0, -76899.58982462762, -117145.96207689788, 9376.04270887884, 82609.05237305789, 52370.58429367356, 24551.55844110947, 41943.33904306162, 90048.33877662884, -0.194, 0.934, 0.09, 192.0, 0.0, 0.0, 0.0, 0.0, 0.0, 0.0, 0.0, 0.0, 0.0, 1.6665568617564628E9, 0.0, 2022-10-23 13:27:41.756
151.0, -76920.5557609267, -117161.22831836085, 8621.336057345397, 82645.57512349787, 52443.13805617548, 24558.509833635075, 41676.30275205407, 89866.708501185, -0.194, 0.934, 0.09, 192.0, 0.0, 0.0, 0.0, 0.0, 0.0, 0.0, 0.0, 0.0, 0.0, 1.666556861756471E9, 0.0, 2022-10-23 13:27:41.756
152.0, -76947.69077869544, -117193.2583681653, 9582.70693811261, 82693.25139442104, 52609.88206981207, 24577.464112933176, 42212.185825370056, 90521.68166895887, -0.194, 0.934, 0.09, 192.0, 0.0, 0.0, 0.0, 0.0, 0.0, 0.0, 0.0, 0.0, 0.0, 1.6665568617564783E9, 0.0, 2022-10-23 13:27:41.756
153.0, -76950.95413338592, -117199.04746997922, 11303.970075126896, 82659.0085219155, 52666.56609375073, 24557.19108071221, 42956.90124713197, 91242.19015147569, -0.194, 0.934, 0.09, 192.0, 0.0, 0.0, 0.0, 0.0, 0.0, 0.0, 0.0, 0.0, 0.0, 1.6665568617565072E9, 0.0, 2022-10-23 13:27:41.756
154.0, -76902.27203396226, -117157.18265261444, 9775.244864850625, 82597.87650083024, 52387.99630260424, 24536.940400235704, 42126.466885383954, 90233.16535152977, -0.194, 0.934, 0.09, 192.0, 0.0, 0.0, 0.0, 0.0, 0.0, 0.0, 0.0, 0.0, 0.0, 1.6665568617565167E9, 0.0, 2022-10-23 13:27:41.756
155.0, -76914.0514032902, -117164.89400445152, 8677.863619072868, 82648.27968457696, 52430.48696881378, 24564.321287193452, 41686.24927833668, 89847.15072478661, -0.194, 0.934, 0.09, 192.0, 0.0, 0.0, 0.0, 0.0, 0.0, 0.0, 0.0, 0.0, 0.0, 1.6665568617565255E9, 0.0, 2022-10-23 13:27:41.756
156.0, -76933.2068482884, -117178.03683019124, 9324.454882675993, 82698.50405436804, 52590.72662481388, 24585.622499659363, 42086.345504086676, 90365.06299556053, -0.192, 0.9400000000000001, 0.1, 192.0, 250.0, 0.0, 29.0, 96.0, 3.0, 32.0, 0.0, 0.0, 0.0, 1.6665568617565336E9, 0.0, 2022-10-23 13:27:41.756
157.0, -76941.85697339261, -117181.07666743717, 11254.393905925024, 82703.55554861492, 52716.70105656399, 24592.81976137397, 42959.225828555325, 91264.02780580852, -0.192, 0.9400000000000001, 0.1, 192.0, 0.0, 0.0, 0.0, 0.0, 0.0, 0.0, 0.0, 0.0, 0.0, 1.666556861756542E9, 0.0, 2022-10-23 13:27:41.756
158.0, -76903.30021420721, -117141.29056230672, 10237.993030308848, 82608.31476549087, 52441.729896274795, 24550.15028120879, 42347.01154792447, 90465.28821769814, -0.192, 0.9400000000000001, 0.1, 192.0, 0.0, 0.0, 0.0, 0.0, 0.0, 0.0, 0.0, 0.0, 0.0, 1.6665568617565498E9, 0.0, 2022-10-23 13:27:41.756
159.0, -76918.4546969479, -117151.01357114478, 8780.368719144908, 82645.88804792023, 52407.44232028035, 24556.364066167363, 41708.08693266952, 89836.82421884825, -0.192, 0.9400000000000001, 0.1, 192.0, 0.0, 0.0, 0.0, 0.0, 0.0, 0.0, 0.0, 0.0, 0.0, 1.6665568617565577E9, 0.0, 2022-10-23 13:27:41.756
160.0, -76936.38079600106, -117169.18553938693, 9106.726539936846, 82690.59153683085, 52550.359374327585, 24575.273641976553, 41960.19225838092, 90207.68436285072, -0.192, 0.9400000000000001, 0.1, 192.0, 0.0, 0.0, 0.0, 0.0, 0.0, 0.0, 0.0, 0.0, 0.0, 1.6665568617565656E9, 0.0, 2022-10-23 13:27:41.756
161.0, -76949.76949092979, -117186.88812099554, 11025.869670613965, 82707.44475215016, 52709.973181482936, 24572.680839619738, 42857.2124668613, 91164.56254298241, -0.192, 0.9400000000000001, 0.1, 192.0, 0.0, 0.0, 0.0, 0.0, 0.0, 0.0, 0.0, 0.0, 0.0, 1.6665568617565737E9, 0.0, 2022-10-23 13:27:41.756
162.0, -76914.69960387942, -117156.13212062504, 10638.29042175894, 82592.62384088324, 52470.78716406669, 24500.66351898474, 42523.277404699016, 90658.2955310697, -0.192, 0.9400000000000001, 0.1, 192.0, 0.0, 0.0, 0.0, 0.0, 0.0, 0.0, 0.0, 0.0, 0.0, 1.6665568617565813E9, 0.0, 2022-10-23 13:27:41.756
163.0, -76903.0543450182, -117141.67054196246, 8874.80483946858, 82621.83757088633, 52373.914703597395, 24531.263057144053, 41705.04709542359, 89811.00795400239, -0.192, 0.9400000000000001, 0.1, 192.0, 0.0, 0.0, 0.0, 0.0, 0.0, 0.0, 0.0, 0.0, 0.0, 1.6665568617565892E9, 0.0, 2022-10-23 13:27:41.756
164.0, -76925.33903424014, -117165.89983295201, 8981.0203291202, 82665.37876908526, 52538.02121138826, 24569.03750527352, 41877.9825422743, 90098.45138769763, -0.192, 0.9400000000000001, 0.1, 192.0, 0.0, 0.0, 0.0, 0.0, 0.0, 0.0, 0.0, 0.0, 0.0, 1.6665568617565968E9, 0.0, 2022-10-23 13:27:41.756
165.0, -76946.01439786129, -117188.1621704295, 10755.190045260197, 82699.19695844615, 52695.60100979817, 24570.62447912985, 42735.171942135334, 91037.3364135428, -0.194, 0.932, 0.094, 192.0, 249.0, 240.0, 29.0, 32.0, 2.0, 240.0, 0.0, 0.0, 0.0, 1.666556861756605E9, 0.0, 2022-10-23 13:27:41.756
166.0, -76920.7569266268, -117161.51889103877, 11039.258365542695, 82606.21370151207, 52512.763740153765, 24517.203809881667, 42712.01553487963, 90877.6555511541, -0.194, 0.932, 0.094, 192.0, 0.0, 0.0, 0.0, 0.0, 0.0, 0.0, 0.0, 0.0, 0.0, 1.666556861756613E9, 0.0, 2022-10-23 13:27:41.756
167.0, -76904.03782177423, -117144.39745478601, 9097.294103776707, 82599.73169562002, 52343.717496838275, 24498.09306837238, 41772.63877065644, 89855.37616674617, -0.194, 0.932, 0.094, 192.0, 0.0, 0.0, 0.0, 0.0, 0.0, 0.0, 0.0, 0.0, 0.0, 1.666556861756621E9, 0.0, 2022-10-23 13:27:41.756
168.0, -76918.47704869235, -117165.09517015162, 8870.580359766527, 82644.30107406391, 52469.80368731066, 24531.955961222167, 41767.45316594281, 89964.43032794361, -0.194, 0.932, 0.094, 192.0, 0.0, 0.0, 0.0, 0.0, 0.0, 0.0, 0.0, 0.0, 0.0, 1.6665568617566288E9, 0.0, 2022-10-23 13:27:41.756
169.0, -76932.156316299, -117181.43429534844, 10360.480589923929, 82700.53806311346, 52662.83335242669, 24570.222147729655, 42519.47760814162, 90824.39134411709, -0.194, 0.932, 0.094, 192.0, 0.0, 0.0, 0.0, 0.0, 0.0, 0.0, 0.0, 0.0, 0.0, 1.6665568617566557E9, 0.0, 2022-10-23 13:27:41.756
170.0, -76915.39250795753, -117163.77641722876, 11336.648325520555, 82624.6538906877, 52593.721758570886, 24527.463260586654, 42860.028786662675, 91064.56083828937, -0.194, 0.932, 0.094, 192.0, 0.0, 0.0, 0.0, 0.0, 0.0, 0.0, 0.0, 0.0, 0.0, 1.6665568617566636E9, 0.0, 2022-10-23 13:27:41.756
171.0, -76891.65495534599, -117136.97667562684, 9359.99415635993, 82590.83570132681, 52337.88369153544, 24498.56245500594, 41853.37327162901, 89931.08152521629, -0.194, 0.932, 0.094, 192.0, 0.0, 0.0, 0.0, 0.0, 0.0, 0.0, 0.0, 0.0, 0.0, 1.6665568617566717E9, 0.0, 2022-10-23 13:27:41.756
172.0, -76919.08054579265, -117163.06116140619, 8804.9779897902, 82646.51389676498, 52444.43445735389, 24528.603199553872, 41684.34938005798, 89868.38488201915, -0.194, 0.932, 0.094, 192.0, 0.0, 0.0, 0.0, 0.0, 0.0, 0.0, 0.0, 0.0, 0.0, 1.6665568617566793E9, 0.0, 2022-10-23 13:27:41.756
173.0, -76943.64511294903, -117187.58102507365, 9974.108335269491, 82694.25722292153, 52619.49331992785, 24537.879173502824, 42307.046628838376, 90606.21596648885, -0.194, 0.932, 0.094, 192.0, 0.0, 0.0, 0.0, 0.0, 0.0, 0.0, 0.0, 0.0, 0.0, 1.6665568617566872E9, 0.0, 2022-10-23 13:27:41.756
174.0, -76939.19711580242, -117189.88325475255, 11454.665536244576, 82640.03189087295, 52619.873299583596, 24496.975481149613, 42909.96258377583, 91160.09219409135, -0.194, 0.932, 0.094, 192.0, 0.0, 0.0, 0.0, 0.0, 0.0, 0.0, 0.0, 0.0, 0.0, 1.6665568617566948E9, 0.0, 2022-10-23 13:27:41.756
175.0, -76906.49651366431, -117152.33232406764, 9721.421864202246, 82582.07381750034, 52355.183941743846, 24473.237928538078, 42005.29807869173, 90089.8683178268, -0.192, 0.93, 0.09, 192.0, 250.0, 0.0, 29.0, 16.0, 2.0, 208.0, 0.0, 0.0, 0.0, 1.6665568617567024E9, 0.0, 2022-10-23 13:27:41.756
176.0, -76922.76858362778, -117158.0990741371, 8829.587260435494, 82631.96291112459, 52408.13522435847, 24504.351556819864, 41665.50685948216, 89824.46370416447, -0.192, 0.93, 0.09, 192.0, 0.0, 0.0, 0.0, 0.0, 0.0, 0.0, 0.0, 0.0, 0.0, 1.6665568617567108E9, 0.0, 2022-10-23 13:27:41.756
177.0, -76944.00274086032, -117185.88229249505, 9629.310325301925, 82682.41079836022, 52562.183447144445, 24536.828641513424, 42115.20160617848, 90401.0940076225, -0.192, 0.93, 0.09, 192.0, 0.0, 0.0, 0.0, 0.0, 0.0, 0.0, 0.0, 0.0, 0.0, 1.6665568617567196E9, 0.0, 2022-10-23 13:27:41.756
178.0, -76938.16893555748, -117184.18355991645, 11467.69660326202, 82678.27572563598, 52669.561227507744, 24526.256266386066, 42930.81676135263, 91216.66445930774, -0.192, 0.93, 0.09, 192.0, 0.0, 0.0, 0.0, 0.0, 0.0, 0.0, 0.0, 0.0, 0.0, 1.6665568617567272E9, 0.0, 2022-10-23 13:27:41.756
179.0, -76905.28951946372, -117144.53156525274, 10119.998171329282, 82579.72688433253, 52379.50263971122, 24477.820036151414, 42171.12567080565, 90272.63853223783, -0.192, 0.93, 0.09, 192.0, 0.0, 0.0, 0.0, 0.0, 0.0, 0.0, 0.0, 0.0, 0.0, 1.6665568617567348E9, 0.0, 2022-10-23 13:27:41.756
180.0, -76916.33128122464, -117153.22639384585, 8847.669821699837, 82622.01638484198, 52374.18292453086, 24498.74126896158, 41625.96662354072, 89771.71358724995, -0.192, 0.93, 0.09, 192.0, 0.0, 0.0, 0.0, 0.0, 0.0, 0.0, 0.0, 0.0, 0.0, 1.6665568617567427E9, 0.0, 2022-10-23 13:27:41.756
181.0, -76938.39245300203, -117170.50429230981, 9345.08554280824, 82667.05514991941, 52526.84533916061, 24506.00558590956, 41951.11745013207, 90223.73291536962, -0.192, 0.93, 0.09, 192.0, 0.0, 0.0, 0.0, 0.0, 0.0, 0.0, 0.0, 0.0, 0.0, 1.6665568617567503E9, 0.0, 2022-10-23 13:27:41.756
182.0, -76947.66842695099, -117180.51787382578, 11305.646455961045, 82673.47010057808, 52668.868323429626, 24505.31268183144, 42855.46903079379, 91172.18448784167, -0.192, 0.93, 0.09, 192.0, 0.0, 0.0, 0.0, 0.0, 0.0, 0.0, 0.0, 0.0, 0.0, 1.6665568617567604E9, 0.0, 2022-10-23 13:27:41.756
183.0, -76898.74045833832, -117131.14287032401, 10511.332513252797, 82586.7453320915, 52410.28099182618, 24492.12515260281, 42337.176780364134, 90481.62734289496, -0.192, 0.93, 0.09, 192.0, 0.0, 0.0, 0.0, 0.0, 0.0, 0.0, 0.0, 0.0, 0.0, 1.6665568617567687E9, 0.0, 2022-10-23 13:27:41.756
184.0, -76905.73655435283, -117143.30221930769, 8951.068991550088, 82616.92018710617, 52373.847648364026, 24501.401126551766, 41651.33585349749, 89790.73492178142, -0.192, 0.93, 0.09, 192.0, 0.0, 0.0, 0.0, 0.0, 0.0, 0.0, 0.0, 0.0, 0.0, 1.6665568617568047E9, 0.0, 2022-10-23 13:27:41.756
185.0, -76928.91531335299, -117168.71615275338, 9148.501950323815, 82653.9570276686, 52489.830850342616, 24510.47593480062, 41836.74357375426, 90093.53400391746, -0.196, 0.9420000000000001, 0.09, 192.0, 249.0, 224.0, 29.0, 112.0, 2.0, 208.0, 0.0, 0.0, 0.0, 1.666556861756813E9, 0.0, 2022-10-23 13:27:41.756
186.0, -76953.54693574274, -117188.94448148544, 11017.532469932135, 82691.23973742005, 52665.33674780569, 24516.287388359, 42724.86778794143, 91058.03412890842, -0.196, 0.9420000000000001, 0.09, 192.0, 0.0, 0.0, 0.0, 0.0, 0.0, 0.0, 0.0, 0.0, 0.0, 1.6665568617568223E9, 0.0, 2022-10-23 13:27:41.756
187.0, -76926.68013890745, -117167.39739983052, 10891.468631204205, 82574.78714880791, 52449.01656496723, 24460.631544665284, 42515.78957030649, 90688.98447620684, -0.196, 0.9420000000000001, 0.09, 192.0, 0.0, 0.0, 0.0, 0.0, 0.0, 0.0, 0.0, 0.0, 0.0, 1.66655686175683E9, 0.0, 2022-10-23 13:27:41.756
188.0, -76905.78125784174, -117150.23126008884, 9040.520672860226, 82589.60635538178, 52331.02170598766, 24470.42160873671, 41654.71096691024, 89776.07217741874, -0.196, 0.9420000000000001, 0.09, 192.0, 0.0, 0.0, 0.0, 0.0, 0.0, 0.0, 0.0, 0.0, 0.0, 1.6665568617568383E9, 0.0, 2022-10-23 13:27:41.756
189.0, -76908.19524624292, -117160.401303816, 8988.530515257182, 82633.34871928081, 52464.21575119683, 24500.03767013999, 41742.57567436405, 89982.46818571904, -0.196, 0.9420000000000001, 0.09, 192.0, 0.0, 0.0, 0.0, 0.0, 0.0, 0.0, 0.0, 0.0, 0.0, 1.6665568617568464E9, 0.0, 2022-10-23 13:27:41.756
190.0, -76951.1105955971, -117189.63738556355, 10641.710238660604, 82674.38652210076, 52643.208520794935, 24511.548818534473, 42558.12377430484, 90899.15792932009, -0.196, 0.9420000000000001, 0.09, 192.0, 0.0, 0.0, 0.0, 0.0, 0.0, 0.0, 0.0, 0.0, 0.0, 1.6665568617568543E9, 0.0, 2022-10-23 13:27:41.756
191.0, -76948.02605486228, -117169.69962950941, 11201.129698888028, 82584.19723322359, 52498.61508591355, 24450.953239316135, 42679.82902286399, 90901.57191772127, -0.196, 0.9420000000000001, 0.09, 192.0, 0.0, 0.0, 0.0, 0.0, 0.0, 0.0, 0.0, 0.0, 0.0, 1.6665568617568624E9, 0.0, 2022-10-23 13:27:41.756
192.0, -76927.19422902992, -117148.89015542153, 9207.868183597111, 82573.84837554078, 52295.281266603626, 24446.1699660027, 41702.744865744695, 89824.06137276428, -0.196, 0.9420000000000001, 0.09, 192.0, 0.0, 0.0, 0.0, 0.0, 0.0, 0.0, 0.0, 0.0, 0.0, 1.66655686175687E9, 0.0, 2022-10-23 13:27:41.756
193.0, -76943.15337457102, -117172.13596965504, 8844.697039687282, 82622.53047496444, 52416.830052951584, 24472.45561748214, 41638.70711788024, 89869.30130354183, -0.196, 0.9420000000000001, 0.09, 192.0, 0.0, 0.0, 0.0, 0.0, 0.0, 0.0, 0.0, 0.0, 0.0, 1.666556861756878E9, 0.0, 2022-10-23 13:27:41.756
194.0, -76963.67227598099, -117199.22628393487, 10200.330340901655, 82665.33406559635, 52598.70619758442, 24476.18835880618, 42341.33420483282, 90683.39654009302, -0.188, 0.9400000000000001, 0.088, 192.0, 250.0, 32.0, 29.0, 96.0, 2.0, 192.0, 0.0, 0.0, 0.0, 1.666556861756886E9, 0.0, 2022-10-23 13:27:41.756
195.0, -76946.03674960574, -117186.19521691743, 11358.329517642203, 82603.06210554387, 52547.096019637116, 24438.257448465523, 42771.98526525322, 91038.61046297675, -0.188, 0.9400000000000001, 0.088, 192.0, 0.0, 0.0, 0.0, 0.0, 0.0, 0.0, 0.0, 0.0, 0.0, 1.6665568617568944E9, 0.0, 2022-10-23 13:27:41.756
196.0, -76916.152467269, -117155.68508573594, 9448.216491725027, 82566.40524463716, 52304.847813230495, 24433.854154807825, 41805.3170210501, 89927.72876354799, -0.188, 0.9400000000000001, 0.088, 192.0, 0.0, 0.0, 0.0, 0.0, 0.0, 0.0, 0.0, 0.0, 0.0, 1.6665568617569025E9, 0.0, 2022-10-23 13:27:41.756
197.0, -76931.3069500097, -117171.04073417673, 8750.618547274893, 82615.26615801647, 52388.4656892378, 24463.939602844668, 41575.67519851628, 89792.09837819319, -0.188, 0.9400000000000001, 0.088, 192.0, 0.0, 0.0, 0.0, 0.0, 0.0, 0.0, 0.0, 0.0, 0.0, 1.66655686175691E9, 0.0, 2022-10-23 13:27:41.756
198.0, -76955.58094448816, -117195.42648737747, 9754.323632040458, 82671.011408688, 52564.64213903453, 24499.300062572966, 42129.685536585515, 90468.93155204435, -0.188, 0.9400000000000001, 0.088, 192.0, 0.0, 0.0, 0.0, 0.0, 0.0, 0.0, 0.0, 0.0, 0.0, 1.666556861756919E9, 0.0, 2022-10-23 13:27:41.756
199.0, -76941.65580769251, -117178.26034763579, 11357.256633908348, 82647.60913224329, 52607.24456396634, 24498.473048028118, 42806.22813775875, 91124.64232738523, -0.188, 0.9400000000000001, 0.088, 192.0, 0.0, 0.0, 0.0, 0.0, 0.0, 0.0, 0.0, 0.0, 0.0, 1.666556861756927E9, 0.0, 2022-10-23 13:27:41.756
200.0, -76903.76960084077, -117145.8503181756, 9710.625971630332, 82581.55972737787, 52338.1519124689, 24459.715123142618, 41929.72683068834, 90083.7662915905, -0.188, 0.9400000000000001, 0.088, 192.0, 0.0, 0.0, 0.0, 0.0, 0.0, 0.0, 0.0, 0.0, 0.0, 1.666556861756945E9, 0.0, 2022-10-23 13:27:41.756
201.0, -76923.68500515044, -117166.2574608633, 8656.070668228946, 82610.5499399364, 52374.3617384865, 24462.754960388538, 41517.51595944357, 89736.62134845513, -0.188, 0.9400000000000001, 0.088, 192.0, 0.0, 0.0, 0.0, 0.0, 0.0, 0.0, 0.0, 0.0, 0.0, 1.6665568617569528E9, 0.0, 2022-10-23 13:27:41.756
202.0, -76943.17572631547, -117182.9095104825, 9326.310077465783, 82657.86858294829, 52525.906565893485, 24478.356478018344, 41928.698650443395, 90275.76777646158, -0.188, 0.9400000000000001, 0.088, 192.0, 0.0, 0.0, 0.0, 0.0, 0.0, 0.0, 0.0, 0.0, 0.0, 1.6665568617569606E9, 0.0, 2022-10-23 13:27:41.756
203.0, -76966.08626438216, -117200.27681592427, 11184.947035902385, 82643.45170777461, 52621.326162973186, 24456.40706496323, 42759.580047080526, 91129.91733907668, -0.188, 0.9400000000000001, 0.088, 192.0, 0.0, 0.0, 0.0, 0.0, 0.0, 0.0, 0.0, 0.0, 0.0, 1.6665568617569685E9, 0.0, 2022-10-23 13:27:41.756
204.0, -76924.89199935104, -117161.02715266075, 10002.427995494365, 82547.94270371708, 52334.10624672249, 24422.1641924577, 42071.74981495736, 90264.59190423392, -0.188, 0.936, 0.08600000000000001, 192.0, 250.0, 32.0, 29.0, 64.0, 2.0, 176.0, 0.0, 0.0, 0.0, 1.666556861756976E9, 0.0, 2022-10-23 13:27:41.756
205.0, -76921.31572023818, -117163.03880966172, 8611.590696762883, 82586.96884953605, 52336.34142116802, 24446.684056125174, 41490.44799690819, 89709.79925510875, -0.188, 0.936, 0.08600000000000001, 192.0, 0.0, 0.0, 0.0, 0.0, 0.0, 0.0, 0.0, 0.0, 0.0, 1.6665568617569845E9, 0.0, 2022-10-23 13:27:41.756
206.0, -76934.2126767889, -117175.13110341206, 8983.63548322147, 82635.74035593752, 52480.95720779386, 24467.404123235243, 41776.21504976929, 90116.15396930624, -0.188, 0.936, 0.08600000000000001, 192.0, 0.0, 0.0, 0.0, 0.0, 0.0, 0.0, 0.0, 0.0, 0.0, 1.666556861756992E9, 0.0, 2022-10-23 13:27:41.756
207.0, -76953.59163923164, -117187.51396984029, 10910.735834924679, 82653.82291720188, 52641.1745120495, 24469.19226279167, 42687.987409590176, 91080.60939080828, -0.188, 0.936, 0.08600000000000001, 192.0, 0.0, 0.0, 0.0, 0.0, 0.0, 0.0, 0.0, 0.0, 0.0, 1.6665568617569997E9, 0.0, 2022-10-23 13:27:41.756
208.0, -76920.9580923269, -117157.02619040325, 10382.027671578846, 82545.90869497164, 52403.843689423054, 24414.050509220426, 42312.45575099656, 90522.79925618164, -0.188, 0.936, 0.08600000000000001, 192.0, 0.0, 0.0, 0.0, 0.0, 0.0, 0.0, 0.0, 0.0, 0.0, 1.6665568617570076E9, 0.0, 2022-10-23 13:27:41.757
209.0, -76903.07669676266, -117139.14479483901, 8653.835493783414, 82585.44893091309, 52311.754502267184, 24444.11360551281, 41532.58103520644, 89720.05870581373, -0.188, 0.936, 0.08600000000000001, 192.0, 0.0, 0.0, 0.0, 0.0, 0.0, 0.0, 0.0, 0.0, 0.0, 1.6665568617570152E9, 0.0, 2022-10-23 13:27:41.757
210.0, -76918.47704869235, -117151.23708858933, 8714.29696253502, 82640.38951878423, 52447.04961145516, 24479.65287919675, 41665.283342037605, 89983.45166247507, -0.188, 0.936, 0.08600000000000001, 192.0, 0.0, 0.0, 0.0, 0.0, 0.0, 0.0, 0.0, 0.0, 0.0, 1.6665568617570229E9, 0.0, 2022-10-23 13:27:41.757
211.0, -76956.67617996648, -117189.83855126365, 10495.351015967253, 82659.63437076025, 52624.969497319405, 24468.0746755689, 42531.882826314315, 90938.94403445054, -0.188, 0.936, 0.08600000000000001, 192.0, 0.0, 0.0, 0.0, 0.0, 0.0, 0.0, 0.0, 0.0, 0.0, 1.6665568617570307E9, 0.0, 2022-10-23 13:27:41.757
212.0, -76925.11551679559, -117165.8551294631, 10661.245663314541, 82561.71137830155, 52445.3285271321, 24417.067994721892, 42484.29596236896, 90744.32739547818, -0.188, 0.936, 0.08600000000000001, 192.0, 0.0, 0.0, 0.0, 0.0, 0.0, 0.0, 0.0, 0.0, 0.0, 1.6665568617570384E9, 0.0, 2022-10-23 13:27:41.757
213.0, -76900.88622580603, -117144.01747513027, 8714.520479979574, 82573.17782320712, 52286.56408626605, 24424.131145969768, 41560.85599194241, 89756.5367527648, -0.188, 0.936, 0.08600000000000001, 192.0, 0.0, 0.0, 0.0, 0.0, 0.0, 0.0, 0.0, 0.0, 0.0, 1.6665568617570467E9, 0.0, 2022-10-23 13:27:41.757
0.0, 0.0, 0.0, 0.0, 0.0, 0.0, 0.0, 0.0, 0.0, -0.08, 0.9420000000000001, 0.122, 192.0, 253.0, 128.0, 29.0, 112.0, 3.0, 208.0, 0.0, 0.0, 0.0, 1.6665568618451295E9, 0.0, 2022-10-23 13:27:41.845
1.0, -77731.99113988772, -118189.85559819409, 13766.752334445995, 81925.04428923658, 48930.29319409051, 20419.190277956757, 42673.078796038484, 85528.12314368763, -0.08, 0.9420000000000001, 0.122, 192.0, 0.0, 0.0, 0.0, 0.0, 0.0, 0.0, 0.0, 0.0, 0.0, 1.666556862332811E9, 0.0, 2022-10-23 13:27:42.332
2.0, -77765.94343971532, -118220.76806077578, 14844.151120680704, 81931.07926023952, 49056.13351537389, 20429.337969939468, 43339.56311220683, 86305.62857456549, -0.08, 0.9420000000000001, 0.122, 192.0, 0.0, 0.0, 0.0, 0.0, 0.0, 0.0, 0.0, 0.0, 0.0, 1.666556862332848E9, 0.0, 2022-10-23 13:27:42.332
3.0, -77751.77243373066, -118206.86527572457, 16442.25614574625, 81916.55062634357, 49043.10244835645, 20409.131992951872, 44099.030685309255, 86899.69323869863, -0.08, 0.9420000000000001, 0.122, 192.0, 0.0, 0.0, 0.0, 0.0, 0.0, 0.0, 0.0, 0.0, 0.0, 1.6665568623328977E9, 0.0, 2022-10-23 13:27:42.332
4.0, -77720.27882579314, -118176.39984803199, 14740.662543852633, 81907.14054192789, 48834.963003988625, 20379.78415248205, 43078.226516035385, 85718.31413725784, -0.08, 0.9420000000000001, 0.122, 192.0, 0.0, 0.0, 0.0, 0.0, 0.0, 0.0, 0.0, 0.0, 0.0, 1.6665568623329065E9, 0.0, 2022-10-23 13:27:42.332
5.0, -77734.27101782216, -118189.9450051719, 13739.81848237735, 81929.26876893864, 48917.30683056198, 20415.81516454401, 42643.798010802035, 85459.90561961003, -0.08, 0.9420000000000001, 0.122, 192.0, 0.0, 0.0, 0.0, 0.0, 0.0, 0.0, 0.0, 0.0, 0.0, 1.6665568623329203E9, 0.0, 2022-10-23 13:27:42.332
6.0, -77758.2097361338, -118211.51443857128, 14462.763305039802, 81934.02969050762, 49023.63407893587, 20434.09889150845, 43129.747287004866, 86086.49207192565, -0.08, 0.9420000000000001, 0.122, 192.0, 0.0, 0.0, 0.0, 0.0, 0.0, 0.0, 0.0, 0.0, 0.0, 1.666556862332929E9, 0.0, 2022-10-23 13:27:42.332
7.0, -77759.37202684546, -118212.94495021642, 16354.413790036893, 81930.7886875616, 49073.992559193684, 20431.014350773617, 44089.01710379328, 86938.74173626206, -0.022, 0.9460000000000001, 0.14400000000000002, 192.0, 255.0, 80.0, 29.0, 144.0, 4.0, 128.0, 0.0, 0.0, 0.0, 1.666556862332937E9, 0.0, 2022-10-23 13:27:42.332
8.0, -77714.0426890901, -118169.87313865103, 15126.56541187351, 81906.84996924996, 48854.878408298304, 20388.90366421982, 43298.368847175705, 85931.95211076166, -0.022, 0.9460000000000001, 0.14400000000000002, 192.0, 0.0, 0.0, 0.0, 0.0, 0.0, 0.0, 0.0, 0.0, 0.0, 1.6665568623329458E9, 0.0, 2022-10-23 13:27:42.332
9.0, -77724.61506421746, -118179.35027830009, 13727.659133393661, 81917.42234437732, 48871.64221663979, 20397.55378932402, 42614.58428079895, 85390.54815656522, -0.022, 0.9460000000000001, 0.14400000000000002, 192.0, 0.0, 0.0, 0.0, 0.0, 0.0, 0.0, 0.0, 0.0, 0.0, 1.6665568623329537E9, 0.0, 2022-10-23 13:27:42.332
10.0, -77750.20781161879, -118203.71367975637, 14124.156728286354, 81930.07343173903, 48988.60889537441, 20415.904571521827, 42937.49993294477, 85886.15338637274, -0.022, 0.9460000000000001, 0.14400000000000002, 192.0, 0.0, 0.0, 0.0, 0.0, 0.0, 0.0, 0.0, 0.0, 0.0, 1.6665568623329616E9, 0.0, 2022-10-23 13:27:42.332
11.0, -77771.71018978479, -118222.48914509884, 16095.669996222257, 81924.15021945837, 49082.24035289769, 20412.305940664522, 43982.37693099701, 86880.69425591163, -0.022, 0.9460000000000001, 0.14400000000000002, 192.0, 0.0, 0.0, 0.0, 0.0, 0.0, 0.0, 0.0, 0.0, 0.0, 1.66655686233297E9, 0.0, 2022-10-23 13:27:42.332
12.0, -77729.17482008634, -118185.25113883629, 15456.745380967306, 81897.37282960092, 48859.214646722634, 20366.55191976451, 43481.943724387136, 86139.71157547375, -0.022, 0.9460000000000001, 0.14400000000000002, 192.0, 0.0, 0.0, 0.0, 0.0, 0.0, 0.0, 0.0, 0.0, 0.0, 1.6665568623329775E9, 0.0, 2022-10-23 13:27:42.332
13.0, -77732.81815443256, -118187.62042374855, 13741.24899402249, 81914.5836728315, 48850.00572800705, 20393.12814392187, 42604.21307137168, 85360.66387422847, -0.022, 0.9460000000000001, 0.14400000000000002, 192.0, 0.0, 0.0, 0.0, 0.0, 0.0, 0.0, 0.0, 0.0, 0.0, 1.6665568623330057E9, 0.0, 2022-10-23 13:27:42.333
14.0, -77751.01247441919, -118203.66897626747, 13880.41095500123, 81929.91696952784, 48972.98502600015, 20428.600362372443, 42809.75971338269, 85753.7863557084, -0.022, 0.9460000000000001, 0.14400000000000002, 192.0, 0.0, 0.0, 0.0, 0.0, 0.0, 0.0, 0.0, 0.0, 0.0, 1.6665568623330138E9, 0.0, 2022-10-23 13:27:42.333
15.0, -77769.87734673946, -118223.56202883269, 15742.467730339496, 81937.5389143871, 49098.82534728353, 20435.305885709036, 43835.10128678099, 86781.85484193025, -0.022, 0.9460000000000001, 0.14400000000000002, 192.0, 0.0, 0.0, 0.0, 0.0, 0.0, 0.0, 0.0, 0.0, 0.0, 1.666556862333022E9, 0.0, 2022-10-23 13:27:42.333
16.0, -77728.57132298606, -118188.51449352676, 15813.993312596478, 81909.37571637341, 48916.23394682812, 20394.782173011565, 43718.380477235376, 86413.20752062887, -0.022, 0.9460000000000001, 0.14400000000000002, 192.0, 0.0, 0.0, 0.0, 0.0, 0.0, 0.0, 0.0, 0.0, 0.0, 1.6665568623330302E9, 0.0, 2022-10-23 13:27:42.333
17.0, -77712.47806697823, -118172.15301658548, 13877.348766010853, 81934.29791144108, 48852.06208849694, 20407.65677781782, 42689.44027297977, 85408.76482829629, 0.006, 0.9420000000000001, 0.152, 192.0, 0.0, 48.0, 29.0, 112.0, 4.0, 192.0, 0.0, 0.0, 0.0, 1.6665568623330843E9, 0.0, 2022-10-23 13:27:42.333
18.0, -77742.2952940816, -118198.97510993185, 13733.068255551847, 81934.09674574099, 48953.22608390166, 20410.562504597012, 42739.083497415006, 85647.50381082343, 0.006, 0.9420000000000001, 0.152, 192.0, 0.0, 0.0, 0.0, 0.0, 0.0, 0.0, 0.0, 0.0, 0.0, 1.666556862333093E9, 0.0, 2022-10-23 13:27:42.333
19.0, -77777.49929159872, -118234.40262489351, 15303.591227959541, 81926.81007704856, 49059.9780154202, 20411.5683330975, 43620.30102256549, 86582.25376394436, 0.006, 0.9420000000000001, 0.152, 192.0, 0.0, 0.0, 0.0, 0.0, 0.0, 0.0, 0.0, 0.0, 0.0, 1.666556862333101E9, 0.0, 2022-10-23 13:27:42.333
20.0, -77755.59458203251, -118214.3531101171, 16066.948004597189, 81891.22609987571, 48941.53612155153, 20378.5101030481, 43888.4101973069, 86617.7930376283, 0.006, 0.9420000000000001, 0.152, 192.0, 0.0, 0.0, 0.0, 0.0, 0.0, 0.0, 0.0, 0.0, 0.0, 1.666556862333109E9, 0.0, 2022-10-23 13:27:42.333
21.0, -77723.83275316152, -118183.75357195779, 14047.847872715936, 81907.94520472828, 48809.01262867601, 20389.305995620012, 42763.8939337604, 85448.2156572599, 0.006, 0.9420000000000001, 0.152, 192.0, 0.0, 0.0, 0.0, 0.0, 0.0, 0.0, 0.0, 0.0, 0.0, 1.6665568623331168E9, 0.0, 2022-10-23 13:27:42.333
22.0, -77741.17770685884, -118196.62817676405, 13590.061794526791, 81925.64778633688, 48925.46521728817, 20418.497373878643, 42643.2168654462, 85528.21255066546, 0.006, 0.9420000000000001, 0.152, 192.0, 0.0, 0.0, 0.0, 0.0, 0.0, 0.0, 0.0, 0.0, 0.0, 1.6665568623331249E9, 0.0, 2022-10-23 13:27:42.333
23.0, -77763.14947165841, -118216.32006362917, 14843.212347413582, 81938.05300450958, 49046.94694840276, 20425.448766404246, 43385.25007787348, 86365.86652587254, 0.006, 0.9420000000000001, 0.152, 192.0, 0.0, 0.0, 0.0, 0.0, 0.0, 0.0, 0.0, 0.0, 0.0, 1.6665568623331325E9, 0.0, 2022-10-23 13:27:42.333
24.0, -77764.04354143662, -118218.5552380747, 16179.042003040553, 81905.15123667136, 48997.929572812274, 20389.440106086746, 43985.014436842735, 86776.71394070554, 0.006, 0.9420000000000001, 0.152, 192.0, 0.0, 0.0, 0.0, 0.0, 0.0, 0.0, 0.0, 0.0, 0.0, 1.6665568623331401E9, 0.0, 2022-10-23 13:27:42.333
25.0, -77734.94157015582, -118189.63208074954, 14307.552791542148, 81895.4282278333, 48808.18561413117, 20374.799713468517, 42900.95483076034, 85571.95491456449, 0.006, 0.9420000000000001, 0.152, 192.0, 0.0, 0.0, 0.0, 0.0, 0.0, 0.0, 0.0, 0.0, 0.0, 1.666556862333148E9, 0.0, 2022-10-23 13:27:42.333
26.0, -77753.62762852045, -118205.63592977953, 13514.95993315696, 81912.25909140815, 48900.543022220496, 20408.506144107123, 42593.30542007749, 85454.36238698511, 0.006, 0.9420000000000001, 0.152, 192.0, 0.0, 0.0, 0.0, 0.0, 0.0, 0.0, 0.0, 0.0, 0.0, 1.6665568623331556E9, 0.0, 2022-10-23 13:27:42.333
27.0, -77779.68976255534, -118229.79816553571, 14463.456209117916, 81920.48453336771, 49019.40959923382, 20419.70436807923, 43201.474034961946, 86183.61040158397, 0.024, 0.9400000000000001, 0.154, 192.0, 0.0, 192.0, 29.0, 96.0, 4.0, 208.0, 0.0, 0.0, 0.0, 1.6665568623331647E9, 0.0, 2022-10-23 13:27:42.333
28.0, -77772.22427990727, -118228.2111916794, 16186.529837433081, 81908.05696345055, 49016.97325908819, 20402.962911482206, 44034.81412348916, 86879.62137217777, 0.024, 0.9400000000000001, 0.154, 192.0, 0.0, 0.0, 0.0, 0.0, 0.0, 0.0, 0.0, 0.0, 0.0, 1.6665568623331728E9, 0.0, 2022-10-23 13:27:42.333
29.0, -77722.0446136051, -118181.78661844572, 14652.261394531894, 81902.6254895479, 48822.37897186029, 20390.244768887136, 43096.97962963339, 85768.71732100456, 0.024, 0.9400000000000001, 0.154, 192.0, 0.0, 0.0, 0.0, 0.0, 0.0, 0.0, 0.0, 0.0, 0.0, 1.6665568623331807E9, 0.0, 2022-10-23 13:27:42.333
30.0, -77743.23406734873, -118194.1471331295, 13519.67615123703, 81920.14925720087, 48895.20095529568, 20413.691748820755, 42592.65721948829, 85424.88043604857, 0.024, 0.9400000000000001, 0.154, 192.0, 0.0, 0.0, 0.0, 0.0, 0.0, 0.0, 0.0, 0.0, 0.0, 1.6665568623331883E9, 0.0, 2022-10-23 13:27:42.333
31.0, -77770.23497465074, -118221.5503718317, 14130.862251622946, 81926.586559604, 48994.152127999325, 20416.016330244103, 43029.656175334, 86002.42716102925, 0.024, 0.9400000000000001, 0.154, 192.0, 0.0, 0.0, 0.0, 0.0, 0.0, 0.0, 0.0, 0.0, 0.0, 1.666556862333196E9, 0.0, 2022-10-23 13:27:42.333
32.0, -77785.32240215807, -118241.28696218574, 16036.057893759955, 81915.81301877655, 49040.46494251072, 20402.627635315377, 43995.65386720346, 86887.9585728596, 0.024, 0.9400000000000001, 0.154, 192.0, 0.0, 0.0, 0.0, 0.0, 0.0, 0.0, 0.0, 0.0, 0.0, 1.666556862333212E9, 0.0, 2022-10-23 13:27:42.333
33.0, -77746.8997534394, -118204.51834255677, 15049.876576647352, 81894.44475107727, 48831.610242320334, 20358.773512694064, 43328.76721963492, 85989.9995911121, 0.024, 0.9400000000000001, 0.154, 192.0, 0.0, 0.0, 0.0, 0.0, 0.0, 0.0, 0.0, 0.0, 0.0, 1.6665568623332202E9, 0.0, 2022-10-23 13:27:42.333
34.0, -77741.08829988103, -118193.4542290514, 13521.732511726917, 81922.09385896848, 48848.19523670617, 20396.123277678882, 42569.25494304358, 85358.76397594977, 0.024, 0.9400000000000001, 0.154, 192.0, 0.0, 0.0, 0.0, 0.0, 0.0, 0.0, 0.0, 0.0, 0.0, 1.6665568623332283E9, 0.0, 2022-10-23 13:27:42.333
35.0, -77763.21652689177, -118212.60967404959, 13799.140012161733, 81929.29112068309, 48961.362118883386, 20422.274818691592, 42831.88794039344, 85798.06516147437, 0.024, 0.9400000000000001, 0.154, 192.0, 0.0, 0.0, 0.0, 0.0, 0.0, 0.0, 0.0, 0.0, 0.0, 1.666556862333236E9, 0.0, 2022-10-23 13:27:42.333
36.0, -77786.32823065856, -118237.64362783953, 15732.431797079063, 81929.22406544973, 49072.04795742607, 20429.963818784217, 43872.0040168767, 86806.66527827564, 0.024, 0.9400000000000001, 0.154, 192.0, 0.0, 0.0, 0.0, 0.0, 0.0, 0.0, 0.0, 0.0, 0.0, 1.6665568623332446E9, 0.0, 2022-10-23 13:27:42.333
37.0, -77745.67040749436, -118199.95858668788, 15394.629883126008, 81898.64687903487, 48871.77632710652, 20377.660736758797, 43537.82308552541, 86220.60253865749, 0.024, 0.9480000000000001, 0.158, 192.0, 0.0, 192.0, 29.0, 160.0, 4.0, 240.0, 0.0, 0.0, 0.0, 1.6665568623332527E9, 0.0, 2022-10-23 13:27:42.333
38.0, -77737.78024170164, -118190.30263308319, 13591.514657916387, 81920.05985022306, 48836.169998189216, 20377.16899838078, 42606.33648709494, 85350.38207177902, 0.024, 0.9480000000000001, 0.158, 192.0, 0.0, 0.0, 0.0, 0.0, 0.0, 0.0, 0.0, 0.0, 0.0, 1.6665568623332613E9, 0.0, 2022-10-23 13:27:42.333
39.0, -77766.54693681562, -118216.4988775848, 13599.82950685376, 81922.94322525778, 48939.144484894816, 20397.95612072422, 42735.596625279984, 85667.28510466637, 0.024, 0.9480000000000001, 0.158, 192.0, 0.0, 0.0, 0.0, 0.0, 0.0, 0.0, 0.0, 0.0, 0.0, 1.666556862333269E9, 0.0, 2022-10-23 13:27:42.333
40.0, -77785.09888471352, -118232.32391265917, 15349.278193626189, 81929.98402476122, 49063.37548057741, 20437.719874110207, 43707.89750908584, 86666.49748879642, 0.024, 0.9480000000000001, 0.158, 192.0, 0.0, 0.0, 0.0, 0.0, 0.0, 0.0, 0.0, 0.0, 0.0, 1.6665568623332767E9, 0.0, 2022-10-23 13:27:42.333
41.0, -77756.04161692162, -118210.24038913733, 15718.707825983505, 81900.2785563801, 48916.63627822832, 20393.306957877514, 43758.501858532654, 86472.97608530238, 0.024, 0.9480000000000001, 0.158, 192.0, 0.0, 0.0, 0.0, 0.0, 0.0, 0.0, 0.0, 0.0, 0.0, 1.6665568623332844E9, 0.0, 2022-10-23 13:27:42.333
42.0, -77733.55576199958, -118189.22974934934, 13718.785490844904, 81918.18230368881, 48818.17684390269, 20385.640309529343, 42672.7211681272, 85384.7590547513, 0.024, 0.9480000000000001, 0.158, 192.0, 0.0, 0.0, 0.0, 0.0, 0.0, 0.0, 0.0, 0.0, 0.0, 1.6665568623332922E9, 0.0, 2022-10-23 13:27:42.333
43.0, -77756.82392797756, -118209.90511297049, 13444.216661955914, 81923.21144619126, 48926.58280451093, 20402.538228337555, 42653.00692951762, 85561.31548420376, 0.024, 0.9480000000000001, 0.158, 192.0, 0.0, 0.0, 0.0, 0.0, 0.0, 0.0, 0.0, 0.0, 0.0, 1.6665568623333E9, 0.0, 2022-10-23 13:27:42.333
44.0, -77789.34571616002, -118242.09162498613, 14887.446449690635, 81928.84408579399, 49042.63306172289, 20423.392405914357, 43482.83779416535, 86461.86726830808, 0.024, 0.9480000000000001, 0.158, 192.0, 0.0, 0.0, 0.0, 0.0, 0.0, 0.0, 0.0, 0.0, 0.0, 1.666556862333308E9, 0.0, 2022-10-23 13:27:42.333
45.0, -77766.92691647136, -118223.22675266585, 15876.578197071338, 81898.60217554595, 48948.80043849951, 20388.478981075168, 43876.94375240133, 86647.52085775386, 0.024, 0.9480000000000001, 0.158, 192.0, 0.0, 0.0, 0.0, 0.0, 0.0, 0.0, 0.0, 0.0, 0.0, 1.6665568623333158E9, 0.0, 2022-10-23 13:27:42.333
46.0, -77726.42555551835, -118182.12189461254, 13911.345769327376, 81906.91702448334, 48805.43634956317, 20365.143759863826, 42774.667474587855, 85467.7734336583, 0.026000000000000002, 0.9440000000000001, 0.162, 192.0, 0.0, 208.0, 29.0, 128.0, 5.0, 16.0, 0.0, 0.0, 0.0, 1.6665568623333237E9, 0.0, 2022-10-23 13:27:42.333
47.0, -77746.76564297268, -118196.29290059721, 13316.632904605021, 81932.30860618455, 48911.67419095924, 20412.350644153434, 42578.55326873699, 85470.0756633372, 0.026000000000000002, 0.9440000000000001, 0.162, 192.0, 0.0, 0.0, 0.0, 0.0, 0.0, 0.0, 0.0, 0.0, 0.0, 1.666556862333332E9, 0.0, 2022-10-23 13:27:42.333
48.0, -77766.83750949353, -118212.60967404959, 14457.778866026267, 81957.72253963024, 49050.925558915806, 20454.41662721832, 43282.5661638458, 86281.84631846503, 0.026000000000000002, 0.9440000000000001, 0.162, 192.0, 0.0, 0.0, 0.0, 0.0, 0.0, 0.0, 0.0, 0.0, 0.0, 1.6665568623333488E9, 0.0, 2022-10-23 13:27:42.333
49.0, -77768.24566939422, -118217.79527876321, 15984.246550112553, 81930.07343173903, 49022.65060217984, 20422.207763458224, 44001.59943122858, 86828.12295295275, 0.026000000000000002, 0.9440000000000001, 0.162, 192.0, 0.0, 0.0, 0.0, 0.0, 0.0, 0.0, 0.0, 0.0, 0.0, 1.6665568623333569E9, 0.0, 2022-10-23 13:27:42.333
50.0, -77738.16022135738, -118190.92848192794, 14229.880479559957, 81909.21925416224, 48815.606393290334, 20384.723888006676, 42966.221924569836, 85643.30168286583, 0.026000000000000002, 0.9440000000000001, 0.162, 192.0, 0.0, 0.0, 0.0, 0.0, 0.0, 0.0, 0.0, 0.0, 0.0, 1.6665568623333645E9, 0.0, 2022-10-23 13:27:42.333
51.0, -77758.67912276735, -118208.49695306981, 13291.598950815076, 81914.51661759814, 48879.845306854884, 20397.732603279663, 42567.77972790953, 85420.74536332433, 0.026000000000000002, 0.9440000000000001, 0.162, 192.0, 0.0, 0.0, 0.0, 0.0, 0.0, 0.0, 0.0, 0.0, 0.0, 1.666556862333372E9, 0.0, 2022-10-23 13:27:42.333
52.0, -77770.88317523994, -118218.97992121935, 14048.384314582863, 81934.76729807464, 48989.72648259717, 20430.924943795795, 43064.48019319537, 86063.84975479243, 0.026000000000000002, 0.9440000000000001, 0.162, 192.0, 0.0, 0.0, 0.0, 0.0, 0.0, 0.0, 0.0, 0.0, 0.0, 1.66655686233338E9, 0.0, 2022-10-23 13:27:42.333
53.0, -77782.32726840106, -118234.20145919341, 15907.557714886394, 81912.12498094141, 49037.73802968717, 20413.200010442735, 44003.52168125173, 86884.29288676893, 0.026000000000000002, 0.9440000000000001, 0.162, 192.0, 0.0, 0.0, 0.0, 0.0, 0.0, 0.0, 0.0, 0.0, 0.0, 1.6665568623333876E9, 0.0, 2022-10-23 13:27:42.333
54.0, -77741.2447620922, -118191.77784821724, 14598.326635161238, 81898.91509996833, 48819.4732450811, 20381.058201916007, 43177.46826141694, 85850.30118826643, 0.026000000000000002, 0.9440000000000001, 0.162, 192.0, 0.0, 0.0, 0.0, 0.0, 0.0, 0.0, 0.0, 0.0, 0.0, 1.6665568623333955E9, 0.0, 2022-10-23 13:27:42.333
55.0, -77743.77050921565, -118189.52032202725, 13261.66996498942, 81922.36207990196, 48850.698632085165, 20410.003710985628, 42531.74871584758, 85359.59099049462, 0.026000000000000002, 0.9440000000000001, 0.162, 192.0, 0.0, 0.0, 0.0, 0.0, 0.0, 0.0, 0.0, 0.0, 0.0, 1.666556862333403E9, 0.0, 2022-10-23 13:27:42.333
56.0, -77772.47014909628, -118224.5008020998, 13715.835060576805, 81925.02193749213, 48965.65365381881, 20420.732548324177, 42886.06856895311, 85880.23017409208, 0.03, 0.9400000000000001, 0.17, 192.0, 0.0, 240.0, 29.0, 96.0, 5.0, 80.0, 0.0, 0.0, 0.0, 1.6665568623334107E9, 0.0, 2022-10-23 13:27:42.333
57.0, -77797.10177148602, -118252.82046232469, 15680.128715053645, 81911.96851873022, 49043.23655882318, 20407.388556884358, 43917.22159590979, 86849.49122065201, 0.03, 0.9400000000000001, 0.17, 192.0, 0.0, 0.0, 0.0, 0.0, 0.0, 0.0, 0.0, 0.0, 0.0, 1.666556862333419E9, 0.0, 2022-10-23 13:27:42.333
58.0, -77760.91429721288, -118220.92452298696, 14942.029409650495, 81888.38742832988, 48831.18555917568, 20369.70351573271, 43373.358949823254, 86063.33566466995, 0.03, 0.9400000000000001, 0.17, 192.0, 0.0, 0.0, 0.0, 0.0, 0.0, 0.0, 0.0, 0.0, 0.0, 1.6665568623334267E9, 0.0, 2022-10-23 13:27:42.333
59.0, -77754.94638144331, -118213.25787463879, 13323.807814575173, 81918.18230368881, 48840.707402313645, 20402.18060042627, 42570.3501785219, 85352.10315610208, 0.03, 0.9400000000000001, 0.17, 192.0, 0.0, 0.0, 0.0, 0.0, 0.0, 0.0, 0.0, 0.0, 0.0, 1.6665568623334346E9, 0.0, 2022-10-23 13:27:42.333
60.0, -77773.09599794103, -118226.22188642286, 13476.514932693832, 81933.7391178297, 48942.07256341846, 20426.7228158382, 42765.100927960986, 85729.2888437854, 0.03, 0.9400000000000001, 0.17, 192.0, 0.0, 0.0, 0.0, 0.0, 0.0, 0.0, 0.0, 0.0, 0.0, 1.6665568623334424E9, 0.0, 2022-10-23 13:27:42.333
61.0, -77796.63238485246, -118248.95361053392, 15346.439522080365, 81933.42619340733, 49056.96052991874, 20428.354493183433, 43780.27245763212, 86740.9735013215, 0.03, 0.9400000000000001, 0.17, 192.0, 0.0, 0.0, 0.0, 0.0, 0.0, 0.0, 0.0, 0.0, 0.0, 1.66655686233345E9, 0.0, 2022-10-23 13:27:42.333
62.0, -77763.28358212514, -118219.91869448648, 15286.782716129152, 81900.4797220802, 48870.39051895029, 20374.151512879314, 43590.34968499538, 86300.95705997433, 0.03, 0.9400000000000001, 0.17, 192.0, 0.0, 0.0, 0.0, 0.0, 0.0, 0.0, 0.0, 0.0, 0.0, 1.6665568623334577E9, 0.0, 2022-10-23 13:27:42.333
63.0, -77752.77826223115, -118208.2510838808, 13396.562742777198, 81915.36598388744, 48812.20892813313, 20391.74233576564, 42597.06051314599, 85342.58131296413, 0.03, 0.9400000000000001, 0.17, 192.0, 0.0, 0.0, 0.0, 0.0, 0.0, 0.0, 0.0, 0.0, 0.0, 1.6665568623334725E9, 0.0, 2022-10-23 13:27:42.333
64.0, -77774.07947469705, -118227.56299109019, 13298.863267763052, 81916.66238506585, 48919.34083930741, 20417.402138400335, 42673.928162327786, 85611.1598743391, 0.03, 0.9400000000000001, 0.17, 192.0, 0.0, 0.0, 0.0, 0.0, 0.0, 0.0, 0.0, 0.0, 0.0, 1.6665568623334804E9, 0.0, 2022-10-23 13:27:42.333
65.0, -77792.51966387268, -118244.10328198712, 14939.682476482687, 81927.61473984894, 49040.68845995527, 20425.828746059986, 43598.77629265503, 86577.93987726449, 0.03, 0.9400000000000001, 0.17, 192.0, 0.0, 0.0, 0.0, 0.0, 0.0, 0.0, 0.0, 0.0, 0.0, 1.666556862333488E9, 0.0, 2022-10-23 13:27:42.333
66.0, -77770.39143686193, -118224.657264311, 15564.41373400852, 81896.8810912229, 48908.32142929095, 20383.673356017276, 43784.362826867444, 86528.74368771836, 0.03, 0.9400000000000001, 0.166, 192.0, 0.0, 240.0, 29.0, 96.0, 5.0, 48.0, 0.0, 0.0, 0.0, 1.6665568623334959E9, 0.0, 2022-10-23 13:27:42.333
67.0, -77762.88125072495, -118215.15777291749, 13551.080352196735, 81895.4282278333, 48784.157488841716, 20368.98825991014, 42675.35867397293, 85383.73087450635, 0.03, 0.9400000000000001, 0.166, 192.0, 0.0, 0.0, 0.0, 0.0, 0.0, 0.0, 0.0, 0.0, 0.0, 1.666556862333504E9, 0.0, 2022-10-23 13:27:42.333
68.0, -77794.33015517356, -118244.55031687622, 13174.74403080273, 81894.64591677737, 48882.41575746724, 20372.631594256352, 42602.22376611517, 85499.91524218503, 0.03, 0.9400000000000001, 0.166, 192.0, 0.0, 0.0, 0.0, 0.0, 0.0, 0.0, 0.0, 0.0, 0.0, 1.6665568623335116E9, 0.0, 2022-10-23 13:27:42.333
69.0, -77800.72275408778, -118251.43465416845, 14505.030453804786, 81923.68083282482, 49008.92663108428, 20419.972589012694, 43386.68058951862, 86371.11918581954, 0.03, 0.9400000000000001, 0.166, 192.0, 0.0, 0.0, 0.0, 0.0, 0.0, 0.0, 0.0, 0.0, 0.0, 1.6665568623335204E9, 0.0, 2022-10-23 13:27:42.333
70.0, -77782.08139921205, -118237.59892435062, 15747.698038542037, 81907.8781494949, 48961.89856075031, 20408.886123762863, 43938.522808375696, 86725.34963194725, 0.03, 0.9400000000000001, 0.166, 192.0, 0.0, 0.0, 0.0, 0.0, 0.0, 0.0, 0.0, 0.0, 0.0, 1.666556862333528E9, 0.0, 2022-10-23 13:27:42.333
71.0, -77746.51977378366, -118205.32300535716, 13825.224497941077, 81908.14637042837, 48787.93493365466, 20388.791905497543, 42834.99483287273, 85516.20966389295, 0.03, 0.9400000000000001, 0.166, 192.0, 0.0, 0.0, 0.0, 0.0, 0.0, 0.0, 0.0, 0.0, 0.0, 1.666556862333536E9, 0.0, 2022-10-23 13:27:42.333
72.0, -77760.53431755715, -118216.23065665134, 13075.6363958879, 81926.49715262618, 48881.588742922395, 20417.312731422513, 42548.66898640025, 85424.96984302638, 0.03, 0.9400000000000001, 0.166, 192.0, 0.0, 0.0, 0.0, 0.0, 0.0, 0.0, 0.0, 0.0, 0.0, 1.6665568623335435E9, 0.0, 2022-10-23 13:27:42.333
73.0, -77789.39041964895, -118241.06344474119, 14063.561149068017, 81930.34165267249, 48999.114215268404, 20428.33214143898, 43176.03774977181, 86172.41217761186, 0.03, 0.9400000000000001, 0.166, 192.0, 0.0, 0.0, 0.0, 0.0, 0.0, 0.0, 0.0, 0.0, 0.0, 1.6665568623335512E9, 0.0, 2022-10-23 13:27:42.333
74.0, -77793.2125679508, -118246.11493898809, 15712.851668936215, 81909.75569602915, 48987.290142451544, 20406.248617917136, 43968.07181454561, 86818.15407492568, 0.03, 0.9400000000000001, 0.166, 192.0, 0.0, 0.0, 0.0, 0.0, 0.0, 0.0, 0.0, 0.0, 0.0, 1.666556862333559E9, 0.0, 2022-10-23 13:27:42.333
75.0, -77757.04744542211, -118213.48139208334, 14068.098553192443, 81892.27663186511, 48772.28871253595, 20362.41684704028, 42972.659226972966, 85658.00913071742, 0.032, 0.9380000000000001, 0.17400000000000002, 192.0, 1.0, 0.0, 29.0, 80.0, 5.0, 112.0, 0.0, 0.0, 0.0, 1.6665568623335667E9, 0.0, 2022-10-23 13:27:42.333
76.0, -77765.2058321483, -118219.51636308628, 12978.205141807217, 81916.97530948822, 48855.41485016523, 20397.732603279663, 42501.260936410545, 85359.83685968362, 0.032, 0.9380000000000001, 0.17400000000000002, 192.0, 0.0, 0.0, 0.0, 0.0, 0.0, 0.0, 0.0, 0.0, 0.0, 1.6665568623335748E9, 0.0, 2022-10-23 13:27:42.333
77.0, -77788.87632952647, -118240.23643019634, 13645.181196353578, 81934.81200156355, 48979.86936329238, 20430.679074606785, 42983.83509920062, 85982.82468114194, 0.032, 0.9380000000000001, 0.17400000000000002, 192.0, 0.0, 0.0, 0.0, 0.0, 0.0, 0.0, 0.0, 0.0, 0.0, 1.6665568623335829E9, 0.0, 2022-10-23 13:27:42.333
78.0, -77804.34373668954, -118256.24027922635, 15521.252515465321, 81925.53602761461, 49027.81385514902, 20418.69853957874, 43946.07769800159, 86850.36293868578, 0.032, 0.9380000000000001, 0.17400000000000002, 192.0, 0.0, 0.0, 0.0, 0.0, 0.0, 0.0, 0.0, 0.0, 0.0, 1.6665568623335905E9, 0.0, 2022-10-23 13:27:42.333
79.0, -77752.42063431986, -118208.49695306981, 14358.827693322623, 81914.62837632041, 48806.33041934138, 20385.37208859588, 43188.666485389054, 85881.07954038138, 0.032, 0.9380000000000001, 0.17400000000000002, 192.0, 0.0, 0.0, 0.0, 0.0, 0.0, 0.0, 0.0, 0.0, 0.0, 1.6665568623336058E9, 0.0, 2022-10-23 13:27:42.333
80.0, -77759.0591024231, -118211.38032810454, 12882.383213327315, 81931.2357224507, 48845.803600049454, 20410.13782145236, 42484.81005249143, 85312.62997539401, 0.032, 0.9380000000000001, 0.17400000000000002, 192.0, 0.0, 0.0, 0.0, 0.0, 0.0, 0.0, 0.0, 0.0, 0.0, 1.6665568623336136E9, 0.0, 2022-10-23 13:27:42.333
81.0, -77789.6139370935, -118237.68833132843, 13180.868408783486, 81925.44662063678, 48944.3524413529, 20420.93371402427, 42771.18060245283, 85770.55016404988, 0.032, 0.9380000000000001, 0.17400000000000002, 192.0, 0.0, 0.0, 0.0, 0.0, 0.0, 0.0, 0.0, 0.0, 0.0, 1.6665568623336215E9, 0.0, 2022-10-23 13:27:42.333
82.0, -77800.54394013213, -118249.7135698454, 15051.418847014767, 81925.98306250371, 49035.547558730555, 20426.65576060483, 43774.52805930711, 86748.39428048066, 0.032, 0.9380000000000001, 0.17400000000000002, 192.0, 0.0, 0.0, 0.0, 0.0, 0.0, 0.0, 0.0, 0.0, 0.0, 1.666556862333629E9, 0.0, 2022-10-23 13:27:42.333
83.0, -77768.91622172788, -118222.48914509884, 14511.311293996729, 81884.56528002802, 48826.37993411779, 20359.64523072782, 43346.112173332236, 86084.25689748013, 0.032, 0.9380000000000001, 0.17400000000000002, 192.0, 0.0, 0.0, 0.0, 0.0, 0.0, 0.0, 0.0, 0.0, 0.0, 1.6665568623336368E9, 0.0, 2022-10-23 13:27:42.333
84.0, -77759.37202684546, -118211.648549038, 12674.735507337513, 81909.77804777361, 48798.28379133747, 20380.23118737116, 42416.72663888057, 85245.08300365007, 0.032, 0.9380000000000001, 0.17400000000000002, 192.0, 0.0, 0.0, 0.0, 0.0, 0.0, 0.0, 0.0, 0.0, 0.0, 1.6665568623336446E9, 0.0, 2022-10-23 13:27:42.333
85.0, -77782.08139921205, -118233.37444464857, 12673.528513136926, 81917.77997228861, 48917.70916196217, 20416.6198273444, 42566.86330638687, 85593.4572927305, 0.03, 0.936, 0.168, 192.0, 0.0, 240.0, 29.0, 64.0, 5.0, 64.0, 0.0, 0.0, 0.0, 1.6665568623336525E9, 0.0, 2022-10-23 13:27:42.333
86.0, -77812.368012949, -118263.2140234964, 14381.8946936005, 81918.51757985563, 49025.265756281115, 20424.264123948113, 43525.75314351954, 86581.11382497715, 0.03, 0.936, 0.168, 192.0, 0.0, 0.0, 0.0, 0.0, 0.0, 0.0, 0.0, 0.0, 0.0, 1.6665568623336608E9, 0.0, 2022-10-23 13:27:42.333
87.0, -77785.94825100282, -118240.43759589644, 14518.419148733516, 81892.92483245432, 48864.62376888082, 20384.723888006676, 43464.464660223086, 86291.97165870329, 0.03, 0.936, 0.168, 192.0, 0.0, 0.0, 0.0, 0.0, 0.0, 0.0, 0.0, 0.0, 0.0, 1.6665568623336685E9, 0.0, 2022-10-23 13:27:42.333
88.0, -77755.48282331025, -118211.02270019327, 12511.679531536047, 81923.88199852491, 48797.68029423717, 20399.74426028064, 42417.844226103334, 85267.90413473894, 0.03, 0.936, 0.168, 192.0, 0.0, 0.0, 0.0, 0.0, 0.0, 0.0, 0.0, 0.0, 0.0, 1.666556862333701E9, 0.0, 2022-10-23 13:27:42.333
89.0, -77776.04642820913, -118228.81468877968, 12249.940603964402, 81931.77216431763, 48907.181490323725, 20420.173754712792, 42424.05801106191, 85480.8268524202, 0.03, 0.936, 0.168, 192.0, 0.0, 0.0, 0.0, 0.0, 0.0, 0.0, 0.0, 0.0, 0.0, 1.6665568623337088E9, 0.0, 2022-10-23 13:27:42.333
90.0, -77800.70040234333, -118254.45213966991, 13752.849549394794, 81936.2872166976, 49036.240462808666, 20431.595496129456, 43310.34938220375, 86431.08891619313, 0.03, 0.936, 0.168, 192.0, 0.0, 0.0, 0.0, 0.0, 0.0, 0.0, 0.0, 0.0, 0.0, 1.6665568623337164E9, 0.0, 2022-10-23 13:27:42.333
91.0, -77786.6635068254, -118240.66111334099, 14618.622019126657, 81907.40876286135, 48930.27084234606, 20388.389574097346, 43658.07547069496, 86553.95645546395, 0.03, 0.936, 0.168, 192.0, 0.0, 0.0, 0.0, 0.0, 0.0, 0.0, 0.0, 0.0, 0.0, 1.6665568623337252E9, 0.0, 2022-10-23 13:27:42.333
92.0, -77769.94440197283, -118220.2539706533, 12590.558837718825, 81908.05696345055, 48778.07781434987, 20363.914413918785, 42536.487285672105, 85369.31399933268, 0.03, 0.936, 0.168, 192.0, 0.0, 0.0, 0.0, 0.0, 0.0, 0.0, 0.0, 0.0, 0.0, 1.6665568623337328E9, 0.0, 2022-10-23 13:27:42.333
93.0, -77794.82189355158, -118239.47647088487, 12046.539729421107, 81920.05985022306, 48875.307902730456, 20388.23311188616, 42380.449757629605, 85407.3566683956, 0.03, 0.936, 0.168, 192.0, 0.0, 0.0, 0.0, 0.0, 0.0, 0.0, 0.0, 0.0, 0.0, 1.6665568623337405E9, 0.0, 2022-10-23 13:27:42.333
94.0, -77816.97247230679, -118262.87874732957, 13227.941182606362, 81929.29112068309, 48998.93540131276, 20410.070766218993, 43107.12732161609, 86233.32068125256, 0.03, 0.936, 0.168, 192.0, 0.0, 0.0, 0.0, 0.0, 0.0, 0.0, 0.0, 0.0, 0.0, 1.666556862333748E9, 0.0, 2022-10-23 13:27:42.333
95.0, -77813.6644141274, -118267.08087528717, 14646.04760957332, 81894.55650979954, 48950.85679898939, 20385.707364762708, 43769.476565060206, 86709.47989338398, 0.032, 0.9380000000000001, 0.164, 192.0, 1.0, 0.0, 29.0, 80.0, 5.0, 32.0, 0.0, 0.0, 0.0, 1.666556862333766E9, 0.0, 2022-10-23 13:27:42.333
96.0, -77760.53431755715, -118217.48235434084, 12803.705072844634, 81914.11428619795, 48775.01562535949, 20385.37208859588, 42706.02526736561, 85517.19314064899, 0.032, 0.9380000000000001, 0.164, 192.0, 0.0, 0.0, 0.0, 0.0, 0.0, 0.0, 0.0, 0.0, 0.0, 1.666556862333775E9, 0.0, 2022-10-23 13:27:42.333
97.0, -77774.37004737498, -118227.09360445662, 11920.252373248622, 81934.92376028583, 48871.61986489533, 20413.848211031942, 42358.58975155232, 85358.94278990541, 0.032, 0.9380000000000001, 0.164, 192.0, 0.0, 0.0, 0.0, 0.0, 0.0, 0.0, 0.0, 0.0, 0.0, 1.666556862333783E9, 0.0, 2022-10-23 13:27:42.333
98.0, -77805.84130356804, -118257.33551470465, 12752.005487919509, 81925.04428923658, 48974.77316555657, 20415.591647099453, 42907.54859537466, 86040.67099579227, 0.032, 0.9380000000000001, 0.164, 192.0, 0.0, 0.0, 0.0, 0.0, 0.0, 0.0, 0.0, 0.0, 0.0, 1.6665568623337903E9, 0.0, 2022-10-23 13:27:42.333
99.0, -77812.74799260474, -118266.25386074232, 14539.899175155066, 81898.31160286804, 48989.99470353064, 20388.389574097346, 43801.05957997556, 86800.80912122836, 0.032, 0.9380000000000001, 0.164, 192.0, 0.0, 0.0, 0.0, 0.0, 0.0, 0.0, 0.0, 0.0, 0.0, 1.6665568623337984E9, 0.0, 2022-10-23 13:27:42.333
100.0, -77765.11642517048, -118223.96436023289, 13091.39437572889, 81884.54292828357, 48772.35576776931, 20362.081570873448, 42909.53790063118, 85713.03912556639, 0.032, 0.9380000000000001, 0.164, 192.0, 0.0, 0.0, 0.0, 0.0, 0.0, 0.0, 0.0, 0.0, 0.0, 1.666556862333806E9, 0.0, 2022-10-23 13:27:42.333
101.0, -77774.92884098635, -118231.74276730332, 11850.850206714895, 81903.74307677068, 48830.82793126439, 20395.02804220057, 42342.9435304336, 85301.54351014418, 0.032, 0.9380000000000001, 0.164, 192.0, 0.0, 0.0, 0.0, 0.0, 0.0, 0.0, 0.0, 0.0, 0.0, 1.666556862333814E9, 0.0, 2022-10-23 13:27:42.333
102.0, -77794.12898947347, -118246.69608434393, 12385.772155019302, 81918.27171066662, 48945.93941520923, 20413.736452309662, 42752.49454408819, 85861.85704014981, 0.032, 0.9380000000000001, 0.164, 192.0, 0.0, 0.0, 0.0, 0.0, 0.0, 0.0, 0.0, 0.0, 0.0, 1.666556862333822E9, 0.0, 2022-10-23 13:27:42.333
103.0, -77807.67414661338, -118256.53085190426, 14326.976457473811, 81910.582710574, 49020.08015156748, 20418.430318645278, 43766.190858625276, 86801.09969390628, 0.032, 0.9380000000000001, 0.164, 192.0, 0.0, 0.0, 0.0, 0.0, 0.0, 0.0, 0.0, 0.0, 0.0, 1.6665568623338296E9, 0.0, 2022-10-23 13:27:42.333
104.0, -77775.71115204229, -118230.9604562474, 13445.580118367687, 81871.98124789969, 48802.35180882834, 20366.060181386492, 43151.24966517087, 85950.79463133749, 0.03, 0.9440000000000001, 0.164, 192.0, 0.0, 240.0, 29.0, 128.0, 5.0, 32.0, 0.0, 0.0, 0.0, 1.6665568623338375E9, 0.0, 2022-10-23 13:27:42.333
105.0, -77762.92595421386, -118219.42695610845, 11907.087195764447, 81905.82178900501, 48826.782265517984, 20397.442030601746, 42407.67418237617, 85310.37244920403, 0.03, 0.9440000000000001, 0.164, 192.0, 0.0, 0.0, 0.0, 0.0, 0.0, 0.0, 0.0, 0.0, 0.0, 1.666556862333846E9, 0.0, 2022-10-23 13:27:42.333
106.0, -77781.2096811783, -118232.92740975946, 12158.812541820114, 81924.79842004758, 48937.87043546086, 20423.86179254792, 42671.4694704377, 85741.51524800244, 0.03, 0.9440000000000001, 0.164, 192.0, 0.0, 0.0, 0.0, 0.0, 0.0, 0.0, 0.0, 0.0, 0.0, 1.6665568623338537E9, 0.0, 2022-10-23 13:27:42.333
107.0, -77809.93167280337, -118260.04007578375, 14053.078180918477, 81915.00835597616, 49030.20549180573, 20422.677150091786, 43692.60891587841, 86740.3253007323, 0.03, 0.9440000000000001, 0.164, 192.0, 0.0, 0.0, 0.0, 0.0, 0.0, 0.0, 0.0, 0.0, 0.0, 1.6665568623338616E9, 0.0, 2022-10-23 13:27:42.333
108.0, -77781.90258525641, -118237.42011039497, 13811.947561734625, 81867.08621586398, 48813.10299791134, 20358.237070827137, 43396.940040223606, 86196.93204127933, 0.03, 0.9440000000000001, 0.164, 192.0, 0.0, 0.0, 0.0, 0.0, 0.0, 0.0, 0.0, 0.0, 0.0, 1.6665568623338695E9, 0.0, 2022-10-23 13:27:42.333
109.0, -77772.31368688509, -118224.0537672107, 11955.098742854447, 81891.27080336462, 48775.03797710395, 20370.84345469993, 42432.12699081028, 85282.11984421252, 0.03, 0.9440000000000001, 0.164, 192.0, 0.0, 0.0, 0.0, 0.0, 0.0, 0.0, 0.0, 0.0, 0.0, 1.666556862333877E9, 0.0, 2022-10-23 13:27:42.333
110.0, -77788.18342544835, -118234.78260454925, 11917.681922636262, 81910.35919312945, 48890.90942036026, 20402.314710893002, 42543.483381686616, 85582.39317922511, 0.03, 0.9440000000000001, 0.164, 192.0, 0.0, 0.0, 0.0, 0.0, 0.0, 0.0, 0.0, 0.0, 0.0, 1.6665568623338923E9, 0.0, 2022-10-23 13:27:42.333
111.0, -77806.48950415725, -118250.78645357925, 13631.926611891582, 81931.50394338417, 49034.340564529964, 20433.987132786173, 43510.08457065637, 86583.97484826742, 0.03, 0.9440000000000001, 0.164, 192.0, 0.0, 0.0, 0.0, 0.0, 0.0, 0.0, 0.0, 0.0, 0.0, 1.6665568623339002E9, 0.0, 2022-10-23 13:27:42.333
112.0, -77779.7568177887, -118229.3064271577, 14152.834016422514, 81904.0783529375, 48903.336990277414, 20398.626673057875, 43649.06771767947, 86478.83224234966, 0.03, 0.9440000000000001, 0.164, 192.0, 0.0, 0.0, 0.0, 0.0, 0.0, 0.0, 0.0, 0.0, 0.0, 1.666556862333909E9, 0.0, 2022-10-23 13:27:42.333
113.0, -77756.19807913281, -118207.24525538032, 12140.953498000325, 81919.70222231177, 48789.00781738852, 20403.432298115767, 42548.35606197787, 85359.50158351679, 0.03, 0.9440000000000001, 0.164, 192.0, 0.0, 0.0, 0.0, 0.0, 0.0, 0.0, 0.0, 0.0, 0.0, 1.666556862333917E9, 0.0, 2022-10-23 13:27:42.333
114.0, -77782.59548933453, -118230.62518008056, 11805.140889303791, 81915.7906670321, 48888.56248719245, 20414.80933604352, 42493.79545376247, 85498.19415786197, 0.03, 0.9420000000000001, 0.162, 192.0, 0.0, 240.0, 29.0, 112.0, 5.0, 16.0, 0.0, 0.0, 0.0, 1.6665568623339243E9, 0.0, 2022-10-23 13:27:42.333
115.0, -77803.53907388914, -118252.77575883578, 13197.498106658233, 81929.62639684993, 49015.7215613987, 20430.00852227313, 43308.04715252485, 86387.05597961617, 0.03, 0.9420000000000001, 0.162, 192.0, 0.0, 0.0, 0.0, 0.0, 0.0, 0.0, 0.0, 0.0, 0.0, 1.6665568623339326E9, 0.0, 2022-10-23 13:27:42.333
116.0, -77790.97739350527, -118241.62223835257, 14358.403010177972, 81902.84900699246, 48949.78391525554, 20399.408984113812, 43816.01289701616, 86674.70057901152, 0.03, 0.9420000000000001, 0.162, 192.0, 0.0, 0.0, 0.0, 0.0, 0.0, 0.0, 0.0, 0.0, 0.0, 1.6665568623339405E9, 0.0, 2022-10-23 13:27:42.333
117.0, -77764.82585249256, -118211.71560427138, 12398.087966214176, 81896.63522203389, 48769.047709589926, 20372.922166934273, 42694.53647071558, 85457.44692771995, 0.03, 0.9420000000000001, 0.162, 192.0, 0.0, 0.0, 0.0, 0.0, 0.0, 0.0, 0.0, 0.0, 0.0, 1.666556862333948E9, 0.0, 2022-10-23 13:27:42.333
118.0, -77782.0590474676, -118225.37252013356, 11722.327676096878, 81917.46704786623, 48861.315710701434, 20400.548923081034, 42444.33104328287, 85403.84744451613, 0.03, 0.9420000000000001, 0.162, 192.0, 0.0, 0.0, 0.0, 0.0, 0.0, 0.0, 0.0, 0.0, 0.0, 1.6665568623339558E9, 0.0, 2022-10-23 13:27:42.333
119.0, -77806.57891113508, -118252.39577918003, 12790.428136638182, 81929.51463812764, 48994.10742451042, 20425.247600704148, 43112.37998156309, 86183.20807018377, 0.03, 0.9420000000000001, 0.162, 192.0, 0.0, 0.0, 0.0, 0.0, 0.0, 0.0, 0.0, 0.0, 0.0, 1.6665568623339636E9, 0.0, 2022-10-23 13:27:42.333
120.0, -77805.08134425657, -118253.1557384915, 14399.597275209104, 81902.42432384781, 48971.576866099465, 20404.259312660615, 43880.4082727919, 86785.76639720994, 0.03, 0.9420000000000001, 0.162, 192.0, 0.0, 0.0, 0.0, 0.0, 0.0, 0.0, 0.0, 0.0, 0.0, 1.6665568623339713E9, 0.0, 2022-10-23 13:27:42.333
121.0, -77766.90456472691, -118217.79527876321, 12723.015275360976, 81896.36700110043, 48776.89317189374, 20374.598547768423, 42877.77607176019, 85621.73224946645, 0.03, 0.9420000000000001, 0.162, 192.0, 0.0, 0.0, 0.0, 0.0, 0.0, 0.0, 0.0, 0.0, 0.0, 1.6665568628122985E9, 0.0, 2022-10-23 13:27:42.812
122.0, -77789.70334407131, -118238.09066272863, 11715.689207993652, 81907.31935588353, 48847.03294599449, 20387.47315257468, 42441.11239208131, 85354.60655148108, 0.03, 0.9420000000000001, 0.162, 192.0, 0.0, 0.0, 0.0, 0.0, 0.0, 0.0, 0.0, 0.0, 0.0, 1.6665568628123806E9, 0.0, 2022-10-23 13:27:42.812
123.0, -77823.87916134347, -118270.61245091111, 12430.497995674372, 81908.45929485075, 48949.29217687752, 20398.55961782451, 42923.59714789357, 85971.22412576963, 0.03, 0.9420000000000001, 0.162, 192.0, 0.0, 0.0, 0.0, 0.0, 0.0, 0.0, 0.0, 0.0, 0.0, 1.6665568628123891E9, 0.0, 2022-10-23 13:27:42.812
124.0, -77809.2611204697, -118260.2188897394, 14331.804434276157, 81917.89173101088, 49015.341581742956, 20420.03964424606, 43895.182775876856, 86832.68270882162, 0.028, 0.9420000000000001, 0.166, 192.0, 0.0, 224.0, 29.0, 112.0, 5.0, 48.0, 0.0, 0.0, 0.0, 1.6665568628123972E9, 0.0, 2022-10-23 13:27:42.812
125.0, -77763.79767224762, -118217.19178166293, 13113.41084401737, 81905.30769888255, 48799.78135821597, 20383.98628043965, 43109.72012397291, 85832.35273746881, 0.028, 0.9420000000000001, 0.166, 192.0, 0.0, 0.0, 0.0, 0.0, 0.0, 0.0, 0.0, 0.0, 0.0, 1.666556862812457E9, 0.0, 2022-10-23 13:27:42.812
126.0, -77786.79761729212, -118237.64362783953, 11741.572528072898, 81911.29796639657, 48825.61997480631, 20388.993071197638, 42450.90245615273, 85311.75825736026, 0.028, 0.9420000000000001, 0.166, 192.0, 0.0, 0.0, 0.0, 0.0, 0.0, 0.0, 0.0, 0.0, 0.0, 1.6665568628124657E9, 0.0, 2022-10-23 13:27:42.812
127.0, -77802.37678317747, -118251.30054370173, 12165.540416901162, 81917.46704786623, 48931.299022591, 20407.3662051399, 42794.80639634209, 85814.38193492674, 0.028, 0.9420000000000001, 0.166, 192.0, 0.0, 0.0, 0.0, 0.0, 0.0, 0.0, 0.0, 0.0, 0.0, 1.6665568628124747E9, 0.0, 2022-10-23 13:27:42.812
128.0, -77818.04535604065, -118265.35979096411, 14142.708676184258, 81915.4330391208, 49024.70696266973, 20408.59555108494, 43841.270368250654, 86804.11717940774, 0.028, 0.9420000000000001, 0.166, 192.0, 0.0, 0.0, 0.0, 0.0, 0.0, 0.0, 0.0, 0.0, 0.0, 1.666556862812483E9, 0.0, 2022-10-23 13:27:42.812
129.0, -77776.85109100952, -118227.76415679029, 13530.650857764585, 81887.80628297404, 48808.94557344265, 20364.45085578571, 43353.801173424865, 86072.18695547426, 0.028, 0.9420000000000001, 0.166, 192.0, 0.0, 0.0, 0.0, 0.0, 0.0, 0.0, 0.0, 0.0, 0.0, 1.6665568628124912E9, 0.0, 2022-10-23 13:27:42.812
130.0, -77770.39143686193, -118223.09264219912, 11832.588831494908, 81913.26491990864, 48799.803709960426, 20386.489675818644, 42486.62054379231, 85294.16743447393, 0.028, 0.9420000000000001, 0.166, 192.0, 0.0, 0.0, 0.0, 0.0, 0.0, 0.0, 0.0, 0.0, 0.0, 1.6665568628124995E9, 0.0, 2022-10-23 13:27:42.812
131.0, -77797.88408254196, -118248.61833436709, 11938.916079868804, 81909.84510300697, 48894.61980993984, 20387.160228152305, 42655.35386268543, 85647.63792129015, 0.028, 0.9420000000000001, 0.166, 192.0, 0.0, 0.0, 0.0, 0.0, 0.0, 0.0, 0.0, 0.0, 0.0, 1.6665568628125076E9, 0.0, 2022-10-23 13:27:42.812
132.0, -77820.25817874171, -118269.62897415507, 13787.070070155869, 81928.84408579399, 49020.97422134569, 20419.346740167945, 43671.24064817913, 86668.24092486393, 0.028, 0.9420000000000001, 0.166, 192.0, 0.0, 0.0, 0.0, 0.0, 0.0, 0.0, 0.0, 0.0, 0.0, 1.6665568628125157E9, 0.0, 2022-10-23 13:27:42.812
133.0, -77796.83355055256, -118250.69704660143, 13889.75398418355, 81891.85194872046, 48854.76664957603, 20384.925053706775, 43573.25060048707, 86318.83845553857, 0.028, 0.9420000000000001, 0.166, 192.0, 0.0, 0.0, 0.0, 0.0, 0.0, 0.0, 0.0, 0.0, 0.0, 1.666556862812528E9, 0.0, 2022-10-23 13:27:42.812
134.0, -77791.37972490546, -118245.22086920988, 11942.492358981654, 81889.61677427492, 48766.27609327747, 20375.336155335448, 42523.59032912139, 85293.8321583071, 0.03, 0.9480000000000001, 0.168, 192.0, 0.0, 240.0, 29.0, 160.0, 5.0, 64.0, 0.0, 0.0, 0.0, 1.6665568628125362E9, 0.0, 2022-10-23 13:27:42.812
135.0, -77814.55848390561, -118265.1139217751, 11809.745348661585, 81897.5292918121, 48883.66745515674, 20389.88714097585, 42580.676684460246, 85541.26596942735, 0.03, 0.9480000000000001, 0.168, 192.0, 0.0, 0.0, 0.0, 0.0, 0.0, 0.0, 0.0, 0.0, 0.0, 1.6665568628125446E9, 0.0, 2022-10-23 13:27:42.812
136.0, -77827.70130964533, -118276.82623586968, 13422.289600645257, 81921.44565837928, 49018.67199166679, 20422.028949502583, 43502.66379149721, 86507.30836478573, 0.03, 0.9480000000000001, 0.168, 192.0, 0.0, 0.0, 0.0, 0.0, 0.0, 0.0, 0.0, 0.0, 0.0, 1.6665568628125525E9, 0.0, 2022-10-23 13:27:42.812
137.0, -77801.63917561044, -118254.38508443655, 14206.545258348617, 81887.47100680722, 48901.660609443265, 20381.304071105013, 43780.98771345469, 86550.64839728456, 0.03, 0.9480000000000001, 0.168, 192.0, 0.0, 0.0, 0.0, 0.0, 0.0, 0.0, 0.0, 0.0, 0.0, 1.6665568628125603E9, 0.0, 2022-10-23 13:27:42.812
138.0, -77773.16305317439, -118224.94783698891, 12191.401385235953, 81895.67409702232, 48760.41993623018, 20373.03392565655, 42653.27515045108, 85373.91845869046, 0.03, 0.9480000000000001, 0.168, 192.0, 0.0, 0.0, 0.0, 0.0, 0.0, 0.0, 0.0, 0.0, 0.0, 1.6665568628125684E9, 0.0, 2022-10-23 13:27:42.812
139.0, -77799.64987035393, -118245.84671805463, 11738.286821637968, 81904.45833259325, 48868.021234038024, 20393.79869625553, 42533.60391063737, 85452.4177852175, 0.03, 0.9480000000000001, 0.168, 192.0, 0.0, 0.0, 0.0, 0.0, 0.0, 0.0, 0.0, 0.0, 0.0, 1.6665568628125772E9, 0.0, 2022-10-23 13:27:42.812
140.0, -77815.5196089172, -118259.43657868345, 13011.308075345527, 81927.19005670429, 48994.21918323269, 20423.548868125545, 43291.66332383911, 86308.51194960022, 0.03, 0.9480000000000001, 0.168, 192.0, 0.0, 0.0, 0.0, 0.0, 0.0, 0.0, 0.0, 0.0, 0.0, 1.666556862812585E9, 0.0, 2022-10-23 13:27:42.812
141.0, -77812.50212341573, -118258.78837809425, 14351.898652541478, 81901.9772889587, 48938.11630464987, 20396.90558873482, 43887.40436880641, 86715.35840217571, 0.03, 0.9480000000000001, 0.168, 192.0, 0.0, 0.0, 0.0, 0.0, 0.0, 0.0, 0.0, 0.0, 0.0, 1.6665568628126016E9, 0.0, 2022-10-23 13:27:42.812
142.0, -77793.2125679508, -118239.38706390704, 12466.976042625432, 81886.1299021399, 48741.13038076525, 20360.293431317026, 42779.83072755703, 85490.4828060249, 0.03, 0.9480000000000001, 0.168, 192.0, 0.0, 0.0, 0.0, 0.0, 0.0, 0.0, 0.0, 0.0, 0.0, 1.6665568628126094E9, 0.0, 2022-10-23 13:27:42.812
143.0, -77799.00166976472, -118243.29861918672, 11678.138277308737, 81906.96172797224, 48845.49067562708, 20394.759821267107, 42472.33777908538, 85368.77755746574, 0.032, 0.9420000000000001, 0.17, 192.0, 1.0, 0.0, 29.0, 112.0, 5.0, 80.0, 0.0, 0.0, 0.0, 1.6665568628126173E9, 0.0, 2022-10-23 13:27:42.812
144.0, -77818.69355662985, -118263.1693200075, 12619.213774110529, 81923.23379793571, 48975.44371789023, 20421.358397168922, 43081.04283583675, 86098.98669707617, 0.032, 0.9420000000000001, 0.17, 192.0, 0.0, 0.0, 0.0, 0.0, 0.0, 0.0, 0.0, 0.0, 0.0, 1.6665568628126273E9, 0.0, 2022-10-23 13:27:42.812
145.0, -77817.15128626244, -118266.67854388697, 14387.348519247595, 81901.64201279188, 48983.95973252771, 20399.27487364708, 43953.25260797174, 86823.0938104503, 0.032, 0.9420000000000001, 0.17, 192.0, 0.0, 0.0, 0.0, 0.0, 0.0, 0.0, 0.0, 0.0, 0.0, 1.6665568628126352E9, 0.0, 2022-10-23 13:27:42.812
146.0, -77781.07557071156, -118230.49106961382, 12845.011096598042, 81886.17460562881, 48753.110915793295, 20351.68800970173, 42992.66403826047, 85680.11500598372, 0.032, 0.9420000000000001, 0.17, 192.0, 0.0, 0.0, 0.0, 0.0, 0.0, 0.0, 0.0, 0.0, 0.0, 1.6665568628126433E9, 0.0, 2022-10-23 13:27:42.812
147.0, -77796.1629982189, -118237.97890400636, 11694.298588549924, 81908.57105357302, 48827.72103878511, 20379.717097248686, 42470.50493604004, 85319.15668477496, 0.032, 0.9420000000000001, 0.17, 192.0, 0.0, 0.0, 0.0, 0.0, 0.0, 0.0, 0.0, 0.0, 0.0, 1.666556862812651E9, 0.0, 2022-10-23 13:27:42.812
148.0, -77827.41073696742, -118266.23150899787, 12307.921029081468, 81903.72072502623, 48932.50601679159, 20391.74233576564, 42909.91788028692, 85901.30786911343, 0.032, 0.9420000000000001, 0.17, 192.0, 0.0, 0.0, 0.0, 0.0, 0.0, 0.0, 0.0, 0.0, 0.0, 1.666556862812659E9, 0.0, 2022-10-23 13:27:42.812
149.0, -77840.68767317387, -118281.90008186104, 14269.77834341268, 81897.66340227883, 48998.130738512365, 20401.867676003894, 43925.96112799182, 86823.76436278396, 0.032, 0.9420000000000001, 0.17, 192.0, 0.0, 0.0, 0.0, 0.0, 0.0, 0.0, 0.0, 0.0, 0.0, 1.666556862812667E9, 0.0, 2022-10-23 13:27:42.812
150.0, -77793.88312028446, -118239.2082499514, 13276.936206452396, 81876.96568691322, 48774.926218381675, 20363.154454607306, 43244.27762559386, 85910.67325004021, 0.032, 0.9420000000000001, 0.17, 192.0, 0.0, 0.0, 0.0, 0.0, 0.0, 0.0, 0.0, 0.0, 0.0, 1.6665568628126748E9, 0.0, 2022-10-23 13:27:42.812
151.0, -77788.8092742931, -118231.83217428115, 11767.433496407688, 81910.582710574, 48808.69970425364, 20401.80062077053, 42498.01993346452, 85289.58532686059, 0.032, 0.9420000000000001, 0.17, 192.0, 0.0, 0.0, 0.0, 0.0, 0.0, 0.0, 0.0, 0.0, 0.0, 1.6665568628126826E9, 0.0, 2022-10-23 13:27:42.812
152.0, -77809.17171349189, -118249.60181112312, 12053.401714968886, 81919.70222231177, 48918.78204569603, 20417.6703593338, 42763.64806457139, 85732.70866068706, 0.032, 0.9420000000000001, 0.17, 192.0, 0.0, 0.0, 0.0, 0.0, 0.0, 0.0, 0.0, 0.0, 0.0, 1.6665568628126905E9, 0.0, 2022-10-23 13:27:42.812
153.0, -77832.30576900313, -118273.45112245693, 14015.72841593366, 81918.56228334455, 49029.04320109406, 20416.552772111034, 43818.87392030644, 86760.01718759742, 0.034, 0.9420000000000001, 0.164, 192.0, 1.0, 16.0, 29.0, 112.0, 5.0, 32.0, 0.0, 0.0, 0.0, 1.6665568628126984E9, 0.0, 2022-10-23 13:27:42.812
154.0, -77804.23197796727, -118248.48422390035, 13717.511441410952, 81873.65762873384, 48820.501425326045, 20348.514061989077, 43502.03794265246, 86182.91749750586, 0.034, 0.9420000000000001, 0.164, 192.0, 0.0, 0.0, 0.0, 0.0, 0.0, 0.0, 0.0, 0.0, 0.0, 1.6665568628127065E9, 0.0, 2022-10-23 13:27:42.812
155.0, -77786.68585856985, -118230.58047659165, 11899.197029971723, 81894.10947491044, 48773.115727080796, 20368.474169787667, 42545.62914915432, 85287.21604194833, 0.034, 0.9420000000000001, 0.164, 192.0, 0.0, 0.0, 0.0, 0.0, 0.0, 0.0, 0.0, 0.0, 0.0, 1.6665568628127155E9, 0.0, 2022-10-23 13:27:42.812
156.0, -77802.13091398847, -118241.82340405267, 11888.82582054446, 81909.66628905134, 48881.029949311014, 20402.89585624884, 42652.962226028714, 85590.88684211813, 0.034, 0.9420000000000001, 0.164, 192.0, 0.0, 0.0, 0.0, 0.0, 0.0, 0.0, 0.0, 0.0, 0.0, 1.666556862812731E9, 0.0, 2022-10-23 13:27:42.812
157.0, -77834.92092310441, -118274.09932304613, 13625.377550766178, 81914.18134143131, 49005.059779293515, 20417.08921397796, 43612.43320851722, 86585.7853395683, 0.034, 0.9420000000000001, 0.164, 192.0, 0.0, 0.0, 0.0, 0.0, 0.0, 0.0, 0.0, 0.0, 0.0, 1.666556862812739E9, 0.0, 2022-10-23 13:27:42.812
158.0, -77810.84809432604, -118255.0109332813, 14033.878032431368, 81880.11728288142, 48864.04262352498, 20368.094190131927, 43688.85382280991, 86411.642898517, 0.034, 0.9420000000000001, 0.164, 192.0, 0.0, 0.0, 0.0, 0.0, 0.0, 0.0, 0.0, 0.0, 0.0, 1.6665568628127468E9, 0.0, 2022-10-23 13:27:42.812
159.0, -77784.49538761323, -118230.64753182502, 12074.032375101135, 81895.07059992202, 48770.32175902388, 20376.297280347026, 42626.20718791571, 85334.42292623794, 0.034, 0.9420000000000001, 0.164, 192.0, 0.0, 0.0, 0.0, 0.0, 0.0, 0.0, 0.0, 0.0, 0.0, 1.666556862812756E9, 0.0, 2022-10-23 13:27:42.812
160.0, -77808.67997511388, -118253.78158733626, 11807.219601538134, 81901.01616394713, 48870.94931256167, 20392.837571243952, 42602.44728355972, 85502.82096896422, 0.034, 0.9420000000000001, 0.164, 192.0, 0.0, 0.0, 0.0, 0.0, 0.0, 0.0, 0.0, 0.0, 0.0, 1.666556862812764E9, 0.0, 2022-10-23 13:27:42.812
161.0, -77827.1201642895, -118271.46181720041, 13295.018767716738, 81920.55158860107, 49003.74102637065, 20421.604266357932, 43461.71539565508, 86426.17153241296, 0.034, 0.9420000000000001, 0.164, 192.0, 0.0, 0.0, 0.0, 0.0, 0.0, 0.0, 0.0, 0.0, 0.0, 1.6665568628127718E9, 0.0, 2022-10-23 13:27:42.812
162.0, -77813.82087633859, -118261.89527057354, 14319.041588192176, 81889.95205044176, 48903.62756295533, 20381.616995527387, 43870.573505231565, 86615.2896422493, 0.034, 0.9420000000000001, 0.164, 192.0, 0.0, 0.0, 0.0, 0.0, 0.0, 0.0, 0.0, 0.0, 0.0, 1.6665568628127797E9, 0.0, 2022-10-23 13:27:42.812
163.0, -77785.16593994689, -118234.40262489351, 12355.194968604443, 81889.88499520838, 48749.44522970262, 20363.020344140572, 42754.327387133526, 85415.67151733297, 0.038, 0.9440000000000001, 0.162, 192.0, 1.0, 48.0, 29.0, 128.0, 5.0, 16.0, 0.0, 0.0, 0.0, 1.6665568628127875E9, 0.0, 2022-10-23 13:27:42.812
164.0, -77804.76841983419, -118250.96526753489, 11776.553008145453, 81901.44084709178, 48848.23994019508, 20388.613091541898, 42557.05089057099, 85412.92225276498, 0.038, 0.9440000000000001, 0.162, 192.0, 0.0, 0.0, 0.0, 0.0, 0.0, 0.0, 0.0, 0.0, 0.0, 1.666556862812796E9, 0.0, 2022-10-23 13:27:42.812
165.0, -77831.09877480255, -118273.27230850128, 12919.934144012232, 81915.835370521, 48978.349444669424, 20419.03381574557, 43251.43018381956, 86215.26047173268, 0.038, 0.9440000000000001, 0.162, 192.0, 0.0, 0.0, 0.0, 0.0, 0.0, 0.0, 0.0, 0.0, 0.0, 1.6665568628128037E9, 0.0, 2022-10-23 13:27:42.812
166.0, -77826.89664684495, -118273.56288117921, 14471.704002821923, 81890.73436149769, 48955.93064498075, 20393.150495666327, 43979.02416932871, 86766.20862081154, 0.038, 0.9440000000000001, 0.162, 192.0, 0.0, 0.0, 0.0, 0.0, 0.0, 0.0, 0.0, 0.0, 0.0, 1.6665568628128119E9, 0.0, 2022-10-23 13:27:42.812
167.0, -77783.109579457, -118230.33460740265, 12741.544871514425, 81888.11920739642, 48758.65414841821, 20369.435294799245, 42951.22390404033, 85582.12495829165, 0.038, 0.9440000000000001, 0.162, 192.0, 0.0, 0.0, 0.0, 0.0, 0.0, 0.0, 0.0, 0.0, 0.0, 1.6665568628128195E9, 0.0, 2022-10-23 13:27:42.812
168.0, -77792.43025689486, -118233.93323825995, 11787.125383272814, 81909.15219892886, 48826.6258033068, 20400.66068180331, 42530.072335013436, 85342.42485075294, 0.038, 0.9440000000000001, 0.162, 192.0, 0.0, 0.0, 0.0, 0.0, 0.0, 0.0, 0.0, 0.0, 0.0, 1.6665568628128276E9, 0.0, 2022-10-23 13:27:42.812
169.0, -77829.84707711305, -118268.13140727657, 12572.029241565377, 81916.32710889902, 48943.681889019244, 20414.049376732037, 43044.296567952224, 85995.52047199255, 0.038, 0.9440000000000001, 0.162, 192.0, 0.0, 0.0, 0.0, 0.0, 0.0, 0.0, 0.0, 0.0, 0.0, 1.6665568628128355E9, 0.0, 2022-10-23 13:27:42.812
170.0, -77842.5205162192, -118285.29754701824, 14439.316325106183, 81895.36117259994, 48976.78482255755, 20394.133972422358, 43981.19228854088, 86808.00638294297, 0.038, 0.9440000000000001, 0.162, 192.0, 0.0, 0.0, 0.0, 0.0, 0.0, 0.0, 0.0, 0.0, 0.0, 1.666556862812843E9, 0.0, 2022-10-23 13:27:42.812
171.0, -77795.29128018515, -118241.37636916357, 13139.897661196908, 81876.58570725749, 48760.17406704117, 20357.924146404763, 43154.22244718343, 85770.88544021672, 0.038, 0.9440000000000001, 0.162, 192.0, 0.0, 0.0, 0.0, 0.0, 0.0, 0.0, 0.0, 0.0, 0.0, 1.6665568628128512E9, 0.0, 2022-10-23 13:27:42.812
172.0, -77794.44191389585, -118237.66597958398, 11840.903680432282, 81907.67698379481, 48811.13604439927, 20395.564484067498, 42535.66027112726, 85301.40939967745, 0.038, 0.9440000000000001, 0.168, 192.0, 1.0, 48.0, 29.0, 128.0, 5.0, 64.0, 0.0, 0.0, 0.0, 1.6665568628128664E9, 0.0, 2022-10-23 13:27:42.812
173.0, -77812.5691786491, -118253.69218035844, 12305.439985446928, 81924.01610899164, 48923.341801564915, 20424.778214070586, 42890.00247597724, 85820.37220244076, 0.038, 0.9440000000000001, 0.168, 192.0, 0.0, 0.0, 0.0, 0.0, 0.0, 0.0, 0.0, 0.0, 0.0, 1.6665568628128748E9, 0.0, 2022-10-23 13:27:42.812
174.0, -77822.98509156526, -118265.87388108658, 14271.901759135933, 81928.15118171588, 49009.686590395766, 20425.784042571075, 43913.2653371412, 86788.18038561111, 0.038, 0.9440000000000001, 0.168, 192.0, 0.0, 0.0, 0.0, 0.0, 0.0, 0.0, 0.0, 0.0, 0.0, 1.6665568628128827E9, 0.0, 2022-10-23 13:27:42.812
175.0, -77792.20673945031, -118241.77870056377, 13551.661497552574, 81884.18530037228, 48795.44511979164, 20365.054352886003, 43371.01201665545, 86004.3047075635, 0.038, 0.9440000000000001, 0.168, 192.0, 0.0, 0.0, 0.0, 0.0, 0.0, 0.0, 0.0, 0.0, 0.0, 1.6665568628128903E9, 0.0, 2022-10-23 13:27:42.812
176.0, -77802.91322504441, -118251.68052335746, 11916.027893546569, 81892.16487314283, 48776.446137004634, 20375.246748357626, 42537.38135545032, 85266.76419577173, 0.038, 0.9440000000000001, 0.168, 192.0, 0.0, 0.0, 0.0, 0.0, 0.0, 0.0, 0.0, 0.0, 0.0, 1.666556862812899E9, 0.0, 2022-10-23 13:27:42.812
177.0, -77821.44282119785, -118264.39866595253, 12087.689290963328, 81908.30283263956, 48881.387577222304, 20396.346795123434, 42739.46347707075, 85653.35996787071, 0.038, 0.9440000000000001, 0.168, 192.0, 0.0, 0.0, 0.0, 0.0, 0.0, 0.0, 0.0, 0.0, 0.0, 1.666556862812907E9, 0.0, 2022-10-23 13:27:42.812
178.0, -77837.69253941686, -118279.26257601532, 13969.259139211075, 81918.29406241108, 49004.32217172649, 20416.59747559994, 43760.82643995601, 86671.66074176559, 0.038, 0.9440000000000001, 0.168, 192.0, 0.0, 0.0, 0.0, 0.0, 0.0, 0.0, 0.0, 0.0, 0.0, 1.6665568628129148E9, 0.0, 2022-10-23 13:27:42.812
179.0, -77808.14353324694, -118255.68148561496, 13938.95017372968, 81877.03274214659, 48825.530567828486, 20369.211777354692, 43585.477004704124, 86241.7025854233, 0.038, 0.9440000000000001, 0.168, 192.0, 0.0, 0.0, 0.0, 0.0, 0.0, 0.0, 0.0, 0.0, 0.0, 1.6665568628129225E9, 0.0, 2022-10-23 13:27:42.812
180.0, -77794.48661738475, -118243.83506105364, 12065.829284886036, 81898.55747205704, 48771.59580845783, 20383.31572810599, 42593.394827055316, 85282.76804480172, 0.038, 0.9440000000000001, 0.168, 192.0, 0.0, 0.0, 0.0, 0.0, 0.0, 0.0, 0.0, 0.0, 0.0, 1.6665568628129303E9, 0.0, 2022-10-23 13:27:42.812
181.0, -77820.30288223064, -118266.00799155331, 11958.22798707819, 81906.46998959423, 48871.26223698405, 20409.333158651967, 42650.12355448289, 85532.25821641186, 0.038, 0.9440000000000001, 0.168, 192.0, 0.0, 0.0, 0.0, 0.0, 0.0, 0.0, 0.0, 0.0, 0.0, 1.666556862812938E9, 0.0, 2022-10-23 13:27:42.812
182.0, -77845.24742904275, -118286.68335517448, 13609.2619430139, 81913.086105953, 48997.23666873416, 20417.491545378154, 43577.3856732113, 86504.02265835079, 0.038, 0.9440000000000001, 0.168, 192.0, 1.0, 48.0, 29.0, 128.0, 5.0, 64.0, 0.0, 0.0, 0.0, 1.666556862812946E9, 0.0, 2022-10-23 13:27:42.812
183.0, -77818.20181825184, -118262.43171244046, 14258.691878162846, 81883.13476838288, 48861.49452465708, 20366.55191976451, 43776.09268141898, 86462.62722761957, 0.038, 0.9440000000000001, 0.168, 192.0, 0.0, 0.0, 0.0, 0.0, 0.0, 0.0, 0.0, 0.0, 0.0, 1.666556862812954E9, 0.0, 2022-10-23 13:27:42.812
184.0, -77788.18342544835, -118230.89340101402, 12268.403144884485, 81902.40197210335, 48751.52394193697, 20366.820140697975, 42680.05254030854, 85326.28689125621, 0.038, 0.9440000000000001, 0.168, 192.0, 0.0, 0.0, 0.0, 0.0, 0.0, 0.0, 0.0, 0.0, 0.0, 1.6665568628129618E9, 0.0, 2022-10-23 13:27:42.812
185.0, -77805.72954484577, -118246.11493898809, 11875.370070382365, 81914.31545189804, 48855.034870509495, 20401.197123670237, 42588.74566420861, 85431.54125589624, 0.038, 0.9440000000000001, 0.168, 192.0, 0.0, 0.0, 0.0, 0.0, 0.0, 0.0, 0.0, 0.0, 0.0, 1.6665568628129697E9, 0.0, 2022-10-23 13:27:42.812
186.0, -77835.01033008222, -118276.78153238077, 13194.167696734394, 81924.41844039183, 48977.365967913385, 20429.628542617385, 43359.38910953869, 86295.70440002733, 0.038, 0.9440000000000001, 0.168, 192.0, 0.0, 0.0, 0.0, 0.0, 0.0, 0.0, 0.0, 0.0, 0.0, 1.6665568628129773E9, 0.0, 2022-10-23 13:27:42.812
187.0, -77828.03658581217, -118275.97686958038, 14441.52914780726, 81890.75671324214, 48911.025990370035, 20399.69955679173, 43904.324639359074, 86645.17392458605, 0.038, 0.9440000000000001, 0.168, 192.0, 0.0, 0.0, 0.0, 0.0, 0.0, 0.0, 0.0, 0.0, 0.0, 1.666556862812992E9, 0.0, 2022-10-23 13:27:42.812
188.0, -77789.03279173766, -118239.32000867368, 12538.792197560335, 81896.32229761152, 48742.829113343854, 20385.774419996076, 42811.9054808504, 85446.33811072566, 0.038, 0.9440000000000001, 0.168, 192.0, 0.0, 0.0, 0.0, 0.0, 0.0, 0.0, 0.0, 0.0, 0.0, 1.666556862813E9, 0.0, 2022-10-23 13:27:42.813
189.0, -77807.83060882457, -118255.74854084833, 11829.14666284879, 81909.82275126252, 48841.66852732522, 20411.03189123057, 42551.82058236845, 85371.88444994504, 0.038, 0.9440000000000001, 0.168, 192.0, 0.0, 0.0, 0.0, 0.0, 0.0, 0.0, 0.0, 0.0, 0.0, 1.6665568628130078E9, 0.0, 2022-10-23 13:27:42.813
190.0, -77831.85873411402, -118276.75918063632, 12805.828488567888, 81917.31058565505, 48950.812095500485, 20423.928847781284, 43155.42944138401, 86095.38806621886, 0.038, 0.9440000000000001, 0.168, 192.0, 0.0, 0.0, 0.0, 0.0, 0.0, 0.0, 0.0, 0.0, 0.0, 1.6665568628130157E9, 0.0, 2022-10-23 13:27:42.813
191.0, -77835.56912369361, -118282.34711675014, 14481.538770382258, 81896.70227726725, 48948.62162454386, 20398.5149143356, 43960.91925631992, 86753.87045787221, 0.038, 0.9440000000000001, 0.168, 192.0, 0.0, 0.0, 0.0, 0.0, 0.0, 0.0, 0.0, 0.0, 0.0, 1.666556862813023E9, 0.0, 2022-10-23 13:27:42.813
192.0, -77797.66056509741, -118246.29375294373, 12886.250065118084, 81883.29123059407, 48739.52105516446, 20359.913451661283, 42989.37833182554, 85610.98106038345, 0.04, 0.9400000000000001, 0.162, 192.0, 1.0, 64.0, 29.0, 96.0, 5.0, 16.0, 0.0, 0.0, 0.0, 1.666556862813031E9, 0.0, 2022-10-23 13:27:42.813
193.0, -77811.54099840415, -118252.93222104695, 11799.86587761234, 81898.08808542349, 48804.09524489585, 20382.600472283422, 42500.79154977698, 85287.84189079308, 0.04, 0.9400000000000001, 0.162, 192.0, 0.0, 0.0, 0.0, 0.0, 0.0, 0.0, 0.0, 0.0, 0.0, 1.6665568628130393E9, 0.0, 2022-10-23 13:27:42.813
194.0, -77835.23384752678, -118276.02157306929, 12463.310356534763, 81905.79943726056, 48917.23977532861, 20402.60528357092, 42963.22679081283, 85894.75880798804, 0.04, 0.9400000000000001, 0.162, 192.0, 0.0, 0.0, 0.0, 0.0, 0.0, 0.0, 0.0, 0.0, 0.0, 1.666556862813047E9, 0.0, 2022-10-23 13:27:42.813
195.0, -77833.40100448143, -118275.57453818018, 14392.869400128056, 81906.96172797224, 48977.83535454695, 20405.04162371655, 43947.23998871326, 86786.19108035459, 0.04, 0.9400000000000001, 0.162, 192.0, 0.0, 0.0, 0.0, 0.0, 0.0, 0.0, 0.0, 0.0, 0.0, 1.6665568628130548E9, 0.0, 2022-10-23 13:27:42.813
196.0, -77790.53035861616, -118233.21798243737, 13303.91476200995, 81894.06477142153, 48770.70173867962, 20370.239957599635, 43221.34473578272, 85842.27691200697, 0.04, 0.9400000000000001, 0.162, 192.0, 0.0, 0.0, 0.0, 0.0, 0.0, 0.0, 0.0, 0.0, 0.0, 1.6665568628130624E9, 0.0, 2022-10-23 13:27:42.813
197.0, -77800.25336745422, -118240.81757555218, 11884.534285609041, 81907.2299489057, 48802.93295418417, 20399.453687602723, 42535.66027112726, 85277.67184706591, 0.04, 0.9400000000000001, 0.162, 192.0, 0.0, 0.0, 0.0, 0.0, 0.0, 0.0, 0.0, 0.0, 0.0, 1.6665568628130713E9, 0.0, 2022-10-23 13:27:42.813
198.0, -77814.89376007245, -118256.82142458219, 12208.27695229971, 81916.0365362211, 48900.72183617614, 20411.94831275324, 42809.826768616054, 85726.27135828392, 0.04, 0.9400000000000001, 0.162, 192.0, 0.0, 0.0, 0.0, 0.0, 0.0, 0.0, 0.0, 0.0, 0.0, 1.666556862813079E9, 0.0, 2022-10-23 13:27:42.813
199.0, -77840.91119061843, -118281.5648056942, 14148.22955706472, 81909.01808846214, 48997.95192455673, 20409.131992951872, 43833.380202457935, 86721.88511155666, 0.04, 0.9400000000000001, 0.162, 192.0, 0.0, 0.0, 0.0, 0.0, 0.0, 0.0, 0.0, 0.0, 0.0, 1.6665568628130867E9, 0.0, 2022-10-23 13:27:42.813
200.0, -77800.87921629897, -118241.13049997456, 13707.542563383886, 81886.55458528455, 48802.28475359497, 20377.481922803156, 43441.464715178576, 86087.02851379258, 0.04, 0.9400000000000001, 0.162, 192.0, 0.0, 0.0, 0.0, 0.0, 0.0, 0.0, 0.0, 0.0, 0.0, 1.6665568628130944E9, 0.0, 2022-10-23 13:27:42.813
201.0, -77797.77232381968, -118236.50368887231, 11959.278519067588, 81905.06182969354, 48779.12834633927, 20394.759821267107, 42536.420230438736, 85255.27539912169, 0.04, 0.9400000000000001, 0.162, 192.0, 0.0, 0.0, 0.0, 0.0, 0.0, 0.0, 0.0, 0.0, 0.0, 1.666556862813102E9, 0.0, 2022-10-23 13:27:42.813
202.0, -77818.15711476291, -118253.44631116943, 12028.770092579138, 81909.24160590669, 48882.996902823084, 20409.4672691187, 42691.11665381392, 85594.79839739781, 0.036000000000000004, 0.9440000000000001, 0.162, 192.0, 1.0, 32.0, 29.0, 128.0, 5.0, 16.0, 0.0, 0.0, 0.0, 1.6665568628131096E9, 0.0, 2022-10-23 13:27:42.813
203.0, -77841.11235631852, -118277.67560215898, 13832.555870122418, 81913.80136177556, 48997.77311060108, 20421.17958321328, 43682.6623895958, 86601.36450545365, 0.036000000000000004, 0.9440000000000001, 0.162, 192.0, 0.0, 0.0, 0.0, 0.0, 0.0, 0.0, 0.0, 0.0, 0.0, 1.6665568628131251E9, 0.0, 2022-10-23 13:27:42.813
204.0, -77814.17850424988, -118255.6144303816, 14071.406611371829, 81881.34662882646, 48831.744352787064, 20374.799713468517, 43649.33593861293, 86323.04058349617, 0.036000000000000004, 0.9440000000000001, 0.162, 192.0, 0.0, 0.0, 0.0, 0.0, 0.0, 0.0, 0.0, 0.0, 0.0, 1.6665568628131332E9, 0.0, 2022-10-23 13:27:42.813
205.0, -77788.85397778201, -118230.7592905473, 12135.231451419766, 81903.94424247078, 48761.068136819384, 20391.719984021187, 42609.08575166294, 85291.44052165038, 0.036000000000000004, 0.9440000000000001, 0.162, 192.0, 0.0, 0.0, 0.0, 0.0, 0.0, 0.0, 0.0, 0.0, 0.0, 1.666556862813141E9, 0.0, 2022-10-23 13:27:42.813
206.0, -77805.77424833468, -118244.59502036513, 11922.286381994056, 81913.91312049785, 48866.25544622606, 20417.558600611523, 42616.059495933, 85495.7801694608, 0.036000000000000004, 0.9440000000000001, 0.162, 192.0, 0.0, 0.0, 0.0, 0.0, 0.0, 0.0, 0.0, 0.0, 0.0, 1.6665568628131492E9, 0.0, 2022-10-23 13:27:42.813
207.0, -77833.44570797036, -118270.59009916666, 13439.18751945347, 81924.57490260302, 48988.005398274116, 20436.356417698433, 43477.51807898499, 86424.98688995682, 0.036000000000000004, 0.9440000000000001, 0.162, 192.0, 0.0, 0.0, 0.0, 0.0, 0.0, 0.0, 0.0, 0.0, 0.0, 1.666556862813157E9, 0.0, 2022-10-23 13:27:42.813
208.0, -77818.40298395194, -118261.7164566179, 14347.003620505766, 81887.76157948513, 48882.661626656256, 20395.497428834133, 43816.83991156101, 86545.7310135044, 0.036000000000000004, 0.9440000000000001, 0.162, 192.0, 0.0, 0.0, 0.0, 0.0, 0.0, 0.0, 0.0, 0.0, 0.0, 1.6665568628131647E9, 0.0, 2022-10-23 13:27:42.813
209.0, -77791.24561443873, -118234.00029349331, 12368.918939700001, 81894.69062026628, 48742.35972671029, 20379.42652457077, 42704.192424320274, 85365.26833358627, 0.036000000000000004, 0.9440000000000001, 0.162, 192.0, 0.0, 0.0, 0.0, 0.0, 0.0, 0.0, 0.0, 0.0, 0.0, 1.6665568628131728E9, 0.0, 2022-10-23 13:27:42.813
210.0, -77818.62650139649, -118258.29663971624, 11852.861863715872, 81903.74307677068, 48839.94744300216, 20397.84436200194, 42544.95859682067, 85396.78429326824, 0.036000000000000004, 0.9440000000000001, 0.162, 192.0, 0.0, 0.0, 0.0, 0.0, 0.0, 0.0, 0.0, 0.0, 0.0, 1.6665568628131807E9, 0.0, 2022-10-23 13:27:42.813
211.0, -77839.52538246219, -118279.37433473759, 13035.716180290721, 81920.73040255671, 48958.79166827103, 20421.98424601367, 43250.13378264115, 86206.00684952819, 0.034, 0.9480000000000001, 0.164, 192.0, 1.0, 16.0, 29.0, 160.0, 5.0, 32.0, 0.0, 0.0, 0.0, 1.6665568628131886E9, 0.0, 2022-10-23 13:27:42.813
212.0, -77835.97145509381, -118278.32380274819, 14496.11210776712, 81894.86943422192, 48929.93556617923, 20389.015422942095, 43923.30127040163, 86697.18643393356, 0.034, 0.9480000000000001, 0.164, 192.0, 0.0, 0.0, 0.0, 0.0, 0.0, 0.0, 0.0, 0.0, 0.0, 1.6665568628131974E9, 0.0, 2022-10-23 13:27:42.813
213.0, -77806.13187624597, -118250.27236345678, 12730.056074864397, 81881.65955324883, 48739.09637201981, 20355.018419625572, 42887.499080598245, 85512.11929465763, 0.034, 0.9480000000000001, 0.164, 192.0, 0.0, 0.0, 0.0, 0.0, 0.0, 0.0, 0.0, 0.0, 0.0, 1.6665568628132055E9, 0.0, 2022-10-23 13:27:42.813
214.0, -77813.0162135382, -118253.22279372488, 11872.665509303273, 81909.42041986232, 48823.04952419395, 20399.11841143589, 42532.933358303715, 85335.47345822734, 0.034, 0.9480000000000001, 0.164, 192.0, 0.0, 0.0, 0.0, 0.0, 0.0, 0.0, 0.0, 0.0, 0.0, 1.6665568628132133E9, 0.0, 2022-10-23 13:27:42.813
215.0, -77835.85969637152, -118277.85441611463, 12739.577918002358, 81919.56811184503, 48943.07839191895, 20417.268027933602, 43093.69392319846, 86022.96841418368, 0.034, 0.9480000000000001, 0.164, 192.0, 0.0, 0.0, 0.0, 0.0, 0.0, 0.0, 0.0, 0.0, 0.0, 1.6665568628132212E9, 0.0, 2022-10-23 13:27:42.813
216.0, -77848.04139709966, -118294.68527968947, 14542.469625767426, 81893.64008827688, 48949.470990833164, 20391.675280532276, 43977.727768150304, 86773.29412380388, 0.034, 0.9480000000000001, 0.164, 192.0, 0.0, 0.0, 0.0, 0.0, 0.0, 0.0, 0.0, 0.0, 0.0, 1.666556862813229E9, 0.0, 2022-10-23 13:27:42.813
217.0, -77797.0123645082, -118245.62320061008, 13125.346675556502, 81887.80628297404, 48741.59976739881, 20364.83083544145, 43084.52970797178, 85688.72042759901, 0.034, 0.9480000000000001, 0.164, 192.0, 0.0, 0.0, 0.0, 0.0, 0.0, 0.0, 0.0, 0.0, 0.0, 1.666556862813237E9, 0.0, 2022-10-23 13:27:42.813
218.0, -77801.25919595471, -118242.82923255317, 11900.515782894587, 81915.7906670321, 48808.23031762008, 20400.12423993638, 42513.30852667195, 85275.41432087593, 0.034, 0.9480000000000001, 0.164, 192.0, 0.0, 0.0, 0.0, 0.0, 0.0, 0.0, 0.0, 0.0, 0.0, 1.666556862813252E9, 0.0, 2022-10-23 13:27:42.813
219.0, -77816.34662346204, -118254.29567745874, 12468.004222870377, 81937.56126613155, 48935.25528135959, 20441.676132878798, 42935.06359279914, 85847.82014463189, 0.034, 0.9480000000000001, 0.164, 192.0, 0.0, 0.0, 0.0, 0.0, 0.0, 0.0, 0.0, 0.0, 0.0, 1.6665568628132608E9, 0.0, 2022-10-23 13:27:42.813
220.0, -77829.31063524612, -118273.13819803456, 14417.56807775117, 81924.50784736966, 49003.718674626194, 20435.797624087052, 43938.50045663124, 86780.89371691868, 0.034, 0.9480000000000001, 0.164, 192.0, 0.0, 0.0, 0.0, 0.0, 0.0, 0.0, 0.0, 0.0, 0.0, 1.666556862813269E9, 0.0, 2022-10-23 13:27:42.813
221.0, -77796.11829472998, -118241.86810754158, 13567.598291349208, 81885.25818410613, 48781.25176206252, 20380.36529783789, 43328.29783300136, 85934.1872852072, 0.038, 0.9460000000000001, 0.164, 192.0, 1.0, 48.0, 29.0, 144.0, 5.0, 32.0, 0.0, 0.0, 0.0, 1.6665568628132763E9, 0.0, 2022-10-23 13:27:42.813
222.0, -77808.25529196922, -118251.2558402128, 11992.604970050452, 81895.18235864429, 48783.308122552415, 20390.960024709704, 42535.928492060724, 85250.26860836371, 0.038, 0.9460000000000001, 0.164, 192.0, 0.0, 0.0, 0.0, 0.0, 0.0, 0.0, 0.0, 0.0, 0.0, 1.6665568628132846E9, 0.0, 2022-10-23 13:27:42.813
223.0, -77821.06284154211, -118266.49972993133, 12218.46934777133, 81909.4874750957, 48880.895838844284, 20414.205838943224, 42766.062052972564, 85659.7749185294, 0.038, 0.9460000000000001, 0.164, 192.0, 0.0, 0.0, 0.0, 0.0, 0.0, 0.0, 0.0, 0.0, 0.0, 1.6665568628132925E9, 0.0, 2022-10-23 13:27:42.813
224.0, -77848.91311513343, -118296.09343959016, 14126.168385287332, 81913.04140246409, 48994.35329369942, 20413.736452309662, 43788.5873065695, 86669.78319523134, 0.038, 0.9460000000000001, 0.164, 192.0, 0.0, 0.0, 0.0, 0.0, 0.0, 0.0, 0.0, 0.0, 0.0, 1.666556862813301E9, 0.0, 2022-10-23 13:27:42.813
225.0, -77816.23486473976, -118266.1197502756, 13951.869482024847, 81881.54779452656, 48794.68516048016, 20358.102960360404, 43528.59181506537, 86160.833973984, 0.038, 0.9460000000000001, 0.164, 192.0, 0.0, 0.0, 0.0, 0.0, 0.0, 0.0, 0.0, 0.0, 0.0, 1.6665568628133087E9, 0.0, 2022-10-23 13:27:42.813
226.0, -77798.15230347542, -118245.84671805463, 12103.335512082043, 81906.3805826164, 48755.50255245001, 20381.102905404914, 42555.776841137034, 85240.43384080337, 0.038, 0.9460000000000001, 0.164, 192.0, 0.0, 0.0, 0.0, 0.0, 0.0, 0.0, 0.0, 0.0, 0.0, 1.6665568628133166E9, 0.0, 2022-10-23 13:27:42.813
227.0, -77818.80531535213, -118261.42588393997, 12051.09948528999, 81913.7343065422, 48864.24378922508, 20406.5168388506, 42649.20713296022, 85522.55755931826, 0.038, 0.9460000000000001, 0.164, 192.0, 0.0, 0.0, 0.0, 0.0, 0.0, 0.0, 0.0, 0.0, 0.0, 1.6665568628133245E9, 0.0, 2022-10-23 13:27:42.813
228.0, -77847.370844766, -118287.33155576368, 13758.862168653272, 81919.32224265602, 48992.49809890963, 20424.66645534831, 43608.901632893285, 86515.31028930072, 0.038, 0.9460000000000001, 0.164, 192.0, 0.0, 0.0, 0.0, 0.0, 0.0, 0.0, 0.0, 0.0, 0.0, 1.666556862813332E9, 0.0, 2022-10-23 13:27:42.813
229.0, -77819.60997815251, -118267.19263400945, 14291.906570423434, 81892.23192837619, 48855.99599552107, 20387.428449085768, 43746.342509548966, 86413.43103807342, 0.038, 0.9460000000000001, 0.164, 192.0, 0.0, 0.0, 0.0, 0.0, 0.0, 0.0, 0.0, 0.0, 0.0, 1.66655686281334E9, 0.0, 2022-10-23 13:27:42.813
230.0, -77797.81702730859, -118246.74078783284, 12289.793764328215, 81899.38448660189, 48745.10899127829, 20386.869655474384, 42645.38498465836, 85289.20534720486, 0.038, 0.9460000000000001, 0.164, 192.0, 0.0, 0.0, 0.0, 0.0, 0.0, 0.0, 0.0, 0.0, 0.0, 1.6665568628133476E9, 0.0, 2022-10-23 13:27:42.813
231.0, -77816.86071358451, -118260.15183450602, 11951.298946297044, 81910.1803791738, 48848.68697508419, 20407.768536540098, 42588.27627757505, 85430.66953786249, 0.04, 0.9440000000000001, 0.166, 192.0, 1.0, 64.0, 29.0, 128.0, 5.0, 48.0, 0.0, 0.0, 0.0, 1.6665568628133552E9, 0.0, 2022-10-23 13:27:42.813
232.0, -77839.43597548438, -118279.26257601532, 13332.659105379476, 81926.83242879302, 48975.555476612506, 20426.90162979384, 43394.771921011445, 86317.2738334267, 0.04, 0.9440000000000001, 0.166, 192.0, 0.0, 0.0, 0.0, 0.0, 0.0, 0.0, 0.0, 0.0, 0.0, 1.6665568628133636E9, 0.0, 2022-10-23 13:27:42.813
233.0, -77826.58372242257, -118269.96425032191, 14473.223921444884, 81895.65174527785, 48896.36324600736, 20389.171885153282, 43879.33538905804, 86589.24985995887, 0.04, 0.9440000000000001, 0.166, 192.0, 0.0, 0.0, 0.0, 0.0, 0.0, 0.0, 0.0, 0.0, 0.0, 1.6665568628133712E9, 0.0, 2022-10-23 13:27:42.813
234.0, -77801.08038199907, -118247.18782272194, 12540.803854561313, 81889.92969869729, 48731.228557971546, 20361.07574237296, 42777.7967188116, 85387.7541885083, 0.04, 0.9440000000000001, 0.166, 192.0, 0.0, 0.0, 0.0, 0.0, 0.0, 0.0, 0.0, 0.0, 0.0, 1.6665568628133864E9, 0.0, 2022-10-23 13:27:42.813
235.0, -77819.74408861925, -118262.38700895155, 11857.801599240494, 81903.27369013711, 48811.44896882164, 20376.49844604712, 42518.47177964113, 85322.889426099, 0.04, 0.9440000000000001, 0.166, 192.0, 0.0, 0.0, 0.0, 0.0, 0.0, 0.0, 0.0, 0.0, 0.0, 1.6665568628133943E9, 0.0, 2022-10-23 13:27:42.813
236.0, -77827.3213299896, -118267.2149857539, 12885.937140695709, 81933.71676608524, 48945.984118698136, 20418.251504689637, 43155.56355185075, 86087.20732774823, 0.04, 0.9440000000000001, 0.166, 192.0, 0.0, 0.0, 0.0, 0.0, 0.0, 0.0, 0.0, 0.0, 0.0, 1.6665568628134022E9, 0.0, 2022-10-23 13:27:42.813
237.0, -77828.90830384592, -118270.63480265556, 14518.888535367078, 81902.96076571474, 48948.845141988415, 20400.99595797014, 43948.737555591775, 86718.75586733292, 0.04, 0.9440000000000001, 0.166, 192.0, 0.0, 0.0, 0.0, 0.0, 0.0, 0.0, 0.0, 0.0, 0.0, 1.6665568628134108E9, 0.0, 2022-10-23 13:27:42.813
238.0, -77789.27866092666, -118233.21798243737, 12885.199533128683, 81897.43988483428, 48756.530732694955, 20378.331289092457, 42979.67767473193, 85573.4971849319, 0.04, 0.9440000000000001, 0.166, 192.0, 0.0, 0.0, 0.0, 0.0, 0.0, 0.0, 0.0, 0.0, 0.0, 1.6665568628134189E9, 0.0, 2022-10-23 13:27:42.813
239.0, -77796.52062613018, -118239.11884297358, 11850.20200612569, 81918.07054496653, 48814.93584095667, 20398.850190502428, 42517.331840673905, 85282.25395467925, 0.04, 0.9440000000000001, 0.166, 192.0, 0.0, 0.0, 0.0, 0.0, 0.0, 0.0, 0.0, 0.0, 0.0, 1.6665568628134265E9, 0.0, 2022-10-23 13:27:42.813
240.0, -77819.85584734152, -118260.33064846166, 12546.90588079761, 81926.54185611509, 48926.001659155096, 20407.343853395447, 42989.06540740316, 85897.73159000059, 0.04, 0.9400000000000001, 0.168, 192.0, 1.0, 64.0, 29.0, 96.0, 5.0, 64.0, 0.0, 0.0, 0.0, 1.6665568628134353E9, 0.0, 2022-10-23 13:27:42.813
241.0, -77828.12599279, -118270.43363695547, 14465.736087052357, 81922.07150722403, 48988.430081418766, 20413.155306953824, 43971.33516923609, 86771.19305982508, 0.04, 0.9400000000000001, 0.168, 192.0, 0.0, 0.0, 0.0, 0.0, 0.0, 0.0, 0.0, 0.0, 0.0, 1.666556863291689E9, 0.0, 2022-10-23 13:27:43.291
242.0, -77784.22716667976, -118229.14996494651, 13276.466819818834, 81901.3290883695, 48771.70756718011, 20380.83468447145, 43196.51194769287, 85778.5967920538, 0.04, 0.9400000000000001, 0.168, 192.0, 0.0, 0.0, 0.0, 0.0, 0.0, 0.0, 0.0, 0.0, 0.0, 1.666556863291728E9, 0.0, 2022-10-23 13:27:43.291
243.0, -77791.2679661832, -118232.59213359263, 11897.855925304404, 81914.42721062031, 48800.720131483096, 20393.37401311088, 42529.155913490766, 85247.13936413996, 0.04, 0.9400000000000001, 0.168, 192.0, 0.0, 0.0, 0.0, 0.0, 0.0, 0.0, 0.0, 0.0, 0.0, 1.6665568632917647E9, 0.0, 2022-10-23 13:27:43.291
244.0, -77809.88696931445, -118250.49588090133, 12299.852049333102, 81923.07733572452, 48897.14555706329, 20404.102850449428, 42855.60314126052, 85734.83207641031, 0.04, 0.9400000000000001, 0.168, 192.0, 0.0, 0.0, 0.0, 0.0, 0.0, 0.0, 0.0, 0.0, 0.0, 1.6665568632917745E9, 0.0, 2022-10-23 13:27:43.291
245.0, -77840.10652781803, -118280.93895684945, 14239.91641282039, 81907.69933553926, 48971.576866099465, 20390.46828633169, 43871.3558162875, 86705.72480031548, 0.04, 0.9400000000000001, 0.168, 192.0, 0.0, 0.0, 0.0, 0.0, 0.0, 0.0, 0.0, 0.0, 0.0, 1.6665568632917826E9, 0.0, 2022-10-23 13:27:43.291
246.0, -77793.77136156218, -118240.34818891862, 13672.070344933314, 81888.14155914087, 48773.74157592554, 20358.28177431605, 43417.280127677936, 86001.77896044005, 0.04, 0.9400000000000001, 0.168, 192.0, 0.0, 0.0, 0.0, 0.0, 0.0, 0.0, 0.0, 0.0, 0.0, 1.6665568632917905E9, 0.0, 2022-10-23 13:27:43.291
247.0, -77784.62949807996, -118229.01585447977, 11987.329958359, 81919.09872521147, 48777.38491027176, 20393.262254388603, 42563.6446551853, 85229.86146567602, 0.04, 0.9400000000000001, 0.168, 192.0, 0.0, 0.0, 0.0, 0.0, 0.0, 0.0, 0.0, 0.0, 0.0, 1.666556863291798E9, 0.0, 2022-10-23 13:27:43.291
248.0, -77808.54586464714, -118248.79714832273, 12110.82334647457, 81921.53506535711, 48876.62665565332, 20403.208780671215, 42748.85120974198, 85593.18907179702, 0.04, 0.9400000000000001, 0.168, 192.0, 0.0, 0.0, 0.0, 0.0, 0.0, 0.0, 0.0, 0.0, 0.0, 1.666556863291806E9, 0.0, 2022-10-23 13:27:43.291
249.0, -77830.38351897997, -118268.48903518786, 13937.005571962069, 81932.17449571783, 48989.90529655282, 20420.419623901802, 43743.16856183631, 86596.93886005151, 0.04, 0.9400000000000001, 0.168, 192.0, 0.0, 0.0, 0.0, 0.0, 0.0, 0.0, 0.0, 0.0, 0.0, 1.666556863291865E9, 0.0, 2022-10-23 13:27:43.291
250.0, -77795.69361158533, -118239.74469181833, 14056.92268096479, 81898.53512031259, 48823.13893117177, 20383.539245550543, 43652.84516249242, 86257.9076001534, 0.034, 0.9440000000000001, 0.166, 192.0, 1.0, 16.0, 29.0, 128.0, 5.0, 48.0, 0.0, 0.0, 0.0, 1.6665568632918727E9, 0.0, 2022-10-23 13:27:43.291
251.0, -77772.11252118499, -118216.4541740959, 12139.54533809964, 81925.46897238123, 48762.72216590907, 20397.822010257485, 42632.84565601894, 85258.22582938979, 0.034, 0.9440000000000001, 0.166, 192.0, 0.0, 0.0, 0.0, 0.0, 0.0, 0.0, 0.0, 0.0, 0.0, 1.666556863291882E9, 0.0, 2022-10-23 13:27:43.291
252.0, -77798.24171045324, -118238.91767727348, 11998.32701663101, 81931.52629512863, 48871.70927187315, 20412.12712670888, 42686.46749096722, 85500.51873928533, 0.034, 0.9440000000000001, 0.166, 192.0, 0.0, 0.0, 0.0, 0.0, 0.0, 0.0, 0.0, 0.0, 0.0, 1.6665568632918897E9, 0.0, 2022-10-23 13:27:43.291
253.0, -77827.47779220078, -118265.53860491976, 13588.564227648287, 81941.2940074556, 48988.05010176302, 20426.119318737903, 43588.96387683915, 86451.18313445845, 0.034, 0.9440000000000001, 0.166, 192.0, 0.0, 0.0, 0.0, 0.0, 0.0, 0.0, 0.0, 0.0, 0.0, 1.6665568632918973E9, 0.0, 2022-10-23 13:27:43.291
254.0, -77809.37287919199, -118252.2616687133, 14359.006507278265, 81900.12209416892, 48853.24673095307, 20371.134027377848, 43847.148877042404, 86480.64273365054, 0.034, 0.9440000000000001, 0.166, 192.0, 0.0, 0.0, 0.0, 0.0, 0.0, 0.0, 0.0, 0.0, 0.0, 1.6665568632919047E9, 0.0, 2022-10-23 13:27:43.291
255.0, -77782.4613788678, -118227.92061900147, 12368.024869921788, 81902.67019303683, 48726.84761605831, 20359.64523072782, 42735.171942135334, 85317.1897312629, 0.034, 0.9440000000000001, 0.166, 192.0, 0.0, 0.0, 0.0, 0.0, 0.0, 0.0, 0.0, 0.0, 0.0, 1.6665568632919133E9, 0.0, 2022-10-23 13:27:43.291
0.0, -77802.60030062203, -118243.49978488682, 11914.664437134796, 81913.80136177556, 48823.69772478315, 20383.628652528365, 42611.09740866392, 85385.74253150732, 0.034, 0.9440000000000001, 0.166, 192.0, 0.0, 0.0, 0.0, 0.0, 0.0, 0.0, 0.0, 0.0, 0.0, 1.666556863291921E9, 0.0, 2022-10-23 13:27:43.291
1.0, -77830.31646374661, -118270.85832010012, 13177.090963970539, 81932.62153060694, 48950.29800537801, 20411.166001697304, 43361.02078688393, 86225.54227418212, 0.034, 0.9440000000000001, 0.166, 192.0, 0.0, 0.0, 0.0, 0.0, 0.0, 0.0, 0.0, 0.0, 0.0, 1.6665568632919283E9, 0.0, 2022-10-23 13:27:43.291
2.0, -77822.82862935409, -118267.32674447617, 14551.87971018311, 81903.58661455949, 48903.11347283286, 20380.70057400472, 43984.54505020918, 86650.58304674424, 0.034, 0.9440000000000001, 0.166, 192.0, 0.0, 0.0, 0.0, 0.0, 0.0, 0.0, 0.0, 0.0, 0.0, 1.666556863291936E9, 0.0, 2022-10-23 13:27:43.291
3.0, -77798.12995173097, -118246.5619738772, 12682.133934752219, 81891.27080336462, 48709.055627471884, 20345.87655614335, 42887.25321140924, 85428.72493609488, 0.034, 0.9440000000000001, 0.166, 192.0, 0.0, 0.0, 0.0, 0.0, 0.0, 0.0, 0.0, 0.0, 0.0, 1.6665568632919436E9, 0.0, 2022-10-23 13:27:43.291
4.0, -77800.96862327679, -118248.61833436709, 11895.218419458679, 81920.59629208998, 48806.68804725266, 20388.523684564076, 42579.6485042153, 85306.46089392435, 0.036000000000000004, 0.9420000000000001, 0.17, 192.0, 1.0, 32.0, 29.0, 112.0, 5.0, 80.0, 0.0, 0.0, 0.0, 1.6665568632919512E9, 0.0, 2022-10-23 13:27:43.291
5.0, -77812.52447516019, -118257.08964551565, 12808.018959524508, 81944.98204529072, 48935.858778459886, 20425.113490237414, 43161.24089494239, 86020.30855659349, 0.036000000000000004, 0.9420000000000001, 0.17, 192.0, 0.0, 0.0, 0.0, 0.0, 0.0, 0.0, 0.0, 0.0, 0.0, 1.6665568632919664E9, 0.0, 2022-10-23 13:27:43.291
6.0, -77823.78975436566, -118267.39379970955, 14584.26738789885, 81922.18326594631, 48952.488476334634, 20400.638330058853, 44037.83160899063, 86753.51282996094, 0.036000000000000004, 0.9420000000000001, 0.17, 192.0, 0.0, 0.0, 0.0, 0.0, 0.0, 0.0, 0.0, 0.0, 0.0, 1.666556863291974E9, 0.0, 2022-10-23 13:27:43.291
7.0, -77785.34475390254, -118232.10039521461, 13078.408012200358, 81908.05696345055, 48733.821360328366, 20363.199158096213, 43104.020429136806, 85631.00822341541, 0.036000000000000004, 0.9420000000000001, 0.17, 192.0, 0.0, 0.0, 0.0, 0.0, 0.0, 0.0, 0.0, 0.0, 0.0, 1.6665568632919817E9, 0.0, 2022-10-23 13:27:43.291
8.0, -77800.76745757669, -118245.37733142107, 11934.222213533189, 81928.01707124914, 48800.98835241656, 20388.926015964273, 42583.0012658836, 85265.8254225046, 0.036000000000000004, 0.9420000000000001, 0.17, 192.0, 0.0, 0.0, 0.0, 0.0, 0.0, 0.0, 0.0, 0.0, 0.0, 1.6665568632919893E9, 0.0, 2022-10-23 13:27:43.291
9.0, -77817.4195071959, -118258.63191588306, 12519.614400817682, 81946.94899880279, 48910.467196758655, 20413.289417420558, 43000.30833486418, 85830.74341186802, 0.036000000000000004, 0.9420000000000001, 0.17, 192.0, 0.0, 0.0, 0.0, 0.0, 0.0, 0.0, 0.0, 0.0, 0.0, 1.6665568632920055E9, 0.0, 2022-10-23 13:27:43.292
10.0, -77835.39030973797, -118278.05558181473, 14474.453267389927, 81930.45341139477, 48978.2600376916, 20404.37107138289, 44009.44489353239, 86752.35053924925, 0.036000000000000004, 0.9420000000000001, 0.17, 192.0, 0.0, 0.0, 0.0, 0.0, 0.0, 0.0, 0.0, 0.0, 0.0, 1.6665568632920134E9, 0.0, 2022-10-23 13:27:43.292
11.0, -77799.40400116492, -118246.33845643264, 13517.508032024865, 81896.85873947844, 48749.84756110282, 20347.97762012215, 43345.57573146531, 85852.42460398968, 0.036000000000000004, 0.9420000000000001, 0.17, 192.0, 0.0, 0.0, 0.0, 0.0, 0.0, 0.0, 0.0, 0.0, 0.0, 1.666556863292021E9, 0.0, 2022-10-23 13:27:43.292
12.0, -77814.62553913899, -118261.04590428424, 11985.206542635744, 81909.9792134737, 48749.3558227248, 20352.02328586856, 42576.116928591364, 85200.37951473946, 0.036000000000000004, 0.9420000000000001, 0.17, 192.0, 0.0, 0.0, 0.0, 0.0, 0.0, 0.0, 0.0, 0.0, 0.0, 1.66655686329203E9, 0.0, 2022-10-23 13:27:43.292
13.0, -77822.69451888735, -118267.6173171541, 12284.51875263676, 81931.81686780654, 48872.04454803998, 20397.12910617937, 42855.89371393844, 85656.60097081674, 0.034, 0.9420000000000001, 0.17, 192.0, 1.0, 16.0, 29.0, 112.0, 5.0, 80.0, 0.0, 0.0, 0.0, 1.6665568632920504E9, 0.0, 2022-10-23 13:27:43.292
14.0, -77839.86065862903, -118285.58811969616, 14213.898982274412, 81935.4378504083, 48973.320302166976, 20402.113545192904, 43883.224592593266, 86660.7083869825, 0.034, 0.9420000000000001, 0.17, 192.0, 0.0, 0.0, 0.0, 0.0, 0.0, 0.0, 0.0, 0.0, 0.0, 1.6665568632920587E9, 0.0, 2022-10-23 13:27:43.292
15.0, -77801.79563782163, -118253.5580698917, 13914.251496106566, 81902.64784129238, 48781.765852184995, 20360.963983650683, 43561.73945209259, 86087.65436263733, 0.034, 0.9420000000000001, 0.17, 192.0, 0.0, 0.0, 0.0, 0.0, 0.0, 0.0, 0.0, 0.0, 0.0, 1.6665568632920663E9, 0.0, 2022-10-23 13:27:43.292
16.0, -77784.02600097966, -118231.87687777006, 12105.72714873876, 81930.90044628388, 48747.54533142392, 20393.642234044342, 42617.15473141131, 85207.7108869208, 0.034, 0.9420000000000001, 0.17, 192.0, 0.0, 0.0, 0.0, 0.0, 0.0, 0.0, 0.0, 0.0, 0.0, 1.6665568632920744E9, 0.0, 2022-10-23 13:27:43.292
17.0, -77813.75382110523, -118259.30246821672, 12090.170334597868, 81930.85574279497, 48845.71419307163, 20399.900722491828, 42717.26819482663, 85506.39724807708, 0.034, 0.9420000000000001, 0.17, 192.0, 0.0, 0.0, 0.0, 0.0, 0.0, 0.0, 0.0, 0.0, 0.0, 1.6665568632920823E9, 0.0, 2022-10-23 13:27:43.292
18.0, -77839.48067897328, -118286.10220981864, 13834.88045154577, 81934.47672539673, 48967.48649686414, 20404.95221673873, 43682.103595984416, 86500.17815830448, 0.034, 0.9420000000000001, 0.17, 192.0, 0.0, 0.0, 0.0, 0.0, 0.0, 0.0, 0.0, 0.0, 0.0, 1.6665568632920904E9, 0.0, 2022-10-23 13:27:43.292
