%OpenBCI Raw EEG Data
%Number of channels = 8
%Sample Rate = 250 Hz
%Board = OpenBCI_GUI$BoardCytonSerial
Sample Index, EXG Channel 0, EXG Channel 1, EXG Channel 2, EXG Channel 3, EXG Channel 4, EXG Channel 5, EXG Channel 6, EXG Channel 7, Accel Channel 0, Accel Channel 1, Accel Channel 2, Other, Other, Other, Other, Other, Other, Other, Analog Channel 0, Analog Channel 1, Analog Channel 2, Timestamp, Other, Timestamp (Formatted)
84.0, -78899.35569755503, -111331.60279173886, 54479.62784524296, 24921.703329289357, 62609.31493154942, 99591.99721717802, 51038.75560030408, 48603.26482096491, 0.0, 0.0, 0.0, 192.0, 0.0, 0.0, 0.0, 0.0, 0.0, 0.0, 0.0, 0.0, 0.0, 1.666556086020004E9, 0.0, 2022-10-23 13:14:46.020
85.0, -78890.5714619841, -111318.19174506566, 52866.2789304589, 25025.661292750992, 62684.81912431945, 98956.38066010246, 50034.35761146041, 47706.9598683071, 0.0, 0.0, 0.0, 192.0, 0.0, 0.0, 0.0, 0.0, 0.0, 0.0, 0.0, 0.0, 0.0, 1.6665560860200217E9, 0.0, 2022-10-23 13:14:46.020
86.0, -78921.7297937548, -111345.66203900124, 53185.03715813603, 25117.30344501775, 62769.53223580507, 99186.13424135855, 50344.59982450007, 48165.10357440753, 0.0, 0.0, 0.0, 192.0, 0.0, 0.0, 0.0, 0.0, 0.0, 0.0, 0.0, 0.0, 0.0, 1.6665560860200317E9, 0.0, 2022-10-23 13:14:46.020
87.0, -78957.134956972, -111383.34708015289, 55231.47347348613, 25168.086608420206, 62811.26294270313, 100061.67442341738, 51672.4946108454, 49472.36770062062, 0.0, 0.0, 0.0, 192.0, 0.0, 0.0, 0.0, 0.0, 0.0, 0.0, 0.0, 0.0, 0.0, 1.6665560860200396E9, 0.0, 2022-10-23 13:14:46.020
88.0, -78888.4256945164, -111324.15966083523, 54931.0660280068, 24968.530233923226, 62651.87265299233, 99813.57005996347, 51343.387525485465, 48946.20763614269, 0.066, 0.9480000000000001, 0.148, 192.0, 2.0, 16.0, 29.0, 160.0, 4.0, 160.0, 0.0, 0.0, 0.0, 1.6665560860200477E9, 0.0, 2022-10-23 13:14:46.020
89.0, -78861.04480755863, -111293.33660523136, 53029.267851027, 25029.0587579082, 62690.45176392219, 99030.67785867189, 50121.5294148361, 47781.39117734328, 0.066, 0.9480000000000001, 0.148, 192.0, 0.0, 0.0, 0.0, 0.0, 0.0, 0.0, 0.0, 0.0, 0.0, 1.6665560860200577E9, 0.0, 2022-10-23 13:14:46.020
90.0, -78913.30318609515, -111342.55514652195, 53018.606068921814, 25086.63685162507, 62744.58768899294, 99101.46583336186, 50206.89072691092, 48023.527625027615, 0.066, 0.9480000000000001, 0.148, 192.0, 0.0, 0.0, 0.0, 0.0, 0.0, 0.0, 0.0, 0.0, 0.0, 1.6665560860200655E9, 0.0, 2022-10-23 13:14:46.020
91.0, -78952.82107029214, -111378.45204811718, 54845.10121883169, 25173.875710234133, 62810.14535548036, 99897.88084004889, 51415.09192169809, 49260.38375620649, 0.066, 0.9480000000000001, 0.148, 192.0, 0.0, 0.0, 0.0, 0.0, 0.0, 0.0, 0.0, 0.0, 0.0, 1.6665560860200737E9, 0.0, 2022-10-23 13:14:46.020
92.0, -78906.88823543648, -111334.75438770704, 55268.77853498203, 24990.725516167346, 62668.70351656718, 99957.06825936656, 51556.64551933355, 49210.33820037106, 0.066, 0.9480000000000001, 0.148, 192.0, 0.0, 0.0, 0.0, 0.0, 0.0, 0.0, 0.0, 0.0, 0.0, 1.6665560860200815E9, 0.0, 2022-10-23 13:14:46.020
93.0, -78884.78236017017, -111312.96143686313, 53150.391954230305, 24972.46414094736, 62635.64528651778, 99030.81196913862, 50151.68191810631, 47811.074293979924, 0.066, 0.9480000000000001, 0.148, 192.0, 0.0, 0.0, 0.0, 0.0, 0.0, 0.0, 0.0, 0.0, 0.0, 1.6665560860200896E9, 0.0, 2022-10-23 13:14:46.020
94.0, -78913.81727621763, -111342.21987035513, 52854.812485553324, 25063.14516820254, 62723.39823524931, 98995.09388149905, 50059.838600139454, 47886.84670768341, 0.066, 0.9480000000000001, 0.148, 192.0, 0.0, 0.0, 0.0, 0.0, 0.0, 0.0, 0.0, 0.0, 0.0, 1.6665560860200973E9, 0.0, 2022-10-23 13:14:46.020
95.0, -78936.05726195064, -111359.788341497, 54406.872917040935, 25184.22456791694, 62824.6292858874, 99713.97068667063, 51129.83895895946, 49020.52718645659, 0.066, 0.9480000000000001, 0.148, 192.0, 0.0, 0.0, 0.0, 0.0, 0.0, 0.0, 0.0, 0.0, 0.0, 1.666556086020105E9, 0.0, 2022-10-23 13:14:46.020
96.0, -78905.36831681352, -111335.00025689606, 55521.19678511582, 25051.52226108578, 62728.047398096016, 100090.86580167602, 51745.785980914356, 49462.264712126824, 0.066, 0.9480000000000001, 0.148, 192.0, 0.0, 0.0, 0.0, 0.0, 0.0, 0.0, 0.0, 0.0, 0.0, 1.6665560860201128E9, 0.0, 2022-10-23 13:14:46.020
97.0, -78871.12544430798, -111301.31617800191, 53433.76737043469, 24963.009353042766, 62644.228356388616, 99150.08087755214, 50331.74757143827, 47991.721092667714, 0.066, 0.9480000000000001, 0.148, 192.0, 0.0, 0.0, 0.0, 0.0, 0.0, 0.0, 0.0, 0.0, 0.0, 1.6665560860201206E9, 0.0, 2022-10-23 13:14:46.020
98.0, -78916.65594776344, -111342.35398082185, 52795.80388019131, 25043.85561273761, 62712.378825232845, 98958.95111071481, 50005.948544257706, 47823.524215641526, 0.06, 0.9480000000000001, 0.158, 192.0, 1.0, 224.0, 29.0, 160.0, 4.0, 240.0, 0.0, 0.0, 0.0, 1.6665560860201285E9, 0.0, 2022-10-23 13:14:46.020
99.0, -78961.69471284088, -111386.43162088771, 53978.92641769963, 25138.06821561673, 62787.05600345803, 99521.92449831063, 50851.17976083515, 48753.93793033814, 0.06, 0.9480000000000001, 0.158, 192.0, 0.0, 0.0, 0.0, 0.0, 0.0, 0.0, 0.0, 0.0, 0.0, 1.6665560860201373E9, 0.0, 2022-10-23 13:14:46.020
100.0, -78932.99507296027, -111364.14693166577, 55610.089672814574, 25071.661182840013, 62739.17856683476, 100141.134874956, 51827.05692375385, 49589.289675866334, 0.06, 0.9480000000000001, 0.158, 192.0, 0.0, 0.0, 0.0, 0.0, 0.0, 0.0, 0.0, 0.0, 0.0, 1.666556086020246E9, 0.0, 2022-10-23 13:14:46.020
101.0, -78875.2158135433, -111308.37932924979, 53753.73259231241, 24942.9374865219, 62621.34017006638, 99265.61704464162, 50529.784027312286, 48182.381472871486, 0.06, 0.9480000000000001, 0.158, 192.0, 0.0, 0.0, 0.0, 0.0, 0.0, 0.0, 0.0, 0.0, 0.0, 1.6665560860202549E9, 0.0, 2022-10-23 13:14:46.020
102.0, -78888.82802591659, -111317.85646889884, 52768.981786844946, 25056.171423932487, 62720.4031014923, 98930.56439525657, 49975.61722703186, 47776.83142147439, 0.06, 0.9480000000000001, 0.158, 192.0, 0.0, 0.0, 0.0, 0.0, 0.0, 0.0, 0.0, 0.0, 0.0, 1.6665560860202627E9, 0.0, 2022-10-23 13:14:46.020
103.0, -78927.25067463526, -111353.5298530495, 53589.17904963244, 25156.21783211444, 62794.18620993927, 99347.93851947052, 50597.26394382286, 48511.354447764694, 0.06, 0.9480000000000001, 0.158, 192.0, 0.0, 0.0, 0.0, 0.0, 0.0, 0.0, 0.0, 0.0, 0.0, 1.6665560860202703E9, 0.0, 2022-10-23 13:14:46.020
104.0, -78940.63936956399, -111367.79026601199, 55553.83033202057, 25118.979825851897, 62778.47293358719, 100139.2349766773, 51824.084141741296, 49635.49073165545, 0.06, 0.9480000000000001, 0.158, 192.0, 0.0, 0.0, 0.0, 0.0, 0.0, 0.0, 0.0, 0.0, 0.0, 1.6665560860202785E9, 0.0, 2022-10-23 13:14:46.020
105.0, -78868.37617973998, -111304.51247745902, 54165.51878041253, 24935.673169573925, 62621.854260188855, 99444.16277935062, 50812.19831850509, 48460.6383395956, 0.06, 0.9480000000000001, 0.158, 192.0, 0.0, 0.0, 0.0, 0.0, 0.0, 0.0, 0.0, 0.0, 0.0, 1.666556086020286E9, 0.0, 2022-10-23 13:14:46.020
106.0, -78885.5199677372, -111316.89534388726, 52785.745595186425, 25035.67487426697, 62703.37107221736, 98916.66161020537, 49978.344139855406, 47749.31642404991, 0.06, 0.9480000000000001, 0.158, 192.0, 0.0, 0.0, 0.0, 0.0, 0.0, 0.0, 0.0, 0.0, 0.0, 1.6665560860202956E9, 0.0, 2022-10-23 13:14:46.020
107.0, -78920.83572397659, -111349.75240823656, 53266.19634225325, 25120.25387528585, 62772.773238751084, 99191.87863968356, 50385.749386042284, 48287.725244489346, 0.06, 0.9480000000000001, 0.158, 192.0, 0.0, 0.0, 0.0, 0.0, 0.0, 0.0, 0.0, 0.0, 0.0, 1.6665560860203035E9, 0.0, 2022-10-23 13:14:46.020
108.0, -78944.55092484367, -111376.75331553858, 55342.09225679544, 25152.105111134664, 62805.56324786702, 100061.67442341738, 51719.61208815719, 49564.412184287576, 0.048, 0.9380000000000001, 0.154, 192.0, 1.0, 128.0, 29.0, 80.0, 4.0, 208.0, 0.0, 0.0, 0.0, 1.666556086020311E9, 0.0, 2022-10-23 13:14:46.020
109.0, -78875.52873796568, -111315.10720433084, 54594.35934953205, 24946.0890824901, 62640.69678076468, 99633.0126682535, 51112.42695002878, 48761.67163391968, 0.048, 0.9380000000000001, 0.154, 192.0, 0.0, 0.0, 0.0, 0.0, 0.0, 0.0, 0.0, 0.0, 0.0, 1.66655608602032E9, 0.0, 2022-10-23 13:14:46.020
110.0, -78869.60552568502, -111305.09362281485, 52854.90189253115, 25026.488307295836, 62697.157287258786, 98931.52552026816, 50018.5549281305, 47756.60309274234, 0.048, 0.9380000000000001, 0.154, 192.0, 0.0, 0.0, 0.0, 0.0, 0.0, 0.0, 0.0, 0.0, 0.0, 1.6665560860203278E9, 0.0, 2022-10-23 13:14:46.020
111.0, -78896.96406089832, -111328.38414053728, 53058.41452579672, 25112.475468215405, 62775.83542774146, 99109.73597881032, 50262.88184677147, 48144.07058287509, 0.048, 0.9380000000000001, 0.154, 192.0, 0.0, 0.0, 0.0, 0.0, 0.0, 0.0, 0.0, 0.0, 0.0, 1.6665560860203357E9, 0.0, 2022-10-23 13:14:46.020
112.0, -78921.86390422152, -111350.06533265894, 55009.52065104493, 25192.002974987387, 62837.81681511603, 99943.21017780426, 51542.9662517269, 49416.64480169354, 0.048, 0.9380000000000001, 0.154, 192.0, 0.0, 0.0, 0.0, 0.0, 0.0, 0.0, 0.0, 0.0, 0.0, 1.6665560860203435E9, 0.0, 2022-10-23 13:14:46.020
113.0, -78882.72599968029, -111318.39291076576, 54964.59364468976, 24978.47676020584, 62666.13306595482, 99795.5545539325, 51382.99481666027, 49052.579588005494, 0.048, 0.9380000000000001, 0.154, 192.0, 0.0, 0.0, 0.0, 0.0, 0.0, 0.0, 0.0, 0.0, 0.0, 1.6665560860203512E9, 0.0, 2022-10-23 13:14:46.020
114.0, -78861.35773198101, -111296.80112562193, 52962.704356039096, 25016.38531880204, 62677.89008353831, 98952.9608432008, 50087.86768768641, 47794.086968193886, 0.048, 0.9380000000000001, 0.154, 192.0, 0.0, 0.0, 0.0, 0.0, 0.0, 0.0, 0.0, 0.0, 0.0, 1.6665560860203593E9, 0.0, 2022-10-23 13:14:46.020
115.0, -78884.7153049368, -111318.81759391041, 52872.51506716193, 25115.58236069469, 62773.6673085293, 99009.84603283954, 50139.120237722425, 48006.45089226376, 0.048, 0.9380000000000001, 0.154, 192.0, 0.0, 0.0, 0.0, 0.0, 0.0, 0.0, 0.0, 0.0, 0.0, 1.666556086020367E9, 0.0, 2022-10-23 13:14:46.020
116.0, -78920.6792617654, -111353.41809432724, 54607.61393399405, 25209.70555659599, 62845.86344311994, 99784.93747531623, 51311.46923440328, 49215.94848822934, 0.048, 0.9380000000000001, 0.154, 192.0, 0.0, 0.0, 0.0, 0.0, 0.0, 0.0, 0.0, 0.0, 0.0, 1.6665560860204058E9, 0.0, 2022-10-23 13:14:46.020
117.0, -78892.71722945181, -111332.98859989508, 55310.91157328029, 25023.917856683478, 62707.5508484305, 99981.36460558946, 51655.50728505937, 49363.73822256783, 0.048, 0.9400000000000001, 0.154, 192.0, 1.0, 128.0, 29.0, 96.0, 4.0, 208.0, 0.0, 0.0, 0.0, 1.6665560860204139E9, 0.0, 2022-10-23 13:14:46.020
118.0, -78852.28292373216, -111296.6223116663, 53185.975931403154, 24988.646803933003, 62656.678278050225, 99043.61951871152, 50240.53010231616, 47924.44234185724, 0.048, 0.9400000000000001, 0.154, 192.0, 0.0, 0.0, 0.0, 0.0, 0.0, 0.0, 0.0, 0.0, 0.0, 1.6665560860204225E9, 0.0, 2022-10-23 13:14:46.020
119.0, -78900.29447082216, -111342.5774982664, 52777.96718811598, 25069.9177467725, 62734.59645922142, 98958.41466884788, 50077.42942302578, 47918.027391198564, 0.048, 0.9400000000000001, 0.154, 192.0, 0.0, 0.0, 0.0, 0.0, 0.0, 0.0, 0.0, 0.0, 0.0, 1.66655608602043E9, 0.0, 2022-10-23 13:14:46.020
120.0, -78944.7297387993, -111383.97292899764, 54194.419585993244, 25170.478245076927, 62809.206582213235, 99617.07587445687, 51066.56117040649, 48965.02780497406, 0.048, 0.9400000000000001, 0.154, 192.0, 0.0, 0.0, 0.0, 0.0, 0.0, 0.0, 0.0, 0.0, 0.0, 1.666556086020438E9, 0.0, 2022-10-23 13:14:46.020
121.0, -78934.62675030551, -111378.89908300628, 55517.30758158059, 25034.981970188855, 62718.525554958054, 100090.50817376473, 51826.85575805375, 49548.676556191036, 0.048, 0.9400000000000001, 0.154, 192.0, 0.0, 0.0, 0.0, 0.0, 0.0, 0.0, 0.0, 0.0, 0.0, 1.6665560860204456E9, 0.0, 2022-10-23 13:14:46.020
122.0, -78868.33147625107, -111312.4696984851, 53517.51935690873, 24949.486547647306, 62632.49369054958, 99187.45299428141, 50465.43335502546, 48102.183413765844, 0.048, 0.9400000000000001, 0.154, 192.0, 0.0, 0.0, 0.0, 0.0, 0.0, 0.0, 0.0, 0.0, 0.0, 1.6665560860204537E9, 0.0, 2022-10-23 13:14:46.020
123.0, -78890.14677883945, -111331.22281208311, 52757.0012518169, 25056.551403588226, 62718.682017169245, 98943.32724134055, 50061.0679460845, 47850.435715965716, 0.048, 0.9400000000000001, 0.154, 192.0, 0.0, 0.0, 0.0, 0.0, 0.0, 0.0, 0.0, 0.0, 0.0, 1.666556086020461E9, 0.0, 2022-10-23 13:14:46.020
124.0, -78923.0261949332, -111361.15179790877, 53807.197965049505, 25154.519099535835, 62792.934512249776, 99458.46789580201, 50828.40333323519, 48710.15086295019, 0.048, 0.9400000000000001, 0.154, 192.0, 0.0, 0.0, 0.0, 0.0, 0.0, 0.0, 0.0, 0.0, 0.0, 1.6665560860204687E9, 0.0, 2022-10-23 13:14:46.020
125.0, -78910.86684594952, -111357.9331467072, 55566.30260542662, 25105.747593134358, 62764.547796791536, 100142.7889040457, 51900.750625223, 49656.94840633254, 0.048, 0.9400000000000001, 0.154, 192.0, 0.0, 0.0, 0.0, 0.0, 0.0, 0.0, 0.0, 0.0, 0.0, 1.6665560860204768E9, 0.0, 2022-10-23 13:14:46.020
126.0, -78862.63178141497, -111317.85646889884, 53847.252291113415, 24947.139614479496, 62623.35182706736, 99313.76270219836, 50683.45227044252, 48311.93218373444, 0.048, 0.9400000000000001, 0.154, 192.0, 0.0, 0.0, 0.0, 0.0, 0.0, 0.0, 0.0, 0.0, 0.0, 1.6665560860204847E9, 0.0, 2022-10-23 13:14:46.020
127.0, -78886.10111309304, -111336.25195458556, 52736.28118470683, 25061.24526992384, 62717.72089215767, 98927.34574405501, 50049.75796339011, 47814.9858492596, 0.054, 0.9460000000000001, 0.164, 192.0, 1.0, 176.0, 29.0, 144.0, 5.0, 32.0, 0.0, 0.0, 0.0, 1.6665560860204933E9, 0.0, 2022-10-23 13:14:46.020
128.0, -78924.72492751181, -111369.48899859059, 53419.57401270557, 25144.84079418669, 62782.60800631142, 99284.45956521745, 50588.233839062916, 48465.6898338425, 0.054, 0.9460000000000001, 0.164, 192.0, 0.0, 0.0, 0.0, 0.0, 0.0, 0.0, 0.0, 0.0, 0.0, 1.6665560860205019E9, 0.0, 2022-10-23 13:14:46.020
129.0, -78934.22441890532, -111380.12842895133, 55433.086208472996, 25144.237297086394, 62803.90921877733, 100107.69666525087, 51864.31728176085, 49656.09904004324, 0.054, 0.9460000000000001, 0.164, 192.0, 0.0, 0.0, 0.0, 0.0, 0.0, 0.0, 0.0, 0.0, 0.0, 1.6665560860205095E9, 0.0, 2022-10-23 13:14:46.020
130.0, -78870.09726406304, -111320.11399508882, 54255.84217975643, 24948.726588335823, 62642.01553368754, 99502.52318412342, 50988.285361324, 48600.470852908, 0.054, 0.9460000000000001, 0.164, 192.0, 0.0, 0.0, 0.0, 0.0, 0.0, 0.0, 0.0, 0.0, 0.0, 1.6665560860205173E9, 0.0, 2022-10-23 13:14:46.020
131.0, -78895.33238355308, -111338.08479763089, 52697.70207377697, 25033.797327732722, 62693.871580823856, 98874.41681318484, 50019.76192233109, 47747.394174026755, 0.054, 0.9460000000000001, 0.164, 192.0, 0.0, 0.0, 0.0, 0.0, 0.0, 0.0, 0.0, 0.0, 0.0, 1.6665560860205333E9, 0.0, 2022-10-23 13:14:46.020
132.0, -78946.1826021889, -111388.0409464885, 53098.5806105829, 25117.348148506662, 62779.05407894303, 99141.07312453666, 50395.58415360262, 48259.58439822011, 0.054, 0.9460000000000001, 0.164, 192.0, 0.0, 0.0, 0.0, 0.0, 0.0, 0.0, 0.0, 0.0, 0.0, 1.6665560860205412E9, 0.0, 2022-10-23 13:14:46.020
133.0, -78962.32056168563, -111408.60455138738, 55188.602827620845, 25170.053561932276, 62826.19390799927, 100046.18466450986, 51766.8189724468, 49583.94760894151, 0.054, 0.9460000000000001, 0.164, 192.0, 0.0, 0.0, 0.0, 0.0, 0.0, 0.0, 0.0, 0.0, 0.0, 1.6665560860205493E9, 0.0, 2022-10-23 13:14:46.020
134.0, -78896.33821205357, -111351.5852512819, 54665.77317306676, 24960.550661152683, 62661.37214438584, 99705.16409935524, 51300.941562764834, 48915.921022405746, 0.054, 0.9460000000000001, 0.164, 192.0, 0.0, 0.0, 0.0, 0.0, 0.0, 0.0, 0.0, 0.0, 0.0, 1.6665560860205572E9, 0.0, 2022-10-23 13:14:46.020
135.0, -78903.22254934581, -111351.20527162615, 52810.287810598355, 25015.312435068183, 62693.80452559049, 98940.37681107245, 50120.59064156898, 47802.692389809185, 0.054, 0.9460000000000001, 0.164, 192.0, 0.0, 0.0, 0.0, 0.0, 0.0, 0.0, 0.0, 0.0, 0.0, 1.666556086020565E9, 0.0, 2022-10-23 13:14:46.020
136.0, -78936.95133172887, -111380.2848911625, 52893.39159648318, 25105.63583441208, 62772.10268641743, 99067.49118178978, 50289.72629186229, 48120.04245758563, 0.054, 0.9460000000000001, 0.164, 192.0, 0.0, 0.0, 0.0, 0.0, 0.0, 0.0, 0.0, 0.0, 0.0, 1.666556086020573E9, 0.0, 2022-10-23 13:14:46.020
137.0, -78979.35259096058, -111423.35670272789, 54776.50371509835, 25178.45781784747, 62822.215297486226, 99895.64566560337, 51554.41034488802, 49390.470908936375, 0.06, 0.9500000000000001, 0.168, 192.0, 1.0, 224.0, 29.0, 176.0, 5.0, 64.0, 0.0, 0.0, 0.0, 1.6665560860205805E9, 0.0, 2022-10-23 13:14:46.020
138.0, -78929.61995954752, -111387.30333892147, 54989.26997056842, 24981.270728262753, 62672.10098172438, 99876.78079328309, 51578.32671145519, 49205.64433403544, 0.06, 0.9500000000000001, 0.168, 192.0, 0.0, 0.0, 0.0, 0.0, 0.0, 0.0, 0.0, 0.0, 0.0, 1.6665560860205894E9, 0.0, 2022-10-23 13:14:46.020
139.0, -78896.33821205357, -111352.85930071585, 52939.30207959439, 24991.351365012095, 62666.35658339937, 99007.5661549051, 50243.145256417425, 47880.29764655801, 0.06, 0.9500000000000001, 0.168, 192.0, 0.0, 0.0, 0.0, 0.0, 0.0, 0.0, 0.0, 0.0, 0.0, 1.6665560860205972E9, 0.0, 2022-10-23 13:14:46.020
140.0, -78938.91828524093, -111391.57252211244, 52738.851635319195, 25085.00517427983, 62750.555604762514, 99015.121044531, 50222.380485818445, 48015.59275574598, 0.06, 0.9500000000000001, 0.168, 192.0, 0.0, 0.0, 0.0, 0.0, 0.0, 0.0, 0.0, 0.0, 0.0, 1.666556086020605E9, 0.0, 2022-10-23 13:14:46.020
141.0, -78977.11741651504, -111426.41889171826, 54373.837038736, 25177.206120157975, 62819.64484687387, 99756.81898079146, 51342.269938262696, 49174.35189179801, 0.06, 0.9500000000000001, 0.168, 192.0, 0.0, 0.0, 0.0, 0.0, 0.0, 0.0, 0.0, 0.0, 0.0, 1.6665560860206127E9, 0.0, 2022-10-23 13:14:46.020
142.0, -78923.0261949332, -111372.52883583652, 55285.788212512525, 25035.920743455976, 62719.50903171409, 100033.69003935934, 51817.28921142688, 49462.80115399375, 0.06, 0.9500000000000001, 0.168, 192.0, 0.0, 0.0, 0.0, 0.0, 0.0, 0.0, 0.0, 0.0, 0.0, 1.6665560860206206E9, 0.0, 2022-10-23 13:14:46.020
143.0, -78893.54424399666, -111342.68925698868, 53180.67856796725, 24976.576861927137, 62652.9902402151, 99093.30744663566, 50401.32855192763, 48002.561688728536, 0.06, 0.9500000000000001, 0.168, 192.0, 0.0, 0.0, 0.0, 0.0, 0.0, 0.0, 0.0, 0.0, 0.0, 1.6665560860206285E9, 0.0, 2022-10-23 13:14:46.020
144.0, -78933.30799738264, -111380.46370511815, 52634.200767779446, 25072.26467994031, 62731.198994064216, 98942.2543576067, 50141.75774356815, 47902.04589391302, 0.06, 0.9500000000000001, 0.168, 192.0, 0.0, 0.0, 0.0, 0.0, 0.0, 0.0, 0.0, 0.0, 0.0, 1.666556086020636E9, 0.0, 2022-10-23 13:14:46.020
145.0, -78975.99982929228, -111422.30617073849, 53955.904120910665, 25175.50738757937, 62815.86740206092, 99583.63766475173, 51088.77880439506, 48917.37388579534, 0.06, 0.9500000000000001, 0.168, 192.0, 0.0, 0.0, 0.0, 0.0, 0.0, 0.0, 0.0, 0.0, 0.0, 1.666556086020644E9, 0.0, 2022-10-23 13:14:46.020
146.0, -78964.60043962007, -111415.1983160017, 55478.50495320618, 25065.827377537178, 62733.2553545541, 100156.892854797, 51994.00210309054, 49648.79001960636, 0.06, 0.9500000000000001, 0.168, 192.0, 0.0, 0.0, 0.0, 0.0, 0.0, 0.0, 0.0, 0.0, 0.0, 1.666556086020673E9, 0.0, 2022-10-23 13:14:46.020
147.0, -78903.24490109026, -111357.57551879591, 53557.774848672736, 24946.17848946792, 62627.46454804714, 99265.75115510836, 50665.325005689265, 48211.103464496555, 0.064, 0.9440000000000001, 0.17, 192.0, 2.0, 0.0, 29.0, 128.0, 5.0, 80.0, 0.0, 0.0, 0.0, 1.6665560860206816E9, 0.0, 2022-10-23 13:14:46.020
148.0, -78926.62482579051, -111377.4909231056, 52655.434925011985, 25047.38718836155, 62714.39048223382, 98955.88892172444, 50160.26498797715, 47856.2471695241, 0.064, 0.9440000000000001, 0.17, 192.0, 0.0, 0.0, 0.0, 0.0, 0.0, 0.0, 0.0, 0.0, 0.0, 1.6665560860206907E9, 0.0, 2022-10-23 13:14:46.020
149.0, -78968.89197455549, -111419.28868523701, 53580.88655243952, 25145.17607035352, 62787.3689278804, 99417.83242438227, 50848.83282766734, 48643.00622260645, 0.064, 0.9440000000000001, 0.17, 192.0, 0.0, 0.0, 0.0, 0.0, 0.0, 0.0, 0.0, 0.0, 0.0, 1.6665560860206988E9, 0.0, 2022-10-23 13:14:46.020
150.0, -78968.37788443302, -111423.49081319461, 55483.98113059773, 25116.431726983992, 62775.67896553028, 100181.144497531, 52031.642440753276, 49704.423511555615, 0.064, 0.9440000000000001, 0.17, 192.0, 0.0, 0.0, 0.0, 0.0, 0.0, 0.0, 0.0, 0.0, 0.0, 1.6665560860207064E9, 0.0, 2022-10-23 13:14:46.020
151.0, -78910.08453489358, -111372.6852980477, 53970.231589106515, 24946.357303423563, 62631.644324260276, 99442.57580549429, 50942.15136076824, 48460.54893261778, 0.064, 0.9440000000000001, 0.17, 192.0, 0.0, 0.0, 0.0, 0.0, 0.0, 0.0, 0.0, 0.0, 0.0, 1.6665560860207143E9, 0.0, 2022-10-23 13:14:46.020
152.0, -78927.8318199911, -111387.75037381059, 52696.897410976584, 25042.983894703855, 62704.93569432923, 98964.11436368398, 50175.01713931765, 47823.1889394747, 0.064, 0.9440000000000001, 0.17, 192.0, 0.0, 0.0, 0.0, 0.0, 0.0, 0.0, 0.0, 0.0, 0.0, 1.666556086020722E9, 0.0, 2022-10-23 13:14:46.020
153.0, -78972.80352983518, -111425.97185682916, 53299.388682769386, 25124.120727076617, 62777.467105086704, 99303.57030672673, 50665.54852313382, 48432.05045843726, 0.064, 0.9440000000000001, 0.17, 192.0, 0.0, 0.0, 0.0, 0.0, 0.0, 0.0, 0.0, 0.0, 0.0, 1.6665560860207298E9, 0.0, 2022-10-23 13:14:46.020
154.0, -78980.38077120553, -111433.81731913297, 55394.19417312076, 25145.77956745381, 62796.44373612926, 100183.37967197654, 52008.41897826421, 49695.54986900686, 0.064, 0.9440000000000001, 0.17, 192.0, 0.0, 0.0, 0.0, 0.0, 0.0, 0.0, 0.0, 0.0, 0.0, 1.666556086020738E9, 0.0, 2022-10-23 13:14:46.020
155.0, -78907.11175288103, -111361.82235024242, 54453.14102806342, 24952.99577152679, 62633.41011207225, 99665.44504945815, 51269.87263797196, 48768.01952934498, 0.064, 0.9440000000000001, 0.17, 192.0, 0.0, 0.0, 0.0, 0.0, 0.0, 0.0, 0.0, 0.0, 0.0, 1.6665560860207455E9, 0.0, 2022-10-23 13:14:46.020
156.0, -78922.69091876637, -111369.89132999079, 52815.69693275654, 25031.562153287192, 62682.539246385015, 99008.1696520054, 50243.99462270673, 47835.75061985858, 0.074, 0.9380000000000001, 0.168, 192.0, 2.0, 80.0, 29.0, 80.0, 5.0, 64.0, 0.0, 0.0, 0.0, 1.6665560860207534E9, 0.0, 2022-10-23 13:14:46.020
157.0, -78961.00180876277, -111404.51418215207, 53085.527191821006, 25099.95849132043, 62750.063866384495, 99205.24498286784, 50519.61398358512, 48245.59220619109, 0.074, 0.9380000000000001, 0.168, 192.0, 0.0, 0.0, 0.0, 0.0, 0.0, 0.0, 0.0, 0.0, 0.0, 1.666556086020762E9, 0.0, 2022-10-23 13:14:46.020
158.0, -78982.28066948423, -111431.64919992081, 55119.71475120959, 25165.270288618838, 62804.33390192198, 100079.95815038183, 51850.705069387564, 49549.25770154688, 0.074, 0.9380000000000001, 0.168, 192.0, 0.0, 0.0, 0.0, 0.0, 0.0, 0.0, 0.0, 0.0, 0.0, 1.6665560860207698E9, 0.0, 2022-10-23 13:14:46.020
159.0, -78926.84834323506, -111395.75229832558, 54895.79497525632, 24971.12303628004, 62649.10103667987, 99866.16371466682, 51576.78444108778, 49063.9789776777, 0.074, 0.9380000000000001, 0.168, 192.0, 0.0, 0.0, 0.0, 0.0, 0.0, 0.0, 0.0, 0.0, 0.0, 1.6665560860207777E9, 0.0, 2022-10-23 13:14:46.020
160.0, -78927.89887522446, -111397.04869950398, 52955.9988327025, 24999.621510460558, 62652.3867431148, 99049.2745100587, 50321.71163817783, 47852.246207266595, 0.074, 0.9380000000000001, 0.168, 192.0, 0.0, 0.0, 0.0, 0.0, 0.0, 0.0, 0.0, 0.0, 0.0, 1.6665560860207856E9, 0.0, 2022-10-23 13:14:46.020
161.0, -78961.2923814407, -111415.98062705764, 52931.18839635711, 25085.653374869034, 62728.49443298512, 99121.58240337163, 50405.82125256315, 48090.582858393536, 0.074, 0.9380000000000001, 0.168, 192.0, 0.0, 0.0, 0.0, 0.0, 0.0, 0.0, 0.0, 0.0, 0.0, 1.6665560860207934E9, 0.0, 2022-10-23 13:14:46.020
162.0, -79000.36323074857, -111446.11077858339, 54763.338537614174, 25180.760047526368, 62813.52046889311, 99940.25974753615, 51635.97186040543, 49342.012326957265, 0.074, 0.9380000000000001, 0.168, 192.0, 0.0, 0.0, 0.0, 0.0, 0.0, 0.0, 0.0, 0.0, 0.0, 1.6665560860208087E9, 0.0, 2022-10-23 13:14:46.020
163.0, -78958.29724768367, -111410.52680141054, 55273.204180384186, 24995.285272036228, 62673.710307325164, 100048.6657081444, 51844.44658094008, 49343.01815545776, 0.074, 0.9380000000000001, 0.168, 192.0, 0.0, 0.0, 0.0, 0.0, 0.0, 0.0, 0.0, 0.0, 0.0, 1.6665560860208166E9, 0.0, 2022-10-23 13:14:46.020
164.0, -78921.9756629438, -111368.77374276803, 53171.17907657374, 24978.879091606035, 62647.24584189008, 99133.65234537749, 50451.3070525297, 47942.793124055046, 0.074, 0.9380000000000001, 0.168, 192.0, 0.0, 0.0, 0.0, 0.0, 0.0, 0.0, 0.0, 0.0, 0.0, 1.6665560860208244E9, 0.0, 2022-10-23 13:14:46.020
165.0, -78968.86962281103, -111415.37712995734, 52857.91937803262, 25064.8662525256, 62721.14070905933, 99088.36771111104, 50347.885530935, 47994.91739212482, 0.074, 0.9380000000000001, 0.168, 192.0, 0.0, 0.0, 0.0, 0.0, 0.0, 0.0, 0.0, 0.0, 0.0, 1.6665560860208323E9, 0.0, 2022-10-23 13:14:46.020
166.0, -79006.46525698487, -111449.77646467405, 54378.01681494914, 25169.852396232178, 62799.46122163072, 99788.08907128443, 51397.61285753404, 49096.16548969335, 0.08, 0.93, 0.166, 192.0, 2.0, 128.0, 29.0, 16.0, 5.0, 48.0, 0.0, 0.0, 0.0, 1.66655608602084E9, 0.0, 2022-10-23 13:14:46.020
167.0, -78968.44493966638, -111416.87469683585, 55572.87401829648, 25046.426063349973, 62715.61982817887, 100215.61088748109, 52074.51308661856, 49589.31202761079, 0.08, 0.93, 0.166, 192.0, 0.0, 0.0, 0.0, 0.0, 0.0, 0.0, 0.0, 0.0, 0.0, 1.6665560860208485E9, 0.0, 2022-10-23 13:14:46.020
168.0, -78935.56552357263, -111387.21393194365, 53509.808005071645, 24946.536117379204, 62608.353806537845, 99275.34005347968, 50666.48729640094, 48108.08427430204, 0.08, 0.93, 0.166, 192.0, 0.0, 0.0, 0.0, 0.0, 0.0, 0.0, 0.0, 0.0, 0.0, 1.666556086020856E9, 0.0, 2022-10-23 13:14:46.020
169.0, -78958.36430291705, -111403.44129841821, 52833.578328320786, 25057.110197199607, 62704.6004181624, 99060.87506543101, 50313.19562354036, 47911.6571440288, 0.08, 0.93, 0.166, 192.0, 0.0, 0.0, 0.0, 0.0, 0.0, 0.0, 0.0, 0.0, 0.0, 1.666556086020864E9, 0.0, 2022-10-23 13:14:46.020
170.0, -78977.63150663752, -111420.18275501524, 53985.20725789157, 25177.429637602527, 62812.6263991149, 99622.32853440387, 51146.82628474549, 48832.81723652092, 0.08, 0.93, 0.166, 192.0, 0.0, 0.0, 0.0, 0.0, 0.0, 0.0, 0.0, 0.0, 0.0, 1.6665560860208726E9, 0.0, 2022-10-23 13:14:46.020
171.0, -78975.73160835882, -111421.03212130454, 55672.026356700226, 25101.00902330983, 62771.09685791694, 100280.9673882684, 52170.491477309646, 49710.52553779192, 0.08, 0.93, 0.166, 192.0, 0.0, 0.0, 0.0, 0.0, 0.0, 0.0, 0.0, 0.0, 0.0, 1.6665560860208805E9, 0.0, 2022-10-23 13:14:46.020
172.0, -78916.45478206335, -111365.73390552211, 53889.36297766722, 24955.07448376113, 62633.454815561156, 99447.80611369683, 50926.97452628309, 48335.826198557166, 0.08, 0.93, 0.166, 192.0, 0.0, 0.0, 0.0, 0.0, 0.0, 0.0, 0.0, 0.0, 0.0, 1.6665560860208883E9, 0.0, 2022-10-23 13:14:46.020
173.0, -78930.24580839227, -111375.97100448264, 52855.01365125342, 25073.941060774454, 62721.207764292696, 99081.99746394128, 50335.12268485102, 47886.24321058312, 0.08, 0.93, 0.166, 192.0, 0.0, 0.0, 0.0, 0.0, 0.0, 0.0, 0.0, 0.0, 0.0, 1.666556086020896E9, 0.0, 2022-10-23 13:14:46.020
174.0, -78978.70439037138, -111428.02821731905, 53628.361657662594, 25145.26547733134, 62772.929700962275, 99469.86728547422, 50923.308840192425, 48580.935428254066, 0.08, 0.93, 0.166, 192.0, 0.0, 0.0, 0.0, 0.0, 0.0, 0.0, 0.0, 0.0, 0.0, 1.6665560860209038E9, 0.0, 2022-10-23 13:14:46.020
175.0, -78986.9968875643, -111440.81341514748, 55609.93321060338, 25119.426860741005, 62770.02397418308, 100269.94797825193, 52162.869532450386, 49716.71697100603, 0.08, 0.93, 0.166, 192.0, 0.0, 0.0, 0.0, 0.0, 0.0, 0.0, 0.0, 0.0, 0.0, 1.6665560860209124E9, 0.0, 2022-10-23 13:14:46.020
176.0, -78920.81337223214, -111371.70182129167, 54287.44754641623, 24937.21543994134, 62623.86591718983, 99607.84460399683, 51193.65318937936, 48574.67693980657, 0.078, 0.934, 0.164, 192.0, 2.0, 112.0, 29.0, 48.0, 5.0, 32.0, 0.0, 0.0, 0.0, 1.6665560860209203E9, 0.0, 2022-10-23 13:14:46.020
177.0, -78933.03977644918, -111373.02057421453, 52874.03498578489, 25031.8080224762, 62691.5469994005, 99063.69138523238, 50334.318022050626, 47830.855587822865, 0.078, 0.934, 0.164, 192.0, 0.0, 0.0, 0.0, 0.0, 0.0, 0.0, 0.0, 0.0, 0.0, 1.6665560860209365E9, 0.0, 2022-10-23 13:14:46.020
178.0, -78954.72096857084, -111393.67358609124, 53337.341944854496, 25124.768927665824, 62766.000660181126, 99340.20481588898, 50737.208215857536, 48364.36937622659, 0.078, 0.934, 0.164, 192.0, 0.0, 0.0, 0.0, 0.0, 0.0, 0.0, 0.0, 0.0, 0.0, 1.6665560860209444E9, 0.0, 2022-10-23 13:14:46.020
179.0, -78973.83171008012, -111418.28285673654, 55421.955039734254, 25166.96902119744, 62816.71676835022, 100221.6011549951, 52082.20208671118, 49658.11069704422, 0.078, 0.934, 0.164, 192.0, 0.0, 0.0, 0.0, 0.0, 0.0, 0.0, 0.0, 0.0, 0.0, 1.666556086020952E9, 0.0, 2022-10-23 13:14:46.020
180.0, -78921.19335188786, -111369.98073696862, 54761.63980503557, 24953.822786071636, 62645.05537093346, 99832.70315321723, 51530.13635040955, 48901.370036765344, 0.078, 0.934, 0.164, 192.0, 0.0, 0.0, 0.0, 0.0, 0.0, 0.0, 0.0, 0.0, 0.0, 1.6665560860209596E9, 0.0, 2022-10-23 13:14:46.020
181.0, -78909.9727761713, -111355.85443447286, 53003.83156583686, 25022.442641549427, 62675.52079862604, 99106.98671424232, 50404.278982195734, 47851.821524121944, 0.078, 0.934, 0.164, 192.0, 0.0, 0.0, 0.0, 0.0, 0.0, 0.0, 0.0, 0.0, 0.0, 1.6665560860209677E9, 0.0, 2022-10-23 13:14:46.020
182.0, -78951.4352621359, -111397.80865881547, 53163.04304159201, 25091.889511572066, 62734.7082179437, 99246.64041359907, 50596.3922257891, 48191.61274333153, 0.078, 0.934, 0.164, 192.0, 0.0, 0.0, 0.0, 0.0, 0.0, 0.0, 0.0, 0.0, 0.0, 1.6665560860209754E9, 0.0, 2022-10-23 13:14:46.020
183.0, -78971.03774202321, -111417.5005456806, 55121.43583553265, 25185.990355728907, 62812.58169562599, 100091.20107784285, 51884.72442444854, 49476.50277334485, 0.078, 0.934, 0.164, 192.0, 0.0, 0.0, 0.0, 0.0, 0.0, 0.0, 0.0, 0.0, 0.0, 1.6665560860209832E9, 0.0, 2022-10-23 13:14:46.020
184.0, -78920.63455827649, -111371.56771082494, 55190.63683636628, 24981.091914307108, 62660.12044669634, 100017.4626728848, 51812.5282898579, 49190.378092572464, 0.078, 0.934, 0.164, 192.0, 0.0, 0.0, 0.0, 0.0, 0.0, 0.0, 0.0, 0.0, 0.0, 1.6665560860209908E9, 0.0, 2022-10-23 13:14:46.020
185.0, -78900.02624988869, -111352.61343152684, 53149.56493968546, 24993.07244933515, 62644.83185348891, 99142.48128443734, 50477.72681447588, 47883.56100124848, 0.08, 0.9400000000000001, 0.162, 192.0, 2.0, 128.0, 29.0, 96.0, 5.0, 16.0, 0.0, 0.0, 0.0, 1.6665560860209987E9, 0.0, 2022-10-23 13:14:46.020
186.0, -78929.79877350316, -111381.02249872954, 52992.96861803158, 25080.82539806669, 62721.31952301497, 99153.0983630536, 50472.42945103997, 48039.330308357516, 0.08, 0.9400000000000001, 0.162, 192.0, 0.0, 0.0, 0.0, 0.0, 0.0, 0.0, 0.0, 0.0, 0.0, 1.666556086021007E9, 0.0, 2022-10-23 13:14:46.021
187.0, -78961.65000935197, -111402.63663561782, 54723.59713597264, 25195.80277154479, 62818.48255616219, 99940.81854114754, 51651.93100594652, 49253.20884623633, 0.08, 0.9400000000000001, 0.162, 192.0, 0.0, 0.0, 0.0, 0.0, 0.0, 0.0, 0.0, 0.0, 0.0, 1.6665560860210147E9, 0.0, 2022-10-23 13:14:46.021
188.0, -78931.31869212612, -111378.04971671698, 55485.3445870095, 25023.96256017239, 62688.7977348325, 100158.92686354242, 52029.2284523521, 49435.50967401382, 0.08, 0.9400000000000001, 0.162, 192.0, 0.0, 0.0, 0.0, 0.0, 0.0, 0.0, 0.0, 0.0, 0.0, 1.6665560860210226E9, 0.0, 2022-10-23 13:14:46.021
189.0, -78907.13410462548, -111354.80390248346, 53356.02800321913, 24960.975344297334, 62611.706568206144, 99213.33631436067, 50603.187156103515, 47977.41597621632, 0.08, 0.9400000000000001, 0.162, 192.0, 0.0, 0.0, 0.0, 0.0, 0.0, 0.0, 0.0, 0.0, 0.0, 1.6665560860210316E9, 0.0, 2022-10-23 13:14:46.021
190.0, -78929.77642175871, -111376.37333588283, 52916.30213454988, 25077.53969163176, 62711.194182776715, 99118.67667659244, 50419.74638935881, 47952.73965033766, 0.08, 0.9400000000000001, 0.162, 192.0, 0.0, 0.0, 0.0, 0.0, 0.0, 0.0, 0.0, 0.0, 0.0, 1.6665560860210392E9, 0.0, 2022-10-23 13:14:46.021
191.0, -78963.05816925266, -111405.98939728612, 54317.57769794199, 25182.7940562718, 62802.322244921, 99783.52931541555, 51406.53120357171, 49006.110311282915, 0.08, 0.9400000000000001, 0.162, 192.0, 0.0, 0.0, 0.0, 0.0, 0.0, 0.0, 0.0, 0.0, 0.0, 1.6665560860210476E9, 0.0, 2022-10-23 13:14:46.021
192.0, -78932.86096249353, -111376.70861204965, 55680.72118529334, 25069.113083972108, 62721.38657824833, 100274.86536203211, 52191.524468842086, 49626.885310040154, 0.08, 0.9400000000000001, 0.162, 192.0, 0.0, 0.0, 0.0, 0.0, 0.0, 0.0, 0.0, 0.0, 0.0, 1.6665560860210583E9, 0.0, 2022-10-23 13:14:46.021
193.0, -78880.0661420901, -111330.21698358262, 53691.72885319339, 24977.47093170535, 62634.14771963927, 99373.97830176096, 50835.220615294056, 48182.00149321574, 0.08, 0.9400000000000001, 0.162, 192.0, 0.0, 0.0, 0.0, 0.0, 0.0, 0.0, 0.0, 0.0, 0.0, 1.666556086021077E9, 0.0, 2022-10-23 13:14:46.021
194.0, -78910.24099710477, -111358.9836786966, 52883.15449752266, 25071.19179620645, 62710.925961843255, 99109.84773753259, 50395.271229180245, 47896.94969617721, 0.08, 0.9400000000000001, 0.162, 192.0, 0.0, 0.0, 0.0, 0.0, 0.0, 0.0, 0.0, 0.0, 0.0, 1.6665560860210845E9, 0.0, 2022-10-23 13:14:46.021
195.0, -78947.52370685623, -111391.6395773458, 53892.93925678006, 25165.627916530124, 62787.9724249807, 99606.50349932951, 51132.38705782736, 48735.698906862606, 0.07200000000000001, 0.9460000000000001, 0.164, 192.0, 2.0, 64.0, 29.0, 144.0, 5.0, 32.0, 0.0, 0.0, 0.0, 1.6665560860210924E9, 0.0, 2022-10-23 13:14:46.021
196.0, -78941.75695678675, -111379.68139406222, 55706.6492088615, 25118.68925317398, 62757.37288682138, 100317.8254148752, 52240.78771362158, 49722.14844490868, 0.07200000000000001, 0.9460000000000001, 0.164, 192.0, 0.0, 0.0, 0.0, 0.0, 0.0, 0.0, 0.0, 0.0, 0.0, 1.6665560860211008E9, 0.0, 2022-10-23 13:14:46.021
197.0, -78896.6734882204, -111344.36563782283, 54051.27901450146, 24951.095873248087, 62611.68421646169, 99523.84674833379, 51066.42705993975, 48408.40231280355, 0.07200000000000001, 0.9460000000000001, 0.164, 192.0, 0.0, 0.0, 0.0, 0.0, 0.0, 0.0, 0.0, 0.0, 0.0, 1.6665560860211089E9, 0.0, 2022-10-23 13:14:46.021
198.0, -78916.2312646188, -111365.26451888854, 52845.98354649348, 25047.63305755056, 62684.95323478618, 99070.75453648026, 50348.55608326865, 47831.52614015653, 0.07200000000000001, 0.9460000000000001, 0.164, 192.0, 0.0, 0.0, 0.0, 0.0, 0.0, 0.0, 0.0, 0.0, 0.0, 1.6665560860211165E9, 0.0, 2022-10-23 13:14:46.021
199.0, -78936.10196543956, -111384.6881848202, 53507.01403701473, 25146.181898854007, 62775.298985874535, 99428.36009602071, 50875.09612740232, 48484.68881662951, 0.07200000000000001, 0.9460000000000001, 0.164, 192.0, 0.0, 0.0, 0.0, 0.0, 0.0, 0.0, 0.0, 0.0, 0.0, 1.6665560860211248E9, 0.0, 2022-10-23 13:14:46.021
200.0, -78960.4430151514, -111410.5938566439, 55558.68066056736, 25145.667808731534, 62783.479724345176, 100274.97712075438, 52177.822849490985, 49708.69269474658, 0.07200000000000001, 0.9460000000000001, 0.164, 192.0, 0.0, 0.0, 0.0, 0.0, 0.0, 0.0, 0.0, 0.0, 0.0, 1.6665560860211327E9, 0.0, 2022-10-23 13:14:46.021
201.0, -78877.49569147774, -111327.93710564818, 54452.15755130739, 24961.89176582, 62633.25364986106, 99702.54894525396, 51346.22619703129, 48695.80104300989, 0.07200000000000001, 0.9460000000000001, 0.164, 192.0, 0.0, 0.0, 0.0, 0.0, 0.0, 0.0, 0.0, 0.0, 0.0, 1.6665560860211408E9, 0.0, 2022-10-23 13:14:46.021
202.0, -78881.9213368799, -111330.21698358262, 52914.53634673791, 25050.359970374106, 62703.46047919518, 99105.60090608608, 50401.37325541655, 47855.57661719044, 0.07200000000000001, 0.9460000000000001, 0.164, 192.0, 0.0, 0.0, 0.0, 0.0, 0.0, 0.0, 0.0, 0.0, 0.0, 1.6665560860211487E9, 0.0, 2022-10-23 13:14:46.021
203.0, -78914.1749041289, -111360.66005953075, 53284.45771747324, 25126.35590152215, 62766.9617851927, 99350.17369391605, 50746.350079339754, 48331.15468396601, 0.07200000000000001, 0.9460000000000001, 0.164, 192.0, 0.0, 0.0, 0.0, 0.0, 0.0, 0.0, 0.0, 0.0, 0.0, 1.6665560860211563E9, 0.0, 2022-10-23 13:14:46.021
204.0, -78943.18746843189, -111386.16339995425, 55322.78034958606, 25184.291623150304, 62812.358178181436, 100206.69254144342, 52062.4878481016, 49614.90477501211, 0.07200000000000001, 0.9460000000000001, 0.164, 192.0, 0.0, 0.0, 0.0, 0.0, 0.0, 0.0, 0.0, 0.0, 0.0, 1.6665560860211644E9, 0.0, 2022-10-23 13:14:46.021
205.0, -78876.33340076607, -111328.31708530392, 54874.493762790415, 24984.08704806412, 62649.6374785468, 99890.86239228993, 51638.87758718462, 48992.58750588745, 0.074, 0.9500000000000001, 0.164, 192.0, 2.0, 80.0, 29.0, 176.0, 5.0, 32.0, 0.0, 0.0, 0.0, 1.666556086021172E9, 0.0, 2022-10-23 13:14:46.021
1.0, -79115.20649375994, -111547.25242224365, 53280.94849359376, 25308.67908104409, 62743.000715136615, 99478.80798325634, 50934.79763684245, 48357.64150114555, 0.074, 0.9500000000000001, 0.164, 192.0, 0.0, 0.0, 0.0, 0.0, 0.0, 0.0, 0.0, 0.0, 0.0, 1.6665560866119688E9, 0.0, 2022-10-23 13:14:46.611
2.0, -79144.01789236283, -111577.91901563633, 55355.972690102186, 25329.086223731785, 62767.967613693196, 100333.73985692738, 52250.57777769301, 49615.30710641231, 0.074, 0.9500000000000001, 0.164, 192.0, 0.0, 0.0, 0.0, 0.0, 0.0, 0.0, 0.0, 0.0, 0.0, 1.6665560866120021E9, 0.0, 2022-10-23 13:14:46.612
3.0, -79086.52920562378, -111525.05713999954, 54482.84649644453, 25115.336491505685, 62595.143925564764, 99845.44364755675, 51556.35494665563, 48730.379191682245, 0.074, 0.9500000000000001, 0.164, 192.0, 0.0, 0.0, 0.0, 0.0, 0.0, 0.0, 0.0, 0.0, 0.0, 1.6665560866121078E9, 0.0, 2022-10-23 13:14:46.612
4.0, -79083.73523756686, -111517.54695386255, 52789.56774348828, 25188.78432378582, 62645.65886803375, 99164.14012481453, 50493.6189047836, 47760.35818581083, 0.074, 0.9500000000000001, 0.164, 192.0, 0.0, 0.0, 0.0, 0.0, 0.0, 0.0, 0.0, 0.0, 0.0, 1.6665560866121168E9, 0.0, 2022-10-23 13:14:46.612
5.0, -79115.5194181823, -111546.73833212118, 53028.97727834908, 25280.87351094169, 62729.34379927442, 99351.02306020535, 50751.69214626458, 48169.28335062067, 0.074, 0.9500000000000001, 0.164, 192.0, 0.0, 0.0, 0.0, 0.0, 0.0, 0.0, 0.0, 0.0, 0.0, 1.6665560866121252E9, 0.0, 2022-10-23 13:14:46.612
6.0, -79122.53786594128, -111555.2319950142, 55048.83736954181, 25369.520529451434, 62800.19882919775, 100225.64682074152, 52077.418813397744, 49484.83997402668, 0.074, 0.9500000000000001, 0.164, 192.0, 0.0, 0.0, 0.0, 0.0, 0.0, 0.0, 0.0, 0.0, 0.0, 1.6665560866121335E9, 0.0, 2022-10-23 13:14:46.612
7.0, -79077.76732179729, -111521.07852948649, 54881.17693438255, 25137.84469817218, 62624.648228245765, 100031.52192014718, 51837.986926792495, 49038.36387853192, 0.08, 0.9440000000000001, 0.15, 192.0, 2.0, 128.0, 29.0, 128.0, 4.0, 176.0, 0.0, 0.0, 0.0, 1.6665560866121457E9, 0.0, 2022-10-23 13:14:46.612
8.0, -79073.02875197277, -111512.85308752694, 52917.397370028186, 25166.03024793032, 62623.15066136726, 99210.1176631591, 50571.805306888265, 47813.287116681, 0.08, 0.9440000000000001, 0.15, 192.0, 0.0, 0.0, 0.0, 0.0, 0.0, 0.0, 0.0, 0.0, 0.0, 1.6665560866121547E9, 0.0, 2022-10-23 13:14:46.612
9.0, -79105.03645003277, -111536.18830873827, 52886.68607314659, 25260.846347909734, 62709.875429853855, 99292.81911764374, 50660.586435864745, 48060.18448593432, 0.08, 0.9440000000000001, 0.15, 192.0, 0.0, 0.0, 0.0, 0.0, 0.0, 0.0, 0.0, 0.0, 0.0, 1.666556086612163E9, 0.0, 2022-10-23 13:14:46.612
10.0, -79146.94597088647, -111576.42144875783, 54679.76536509578, 25349.67218037512, 62779.72463127669, 100086.66367371842, 51863.17734279363, 49286.66940768593, 0.08, 0.9440000000000001, 0.15, 192.0, 0.0, 0.0, 0.0, 0.0, 0.0, 0.0, 0.0, 0.0, 0.0, 1.6665560866121707E9, 0.0, 2022-10-23 13:14:46.612
11.0, -79104.54471165476, -111542.67031463032, 55239.74361893459, 25172.378143355625, 62645.79297850049, 100204.09973908661, 52099.36822645286, 49324.06387615966, 0.08, 0.9440000000000001, 0.15, 192.0, 0.0, 0.0, 0.0, 0.0, 0.0, 0.0, 0.0, 0.0, 0.0, 1.6665560866121788E9, 0.0, 2022-10-23 13:14:46.612
12.0, -79072.98404848386, -111509.41091888082, 53119.926526537725, 25150.92046867853, 62610.49957400556, 99280.01156807084, 50693.17527928058, 47906.73976024864, 0.08, 0.9440000000000001, 0.15, 192.0, 0.0, 0.0, 0.0, 0.0, 0.0, 0.0, 0.0, 0.0, 0.0, 1.666556086612187E9, 0.0, 2022-10-23 13:14:46.612
13.0, -79108.21039774542, -111538.44583492826, 52745.46775167796, 25252.196222805527, 62699.370109959855, 99206.74254974634, 50550.30292872226, 47929.3150221485, 0.08, 0.9440000000000001, 0.15, 192.0, 0.0, 0.0, 0.0, 0.0, 0.0, 0.0, 0.0, 0.0, 0.0, 1.6665560866121948E9, 0.0, 2022-10-23 13:14:46.612
14.0, -79140.19574406097, -111567.8830823759, 54226.31552533097, 25354.656619388657, 62776.95301496423, 99892.94110452427, 51578.52787715529, 49019.14137830036, 0.08, 0.9440000000000001, 0.15, 192.0, 0.0, 0.0, 0.0, 0.0, 0.0, 0.0, 0.0, 0.0, 0.0, 1.6665560866122026E9, 0.0, 2022-10-23 13:14:46.612
15.0, -79109.05976403473, -111543.20675649724, 55463.32811872102, 25232.437280707036, 62688.17188598775, 100329.42597024751, 52277.55633325056, 49540.60757644267, 0.08, 0.9440000000000001, 0.15, 192.0, 0.0, 0.0, 0.0, 0.0, 0.0, 0.0, 0.0, 0.0, 0.0, 1.6665560866122105E9, 0.0, 2022-10-23 13:14:46.612
16.0, -79065.63032455806, -111497.13981117486, 53389.689730368824, 25147.433596543506, 62601.96120762363, 99384.23775246594, 50859.85223768381, 48056.675262054836, 0.08, 0.9440000000000001, 0.15, 192.0, 0.0, 0.0, 0.0, 0.0, 0.0, 0.0, 0.0, 0.0, 0.0, 1.6665560866122184E9, 0.0, 2022-10-23 13:14:46.612
17.0, -79096.16280748401, -111523.4254626543, 52668.95773040745, 25255.32546702927, 62703.16990651726, 99156.16055204399, 50478.62088425409, 47845.00424206308, 0.076, 0.9440000000000001, 0.154, 192.0, 2.0, 96.0, 29.0, 128.0, 4.0, 208.0, 0.0, 0.0, 0.0, 1.6665560866122265E9, 0.0, 2022-10-23 13:14:46.612
18.0, -79136.9323893705, -111557.31070724854, 53811.28833428483, 25350.946229809077, 62787.03365171357, 99719.9386024402, 51307.73649307925, 48767.39368050024, 0.076, 0.9440000000000001, 0.154, 192.0, 0.0, 0.0, 0.0, 0.0, 0.0, 0.0, 0.0, 0.0, 0.0, 1.6665560866122353E9, 0.0, 2022-10-23 13:14:46.612
19.0, -79131.38915674557, -111557.3777624819, 55536.686544023345, 25277.654859740123, 62734.77527317707, 100387.9428372315, 52350.98181378625, 49668.88423787168, 0.076, 0.9440000000000001, 0.154, 192.0, 0.0, 0.0, 0.0, 0.0, 0.0, 0.0, 0.0, 0.0, 0.0, 1.6665560866122532E9, 0.0, 2022-10-23 13:14:46.612
20.0, -79075.97918224087, -111508.31568340251, 53777.470144923944, 25129.507497490347, 62597.64732094375, 99558.2013795616, 51113.812758185006, 48295.77187249326, 0.076, 0.9440000000000001, 0.154, 192.0, 0.0, 0.0, 0.0, 0.0, 0.0, 0.0, 0.0, 0.0, 0.0, 1.666556086612261E9, 0.0, 2022-10-23 13:14:46.612
21.0, -79090.95485102593, -111519.33509341898, 52669.069489129724, 25227.519896926868, 62674.760839314564, 99146.70576413939, 50459.15251483351, 47788.2308111466, 0.076, 0.9440000000000001, 0.154, 192.0, 0.0, 0.0, 0.0, 0.0, 0.0, 0.0, 0.0, 0.0, 0.0, 1.6665560866122687E9, 0.0, 2022-10-23 13:14:46.612
22.0, -79131.90324686805, -111559.56823343853, 53432.761541934204, 25313.551761335348, 62744.207709337206, 99545.30442301088, 51046.95869051918, 48495.97644757944, 0.076, 0.9440000000000001, 0.154, 192.0, 0.0, 0.0, 0.0, 0.0, 0.0, 0.0, 0.0, 0.0, 0.0, 1.6665560866122763E9, 0.0, 2022-10-23 13:14:46.612
23.0, -79142.47562199541, -111569.44770448777, 55438.22710969771, 25314.557589835837, 62742.19605233623, 100359.82434270672, 52301.897382962394, 49661.77638313489, 0.076, 0.9440000000000001, 0.154, 192.0, 0.0, 0.0, 0.0, 0.0, 0.0, 0.0, 0.0, 0.0, 0.0, 1.6665560866122844E9, 0.0, 2022-10-23 13:14:46.612
24.0, -79077.52145260829, -111512.02607298209, 54138.51787311052, 25128.322855034217, 62582.33637599187, 99689.29436079197, 51333.39629571394, 48528.453532273, 0.076, 0.9440000000000001, 0.154, 192.0, 0.0, 0.0, 0.0, 0.0, 0.0, 0.0, 0.0, 0.0, 0.0, 1.6665560866122923E9, 0.0, 2022-10-23 13:14:46.612
25.0, -79085.65748759003, -111517.90458177384, 52702.66416104605, 25223.831859091744, 62662.4897316086, 99147.26455775078, 50463.06407011319, 47778.82072673091, 0.076, 0.9440000000000001, 0.154, 192.0, 0.0, 0.0, 0.0, 0.0, 0.0, 0.0, 0.0, 0.0, 0.0, 1.6665560866123E9, 0.0, 2022-10-23 13:14:46.612
26.0, -79123.96837758641, -111552.66154440184, 53177.43756502123, 25302.130019918684, 62738.038627867536, 99448.05198288584, 50881.06404317189, 48324.31505016268, 0.076, 0.9440000000000001, 0.154, 192.0, 0.0, 0.0, 0.0, 0.0, 0.0, 0.0, 0.0, 0.0, 0.0, 1.666556086612308E9, 0.0, 2022-10-23 13:14:46.612
27.0, -79152.80212793376, -111583.2834343056, 55259.9942994111, 25341.53614539339, 62768.74992474913, 100325.26854577882, 52219.66531511132, 49612.53549009985, 0.076, 0.9420000000000001, 0.16, 192.0, 2.0, 96.0, 29.0, 112.0, 5.0, 0.0, 0.0, 0.0, 0.0, 1.6665560866123157E9, 0.0, 2022-10-23 13:14:46.612
28.0, -79084.87517653409, -111523.04548299855, 54635.79948375219, 25139.8340034287, 62600.39658551176, 99935.85645387847, 51680.205962682485, 48872.7374521181, 0.076, 0.9420000000000001, 0.16, 192.0, 0.0, 0.0, 0.0, 0.0, 0.0, 0.0, 0.0, 0.0, 0.0, 1.6665560866123242E9, 0.0, 2022-10-23 13:14:46.612
29.0, -79087.53503412426, -111518.70924457423, 52843.1225232032, 25192.159437198574, 62637.76870224103, 99207.74837824683, 50543.44094317448, 47804.994619488076, 0.076, 0.9420000000000001, 0.16, 192.0, 0.0, 0.0, 0.0, 0.0, 0.0, 0.0, 0.0, 0.0, 0.0, 1.666556086612333E9, 0.0, 2022-10-23 13:14:46.612
30.0, -79101.61663313111, -111527.33701793397, 52987.53714412894, 25286.595557522247, 62728.85206089641, 99359.06968820926, 50741.20917811504, 48151.42430680088, 0.076, 0.9420000000000001, 0.16, 192.0, 0.0, 0.0, 0.0, 0.0, 0.0, 0.0, 0.0, 0.0, 0.0, 1.6665560866123407E9, 0.0, 2022-10-23 13:14:46.612
31.0, -79140.86629639463, -111566.76549515313, 54909.42953937406, 25363.172634026127, 62790.65463431533, 100178.46228819637, 51998.62891419279, 49413.02381909178, 0.076, 0.9420000000000001, 0.16, 192.0, 0.0, 0.0, 0.0, 0.0, 0.0, 0.0, 0.0, 0.0, 0.0, 1.6665560866123486E9, 0.0, 2022-10-23 13:14:46.612
32.0, -79096.18515922847, -111524.99008476616, 55032.52059608944, 25166.521986308337, 62635.77939698451, 100111.74233099728, 51948.67276533518, 49156.31403402258, 0.076, 0.9420000000000001, 0.16, 192.0, 0.0, 0.0, 0.0, 0.0, 0.0, 0.0, 0.0, 0.0, 0.0, 1.6665560866123564E9, 0.0, 2022-10-23 13:14:46.612
33.0, -79065.27269664677, -111494.50230532912, 52989.593504618824, 25185.07393420624, 62633.790091727984, 99244.49464613137, 50617.17934813254, 47844.26663449605, 0.076, 0.9420000000000001, 0.16, 192.0, 0.0, 0.0, 0.0, 0.0, 0.0, 0.0, 0.0, 0.0, 0.0, 1.6665560866123643E9, 0.0, 2022-10-23 13:14:46.612
34.0, -79092.81004581571, -111517.65871258483, 52827.07397068429, 25296.00564193793, 62733.70238944321, 99265.77350685281, 50615.07828415374, 48005.37800852991, 0.076, 0.9420000000000001, 0.16, 192.0, 0.0, 0.0, 0.0, 0.0, 0.0, 0.0, 0.0, 0.0, 0.0, 1.6665560866123793E9, 0.0, 2022-10-23 13:14:46.612
35.0, -79147.79533717578, -111569.64887018787, 54537.56356687112, 25382.439837746602, 62807.08316648998, 100044.68709763135, 51778.55363828583, 49206.29253462464, 0.076, 0.9420000000000001, 0.16, 192.0, 0.0, 0.0, 0.0, 0.0, 0.0, 0.0, 0.0, 0.0, 0.0, 1.666556086612387E9, 0.0, 2022-10-23 13:14:46.612
36.0, -79121.39792697405, -111554.11440779144, 55358.65489943682, 25197.61326284567, 62661.72977229712, 100280.43094640148, 52186.316512384, 49419.93050812847, 0.076, 0.9420000000000001, 0.16, 192.0, 0.0, 0.0, 0.0, 0.0, 0.0, 0.0, 0.0, 0.0, 0.0, 1.6665560866123948E9, 0.0, 2022-10-23 13:14:46.612
37.0, -79080.47188287639, -111514.66357882782, 53244.20222570923, 25151.12163437863, 62610.320760049915, 99350.75483927189, 50773.418041875135, 47970.44223194626, 0.07200000000000001, 0.9480000000000001, 0.152, 192.0, 2.0, 64.0, 29.0, 160.0, 4.0, 192.0, 0.0, 0.0, 0.0, 1.666556086612403E9, 0.0, 2022-10-23 13:14:46.612
38.0, -79101.86250232012, -111532.34380869196, 52764.62319667616, 25252.643257694635, 62692.64223487881, 99231.79885528075, 50557.76841137033, 47918.92146097678, 0.07200000000000001, 0.9480000000000001, 0.152, 192.0, 0.0, 0.0, 0.0, 0.0, 0.0, 0.0, 0.0, 0.0, 0.0, 1.6665560866124113E9, 0.0, 2022-10-23 13:14:46.612
39.0, -79137.26766553732, -111562.7868846401, 54095.580172011876, 25359.797520613378, 62771.61094803941, 99845.71186849021, 51484.80701265419, 48925.152292865794, 0.07200000000000001, 0.9480000000000001, 0.152, 192.0, 0.0, 0.0, 0.0, 0.0, 0.0, 0.0, 0.0, 0.0, 0.0, 1.666556086612419E9, 0.0, 2022-10-23 13:14:46.612
40.0, -79128.88576136659, -111561.3340212505, 55516.3017530801, 25237.7569958874, 62688.9989005326, 100357.56681651674, 52305.183089397324, 49582.07006240726, 0.07200000000000001, 0.9480000000000001, 0.152, 192.0, 0.0, 0.0, 0.0, 0.0, 0.0, 0.0, 0.0, 0.0, 0.0, 1.6665560866124265E9, 0.0, 2022-10-23 13:14:46.612
41.0, -79080.36012415412, -111516.9658085067, 53538.73116239681, 25127.652302700557, 62579.16242827922, 99449.23662534198, 50944.408886958234, 48128.31260303409, 0.07200000000000001, 0.9480000000000001, 0.152, 192.0, 0.0, 0.0, 0.0, 0.0, 0.0, 0.0, 0.0, 0.0, 0.0, 1.6665560866124346E9, 0.0, 2022-10-23 13:14:46.612
42.0, -79108.29980472324, -111537.21648898322, 52696.98681795441, 25245.177775046563, 62679.16413297226, 99173.81843016368, 50482.39832906704, 47830.006221533564, 0.07200000000000001, 0.9480000000000001, 0.152, 192.0, 0.0, 0.0, 0.0, 0.0, 0.0, 0.0, 0.0, 0.0, 0.0, 1.6665560866124425E9, 0.0, 2022-10-23 13:14:46.612
43.0, -79148.37648253162, -111574.47684699022, 53672.21578028391, 25336.238781957483, 62752.8131309525, 99654.80561909743, 51196.1342330139, 48650.829333165806, 0.07200000000000001, 0.9480000000000001, 0.152, 192.0, 0.0, 0.0, 0.0, 0.0, 0.0, 0.0, 0.0, 0.0, 0.0, 1.66655608661245E9, 0.0, 2022-10-23 13:14:46.612
44.0, -79149.44936626547, -111579.05895460355, 55547.68360229536, 25291.870569213697, 62732.249526053616, 100406.65124734059, 52354.98277604375, 49679.70248218805, 0.07200000000000001, 0.9480000000000001, 0.152, 192.0, 0.0, 0.0, 0.0, 0.0, 0.0, 0.0, 0.0, 0.0, 0.0, 1.6665560866124578E9, 0.0, 2022-10-23 13:14:46.612
45.0, -79068.26783040378, -111506.28167465708, 53948.03630686239, 25150.272268089328, 62597.69202443267, 99637.46066540011, 51218.21775653574, 48390.967952128405, 0.07200000000000001, 0.9480000000000001, 0.152, 192.0, 0.0, 0.0, 0.0, 0.0, 0.0, 0.0, 0.0, 0.0, 0.0, 1.6665560866124654E9, 0.0, 2022-10-23 13:14:46.612
46.0, -79085.47867363438, -111526.51000338912, 52725.15001596809, 25245.53540295785, 62678.180656216224, 99181.48507851185, 50490.95904719342, 47802.15594794226, 0.07200000000000001, 0.9460000000000001, 0.152, 192.0, 2.0, 64.0, 29.0, 144.0, 4.0, 192.0, 0.0, 0.0, 0.0, 1.6665560866124732E9, 0.0, 2022-10-23 13:14:46.612
47.0, -79132.7302614129, -111568.53128296511, 53361.68299456633, 25316.68100555909, 62741.972534891676, 99525.03139078993, 50995.81789920544, 48433.01158344884, 0.07200000000000001, 0.9460000000000001, 0.152, 192.0, 0.0, 0.0, 0.0, 0.0, 0.0, 0.0, 0.0, 0.0, 0.0, 1.6665560866124814E9, 0.0, 2022-10-23 13:14:46.612
48.0, -79150.4775465104, -111584.35631803946, 55432.370952650424, 25335.031787756896, 62760.36802057839, 100380.25383713888, 52306.9935806982, 49666.626711681696, 0.07200000000000001, 0.9460000000000001, 0.152, 192.0, 0.0, 0.0, 0.0, 0.0, 0.0, 0.0, 0.0, 0.0, 0.0, 1.6665560866124892E9, 0.0, 2022-10-23 13:14:46.612
49.0, -79102.66716512051, -111544.03377104209, 54392.03135872261, 25126.11003233314, 62583.36455623681, 99827.04816187003, 51507.605791998605, 48674.09749914378, 0.07200000000000001, 0.9460000000000001, 0.152, 192.0, 0.0, 0.0, 0.0, 0.0, 0.0, 0.0, 0.0, 0.0, 0.0, 1.6665560866124969E9, 0.0, 2022-10-23 13:14:46.612
50.0, -79109.57385415719, -111545.75485536514, 52800.855374438215, 25205.257559449383, 62641.68025752071, 99193.93500017346, 50515.38950388307, 47782.41935758822, 0.07200000000000001, 0.9460000000000001, 0.152, 192.0, 0.0, 0.0, 0.0, 0.0, 0.0, 0.0, 0.0, 0.0, 0.0, 1.6665560866125128E9, 0.0, 2022-10-23 13:14:46.612
51.0, -79134.20547654695, -111565.2902800191, 53121.26763120504, 25296.29621461585, 62721.811261392984, 99410.34458998973, 50821.228423265035, 48233.54461592968, 0.07200000000000001, 0.9460000000000001, 0.152, 192.0, 0.0, 0.0, 0.0, 0.0, 0.0, 0.0, 0.0, 0.0, 0.0, 1.6665560866125207E9, 0.0, 2022-10-23 13:14:46.612
52.0, -79153.33856980069, -111583.14932383888, 55178.70100482715, 25364.78195962691, 62776.841256241954, 100286.0188825153, 52155.69462248023, 49542.55217821028, 0.07200000000000001, 0.9460000000000001, 0.152, 192.0, 0.0, 0.0, 0.0, 0.0, 0.0, 0.0, 0.0, 0.0, 0.0, 1.6665560866125288E9, 0.0, 2022-10-23 13:14:46.612
53.0, -79097.3698016846, -111536.59064013847, 54814.65814288356, 25146.047788387274, 62603.79405066896, 100005.83976576803, 51782.979283687986, 48965.6089503299, 0.07200000000000001, 0.9460000000000001, 0.152, 192.0, 0.0, 0.0, 0.0, 0.0, 0.0, 0.0, 0.0, 0.0, 0.0, 1.666556086612537E9, 0.0, 2022-10-23 13:14:46.612
54.0, -79086.14922596804, -111525.34771267745, 52912.12235833673, 25192.628823832136, 62626.36931256882, 99220.13124467508, 50561.165876527535, 47803.47470086512, 0.07200000000000001, 0.9460000000000001, 0.152, 192.0, 0.0, 0.0, 0.0, 0.0, 0.0, 0.0, 0.0, 0.0, 0.0, 1.6665560866125443E9, 0.0, 2022-10-23 13:14:46.612
55.0, -79113.46305769242, -111549.28643098909, 52949.58388204383, 25289.501284301437, 62710.25540950959, 99324.51389128136, 50689.84486935674, 48088.839422326026, 0.07200000000000001, 0.9460000000000001, 0.152, 192.0, 0.0, 0.0, 0.0, 0.0, 0.0, 0.0, 0.0, 0.0, 0.0, 1.6665560866125524E9, 0.0, 2022-10-23 13:14:46.612
56.0, -79155.4843372684, -111583.75282093917, 54805.80685207926, 25374.326154509326, 62776.68479403076, 100136.35160164257, 51919.95077371011, 49341.23001590133, 0.082, 0.9440000000000001, 0.148, 192.0, 2.0, 144.0, 29.0, 128.0, 4.0, 160.0, 0.0, 0.0, 0.0, 1.66655608661256E9, 0.0, 2022-10-23 13:14:46.612
57.0, -79121.86731360761, -111556.30487874805, 55214.284982, 25181.83293126022, 62637.366370840835, 100205.61965770957, 52062.86782775734, 49277.37108199252, 0.082, 0.9440000000000001, 0.148, 192.0, 0.0, 0.0, 0.0, 0.0, 0.0, 0.0, 0.0, 0.0, 0.0, 1.6665560866125686E9, 0.0, 2022-10-23 13:14:46.612
58.0, -79078.77315029778, -111511.78020379308, 53129.96245979815, 25181.922338238044, 62616.53454500849, 99310.67816146353, 50690.82834611277, 47904.057550913996, 0.082, 0.9440000000000001, 0.148, 192.0, 0.0, 0.0, 0.0, 0.0, 0.0, 0.0, 0.0, 0.0, 0.0, 1.6665560866125765E9, 0.0, 2022-10-23 13:14:46.612
59.0, -79121.53203744079, -111547.78886411058, 52850.766819806915, 25262.500376999425, 62694.02804303504, 99274.17776276801, 50604.03652239282, 47977.9747698277, 0.082, 0.9440000000000001, 0.148, 192.0, 0.0, 0.0, 0.0, 0.0, 0.0, 0.0, 0.0, 0.0, 0.0, 1.666556086612584E9, 0.0, 2022-10-23 13:14:46.612
60.0, -79158.56887800324, -111581.04825986008, 54427.213004495265, 25366.078360805317, 62775.030764941075, 99995.20033540731, 51682.55289585029, 49110.38119916692, 0.082, 0.9440000000000001, 0.148, 192.0, 0.0, 0.0, 0.0, 0.0, 0.0, 0.0, 0.0, 0.0, 0.0, 1.666556086612592E9, 0.0, 2022-10-23 13:14:46.612
61.0, -79138.60877020464, -111567.34664050897, 55485.63515968742, 25219.0038822894, 62662.757952542066, 100339.59601397467, 52252.09769631597, 49494.67474158701, 0.082, 0.9440000000000001, 0.148, 192.0, 0.0, 0.0, 0.0, 0.0, 0.0, 0.0, 0.0, 0.0, 0.0, 1.6665560866125998E9, 0.0, 2022-10-23 13:14:46.612
62.0, -79108.23274948988, -111538.02115178361, 53402.09494854152, 25135.29659930427, 62569.6182333968, 99409.18229927807, 50844.56364447637, 48022.342982571485, 0.082, 0.9440000000000001, 0.148, 192.0, 0.0, 0.0, 0.0, 0.0, 0.0, 0.0, 0.0, 0.0, 0.0, 1.6665560866126077E9, 0.0, 2022-10-23 13:14:46.612
63.0, -79134.16077305803, -111562.51866370662, 52806.085682640754, 25244.596629690725, 62663.85318802037, 99244.49464613137, 50551.77814385631, 47893.306361831, 0.082, 0.9440000000000001, 0.148, 192.0, 0.0, 0.0, 0.0, 0.0, 0.0, 0.0, 0.0, 0.0, 0.0, 1.6665560866126158E9, 0.0, 2022-10-23 13:14:46.612
64.0, -79166.50374728486, -111589.16194309735, 54039.2537759845, 25350.767415853432, 62754.62362225338, 99835.98885965215, 51428.99470674929, 48855.61601586533, 0.082, 0.9440000000000001, 0.148, 192.0, 0.0, 0.0, 0.0, 0.0, 0.0, 0.0, 0.0, 0.0, 0.0, 1.6665560866126237E9, 0.0, 2022-10-23 13:14:46.612
65.0, -79148.66705520953, -111579.55069298157, 55647.61825175503, 25261.7627694324, 62692.15049650079, 100440.44708495702, 52379.54734320013, 49654.60147316474, 0.082, 0.9440000000000001, 0.148, 192.0, 0.0, 0.0, 0.0, 0.0, 0.0, 0.0, 0.0, 0.0, 0.0, 1.6665560866126387E9, 0.0, 2022-10-23 13:14:46.612
66.0, -79082.34942941063, -111518.8210032965, 53771.16695298755, 25143.253820330363, 62586.78437313848, 99566.49387675451, 51072.37262396487, 48232.628194407014, 0.08, 0.9460000000000001, 0.146, 192.0, 2.0, 128.0, 29.0, 144.0, 4.0, 144.0, 0.0, 0.0, 0.0, 1.6665560866126466E9, 0.0, 2022-10-23 13:14:46.612
67.0, -79105.12585701059, -111538.24466922817, 52777.6095602047, 25243.90372561261, 62667.63063283332, 99214.34214286115, 50502.11256767662, 47816.57282311593, 0.08, 0.9460000000000001, 0.146, 192.0, 0.0, 0.0, 0.0, 0.0, 0.0, 0.0, 0.0, 0.0, 0.0, 1.666556086612655E9, 0.0, 2022-10-23 13:14:46.612
68.0, -79138.96639811592, -111570.14060856588, 53621.18674769244, 25339.971523281518, 62745.57116574898, 99639.78524682346, 51135.00221192864, 48567.27851239187, 0.08, 0.9460000000000001, 0.146, 192.0, 0.0, 0.0, 0.0, 0.0, 0.0, 0.0, 0.0, 0.0, 0.0, 1.6665560866126628E9, 0.0, 2022-10-23 13:14:46.612
69.0, -79140.39690976107, -111574.07451559002, 55585.972140547296, 25333.198944711563, 62746.912270416295, 100434.23329999845, 52358.603758645506, 49689.02315962591, 0.08, 0.9460000000000001, 0.146, 192.0, 0.0, 0.0, 0.0, 0.0, 0.0, 0.0, 0.0, 0.0, 0.0, 1.6665560866126707E9, 0.0, 2022-10-23 13:14:46.612
70.0, -79087.98206901336, -111525.70534058874, 54161.04843152147, 25151.50161403437, 62584.83977137086, 99727.29232636599, 51321.34870545253, 48486.52165967484, 0.08, 0.9460000000000001, 0.146, 192.0, 0.0, 0.0, 0.0, 0.0, 0.0, 0.0, 0.0, 0.0, 0.0, 1.6665560866126785E9, 0.0, 2022-10-23 13:14:46.612
71.0, -79121.73320314089, -111552.57213742401, 52812.14300538815, 25227.318731226773, 62642.909603465756, 99219.25952664133, 50507.43228285698, 47796.61271531734, 0.08, 0.9460000000000001, 0.146, 192.0, 0.0, 0.0, 0.0, 0.0, 0.0, 0.0, 0.0, 0.0, 0.0, 1.666556086612687E9, 0.0, 2022-10-23 13:14:46.612
72.0, -79146.05190110827, -111575.25915804616, 53324.02030515913, 25311.04836595635, 62712.535287444036, 99513.02850401742, 50934.909395564726, 48359.27317849078, 0.08, 0.9460000000000001, 0.146, 192.0, 0.0, 0.0, 0.0, 0.0, 0.0, 0.0, 0.0, 0.0, 0.0, 1.6665560866126952E9, 0.0, 2022-10-23 13:14:46.612
73.0, -79166.99548566288, -111594.90634142236, 55393.32245508701, 25346.788805340388, 62749.08038962846, 100372.07309866823, 52254.04229808359, 49624.42661815007, 0.08, 0.9460000000000001, 0.146, 192.0, 0.0, 0.0, 0.0, 0.0, 0.0, 0.0, 0.0, 0.0, 0.0, 1.6665560866127028E9, 0.0, 2022-10-23 13:14:46.612
74.0, -79103.38242094307, -111538.71405586172, 54570.51003819824, 25135.98950338239, 62577.57545442289, 99901.30065695055, 51586.48509818138, 48766.92429386667, 0.08, 0.9460000000000001, 0.146, 192.0, 0.0, 0.0, 0.0, 0.0, 0.0, 0.0, 0.0, 0.0, 0.0, 1.6665560866127107E9, 0.0, 2022-10-23 13:14:46.612
75.0, -79107.45043843394, -111545.35252396495, 52864.691956602575, 25207.47038215046, 62629.118577136825, 99219.75126501934, 50515.3224486497, 47784.74393901157, 0.082, 0.936, 0.146, 192.0, 2.0, 144.0, 29.0, 64.0, 4.0, 144.0, 0.0, 0.0, 0.0, 1.6665560866127186E9, 0.0, 2022-10-23 13:14:46.612
76.0, -79130.29392126726, -111563.41273348485, 53077.56997079492, 25300.230121639983, 62715.038682823026, 99395.23481073795, 50755.04490793287, 48172.70316752233, 0.082, 0.936, 0.146, 192.0, 0.0, 0.0, 0.0, 0.0, 0.0, 0.0, 0.0, 0.0, 0.0, 1.6665560866127267E9, 0.0, 2022-10-23 13:14:46.612
77.0, -79156.15488960205, -111586.97147214074, 55076.84410534431, 25381.322250523837, 62787.324224391494, 100256.98396646786, 52064.857133013866, 49473.48528784338, 0.082, 0.936, 0.146, 192.0, 0.0, 0.0, 0.0, 0.0, 0.0, 0.0, 0.0, 0.0, 0.0, 1.6665560866127348E9, 0.0, 2022-10-23 13:14:46.612
78.0, -79105.81876108871, -111542.78207335259, 54999.440014295586, 25175.909718979565, 62627.19632711367, 100110.9823716858, 51886.11023260478, 49086.353073877464, 0.082, 0.936, 0.146, 192.0, 0.0, 0.0, 0.0, 0.0, 0.0, 0.0, 0.0, 0.0, 0.0, 1.6665560866127427E9, 0.0, 2022-10-23 13:14:46.612
79.0, -79100.02965927478, -111533.99783778166, 52986.24074295053, 25191.622995331647, 62621.74250146658, 99256.6763468595, 50577.25913253536, 47817.82452080542, 0.082, 0.936, 0.146, 192.0, 0.0, 0.0, 0.0, 0.0, 0.0, 0.0, 0.0, 0.0, 0.0, 1.6665560866127503E9, 0.0, 2022-10-23 13:14:46.612
80.0, -79131.61267419012, -111560.082323561, 52901.594686698285, 25286.662612755612, 62704.26514199557, 99307.81713817324, 50625.22597613645, 48027.21566286274, 0.082, 0.936, 0.146, 192.0, 0.0, 0.0, 0.0, 0.0, 0.0, 0.0, 0.0, 0.0, 0.0, 1.666556086612758E9, 0.0, 2022-10-23 13:14:46.612
81.0, -79161.76517746034, -111585.69742270678, 54657.1006962181, 25386.440800004104, 62784.99964296814, 100084.76377543971, 51799.65368505164, 49240.20013096334, 0.082, 0.936, 0.146, 192.0, 0.0, 0.0, 0.0, 0.0, 0.0, 0.0, 0.0, 0.0, 0.0, 1.6665560866127732E9, 0.0, 2022-10-23 13:14:46.612
82.0, -79129.04222357777, -111563.6809544183, 55291.152631181794, 25195.35573665568, 62646.99997270107, 100241.1589313935, 52083.47613614514, 49331.261137874266, 0.082, 0.936, 0.146, 192.0, 0.0, 0.0, 0.0, 0.0, 0.0, 0.0, 0.0, 0.0, 0.0, 1.6665560866127813E9, 0.0, 2022-10-23 13:14:46.612
83.0, -79098.44268541846, -111535.11542500442, 53183.69605346872, 25165.78437874131, 62600.329530278395, 99327.5984320162, 50685.30746523231, 47913.087655673946, 0.082, 0.936, 0.146, 192.0, 0.0, 0.0, 0.0, 0.0, 0.0, 0.0, 0.0, 0.0, 0.0, 1.666556086612789E9, 0.0, 2022-10-23 13:14:46.612
84.0, -79124.43776421998, -111557.40011422636, 52785.320912041774, 25273.09510387124, 62688.9989005326, 99243.57822460869, 50521.245660930355, 47918.63088829886, 0.082, 0.936, 0.146, 192.0, 0.0, 0.0, 0.0, 0.0, 0.0, 0.0, 0.0, 0.0, 0.0, 1.6665560866127963E9, 0.0, 2022-10-23 13:14:46.612
85.0, -79176.15970088956, -111600.5389810251, 54219.87822292784, 25363.776131126422, 62765.95595669222, 99904.18403198529, 51514.57953626866, 48982.328055182465, 0.082, 0.9380000000000001, 0.148, 192.0, 2.0, 144.0, 29.0, 80.0, 4.0, 160.0, 0.0, 0.0, 0.0, 1.6665560866128042E9, 0.0, 2022-10-23 13:14:46.612
86.0, -79151.81865117773, -111582.8363994165, 55522.11320663848, 25244.753091901912, 62684.10386849688, 100371.44724982348, 52260.70311793126, 49553.12455333764, 0.082, 0.9380000000000001, 0.148, 192.0, 0.0, 0.0, 0.0, 0.0, 0.0, 0.0, 0.0, 0.0, 0.0, 1.6665560866128125E9, 0.0, 2022-10-23 13:14:46.612
87.0, -79091.8712725486, -111526.06296850002, 53461.88586495947, 25157.804805970765, 62587.320815005405, 99429.20946231001, 50849.99511837902, 48068.38757614942, 0.082, 0.9380000000000001, 0.148, 192.0, 0.0, 0.0, 0.0, 0.0, 0.0, 0.0, 0.0, 0.0, 0.0, 1.6665560866128201E9, 0.0, 2022-10-23 13:14:46.612
88.0, -79123.61074967514, -111554.51673919163, 52730.96146952647, 25266.836615423756, 62691.23407497813, 99208.79891023623, 50468.3614335491, 47852.536779944516, 0.082, 0.9380000000000001, 0.148, 192.0, 0.0, 0.0, 0.0, 0.0, 0.0, 0.0, 0.0, 0.0, 0.0, 1.666556086612828E9, 0.0, 2022-10-23 13:14:46.612
89.0, -79162.681598983, -111593.07349837704, 53808.98610460593, 25356.981200812006, 62758.98221242216, 99730.01923918954, 51244.92809115983, 48727.451113158604, 0.082, 0.9380000000000001, 0.148, 192.0, 0.0, 0.0, 0.0, 0.0, 0.0, 0.0, 0.0, 0.0, 0.0, 1.666556086612836E9, 0.0, 2022-10-23 13:14:46.612
90.0, -79158.92650591451, -111591.2406553317, 55572.49403864075, 25294.128095403685, 62716.04451132352, 100408.93112527503, 52306.948877209295, 49655.04850805384, 0.082, 0.9380000000000001, 0.148, 192.0, 0.0, 0.0, 0.0, 0.0, 0.0, 0.0, 0.0, 0.0, 0.0, 1.6665560866128435E9, 0.0, 2022-10-23 13:14:46.612
91.0, -79116.83817110518, -111554.71790489173, 53866.87712274517, 25128.59107596768, 62568.59005315186, 99598.99331319254, 51103.62036271339, 48310.97105872286, 0.082, 0.9380000000000001, 0.148, 192.0, 0.0, 0.0, 0.0, 0.0, 0.0, 0.0, 0.0, 0.0, 0.0, 1.6665560866128514E9, 0.0, 2022-10-23 13:14:46.612
92.0, -79123.58839793068, -111560.90933810585, 52764.10910655369, 25235.99120807543, 62652.72201928163, 99210.47529107038, 50471.13304986156, 47815.94697427118, 0.082, 0.9380000000000001, 0.148, 192.0, 0.0, 0.0, 0.0, 0.0, 0.0, 0.0, 0.0, 0.0, 0.0, 1.666556086612859E9, 0.0, 2022-10-23 13:14:46.612
93.0, -79135.72539516991, -111566.87725387541, 53494.29589441966, 25351.527375164915, 62753.059000141504, 99600.53558355995, 51043.02478349505, 48507.35348550719, 0.082, 0.9380000000000001, 0.148, 192.0, 0.0, 0.0, 0.0, 0.0, 0.0, 0.0, 0.0, 0.0, 0.0, 1.6665560866128683E9, 0.0, 2022-10-23 13:14:46.612
94.0, -79154.59026749019, -111583.4846000057, 55527.8576049635, 25347.347598951772, 62762.60319502392, 100425.76198884989, 52315.889574991415, 49694.007598639444, 0.082, 0.9380000000000001, 0.148, 192.0, 0.0, 0.0, 0.0, 0.0, 0.0, 0.0, 0.0, 0.0, 0.0, 1.6665560866128762E9, 0.0, 2022-10-23 13:14:46.612
95.0, -79100.09671450815, -111534.69074185977, 54332.151035326846, 25146.919506421033, 62594.49572497556, 99809.32322851697, 51416.76830253223, 48612.89842282515, 0.082, 0.936, 0.146, 192.0, 2.0, 144.0, 29.0, 64.0, 4.0, 144.0, 0.0, 0.0, 0.0, 1.666556086612884E9, 0.0, 2022-10-23 13:14:46.612
96.0, -79106.86929307811, -111539.63047738439, 52832.25957539792, 25233.19724001852, 62648.899870979774, 99223.01461970981, 50492.590724538655, 47801.19482293067, 0.082, 0.936, 0.146, 192.0, 0.0, 0.0, 0.0, 0.0, 0.0, 0.0, 0.0, 0.0, 0.0, 1.6665560866128995E9, 0.0, 2022-10-23 13:14:46.612
97.0, -79144.62138946312, -111575.01328885714, 53235.57445234948, 25311.92008399011, 62715.28455201204, 99476.95278846656, 50854.53252250344, 48299.30344811719, 0.082, 0.936, 0.146, 192.0, 0.0, 0.0, 0.0, 0.0, 0.0, 0.0, 0.0, 0.0, 0.0, 1.666556086612908E9, 0.0, 2022-10-23 13:14:46.612
98.0, -79177.38904683459, -111606.99863517268, 55302.976703998655, 25347.347598951772, 62750.89088092934, 100341.92059539803, 52179.298064625036, 49584.17112638606, 0.082, 0.936, 0.146, 192.0, 0.0, 0.0, 0.0, 0.0, 0.0, 0.0, 0.0, 0.0, 0.0, 1.6665560866129167E9, 0.0, 2022-10-23 13:14:46.612
99.0, -79120.3250432402, -111555.29905024756, 54739.444522791455, 25141.778605196312, 62587.47727721659, 99971.48513454023, 51670.08062244423, 48876.80546960896, 0.082, 0.936, 0.146, 192.0, 0.0, 0.0, 0.0, 0.0, 0.0, 0.0, 0.0, 0.0, 0.0, 1.6665560866129246E9, 0.0, 2022-10-23 13:14:46.612
100.0, -79104.58941514367, -111532.7237883477, 52911.51886123644, 25221.440222435027, 62646.35177211187, 99232.55881459222, 50510.65093405854, 47794.779872272, 0.082, 0.936, 0.146, 192.0, 0.0, 0.0, 0.0, 0.0, 0.0, 0.0, 0.0, 0.0, 0.0, 1.6665560866129324E9, 0.0, 2022-10-23 13:14:46.612
101.0, -79141.69331093947, -111569.42535274332, 53028.70905741562, 25296.944415205053, 62720.917191614775, 99379.49918264142, 50695.745729892944, 48134.28051880366, 0.082, 0.936, 0.146, 192.0, 0.0, 0.0, 0.0, 0.0, 0.0, 0.0, 0.0, 0.0, 0.0, 1.6665560866129403E9, 0.0, 2022-10-23 13:14:46.612
102.0, -79165.9896571624, -111595.26396933365, 54971.83560989328, 25387.446628504593, 62789.31352964801, 100230.89948068852, 51980.83692560637, 49424.98200237537, 0.082, 0.936, 0.146, 192.0, 0.0, 0.0, 0.0, 0.0, 0.0, 0.0, 0.0, 0.0, 0.0, 1.6665560866129484E9, 0.0, 2022-10-23 13:14:46.612
103.0, -79112.70309838094, -111548.19119551078, 55150.984841702564, 25198.64144309061, 62637.4334260742, 100178.95402657439, 51958.440477662145, 49195.563697286096, 0.082, 0.936, 0.146, 192.0, 0.0, 0.0, 0.0, 0.0, 0.0, 0.0, 0.0, 0.0, 0.0, 1.6665560866129563E9, 0.0, 2022-10-23 13:14:46.612
104.0, -79094.50877839432, -111528.5216603901, 53097.977113482615, 25211.404289174592, 62635.0864929064, 99310.18642308551, 50622.409656335076, 47873.927399388245, 0.07200000000000001, 0.9460000000000001, 0.154, 192.0, 2.0, 64.0, 29.0, 144.0, 4.0, 208.0, 0.0, 0.0, 0.0, 1.6665560866129642E9, 0.0, 2022-10-23 13:14:46.612
105.0, -79127.58936018817, -111561.95987009525, 52899.51597446394, 25296.05034542684, 62706.61207516338, 99311.95221089748, 50599.18619384601, 48009.60248823196, 0.07200000000000001, 0.9460000000000001, 0.154, 192.0, 0.0, 0.0, 0.0, 0.0, 0.0, 0.0, 0.0, 0.0, 0.0, 1.6665560866129725E9, 0.0, 2022-10-23 13:14:46.612
106.0, -79173.54454678828, -111604.0929083935, 54552.20395948934, 25385.278509292428, 62783.90440748983, 100054.00777506921, 51721.08730329124, 49178.1069848665, 0.07200000000000001, 0.9460000000000001, 0.154, 192.0, 0.0, 0.0, 0.0, 0.0, 0.0, 0.0, 0.0, 0.0, 0.0, 1.6665560866129804E9, 0.0, 2022-10-23 13:14:46.612
107.0, -79138.89934288256, -111576.17557956882, 55470.57008392455, 25221.730795112944, 62665.99895548808, 100343.14994134307, 52198.11823345641, 49459.56015104773, 0.07200000000000001, 0.9460000000000001, 0.154, 192.0, 0.0, 0.0, 0.0, 0.0, 0.0, 0.0, 0.0, 0.0, 0.0, 1.666556086612988E9, 0.0, 2022-10-23 13:14:46.612
108.0, -79093.9723365274, -111530.48861390217, 53356.31857589705, 25176.200291657486, 62609.98548388309, 99405.78483412086, 50776.770803543426, 47997.21962180372, 0.07200000000000001, 0.9460000000000001, 0.154, 192.0, 0.0, 0.0, 0.0, 0.0, 0.0, 0.0, 0.0, 0.0, 0.0, 1.666556086612996E9, 0.0, 2022-10-23 13:14:46.612
109.0, -79130.0257003338, -111558.13772179339, 52862.926168790604, 25284.896824943644, 62711.73062464364, 99298.85408864667, 50566.59735043017, 47947.4199351573, 0.07200000000000001, 0.9460000000000001, 0.154, 192.0, 0.0, 0.0, 0.0, 0.0, 0.0, 0.0, 0.0, 0.0, 0.0, 1.6665560866130037E9, 0.0, 2022-10-23 13:14:46.613
110.0, -79190.57657606323, -111615.11231840997, 54190.59743769139, 25370.07932306282, 62779.25524464313, 99927.56395668554, 51505.214155341884, 48955.86358974739, 0.07200000000000001, 0.9460000000000001, 0.154, 192.0, 0.0, 0.0, 0.0, 0.0, 0.0, 0.0, 0.0, 0.0, 0.0, 1.6665560866130116E9, 0.0, 2022-10-23 13:14:46.613
111.0, -79151.55043024427, -111582.41171627185, 55658.39179258249, 25276.716086473, 62711.618865921366, 100453.8134281413, 52353.440505676335, 49640.22930147997, 0.07200000000000001, 0.9460000000000001, 0.154, 192.0, 0.0, 0.0, 0.0, 0.0, 0.0, 0.0, 0.0, 0.0, 0.0, 1.6665560866130195E9, 0.0, 2022-10-23 13:14:46.613
112.0, -79093.45824640492, -111526.88998304486, 53712.22540285891, 25158.475358304426, 62599.748384922554, 99550.53473121343, 51008.938373200705, 48187.79059502967, 0.07200000000000001, 0.9460000000000001, 0.154, 192.0, 0.0, 0.0, 0.0, 0.0, 0.0, 0.0, 0.0, 0.0, 0.0, 1.6665560866130364E9, 0.0, 2022-10-23 13:14:46.613
113.0, -79101.99661278685, -111528.90164004585, 52835.03119171038, 25273.81035969381, 62702.34289197242, 99261.81724808422, 50530.700448834956, 47865.9478266177, 0.07200000000000001, 0.9460000000000001, 0.154, 192.0, 0.0, 0.0, 0.0, 0.0, 0.0, 0.0, 0.0, 0.0, 0.0, 1.6665560866130445E9, 0.0, 2022-10-23 13:14:46.613
114.0, -79137.7817556598, -111561.49048346169, 53763.52265638384, 25363.10557879276, 62776.03659344156, 99718.59749777288, 51217.70366641327, 48664.62035949473, 0.074, 0.9480000000000001, 0.156, 192.0, 2.0, 80.0, 29.0, 160.0, 4.0, 224.0, 0.0, 0.0, 0.0, 1.6665560866130564E9, 0.0, 2022-10-23 13:14:46.613
115.0, -79141.29097953928, -111572.71105917825, 55633.96133589284, 25322.24658992846, 62748.00750589461, 100447.19731178253, 52358.603758645506, 49694.38757829519, 0.074, 0.9480000000000001, 0.156, 192.0, 0.0, 0.0, 0.0, 0.0, 0.0, 0.0, 0.0, 0.0, 0.0, 1.6665560866130648E9, 0.0, 2022-10-23 13:14:46.613
116.0, -79084.80812130072, -111522.06200624252, 54081.14094509375, 25157.201308870473, 62604.19638206916, 99693.07180560492, 51245.3974777934, 48428.384772346595, 0.074, 0.9480000000000001, 0.156, 192.0, 0.0, 0.0, 0.0, 0.0, 0.0, 0.0, 0.0, 0.0, 0.0, 1.6665560866130729E9, 0.0, 2022-10-23 13:14:46.613
117.0, -79097.86154006261, -111528.2757912011, 52821.79895899284, 25260.175795576073, 62688.328348198935, 99227.52967208979, 50503.632486299575, 47816.036381249, 0.074, 0.9480000000000001, 0.156, 192.0, 0.0, 0.0, 0.0, 0.0, 0.0, 0.0, 0.0, 0.0, 0.0, 1.6665560866130805E9, 0.0, 2022-10-23 13:14:46.613
118.0, -79138.60877020464, -111563.72565790721, 53417.85292838251, 25342.58667738279, 62755.69650598723, 99556.05561209389, 50991.54871601448, 48429.077676424706, 0.074, 0.9480000000000001, 0.156, 192.0, 0.0, 0.0, 0.0, 0.0, 0.0, 0.0, 0.0, 0.0, 0.0, 1.6665560866130886E9, 0.0, 2022-10-23 13:14:46.613
119.0, -79163.9332966725, -111590.48069602021, 55489.144383566905, 25343.883078561197, 62761.64207001234, 100407.97000026346, 52303.506708563174, 49667.386670993175, 0.074, 0.9480000000000001, 0.156, 192.0, 0.0, 0.0, 0.0, 0.0, 0.0, 0.0, 0.0, 0.0, 0.0, 1.6665560866130965E9, 0.0, 2022-10-23 13:14:46.613
120.0, -79099.11323775211, -111533.03671277007, 54513.66955204839, 25141.420977285026, 62593.84752438635, 99879.35124389545, 51543.323879638185, 48712.698961818096, 0.074, 0.9480000000000001, 0.156, 192.0, 0.0, 0.0, 0.0, 0.0, 0.0, 0.0, 0.0, 0.0, 0.0, 1.666556086613104E9, 0.0, 2022-10-23 13:14:46.613
121.0, -79097.88389180707, -111528.6781226013, 52881.254599243955, 25226.692882382024, 62647.17878665672, 99228.35668663462, 50527.83942554468, 47796.79152927298, 0.074, 0.9480000000000001, 0.156, 192.0, 0.0, 0.0, 0.0, 0.0, 0.0, 0.0, 0.0, 0.0, 0.0, 1.666556086613112E9, 0.0, 2022-10-23 13:14:46.613
122.0, -79120.23563626238, -111545.5760414095, 53166.3510997714, 25323.610046340233, 62737.904517400806, 99436.65259321364, 50818.5462139304, 48237.27735725372, 0.074, 0.9480000000000001, 0.156, 192.0, 0.0, 0.0, 0.0, 0.0, 0.0, 0.0, 0.0, 0.0, 0.0, 1.6665560870905683E9, 0.0, 2022-10-23 13:14:47.090
123.0, -79140.39690976107, -111563.05510557356, 55200.60571439335, 25397.706079209576, 62803.59629435495, 100303.90027807956, 52140.56249148399, 49542.55217821028, 0.074, 0.9480000000000001, 0.156, 192.0, 0.0, 0.0, 0.0, 0.0, 0.0, 0.0, 0.0, 0.0, 0.0, 1.6665560870906096E9, 0.0, 2022-10-23 13:14:47.090
124.0, -79092.94415628245, -111523.11253823192, 54931.73658034046, 25187.465570862958, 62636.047617917975, 100068.4693537318, 51831.97430753402, 49022.22591903519, 0.08, 0.9460000000000001, 0.152, 192.0, 2.0, 128.0, 29.0, 144.0, 4.0, 192.0, 0.0, 0.0, 0.0, 1.66655608709064E9, 0.0, 2022-10-23 13:14:47.090
125.0, -79087.44562714644, -111518.15045096284, 53003.317475714386, 25222.22253349096, 62646.955269212165, 99267.27107373132, 50596.03459787781, 47832.30845121246, 0.08, 0.9460000000000001, 0.152, 192.0, 0.0, 0.0, 0.0, 0.0, 0.0, 0.0, 0.0, 0.0, 0.0, 1.666556087090669E9, 0.0, 2022-10-23 13:14:47.090
126.0, -79115.49706643785, -111542.60325939694, 52998.02011227848, 25309.26022639993, 62721.677150926254, 99356.47688585245, 50703.166509052106, 48094.628524139946, 0.08, 0.9460000000000001, 0.152, 192.0, 0.0, 0.0, 0.0, 0.0, 0.0, 0.0, 0.0, 0.0, 0.0, 1.6665560870906775E9, 0.0, 2022-10-23 13:14:47.090
127.0, -79138.76523241583, -111565.37968699691, 54839.11095131766, 25410.6477392492, 62803.90921877733, 100168.35929970257, 51934.41235237269, 49346.52737933724, 0.08, 0.9460000000000001, 0.152, 192.0, 0.0, 0.0, 0.0, 0.0, 0.0, 0.0, 0.0, 0.0, 0.0, 1.6665560870908508E9, 0.0, 2022-10-23 13:14:47.090
128.0, -79087.13270272406, -111522.15141322034, 55306.10594822239, 25227.60930390469, 62672.57036835795, 100250.14433266454, 52109.31475273547, 49313.87148068804, 0.08, 0.9460000000000001, 0.152, 192.0, 0.0, 0.0, 0.0, 0.0, 0.0, 0.0, 0.0, 0.0, 0.0, 1.6665560870908606E9, 0.0, 2022-10-23 13:14:47.090
129.0, -79065.87619374707, -111501.14077343236, 53200.929248443754, 25199.759030313377, 62629.34209458138, 99335.15332164208, 50721.91962265011, 47915.63575454185, 0.08, 0.9460000000000001, 0.152, 192.0, 0.0, 0.0, 0.0, 0.0, 0.0, 0.0, 0.0, 0.0, 0.0, 1.6665560870908687E9, 0.0, 2022-10-23 13:14:47.090
130.0, -79089.34552542515, -111518.12809921839, 52889.144765036675, 25312.255360156938, 62723.7558631606, 99293.55672521076, 50626.0976941702, 47983.92033385281, 0.08, 0.9460000000000001, 0.152, 192.0, 0.0, 0.0, 0.0, 0.0, 0.0, 0.0, 0.0, 0.0, 0.0, 1.6665560870908787E9, 0.0, 2022-10-23 13:14:47.090
131.0, -79123.85661886414, -111550.26990774513, 54390.936123244304, 25414.805163717887, 62800.265884431115, 99968.51235252767, 51652.13217164662, 49076.13832666139, 0.08, 0.9460000000000001, 0.152, 192.0, 0.0, 0.0, 0.0, 0.0, 0.0, 0.0, 0.0, 0.0, 0.0, 1.6665560870908873E9, 0.0, 2022-10-23 13:14:47.090
132.0, -79104.65647037703, -111538.55759365053, 55506.37757854195, 25266.367228790194, 62691.412888933766, 100332.7340284269, 52256.456286484754, 49503.90601204706, 0.08, 0.9460000000000001, 0.152, 192.0, 0.0, 0.0, 0.0, 0.0, 0.0, 0.0, 0.0, 0.0, 0.0, 1.6665560870908952E9, 0.0, 2022-10-23 13:14:47.090
133.0, -79071.79940602773, -111509.94736074774, 53441.32226006058, 25174.725076523435, 62605.358672780836, 99408.60115392222, 50862.02035689597, 48041.23020663622, 0.08, 0.9460000000000001, 0.152, 192.0, 0.0, 0.0, 0.0, 0.0, 0.0, 0.0, 0.0, 0.0, 0.0, 1.6665560870909033E9, 0.0, 2022-10-23 13:14:47.090
134.0, -79095.49225515036, -111533.34963719246, 52810.913659443104, 25275.6655544836, 62690.47411566665, 99232.84938727015, 50555.019146802326, 47892.38994030833, 0.082, 0.9420000000000001, 0.154, 192.0, 2.0, 144.0, 29.0, 112.0, 4.0, 208.0, 0.0, 0.0, 0.0, 1.6665560870909111E9, 0.0, 2022-10-23 13:14:47.090
135.0, -79134.80897364723, -111569.20183529877, 54002.12752844424, 25376.27075627694, 62766.626509025875, 99806.5069087156, 51410.88979374049, 48832.54901558746, 0.082, 0.9420000000000001, 0.154, 192.0, 0.0, 0.0, 0.0, 0.0, 0.0, 0.0, 0.0, 0.0, 0.0, 1.6665560870909245E9, 0.0, 2022-10-23 13:14:47.090
136.0, -79115.36295597113, -111552.86271010194, 55664.762039752255, 25305.169857164605, 62718.056168324496, 100438.99422156742, 52401.16148008841, 49676.23796179747, 0.082, 0.9420000000000001, 0.154, 192.0, 0.0, 0.0, 0.0, 0.0, 0.0, 0.0, 0.0, 0.0, 0.0, 1.6665560870909324E9, 0.0, 2022-10-23 13:14:47.090
137.0, -79060.17649891097, -111500.35846237642, 53832.857767684196, 25168.578346798226, 62599.59192271137, 99579.39083330522, 51119.803025699024, 48276.392910050505, 0.082, 0.9420000000000001, 0.154, 192.0, 0.0, 0.0, 0.0, 0.0, 0.0, 0.0, 0.0, 0.0, 0.0, 1.6665560870909405E9, 0.0, 2022-10-23 13:14:47.090
138.0, -79080.91891776549, -111517.43519514028, 52815.83104322327, 25274.011525393908, 62689.043604021506, 99227.79789302325, 50547.754829854355, 47849.40753572078, 0.082, 0.9420000000000001, 0.154, 192.0, 0.0, 0.0, 0.0, 0.0, 0.0, 0.0, 0.0, 0.0, 0.0, 1.666556087090948E9, 0.0, 2022-10-23 13:14:47.090
139.0, -79105.3717261996, -111539.29520121757, 53637.43646591145, 25376.360163254758, 62777.37769810888, 99654.71621211962, 51178.85633454995, 48589.294980680344, 0.082, 0.9420000000000001, 0.154, 192.0, 0.0, 0.0, 0.0, 0.0, 0.0, 0.0, 0.0, 0.0, 0.0, 1.666556087090956E9, 0.0, 2022-10-23 13:14:47.090
140.0, -79122.13553454108, -111557.10954154845, 55617.26458278472, 25347.951096052064, 62766.02301192559, 100451.57825369577, 52409.34221855905, 49712.1348633927, 0.082, 0.9420000000000001, 0.154, 192.0, 0.0, 0.0, 0.0, 0.0, 0.0, 0.0, 0.0, 0.0, 0.0, 1.666556087090964E9, 0.0, 2022-10-23 13:14:47.090
141.0, -79073.34167639514, -111508.78507003607, 54245.22510114016, 25161.157567639064, 62597.71437617712, 99761.6469575938, 51400.987970946786, 48533.54973000881, 0.082, 0.9420000000000001, 0.154, 192.0, 0.0, 0.0, 0.0, 0.0, 0.0, 0.0, 0.0, 0.0, 0.0, 1.666556087090972E9, 0.0, 2022-10-23 13:14:47.090
142.0, -79081.85769103262, -111511.55668634853, 52844.955366248534, 25269.5635282473, 62677.24188294911, 99228.20022442345, 50557.589597414684, 47816.14813997128, 0.082, 0.9420000000000001, 0.154, 192.0, 0.0, 0.0, 0.0, 0.0, 0.0, 0.0, 0.0, 0.0, 0.0, 1.66655608709098E9, 0.0, 2022-10-23 13:14:47.090
143.0, -79109.10446752363, -111534.40016918186, 53340.627651289426, 25358.255250245962, 62760.39037232284, 99528.4959111805, 50989.42530029122, 48379.45680373393, 0.078, 0.9440000000000001, 0.154, 192.0, 2.0, 112.0, 29.0, 128.0, 4.0, 208.0, 0.0, 0.0, 0.0, 1.6665560870910008E9, 0.0, 2022-10-23 13:14:47.091
144.0, -79130.33862475617, -111555.41080896984, 55410.80151925106, 25390.330003539326, 62789.15706743683, 100387.71931978695, 52309.63108654393, 49648.968833562, 0.078, 0.9440000000000001, 0.154, 192.0, 0.0, 0.0, 0.0, 0.0, 0.0, 0.0, 0.0, 0.0, 0.0, 1.6665560870910094E9, 0.0, 2022-10-23 13:14:47.091
145.0, -79070.68181880497, -111507.86864851341, 54696.03743505925, 25188.091419707707, 62628.984466670096, 99975.62020726445, 51719.38857071264, 48858.14176298878, 0.078, 0.9440000000000001, 0.154, 192.0, 0.0, 0.0, 0.0, 0.0, 0.0, 0.0, 0.0, 0.0, 0.0, 1.6665560870910175E9, 0.0, 2022-10-23 13:14:47.091
146.0, -79073.25226941732, -111507.86864851341, 52932.976535913534, 25246.876507625166, 62652.900833237276, 99256.60929162614, 50604.192984604, 47829.045096521986, 0.078, 0.9440000000000001, 0.154, 192.0, 0.0, 0.0, 0.0, 0.0, 0.0, 0.0, 0.0, 0.0, 0.0, 1.666556087091025E9, 0.0, 2022-10-23 13:14:47.091
147.0, -79100.40963893052, -111531.8297185695, 53102.38040714031, 25334.11536623423, 62734.1047208434, 99411.30571500132, 50817.27216449645, 48195.68076082239, 0.078, 0.9440000000000001, 0.154, 192.0, 0.0, 0.0, 0.0, 0.0, 0.0, 0.0, 0.0, 0.0, 0.0, 1.6665560870910356E9, 0.0, 2022-10-23 13:14:47.091
148.0, -79138.47465973791, -111569.1347800654, 55085.494230448516, 25410.893608438208, 62802.41165189882, 100263.71184154891, 52116.93669759473, 49489.735006062394, 0.078, 0.9440000000000001, 0.154, 192.0, 0.0, 0.0, 0.0, 0.0, 0.0, 0.0, 0.0, 0.0, 0.0, 1.6665560870910437E9, 0.0, 2022-10-23 13:14:47.091
149.0, -79086.4621503904, -111523.93955277676, 55066.964634295065, 25205.905760038586, 62636.89698420728, 100129.5343195837, 51964.07311726488, 49130.45306568778, 0.078, 0.9440000000000001, 0.154, 192.0, 0.0, 0.0, 0.0, 0.0, 0.0, 0.0, 0.0, 0.0, 0.0, 1.666556087091051E9, 0.0, 2022-10-23 13:14:47.091
150.0, -79069.49717634883, -111504.49353510066, 53048.758572192026, 25229.218629505474, 62639.892117964286, 99278.08931804769, 50654.88674102864, 47857.14123930231, 0.078, 0.9440000000000001, 0.154, 192.0, 0.0, 0.0, 0.0, 0.0, 0.0, 0.0, 0.0, 0.0, 0.0, 1.6665560870910592E9, 0.0, 2022-10-23 13:14:47.091
151.0, -79098.91207205201, -111532.16499473632, 52936.03872490391, 25325.554648107845, 62731.64602895332, 99324.60329825919, 50693.6670176586, 48055.31180564306, 0.078, 0.9440000000000001, 0.154, 192.0, 0.0, 0.0, 0.0, 0.0, 0.0, 0.0, 0.0, 0.0, 0.0, 1.6665560870910673E9, 0.0, 2022-10-23 13:14:47.091
152.0, -79137.24531379287, -111567.86073063145, 54666.75664982279, 25417.241503863515, 62801.785803054074, 100089.94938015335, 51856.248302012486, 49255.533427659684, 0.078, 0.9440000000000001, 0.154, 192.0, 0.0, 0.0, 0.0, 0.0, 0.0, 0.0, 0.0, 0.0, 0.0, 1.6665560870910752E9, 0.0, 2022-10-23 13:14:47.091
153.0, -79101.3707639421, -111538.08820701698, 55380.157277602826, 25238.94163834353, 62660.232205418615, 100273.88188527607, 52186.964712973204, 49389.57683915816, 0.084, 0.9520000000000001, 0.156, 192.0, 2.0, 160.0, 29.0, 192.0, 4.0, 224.0, 0.0, 0.0, 0.0, 1.6665560870910828E9, 0.0, 2022-10-23 13:14:47.091
154.0, -79067.59727807013, -111503.91238974482, 53250.48306590117, 25204.050565248795, 62611.840678672874, 99336.20385363148, 50766.44429760508, 47946.88349329037, 0.084, 0.9520000000000001, 0.156, 192.0, 0.0, 0.0, 0.0, 0.0, 0.0, 0.0, 0.0, 0.0, 0.0, 1.6665560870910912E9, 0.0, 2022-10-23 13:14:47.091
155.0, -79088.54086262475, -111522.64315159836, 52845.40240113764, 25313.97644448, 62718.883182869344, 99268.18749525398, 50618.92278420005, 47962.39560394235, 0.084, 0.9520000000000001, 0.156, 192.0, 0.0, 0.0, 0.0, 0.0, 0.0, 0.0, 0.0, 0.0, 0.0, 1.6665560870910988E9, 0.0, 2022-10-23 13:14:47.091
156.0, -79131.90324686805, -111563.8821201184, 54260.11136294739, 25407.36203281427, 62789.24647441465, 99927.25103226317, 51606.69107516898, 49015.43098872078, 0.084, 0.9520000000000001, 0.156, 192.0, 0.0, 0.0, 0.0, 0.0, 0.0, 0.0, 0.0, 0.0, 0.0, 1.666556087091107E9, 0.0, 2022-10-23 13:14:47.091
157.0, -79115.31825248222, -111553.46620720223, 55591.40361444993, 25286.684964500066, 62696.88906632532, 100393.5978285787, 52358.49199992323, 49596.26342013638, 0.084, 0.9520000000000001, 0.156, 192.0, 0.0, 0.0, 0.0, 0.0, 0.0, 0.0, 0.0, 0.0, 0.0, 1.6665560870911152E9, 0.0, 2022-10-23 13:14:47.091
158.0, -79053.02394068526, -111498.05623269752, 53569.04012787821, 25188.538454596815, 62606.453908259144, 99469.68847151857, 50971.49920123806, 48126.658573944405, 0.084, 0.9520000000000001, 0.156, 192.0, 0.0, 0.0, 0.0, 0.0, 0.0, 0.0, 0.0, 0.0, 0.0, 1.6665560870911312E9, 0.0, 2022-10-23 13:14:47.091
159.0, -79085.05399048973, -111522.95607602074, 52829.26444164091, 25285.030935410374, 62699.995958804604, 99251.66955610151, 50592.570077487246, 47902.20235612421, 0.084, 0.9520000000000001, 0.156, 192.0, 0.0, 0.0, 0.0, 0.0, 0.0, 0.0, 0.0, 0.0, 0.0, 1.666556087091139E9, 0.0, 2022-10-23 13:14:47.091
160.0, -79121.15205778505, -111550.2252042562, 53882.769213052896, 25388.050125604885, 62777.19888415324, 99765.2455884511, 51359.90546463794, 48763.70564266511, 0.084, 0.9520000000000001, 0.156, 192.0, 0.0, 0.0, 0.0, 0.0, 0.0, 0.0, 0.0, 0.0, 0.0, 1.6665560870911467E9, 0.0, 2022-10-23 13:14:47.091
161.0, -79115.16179027103, -111552.61684091293, 55655.82134197013, 25330.181459210096, 62740.899651157815, 100442.88342510264, 52425.301364100145, 49700.17668010911, 0.084, 0.9520000000000001, 0.156, 192.0, 0.0, 0.0, 0.0, 0.0, 0.0, 0.0, 0.0, 0.0, 0.0, 1.6665560870911543E9, 0.0, 2022-10-23 13:14:47.091
162.0, -79047.7042255049, -111490.83661923846, 53948.19276907358, 25186.973832484942, 62609.471393760614, 99620.92037450318, 51210.10407329847, 48353.573483654676, 0.084, 0.9520000000000001, 0.156, 192.0, 0.0, 0.0, 0.0, 0.0, 0.0, 0.0, 0.0, 0.0, 0.0, 1.6665560870911627E9, 0.0, 2022-10-23 13:14:47.091
163.0, -79074.83924327364, -111509.47797411418, 52801.771795960885, 25290.171836635094, 62691.25642672258, 99213.67159052749, 50547.77718159881, 47833.51544541305, 0.08, 0.9500000000000001, 0.15, 192.0, 2.0, 128.0, 29.0, 176.0, 4.0, 176.0, 0.0, 0.0, 0.0, 1.6665560870911715E9, 0.0, 2022-10-23 13:14:47.091
164.0, -79118.2686827503, -111542.11152101893, 53481.46599310231, 25368.06766606184, 62753.52838677507, 99572.86412392427, 51082.31915024747, 48491.64020915511, 0.08, 0.9500000000000001, 0.15, 192.0, 0.0, 0.0, 0.0, 0.0, 0.0, 0.0, 0.0, 0.0, 0.0, 1.6665560870911808E9, 0.0, 2022-10-23 13:14:47.091
165.0, -79123.00725257484, -111541.28450647408, 55550.522273841176, 25360.87040434723, 62761.41855256779, 100425.71728536097, 52388.71155842681, 49710.14555813617, 0.08, 0.9500000000000001, 0.15, 192.0, 0.0, 0.0, 0.0, 0.0, 0.0, 0.0, 0.0, 0.0, 0.0, 1.666556087091189E9, 0.0, 2022-10-23 13:14:47.091
166.0, -79050.22997262835, -111483.77346799058, 54396.389948891396, 25159.525890293826, 62586.62791092729, 99823.24836531263, 51512.79139671224, 48648.929434887104, 0.08, 0.9500000000000001, 0.15, 192.0, 0.0, 0.0, 0.0, 0.0, 0.0, 0.0, 0.0, 0.0, 0.0, 1.6665560870911963E9, 0.0, 2022-10-23 13:14:47.091
167.0, -79080.40482764303, -111523.91720103231, 52853.65019484165, 25250.743359415934, 62649.90569948027, 99214.67741902798, 50558.72953638191, 47810.60490734636, 0.08, 0.9500000000000001, 0.15, 192.0, 0.0, 0.0, 0.0, 0.0, 0.0, 0.0, 0.0, 0.0, 0.0, 1.6665560870912042E9, 0.0, 2022-10-23 13:14:47.091
168.0, -79147.9294476425, -111592.2911873211, 53234.32275465999, 25327.007511497442, 62727.779177162556, 99463.98877668248, 50912.31178192041, 48305.29371563122, 0.08, 0.9500000000000001, 0.15, 192.0, 0.0, 0.0, 0.0, 0.0, 0.0, 0.0, 0.0, 0.0, 0.0, 1.6665560870912125E9, 0.0, 2022-10-23 13:14:47.091
169.0, -79159.82057569273, -111599.15317286887, 55297.32171265146, 25393.056916362875, 62780.93162547727, 100333.44928424947, 52239.73718163218, 49597.604524803704, 0.08, 0.9500000000000001, 0.15, 192.0, 0.0, 0.0, 0.0, 0.0, 0.0, 0.0, 0.0, 0.0, 0.0, 1.6665560870912204E9, 0.0, 2022-10-23 13:14:47.091
170.0, -79107.11516226712, -111551.2757362456, 54808.73493060291, 25210.33140544074, 62632.80661497195, 100003.35872213349, 51783.53807729937, 48942.34078435192, 0.08, 0.9500000000000001, 0.15, 192.0, 0.0, 0.0, 0.0, 0.0, 0.0, 0.0, 0.0, 0.0, 0.0, 1.666556087091228E9, 0.0, 2022-10-23 13:14:47.091
171.0, -79128.46107822194, -111576.19793131328, 52980.33988241433, 25247.547059958826, 62655.69480129419, 99267.02520454231, 50628.06464768227, 47849.720460143144, 0.08, 0.9500000000000001, 0.15, 192.0, 0.0, 0.0, 0.0, 0.0, 0.0, 0.0, 0.0, 0.0, 0.0, 1.6665560870912359E9, 0.0, 2022-10-23 13:14:47.091
172.0, -79162.41337804955, -111611.80426023058, 53065.45532530014, 25326.06873823032, 62726.28161028405, 99393.26785722589, 50792.2382107065, 48164.611836029515, 0.076, 0.9440000000000001, 0.152, 192.0, 2.0, 96.0, 29.0, 128.0, 4.0, 192.0, 0.0, 0.0, 0.0, 1.6665560870912435E9, 0.0, 2022-10-23 13:14:47.091
173.0, -79195.51631158785, -111644.88484202443, 54982.0280053649, 25425.466945823067, 62801.651692587344, 100230.49714928832, 52061.10203994537, 49439.44358103795, 0.076, 0.9440000000000001, 0.152, 192.0, 0.0, 0.0, 0.0, 0.0, 0.0, 0.0, 0.0, 0.0, 0.0, 1.6665560870912519E9, 0.0, 2022-10-23 13:14:47.091
174.0, -79153.60679073415, -111616.56518179957, 55246.7397149491, 25229.196277761017, 62651.22445240313, 100223.27753582926, 52097.289514218515, 49262.44011669637, 0.076, 0.9440000000000001, 0.152, 192.0, 0.0, 0.0, 0.0, 0.0, 0.0, 0.0, 0.0, 0.0, 0.0, 1.666556087091267E9, 0.0, 2022-10-23 13:14:47.091
175.0, -79142.18504931749, -111605.00932991617, 53167.93807362772, 25216.07580376575, 62619.39556829877, 99330.7947314733, 50733.989564655974, 47906.02450442607, 0.076, 0.9440000000000001, 0.152, 192.0, 0.0, 0.0, 0.0, 0.0, 0.0, 0.0, 0.0, 0.0, 0.0, 1.666556087091275E9, 0.0, 2022-10-23 13:14:47.091
176.0, -79184.49690157139, -111640.01216173318, 52927.85798643327, 25301.7723920074, 62696.576141902944, 99309.62762947413, 50678.199610495525, 48014.519872012126, 0.076, 0.9440000000000001, 0.152, 192.0, 0.0, 0.0, 0.0, 0.0, 0.0, 0.0, 0.0, 0.0, 0.0, 1.666556087091283E9, 0.0, 2022-10-23 13:14:47.091
177.0, -79226.67464335855, -111686.12381054448, 54552.919215311915, 25392.676936707132, 62769.487532316154, 100041.17787375188, 51783.13574589918, 49167.378147527954, 0.076, 0.9440000000000001, 0.152, 192.0, 0.0, 0.0, 0.0, 0.0, 0.0, 0.0, 0.0, 0.0, 0.0, 1.6665560870912907E9, 0.0, 2022-10-23 13:14:47.091
178.0, -79196.32097438825, -111665.13552250095, 55495.089947592016, 25228.637484149636, 62646.10590292286, 100327.2354992909, 52268.30271104607, 49464.76810750581, 0.076, 0.9440000000000001, 0.152, 192.0, 0.0, 0.0, 0.0, 0.0, 0.0, 0.0, 0.0, 0.0, 0.0, 1.6665560870912993E9, 0.0, 2022-10-23 13:14:47.091
179.0, -79155.9313721575, -111620.85671673498, 53407.41466372188, 25175.999125957387, 62588.39369873926, 99411.52923244587, 50872.10099364531, 48017.447950535774, 0.076, 0.9440000000000001, 0.152, 192.0, 0.0, 0.0, 0.0, 0.0, 0.0, 0.0, 0.0, 0.0, 0.0, 1.6665560870913072E9, 0.0, 2022-10-23 13:14:47.091
180.0, -79166.54845077377, -111634.37952213045, 52866.32363394781, 25294.99981343744, 62682.42748766274, 99273.48485868989, 50623.86251972467, 47928.37624888137, 0.076, 0.9440000000000001, 0.152, 192.0, 0.0, 0.0, 0.0, 0.0, 0.0, 0.0, 0.0, 0.0, 0.0, 1.666556087091315E9, 0.0, 2022-10-23 13:14:47.091
181.0, -79205.06050647027, -111668.5106359137, 54145.11163772484, 25398.108410609773, 62764.21252062471, 99876.80314502754, 51529.77872249827, 48915.00460088308, 0.076, 0.9440000000000001, 0.152, 192.0, 0.0, 0.0, 0.0, 0.0, 0.0, 0.0, 0.0, 0.0, 0.0, 1.666556087091323E9, 0.0, 2022-10-23 13:14:47.091
182.0, -79186.8438347392, -111652.70795258379, 55679.44713585939, 25301.5712263073, 62696.46438318067, 100443.50927394739, 52430.7775414917, 49654.13208653118, 0.07, 0.9460000000000001, 0.156, 192.0, 2.0, 48.0, 29.0, 144.0, 4.0, 224.0, 0.0, 0.0, 0.0, 1.6665560870913303E9, 0.0, 2022-10-23 13:14:47.091
183.0, -79122.76138338583, -111592.11237336545, 53745.86477826414, 25185.923300495542, 62583.63277717028, 99541.77284738695, 51091.81864164098, 48207.41542666143, 0.07, 0.9460000000000001, 0.156, 192.0, 0.0, 0.0, 0.0, 0.0, 0.0, 0.0, 0.0, 0.0, 0.0, 1.6665560870913389E9, 0.0, 2022-10-23 13:14:47.091
184.0, -79145.11312784113, -111613.30182710908, 52824.52587181638, 25288.741324989955, 62670.245786934596, 99227.30615464522, 50582.24357154889, 47853.85553286738, 0.07, 0.9460000000000001, 0.156, 192.0, 0.0, 0.0, 0.0, 0.0, 0.0, 0.0, 0.0, 0.0, 0.0, 1.6665560870913467E9, 0.0, 2022-10-23 13:14:47.091
185.0, -79179.75833174687, -111640.05686522208, 53773.37977568863, 25391.492294251002, 62750.957936162704, 99712.49547153657, 51293.878411516955, 48669.89537118618, 0.07, 0.9460000000000001, 0.156, 192.0, 0.0, 0.0, 0.0, 0.0, 0.0, 0.0, 0.0, 0.0, 0.0, 1.6665560870913544E9, 0.0, 2022-10-23 13:14:47.091
186.0, -79192.47647434194, -111651.47860663875, 55680.47531610433, 25350.834471086797, 62735.28936329954, 100463.80465791281, 52460.23714068379, 49719.06390417384, 0.07, 0.9460000000000001, 0.156, 192.0, 0.0, 0.0, 0.0, 0.0, 0.0, 0.0, 0.0, 0.0, 0.0, 1.666556087091362E9, 0.0, 2022-10-23 13:14:47.091
187.0, -79131.54561895676, -111593.25231233267, 54166.81518159094, 25173.56278581176, 62594.808649397935, 99720.11741639583, 51366.63333971898, 48466.762717576355, 0.07, 0.9460000000000001, 0.156, 192.0, 0.0, 0.0, 0.0, 0.0, 0.0, 0.0, 0.0, 0.0, 0.0, 1.66655608709137E9, 0.0, 2022-10-23 13:14:47.091
188.0, -79145.71662494143, -111599.15317286887, 52888.89889584767, 25270.301135814327, 62667.65298457778, 99249.88141654509, 50611.79257771881, 47836.532930914516, 0.07, 0.9460000000000001, 0.156, 192.0, 0.0, 0.0, 0.0, 0.0, 0.0, 0.0, 0.0, 0.0, 0.0, 1.6665560870913775E9, 0.0, 2022-10-23 13:14:47.091
189.0, -79174.95270668897, -111625.5952865595, 53440.24937632673, 25354.276639732914, 62734.79762492152, 99554.71450742657, 51063.36487094938, 48417.43241756349, 0.07, 0.9460000000000001, 0.156, 192.0, 0.0, 0.0, 0.0, 0.0, 0.0, 0.0, 0.0, 0.0, 0.0, 1.6665560870913925E9, 0.0, 2022-10-23 13:14:47.091
190.0, -79191.3365353747, -111649.08696998203, 55514.91594492387, 25381.54576796839, 62768.593462537945, 100414.11672998867, 52380.620226933985, 49669.957121605534, 0.07, 0.9460000000000001, 0.156, 192.0, 0.0, 0.0, 0.0, 0.0, 0.0, 0.0, 0.0, 0.0, 0.0, 1.6665560870914004E9, 0.0, 2022-10-23 13:14:47.091
191.0, -79126.6282351766, -111592.91703616585, 54586.78210816171, 25176.17793991303, 62594.29455927546, 99901.54652613957, 51649.94170069, 48748.12647677976, 0.07, 0.9460000000000001, 0.156, 192.0, 0.0, 0.0, 0.0, 0.0, 0.0, 0.0, 0.0, 0.0, 0.0, 1.6665560870914085E9, 0.0, 2022-10-23 13:14:47.091
192.0, -79139.59224696067, -111602.88591419291, 52928.23796608901, 25248.485833225946, 62636.44994931817, 99239.06317222872, 50617.17934813254, 47813.22006144763, 0.064, 0.9420000000000001, 0.15, 192.0, 2.0, 0.0, 29.0, 112.0, 4.0, 176.0, 0.0, 0.0, 0.0, 1.6665560870914161E9, 0.0, 2022-10-23 13:14:47.091
193.0, -79170.48235779791, -111631.07146395106, 53188.30051282651, 25329.01916849842, 62708.668435653264, 99435.28913680186, 50889.78122350946, 48233.76813337424, 0.064, 0.9420000000000001, 0.15, 192.0, 0.0, 0.0, 0.0, 0.0, 0.0, 0.0, 0.0, 0.0, 0.0, 1.6665560870914245E9, 0.0, 2022-10-23 13:14:47.091
194.0, -79188.00612545088, -111645.57774610254, 55226.779607150514, 25404.053974634884, 62769.286366616056, 100311.90220259455, 52217.452492410244, 49542.08279157672, 0.064, 0.9420000000000001, 0.15, 192.0, 0.0, 0.0, 0.0, 0.0, 0.0, 0.0, 0.0, 0.0, 0.0, 1.666556087091432E9, 0.0, 2022-10-23 13:14:47.091
195.0, -79131.74678465686, -111595.42043154484, 55001.20580210755, 25195.020460488853, 62607.25857105954, 100088.6306272305, 51931.61838431578, 49046.11993385791, 0.064, 0.9420000000000001, 0.15, 192.0, 0.0, 0.0, 0.0, 0.0, 0.0, 0.0, 0.0, 0.0, 0.0, 1.66655608709144E9, 0.0, 2022-10-23 13:14:47.091
196.0, -79113.26189199233, -111573.35925976746, 53037.20272030863, 25232.19141151803, 62621.25076308856, 99265.50528591935, 50666.88962780114, 47831.079105267425, 0.064, 0.9420000000000001, 0.15, 192.0, 0.0, 0.0, 0.0, 0.0, 0.0, 0.0, 0.0, 0.0, 0.0, 1.6665560870914478E9, 0.0, 2022-10-23 13:14:47.091
197.0, -79143.77202317382, -111598.61673100195, 52999.92001055718, 25323.542991106868, 62707.52849668604, 99339.89189146661, 50751.44627707556, 48081.977436778245, 0.064, 0.9420000000000001, 0.15, 192.0, 0.0, 0.0, 0.0, 0.0, 0.0, 0.0, 0.0, 0.0, 0.0, 1.6665560870914555E9, 0.0, 2022-10-23 13:14:47.091
198.0, -79201.21600642396, -111650.89746128292, 54801.872945055125, 25401.26000657797, 62761.887939201355, 100126.82975850461, 51950.43855314715, 49308.21648934084, 0.064, 0.9420000000000001, 0.15, 192.0, 0.0, 0.0, 0.0, 0.0, 0.0, 0.0, 0.0, 0.0, 0.0, 1.666556087091463E9, 0.0, 2022-10-23 13:14:47.091
199.0, -79161.42990129351, -111622.37663535794, 55318.57822162846, 25210.957254285488, 62617.76389095353, 100225.78093120825, 52152.878302678866, 49307.12125386253, 0.064, 0.9420000000000001, 0.15, 192.0, 0.0, 0.0, 0.0, 0.0, 0.0, 0.0, 0.0, 0.0, 0.0, 1.6665560870914717E9, 0.0, 2022-10-23 13:14:47.091
200.0, -79124.81774387571, -111582.3893645274, 53202.04683566652, 25202.038908247818, 62592.32760576339, 99308.15241434007, 50757.70476552305, 47903.230536369156, 0.064, 0.9420000000000001, 0.15, 192.0, 0.0, 0.0, 0.0, 0.0, 0.0, 0.0, 0.0, 0.0, 0.0, 1.6665560870914793E9, 0.0, 2022-10-23 13:14:47.091
201.0, -79155.86431692414, -111604.62935026042, 52886.37314872422, 25299.023127439395, 62685.86965630885, 99276.52469593582, 50668.767174335386, 47975.426670959794, 0.064, 0.9420000000000001, 0.15, 192.0, 0.0, 0.0, 0.0, 0.0, 0.0, 0.0, 0.0, 0.0, 0.0, 1.666556087091487E9, 0.0, 2022-10-23 13:14:47.091
202.0, -79189.36958186264, -111639.31925765506, 54390.8914197554, 25390.59822447279, 62756.72468623218, 99966.79126820462, 51707.408035684595, 49072.27147487062, 0.076, 0.9500000000000001, 0.16, 192.0, 2.0, 96.0, 29.0, 176.0, 5.0, 0.0, 0.0, 0.0, 0.0, 1.6665560870914948E9, 0.0, 2022-10-23 13:14:47.091
203.0, -79156.75838670235, -111613.05595792008, 55580.60772187802, 25266.121359601184, 62674.02323174754, 100374.62119753614, 52365.733965126754, 49555.113858594166, 0.076, 0.9500000000000001, 0.16, 192.0, 0.0, 0.0, 0.0, 0.0, 0.0, 0.0, 0.0, 0.0, 0.0, 1.6665560870915031E9, 0.0, 2022-10-23 13:14:47.091
204.0, -79103.60593838763, -111559.05414331605, 53515.55240339666, 25195.489847122415, 62598.38492851078, 99445.05684912883, 50966.47005873562, 48086.55954439158, 0.076, 0.9500000000000001, 0.16, 192.0, 0.0, 0.0, 0.0, 0.0, 0.0, 0.0, 0.0, 0.0, 0.0, 1.6665560870915108E9, 0.0, 2022-10-23 13:14:47.091
205.0, -79144.19670631847, -111596.15803911186, 52824.749389260935, 25292.675232014088, 62681.6451766068, 99232.53646284777, 50611.72552248544, 47896.88264094385, 0.076, 0.9500000000000001, 0.16, 192.0, 0.0, 0.0, 0.0, 0.0, 0.0, 0.0, 0.0, 0.0, 0.0, 1.666556087091526E9, 0.0, 2022-10-23 13:14:47.091
206.0, -79196.07510519924, -111644.86249027998, 53963.34725181428, 25381.746933668488, 62746.286421571545, 99773.80630657749, 51426.04427648119, 48806.88921295276, 0.076, 0.9500000000000001, 0.16, 192.0, 0.0, 0.0, 0.0, 0.0, 0.0, 0.0, 0.0, 0.0, 0.0, 1.6665560870915337E9, 0.0, 2022-10-23 13:14:47.091
207.0, -79171.04115140928, -111625.30471388159, 55655.57547278112, 25325.420537641116, 62712.57999093294, 100422.61039288169, 52438.55594856214, 49680.976531622, 0.076, 0.9500000000000001, 0.16, 192.0, 0.0, 0.0, 0.0, 0.0, 0.0, 0.0, 0.0, 0.0, 0.0, 1.6665560870915413E9, 0.0, 2022-10-23 13:14:47.091
208.0, -79116.61465366062, -111576.95789062476, 53853.01904118288, 25187.107942951676, 62597.870838388306, 99575.99336814802, 51176.576456615505, 48293.40258758099, 0.076, 0.9500000000000001, 0.16, 192.0, 0.0, 0.0, 0.0, 0.0, 0.0, 0.0, 0.0, 0.0, 0.0, 1.666556087091549E9, 0.0, 2022-10-23 13:14:47.091
209.0, -79135.97126435892, -111591.50887626516, 52813.439406566555, 25285.5673772773, 62682.02515626254, 99215.72795101738, 50588.94909488548, 47850.011032821065, 0.076, 0.9500000000000001, 0.16, 192.0, 0.0, 0.0, 0.0, 0.0, 0.0, 0.0, 0.0, 0.0, 0.0, 1.6665560870915568E9, 0.0, 2022-10-23 13:14:47.091
210.0, -79170.81763396473, -111626.10937668198, 53586.139212386515, 25370.54870969638, 62747.11343611639, 99610.63857205375, 51179.81745956153, 48557.019061686886, 0.076, 0.9500000000000001, 0.16, 192.0, 0.0, 0.0, 0.0, 0.0, 0.0, 0.0, 0.0, 0.0, 0.0, 1.6665560870915644E9, 0.0, 2022-10-23 13:14:47.091
211.0, -79184.5416050603, -111641.46502512277, 55564.20154144783, 25365.050180560374, 62746.88991867184, 100398.87284027015, 52404.84951792354, 49688.95610439254, 0.078, 0.9460000000000001, 0.156, 192.0, 2.0, 112.0, 29.0, 144.0, 4.0, 224.0, 0.0, 0.0, 0.0, 1.6665560870915723E9, 0.0, 2022-10-23 13:14:47.091
212.0, -79144.42022376302, -111605.94810318328, 54272.33776716444, 25164.73384675191, 62583.18574228117, 99753.80149528998, 51455.593282651105, 48561.556465811314, 0.078, 0.9460000000000001, 0.156, 192.0, 0.0, 0.0, 0.0, 0.0, 0.0, 0.0, 0.0, 0.0, 0.0, 1.6665560870915804E9, 0.0, 2022-10-23 13:14:47.091
213.0, -79156.06548262424, -111612.29599860859, 52860.3780699227, 25246.76474890289, 62638.4839580636, 99219.52774757479, 50603.92476367054, 47821.24433770709, 0.078, 0.9460000000000001, 0.156, 192.0, 0.0, 0.0, 0.0, 0.0, 0.0, 0.0, 0.0, 0.0, 0.0, 1.666556087091588E9, 0.0, 2022-10-23 13:14:47.091
214.0, -79173.56689853274, -111625.26001039268, 53317.583002756, 25350.96858155353, 62729.76848241907, 99498.6339805882, 51003.52925104252, 48358.55792266821, 0.078, 0.9460000000000001, 0.156, 192.0, 0.0, 0.0, 0.0, 0.0, 0.0, 0.0, 0.0, 0.0, 0.0, 1.666556087091596E9, 0.0, 2022-10-23 13:14:47.091
215.0, -79191.78357026381, -111644.14723445741, 55414.64601929737, 25394.822704174843, 62775.231930641174, 100381.21496215045, 52347.18201722885, 49651.94161557456, 0.078, 0.9460000000000001, 0.156, 192.0, 0.0, 0.0, 0.0, 0.0, 0.0, 0.0, 0.0, 0.0, 0.0, 1.6665560870916038E9, 0.0, 2022-10-23 13:14:47.091
216.0, -79129.71277591142, -111590.90537916486, 54748.094647895654, 25181.251785904384, 62609.78431818299, 99977.40834682088, 51780.162963886614, 48880.828783610916, 0.078, 0.9460000000000001, 0.156, 192.0, 0.0, 0.0, 0.0, 0.0, 0.0, 0.0, 0.0, 0.0, 0.0, 1.6665560870916116E9, 0.0, 2022-10-23 13:14:47.091
217.0, -79124.34835724215, -111583.77517268363, 52968.11347819728, 25247.055321580807, 62646.21766164514, 99255.13407649209, 50656.674880585066, 47834.47657042463, 0.078, 0.9460000000000001, 0.156, 192.0, 0.0, 0.0, 0.0, 0.0, 0.0, 0.0, 0.0, 0.0, 0.0, 1.6665560870916193E9, 0.0, 2022-10-23 13:14:47.091
218.0, -79145.40370051905, -111604.2940740936, 53144.178169271734, 25339.345674436772, 62733.27770629856, 99427.95776462051, 50883.098051917324, 48209.22591796231, 0.078, 0.9460000000000001, 0.156, 192.0, 0.0, 0.0, 0.0, 0.0, 0.0, 0.0, 0.0, 0.0, 0.0, 1.666556087091627E9, 0.0, 2022-10-23 13:14:47.091
219.0, -79173.16456713255, -111629.57389707255, 55092.11034680728, 25411.206532860582, 62784.91023599032, 100256.17930366746, 52151.604253244914, 49480.011997224334, 0.078, 0.9460000000000001, 0.156, 192.0, 0.0, 0.0, 0.0, 0.0, 0.0, 0.0, 0.0, 0.0, 0.0, 1.6665560870916348E9, 0.0, 2022-10-23 13:14:47.091
220.0, -79137.11120332613, -111598.54967576858, 55134.51160603901, 25211.717213596967, 62627.799824213966, 100140.79959878918, 52034.10113264336, 49158.88448463494, 0.078, 0.9460000000000001, 0.156, 192.0, 0.0, 0.0, 0.0, 0.0, 0.0, 0.0, 0.0, 0.0, 0.0, 1.6665560870916495E9, 0.0, 2022-10-23 13:14:47.091
221.0, -79126.89645611006, -111585.71977445124, 53139.73017212513, 25216.791059588322, 62622.72597822261, 99312.22043183094, 50748.451143318554, 47890.914725174276, 0.088, 0.9460000000000001, 0.138, 192.0, 2.0, 192.0, 29.0, 144.0, 4.0, 80.0, 0.0, 0.0, 0.0, 1.666556087091658E9, 0.0, 2022-10-23 13:14:47.091
222.0, -79152.55625874475, -111605.85869620547, 53005.552650159916, 25302.375889107694, 62695.86088608037, 99348.18438865953, 50767.13720168319, 48064.073689469544, 0.088, 0.9460000000000001, 0.138, 192.0, 0.0, 0.0, 0.0, 0.0, 0.0, 0.0, 0.0, 0.0, 0.0, 1.6665560870916662E9, 0.0, 2022-10-23 13:14:47.091
223.0, -79180.00420093587, -111632.85960350747, 54690.20362975641, 25417.93440794163, 62783.09974468944, 100090.99991214275, 51893.32984606384, 49236.28857568366, 0.088, 0.9460000000000001, 0.138, 192.0, 0.0, 0.0, 0.0, 0.0, 0.0, 0.0, 0.0, 0.0, 0.0, 1.666556087091674E9, 0.0, 2022-10-23 13:14:47.091
224.0, -79140.57572371671, -111606.81982121705, 55463.19400825429, 25248.99992334842, 62658.53347284001, 100300.54751641126, 52260.792524909084, 49410.90040336853, 0.088, 0.9460000000000001, 0.138, 192.0, 0.0, 0.0, 0.0, 0.0, 0.0, 0.0, 0.0, 0.0, 0.0, 1.6665560870916817E9, 0.0, 2022-10-23 13:14:47.091
225.0, -79098.6214993741, -111569.00066959867, 53340.18061640032, 25207.31391993927, 62605.96216988113, 99367.89862726911, 50842.01554560847, 47964.0719847765, 0.088, 0.9460000000000001, 0.138, 192.0, 0.0, 0.0, 0.0, 0.0, 0.0, 0.0, 0.0, 0.0, 0.0, 1.6665560870916893E9, 0.0, 2022-10-23 13:14:47.091
226.0, -79136.77592715931, -111598.66143449086, 52868.75997409344, 25313.48470610198, 62702.678168139246, 99256.78810558179, 50636.178330919545, 47931.05845821601, 0.088, 0.9460000000000001, 0.138, 192.0, 0.0, 0.0, 0.0, 0.0, 0.0, 0.0, 0.0, 0.0, 0.0, 1.666556087091698E9, 0.0, 2022-10-23 13:14:47.091
227.0, -79187.26851788384, -111643.81195829058, 54251.327127376455, 25400.92473041114, 62771.67800327278, 99901.50182265065, 51601.66193266654, 48970.28046492106, 0.088, 0.9460000000000001, 0.138, 192.0, 0.0, 0.0, 0.0, 0.0, 0.0, 0.0, 0.0, 0.0, 0.0, 1.6665560870917056E9, 0.0, 2022-10-23 13:14:47.091
228.0, -79173.94687818848, -111630.1997459173, 55653.87674020252, 25292.317604102805, 62689.803563332986, 100409.15464271959, 52405.54242200166, 49605.76291152989, 0.088, 0.9460000000000001, 0.138, 192.0, 0.0, 0.0, 0.0, 0.0, 0.0, 0.0, 0.0, 0.0, 0.0, 1.6665560870917132E9, 0.0, 2022-10-23 13:14:47.091
229.0, -79123.25312176385, -111582.4340680163, 53689.00194036984, 25176.64732654659, 62592.32760576339, 99521.07513202133, 51060.97323429266, 48159.649748760436, 0.088, 0.9460000000000001, 0.138, 192.0, 0.0, 0.0, 0.0, 0.0, 0.0, 0.0, 0.0, 0.0, 0.0, 1.6665560870917213E9, 0.0, 2022-10-23 13:14:47.091
230.0, -79141.91682838403, -111596.02392864514, 52858.545226877366, 25287.824903467288, 62683.63448186332, 99246.17102696552, 50606.942249172, 47864.204390550185, 0.088, 0.9460000000000001, 0.138, 192.0, 0.0, 0.0, 0.0, 0.0, 0.0, 0.0, 0.0, 0.0, 0.0, 1.6665560870917287E9, 0.0, 2022-10-23 13:14:47.091
231.0, -79180.31712535824, -111632.3008098961, 53857.93642496305, 25389.45828550557, 62762.446732812736, 99736.32243112594, 51337.62077541599, 48699.891412245204, 0.09, 0.9500000000000001, 0.14200000000000002, 192.0, 2.0, 208.0, 29.0, 176.0, 4.0, 112.0, 0.0, 0.0, 0.0, 1.6665560870917363E9, 0.0, 2022-10-23 13:14:47.091
232.0, -79179.87009046914, -111635.60886807548, 55668.181856653915, 25329.35444466525, 62723.778214905054, 100432.40045695311, 52429.54819554665, 49670.58297045028, 0.09, 0.9500000000000001, 0.14200000000000002, 192.0, 0.0, 0.0, 0.0, 0.0, 0.0, 0.0, 0.0, 0.0, 0.0, 1.666556087091745E9, 0.0, 2022-10-23 13:14:47.091
233.0, -79130.80801138974, -111593.05114663258, 54029.66487761318, 25156.55310828127, 62575.13911427726, 99645.97668003758, 51262.11658264597, 48358.22264650138, 0.09, 0.9500000000000001, 0.14200000000000002, 192.0, 0.0, 0.0, 0.0, 0.0, 0.0, 0.0, 0.0, 0.0, 0.0, 1.6665560870917523E9, 0.0, 2022-10-23 13:14:47.091
234.0, -79137.04414809277, -111591.55357975407, 52848.397534894655, 25276.246699839437, 62671.40807764627, 99225.83093951119, 50574.19694354498, 47810.783721302, 0.09, 0.9500000000000001, 0.14200000000000002, 192.0, 0.0, 0.0, 0.0, 0.0, 0.0, 0.0, 0.0, 0.0, 0.0, 1.6665560870917602E9, 0.0, 2022-10-23 13:14:47.091
235.0, -79169.11890138613, -111619.22503938974, 53513.786615584686, 25375.331983009815, 62758.19990136623, 99590.49965029952, 51104.91676389179, 48469.04259551079, 0.09, 0.9500000000000001, 0.14200000000000002, 192.0, 0.0, 0.0, 0.0, 0.0, 0.0, 0.0, 0.0, 0.0, 0.0, 1.666556087091768E9, 0.0, 2022-10-23 13:14:47.091
236.0, -79186.26268938335, -111639.58747858852, 55565.05090773713, 25379.712924923057, 62760.412724067304, 100425.78434059434, 52392.77957591767, 49677.53436297588, 0.09, 0.9500000000000001, 0.14200000000000002, 192.0, 0.0, 0.0, 0.0, 0.0, 0.0, 0.0, 0.0, 0.0, 0.0, 1.6665560870917828E9, 0.0, 2022-10-23 13:14:47.091
237.0, -79134.13842131358, -111596.4933152787, 54473.63757772894, 25172.445198588994, 62585.286806259974, 99850.24927261464, 51555.3714698996, 48651.186961077095, 0.09, 0.9500000000000001, 0.14200000000000002, 192.0, 0.0, 0.0, 0.0, 0.0, 0.0, 0.0, 0.0, 0.0, 0.0, 1.666556087091791E9, 0.0, 2022-10-23 13:14:47.091
238.0, -79137.89351438207, -111595.30867282256, 52899.493622719485, 25261.494548498937, 62646.4858825786, 99232.00002098085, 50582.17651631553, 47784.69923552266, 0.09, 0.9500000000000001, 0.14200000000000002, 192.0, 0.0, 0.0, 0.0, 0.0, 0.0, 0.0, 0.0, 0.0, 0.0, 1.6665560870917988E9, 0.0, 2022-10-23 13:14:47.091
239.0, -79157.09366286919, -111614.68763526532, 53233.026353481575, 25356.10948277825, 62733.12124408737, 99458.75846847994, 50903.05815971591, 48252.633005694515, 0.09, 0.9500000000000001, 0.14200000000000002, 192.0, 0.0, 0.0, 0.0, 0.0, 0.0, 0.0, 0.0, 0.0, 0.0, 1.6665560870918076E9, 0.0, 2022-10-23 13:14:47.091
240.0, -79186.441503339, -111641.62148733396, 55280.6473112878, 25405.3950793022, 62781.53512257757, 100320.68643816549, 52220.35821918944, 49545.81553290076, 0.08600000000000001, 0.9480000000000001, 0.14, 192.0, 2.0, 176.0, 29.0, 160.0, 4.0, 96.0, 0.0, 0.0, 0.0, 1.6665560870918157E9, 0.0, 2022-10-23 13:14:47.091
241.0, -79141.80506966176, -111601.7906787146, 54892.06223393229, 25188.538454596815, 62613.897039162766, 100039.92617606238, 51835.43882792459, 48951.63911004533, 0.08600000000000001, 0.9480000000000001, 0.14, 192.0, 0.0, 0.0, 0.0, 0.0, 0.0, 0.0, 0.0, 0.0, 0.0, 1.666556087091824E9, 0.0, 2022-10-23 13:14:47.091
242.0, -79134.31723526922, -111590.2348268312, 52986.50896388399, 25234.314827241284, 62621.25076308856, 99244.38288740908, 50612.127853885635, 47787.00146520155, 0.08600000000000001, 0.9480000000000001, 0.14, 192.0, 0.0, 0.0, 0.0, 0.0, 0.0, 0.0, 0.0, 0.0, 0.0, 1.6665560875708637E9, 0.0, 2022-10-23 13:14:47.570
243.0, -79169.16360487505, -111621.70608302428, 53023.00936257951, 25327.789822553375, 62707.5508484305, 99348.98905145992, 50741.29858509286, 48072.746166318204, 0.08600000000000001, 0.9480000000000001, 0.14, 192.0, 0.0, 0.0, 0.0, 0.0, 0.0, 0.0, 0.0, 0.0, 0.0, 1.666556087570926E9, 0.0, 2022-10-23 13:14:47.570
244.0, -79202.66886981355, -111659.4581794093, 54898.92421948007, 25412.59234101681, 62782.40684061132, 100167.48758166881, 51983.519134941, 49335.932652465424, 0.08600000000000001, 0.9480000000000001, 0.14, 192.0, 0.0, 0.0, 0.0, 0.0, 0.0, 0.0, 0.0, 0.0, 0.0, 1.6665560875709496E9, 0.0, 2022-10-23 13:14:47.570
245.0, -79146.83421216419, -111614.12884165393, 55244.817464925945, 25233.085481296243, 62648.564594812946, 100204.07738734214, 52078.87167678734, 49227.41493313491, 0.08600000000000001, 0.9480000000000001, 0.14, 192.0, 0.0, 0.0, 0.0, 0.0, 0.0, 0.0, 0.0, 0.0, 0.0, 1.666556087570958E9, 0.0, 2022-10-23 13:14:47.570
246.0, -79122.06847930771, -111583.4846000057, 53159.623224690346, 25226.782289359846, 62624.15648986775, 99312.6898184645, 50711.23548880047, 47868.831201652436, 0.08600000000000001, 0.9480000000000001, 0.14, 192.0, 0.0, 0.0, 0.0, 0.0, 0.0, 0.0, 0.0, 0.0, 0.0, 1.666556087570966E9, 0.0, 2022-10-23 13:14:47.570
247.0, -79166.28022984031, -111623.98596095873, 52912.68115194811, 25307.606197310233, 62700.800621605, 99300.26224854735, 50655.065554984285, 47978.53356343908, 0.08600000000000001, 0.9480000000000001, 0.14, 192.0, 0.0, 0.0, 0.0, 0.0, 0.0, 0.0, 0.0, 0.0, 0.0, 1.666556087570979E9, 0.0, 2022-10-23 13:14:47.570
248.0, -79211.98954725142, -111669.1588365029, 54481.84066794404, 25399.114239110262, 62768.57111079349, 99999.82714650955, 51714.56059391029, 49094.80203328157, 0.08600000000000001, 0.9480000000000001, 0.14, 192.0, 0.0, 0.0, 0.0, 0.0, 0.0, 0.0, 0.0, 0.0, 0.0, 1.6665560875709891E9, 0.0, 2022-10-23 13:14:47.570
249.0, -79185.3909713496, -111647.83527229253, 55504.5000320077, 25245.51305121339, 62657.25942340606, 100323.77097890031, 52252.544731205075, 49446.70789798593, 0.08600000000000001, 0.9480000000000001, 0.14, 192.0, 0.0, 0.0, 0.0, 0.0, 0.0, 0.0, 0.0, 0.0, 0.0, 1.6665560875709972E9, 0.0, 2022-10-23 13:14:47.570
250.0, -79125.86827586511, -111588.17846634133, 53435.15317859092, 25206.03987050532, 62607.88441990429, 99414.12203480268, 50865.17195286417, 48005.53447074109, 0.082, 0.9400000000000001, 0.14, 192.0, 2.0, 144.0, 29.0, 96.0, 4.0, 96.0, 0.0, 0.0, 0.0, 1.666556087571005E9, 0.0, 2022-10-23 13:14:47.571
251.0, -79144.48727899638, -111603.17648687083, 52848.75516280594, 25313.194133424062, 62693.446897679205, 99252.429515413, 50584.54580122779, 47889.372454806864, 0.082, 0.9400000000000001, 0.14, 192.0, 0.0, 0.0, 0.0, 0.0, 0.0, 0.0, 0.0, 0.0, 0.0, 1.6665560875710711E9, 0.0, 2022-10-23 13:14:47.571
252.0, -79188.67667778453, -111643.63314433493, 54064.15361930771, 25402.444649034103, 62766.33593634796, 99815.313496031, 51438.33773593161, 48833.89012025477, 0.082, 0.9400000000000001, 0.14, 192.0, 0.0, 0.0, 0.0, 0.0, 0.0, 0.0, 0.0, 0.0, 0.0, 1.6665560875710793E9, 0.0, 2022-10-23 13:14:47.571
253.0, -79182.12761665913, -111641.68854256732, 55632.799045181164, 25308.232046154983, 62699.57127565995, 100398.55991584777, 52360.146029012925, 49604.91354524059, 0.082, 0.9400000000000001, 0.14, 192.0, 0.0, 0.0, 0.0, 0.0, 0.0, 0.0, 0.0, 0.0, 0.0, 1.666556087571087E9, 0.0, 2022-10-23 13:14:47.571
254.0, -79127.32113925471, -111593.29701582159, 53749.97749924392, 25182.503483593882, 62582.2693207585, 99530.0381815479, 51055.76527783457, 48191.97037124281, 0.082, 0.9400000000000001, 0.14, 192.0, 0.0, 0.0, 0.0, 0.0, 0.0, 0.0, 0.0, 0.0, 0.0, 1.6665560875710948E9, 0.0, 2022-10-23 13:14:47.571
255.0, -79151.39396803308, -111616.18520214382, 52803.78345296186, 25288.562511034314, 62668.50235086708, 99209.76003524782, 50527.79472205576, 47820.75259932907, 0.082, 0.9400000000000001, 0.14, 192.0, 0.0, 0.0, 0.0, 0.0, 0.0, 0.0, 0.0, 0.0, 0.0, 1.6665560875711026E9, 0.0, 2022-10-23 13:14:47.571
0.0, -79201.26070991287, -111658.67586835336, 53678.38486175357, 25377.097770821783, 62739.42443602377, 99648.23420622757, 51181.44913690676, 48586.009274245414, 0.082, 0.9400000000000001, 0.14, 192.0, 0.0, 0.0, 0.0, 0.0, 0.0, 0.0, 0.0, 0.0, 0.0, 1.6665560875711105E9, 0.0, 2022-10-23 13:14:47.571
1.0, -79204.36760239216, -111662.4086096774, 55597.70680638633, 25347.81698558533, 62727.13097657335, 100405.10897697318, 52359.251959234716, 49659.20593252253, 0.082, 0.9400000000000001, 0.14, 192.0, 0.0, 0.0, 0.0, 0.0, 0.0, 0.0, 0.0, 0.0, 0.0, 1.666556087571118E9, 0.0, 2022-10-23 13:14:47.571
2.0, -79129.51161021132, -111594.68282397781, 54113.550974553946, 25185.923300495542, 62584.90682660423, 99668.48488670409, 51277.49458283122, 48425.38963858958, 0.082, 0.9400000000000001, 0.14, 192.0, 0.0, 0.0, 0.0, 0.0, 0.0, 0.0, 0.0, 0.0, 0.0, 1.6665560875711262E9, 0.0, 2022-10-23 13:14:47.571
3.0, -79149.85169766565, -111612.07248116404, 52771.37342350167, 25281.409952808615, 62662.37797288632, 99162.46374398038, 50472.63061674007, 47755.999595642046, 0.082, 0.9400000000000001, 0.14, 192.0, 0.0, 0.0, 0.0, 0.0, 0.0, 0.0, 0.0, 0.0, 0.0, 1.666556087571134E9, 0.0, 2022-10-23 13:14:47.571
4.0, -79193.37054412015, -111648.57287985957, 53318.11944462293, 25360.535128180403, 62730.75195917511, 99479.83616350128, 50931.6683926187, 48348.43258242996, 0.07200000000000001, 0.9420000000000001, 0.146, 192.0, 2.0, 64.0, 29.0, 112.0, 4.0, 144.0, 0.0, 0.0, 0.0, 1.666556087571142E9, 0.0, 2022-10-23 13:14:47.571
5.0, -79214.78351530833, -111664.17439748936, 55410.06391168403, 25390.531169239424, 62758.78104672206, 100356.00219440486, 52266.313405789544, 49622.95140301602, 0.07200000000000001, 0.9420000000000001, 0.146, 192.0, 0.0, 0.0, 0.0, 0.0, 0.0, 0.0, 0.0, 0.0, 0.0, 1.6665560875711508E9, 0.0, 2022-10-23 13:14:47.571
6.0, -79152.24333432238, -111607.40096657288, 54555.020279290715, 25184.537492339314, 62587.0749458164, 99878.18895318377, 51579.51135391133, 48741.778581354454, 0.07200000000000001, 0.9420000000000001, 0.146, 192.0, 0.0, 0.0, 0.0, 0.0, 0.0, 0.0, 0.0, 0.0, 0.0, 1.6665560875711586E9, 0.0, 2022-10-23 13:14:47.571
7.0, -79141.67095919502, -111596.58272225651, 52853.33727041927, 25264.690847956044, 62630.236164359594, 99195.54432577424, 50512.05909395923, 47769.611808015325, 0.07200000000000001, 0.9420000000000001, 0.146, 192.0, 0.0, 0.0, 0.0, 0.0, 0.0, 0.0, 0.0, 0.0, 0.0, 1.6665560875711777E9, 0.0, 2022-10-23 13:14:47.571
8.0, -79185.90506147208, -111640.39214138892, 53084.051976686955, 25341.15616573765, 62709.22722926465, 99382.42726116507, 50768.50065809496, 48177.08410943558, 0.07200000000000001, 0.9420000000000001, 0.146, 192.0, 0.0, 0.0, 0.0, 0.0, 0.0, 0.0, 0.0, 0.0, 0.0, 1.6665560875711856E9, 0.0, 2022-10-23 13:14:47.571
9.0, -79213.196541452, -111669.53881615865, 55096.33482650934, 25406.26679733596, 62763.139636890846, 100243.79643723923, 52077.93290352022, 49476.90510474505, 0.07200000000000001, 0.9420000000000001, 0.146, 192.0, 0.0, 0.0, 0.0, 0.0, 0.0, 0.0, 0.0, 0.0, 0.0, 1.6665560875711932E9, 0.0, 2022-10-23 13:14:47.571
10.0, -79147.39300577558, -111609.79260322961, 54954.468304451504, 25212.678338608544, 62623.91062067874, 100063.01552808471, 51847.06173504135, 49044.24238732367, 0.07200000000000001, 0.9420000000000001, 0.146, 192.0, 0.0, 0.0, 0.0, 0.0, 0.0, 0.0, 0.0, 0.0, 0.0, 1.666556087571201E9, 0.0, 2022-10-23 13:14:47.571
11.0, -79138.36290101563, -111595.26396933365, 52983.98321676055, 25250.13986231564, 62636.740521996086, 99243.48881763087, 50580.41072850356, 47817.37748591632, 0.07200000000000001, 0.9420000000000001, 0.146, 192.0, 0.0, 0.0, 0.0, 0.0, 0.0, 0.0, 0.0, 0.0, 0.0, 1.6665560875712175E9, 0.0, 2022-10-23 13:14:47.571
12.0, -79173.03045666582, -111623.00248420269, 52927.3438963108, 25334.58475286779, 62707.68495889723, 99309.40411202957, 50652.606863094195, 48045.27587238263, 0.07200000000000001, 0.9420000000000001, 0.146, 192.0, 0.0, 0.0, 0.0, 0.0, 0.0, 0.0, 0.0, 0.0, 0.0, 1.6665560875712256E9, 0.0, 2022-10-23 13:14:47.571
13.0, -79203.31707040276, -111653.356153173, 54693.17641176897, 25428.21621039107, 62774.15904690731, 100081.00868237123, 51828.21921446553, 49254.59465439256, 0.07200000000000001, 0.9420000000000001, 0.146, 192.0, 0.0, 0.0, 0.0, 0.0, 0.0, 0.0, 0.0, 0.0, 0.0, 1.6665560875712335E9, 0.0, 2022-10-23 13:14:47.571
14.0, -79171.0858548982, -111629.01510346116, 55277.674529275246, 25251.592725705235, 62647.223490145625, 100210.67115195647, 52073.01551974005, 49303.67908521642, 0.076, 0.9440000000000001, 0.15, 192.0, 2.0, 96.0, 29.0, 128.0, 4.0, 176.0, 0.0, 0.0, 0.0, 1.6665560875712416E9, 0.0, 2022-10-23 13:14:47.571
15.0, -79150.99163663288, -111612.18423988632, 53188.68049248225, 25202.84357104821, 62593.69106217517, 99310.63345797462, 50693.62231416968, 47904.43753056974, 0.076, 0.9440000000000001, 0.15, 192.0, 0.0, 0.0, 0.0, 0.0, 0.0, 0.0, 0.0, 0.0, 0.0, 1.66655608757125E9, 0.0, 2022-10-23 13:14:47.571
16.0, -79174.59507877768, -111630.22209766175, 52815.249897867434, 25302.15237166314, 62672.70447882468, 99239.21963443991, 50553.61098690164, 47927.683344803256, 0.076, 0.9440000000000001, 0.15, 192.0, 0.0, 0.0, 0.0, 0.0, 0.0, 0.0, 0.0, 0.0, 0.0, 1.6665560875712576E9, 0.0, 2022-10-23 13:14:47.571
17.0, -79203.51823610286, -111658.58646137554, 54272.226008442165, 25416.92857944114, 62766.7159160037, 99901.99356102868, 51558.54541761225, 49000.3659129579, 0.076, 0.9440000000000001, 0.15, 192.0, 0.0, 0.0, 0.0, 0.0, 0.0, 0.0, 0.0, 0.0, 0.0, 1.6665560875712652E9, 0.0, 2022-10-23 13:14:47.571
18.0, -79175.84677646718, -111638.51459485467, 55524.5048432952, 25294.888054715164, 62685.48967665311, 100341.04887736427, 52262.424202254326, 49528.13530303661, 0.076, 0.9440000000000001, 0.15, 192.0, 0.0, 0.0, 0.0, 0.0, 0.0, 0.0, 0.0, 0.0, 0.0, 1.666556087571273E9, 0.0, 2022-10-23 13:14:47.571
