%OpenBCI Raw EEG Data
%Number of channels = 8
%Sample Rate = 250 Hz
%Board = OpenBCI_GUI$BoardCytonSerial
Sample Index, EXG Channel 0, EXG Channel 1, EXG Channel 2, EXG Channel 3, EXG Channel 4, EXG Channel 5, EXG Channel 6, EXG Channel 7, Accel Channel 0, Accel Channel 1, Accel Channel 2, Other, Other, Other, Other, Other, Other, Other, Analog Channel 0, Analog Channel 1, Analog Channel 2, Timestamp, Other, Timestamp (Formatted)
101.0, -112556.61249835641, -149527.18013849022, -73191.10014332536, -134594.5161097665, 44166.30943611973, -85099.26022282365, 35518.777134272714, -118526.13759352418, 0.0, 0.0, 0.0, 192.0, 0.0, 0.0, 0.0, 0.0, 0.0, 0.0, 0.0, 0.0, 0.0, 1.666403611943776E9, 0.0, 2022-10-21 18:53:31.943
102.0, -112557.4171611568, -149528.52124315753, -73196.08458233888, -134599.27703133548, 44161.28029361729, -85114.54881603108, 35493.407904315936, -118529.15507902564, 0.036000000000000004, 0.9500000000000001, 0.04, 192.0, 1.0, 32.0, 29.0, 176.0, 1.0, 64.0, 0.0, 0.0, 0.0, 1.6664036119438033E9, 0.0, 2022-10-21 18:53:31.943
103.0, -112558.31123093501, -149530.17527224723, -73193.42472474871, -134594.3596475553, 44161.660273273024, -85114.99585092018, 35483.86370943352, -118530.25031450395, 0.036000000000000004, 0.9500000000000001, 0.04, 192.0, 0.0, 0.0, 0.0, 0.0, 0.0, 0.0, 0.0, 0.0, 0.0, 1.666403611943822E9, 0.0, 2022-10-21 18:53:31.943
104.0, -112567.76601883961, -149538.73599037362, -73198.69973644016, -134595.47723477808, 44157.905180204536, -85105.07167638204, 35510.10465742405, -118539.39217798617, 0.036000000000000004, 0.9500000000000001, 0.04, 192.0, 0.0, 0.0, 0.0, 0.0, 0.0, 0.0, 0.0, 0.0, 0.0, 1.6664036119438436E9, 0.0, 2022-10-21 18:53:31.943
105.0, -112562.4239519148, -149530.93523155872, -73189.69198342467, -134588.5705457414, 44167.337616364675, -85102.41181879185, 35518.95594822836, -118532.7313581385, 0.036000000000000004, 0.9500000000000001, 0.04, 192.0, 0.0, 0.0, 0.0, 0.0, 0.0, 0.0, 0.0, 0.0, 0.0, 1.6664036119438677E9, 0.0, 2022-10-21 18:53:31.943
106.0, -112566.96135603922, -149531.8069495925, -73194.27409103801, -134591.1186446093, 44164.945979707954, -85107.41860954984, 35505.54490155517, -118536.91113435164, 0.036000000000000004, 0.9500000000000001, 0.04, 192.0, 0.0, 0.0, 0.0, 0.0, 0.0, 0.0, 0.0, 0.0, 0.0, 1.6664036119438915E9, 0.0, 2022-10-21 18:53:31.943
107.0, -112573.55512065353, -149538.17719676223, -73205.18174233219, -134605.3120023384, 44150.68556674547, -85123.75773474667, 35491.530357781696, -118545.20363154456, 0.036000000000000004, 0.9500000000000001, 0.04, 192.0, 0.0, 0.0, 0.0, 0.0, 0.0, 0.0, 0.0, 0.0, 0.0, 1.666403611943916E9, 0.0, 2022-10-21 18:53:31.943
108.0, -112573.39865844234, -149538.2442519956, -73203.66182370923, -134600.4616737916, 44150.66321500102, -85113.96767067525, 35506.84130273358, -118544.82365188882, 0.036000000000000004, 0.9500000000000001, 0.04, 192.0, 0.0, 0.0, 0.0, 0.0, 0.0, 0.0, 0.0, 0.0, 0.0, 1.66640361194394E9, 0.0, 2022-10-21 18:53:31.943
109.0, -112576.14792301034, -149540.6582403968, -73206.45579176614, -134603.8591389488, 44153.770107480304, -85112.58186251901, 35520.78879127369, -118540.66622742012, 0.036000000000000004, 0.9500000000000001, 0.04, 192.0, 0.0, 0.0, 0.0, 0.0, 0.0, 0.0, 0.0, 0.0, 0.0, 1.6664036119439647E9, 0.0, 2022-10-21 18:53:31.943
110.0, -112565.66495486081, -149532.4551501817, -73197.91742538422, -134595.47723477808, 44165.996511697354, -85114.34765033098, 35513.36801211453, -118531.03262555989, 0.036000000000000004, 0.9500000000000001, 0.04, 192.0, 0.0, 0.0, 0.0, 0.0, 0.0, 0.0, 0.0, 0.0, 0.0, 1.6664036119439893E9, 0.0, 2022-10-21 18:53:31.943
111.0, -112569.30828920702, -149538.53482467352, -73202.14190508628, -134604.23911860457, 44158.91100870502, -85126.86462722595, 35495.30780259464, -118538.81103263034, 0.036000000000000004, 0.9580000000000001, 0.038, 192.0, 1.0, 32.0, 29.0, 240.0, 1.0, 48.0, 0.0, 0.0, 0.0, 1.666403611944006E9, 0.0, 2022-10-21 18:53:31.944
112.0, -112571.78933284157, -149541.9993450641, -73207.30515805545, -134601.13222612528, 44155.111212147625, -85122.41663007934, 35503.64500327647, -118545.13657631118, 0.036000000000000004, 0.9580000000000001, 0.038, 192.0, 0.0, 0.0, 0.0, 0.0, 0.0, 0.0, 0.0, 0.0, 0.0, 1.6664036119440243E9, 0.0, 2022-10-21 18:53:31.944
113.0, -112563.80976007102, -149534.91384207175, -73200.59963471886, -134592.88443242127, 44164.14131690757, -85105.87633918242, 35525.348547142574, -118534.0277593169, 0.036000000000000004, 0.9580000000000001, 0.038, 192.0, 0.0, 0.0, 0.0, 0.0, 0.0, 0.0, 0.0, 0.0, 0.0, 1.6664036119440413E9, 0.0, 2022-10-21 18:53:31.944
114.0, -112560.81462631401, -149533.77390310453, -73203.17008533122, -134601.40044705875, 44164.051909929745, -85108.3350310725, 35516.340794127085, -118536.17352678461, 0.036000000000000004, 0.9580000000000001, 0.038, 192.0, 0.0, 0.0, 0.0, 0.0, 0.0, 0.0, 0.0, 0.0, 0.0, 1.666403611944058E9, 0.0, 2022-10-21 18:53:31.944
115.0, -112544.3637423949, -149518.1947372192, -73206.54519874397, -134608.84357796237, 44158.59808428265, -85111.53133052961, 35498.28058460719, -118537.24641051846, 0.036000000000000004, 0.9580000000000001, 0.038, 192.0, 0.0, 0.0, 0.0, 0.0, 0.0, 0.0, 0.0, 0.0, 0.0, 1.666403611944075E9, 0.0, 2022-10-21 18:53:31.944
116.0, -112536.56298357999, -149504.24724867908, -73204.95822488764, -134603.90384243772, 44155.871171459105, -85111.2407578517, 35500.13577939699, -118536.15117504016, 0.036000000000000004, 0.9580000000000001, 0.038, 192.0, 0.0, 0.0, 0.0, 0.0, 0.0, 0.0, 0.0, 0.0, 0.0, 1.6664036119440916E9, 0.0, 2022-10-21 18:53:31.944
117.0, -112569.10712350692, -149536.21024325019, -73202.81245741993, -134597.15361561225, 44160.05094767224, -85097.94146990079, 35518.84418950608, -118537.29111400737, 0.036000000000000004, 0.9580000000000001, 0.038, 192.0, 0.0, 0.0, 0.0, 0.0, 0.0, 0.0, 0.0, 0.0, 0.0, 1.6664036119442616E9, 0.0, 2022-10-21 18:53:31.944
118.0, -112566.93900429476, -149533.97506880463, -73193.73764917107, -134591.94565915415, 44173.73021527889, -85088.24081280718, 35525.79558203168, -118527.5234016804, 0.036000000000000004, 0.9580000000000001, 0.038, 192.0, 0.0, 0.0, 0.0, 0.0, 0.0, 0.0, 0.0, 0.0, 0.0, 1.6664036119442794E9, 0.0, 2022-10-21 18:53:31.944
119.0, -112557.75243732364, -149521.8827750543, -73191.278957281, -134595.74545571156, 44173.55140132325, -85098.99200189019, 35501.07455266411, -118522.29309347787, 0.036000000000000004, 0.9580000000000001, 0.038, 192.0, 0.0, 0.0, 0.0, 0.0, 0.0, 0.0, 0.0, 0.0, 0.0, 1.6664036119442968E9, 0.0, 2022-10-21 18:53:31.944
120.0, -112552.45507388773, -149519.17821397522, -73186.58509094537, -134577.70759793613, 44177.55236358075, -85089.33604828549, 35508.11535216753, -118523.70125337855, 0.036000000000000004, 0.9580000000000001, 0.038, 192.0, 0.0, 0.0, 0.0, 0.0, 0.0, 0.0, 0.0, 0.0, 0.0, 1.6664036119443133E9, 0.0, 2022-10-21 18:53:31.944
121.0, -112555.58431811146, -149521.05576050948, -73195.34697477186, -134578.19933631414, 44167.181154153484, -85092.84527216498, 35527.76253554375, -118536.46409946252, 0.042, 0.962, 0.038, 192.0, 1.0, 80.0, 30.0, 16.0, 1.0, 48.0, 0.0, 0.0, 0.0, 1.6664036119443305E9, 0.0, 2022-10-21 18:53:31.944
122.0, -112565.64260311636, -149527.26954546804, -73209.94266390118, -134604.73085698258, 44153.703052246936, -85114.63822300891, 35519.134762183996, -118545.69536992257, 0.042, 0.962, 0.038, 192.0, 0.0, 0.0, 0.0, 0.0, 0.0, 0.0, 0.0, 0.0, 0.0, 1.6664036119443488E9, 0.0, 2022-10-21 18:53:31.944
123.0, -112564.25679496012, -149526.12960650082, -73205.40525977674, -134610.5199587965, 44162.152011651044, -85119.22033062224, 35499.554634041146, -118531.54671568236, 0.042, 0.962, 0.038, 192.0, 0.0, 0.0, 0.0, 0.0, 0.0, 0.0, 0.0, 0.0, 0.0, 1.6664036119443693E9, 0.0, 2022-10-21 18:53:31.944
124.0, -112563.18391122627, -149521.6369058653, -73200.30906204093, -134594.4714062776, 44167.49407857586, -85097.5838419895, 35508.87531147901, -118527.23282900249, 0.042, 0.962, 0.038, 192.0, 0.0, 0.0, 0.0, 0.0, 0.0, 0.0, 0.0, 0.0, 0.0, 1.666403611944386E9, 0.0, 2022-10-21 18:53:31.944
125.0, -112564.3685536824, -149520.96635353166, -73203.23714056458, -134595.521938267, 44163.94015120747, -85085.20097556127, 35541.73237582832, -118534.54184943937, 0.042, 0.962, 0.038, 192.0, 0.0, 0.0, 0.0, 0.0, 0.0, 0.0, 0.0, 0.0, 0.0, 1.6664036119444036E9, 0.0, 2022-10-21 18:53:31.944
126.0, -112554.93611752226, -149508.7846528035, -73193.93881487117, -134595.3654760558, 44175.63011355759, -85103.57410950353, 35530.57885534511, -118522.62836964469, 0.042, 0.962, 0.038, 192.0, 0.0, 0.0, 0.0, 0.0, 0.0, 0.0, 0.0, 0.0, 0.0, 1.666403611944415E9, 0.0, 2022-10-21 18:53:31.944
127.0, -112558.2665274461, -149509.49990862608, -73197.40333526174, -134600.2158046026, 44172.61262805613, -85102.76944670314, 35512.1833696584, -118527.5234016804, 0.042, 0.962, 0.038, 192.0, 0.0, 0.0, 0.0, 0.0, 0.0, 0.0, 0.0, 0.0, 0.0, 1.6664036119444275E9, 0.0, 2022-10-21 18:53:31.944
128.0, -112560.41229491381, -149511.8468417939, -73202.56658823093, -134608.1730256287, 44165.102441919145, -85108.44678979479, 35501.67804976441, -118531.54671568236, 0.042, 0.962, 0.038, 192.0, 0.0, 0.0, 0.0, 0.0, 0.0, 0.0, 0.0, 0.0, 0.0, 1.6664036119444392E9, 0.0, 2022-10-21 18:53:31.944
129.0, -112549.48229187516, -149500.40274863277, -73190.58605320287, -134590.60455448684, 44177.060625202736, -85101.51774901364, 35511.26694813573, -118522.94129406707, 0.042, 0.962, 0.038, 192.0, 0.0, 0.0, 0.0, 0.0, 0.0, 0.0, 0.0, 0.0, 0.0, 1.666403611944451E9, 0.0, 2022-10-21 18:53:31.944
130.0, -112557.35010592344, -149507.46589988066, -73195.95047187216, -134597.6230022458, 44172.47851758939, -85102.30006006957, 35517.100753438564, -118529.46800344801, 0.042, 0.962, 0.038, 192.0, 0.0, 0.0, 0.0, 0.0, 0.0, 0.0, 0.0, 0.0, 0.0, 1.666403611944463E9, 0.0, 2022-10-21 18:53:31.944
131.0, -112553.57266111049, -149502.9284957562, -73190.98838460307, -134593.57733649938, 44181.374511882605, -85105.67517348232, 35512.80921850315, -118524.43886094558, 0.044, 0.962, 0.044, 192.0, 1.0, 96.0, 30.0, 16.0, 1.0, 96.0, 0.0, 0.0, 0.0, 1.6664036119444747E9, 0.0, 2022-10-21 18:53:31.944
132.0, -112561.93221353677, -149512.71855982766, -73194.05057359346, -134596.84069118986, 44182.49209910537, -85102.8365019365, 35511.69163128038, -118525.4223377016, 0.044, 0.962, 0.044, 192.0, 0.0, 0.0, 0.0, 0.0, 0.0, 0.0, 0.0, 0.0, 0.0, 1.6664036119445305E9, 0.0, 2022-10-21 18:53:31.944
133.0, -112566.20139672773, -149517.12185348533, -73195.36932651632, -134590.17987134217, 44184.83903227318, -85098.52261525663, 35523.09102095259, -118529.11037553674, 0.044, 0.962, 0.044, 192.0, 0.0, 0.0, 0.0, 0.0, 0.0, 0.0, 0.0, 0.0, 0.0, 1.6664036119445424E9, 0.0, 2022-10-21 18:53:31.944
134.0, -112560.45699840272, -149508.11410046986, -73191.10014332536, -134586.73770269606, 44190.27050617582, -85088.57608897402, 35541.19593396139, -118521.22020974402, 0.044, 0.962, 0.044, 192.0, 0.0, 0.0, 0.0, 0.0, 0.0, 0.0, 0.0, 0.0, 0.0, 1.6664036119445543E9, 0.0, 2022-10-21 18:53:31.944
135.0, -112563.80976007102, -149510.6398475933, -73197.44803875066, -134595.521938267, 44185.733102051396, -85092.84527216498, 35534.53511411371, -118523.94712256755, 0.044, 0.962, 0.044, 192.0, 0.0, 0.0, 0.0, 0.0, 0.0, 0.0, 0.0, 0.0, 0.0, 1.6664036119445665E9, 0.0, 2022-10-21 18:53:31.944
136.0, -112561.50753039212, -149506.37066440235, -73191.83775089237, -134587.89999340774, 44195.791387056284, -85093.9852111322, 35517.16780867193, -118514.80525908533, 0.044, 0.962, 0.044, 192.0, 0.0, 0.0, 0.0, 0.0, 0.0, 0.0, 0.0, 0.0, 0.0, 1.666403611944578E9, 0.0, 2022-10-21 18:53:31.944
137.0, -112570.35882119642, -149512.8973737833, -73201.56075973043, -134596.88539467877, 44185.241363673376, -85086.16210057284, 35524.27566340872, -118524.08123303429, 0.044, 0.962, 0.044, 192.0, 0.0, 0.0, 0.0, 0.0, 0.0, 0.0, 0.0, 0.0, 0.0, 1.6664036119445896E9, 0.0, 2022-10-21 18:53:31.944
138.0, -112570.91761480781, -149513.8361470504, -73203.14773358677, -134597.2653743345, 44184.950790995455, -85081.37882725941, 35550.29309395469, -118525.10941327924, 0.044, 0.962, 0.044, 192.0, 0.0, 0.0, 0.0, 0.0, 0.0, 0.0, 0.0, 0.0, 0.0, 1.6664036119446015E9, 0.0, 2022-10-21 18:53:31.944
139.0, -112578.11487652242, -149519.31232444197, -73215.35178605936, -134612.5316157975, 44175.652465302046, -85106.07750488252, 35534.713928069345, -118538.81103263034, 0.044, 0.962, 0.044, 192.0, 0.0, 0.0, 0.0, 0.0, 0.0, 0.0, 0.0, 0.0, 0.0, 1.6664036119446135E9, 0.0, 2022-10-21 18:53:31.944
140.0, -112568.48127466218, -149509.56696385946, -73207.03693712199, -134604.9096709382, 44182.53680259428, -85112.60421426347, 35522.30870989665, -118527.81397435833, 0.044, 0.962, 0.044, 192.0, 0.0, 0.0, 0.0, 0.0, 0.0, 0.0, 0.0, 0.0, 0.0, 1.6664036119446251E9, 0.0, 2022-10-21 18:53:31.944
141.0, -112576.12557126589, -149518.5970686194, -73218.8833616833, -134604.70850523812, 44172.61262805613, -85113.65474625287, 35522.9345587414, -118534.20657327255, 0.04, 0.962, 0.038, 192.0, 1.0, 64.0, 30.0, 16.0, 1.0, 48.0, 0.0, 0.0, 0.0, 1.6664036119446368E9, 0.0, 2022-10-21 18:53:31.944
142.0, -112566.78254208357, -149509.4775568816, -73214.52477151451, -134591.90095566525, 44182.55915433874, -85104.84815893749, 35540.21245720535, -118529.95974182604, 0.04, 0.962, 0.038, 192.0, 0.0, 0.0, 0.0, 0.0, 0.0, 0.0, 0.0, 0.0, 0.0, 1.6664036119446492E9, 0.0, 2022-10-21 18:53:31.944
143.0, -112570.06824851851, -149512.91972552775, -73214.6812337257, -134595.74545571156, 44181.64273281607, -85107.08333338301, 35536.613826348046, -118527.0763667913, 0.04, 0.962, 0.038, 192.0, 0.0, 0.0, 0.0, 0.0, 0.0, 0.0, 0.0, 0.0, 0.0, 1.6664036119446611E9, 0.0, 2022-10-21 18:53:31.944
144.0, -112579.63479514538, -149523.0003622771, -73216.73759421559, -134607.7259907396, 44172.299703633755, -85124.31652835805, 35518.88889299499, -118538.49810820796, 0.04, 0.962, 0.038, 192.0, 0.0, 0.0, 0.0, 0.0, 0.0, 0.0, 0.0, 0.0, 0.0, 1.6664036119446745E9, 0.0, 2022-10-21 18:53:31.944
145.0, -112569.75532409613, -149513.8808505393, -73206.38873653278, -134598.1594441127, 44176.434776357986, -85119.60031027798, 35522.755744785754, -118527.7245673805, 0.04, 0.962, 0.038, 192.0, 0.0, 0.0, 0.0, 0.0, 0.0, 0.0, 0.0, 0.0, 0.0, 1.6664036119446878E9, 0.0, 2022-10-21 18:53:31.944
146.0, -112569.12947525138, -149515.043141251, -73202.16425683073, -134587.765882941, 44178.15586068104, -85095.84040592199, 35552.192992233395, -118524.50591617894, 0.04, 0.962, 0.038, 192.0, 0.0, 0.0, 0.0, 0.0, 0.0, 0.0, 0.0, 0.0, 0.0, 1.6664036119446995E9, 0.0, 2022-10-21 18:53:31.944
147.0, -112573.93510030927, -149520.27344945353, -73209.94266390118, -134606.20607211662, 44171.0256541998, -85105.51871127114, 35554.785794590214, -118527.0763667913, 0.04, 0.962, 0.038, 192.0, 0.0, 0.0, 0.0, 0.0, 0.0, 0.0, 0.0, 0.0, 0.0, 1.66640361194476E9, 0.0, 2022-10-21 18:53:31.944
148.0, -112571.11878050791, -149517.07714999642, -73211.82021043543, -134614.29740360944, 44167.896409976056, -85122.37192659044, 35526.399079131974, -118527.9704365695, 0.04, 0.962, 0.038, 192.0, 0.0, 0.0, 0.0, 0.0, 0.0, 0.0, 0.0, 0.0, 0.0, 1.6664036119447737E9, 0.0, 2022-10-21 18:53:31.944
149.0, -112568.07894326198, -149513.5902778614, -73205.44996326565, -134607.23425236158, 44172.41146235603, -85118.39331607739, 35516.56431157164, -118523.25421848944, 0.04, 0.962, 0.038, 192.0, 0.0, 0.0, 0.0, 0.0, 0.0, 0.0, 0.0, 0.0, 0.0, 1.666403611944786E9, 0.0, 2022-10-21 18:53:31.944
150.0, -112564.3685536824, -149511.95860051617, -73201.09137309688, -134597.2206708456, 44177.64177055857, -85099.26022282365, 35539.810125805154, -118523.14245976717, 0.04, 0.96, 0.034, 192.0, 1.0, 64.0, 30.0, 0.0, 1.0, 16.0, 0.0, 0.0, 0.0, 1.6664036119447982E9, 0.0, 2022-10-21 18:53:31.944
151.0, -112560.38994316936, -149508.2929144255, -73200.86785565232, -134599.38879005777, 44177.01592171382, -85101.00365889116, 35550.248390465786, -118521.8237068443, 0.04, 0.96, 0.034, 192.0, 0.0, 0.0, 0.0, 0.0, 0.0, 0.0, 0.0, 0.0, 0.0, 1.6664036119448173E9, 0.0, 2022-10-21 18:53:31.944
152.0, -112560.7252193362, -149505.92362951324, -73200.51022774103, -134602.33922032587, 44178.02175021431, -85110.61490900695, 35538.7372420713, -118516.01225328592, 0.04, 0.96, 0.034, 192.0, 0.0, 0.0, 0.0, 0.0, 0.0, 0.0, 0.0, 0.0, 0.0, 1.6664036119448297E9, 0.0, 2022-10-21 18:53:31.944
153.0, -112557.64067860135, -149506.01303649106, -73200.19730331867, -134602.0262959035, 44177.01592171382, -85104.51288277065, 35532.29993966818, -118516.70515736403, 0.04, 0.96, 0.034, 192.0, 0.0, 0.0, 0.0, 0.0, 0.0, 0.0, 0.0, 0.0, 0.0, 1.6664036119448416E9, 0.0, 2022-10-21 18:53:31.944
154.0, -112564.86029206042, -149514.70786508417, -73204.51118999853, -134600.32756332488, 44170.891543733065, -85104.71404847075, 35538.33491067111, -118526.31640747983, 0.04, 0.96, 0.034, 192.0, 0.0, 0.0, 0.0, 0.0, 0.0, 0.0, 0.0, 0.0, 0.0, 1.6664036119448535E9, 0.0, 2022-10-21 18:53:31.944
155.0, -112578.04782128904, -149529.7952925915, -73211.2837685685, -134609.6258890183, 44167.337616364675, -85109.89965318437, 35538.44666939339, -118538.76632914142, 0.04, 0.96, 0.034, 192.0, 0.0, 0.0, 0.0, 0.0, 0.0, 0.0, 0.0, 0.0, 0.0, 1.6664036119448657E9, 0.0, 2022-10-21 18:53:31.944
156.0, -112574.73976310967, -149528.297725713, -73208.3780417893, -134610.49760705206, 44174.825450757206, -85113.18535961931, 35516.56431157164, -118537.64874191866, 0.04, 0.96, 0.034, 192.0, 0.0, 0.0, 0.0, 0.0, 0.0, 0.0, 0.0, 0.0, 0.0, 1.6664036119448771E9, 0.0, 2022-10-21 18:53:31.944
157.0, -112557.08188498997, -149512.07035923845, -73193.02239334851, -134594.9631446556, 44185.19666018447, -85094.54400474358, 35521.571102329624, -118525.19882025705, 0.04, 0.96, 0.034, 192.0, 0.0, 0.0, 0.0, 0.0, 0.0, 0.0, 0.0, 0.0, 0.0, 1.6664036119448893E9, 0.0, 2022-10-21 18:53:31.944
158.0, -112562.6698211038, -149520.00522852008, -73199.37028877382, -134594.24788883305, 44173.57375306771, -85090.14071108589, 35548.95198928738, -118532.5748959273, 0.04, 0.96, 0.034, 192.0, 0.0, 0.0, 0.0, 0.0, 0.0, 0.0, 0.0, 0.0, 0.0, 1.6664036119449012E9, 0.0, 2022-10-21 18:53:31.944
159.0, -112556.74660882314, -149515.6466383513, -73196.91159688373, -134595.49958652255, 44175.33954087967, -85095.34866754398, 35561.290152226706, -118528.05984354734, 0.04, 0.96, 0.034, 192.0, 0.0, 0.0, 0.0, 0.0, 0.0, 0.0, 0.0, 0.0, 0.0, 1.6664036119449131E9, 0.0, 2022-10-21 18:53:31.944
160.0, -112559.89820479135, -149518.12768198582, -73200.64433820777, -134605.08848489387, 44177.261790902834, -85101.40599029136, 35542.693500839894, -118525.64585514615, 0.034, 0.972, 0.034, 192.0, 1.0, 16.0, 30.0, 96.0, 1.0, 16.0, 0.0, 0.0, 0.0, 1.6664036119449253E9, 0.0, 2022-10-21 18:53:31.944
161.0, -112556.18781521176, -149512.293876683, -73198.74443992907, -134600.99811565856, 44184.883735762094, -85096.44390302229, 35525.50500935376, -118521.91311382213, 0.034, 0.972, 0.034, 192.0, 0.0, 0.0, 0.0, 0.0, 0.0, 0.0, 0.0, 0.0, 0.0, 1.666403611944938E9, 0.0, 2022-10-21 18:53:31.944
162.0, -112561.4181234143, -149519.42408316422, -73207.81924817793, -134594.8737376778, 44180.0781107042, -85084.66453369433, 35539.832477549615, -118525.53409642389, 0.034, 0.972, 0.034, 192.0, 0.0, 0.0, 0.0, 0.0, 0.0, 0.0, 0.0, 0.0, 0.0, 1.6664036119450057E9, 0.0, 2022-10-21 18:53:31.945
163.0, -112557.19364371225, -149515.7360453291, -73206.70166095515, -134591.45392077614, 44183.11794795012, -85087.41379826234, 35556.28336146872, -118524.5729714123, 0.034, 0.972, 0.034, 192.0, 0.0, 0.0, 0.0, 0.0, 0.0, 0.0, 0.0, 0.0, 0.0, 1.666403611945047E9, 0.0, 2022-10-21 18:53:31.945
164.0, -112560.47935014717, -149518.57471687492, -73207.03693712199, -134592.23623183207, 44189.89052652008, -85088.91136514084, 35553.48939341181, -118520.08027077679, 0.034, 0.972, 0.034, 192.0, 0.0, 0.0, 0.0, 0.0, 0.0, 0.0, 0.0, 0.0, 0.0, 1.666403611945089E9, 0.0, 2022-10-21 18:53:31.945
165.0, -112558.40063791284, -149518.06062675247, -73205.2264458211, -134601.75807497, 44188.97410499741, -85100.10958911295, 35528.07545996612, -118516.45928817503, 0.034, 0.972, 0.034, 192.0, 0.0, 0.0, 0.0, 0.0, 0.0, 0.0, 0.0, 0.0, 0.0, 1.666403611945136E9, 0.0, 2022-10-21 18:53:31.945
166.0, -112551.13632096486, -149512.87502203882, -73200.21965506312, -134596.9077464232, 44190.22580268691, -85094.76752218814, 35529.30480591116, -118508.79263982686, 0.034, 0.972, 0.034, 192.0, 0.0, 0.0, 0.0, 0.0, 0.0, 0.0, 0.0, 0.0, 0.0, 1.6664036119451776E9, 0.0, 2022-10-21 18:53:31.945
167.0, -112553.97499251069, -149517.0324465075, -73208.15452434475, -134594.53846151097, 44187.70005556346, -85084.73158892771, 35554.22700097883, -118515.74403235246, 0.034, 0.972, 0.034, 192.0, 0.0, 0.0, 0.0, 0.0, 0.0, 0.0, 0.0, 0.0, 0.0, 1.6664036119452128E9, 0.0, 2022-10-21 18:53:31.945
168.0, -112556.65720184532, -149517.3900744188, -73217.3857948048, -134606.9213279392, 44183.4308723725, -85105.51871127114, 35543.878143296024, -118524.79648885685, 0.034, 0.972, 0.034, 192.0, 0.0, 0.0, 0.0, 0.0, 0.0, 0.0, 0.0, 0.0, 0.0, 1.6664036119452283E9, 0.0, 2022-10-21 18:53:31.945
169.0, -112556.38898091186, -149517.7477023301, -73216.5811320044, -134613.0233541755, 44180.681607804494, -85118.54977828858, 35520.56527382914, -118525.10941327924, 0.034, 0.972, 0.034, 192.0, 0.0, 0.0, 0.0, 0.0, 0.0, 0.0, 0.0, 0.0, 0.0, 1.6664036119452434E9, 0.0, 2022-10-21 18:53:31.945
170.0, -112557.30540243452, -149519.22291746413, -73213.85421918085, -134604.8649674493, 44181.55332583825, -85105.96574616025, 35529.2377506778, -118519.78969809887, 0.03, 0.97, 0.04, 192.0, 0.0, 240.0, 30.0, 80.0, 1.0, 64.0, 0.0, 0.0, 0.0, 1.6664036119452584E9, 0.0, 2022-10-21 18:53:31.945
171.0, -112551.3151349205, -149512.7409115721, -73207.26045456654, -134595.99132490056, 44184.01201772833, -85099.9307751573, 35556.61863763555, -118516.07930851929, 0.03, 0.97, 0.04, 192.0, 0.0, 0.0, 0.0, 0.0, 0.0, 0.0, 0.0, 0.0, 0.0, 1.6664036119452753E9, 0.0, 2022-10-21 18:53:31.945
172.0, -112545.74955055113, -149507.6894173252, -73204.19826557617, -134599.7240662246, 44188.75058755286, -85108.5361967726, 35559.70317837038, -118515.20759048553, 0.03, 0.97, 0.04, 192.0, 0.0, 0.0, 0.0, 0.0, 0.0, 0.0, 0.0, 0.0, 0.0, 1.6664036119452908E9, 0.0, 2022-10-21 18:53:31.945
173.0, -112547.560041852, -149508.56113535896, -73206.25462606605, -134602.5180342815, 44192.706846321445, -85117.07456315453, 35534.78098330271, -118511.0725177613, 0.03, 0.97, 0.04, 192.0, 0.0, 0.0, 0.0, 0.0, 0.0, 0.0, 0.0, 0.0, 0.0, 1.6664036119453058E9, 0.0, 2022-10-21 18:53:31.945
174.0, -112544.02846622808, -149504.06843472345, -73199.12441958481, -134583.02731311647, 44201.580488870204, -85109.02793515062, 35534.021023991234, -118498.77905831089, 0.03, 0.97, 0.04, 192.0, 0.0, 0.0, 0.0, 0.0, 0.0, 0.0, 0.0, 0.0, 0.0, 1.6664036119453208E9, 0.0, 2022-10-21 18:53:31.945
175.0, -112546.08482671795, -149505.72246381314, -73198.47621899561, -134583.74256893905, 44199.83705280269, -85100.78014144661, 35547.90145729798, -118500.05310774484, 0.03, 0.97, 0.04, 192.0, 0.0, 0.0, 0.0, 0.0, 0.0, 0.0, 0.0, 0.0, 0.0, 1.6664036119453363E9, 0.0, 2022-10-21 18:53:31.945
176.0, -112560.7252193362, -149523.2015279772, -73213.027204636, -134609.44707506266, 44182.53680259428, -85118.54977828858, 35537.999634504275, -118513.86648581822, 0.03, 0.97, 0.04, 192.0, 0.0, 0.0, 0.0, 0.0, 0.0, 0.0, 0.0, 0.0, 0.0, 1.6664036119453511E9, 0.0, 2022-10-21 18:53:31.945
177.0, -112560.9710885252, -149520.9440017872, -73212.781335447, -134619.1253804118, 44182.04506421627, -85138.26401689816, 35518.17363717242, -118520.01321554343, 0.03, 0.97, 0.04, 192.0, 0.0, 0.0, 0.0, 0.0, 0.0, 0.0, 0.0, 0.0, 0.0, 1.66640361194538E9, 0.0, 2022-10-21 18:53:31.945
178.0, -112557.03718150106, -149515.51252788457, -73207.30515805545, -134610.8775867078, 44191.92453526551, -85135.42534535234, 35506.483674822295, -118517.04043353087, 0.03, 0.97, 0.04, 192.0, 0.0, 0.0, 0.0, 0.0, 0.0, 0.0, 0.0, 0.0, 0.0, 1.666403611945395E9, 0.0, 2022-10-21 18:53:31.945
179.0, -112556.88071928987, -149517.30066744098, -73203.46065800913, -134601.7133714811, 44195.74668356737, -85117.61100502146, 35518.97829997281, -118517.10748876423, 0.032, 0.9580000000000001, 0.04, 192.0, 1.0, 0.0, 29.0, 240.0, 1.0, 64.0, 0.0, 0.0, 0.0, 1.66640361194541E9, 0.0, 2022-10-21 18:53:31.945
180.0, -112560.63581235836, -149523.045065766, -73206.36638478833, -134605.35670582732, 44191.11987246512, -85119.62266202243, 35530.400041389476, -118522.94129406707, 0.032, 0.9580000000000001, 0.04, 192.0, 0.0, 0.0, 0.0, 0.0, 0.0, 0.0, 0.0, 0.0, 0.0, 1.666403611945426E9, 0.0, 2022-10-21 18:53:31.945
181.0, -112564.61442287141, -149525.5931646339, -73209.13800110079, -134621.4276100907, 44187.34242765218, -85141.97440647775, 35502.46036082034, -118529.11037553674, 0.032, 0.9580000000000001, 0.04, 192.0, 0.0, 0.0, 0.0, 0.0, 0.0, 0.0, 0.0, 0.0, 0.0, 1.6664036119454412E9, 0.0, 2022-10-21 18:53:31.945
182.0, -112556.34427742295, -149517.05479825198, -73196.64337595027, -134608.10597039532, 44200.75347432536, -85131.84906623949, 35494.0784566496, -118519.76734635442, 0.032, 0.9580000000000001, 0.04, 192.0, 0.0, 0.0, 0.0, 0.0, 0.0, 0.0, 0.0, 0.0, 0.0, 1.6664036119454577E9, 0.0, 2022-10-21 18:53:31.945
183.0, -112551.73981806515, -149513.92555402822, -73190.54134971397, -134592.39269404326, 44202.563965626236, -85110.81607470705, 35526.30967215415, -118515.36405269672, 0.032, 0.9580000000000001, 0.04, 192.0, 0.0, 0.0, 0.0, 0.0, 0.0, 0.0, 0.0, 0.0, 0.0, 1.6664036119454713E9, 0.0, 2022-10-21 18:53:31.945
184.0, -112551.44924538724, -149512.47269063862, -73188.64145143527, -134594.9631446556, 44201.08875049219, -85121.20963587877, 35542.693500839894, -118519.65558763214, 0.032, 0.9580000000000001, 0.04, 192.0, 0.0, 0.0, 0.0, 0.0, 0.0, 0.0, 0.0, 0.0, 0.0, 1.666403611945485E9, 0.0, 2022-10-21 18:53:31.945
185.0, -112558.51239663511, -149517.8818127968, -73192.55300671495, -134610.34114484087, 44196.908974279046, -85142.22027566675, 35522.44282036339, -118524.39415745667, 0.032, 0.9580000000000001, 0.04, 192.0, 0.0, 0.0, 0.0, 0.0, 0.0, 0.0, 0.0, 0.0, 0.0, 1.666403611945499E9, 0.0, 2022-10-21 18:53:31.945
186.0, -112559.83114955797, -149517.41242616327, -73188.66380317972, -134604.9767261716, 44201.7816545703, -85143.87430475645, 35500.13577939699, -118522.6730731336, 0.032, 0.9580000000000001, 0.04, 192.0, 0.0, 0.0, 0.0, 0.0, 0.0, 0.0, 0.0, 0.0, 0.0, 1.6664036119455128E9, 0.0, 2022-10-21 18:53:31.945
187.0, -112557.12658847889, -149514.3278854284, -73187.0768293234, -134602.5180342815, 44202.67572434851, -85124.07065916904, 35513.09979118106, -118518.58270389828, 0.032, 0.9580000000000001, 0.04, 192.0, 0.0, 0.0, 0.0, 0.0, 0.0, 0.0, 0.0, 0.0, 0.0, 1.666403611945528E9, 0.0, 2022-10-21 18:53:31.945
188.0, -112561.5745856255, -149521.97218203213, -73191.16719855872, -134605.73668548308, 44199.79234931378, -85113.36417357496, 35547.856753809065, -118513.24063697347, 0.032, 0.9580000000000001, 0.04, 192.0, 0.0, 0.0, 0.0, 0.0, 0.0, 0.0, 0.0, 0.0, 0.0, 1.666403611945542E9, 0.0, 2022-10-21 18:53:31.945
189.0, -112557.8641960459, -149519.3346761864, -73190.94368111416, -134608.03891516197, 44206.40846567255, -85125.32235685854, 35536.390308903494, -118509.79846832735, 0.036000000000000004, 0.9560000000000001, 0.038, 192.0, 1.0, 32.0, 29.0, 224.0, 1.0, 48.0, 0.0, 0.0, 0.0, 1.6664036119455557E9, 0.0, 2022-10-21 18:53:31.945
190.0, -112555.42785590029, -149516.76422557406, -73198.02918410649, -134616.8678542218, 44198.56300336874, -85129.74800226069, 35516.340794127085, -118522.06957603332, 0.036000000000000004, 0.9560000000000001, 0.038, 192.0, 0.0, 0.0, 0.0, 0.0, 0.0, 0.0, 0.0, 0.0, 0.0, 1.66640361194557E9, 0.0, 2022-10-21 18:53:31.945
191.0, -112555.85253904494, -149516.27248719602, -73190.20607354715, -134608.1283221398, 44198.49594813537, -85128.02691793763, 35518.46420985034, -118528.5292301809, 0.036000000000000004, 0.9560000000000001, 0.038, 192.0, 0.0, 0.0, 0.0, 0.0, 0.0, 0.0, 0.0, 0.0, 0.0, 1.666403611945584E9, 0.0, 2022-10-21 18:53:31.945
192.0, -112559.38411466886, -149516.71952208516, -73175.9233088402, -134595.07490337788, 44210.61059363015, -85113.23006310822, 35544.21341946285, -118510.53607589437, 0.036000000000000004, 0.9560000000000001, 0.038, 192.0, 0.0, 0.0, 0.0, 0.0, 0.0, 0.0, 0.0, 0.0, 0.0, 1.666403611945613E9, 0.0, 2022-10-21 18:53:31.945
193.0, -112563.89916704885, -149520.02758026452, -73173.73283788358, -134596.10308362285, 44217.29376522228, -85106.1892636048, 35551.433032921916, -118504.45640140252, 0.036000000000000004, 0.9560000000000001, 0.038, 192.0, 0.0, 0.0, 0.0, 0.0, 0.0, 0.0, 0.0, 0.0, 0.0, 1.6664036119456265E9, 0.0, 2022-10-21 18:53:31.945
194.0, -112556.94777452324, -149511.4892138826, -73174.33633498388, -134597.08656037887, 44218.6348698896, -85108.26797583915, 35540.391271160996, -118506.37865142568, 0.036000000000000004, 0.9560000000000001, 0.038, 192.0, 0.0, 0.0, 0.0, 0.0, 0.0, 0.0, 0.0, 0.0, 0.0, 1.6664036119456403E9, 0.0, 2022-10-21 18:53:31.945
195.0, -112565.821417072, -149520.0946354979, -73188.01560259052, -134609.1117988958, 44202.1839859705, -85114.48176079772, 35532.07642222362, -118523.969474312, 0.036000000000000004, 0.9560000000000001, 0.038, 192.0, 0.0, 0.0, 0.0, 0.0, 0.0, 0.0, 0.0, 0.0, 0.0, 1.666403611945654E9, 0.0, 2022-10-21 18:53:31.945
196.0, -112557.52891987907, -149511.80213830498, -73181.4218379762, -134605.3790575718, 44203.45803540445, -85119.28738585561, 35538.69253858239, -118520.10262252124, 0.036000000000000004, 0.9560000000000001, 0.038, 192.0, 0.0, 0.0, 0.0, 0.0, 0.0, 0.0, 0.0, 0.0, 0.0, 1.6664036119456687E9, 0.0, 2022-10-21 18:53:31.945
197.0, -112549.2140709417, -149501.29681841098, -73171.58707041587, -134597.15361561225, 44212.17521574202, -85117.25337711017, 35547.3426636866, -118510.24550321646, 0.036000000000000004, 0.9560000000000001, 0.038, 192.0, 0.0, 0.0, 0.0, 0.0, 0.0, 0.0, 0.0, 0.0, 0.0, 1.6664036119456828E9, 0.0, 2022-10-21 18:53:31.945
198.0, -112544.564908095, -149497.09469045338, -73167.74257036955, -134591.38686554277, 44216.84673033318, -85124.0930109135, 35530.84707627858, -118503.69644209105, 0.036000000000000004, 0.9560000000000001, 0.038, 192.0, 0.0, 0.0, 0.0, 0.0, 0.0, 0.0, 0.0, 0.0, 0.0, 1.666403611945698E9, 0.0, 2022-10-21 18:53:31.945
199.0, -112563.9215187933, -149520.00522852008, -73187.25564327904, -134608.08361865088, 44202.85453830416, -85124.71885975824, 35518.68772729489, -118519.78969809887, 0.032, 0.966, 0.04, 192.0, 1.0, 0.0, 30.0, 48.0, 1.0, 64.0, 0.0, 0.0, 0.0, 1.6664036119457116E9, 0.0, 2022-10-21 18:53:31.945
200.0, -112566.40256242783, -149523.62621112182, -73190.38488750278, -134603.79208371547, 44200.4852533919, -85112.58186251901, 35550.114279999056, -118519.32031146532, 0.032, 0.966, 0.04, 192.0, 0.0, 0.0, 0.0, 0.0, 0.0, 0.0, 0.0, 0.0, 0.0, 1.6664036119457262E9, 0.0, 2022-10-21 18:53:31.945
201.0, -112554.75730356661, -149513.9479057727, -73180.8183408759, -134598.53942376847, 44213.22574773142, -85123.08718241302, 35549.399024176484, -118506.15513398113, 0.032, 0.966, 0.04, 192.0, 0.0, 0.0, 0.0, 0.0, 0.0, 0.0, 0.0, 0.0, 0.0, 1.66640361194574E9, 0.0, 2022-10-21 18:53:31.945
202.0, -112551.27043143159, -149510.05870223747, -73177.1750065297, -134600.39461855826, 44215.99736404388, -85126.73051675923, 35532.210532690355, -118513.01711952891, 0.032, 0.966, 0.04, 192.0, 0.0, 0.0, 0.0, 0.0, 0.0, 0.0, 0.0, 0.0, 0.0, 1.6664036119457538E9, 0.0, 2022-10-21 18:53:31.945
203.0, -112555.60666985592, -149514.0820162394, -73182.89705311025, -134605.35670582732, 44208.42012267353, -85121.27669111213, 35525.86263726505, -118520.81787834382, 0.032, 0.966, 0.04, 192.0, 0.0, 0.0, 0.0, 0.0, 0.0, 0.0, 0.0, 0.0, 0.0, 1.6664036119457674E9, 0.0, 2022-10-21 18:53:31.945
204.0, -112557.2159954567, -149512.67385633872, -73183.61230893282, -134599.14292086876, 44208.64364011808, -85107.53036827211, 35547.521477642236, -118516.74986085294, 0.032, 0.966, 0.04, 192.0, 0.0, 0.0, 0.0, 0.0, 0.0, 0.0, 0.0, 0.0, 0.0, 1.6664036119457812E9, 0.0, 2022-10-21 18:53:31.945
205.0, -112555.20433845572, -149509.76812955955, -73182.89705311025, -134598.98645865757, 44212.55519539776, -85105.96574616025, 35563.257105738776, -118513.35239569574, 0.032, 0.966, 0.04, 192.0, 0.0, 0.0, 0.0, 0.0, 0.0, 0.0, 0.0, 0.0, 0.0, 1.6664036119457953E9, 0.0, 2022-10-21 18:53:31.945
206.0, -112566.13434149437, -149518.75353083058, -73191.50247472555, -134613.64920302024, 44206.52022439483, -85120.22615912273, 35546.13566948601, -118523.2765702339, 0.032, 0.966, 0.04, 192.0, 0.0, 0.0, 0.0, 0.0, 0.0, 0.0, 0.0, 0.0, 0.0, 1.6664036119458091E9, 0.0, 2022-10-21 18:53:31.945
207.0, -112565.55319613853, -149514.4396441507, -73189.4237624912, -134612.50926405302, 44209.135378496096, -85124.92002545834, 35531.092945467586, -118519.61088414323, 0.032, 0.966, 0.04, 192.0, 0.0, 0.0, 0.0, 0.0, 0.0, 0.0, 0.0, 0.0, 0.0, 1.6664036119458368E9, 0.0, 2022-10-21 18:53:31.945
208.0, -112568.12364675089, -149518.12768198582, -73193.87175963781, -134608.0612669064, 44201.446378403474, -85123.02012717964, 35543.5875706181, -118525.19882025705, 0.032, 0.966, 0.04, 192.0, 0.0, 0.0, 0.0, 0.0, 0.0, 0.0, 0.0, 0.0, 0.0, 1.666403611945852E9, 0.0, 2022-10-21 18:53:31.945
209.0, -112554.10910297741, -149504.31430391246, -73178.53846294146, -134588.54819399695, 44216.42204718853, -85117.27572885463, 35572.130748287535, -118512.10069800624, 0.032, 0.964, 0.036000000000000004, 192.0, 1.0, 0.0, 30.0, 32.0, 1.0, 32.0, 0.0, 0.0, 0.0, 1.6664036119458656E9, 0.0, 2022-10-21 18:53:31.945
210.0, -112555.67372508929, -149507.26473418056, -73182.18179728769, -134597.80181620145, 44215.6844396215, -85119.0415166666, 35562.7430156163, -118515.63227363018, 0.032, 0.964, 0.036000000000000004, 192.0, 0.0, 0.0, 0.0, 0.0, 0.0, 0.0, 0.0, 0.0, 0.0, 1.66640361194588E9, 0.0, 2022-10-21 18:53:31.945
211.0, -112561.68634434776, -149514.14907147278, -73194.47525673811, -134616.4208193327, 44202.89924179307, -85127.64693828189, 35539.899532782976, -118524.43886094558, 0.032, 0.964, 0.036000000000000004, 192.0, 0.0, 0.0, 0.0, 0.0, 0.0, 0.0, 0.0, 0.0, 0.0, 1.6664036119458935E9, 0.0, 2022-10-21 18:53:31.945
212.0, -112557.88654779036, -149511.7797865605, -73188.50734096853, -134603.8144354599, 44208.75539884036, -85118.05803991057, 35549.86841081004, -118511.56425613932, 0.032, 0.964, 0.036000000000000004, 192.0, 0.0, 0.0, 0.0, 0.0, 0.0, 0.0, 0.0, 0.0, 0.0, 1.666403611945907E9, 0.0, 2022-10-21 18:53:31.945
213.0, -112563.20626297072, -149519.02175176403, -73194.05057359346, -134603.90384243772, 44202.04987550377, -85106.54689151609, 35579.551527446696, -118514.2241137295, 0.032, 0.964, 0.036000000000000004, 192.0, 0.0, 0.0, 0.0, 0.0, 0.0, 0.0, 0.0, 0.0, 0.0, 1.6664036119459212E9, 0.0, 2022-10-21 18:53:31.945
214.0, -112561.1722542253, -149516.20543196268, -73192.5753584594, -134609.35766808482, 44202.631020859604, -85119.17562713333, 35577.80809137918, -118519.16384925412, 0.032, 0.964, 0.036000000000000004, 192.0, 0.0, 0.0, 0.0, 0.0, 0.0, 0.0, 0.0, 0.0, 0.0, 1.6664036119459348E9, 0.0, 2022-10-21 18:53:31.945
215.0, -112566.91665255031, -149519.1335104863, -73198.43151550669, -134625.4285723482, 44194.45028238896, -85136.31941513055, 35549.80135557668, -118529.222134259, 0.032, 0.964, 0.036000000000000004, 192.0, 0.0, 0.0, 0.0, 0.0, 0.0, 0.0, 0.0, 0.0, 0.0, 1.6664036119459484E9, 0.0, 2022-10-21 18:53:31.945
216.0, -112567.7213153507, -149521.25692620958, -73198.40916376223, -134621.20409264613, 44193.064474232735, -85133.68190928483, 35549.84605906559, -118532.68665464959, 0.032, 0.964, 0.036000000000000004, 192.0, 0.0, 0.0, 0.0, 0.0, 0.0, 0.0, 0.0, 0.0, 0.0, 1.666403611945962E9, 0.0, 2022-10-21 18:53:31.945
217.0, -112566.04493451655, -149520.2510977091, -73196.35280327236, -134610.9222901967, 44196.23842194539, -85122.26016786817, 35569.09091104161, -118535.41356747314, 0.032, 0.964, 0.036000000000000004, 192.0, 0.0, 0.0, 0.0, 0.0, 0.0, 0.0, 0.0, 0.0, 0.0, 1.6664036119459755E9, 0.0, 2022-10-21 18:53:31.945
218.0, -112563.5191873931, -149517.54653663, -73190.4295909917, -134609.89410995177, 44201.26756444783, -85124.13771440242, 35571.97428607634, -118528.75274762545, 0.034, 0.9580000000000001, 0.032, 192.0, 1.0, 16.0, 29.0, 240.0, 1.0, 0.0, 0.0, 0.0, 0.0, 1.6664036119459891E9, 0.0, 2022-10-21 18:53:31.945
219.0, -112560.83697805846, -149514.77492031752, -73186.96507060112, -134611.70460125263, 44204.12858773811, -85134.88890348541, 35549.667245109944, -118524.68473013458, 0.034, 0.9580000000000001, 0.032, 192.0, 0.0, 0.0, 0.0, 0.0, 0.0, 0.0, 0.0, 0.0, 0.0, 1.6664036119460037E9, 0.0, 2022-10-21 18:53:31.946
220.0, -112564.54736763805, -149518.61942036386, -73191.36836425881, -134607.25660410602, 44198.27243069082, -85141.7955925221, 35546.046262508185, -118531.2784947489, 0.034, 0.9580000000000001, 0.032, 192.0, 0.0, 0.0, 0.0, 0.0, 0.0, 0.0, 0.0, 0.0, 0.0, 1.6664036119460173E9, 0.0, 2022-10-21 18:53:31.946
221.0, -112563.87681530438, -149517.52418488552, -73189.4237624912, -134594.58316499987, 44205.73791333889, -85135.73826977471, 35560.68665512641, -118526.227000502, 0.034, 0.9580000000000001, 0.032, 192.0, 0.0, 0.0, 0.0, 0.0, 0.0, 0.0, 0.0, 0.0, 0.0, 1.666403611946031E9, 0.0, 2022-10-21 18:53:31.946
222.0, -112565.66495486081, -149516.07132149593, -73192.62006194831, -134593.89026092176, 44207.77192208433, -85127.95986270427, 35580.26678326926, -118526.94225632458, 0.034, 0.9580000000000001, 0.032, 192.0, 0.0, 0.0, 0.0, 0.0, 0.0, 0.0, 0.0, 0.0, 0.0, 1.6664036119460795E9, 0.0, 2022-10-21 18:53:31.946
0.0, 0.0, 0.0, 0.0, 0.0, 0.0, 0.0, 0.0, 0.0, 0.032, 0.96, 0.028, 192.0, 1.0, 0.0, 30.0, 0.0, 0.0, 224.0, 0.0, 0.0, 0.0, 1.6664036120520327E9, 0.0, 2022-10-21 18:53:32.052
1.0, -111216.02192116046, -149578.67855771526, -74242.19092633616, -131878.19801309085, 44510.12396933127, -73662.9901722658, 36495.07898033607, -118095.93356799288, 0.032, 0.96, 0.028, 192.0, 0.0, 0.0, 0.0, 0.0, 0.0, 0.0, 0.0, 0.0, 0.0, 1.6664036125331311E9, 0.0, 2022-10-21 18:53:32.533
2.0, -111219.3076275954, -149587.7533659641, -74248.51647001701, -131875.15817584493, 44503.731370417045, -73655.6811518289, 36499.79519841614, -118108.4281931434, 0.032, 0.96, 0.028, 192.0, 0.0, 0.0, 0.0, 0.0, 0.0, 0.0, 0.0, 0.0, 0.0, 1.6664036125332696E9, 0.0, 2022-10-21 18:53:32.533
3.0, -111223.59916253081, -149584.4006042958, -74245.65544672674, -131875.69461771185, 44503.12787331676, -73637.77740452021, 36519.15180911444, -118110.70807107784, 0.032, 0.96, 0.028, 192.0, 0.0, 0.0, 0.0, 0.0, 0.0, 0.0, 0.0, 0.0, 0.0, 1.6664036125333323E9, 0.0, 2022-10-21 18:53:32.533
4.0, -111215.999569416, -149578.4103367818, -74240.44749026865, -131872.14069034348, 44513.454379255105, -73641.48779409978, 36517.25191083574, -118105.65657683094, 0.032, 0.96, 0.028, 192.0, 0.0, 0.0, 0.0, 0.0, 0.0, 0.0, 0.0, 0.0, 0.0, 1.6664036125333557E9, 0.0, 2022-10-21 18:53:32.533
5.0, -111230.23763063403, -149583.1042031174, -74242.95088564765, -131871.44778626534, 44521.501007259016, -73658.67628558591, 36494.87781463597, -118107.93645476538, 0.032, 0.96, 0.028, 192.0, 0.0, 0.0, 0.0, 0.0, 0.0, 0.0, 0.0, 0.0, 0.0, 1.6664036125333786E9, 0.0, 2022-10-21 18:53:32.533
6.0, -111227.26484862147, -149574.83405766895, -74242.68266471419, -131869.19026007538, 44520.53988224744, -73640.59372432157, 36508.355916542525, -118106.90827452044, 0.032, 0.96, 0.028, 192.0, 0.0, 0.0, 0.0, 0.0, 0.0, 0.0, 0.0, 0.0, 0.0, 1.666403612533412E9, 0.0, 2022-10-21 18:53:32.533
7.0, -111210.38928155773, -149585.31702581848, -74246.03542638248, -131880.36613230302, 44504.290164028425, -73622.93584620189, 36528.87481795249, -118117.25713220325, 0.028, 0.9500000000000001, 0.02, 192.0, 0.0, 224.0, 29.0, 176.0, 0.0, 160.0, 0.0, 0.0, 0.0, 1.666403612533434E9, 0.0, 2022-10-21 18:53:32.533
8.0, -111231.19875564562, -149606.23825862864, -74264.09563590237, -131895.45355981035, 44490.9014690997, -73638.11268068703, 36513.67563172289, -118124.94613229587, 0.028, 0.9500000000000001, 0.02, 192.0, 0.0, 0.0, 0.0, 0.0, 0.0, 0.0, 0.0, 0.0, 0.0, 1.6664036125334587E9, 0.0, 2022-10-21 18:53:32.533
9.0, -111223.9567904421, -149592.7154532332, -74249.29878107295, -131886.3340480726, 44506.77120766297, -73655.36822740654, 36497.247099548236, -118104.51663786372, 0.028, 0.9500000000000001, 0.02, 192.0, 0.0, 0.0, 0.0, 0.0, 0.0, 0.0, 0.0, 0.0, 0.0, 1.6664036125334811E9, 0.0, 2022-10-21 18:53:32.533
10.0, -111219.93347644014, -149585.0041013961, -74246.59421999386, -131874.66643746692, 44513.67789669966, -73645.15348019046, 36506.21014907481, -118103.06377447413, 0.028, 0.9500000000000001, 0.02, 192.0, 0.0, 0.0, 0.0, 0.0, 0.0, 0.0, 0.0, 0.0, 0.0, 1.6664036125335033E9, 0.0, 2022-10-21 18:53:32.533
11.0, -111205.67306347765, -149564.9992901086, -74229.00339710753, -131860.56248671561, 44524.71965846058, -73609.88242743998, 36541.01181519173, -118106.08125997559, 0.028, 0.9500000000000001, 0.02, 192.0, 0.0, 0.0, 0.0, 0.0, 0.0, 0.0, 0.0, 0.0, 0.0, 1.666403612533526E9, 0.0, 2022-10-21 18:53:32.533
12.0, -111231.35521785679, -149582.16542985028, -74229.22691455208, -131860.65189369343, 44525.8595974278, -73597.2760435672, 36553.66290255343, -118094.79362902566, 0.028, 0.9500000000000001, 0.02, 192.0, 0.0, 0.0, 0.0, 0.0, 0.0, 0.0, 0.0, 0.0, 0.0, 1.6664036125335484E9, 0.0, 2022-10-21 18:53:32.533
13.0, -111215.1054996378, -149588.08864213093, -74243.86730717031, -131872.8782979105, 44512.85088215481, -73620.23128512279, 36529.79123947516, -118106.77416405371, 0.028, 0.9500000000000001, 0.02, 192.0, 0.0, 0.0, 0.0, 0.0, 0.0, 0.0, 0.0, 0.0, 0.0, 1.6664036125335708E9, 0.0, 2022-10-21 18:53:32.533
14.0, -111196.62060697326, -149568.91084538828, -74229.45043199664, -131866.99978911874, 44519.891681658235, -73628.63554103799, 36527.19843711835, -118098.16874243841, 0.028, 0.9500000000000001, 0.02, 192.0, 0.0, 0.0, 0.0, 0.0, 0.0, 0.0, 0.0, 0.0, 0.0, 1.6664036125335932E9, 0.0, 2022-10-21 18:53:32.533
15.0, -111208.35527281229, -149580.48904901615, -74235.19483032165, -131861.61301870501, 44516.33775428984, -73612.2740640967, 36548.253780395244, -118103.30964366313, 0.028, 0.9500000000000001, 0.02, 192.0, 0.0, 0.0, 0.0, 0.0, 0.0, 0.0, 0.0, 0.0, 0.0, 1.6664036125337925E9, 0.0, 2022-10-21 18:53:32.533
16.0, -111223.48740380853, -149599.0186451696, -74245.05194962645, -131870.64312346498, 44506.65944894069, -73605.79205820466, 36557.708568299844, -118109.97046351082, 0.028, 0.9500000000000001, 0.02, 192.0, 0.0, 0.0, 0.0, 0.0, 0.0, 0.0, 0.0, 0.0, 0.0, 1.6664036125338151E9, 0.0, 2022-10-21 18:53:32.533
17.0, -111222.61568577477, -149589.29563633152, -74241.14039434676, -131883.54008001566, 44501.67500992716, -73630.15545966095, 36534.86508546652, -118114.75373682425, 0.028, 0.9560000000000001, 0.02, 192.0, 0.0, 224.0, 29.0, 224.0, 0.0, 160.0, 0.0, 0.0, 0.0, 1.6664036125338392E9, 0.0, 2022-10-21 18:53:32.533
18.0, -111226.84016547682, -149585.74170896312, -74246.7283304606, -131890.71498998583, 44492.08611155583, -73654.56356460614, 36512.42393403339, -118119.1346787375, 0.028, 0.9560000000000001, 0.02, 192.0, 0.0, 0.0, 0.0, 0.0, 0.0, 0.0, 0.0, 0.0, 0.0, 1.6664036125338626E9, 0.0, 2022-10-21 18:53:32.533
19.0, -111220.17934562915, -149583.3500723064, -74239.68753095718, -131877.01337063473, 44501.56325120488, -73642.78419527819, 36531.02058542021, -118106.30477742014, 0.028, 0.9560000000000001, 0.02, 192.0, 0.0, 0.0, 0.0, 0.0, 0.0, 0.0, 0.0, 0.0, 0.0, 1.6664036125338864E9, 0.0, 2022-10-21 18:53:32.533
20.0, -111213.8538019483, -149572.57653147896, -74225.36006276132, -131861.9706466163, 44519.48935025804, -73621.5723897901, 36556.099242699056, -118090.45739060134, 0.028, 0.9560000000000001, 0.02, 192.0, 0.0, 0.0, 0.0, 0.0, 0.0, 0.0, 0.0, 0.0, 0.0, 1.6664036125339093E9, 0.0, 2022-10-21 18:53:32.533
21.0, -111232.36104635728, -149589.2509328426, -74239.88869665728, -131874.15234734444, 44513.72260018857, -73619.60543627804, 36550.86893449652, -118107.40001289845, 0.028, 0.9560000000000001, 0.02, 192.0, 0.0, 0.0, 0.0, 0.0, 0.0, 0.0, 0.0, 0.0, 0.0, 1.666403612533932E9, 0.0, 2022-10-21 18:53:32.533
22.0, -111236.83139524834, -149589.2509328426, -74234.74779543254, -131869.81610892012, 44521.18808283664, -73617.34791008805, 36548.85727749554, -118096.76058253772, 0.028, 0.9560000000000001, 0.02, 192.0, 0.0, 0.0, 0.0, 0.0, 0.0, 0.0, 0.0, 0.0, 0.0, 1.666403612533954E9, 0.0, 2022-10-21 18:53:32.533
23.0, -111220.78284272944, -149584.4006042958, -74225.2706557835, -131847.8219923761, 44531.9616236641, -73608.87659893949, 36561.5307166017, -118086.5681870661, 0.028, 0.9560000000000001, 0.02, 192.0, 0.0, 0.0, 0.0, 0.0, 0.0, 0.0, 0.0, 0.0, 0.0, 1.6664036125339763E9, 0.0, 2022-10-21 18:53:32.533
24.0, -111227.33190385484, -149593.4083573113, -74240.64865596875, -131864.7199111843, 44514.32609728886, -73597.56661624511, 36575.120577230526, -118101.23093142878, 0.028, 0.9560000000000001, 0.02, 192.0, 0.0, 0.0, 0.0, 0.0, 0.0, 0.0, 0.0, 0.0, 0.0, 1.666403612533999E9, 0.0, 2022-10-21 18:53:32.533
25.0, -111223.5544590419, -149585.0041013961, -74233.85372565433, -131872.99005663279, 44518.63998396874, -73615.24684610926, 36562.71535905783, -118092.8713790025, 0.028, 0.9560000000000001, 0.02, 192.0, 0.0, 0.0, 0.0, 0.0, 0.0, 0.0, 0.0, 0.0, 0.0, 1.6664036125340211E9, 0.0, 2022-10-21 18:53:32.534
26.0, -111226.88486896573, -149584.1994385957, -74230.65742619723, -131873.75001594424, 44521.18808283664, -73623.06995666861, 36552.65707405294, -118096.26884415971, 0.028, 0.9560000000000001, 0.02, 192.0, 0.0, 0.0, 0.0, 0.0, 0.0, 0.0, 0.0, 0.0, 0.0, 1.6664036125340438E9, 0.0, 2022-10-21 18:53:32.534
27.0, -111255.71861931308, -149611.49091857564, -74255.780786965, -131887.94337367336, 44496.77997789145, -73612.98931991927, 36558.04384446667, -118124.11911775102, 0.022, 0.9520000000000001, 0.02, 192.0, 0.0, 176.0, 29.0, 192.0, 0.0, 160.0, 0.0, 0.0, 0.0, 1.6664036125340667E9, 0.0, 2022-10-21 18:53:32.534
28.0, -111245.43681686364, -149604.40541558331, -74242.28033331399, -131874.44292002238, 44515.08605660034, -73591.4198865199, 36585.51413840224, -118100.56037909513, 0.022, 0.9520000000000001, 0.02, 192.0, 0.0, 0.0, 0.0, 0.0, 0.0, 0.0, 0.0, 0.0, 0.0, 1.666403612534098E9, 0.0, 2022-10-21 18:53:32.534
29.0, -111231.19875564562, -149597.78929922453, -74226.14237381726, -131861.30009428266, 44531.46988528608, -73591.30812779763, 36590.52092916023, -118080.35440210754, 0.022, 0.9520000000000001, 0.02, 192.0, 0.0, 0.0, 0.0, 0.0, 0.0, 0.0, 0.0, 0.0, 0.0, 1.6664036125341206E9, 0.0, 2022-10-21 18:53:32.534
30.0, -111245.99561047503, -149603.17606963828, -74233.25022855404, -131868.4303007639, 44522.28331831495, -73626.69093927038, 36558.982617733796, -118087.84223650006, 0.022, 0.9520000000000001, 0.02, 192.0, 0.0, 0.0, 0.0, 0.0, 0.0, 0.0, 0.0, 0.0, 0.0, 1.666403612534204E9, 0.0, 2022-10-21 18:53:32.534
31.0, -111222.74979624151, -149581.31606356098, -74223.48251622707, -131858.0143878477, 44527.13364686175, -73628.0320439377, 36565.28580967019, -118088.624547556, 0.022, 0.9520000000000001, 0.02, 192.0, 0.0, 0.0, 0.0, 0.0, 0.0, 0.0, 0.0, 0.0, 0.0, 1.6664036125342267E9, 0.0, 2022-10-21 18:53:32.534
32.0, -111231.60108704581, -149589.809726454, -74228.10932732932, -131855.53334421318, 44524.853768927314, -73603.86980818151, 36594.43248443991, -118099.26397791672, 0.022, 0.9520000000000001, 0.02, 192.0, 0.0, 0.0, 0.0, 0.0, 0.0, 0.0, 0.0, 0.0, 0.0, 1.6664036125342495E9, 0.0, 2022-10-21 18:53:32.534
33.0, -111250.15303494371, -149610.55214530852, -74245.85661242684, -131882.131920115, 44503.530204716946, -73608.85424719503, 36589.00101053727, -118124.6332078735, 0.022, 0.9520000000000001, 0.02, 192.0, 0.0, 0.0, 0.0, 0.0, 0.0, 0.0, 0.0, 0.0, 0.0, 1.666403612534274E9, 0.0, 2022-10-21 18:53:32.534
34.0, -111232.36104635728, -149594.570648023, -74227.28231278447, -131875.04641712265, 44515.398981022714, -73625.43924158088, 36580.03796101069, -118102.34851865156, 0.022, 0.9520000000000001, 0.02, 192.0, 0.0, 0.0, 0.0, 0.0, 0.0, 0.0, 0.0, 0.0, 0.0, 1.6664036125342963E9, 0.0, 2022-10-21 18:53:32.534
35.0, -111213.11619438126, -149573.78352567955, -74201.7119171276, -131835.48382943677, 44543.942158692145, -73615.96210193183, 36596.801769352176, -118076.19697763884, 0.022, 0.9520000000000001, 0.02, 192.0, 0.0, 0.0, 0.0, 0.0, 0.0, 0.0, 0.0, 0.0, 0.0, 1.6664036125343184E9, 0.0, 2022-10-21 18:53:32.534
36.0, -111226.12490965426, -149582.83598218395, -74212.4631062106, -131843.6645679074, 44528.3629928068, -73600.6735087244, 36613.29735676019, -118092.44669585786, 0.022, 0.9520000000000001, 0.02, 192.0, 0.0, 0.0, 0.0, 0.0, 0.0, 0.0, 0.0, 0.0, 0.0, 1.6664036125343509E9, 0.0, 2022-10-21 18:53:32.534
37.0, -111235.1550144142, -149596.0682149015, -74220.1744580477, -131867.9832658748, 44513.92376588866, -73596.20315983334, 36617.38772599551, -118098.95105349435, 0.03, 0.9580000000000001, 0.014, 192.0, 0.0, 240.0, 29.0, 240.0, 0.0, 112.0, 0.0, 0.0, 0.0, 1.6664036125343726E9, 0.0, 2022-10-21 18:53:32.534
38.0, -111224.53793579793, -149593.27424684458, -74219.25803652502, -131875.11347235602, 44515.77896067846, -73622.68997701288, 36592.71140011685, -118100.15804769493, 0.03, 0.9580000000000001, 0.014, 192.0, 0.0, 0.0, 0.0, 0.0, 0.0, 0.0, 0.0, 0.0, 0.0, 1.6664036125343957E9, 0.0, 2022-10-21 18:53:32.534
39.0, -111248.23078492055, -149611.0215319421, -74237.67587395619, -131886.1775858614, 44504.04429483942, -73646.82986102461, 36567.766853304725, -118115.04430950218, 0.03, 0.9580000000000001, 0.014, 192.0, 0.0, 0.0, 0.0, 0.0, 0.0, 0.0, 0.0, 0.0, 0.0, 1.6664036125344176E9, 0.0, 2022-10-21 18:53:32.534
40.0, -111232.53986031293, -149587.3510345639, -74225.29300752796, -131860.8307076491, 44523.62442298227, -73613.45870655283, 36604.84839735608, -118089.7197830343, 0.03, 0.9580000000000001, 0.014, 192.0, 0.0, 0.0, 0.0, 0.0, 0.0, 0.0, 0.0, 0.0, 0.0, 1.6664036125344396E9, 0.0, 2022-10-21 18:53:32.534
41.0, -111220.67108400716, -149584.17708685127, -74209.80324862043, -131856.85209713606, 44527.89360617323, -73581.02632534818, 36636.65492971599, -118085.45059984335, 0.03, 0.9580000000000001, 0.014, 192.0, 0.0, 0.0, 0.0, 0.0, 0.0, 0.0, 0.0, 0.0, 0.0, 1.6664036125344615E9, 0.0, 2022-10-21 18:53:32.534
42.0, -111223.08507240833, -149579.1926478377, -74195.69929786913, -131857.09796632506, 44538.398926067224, -73590.92814814189, 36628.40713601198, -118067.94918393483, 0.03, 0.9580000000000001, 0.014, 192.0, 0.0, 0.0, 0.0, 0.0, 0.0, 0.0, 0.0, 0.0, 0.0, 1.6664036125344837E9, 0.0, 2022-10-21 18:53:32.534
43.0, -111220.22404911806, -149580.53375250506, -74199.92377757118, -131860.56248671561, 44539.33769933435, -73605.12150587101, 36613.18559803791, -118079.03564918468, 0.03, 0.9580000000000001, 0.014, 192.0, 0.0, 0.0, 0.0, 0.0, 0.0, 0.0, 0.0, 0.0, 0.0, 1.666403612534505E9, 0.0, 2022-10-21 18:53:32.534
44.0, -111222.07924390785, -149582.03131938356, -74210.63026316527, -131864.0270071062, 44530.441705041136, -73603.6239389925, 36619.15351380748, -118087.35049812205, 0.03, 0.9580000000000001, 0.014, 192.0, 0.0, 0.0, 0.0, 0.0, 0.0, 0.0, 0.0, 0.0, 0.0, 1.6664036125345273E9, 0.0, 2022-10-21 18:53:32.534
45.0, -111223.06272066387, -149578.96913039318, -74208.50684744201, -131858.05909133662, 44539.27064410099, -73591.53164524218, 36641.48290651833, -118076.82282648359, 0.03, 0.9580000000000001, 0.014, 192.0, 0.0, 0.0, 0.0, 0.0, 0.0, 0.0, 0.0, 0.0, 0.0, 1.6664036125346136E9, 0.0, 2022-10-21 18:53:32.534
46.0, -111227.89069746622, -149582.14307810582, -74208.48449569756, -131865.2787047957, 44546.78083023797, -73594.50442725474, 36637.03490937172, -118082.29900387514, 0.032, 0.96, 0.016, 192.0, 1.0, 0.0, 30.0, 0.0, 0.0, 128.0, 0.0, 0.0, 0.0, 1.666403612534636E9, 0.0, 2022-10-21 18:53:32.534
47.0, -111228.44949107761, -149585.07115662948, -74210.07146955389, -131873.10181535504, 44540.96937667959, -73612.76580247472, 36618.68412717392, -118082.61192829751, 0.032, 0.96, 0.016, 192.0, 0.0, 0.0, 0.0, 0.0, 0.0, 0.0, 0.0, 0.0, 0.0, 1.6664036125346596E9, 0.0, 2022-10-21 18:53:32.534
48.0, -111223.30858985288, -149578.4103367818, -74202.49422818354, -131854.2592947792, 44546.84788547133, -73598.61714823451, 36639.73947045082, -118077.24750962824, 0.032, 0.96, 0.016, 192.0, 0.0, 0.0, 0.0, 0.0, 0.0, 0.0, 0.0, 0.0, 0.0, 1.6664036125346816E9, 0.0, 2022-10-21 18:53:32.534
49.0, -111231.57873530136, -149586.07698512997, -74212.08312655486, -131856.2262482913, 44537.72837373357, -73592.20219757584, 36653.37403456856, -118084.71299227631, 0.032, 0.96, 0.016, 192.0, 0.0, 0.0, 0.0, 0.0, 0.0, 0.0, 0.0, 0.0, 0.0, 1.6664036125347068E9, 0.0, 2022-10-21 18:53:32.534
50.0, -111222.41452007467, -149577.6950809592, -74202.40482120572, -131841.67526265088, 44553.12872566327, -73589.69880219684, 36658.33612183763, -118068.59738452404, 0.032, 0.96, 0.016, 192.0, 0.0, 0.0, 0.0, 0.0, 0.0, 0.0, 0.0, 0.0, 0.0, 1.66640361253472E9, 0.0, 2022-10-21 18:53:32.534
51.0, -111240.02769470545, -149590.6590927433, -74217.20167603513, -131863.4682134948, 44533.54859752043, -73613.50341004174, 36632.721022691854, -118078.81213174012, 0.032, 0.96, 0.016, 192.0, 0.0, 0.0, 0.0, 0.0, 0.0, 0.0, 0.0, 0.0, 0.0, 1.6664036125347335E9, 0.0, 2022-10-21 18:53:32.534
52.0, -111244.2074709186, -149598.9068864473, -74227.81875465141, -131879.874393925, 44516.42716126766, -73634.62580855201, 36617.16420855096, -118096.87234126001, 0.032, 0.96, 0.016, 192.0, 0.0, 0.0, 0.0, 0.0, 0.0, 0.0, 0.0, 0.0, 0.0, 1.6664036125347466E9, 0.0, 2022-10-21 18:53:32.534
53.0, -111222.77214798596, -149584.557066507, -74205.15408577373, -131854.43810873487, 44538.30951908941, -73614.88921819798, 36643.53926700822, -118085.49530333225, 0.032, 0.96, 0.016, 192.0, 0.0, 0.0, 0.0, 0.0, 0.0, 0.0, 0.0, 0.0, 0.0, 1.66640361253476E9, 0.0, 2022-10-21 18:53:32.534
54.0, -111219.37468282875, -149575.86223791388, -74210.67496665419, -131863.35645477253, 44534.062687642894, -73612.85520945254, 36645.081537375634, -118088.08810568906, 0.032, 0.96, 0.016, 192.0, 0.0, 0.0, 0.0, 0.0, 0.0, 0.0, 0.0, 0.0, 0.0, 1.666403612534773E9, 0.0, 2022-10-21 18:53:32.534
55.0, -111231.15405215671, -149584.557066507, -74221.69437667065, -131871.55954498763, 44529.77115270748, -73637.68799754238, 36619.53349346322, -118097.43113487138, 0.032, 0.96, 0.016, 192.0, 0.0, 0.0, 0.0, 0.0, 0.0, 0.0, 0.0, 0.0, 0.0, 1.6664036125347872E9, 0.0, 2022-10-21 18:53:32.534
56.0, -111247.8061017759, -149604.6065812834, -74236.58063847788, -131880.3884840475, 44516.47186475657, -73644.84055576808, 36610.905720103474, -118121.01222527174, 0.034, 0.962, 0.01, 192.0, 1.0, 16.0, 30.0, 16.0, 0.0, 80.0, 0.0, 0.0, 0.0, 1.6664036125348E9, 0.0, 2022-10-21 18:53:32.534
57.0, -111234.66327603618, -149597.83400271344, -74219.68271966967, -131862.5294402277, 44530.173484107676, -73611.33529082958, 36652.03292990124, -118100.58273083958, 0.034, 0.962, 0.01, 192.0, 0.0, 0.0, 0.0, 0.0, 0.0, 0.0, 0.0, 0.0, 0.0, 1.6664036125348144E9, 0.0, 2022-10-21 18:53:32.534
58.0, -111237.77016851548, -149601.38793008184, -74224.48834472756, -131870.84428916508, 44526.48544627255, -73607.04375589416, 36660.52659279425, -118102.72849830729, 0.034, 0.962, 0.01, 192.0, 0.0, 0.0, 0.0, 0.0, 0.0, 0.0, 0.0, 0.0, 0.0, 1.6664036125348277E9, 0.0, 2022-10-21 18:53:32.534
59.0, -111237.74781677102, -149595.88940094583, -74224.44364123866, -131878.91326891343, 44527.3124608174, -73631.60832305055, 36637.10196460509, -118094.19013192537, 0.034, 0.962, 0.01, 192.0, 0.0, 0.0, 0.0, 0.0, 0.0, 0.0, 0.0, 0.0, 0.0, 1.6664036125348408E9, 0.0, 2022-10-21 18:53:32.534
60.0, -111248.52135759847, -149608.808709241, -74227.28231278447, -131878.7791584467, 44523.57971949336, -73642.02423596672, 36626.5966447111, -118099.39808838346, 0.034, 0.962, 0.01, 192.0, 0.0, 0.0, 0.0, 0.0, 0.0, 0.0, 0.0, 0.0, 0.0, 1.6664036125348675E9, 0.0, 2022-10-21 18:53:32.534
61.0, -111241.92759298415, -149606.19355513973, -74217.58165569087, -131863.04353035017, 44533.48154228706, -73621.9747211903, 36649.95421766689, -118084.84710274305, 0.034, 0.962, 0.01, 192.0, 0.0, 0.0, 0.0, 0.0, 0.0, 0.0, 0.0, 0.0, 0.0, 1.6664036125348809E9, 0.0, 2022-10-21 18:53:32.534
62.0, -111226.32607535436, -149593.2071916112, -74214.69828065614, -131860.13780357098, 44537.43780105565, -73606.14968611595, 36666.203935885904, -118075.86170147202, 0.034, 0.962, 0.01, 192.0, 0.0, 0.0, 0.0, 0.0, 0.0, 0.0, 0.0, 0.0, 0.0, 1.666403612534894E9, 0.0, 2022-10-21 18:53:32.534
63.0, -111230.23763063403, -149598.4598515582, -74214.3630044893, -131877.7733299462, 44530.48640853005, -73622.08647991258, 36645.70738622038, -118097.11821044901, 0.034, 0.962, 0.01, 192.0, 0.0, 0.0, 0.0, 0.0, 0.0, 0.0, 0.0, 0.0, 0.0, 1.666403612534907E9, 0.0, 2022-10-21 18:53:32.534
64.0, -111240.81000576139, -149610.2168691417, -74221.09087957036, -131882.5342515152, 44523.26679507099, -73649.82499478162, 36620.2934527747, -118098.43696337187, 0.034, 0.962, 0.01, 192.0, 0.0, 0.0, 0.0, 0.0, 0.0, 0.0, 0.0, 0.0, 0.0, 1.6664036125349207E9, 0.0, 2022-10-21 18:53:32.534
65.0, -111230.93053471214, -149590.8602584434, -74207.6127776638, -131858.9308093704, 44538.48833304505, -73620.29834035615, 36652.368206068066, -118085.89763473245, 0.034, 0.962, 0.01, 192.0, 0.0, 0.0, 0.0, 0.0, 0.0, 0.0, 0.0, 0.0, 0.0, 1.6664036125349338E9, 0.0, 2022-10-21 18:53:32.534
66.0, -111222.3027613524, -149578.18681933725, -74194.58171064637, -131842.34581498455, 44549.172466894684, -73595.66671796641, 36681.447825604424, -118073.20184388183, 0.03, 0.972, 0.01, 192.0, 0.0, 240.0, 30.0, 96.0, 0.0, 80.0, 0.0, 0.0, 0.0, 1.666403612534947E9, 0.0, 2022-10-21 18:53:32.534
67.0, -111236.4067121037, -149592.49193578862, -74205.265844496, -131866.7315681853, 44534.53207427646, -73618.621959522, 36658.96197068238, -118078.94624220685, 0.03, 0.972, 0.01, 192.0, 0.0, 0.0, 0.0, 0.0, 0.0, 0.0, 0.0, 0.0, 0.0, 1.666403612534961E9, 0.0, 2022-10-21 18:53:32.534
68.0, -111239.46890109408, -149603.19842138272, -74219.21333303611, -131885.84230969456, 44518.30470780191, -73648.26037266974, 36629.12239183455, -118093.13959993597, 0.03, 0.972, 0.01, 192.0, 0.0, 0.0, 0.0, 0.0, 0.0, 0.0, 0.0, 0.0, 0.0, 1.666403612534974E9, 0.0, 2022-10-21 18:53:32.534
69.0, -111229.18709864463, -149589.83207819847, -74205.01997530699, -131858.7296436703, 44533.83917019834, -73636.77157601972, 36646.46734553186, -118075.92875670538, 0.03, 0.972, 0.01, 192.0, 0.0, 0.0, 0.0, 0.0, 0.0, 0.0, 0.0, 0.0, 0.0, 1.6664036125349872E9, 0.0, 2022-10-21 18:53:32.534
70.0, -111246.21912791958, -149607.98169469615, -74221.8731906263, -131870.19608857585, 44520.36106829179, -73625.68511076989, 36659.9007439495, -118082.9695562088, 0.03, 0.972, 0.01, 192.0, 0.0, 0.0, 0.0, 0.0, 0.0, 0.0, 0.0, 0.0, 0.0, 1.6664036125350015E9, 0.0, 2022-10-21 18:53:32.535
71.0, -111257.41735189168, -149610.3733313529, -74223.28135052697, -131879.36030380253, 44518.63998396874, -73627.6744160264, 36657.91143869298, -118095.79945752615, 0.03, 0.972, 0.01, 192.0, 0.0, 0.0, 0.0, 0.0, 0.0, 0.0, 0.0, 0.0, 0.0, 1.6664036125350153E9, 0.0, 2022-10-21 18:53:32.535
72.0, -111226.46018582108, -149590.54733402102, -74214.3630044893, -131871.91717289892, 44532.94510042013, -73639.54319233217, 36649.68599673343, -118081.11436141901, 0.03, 0.972, 0.01, 192.0, 0.0, 0.0, 0.0, 0.0, 0.0, 0.0, 0.0, 0.0, 0.0, 1.6664036125350294E9, 0.0, 2022-10-21 18:53:32.535
73.0, -111220.62638051825, -149584.26649382908, -74202.04719329443, -131856.114489569, 44538.48833304505, -73637.35272137556, 36656.547982281205, -118074.69941076034, 0.03, 0.972, 0.01, 192.0, 0.0, 0.0, 0.0, 0.0, 0.0, 0.0, 0.0, 0.0, 0.0, 1.6664036125350425E9, 0.0, 2022-10-21 18:53:32.535
74.0, -111231.66814227917, -149595.2188486122, -74206.83046660788, -131865.25635305123, 44528.29593757343, -73636.25748589725, 36664.102871907104, -118084.95886146533, 0.03, 0.972, 0.01, 192.0, 0.0, 0.0, 0.0, 0.0, 0.0, 0.0, 0.0, 0.0, 0.0, 1.666403612535056E9, 0.0, 2022-10-21 18:53:32.535
75.0, -111243.84984300731, -149604.5171743056, -74217.44754522415, -131877.7733299462, 44521.29984155892, -73641.30898014415, 36658.8502119601, -118089.40685861194, 0.032, 0.96, 0.004, 192.0, 1.0, 0.0, 30.0, 0.0, 0.0, 32.0, 0.0, 0.0, 0.0, 1.6664036125350811E9, 0.0, 2022-10-21 18:53:32.535
76.0, -111253.88577626775, -149614.03901744355, -74227.88580988477, -131887.96572541783, 44514.81783566688, -73653.15540470545, 36640.0970983621, -118091.95495747984, 0.032, 0.96, 0.004, 192.0, 0.0, 0.0, 0.0, 0.0, 0.0, 0.0, 0.0, 0.0, 0.0, 1.6664036125350952E9, 0.0, 2022-10-21 18:53:32.535
77.0, -111238.84305224933, -149602.03613067104, -74213.29012075545, -131877.37099854602, 44521.74687644802, -73658.02808499671, 36638.46542101687, -118081.62845154149, 0.032, 0.96, 0.004, 192.0, 0.0, 0.0, 0.0, 0.0, 0.0, 0.0, 0.0, 0.0, 0.0, 1.6664036125351093E9, 0.0, 2022-10-21 18:53:32.535
78.0, -111233.32217136887, -149598.97394168068, -74205.77993461848, -131864.13876582848, 44531.693402730634, -73643.36534063403, 36661.152441639, -118072.24071887026, 0.032, 0.96, 0.004, 192.0, 0.0, 0.0, 0.0, 0.0, 0.0, 0.0, 0.0, 0.0, 0.0, 1.6664036125351224E9, 0.0, 2022-10-21 18:53:32.535
79.0, -111230.61761028977, -149598.0128166691, -74200.43786769365, -131865.0328356067, 44542.98103368057, -73632.79296550667, 36672.149499911015, -118069.93848919137, 0.032, 0.96, 0.004, 192.0, 0.0, 0.0, 0.0, 0.0, 0.0, 0.0, 0.0, 0.0, 0.0, 1.666403612535136E9, 0.0, 2022-10-21 18:53:32.535
80.0, -111247.18025293115, -149614.84368024394, -74213.42423122219, -131881.75194045925, 44530.642870741234, -73659.01156175275, 36639.87358091755, -118084.4224195984, 0.032, 0.96, 0.004, 192.0, 0.0, 0.0, 0.0, 0.0, 0.0, 0.0, 0.0, 0.0, 0.0, 1.666403612535149E9, 0.0, 2022-10-21 18:53:32.535
81.0, -111245.72738954156, -149606.23825862864, -74210.20558002061, -131864.13876582848, 44536.70019348862, -73659.52565187521, 36637.72781344984, -118068.19505312384, 0.032, 0.96, 0.004, 192.0, 0.0, 0.0, 0.0, 0.0, 0.0, 0.0, 0.0, 0.0, 0.0, 1.6664036125351624E9, 0.0, 2022-10-21 18:53:32.535
82.0, -111232.40574984619, -149596.9175811908, -74198.60502464832, -131859.5790099596, 44539.71767899009, -73646.96397149134, 36656.72679623685, -118065.15521587792, 0.032, 0.96, 0.004, 192.0, 0.0, 0.0, 0.0, 0.0, 0.0, 0.0, 0.0, 0.0, 0.0, 1.6664036125351753E9, 0.0, 2022-10-21 18:53:32.535
83.0, -111222.59333403032, -149596.73876723513, -74198.51561767049, -131871.380731032, 44534.085039387355, -73654.89884077298, 36657.039720659224, -118070.60904152502, 0.032, 0.96, 0.004, 192.0, 0.0, 0.0, 0.0, 0.0, 0.0, 0.0, 0.0, 0.0, 0.0, 1.6664036125351884E9, 0.0, 2022-10-21 18:53:32.535
84.0, -111243.67102905168, -149610.3733313529, -74214.3630044893, -131886.06582713913, 44523.28914681544, -73667.41581766795, 36638.77834543924, -118084.8694544875, 0.032, 0.96, 0.004, 192.0, 0.0, 0.0, 0.0, 0.0, 0.0, 0.0, 0.0, 0.0, 0.0, 1.6664036125352013E9, 0.0, 2022-10-21 18:53:32.535
85.0, -111254.93630825715, -149626.98067748317, -74222.90137087123, -131888.6362777515, 44517.25417581251, -73667.12524499002, 36634.12918259254, -118093.00548946924, 0.03, 0.96, 0.008, 192.0, 0.0, 240.0, 30.0, 0.0, 0.0, 64.0, 0.0, 0.0, 0.0, 1.6664036125352142E9, 0.0, 2022-10-21 18:53:32.535
86.0, -111251.85176752231, -149621.59390706944, -74220.95676910362, -131877.5721642461, 44518.66233571319, -73659.57035536414, 36647.763746710276, -118095.79945752615, 0.03, 0.96, 0.008, 192.0, 0.0, 0.0, 0.0, 0.0, 0.0, 0.0, 0.0, 0.0, 0.0, 1.666403612535228E9, 0.0, 2022-10-21 18:53:32.535
87.0, -111249.9071657547, -149617.92822097876, -74220.93441735917, -131874.55467874464, 44519.66816421368, -73648.4838901143, 36663.655837018, -118077.64984102844, 0.03, 0.96, 0.008, 192.0, 0.0, 0.0, 0.0, 0.0, 0.0, 0.0, 0.0, 0.0, 0.0, 1.666403612535241E9, 0.0, 2022-10-21 18:53:32.535
88.0, -111253.7069623121, -149623.94084023725, -74222.90137087123, -131890.3350103301, 44516.605975223305, -73676.51297766126, 36640.342967551114, -118083.72951552029, 0.03, 0.96, 0.008, 192.0, 0.0, 0.0, 0.0, 0.0, 0.0, 0.0, 0.0, 0.0, 0.0, 1.666403612535254E9, 0.0, 2022-10-21 18:53:32.535
89.0, -111234.73033126954, -149603.33253184945, -74195.83340833586, -131866.75391992973, 44544.992690681545, -73683.68788763141, 36638.21955182785, -118063.99292516625, 0.03, 0.96, 0.008, 192.0, 0.0, 0.0, 0.0, 0.0, 0.0, 0.0, 0.0, 0.0, 0.0, 1.6664036125352683E9, 0.0, 2022-10-21 18:53:32.535
90.0, -111228.51654631097, -149601.3208748485, -74191.11719025578, -131848.1572685429, 44551.00530994002, -73655.92702101792, 36664.818127729675, -118059.58963150856, 0.03, 0.96, 0.008, 192.0, 0.0, 0.0, 0.0, 0.0, 0.0, 0.0, 0.0, 0.0, 0.0, 1.666403612535293E9, 0.0, 2022-10-21 18:53:32.535
91.0, -111244.4533401076, -149615.98361921115, -74205.55641717392, -131865.34576002907, 44536.07434464387, -73641.15251793296, 36677.312752880185, -118064.55171877763, 0.03, 0.96, 0.008, 192.0, 0.0, 0.0, 0.0, 0.0, 0.0, 0.0, 0.0, 0.0, 0.0, 1.666403612535306E9, 0.0, 2022-10-21 18:53:32.535
92.0, -111247.04614246443, -149614.95543896622, -74203.14242877274, -131878.75680670224, 44533.928577176164, -73664.19716646639, 36657.5538107817, -118061.24366059825, 0.03, 0.96, 0.008, 192.0, 0.0, 0.0, 0.0, 0.0, 0.0, 0.0, 0.0, 0.0, 0.0, 1.66640361253532E9, 0.0, 2022-10-21 18:53:32.535
93.0, -111265.46397989559, -149634.93789850926, -74220.39797549225, -131891.27378359722, 44516.85184441231, -73689.05230630068, 36629.88235114603, -118091.68673654637, 0.03, 0.96, 0.008, 192.0, 0.0, 0.0, 0.0, 0.0, 0.0, 0.0, 0.0, 0.0, 0.0, 1.666403612535333E9, 0.0, 2022-10-21 18:53:32.535
94.0, -111249.37072388778, -149616.69887503373, -74204.79645786244, -131865.65868445142, 44532.94510042013, -73671.59559388108, 36650.91534267847, -118088.24456790026, 0.03, 0.96, 0.008, 192.0, 0.0, 0.0, 0.0, 0.0, 0.0, 0.0, 0.0, 0.0, 0.0, 1.666403612535346E9, 0.0, 2022-10-21 18:53:32.535
95.0, -111237.72546502657, -149602.48316556014, -74187.9655942876, -131859.4672512373, 44544.23273137006, -73649.08738721459, 36680.77727327076, -118067.79272172366, 0.03, 0.962, 0.01, 192.0, 0.0, 240.0, 30.0, 16.0, 0.0, 80.0, 0.0, 0.0, 0.0, 1.666403612535359E9, 0.0, 2022-10-21 18:53:32.535
96.0, -111235.26677313648, -149601.27617135958, -74190.9607280446, -131871.51484149872, 44545.08209765937, -73665.47121590034, 36666.270991119265, -118063.30002108813, 0.03, 0.962, 0.01, 192.0, 0.0, 0.0, 0.0, 0.0, 0.0, 0.0, 0.0, 0.0, 0.0, 1.6664036125353725E9, 0.0, 2022-10-21 18:53:32.535
97.0, -111237.07726443735, -149602.14788939332, -74194.20173099062, -131870.6207717205, 44546.803181982425, -73690.54987317919, 36641.61701698507, -118066.5186722897, 0.03, 0.962, 0.01, 192.0, 0.0, 0.0, 0.0, 0.0, 0.0, 0.0, 0.0, 0.0, 0.0, 1.6664036125353868E9, 0.0, 2022-10-21 18:53:32.535
98.0, -111248.56606108739, -149613.05554068752, -74205.511713685, -131872.29715255465, 44539.22594061207, -73685.47602718783, 36644.612150742076, -118080.71203001883, 0.03, 0.962, 0.01, 192.0, 0.0, 0.0, 0.0, 0.0, 0.0, 0.0, 0.0, 0.0, 0.0, 1.6664036125354E9, 0.0, 2022-10-21 18:53:32.535
99.0, -111242.57579357336, -149606.59588653993, -74187.74207684303, -131859.95898961532, 44551.698214018135, -73669.76275083575, 36665.26516261878, -118070.94431769184, 0.03, 0.962, 0.01, 192.0, 0.0, 0.0, 0.0, 0.0, 0.0, 0.0, 0.0, 0.0, 0.0, 1.666403612535413E9, 0.0, 2022-10-21 18:53:32.535
100.0, -111237.4572440931, -149607.9146394628, -74185.52925414196, -131864.58580071758, 44554.04514718594, -73663.8395385551, 36670.22724988786, -118062.49535828775, 0.03, 0.962, 0.01, 192.0, 0.0, 0.0, 0.0, 0.0, 0.0, 0.0, 0.0, 0.0, 0.0, 1.666403612535427E9, 0.0, 2022-10-21 18:53:32.535
101.0, -111237.27843013745, -149614.68721803275, -74189.21729197708, -131875.44874852285, 44549.328929105875, -73684.26903298724, 36649.17190661096, -118057.30975357411, 0.03, 0.962, 0.01, 192.0, 0.0, 0.0, 0.0, 0.0, 0.0, 0.0, 0.0, 0.0, 0.0, 1.66640361253544E9, 0.0, 2022-10-21 18:53:32.535
102.0, -111241.77113077298, -149611.17799415326, -74189.59727163283, -131877.95214390184, 44543.517475547495, -73685.7442481213, 36644.2992263197, -118052.45942502731, 0.03, 0.962, 0.01, 192.0, 0.0, 0.0, 0.0, 0.0, 0.0, 0.0, 0.0, 0.0, 0.0, 1.666403612535453E9, 0.0, 2022-10-21 18:53:32.535
103.0, -111256.32211641337, -149621.12452043587, -74197.59919614783, -131882.9812864043, 44533.8615219428, -73684.38079170953, 36651.22826710084, -118066.83159671207, 0.03, 0.962, 0.01, 192.0, 0.0, 0.0, 0.0, 0.0, 0.0, 0.0, 0.0, 0.0, 0.0, 1.6664036125354664E9, 0.0, 2022-10-21 18:53:32.535
104.0, -111248.09667445382, -149615.87186048887, -74194.53700715746, -131884.74707421625, 44537.84013245584, -73699.31175700566, 36643.762784452774, -118073.49241655975, 0.03, 0.9580000000000001, 0.014, 192.0, 0.0, 240.0, 29.0, 240.0, 0.0, 112.0, 0.0, 0.0, 0.0, 1.6664036125354793E9, 0.0, 2022-10-21 18:53:32.535
105.0, -111235.17736615866, -149600.315046348, -74181.34947792882, -131874.10764385553, 44551.80997274041, -73712.90161763449, 36630.77642092424, -118065.51284378921, 0.03, 0.9580000000000001, 0.014, 192.0, 0.0, 0.0, 0.0, 0.0, 0.0, 0.0, 0.0, 0.0, 0.0, 1.6664036125355048E9, 0.0, 2022-10-21 18:53:32.535
106.0, -111237.23372664854, -149601.94672369323, -74181.32712618436, -131864.89872513994, 44554.64864428624, -73704.85498963058, 36634.84443841511, -118058.98613440826, 0.03, 0.9580000000000001, 0.014, 192.0, 0.0, 0.0, 0.0, 0.0, 0.0, 0.0, 0.0, 0.0, 0.0, 1.6664036125355182E9, 0.0, 2022-10-21 18:53:32.535
107.0, -111240.29591563893, -149606.39472083983, -74178.756675572, -131859.0649198371, 44556.034452442465, -73681.78798935271, 36657.71027299288, -118056.34862856254, 0.03, 0.9580000000000001, 0.014, 192.0, 0.0, 0.0, 0.0, 0.0, 0.0, 0.0, 0.0, 0.0, 0.0, 1.6664036125355327E9, 0.0, 2022-10-21 18:53:32.535
108.0, -111246.28618315294, -149615.80480525552, -74186.78095183146, -131866.7762716742, 44550.781792495465, -73685.63248939902, 36654.804546213694, -118068.53032929068, 0.03, 0.9580000000000001, 0.014, 192.0, 0.0, 0.0, 0.0, 0.0, 0.0, 0.0, 0.0, 0.0, 0.0, 1.666403612535545E9, 0.0, 2022-10-21 18:53:32.535
109.0, -111227.13073815475, -149599.93506669224, -74173.32520166936, -131857.25442853622, 44566.785641525465, -73691.33218423513, 36649.66364498898, -118043.5634307341, 0.03, 0.9580000000000001, 0.014, 192.0, 0.0, 0.0, 0.0, 0.0, 0.0, 0.0, 0.0, 0.0, 0.0, 1.6664036125355575E9, 0.0, 2022-10-21 18:53:32.535
110.0, -111236.2055464036, -149610.75331100862, -74188.25616696551, -131883.60713524904, 44544.90328370372, -73722.28935030573, 36615.71134516136, -118063.94822167733, 0.03, 0.9580000000000001, 0.014, 192.0, 0.0, 0.0, 0.0, 0.0, 0.0, 0.0, 0.0, 0.0, 0.0, 1.6664036125355697E9, 0.0, 2022-10-21 18:53:32.535
111.0, -111240.16180517219, -149613.79314825454, -74188.16675998768, -131880.0308561362, 44545.37267033728, -73701.144600051, 36639.27008381725, -118067.74801823474, 0.03, 0.9580000000000001, 0.014, 192.0, 0.0, 0.0, 0.0, 0.0, 0.0, 0.0, 0.0, 0.0, 0.0, 1.6664036125355823E9, 0.0, 2022-10-21 18:53:32.535
112.0, -111237.68076153765, -149608.9204679633, -74182.62352736277, -131876.4769287678, 44551.85467622932, -73683.12909402003, 36656.48092704784, -118064.8199397111, 0.03, 0.9580000000000001, 0.014, 192.0, 0.0, 0.0, 0.0, 0.0, 0.0, 0.0, 0.0, 0.0, 0.0, 1.6664036125355947E9, 0.0, 2022-10-21 18:53:32.535
113.0, -111237.68076153765, -149609.65807553031, -74180.76833257299, -131881.99780964825, 44552.52522856298, -73699.49057096131, 36637.750165194295, -118065.80341646713, 0.03, 0.9580000000000001, 0.014, 192.0, 0.0, 0.0, 0.0, 0.0, 0.0, 0.0, 0.0, 0.0, 0.0, 1.6664036125356088E9, 0.0, 2022-10-21 18:53:32.535
114.0, -111254.64573557922, -149625.03607571556, -74192.27948096747, -131893.15133013146, 44542.80221972492, -73714.399184513, 36620.78519115272, -118073.29125085965, 0.036000000000000004, 0.9580000000000001, 0.014, 192.0, 1.0, 32.0, 29.0, 240.0, 0.0, 112.0, 0.0, 0.0, 0.0, 1.6664036125356207E9, 0.0, 2022-10-21 18:53:32.535
115.0, -111256.79150304694, -149627.58417458346, -74196.83923683634, -131892.0337429087, 44539.27064410099, -73709.95118736639, 36630.552903479685, -118076.24168112775, 0.036000000000000004, 0.9580000000000001, 0.014, 192.0, 0.0, 0.0, 0.0, 0.0, 0.0, 0.0, 0.0, 0.0, 0.0, 1.666403612535634E9, 0.0, 2022-10-21 18:53:32.535
116.0, -111244.8109680189, -149616.83298550046, -74179.29311743894, -131879.7402834583, 44555.43095534217, -73688.00177431128, 36657.06207240368, -118066.60807926752, 0.036000000000000004, 0.9580000000000001, 0.014, 192.0, 0.0, 0.0, 0.0, 0.0, 0.0, 0.0, 0.0, 0.0, 0.0, 1.666403612535646E9, 0.0, 2022-10-21 18:53:32.535
117.0, -111250.53301459945, -149623.78437802606, -74174.57689935886, -131889.68680974087, 44558.00140595453, -73684.82782659863, 36653.73166247984, -118071.1678351364, 0.036000000000000004, 0.9580000000000001, 0.014, 192.0, 0.0, 0.0, 0.0, 0.0, 0.0, 0.0, 0.0, 0.0, 0.0, 1.6664036125356584E9, 0.0, 2022-10-21 18:53:32.535
118.0, -111255.94213675764, -149625.30429664903, -74179.33782092785, -131896.92877494442, 44553.933388463665, -73699.53527445022, 36632.89983664749, -118077.64984102844, 0.036000000000000004, 0.9580000000000001, 0.014, 192.0, 0.0, 0.0, 0.0, 0.0, 0.0, 0.0, 0.0, 0.0, 0.0, 1.6664036125356705E9, 0.0, 2022-10-21 18:53:32.535
119.0, -111240.6088400613, -149611.75913950911, -74162.05992246389, -131877.25923982373, 44571.81478402791, -73687.08535278862, 36649.48483103333, -118057.35445706302, 0.036000000000000004, 0.9580000000000001, 0.014, 192.0, 0.0, 0.0, 0.0, 0.0, 0.0, 0.0, 0.0, 0.0, 0.0, 1.666403612535683E9, 0.0, 2022-10-21 18:53:32.535
120.0, -111244.0510087074, -149616.81063375602, -74164.0045242315, -131874.375864789, 44576.68746431917, -73651.81430003814, 36684.57706982816, -118052.90645991641, 0.036000000000000004, 0.9580000000000001, 0.014, 192.0, 0.0, 0.0, 0.0, 0.0, 0.0, 0.0, 0.0, 0.0, 0.0, 1.6664036125357056E9, 0.0, 2022-10-21 18:53:32.535
121.0, -111244.43098836315, -149618.35290412343, -74171.1570824572, -131884.0318183937, 44574.67580731819, -73661.9396402764, 36671.791871999725, -118054.113454117, 0.036000000000000004, 0.9580000000000001, 0.014, 192.0, 0.0, 0.0, 0.0, 0.0, 0.0, 0.0, 0.0, 0.0, 0.0, 1.6664036130125635E9, 0.0, 2022-10-21 18:53:33.012
122.0, -111248.72252329857, -149621.25863090262, -74171.51471036849, -131894.26891735423, 44569.177278182186, -73696.31662324865, 36634.35270003709, -118065.98223042277, 0.036000000000000004, 0.9580000000000001, 0.014, 192.0, 0.0, 0.0, 0.0, 0.0, 0.0, 0.0, 0.0, 0.0, 0.0, 1.6664036130127144E9, 0.0, 2022-10-21 18:53:33.012
123.0, -111262.5135496275, -149628.18767168376, -74177.0132395045, -131894.5818417766, 44562.65056880123, -73696.65189941549, 36632.31869129166, -118069.64791651344, 0.036000000000000004, 0.9580000000000001, 0.014, 192.0, 0.0, 0.0, 0.0, 0.0, 0.0, 0.0, 0.0, 0.0, 0.0, 1.6664036130127409E9, 0.0, 2022-10-21 18:53:33.012
124.0, -111248.70017155411, -149609.9709999527, -74154.7061985381, -131865.9269053849, 44586.54458362396, -73656.50816637375, 36673.91528772298, -118046.69267495784, 0.036000000000000004, 0.9560000000000001, 0.024, 192.0, 1.0, 32.0, 29.0, 224.0, 0.0, 192.0, 0.0, 0.0, 0.0, 1.666403613012762E9, 0.0, 2022-10-21 18:53:33.012
125.0, -111246.06266570839, -149621.92918323627, -74162.84223351983, -131882.4895480263, 44575.63693232977, -73654.27299192823, 36673.200031900415, -118059.70139023082, 0.036000000000000004, 0.9560000000000001, 0.024, 192.0, 0.0, 0.0, 0.0, 0.0, 0.0, 0.0, 0.0, 0.0, 0.0, 1.6664036130127845E9, 0.0, 2022-10-21 18:53:33.012
126.0, -111247.38141863125, -149621.88447974736, -74165.21151843209, -131884.21063234934, 44571.30069390544, -73676.26710847225, 36648.90368567749, -118064.88699494446, 0.036000000000000004, 0.9560000000000001, 0.024, 192.0, 0.0, 0.0, 0.0, 0.0, 0.0, 0.0, 0.0, 0.0, 0.0, 1.6664036130128045E9, 0.0, 2022-10-21 18:53:33.012
127.0, -111252.83524427835, -149623.85143325943, -74167.02200973297, -131890.08914114107, 44563.67874904618, -73683.73259112032, 36643.29339781921, -118074.78881773817, 0.036000000000000004, 0.9560000000000001, 0.024, 192.0, 0.0, 0.0, 0.0, 0.0, 0.0, 0.0, 0.0, 0.0, 0.0, 1.6664036130128248E9, 0.0, 2022-10-21 18:53:33.012
128.0, -111256.25506118001, -149623.44910185924, -74160.76352128548, -131885.59644050556, 44570.719548549605, -73653.93771576139, 36678.34093312513, -118064.90934668892, 0.036000000000000004, 0.9560000000000001, 0.024, 192.0, 0.0, 0.0, 0.0, 0.0, 0.0, 0.0, 0.0, 0.0, 0.0, 1.666403613012846E9, 0.0, 2022-10-21 18:53:33.012
129.0, -111251.44943612212, -149618.24114540115, -74158.48364335104, -131880.85787068104, 44580.01787424301, -73643.65591331196, 36690.54498559773, -118060.32723907557, 0.036000000000000004, 0.9560000000000001, 0.024, 192.0, 0.0, 0.0, 0.0, 0.0, 0.0, 0.0, 0.0, 0.0, 0.0, 1.6664036130128658E9, 0.0, 2022-10-21 18:53:33.012
130.0, -111245.6603343082, -149612.60850579842, -74160.22707941856, -131885.0376468942, 44581.58249635488, -73650.65200932647, 36680.039665703734, -118060.88603268696, 0.036000000000000004, 0.9560000000000001, 0.024, 192.0, 0.0, 0.0, 0.0, 0.0, 0.0, 0.0, 0.0, 0.0, 0.0, 1.6664036130128808E9, 0.0, 2022-10-21 18:53:33.012
131.0, -111241.74877902852, -149617.50353783413, -74162.03757071943, -131884.36709456053, 44577.983865497576, -73662.20786120986, 36668.88614522054, -118062.87533794348, 0.036000000000000004, 0.9560000000000001, 0.024, 192.0, 0.0, 0.0, 0.0, 0.0, 0.0, 0.0, 0.0, 0.0, 0.0, 1.666403613012894E9, 0.0, 2022-10-21 18:53:33.012
132.0, -111263.96641301709, -149642.2692706906, -74177.23675694905, -131904.4836645703, 44553.84398148584, -73669.78510258021, 36665.13105215205, -118089.8762452455, 0.036000000000000004, 0.9560000000000001, 0.024, 192.0, 0.0, 0.0, 0.0, 0.0, 0.0, 0.0, 0.0, 0.0, 0.0, 1.6664036130129073E9, 0.0, 2022-10-21 18:53:33.012
133.0, -111262.08886648285, -149630.35579089593, -74167.46904462208, -131895.38650457698, 44565.265722902506, -73655.72585531783, 36681.02314245977, -118076.93458520588, 0.036000000000000004, 0.9560000000000001, 0.024, 192.0, 0.0, 0.0, 0.0, 0.0, 0.0, 0.0, 0.0, 0.0, 0.0, 1.6664036130129204E9, 0.0, 2022-10-21 18:53:33.012
134.0, -111241.18998541714, -149618.82229075697, -74160.89763175222, -131895.23004236582, 44571.07717646089, -73654.00477099475, 36680.86668024858, -118066.98805892326, 0.038, 0.9520000000000001, 0.022, 192.0, 1.0, 48.0, 29.0, 192.0, 0.0, 176.0, 0.0, 0.0, 0.0, 1.6664036130129411E9, 0.0, 2022-10-21 18:53:33.012
135.0, -111250.13068319926, -149628.23237517267, -74157.07548345036, -131899.90155695696, 44566.47271710309, -73665.89589904499, 36665.73454925234, -118081.40493409694, 0.038, 0.9520000000000001, 0.022, 192.0, 0.0, 0.0, 0.0, 0.0, 0.0, 0.0, 0.0, 0.0, 0.0, 1.6664036130129557E9, 0.0, 2022-10-21 18:53:33.012
136.0, -111274.3599741888, -149652.55107314006, -74177.6614400937, -131918.1852839214, 44542.15401913572, -73656.23994544029, 36672.01538944428, -118102.92966400739, 0.038, 0.9520000000000001, 0.022, 192.0, 0.0, 0.0, 0.0, 0.0, 0.0, 0.0, 0.0, 0.0, 0.0, 1.6664036130130343E9, 0.0, 2022-10-21 18:53:33.013
137.0, -111240.54178482793, -149606.3723690954, -74152.33691362583, -131894.02304816523, 44567.45619385913, -73637.39742486447, 36697.652840334515, -118061.69069548736, 0.038, 0.9520000000000001, 0.022, 192.0, 0.0, 0.0, 0.0, 0.0, 0.0, 0.0, 0.0, 0.0, 0.0, 1.6664036130130477E9, 0.0, 2022-10-21 18:53:33.013
138.0, -111231.66814227917, -149601.18676438174, -74140.53519255343, -131889.84327195206, 44577.17920269718, -73641.62190456652, 36695.015334488795, -118055.90159367342, 0.038, 0.9520000000000001, 0.022, 192.0, 0.0, 0.0, 0.0, 0.0, 0.0, 0.0, 0.0, 0.0, 0.0, 1.6664036130130608E9, 0.0, 2022-10-21 18:53:33.013
139.0, -111245.503872097, -149621.50450009163, -74148.96180021307, -131898.56045228965, 44568.43967061516, -73652.82012853863, 36681.514880837785, -118069.67026825789, 0.038, 0.9520000000000001, 0.022, 192.0, 0.0, 0.0, 0.0, 0.0, 0.0, 0.0, 0.0, 0.0, 0.0, 1.666403613013074E9, 0.0, 2022-10-21 18:53:33.013
140.0, -111244.8556715078, -149617.03415120055, -74147.24071589002, -131889.75386497425, 44571.23363867207, -73637.2856661422, 36702.36905841459, -118058.02500939668, 0.038, 0.9520000000000001, 0.022, 192.0, 0.0, 0.0, 0.0, 0.0, 0.0, 0.0, 0.0, 0.0, 0.0, 1.6664036130130873E9, 0.0, 2022-10-21 18:53:33.013
141.0, -111246.9120319977, -149615.17895641076, -74149.87822173575, -131893.7324754873, 44567.47854560358, -73634.84932599656, 36711.019183518794, -118071.45840781432, 0.038, 0.9520000000000001, 0.022, 192.0, 0.0, 0.0, 0.0, 0.0, 0.0, 0.0, 0.0, 0.0, 0.0, 1.6664036130131006E9, 0.0, 2022-10-21 18:53:33.013
142.0, -111245.95090698611, -149613.7707965101, -74145.38552110024, -131901.5332343022, 44570.920714249696, -73647.79098603618, 36700.513863624794, -118070.69844850284, 0.038, 0.9520000000000001, 0.022, 192.0, 0.0, 0.0, 0.0, 0.0, 0.0, 0.0, 0.0, 0.0, 0.0, 1.666403613013114E9, 0.0, 2022-10-21 18:53:33.013
143.0, -111230.70701726759, -149601.58909578194, -74131.75095698249, -131886.55756551714, 44587.125728979794, -73656.86579428504, 36693.02602923227, -118053.2193843388, 0.036000000000000004, 0.962, 0.02, 192.0, 1.0, 32.0, 30.0, 16.0, 0.0, 160.0, 0.0, 0.0, 0.0, 1.666403613013127E9, 0.0, 2022-10-21 18:53:33.013
144.0, -111241.14528192823, -149612.45204358723, -74141.33985535381, -131881.2378503368, 44581.58249635488, -73653.60243959457, 36696.267032178286, -118063.12120713248, 0.036000000000000004, 0.962, 0.02, 192.0, 0.0, 0.0, 0.0, 0.0, 0.0, 0.0, 0.0, 0.0, 0.0, 1.666403613013142E9, 0.0, 2022-10-21 18:53:33.013
145.0, -111270.09079099784, -149638.42477064428, -74166.08323646584, -131911.54681581818, 44551.60880704031, -73651.09904421557, 36696.065866478195, -118095.86651275952, 0.036000000000000004, 0.962, 0.02, 192.0, 0.0, 0.0, 0.0, 0.0, 0.0, 0.0, 0.0, 0.0, 0.0, 1.6664036130131552E9, 0.0, 2022-10-21 18:53:33.013
146.0, -111268.05678225242, -149633.99912524215, -74153.61096305978, -131915.8383507536, 44555.319196619894, -73653.5800878501, 36692.78016004326, -118087.86458824451, 0.036000000000000004, 0.962, 0.02, 192.0, 0.0, 0.0, 0.0, 0.0, 0.0, 0.0, 0.0, 0.0, 0.0, 1.6664036130131683E9, 0.0, 2022-10-21 18:53:33.013
147.0, -111252.14234020024, -149616.318895378, -74142.18922164312, -131902.53906280268, 44573.93819975117, -73660.64323909799, 36686.901651251515, -118059.5672797641, 0.036000000000000004, 0.962, 0.02, 192.0, 0.0, 0.0, 0.0, 0.0, 0.0, 0.0, 0.0, 0.0, 0.0, 1.6664036130131817E9, 0.0, 2022-10-21 18:53:33.013
148.0, -111256.94796525812, -149622.82325301447, -74151.04051244742, -131901.42147557993, 44562.181182167675, -73657.5810501076, 36687.86277626309, -118072.66540201491, 0.036000000000000004, 0.962, 0.02, 192.0, 0.0, 0.0, 0.0, 0.0, 0.0, 0.0, 0.0, 0.0, 0.0, 1.6664036130131953E9, 0.0, 2022-10-21 18:53:33.013
149.0, -111261.37361066027, -149625.25959316012, -74138.97057044155, -131898.85102496756, 44559.946007722145, -73654.8317855396, 36699.351572913125, -118071.90544270343, 0.036000000000000004, 0.962, 0.02, 192.0, 0.0, 0.0, 0.0, 0.0, 0.0, 0.0, 0.0, 0.0, 0.0, 1.6664036130132084E9, 0.0, 2022-10-21 18:53:33.013
150.0, -111268.0120787635, -149633.35092465294, -74149.81116650238, -131908.84225473908, 44555.98974895355, -73651.59078259359, 36701.92202352548, -118072.44188457035, 0.036000000000000004, 0.962, 0.02, 192.0, 0.0, 0.0, 0.0, 0.0, 0.0, 0.0, 0.0, 0.0, 0.0, 1.6664036130132215E9, 0.0, 2022-10-21 18:53:33.013
151.0, -111270.64958460923, -149630.93693625176, -74157.72368403956, -131917.24651065428, 44555.52036231999, -73671.21561422535, 36678.8103197587, -118066.38456182297, 0.036000000000000004, 0.962, 0.02, 192.0, 0.0, 0.0, 0.0, 0.0, 0.0, 0.0, 0.0, 0.0, 0.0, 1.6664036130132484E9, 0.0, 2022-10-21 18:53:33.013
152.0, -111293.62717790928, -149642.04575324606, -74148.13478566824, -131908.19405414988, 44563.54463857945, -73673.62960262652, 36679.570279070176, -118061.33306757607, 0.036000000000000004, 0.962, 0.02, 192.0, 0.0, 0.0, 0.0, 0.0, 0.0, 0.0, 0.0, 0.0, 0.0, 1.6664036130132623E9, 0.0, 2022-10-21 18:53:33.013
153.0, -111295.63883491026, -149658.78720984308, -74146.88308797874, -131910.89861522897, 44557.59907455434, -73649.02033198123, 36703.79957005973, -118079.05800092913, 0.036000000000000004, 0.962, 0.012, 192.0, 1.0, 32.0, 30.0, 16.0, 0.0, 96.0, 0.0, 0.0, 0.0, 1.666403613013276E9, 0.0, 2022-10-21 18:53:33.013
154.0, -111286.2734539835, -149644.4150381583, -74137.98709368553, -131908.86460648355, 44568.41731887071, -73643.54415458968, 36711.62268061908, -118057.48856752976, 0.036000000000000004, 0.962, 0.012, 192.0, 0.0, 0.0, 0.0, 0.0, 0.0, 0.0, 0.0, 0.0, 0.0, 1.6664036130132904E9, 0.0, 2022-10-21 18:53:33.013
155.0, -111274.62819512228, -149637.10601772144, -74126.29713133539, -131902.15908314695, 44581.69425507716, -73656.12818671801, 36696.66936357848, -118040.45653825482, 0.036000000000000004, 0.962, 0.012, 192.0, 0.0, 0.0, 0.0, 0.0, 0.0, 0.0, 0.0, 0.0, 0.0, 1.6664036130133045E9, 0.0, 2022-10-21 18:53:33.013
156.0, -111280.17142774719, -149641.2634421901, -74129.2475616035, -131895.65472551045, 44581.62719984379, -73671.55089039217, 36679.36911337008, -118055.67807622887, 0.036000000000000004, 0.962, 0.012, 192.0, 0.0, 0.0, 0.0, 0.0, 0.0, 0.0, 0.0, 0.0, 0.0, 1.6664036130133238E9, 0.0, 2022-10-21 18:53:33.013
157.0, -111296.30938724392, -149649.2206632162, -74140.78106174244, -131889.61975450753, 44577.559182352925, -73657.51399487424, 36692.489587365344, -118062.45065479883, 0.036000000000000004, 0.962, 0.012, 192.0, 0.0, 0.0, 0.0, 0.0, 0.0, 0.0, 0.0, 0.0, 0.0, 1.6664036130133376E9, 0.0, 2022-10-21 18:53:33.013
158.0, -111318.66113169923, -149673.2264367612, -74148.44771009061, -131915.54777807568, 44564.50576359103, -73654.40710239495, 36693.160139699, -118070.27376535819, 0.036000000000000004, 0.962, 0.012, 192.0, 0.0, 0.0, 0.0, 0.0, 0.0, 0.0, 0.0, 0.0, 0.0, 1.6664036130133507E9, 0.0, 2022-10-21 18:53:33.013
159.0, -111325.52311724701, -149679.37316648642, -74152.49337583702, -131920.5769205781, 44568.77494678199, -73667.1923002234, 36676.26222089079, -118071.27959385868, 0.036000000000000004, 0.962, 0.012, 192.0, 0.0, 0.0, 0.0, 0.0, 0.0, 0.0, 0.0, 0.0, 0.0, 1.6664036130133643E9, 0.0, 2022-10-21 18:53:33.013
160.0, -111328.09356785937, -149689.74437591367, -74163.46808236458, -131928.42238288192, 44558.78371701047, -73675.41774218294, 36660.07955790515, -118069.64791651344, 0.036000000000000004, 0.962, 0.012, 192.0, 0.0, 0.0, 0.0, 0.0, 0.0, 0.0, 0.0, 0.0, 0.0, 1.666403613013378E9, 0.0, 2022-10-21 18:53:33.013
161.0, -111319.9798846221, -149672.578236172, -74131.77330872694, -131900.57210929063, 44576.44159513016, -73661.2914396872, 36676.93277322445, -118055.92394541789, 0.036000000000000004, 0.962, 0.012, 192.0, 0.0, 0.0, 0.0, 0.0, 0.0, 0.0, 0.0, 0.0, 0.0, 1.666403613013391E9, 0.0, 2022-10-21 18:53:33.013
162.0, -111335.02260864052, -149687.03981483457, -74138.05414891889, -131899.40981857895, 44570.94306599416, -73638.47030859832, 36698.81513104619, -118069.22323336879, 0.036000000000000004, 0.962, 0.012, 192.0, 0.0, 0.0, 0.0, 0.0, 0.0, 0.0, 0.0, 0.0, 0.0, 1.6664036130134044E9, 0.0, 2022-10-21 18:53:33.013
163.0, -111379.27906266203, -149733.82201597953, -74178.84608254982, -131944.98502552332, 44538.04129815594, -73671.66264911446, 36658.55963928218, -118112.65267284545, 0.036000000000000004, 0.962, 0.006, 192.0, 1.0, 32.0, 30.0, 16.0, 0.0, 48.0, 0.0, 0.0, 0.0, 1.6664036130134175E9, 0.0, 2022-10-21 18:53:33.013
164.0, -111380.17313244024, -149736.839501481, -74179.22606220556, -131956.18324949543, 44530.776981207964, -73697.61302442706, 36630.64231045751, -118107.8246960431, 0.036000000000000004, 0.962, 0.006, 192.0, 0.0, 0.0, 0.0, 0.0, 0.0, 0.0, 0.0, 0.0, 0.0, 1.666403613013432E9, 0.0, 2022-10-21 18:53:33.013
165.0, -111358.67075427422, -149705.32354179904, -74143.41856758816, -131924.39906887998, 44560.97418796709, -73677.40704743947, 36660.906572449996, -118064.10468388852, 0.036000000000000004, 0.962, 0.006, 192.0, 0.0, 0.0, 0.0, 0.0, 0.0, 0.0, 0.0, 0.0, 0.0, 1.6664036130134456E9, 0.0, 2022-10-21 18:53:33.013
166.0, -111331.26751557202, -149684.31290201104, -74112.05907011736, -131887.7869114622, 44589.58442086988, -73642.22540166682, 36702.43611364796, -118043.18345107835, 0.036000000000000004, 0.962, 0.006, 192.0, 0.0, 0.0, 0.0, 0.0, 0.0, 0.0, 0.0, 0.0, 0.0, 1.6664036130134716E9, 0.0, 2022-10-21 18:53:33.013
167.0, -111344.94678317868, -149695.64523644987, -74125.15719236818, -131902.60611803606, 44579.168507953706, -73647.94744824737, 36691.95314549842, -118058.60615475252, 0.036000000000000004, 0.962, 0.006, 192.0, 0.0, 0.0, 0.0, 0.0, 0.0, 0.0, 0.0, 0.0, 0.0, 1.6664036130134869E9, 0.0, 2022-10-21 18:53:33.013
168.0, -111355.4297513282, -149705.85998366596, -74134.7460907395, -131916.2406821538, 44572.798260783944, -73666.90172754547, 36664.192278884926, -118071.12313164749, 0.036000000000000004, 0.962, 0.006, 192.0, 0.0, 0.0, 0.0, 0.0, 0.0, 0.0, 0.0, 0.0, 0.0, 1.6664036130135E9, 0.0, 2022-10-21 18:53:33.013
169.0, -111365.57744331092, -149718.39931230538, -74148.13478566824, -131914.20667340836, 44568.17144968169, -73656.6869803294, 36669.89197372102, -118075.25820437173, 0.036000000000000004, 0.962, 0.006, 192.0, 0.0, 0.0, 0.0, 0.0, 0.0, 0.0, 0.0, 0.0, 0.0, 1.6664036130135145E9, 0.0, 2022-10-21 18:53:33.013
170.0, -111354.42392282771, -149708.07280636704, -74144.51380306647, -131905.89182447098, 44571.01012122752, -73646.96397149134, 36684.33120063916, -118069.11147464652, 0.036000000000000004, 0.962, 0.006, 192.0, 0.0, 0.0, 0.0, 0.0, 0.0, 0.0, 0.0, 0.0, 0.0, 1.6664036130135276E9, 0.0, 2022-10-21 18:53:33.013
171.0, -111355.3850478393, -149711.2914575686, -74136.1989541291, -131900.01331567924, 44580.01787424301, -73658.16219546345, 36676.84336624663, -118050.44776802634, 0.036000000000000004, 0.962, 0.006, 192.0, 0.0, 0.0, 0.0, 0.0, 0.0, 0.0, 0.0, 0.0, 0.0, 1.6664036130135405E9, 0.0, 2022-10-21 18:53:33.013
172.0, -111354.62508852781, -149709.8832976679, -74149.23002114655, -131923.05796421267, 44567.52324909249, -73677.92113756193, 36650.468307789364, -118064.8199397111, 0.032, 0.964, 0.004, 192.0, 1.0, 0.0, 30.0, 32.0, 0.0, 32.0, 0.0, 0.0, 0.0, 1.6664036130135536E9, 0.0, 2022-10-21 18:53:33.013
173.0, -111353.01576292704, -149707.67047496684, -74149.87822173575, -131924.644938069, 44564.975150224585, -73684.78312310972, 36644.43333678643, -118070.34082059156, 0.032, 0.964, 0.004, 192.0, 0.0, 0.0, 0.0, 0.0, 0.0, 0.0, 0.0, 0.0, 0.0, 1.6664036130135677E9, 0.0, 2022-10-21 18:53:33.013
174.0, -111374.92047249324, -149729.3516670885, -74165.12211145427, -131942.32516793313, 44546.66907151569, -73675.73066660532, 36652.21174385688, -118097.58759708257, 0.032, 0.964, 0.004, 192.0, 0.0, 0.0, 0.0, 0.0, 0.0, 0.0, 0.0, 0.0, 0.0, 1.6664036130135808E9, 0.0, 2022-10-21 18:53:33.013
175.0, -111364.95159446617, -149719.5839547615, -74152.29221013692, -131931.4398683834, 44557.710833276615, -73679.41870444044, 36651.69765373441, -118082.61192829751, 0.032, 0.964, 0.004, 192.0, 0.0, 0.0, 0.0, 0.0, 0.0, 0.0, 0.0, 0.0, 0.0, 1.6664036130135937E9, 0.0, 2022-10-21 18:53:33.013
176.0, -111334.28500107348, -149691.57721895902, -74129.00169241449, -131909.95984196186, 44585.8740312903, -73674.27780321572, 36653.37403456856, -118055.92394541789, 0.032, 0.964, 0.004, 192.0, 0.0, 0.0, 0.0, 0.0, 0.0, 0.0, 0.0, 0.0, 0.0, 1.6664036130136068E9, 0.0, 2022-10-21 18:53:33.013
177.0, -111330.79812893846, -149688.42562299082, -74131.41568081567, -131918.96759497735, 44581.761310310525, -73683.08439053112, 36642.46638327437, -118055.05222738412, 0.032, 0.964, 0.004, 192.0, 0.0, 0.0, 0.0, 0.0, 0.0, 0.0, 0.0, 0.0, 0.0, 1.666403613013621E9, 0.0, 2022-10-21 18:53:33.013
178.0, -111333.30152431746, -149686.0339863341, -74133.27087560545, -131899.4321703234, 44583.01300800002, -73657.62575359653, 36667.85796497559, -118048.4137592809, 0.032, 0.964, 0.004, 192.0, 0.0, 0.0, 0.0, 0.0, 0.0, 0.0, 0.0, 0.0, 0.0, 1.6664036130136344E9, 0.0, 2022-10-21 18:53:33.013
179.0, -111320.89630614476, -149673.27114025012, -74120.21745684356, -131894.35832433205, 44593.4736244051, -73635.11754693002, 36687.57220358517, -118046.17858483538, 0.032, 0.964, 0.004, 192.0, 0.0, 0.0, 0.0, 0.0, 0.0, 0.0, 0.0, 0.0, 0.0, 1.6664036130136476E9, 0.0, 2022-10-21 18:53:33.013
180.0, -111311.08389032888, -149667.81731460302, -74123.12318362274, -131910.49628382878, 44592.13251973779, -73655.21176519534, 36663.83465097364, -118034.73449167426, 0.032, 0.964, 0.004, 192.0, 0.0, 0.0, 0.0, 0.0, 0.0, 0.0, 0.0, 0.0, 0.0, 1.666403613013661E9, 0.0, 2022-10-21 18:53:33.013
181.0, -111319.3763875218, -149675.0369280621, -74135.23782911753, -131901.04149592418, 44579.19085969816, -73670.09802700258, 36640.92411290695, -118064.90934668892, 0.032, 0.964, 0.004, 192.0, 0.0, 0.0, 0.0, 0.0, 0.0, 0.0, 0.0, 0.0, 0.0, 1.6664036130136883E9, 0.0, 2022-10-21 18:53:33.013
182.0, -111354.24510887207, -149710.35268430147, -74168.43016963365, -131931.1492957055, 44542.98103368057, -73670.3438961916, 36638.35366229459, -118109.2775594327, 0.032, 0.9560000000000001, 0.012, 192.0, 1.0, 0.0, 29.0, 224.0, 0.0, 96.0, 0.0, 0.0, 0.0, 1.6664036130137024E9, 0.0, 2022-10-21 18:53:33.013
183.0, -111354.9827164391, -149710.06211162356, -74185.41749541968, -131953.52339190524, 44533.928577176164, -73656.84344254059, 36651.72000547886, -118104.62839658599, 0.032, 0.9560000000000001, 0.012, 192.0, 0.0, 0.0, 0.0, 0.0, 0.0, 0.0, 0.0, 0.0, 0.0, 1.6664036130137165E9, 0.0, 2022-10-21 18:53:33.013
184.0, -111315.44248049766, -149668.35375646994, -74145.40787284469, -131934.9937957518, 44570.96541773861, -73674.52367240473, 36637.50429600529, -118064.88699494446, 0.032, 0.9560000000000001, 0.012, 192.0, 0.0, 0.0, 0.0, 0.0, 0.0, 0.0, 0.0, 0.0, 0.0, 1.6664036130137303E9, 0.0, 2022-10-21 18:53:33.013
185.0, -111291.66022439722, -149647.63368935988, -74106.80641017036, -131906.5847285491, 44602.34726695386, -73674.85894857156, 36641.23703732932, -118029.59359044953, 0.032, 0.9560000000000001, 0.012, 192.0, 0.0, 0.0, 0.0, 0.0, 0.0, 0.0, 0.0, 0.0, 0.0, 1.666403613013744E9, 0.0, 2022-10-21 18:53:33.013
186.0, -111301.45028846864, -149652.3722591844, -74115.32242480785, -131898.13576914498, 44598.033380273984, -73653.9824192503, 36656.92796193695, -118047.9667243918, 0.032, 0.9560000000000001, 0.012, 192.0, 0.0, 0.0, 0.0, 0.0, 0.0, 0.0, 0.0, 0.0, 0.0, 1.6664036130137575E9, 0.0, 2022-10-21 18:53:33.013
187.0, -111297.4716779556, -149647.94661378226, -74114.54011375191, -131897.73343774478, 44600.02268553051, -73619.51602930023, 36687.21457567389, -118048.95020114783, 0.032, 0.9560000000000001, 0.012, 192.0, 0.0, 0.0, 0.0, 0.0, 0.0, 0.0, 0.0, 0.0, 0.0, 1.6664036130137706E9, 0.0, 2022-10-21 18:53:33.013
188.0, -111300.93619834617, -149649.310070194, -74119.97158765455, -131908.39521984998, 44595.64174361727, -73637.48683184228, 36668.863793476085, -118051.610058738, 0.032, 0.9560000000000001, 0.012, 192.0, 0.0, 0.0, 0.0, 0.0, 0.0, 0.0, 0.0, 0.0, 0.0, 1.666403613013784E9, 0.0, 2022-10-21 18:53:33.013
189.0, -111302.34435824686, -149657.51316040911, -74122.58674175582, -131909.28928962818, 44595.038246516975, -73663.92894553291, 36642.17581059645, -118053.33114306106, 0.032, 0.9560000000000001, 0.012, 192.0, 0.0, 0.0, 0.0, 0.0, 0.0, 0.0, 0.0, 0.0, 0.0, 1.6664036130137973E9, 0.0, 2022-10-21 18:53:33.013
190.0, -111298.63396866727, -149647.09724749296, -74119.90453242118, -131911.54681581818, 44591.752540082045, -73652.97659074982, 36651.72000547886, -118047.58674473605, 0.032, 0.9560000000000001, 0.012, 192.0, 0.0, 0.0, 0.0, 0.0, 0.0, 0.0, 0.0, 0.0, 0.0, 1.6664036130138109E9, 0.0, 2022-10-21 18:53:33.013
191.0, -111313.85550664134, -149662.6317098894, -74140.55754429789, -131926.81305728116, 44567.858525259326, -73625.95333170335, 36671.18837489944, -118062.38359956547, 0.032, 0.9560000000000001, 0.012, 192.0, 0.0, 0.0, 0.0, 0.0, 0.0, 0.0, 0.0, 0.0, 0.0, 1.6664036130138247E9, 0.0, 2022-10-21 18:53:33.013
192.0, -111317.85646889884, -149667.4820384362, -74151.24167814752, -131946.5943511241, 44557.375557109786, -73659.72681757531, 36641.527610007244, -118087.41755335541, 0.032, 0.964, 0.012, 192.0, 1.0, 0.0, 30.0, 32.0, 0.0, 96.0, 0.0, 0.0, 0.0, 1.666403613013838E9, 0.0, 2022-10-21 18:53:33.013
193.0, -111293.44836395365, -149641.30814567904, -74123.25729408948, -131921.91802524545, 44587.01397025752, -73677.29528871719, 36631.37991802453, -118060.12607337548, 0.032, 0.964, 0.012, 192.0, 0.0, 0.0, 0.0, 0.0, 0.0, 0.0, 0.0, 0.0, 0.0, 1.666403613013852E9, 0.0, 2022-10-21 18:53:33.013
194.0, -111291.48141044157, -149638.7153433222, -74119.43514578762, -131906.29415587118, 44592.8254238159, -73666.96878277884, 36641.68407221843, -118052.19120409385, 0.032, 0.964, 0.012, 192.0, 0.0, 0.0, 0.0, 0.0, 0.0, 0.0, 0.0, 0.0, 0.0, 1.6664036130138676E9, 0.0, 2022-10-21 18:53:33.013
195.0, -111288.64273889575, -149639.43059914478, -74116.28354981942, -131903.58959479208, 44596.155833739744, -73644.48292785679, 36664.326389351656, -118055.38750355096, 0.032, 0.964, 0.012, 192.0, 0.0, 0.0, 0.0, 0.0, 0.0, 0.0, 0.0, 0.0, 0.0, 1.6664036130138812E9, 0.0, 2022-10-21 18:53:33.013
196.0, -111291.23554125256, -149640.54818636755, -74116.70823296407, -131910.09395242858, 44594.65826686123, -73653.35657040555, 36653.57520026865, -118056.66155298491, 0.032, 0.964, 0.012, 192.0, 0.0, 0.0, 0.0, 0.0, 0.0, 0.0, 0.0, 0.0, 0.0, 1.6664036130139065E9, 0.0, 2022-10-21 18:53:33.013
197.0, -111285.33468071636, -149636.30135492104, -74107.1863898261, -131901.60028953556, 44605.34240071087, -73655.97172450683, 36644.67920597544, -118044.54690749013, 0.032, 0.964, 0.012, 192.0, 0.0, 0.0, 0.0, 0.0, 0.0, 0.0, 0.0, 0.0, 0.0, 1.6664036130139196E9, 0.0, 2022-10-21 18:53:33.013
198.0, -111269.84492180884, -149623.73967453715, -74104.88416014721, -131900.79562673517, 44605.320048966416, -73664.21951821084, 36638.95715939488, -118034.04158759613, 0.032, 0.964, 0.012, 192.0, 0.0, 0.0, 0.0, 0.0, 0.0, 0.0, 0.0, 0.0, 0.0, 1.6664036130139344E9, 0.0, 2022-10-21 18:53:33.013
199.0, -111280.48435216956, -149632.18863394126, -74119.27868357643, -131912.99967920777, 44589.13738598077, -73660.59853560908, 36645.26035133128, -118053.73347446126, 0.032, 0.964, 0.012, 192.0, 0.0, 0.0, 0.0, 0.0, 0.0, 0.0, 0.0, 0.0, 0.0, 1.6664036130139475E9, 0.0, 2022-10-21 18:53:33.013
200.0, -111286.78754410596, -149639.02826774458, -74112.43904977311, -131915.9277577314, 44592.15487148224, -73646.67339881342, 36654.87160144706, -118061.24366059825, 0.032, 0.964, 0.012, 192.0, 0.0, 0.0, 0.0, 0.0, 0.0, 0.0, 0.0, 0.0, 0.0, 1.666403613013961E9, 0.0, 2022-10-21 18:53:33.013
201.0, -111295.63883491026, -149639.65411658934, -74119.70336672108, -131924.10849620207, 44594.03241801649, -73664.35362867756, 36630.3964412685, -118058.04736114114, 0.032, 0.964, 0.012, 192.0, 0.0, 0.0, 0.0, 0.0, 0.0, 0.0, 0.0, 0.0, 0.0, 1.6664036130139744E9, 0.0, 2022-10-21 18:53:33.013
202.0, -111300.98090183508, -149643.3645061689, -74116.55177075288, -131920.71103104486, 44592.803072071445, -73666.00765776726, 36625.07672608813, -118056.48273902926, 0.04, 0.966, 0.006, 192.0, 1.0, 64.0, 30.0, 48.0, 0.0, 48.0, 0.0, 0.0, 0.0, 1.6664036130139875E9, 0.0, 2022-10-21 18:53:33.013
203.0, -111293.71658488711, -149645.9573085257, -74120.06099463237, -131915.7265920313, 44586.76810106851, -73646.02519822422, 36645.59562749811, -118058.2708785857, 0.04, 0.966, 0.006, 192.0, 0.0, 0.0, 0.0, 0.0, 0.0, 0.0, 0.0, 0.0, 0.0, 1.6664036130140016E9, 0.0, 2022-10-21 18:53:33.014
204.0, -111288.8215528514, -149634.35675315344, -74112.08142186182, -131908.9316617169, 44596.75933084003, -73635.2293056523, 36659.09608114912, -118060.05901814211, 0.04, 0.966, 0.006, 192.0, 0.0, 0.0, 0.0, 0.0, 0.0, 0.0, 0.0, 0.0, 0.0, 1.666403613014016E9, 0.0, 2022-10-21 18:53:33.014
205.0, -111282.3618987038, -149638.53652936657, -74125.69363423511, -131929.96465324936, 44584.33176092288, -73663.48191064381, 36627.602473211584, -118081.18141665238, 0.04, 0.966, 0.006, 192.0, 0.0, 0.0, 0.0, 0.0, 0.0, 0.0, 0.0, 0.0, 0.0, 1.666403613014028E9, 0.0, 2022-10-21 18:53:33.014
206.0, -111264.03346825046, -149617.03415120055, -74096.3904972542, -131907.07646692713, 44609.07514203491, -73673.36138169306, 36625.25554004378, -118042.5128987447, 0.04, 0.966, 0.006, 192.0, 0.0, 0.0, 0.0, 0.0, 0.0, 0.0, 0.0, 0.0, 0.0, 1.66640361301404E9, 0.0, 2022-10-21 18:53:33.014
207.0, -111251.53884309994, -149603.2654766161, -74079.51493019045, -131878.42153053542, 44627.470627721625, -73660.21855595334, 36647.4508222879, -118019.8035263781, 0.04, 0.966, 0.006, 192.0, 0.0, 0.0, 0.0, 0.0, 0.0, 0.0, 0.0, 0.0, 0.0, 1.666403613014052E9, 0.0, 2022-10-21 18:53:33.014
208.0, -111269.04025900844, -149625.12548269337, -74097.41867749914, -131893.82188246513, 44616.27240374951, -73649.48971861479, 36654.15634562449, -118036.14265157493, 0.04, 0.966, 0.006, 192.0, 0.0, 0.0, 0.0, 0.0, 0.0, 0.0, 0.0, 0.0, 0.0, 1.6664036130140638E9, 0.0, 2022-10-21 18:53:33.014
209.0, -111261.32890717137, -149610.59684879743, -74089.08147681731, -131891.4302458084, 44621.189787529685, -73651.36726514903, 36643.36045305258, -118042.82582316708, 0.04, 0.966, 0.006, 192.0, 0.0, 0.0, 0.0, 0.0, 0.0, 0.0, 0.0, 0.0, 0.0, 1.6664036130140758E9, 0.0, 2022-10-21 18:53:33.014
210.0, -111264.65931709521, -149609.14398540783, -74090.86961637373, -131897.95695518935, 44617.65821190575, -73668.98043977981, 36622.95331036488, -118030.19708754982, 0.04, 0.966, 0.006, 192.0, 0.0, 0.0, 0.0, 0.0, 0.0, 0.0, 0.0, 0.0, 0.0, 1.666403613014088E9, 0.0, 2022-10-21 18:53:33.014
211.0, -111279.54557890244, -149628.76881703958, -74106.91816889265, -131904.14838840347, 44605.47651117761, -73670.67917235842, 36622.52862722023, -118054.113454117, 0.038, 0.962, 0.01, 192.0, 1.0, 48.0, 30.0, 16.0, 0.0, 80.0, 0.0, 0.0, 0.0, 1.6664036130141103E9, 0.0, 2022-10-21 18:53:33.014
212.0, -111296.17527677718, -149645.9126050368, -74122.16205861117, -131921.3815833785, 44589.13738598077, -73662.16315772095, 36629.88235114603, -118072.17366363689, 0.038, 0.962, 0.01, 192.0, 0.0, 0.0, 0.0, 0.0, 0.0, 0.0, 0.0, 0.0, 0.0, 1.6664036130141232E9, 0.0, 2022-10-21 18:53:33.014
213.0, -111300.53386694597, -149646.314936437, -74128.37584356974, -131935.66434808544, 44583.79531905596, -73677.74232360629, 36613.47617071583, -118073.87239621549, 0.038, 0.962, 0.01, 192.0, 0.0, 0.0, 0.0, 0.0, 0.0, 0.0, 0.0, 0.0, 0.0, 1.6664036130141356E9, 0.0, 2022-10-21 18:53:33.014
214.0, -111285.9158260722, -149634.22264268668, -74114.741279452, -131927.66242357047, 44592.08781624887, -73685.61013765457, 36605.40719096747, -118060.70721873132, 0.038, 0.962, 0.01, 192.0, 0.0, 0.0, 0.0, 0.0, 0.0, 0.0, 0.0, 0.0, 0.0, 1.666403613014148E9, 0.0, 2022-10-21 18:53:33.014
215.0, -111269.64375610874, -149617.25766864512, -74097.73160192152, -131904.77423724823, 44605.43180768869, -73664.53244263321, 36630.03881335721, -118041.2612010552, 0.038, 0.962, 0.01, 192.0, 0.0, 0.0, 0.0, 0.0, 0.0, 0.0, 0.0, 0.0, 0.0, 1.6664036130141597E9, 0.0, 2022-10-21 18:53:33.014
216.0, -111253.17052044517, -149601.3655783374, -74085.10286630427, -131883.9871149048, 44624.676659664714, -73652.6860180719, 36648.38959555502, -118034.51097422969, 0.038, 0.962, 0.01, 192.0, 0.0, 0.0, 0.0, 0.0, 0.0, 0.0, 0.0, 0.0, 0.0, 1.6664036130141716E9, 0.0, 2022-10-21 18:53:33.014
217.0, -111261.70888682711, -149611.58032555346, -74103.07366884634, -131906.29415587118, 44614.685429893194, -73666.1864717229, 36630.01646161276, -118050.38071279296, 0.038, 0.962, 0.01, 192.0, 0.0, 0.0, 0.0, 0.0, 0.0, 0.0, 0.0, 0.0, 0.0, 1.6664036130141835E9, 0.0, 2022-10-21 18:53:33.014
218.0, -111266.73802932954, -149615.3130668775, -74098.69272693309, -131911.77033326274, 44613.858415348346, -73679.32929746262, 36611.55392069268, -118049.8666226705, 0.038, 0.962, 0.01, 192.0, 0.0, 0.0, 0.0, 0.0, 0.0, 0.0, 0.0, 0.0, 0.0, 1.6664036130141957E9, 0.0, 2022-10-21 18:53:33.014
219.0, -111272.25891021002, -149616.34124712244, -74095.80935189837, -131898.00165867826, 44616.3841624718, -73664.8900705445, 36624.96496736586, -118048.27964881416, 0.038, 0.962, 0.01, 192.0, 0.0, 0.0, 0.0, 0.0, 0.0, 0.0, 0.0, 0.0, 0.0, 1.6664036130142076E9, 0.0, 2022-10-21 18:53:33.014
220.0, -111281.6689946257, -149627.56182283902, -74104.88416014721, -131895.65472551045, 44611.176206013704, -73653.7812535502, 36637.52664774974, -118056.66155298491, 0.038, 0.962, 0.01, 192.0, 0.0, 0.0, 0.0, 0.0, 0.0, 0.0, 0.0, 0.0, 0.0, 1.6664036130142205E9, 0.0, 2022-10-21 18:53:33.014
221.0, -111300.89149485726, -149645.5102736366, -74128.57700926984, -131931.97631025032, 44589.07033074741, -73677.00471603927, 36615.95721435037, -118077.20280613934, 0.036000000000000004, 0.964, 0.02, 192.0, 1.0, 32.0, 30.0, 32.0, 0.0, 160.0, 0.0, 0.0, 0.0, 1.6664036130142324E9, 0.0, 2022-10-21 18:53:33.014
222.0, -111263.09469498333, -149607.5123080626, -74091.54016870739, -131901.35442034656, 44622.441485219184, -73660.19620420889, 36630.5976069686, -118039.65187545442, 0.036000000000000004, 0.964, 0.02, 192.0, 0.0, 0.0, 0.0, 0.0, 0.0, 0.0, 0.0, 0.0, 0.0, 1.666403613014245E9, 0.0, 2022-10-21 18:53:33.014
223.0, -111275.94694804514, -149623.73967453715, -74104.37007002474, -131908.66344078345, 44608.181072256695, -73667.32641069012, 36618.661775429464, -118054.9181169174, 0.036000000000000004, 0.964, 0.02, 192.0, 0.0, 0.0, 0.0, 0.0, 0.0, 0.0, 0.0, 0.0, 0.0, 1.666403613014257E9, 0.0, 2022-10-21 18:53:33.014
224.0, -111265.66514559569, -149616.85533724492, -74095.96581410954, -131896.12411214403, 44614.908947337746, -73658.74334081929, 36629.234150556826, -118049.0619598701, 0.036000000000000004, 0.964, 0.02, 192.0, 0.0, 0.0, 0.0, 0.0, 0.0, 0.0, 0.0, 0.0, 0.0, 1.6664036130142689E9, 0.0, 2022-10-21 18:53:33.014
225.0, -111269.93432878666, -149621.16922392478, -74106.91816889265, -131899.05219066766, 44614.059581048445, -73654.34004716159, 36631.804601169184, -118049.19607033684, 0.036000000000000004, 0.964, 0.02, 192.0, 0.0, 0.0, 0.0, 0.0, 0.0, 0.0, 0.0, 0.0, 0.0, 1.6664036130142815E9, 0.0, 2022-10-21 18:53:33.014
226.0, -111298.03047156698, -149648.59481437146, -74137.51770705196, -131937.60894985308, 44580.75548181003, -73685.45367544338, 36594.00780129526, -118080.98025095229, 0.036000000000000004, 0.964, 0.02, 192.0, 0.0, 0.0, 0.0, 0.0, 0.0, 0.0, 0.0, 0.0, 0.0, 1.666403613014304E9, 0.0, 2022-10-21 18:53:33.014
227.0, -111296.19762852165, -149641.12933172338, -74124.95602666808, -131920.5322170892, 44590.702008092645, -73690.28165224573, 36592.018496038734, -118068.84325371304, 0.036000000000000004, 0.964, 0.02, 192.0, 0.0, 0.0, 0.0, 0.0, 0.0, 0.0, 0.0, 0.0, 0.0, 1.666403613014316E9, 0.0, 2022-10-21 18:53:33.014
228.0, -111267.87796829677, -149623.73967453715, -74104.7947531694, -131890.91615568593, 44616.07123804942, -73648.64035232548, 36634.35270003709, -118048.99490463674, 0.036000000000000004, 0.964, 0.02, 192.0, 0.0, 0.0, 0.0, 0.0, 0.0, 0.0, 0.0, 0.0, 0.0, 1.6664036130143275E9, 0.0, 2022-10-21 18:53:33.014
229.0, -111261.73123857156, -149610.77566275306, -74090.44493322908, -131883.65183873795, 44631.02455509002, -73629.37314860501, 36653.262275846275, -118036.81320390859, 0.036000000000000004, 0.964, 0.02, 192.0, 0.0, 0.0, 0.0, 0.0, 0.0, 0.0, 0.0, 0.0, 0.0, 1.66640361301434E9, 0.0, 2022-10-21 18:53:33.014
230.0, -111260.65835483771, -149611.93795346475, -74089.48380821751, -131891.45259755285, 44631.02455509002, -73648.70740755885, 36633.32451979214, -118032.63342769546, 0.036000000000000004, 0.964, 0.02, 192.0, 0.0, 0.0, 0.0, 0.0, 0.0, 0.0, 0.0, 0.0, 0.0, 1.666403613014352E9, 0.0, 2022-10-21 18:53:33.014
231.0, -111270.94015728714, -149620.74454078014, -74098.04452634389, -131903.12020815854, 44618.41817121723, -73657.11166347405, 36619.4440864854, -118041.68588419985, 0.032, 0.9540000000000001, 0.03, 192.0, 1.0, 0.0, 29.0, 208.0, 0.0, 240.0, 0.0, 0.0, 0.0, 1.6664036130143635E9, 0.0, 2022-10-21 18:53:33.014
232.0, -111270.53782588695, -149619.64930530183, -74097.01634609894, -131904.37190584803, 44612.13733102528, -73638.11268068703, 36638.33131055014, -118041.4623667553, 0.032, 0.9540000000000001, 0.03, 192.0, 0.0, 0.0, 0.0, 0.0, 0.0, 0.0, 0.0, 0.0, 0.0, 1.666403613014376E9, 0.0, 2022-10-21 18:53:33.014
233.0, -111267.00625026302, -149615.35777036642, -74096.6363664432, -131898.15812088945, 44613.72430488161, -73632.77061376222, 36648.43429904393, -118037.93079113137, 0.032, 0.9540000000000001, 0.03, 192.0, 0.0, 0.0, 0.0, 0.0, 0.0, 0.0, 0.0, 0.0, 0.0, 1.666403613014388E9, 0.0, 2022-10-21 18:53:33.014
234.0, -111272.32596544338, -149619.35873262392, -74105.01827061395, -131905.9812314488, 44610.975040313606, -73640.01257896573, 36636.63257797153, -118046.42445402438, 0.032, 0.9540000000000001, 0.03, 192.0, 0.0, 0.0, 0.0, 0.0, 0.0, 0.0, 0.0, 0.0, 0.0, 1.6664036130144E9, 0.0, 2022-10-21 18:53:33.014
235.0, -111284.4629626826, -149631.04869497404, -74107.5887212263, -131914.09491468608, 44602.25785997604, -73663.54896587717, 36612.11271430406, -118054.13580586146, 0.032, 0.9540000000000001, 0.03, 192.0, 0.0, 0.0, 0.0, 0.0, 0.0, 0.0, 0.0, 0.0, 0.0, 1.6664036130144117E9, 0.0, 2022-10-21 18:53:33.014
236.0, -111287.54750341745, -149629.12644495087, -74110.82972417232, -131909.5798623061, 44601.72141810911, -73655.61409659554, 36624.07089758765, -118057.35445706302, 0.032, 0.9540000000000001, 0.03, 192.0, 0.0, 0.0, 0.0, 0.0, 0.0, 0.0, 0.0, 0.0, 0.0, 1.6664036130144236E9, 0.0, 2022-10-21 18:53:33.014
237.0, -111288.88860808476, -149630.13227345137, -74110.87442766124, -131908.0375919387, 44603.084874520886, -73631.76478526172, 36648.233133343834, -118064.90934668892, 0.032, 0.9540000000000001, 0.03, 192.0, 0.0, 0.0, 0.0, 0.0, 0.0, 0.0, 0.0, 0.0, 0.0, 1.6664036130144353E9, 0.0, 2022-10-21 18:53:33.014
238.0, -111275.96929978959, -149622.4656251032, -74100.36910776724, -131912.3291268741, 44612.78553161449, -73628.81435499364, 36650.602418256094, -118053.80052969464, 0.032, 0.9540000000000001, 0.03, 192.0, 0.0, 0.0, 0.0, 0.0, 0.0, 0.0, 0.0, 0.0, 0.0, 1.6664036130144472E9, 0.0, 2022-10-21 18:53:33.014
239.0, -111273.95764278862, -149619.38108436836, -74094.82587514233, -131906.71883901584, 44621.43565671869, -73638.00092196476, 36637.191371582914, -118047.29617205814, 0.032, 0.9540000000000001, 0.03, 192.0, 0.0, 0.0, 0.0, 0.0, 0.0, 0.0, 0.0, 0.0, 0.0, 1.666403613014459E9, 0.0, 2022-10-21 18:53:33.014
240.0, -111278.22682597958, -149622.08564544746, -74098.96094786655, -131900.08037091262, 44619.96044158464, -73632.36828236202, 36643.4498600304, -118044.90453540142, 0.03, 0.9560000000000001, 0.032, 192.0, 0.0, 240.0, 29.0, 224.0, 1.0, 0.0, 0.0, 0.0, 0.0, 1.6664036130144703E9, 0.0, 2022-10-21 18:53:33.014
241.0, -111275.25404396703, -149620.45396810223, -74099.43033450012, -131894.00069642076, 44622.15091254126, -73627.74147125977, 36654.938656680424, -118035.22623005227, 0.03, 0.9560000000000001, 0.032, 192.0, 0.0, 0.0, 0.0, 0.0, 0.0, 0.0, 0.0, 0.0, 0.0, 1.66640361349208E9, 0.0, 2022-10-21 18:53:33.492
242.0, -111272.4600759101, -149617.3694273674, -74091.11548556274, -131899.81214997915, 44624.542549197984, -73645.73462554629, 36640.65589197348, -118034.80154690762, 0.03, 0.9560000000000001, 0.032, 192.0, 0.0, 0.0, 0.0, 0.0, 0.0, 0.0, 0.0, 0.0, 0.0, 1.666403613492299E9, 0.0, 2022-10-21 18:53:33.492
243.0, -111282.33954695935, -149627.24889841664, -74090.93667160711, -131902.15908314695, 44624.25197652006, -73656.4858146293, 36625.90374063298, -118042.40114002243, 0.03, 0.9560000000000001, 0.032, 192.0, 0.0, 0.0, 0.0, 0.0, 0.0, 0.0, 0.0, 0.0, 0.0, 1.6664036134923234E9, 0.0, 2022-10-21 18:53:33.492
244.0, -111272.4153724212, -149616.78828201155, -74076.49744468897, -131881.34960905905, 44637.84183714889, -73641.62190456652, 36641.88523791853, -118028.18543054885, 0.03, 0.9560000000000001, 0.032, 192.0, 0.0, 0.0, 0.0, 0.0, 0.0, 0.0, 0.0, 0.0, 0.0, 1.666403613492346E9, 0.0, 2022-10-21 18:53:33.492
245.0, -111291.50376218602, -149627.76298853912, -74091.60722394077, -131887.67515273992, 44626.88948236579, -73624.34400610256, 36658.44788055991, -118040.72475918828, 0.03, 0.9560000000000001, 0.032, 192.0, 0.0, 0.0, 0.0, 0.0, 0.0, 0.0, 0.0, 0.0, 0.0, 1.6664036134923687E9, 0.0, 2022-10-21 18:53:33.492
246.0, -111284.32885221587, -149633.4179798863, -74099.81031415585, -131903.79076049218, 44617.59115667238, -73624.76868924721, 36658.805508471196, -118046.02212262418, 0.03, 0.9560000000000001, 0.032, 192.0, 0.0, 0.0, 0.0, 0.0, 0.0, 0.0, 0.0, 0.0, 0.0, 1.6664036134923909E9, 0.0, 2022-10-21 18:53:33.492
247.0, -111288.88860808476, -149638.69299157776, -74104.3924217692, -131914.385487364, 44616.227700260606, -73657.9833815078, 36626.01549935526, -118059.47787278627, 0.03, 0.9560000000000001, 0.032, 192.0, 0.0, 0.0, 0.0, 0.0, 0.0, 0.0, 0.0, 0.0, 0.0, 1.6664036134924128E9, 0.0, 2022-10-21 18:53:33.492
248.0, -111294.07421279838, -149643.811541058, -74107.92399739314, -131903.27667036973, 44617.38999097228, -73667.05818975666, 36617.65594692897, -118058.3155820746, 0.03, 0.9560000000000001, 0.032, 192.0, 0.0, 0.0, 0.0, 0.0, 0.0, 0.0, 0.0, 0.0, 0.0, 1.6664036134924352E9, 0.0, 2022-10-21 18:53:33.492
249.0, -111281.53488415896, -149629.14879669534, -74094.33413676432, -131884.81412944963, 44626.59890968787, -73647.14278544698, 36644.27687457525, -118047.47498601378, 0.03, 0.9560000000000001, 0.032, 192.0, 0.0, 0.0, 0.0, 0.0, 0.0, 0.0, 0.0, 0.0, 0.0, 1.6664036134924572E9, 0.0, 2022-10-21 18:53:33.492
250.0, -111280.55140740293, -149627.22654667217, -74097.93276762162, -131896.68290575538, 44618.99931657306, -73629.23903813829, 36661.39831082801, -118052.23590758276, 0.032, 0.9560000000000001, 0.024, 192.0, 1.0, 0.0, 29.0, 224.0, 0.0, 192.0, 0.0, 0.0, 0.0, 1.666403613492479E9, 0.0, 2022-10-21 18:53:33.492
251.0, -111283.94887256014, -149633.84266303096, -74104.28066304693, -131906.89765297147, 44613.92547058171, -73639.18556442088, 36645.90855192048, -118056.72860821827, 0.032, 0.9560000000000001, 0.024, 192.0, 0.0, 0.0, 0.0, 0.0, 0.0, 0.0, 0.0, 0.0, 0.0, 1.6664036134925034E9, 0.0, 2022-10-21 18:53:33.492
252.0, -111274.49408465554, -149625.41605537132, -74092.94832860808, -131897.28640285568, 44621.30154625196, -73654.09417797258, 36633.01159536977, -118043.63048596747, 0.032, 0.9560000000000001, 0.024, 192.0, 0.0, 0.0, 0.0, 0.0, 0.0, 0.0, 0.0, 0.0, 0.0, 1.6664036134925275E9, 0.0, 2022-10-21 18:53:33.492
253.0, -111274.00234627753, -149618.88934599035, -74089.08147681731, -131884.0318183937, 44624.27432826452, -73642.94065748938, 36648.38959555502, -118036.50027948622, 0.032, 0.9560000000000001, 0.024, 192.0, 0.0, 0.0, 0.0, 0.0, 0.0, 0.0, 0.0, 0.0, 0.0, 1.66640361349255E9, 0.0, 2022-10-21 18:53:33.492
254.0, -111274.65054686673, -149623.13617743686, -74087.76272389446, -131895.31944934363, 44620.65334566276, -73625.01455843623, 36665.80160448571, -118034.62273295198, 0.032, 0.9560000000000001, 0.024, 192.0, 0.0, 0.0, 0.0, 0.0, 0.0, 0.0, 0.0, 0.0, 0.0, 1.666403613492567E9, 0.0, 2022-10-21 18:53:33.492
255.0, -111274.00234627753, -149622.37621812537, -74083.87352035922, -131899.47687381232, 44623.894348608774, -73646.94161974688, 36643.427508285946, -118033.23692479574, 0.032, 0.9560000000000001, 0.024, 192.0, 0.0, 0.0, 0.0, 0.0, 0.0, 0.0, 0.0, 0.0, 0.0, 1.6664036134925804E9, 0.0, 2022-10-21 18:53:33.492
0.0, -111273.75647708852, -149622.37621812537, -74090.86961637373, -131895.45355981035, 44620.94391834068, -73655.72585531783, 36631.42462151344, -118041.99880862223, 0.032, 0.9560000000000001, 0.024, 192.0, 0.0, 0.0, 0.0, 0.0, 0.0, 0.0, 0.0, 0.0, 0.0, 1.6664036134926586E9, 0.0, 2022-10-21 18:53:33.492
1.0, -111291.28024474147, -149636.9719072547, -74108.77336368244, -131903.90251921446, 44604.31422046593, -73660.50912863125, 36632.63161571403, -118056.370980307, 0.032, 0.9560000000000001, 0.024, 192.0, 0.0, 0.0, 0.0, 0.0, 0.0, 0.0, 0.0, 0.0, 0.0, 1.6664036134926724E9, 0.0, 2022-10-21 18:53:33.492
2.0, -111285.4687911831, -149642.5598433685, -74111.65673871717, -131910.1833594064, 44601.16262449773, -73667.57227987912, 36631.51402849126, -118054.60519249502, 0.032, 0.9560000000000001, 0.024, 192.0, 0.0, 0.0, 0.0, 0.0, 0.0, 0.0, 0.0, 0.0, 0.0, 1.6664036134926865E9, 0.0, 2022-10-21 18:53:33.492
3.0, -111285.267625483, -149642.93982302427, -74106.58289272581, -131913.26790014125, 44606.95172631166, -73657.75986406325, 36633.63744421452, -118049.53134650366, 0.032, 0.9560000000000001, 0.024, 192.0, 0.0, 0.0, 0.0, 0.0, 0.0, 0.0, 0.0, 0.0, 0.0, 1.6664036134927003E9, 0.0, 2022-10-21 18:53:33.492
4.0, -111275.67872711168, -149629.72994205117, -74097.39632575469, -131900.37094359053, 44621.480360207606, -73661.9396402764, 36623.82502839864, -118038.69075044284, 0.034, 0.9440000000000001, 0.02, 192.0, 1.0, 16.0, 29.0, 128.0, 0.0, 160.0, 0.0, 0.0, 0.0, 1.6664036134927142E9, 0.0, 2022-10-21 18:53:33.492
5.0, -111280.4172969362, -149637.68716307727, -74103.27483454644, -131896.63820226648, 44616.987659572085, -73651.16609944894, 36630.284682546226, -118050.67128547089, 0.034, 0.9440000000000001, 0.02, 192.0, 0.0, 0.0, 0.0, 0.0, 0.0, 0.0, 0.0, 0.0, 0.0, 1.6664036134927292E9, 0.0, 2022-10-21 18:53:33.492
6.0, -111281.08784926985, -149625.17018618228, -74087.67331691663, -131879.56146950263, 44632.589177201895, -73640.01257896573, 36646.556752509685, -118027.29136077063, 0.034, 0.9440000000000001, 0.02, 192.0, 0.0, 0.0, 0.0, 0.0, 0.0, 0.0, 0.0, 0.0, 0.0, 1.6664036134927497E9, 0.0, 2022-10-21 18:53:33.492
7.0, -111261.75359031602, -149617.68235178976, -74075.87159584422, -131882.46719628182, 44639.160590071755, -73635.74339577477, 36647.29436007671, -118023.37980549096, 0.034, 0.9440000000000001, 0.02, 192.0, 0.0, 0.0, 0.0, 0.0, 0.0, 0.0, 0.0, 0.0, 0.0, 1.6664036134927633E9, 0.0, 2022-10-21 18:53:33.492
8.0, -111269.66610785319, -149626.13131119387, -74087.98624133901, -131893.26308885374, 44626.7330201546, -73649.73558780379, 36626.06020284417, -118041.30590454412, 0.034, 0.9440000000000001, 0.02, 192.0, 0.0, 0.0, 0.0, 0.0, 0.0, 0.0, 0.0, 0.0, 0.0, 1.666403613492778E9, 0.0, 2022-10-21 18:53:33.492
9.0, -111282.38425044826, -149635.13906420936, -74094.71411642004, -131894.26891735423, 44616.94295608318, -73645.57816333511, 36630.21762731286, -118040.613000466, 0.034, 0.9440000000000001, 0.02, 192.0, 0.0, 0.0, 0.0, 0.0, 0.0, 0.0, 0.0, 0.0, 0.0, 1.6664036134927917E9, 0.0, 2022-10-21 18:53:33.492
10.0, -111279.74674460254, -149632.23333743017, -74089.52851170642, -131880.6343532365, 44622.799113130466, -73632.83766899559, 36651.54119152322, -118032.49931722872, 0.034, 0.9440000000000001, 0.02, 192.0, 0.0, 0.0, 0.0, 0.0, 0.0, 0.0, 0.0, 0.0, 0.0, 1.6664036134928052E9, 0.0, 2022-10-21 18:53:33.492
11.0, -111265.79925606243, -149622.91265999232, -74075.9833545665, -131875.44874852285, 44636.45602899266, -73627.65206428195, 36658.514935793275, -118015.4002327204, 0.034, 0.9440000000000001, 0.02, 192.0, 0.0, 0.0, 0.0, 0.0, 0.0, 0.0, 0.0, 0.0, 0.0, 1.666403613492819E9, 0.0, 2022-10-21 18:53:33.492
12.0, -111270.15784623122, -149623.27028790358, -74075.62572665521, -131879.40500729144, 44636.299566781476, -73642.44891911137, 36637.92897914994, -118017.79186937714, 0.034, 0.9440000000000001, 0.02, 192.0, 0.0, 0.0, 0.0, 0.0, 0.0, 0.0, 0.0, 0.0, 0.0, 1.66640361349284E9, 0.0, 2022-10-21 18:53:33.492
13.0, -111274.53878814445, -149629.12644495087, -74091.71898266303, -131887.07165563962, 44620.474531707114, -73650.27202967073, 36627.02132785575, -118045.17275633488, 0.034, 0.9520000000000001, 0.018000000000000002, 192.0, 1.0, 16.0, 29.0, 192.0, 0.0, 144.0, 0.0, 0.0, 0.0, 1.6664036134928536E9, 0.0, 2022-10-21 18:53:33.492
14.0, -111271.85657880982, -149626.28777340506, -74082.06302905835, -131880.6343532365, 44622.709706152644, -73636.41394810843, 36647.4508222879, -118050.00073313723, 0.034, 0.9520000000000001, 0.018000000000000002, 192.0, 0.0, 0.0, 0.0, 0.0, 0.0, 0.0, 0.0, 0.0, 0.0, 1.6664036134928684E9, 0.0, 2022-10-21 18:53:33.492
15.0, -111275.07523001138, -149618.57642156797, -74071.87063358673, -131873.14651884395, 44639.96525287214, -73637.9338667314, 36653.686958990926, -118027.62663693746, 0.034, 0.9520000000000001, 0.018000000000000002, 192.0, 0.0, 0.0, 0.0, 0.0, 0.0, 0.0, 0.0, 0.0, 0.0, 1.666403613492896E9, 0.0, 2022-10-21 18:53:33.492
16.0, -111258.28906992545, -149612.0720639315, -74074.97752606601, -131877.37099854602, 44640.36758427234, -73643.83472726759, 36645.19329609791, -118017.6577589104, 0.034, 0.9520000000000001, 0.018000000000000002, 192.0, 0.0, 0.0, 0.0, 0.0, 0.0, 0.0, 0.0, 0.0, 0.0, 1.6664036134929097E9, 0.0, 2022-10-21 18:53:33.492
17.0, -111267.18506421866, -149613.86020348791, -74092.32247976333, -131898.35928658955, 44618.64168866178, -73658.92215477493, 36628.56359822316, -118044.54690749013, 0.034, 0.9520000000000001, 0.018000000000000002, 192.0, 0.0, 0.0, 0.0, 0.0, 0.0, 0.0, 0.0, 0.0, 0.0, 1.6664036134929233E9, 0.0, 2022-10-21 18:53:33.492
